DTS Sentinel unit serial number:	SN413079Multiplexer serial number:	ORYXHardware model number:	OX4-SRSoftware version number:	ORYX F/W v4.00 Oryx Data Collector v3.7.2.0data status	okinstallation	princeton_trtdifferential loss correction	single-endedforward channel	channel 2reverse channel	N/Adate	2019/09/14time	03:55:35forward acquisition time	60.00reverse acquisition time	0.00gamma	496.2192k internal	0.2336k external	0.2336temperature offset calibration	1.0125default loss term (dB/km)	0.3790temperature slope calibration	1.0000multiplexer offset coefficient	1.0000multiplexer slope coefficient	1.0000fibre end	0.00T internal ref (°C)	26.66T ext. ref 1 (°C)	3.30T ext. ref 2 (°C)	21.70length (m)	temperature (°C)	Stokes	anti-Stokes-747.200	-10.628	-0.021	0.014
-746.185	-44.517	-0.268	0.134
-745.171	93.259	0.255	0.290
-744.156	-91.478	0.299	0.086
-743.142	-98.721	-0.298	-0.076
-742.127	-77.031	-0.285	-0.100
-741.112	-59.465	0.262	-0.113
-740.098	-200.000	-0.039	0.182
-739.083	197.531	0.093	-0.142
-738.069	236.556	0.105	0.175
-737.054	-200.000	0.024	0.272
-736.039	322.530	-0.186	-0.355
-735.025	-198.359	-0.153	-0.001
-734.010	-119.916	-0.092	-0.016
-732.996	430.641	0.156	-0.340
-731.981	-89.654	-0.342	-0.101
-730.966	-200.000	-0.021	-0.254
-729.952	136.406	-0.078	0.102
-728.937	-137.420	0.221	-0.025
-727.923	44.086	-0.176	-0.162
-726.908	-174.699	-0.381	-0.011
-725.894	40.158	0.142	0.128
-724.879	-94.224	-0.184	-0.050
-723.864	-7.821	-0.151	0.102
-722.850	24.878	-0.144	-0.120
-721.835	567.723	-0.025	-0.060
-720.821	-90.634	-0.123	-0.036
-719.806	-122.202	-0.234	0.038
-718.791	800.000	0.084	-0.303
-717.777	800.000	0.014	0.047
-716.762	-66.745	-0.085	-0.034
-715.748	178.939	0.088	0.129
-714.733	-36.826	-0.231	0.124
-713.718	-59.595	-0.257	0.111
-712.704	-200.000	0.021	0.191
-711.689	43.028	-0.020	0.018
-710.675	-138.193	0.373	-0.041
-709.660	180.229	-0.113	0.167
-708.645	278.844	-0.060	0.108
-707.631	-200.000	-0.047	0.262
-706.616	-21.597	0.144	-0.088
-705.602	151.449	-0.158	-0.216
-704.587	-200.000	0.008	0.084
-703.572	-200.000	0.023	-0.243
-702.558	435.197	0.063	-0.137
-701.543	-5.346	0.061	-0.042
-700.529	-55.163	0.214	0.097
-699.514	-74.730	0.127	-0.046
-698.499	-200.000	0.009	-0.392
-697.485	-80.098	0.089	0.030
-696.470	49.193	0.151	-0.142
-695.456	-46.932	-0.323	-0.158
-694.441	-120.608	0.206	-0.035
-693.426	-72.544	-0.174	-0.064
-692.412	202.485	0.141	-0.218
-691.397	52.235	-0.272	-0.260
-690.383	185.675	0.159	-0.236
-689.368	-200.000	0.074	0.343
-688.354	-83.312	0.083	0.027
-687.339	126.100	0.065	-0.082
-686.324	-36.531	0.162	0.087
-685.310	-200.000	-0.052	-0.247
-684.295	-74.816	-0.072	0.026
-683.281	-106.012	-0.201	-0.045
-682.266	741.963	0.061	-0.164
-681.251	-47.314	0.050	0.025
-680.237	787.257	0.035	0.097
-679.222	391.269	-0.034	-0.071
-678.208	-200.000	-0.004	-0.265
-677.193	-59.132	-0.110	-0.047
-676.178	48.433	-0.254	-0.238
-675.164	-200.000	-0.081	-0.486
-674.149	239.903	0.150	-0.251
-673.135	-80.768	0.233	-0.078
-672.120	62.404	0.053	-0.053
-671.105	447.835	-0.031	-0.068
-670.091	-200.000	0.002	0.233
-669.076	-50.911	-0.260	-0.122
-668.062	-22.445	0.139	0.084
-667.047	-183.328	-0.177	-0.003
-666.032	-119.048	-0.186	-0.033
-665.018	6.873	-0.231	-0.172
-664.003	-57.730	-0.263	-0.115
-662.989	-200.000	0.034	0.181
-661.974	-139.892	-0.210	-0.022
-660.959	-200.000	-0.009	-0.184
-659.945	-144.350	0.096	-0.009
-658.930	-200.000	0.014	0.249
-657.916	478.975	0.182	0.411
-656.901	346.252	-0.138	-0.272
-655.886	80.226	-0.116	0.125
-654.872	414.561	-0.032	-0.068
-653.857	-83.412	0.169	-0.054
-652.843	-154.560	0.195	-0.013
-651.828	-121.506	0.091	0.015
-650.814	-80.386	0.191	-0.064
-649.799	28.306	0.259	-0.219
-648.784	-122.233	-0.302	-0.049
-647.770	-51.434	0.259	-0.121
-646.755	-156.641	0.195	0.012
-645.741	6.123	0.103	0.076
-644.726	-145.668	-0.113	0.010
-643.711	294.010	0.075	0.138
-642.697	-122.036	0.286	-0.047
-641.682	-200.000	-0.049	-0.305
-640.668	10.731	0.113	-0.086
-639.653	-200.000	-0.088	0.423
-638.638	-200.000	0.001	-0.283
-637.624	-200.000	0.002	0.045
-636.609	-34.561	0.044	-0.024
-635.595	800.000	-0.069	0.197
-634.580	-5.434	0.124	-0.085
-633.565	107.492	-0.155	-0.184
-632.551	4.589	0.091	-0.067
-631.536	74.017	0.334	0.350
-630.522	800.000	-0.092	0.319
-629.507	-200.000	-0.038	-0.274
-628.492	173.272	0.029	-0.042
-627.478	-200.000	-0.025	-0.128
-626.463	800.000	0.064	0.270
-625.449	-200.000	-0.018	-0.152
-624.434	800.000	-0.075	0.261
-623.419	-172.226	0.199	-0.006
-622.405	436.951	-0.071	-0.154
-621.390	9.089	-0.056	0.042
-620.376	-41.443	0.477	-0.245
-619.361	99.071	-0.146	0.169
-618.346	749.614	0.028	0.076
-617.332	-102.885	-0.300	-0.071
-616.317	24.977	-0.186	0.154
-615.303	-200.000	-0.030	-0.164
-614.288	-200.000	-0.043	-0.374
-613.273	-1.436	0.370	-0.261
-612.259	214.766	-0.197	-0.312
-611.244	-52.792	0.253	0.117
-610.230	29.833	-0.092	0.078
-609.215	-46.817	-0.158	-0.077
-608.201	-200.000	0.044	0.349
-607.186	-180.773	0.154	0.003
-606.171	118.615	-0.169	0.209
-605.157	-3.667	-0.279	0.194
-604.142	-200.000	-0.036	0.281
-603.128	0.169	0.033	0.023
-602.113	-67.285	-0.320	-0.126
-601.098	-43.669	-0.282	-0.142
-600.084	123.087	-0.058	0.073
-599.069	373.972	0.093	0.190
-598.055	-25.656	0.242	-0.142
-597.040	-92.351	0.315	0.089
-596.025	800.000	0.048	-0.162
-595.011	-181.125	-0.141	-0.003
-593.996	149.569	-0.099	0.134
-592.982	143.722	-0.201	0.268
-591.967	-130.091	-0.095	-0.013
-590.952	-39.386	-0.218	0.114
-589.938	-88.936	-0.184	0.055
-588.923	-170.739	0.462	0.016
-587.909	27.000	-0.305	-0.255
-586.894	-161.547	-0.388	-0.020
-585.879	800.000	-0.025	0.074
-584.865	-66.842	-0.103	0.041
-583.850	156.039	-0.092	0.127
-582.836	257.433	0.111	-0.191
-581.821	92.206	0.150	-0.168
-580.806	65.046	0.074	-0.075
-579.792	41.234	0.139	0.125
-578.777	-200.000	-0.008	0.161
-577.763	-117.806	0.194	0.035
-576.748	800.000	0.029	-0.089
-575.733	210.778	-0.210	0.329
-574.719	237.055	-0.019	-0.031
-573.704	7.620	0.213	-0.159
-572.690	128.849	-0.258	-0.328
-571.675	-45.579	-0.084	0.041
-570.661	-41.761	-0.346	0.177
-569.646	-22.262	0.146	0.088
-568.631	-200.000	-0.031	0.000
-567.617	-36.255	-0.048	-0.026
-566.602	800.000	-0.057	0.251
-565.588	-71.890	-0.234	0.087
-564.573	-139.737	0.091	-0.010
-563.558	-90.292	-0.274	-0.079
-562.544	284.867	-0.137	-0.246
-561.529	-72.845	-0.052	0.019
-560.515	39.074	-0.015	0.013
-559.500	-34.152	-0.296	-0.162
-558.485	-117.753	-0.191	0.034
-557.471	-0.593	-0.047	-0.034
-556.456	264.790	0.271	-0.470
-555.442	159.081	-0.115	0.159
-554.427	160.984	0.148	0.207
-553.412	169.683	-0.078	-0.110
-552.398	800.000	0.060	0.176
-551.383	-200.000	0.061	-0.321
-550.369	113.231	0.134	-0.162
-549.354	97.819	-0.049	0.056
-548.339	-200.000	0.289	-0.001
-547.325	93.677	0.239	0.270
-546.310	-200.000	0.017	0.209
-545.296	-41.891	-0.263	0.134
-544.281	-78.531	0.168	-0.057
-543.266	366.402	0.136	-0.274
-542.252	-184.568	-0.001	0.000
-541.237	-200.000	-0.062	-0.272
-540.223	-36.918	0.187	0.100
-539.208	374.711	0.054	-0.109
-538.193	232.245	0.095	0.155
-537.179	29.141	0.275	-0.233
-536.164	12.830	-0.206	0.158
-535.150	-104.083	-0.040	0.009
-534.135	97.764	-0.181	0.208
-533.121	237.300	-0.090	-0.149
-532.106	800.000	-0.069	0.279
-531.091	98.046	0.050	0.058
-530.077	-137.217	-0.085	0.010
-529.062	132.619	-0.197	-0.253
-528.048	-80.231	-0.397	-0.132
-527.033	88.259	0.417	0.461
-526.018	314.775	0.132	0.249
-525.004	4.076	0.078	-0.057
-523.989	-200.000	0.027	0.150
-522.975	-200.000	0.030	0.171
-521.960	-105.089	0.156	0.036
-520.945	-197.109	-0.276	-0.002
-519.931	23.232	-0.203	-0.166
-518.916	-108.733	0.091	-0.019
-517.902	-200.000	0.061	-0.396
-516.887	-107.232	-0.272	-0.060
-515.872	344.322	0.044	-0.085
-514.858	522.395	0.139	-0.325
-513.843	423.935	-0.244	-0.523
-512.829	106.232	0.339	-0.400
-511.814	678.027	-0.039	0.101
-510.799	676.116	-0.102	-0.265
-509.785	800.000	-0.031	-0.104
-508.770	-200.000	-0.077	0.425
-507.756	22.824	-0.330	-0.269
-506.741	7.574	-0.126	0.093
-505.726	-26.946	-0.224	-0.130
-504.712	470.683	0.071	0.160
-503.697	-200.000	0.029	0.270
-502.683	-200.000	0.023	-0.212
-501.668	-156.014	-0.177	0.011
-500.653	-200.000	0.034	0.333
-499.639	59.095	0.194	0.190
-498.624	-108.204	0.272	-0.059
-497.610	-200.000	-0.008	-0.082
-496.595	-200.000	-0.016	-0.278
-495.581	800.000	-0.090	-0.255
-494.566	18.360	-0.141	0.112
-493.551	800.000	-0.018	-0.059
-492.537	-95.948	0.135	-0.036
-491.522	800.000	-0.071	-0.281
-490.508	18.837	-0.069	0.055
-489.493	-116.325	-0.325	0.060
-488.478	-200.000	0.033	-0.279
-487.464	38.101	0.217	-0.192
-486.449	61.731	0.268	0.265
-485.435	-6.489	0.314	0.213
-484.420	-117.795	-0.239	-0.043
-483.405	-200.000	0.042	-0.319
-482.391	-16.787	0.206	-0.130
-481.376	-200.000	-0.007	-0.168
-480.362	-122.130	-0.346	0.056
-479.347	21.058	-0.123	-0.099
-478.332	-191.832	-0.094	0.001
-477.318	36.518	-0.204	-0.179
-476.303	1.273	-0.073	-0.052
-475.289	472.004	-0.095	-0.213
-474.274	137.422	-0.107	-0.139
-473.259	-0.367	0.129	0.091
-472.245	-38.820	0.199	0.104
-471.230	95.686	0.147	0.166
-470.216	-200.000	0.068	0.400
-469.201	-126.045	-0.296	0.044
-468.186	-200.000	-0.019	-0.124
-467.172	-58.325	0.283	-0.122
-466.157	-73.057	0.269	-0.098
-465.143	271.403	0.182	-0.318
-464.128	-124.516	-0.041	0.006
-463.113	-93.984	0.091	-0.025
-462.099	350.229	0.101	0.198
-461.084	-75.575	0.210	-0.074
-460.070	109.203	0.039	0.046
-459.055	-200.000	-0.061	-0.307
-458.040	20.811	0.209	-0.168
-457.026	-3.858	-0.172	0.119
-456.011	25.964	0.142	0.118
-454.997	800.000	-0.092	-0.357
-453.982	-83.351	0.227	-0.072
-452.968	107.646	-0.113	-0.134
-451.953	-158.109	-0.102	0.006
-450.938	-200.000	-0.032	0.306
-449.924	800.000	0.082	0.264
-448.909	-102.289	-0.226	-0.054
-447.895	1.946	-0.162	-0.116
-446.880	-78.333	0.194	0.066
-445.865	-133.188	-0.409	0.051
-444.851	-200.000	0.008	-0.152
-443.836	-200.000	-0.009	-0.267
-442.822	-140.090	-0.559	0.058
-441.807	-200.000	0.026	-0.121
-440.792	294.944	0.201	0.365
-439.778	28.484	-0.320	0.269
-438.763	800.000	-0.126	-0.361
-437.749	35.205	0.140	0.121
-436.734	500.859	0.113	0.258
-435.719	-9.603	-0.313	0.207
-434.705	-80.969	-0.077	-0.025
-433.690	800.000	0.025	0.085
-432.676	210.329	-0.181	-0.282
-431.661	-35.136	-0.269	-0.146
-430.646	-200.000	-0.000	-0.108
-429.632	3.100	0.150	-0.108
-428.617	-24.099	-0.448	0.266
-427.603	-200.000	-0.024	-0.129
-426.588	-94.764	-0.048	-0.013
-425.573	-32.044	0.192	0.106
-424.559	-85.131	0.097	-0.030
-423.544	30.730	0.165	-0.140
-422.530	800.000	-0.019	0.054
-421.515	515.974	-0.100	-0.232
-420.500	-182.508	-0.474	0.009
-419.486	183.991	-0.029	0.042
-418.471	299.655	0.164	0.300
-417.457	800.000	0.067	0.249
-416.442	67.766	-0.167	-0.169
-415.428	725.480	-0.085	0.225
-414.413	2.930	0.244	-0.176
-413.398	-183.908	0.221	-0.004
-412.384	-200.000	0.036	0.328
-411.369	800.000	-0.044	0.125
-410.355	-200.000	0.020	-0.173
-409.340	-68.044	-0.433	-0.167
-408.325	-200.000	0.005	0.045
-407.311	-115.469	-0.061	0.011
-406.296	800.000	-0.028	-0.080
-405.282	-129.626	0.062	0.008
-404.267	-103.343	-0.210	0.049
-403.252	-4.301	0.239	0.164
-402.238	90.954	0.063	-0.070
-401.223	351.769	0.155	-0.304
-400.209	208.331	0.117	-0.182
-399.194	-42.360	-0.345	0.175
-398.179	10.354	-0.332	0.250
-397.165	366.093	0.009	0.017
-396.150	-200.000	0.004	-0.141
-395.136	-200.000	-0.014	-0.171
-394.121	556.984	-0.096	-0.230
-393.106	16.567	-0.134	-0.105
-392.092	-172.775	-0.279	0.009
-391.077	-11.898	-0.095	-0.062
-390.063	437.604	-0.035	0.075
-389.048	-1.730	0.125	-0.087
-388.033	-200.000	0.020	-0.188
-387.019	-131.198	0.252	-0.033
-386.004	800.000	0.053	0.145
-384.990	-85.315	0.098	-0.030
-383.975	-104.483	-0.219	0.050
-382.960	-36.412	0.033	0.017
-381.946	31.498	-0.237	0.202
-380.931	-137.906	0.309	0.034
-379.917	-97.464	-0.250	-0.064
-378.902	760.907	0.119	0.320
-377.888	101.807	0.034	0.039
-376.873	178.886	0.095	-0.138
-375.858	-200.000	0.001	-0.301
-374.844	800.000	-0.113	0.338
-373.829	149.434	-0.215	-0.288
-372.815	409.350	-0.046	0.096
-371.800	-80.622	-0.276	0.091
-370.785	501.430	0.060	-0.138
-369.771	70.293	0.027	0.028
-368.756	-124.137	-0.070	0.011
-367.742	395.647	0.136	0.281
-366.727	-67.139	0.301	0.117
-365.712	77.990	-0.070	0.074
-364.698	-65.607	-0.079	-0.031
-363.683	800.000	0.026	-0.108
-362.669	62.142	-0.185	-0.182
-361.654	-200.000	-0.028	0.323
-360.639	19.906	0.252	-0.201
-359.625	265.458	0.127	-0.220
-358.610	598.558	0.046	-0.114
-357.596	-32.289	-0.023	0.013
-356.581	412.803	-0.124	0.261
-355.566	-161.555	0.337	0.017
-354.552	324.041	0.048	-0.091
-353.537	-109.993	0.176	0.036
-352.523	-46.823	0.478	-0.231
-351.508	-94.022	0.258	-0.070
-350.493	-4.280	0.181	-0.124
-349.479	-144.851	0.333	0.030
-348.464	-4.810	-0.309	-0.211
-347.450	57.658	0.048	0.047
-346.435	-55.254	-0.239	-0.106
-345.420	24.256	-0.093	0.076
-344.406	-51.699	-0.284	0.131
-343.391	224.616	-0.160	0.256
-342.377	38.689	0.360	0.317
-341.362	67.409	0.135	-0.137
-340.348	232.257	0.096	0.156
-339.333	217.947	0.188	0.297
-338.318	-112.735	-0.161	0.032
-337.304	-98.816	-0.259	-0.065
-336.289	24.191	0.035	-0.028
-335.275	77.027	0.128	-0.135
-334.260	-147.655	0.256	-0.021
-333.245	-65.926	-0.324	0.128
-332.231	-200.000	0.052	-0.378
-331.216	-16.027	0.096	0.060
-330.202	-153.217	0.131	-0.009
-329.187	-200.000	-0.004	0.239
-328.172	-117.059	-0.175	-0.032
-327.158	137.414	-0.191	-0.247
-326.143	-133.604	0.191	0.024
-325.129	-25.055	0.317	0.185
-324.114	270.231	-0.003	-0.005
-323.099	0.639	-0.073	0.052
-322.085	372.500	0.130	0.262
-321.070	-66.121	0.483	0.190
-320.056	29.412	-0.174	-0.146
-319.041	-129.355	-0.309	0.042
-318.026	1.823	0.057	0.041
-317.012	-180.694	0.375	-0.008
-315.997	-40.976	-0.056	0.029
-314.983	-195.882	0.170	0.001
-313.968	84.952	0.131	0.142
-312.953	-52.667	0.199	0.091
-311.939	-200.000	0.003	0.121
-310.924	-200.000	0.005	-0.123
-309.910	54.229	-0.093	0.088
-308.895	-79.869	0.132	0.044
-307.880	-45.995	0.215	0.105
-306.866	-200.000	-0.019	0.101
-305.851	244.611	0.140	-0.232
-304.837	-14.284	-0.134	0.085
-303.822	-200.000	0.025	0.227
-302.807	-50.910	-0.264	0.122
-301.793	-175.585	-0.029	0.001
-300.778	800.000	0.061	0.232
-299.764	800.000	-0.090	-0.289
-298.749	58.921	0.159	0.154
-297.735	-117.815	-0.220	-0.039
-296.720	-110.478	0.034	0.007
-295.705	4.730	-0.087	-0.063
-294.691	-200.000	0.047	-0.251
-293.676	-24.625	-0.280	-0.165
-292.662	-26.385	0.178	0.103
-291.647	-200.000	0.007	-0.226
-290.632	271.689	-0.031	-0.053
-289.618	-34.510	0.300	-0.162
-288.603	273.449	-0.199	0.347
-287.589	-174.928	-0.253	0.007
-286.574	-83.960	0.243	-0.076
-285.559	327.351	0.043	0.081
-284.545	-106.634	-0.155	-0.034
-283.530	-10.336	0.047	0.030
-282.516	-200.000	0.002	0.247
-281.501	238.077	-0.035	0.058
-280.486	25.224	0.111	-0.091
-279.472	-111.267	-0.244	0.049
-278.457	800.000	0.067	-0.281
-277.443	190.321	0.212	0.314
-276.428	-36.927	-0.143	0.075
-275.413	-200.000	0.007	-0.156
-274.399	-66.088	0.063	-0.025
-273.384	-75.892	0.188	-0.066
-272.370	96.741	0.052	-0.058
-271.355	-167.054	0.177	-0.007
-270.340	-200.000	-0.001	0.369
-269.326	295.613	0.072	0.129
-268.311	440.671	0.055	-0.118
-267.297	200.945	-0.194	0.294
-266.282	-59.690	0.053	-0.022
-265.267	99.185	0.195	0.222
-264.253	79.363	-0.191	-0.202
-263.238	-200.000	-0.017	-0.160
-262.224	800.000	-0.095	-0.374
-261.209	-59.263	0.138	-0.059
-260.195	-200.000	-0.021	0.158
-259.180	800.000	0.030	0.081
-258.165	-22.988	0.168	0.100
-257.151	800.000	-0.081	-0.264
-256.136	55.867	-0.190	-0.181
-255.122	76.543	-0.090	0.094
-254.107	-200.000	-0.108	0.514
-253.092	255.575	0.125	0.212
-252.078	-200.000	-0.020	-0.354
-251.063	-200.000	-0.025	0.460
-250.049	-200.000	-0.016	-0.166
-249.034	-200.000	0.015	-0.167
-248.019	-107.129	-0.154	0.033
-247.005	800.000	-0.135	0.414
-245.990	146.725	0.100	-0.132
-244.976	195.461	0.077	0.115
-243.961	104.902	0.051	0.059
-242.946	-200.000	0.026	0.115
-241.932	-115.836	0.482	-0.089
-240.917	-121.296	-0.277	-0.046
-239.903	800.000	0.082	-0.327
-238.888	-200.000	-0.030	0.129
-237.873	-27.172	0.348	0.199
-236.859	-71.711	0.402	0.148
-235.844	50.492	0.133	0.124
-234.830	-48.044	-0.168	-0.080
-233.815	-129.107	-0.067	0.009
-232.800	-19.058	-0.133	0.081
-231.786	-200.000	-0.018	-0.224
-230.771	-32.429	-0.344	-0.189
-229.757	-46.841	0.273	0.132
-228.742	-12.096	0.133	-0.086
-227.727	-105.004	0.132	0.030
-226.713	-39.749	0.117	0.060
-225.698	-24.408	-0.282	-0.165
-224.684	132.896	0.067	-0.085
-223.669	-89.825	0.234	-0.067
-222.655	-126.945	-0.211	-0.031
-221.640	-200.000	-0.031	-0.140
-220.625	-25.561	0.102	0.059
-219.611	-103.464	0.283	-0.065
-218.596	-136.455	-0.143	-0.016
-217.582	-200.000	0.033	0.217
-216.567	5.916	-0.118	-0.086
-215.552	21.762	-0.067	-0.054
-214.538	-200.000	0.041	0.395
-213.523	48.029	0.281	0.258
-212.509	26.006	0.306	-0.251
-211.494	355.685	0.104	-0.204
-210.479	37.504	-0.334	-0.292
-209.465	-41.903	0.129	-0.065
-208.450	800.000	-0.050	0.202
-207.436	-114.175	0.206	0.039
-206.421	-200.000	-0.008	0.076
-205.406	349.613	0.077	-0.149
-204.392	-200.000	-0.038	-0.319
-203.377	-50.450	-0.147	-0.068
-202.363	67.954	-0.312	0.314
-201.348	-36.836	0.068	0.036
-200.333	300.976	0.192	-0.348
-199.319	-21.696	0.117	0.070
-198.304	-200.000	-0.023	0.425
-197.290	24.423	0.182	0.148
-196.275	-27.894	-0.067	-0.038
-195.260	800.000	-0.095	0.276
-194.246	-200.000	-0.010	-0.110
-193.231	-200.000	-0.033	-0.377
-192.217	-36.273	-0.068	-0.036
-191.202	47.206	-0.077	0.070
-190.187	58.503	0.060	0.058
-189.173	-147.083	0.239	0.020
-188.158	-136.911	0.141	-0.016
-187.144	18.152	-0.315	0.247
-186.129	-130.886	-0.053	0.007
-185.114	-25.994	-0.024	-0.014
-184.100	800.000	-0.027	0.110
-183.085	-148.359	-0.370	0.030
-182.071	-103.473	-0.324	-0.075
-181.056	800.000	-0.121	0.388
-180.042	-82.351	0.047	0.015
-179.027	50.875	0.154	0.143
-178.012	-124.575	-0.179	0.027
-176.998	-128.792	0.283	-0.039
-175.983	-200.000	0.006	-0.112
-174.969	-58.078	-0.123	0.053
-173.954	346.535	0.106	-0.204
-172.939	-200.000	-0.027	0.209
-171.925	-72.103	0.158	0.058
-170.910	-73.502	-0.216	0.078
-169.896	-17.064	-0.117	-0.072
-168.881	800.000	-0.033	0.101
-167.866	711.319	0.124	-0.322
-166.852	-200.000	0.058	0.346
-165.837	-200.000	-0.054	0.254
-164.823	60.503	0.329	-0.320
-163.808	-200.000	-0.011	0.064
-162.793	-47.402	-0.313	-0.150
-161.779	-29.132	0.369	-0.208
-160.764	-59.708	0.057	0.024
-159.750	-200.000	0.051	0.362
-158.735	800.000	0.005	0.020
-157.720	31.713	0.108	0.092
-156.706	86.366	-0.097	0.105
-155.691	-80.557	-0.246	-0.080
-154.677	-99.728	0.106	0.026
-153.662	-200.000	0.007	-0.135
-152.647	-200.000	0.187	0.000
-151.633	277.796	0.101	-0.176
-150.618	155.473	-0.092	0.124
-149.604	-200.000	0.027	-0.318
-148.589	800.000	0.085	-0.281
-147.574	10.284	-0.220	-0.165
-146.560	-122.533	-0.318	-0.051
-145.545	653.711	-0.062	0.157
-144.531	114.973	0.202	0.241
-143.516	-53.547	-0.055	0.025
-142.502	-175.511	-0.490	-0.013
-141.487	-137.520	0.102	0.011
-140.472	-200.000	-0.070	-0.421
-139.458	97.188	0.089	-0.100
-138.443	-63.994	0.199	0.080
-137.429	-96.629	0.065	-0.017
-136.414	53.493	-0.237	-0.223
-135.399	-200.000	0.004	0.460
-134.385	101.963	0.241	0.276
-133.370	54.167	-0.224	-0.211
-132.356	9.896	0.175	0.130
-131.341	524.226	0.076	-0.176
-130.326	-10.802	0.200	0.130
-129.312	-79.238	-0.150	0.050
-128.297	19.039	0.322	-0.253
-127.283	149.379	0.056	-0.074
-126.268	-200.000	0.009	-0.106
-125.253	773.846	-0.063	0.169
-124.239	-26.854	0.286	-0.164
-123.224	2.261	-0.014	0.010
-122.210	800.000	-0.065	-0.237
-121.195	-49.238	0.232	0.108
