DTS Sentinel unit serial number:	SN413079Multiplexer serial number:	ORYXHardware model number:	OX4-SRSoftware version number:	ORYX F/W v4.00 Oryx Data Collector v3.7.2.0data status	okinstallation	princeton_trtdifferential loss correction	single-endedforward channel	channel 2reverse channel	N/Adate	2019/09/14time	17:35:35forward acquisition time	60.00reverse acquisition time	0.00gamma	496.2192k internal	0.2311k external	0.2311temperature offset calibration	1.0114default loss term (dB/km)	0.3790temperature slope calibration	1.0000multiplexer offset coefficient	1.0000multiplexer slope coefficient	1.0000fibre end	0.00T internal ref (°C)	37.59T ext. ref 1 (°C)	5.04T ext. ref 2 (°C)	32.20length (m)	temperature (°C)	Stokes	anti-Stokes-747.200	252.469	0.098	0.169
-746.185	800.000	0.012	0.033
-745.171	-116.323	-0.193	0.036
-744.156	359.319	0.188	0.381
-743.142	121.926	-0.012	-0.015
-742.127	-200.000	-0.003	-0.121
-741.112	-82.322	0.111	0.037
-740.098	-39.413	0.194	-0.103
-739.083	40.277	0.166	0.151
-738.069	200.114	0.146	0.228
-737.054	-23.148	-0.166	0.101
-736.039	29.814	0.174	-0.150
-735.025	800.000	-0.010	0.033
-734.010	-91.520	0.212	-0.061
-732.996	271.027	0.156	0.279
-731.981	28.459	-0.272	0.233
-730.966	63.146	-0.142	0.144
-729.952	-200.000	-0.045	0.252
-728.937	139.020	0.141	0.189
-727.923	-200.000	0.005	0.060
-726.908	-85.971	-0.465	-0.146
-725.894	-197.133	-0.407	0.003
-724.879	-200.000	-0.002	-0.026
-723.864	-79.856	0.218	-0.074
-722.850	-63.124	-0.291	-0.122
-721.835	-199.135	0.059	-0.000
-720.821	-5.967	-0.109	-0.076
-719.806	800.000	-0.075	-0.292
-718.791	-148.834	-0.210	0.017
-717.777	5.337	-0.289	-0.216
-716.762	-157.051	-0.401	-0.025
-715.748	-200.000	0.018	-0.280
-714.733	-200.000	-0.017	0.257
-713.718	79.866	0.098	-0.107
-712.704	12.021	-0.324	0.252
-711.689	40.793	0.047	0.043
-710.675	-173.939	-0.283	0.008
-709.660	-80.199	0.216	0.073
-708.645	414.790	0.091	-0.197
-707.631	-82.740	-0.114	0.038
-706.616	69.438	-0.126	-0.131
-705.602	40.779	-0.020	-0.019
-704.587	-152.456	-0.165	-0.012
-703.572	-63.604	0.164	0.068
-702.558	800.000	0.094	0.294
-701.543	-82.579	-0.120	0.039
-700.529	18.766	0.087	-0.071
-699.514	-129.904	0.291	-0.040
-698.499	30.167	-0.111	0.096
-697.485	46.949	-0.067	0.063
-696.470	-143.216	0.175	0.017
-695.456	-147.221	0.366	0.032
-694.441	800.000	-0.093	-0.354
-693.426	54.636	-0.102	-0.100
-692.412	445.310	-0.082	-0.183
-691.397	800.000	0.132	-0.397
-690.383	-200.000	-0.037	-0.309
-689.368	-70.855	-0.156	-0.060
-688.354	-200.000	0.026	-0.175
-687.339	-200.000	-0.102	0.000
-686.324	-200.000	-0.084	-0.445
-685.310	710.000	-0.089	-0.238
-684.295	-200.000	0.020	-0.121
-683.281	32.318	0.191	-0.167
-682.266	463.461	-0.107	0.242
-681.251	136.969	0.111	0.148
-680.237	756.355	-0.092	0.253
-679.222	-166.424	-0.102	-0.004
-678.208	-200.000	-0.395	-0.001
-677.193	20.143	0.205	0.167
-676.178	210.438	-0.062	0.099
-675.164	95.110	-0.219	-0.253
-674.149	-174.776	0.379	-0.011
-673.135	-44.408	0.448	-0.227
-672.120	-39.573	0.291	0.154
-671.105	800.000	-0.023	-0.067
-670.091	-76.392	0.148	-0.053
-669.076	-200.000	0.058	-0.347
-668.062	366.412	-0.092	-0.188
-667.047	-38.252	0.201	-0.108
-666.032	265.007	-0.106	-0.188
-665.018	216.097	-0.235	0.379
-664.003	-189.361	-0.325	-0.004
-662.989	-200.000	0.018	0.137
-661.974	195.521	0.205	0.315
-660.959	30.520	-0.420	0.363
-659.945	-13.387	-0.372	0.244
-658.930	18.404	0.239	0.193
-657.916	385.578	-0.057	-0.120
-656.901	-66.397	-0.154	0.062
-655.886	225.720	0.216	-0.354
-654.872	-200.000	-0.068	-0.322
-653.857	-106.010	0.176	0.040
-652.843	-200.000	-0.052	-0.249
-651.828	-200.000	0.032	-0.216
-650.814	544.881	-0.169	-0.409
-649.799	-120.736	0.307	0.052
-648.784	800.000	0.050	-0.170
-647.770	382.452	0.096	0.200
-646.755	538.880	0.021	-0.050
-645.741	-4.474	-0.109	0.076
-644.726	-6.755	-0.264	0.182
-643.711	-200.000	-0.007	0.031
-642.697	-140.325	0.017	0.002
-641.682	44.419	-0.065	0.060
-640.668	-104.236	-0.166	-0.039
-639.653	9.454	-0.091	-0.070
-638.638	93.729	-0.151	-0.173
-637.624	280.127	0.243	-0.438
-636.609	0.571	0.113	0.082
-635.595	150.774	-0.179	-0.246
-634.580	-200.000	0.040	-0.200
-633.565	-186.669	-0.208	0.003
-632.551	121.517	-0.170	0.214
-631.536	-200.000	-0.005	0.074
-630.522	477.170	0.076	0.173
-629.507	800.000	0.010	-0.040
-628.492	233.799	0.065	-0.108
-627.478	295.228	0.119	-0.220
-626.463	-151.777	-0.178	-0.013
-625.449	172.210	0.052	0.075
-624.434	-200.000	0.009	0.283
-623.419	62.469	-0.110	-0.111
-622.405	60.114	-0.231	-0.231
-621.390	45.853	-0.213	0.199
-620.376	74.086	0.091	-0.097
-619.361	-200.000	-0.008	0.346
-618.346	-200.000	-0.002	0.019
-617.332	452.989	-0.027	0.060
-616.317	-93.129	0.125	-0.035
-615.303	225.805	-0.112	0.183
-614.288	-69.326	-0.382	-0.148
-613.273	-2.889	0.186	0.131
-612.259	800.000	0.045	0.154
-611.244	800.000	0.061	0.218
-610.230	-77.070	0.203	0.071
-609.215	-200.000	-0.018	0.160
-608.201	139.310	0.016	-0.022
-607.186	-56.808	-0.056	-0.025
-606.171	478.396	0.087	-0.198
-605.157	-43.725	0.357	-0.181
-604.142	-123.743	-0.164	0.026
-603.128	-200.000	0.039	-0.196
-602.113	135.749	-0.180	0.236
-601.098	-200.000	-0.050	0.386
-600.084	334.593	0.145	-0.283
-599.069	88.388	0.189	0.212
-598.055	-68.113	0.232	0.091
-597.040	-85.395	0.300	0.094
-596.025	246.914	0.063	0.107
-595.011	157.807	-0.155	-0.217
-593.996	274.302	-0.132	0.235
-592.982	-64.354	-0.072	0.029
-591.967	443.923	0.051	0.112
-590.952	366.700	-0.155	-0.317
-589.938	-92.866	-0.141	-0.040
-588.923	31.796	0.051	-0.044
-587.909	-95.643	-0.248	0.067
-586.894	193.667	-0.111	-0.170
-585.879	308.311	-0.079	0.149
-584.865	219.133	0.261	0.422
-583.850	800.000	0.081	0.342
-582.836	800.000	0.071	-0.255
-581.821	-118.522	0.508	-0.091
-580.806	-200.000	-0.397	-0.000
-579.792	3.967	0.121	0.089
-578.777	800.000	-0.093	0.295
-577.763	496.773	-0.046	-0.107
-576.748	-134.471	0.291	-0.036
-575.733	-36.512	0.242	-0.131
-574.719	400.547	-0.055	-0.116
-573.704	-77.148	-0.166	-0.058
-572.690	-193.618	0.035	-0.000
-571.675	-200.000	0.007	0.170
-570.661	13.663	0.144	0.113
-569.646	606.822	0.025	0.062
-568.631	-17.366	-0.116	-0.073
-567.617	61.825	-0.144	-0.145
-566.602	-200.000	-0.031	0.175
-565.588	-72.516	0.473	0.176
-564.573	347.094	0.183	0.363
-563.558	-112.711	-0.059	-0.012
-562.544	121.536	-0.085	-0.107
-561.529	468.089	0.097	-0.219
-560.515	-47.809	0.101	-0.049
-559.500	-98.615	0.162	-0.042
-558.485	216.206	0.291	-0.467
-557.471	21.536	-0.356	-0.292
-556.456	800.000	0.104	-0.314
-555.442	-200.000	0.020	-0.125
-554.427	-138.088	-0.298	0.033
-553.412	4.712	0.064	0.047
-552.398	-134.012	-0.092	0.011
-551.383	356.510	-0.082	-0.164
-550.369	237.232	0.148	0.248
-549.354	134.179	-0.088	-0.116
-548.339	-200.000	0.049	0.266
-547.325	-89.604	-0.257	0.076
-546.310	77.434	0.087	-0.093
-545.296	-50.070	-0.184	0.088
-544.281	-27.955	-0.306	-0.179
-543.266	-22.970	0.089	-0.054
-542.252	-200.000	-0.016	0.119
-541.237	-200.000	0.058	-0.261
-540.223	36.278	-0.181	-0.161
-539.208	-121.871	-0.114	0.019
-538.193	-97.883	0.195	0.051
-537.179	-11.619	0.246	-0.163
-536.164	-90.057	0.261	0.077
-535.150	16.564	-0.043	-0.035
-534.135	-200.000	-0.019	-0.130
-533.121	-200.000	-0.001	0.021
-532.106	800.000	-0.072	-0.209
-531.091	9.349	0.066	-0.050
-530.077	35.910	-0.211	0.186
-529.062	-56.182	0.155	0.069
-528.048	-59.743	-0.133	0.057
-527.033	-50.254	-0.082	0.039
-526.018	120.788	-0.300	-0.375
-525.004	800.000	-0.041	-0.151
-523.989	188.726	-0.104	-0.157
-522.975	252.609	-0.227	0.389
-521.960	126.964	-0.091	0.116
-520.945	800.000	-0.025	-0.091
-519.931	800.000	0.048	-0.161
-518.916	-152.528	0.037	-0.003
-517.902	800.000	0.120	-0.485
-516.887	-154.271	0.331	-0.022
-515.872	154.290	0.104	0.144
-514.858	800.000	-0.008	-0.029
-513.843	68.399	-0.123	-0.127
-512.829	4.765	-0.013	0.009
-511.814	-71.183	0.378	-0.143
-510.799	33.615	-0.189	-0.165
-509.785	-27.751	-0.101	-0.059
-508.770	217.413	-0.064	0.103
-507.756	281.509	0.129	0.232
-506.741	523.173	0.111	-0.262
-505.726	189.542	-0.128	-0.193
-504.712	710.766	0.015	-0.040
-503.697	177.222	-0.181	-0.265
-502.683	218.060	0.228	-0.366
-501.668	-200.000	0.018	-0.178
-500.653	266.007	-0.144	-0.252
-499.639	40.919	-0.124	-0.112
-498.624	-102.896	-0.297	0.071
-497.610	120.680	0.071	0.089
-496.595	766.750	-0.127	0.348
-495.581	130.656	0.284	0.366
-494.566	470.110	0.059	0.134
-493.551	-94.536	0.386	0.106
-492.537	44.789	0.294	-0.272
-491.522	105.944	-0.160	-0.191
-490.508	335.742	0.039	0.076
-489.493	239.285	-0.160	0.268
-488.478	-41.850	0.252	-0.130
-487.464	193.338	-0.254	-0.386
-486.449	-44.553	-0.111	0.056
-485.435	25.961	-0.177	-0.148
-484.420	-200.000	0.008	-0.170
-483.405	90.535	-0.016	-0.019
-482.391	-75.580	-0.164	0.059
-481.376	-14.631	0.344	-0.222
-480.362	-200.000	-0.003	-0.110
-479.347	423.457	0.102	-0.220
-478.332	42.527	0.147	0.135
-477.318	100.541	0.208	-0.243
-476.303	65.996	-0.149	-0.152
-475.289	16.859	-0.225	0.179
-474.274	-196.621	-0.063	0.000
-473.259	556.786	-0.077	-0.187
-472.245	135.949	-0.091	-0.119
-471.230	-24.990	0.170	-0.102
-470.216	-164.046	0.169	-0.008
-469.201	-200.000	0.022	-0.249
-468.186	-200.000	0.023	0.269
-467.172	697.572	-0.117	0.310
-466.157	-34.939	-0.130	-0.071
-465.143	-22.700	-0.109	-0.066
-464.128	548.210	0.125	0.301
-463.113	388.427	0.059	0.123
-462.099	800.000	0.065	0.183
-461.084	286.251	0.144	-0.260
-460.070	444.196	-0.025	0.055
-459.055	-48.186	0.429	-0.208
-458.040	2.617	-0.272	-0.198
-457.026	-103.212	0.325	-0.077
-456.011	483.296	-0.092	-0.210
-454.997	-11.016	-0.251	-0.166
-453.982	-200.000	-0.019	-0.180
-452.968	326.088	-0.108	-0.208
-451.953	800.000	-0.074	-0.277
-450.938	-200.000	-0.021	-0.293
-449.924	15.519	-0.146	0.115
-448.909	51.903	0.030	0.028
-447.895	408.706	0.217	-0.461
-446.880	2.354	-0.062	0.045
-445.865	48.960	-0.112	-0.106
-444.851	117.602	0.261	-0.322
-443.836	800.000	0.113	0.336
-442.822	678.075	0.049	0.127
-441.807	-63.036	-0.255	-0.106
-440.792	240.716	0.067	-0.113
-439.778	-200.000	-0.010	-0.057
-438.763	-200.000	0.018	-0.123
-437.749	-13.532	0.201	-0.130
-436.734	800.000	0.093	-0.331
-435.719	-126.709	0.411	0.061
-434.705	-51.300	0.335	0.157
-433.690	280.663	-0.108	-0.194
-432.676	-32.370	-0.254	0.142
-431.661	-200.000	-0.003	0.703
-430.646	-200.000	0.057	0.374
-429.632	-45.270	-0.370	0.184
-428.617	800.000	-0.067	0.237
-427.603	-42.521	-0.261	0.134
-426.588	-107.598	0.175	0.038
-425.573	344.981	0.037	-0.073
-424.559	1.413	-0.284	0.204
-423.544	-200.000	-0.008	0.202
-422.530	-200.000	0.038	-0.176
-421.515	-81.879	0.138	-0.045
-420.500	-81.117	0.212	-0.070
-419.486	800.000	-0.048	0.186
-418.471	-23.882	-0.238	0.143
-417.457	-39.481	0.151	-0.079
-416.442	-51.357	0.069	-0.032
-415.428	-118.729	-0.328	-0.058
-414.413	-188.413	-0.189	0.002
-413.398	563.861	-0.146	0.355
-412.384	39.094	0.074	0.067
-411.369	-38.750	0.328	0.174
-410.355	337.580	-0.199	-0.388
-409.340	-200.000	-0.014	0.331
-408.325	-200.000	-0.004	0.159
-407.311	206.780	0.192	-0.300
-406.296	800.000	0.048	-0.140
-405.282	800.000	0.048	-0.159
-404.267	-156.986	0.189	0.012
-403.252	1.863	0.078	0.056
-402.238	103.492	-0.116	-0.136
-401.223	204.768	-0.154	-0.240
-400.209	-99.981	-0.149	0.037
-399.194	-23.991	-0.151	-0.090
-398.179	-121.783	-0.161	-0.027
-397.165	447.566	0.027	0.061
-396.150	174.843	-0.226	0.327
-395.136	100.945	0.100	0.116
-394.121	522.421	-0.168	0.395
-393.106	-200.000	-0.011	0.231
-392.092	-188.318	-0.094	0.001
-391.077	36.715	0.139	0.123
-390.063	-127.925	0.137	-0.020
-389.048	-51.976	0.104	0.048
-388.033	-200.000	0.024	0.382
-387.019	-10.249	0.227	0.151
-386.004	78.868	-0.148	-0.158
-384.990	140.996	0.160	0.211
-383.975	56.705	0.075	0.073
-382.960	-158.198	-0.239	-0.014
-381.946	800.000	-0.113	0.350
-380.931	16.666	0.104	0.082
-379.917	95.331	0.031	-0.035
-378.902	2.103	-0.302	-0.218
-377.888	3.819	-0.318	-0.233
-376.873	-200.000	0.040	-0.279
-375.858	79.508	-0.213	-0.229
-374.844	79.908	0.037	0.040
-373.829	340.247	-0.241	-0.471
-372.815	-66.012	0.301	-0.120
-371.800	180.074	-0.088	0.129
-370.785	800.000	0.182	-0.555
-369.771	394.280	-0.225	0.469
-368.756	110.224	0.181	-0.218
-367.742	-89.652	0.106	-0.031
-366.727	266.524	0.120	-0.210
-365.712	593.840	-0.108	-0.268
-364.698	-37.239	0.220	-0.118
-363.683	-175.820	-0.089	-0.002
-362.669	10.951	-0.072	0.055
-361.654	-19.589	0.303	0.188
-360.639	-90.682	0.192	-0.055
-359.625	483.312	0.048	0.109
-358.610	-200.000	0.045	-0.525
-357.596	83.556	0.171	-0.187
-356.581	-112.289	-0.204	-0.041
-355.566	-84.261	-0.325	0.103
-354.552	90.481	-0.064	-0.071
-353.537	450.091	-0.114	0.251
-352.523	-57.330	0.228	0.100
-351.508	-139.873	0.212	0.022
-350.493	10.758	0.033	0.025
-349.479	800.000	0.057	0.219
-348.464	-76.932	-0.054	0.019
-347.450	104.963	0.152	-0.179
-346.435	38.574	0.143	0.127
-345.420	-126.827	-0.384	-0.057
-344.406	800.000	-0.017	-0.057
-343.391	-16.985	0.117	-0.074
-342.377	-98.850	-0.303	0.077
-341.362	-146.544	0.275	0.024
-340.348	-62.074	0.426	-0.178
-339.333	-28.355	0.021	0.012
-338.318	-12.492	0.200	0.130
-337.304	673.417	0.105	-0.273
-336.289	249.447	0.048	-0.081
-335.275	770.311	0.054	-0.146
-334.260	468.721	-0.103	0.232
-333.245	-132.049	0.216	0.028
-332.231	-112.849	0.090	0.018
-331.216	153.660	0.138	-0.189
-330.202	94.637	-0.029	0.033
-329.187	25.062	0.415	-0.344
-328.172	-122.905	0.048	0.008
-327.158	170.384	-0.113	0.162
-326.143	32.862	0.129	0.111
-325.129	127.206	-0.077	-0.098
-324.114	-200.000	-0.026	0.187
-323.099	414.095	-0.007	0.015
-322.085	-100.669	0.252	0.062
-321.070	-139.163	0.134	-0.014
-320.056	-113.733	0.095	-0.018
-319.041	437.226	-0.075	0.163
-318.026	12.047	-0.187	0.144
-317.012	-110.618	0.282	-0.058
-315.997	-22.340	0.101	-0.061
-314.983	-113.726	0.038	0.007
-313.968	-3.521	-0.226	0.157
-312.953	-133.751	0.190	-0.024
-311.939	-200.000	-0.037	0.200
-310.924	-200.000	-0.044	0.244
-309.910	67.692	0.173	-0.176
-308.895	33.778	-0.130	0.113
-307.880	288.739	-0.199	0.360
-306.866	-200.000	-0.019	-0.250
-305.851	19.559	0.156	-0.125
-304.837	509.907	-0.135	-0.313
-303.822	54.114	0.110	-0.106
-302.807	-156.806	0.130	0.008
-301.793	489.194	0.108	0.246
-300.778	-75.224	-0.110	-0.039
-299.764	-137.186	0.184	0.021
-298.749	103.943	-0.210	0.246
-297.735	96.997	0.054	0.062
-296.720	47.292	0.008	-0.008
-295.705	-90.837	0.200	-0.057
-294.691	143.424	0.034	0.046
-293.676	-200.000	0.000	0.130
-292.662	285.912	0.239	0.429
-291.647	236.451	-0.109	0.180
-290.632	-44.706	-0.110	0.055
-289.618	255.906	-0.050	-0.086
-288.603	-71.672	-0.084	0.031
-287.589	645.000	-0.108	0.274
-286.574	-200.000	-0.334	0.001
-285.559	-72.862	0.282	0.103
-284.545	-26.766	0.343	-0.200
-283.530	41.778	0.176	0.159
-282.516	316.476	0.029	-0.054
-281.501	-43.491	-0.143	0.072
-280.486	800.000	0.055	0.198
-279.472	558.426	-0.102	-0.244
-278.457	339.211	-0.055	0.106
-277.443	36.229	0.218	-0.192
-276.428	800.000	-0.039	0.155
-275.413	-200.000	-0.014	-0.184
-274.399	800.000	-0.027	0.079
-273.384	-72.757	-0.225	-0.083
-272.370	-200.000	0.010	-0.146
-271.355	37.628	0.140	-0.124
-270.340	800.000	-0.043	0.177
-269.326	-106.490	-0.185	0.041
-268.311	29.989	-0.136	-0.116
-267.297	625.624	-0.042	0.104
-266.282	45.918	-0.276	0.254
-265.267	-29.850	-0.285	-0.162
-264.253	44.217	-0.158	0.144
-263.238	800.000	-0.020	0.084
-262.224	400.189	0.042	-0.088
-261.209	359.752	0.067	0.133
-260.195	-34.575	-0.209	-0.114
-259.180	9.705	0.173	0.131
-258.165	269.540	-0.177	0.309
-257.151	449.042	-0.116	0.255
-256.136	-200.000	0.019	-0.314
-255.122	783.369	-0.135	-0.368
-254.107	-28.061	-0.140	-0.081
-253.092	63.621	-0.185	0.185
-252.078	800.000	0.094	0.280
-251.063	228.537	-0.107	-0.173
-250.049	453.886	-0.084	-0.185
-249.034	330.236	0.057	-0.109
-248.019	-55.725	0.313	0.139
-247.005	186.473	-0.032	-0.047
-245.990	-200.000	0.043	-0.221
-244.976	-146.589	0.031	-0.003
-243.961	-28.235	0.224	-0.129
-242.946	-60.275	-0.217	0.092
-241.932	728.379	-0.070	0.187
-240.917	-33.834	-0.425	-0.233
-239.903	-200.000	0.009	-0.074
-238.888	-96.806	-0.285	-0.075
-237.873	-200.000	-0.001	0.103
-236.859	800.000	-0.063	0.210
-235.844	523.784	0.115	0.269
-234.830	800.000	-0.144	0.506
-233.815	-55.725	0.128	0.057
-232.800	-200.000	-0.013	-0.324
-231.786	719.986	-0.102	-0.271
-230.771	-147.175	0.449	0.038
-229.757	-4.643	0.096	-0.066
-228.742	-102.517	-0.392	-0.093
-227.727	-132.799	-0.345	-0.044
-226.713	4.213	-0.042	-0.031
-225.698	800.000	0.057	-0.175
-224.684	800.000	-0.089	0.270
-223.669	-128.677	-0.145	-0.020
-222.655	800.000	0.029	-0.091
-221.640	112.549	-0.186	0.223
-220.625	-114.975	0.307	0.058
-219.611	-200.000	0.065	0.405
-218.596	245.960	-0.009	-0.014
-217.582	-200.000	0.022	0.151
-216.567	-111.412	0.341	-0.069
-215.552	-71.909	0.215	-0.080
-214.538	-47.937	0.230	0.111
-213.523	480.030	0.162	-0.366
-212.509	152.784	-0.051	0.070
-211.494	-200.000	0.049	-0.226
-210.479	-200.000	-0.011	0.087
-209.465	44.825	-0.227	0.208
-208.450	-186.148	0.325	0.005
-207.436	584.795	-0.066	0.160
-206.421	-55.226	-0.120	-0.053
-205.406	15.534	0.211	-0.165
-204.392	-200.000	-0.039	0.305
-203.377	-136.586	0.480	-0.055
-202.363	-35.654	-0.146	0.079
-201.348	378.176	0.163	0.332
-200.333	-18.878	0.028	-0.018
-199.319	-42.667	0.195	0.099
-198.304	-200.000	0.017	0.254
-197.290	-200.000	-0.023	0.461
-196.275	135.227	-0.021	0.027
-195.260	-141.399	-0.262	-0.026
-194.246	110.891	-0.291	0.348
-193.231	-53.960	0.306	0.139
-192.217	59.334	-0.117	-0.115
-191.202	122.772	0.072	-0.090
-190.187	-200.000	0.011	-0.164
-189.173	9.169	0.073	0.055
-188.158	-70.673	-0.154	0.058
-187.144	427.392	-0.086	0.184
-186.129	800.000	-0.066	0.217
-185.114	246.080	0.075	0.125
-184.100	636.913	0.079	-0.199
-183.085	-98.520	-0.297	-0.075
-182.071	-116.119	-0.288	-0.053
-181.056	-109.558	0.004	-0.001
-180.042	37.779	0.239	0.211
-179.027	-200.000	-0.015	0.093
-178.012	164.110	0.122	-0.171
-176.998	111.982	-0.280	-0.336
-175.983	225.300	-0.175	0.281
-174.969	1.298	0.259	-0.185
-173.954	800.000	-0.034	-0.097
-172.939	95.710	-0.067	0.076
-171.925	-200.000	0.008	0.277
-170.910	-200.000	-0.022	0.109
-169.896	-174.903	0.305	-0.008
-168.881	-21.742	-0.046	0.028
-167.866	754.896	-0.022	-0.058
-166.852	192.713	-0.173	0.259
-165.837	-169.318	0.162	0.006
-164.823	-55.190	-0.102	0.046
-163.808	3.222	-0.319	-0.231
-162.793	-31.673	-0.239	0.133
-161.779	222.943	-0.154	-0.247
-160.764	-200.000	-0.021	0.426
-159.750	-69.115	-0.396	-0.151
-158.735	519.598	-0.052	0.120
-157.720	800.000	-0.042	-0.180
-156.706	-89.298	0.039	-0.011
-155.691	286.328	0.090	-0.161
-154.677	-89.744	-0.242	0.070
-153.662	26.465	-0.121	-0.100
-152.647	219.049	0.151	-0.240
-151.633	-148.397	0.206	0.017
-150.618	-90.783	0.077	0.022
-149.604	-140.183	-0.027	0.003
-148.589	-85.206	0.316	-0.098
-147.574	-135.892	0.310	0.036
-146.560	-200.000	0.001	0.162
-145.545	49.960	-0.110	-0.103
-144.531	-63.177	0.399	0.163
-143.516	212.212	-0.254	-0.398
-142.502	-153.222	-0.362	-0.025
-141.487	-108.118	0.062	-0.013
-140.472	-55.021	0.069	0.031
-139.458	-200.000	0.020	0.111
-138.443	-126.388	0.209	-0.031
-137.429	-200.000	-0.026	-0.251
-136.414	346.410	-0.039	-0.076
-135.399	-69.880	0.181	0.068
-134.385	-106.320	-0.103	0.023
-133.370	-177.895	-0.380	0.009
-132.356	31.554	-0.098	0.083
-131.341	-62.728	0.253	0.104
-130.326	-26.304	-0.194	0.113
-129.312	573.227	0.145	0.350
-128.297	335.646	-0.071	0.136
-127.283	-149.999	0.596	-0.046
-126.268	-42.352	0.194	-0.098
-125.253	800.000	0.056	0.177
-124.239	335.551	0.117	0.224
-123.224	266.445	-0.115	-0.199
-122.210	-163.188	-0.137	-0.007
-121.195	172.334	0.113	0.162
