DTS Sentinel unit serial number:	SN413079Multiplexer serial number:	ORYXHardware model number:	OX4-SRSoftware version number:	ORYX F/W v4.00 Oryx Data Collector v3.7.2.0data status	okinstallation	princeton_trtdifferential loss correction	single-endedforward channel	channel 2reverse channel	N/Adate	2019/09/12time	03:57:10forward acquisition time	60.00reverse acquisition time	0.00gamma	496.2192k internal	0.2326k external	0.2326temperature offset calibration	1.0098default loss term (dB/km)	0.3790temperature slope calibration	1.0000multiplexer offset coefficient	1.0000multiplexer slope coefficient	1.0000fibre end	0.00T internal ref (°C)	32.12T ext. ref 1 (°C)	2.17T ext. ref 2 (°C)	25.81length (m)	temperature (°C)	Stokes	anti-Stokes-747.200	-103.556	0.311	0.074
-746.185	-200.000	0.045	0.359
-745.171	-200.000	0.058	0.291
-744.156	392.003	0.092	0.192
-743.142	-80.559	0.224	-0.075
-742.127	-11.907	0.262	0.173
-741.112	-185.881	0.214	0.003
-740.098	-80.830	-0.341	0.114
-739.083	-200.000	0.047	0.416
-738.069	-0.022	-0.204	0.146
-737.054	800.000	-0.058	0.197
-736.039	35.820	-0.357	-0.317
-735.025	520.039	0.088	0.209
-734.010	17.577	0.245	-0.196
-732.996	-121.976	-0.159	-0.026
-731.981	162.210	-0.055	-0.078
-730.966	-200.000	0.020	0.180
-729.952	78.295	-0.367	0.395
-728.937	-81.504	0.055	-0.018
-727.923	-68.519	-0.453	-0.177
-726.908	-85.369	0.159	0.050
-725.894	-15.358	-0.212	-0.137
-724.879	106.572	-0.076	0.091
-723.864	-200.000	-0.037	-0.214
-722.850	106.575	-0.239	0.286
-721.835	-189.172	-0.298	0.004
-720.821	403.701	0.081	-0.172
-719.806	-135.592	0.162	0.019
-718.791	-200.000	-0.030	-0.433
-717.777	-95.263	0.163	0.044
-716.762	45.070	0.257	0.239
-715.748	-69.285	0.225	0.087
-714.733	122.760	0.172	-0.217
-713.718	-200.000	0.030	-0.207
-712.704	-0.007	-0.182	-0.131
-711.689	800.000	-0.057	-0.179
-710.675	321.177	-0.156	-0.298
-709.660	-200.000	-0.002	-0.009
-708.645	-67.260	-0.389	0.154
-707.631	-81.873	-0.179	0.059
-706.616	-200.000	0.112	0.000
-705.602	3.916	0.124	0.092
-704.587	45.593	0.110	-0.102
-703.572	-61.260	-0.156	0.066
-702.558	24.261	0.162	-0.135
-701.543	-173.634	-0.497	0.015
-700.529	-200.000	0.262	0.001
-699.514	-67.700	0.177	-0.070
-698.499	-200.000	-0.024	-0.218
-697.485	111.572	-0.041	0.050
-696.470	-70.479	-0.132	-0.050
-695.456	-200.000	0.004	0.297
-694.441	-2.104	-0.149	-0.105
-693.426	398.105	0.119	-0.251
-692.412	-63.865	0.245	0.101
-691.397	-200.000	-0.028	-0.558
-690.383	213.485	-0.063	0.100
-689.368	800.000	0.100	-0.298
-688.354	-200.000	-0.098	0.000
-687.339	-12.215	-0.162	-0.106
-686.324	-43.565	0.116	0.059
-685.310	-127.379	-0.472	0.069
-684.295	-7.474	-0.190	0.130
-683.281	800.000	-0.033	0.125
-682.266	-194.569	0.119	-0.001
-681.251	-64.375	0.315	0.129
-680.237	-170.912	0.260	-0.009
-679.222	-185.370	0.375	0.006
-678.208	-200.000	0.066	-0.332
-677.193	800.000	0.096	-0.345
-676.178	-98.993	-0.490	0.125
-675.164	-44.715	-0.449	-0.225
-674.149	-200.000	-0.021	-0.239
-673.135	-200.000	-0.053	-0.282
-672.120	354.138	0.105	0.211
-671.105	95.524	0.241	-0.276
-670.091	610.615	0.069	-0.174
-669.076	-109.478	0.140	0.030
-668.062	-132.007	-0.274	0.036
-667.047	88.098	0.156	0.174
-666.032	800.000	-0.031	-0.106
-665.018	167.981	0.122	-0.174
-664.003	800.000	-0.076	-0.235
-662.989	155.477	-0.091	-0.126
-661.974	-200.000	0.039	-0.452
-660.959	-200.000	-0.146	-0.000
-659.945	-46.806	-0.231	0.114
-658.930	12.493	0.042	0.033
-657.916	-60.220	-0.182	0.078
-656.901	-10.382	-0.188	-0.125
-655.886	113.599	-0.232	-0.283
-654.872	171.852	-0.254	-0.367
-653.857	-200.000	0.004	-0.109
-652.843	-36.998	0.144	0.077
-651.828	-200.000	-0.018	-0.294
-650.814	134.704	0.066	-0.086
-649.799	-156.448	-0.269	0.017
-648.784	-200.000	-0.012	-0.431
-647.770	-108.849	-0.347	-0.074
-646.755	-75.188	0.196	0.070
-645.741	227.334	-0.033	-0.054
-644.726	61.089	0.192	0.191
-643.711	535.708	-0.180	-0.429
-642.697	-36.586	-0.043	0.023
-641.682	800.000	0.069	-0.203
-640.668	-200.000	0.019	-0.137
-639.653	-138.160	-0.420	0.047
-638.638	-116.463	0.202	0.037
-637.624	-95.146	0.286	0.078
-636.609	-200.000	-0.045	-0.201
-635.595	-178.962	0.192	-0.004
-634.580	15.942	0.159	-0.126
-633.565	20.902	0.243	-0.198
-632.551	666.299	-0.036	0.093
-631.536	69.463	0.095	0.098
-630.522	480.657	0.107	-0.243
-629.507	-66.271	0.189	-0.076
-628.492	94.867	-0.131	-0.149
-627.478	-155.864	-0.179	-0.011
-626.463	-40.968	0.311	-0.161
-625.449	209.223	-0.196	-0.308
-624.434	-127.556	-0.125	-0.018
-623.419	483.218	-0.085	-0.194
-622.405	-200.000	0.009	0.429
-621.390	800.000	0.065	0.270
-620.376	-148.329	-0.097	-0.008
-619.361	-4.923	-0.128	0.088
-618.346	-58.009	0.129	-0.056
-617.332	-200.000	-0.006	-0.488
-616.317	-113.312	0.176	-0.035
-615.303	-55.941	-0.311	-0.139
-614.288	323.437	-0.026	-0.050
-613.273	24.935	-0.271	0.226
-612.259	461.612	0.026	0.059
-611.244	277.023	-0.135	0.241
-610.230	800.000	-0.032	-0.115
-609.215	-200.000	0.048	0.364
-608.201	56.857	0.205	-0.200
-607.186	1.421	-0.189	-0.136
-606.171	-200.000	-0.045	-0.305
-605.157	-200.000	0.018	-0.125
-604.142	163.709	0.076	0.108
-603.128	409.308	-0.050	-0.106
-602.113	-159.830	0.100	0.005
-601.098	409.230	0.064	-0.135
-600.084	36.453	0.150	0.132
-599.069	-145.028	-0.330	-0.030
-598.055	-40.134	0.220	-0.115
-597.040	-200.000	-0.044	0.233
-596.025	403.936	0.083	-0.175
-595.011	-139.948	-0.172	0.018
-593.996	409.161	0.146	0.311
-592.982	800.000	0.049	0.182
-591.967	-53.537	0.184	-0.084
-590.952	-9.202	0.146	0.098
-589.938	-74.954	-0.133	0.048
-588.923	38.384	0.026	0.023
-587.909	589.443	-0.065	0.160
-586.894	154.404	0.033	0.045
-585.879	-128.354	-0.198	-0.028
-584.865	-200.000	0.053	-0.409
-583.850	143.356	0.024	0.032
-582.836	-200.000	0.032	-0.149
-581.821	167.168	-0.160	0.227
-580.806	-37.263	-0.075	0.040
-579.792	-42.578	-0.304	-0.155
-578.777	-99.304	-0.397	0.100
-577.763	-161.878	0.213	0.011
-576.748	800.000	0.018	0.053
-575.733	-117.791	-0.102	-0.018
-574.719	-126.182	-0.228	-0.034
-573.704	-179.359	-0.308	-0.007
-572.690	-8.019	0.028	-0.019
-571.675	110.362	0.081	0.097
-570.661	-200.000	-0.027	0.131
-569.646	167.404	0.100	-0.143
-568.631	-91.652	0.361	0.103
-567.617	26.846	-0.113	0.095
-566.602	113.597	-0.105	0.127
-565.588	-29.223	0.426	0.245
-564.573	-48.718	-0.156	-0.075
-563.558	135.005	-0.188	-0.245
-562.544	-10.932	0.159	0.105
-561.529	-200.000	0.039	0.286
-560.515	659.225	0.059	-0.153
-559.500	-109.954	0.356	0.075
-558.485	72.755	-0.360	-0.377
-557.471	-33.026	0.343	0.191
-556.456	-144.337	0.370	-0.034
-555.442	51.209	-0.203	-0.193
-554.427	-200.000	-0.024	-0.196
-553.412	153.859	-0.170	0.233
-552.398	-88.539	0.023	-0.007
-551.383	70.408	-0.182	0.189
-550.369	-17.703	-0.157	0.099
-549.354	75.241	-0.151	0.160
-548.339	150.254	0.121	0.165
-547.325	106.546	-0.186	-0.221
-546.310	182.876	-0.006	-0.009
-545.296	90.359	-0.120	0.134
-544.281	-200.000	-0.007	-0.087
-543.266	-57.351	0.345	0.152
-542.252	-74.228	-0.283	0.102
-541.237	381.885	0.046	0.095
-540.223	203.528	-0.286	-0.443
-539.208	40.264	-0.140	0.126
-538.193	-25.067	-0.050	0.029
-537.179	-98.308	-0.286	0.073
-536.164	403.862	0.086	0.181
-535.150	261.978	-0.071	0.123
-534.135	71.070	0.094	-0.097
-533.121	-200.000	-0.009	0.073
-532.106	190.792	0.144	-0.216
-531.091	800.000	-0.060	0.202
-530.077	-200.000	-0.020	0.131
-529.062	6.423	-0.180	0.134
-528.048	-54.253	0.214	-0.097
-527.033	-27.040	0.198	-0.115
-526.018	-125.061	0.279	-0.043
-525.004	213.189	0.096	-0.151
-523.989	80.450	0.101	-0.109
-522.975	800.000	0.059	-0.193
-521.960	147.772	-0.126	0.170
-520.945	-101.446	0.038	-0.009
-519.931	-57.087	0.030	-0.013
-518.916	-200.000	-0.049	0.526
-517.902	185.139	0.087	-0.129
-516.887	125.502	-0.114	-0.143
-515.872	800.000	-0.073	0.263
-514.858	335.103	0.145	0.282
-513.843	53.176	0.064	0.061
-512.829	-187.159	-0.108	-0.001
-511.814	78.508	0.289	0.309
-510.799	183.544	0.155	-0.229
-509.785	-118.963	0.538	0.094
-508.770	64.961	-0.204	0.206
-507.756	362.964	0.090	-0.181
-506.741	-200.000	-0.049	-0.323
-505.726	-45.499	0.087	0.043
-504.712	800.000	-0.066	0.257
-503.697	27.470	0.080	0.067
-502.683	-1.023	-0.348	0.246
-501.668	-200.000	-0.012	0.077
-500.653	50.011	0.182	0.171
-499.639	56.673	0.095	-0.092
-498.624	763.292	-0.211	-0.572
-497.610	328.279	0.086	0.165
-496.595	115.137	-0.047	-0.057
-495.581	-59.156	-0.215	-0.092
-494.566	-200.000	-0.016	-0.123
-493.551	112.949	-0.253	0.306
-492.537	5.617	0.238	0.176
-491.522	-147.849	0.488	0.041
-490.508	-31.413	-0.197	-0.111
-489.493	112.872	0.031	0.038
-488.478	-30.842	0.172	-0.097
-487.464	-104.230	0.267	0.062
-486.449	800.000	0.034	-0.096
-485.435	800.000	-0.050	-0.159
-484.420	-152.975	0.303	-0.021
-483.405	133.903	-0.100	0.130
-482.391	710.304	0.022	-0.059
-481.376	37.781	-0.194	0.172
-480.362	101.405	-0.202	0.235
-479.347	-40.711	0.218	-0.113
-478.332	-145.472	-0.182	0.016
-477.318	-19.220	0.074	-0.046
-476.303	-39.676	-0.254	0.133
-475.289	-96.962	-0.143	-0.037
-474.274	13.678	0.079	0.062
-473.259	800.000	0.059	0.195
-472.245	-200.000	0.079	-0.553
-471.230	-44.540	-0.175	0.087
-470.216	9.893	0.187	0.142
-469.201	-200.000	-0.010	0.078
-468.186	581.858	0.079	0.194
-467.172	90.208	0.174	-0.194
-466.157	12.831	-0.208	0.160
-465.143	-200.000	-0.019	-0.302
-464.128	557.989	-0.042	-0.100
-463.113	-200.000	0.008	0.213
-462.099	-200.000	-0.018	0.163
-461.084	105.522	-0.067	0.079
-460.070	33.587	-0.147	0.128
-459.055	418.456	0.211	0.450
-458.040	-200.000	-0.021	-0.242
-457.026	-49.584	-0.178	0.085
-456.011	-176.461	-0.230	-0.006
-454.997	-48.967	-0.088	0.042
-453.982	379.671	0.083	-0.169
-452.968	716.431	0.071	-0.188
-451.953	-200.000	-0.021	-0.145
-450.938	1.235	-0.196	0.141
-449.924	-114.483	0.067	0.013
-448.909	-14.140	0.179	0.115
-447.895	-89.230	-0.263	-0.077
-446.880	-54.721	0.110	-0.049
-445.865	-8.040	-0.175	-0.117
-444.851	183.224	-0.131	-0.193
-443.836	-200.000	0.063	-0.309
-442.822	-138.312	-0.211	-0.023
-441.807	800.000	0.057	0.160
-440.792	-200.000	-0.050	0.308
-439.778	-156.340	-0.430	-0.027
-438.763	-200.000	0.006	-0.337
-437.749	18.195	-0.313	0.249
-436.734	-145.593	-0.070	-0.006
-435.719	-75.965	0.115	0.041
-434.705	-200.000	-0.012	0.217
-433.690	137.460	-0.045	0.059
-432.676	-62.795	-0.118	-0.049
-431.661	-200.000	0.008	0.108
-430.646	800.000	-0.064	-0.239
-429.632	251.979	0.193	-0.327
-428.617	563.977	-0.038	0.093
-427.603	-200.000	-0.005	0.056
-426.588	-148.717	-0.298	-0.024
-425.573	111.531	0.077	0.093
-424.559	-52.263	-0.218	-0.101
-423.544	-47.480	0.146	0.071
-422.530	-75.917	0.218	0.077
-421.515	-153.319	0.122	-0.008
-420.500	-200.000	-0.013	-0.196
-419.486	-200.000	0.055	0.249
-418.471	399.775	0.019	-0.040
-417.457	-72.947	0.330	-0.121
-416.442	-200.000	-0.043	0.250
-415.428	681.130	0.046	-0.121
-414.413	-60.775	-0.111	0.047
-413.398	166.859	-0.070	-0.099
-412.384	-44.201	-0.347	-0.173
-411.369	397.355	0.074	0.153
-410.355	800.000	0.008	-0.027
-409.340	396.436	-0.183	0.380
-408.325	-126.441	-0.164	-0.024
-407.311	218.840	0.222	0.353
-406.296	-46.867	0.229	-0.112
-405.282	-200.000	0.002	-0.024
-404.267	-200.000	-0.035	0.236
-403.252	-200.000	0.017	-0.170
-402.238	47.571	0.234	-0.217
-401.223	293.312	-0.106	-0.192
-400.209	752.012	-0.027	-0.073
-399.194	-200.000	0.038	0.259
-398.179	-200.000	0.024	0.284
-397.165	-7.822	0.091	0.061
-396.150	94.151	-0.099	-0.112
-395.136	-23.191	-0.044	-0.026
-394.121	5.254	-0.180	0.132
-393.106	-7.361	-0.262	-0.176
-392.092	1.672	0.117	0.084
-391.077	-200.000	0.035	0.178
-390.063	-200.000	0.037	0.294
-389.048	800.000	0.020	-0.087
-388.033	455.164	0.054	-0.118
-387.019	87.030	0.103	0.113
-386.004	97.274	0.185	0.211
-384.990	35.791	-0.108	-0.094
-383.975	-200.000	-0.056	-0.319
-382.960	346.727	0.099	0.193
-381.946	-200.000	0.025	0.139
-380.931	-200.000	-0.045	0.304
-379.917	-59.203	-0.337	-0.144
-378.902	-200.000	-0.095	-0.545
-377.888	-108.847	-0.140	0.030
-376.873	-26.264	-0.234	-0.137
-375.858	144.342	0.129	0.171
-374.844	-69.775	0.383	0.145
-373.829	89.166	-0.056	-0.062
-372.815	182.459	-0.085	-0.125
-371.800	800.000	0.048	-0.203
-370.785	110.427	-0.168	0.201
-369.771	-200.000	-0.000	0.022
-368.756	20.150	-0.232	-0.186
-367.742	-200.000	0.004	-0.046
-366.727	-161.852	0.079	-0.004
-365.712	178.818	-0.157	-0.228
-364.698	-200.000	0.096	-0.460
-363.683	-200.000	0.006	-0.205
-362.669	556.227	-0.122	-0.292
-361.654	-125.620	0.076	0.012
-360.639	28.885	0.199	-0.168
-359.625	-77.535	-0.175	-0.060
-358.610	-18.602	-0.298	-0.184
-357.596	236.255	-0.109	0.178
-356.581	-90.753	-0.013	-0.004
-355.566	800.000	-0.058	0.242
-354.552	127.580	-0.074	-0.093
-353.537	-171.977	-0.085	-0.003
-352.523	121.984	-0.083	0.103
-351.508	436.530	0.132	0.285
-350.493	186.365	-0.169	0.250
-349.479	45.467	0.054	0.050
-348.464	60.847	-0.317	0.312
-347.450	800.000	0.068	0.187
-346.435	-76.697	-0.055	-0.019
-345.420	-97.256	0.150	-0.039
-344.406	-137.654	-0.055	0.006
-343.391	-36.506	0.266	0.142
-342.377	363.163	-0.106	0.212
-341.362	645.450	-0.102	-0.259
-340.348	59.882	0.169	-0.166
-339.333	165.113	-0.207	0.290
-338.318	-12.618	-0.220	-0.142
-337.304	91.135	0.215	-0.240
-336.289	-4.610	0.095	-0.065
-335.275	-18.355	-0.239	0.149
-334.260	-117.596	-0.283	0.051
-333.245	-121.927	0.124	0.020
-332.231	144.472	0.097	-0.128
-331.216	-34.207	0.242	-0.132
-330.202	-39.166	0.043	-0.022
-329.187	121.667	-0.207	0.257
-328.172	800.000	0.026	-0.075
-327.158	79.278	0.158	0.168
-326.143	462.424	0.109	0.241
-325.129	-98.341	0.286	0.073
-324.114	-200.000	0.010	-0.121
-323.099	-12.731	-0.258	0.167
-322.085	-73.955	-0.351	-0.126
-321.070	471.360	0.060	-0.134
-320.056	800.000	-0.138	-0.455
-319.041	648.682	0.139	-0.353
-318.026	-69.307	0.341	-0.130
-317.012	12.515	-0.287	-0.219
-315.997	-200.000	0.010	-0.094
-314.983	76.274	0.108	0.113
-313.968	-200.000	0.046	0.218
-312.953	-171.546	0.182	-0.006
-311.939	149.382	0.254	0.341
-310.924	-72.949	0.470	0.171
-309.910	-95.690	-0.113	-0.030
-308.895	287.331	0.128	-0.229
-307.880	800.000	-0.049	0.151
-306.866	397.546	-0.013	-0.028
-305.851	-200.000	-0.038	0.246
-304.837	86.853	0.095	0.104
-303.822	-200.000	-0.007	-0.109
-302.807	-31.847	0.185	-0.103
-301.793	-73.528	0.279	0.101
-300.778	-147.624	-0.239	0.020
-299.764	-45.824	0.138	-0.068
-298.749	-161.842	-0.326	0.016
-297.735	-200.000	-0.016	0.312
-296.720	104.888	0.131	0.153
-295.705	-23.355	0.207	-0.123
-294.691	-131.636	-0.127	0.017
-293.676	24.534	0.137	0.112
-292.662	-43.777	0.246	-0.123
-291.647	91.884	0.147	0.163
-290.632	133.532	0.166	0.213
-289.618	-29.723	0.136	-0.077
-288.603	201.371	-0.099	-0.151
-287.589	192.767	0.168	-0.251
-286.574	-43.089	0.285	0.143
-285.559	-200.000	0.022	0.342
-284.545	-75.695	-0.238	0.084
-283.530	79.540	0.070	0.074
-282.516	-69.939	0.136	-0.052
-281.501	-126.606	-0.387	0.057
-280.486	-9.396	-0.069	-0.046
-279.472	800.000	0.068	-0.195
-278.457	-89.546	-0.111	-0.032
-277.443	604.509	0.056	0.137
-276.428	800.000	-0.057	0.200
-275.413	-174.268	-0.398	0.011
-274.399	-124.044	-0.151	-0.023
-273.384	-200.000	0.031	-0.299
-272.370	99.079	0.199	0.227
-271.355	8.062	0.225	0.167
-270.340	-25.968	0.167	-0.097
-269.326	-63.090	0.244	-0.100
-268.311	-47.205	0.356	-0.172
-267.297	-2.132	0.252	-0.175
-266.282	139.191	-0.208	-0.270
-265.267	202.877	0.126	-0.193
-264.253	-200.000	0.064	-0.279
-263.238	-76.686	0.238	-0.083
-262.224	-200.000	-0.003	0.119
-261.209	131.296	0.135	-0.171
-260.195	117.292	0.185	0.225
-259.180	-66.502	-0.101	-0.040
-258.165	-200.000	0.075	0.328
-257.151	65.316	0.321	0.322
-256.136	-200.000	0.024	0.207
-255.122	800.000	0.019	-0.053
-254.107	-19.165	-0.220	-0.135
-253.092	-200.000	-0.003	0.211
-252.078	193.921	0.063	-0.094
-251.063	107.825	0.070	0.083
-250.049	-32.110	-0.089	-0.049
-249.034	148.590	0.156	0.208
-248.019	505.219	0.063	0.144
-247.005	-80.737	-0.319	-0.105
-245.990	-69.110	-0.149	0.057
-244.976	58.884	0.146	0.142
-243.961	-134.412	0.224	-0.027
-242.946	78.464	-0.263	-0.278
-241.932	800.000	0.030	0.114
-240.917	113.700	-0.117	-0.141
-239.903	-66.180	-0.068	0.027
-238.888	-200.000	0.030	-0.144
-237.873	97.644	-0.138	-0.156
-236.859	111.276	-0.133	0.158
-235.844	-60.629	0.362	-0.152
-234.830	-147.033	-0.308	0.026
-233.815	700.163	0.108	-0.280
-232.800	-200.000	0.003	0.117
-231.786	-200.000	-0.013	0.326
-230.771	586.187	0.134	-0.325
-229.757	800.000	-0.041	-0.137
-228.742	7.112	-0.106	0.078
-227.727	-200.000	0.025	0.110
-226.713	63.552	0.339	-0.336
-225.698	-121.145	0.113	0.019
-224.684	-146.612	-0.323	0.028
-223.669	-130.060	-0.211	-0.029
-222.655	22.663	0.107	0.087
-221.640	79.756	0.270	-0.286
-220.625	-103.084	-0.286	0.067
-219.611	-129.947	-0.236	0.032
-218.596	47.731	0.208	-0.192
-217.582	-200.000	-0.088	-0.542
-216.567	800.000	-0.116	-0.429
-215.552	244.311	0.031	0.051
-214.538	-200.000	-0.042	0.186
-213.523	-51.405	0.304	0.141
-212.509	800.000	0.017	-0.057
-211.494	-148.967	0.055	0.004
-210.479	156.637	-0.124	0.169
-209.465	131.400	-0.273	-0.346
-208.450	-62.501	-0.055	0.023
-207.436	-81.665	-0.262	-0.085
-206.421	800.000	0.086	-0.243
-205.406	-200.000	0.062	-0.386
-204.392	614.575	-0.056	-0.139
-203.377	-59.656	-0.089	-0.038
-202.363	157.781	-0.191	0.261
-201.348	126.662	0.154	0.193
-200.333	18.349	0.028	-0.022
-199.319	243.771	0.090	0.148
-198.304	-200.000	-0.003	-0.263
-197.290	48.748	0.209	-0.194
-196.275	-70.240	-0.242	0.091
-195.260	59.622	-0.086	0.083
-194.246	-169.208	0.130	0.005
-193.231	38.851	-0.264	0.233
-192.217	-200.000	0.021	0.147
-191.202	45.617	-0.093	0.085
-190.187	29.414	-0.313	0.263
-189.173	-89.545	-0.199	0.058
-188.158	349.479	0.026	-0.050
-187.144	-200.000	0.014	0.200
-186.129	184.650	0.133	-0.195
-185.114	800.000	-0.021	0.086
-184.100	214.207	-0.123	-0.192
-183.085	17.468	0.045	-0.035
-182.071	-200.000	-0.015	0.235
-181.056	-120.657	0.057	0.009
-180.042	-200.000	0.030	-0.210
-179.027	-15.258	-0.130	0.082
-178.012	4.319	-0.162	-0.117
-176.998	-87.678	0.297	-0.088
-175.983	-70.073	0.361	0.135
-174.969	6.973	-0.087	-0.064
-173.954	-200.000	0.023	0.253
-172.939	1.937	-0.290	-0.206
-171.925	-6.280	0.180	0.121
-170.910	293.425	0.097	0.174
-169.896	-5.514	-0.053	-0.036
-168.881	57.195	0.337	0.325
-167.866	445.409	0.108	-0.235
-166.852	-143.902	0.272	0.025
-165.837	-200.000	0.027	0.164
-164.823	-172.147	0.190	0.006
-163.808	-200.000	-0.011	-0.112
-162.793	-53.411	0.098	0.044
-161.779	5.901	0.095	0.069
-160.764	-2.447	-0.229	-0.158
-159.750	65.926	0.134	0.134
-158.735	182.158	0.057	-0.083
-157.720	-200.000	-0.026	-0.147
-156.706	-93.580	-0.100	-0.027
-155.691	-113.882	-0.174	-0.033
-154.677	110.618	0.047	0.056
-153.662	100.167	0.019	-0.022
-152.647	421.308	-0.038	-0.079
-151.633	800.000	0.095	0.302
-150.618	324.434	0.173	-0.326
-149.604	311.312	0.120	-0.222
-148.589	777.885	-0.103	0.278
-147.574	9.449	0.262	0.195
-146.560	-96.651	0.263	0.068
-145.545	211.048	0.030	0.046
-144.531	-70.345	0.312	-0.117
-143.516	-73.884	0.203	-0.073
-142.502	-162.650	-0.192	0.009
-141.487	-200.000	0.008	-0.316
-140.472	-132.205	-0.342	0.044
-139.458	107.930	0.130	-0.153
-138.443	12.761	0.062	-0.048
-137.429	-200.000	0.007	0.312
-136.414	566.537	-0.159	0.379
-135.399	-200.000	0.001	0.145
-134.385	-200.000	0.063	0.695
-133.370	788.193	0.136	0.368
-132.356	634.723	0.122	-0.305
-131.341	393.244	-0.173	-0.354
-130.326	178.219	-0.111	-0.160
-129.312	-200.000	0.001	-0.094
-128.297	-200.000	-0.001	0.361
-127.283	43.709	0.213	0.192
-126.268	-36.800	-0.212	0.112
-125.253	800.000	0.142	-0.520
-124.239	521.791	-0.037	-0.085
-123.224	-132.417	-0.264	-0.034
-122.210	-19.898	0.048	0.029
-121.195	-12.916	0.235	-0.151
-120.180	79.675	0.174	-0.183
