DTS Sentinel unit serial number:	SN413079Multiplexer serial number:	ORYXHardware model number:	OX4-SRSoftware version number:	ORYX F/W v4.00 Oryx Data Collector v3.7.2.0data status	okinstallation	princeton_trtdifferential loss correction	single-endedforward channel	channel 2reverse channel	N/Adate	2019/09/14time	03:15:35forward acquisition time	60.00reverse acquisition time	0.00gamma	496.2192k internal	0.2337k external	0.2337temperature offset calibration	1.0124default loss term (dB/km)	0.3790temperature slope calibration	1.0000multiplexer offset coefficient	1.0000multiplexer slope coefficient	1.0000fibre end	0.00T internal ref (°C)	26.62T ext. ref 1 (°C)	3.26T ext. ref 2 (°C)	21.67length (m)	temperature (°C)	Stokes	anti-Stokes-747.200	-200.000	0.012	-0.313
-746.185	243.548	0.080	0.134
-745.171	-114.377	-0.045	-0.009
-744.156	169.199	-0.155	-0.222
-743.142	83.011	-0.180	0.197
-742.127	800.000	-0.092	0.299
-741.112	-120.628	0.106	0.018
-740.098	-156.244	0.049	0.003
-739.083	-26.979	-0.283	0.166
-738.069	97.759	-0.044	0.050
-737.054	-52.941	0.242	-0.112
-736.039	-141.504	-0.263	0.027
-735.025	-200.000	-0.071	0.401
-734.010	237.825	-0.083	-0.139
-732.996	-100.652	0.229	-0.057
-731.981	-200.000	-0.037	-0.218
-730.966	-200.000	0.021	0.269
-729.952	-103.287	0.339	-0.080
-728.937	-61.613	-0.116	0.049
-727.923	330.716	0.015	0.028
-726.908	-200.000	0.012	0.090
-725.894	19.539	-0.218	0.176
-724.879	-50.599	-0.326	-0.154
-723.864	82.997	-0.049	0.054
-722.850	800.000	0.061	-0.190
-721.835	-110.111	-0.225	-0.047
-720.821	-136.309	0.057	-0.007
-719.806	-138.903	-0.156	0.017
-718.791	196.897	-0.035	0.053
-717.777	-94.353	-0.188	0.052
-716.762	12.162	-0.114	-0.088
-715.748	-200.000	-0.018	-0.154
-714.733	-109.154	-0.169	-0.036
-713.718	46.525	-0.070	0.065
-712.704	-119.798	-0.306	0.053
-711.689	-200.000	-0.054	0.287
-710.675	324.123	0.121	-0.231
-709.660	18.466	0.251	-0.201
-708.645	714.827	-0.183	-0.487
-707.631	354.086	-0.058	0.116
-706.616	-140.898	-0.278	0.029
-705.602	136.679	0.155	-0.203
-704.587	10.576	-0.173	0.132
-703.572	-79.181	0.250	-0.085
-702.558	392.148	-0.033	-0.069
-701.543	-92.445	0.056	0.016
-700.529	32.960	0.032	0.028
-699.514	52.828	0.094	0.090
-698.499	81.539	-0.161	-0.175
-697.485	-117.198	-0.091	-0.016
-696.470	-23.817	0.027	0.016
-695.456	137.597	-0.040	-0.052
-694.441	-80.219	-0.151	0.051
-693.426	430.273	-0.009	-0.021
-692.412	800.000	0.106	-0.366
-691.397	-200.000	0.001	-0.274
-690.383	49.106	-0.135	0.127
-689.368	800.000	-0.031	0.136
-688.354	-30.366	0.107	0.061
-687.339	-85.087	0.035	-0.011
-686.324	-66.634	-0.264	0.105
-685.310	165.560	-0.118	-0.167
-684.295	40.225	-0.034	0.030
-683.281	213.345	-0.202	-0.320
-682.266	-112.224	-0.301	0.060
-681.251	-113.305	-0.343	-0.068
-680.237	-41.967	0.224	-0.115
-679.222	94.922	0.133	-0.151
-678.208	-68.900	0.182	-0.070
-677.193	-98.718	0.257	-0.065
-676.178	-38.166	0.105	-0.056
-675.164	93.466	0.176	-0.199
-674.149	-78.093	-0.093	0.032
-673.135	800.000	-0.006	-0.019
-672.120	-200.000	-0.013	0.204
-671.105	48.081	0.324	-0.303
-670.091	800.000	0.118	-0.392
-669.076	-181.041	-0.275	-0.006
-668.062	800.000	-0.053	-0.185
-667.047	-200.000	0.005	-0.066
-666.032	142.882	-0.209	-0.277
-665.018	536.170	-0.075	0.177
-664.003	69.315	0.081	0.084
-662.989	-73.742	-0.159	0.058
-661.974	633.212	-0.034	-0.087
-660.959	212.884	-0.125	0.198
-659.945	201.514	-0.132	-0.204
-658.930	-67.529	0.189	0.074
-657.916	55.413	0.130	0.125
-656.901	92.803	0.214	0.242
-655.886	-63.787	0.208	-0.085
-654.872	225.591	0.142	-0.230
-653.857	-68.468	-0.245	0.095
-652.843	12.069	0.099	-0.076
-651.828	-190.057	-0.210	0.002
-650.814	-200.000	-0.007	-0.256
-649.799	66.148	-0.112	0.114
-648.784	42.979	-0.220	-0.201
-647.770	344.906	-0.024	0.047
-646.755	-126.145	-0.197	-0.030
-645.741	-7.848	-0.112	-0.076
-644.726	306.390	0.041	0.077
-643.711	-138.778	-0.134	-0.015
-642.697	40.254	-0.029	-0.026
-641.682	26.221	0.292	0.244
-640.668	-127.212	-0.077	-0.011
-639.653	10.765	-0.267	-0.204
-638.638	-157.362	0.059	0.004
-637.624	-32.823	-0.092	-0.051
-636.609	206.727	-0.183	-0.285
-635.595	634.142	0.059	0.149
-634.580	119.050	0.201	0.248
-633.565	-175.883	-0.241	-0.006
-632.551	-89.285	0.038	-0.011
-631.536	778.731	0.122	-0.334
-630.522	46.559	0.115	-0.107
-629.507	223.523	-0.156	-0.251
-628.492	-124.338	0.385	-0.060
-627.478	-97.810	0.334	-0.086
-626.463	-146.754	0.151	-0.013
-625.449	-108.950	0.206	-0.044
-624.434	12.264	0.034	0.026
-623.419	-47.474	-0.108	-0.052
-622.405	133.356	-0.111	0.144
-621.390	188.127	-0.048	-0.071
-620.376	-0.761	-0.205	0.145
-619.361	-89.004	-0.101	0.030
-618.346	800.000	-0.097	-0.294
-617.332	-8.235	-0.206	-0.139
-616.317	-138.290	0.131	-0.014
-615.303	553.647	-0.042	-0.100
-614.288	-200.000	0.052	0.410
-613.273	244.497	-0.168	-0.283
-612.259	-9.838	0.449	-0.299
-611.244	800.000	-0.085	0.241
-610.230	-200.000	0.028	0.195
-609.215	-200.000	-0.007	-0.343
-608.201	-200.000	0.043	-0.243
-607.186	-108.475	0.270	-0.058
-606.171	-47.100	-0.269	0.131
-605.157	800.000	-0.028	0.102
-604.142	-200.000	-0.056	-0.360
-603.128	-15.020	0.208	0.133
-602.113	24.434	0.141	-0.116
-601.098	34.371	0.250	-0.218
-600.084	-110.538	0.101	0.021
-599.069	283.266	-0.135	0.243
-598.055	186.298	-0.066	0.098
-597.040	245.230	-0.052	-0.087
-596.025	-81.306	0.281	0.092
-595.011	-200.000	0.024	0.310
-593.996	-128.807	0.299	0.042
-592.982	17.718	-0.130	-0.103
-591.967	-30.591	-0.170	0.096
-590.952	529.707	0.116	-0.274
-589.938	5.613	-0.115	-0.085
-588.923	-55.146	-0.133	0.060
-587.909	-5.895	0.111	0.076
-586.894	-92.306	-0.247	-0.070
-585.879	-200.000	-0.002	-0.024
-584.865	158.190	-0.063	-0.088
-583.850	800.000	0.012	0.045
-582.836	-142.196	0.264	0.026
-581.821	-200.000	-0.084	-0.389
-580.806	-14.931	0.150	0.096
-579.792	-200.000	0.015	0.252
-578.777	4.350	-0.105	-0.077
-577.763	-156.586	0.665	-0.041
-576.748	61.546	0.270	-0.268
-575.733	-162.200	-0.253	-0.013
-574.719	36.881	0.089	0.078
-573.704	100.533	-0.261	-0.302
-572.690	-103.727	-0.238	-0.056
-571.675	112.691	0.239	0.288
-570.661	282.474	-0.075	-0.134
-569.646	48.830	0.079	-0.074
-568.631	60.062	-0.223	-0.219
-567.617	-94.196	-0.366	-0.100
-566.602	800.000	-0.024	-0.089
-565.588	-78.052	-0.284	0.097
-564.573	-200.000	-0.033	-0.216
-563.558	800.000	-0.017	-0.051
-562.544	-59.715	-0.065	0.028
-561.529	255.834	-0.127	-0.217
-560.515	800.000	-0.037	-0.156
-559.500	-200.000	-0.002	-0.193
-558.485	7.752	0.048	0.036
-557.471	103.262	-0.065	0.075
-556.456	56.169	0.167	-0.161
-555.442	525.851	0.090	-0.211
-554.427	800.000	-0.132	-0.391
-553.412	683.597	0.064	0.166
-552.398	463.963	0.090	0.201
-551.383	-87.368	0.186	0.056
-550.369	-117.720	0.131	-0.023
-549.354	40.204	0.141	-0.127
-548.339	-159.047	-0.251	-0.014
-547.325	-60.574	0.100	-0.042
-546.310	107.612	-0.157	-0.186
-545.296	-85.128	-0.313	0.098
-544.281	42.609	-0.242	0.220
-543.266	108.065	0.262	0.311
-542.252	58.902	0.031	-0.031
-541.237	-200.000	-0.024	0.277
-540.223	800.000	-0.044	-0.137
-539.208	-170.664	-0.198	0.007
-538.193	-78.142	0.209	0.072
-537.179	-200.000	0.033	-0.231
-536.164	-200.000	0.018	-0.297
-535.150	427.397	-0.100	0.214
-534.135	469.492	0.064	0.143
-533.121	-50.471	-0.262	-0.123
-532.106	800.000	-0.024	-0.074
-531.091	-60.873	-0.246	0.103
-530.077	172.861	-0.260	0.373
-529.062	164.436	-0.033	-0.046
-528.048	-85.181	-0.418	-0.130
-527.033	101.876	-0.127	0.148
-526.018	-200.000	-0.031	0.229
-525.004	57.670	-0.113	-0.110
-523.989	-200.000	-0.039	0.240
-522.975	14.662	0.175	0.136
-521.960	-8.977	0.167	0.111
-520.945	483.102	-0.009	-0.021
-519.931	-100.493	0.183	-0.045
-518.916	99.437	-0.329	-0.379
-517.902	123.804	0.080	-0.100
-516.887	1.255	-0.390	0.278
-515.872	61.642	0.329	0.326
-514.858	-200.000	0.044	0.247
-513.843	-88.292	-0.349	0.104
-512.829	526.838	-0.011	-0.026
-511.814	-182.481	0.388	0.007
-510.799	-124.760	-0.518	-0.080
-509.785	-151.852	-0.115	-0.008
-508.770	-200.000	-0.000	0.020
-507.756	-101.034	-0.076	-0.018
-506.741	-9.537	0.088	0.058
-505.726	800.000	-0.152	0.435
-504.712	268.187	0.117	0.204
-503.697	-147.368	0.415	0.035
-502.683	-200.000	0.037	0.326
-501.668	-127.426	0.367	-0.053
-500.653	92.653	0.143	-0.161
-499.639	12.660	0.110	0.085
-498.624	-43.260	-0.239	0.120
-497.610	-56.830	-0.132	-0.058
-496.595	800.000	0.051	-0.167
-495.581	-74.719	0.138	0.049
-494.566	-81.685	-0.100	-0.033
-493.551	800.000	-0.022	0.069
-492.537	-0.666	-0.153	-0.108
-491.522	-200.000	0.034	-0.180
-490.508	-99.866	-0.228	-0.057
-489.493	-71.494	0.125	0.046
-488.478	104.194	-0.047	0.055
-487.464	-87.400	-0.109	-0.033
-486.449	89.247	-0.161	-0.178
-485.435	633.425	0.029	0.074
-484.420	-125.289	-0.209	0.032
-483.405	74.901	-0.130	0.136
-482.391	-200.000	0.074	0.331
-481.376	-200.000	0.042	0.273
-480.362	95.785	-0.155	-0.176
-479.347	-52.093	-0.147	-0.068
-478.332	201.188	-0.188	0.288
-477.318	-126.632	-0.118	0.017
-476.303	-200.000	-0.006	-0.290
-475.289	-53.429	-0.194	0.088
-474.274	800.000	-0.039	0.143
-473.259	78.485	0.148	0.157
-472.245	-200.000	0.003	0.088
-471.230	128.947	0.224	0.284
-470.216	-170.935	0.233	-0.008
-469.201	-26.148	-0.218	0.127
-468.186	-81.698	0.195	0.063
-467.172	400.899	0.046	-0.096
-466.157	2.573	-0.220	0.158
-465.143	-67.891	-0.050	-0.019
-464.128	85.022	-0.069	-0.076
-463.113	-107.453	-0.197	0.043
-462.099	240.575	0.090	0.148
-461.084	127.999	0.083	0.104
-460.070	-20.392	0.171	-0.104
-459.055	-200.000	-0.005	0.076
-458.040	432.430	0.047	0.101
-457.026	-112.608	-0.084	0.017
-456.011	153.277	0.052	0.071
-454.997	-200.000	-0.027	-0.372
-453.982	-170.645	-0.182	-0.006
-452.968	14.948	-0.075	0.058
-451.953	-24.121	0.291	0.173
-450.938	57.607	0.157	0.153
-449.924	-26.591	-0.159	0.093
-448.909	-200.000	-0.011	-0.273
-447.895	-71.022	0.088	-0.033
-446.880	66.215	-0.218	-0.220
-445.865	-35.571	-0.338	0.182
-444.851	-5.147	-0.301	-0.205
-443.836	-35.217	0.196	-0.106
-442.822	77.613	0.082	0.087
-441.807	-200.000	0.020	0.227
-440.792	-15.041	0.068	0.043
-439.778	-31.018	-0.060	0.033
-438.763	-179.438	-0.298	0.007
-437.749	-91.506	-0.293	-0.083
-436.734	-151.701	0.317	0.023
-435.719	-82.671	-0.251	0.081
-434.705	-137.459	-0.074	0.008
-433.690	-181.538	0.285	-0.006
-432.676	-118.830	-0.119	-0.021
-431.661	141.441	0.004	0.005
-430.646	183.983	0.103	0.151
-429.632	-73.749	-0.151	-0.055
-428.617	249.428	-0.222	0.373
-427.603	104.236	-0.123	-0.143
-426.588	-153.833	-0.016	-0.001
-425.573	293.481	-0.174	0.315
-424.559	-62.856	0.100	0.041
-423.544	800.000	-0.014	0.041
-422.530	-88.101	0.176	-0.052
-421.515	38.920	0.186	0.165
-420.500	-170.359	-0.093	0.003
-419.486	436.756	-0.061	-0.131
-418.471	-200.000	0.011	0.097
-417.457	800.000	-0.095	0.277
-416.442	-50.628	-0.323	0.151
-415.428	1.398	-0.158	-0.112
-414.413	-30.251	-0.115	-0.064
-413.398	-69.300	0.219	0.083
-412.384	-190.456	-0.204	0.002
-411.369	800.000	0.027	-0.094
-410.355	21.615	-0.102	-0.082
-409.340	195.659	0.046	0.070
-408.325	568.281	0.067	-0.161
-407.311	112.591	0.185	0.222
-406.296	7.922	0.102	-0.076
-405.282	125.498	-0.043	0.054
-404.267	57.265	0.209	0.202
-403.252	304.589	0.345	-0.635
-402.238	60.508	-0.102	-0.100
-401.223	-106.706	0.045	-0.010
-400.209	8.879	-0.098	0.073
-399.194	-22.576	-0.182	0.109
-398.179	800.000	0.040	0.147
-397.165	68.837	-0.225	-0.229
-396.150	41.011	-0.455	0.407
-395.136	800.000	0.038	-0.130
-394.121	-200.000	0.034	0.283
-393.106	117.900	-0.131	-0.159
-392.092	-85.877	-0.085	0.026
-391.077	-97.898	-0.145	0.037
-390.063	-200.000	0.045	0.483
-389.048	-73.538	0.183	0.066
-388.033	-164.368	0.202	0.009
-387.019	-25.629	0.378	-0.221
-386.004	-141.103	-0.197	-0.020
-384.990	-62.358	-0.182	0.075
-383.975	131.747	-0.142	-0.181
-382.960	-23.120	0.010	0.006
-381.946	800.000	0.020	-0.083
-380.931	123.166	0.184	0.228
-379.917	-200.000	0.024	-0.339
-378.902	149.726	-0.150	-0.202
-377.888	-200.000	-0.036	-0.311
-376.873	800.000	-0.088	-0.284
-375.858	800.000	-0.109	0.400
-374.844	613.659	0.132	-0.327
-373.829	-60.432	0.129	0.054
-372.815	-173.315	0.223	-0.007
-371.800	-200.000	-0.023	-0.103
-370.785	30.814	-0.113	-0.096
-369.771	95.652	-0.168	-0.190
-368.756	502.664	0.126	-0.288
-367.742	-108.724	-0.240	-0.051
-366.727	-200.000	0.024	0.116
-365.712	-200.000	-0.011	0.144
-364.698	-68.597	-0.298	-0.114
-363.683	502.810	0.087	-0.198
-362.669	-50.817	0.194	-0.090
-361.654	-200.000	-0.014	-0.116
-360.639	-100.921	-0.132	0.032
-359.625	-53.250	0.300	-0.136
-358.610	-200.000	-0.041	-0.184
-357.596	13.946	-0.135	-0.104
-356.581	-85.569	-0.234	0.072
-355.566	134.914	-0.193	0.247
-354.552	170.324	0.043	0.061
-353.537	723.656	0.091	0.239
-352.523	-98.346	-0.174	0.044
-351.508	-159.603	-0.368	0.020
-350.493	633.654	0.035	-0.089
-349.479	68.552	-0.113	0.115
-348.464	-80.821	0.209	-0.069
-347.450	346.993	-0.042	-0.082
-346.435	88.002	0.200	0.220
-345.420	-111.476	-0.044	-0.009
-344.406	800.000	-0.090	-0.371
-343.391	-200.000	0.071	-0.491
-342.377	75.328	0.146	-0.153
-341.362	-93.381	0.084	-0.023
-340.348	-200.000	0.006	0.163
-339.333	800.000	0.103	-0.363
-338.318	-83.600	0.254	-0.080
-337.304	-200.000	-0.011	0.111
-336.289	58.205	0.024	-0.023
-335.275	241.955	-0.065	0.107
-334.260	-88.720	-0.318	0.093
-333.245	-88.753	-0.007	0.002
-332.231	132.954	0.109	0.139
-331.216	782.476	-0.045	0.121
-330.202	189.340	-0.085	-0.126
-329.187	36.765	0.226	0.197
-328.172	-154.324	-0.152	-0.010
-327.158	-113.600	0.264	-0.051
-326.143	279.819	-0.128	-0.225
-325.129	34.588	0.090	-0.078
-324.114	152.532	-0.073	-0.098
-323.099	800.000	0.043	-0.124
-322.085	-13.523	0.344	0.220
-321.070	-130.785	0.062	-0.008
-320.056	-200.000	-0.010	0.087
-319.041	-84.997	0.217	0.067
-318.026	-8.103	-0.125	0.083
-317.012	-59.289	0.365	0.155
-315.997	-129.509	0.233	0.032
-314.983	800.000	-0.064	-0.274
-313.968	-200.000	0.001	-0.089
-312.953	21.351	0.196	0.157
-311.939	-23.370	-0.284	0.168
-310.924	800.000	-0.051	0.153
-309.910	-129.950	-0.037	0.005
-308.895	432.237	-0.034	0.073
-307.880	-88.370	-0.348	0.103
-306.866	-94.418	0.321	-0.086
-305.851	-200.000	-0.075	-0.359
-304.837	800.000	0.137	-0.389
-303.822	800.000	-0.055	-0.171
-302.807	307.225	-0.035	-0.065
-301.793	-200.000	-0.033	0.210
-300.778	-200.000	-0.009	-0.057
-299.764	-200.000	-0.019	0.455
-298.749	-200.000	-0.013	-0.264
-297.735	-139.092	0.423	0.045
-296.720	30.120	0.301	0.253
-295.705	326.826	-0.133	0.251
-294.691	401.947	0.112	0.232
-293.676	-19.331	-0.211	-0.129
-292.662	198.255	0.178	-0.268
-291.647	-71.176	-0.176	-0.065
-290.632	-35.353	0.468	0.251
-289.618	-200.000	-0.009	-0.298
-288.603	275.238	0.164	-0.286
-287.589	84.479	0.209	0.225
-286.574	-38.308	0.364	0.190
-285.559	-82.088	0.114	0.037
-284.545	245.275	-0.184	0.304
-283.530	161.036	-0.047	0.065
-282.516	-200.000	0.018	-0.093
-281.501	-90.611	0.140	-0.040
-280.486	11.990	-0.215	-0.163
-279.472	30.351	0.058	-0.048
-278.457	-45.066	0.186	-0.091
-277.443	107.090	-0.144	-0.169
-276.428	-15.144	-0.535	-0.338
-275.413	-79.543	0.631	0.210
-274.399	5.461	0.121	0.088
-273.384	800.000	0.020	0.067
-272.370	-36.579	-0.196	0.104
-271.355	105.219	0.056	0.065
-270.340	-200.000	0.013	-0.066
-269.326	800.000	0.069	-0.260
-268.311	66.273	-0.203	-0.203
-267.297	800.000	0.066	-0.183
-266.282	-200.000	-0.044	0.250
-265.267	155.001	0.013	0.017
-264.253	67.678	-0.215	0.216
-263.238	378.581	-0.099	0.199
-262.224	-200.000	-0.017	0.088
-261.209	9.481	0.342	-0.255
-260.195	8.969	-0.083	0.062
-259.180	-200.000	0.004	-0.016
-258.165	-13.258	0.289	0.185
-257.151	95.977	-0.160	-0.180
-256.136	-75.345	0.194	0.068
-255.122	349.332	-0.094	-0.183
-254.107	800.000	-0.019	0.053
-253.092	-22.046	0.079	-0.048
-252.078	102.126	-0.177	0.203
-251.063	-100.331	-0.184	-0.045
-250.049	689.546	-0.080	-0.207
-249.034	-67.369	0.159	-0.061
-248.019	75.843	0.081	0.084
-247.005	234.039	0.086	-0.139
-245.990	9.197	-0.167	-0.124
-244.976	-23.782	0.322	-0.190
-243.961	-94.514	0.205	-0.055
-242.946	-125.164	0.020	-0.003
-241.932	316.491	0.160	-0.297
-240.917	-200.000	0.014	0.110
-239.903	-66.875	0.177	0.069
-238.888	416.013	0.095	0.200
-237.873	360.925	0.193	-0.381
-236.859	-200.000	0.070	0.363
-235.844	-200.000	-0.011	-0.173
-234.830	800.000	0.109	0.323
-233.815	-200.000	0.007	0.421
-232.800	-22.695	-0.175	0.104
-231.786	-118.670	0.154	0.027
-230.771	704.403	0.110	0.285
-229.757	434.555	-0.035	-0.075
-228.742	252.471	-0.107	0.179
-227.727	-4.056	-0.304	-0.207
-226.713	-66.675	0.188	-0.073
-225.698	-44.554	-0.053	-0.026
-224.684	-158.007	-0.207	0.012
-223.669	107.607	0.334	0.391
-222.655	34.071	-0.149	-0.128
-221.640	-81.453	0.378	0.122
-220.625	-125.728	0.231	-0.034
-219.611	-99.787	0.124	-0.031
-218.596	-15.304	-0.027	0.017
-217.582	-200.000	-0.086	-0.429
-216.567	-200.000	0.040	-0.217
-215.552	-156.586	0.032	-0.002
-214.538	94.467	-0.056	0.063
-213.523	-139.191	0.217	-0.023
-212.509	-148.409	-0.011	-0.001
-211.494	70.791	0.088	-0.090
-210.479	-200.000	-0.015	0.114
-209.465	432.015	-0.050	0.106
-208.450	-103.936	-0.082	-0.019
-207.436	-115.074	0.075	0.014
-206.421	-65.503	0.153	0.060
-205.406	487.457	-0.069	-0.154
-204.392	652.148	0.139	0.351
-203.377	-200.000	-0.081	-0.398
-202.363	501.943	0.063	0.143
-201.348	477.374	-0.151	0.335
-200.333	305.806	0.141	-0.258
-199.319	181.889	0.150	0.217
-198.304	-40.437	0.241	-0.123
-197.290	800.000	0.083	-0.241
-196.275	125.798	0.215	0.266
-195.260	327.028	0.106	-0.199
-194.246	211.932	0.213	-0.329
-193.231	-161.163	-0.308	-0.016
-192.217	-24.530	0.316	-0.185
-191.202	74.105	-0.308	0.318
-190.187	449.326	0.051	-0.110
-189.173	800.000	0.067	0.256
-188.158	-200.000	-0.005	-0.109
-187.144	50.947	-0.175	0.163
-186.129	85.177	-0.062	-0.067
-185.114	314.969	0.162	0.299
-184.100	-200.000	0.032	0.209
-183.085	-31.668	-0.219	0.121
-182.071	90.498	0.085	-0.093
-181.056	-99.676	0.264	0.065
-180.042	-4.400	0.166	0.113
-179.027	218.491	-0.082	0.129
-178.012	-92.401	-0.125	-0.035
-176.998	-55.483	-0.128	-0.056
-175.983	-150.425	-0.039	0.003
-174.969	-45.433	-0.188	0.092
-173.954	129.449	-0.102	0.128
-172.939	108.770	-0.183	-0.214
-171.925	800.000	-0.054	-0.169
-170.910	89.994	-0.077	0.085
-169.896	-140.890	0.213	0.022
-168.881	372.837	0.200	-0.400
-167.866	800.000	0.046	-0.189
-166.852	-25.164	-0.344	-0.200
-165.837	15.556	0.101	0.078
-164.823	104.219	-0.076	0.088
-163.808	800.000	0.020	0.083
-162.793	800.000	0.067	0.251
-161.779	-0.426	-0.246	0.171
-160.764	590.953	-0.051	-0.123
-159.750	121.131	-0.163	0.199
-158.735	800.000	0.041	0.164
-157.720	32.455	-0.339	-0.288
-156.706	-99.060	0.140	0.035
-155.691	192.902	0.133	0.197
-154.677	-86.782	0.389	-0.117
-153.662	-59.923	-0.270	0.113
-152.647	20.759	0.243	0.193
-151.633	-39.181	0.173	-0.089
-150.618	800.000	-0.039	-0.107
-149.604	-13.665	0.114	-0.072
-148.589	-133.322	0.129	-0.016
-147.574	-25.988	-0.326	0.188
-146.560	800.000	0.096	0.337
-145.545	47.671	0.168	-0.154
-144.531	-149.693	0.277	-0.021
-143.516	800.000	0.083	0.275
-142.502	-91.425	0.092	0.026
-141.487	-48.299	0.102	0.048
-140.472	-100.354	0.291	-0.071
-139.458	184.128	-0.269	-0.390
-138.443	-36.822	0.215	-0.113
-137.429	-200.000	-0.004	-0.225
-136.414	-104.537	0.479	-0.108
-135.399	-115.413	-0.166	-0.031
-134.385	-200.000	-0.019	-0.302
-133.370	-200.000	-0.013	-0.107
-132.356	-5.234	0.161	0.109
-131.341	-103.700	-0.046	0.011
-130.326	-200.000	0.030	-0.182
-129.312	-193.981	-0.235	0.002
-128.297	-200.000	-0.016	0.110
-127.283	-112.440	0.091	0.018
-126.268	363.435	-0.024	0.047
-125.253	800.000	0.068	0.186
-124.239	16.625	0.124	0.096
-123.224	115.544	0.245	0.293
-122.210	-200.000	0.005	0.424
-121.195	-33.104	-0.114	0.062
