DTS Sentinel unit serial number:	SN413079Multiplexer serial number:	ORYXHardware model number:	OX4-SRSoftware version number:	ORYX F/W v4.00 Oryx Data Collector v3.7.2.0data status	okinstallation	princeton_trtdifferential loss correction	single-endedforward channel	channel 2reverse channel	N/Adate	2019/09/12time	21:03:34forward acquisition time	60.00reverse acquisition time	0.00gamma	496.2192k internal	0.2328k external	0.2328temperature offset calibration	1.0162default loss term (dB/km)	0.3790temperature slope calibration	1.0000multiplexer offset coefficient	1.0000multiplexer slope coefficient	1.0000fibre end	0.00T internal ref (°C)	30.81T ext. ref 1 (°C)	3.57T ext. ref 2 (°C)	25.33length (m)	temperature (°C)	Stokes	anti-Stokes-747.200	-180.701	0.359	0.007
-746.185	-69.973	-0.393	0.151
-745.171	-129.232	-0.028	0.004
-744.156	-24.213	0.171	-0.103
-743.142	316.349	0.138	-0.263
-742.127	-200.000	-0.014	0.198
-741.112	-56.571	-0.242	0.108
-740.098	-100.606	0.209	0.052
-739.083	270.025	0.061	-0.108
-738.069	43.119	-0.099	0.091
-737.054	99.089	-0.113	-0.132
-736.039	158.479	-0.358	-0.501
-735.025	-165.757	-0.188	-0.008
-734.010	-200.000	0.003	-0.053
-732.996	-93.485	-0.117	0.033
-731.981	-200.000	0.005	0.147
-730.966	-14.966	0.209	-0.135
-729.952	367.600	-0.109	-0.222
-728.937	30.316	-0.138	-0.119
-727.923	-33.732	0.191	0.106
-726.908	-14.850	0.218	-0.141
-725.894	-200.000	0.022	0.191
-724.879	-42.326	-0.212	-0.109
-723.864	-200.000	0.010	0.157
-722.850	-0.160	-0.257	0.184
-721.835	-200.000	-0.029	0.370
-720.821	336.502	0.085	0.167
-719.806	-125.928	-0.355	0.054
-718.791	-37.618	0.230	-0.124
-717.777	205.823	0.073	-0.114
-716.762	-123.803	-0.127	0.020
-715.748	-138.969	-0.189	0.021
-714.733	70.326	-0.082	-0.085
-713.718	-33.278	-0.125	0.070
-712.704	231.805	0.115	-0.190
-711.689	-200.000	-0.009	-0.200
-710.675	22.757	0.245	-0.202
-709.660	-200.000	0.045	-0.450
-708.645	800.000	-0.100	0.292
-707.631	209.699	0.151	-0.238
-706.616	-130.496	0.047	0.006
-705.602	-159.150	-0.091	-0.005
-704.587	30.663	0.070	-0.060
-703.572	-79.730	-0.484	0.164
-702.558	29.713	0.179	0.153
-701.543	800.000	0.100	0.279
-700.529	66.641	0.173	-0.177
-699.514	800.000	0.118	0.330
-698.499	35.122	0.355	-0.312
-697.485	-200.000	0.003	-0.068
-696.470	251.530	-0.115	-0.197
-695.456	-78.729	-0.237	-0.081
-694.441	-98.381	-0.211	-0.054
-693.426	-200.000	0.048	-0.263
-692.412	37.473	0.176	0.157
-691.397	-54.739	0.239	-0.109
-690.383	146.448	-0.243	-0.329
-689.368	-83.054	0.308	0.100
-688.354	-116.712	0.189	0.035
-687.339	-177.061	-0.320	0.008
-686.324	641.987	-0.121	-0.311
-685.310	-200.000	-0.006	-0.040
-684.295	-186.468	-0.194	0.003
-683.281	-146.673	0.093	-0.008
-682.266	-93.472	0.132	0.037
-681.251	25.256	0.098	0.082
-680.237	309.473	-0.073	-0.136
-679.222	56.507	-0.118	0.116
-678.208	424.526	-0.073	0.157
-677.193	-50.800	0.134	-0.064
-676.178	-200.000	0.009	-0.092
-675.164	108.566	-0.207	-0.248
-674.149	264.769	0.067	0.118
-673.135	-42.165	-0.223	0.114
-672.120	4.808	-0.188	-0.139
-671.105	276.652	0.084	-0.149
-670.091	-48.566	-0.254	0.123
-669.076	-8.604	-0.177	-0.119
-668.062	410.666	-0.086	-0.184
-667.047	131.630	0.099	-0.129
-666.032	-62.419	0.088	-0.037
-665.018	113.624	0.200	0.244
-664.003	800.000	-0.042	0.145
-662.989	111.805	0.099	0.120
-661.974	-200.000	-0.014	0.127
-660.959	-85.547	-0.140	-0.044
-659.945	-141.168	0.028	-0.003
-658.930	270.891	0.025	-0.045
-657.916	264.183	-0.188	-0.329
-656.901	568.860	0.078	0.191
-655.886	51.860	-0.259	-0.247
-654.872	-50.676	-0.152	0.072
-653.857	685.351	-0.065	0.171
-652.843	-200.000	0.117	0.543
-651.828	-7.619	0.031	-0.021
-650.814	281.356	-0.087	0.156
-649.799	-168.185	-0.487	0.019
-648.784	-23.056	-0.382	-0.231
-647.770	125.848	-0.035	-0.044
-646.755	135.471	-0.209	-0.273
-645.741	-135.089	0.176	0.021
-644.726	-73.571	-0.043	0.016
-643.711	-65.855	0.207	0.083
-642.697	-66.656	0.187	-0.075
-641.682	-17.801	-0.201	0.127
-640.668	26.356	-0.121	-0.102
-639.653	68.797	-0.230	-0.237
-638.638	-28.660	0.116	-0.067
-637.624	800.000	-0.081	0.265
-636.609	152.431	0.135	0.185
-635.595	57.159	0.236	-0.231
-634.580	351.409	-0.110	0.219
-633.565	259.428	0.155	-0.269
-632.551	-37.398	0.395	-0.212
-631.536	-58.301	-0.191	-0.084
-630.522	157.449	-0.179	0.249
-629.507	-83.845	0.380	-0.121
-628.492	42.318	0.204	-0.186
-627.478	149.081	-0.052	-0.071
-626.463	391.777	-0.085	-0.178
-625.449	3.287	0.183	-0.133
-624.434	-18.463	-0.147	-0.092
-623.419	-200.000	0.039	-0.236
-622.405	-39.468	0.259	-0.136
-621.390	-89.766	0.213	-0.063
-620.376	-107.478	0.148	-0.032
-619.361	-200.000	-0.003	-0.090
-618.346	-115.093	0.052	0.010
-617.332	374.073	-0.071	0.145
-616.317	8.688	-0.149	0.113
-615.303	30.949	-0.114	0.098
-614.288	239.362	0.175	0.293
-613.273	-20.555	0.082	0.051
-612.259	-88.869	-0.213	-0.063
-611.244	-200.000	0.308	0.001
-610.230	-72.357	0.173	-0.064
-609.215	62.152	0.165	0.165
-608.201	103.170	-0.049	0.058
-607.186	-27.334	0.295	-0.172
-606.171	-11.022	0.205	0.136
-605.157	98.929	-0.241	-0.278
-604.142	-200.000	-0.011	-0.182
-603.128	142.985	0.228	-0.304
-602.113	-96.208	0.137	0.036
-601.098	-123.185	-0.306	-0.049
-600.084	209.505	-0.147	-0.231
-599.069	-28.358	0.208	-0.120
-598.055	-200.000	0.023	0.111
-597.040	9.327	0.050	0.038
-596.025	-166.330	-0.103	0.004
-595.011	29.259	-0.111	-0.095
-593.996	54.926	-0.147	-0.143
-592.982	317.905	0.239	-0.453
-591.967	-31.849	-0.261	-0.146
-590.952	-157.480	0.120	0.007
-589.938	472.194	0.066	-0.148
-588.923	83.336	-0.229	0.250
-587.909	270.714	-0.054	0.095
-586.894	-29.954	-0.107	-0.061
-585.879	5.492	0.436	-0.322
-584.865	-91.768	-0.186	0.053
-583.850	-9.762	-0.119	0.079
-582.836	680.930	0.099	-0.258
-581.821	-200.000	0.013	0.206
-580.806	109.405	-0.060	-0.072
-579.792	113.851	-0.116	-0.142
-578.777	30.377	-0.138	-0.118
-577.763	-200.000	0.014	-0.166
-576.748	-160.351	-0.159	0.009
-575.733	-172.361	-0.308	0.010
-574.719	800.000	0.033	-0.124
-573.704	-200.000	0.006	0.136
-572.690	-70.729	0.242	-0.092
-571.675	-67.836	0.102	-0.040
-570.661	-44.172	0.363	0.182
-569.646	340.245	-0.145	0.284
-568.631	-55.935	0.170	-0.076
-567.617	132.319	-0.085	-0.109
-566.602	-51.414	0.210	0.098
-565.588	-26.627	0.437	0.256
-564.573	60.761	-0.110	-0.110
-563.558	-200.000	-0.013	-0.094
-562.544	-200.000	0.021	-0.094
-561.529	-96.447	0.074	-0.020
-560.515	-185.269	-0.107	-0.002
-559.500	800.000	-0.028	0.102
-558.485	76.719	0.215	0.228
-557.471	-154.661	0.224	0.015
-556.456	-102.093	-0.454	0.109
-555.442	39.507	-0.161	-0.144
-554.427	241.299	0.229	-0.382
-553.412	519.625	0.079	-0.184
-552.398	-27.711	0.167	-0.097
-551.383	354.196	0.124	-0.246
-550.369	20.944	0.133	0.108
-549.354	352.258	-0.022	-0.044
-548.339	66.733	0.145	-0.147
-547.325	-6.617	-0.127	0.086
-546.310	701.554	0.009	-0.023
-545.296	-109.936	-0.216	-0.045
-544.281	-137.786	-0.279	0.031
-543.266	332.895	0.052	-0.100
-542.252	296.928	0.061	0.112
-541.237	-92.509	-0.064	-0.018
-540.223	67.940	-0.248	0.253
-539.208	-51.606	-0.156	-0.073
-538.193	-13.394	-0.232	0.150
-537.179	19.120	0.004	-0.003
-536.164	84.612	-0.242	0.265
-535.150	-62.219	0.235	-0.098
-534.135	-200.000	0.051	-0.453
-533.121	-200.000	0.001	0.105
-532.106	800.000	-0.043	-0.153
-531.091	52.830	-0.189	-0.180
-530.077	39.073	0.351	-0.313
-529.062	-108.888	-0.135	0.029
-528.048	-116.247	0.068	0.013
-527.033	-200.000	0.037	0.422
-526.018	-200.000	0.006	-0.036
-525.004	190.239	0.204	-0.307
-523.989	-126.555	-0.167	-0.025
-522.975	-49.279	0.101	0.048
-521.960	25.504	-0.155	-0.129
-520.945	-13.266	0.253	0.164
-519.931	-28.220	-0.202	-0.117
-518.916	133.021	0.145	0.187
-517.902	58.520	-0.009	0.009
-516.887	-2.494	0.236	0.165
-515.872	79.765	0.168	-0.180
-514.858	-200.000	-0.059	0.262
-513.843	800.000	0.078	0.294
-512.829	-98.844	0.251	0.064
-511.814	154.732	0.088	-0.120
-510.799	54.643	-0.414	-0.398
-509.785	334.509	-0.100	-0.194
-508.770	800.000	0.070	-0.254
-507.756	-96.004	-0.114	-0.030
-506.741	328.316	0.181	0.347
-505.726	-200.000	0.041	0.227
-504.712	39.467	-0.150	-0.134
-503.697	247.261	-0.125	-0.210
-502.683	36.165	0.012	-0.011
-501.668	800.000	0.077	-0.247
-500.653	166.389	-0.091	-0.129
-499.639	240.755	0.213	-0.355
-498.624	-148.201	0.035	-0.003
-497.610	-129.690	0.306	0.042
-496.595	-200.000	0.017	0.312
-495.581	-135.224	-0.245	0.029
-494.566	117.555	-0.080	0.098
-493.551	-200.000	0.002	0.121
-492.537	-15.254	-0.107	0.069
-491.522	-61.169	0.010	-0.004
-490.508	-200.000	-0.026	0.218
-489.493	-132.797	0.164	-0.021
-488.478	-126.563	-0.020	0.003
-487.464	-74.980	-0.313	0.112
-486.449	-93.149	-0.089	0.025
-485.435	-83.020	-0.123	-0.040
-484.420	60.961	-0.153	-0.152
-483.405	212.339	-0.100	-0.157
-482.391	206.350	-0.028	-0.043
-481.376	-132.159	-0.095	0.012
-480.362	81.247	-0.086	0.093
-479.347	10.405	-0.439	-0.334
-478.332	34.101	0.057	-0.049
-477.318	-3.369	0.176	-0.122
-476.303	19.727	0.100	0.080
-475.289	33.955	-0.438	0.381
-474.274	455.494	-0.058	-0.129
-473.259	-106.712	0.113	0.025
-472.245	176.103	0.116	0.168
-471.230	370.713	-0.046	0.094
-470.216	121.774	0.106	0.132
-469.201	-60.926	-0.116	0.049
-468.186	-99.098	-0.154	0.039
-467.172	313.190	0.145	0.271
-466.157	-131.190	0.304	0.040
-465.143	10.642	-0.166	0.126
-464.128	112.637	0.175	0.212
-463.113	101.375	0.336	0.390
-462.099	-61.531	-0.144	0.060
-461.084	361.934	-0.222	0.444
-460.070	-79.840	-0.124	0.042
-459.055	38.944	-0.342	0.304
-458.040	-133.267	0.216	0.027
-457.026	-200.000	-0.015	-0.262
-456.011	60.208	-0.066	-0.065
-454.997	-120.488	-0.339	-0.057
-453.982	800.000	-0.045	-0.190
-452.968	5.060	-0.123	-0.090
-451.953	-28.407	-0.149	0.086
-450.938	138.175	-0.222	0.289
-449.924	-136.527	0.110	-0.013
-448.909	40.777	0.223	-0.200
-447.895	-76.281	0.180	0.063
-446.880	506.742	0.067	0.156
-445.865	-22.134	-0.218	0.132
-444.851	-200.000	-0.028	-0.165
-443.836	-69.781	0.249	0.095
-442.822	-148.315	0.168	0.014
-441.807	-28.293	0.283	-0.163
-440.792	323.914	-0.176	0.335
-439.778	-200.000	-0.044	-0.227
-438.763	-79.851	0.397	-0.133
-437.749	-49.499	0.323	0.153
-436.734	34.367	0.412	0.358
-435.719	-72.664	0.125	0.046
-434.705	-200.000	0.032	0.276
-433.690	331.181	0.075	-0.144
-432.676	-200.000	-0.037	-0.250
-431.661	-0.443	0.261	0.185
-430.646	92.099	-0.132	0.148
-429.632	37.230	0.200	0.176
-428.617	145.164	0.072	-0.095
-427.603	-110.710	0.270	-0.056
-426.588	-108.609	0.499	-0.107
-425.573	330.630	-0.031	0.059
-424.559	800.000	0.044	-0.121
-423.544	-200.000	-0.015	-0.224
-422.530	-158.707	-0.104	0.006
-421.515	-100.141	0.247	0.061
-420.500	131.151	0.174	-0.222
-419.486	476.939	-0.179	0.402
-418.471	-200.000	0.010	0.230
-417.457	-26.225	-0.029	0.017
-416.442	-47.538	-0.175	0.085
-415.428	-147.234	-0.132	0.011
-414.413	-125.161	-0.166	-0.025
-413.398	-183.515	0.149	0.003
-412.384	-200.000	0.026	-0.282
-411.369	800.000	-0.047	0.195
-410.355	-16.369	-0.158	0.099
-409.340	669.127	-0.074	0.190
-408.325	133.314	0.128	-0.165
-407.311	-200.000	-0.027	0.232
-406.296	-93.933	-0.239	-0.065
-405.282	-119.036	0.212	0.037
-404.267	72.337	-0.208	0.216
-403.252	284.790	-0.035	-0.063
-402.238	637.627	0.119	-0.300
-401.223	-145.672	-0.259	0.023
-400.209	-72.335	-0.296	-0.109
-399.194	-153.951	-0.212	-0.014
-398.179	-40.873	-0.173	0.089
-397.165	372.221	0.164	-0.331
-396.150	-71.806	0.102	0.038
-395.136	-56.574	-0.093	0.041
-394.121	-83.569	-0.335	0.106
-393.106	418.805	-0.034	-0.073
-392.092	314.442	0.087	-0.164
-391.077	-16.669	0.133	0.083
-390.063	123.158	0.104	-0.130
-389.048	-22.977	-0.275	0.165
-388.033	-200.000	-0.155	-0.000
-387.019	30.542	-0.271	-0.230
-386.004	156.622	0.030	0.041
-384.990	303.195	-0.189	0.348
-383.975	301.759	-0.138	0.254
-382.960	372.487	-0.135	0.272
-381.946	-172.462	0.211	0.007
-380.931	-119.979	-0.305	-0.052
-379.917	-46.782	0.274	0.133
-378.902	2.261	-0.113	0.081
-377.888	-200.000	0.011	-0.152
-376.873	8.287	-0.056	0.042
-375.858	59.323	0.053	-0.052
-374.844	296.830	0.048	-0.088
-373.829	177.547	0.082	0.118
-372.815	-200.000	0.019	-0.209
-371.800	800.000	0.066	-0.187
-370.785	-200.000	0.029	0.153
-369.771	383.841	0.037	0.075
-368.756	-52.064	0.085	-0.039
-367.742	-16.474	0.145	0.091
-366.727	800.000	0.034	0.120
-365.712	120.912	-0.091	-0.112
-364.698	322.613	-0.027	0.052
-363.683	-200.000	0.014	0.106
-362.669	414.028	-0.169	0.358
-361.654	44.329	-0.084	-0.076
-360.639	270.107	-0.056	-0.098
-359.625	45.760	-0.406	0.372
-358.610	-140.314	-0.338	0.035
-357.596	-44.224	-0.381	0.190
-356.581	-74.817	-0.131	-0.047
-355.566	90.644	0.114	-0.127
-354.552	-102.782	0.084	-0.020
-353.537	73.620	0.269	0.280
-352.523	31.144	-0.148	-0.126
-351.508	98.645	0.068	-0.078
-350.493	20.429	-0.051	-0.041
-349.479	-2.258	-0.282	0.196
-348.464	-102.087	-0.088	0.021
-347.450	-200.000	-0.056	-0.246
-346.435	-200.000	0.078	-0.402
-345.420	-200.000	0.005	0.184
-344.406	-78.627	0.284	0.096
-343.391	-80.884	0.075	-0.025
-342.377	-200.000	-0.015	-0.138
-341.362	-124.312	-0.264	0.041
-340.348	-200.000	0.013	0.198
-339.333	179.712	-0.206	-0.299
-338.318	-123.530	0.181	0.029
-337.304	-10.966	0.176	0.115
-336.289	-200.000	-0.007	-0.152
-335.275	145.479	0.126	-0.167
-334.260	-181.568	0.275	-0.005
-333.245	82.502	-0.218	0.235
-332.231	-200.000	0.056	0.310
-331.216	471.276	0.164	0.367
-330.202	-50.682	-0.381	-0.178
-329.187	800.000	-0.014	-0.045
-328.172	-40.711	0.139	0.072
-327.158	800.000	-0.144	0.489
-326.143	-200.000	-0.002	0.101
-325.129	-200.000	-0.018	-0.184
-324.114	-83.085	-0.074	-0.024
-323.099	14.237	0.006	-0.005
-322.085	800.000	0.054	-0.207
-321.070	-200.000	0.024	-0.111
-320.056	-140.273	0.274	-0.028
-319.041	582.036	-0.118	-0.287
-318.026	259.661	-0.088	0.150
-317.012	388.130	0.186	0.380
-315.997	-103.165	-0.128	0.030
-314.983	33.502	0.123	0.106
-313.968	70.860	0.135	-0.139
-312.953	-8.145	-0.203	0.136
-311.939	30.527	0.089	-0.076
-310.924	-11.865	0.183	0.119
-309.910	800.000	-0.073	0.248
-308.895	93.561	0.206	0.231
-307.880	800.000	-0.107	-0.344
-306.866	-53.789	-0.468	-0.211
-305.851	-6.123	0.012	-0.008
-304.837	331.046	-0.218	0.415
-303.822	-111.512	0.272	-0.055
-302.807	57.903	-0.169	-0.164
-301.793	-87.050	-0.176	-0.053
-300.778	800.000	0.076	-0.263
-299.764	396.481	0.145	0.300
-298.749	-118.227	-0.066	0.012
-297.735	-200.000	-0.017	-0.523
-296.720	-56.759	-0.074	-0.032
-295.705	36.348	-0.202	0.176
-294.691	-200.000	0.024	0.279
-293.676	61.485	0.170	0.167
-292.662	-141.120	0.261	-0.026
-291.647	800.000	-0.031	-0.130
-290.632	-35.826	-0.249	-0.134
-289.618	-100.073	0.062	0.015
-288.603	-200.000	-0.007	0.137
-287.589	350.964	-0.175	0.344
-286.574	99.255	0.179	-0.205
-285.559	176.336	-0.067	-0.097
-284.545	242.691	0.253	-0.420
-283.530	800.000	0.024	-0.102
-282.516	-12.259	0.269	0.174
-281.501	35.675	-0.255	-0.222
-280.486	-57.401	-0.232	0.101
-279.472	-164.078	-0.169	0.008
-278.457	11.423	0.194	-0.147
-277.443	-14.404	-0.241	-0.153
-276.428	800.000	-0.027	0.115
-275.413	-200.000	0.036	0.457
-274.399	-83.929	-0.020	-0.006
-273.384	-51.505	-0.240	-0.111
-272.370	92.673	-0.084	-0.094
-271.355	-40.041	0.280	-0.144
-270.340	460.363	-0.077	0.170
-269.326	142.336	-0.205	0.270
-268.311	277.851	0.191	0.336
-267.297	800.000	0.052	-0.199
-266.282	-49.174	0.277	-0.131
-265.267	-200.000	0.005	-0.066
-264.253	53.030	-0.134	0.127
-263.238	7.368	0.054	0.040
-262.224	291.292	-0.100	-0.179
-261.209	-45.783	-0.036	0.018
-260.195	-94.896	0.202	-0.054
-259.180	-200.000	-0.049	0.269
-258.165	-200.000	0.069	0.335
-257.151	-200.000	-0.010	-0.345
-256.136	241.034	0.091	-0.150
-255.122	800.000	0.049	0.172
-254.107	100.823	-0.025	-0.029
-253.092	-200.000	0.010	-0.094
-252.078	51.283	-0.058	-0.054
-251.063	-100.167	0.277	0.068
-250.049	187.745	-0.283	0.417
-249.034	633.390	-0.094	0.235
-248.019	-200.000	0.400	0.001
-247.005	-47.342	-0.108	0.052
-245.990	-53.336	0.215	0.097
-244.976	511.244	-0.102	-0.234
-243.961	17.436	0.128	-0.101
-242.946	-200.000	-0.034	0.237
-241.932	800.000	0.041	-0.161
-240.917	13.184	-0.197	-0.151
-239.903	-200.000	-0.019	-0.132
-238.888	-168.647	-0.358	-0.013
-237.873	800.000	-0.054	0.166
-236.859	49.183	-0.037	0.034
-235.844	-76.924	0.331	0.114
-234.830	163.308	-0.114	0.158
-233.815	-200.000	0.007	-0.187
-232.800	548.354	-0.151	-0.356
-231.786	-170.589	-0.239	-0.008
-230.771	164.385	0.134	-0.187
-229.757	-200.000	0.035	-0.229
-228.742	153.701	0.094	-0.128
-227.727	-200.000	0.004	-0.029
-226.713	-111.575	0.270	0.054
-225.698	233.362	-0.026	-0.042
-224.684	227.299	0.149	-0.239
-223.669	-12.344	0.345	-0.223
-222.655	7.674	-0.189	0.139
-221.640	-200.000	-0.000	0.255
-220.625	149.163	0.167	0.223
-219.611	273.476	0.182	0.318
-218.596	10.541	0.030	0.023
-217.582	-60.882	-0.061	0.025
-216.567	-200.000	0.001	-0.075
-215.552	112.914	0.072	0.086
-214.538	93.291	0.289	-0.322
-213.523	-200.000	-0.043	-0.491
-212.509	14.905	-0.146	-0.113
-211.494	583.417	-0.136	-0.329
-210.479	265.620	0.023	0.039
-209.465	369.192	0.101	0.202
-208.450	-126.454	0.091	-0.013
-207.436	486.487	-0.039	-0.088
-206.421	24.615	-0.233	-0.190
-205.406	-92.340	-0.349	-0.097
-204.392	117.622	-0.220	-0.268
-203.377	-120.367	-0.186	-0.031
-202.363	800.000	-0.012	-0.046
-201.348	-200.000	0.012	0.296
-200.333	-43.116	0.142	0.071
-199.319	-200.000	0.169	0.001
-198.304	6.827	0.294	0.216
-197.290	-17.400	0.246	0.153
-196.275	-30.157	-0.275	-0.154
-195.260	-79.936	0.259	0.086
-194.246	-66.799	0.170	-0.066
-193.231	-97.925	-0.070	-0.018
-192.217	-200.000	0.011	0.148
-191.202	-24.258	0.314	-0.185
-190.187	-141.991	0.164	-0.016
-189.173	-60.552	0.231	0.097
-188.158	4.183	-0.303	-0.219
-187.144	800.000	0.050	-0.140
-186.129	-122.575	0.175	0.028
-185.114	63.282	-0.127	-0.125
-184.100	-101.895	0.174	-0.041
-183.085	767.229	-0.195	0.524
-182.071	-164.577	0.155	-0.007
-181.056	366.493	-0.089	-0.178
-180.042	-200.000	0.009	-0.102
-179.027	800.000	0.117	-0.377
-178.012	90.237	-0.137	-0.151
-176.998	173.373	-0.135	-0.192
-175.983	414.520	0.049	0.103
-174.969	110.609	0.053	-0.063
-173.954	32.435	0.063	0.054
-172.939	-200.000	0.014	0.114
-171.925	800.000	0.016	-0.066
-170.910	79.572	-0.281	0.297
-169.896	-0.189	0.084	0.059
-168.881	-200.000	-0.004	0.476
-167.866	255.483	-0.097	-0.164
-166.852	-154.912	-0.358	0.023
-165.837	146.150	0.139	0.184
-164.823	366.303	0.096	-0.191
-163.808	-147.446	-0.294	0.025
-162.793	646.142	0.066	0.166
-161.779	54.921	0.117	0.111
-160.764	-116.603	-0.106	0.019
-159.750	-11.554	-0.200	0.129
-158.735	-200.000	0.048	0.358
-157.720	114.846	-0.165	-0.198
-156.706	-200.000	0.042	-0.210
-155.691	399.194	0.059	-0.122
-154.677	-200.000	0.031	0.330
-153.662	-70.967	0.225	0.083
-152.647	-200.000	-0.038	-0.175
-151.633	-200.000	0.041	0.366
-150.618	393.453	0.079	-0.162
-149.604	16.487	-0.171	0.133
-148.589	177.283	-0.192	-0.275
-147.574	13.962	0.185	0.142
-146.560	800.000	-0.097	-0.290
-145.545	-26.610	0.237	0.136
-144.531	-33.168	0.321	0.175
-143.516	207.528	-0.026	-0.040
-142.502	-200.000	0.046	-0.282
-141.487	-42.707	0.201	0.100
-140.472	-200.000	-0.017	-0.077
-139.458	171.856	0.062	0.087
-138.443	73.398	-0.108	0.111
-137.429	-102.018	0.210	0.050
-136.414	56.042	0.093	0.088
-135.399	-42.778	0.274	0.137
-134.385	7.185	-0.231	0.170
-133.370	-7.905	-0.296	-0.196
-132.356	-30.355	-0.092	0.051
-131.341	-200.000	-0.016	-0.163
-130.326	143.565	-0.215	0.282
-129.312	126.406	0.064	0.080
-128.297	74.759	-0.114	-0.118
-127.283	27.108	0.108	-0.089
-126.268	-44.157	-0.160	-0.079
-125.253	124.114	-0.046	-0.056
-124.239	-200.000	0.046	0.598
-123.224	21.403	-0.122	0.097
-122.210	0.760	-0.209	0.147
-121.195	114.770	0.038	0.046
-120.180	348.513	-0.187	0.364
