DTS Sentinel unit serial number:	SN413079Multiplexer serial number:	ORYXHardware model number:	OX4-SRSoftware version number:	ORYX F/W v4.00 Oryx Data Collector v3.7.2.0data status	okinstallation	princeton_trtdifferential loss correction	single-endedforward channel	channel 2reverse channel	N/Adate	2019/09/11time	00:13:11forward acquisition time	60.00reverse acquisition time	0.00gamma	496.2192k internal	0.2331k external	0.2331temperature offset calibration	0.9944default loss term (dB/km)	0.3790temperature slope calibration	1.0000multiplexer offset coefficient	1.0000multiplexer slope coefficient	1.0000fibre end	0.00T internal ref (°C)	29.31T ext. ref 1 (°C)	-0.32T ext. ref 2 (°C)	22.92length (m)	temperature (°C)	Stokes	anti-Stokes-747.200	287.544	0.113	-0.206
-746.185	-120.297	0.257	-0.044
-745.171	140.949	0.132	-0.175
-744.156	-95.984	-0.263	0.070
-743.142	-56.927	-0.148	0.066
-742.127	-133.321	0.254	-0.032
-741.112	520.648	-0.108	0.255
-740.098	364.743	0.054	0.109
-739.083	18.865	0.336	-0.271
-738.069	-77.796	0.252	-0.087
-737.054	31.773	0.120	0.104
-736.039	-28.241	-0.266	-0.155
-735.025	-164.008	0.061	-0.003
-734.010	-198.540	0.021	0.000
-732.996	-55.129	0.330	-0.149
-731.981	390.653	0.077	0.161
-730.966	268.041	0.111	0.196
-729.952	80.341	-0.400	-0.433
-728.937	-2.357	-0.063	-0.045
-727.923	-91.546	0.106	0.030
-726.908	13.281	0.168	0.131
-725.894	0.112	-0.207	-0.148
-724.879	157.334	-0.120	0.167
-723.864	361.268	-0.062	0.124
-722.850	111.879	-0.202	0.245
-721.835	0.763	-0.173	0.125
-720.821	-139.115	0.157	0.017
-719.806	-119.920	0.169	0.029
-718.791	-19.643	-0.148	-0.092
-717.777	-200.000	-0.026	-0.149
-716.762	-96.552	-0.367	-0.097
-715.748	151.383	0.182	0.250
-714.733	-41.869	-0.190	-0.098
-713.718	141.668	-0.067	0.090
-712.704	392.069	0.205	0.429
-711.689	393.413	0.064	-0.134
-710.675	78.597	-0.173	0.186
-709.660	395.355	0.095	-0.199
-708.645	231.354	0.223	-0.367
-707.631	800.000	0.010	0.036
-706.616	-94.821	-0.113	0.031
-705.602	248.469	0.183	0.311
-704.587	-178.169	0.301	-0.007
-703.572	-200.000	0.023	0.158
-702.558	-184.284	0.261	-0.004
-701.543	391.703	-0.105	0.218
-700.529	-41.111	0.064	-0.033
-699.514	-200.000	0.016	0.103
-698.499	47.182	0.153	-0.143
-697.485	-81.451	-0.217	-0.072
-696.470	-116.877	0.349	0.064
-695.456	-165.548	0.193	0.008
-694.441	80.502	0.075	-0.081
-693.426	428.814	-0.175	0.379
-692.412	50.385	-0.129	0.123
-691.397	-18.977	0.021	-0.013
-690.383	-71.690	0.254	-0.095
-689.368	16.078	-0.222	0.176
-688.354	292.009	-0.173	0.317
-687.339	-43.828	0.024	0.012
-686.324	278.329	-0.083	-0.148
-685.310	-77.298	-0.303	0.106
-684.295	-13.778	-0.288	0.187
-683.281	-200.000	-0.065	0.339
-682.266	109.701	0.089	-0.107
-681.251	-118.593	-0.230	-0.041
-680.237	-200.000	-0.005	-0.241
-679.222	-200.000	0.035	-0.174
-678.208	-5.032	0.177	-0.122
-677.193	140.420	0.050	-0.067
-676.178	234.256	-0.104	-0.172
-675.164	-141.551	-0.305	-0.031
-674.149	-117.212	-0.250	-0.046
-673.135	75.220	0.074	0.078
-672.120	800.000	-0.036	0.100
-671.105	-200.000	0.044	-0.374
-670.091	41.252	-0.296	-0.268
-669.076	176.887	0.147	-0.215
-668.062	31.715	0.021	0.018
-667.047	116.750	0.113	0.139
-666.032	197.328	-0.076	0.116
-665.018	1.067	-0.326	-0.234
-664.003	800.000	0.041	0.157
-662.989	570.445	-0.086	0.210
-661.974	-79.153	0.195	-0.067
-660.959	-200.000	-0.018	0.139
-659.945	-135.136	-0.370	-0.045
-658.930	61.227	-0.125	-0.125
-657.916	-12.013	0.111	0.073
-656.901	-156.627	-0.132	-0.008
-655.886	-94.898	0.169	0.046
-654.872	-108.365	-0.202	0.044
-653.857	258.538	0.197	0.340
-652.843	-200.000	0.009	0.100
-651.828	694.686	-0.065	-0.171
-650.814	800.000	-0.050	-0.193
-649.799	-68.144	-0.079	-0.031
-648.784	-103.081	-0.111	-0.026
-647.770	800.000	-0.100	0.282
-646.755	-153.272	-0.258	0.018
-645.741	21.603	0.221	-0.180
-644.726	-86.756	-0.075	0.023
-643.711	0.797	-0.184	-0.132
-642.697	56.777	-0.083	0.081
-641.682	0.651	-0.304	0.218
-640.668	-58.168	-0.205	-0.090
-639.653	152.819	0.148	-0.202
-638.638	-62.899	-0.205	0.085
-637.624	-94.308	-0.308	0.084
-636.609	104.618	0.180	-0.213
-635.595	-44.274	-0.296	-0.149
-634.580	-200.000	-0.003	-0.046
-633.565	56.987	0.190	-0.186
-632.551	-163.301	-0.368	0.018
-631.536	800.000	0.080	0.289
-630.522	-117.397	-0.207	-0.038
-629.507	195.474	-0.014	-0.021
-628.492	-200.000	-0.018	0.184
-627.478	-200.000	-0.041	0.226
-626.463	-200.000	-0.019	-0.144
-625.449	-55.050	-0.117	-0.053
-624.434	-94.021	0.464	0.128
-623.419	89.268	-0.220	0.245
-622.405	323.364	-0.102	0.194
-621.390	516.144	0.117	0.274
-620.376	129.414	0.379	-0.484
-619.361	193.981	0.047	0.072
-618.346	-99.101	-0.236	-0.060
-617.332	268.494	0.182	-0.319
-616.317	182.038	-0.075	-0.110
-615.303	-27.457	0.161	-0.094
-614.288	421.439	-0.049	0.105
-613.273	196.462	-0.079	0.121
-612.259	-44.498	-0.114	-0.057
-611.244	-125.802	0.076	-0.011
-610.230	-159.629	-0.167	-0.009
-609.215	800.000	-0.027	-0.092
-608.201	67.993	-0.135	-0.138
-607.186	-165.402	-0.074	0.003
-606.171	27.665	-0.025	-0.021
-605.157	-200.000	-0.090	-0.533
-604.142	-40.751	-0.118	0.061
-603.128	-52.225	0.214	-0.099
-602.113	500.456	0.047	0.109
-601.098	-39.092	-0.118	0.062
-600.084	-63.802	0.250	0.103
-599.069	51.885	-0.144	0.138
-598.055	103.934	0.224	-0.263
-597.040	-112.669	0.175	-0.035
-596.025	-200.000	-0.012	0.103
-595.011	286.751	-0.015	-0.028
-593.996	317.685	-0.053	-0.100
-592.982	800.000	-0.013	0.041
-591.967	-86.363	0.180	-0.055
-590.952	-200.000	-0.030	0.190
-589.938	800.000	-0.065	0.221
-588.923	193.018	0.169	0.256
-587.909	-88.159	-0.170	-0.051
-586.894	24.095	0.282	-0.233
-585.879	-47.832	-0.256	0.124
-584.865	544.108	0.062	-0.148
-583.850	-46.756	-0.231	0.113
-582.836	-97.439	0.090	-0.023
-581.821	-109.184	-0.321	-0.068
-580.806	-138.352	-0.089	-0.010
-579.792	-69.455	0.126	0.048
-578.777	-50.155	-0.590	-0.279
-577.763	-149.790	-0.255	0.020
-576.748	-143.323	-0.384	0.037
-575.733	19.523	0.128	-0.103
-574.719	-96.366	0.080	-0.021
-573.704	112.530	-0.150	-0.181
-572.690	800.000	-0.014	-0.040
-571.675	-95.860	0.373	-0.099
-570.661	95.115	-0.116	0.132
-569.646	-104.489	-0.253	-0.059
-568.631	-119.680	0.172	-0.030
-567.617	585.234	-0.141	-0.347
-566.602	-17.041	-0.200	-0.126
-565.588	-116.067	-0.178	-0.033
-564.573	526.318	-0.038	0.089
-563.558	45.627	-0.281	0.259
-562.544	159.109	-0.111	0.155
-561.529	-100.669	-0.267	0.066
-560.515	110.045	0.237	-0.284
-559.500	800.000	-0.067	-0.193
-558.485	602.838	-0.032	-0.080
-557.471	255.347	-0.101	0.173
-556.456	-200.000	-0.002	-0.142
-555.442	-108.280	0.158	0.034
-554.427	-200.000	-0.009	0.226
-553.412	800.000	-0.063	0.273
-552.398	-200.000	-0.001	0.279
-551.383	-113.982	-0.280	-0.054
-550.369	800.000	-0.062	-0.255
-549.354	205.351	0.120	-0.186
-548.339	127.267	-0.046	-0.059
-547.325	116.353	-0.129	-0.157
-546.310	-61.525	0.214	0.090
-545.296	-200.000	0.012	0.304
-544.281	-113.405	0.318	-0.062
-543.266	-53.539	-0.142	-0.065
-542.252	102.867	0.222	-0.260
-541.237	-24.033	0.175	0.104
-540.223	-120.074	0.208	-0.035
-539.208	-73.521	-0.290	0.106
-538.193	-86.168	0.098	0.030
-537.179	99.939	-0.137	0.158
-536.164	-124.473	0.115	0.018
-535.150	-102.276	-0.156	-0.037
-534.135	-74.737	-0.333	-0.119
-533.121	476.363	0.077	0.174
-532.106	800.000	0.109	0.374
-531.091	-46.357	0.104	-0.051
-530.077	-139.151	-0.138	-0.015
-529.062	-167.028	0.298	0.012
-528.048	355.536	0.125	-0.247
-527.033	-200.000	0.029	0.465
-526.018	74.540	0.024	0.025
-525.004	778.510	0.046	0.124
-523.989	80.996	-0.147	0.158
-522.975	-200.000	-0.006	-0.031
-521.960	749.277	0.051	0.137
-520.945	-200.000	0.024	-0.241
-519.931	800.000	0.096	-0.382
-518.916	-116.979	-0.173	0.031
-517.902	800.000	0.072	-0.259
-516.887	-87.980	-0.140	0.042
-515.872	291.122	-0.061	-0.111
-514.858	-47.694	0.065	0.031
-513.843	-200.000	0.028	0.179
-512.829	-46.406	-0.421	-0.206
-511.814	-102.872	-0.403	-0.095
-510.799	-99.322	0.315	0.079
-509.785	230.687	0.105	-0.171
-508.770	-200.000	-0.070	-0.319
-507.756	-11.838	0.128	0.084
-506.741	-200.000	0.015	0.084
-505.726	62.143	0.057	0.057
-504.712	446.123	-0.100	0.220
-503.697	-71.871	-0.408	-0.151
-502.683	-36.528	-0.118	-0.064
-501.668	40.756	-0.075	0.068
-500.653	-95.775	0.197	0.053
-499.639	-125.551	-0.138	-0.021
-498.624	-50.911	0.184	-0.086
-497.610	356.240	-0.152	0.301
-496.595	-86.314	-0.147	0.045
-495.581	-26.503	-0.185	-0.108
-494.566	352.935	0.063	0.124
-493.551	363.775	-0.005	-0.011
-492.537	433.250	-0.169	-0.366
-491.522	-61.869	0.055	-0.023
-490.508	272.049	-0.077	0.135
-489.493	-31.459	-0.282	0.158
-488.478	-78.230	0.273	0.093
-487.464	570.976	0.057	-0.139
-486.449	-9.006	-0.259	0.173
-485.435	-200.000	-0.040	0.337
-484.420	32.631	-0.141	0.121
-483.405	-119.435	0.295	0.051
-482.391	307.866	-0.077	0.143
-481.376	-120.336	0.084	0.014
-480.362	80.993	0.044	-0.048
-479.347	-151.504	0.358	-0.026
-478.332	329.350	0.040	0.076
-477.318	800.000	0.026	-0.108
-476.303	193.858	0.037	-0.056
-475.289	-200.000	-0.008	0.296
-474.274	30.818	0.094	0.080
-473.259	11.072	-0.126	0.096
-472.245	800.000	-0.050	-0.157
-471.230	153.442	0.089	0.121
-470.216	800.000	0.031	-0.103
-469.201	258.110	-0.163	-0.279
-468.186	34.918	0.231	-0.202
-467.172	-68.292	-0.346	-0.134
-466.157	-47.738	0.180	0.087
-465.143	364.079	-0.083	-0.166
-464.128	-200.000	-0.008	0.055
-463.113	-95.445	0.345	0.092
-462.099	-200.000	0.013	-0.343
-461.084	-40.245	-0.323	-0.167
-460.070	-200.000	-0.034	-0.179
-459.055	800.000	-0.028	-0.084
-458.040	8.193	0.032	0.024
-457.026	46.654	0.238	-0.220
-456.011	-74.776	-0.305	0.109
-454.997	-200.000	-0.002	0.181
-453.982	160.401	0.036	0.050
-452.968	-153.911	0.391	0.027
-451.953	429.975	-0.299	-0.643
-450.938	540.266	0.112	0.265
-449.924	597.433	0.054	0.134
-448.909	323.971	-0.144	-0.273
-447.895	718.038	-0.109	0.288
-446.880	34.874	0.104	0.091
-445.865	150.806	-0.136	0.184
-444.851	-138.821	0.285	-0.031
-443.836	-200.000	0.046	-0.201
-442.822	-200.000	-0.066	-0.297
-441.807	-174.042	0.103	-0.003
-440.792	499.554	0.087	-0.200
-439.778	-200.000	0.002	-0.034
-438.763	-45.539	0.195	-0.096
-437.749	105.769	0.352	-0.414
-436.734	-27.881	0.307	0.177
-435.719	-200.000	-0.013	-0.127
-434.705	800.000	-0.038	0.121
-433.690	-52.240	-0.288	-0.133
-432.676	339.536	0.082	0.159
-431.661	-200.000	0.005	0.130
-430.646	-200.000	0.052	0.232
-429.632	345.391	-0.033	0.065
-428.617	-200.000	-0.014	0.273
-427.603	-38.507	0.089	-0.047
-426.588	90.961	0.070	-0.078
-425.573	246.517	0.113	0.189
-424.559	800.000	-0.031	0.095
-423.544	-102.973	-0.077	-0.018
-422.530	-174.088	0.219	0.006
-421.515	264.506	0.113	0.196
-420.500	777.850	-0.067	-0.183
-419.486	800.000	0.080	-0.236
-418.471	86.742	-0.084	0.092
-417.457	429.326	-0.038	-0.081
-416.442	76.116	-0.222	0.233
-415.428	-69.812	-0.078	-0.030
-414.413	-19.641	0.156	-0.096
-413.398	-38.451	0.084	0.044
-412.384	-200.000	-0.012	-0.109
-411.369	-126.194	0.297	-0.044
-410.355	388.413	0.221	-0.455
-409.340	-200.000	0.045	0.210
-408.325	342.593	0.156	-0.304
-407.311	-52.932	0.037	-0.017
-406.296	800.000	0.012	-0.035
-405.282	800.000	-0.015	-0.061
-404.267	-61.462	0.296	-0.123
-403.252	-126.043	0.393	0.059
-402.238	-200.000	0.285	-0.001
-401.223	28.654	-0.091	-0.077
-400.209	-117.296	-0.240	0.043
-399.194	82.687	-0.029	0.032
-398.179	-200.000	-0.030	0.227
-397.165	-124.145	0.092	0.014
-396.150	258.671	-0.064	0.110
-395.136	617.362	-0.058	-0.144
-394.121	-200.000	-0.001	0.010
-393.106	44.354	-0.372	-0.339
-392.092	331.377	0.171	0.327
-391.077	-171.943	0.142	0.005
-390.063	-195.036	0.316	-0.002
-389.048	800.000	-0.063	-0.245
-388.033	451.540	0.043	0.094
-387.019	-200.000	-0.003	0.083
-386.004	69.712	0.136	0.139
-384.990	-86.228	-0.174	0.053
-383.975	435.276	-0.066	0.142
-382.960	425.289	-0.052	-0.111
-381.946	-128.303	-0.273	0.039
-380.931	17.170	0.100	0.079
-379.917	358.156	0.138	-0.274
-378.902	-10.166	0.158	0.104
-377.888	800.000	-0.024	0.099
-376.873	800.000	-0.014	-0.039
-375.858	800.000	0.095	0.268
-374.844	-200.000	0.046	-0.216
-373.829	11.801	-0.216	-0.165
-372.815	273.771	0.141	0.247
-371.800	800.000	0.060	0.167
-370.785	76.118	0.120	0.126
-369.771	-200.000	0.006	-0.283
-368.756	-86.879	-0.326	0.099
-367.742	97.616	0.110	0.126
-366.727	-89.946	0.039	0.011
-365.712	36.488	0.026	-0.023
-364.698	-181.376	0.341	0.007
-363.683	-172.437	-0.269	-0.008
-362.669	800.000	0.057	0.181
-361.654	-153.956	0.314	0.021
-360.639	-25.259	0.281	0.165
-359.625	-20.537	-0.259	0.158
-358.610	283.855	-0.184	0.329
-357.596	-88.752	-0.105	-0.031
-356.581	800.000	-0.023	0.088
-355.566	-200.000	-0.041	0.181
-354.552	68.855	0.162	-0.165
-353.537	-142.809	-0.268	-0.026
-352.523	-200.000	0.020	-0.436
-351.508	-200.000	0.025	0.130
-350.493	430.139	-0.140	-0.300
-349.479	800.000	-0.055	0.169
-348.464	-185.433	0.100	-0.002
-347.450	34.956	-0.102	0.088
-346.435	103.012	-0.178	0.206
-345.420	574.738	-0.090	0.217
-344.406	528.685	-0.141	-0.329
-343.391	-30.190	0.151	-0.085
-342.377	-18.941	-0.215	-0.133
-341.362	-127.604	-0.167	0.024
-340.348	386.707	0.105	-0.214
-339.333	800.000	0.026	0.091
-338.318	-47.037	-0.215	-0.104
-337.304	-30.505	-0.217	0.122
-336.289	61.198	-0.156	-0.153
-335.275	32.125	-0.113	-0.096
-334.260	-88.387	-0.155	0.046
-333.245	-108.795	-0.305	0.065
-332.231	446.034	0.101	-0.219
-331.216	-76.070	-0.289	-0.101
-330.202	-136.960	0.286	0.032
-329.187	-99.680	0.232	0.058
-328.172	-162.584	0.290	-0.014
-327.158	236.861	-0.115	-0.188
-326.143	527.765	0.112	-0.261
-325.129	-2.004	-0.335	-0.233
-324.114	-5.705	0.160	0.108
-323.099	-200.000	0.004	-0.117
-322.085	401.473	0.215	0.448
-321.070	-41.818	0.017	0.009
-320.056	103.511	0.211	-0.245
-319.041	-141.095	0.083	0.008
-318.026	800.000	-0.094	-0.257
-317.012	-87.698	0.224	0.067
-315.997	-102.093	-0.298	-0.071
-314.983	141.432	-0.118	-0.155
-313.968	-200.000	-0.039	-0.255
-312.953	130.700	-0.138	-0.175
-311.939	-8.525	0.163	0.108
-310.924	800.000	0.099	0.367
-309.910	60.116	-0.267	0.261
-308.895	44.833	-0.205	-0.187
-307.880	-183.752	0.205	-0.003
-306.866	26.312	-0.223	-0.185
-305.851	-200.000	-0.039	0.301
-304.837	-119.893	-0.124	0.021
-303.822	5.235	0.124	-0.090
-302.807	17.115	0.056	0.044
-301.793	40.791	-0.181	0.161
-300.778	800.000	0.045	0.138
-299.764	63.931	-0.115	0.114
-298.749	780.810	-0.033	0.090
-297.735	32.910	0.188	-0.161
-296.720	-83.127	0.273	-0.087
-295.705	-200.000	-0.007	0.128
-294.691	800.000	0.084	-0.257
-293.676	-80.580	0.101	-0.033
-292.662	-200.000	-0.031	0.208
-291.647	90.022	-0.085	-0.094
-290.632	582.123	0.150	0.363
-289.618	-200.000	0.006	0.256
-288.603	5.706	-0.172	0.125
-287.589	-84.245	0.286	0.090
-286.574	-200.000	0.028	-0.373
-285.559	-200.000	0.004	-0.274
-284.545	372.679	-0.054	-0.108
-283.530	37.744	-0.232	0.204
-282.516	-89.569	-0.148	0.043
-281.501	-200.000	-0.011	0.218
-280.486	800.000	0.061	0.217
-279.472	41.673	0.314	-0.281
-278.457	-87.916	-0.059	0.018
-277.443	-200.000	0.005	0.060
-276.428	89.462	0.274	0.302
-275.413	207.292	0.164	0.253
-274.399	-56.683	-0.315	-0.138
-273.384	-200.000	0.016	-0.197
-272.370	-87.325	-0.100	0.030
-271.355	-200.000	0.007	-0.039
-270.340	-102.241	0.063	-0.015
-269.326	-76.498	0.265	-0.092
-268.311	800.000	0.038	0.144
-267.297	-200.000	-0.040	0.316
-266.282	590.661	0.070	-0.171
-265.267	-88.656	0.205	-0.060
-264.253	-66.765	0.269	-0.105
-263.238	-58.131	0.179	0.077
-262.224	118.877	-0.132	-0.161
-261.209	-71.178	-0.345	0.128
-260.195	128.176	0.048	0.060
-259.180	800.000	0.046	0.189
-258.165	682.160	-0.040	0.103
-257.151	-200.000	0.001	0.282
-256.136	225.832	0.032	0.051
-255.122	-34.678	-0.303	0.164
-254.107	233.956	0.018	-0.029
-253.092	258.353	0.116	-0.198
-252.078	161.317	0.157	0.217
-251.063	-46.645	-0.222	-0.107
-250.049	51.428	0.102	-0.096
-249.034	-200.000	-0.027	-0.154
-248.019	-102.965	0.225	0.053
-247.005	-42.334	0.205	-0.103
-245.990	195.402	-0.167	-0.250
-244.976	276.081	0.065	0.114
-243.961	800.000	-0.031	-0.130
-242.946	800.000	-0.048	0.197
-241.932	-91.675	-0.055	0.015
-240.917	209.950	-0.019	0.029
-239.903	109.695	-0.129	0.153
-238.888	800.000	0.021	0.064
-237.873	-111.741	0.099	0.020
-236.859	800.000	0.107	0.311
-235.844	-106.705	0.141	0.031
-234.830	800.000	0.033	0.120
-233.815	678.865	0.063	-0.161
-232.800	-162.190	0.189	0.009
-231.786	591.454	0.083	-0.201
-230.771	800.000	0.051	0.148
-229.757	43.861	0.208	0.187
-228.742	-173.621	0.107	-0.003
-227.727	581.522	-0.093	0.224
-226.713	-200.000	0.003	0.129
-225.698	181.137	0.135	-0.195
-224.684	-62.605	0.235	0.096
-223.669	-128.035	-0.364	0.051
-222.655	-95.771	0.176	0.046
-221.640	-88.613	-0.173	0.051
-220.625	-200.000	0.008	-0.096
-219.611	-200.000	0.027	0.190
-218.596	376.445	-0.022	-0.044
-217.582	-170.019	0.617	-0.022
-216.567	-82.190	-0.380	-0.122
-215.552	800.000	-0.081	-0.284
-214.538	800.000	0.098	0.269
-213.523	78.056	0.236	0.249
-212.509	800.000	-0.137	-0.454
-211.494	-44.728	0.044	-0.022
-210.479	555.225	-0.135	0.319
-209.465	-139.322	-0.245	0.026
-208.450	86.722	-0.152	0.165
-207.436	351.204	0.152	-0.297
-206.421	-34.929	0.239	-0.128
-205.406	137.184	0.017	0.022
-204.392	56.866	0.102	-0.098
-203.377	-9.087	-0.191	0.126
-202.363	-119.845	0.369	0.063
-201.348	-55.719	0.060	-0.026
-200.333	342.635	0.080	0.155
-199.319	-30.037	0.071	-0.040
-198.304	-68.173	0.147	-0.056
-197.290	207.259	0.162	0.249
-196.275	-42.518	0.218	0.110
-195.260	-200.000	-0.002	-0.143
-194.246	-200.000	-0.008	0.108
-193.231	27.331	-0.062	-0.051
-192.217	143.222	0.040	-0.053
-191.202	-53.305	-0.284	0.128
-190.187	246.577	0.114	-0.190
-189.173	213.483	-0.141	-0.220
-188.158	-55.977	-0.222	-0.097
-187.144	14.504	0.245	0.188
-186.129	800.000	-0.082	0.266
-185.114	-85.813	-0.210	-0.064
-184.100	6.384	-0.228	-0.167
-183.085	800.000	0.037	0.122
-182.071	170.764	0.210	0.296
-181.056	-200.000	-0.054	0.237
-180.042	-200.000	-0.007	0.090
-179.027	104.819	0.180	-0.209
-178.012	-117.695	-0.282	-0.050
-176.998	-65.983	-0.037	0.015
-175.983	664.936	0.053	-0.135
-174.969	-103.701	-0.131	0.030
-173.954	0.856	0.042	0.030
-172.939	-36.195	0.327	-0.174
-171.925	148.839	0.196	-0.261
-170.910	-78.300	-0.074	0.025
-169.896	-66.245	0.249	-0.097
-168.881	-57.107	-0.215	0.093
-167.866	-35.283	0.037	0.020
-166.852	152.490	-0.061	0.082
-165.837	220.991	-0.085	0.135
-164.823	-200.000	-0.038	-0.331
-163.808	614.691	-0.099	-0.243
-162.793	-170.126	-0.243	-0.008
-161.779	-113.517	0.110	-0.021
-160.764	254.888	0.049	-0.083
-159.750	-87.375	0.220	-0.065
-158.735	800.000	0.037	0.108
-157.720	157.188	0.260	0.354
-156.706	-200.000	-0.037	-0.203
-155.691	103.776	0.155	0.179
-154.677	-200.000	0.008	0.080
-153.662	261.877	-0.107	-0.182
-152.647	-169.206	0.208	0.008
-151.633	-200.000	-0.012	-0.130
-150.618	-183.964	-0.134	0.002
-149.604	348.276	0.042	-0.082
-148.589	-200.000	0.013	0.550
-147.574	-85.321	-0.153	0.047
-146.560	-8.468	0.031	-0.020
-145.545	-108.890	-0.243	-0.051
-144.531	502.894	-0.116	-0.264
-143.516	210.342	0.064	0.098
-142.502	-117.471	0.380	-0.068
-141.487	800.000	-0.089	-0.271
-140.472	-156.816	0.420	-0.025
-139.458	485.312	0.093	-0.208
-138.443	-0.525	-0.214	0.149
-137.429	90.882	-0.074	0.081
-136.414	16.400	0.140	0.108
-135.399	-200.000	-0.017	-0.307
-134.385	-200.000	0.132	0.577
-133.370	-200.000	0.010	0.299
-132.356	283.207	0.113	-0.199
-131.341	125.006	-0.251	-0.311
-130.326	-200.000	0.012	0.136
-129.312	154.893	-0.124	-0.167
-128.297	-87.686	0.397	-0.118
-127.283	-196.975	0.098	-0.001
-126.268	-200.000	-0.043	0.238
-125.253	-25.809	-0.130	0.075
-124.239	127.852	-0.070	-0.087
-123.224	-200.000	-0.063	-0.319
-122.210	-200.000	0.028	-0.137
-121.195	-60.774	0.209	0.087
