DTS Sentinel unit serial number:	SN413079Multiplexer serial number:	ORYXHardware model number:	OX4-SRSoftware version number:	ORYX F/W v4.00 Oryx Data Collector v3.7.2.0data status	okinstallation	princeton_trtdifferential loss correction	single-endedforward channel	channel 2reverse channel	N/Adate	2019/09/19time	06:11:35forward acquisition time	60.00reverse acquisition time	0.00gamma	496.2192k internal	0.2351k external	0.2351temperature offset calibration	1.0013default loss term (dB/km)	0.3790temperature slope calibration	1.0000multiplexer offset coefficient	1.0000multiplexer slope coefficient	1.0000fibre end	0.00T internal ref (°C)	19.12T ext. ref 1 (°C)	0.58T ext. ref 2 (°C)	12.74length (m)	temperature (°C)	Stokes	anti-Stokes-747.200	-10.697	0.222	0.146
-746.185	-200.000	0.018	0.157
-745.171	800.000	-0.080	0.284
-744.156	25.185	-0.201	0.167
-743.142	113.068	0.076	0.092
-742.127	-167.828	-0.342	-0.013
-741.112	-200.000	-0.011	-0.062
-740.098	-200.000	-0.059	0.363
-739.083	-200.000	0.017	0.091
-738.069	-146.147	-0.407	0.036
-737.054	-156.334	0.243	0.015
-736.039	-200.000	-0.167	-0.001
-735.025	132.045	0.023	0.030
-734.010	-26.791	-0.080	0.047
-732.996	-200.000	0.019	-0.171
-731.981	-200.000	-0.004	-0.213
-730.966	64.181	0.250	-0.251
-729.952	-111.187	-0.266	-0.054
-728.937	694.747	0.049	-0.128
-727.923	42.127	-0.289	-0.262
-726.908	6.582	-0.202	-0.150
-725.894	134.290	0.202	-0.261
-724.879	-27.928	-0.304	0.175
-723.864	186.737	0.053	-0.078
-722.850	221.686	0.132	-0.212
-721.835	800.000	-0.038	0.153
-720.821	67.894	0.043	-0.044
-719.806	-190.352	0.128	0.001
-718.791	-99.474	-0.215	-0.054
-717.777	-173.480	-0.436	0.013
-716.762	800.000	0.022	0.089
-715.748	40.174	0.090	-0.081
-714.733	-200.000	-0.020	0.095
-713.718	-119.672	0.302	0.052
-712.704	-142.273	0.058	0.006
-711.689	243.649	0.131	-0.219
-710.675	-18.532	-0.188	0.117
-709.660	800.000	-0.127	0.425
-708.645	-149.675	-0.050	-0.004
-707.631	311.024	-0.013	0.024
-706.616	278.885	-0.045	-0.081
-705.602	-52.982	-0.331	-0.152
-704.587	109.956	-0.087	-0.104
-703.572	-119.568	-0.067	0.012
-702.558	284.646	0.105	0.188
-701.543	622.998	0.021	-0.052
-700.529	-99.205	0.038	-0.010
-699.514	242.766	0.061	-0.101
-698.499	800.000	0.113	0.318
-697.485	-41.951	-0.238	0.122
-696.470	-86.258	-0.315	-0.097
-695.456	108.853	0.134	0.160
-694.441	0.395	-0.272	-0.194
-693.426	196.628	0.127	0.193
-692.412	-35.136	-0.410	-0.222
-691.397	49.443	0.102	0.095
-690.383	-200.000	-0.004	-0.057
-689.368	-200.000	0.007	0.042
-688.354	-23.622	-0.186	-0.111
-687.339	-200.000	-0.006	0.103
-686.324	66.277	0.035	-0.036
-685.310	240.282	-0.086	-0.142
-684.295	-200.000	-0.027	-0.185
-683.281	198.794	-0.047	-0.072
-682.266	-200.000	0.010	0.156
-681.251	-101.165	0.198	-0.048
-680.237	-102.507	-0.177	-0.042
-679.222	168.659	-0.176	-0.249
-678.208	-54.131	-0.217	-0.098
-677.193	-200.000	0.001	0.147
-676.178	-200.000	-0.023	-0.188
-675.164	568.802	0.078	0.188
-674.149	-59.929	-0.060	0.025
-673.135	86.326	-0.135	-0.148
-672.120	133.431	0.118	-0.151
-671.105	-200.000	0.008	-0.115
-670.091	-64.271	-0.008	0.003
-669.076	48.101	-0.335	-0.311
-668.062	-117.104	-0.255	-0.046
-667.047	179.668	-0.206	-0.300
-666.032	-200.000	-0.043	-0.258
-665.018	8.397	-0.058	0.044
-664.003	-27.692	0.247	0.142
-662.989	-6.659	0.165	0.112
-661.974	-87.569	-0.210	0.063
-660.959	-200.000	0.006	0.231
-659.945	-3.834	-0.105	-0.072
-658.930	800.000	-0.061	-0.181
-657.916	-200.000	0.013	-0.426
-656.901	-200.000	-0.004	-0.137
-655.886	800.000	-0.137	0.401
-654.872	456.577	0.033	0.073
-653.857	800.000	0.055	-0.215
-652.843	-17.647	0.130	-0.081
-651.828	-87.038	-0.313	0.095
-650.814	-45.227	0.180	0.089
-649.799	-35.936	-0.213	0.115
-648.784	-123.390	0.064	-0.010
-647.770	113.863	-0.134	-0.162
-646.755	329.030	-0.179	0.343
-645.741	-65.415	0.039	0.016
-644.726	800.000	0.059	-0.253
-643.711	15.829	-0.440	-0.344
-642.697	-122.288	0.150	0.024
-641.682	182.314	-0.147	-0.216
-640.668	-59.616	0.092	0.039
-639.653	800.000	-0.066	0.249
-638.638	-90.428	0.131	0.038
-637.624	800.000	-0.014	0.054
-636.609	-54.380	0.189	0.085
-635.595	211.523	0.092	-0.144
-634.580	482.169	-0.128	-0.288
-633.565	-174.697	-0.156	0.004
-632.551	242.611	0.160	-0.267
-631.536	-200.000	0.011	-0.163
-630.522	-200.000	0.036	0.354
-629.507	793.447	-0.127	-0.347
-628.492	-200.000	0.013	-0.238
-627.478	-48.953	-0.187	-0.089
-626.463	46.848	0.129	-0.119
-625.449	800.000	0.063	0.223
-624.434	70.497	0.141	0.145
-623.419	405.118	-0.146	0.307
-622.405	-164.357	0.028	-0.001
-621.390	7.545	0.267	0.198
-620.376	174.976	-0.157	-0.226
-619.361	-28.329	0.418	-0.239
-618.346	-185.516	0.320	-0.005
-617.332	-3.894	-0.183	0.126
-616.317	228.743	-0.158	0.256
-615.303	-200.000	0.052	-0.252
-614.288	266.448	0.058	-0.101
-613.273	-121.008	-0.081	0.014
-612.259	197.560	0.077	-0.116
-611.244	-53.930	0.353	-0.160
-610.230	800.000	0.136	-0.390
-609.215	-190.298	-0.019	-0.000
-608.201	-200.000	0.014	-0.149
-607.186	747.409	-0.059	-0.158
-606.171	686.641	0.025	0.064
-605.157	-200.000	-0.031	0.140
-604.142	131.610	0.174	0.223
-603.128	-41.744	-0.407	0.207
-602.113	-200.000	0.123	-0.545
-601.098	-37.090	0.071	-0.038
-600.084	-26.455	0.133	0.077
-599.069	64.793	0.090	0.090
-598.055	-99.570	0.211	0.053
-597.040	-200.000	0.028	0.139
-596.025	313.142	0.033	-0.062
-595.011	87.293	0.207	-0.227
-593.996	-200.000	0.034	0.331
-592.982	-76.475	0.187	0.065
-591.967	570.163	0.090	0.217
-590.952	46.984	0.259	-0.239
-589.938	800.000	0.035	-0.149
-588.923	21.780	0.345	-0.279
-587.909	-155.288	-0.318	0.021
-586.894	-200.000	-0.087	-0.415
-585.879	-38.639	-0.210	0.110
-584.865	-70.539	0.208	-0.078
-583.850	45.219	-0.106	-0.097
-582.836	574.432	0.090	0.218
-581.821	-200.000	-0.025	-0.173
-580.806	32.542	0.164	0.141
-579.792	84.696	0.383	0.416
-578.777	-41.020	0.224	0.115
-577.763	-200.000	-0.014	-0.297
-576.748	800.000	0.043	-0.178
-575.733	49.853	0.107	0.100
-574.719	61.553	0.112	-0.111
-573.704	10.956	0.148	-0.112
-572.690	348.367	-0.158	0.309
-571.675	-60.786	-0.096	0.040
-570.661	-39.428	0.099	0.052
-569.646	189.072	0.112	-0.166
-568.631	137.279	-0.157	-0.203
-567.617	800.000	-0.104	-0.287
-566.602	79.629	-0.121	-0.129
-565.588	-96.430	-0.319	0.084
-564.573	73.841	0.207	-0.215
-563.558	800.000	-0.126	-0.488
-562.544	-71.526	0.144	0.053
-561.529	-111.064	-0.204	0.041
-560.515	800.000	-0.083	0.269
-559.500	343.785	0.056	0.108
-558.485	57.726	0.077	0.075
-557.471	338.481	-0.115	-0.223
-556.456	82.451	-0.162	0.174
-555.442	406.603	0.030	0.062
-554.427	-92.415	0.211	-0.059
-553.412	-200.000	-0.062	0.485
-552.398	800.000	-0.009	-0.037
-551.383	78.710	-0.160	0.169
-550.369	131.756	0.075	0.095
-549.354	176.691	0.153	0.221
-548.339	-108.350	0.243	-0.052
-547.325	800.000	-0.039	-0.128
-546.310	11.841	-0.019	0.014
-545.296	-200.000	0.051	-0.306
-544.281	720.815	0.049	-0.129
-543.266	396.044	0.088	-0.181
-542.252	-45.539	-0.225	0.110
-541.237	-200.000	-0.021	0.207
-540.223	-68.712	0.210	0.080
-539.208	48.120	-0.264	0.244
-538.193	-200.000	0.011	-0.359
-537.179	91.789	-0.026	-0.029
-536.164	-123.299	-0.433	0.068
-535.150	351.703	0.160	0.313
-534.135	-21.303	-0.134	-0.081
-533.121	-1.354	0.310	0.217
-532.106	-169.129	0.365	-0.013
-531.091	800.000	0.016	-0.045
-530.077	280.658	-0.131	-0.232
-529.062	49.966	-0.107	-0.100
-528.048	-31.080	-0.109	-0.061
-527.033	332.840	-0.105	-0.201
-526.018	-11.609	-0.255	-0.166
-525.004	512.246	0.036	-0.084
-523.989	-103.338	0.107	-0.025
-522.975	121.939	0.205	-0.253
-521.960	13.979	-0.035	-0.027
-520.945	170.441	-0.166	0.235
-519.931	-140.209	0.489	-0.051
-518.916	-105.776	-0.120	0.027
-517.902	106.833	0.165	-0.193
-516.887	414.166	-0.011	-0.022
-515.872	-1.439	0.440	-0.307
-514.858	59.362	-0.338	0.329
-513.843	-200.000	-0.006	-0.382
-512.829	-200.000	-0.037	-0.164
-511.814	131.154	0.229	0.291
-510.799	200.099	0.050	-0.076
-509.785	-200.000	-0.028	0.281
-508.770	160.048	-0.166	-0.229
-507.756	775.656	-0.079	0.212
-506.741	126.668	-0.139	0.174
-505.726	-200.000	0.019	0.091
-504.712	-200.000	0.066	-0.341
-503.697	276.576	0.109	-0.192
-502.683	97.832	-0.272	-0.309
-501.668	43.682	-0.154	0.139
-500.653	194.949	-0.152	0.228
-499.639	8.335	0.154	0.115
-498.624	800.000	-0.135	0.369
-497.610	19.646	0.205	-0.163
-496.595	-200.000	0.007	-0.215
-495.581	63.105	-0.238	-0.236
-494.566	311.911	0.042	0.079
-493.551	-99.933	0.238	0.059
-492.537	-196.099	-0.441	-0.003
-491.522	16.576	0.108	0.084
-490.508	340.727	0.045	-0.087
-489.493	-86.658	-0.165	0.050
-488.478	800.000	-0.140	-0.403
-487.464	14.968	0.141	0.109
-486.449	-177.265	0.155	-0.004
-485.435	-56.891	-0.452	0.197
-484.420	-36.161	-0.106	-0.056
-483.405	103.699	0.108	-0.125
-482.391	-200.000	-0.012	-0.082
-481.376	92.214	0.161	-0.179
-480.362	-1.306	-0.338	0.236
-479.347	5.655	-0.207	0.151
-478.332	481.700	0.068	-0.151
-477.318	-200.000	0.001	0.028
-476.303	137.662	-0.180	0.232
-475.289	27.697	0.115	-0.095
-474.274	405.531	-0.051	0.106
-473.259	-200.000	-0.021	-0.517
-472.245	-68.405	-0.314	-0.121
-471.230	-125.467	0.228	-0.034
-470.216	-200.000	0.009	-0.067
-469.201	-151.136	-0.095	0.007
-468.186	-68.926	0.202	0.077
-467.172	75.579	-0.258	-0.269
-466.157	800.000	0.077	0.217
-465.143	-155.494	0.029	0.002
-464.128	328.173	0.203	-0.385
-463.113	97.922	-0.206	-0.233
-462.099	-139.258	-0.047	0.005
-461.084	-96.973	-0.211	-0.054
-460.070	-34.990	-0.161	0.087
-459.055	157.284	0.183	0.250
-458.040	-200.000	-0.005	-0.049
-457.026	-117.942	-0.054	-0.010
-456.011	32.303	0.044	0.038
-454.997	307.328	0.125	-0.229
-453.982	49.170	0.147	0.136
-452.968	-200.000	0.005	-0.263
-451.953	800.000	-0.136	-0.375
-450.938	162.462	-0.193	0.267
-449.924	131.294	0.245	-0.311
-448.909	110.062	0.081	-0.096
-447.895	-200.000	-0.041	0.192
-446.880	-194.028	-0.356	0.003
-445.865	87.403	0.101	-0.110
-444.851	204.254	0.007	-0.011
-443.836	710.362	-0.109	-0.283
-442.822	-98.052	0.054	-0.014
-441.807	800.000	0.049	-0.142
-440.792	-200.000	-0.047	-0.253
-439.778	97.732	0.146	0.166
-438.763	-41.743	-0.484	-0.245
-437.749	161.682	0.153	-0.212
-436.734	742.080	-0.053	0.141
-435.719	-200.000	-0.026	-0.467
-434.705	286.513	0.049	-0.087
-433.690	-43.310	-0.141	-0.070
-432.676	41.559	-0.159	-0.142
-431.661	-53.079	-0.075	0.034
-430.646	-55.476	-0.241	-0.107
-429.632	800.000	-0.025	0.098
-428.617	107.485	-0.283	0.332
-427.603	95.933	-0.035	0.040
-426.588	-200.000	-0.018	0.357
-425.573	-106.224	0.481	0.106
-424.559	-200.000	0.052	-0.311
-423.544	-39.532	-0.166	0.085
-422.530	800.000	0.167	0.458
-421.515	275.268	0.078	0.136
-420.500	-90.538	0.432	0.123
-419.486	-65.759	-0.208	0.082
-418.471	-11.374	0.152	-0.098
-417.457	-57.861	0.477	0.206
-416.442	-44.475	-0.174	-0.086
-415.428	-118.206	0.248	-0.044
-414.413	800.000	-0.044	-0.138
-413.398	800.000	0.105	-0.322
-412.384	114.190	0.226	0.271
-411.369	-133.642	-0.548	0.068
-410.355	274.864	-0.093	0.162
-409.340	77.884	0.139	0.146
-408.325	3.368	0.119	-0.085
-407.311	107.565	-0.221	0.259
-406.296	-200.000	0.012	0.091
-405.282	-200.000	-0.002	0.025
-404.267	122.194	0.147	0.181
-403.252	-99.841	0.109	0.027
-402.238	-82.905	-0.372	0.118
-401.223	-63.344	0.240	0.097
-400.209	167.125	0.253	0.354
-399.194	83.509	0.160	-0.172
-398.179	-113.061	0.180	-0.035
-397.165	-56.353	0.259	-0.113
-396.150	-174.686	-0.358	-0.010
-395.136	500.927	-0.076	-0.173
-394.121	-44.078	-0.470	-0.232
-393.106	296.864	0.080	0.145
-392.092	-98.175	0.304	-0.077
-391.077	800.000	-0.011	-0.031
-390.063	-39.928	-0.073	-0.037
-389.048	-10.221	-0.381	0.249
-388.033	-175.747	0.333	-0.009
-387.019	-79.226	-0.367	-0.123
-386.004	800.000	-0.055	-0.232
-384.990	49.559	-0.079	-0.073
-383.975	800.000	0.037	0.151
-382.960	-200.000	-0.008	-0.278
-381.946	150.639	0.162	0.217
-380.931	310.135	-0.174	0.320
-379.917	-200.000	-0.038	-0.173
-378.902	170.151	0.132	-0.185
-377.888	761.921	-0.037	-0.099
-376.873	-155.731	0.013	-0.001
-375.858	-59.121	-0.279	0.118
-374.844	-100.838	-0.389	0.094
-373.829	-87.472	0.186	0.055
-372.815	-200.000	0.045	0.298
-371.800	-134.320	0.035	0.004
-370.785	290.537	0.045	-0.080
-369.771	236.723	0.113	-0.184
-368.756	-71.919	0.241	-0.088
-367.742	-69.684	0.180	-0.068
-366.727	401.210	-0.116	0.239
-365.712	-110.705	0.108	-0.022
-364.698	3.603	-0.262	0.188
-363.683	-200.000	-0.013	-0.196
-362.669	131.065	-0.068	-0.086
-361.654	729.989	0.117	0.308
-360.639	45.551	0.290	-0.263
-359.625	58.499	-0.232	-0.224
-358.610	-97.025	0.365	0.094
-357.596	-136.040	-0.121	0.014
-356.581	24.647	0.174	0.141
-355.566	-85.369	-0.117	0.036
-354.552	-200.000	-0.020	-0.141
-353.537	37.790	-0.052	0.046
-352.523	-147.122	-0.179	-0.015
-351.508	200.284	-0.060	-0.090
-350.493	-200.000	0.013	0.106
-349.479	81.631	0.201	0.214
-348.464	98.157	-0.141	0.159
-347.450	402.034	0.074	0.152
-346.435	86.541	0.241	0.261
-345.420	8.823	0.202	0.150
-344.406	-200.000	-0.011	-0.160
-343.391	-74.484	-0.158	0.056
-342.377	-75.977	0.222	0.077
-341.362	226.074	-0.006	0.009
-340.348	-200.000	-0.069	0.320
-339.333	800.000	0.024	0.069
-338.318	-114.119	0.429	0.081
-337.304	800.000	-0.019	-0.064
-336.289	-200.000	-0.016	0.291
-335.275	33.820	-0.130	-0.111
-334.260	-200.000	0.006	-0.090
-333.245	-33.496	0.206	0.112
-332.231	142.927	-0.088	-0.115
-331.216	-181.235	-0.210	0.004
-330.202	-138.012	0.055	0.006
-329.187	176.652	-0.076	-0.108
-328.172	-99.524	-0.266	-0.066
-327.158	-54.475	-0.051	0.023
-326.143	-31.378	0.284	0.157
-325.129	-102.844	0.095	0.022
-324.114	-7.962	-0.019	0.013
-323.099	794.155	0.032	0.087
-322.085	37.976	0.292	0.255
-321.070	-187.389	-0.142	0.002
-320.056	103.145	-0.172	-0.197
-319.041	800.000	-0.018	-0.067
-318.026	800.000	-0.036	0.126
-317.012	-200.000	0.019	0.459
-315.997	-200.000	0.036	0.218
-314.983	-14.855	0.213	-0.134
-313.968	-42.676	-0.165	-0.082
-312.953	-200.000	-0.039	0.176
-311.939	382.242	-0.057	0.115
-310.924	-200.000	-0.007	0.356
-309.910	800.000	-0.059	0.170
-308.895	-133.546	-0.212	0.026
-307.880	127.229	0.078	0.097
-306.866	164.017	-0.028	-0.038
-305.851	188.826	0.157	0.230
-304.837	32.659	0.101	-0.086
-303.822	-200.000	0.009	0.400
-302.807	800.000	-0.076	0.281
-301.793	271.578	-0.154	-0.266
-300.778	-200.000	0.019	-0.088
-299.764	-200.000	0.173	0.000
-298.749	-7.156	-0.326	0.217
-297.735	14.686	0.251	-0.193
-296.720	8.376	-0.201	-0.148
-295.705	-87.234	-0.078	0.023
-294.691	-135.813	0.235	-0.027
-293.676	-200.000	0.005	-0.215
-292.662	-200.000	0.036	-0.354
-291.647	363.967	0.049	-0.098
-290.632	43.778	-0.124	-0.112
-289.618	-200.000	-0.002	-0.355
-288.603	538.790	0.058	0.136
-287.589	102.215	-0.164	-0.188
-286.574	306.387	0.097	-0.177
-285.559	-96.298	-0.374	-0.097
-284.545	338.371	0.090	0.172
-283.530	127.952	0.156	0.194
-282.516	-56.329	-0.286	-0.124
-281.501	67.721	-0.185	-0.185
-280.486	-7.789	-0.382	0.253
-279.472	-110.709	-0.201	-0.041
-278.457	-54.521	0.160	0.071
-277.443	-200.000	-0.016	-0.076
-276.428	29.024	0.044	0.037
-275.413	386.516	-0.253	0.512
-274.399	-200.000	0.021	0.269
-273.384	331.490	-0.165	-0.311
-272.370	-3.791	-0.222	0.151
-271.355	-200.000	0.063	0.341
-270.340	-142.751	0.307	0.029
-269.326	2.164	0.064	-0.046
-268.311	-32.604	0.227	-0.124
-267.297	-151.541	-0.166	0.012
-266.282	800.000	-0.057	-0.200
-265.267	163.802	-0.095	0.131
-264.253	105.111	0.226	-0.261
-263.238	425.259	-0.087	-0.182
-262.224	118.763	0.090	0.108
-261.209	-200.000	0.006	0.186
-260.195	26.761	-0.105	0.086
-259.180	-200.000	0.021	0.121
-258.165	-27.530	-0.208	-0.118
-257.151	-36.617	0.035	-0.019
-256.136	547.142	0.131	0.307
-255.122	35.571	-0.070	-0.060
-254.107	288.423	0.069	-0.122
-253.092	-116.372	0.261	0.047
-252.078	99.979	-0.044	0.050
-251.063	44.343	0.158	0.142
-250.049	-39.588	0.226	-0.116
-249.034	280.435	-0.120	-0.210
-248.019	-127.310	-0.152	-0.022
-247.005	-158.323	0.345	-0.020
-245.990	-200.000	-0.019	-0.173
-244.976	278.875	-0.106	0.186
-243.961	-26.390	-0.153	0.088
-242.946	133.055	-0.201	-0.254
-241.932	60.372	0.067	-0.065
-240.917	-200.000	0.012	0.148
-239.903	-79.388	-0.228	-0.075
-238.888	241.160	0.074	0.121
-237.873	800.000	-0.070	0.240
-236.859	-80.263	-0.271	0.089
-235.844	12.526	0.159	0.120
-234.830	157.348	-0.229	-0.310
-233.815	-200.000	0.060	-0.272
-232.800	-200.000	-0.001	0.127
-231.786	9.487	-0.263	0.195
-230.771	-155.993	-0.133	0.008
-229.757	-59.207	-0.097	0.041
-228.742	-200.000	0.009	0.439
-227.727	-110.596	0.272	0.055
-226.713	293.312	0.117	-0.209
-225.698	-62.089	-0.289	-0.118
-224.684	-121.246	-0.312	-0.051
-223.669	296.868	0.069	0.124
-222.655	337.601	0.163	0.311
-221.640	15.185	-0.190	-0.146
-220.625	673.459	0.135	0.342
-219.611	-112.575	0.213	-0.042
-218.596	-139.762	-0.252	0.026
-217.582	800.000	-0.067	-0.255
-216.567	-200.000	-0.082	-0.372
-215.552	-15.802	-0.233	0.145
-214.538	109.599	0.204	0.239
-213.523	-49.518	0.217	0.101
-212.509	-61.326	0.320	0.132
-211.494	277.821	-0.094	0.163
-210.479	173.118	0.246	-0.347
-209.465	-100.412	-0.363	-0.088
-208.450	-45.968	-0.230	0.111
-207.436	-200.000	0.049	-0.293
-206.421	-101.046	-0.143	-0.034
-205.406	423.229	-0.083	0.175
-204.392	-115.338	0.371	-0.068
-203.377	-125.811	0.052	0.008
-202.363	-68.846	-0.148	0.056
-201.348	-172.382	-0.255	-0.008
-200.333	-4.275	0.095	0.064
-199.319	-67.606	0.360	-0.138
-198.304	-200.000	0.001	0.036
-197.290	-2.391	-0.085	0.058
-196.275	125.778	0.094	0.116
-195.260	325.237	0.125	0.234
-194.246	800.000	0.003	0.009
-193.231	-83.424	-0.217	-0.068
-192.217	111.540	0.030	-0.035
-191.202	800.000	0.046	0.179
-190.187	442.559	-0.052	-0.111
-189.173	756.464	-0.033	-0.088
-188.158	-157.695	0.220	0.013
-187.144	173.336	0.065	0.092
-186.129	178.456	0.081	-0.116
-185.114	-111.429	0.243	0.048
-184.100	425.611	0.110	-0.232
-183.085	-109.330	0.208	0.043
-182.071	-154.600	-0.316	-0.021
-181.056	-53.640	-0.303	0.135
-180.042	-80.003	-0.042	-0.014
-179.027	367.756	-0.085	0.168
-178.012	-90.834	0.162	-0.046
-176.998	302.422	0.188	0.340
-175.983	-120.645	0.272	-0.045
-174.969	84.357	-0.208	0.221
-173.954	-40.922	0.098	0.050
-172.939	-30.040	-0.130	-0.072
-171.925	-122.618	-0.209	0.033
-170.910	-12.117	-0.158	-0.101
-169.896	-110.924	0.310	0.062
-168.881	1.746	0.172	0.121
-167.866	119.534	-0.130	-0.157
-166.852	-34.188	0.263	0.141
-165.837	-108.351	-0.128	-0.027
-164.823	-67.737	-0.271	-0.104
-163.808	189.483	0.148	0.216
-162.793	-138.858	0.216	-0.023
-161.779	619.722	-0.146	-0.358
-160.764	129.709	0.095	0.119
-159.750	-39.293	-0.137	0.070
-158.735	7.599	0.125	0.091
-157.720	-200.000	-0.001	0.073
-156.706	-50.298	0.111	0.051
-155.691	-111.796	0.185	-0.036
-154.677	-84.119	-0.225	0.070
-153.662	472.992	-0.018	0.039
-152.647	-168.977	0.063	0.002
-151.633	-122.703	-0.121	0.019
-150.618	-92.034	0.214	-0.059
-149.604	-95.357	0.170	-0.045
-148.589	-149.792	-0.466	-0.036
-147.574	243.278	0.063	0.103
-146.560	-80.248	0.087	-0.028
-145.545	22.097	-0.135	0.107
-144.531	59.963	-0.140	-0.135
-143.516	800.000	0.100	0.294
-142.502	800.000	-0.126	-0.450
-141.487	133.689	0.056	0.071
-140.472	555.728	0.042	0.099
-139.458	19.090	-0.218	0.171
-138.443	538.366	0.049	0.114
-137.429	76.902	0.196	0.203
-136.414	322.045	0.275	0.511
-135.399	-200.000	0.019	-0.281
-134.385	800.000	0.084	-0.289
-133.370	124.376	0.063	0.077
-132.356	-83.821	-0.306	-0.095
-131.341	22.208	-0.221	-0.176
-130.326	-200.000	-0.043	-0.221
-129.312	-200.000	0.257	0.001
-128.297	404.909	0.136	-0.279
-127.283	-200.000	0.018	-0.334
-126.268	-15.675	0.132	-0.082
-125.253	800.000	-0.116	-0.318
-124.239	800.000	0.071	0.212
-123.224	24.277	0.185	-0.149
-122.210	-72.373	0.096	-0.034
-121.195	-200.000	0.044	0.419
-120.180	38.882	-0.080	0.069
