DTS Sentinel unit serial number:	SN413079Multiplexer serial number:	ORYXHardware model number:	OX4-SRSoftware version number:	ORYX F/W v4.00 Oryx Data Collector v3.7.2.0data status	okinstallation	princeton_trtdifferential loss correction	single-endedforward channel	channel 2reverse channel	N/Adate	2019/09/12time	08:45:11forward acquisition time	60.00reverse acquisition time	0.00gamma	496.2192k internal	0.2317k external	0.2317temperature offset calibration	1.0066default loss term (dB/km)	0.3790temperature slope calibration	1.0000multiplexer offset coefficient	1.0000multiplexer slope coefficient	1.0000fibre end	0.00T internal ref (°C)	33.91T ext. ref 1 (°C)	1.74T ext. ref 2 (°C)	30.42length (m)	temperature (°C)	Stokes	anti-Stokes-747.200	57.074	-0.122	-0.121
-746.185	800.000	0.172	0.500
-745.171	25.447	-0.157	0.132
-744.156	-200.000	0.005	0.351
-743.142	-44.331	-0.249	-0.126
-742.127	23.349	-0.174	-0.145
-741.112	158.563	-0.087	-0.122
-740.098	291.606	-0.001	0.002
-739.083	-200.000	0.030	0.180
-738.069	497.080	-0.082	0.190
-737.054	66.506	-0.302	0.311
-736.039	-200.000	-0.068	-0.305
-735.025	800.000	0.130	0.397
-734.010	96.704	-0.096	0.111
-732.996	15.322	-0.383	0.304
-731.981	-132.682	-0.170	0.022
-730.966	0.116	0.061	-0.044
-729.952	-200.000	0.005	0.144
-728.937	-79.289	0.026	0.009
-727.923	800.000	-0.039	-0.116
-726.908	60.167	0.120	0.120
-725.894	-200.000	0.008	-0.060
-724.879	-61.671	0.282	-0.119
-723.864	-108.590	-0.275	0.060
-722.850	-51.938	0.121	0.057
-721.835	-24.177	0.163	-0.099
-720.821	-182.596	-0.118	-0.002
-719.806	62.467	-0.112	0.113
-718.791	-159.827	-0.350	0.019
-717.777	-44.728	-0.136	0.069
-716.762	-200.000	0.010	-0.343
-715.748	-32.748	-0.110	-0.062
-714.733	199.554	0.101	-0.157
-713.718	800.000	-0.175	-0.519
-712.704	57.433	-0.149	-0.147
-711.689	-81.792	-0.145	-0.048
-710.675	-38.799	-0.079	-0.042
-709.660	-147.682	0.136	0.012
-708.645	196.623	-0.086	-0.133
-707.631	52.893	0.117	0.113
-706.616	-113.503	0.148	-0.029
-705.602	462.240	0.083	-0.187
-704.587	800.000	0.083	0.240
-703.572	-69.309	-0.037	-0.014
-702.558	-54.493	0.221	0.101
-701.543	-32.595	-0.365	-0.206
-700.529	-134.518	-0.213	0.026
-699.514	68.684	-0.151	0.157
-698.499	7.276	-0.391	-0.295
-697.485	-106.551	-0.110	0.025
-696.470	-126.724	-0.576	0.086
-695.456	-92.242	-0.253	-0.072
-694.441	364.076	0.082	-0.167
-693.426	290.499	-0.187	-0.343
-692.412	45.963	0.084	0.078
-691.397	-23.770	-0.193	0.117
-690.383	-189.771	0.022	-0.000
-689.368	79.260	-0.121	0.132
-688.354	-42.442	-0.128	-0.066
-687.339	52.259	-0.300	0.289
-686.324	-130.849	-0.270	-0.037
-685.310	-93.795	-0.238	0.066
-684.295	-11.558	0.397	0.263
-683.281	-88.718	-0.587	0.176
-682.266	-200.000	-0.069	0.311
-681.251	-200.000	0.044	0.314
-680.237	78.108	-0.127	-0.137
-679.222	622.338	-0.059	0.149
-678.208	-141.952	-0.304	0.031
-677.193	212.354	-0.092	-0.146
-676.178	23.246	0.046	-0.038
-675.164	14.928	-0.161	-0.127
-674.149	-200.000	0.010	-0.195
-673.135	800.000	-0.062	-0.223
-672.120	-200.000	0.010	-0.095
-671.105	800.000	0.059	-0.206
-670.091	-176.055	-0.241	0.006
-669.076	59.859	-0.466	-0.464
-668.062	-100.214	0.203	0.051
-667.047	6.908	0.171	-0.129
-666.032	-158.654	0.162	0.009
-665.018	-200.000	-0.039	0.315
-664.003	81.718	0.106	-0.115
-662.989	92.182	0.129	-0.147
-661.974	-91.641	-0.210	0.060
-660.959	800.000	-0.023	-0.102
-659.945	436.753	-0.118	0.260
-658.930	800.000	0.065	0.268
-657.916	-60.548	-0.276	0.118
-656.901	800.000	-0.027	-0.084
-655.886	52.472	0.065	-0.063
-654.872	4.681	-0.061	-0.045
-653.857	-77.918	-0.046	0.016
-652.843	-167.833	-0.623	-0.025
-651.828	-200.000	0.027	0.281
-650.814	44.480	0.123	-0.114
-649.799	-200.000	-0.030	-0.213
-648.784	-48.226	-0.202	0.098
-647.770	12.682	-0.153	0.119
-646.755	-130.607	-0.196	0.027
-645.741	-46.041	0.064	-0.032
-644.726	230.289	-0.140	0.231
-643.711	36.559	0.100	-0.089
-642.697	-27.296	-0.089	-0.053
-641.682	-163.313	-0.058	-0.003
-640.668	-97.044	-0.165	-0.044
-639.653	-75.905	-0.388	-0.139
-638.638	174.417	0.146	-0.213
-637.624	-68.983	0.464	0.180
-636.609	-152.971	-0.071	0.005
-635.595	332.714	-0.059	0.115
-634.580	-200.000	0.037	-0.236
-633.565	27.934	0.338	0.287
-632.551	-71.641	-0.082	0.031
-631.536	601.278	0.071	0.177
-630.522	-88.420	0.220	0.066
-629.507	-200.000	0.091	-0.437
-628.492	-42.067	-0.173	0.089
-627.478	-100.637	0.063	-0.016
-626.463	800.000	-0.019	-0.070
-625.449	-200.000	-0.006	-0.073
-624.434	-77.479	0.160	0.056
-623.419	-43.072	0.024	-0.012
-622.405	800.000	0.052	-0.203
-621.390	-200.000	0.021	-0.212
-620.376	82.853	0.030	-0.032
-619.361	10.866	-0.267	0.206
-618.346	-52.667	0.271	-0.126
-617.332	344.801	-0.182	-0.360
-616.317	-139.268	-0.313	0.034
-615.303	102.860	0.136	-0.161
-614.288	-83.314	-0.132	-0.043
-613.273	87.203	-0.059	-0.066
-612.259	-109.722	0.116	-0.024
-611.244	628.188	-0.081	0.206
-610.230	-200.000	0.008	-0.117
-609.215	-200.000	0.042	0.244
-608.201	100.628	0.215	0.251
-607.186	-169.449	0.070	0.003
-606.171	558.709	0.130	-0.317
-605.157	-82.396	0.082	0.027
-604.142	440.474	0.081	-0.179
-603.128	800.000	-0.104	-0.310
-602.113	-64.940	-0.299	0.122
-601.098	482.982	-0.114	-0.260
-600.084	-65.507	0.313	0.127
-599.069	-200.000	0.000	0.126
-598.055	-148.490	0.299	-0.025
-597.040	-90.197	-0.377	0.111
-596.025	-200.000	0.000	0.008
-595.011	800.000	0.075	-0.257
-593.996	-200.000	-0.021	-0.248
-592.982	-75.249	0.103	-0.037
-591.967	-7.163	0.249	0.170
-590.952	-143.754	-0.155	0.015
-589.938	83.453	0.061	0.067
-588.923	-200.000	0.013	-0.113
-587.909	94.617	-0.104	0.119
-586.894	59.848	0.084	0.083
-585.879	171.928	0.136	0.197
-584.865	-76.764	0.307	0.108
-583.850	-30.118	-0.348	-0.199
-582.836	-48.128	-0.372	0.181
-581.821	681.350	-0.024	0.064
-580.806	-94.300	0.229	0.063
-579.792	-81.668	-0.320	0.106
-578.777	800.000	0.023	-0.063
-577.763	-154.352	-0.162	0.011
-576.748	800.000	0.059	-0.240
-575.733	107.451	-0.253	-0.302
-574.719	200.182	-0.098	-0.151
-573.704	118.630	-0.127	-0.158
-572.690	800.000	0.044	0.139
-571.675	66.172	0.284	-0.290
-570.661	-106.044	-0.346	-0.078
-569.646	-200.000	-0.024	0.126
-568.631	-101.771	0.190	-0.046
-567.617	212.042	0.135	-0.213
-566.602	84.352	-0.142	0.156
-565.588	-200.000	0.034	-0.355
-564.573	-167.485	0.106	-0.004
-563.558	-200.000	0.015	-0.318
-562.544	800.000	0.073	0.223
-561.529	-200.000	-0.062	0.364
-560.515	-131.715	-0.271	-0.036
-559.500	-200.000	0.004	-0.065
-558.485	-200.000	-0.013	0.255
-557.471	-11.919	0.306	0.202
-556.456	-122.670	0.259	0.042
-555.442	8.463	0.168	0.127
-554.427	800.000	-0.092	0.312
-553.412	26.568	-0.277	0.233
-552.398	-200.000	0.094	-0.468
-551.383	-62.913	-0.253	-0.105
-550.369	155.850	0.229	-0.317
-549.354	-150.642	0.087	0.007
-548.339	92.899	0.154	-0.174
-547.325	-200.000	0.049	-0.434
-546.310	285.514	0.165	-0.299
-545.296	126.614	0.090	-0.115
-544.281	-16.955	0.195	0.124
-543.266	508.485	0.107	-0.250
-542.252	375.587	-0.068	0.139
-541.237	570.592	-0.174	0.425
-540.223	139.961	-0.184	0.244
-539.208	800.000	-0.048	0.139
-538.193	-200.000	-0.015	0.123
-537.179	-121.931	-0.274	-0.045
-536.164	268.852	0.050	-0.088
-535.150	748.881	-0.076	-0.205
-534.135	-200.000	0.033	-0.209
-533.121	568.174	-0.157	-0.383
-532.106	-98.764	-0.145	0.037
-531.091	-117.291	0.113	-0.021
-530.077	72.343	-0.017	0.017
-529.062	-98.326	-0.186	-0.048
-528.048	251.640	-0.076	-0.129
-527.033	-11.841	0.177	-0.116
-526.018	-146.499	-0.133	-0.012
-525.004	-200.000	-0.001	0.134
-523.989	-40.434	0.147	0.077
-522.975	-21.973	0.231	0.141
-521.960	-110.210	-0.390	-0.082
-520.945	-51.135	0.188	-0.089
-519.931	-48.332	0.139	-0.067
-518.916	94.568	-0.102	-0.117
-517.902	246.744	-0.089	-0.151
-516.887	-200.000	0.032	0.245
-515.872	-137.828	-0.400	0.045
-514.858	1.945	-0.179	0.130
-513.843	-188.505	-0.317	-0.004
-512.829	449.910	0.081	-0.179
-511.814	800.000	0.034	-0.122
-510.799	34.420	-0.030	0.026
-509.785	-87.820	-0.127	0.038
-508.770	800.000	-0.057	0.164
-507.756	111.346	0.092	0.112
-506.741	800.000	0.076	0.221
-505.726	79.688	0.102	-0.110
-504.712	163.805	-0.151	-0.214
-503.697	52.042	-0.071	-0.068
-502.683	800.000	0.110	-0.310
-501.668	-14.365	0.128	0.083
-500.653	174.448	0.033	0.048
-499.639	315.716	-0.095	0.179
-498.624	-200.000	-0.001	0.133
-497.610	95.283	0.159	0.182
-496.595	800.000	0.035	0.144
-495.581	800.000	0.061	-0.239
-494.566	-200.000	-0.044	-0.253
-493.551	76.603	-0.140	-0.149
-492.537	-45.045	0.142	0.071
-491.522	111.304	-0.050	-0.060
-490.508	-126.160	-0.187	0.028
-489.493	-106.839	0.186	0.041
-488.478	-146.992	0.172	0.015
-487.464	-34.719	-0.425	-0.233
-486.449	800.000	-0.067	0.201
-485.435	-157.748	0.308	-0.018
-484.420	-200.000	-0.013	0.177
-483.405	800.000	-0.069	-0.283
-482.391	637.896	0.100	-0.253
-481.376	362.979	0.138	-0.278
-480.362	-157.101	-0.195	-0.012
-479.347	-86.291	-0.233	0.072
-478.332	199.007	0.009	-0.014
-477.318	-58.819	0.231	0.100
-476.303	-20.562	0.362	-0.223
-475.289	37.173	0.134	-0.119
-474.274	-200.000	-0.040	-0.296
-473.259	99.352	0.219	-0.253
-472.245	-43.652	-0.074	-0.038
-471.230	800.000	0.086	-0.309
-470.216	-49.178	0.143	-0.069
-469.201	-66.460	0.127	-0.051
-468.186	164.704	-0.236	-0.334
-467.172	411.753	-0.204	0.434
-466.157	-93.127	0.218	0.061
-465.143	800.000	-0.059	0.168
-464.128	362.717	-0.259	0.522
-463.113	-123.871	-0.508	0.080
-462.099	800.000	-0.129	0.434
-461.084	-70.498	0.411	-0.156
-460.070	56.861	0.199	0.195
-459.055	1.184	0.197	0.142
-458.040	-179.617	-0.171	-0.004
-457.026	243.091	0.039	-0.065
-456.011	174.069	0.022	0.032
-454.997	-200.000	0.029	0.268
-453.982	800.000	-0.069	-0.213
-452.968	-26.280	0.083	0.049
-451.953	438.160	0.020	-0.044
-450.938	-88.315	-0.096	0.029
-449.924	-200.000	-0.011	-0.203
-448.909	705.282	-0.049	-0.130
-447.895	-186.275	0.286	0.004
-446.880	-200.000	0.039	-0.277
-445.865	-50.118	0.268	0.127
-444.851	-36.272	0.093	0.050
-443.836	-100.957	0.101	-0.025
-442.822	-7.486	0.361	0.244
-441.807	196.555	-0.024	0.036
-440.792	-200.000	-0.020	0.207
-439.778	325.689	-0.069	-0.132
-438.763	50.441	0.271	0.256
-437.749	180.925	0.144	-0.212
-436.734	-108.965	-0.237	-0.051
-435.719	-74.754	-0.198	-0.071
-434.705	-3.518	-0.145	-0.101
-433.690	-145.661	0.262	-0.023
-432.676	-200.000	0.038	-0.198
-431.661	-200.000	0.015	-0.236
-430.646	421.583	0.037	-0.079
-429.632	82.561	-0.022	0.024
-428.617	105.220	0.110	0.130
-427.603	533.856	-0.067	-0.160
-426.588	126.055	0.121	-0.153
-425.573	-47.195	0.424	0.207
-424.559	303.566	-0.209	-0.387
-423.544	45.425	-0.156	0.144
-422.530	-148.786	0.239	-0.019
-421.515	-151.065	0.363	-0.027
-420.500	-79.088	-0.389	0.132
-419.486	45.127	0.224	-0.207
-418.471	-141.685	0.198	0.020
-417.457	-24.158	-0.173	0.103
-416.442	-200.000	0.033	0.176
-415.428	-36.569	-0.271	0.146
-414.413	-58.163	0.369	-0.161
-413.398	350.358	-0.123	-0.244
-412.384	800.000	0.028	-0.078
-411.369	-32.526	-0.272	0.152
-410.355	-9.208	0.562	0.375
-409.340	293.941	0.063	-0.114
-408.325	-97.544	0.023	-0.006
-407.311	-171.456	-0.200	0.007
-406.296	546.134	0.117	-0.278
-405.282	-59.142	-0.099	0.043
-404.267	226.134	0.251	0.407
-403.252	171.004	-0.272	-0.389
-402.238	144.433	-0.131	-0.175
-401.223	-200.000	-0.019	0.310
-400.209	8.718	0.305	0.230
-399.194	-118.244	-0.240	-0.043
-398.179	-154.986	-0.317	0.021
-397.165	24.837	0.294	0.243
-396.150	-94.548	0.067	-0.018
-395.136	-159.296	-0.096	-0.005
-394.121	678.304	-0.127	-0.329
-393.106	346.555	0.029	-0.057
-392.092	-200.000	-0.003	0.159
-391.077	-187.071	0.195	-0.003
-390.063	17.393	-0.187	-0.148
-389.048	333.474	-0.200	0.386
-388.033	2.429	0.006	0.004
-387.019	317.887	-0.184	0.348
-386.004	-109.465	-0.350	-0.074
-384.990	138.333	-0.180	-0.236
-383.975	-110.424	-0.229	0.047
-382.960	-111.139	-0.129	0.026
-381.946	-182.201	0.029	-0.001
-380.931	-94.774	0.213	0.058
-379.917	-58.440	-0.094	0.041
-378.902	476.127	-0.098	-0.220
-377.888	194.613	0.467	-0.707
-376.873	-64.631	-0.260	0.105
-375.858	-145.905	0.170	0.015
-374.844	-57.112	-0.239	0.105
-373.829	-140.481	0.040	-0.004
-372.815	-114.177	0.353	-0.068
-371.800	123.741	-0.104	0.130
-370.785	-82.519	0.130	0.042
-369.771	46.952	0.195	-0.181
-368.756	-99.453	-0.212	0.053
-367.742	55.951	-0.200	-0.194
-366.727	-148.693	-0.245	-0.020
-365.712	-48.479	0.129	-0.062
-364.698	-113.182	-0.217	0.043
-363.683	322.892	-0.180	0.342
-362.669	-200.000	0.028	-0.293
-361.654	37.575	0.189	0.167
-360.639	33.373	0.161	-0.140
-359.625	-62.767	-0.189	0.078
-358.610	248.032	-0.181	0.305
-357.596	34.567	0.102	-0.088
-356.581	-200.000	-0.031	-0.198
-355.566	41.297	-0.059	0.053
-354.552	-113.438	0.135	-0.026
-353.537	26.901	-0.225	-0.188
-352.523	84.116	0.156	0.170
-351.508	-200.000	0.001	0.047
-350.493	5.410	-0.277	-0.204
-349.479	-91.980	-0.191	0.054
-348.464	31.153	0.132	0.113
-347.450	342.095	-0.099	-0.193
-346.435	82.143	-0.074	-0.079
-345.420	-200.000	0.031	0.204
-344.406	-200.000	0.028	-0.165
-343.391	-80.154	-0.094	-0.031
-342.377	-76.822	0.472	-0.164
-341.362	761.696	0.052	-0.141
-340.348	734.424	-0.101	-0.269
-339.333	-35.491	0.195	0.106
-338.318	-29.350	0.285	-0.163
-337.304	193.312	0.093	0.140
-336.289	-82.671	0.140	0.045
-335.275	463.631	0.117	-0.259
-334.260	0.870	0.530	0.378
-333.245	-86.881	0.169	-0.051
-332.231	22.638	0.104	-0.085
-331.216	-200.000	0.004	-0.185
-330.202	121.122	0.182	0.226
-329.187	-153.675	0.316	0.022
-328.172	800.000	-0.059	-0.210
-327.158	-200.000	0.027	-0.154
-326.143	107.066	0.117	-0.139
-325.129	800.000	-0.022	-0.065
-324.114	-200.000	0.070	0.423
-323.099	-200.000	0.016	0.190
-322.085	38.491	0.090	0.080
-321.070	-27.639	0.271	-0.157
-320.056	-30.231	-0.309	-0.175
-319.041	63.162	0.240	0.240
-318.026	304.910	-0.069	0.128
-317.012	-148.128	0.235	-0.019
-315.997	-105.221	0.344	0.078
-314.983	-42.572	0.309	0.156
-313.968	-200.000	-0.019	0.266
-312.953	33.495	0.261	0.225
-311.939	-11.728	0.073	0.048
-310.924	9.596	-0.227	0.171
-309.910	129.922	0.228	0.291
-308.895	800.000	-0.164	0.497
-307.880	278.779	-0.106	-0.188
-306.866	-49.033	0.150	-0.071
-305.851	185.207	0.146	0.216
-304.837	-200.000	0.041	0.190
-303.822	246.596	0.024	0.041
-302.807	-118.639	-0.252	-0.044
-301.793	-170.296	-0.212	-0.007
-300.778	800.000	-0.089	0.288
-299.764	46.762	-0.130	0.120
-298.749	800.000	-0.018	-0.071
-297.735	28.062	-0.034	0.029
-296.720	-39.373	0.063	0.033
-295.705	0.710	0.164	0.117
-294.691	-101.436	-0.260	0.063
-293.676	233.039	-0.100	-0.163
-292.662	800.000	-0.090	-0.252
-291.647	188.995	-0.056	-0.083
-290.632	-194.219	0.115	0.001
-289.618	797.290	-0.219	-0.599
-288.603	-102.017	-0.136	0.033
-287.589	-24.270	0.098	-0.058
-286.574	-171.751	-0.194	-0.006
-285.559	15.891	-0.286	-0.224
-284.545	297.587	0.136	0.249
-283.530	15.196	-0.266	0.207
-282.516	-18.627	0.066	0.041
-281.501	-130.369	-0.033	-0.004
-280.486	-91.396	-0.199	-0.056
-279.472	-165.145	-0.188	0.008
-278.457	-200.000	0.232	-0.001
-277.443	73.048	0.076	-0.079
-276.428	-105.465	-0.212	0.048
-275.413	-94.348	0.080	-0.022
-274.399	-135.449	0.065	0.008
-273.384	92.094	0.108	-0.121
-272.370	-200.000	-0.043	-0.290
-271.355	348.704	0.110	-0.215
-270.340	466.965	0.102	0.227
-269.326	-200.000	0.031	-0.180
-268.311	-58.822	0.094	-0.040
-267.297	-200.000	-0.014	0.324
-266.282	76.225	0.098	0.103
-265.267	138.252	0.042	0.054
-264.253	-98.671	-0.339	-0.086
-263.238	42.884	0.085	0.077
-262.224	-69.789	-0.366	-0.139
-261.209	-200.000	0.067	-0.319
-260.195	-200.000	-0.052	0.226
-259.180	-107.893	-0.045	0.010
-258.165	-82.102	-0.346	0.112
-257.151	800.000	-0.049	0.204
-256.136	7.543	0.194	0.144
-255.122	-86.151	-0.336	0.103
-254.107	-157.125	-0.182	0.011
-253.092	-200.000	-0.038	0.199
-252.078	-200.000	-0.006	-0.175
-251.063	-138.273	0.313	0.034
-250.049	425.570	-0.036	-0.076
-249.034	467.065	0.142	-0.316
-248.019	-103.833	0.102	-0.024
-247.005	-39.141	-0.290	-0.152
-245.990	-55.062	-0.198	0.089
-244.976	705.679	0.147	0.385
-243.961	30.439	-0.098	0.083
-242.946	-76.594	0.328	-0.114
-241.932	526.003	-0.087	0.203
-240.917	-15.728	-0.342	-0.217
-239.903	354.284	0.062	0.122
-238.888	58.157	0.135	-0.132
-237.873	-35.080	0.193	0.104
-236.859	-49.223	-0.135	-0.064
-235.844	800.000	0.038	-0.126
-234.830	227.574	-0.059	0.095
-233.815	800.000	-0.081	-0.322
-232.800	-62.419	-0.155	0.064
-231.786	-200.000	-0.039	0.198
-230.771	-92.498	-0.301	0.084
-229.757	-57.418	0.300	-0.131
-228.742	-200.000	0.004	0.069
-227.727	-200.000	0.025	0.278
-226.713	-73.304	-0.185	0.067
-225.698	-7.540	0.079	-0.053
-224.684	141.588	-0.200	0.263
-223.669	800.000	-0.169	0.498
-222.655	-200.000	0.025	-0.509
-221.640	-83.076	0.344	-0.110
-220.625	123.389	0.169	0.210
-219.611	299.483	-0.320	0.585
-218.596	-200.000	0.008	-0.046
-217.582	-98.185	-0.421	-0.107
-216.567	35.241	0.102	-0.089
-215.552	-63.616	-0.205	0.084
-214.538	-198.559	0.368	0.002
-213.523	-68.341	-0.147	-0.056
-212.509	174.659	-0.284	0.408
-211.494	391.732	0.049	-0.101
-210.479	19.172	-0.134	0.107
-209.465	800.000	0.094	0.286
-208.450	103.876	-0.146	0.171
-207.436	-12.953	-0.265	-0.171
-206.421	475.759	0.155	0.348
-205.406	-200.000	-0.027	0.121
-204.392	176.758	0.319	0.460
-203.377	20.107	-0.273	-0.218
-202.363	-135.173	0.354	-0.042
-201.348	219.075	0.137	0.217
-200.333	-71.374	-0.119	0.044
-199.319	800.000	-0.008	-0.024
-198.304	-158.055	0.150	-0.009
-197.290	419.844	-0.058	-0.122
-196.275	-38.762	0.022	0.012
-195.260	-62.789	0.107	-0.044
-194.246	86.184	-0.205	-0.223
-193.231	312.472	0.119	-0.222
-192.217	-200.000	0.023	0.132
-191.202	-79.416	0.079	0.027
-190.187	363.442	-0.102	0.203
-189.173	800.000	-0.010	0.038
-188.158	-99.525	0.136	0.034
-187.144	654.280	-0.144	-0.366
-186.129	414.240	0.024	0.052
-185.114	370.493	0.036	-0.073
-184.100	-122.756	-0.166	-0.027
-183.085	-71.167	-0.143	0.053
-182.071	42.634	0.133	-0.120
-181.056	342.345	-0.051	-0.099
-180.042	392.890	-0.135	0.279
-179.027	180.322	-0.034	0.050
-178.012	-122.002	0.188	0.031
-176.998	-29.851	0.200	0.113
-175.983	-141.560	0.148	0.015
-174.969	-91.222	0.184	-0.052
-173.954	-69.450	0.177	-0.067
-172.939	246.058	-0.134	0.223
-171.925	262.639	-0.023	0.039
-170.910	104.440	0.264	-0.308
-169.896	800.000	0.080	0.314
-168.881	91.363	-0.166	0.185
-167.866	46.845	-0.148	0.137
-166.852	-153.525	-0.044	0.003
-165.837	35.809	-0.230	0.200
-164.823	63.219	0.104	0.103
-163.808	269.351	0.102	0.177
-162.793	-156.373	-0.150	-0.009
-161.779	-48.327	0.292	0.139
-160.764	-140.066	-0.135	-0.014
-159.750	235.635	0.264	-0.432
-158.735	-182.022	-0.132	-0.002
-157.720	-153.088	0.128	0.009
-156.706	-200.000	0.024	0.111
-155.691	-96.028	-0.250	-0.066
-154.677	89.393	0.165	0.182
-153.662	50.102	-0.184	0.172
-152.647	-45.176	-0.210	0.103
-151.633	26.782	-0.294	-0.243
-150.618	-166.042	0.012	0.000
-149.604	-36.210	0.384	-0.205
-148.589	-22.428	-0.136	0.081
-147.574	-200.000	-0.016	-0.137
-146.560	163.165	-0.047	-0.065
-145.545	-63.137	-0.237	-0.097
-144.531	-153.377	-0.105	-0.007
-143.516	-23.472	0.090	-0.054
-142.502	-200.000	-0.059	0.000
-141.487	12.877	0.455	-0.347
-140.472	-200.000	-0.008	0.103
-139.458	-9.393	-0.117	0.078
-138.443	-36.688	-0.214	-0.114
-137.429	-51.410	-0.131	-0.061
-136.414	800.000	-0.040	0.124
-135.399	-75.711	-0.044	0.016
-134.385	-200.000	-0.029	0.143
-133.370	19.860	0.173	-0.138
-132.356	17.778	-0.268	0.211
-131.341	4.820	0.162	-0.117
-130.326	800.000	0.046	-0.193
-129.312	-166.451	-0.369	0.015
-128.297	-123.510	-0.471	-0.074
-127.283	-6.167	0.119	-0.080
-126.268	84.933	0.210	-0.227
-125.253	-111.567	-0.131	0.026
-124.239	212.419	0.435	-0.678
-123.224	132.100	-0.066	-0.084
-122.210	169.830	0.307	0.433
-121.195	617.212	-0.058	-0.145
