DTS Sentinel unit serial number:	SN413079Multiplexer serial number:	ORYXHardware model number:	OX4-SRSoftware version number:	ORYX F/W v4.00 Oryx Data Collector v3.7.2.0data status	okinstallation	princeton_trtdifferential loss correction	single-endedforward channel	channel 2reverse channel	N/Adate	2019/09/12time	10:37:11forward acquisition time	60.00reverse acquisition time	0.00gamma	496.2192k internal	0.2309k external	0.2309temperature offset calibration	1.0068default loss term (dB/km)	0.3790temperature slope calibration	1.0000multiplexer offset coefficient	1.0000multiplexer slope coefficient	1.0000fibre end	0.00T internal ref (°C)	37.34T ext. ref 1 (°C)	1.90T ext. ref 2 (°C)	35.58length (m)	temperature (°C)	Stokes	anti-Stokes-747.200	-83.149	0.009	0.003
-746.185	-175.075	0.192	0.005
-745.171	-8.956	-0.088	-0.060
-744.156	-46.216	-0.288	0.144
-743.142	-200.000	-0.015	0.396
-742.127	-200.000	0.088	0.539
-741.112	-200.000	-0.010	-0.140
-740.098	-200.000	0.027	0.231
-739.083	-159.090	0.199	0.011
-738.069	-101.677	-0.186	-0.046
-737.054	-107.118	-0.300	-0.067
-736.039	-53.868	-0.294	0.136
-735.025	-5.155	-0.235	0.164
-734.010	-200.000	-0.016	-0.298
-732.996	-105.781	-0.184	-0.042
-731.981	39.882	-0.126	-0.115
-730.966	-200.000	0.027	-0.217
-729.952	240.267	-0.058	0.099
-728.937	-200.000	-0.011	-0.158
-727.923	60.881	0.065	-0.065
-726.908	-145.631	0.175	0.016
-725.894	-121.172	-0.061	0.010
-724.879	167.696	0.140	-0.202
-723.864	111.655	-0.283	0.346
-722.850	-200.000	-0.013	0.353
-721.835	40.601	-0.183	-0.167
-720.821	-200.000	-0.006	-0.335
-719.806	416.519	-0.154	-0.333
-718.791	130.639	-0.057	-0.075
-717.777	-99.623	0.251	-0.064
-716.762	-98.358	0.165	0.043
-715.748	800.000	0.055	0.172
-714.733	-191.613	0.189	-0.002
-713.718	255.963	-0.123	0.215
-712.704	-9.211	0.128	0.087
-711.689	138.000	0.085	-0.114
-710.675	-79.665	0.209	-0.072
-709.660	70.472	0.137	0.144
-708.645	-200.000	0.091	-0.427
-707.631	15.673	-0.259	-0.206
-706.616	-88.141	0.029	-0.009
-705.602	-200.000	0.001	0.252
-704.587	92.508	0.213	-0.244
-703.572	510.959	0.068	-0.160
-702.558	-85.368	0.297	-0.094
-701.543	-200.000	-0.033	-0.309
-700.529	-200.000	0.064	-0.316
-699.514	83.898	0.031	-0.034
-698.499	-99.114	0.403	-0.103
-697.485	-148.872	-0.421	0.034
-696.470	-52.950	0.106	-0.050
-695.456	257.621	0.118	0.205
-694.441	187.116	0.141	-0.213
-693.426	-30.269	0.274	0.158
-692.412	800.000	0.055	-0.206
-691.397	17.122	-0.156	0.125
-690.383	-200.000	0.005	-0.061
-689.368	-111.650	0.114	0.023
-688.354	-32.536	0.209	0.118
-687.339	-200.000	-0.003	-0.168
-686.324	-73.187	0.065	-0.024
-685.310	-200.000	-0.031	-0.174
-684.295	443.200	0.111	0.247
-683.281	517.486	-0.014	0.034
-682.266	-99.145	0.318	0.081
-681.251	45.944	-0.227	-0.213
-680.237	1.964	0.054	-0.039
-679.222	437.216	-0.129	-0.285
-678.208	302.801	-0.093	0.174
-677.193	-200.000	0.027	0.157
-676.178	-136.922	-0.166	0.019
-675.164	-5.016	0.242	-0.169
-674.149	15.845	0.125	0.100
-673.135	-48.102	-0.270	0.132
-672.120	-200.000	0.012	0.250
-671.105	161.481	0.108	-0.154
-670.091	-83.579	-0.251	-0.081
-669.076	-94.791	0.190	0.052
-668.062	-200.000	-0.054	0.269
-667.047	-96.642	0.210	-0.056
-666.032	461.798	0.099	-0.223
-665.018	121.659	-0.146	-0.184
-664.003	-69.011	-0.474	0.185
-662.989	-166.342	-0.468	-0.020
-661.974	-8.869	-0.237	-0.161
-660.959	149.277	0.135	0.184
-659.945	239.813	0.100	-0.168
-658.930	221.885	0.075	-0.122
-657.916	-200.000	0.021	-0.116
-656.901	568.672	0.073	-0.179
-655.886	-19.578	0.198	-0.124
-654.872	-200.000	-0.017	0.112
-653.857	77.035	-0.092	0.099
-652.843	-126.781	-0.090	-0.013
-651.828	-45.646	0.383	-0.192
-650.814	800.000	-0.068	0.191
-649.799	-200.000	-0.053	0.376
-648.784	56.362	-0.085	-0.083
-647.770	2.279	-0.220	0.161
-646.755	163.980	0.081	-0.116
-645.741	-117.508	-0.233	-0.043
-644.726	-200.000	0.009	0.245
-643.711	-200.000	0.021	0.375
-642.697	-200.000	-0.012	0.161
-641.682	159.567	0.112	0.158
-640.668	800.000	-0.142	-0.514
-639.653	86.344	-0.190	-0.212
-638.638	-200.000	0.024	-0.180
-637.624	-59.560	-0.156	0.068
-636.609	-68.258	-0.241	0.095
-635.595	-200.000	-0.011	-0.061
-634.580	-198.893	0.091	-0.001
-633.565	-90.603	0.251	0.073
-632.551	70.901	0.231	0.242
-631.536	19.748	-0.097	0.079
-630.522	-200.000	0.005	-0.053
-629.507	221.690	-0.111	0.180
-628.492	-72.872	-0.136	0.051
-627.478	-109.246	-0.234	0.050
-626.463	521.784	0.230	-0.545
-625.449	800.000	-0.077	0.285
-624.434	-200.000	0.031	-0.155
-623.419	-86.712	0.225	-0.070
-622.405	-75.315	0.291	-0.105
-621.390	296.369	-0.082	-0.152
-620.376	-200.000	-0.325	-0.001
-619.361	-43.524	0.266	-0.136
-618.346	-200.000	-0.040	-0.295
-617.332	47.713	0.072	0.068
-616.317	0.030	0.309	-0.223
-615.303	-67.443	0.090	0.036
-614.288	-37.607	-0.278	-0.150
-613.273	-12.427	-0.457	-0.302
-612.259	-167.276	0.150	-0.006
-611.244	0.512	0.252	-0.182
-610.230	7.714	-0.273	0.206
-609.215	232.648	-0.088	-0.146
-608.201	-58.835	-0.084	0.037
-607.186	-152.439	0.443	-0.032
-606.171	-168.031	-0.168	0.007
-605.157	217.306	0.171	-0.275
-604.142	-200.000	0.034	0.296
-603.128	-42.394	0.130	-0.067
-602.113	-15.254	-0.132	-0.085
-601.098	-30.484	-0.050	0.028
-600.084	-174.986	-0.370	-0.010
-599.069	-0.061	0.217	-0.156
-598.055	800.000	-0.049	0.176
-597.040	-200.000	0.004	0.068
-596.025	451.899	0.147	0.329
-595.011	176.176	0.152	0.224
-593.996	-150.432	0.234	-0.018
-592.982	-118.556	0.041	-0.007
-591.967	399.949	-0.152	-0.322
-590.952	-200.000	0.058	-0.371
-589.938	313.456	0.053	-0.101
-588.923	-200.000	0.017	-0.106
-587.909	411.001	-0.077	-0.165
-586.894	-85.261	-0.181	-0.057
-585.879	-123.495	-0.116	-0.019
-584.865	156.483	0.136	-0.190
-583.850	131.504	-0.122	-0.158
-582.836	164.686	0.118	0.168
-581.821	-200.000	-0.060	0.439
-580.806	-200.000	0.019	0.287
-579.792	-200.000	-0.009	-0.077
-578.777	-200.000	-0.011	-0.239
-577.763	-44.020	-0.022	-0.011
-576.748	-125.972	0.022	-0.003
-575.733	-18.277	-0.324	-0.205
-574.719	797.340	0.109	-0.304
-573.704	-53.118	0.131	0.061
-572.690	-24.514	-0.294	0.176
-571.675	-60.797	-0.071	-0.030
-570.661	-98.222	0.388	0.101
-569.646	158.909	0.116	-0.162
-568.631	-134.504	-0.241	0.030
-567.617	95.536	0.068	-0.078
-566.602	597.249	0.129	0.322
-565.588	-200.000	-0.070	-0.315
-564.573	-200.000	-0.003	0.033
-563.558	34.106	0.278	0.244
-562.544	84.561	0.315	0.347
-561.529	800.000	0.048	0.168
-560.515	499.258	0.077	-0.178
-559.500	8.755	0.116	-0.088
-558.485	-109.399	0.185	-0.039
-557.471	38.626	0.254	0.228
-556.456	663.001	0.091	0.236
-555.442	246.344	-0.103	-0.176
-554.427	37.619	-0.211	-0.189
-553.412	-157.603	0.174	0.010
-552.398	556.244	-0.102	-0.247
-551.383	-200.000	0.002	-0.124
-550.369	-45.067	-0.178	0.089
-549.354	529.988	-0.084	0.200
-548.339	465.781	-0.083	0.187
-547.325	-200.000	-0.070	0.393
-546.310	109.177	-0.153	-0.184
-545.296	-200.000	-0.001	-0.145
-544.281	-95.417	-0.218	-0.059
-543.266	-142.974	-0.318	-0.031
-542.252	733.325	0.106	-0.287
-541.237	-200.000	-0.039	-0.206
-540.223	-91.468	-0.132	0.038
-539.208	-200.000	0.025	0.221
-538.193	117.092	-0.308	0.381
-537.179	-200.000	0.033	0.176
-536.164	800.000	-0.093	-0.275
-535.150	-42.959	-0.242	-0.124
-534.135	-200.000	-0.001	-0.381
-533.121	-200.000	0.005	-0.301
-532.106	-109.543	-0.387	0.082
-531.091	-200.000	0.042	0.291
-530.077	-200.000	-0.028	0.196
-529.062	34.337	-0.131	-0.116
-528.048	800.000	0.031	0.092
-527.033	-139.808	-0.308	0.033
-526.018	191.958	0.024	-0.037
-525.004	14.563	-0.083	0.066
-523.989	-176.519	0.308	-0.008
-522.975	-200.000	0.115	0.001
-521.960	234.491	0.041	-0.068
-520.945	718.286	-0.068	-0.183
-519.931	-34.045	0.077	-0.043
-518.916	-200.000	0.046	-0.246
-517.902	-15.063	-0.079	0.051
-516.887	800.000	0.025	-0.089
-515.872	-188.852	0.123	0.002
-514.858	152.300	0.106	-0.146
-513.843	431.705	-0.102	0.223
-512.829	84.286	0.220	0.242
-511.814	-200.000	0.046	0.382
-510.799	-200.000	0.016	-0.245
-509.785	293.989	0.035	0.064
-508.770	-111.020	-0.246	-0.051
-507.756	-136.673	0.294	0.034
-506.741	289.960	-0.032	0.058
-505.726	-124.967	-0.178	0.028
-504.712	-82.018	0.103	0.034
-503.697	-101.833	0.194	-0.047
-502.683	-65.265	-0.229	0.093
-501.668	-200.000	-0.003	0.172
-500.653	88.731	0.134	0.150
-499.639	800.000	0.068	0.225
-498.624	96.244	0.318	-0.366
-497.610	378.052	-0.145	0.298
-496.595	-191.307	0.064	-0.001
-495.581	698.023	0.124	0.327
-494.566	247.227	0.155	0.263
-493.551	202.439	-0.059	0.092
-492.537	-41.466	-0.311	-0.161
-491.522	-181.469	0.137	0.003
-490.508	-200.000	-0.079	-0.402
-489.493	-200.000	-0.048	-0.382
-488.478	256.798	-0.206	0.357
-487.464	169.540	0.131	-0.188
-486.449	-85.870	-0.239	0.075
-485.435	-73.767	0.207	-0.076
-484.420	278.125	0.190	-0.340
-483.405	-53.168	0.175	0.081
-482.391	-200.000	0.007	0.108
-481.376	-59.257	-0.452	-0.196
-480.362	27.128	-0.240	0.202
-479.347	-31.208	0.040	-0.023
-478.332	800.000	-0.006	-0.022
-477.318	44.746	0.082	-0.076
-476.303	6.490	-0.432	-0.323
-475.289	-164.607	0.105	0.005
-474.274	354.095	0.187	0.374
-473.259	365.444	0.117	-0.237
-472.245	483.019	0.179	-0.409
-471.230	800.000	-0.103	0.347
-470.216	-96.023	0.211	0.056
-469.201	21.356	-0.152	0.124
-468.186	-200.000	-0.006	0.299
-467.172	-147.486	-0.486	0.041
-466.157	-200.000	-0.031	0.197
-465.143	-59.651	0.269	-0.116
-464.128	-200.000	0.017	0.112
-463.113	74.306	-0.055	0.058
-462.099	420.324	-0.172	-0.371
-461.084	-93.161	0.167	-0.047
-460.070	58.426	0.030	-0.030
-459.055	-200.000	0.021	-0.245
-458.040	-115.563	-0.084	-0.016
-457.026	53.457	-0.354	-0.342
-456.011	-147.183	-0.191	-0.016
-454.997	800.000	0.105	0.356
-453.982	-200.000	-0.003	0.180
-452.968	-6.220	-0.203	-0.139
-451.953	-67.713	0.235	0.092
-450.938	-1.601	-0.467	0.331
-449.924	31.470	0.261	-0.225
-448.909	145.981	0.052	0.070
-447.895	800.000	-0.038	0.143
-446.880	179.577	0.055	-0.081
-445.865	-200.000	0.001	-0.544
-444.851	-200.000	-0.010	0.069
-443.836	229.993	0.111	0.182
-442.822	800.000	0.102	-0.394
-441.807	76.529	0.146	0.155
-440.792	800.000	-0.037	0.116
-439.778	-37.217	-0.087	-0.046
-438.763	31.337	0.119	-0.103
-437.749	-106.105	-0.395	-0.089
-436.734	71.896	-0.038	-0.040
-435.719	-141.025	0.249	0.026
-434.705	800.000	-0.090	-0.327
-433.690	-200.000	0.011	-0.058
-432.676	36.866	-0.090	-0.080
-431.661	-99.441	0.278	0.070
-430.646	112.592	0.122	-0.149
-429.632	-86.052	0.320	-0.099
-428.617	175.057	-0.036	-0.052
-427.603	-8.802	0.117	-0.079
-426.588	428.459	-0.046	-0.100
-425.573	-127.676	-0.368	-0.053
-424.559	-138.843	0.441	0.048
-423.544	-11.711	-0.173	0.114
-422.530	-24.016	-0.102	0.061
-421.515	-200.000	-0.011	0.117
-420.500	26.902	-0.051	0.043
-419.486	422.812	0.009	-0.020
-418.471	413.363	-0.030	0.065
-417.457	-93.059	0.175	-0.049
-416.442	-151.289	-0.362	-0.027
-415.428	-66.657	-0.387	-0.154
-414.413	-12.781	-0.360	0.236
-413.398	34.828	-0.155	0.136
-412.384	-124.641	-0.395	-0.061
-411.369	-58.290	-0.279	-0.122
-410.355	-64.710	0.263	0.107
-409.340	168.392	0.090	-0.128
-408.325	-75.394	0.206	0.074
-407.311	393.078	-0.167	-0.349
-406.296	-129.002	-0.167	-0.023
-405.282	12.707	0.278	-0.216
-404.267	-118.628	0.287	0.051
-403.252	291.422	-0.049	0.090
-402.238	-200.000	0.021	0.237
-401.223	800.000	-0.019	-0.069
-400.209	-200.000	0.026	-0.247
-399.194	140.305	-0.155	0.205
-398.179	-200.000	-0.005	0.108
-397.165	0.123	0.283	0.203
-396.150	-6.201	0.112	0.077
-395.136	25.327	-0.197	-0.164
-394.121	-96.522	-0.118	0.031
-393.106	-200.000	0.004	-0.189
-392.092	449.293	-0.018	-0.039
-391.077	50.269	0.152	-0.144
-390.063	44.345	0.165	0.152
-389.048	-200.000	-0.047	0.269
-388.033	-54.796	0.218	0.099
-387.019	20.087	0.119	0.096
-386.004	35.925	-0.291	-0.256
-384.990	-58.514	-0.103	-0.045
-383.975	21.811	0.082	0.067
-382.960	209.115	0.075	0.118
-381.946	39.329	0.107	-0.096
-380.931	157.283	0.058	0.081
-379.917	800.000	-0.056	-0.196
-378.902	-104.003	0.174	-0.041
-377.888	182.801	0.107	-0.158
-376.873	-200.000	0.047	-0.328
-375.858	800.000	0.085	-0.315
-374.844	73.100	0.089	-0.093
-373.829	-200.000	0.001	-0.128
-372.815	-135.203	-0.085	0.010
-371.800	-2.367	-0.133	-0.093
-370.785	-87.244	-0.271	-0.082
-369.771	3.454	0.139	0.102
-368.756	-177.259	-0.069	0.002
-367.742	-82.847	-0.124	0.040
-366.727	220.594	-0.218	0.350
-365.712	-76.373	0.253	0.089
-364.698	26.694	0.137	-0.115
-363.683	-131.174	0.088	-0.012
-362.669	800.000	0.065	0.243
-361.654	-52.119	-0.240	-0.111
-360.639	133.261	0.172	-0.222
-359.625	800.000	-0.013	0.039
-358.610	639.058	-0.097	0.246
-357.596	230.729	-0.235	-0.385
-356.581	-94.178	0.192	-0.053
-355.566	-85.137	-0.235	0.073
-354.552	800.000	-0.045	0.176
-353.537	-119.262	-0.115	-0.020
-352.523	800.000	0.073	0.307
-351.508	-200.000	-0.014	-0.364
-350.493	11.379	-0.117	0.090
-349.479	-88.238	-0.165	0.049
-348.464	-83.453	-0.033	-0.010
-347.450	232.155	0.083	-0.137
-346.435	-26.399	0.275	-0.161
-345.420	-102.255	0.164	-0.039
-344.406	-167.313	-0.102	0.004
-343.391	-200.000	0.048	0.338
-342.377	-24.107	0.142	-0.085
-341.362	-121.184	-0.218	-0.036
-340.348	-95.268	0.184	-0.049
-339.333	294.778	0.217	-0.396
-338.318	-171.106	-0.117	0.004
-337.304	-158.368	-0.352	-0.020
-336.289	-200.000	0.014	-0.085
-335.275	-200.000	-0.013	0.256
-334.260	657.319	0.026	-0.066
-333.245	-83.662	-0.250	-0.080
-332.231	527.666	0.097	0.228
-331.216	-43.130	0.104	-0.053
-330.202	146.985	0.392	0.527
-329.187	-138.171	-0.302	0.034
-328.172	-1.838	-0.300	0.211
-327.158	-200.000	0.075	-0.396
-326.143	407.766	0.135	0.286
-325.129	-200.000	-0.010	0.287
-324.114	68.839	-0.066	-0.068
-323.099	-63.163	0.099	0.041
-322.085	690.085	-0.075	0.197
-321.070	-83.255	-0.236	0.076
-320.056	800.000	-0.015	-0.062
-319.041	-173.022	0.145	0.004
-318.026	-61.750	0.155	0.065
-317.012	-200.000	0.009	-0.181
-315.997	-200.000	0.018	-0.119
-314.983	-98.579	-0.320	-0.082
-313.968	371.252	-0.012	0.025
-312.953	275.704	0.306	0.542
-311.939	-1.945	0.357	-0.251
-310.924	260.943	-0.025	-0.043
-309.910	165.020	-0.177	0.250
-308.895	-141.720	-0.089	0.009
-307.880	10.678	-0.055	0.042
-306.866	77.320	-0.329	0.349
-305.851	312.331	-0.194	0.364
-304.837	-119.574	0.161	-0.028
-303.822	121.956	0.272	0.340
-302.807	-200.000	-0.012	-0.060
-301.793	32.438	0.146	-0.126
-300.778	800.000	-0.076	-0.230
-299.764	100.582	0.080	-0.093
-298.749	-89.643	-0.078	0.023
-297.735	-128.134	0.067	0.010
-296.720	-96.880	-0.241	0.063
-295.705	118.395	0.161	-0.199
-294.691	142.670	-0.202	0.268
-293.676	800.000	-0.053	0.177
-292.662	109.637	0.248	-0.297
-291.647	167.990	0.178	0.252
-290.632	105.635	-0.009	0.010
-289.618	-95.203	0.243	-0.065
-288.603	101.562	0.050	0.058
-287.589	800.000	-0.005	-0.013
-286.574	-148.971	-0.127	-0.010
-285.559	800.000	-0.077	0.242
-284.545	178.566	0.057	-0.084
-283.530	214.437	0.008	-0.013
-282.516	-69.996	-0.212	0.080
-281.501	253.922	-0.064	-0.109
-280.486	-93.607	-0.098	-0.027
-279.472	-124.333	-0.116	0.018
-278.457	90.203	0.170	0.190
-277.443	113.286	-0.187	-0.226
-276.428	336.478	-0.138	-0.268
-275.413	-90.380	0.207	0.060
-274.399	66.766	0.130	-0.132
-273.384	21.035	0.134	-0.109
-272.370	-200.000	0.028	-0.129
-271.355	-88.600	0.063	0.019
-270.340	23.905	-0.130	0.106
-269.326	800.000	-0.019	-0.079
-268.311	66.048	0.020	0.020
-267.297	-200.000	0.048	-0.237
-266.282	-13.115	0.036	0.024
-265.267	14.069	-0.037	-0.029
-264.253	-33.019	0.124	0.068
-263.238	-58.229	-0.253	0.110
-262.224	-200.000	-0.023	0.392
-261.209	800.000	-0.071	-0.248
-260.195	123.236	0.097	-0.121
-259.180	-107.449	-0.255	-0.056
-258.165	176.628	-0.344	0.498
-257.151	407.190	0.043	-0.091
-256.136	-96.720	0.090	-0.024
-255.122	290.294	-0.158	0.285
-254.107	-200.000	-0.038	-0.178
-253.092	173.527	-0.164	0.236
-252.078	-200.000	-0.016	0.331
-251.063	-200.000	0.031	-0.215
-250.049	245.447	-0.135	-0.226
-249.034	-163.084	0.236	-0.011
-248.019	117.787	-0.112	-0.137
-247.005	-200.000	0.010	-0.268
-245.990	-115.112	-0.135	-0.025
-244.976	-121.959	0.375	0.061
-243.961	-39.547	-0.306	0.160
-242.946	800.000	0.026	0.102
-241.932	-66.648	0.355	0.140
-240.917	-200.000	-0.053	-0.236
-239.903	-48.969	0.285	-0.136
-238.888	-200.000	-0.001	0.186
-237.873	199.092	-0.081	-0.124
-236.859	-93.170	0.187	-0.052
-235.844	800.000	0.160	-0.470
-234.830	131.181	0.028	-0.036
-233.815	-6.730	0.188	0.127
-232.800	41.035	0.321	-0.288
-231.786	-200.000	-0.020	0.152
-230.771	92.395	0.069	0.078
-229.757	-96.825	0.308	-0.081
-228.742	-100.891	-0.141	-0.035
-227.727	-75.658	0.334	-0.118
-226.713	272.050	0.055	0.096
-225.698	-160.625	0.232	-0.012
-224.684	332.068	-0.111	0.213
-223.669	-34.270	0.319	0.174
-222.655	-88.104	-0.114	0.034
-221.640	-183.899	-0.167	-0.003
-220.625	-178.809	-0.207	0.005
-219.611	-21.114	0.146	-0.089
-218.596	94.511	0.206	-0.233
-217.582	272.640	0.087	0.152
-216.567	-77.113	0.202	0.070
-215.552	54.693	-0.083	-0.080
-214.538	800.000	-0.171	0.497
-213.523	-119.656	0.211	0.036
-212.509	411.367	0.101	-0.212
-211.494	-148.401	-0.316	-0.026
-210.479	557.820	-0.187	-0.448
-209.465	-118.719	0.212	-0.037
-208.450	-21.244	0.167	0.102
-207.436	-117.075	0.173	0.031
-206.421	-200.000	-0.032	-0.247
-205.406	-14.790	-0.295	0.188
-204.392	-177.627	-0.194	0.005
-203.377	-200.000	-0.053	0.252
-202.363	-95.330	0.195	0.052
-201.348	-200.000	0.029	-0.351
-200.333	-84.409	-0.208	0.065
-199.319	403.389	0.067	-0.140
-198.304	-11.911	-0.298	-0.195
-197.290	311.336	0.083	-0.155
-196.275	286.159	0.097	0.173
-195.260	334.873	0.115	0.221
-194.246	97.580	-0.249	0.284
-193.231	510.706	-0.110	0.253
-192.217	-98.548	0.232	0.059
-191.202	-75.858	0.312	-0.110
-190.187	-138.408	-0.076	-0.008
-189.173	800.000	0.079	0.230
-188.158	-162.659	0.047	-0.002
-187.144	800.000	-0.097	-0.279
-186.129	201.940	-0.240	0.367
-185.114	800.000	-0.089	-0.325
-184.100	263.923	-0.077	-0.133
-183.085	199.486	-0.057	-0.086
-182.071	-95.555	0.268	0.071
-181.056	-200.000	-0.010	0.280
-180.042	-166.249	-0.098	0.004
-179.027	196.587	0.149	-0.226
-178.012	73.650	-0.144	0.150
-176.998	-200.000	-0.041	0.196
-175.983	327.612	-0.084	-0.159
-174.969	-127.502	0.126	0.018
-173.954	55.267	-0.088	-0.085
-172.939	101.031	0.139	-0.161
-171.925	-41.397	0.147	0.075
-170.910	-91.914	-0.118	-0.033
-169.896	39.906	0.193	-0.173
-168.881	-125.898	0.169	0.025
-167.866	-161.740	-0.394	-0.020
-166.852	-166.232	0.413	-0.017
-165.837	524.672	0.106	0.248
-164.823	40.953	0.304	0.273
-163.808	115.224	0.110	0.134
-162.793	-42.957	-0.321	-0.162
-161.779	-150.626	0.504	-0.038
-160.764	29.511	0.145	0.123
-159.750	-145.111	0.081	-0.007
-158.735	55.444	0.105	-0.101
-157.720	800.000	-0.084	0.254
-156.706	-200.000	0.006	0.360
-155.691	-56.405	-0.203	0.090
-154.677	176.586	-0.117	0.169
-153.662	115.524	0.222	0.269
-152.647	-21.181	-0.213	-0.129
-151.633	800.000	-0.015	0.047
-150.618	151.541	-0.171	0.232
-149.604	-95.427	0.229	-0.061
-148.589	-160.935	0.528	-0.028
-147.574	-6.833	-0.167	0.113
-146.560	-62.574	-0.243	-0.100
-145.545	800.000	0.061	-0.248
-144.531	-200.000	0.057	-0.324
-143.516	-200.000	-0.067	-0.362
-142.502	-133.773	0.236	-0.029
-141.487	119.877	0.084	0.103
-140.472	-67.117	0.205	-0.080
-139.458	229.137	-0.115	-0.186
-138.443	-44.067	0.185	0.092
-137.429	-85.971	-0.216	0.066
-136.414	136.685	-0.264	0.341
-135.399	94.991	0.186	0.210
-134.385	62.854	-0.106	0.105
-133.370	-200.000	0.002	0.017
-132.356	7.222	-0.080	0.059
-131.341	-154.306	-0.094	-0.006
-130.326	-47.074	0.043	0.021
-129.312	-178.329	-0.189	0.004
-128.297	-33.604	-0.255	-0.140
-127.283	800.000	0.021	0.069
-126.268	31.983	-0.071	0.060
-125.253	-200.000	0.019	0.108
-124.239	-200.000	-0.005	0.140
-123.224	438.276	-0.112	0.243
-122.210	-15.068	0.153	0.097
