DTS Sentinel unit serial number:	SN413079Multiplexer serial number:	ORYXHardware model number:	OX4-SRSoftware version number:	ORYX F/W v4.00 Oryx Data Collector v3.7.2.0data status	okinstallation	princeton_trtdifferential loss correction	single-endedforward channel	channel 2reverse channel	N/Adate	2019/09/12time	18:02:49forward acquisition time	15.00reverse acquisition time	0.00gamma	496.2192k internal	0.2324k external	0.2324temperature offset calibration	1.0131default loss term (dB/km)	0.3790temperature slope calibration	1.0000multiplexer offset coefficient	1.0000multiplexer slope coefficient	1.0000fibre end	0.00T internal ref (°C)	33.75T ext. ref 1 (°C)	2.92T ext. ref 2 (°C)	28.33length (m)	temperature (°C)	Stokes	anti-Stokes-747.200	-42.471	1.250	-0.643
-746.185	41.959	-0.212	-0.194
-745.171	32.625	-0.209	-0.183
-744.156	-16.620	-0.088	0.056
-743.142	-82.393	0.446	-0.146
-742.127	235.543	-0.458	0.764
-741.112	69.969	-0.492	0.512
-740.098	-0.728	0.595	-0.426
-739.083	-139.762	0.586	0.063
-738.069	184.653	-0.288	-0.432
-737.054	60.424	0.432	0.432
-736.039	73.391	-0.217	0.229
-735.025	-200.000	0.034	-0.365
-734.010	-178.396	-0.293	0.007
-732.996	-124.662	-0.368	0.058
-731.981	-200.000	-0.063	0.575
-730.966	-76.583	0.440	-0.156
-729.952	5.763	-0.251	-0.188
-728.937	9.284	-0.677	-0.517
-727.923	800.000	0.118	-0.400
-726.908	-12.581	-0.363	-0.239
-725.894	-119.997	-0.837	-0.145
-724.879	-200.000	-0.072	-0.518
-723.864	-169.111	0.336	0.013
-722.850	-89.738	-1.085	0.321
-721.835	-200.000	0.102	0.848
-720.821	227.990	-0.288	0.474
-719.806	-200.000	-0.010	0.206
-718.791	555.903	-0.537	-1.304
-717.777	-194.064	-0.728	-0.006
-716.762	74.288	0.501	0.531
-715.748	-169.051	0.345	-0.013
-714.733	-47.874	0.530	0.259
-713.718	-200.000	-0.038	0.269
-712.704	393.918	-0.412	-0.865
-711.689	-200.000	0.031	-1.203
-710.675	-151.499	-0.278	0.021
-709.660	152.947	0.514	-0.708
-708.645	-25.989	0.124	0.074
-707.631	-6.552	-0.146	0.101
-706.616	53.279	0.257	-0.248
-705.602	-92.807	0.324	-0.091
-704.587	62.272	-0.400	-0.403
-703.572	226.961	0.477	-0.782
-702.558	-106.267	0.362	0.082
-701.543	-74.298	1.085	0.395
-700.529	-9.449	-0.363	0.244
-699.514	166.151	0.340	-0.485
-698.499	-200.000	-0.024	0.353
-697.485	-48.478	0.289	0.140
-696.470	379.407	-0.061	-0.126
-695.456	-200.000	-0.053	-0.508
-694.441	-200.000	-0.028	-0.140
-693.426	-200.000	-0.014	-0.088
-692.412	5.815	0.457	0.340
-691.397	-60.287	0.143	0.061
-690.383	-19.219	0.470	-0.294
-689.368	31.590	-0.620	0.537
-688.354	-200.000	-0.129	-0.621
-687.339	-200.000	-0.099	-0.455
-686.324	-48.542	0.265	-0.128
-685.310	-200.000	-0.102	-0.538
-684.295	-31.917	0.613	-0.346
-683.281	164.661	-0.519	-0.738
-682.266	-149.931	0.440	-0.035
-681.251	-47.565	0.289	0.141
-680.237	-192.028	-0.115	0.001
-679.222	138.965	0.396	0.524
-678.208	-124.091	-0.706	-0.112
-677.193	-200.000	-0.050	-0.320
-676.178	672.218	-0.236	0.617
-675.164	170.391	0.187	-0.269
-674.149	25.119	-0.293	-0.245
-673.135	-200.000	-0.020	-0.254
-672.120	800.000	0.145	-0.434
-671.105	-10.303	0.523	0.349
-670.091	101.246	-0.257	0.301
-669.076	153.217	0.337	0.465
-668.062	-29.475	-0.523	0.301
-667.047	-200.000	0.098	-0.603
-666.032	-163.720	-0.325	-0.015
-665.018	141.498	0.355	-0.473
-664.003	380.927	-0.347	-0.717
-662.989	559.163	0.182	-0.443
-661.974	115.158	-0.517	-0.635
-660.959	-200.000	0.059	-0.512
-659.945	-146.863	-0.380	-0.033
-658.930	-13.830	-0.308	0.200
-657.916	297.382	0.134	0.247
-656.901	-135.016	-0.220	0.027
-655.886	275.828	-0.099	0.176
-654.872	64.381	-0.779	0.789
-653.857	194.728	-0.306	0.468
-652.843	791.139	-0.103	0.284
-651.828	213.301	-0.511	0.813
-650.814	-174.632	0.629	-0.018
-649.799	208.797	0.358	-0.563
-648.784	92.913	0.298	0.339
-647.770	317.991	-0.109	-0.207
-646.755	497.662	-0.225	0.521
-645.741	-78.859	0.498	-0.171
-644.726	196.976	-0.135	-0.207
-643.711	-200.000	-0.016	-0.627
-642.697	-200.000	-0.008	-0.376
-641.682	-32.330	0.454	0.255
-640.668	-105.074	-0.879	0.202
-639.653	765.291	-0.143	-0.392
-638.638	34.418	-0.538	0.472
-637.624	-200.000	-0.009	0.555
-636.609	-86.472	-0.628	0.194
-635.595	-145.472	-0.651	0.059
-634.580	215.533	0.403	-0.643
-633.565	30.383	-0.248	0.213
-632.551	-169.172	-0.447	-0.017
-631.536	478.867	-0.383	-0.871
-630.522	-200.000	0.138	0.777
-629.507	419.624	-0.318	-0.684
-628.492	308.831	-0.327	-0.613
-627.478	-122.114	0.595	-0.098
-626.463	-89.981	0.847	0.248
-625.449	257.736	-0.196	-0.339
-624.434	-98.723	0.257	-0.066
-623.419	-36.506	-0.213	0.115
-622.405	-99.878	0.594	-0.149
-621.390	-11.276	-0.399	-0.264
-620.376	64.455	0.314	0.318
-619.361	-23.221	1.071	-0.647
-618.346	800.000	-0.152	-0.487
-617.332	-37.432	0.216	-0.116
-616.317	59.199	0.345	0.342
-615.303	-131.572	-0.571	0.075
-614.288	-118.414	0.171	-0.031
-613.273	-200.000	-0.011	0.088
-612.259	800.000	-0.130	-0.487
-611.244	161.368	0.146	-0.205
-610.230	-105.783	0.959	0.218
-609.215	-153.789	0.133	0.009
-608.201	6.936	0.460	-0.344
-607.186	-128.826	-0.726	0.103
-606.171	-127.279	0.343	-0.050
-605.157	800.000	0.091	0.342
-604.142	126.232	-0.262	0.332
-603.128	-200.000	-0.100	-0.768
-602.113	800.000	-0.072	-0.304
-601.098	122.533	0.123	-0.154
-600.084	-200.000	0.006	0.825
-599.069	99.088	-0.517	-0.600
-598.055	-200.000	0.013	-0.169
-597.040	-106.869	-0.694	0.154
-596.025	163.322	-0.178	-0.251
-595.011	-142.909	-0.789	0.077
-593.996	684.846	0.127	0.332
-592.982	18.389	0.848	0.680
-591.967	-6.003	0.243	-0.167
-590.952	-158.912	0.422	-0.024
-589.938	303.875	0.424	0.789
-588.923	-200.000	0.163	0.761
-587.909	-86.674	0.586	-0.180
-586.894	6.177	-0.595	0.443
-585.879	-200.000	0.101	0.592
-584.865	-200.000	0.031	0.255
-583.850	69.736	-0.111	-0.114
-582.836	-200.000	-0.048	-1.111
-581.821	800.000	-0.299	-0.891
-580.806	-43.413	0.390	-0.198
-579.792	22.194	-0.503	-0.412
-578.777	34.946	0.354	0.311
-577.763	-110.170	-0.782	-0.164
-576.748	800.000	0.007	-0.033
-575.733	26.321	-0.232	-0.194
-574.719	-200.000	-0.691	0.001
-573.704	-54.620	-0.745	-0.338
-572.690	-200.000	0.063	0.446
-571.675	238.899	0.452	0.754
-570.661	800.000	0.081	-0.250
-569.646	38.060	-0.819	-0.731
-568.631	384.681	0.303	0.627
-567.617	-60.525	0.187	0.080
-566.602	68.075	-0.618	0.634
-565.588	169.901	-0.323	-0.464
-564.573	-200.000	-0.066	1.036
-563.558	84.684	-0.468	-0.514
-562.544	-110.879	0.908	-0.187
-561.529	-132.395	-0.506	0.065
-560.515	86.075	0.557	-0.615
-559.500	70.955	-0.272	-0.283
-558.485	646.968	0.070	0.179
-557.471	-170.790	0.412	-0.014
-556.456	800.000	0.183	-0.525
-555.442	-95.720	0.520	0.139
-554.427	-200.000	-0.139	0.001
-553.412	306.350	-0.218	0.406
-552.398	-69.177	0.253	-0.098
-551.383	-11.360	-0.613	0.404
-550.369	-74.139	-0.239	-0.087
-549.354	82.498	0.393	0.427
-548.339	-137.628	-0.835	-0.094
-547.325	134.574	0.161	-0.209
-546.310	800.000	-0.248	0.792
-545.296	-59.389	-0.560	-0.241
-544.281	72.135	0.267	0.279
-543.266	-200.000	-0.123	-0.588
-542.252	32.233	0.068	0.058
-541.237	-32.300	0.190	0.106
-540.223	-200.000	0.161	-0.753
-539.208	-0.101	-0.719	-0.513
-538.193	80.429	0.458	0.494
-537.179	-159.078	-1.051	-0.060
-536.164	9.947	0.174	0.132
-535.150	317.595	0.175	0.331
-534.135	573.209	0.083	0.203
-533.121	-200.000	0.047	0.565
-532.106	800.000	0.195	0.799
-531.091	-29.213	0.416	0.239
-530.077	-20.075	0.457	-0.282
-529.062	44.710	-0.649	-0.598
-528.048	48.251	0.611	0.572
-527.033	364.491	0.189	0.382
-526.018	783.071	0.236	0.648
-525.004	634.757	0.029	0.074
-523.989	-0.383	-0.373	0.265
-522.975	800.000	-0.185	-0.537
-521.960	331.449	0.053	0.102
-520.945	419.675	-0.083	-0.178
-519.931	-97.770	-0.776	-0.201
-518.916	270.087	0.113	-0.200
-517.902	33.713	0.414	-0.361
-516.887	-42.188	0.420	-0.215
-515.872	426.038	-0.331	-0.713
-514.858	-130.289	0.754	0.102
-513.843	-200.000	-0.002	0.217
-512.829	-200.000	0.022	0.413
-511.814	150.391	-0.137	0.186
-510.799	-57.606	-1.012	-0.444
-509.785	-97.702	0.721	0.187
-508.770	-200.000	-0.081	0.477
-507.756	-17.138	-0.177	-0.112
-506.741	-50.327	0.355	0.168
-505.726	566.584	-0.351	0.852
-504.712	431.479	-0.159	-0.345
-503.697	68.738	-0.496	-0.509
-502.683	-200.000	-0.061	-0.296
-501.668	-200.000	-0.096	0.783
-500.653	58.751	0.115	0.113
-499.639	154.189	-0.326	0.448
-498.624	-149.344	0.300	0.024
-497.610	-108.352	-0.436	0.094
-496.595	93.794	0.371	-0.420
-495.581	-47.302	1.159	0.564
-494.566	-36.141	-0.588	0.317
-493.551	-132.129	-0.379	0.049
-492.537	-19.148	0.236	0.146
-491.522	800.000	0.356	-1.089
-490.508	158.353	0.395	0.548
-489.493	-127.292	0.673	-0.098
-488.478	-200.000	0.012	0.072
-487.464	-200.000	0.124	-0.618
-486.449	800.000	-0.071	-0.308
-485.435	-123.456	-0.648	-0.103
-484.420	-89.319	-0.865	0.255
-483.405	800.000	0.172	-0.575
-482.391	167.502	-0.435	-0.618
-481.376	98.315	0.606	-0.698
-480.362	-30.813	0.491	-0.277
-479.347	85.469	-0.474	-0.520
-478.332	-21.097	0.718	-0.439
-477.318	-32.396	-0.504	0.281
-476.303	171.922	-0.306	0.439
-475.289	-23.915	-0.068	0.041
-474.274	-200.000	-0.003	-0.217
-473.259	315.824	-0.457	-0.862
-472.245	116.744	-0.222	-0.272
-471.230	-7.241	0.464	-0.314
-470.216	-156.502	-0.667	-0.041
-469.201	-200.000	-0.207	-1.199
-468.186	-117.216	-0.635	-0.115
-467.172	-67.141	0.522	-0.205
-466.157	-44.106	-0.044	-0.022
-465.143	681.294	-0.239	0.621
-464.128	-105.400	-0.297	0.067
-463.113	-15.117	0.768	-0.491
-462.099	207.712	-0.196	-0.305
-461.084	643.546	0.293	-0.746
-460.070	800.000	-0.382	-1.193
-459.055	27.150	0.271	0.227
-458.040	5.863	-0.819	-0.605
-457.026	-44.370	0.999	0.499
-456.011	-200.000	0.044	0.455
-454.997	-135.048	0.446	0.054
-453.982	-200.000	0.054	-0.569
-452.968	-97.156	-0.484	-0.126
-451.953	194.137	-0.199	-0.301
-450.938	800.000	0.039	-0.119
-449.924	725.511	0.270	-0.720
-448.909	135.304	0.464	0.602
-447.895	-61.304	0.602	-0.253
-446.880	-108.888	-0.498	-0.106
-445.865	1.562	0.057	0.041
-444.851	128.302	-0.556	-0.706
-443.836	163.222	-0.267	-0.375
-442.822	-108.574	1.173	0.252
-441.807	46.714	-0.936	-0.867
-440.792	-52.042	-0.640	0.297
-439.778	-159.989	-0.602	0.033
-438.763	98.112	-0.476	-0.547
-437.749	0.770	0.529	-0.378
-436.734	800.000	0.219	-0.640
-435.719	185.164	-0.312	0.462
-434.705	-62.424	0.040	-0.017
-433.690	-132.405	0.530	0.068
-432.676	-140.855	-0.198	-0.020
-431.661	-200.000	0.005	-0.717
-430.646	-200.000	0.122	-0.726
-429.632	-43.705	-0.172	0.086
-428.617	-200.000	-0.034	-0.528
-427.603	37.966	-0.613	-0.543
-426.588	-43.382	-0.602	-0.303
-425.573	800.000	-0.106	0.299
-424.559	-27.627	0.544	0.315
-423.544	62.414	-0.045	0.044
-422.530	800.000	-0.116	0.447
-421.515	-90.249	-1.406	-0.408
-420.500	-52.040	-0.733	0.340
-419.486	-132.848	-0.265	-0.034
-418.471	-13.132	0.216	-0.140
-417.457	-117.016	-0.717	0.130
-416.442	-200.000	-0.017	0.759
-415.428	6.667	0.801	0.594
-414.413	-119.281	-0.787	-0.137
-413.398	-87.845	-0.218	-0.065
-412.384	-97.545	-0.510	-0.132
-411.369	84.193	-0.139	0.152
-410.355	8.189	-0.456	0.341
-409.340	800.000	0.106	0.411
-408.325	-3.160	0.886	-0.615
-407.311	172.945	-0.372	0.534
-406.296	-200.000	-0.050	0.284
-405.282	-0.643	0.566	0.400
-404.267	726.327	0.184	0.489
-403.252	225.850	0.227	0.367
-402.238	-134.780	-0.045	-0.005
-401.223	36.912	0.454	-0.400
-400.209	-200.000	0.021	0.166
-399.194	279.297	-0.479	0.851
-398.179	-53.009	0.367	-0.168
-397.165	578.277	0.078	0.190
-396.150	106.049	-0.211	-0.249
-395.136	40.261	-0.373	0.334
-394.121	-200.000	0.098	-0.705
-393.106	-200.000	0.063	-0.462
-392.092	244.469	0.133	0.222
-391.077	-148.020	0.739	-0.061
-390.063	-200.000	-0.031	0.628
-389.048	800.000	-0.330	0.969
-388.033	228.661	0.442	-0.717
-387.019	40.682	0.412	0.370
-386.004	-200.000	-0.107	1.035
-384.990	62.815	-0.244	0.243
-383.975	33.758	0.482	0.417
-382.960	-200.000	0.100	0.603
-381.946	8.425	-0.407	-0.305
-380.931	-16.558	0.726	-0.458
-379.917	-120.558	0.835	0.141
-378.902	301.030	-0.188	0.345
-377.888	-200.000	0.074	-0.733
-376.873	784.813	0.338	-0.922
-375.858	800.000	0.036	-0.121
-374.844	-33.515	0.944	0.519
-373.829	-75.157	-0.481	-0.171
-372.815	54.168	-1.000	-0.958
-371.800	417.174	-0.211	0.449
-370.785	471.091	-0.142	-0.318
-369.771	15.279	-0.592	0.462
-368.756	-62.451	-0.242	0.100
-367.742	0.561	-1.106	-0.787
-366.727	-74.804	0.706	-0.252
-365.712	-102.528	-0.193	-0.046
-364.698	115.311	-0.209	0.254
-363.683	800.000	0.139	0.548
-362.669	307.886	0.173	-0.321
-361.654	-27.051	0.324	0.188
-360.639	203.616	-0.237	0.364
-359.625	-127.136	-0.668	-0.097
-358.610	-112.615	0.527	-0.104
-357.596	82.342	0.750	0.809
-356.581	331.321	-0.050	0.096
-355.566	191.860	0.380	-0.570
-354.552	630.686	0.071	-0.177
-353.537	-200.000	-0.116	0.526
-352.523	66.571	0.177	-0.179
-351.508	58.072	0.650	0.633
-350.493	-34.857	0.318	-0.173
-349.479	800.000	0.108	0.432
-348.464	-25.277	-0.090	-0.053
-347.450	-89.428	0.905	-0.265
-346.435	800.000	0.125	-0.365
-345.420	86.088	0.501	0.548
-344.406	-42.500	0.723	0.366
-343.391	-200.000	-0.091	0.859
-342.377	-21.365	-0.952	0.578
-341.362	-69.066	-0.353	-0.135
-340.348	800.000	0.199	0.579
-339.333	247.888	-0.284	0.477
-338.318	-200.000	-0.054	0.404
-337.304	-64.865	-0.402	0.162
-336.289	206.665	-0.238	0.368
-335.275	-191.297	-0.529	0.005
-334.260	-79.030	0.168	-0.057
-333.245	68.807	-0.240	-0.244
-332.231	89.810	-0.513	0.569
-331.216	137.148	-0.386	-0.502
-330.202	-15.373	0.463	0.294
-329.187	-35.095	-0.552	0.299
-328.172	234.275	0.355	0.581
-327.158	122.167	-0.817	1.013
-326.143	-126.603	-0.370	0.054
-325.129	-34.693	0.306	0.166
-324.114	-188.222	0.577	-0.007
-323.099	54.314	-0.104	0.100
-322.085	-144.503	0.232	0.021
-321.070	-21.342	0.213	-0.129
-320.056	-125.872	0.115	0.017
-319.041	-121.398	-0.458	0.076
-318.026	-42.672	-0.570	-0.288
-317.012	-32.071	0.382	0.212
-315.997	-200.000	0.071	1.159
-314.983	348.076	-0.411	-0.805
-313.968	88.546	0.351	0.388
-312.953	800.000	-0.088	0.273
-311.939	636.559	0.219	-0.552
-310.924	29.100	0.236	0.199
-309.910	800.000	-0.177	0.615
-308.895	344.939	0.336	-0.655
-307.880	800.000	0.130	0.443
-306.866	800.000	0.123	-0.400
-305.851	545.427	-0.155	-0.368
-304.837	-200.000	-0.051	1.019
-303.822	-172.173	-0.151	-0.005
-302.807	62.842	-0.140	0.139
-301.793	-98.425	0.478	0.122
-300.778	85.521	-0.407	0.443
-299.764	800.000	0.158	0.650
-298.749	512.711	0.188	0.434
-297.735	-200.000	0.007	0.408
-296.720	70.251	0.368	0.377
-295.705	60.598	0.898	0.882
-294.691	154.982	-0.148	0.203
-293.676	35.408	0.257	-0.224
-292.662	561.912	-0.371	-0.889
-291.647	392.839	-0.171	0.353
-290.632	-78.184	0.106	-0.036
-289.618	91.741	0.235	-0.263
-288.603	172.283	0.671	-0.957
-287.589	-200.000	0.010	0.580
-286.574	-140.559	0.501	0.052
-285.559	319.924	0.531	1.000
-284.545	-200.000	-0.005	-0.038
-283.530	-152.193	-0.133	0.010
-282.516	800.000	-0.186	0.564
-281.501	-200.000	-0.000	0.269
-280.486	800.000	0.174	0.569
-279.472	-14.726	0.412	0.263
-278.457	-119.228	-0.710	0.123
-277.443	11.350	0.665	0.505
-276.428	218.470	0.289	-0.457
-275.413	-200.000	0.071	0.552
-274.399	-200.000	0.060	0.526
-273.384	-200.000	-0.053	0.240
-272.370	-180.458	0.543	-0.011
-271.355	-96.124	1.024	0.270
-270.340	133.416	0.207	-0.265
-269.326	161.926	-0.140	0.194
-268.311	-115.150	0.439	0.082
-267.297	4.806	-0.170	-0.124
-266.282	-200.000	-0.047	-0.263
-265.267	800.000	-0.146	-0.540
-264.253	277.133	-0.261	-0.460
-263.238	-200.000	-0.046	0.202
-262.224	98.296	0.750	0.856
-261.209	149.450	0.206	-0.276
-260.195	-200.000	-0.020	-0.442
-259.180	698.877	-0.195	0.508
-258.165	-152.172	0.132	0.009
-257.151	-133.561	-0.387	0.048
-256.136	-105.095	-0.425	0.096
-255.122	-130.708	0.485	-0.065
-254.107	-22.388	0.321	0.192
-253.092	128.555	0.307	0.387
-252.078	-183.411	0.512	-0.009
-251.063	-82.504	0.432	0.139
-250.049	567.567	-0.394	-0.948
-249.034	-200.000	-0.038	-0.553
-248.019	-200.000	-0.062	-0.702
-247.005	800.000	0.304	0.901
-245.990	-146.469	-0.228	0.020
-244.976	769.071	-0.308	-0.829
-243.961	192.013	-0.556	0.831
-242.946	-155.900	0.776	0.049
-241.932	-131.664	0.290	0.038
-240.917	-68.618	-0.703	0.269
-239.903	451.676	-0.125	-0.273
-238.888	83.263	-0.255	0.275
-237.873	129.351	-0.219	-0.277
-236.859	10.065	-0.168	0.126
-235.844	-154.847	-0.353	-0.023
-234.830	-200.000	-0.066	0.941
-233.815	-105.532	-0.906	0.204
-232.800	691.385	-0.223	0.578
-231.786	-74.184	-0.362	-0.130
-230.771	-43.361	-0.356	-0.178
-229.757	800.000	-0.047	0.151
-228.742	-101.215	0.175	0.042
-227.727	-102.167	-0.840	-0.200
-226.713	-200.000	-0.018	-0.166
-225.698	-76.655	0.448	0.156
-224.684	12.542	-0.644	-0.492
-223.669	-142.590	0.558	-0.054
-222.655	-200.000	-0.069	-0.315
-221.640	-152.505	0.905	-0.064
-220.625	218.556	0.173	-0.273
-219.611	76.558	0.103	0.108
-218.596	-118.199	-0.436	-0.077
-217.582	-111.262	-0.186	-0.038
-216.567	331.485	0.355	-0.678
-215.552	179.147	0.161	0.234
-214.538	126.086	0.164	0.205
-213.523	269.289	0.088	-0.154
-212.509	9.223	-0.531	-0.397
-211.494	800.000	-0.024	-0.075
-210.479	-118.306	0.399	0.070
-209.465	533.456	-0.283	0.662
-208.450	79.670	-0.149	-0.158
-207.436	-15.898	0.545	0.343
-206.421	335.511	0.168	-0.322
-205.406	47.295	0.117	-0.108
-204.392	-149.174	0.446	-0.035
-203.377	-0.266	-0.284	0.199
-202.363	216.158	-0.103	0.162
-201.348	-159.044	0.740	0.041
-200.333	45.620	-0.528	-0.482
-199.319	139.915	-0.259	0.338
-198.304	29.310	0.848	-0.712
-197.290	437.074	0.250	-0.539
-196.275	800.000	0.083	0.252
-195.260	232.253	-0.214	0.346
-194.246	-200.000	-0.157	-0.711
-193.231	-200.000	0.140	0.646
-192.217	451.191	0.325	-0.710
-191.202	-200.000	0.014	-0.339
-190.187	-160.407	-0.102	-0.005
-189.173	-29.964	0.546	0.307
-188.158	800.000	-0.086	0.372
-187.144	54.412	-0.390	-0.371
-186.129	-61.663	0.656	0.272
-185.114	-132.973	0.540	-0.068
-184.100	800.000	-0.178	-0.582
-183.085	320.643	0.406	0.762
-182.071	150.853	-0.600	0.806
-181.056	136.142	-0.472	-0.607
-180.042	361.752	0.467	-0.924
-179.027	-158.638	0.193	-0.011
-178.012	-149.582	0.589	0.046
-176.998	5.247	-0.577	-0.420
-175.983	-200.000	-0.093	-0.633
-174.969	29.669	-0.669	-0.563
-173.954	437.426	0.146	-0.315
-172.939	77.067	0.485	-0.509
-171.925	43.824	-0.210	-0.190
-170.910	-102.248	-0.485	0.115
-169.896	80.644	0.190	-0.202
-168.881	256.489	0.402	-0.681
-167.866	-79.298	-0.947	-0.317
-166.852	364.058	0.296	0.587
-165.837	-200.000	0.805	0.003
-164.823	-55.745	-0.471	-0.208
-163.808	452.431	0.354	-0.773
-162.793	68.062	-0.755	0.762
-161.779	12.827	-0.303	-0.231
-160.764	-184.600	0.280	-0.004
-159.750	-200.000	0.114	0.590
-158.735	127.608	0.370	0.464
-157.720	92.609	-0.131	-0.146
-156.706	31.699	-0.476	-0.404
-155.691	-109.942	0.478	-0.099
-154.677	-200.000	-0.054	-0.768
-153.662	638.804	-0.104	-0.260
-152.647	59.932	-0.389	0.379
-151.633	-161.249	0.521	-0.027
-150.618	163.393	0.231	0.320
-149.604	-79.537	0.158	-0.053
-148.589	-95.116	1.348	0.359
-147.574	-82.988	0.451	-0.143
-146.560	-125.999	-0.363	-0.054
-145.545	-200.000	0.140	-1.015
-144.531	309.361	0.329	0.607
-143.516	496.606	0.289	0.655
-142.502	709.078	0.212	-0.554
-141.487	72.784	0.546	0.562
-140.472	163.579	-0.328	0.455
-139.458	800.000	-0.019	-0.065
-138.443	-200.000	0.056	0.329
-137.429	-200.000	0.021	-0.247
-136.414	-200.000	-0.065	-0.342
-135.399	800.000	0.055	-0.180
-134.385	-200.000	-0.096	-1.055
-133.370	800.000	-0.082	-0.293
-132.356	-53.826	-0.895	0.402
-131.341	-101.565	0.245	0.059
-130.326	38.440	-0.250	-0.220
-129.312	39.916	-0.391	0.346
-128.297	-200.000	-0.117	-0.615
-127.283	-81.838	0.738	-0.238
-126.268	-200.000	0.107	0.587
-125.253	125.387	0.166	0.206
-124.239	-109.624	0.259	0.054
-123.224	632.126	0.300	-0.748
-122.210	104.088	-0.327	-0.379
-121.195	99.036	0.077	0.088
