DTS Sentinel unit serial number:	SN413079Multiplexer serial number:	ORYXHardware model number:	OX4-SRSoftware version number:	ORYX F/W v4.00 Oryx Data Collector v3.7.2.0data status	okinstallation	princeton_trtdifferential loss correction	single-endedforward channel	channel 2reverse channel	N/Adate	2019/09/13time	14:11:35forward acquisition time	60.00reverse acquisition time	0.00gamma	496.2192k internal	0.2315k external	0.2315temperature offset calibration	1.0208default loss term (dB/km)	0.3790temperature slope calibration	1.0000multiplexer offset coefficient	1.0000multiplexer slope coefficient	1.0000fibre end	0.00T internal ref (°C)	35.27T ext. ref 1 (°C)	4.61T ext. ref 2 (°C)	30.34length (m)	temperature (°C)	Stokes	anti-Stokes-747.200	-148.145	0.427	0.036
-746.185	800.000	-0.164	0.471
-745.171	-109.908	0.277	-0.059
-744.156	82.392	0.114	0.126
-743.142	555.236	0.091	0.222
-742.127	-74.717	0.414	-0.151
-741.112	-78.222	-0.124	-0.043
-740.098	414.505	-0.080	0.172
-739.083	4.660	0.393	-0.292
-738.069	286.375	0.086	0.157
-737.054	-157.397	-0.401	0.024
-736.039	-51.761	-0.295	0.139
-735.025	259.256	0.208	-0.364
-734.010	-200.000	-0.072	-0.324
-732.996	-28.290	0.268	-0.157
-731.981	378.344	-0.084	0.173
-730.966	137.794	0.016	-0.021
-729.952	-195.937	-0.133	0.001
-728.937	435.979	0.012	-0.027
-727.923	-76.575	0.091	0.032
-726.908	-0.909	-0.371	0.266
-725.894	-137.195	-0.241	-0.028
-724.879	46.456	-0.207	0.194
-723.864	-1.763	0.098	-0.070
-722.850	-54.720	-0.206	-0.094
-721.835	-200.000	0.004	-0.061
-720.821	800.000	0.139	-0.396
-719.806	77.065	0.031	-0.034
-718.791	-6.805	-0.136	-0.094
-717.777	57.364	0.168	0.166
-716.762	8.223	-0.087	0.066
-715.748	-101.683	-0.141	-0.035
-714.733	800.000	-0.039	-0.152
-713.718	467.228	0.130	0.296
-712.704	237.782	0.069	0.116
-711.689	-45.761	-0.200	0.100
-710.675	-92.410	-0.194	-0.055
-709.660	649.665	0.093	0.241
-708.645	102.675	-0.131	-0.155
-707.631	-200.000	-0.080	0.366
-706.616	-200.000	-0.428	0.001
-705.602	-200.000	0.005	-0.233
-704.587	800.000	-0.038	0.154
-703.572	-200.000	0.000	-0.130
-702.558	-127.554	-0.255	-0.037
-701.543	517.204	-0.036	0.084
-700.529	27.083	0.198	-0.168
-699.514	764.630	0.037	-0.102
-698.499	63.087	0.047	0.048
-697.485	-73.682	0.139	-0.051
-696.470	239.116	0.163	0.274
-695.456	54.519	0.065	-0.063
-694.441	-200.000	-0.057	0.280
-693.426	227.596	-0.116	0.191
-692.412	-131.149	-0.187	0.025
-691.397	-102.164	-0.131	0.032
-690.383	450.651	-0.127	0.284
-689.368	-111.385	-0.262	-0.054
-688.354	-10.422	0.131	0.088
-687.339	74.272	0.055	-0.058
-686.324	234.243	0.208	0.347
-685.310	680.198	0.071	-0.186
-684.295	4.314	0.050	0.037
-683.281	-87.325	0.217	-0.066
-682.266	800.000	0.022	-0.076
-681.251	-3.900	-0.208	-0.146
-680.237	39.919	0.177	0.160
-679.222	-39.534	0.163	-0.086
-678.208	-200.000	0.033	0.176
-677.193	-200.000	-0.039	-0.255
-676.178	128.359	-0.134	-0.172
-675.164	-125.046	-0.187	0.029
-674.149	106.094	-0.171	-0.205
-673.135	-200.000	-0.075	-0.335
-672.120	-200.000	-0.060	-0.397
-671.105	265.725	-0.194	0.343
-670.091	-54.505	0.107	-0.049
-669.076	16.468	0.128	-0.102
-668.062	-47.487	-0.108	-0.053
-667.047	727.738	0.061	0.164
-666.032	-88.879	0.405	0.121
-665.018	800.000	0.135	-0.379
-664.003	-200.000	-0.001	-0.017
-662.989	-34.775	0.176	-0.097
-661.974	-200.000	0.034	0.224
-660.959	-110.135	-0.201	-0.042
-659.945	-9.097	0.110	0.074
-658.930	378.043	0.151	-0.311
-657.916	42.241	-0.148	-0.136
-656.901	579.219	0.037	-0.091
-655.886	-80.108	-0.069	0.023
-654.872	224.026	-0.184	-0.301
-653.857	263.085	-0.167	-0.293
-652.843	-3.162	-0.108	-0.076
-651.828	-200.000	-0.044	0.381
-650.814	150.170	0.149	-0.204
-649.799	-0.864	-0.457	0.327
-648.784	344.673	-0.177	-0.351
-647.770	355.267	0.105	-0.211
-646.755	68.458	-0.128	-0.133
-645.741	278.377	0.149	-0.268
-644.726	-200.000	0.015	-0.079
-643.711	-164.093	-0.203	0.009
-642.697	-37.465	-0.301	0.162
-641.682	-81.088	-0.108	0.036
-640.668	-17.801	-0.138	0.087
-639.653	32.744	0.161	0.141
-638.638	-61.594	0.177	-0.075
-637.624	-75.727	0.299	-0.107
-636.609	-200.000	-0.016	0.104
-635.595	294.907	0.169	-0.311
-634.580	40.173	-0.225	-0.205
-633.565	132.528	0.184	-0.240
-632.551	-80.097	-0.343	0.116
-631.536	-83.005	-0.138	0.045
-630.522	-36.405	-0.320	0.174
-629.507	-200.000	-0.017	-0.202
-628.492	32.016	-0.189	0.164
-627.478	-83.319	0.206	0.067
-626.463	-14.415	0.184	-0.120
-625.449	9.712	0.077	-0.059
-624.434	-14.099	-0.213	-0.138
-623.419	-174.771	-0.255	0.007
-622.405	257.767	0.068	0.118
-621.390	-63.307	0.234	-0.097
-620.376	0.124	-0.424	0.305
-619.361	800.000	-0.018	0.063
-618.346	-200.000	0.022	0.291
-617.332	61.307	-0.178	0.179
-616.317	800.000	0.047	-0.163
-615.303	49.899	0.323	0.307
-614.288	-200.000	-0.022	0.133
-613.273	-22.749	-0.088	0.053
-612.259	-92.520	0.145	0.041
-611.244	-121.112	0.079	-0.013
-610.230	-18.811	0.412	-0.258
-609.215	28.036	0.074	0.063
-608.201	76.712	0.197	-0.211
-607.186	800.000	0.035	0.120
-606.171	800.000	0.029	-0.107
-605.157	145.852	0.153	0.206
-604.142	-65.501	-0.395	-0.160
-603.128	-71.858	0.135	-0.051
-602.113	-84.814	0.077	-0.024
-601.098	529.126	-0.090	-0.215
-600.084	-200.000	0.012	0.129
-599.069	800.000	0.053	-0.161
-598.055	293.604	0.106	0.195
-597.040	-136.031	0.221	0.026
-596.025	-200.000	-0.007	-0.146
-595.011	-103.507	-0.166	-0.039
-593.996	-143.153	0.120	-0.012
-592.982	25.288	-0.192	0.160
-591.967	47.153	-0.102	0.096
-590.952	800.000	-0.063	0.257
-589.938	-62.872	-0.191	0.080
-588.923	-56.834	0.073	0.032
-587.909	-167.980	-0.149	-0.006
-586.894	-105.448	-0.260	-0.060
-585.879	-162.555	-0.220	-0.011
-584.865	223.185	-0.091	-0.148
-583.850	-139.507	-0.140	-0.015
-582.836	771.710	0.156	0.427
-581.821	-121.775	-0.292	0.049
-580.806	-31.557	0.106	0.060
-579.792	-50.682	-0.125	0.059
-578.777	27.449	-0.131	-0.111
-577.763	379.274	0.133	-0.274
-576.748	-200.000	-0.010	0.347
-575.733	-190.764	-0.020	0.000
-574.719	-200.000	0.091	-0.408
-573.704	192.468	0.162	-0.247
-572.690	-117.859	-0.324	-0.059
-571.675	199.991	-0.187	0.288
-570.661	-200.000	-0.020	-0.116
-569.646	-120.256	-0.204	0.035
-568.631	-200.000	0.009	-0.118
-567.617	244.101	-0.063	0.107
-566.602	-107.523	-0.478	-0.105
-565.588	4.266	-0.391	-0.288
-564.573	-200.000	0.013	-0.140
-563.558	-22.107	-0.024	0.015
-562.544	800.000	0.025	0.082
-561.529	-200.000	-0.057	-0.269
-560.515	-200.000	0.060	-0.267
-559.500	72.528	-0.199	0.209
-558.485	624.931	-0.046	0.117
-557.471	403.539	-0.083	-0.176
-556.456	467.890	0.076	-0.171
-555.442	800.000	0.020	0.072
-554.427	-5.902	0.174	-0.120
-553.412	40.112	0.039	0.035
-552.398	-102.486	-0.150	-0.036
-551.383	800.000	0.014	-0.049
-550.369	92.819	-0.064	-0.073
-549.354	498.008	-0.078	-0.180
-548.339	-200.000	-0.173	0.001
-547.325	-0.599	0.077	0.055
-546.310	397.415	-0.098	0.205
-545.296	-200.000	0.040	-0.373
-544.281	-200.000	0.009	-0.348
-543.266	39.175	-0.048	-0.044
-542.252	-100.132	0.409	-0.102
-541.237	800.000	0.126	-0.534
-540.223	-200.000	-0.030	-0.240
-539.208	-172.637	0.303	0.010
-538.193	-147.566	0.183	-0.015
-537.179	38.181	0.007	-0.006
-536.164	-200.000	-0.011	-0.138
-535.150	-86.603	0.201	-0.062
-534.135	-48.733	0.102	0.049
-533.121	-74.873	0.130	-0.047
-532.106	-84.864	-0.252	0.079
-531.091	38.012	0.190	-0.170
-530.077	-128.043	0.353	-0.051
-529.062	692.423	-0.115	-0.302
-528.048	-200.000	-0.019	0.166
-527.033	465.992	-0.057	-0.128
-526.018	-23.211	0.128	-0.078
-525.004	800.000	-0.095	-0.267
-523.989	3.142	0.219	-0.160
-522.975	193.274	-0.084	0.127
-521.960	800.000	0.027	0.096
-520.945	140.120	-0.077	0.102
-519.931	-200.000	0.042	-0.209
-518.916	45.367	0.065	0.060
-517.902	-36.840	0.181	0.098
-516.887	27.343	0.239	0.202
-515.872	9.241	0.107	0.081
-514.858	92.818	0.217	0.246
-513.843	-200.000	-0.017	-0.166
-512.829	-200.000	-0.023	-0.250
-511.814	63.250	-0.079	0.080
-510.799	244.780	0.108	0.182
-509.785	-122.037	0.168	-0.028
-508.770	-101.639	0.019	-0.005
-507.756	-45.810	-0.203	-0.101
-506.741	12.243	-0.230	0.178
-505.726	-32.552	-0.439	-0.246
-504.712	-72.453	0.246	-0.091
-503.697	-136.030	0.485	-0.057
-502.683	-13.838	-0.330	-0.214
-501.668	800.000	-0.028	-0.084
-500.653	502.833	0.104	-0.241
-499.639	800.000	-0.039	0.115
-498.624	-69.724	-0.368	0.141
-497.610	24.324	0.189	0.156
-496.595	-200.000	-0.021	0.135
-495.581	312.447	-0.147	0.278
-494.566	-83.201	-0.256	-0.082
-493.551	-110.957	-0.028	0.006
-492.537	83.608	-0.308	0.337
-491.522	56.682	-0.098	0.096
-490.508	-200.000	-0.017	-0.191
-489.493	26.630	0.132	-0.111
-488.478	-41.036	0.338	-0.175
-487.464	-0.115	-0.274	-0.196
-486.449	143.217	-0.053	0.071
-485.435	399.130	-0.027	0.056
-484.420	800.000	0.137	0.398
-483.405	-200.000	0.010	-0.241
-482.391	-200.000	-0.029	-0.200
-481.376	-200.000	0.006	0.126
-480.362	-24.206	0.323	0.194
-479.347	231.772	0.128	0.210
-478.332	-40.367	0.211	-0.110
-477.318	-96.040	-0.053	0.014
-476.303	-18.385	0.125	0.078
-475.289	-200.000	0.049	-0.291
-474.274	-75.722	0.104	-0.037
-473.259	-200.000	0.016	-0.073
-472.245	50.542	-0.181	0.172
-471.230	476.759	-0.070	-0.158
-470.216	-117.066	0.110	-0.020
-469.201	-200.000	-0.051	0.368
-468.186	91.202	0.173	0.195
-467.172	-200.000	0.031	0.186
-466.157	35.078	0.225	-0.198
-465.143	4.915	-0.160	0.118
-464.128	-86.562	0.106	0.032
-463.113	-21.193	-0.300	0.184
-462.099	1.913	-0.219	0.158
-461.084	-102.907	-0.283	-0.067
-460.070	204.234	0.106	-0.164
-459.055	117.560	-0.086	-0.106
-458.040	800.000	-0.013	-0.048
-457.026	-5.398	-0.052	-0.036
-456.011	-48.265	0.141	0.068
-454.997	581.998	0.139	-0.342
-453.982	-200.000	-0.310	0.001
-452.968	9.323	-0.212	0.161
-451.953	-114.848	-0.014	0.003
-450.938	306.770	-0.087	-0.162
-449.924	-138.504	0.222	-0.024
-448.909	-72.437	-0.319	-0.118
-447.895	490.516	-0.080	-0.183
-446.880	-68.523	0.274	0.107
-445.865	98.809	-0.089	-0.103
-444.851	800.000	0.055	0.158
-443.836	178.151	0.167	-0.244
-442.822	375.387	-0.154	0.314
-441.807	-31.604	-0.291	-0.164
-440.792	250.258	-0.154	0.263
-439.778	270.061	0.079	-0.139
-438.763	-158.885	-0.068	-0.004
-437.749	274.402	0.117	0.208
-436.734	-142.670	0.070	0.007
-435.719	29.656	0.069	0.059
-434.705	427.529	-0.108	0.234
-433.690	-59.056	0.051	-0.022
-432.676	89.769	-0.113	-0.127
-431.661	48.471	0.333	-0.312
-430.646	-185.945	-0.129	0.002
-429.632	-162.488	0.199	0.010
-428.617	-200.000	0.008	0.185
-427.603	-19.492	-0.186	0.116
-426.588	-92.766	0.325	0.091
-425.573	8.658	-0.160	0.121
-424.559	119.322	0.204	-0.253
-423.544	338.114	-0.149	-0.291
-422.530	-200.000	-0.028	0.144
-421.515	-101.621	0.181	-0.044
-420.500	-151.253	-0.077	0.006
-419.486	791.975	0.047	-0.130
-418.471	54.716	0.198	-0.191
-417.457	-9.497	0.033	-0.022
-416.442	-200.000	0.012	-0.070
-415.428	-57.733	0.118	0.052
-414.413	-200.000	-0.060	0.277
-413.398	-126.007	-0.188	-0.028
-412.384	-15.546	-0.175	-0.112
-411.369	-95.112	-0.160	-0.043
-410.355	-160.273	0.198	-0.011
-409.340	-122.042	-0.143	0.024
-408.325	-150.305	0.347	-0.027
-407.311	472.920	0.067	-0.151
-406.296	68.011	0.059	0.060
-405.282	130.316	-0.099	0.127
-404.267	-83.773	0.220	0.070
-403.252	19.971	0.256	0.206
-402.238	-87.514	0.117	-0.036
-401.223	800.000	-0.033	0.115
-400.209	-200.000	-0.059	0.433
-399.194	-200.000	0.052	0.363
-398.179	-5.837	0.053	-0.037
-397.165	-200.000	0.008	-0.210
-396.150	-99.943	-0.093	0.023
-395.136	-200.000	0.002	-0.129
-394.121	-25.196	0.112	-0.066
-393.106	-58.773	-0.339	0.147
-392.092	-200.000	0.013	0.227
-391.077	-118.627	0.045	-0.008
-390.063	293.413	0.060	0.110
-389.048	-49.631	0.242	0.115
-388.033	-199.433	0.223	0.001
-387.019	540.856	0.070	0.167
-386.004	-200.000	0.009	-0.060
-384.990	461.190	0.190	-0.424
-383.975	-200.000	-0.037	-0.222
-382.960	54.338	-0.395	-0.380
-381.946	704.549	-0.059	-0.155
-380.931	-200.000	-0.051	0.237
-379.917	-200.000	-0.100	0.525
-378.902	-31.664	-0.156	-0.088
-377.888	-200.000	-0.002	-0.152
-376.873	67.241	-0.208	-0.212
-375.858	89.275	-0.077	0.086
-374.844	83.430	-0.226	-0.246
-373.829	100.215	0.133	-0.154
-372.815	105.876	0.167	-0.197
-371.800	125.691	-0.193	0.243
-370.785	626.817	-0.154	0.388
-369.771	-68.520	0.385	-0.149
-368.756	62.456	-0.057	0.057
-367.742	800.000	-0.053	-0.155
-366.727	-69.433	0.078	0.030
-365.712	137.059	0.084	0.109
-364.698	340.920	-0.104	-0.203
-363.683	-68.621	-0.173	-0.067
-362.669	332.252	-0.131	0.253
-361.654	-101.443	0.243	-0.059
-360.639	-200.000	0.030	-0.146
-359.625	-96.629	0.125	0.033
-358.610	-139.204	-0.416	0.045
-357.596	-1.307	0.188	-0.133
-356.581	118.828	-0.133	0.164
-355.566	-155.290	0.112	0.007
-354.552	-114.629	0.059	0.011
-353.537	131.686	0.128	0.165
-352.523	-200.000	-0.003	-0.175
-351.508	263.904	0.046	-0.080
-350.493	106.337	0.122	-0.144
-349.479	-200.000	0.010	0.083
-348.464	444.672	0.174	0.382
-347.450	-36.539	-0.310	-0.166
-346.435	45.096	0.039	0.036
-345.420	-1.360	-0.394	-0.277
-344.406	-22.647	0.259	-0.156
-343.391	-82.085	-0.127	-0.041
-342.377	-74.776	-0.186	0.067
-341.362	-40.745	-0.250	0.129
-340.348	-58.692	0.213	0.092
-339.333	-60.312	-0.359	0.152
-338.318	-124.152	0.341	0.053
-337.304	-200.000	0.002	-0.438
-336.289	42.997	0.117	0.106
-335.275	133.836	0.137	0.177
-334.260	46.613	0.152	0.141
-333.245	-200.000	0.032	-0.253
-332.231	800.000	0.111	0.411
-331.216	-200.000	0.022	-0.238
-330.202	9.321	-0.212	0.160
-329.187	800.000	0.098	0.367
-328.172	-106.647	0.401	0.089
-327.158	-200.000	-0.018	0.249
-326.143	800.000	0.095	0.298
-325.129	16.900	0.104	0.082
-324.114	325.905	-0.070	-0.133
-323.099	-61.572	-0.006	-0.003
-322.085	-125.025	0.181	0.028
-321.070	-200.000	-0.005	-0.245
-320.056	-19.142	-0.316	-0.196
-319.041	89.294	0.187	-0.208
-318.026	-200.000	-0.005	-0.185
-317.012	102.486	-0.115	0.133
-315.997	-39.597	0.067	-0.035
-314.983	-0.231	0.157	-0.111
-313.968	-200.000	-0.070	-0.346
-312.953	19.502	-0.104	0.083
-311.939	800.000	-0.093	0.315
-310.924	27.382	-0.231	0.193
-309.910	-108.394	0.345	0.074
-308.895	92.455	0.130	0.146
-307.880	-7.411	-0.467	0.315
-306.866	-145.731	-0.234	-0.021
-305.851	-102.929	0.318	-0.075
-304.837	-84.703	-0.341	-0.107
-303.822	-190.551	0.312	-0.003
-302.807	-70.828	0.312	-0.117
-301.793	19.780	0.081	-0.065
-300.778	-108.742	-0.102	0.022
-299.764	-85.317	-0.363	0.113
-298.749	-127.924	-0.303	-0.043
-297.735	49.920	0.157	0.147
-296.720	-200.000	0.011	0.176
-295.705	117.543	-0.147	-0.180
-294.691	429.571	0.089	-0.192
-293.676	-45.330	-0.316	-0.156
-292.662	-86.333	0.237	-0.072
-291.647	8.351	-0.084	0.063
-290.632	800.000	-0.095	0.388
-289.618	250.886	-0.090	0.152
-288.603	-121.505	0.127	0.021
-287.589	-104.595	-0.079	-0.018
-286.574	-189.156	0.211	0.003
-285.559	800.000	0.165	0.472
-284.545	-118.317	0.235	-0.042
-283.530	-200.000	-0.010	0.076
-282.516	-99.651	0.266	-0.066
-281.501	-166.220	0.242	-0.010
-280.486	-60.997	-0.152	0.064
-279.472	800.000	0.073	-0.230
-278.457	-163.690	-0.196	0.009
-277.443	-7.448	0.083	-0.056
-276.428	-115.107	-0.311	0.059
-275.413	-200.000	-0.010	0.167
-274.399	-12.124	-0.362	-0.236
-273.384	-73.338	0.183	0.067
-272.370	97.328	-0.153	-0.175
-271.355	66.360	0.167	-0.169
-270.340	-131.464	0.192	-0.025
-269.326	-1.419	0.184	0.129
-268.311	167.530	0.218	0.308
-267.297	5.910	0.268	0.197
-266.282	91.646	-0.214	0.239
-265.267	-200.000	-0.059	-0.282
-264.253	667.512	0.161	-0.413
-263.238	-61.491	0.194	-0.081
-262.224	-93.117	-0.395	0.109
-261.209	-200.000	0.036	0.248
-260.195	209.320	-0.092	-0.143
-259.180	0.611	-0.102	0.072
-258.165	-103.259	-0.317	0.074
-257.151	-46.839	0.112	0.055
-256.136	-24.604	0.171	-0.101
-255.122	-49.859	0.283	0.134
-254.107	2.368	0.255	-0.184
-253.092	331.470	-0.065	0.125
-252.078	-200.000	0.014	0.235
-251.063	-48.775	0.179	-0.085
-250.049	800.000	-0.037	0.157
-249.034	-64.734	0.264	0.106
-248.019	-143.296	-0.185	0.018
-247.005	-200.000	0.000	-0.114
-245.990	48.464	0.065	-0.061
-244.976	-61.440	-0.334	-0.139
-243.961	9.803	0.065	-0.049
-242.946	800.000	0.024	-0.100
-241.932	-170.375	0.184	-0.006
-240.917	-200.000	-0.022	0.207
-239.903	-168.488	0.133	-0.005
-238.888	141.187	-0.089	0.117
-237.873	513.007	0.062	-0.143
-236.859	52.146	0.411	-0.389
-235.844	426.030	-0.135	-0.288
-234.830	-48.879	0.179	-0.085
-233.815	-32.487	-0.186	0.103
-232.800	800.000	-0.067	0.275
-231.786	-84.483	-0.264	-0.083
-230.771	-200.000	0.031	0.155
-229.757	21.043	0.327	0.263
-228.742	800.000	0.030	0.095
-227.727	-200.000	0.047	0.393
-226.713	30.569	-0.063	-0.053
-225.698	800.000	-0.030	-0.105
-224.684	-75.346	0.447	-0.158
-223.669	-148.897	0.165	-0.013
-222.655	54.250	0.064	0.061
-221.640	-125.606	-0.212	-0.032
-220.625	-200.000	-0.014	-0.093
-219.611	-31.090	0.302	-0.169
-218.596	256.343	-0.076	0.129
-217.582	551.325	-0.135	0.323
-216.567	-39.517	-0.039	0.020
-215.552	29.645	-0.092	0.078
-214.538	-125.803	0.579	-0.087
-213.523	106.809	0.124	-0.146
-212.509	-200.000	0.057	0.386
-211.494	15.011	-0.192	0.149
-210.479	89.996	-0.128	0.142
-209.465	-102.144	0.143	-0.034
-208.450	-170.555	0.178	0.006
-207.436	0.545	-0.190	0.135
-206.421	89.251	-0.195	0.216
-205.406	69.658	-0.223	0.228
-204.392	-200.000	0.029	0.215
-203.377	-200.000	-0.007	-0.247
-202.363	444.778	-0.067	-0.147
-201.348	181.997	-0.104	0.152
-200.333	800.000	0.060	-0.235
-199.319	-200.000	0.000	-0.083
-198.304	-12.241	-0.203	-0.132
-197.290	53.545	0.069	-0.066
-196.275	-200.000	0.002	0.180
-195.260	236.696	0.074	0.121
-194.246	-65.795	-0.320	0.127
-193.231	104.586	-0.090	0.106
-192.217	-200.000	-0.044	0.265
-191.202	-75.041	-0.325	-0.115
-190.187	28.229	0.156	0.131
-189.173	-200.000	-0.021	-0.091
-188.158	-13.143	0.235	0.151
-187.144	-68.368	0.165	0.064
-186.129	8.925	-0.373	-0.279
-185.114	-200.000	0.020	0.128
-184.100	-200.000	0.008	0.054
-183.085	198.622	-0.179	0.272
-182.071	71.098	0.171	0.176
-181.056	712.769	-0.033	0.087
-180.042	-200.000	-0.009	-0.107
-179.027	800.000	-0.004	-0.015
-178.012	225.446	-0.161	-0.259
-176.998	269.789	-0.163	-0.284
-175.983	800.000	0.098	0.317
-174.969	-0.115	0.179	-0.126
-173.954	-200.000	0.013	-0.248
-172.939	-200.000	-0.001	-0.282
-171.925	-200.000	-0.017	-0.264
-170.910	-200.000	-0.065	0.401
-169.896	-200.000	-0.003	0.079
-168.881	165.007	0.057	0.080
-167.866	-121.086	-0.219	-0.036
-166.852	-134.369	0.567	-0.069
-165.837	800.000	-0.128	-0.403
-164.823	-4.924	0.282	-0.192
-163.808	469.041	0.116	0.258
-162.793	-200.000	-0.034	-0.204
-161.779	-100.524	-0.197	0.048
-160.764	800.000	0.121	0.339
-159.750	-171.090	-0.237	-0.008
-158.735	39.262	0.239	-0.211
-157.720	-171.851	-0.162	0.005
-156.706	-161.895	-0.299	-0.015
-155.691	-122.666	0.215	0.035
-154.677	-200.000	-0.007	0.185
-153.662	-167.206	0.209	0.008
-152.647	-124.655	0.172	-0.026
-151.633	-46.457	-0.124	-0.060
-150.618	495.538	-0.154	0.350
-149.604	-121.439	-0.332	-0.055
-148.589	-14.133	-0.343	-0.219
-147.574	-151.222	0.174	-0.013
-146.560	434.367	-0.219	0.472
-145.545	262.910	-0.073	-0.125
-144.531	-55.706	-0.246	0.109
-143.516	129.464	-0.101	-0.127
-142.502	-105.986	0.242	-0.054
-141.487	-28.020	0.165	-0.094
-140.472	170.273	0.059	-0.084
-139.458	80.782	-0.095	0.101
-138.443	-33.665	0.126	0.069
-137.429	-131.566	0.280	-0.036
-136.414	-22.202	0.256	-0.154
-135.399	242.113	-0.163	-0.269
-134.385	38.834	0.257	-0.227
-133.370	-40.706	0.287	0.147
-132.356	107.056	0.158	0.185
-131.341	217.011	0.076	0.120
-130.326	-200.000	-0.006	-0.207
-129.312	800.000	0.056	0.207
-128.297	-50.117	-0.163	-0.076
-127.283	182.689	-0.159	-0.232
-126.268	-76.063	0.300	0.105
-125.253	-33.995	0.110	-0.060
-124.239	60.566	-0.340	0.333
-123.224	-200.000	0.009	-0.136
-122.210	-112.264	-0.029	-0.006
-121.195	292.841	-0.085	-0.154
