DTS Sentinel unit serial number:	SN413079Multiplexer serial number:	ORYXHardware model number:	OX4-SRSoftware version number:	ORYX F/W v4.00 Oryx Data Collector v3.7.2.0data status	okinstallation	princeton_trtdifferential loss correction	single-endedforward channel	channel 2reverse channel	N/Adate	2019/09/13time	03:31:34forward acquisition time	60.00reverse acquisition time	0.00gamma	496.2192k internal	0.2334k external	0.2334temperature offset calibration	1.0191default loss term (dB/km)	0.3790temperature slope calibration	1.0000multiplexer offset coefficient	1.0000multiplexer slope coefficient	1.0000fibre end	0.00T internal ref (°C)	27.30T ext. ref 1 (°C)	4.08T ext. ref 2 (°C)	21.77length (m)	temperature (°C)	Stokes	anti-Stokes-747.200	-148.901	0.130	-0.011
-746.185	30.468	-0.327	-0.281
-745.171	-33.012	-0.191	0.106
-744.156	141.788	0.228	0.304
-743.142	516.621	-0.119	-0.280
-742.127	-70.882	-0.181	-0.069
-741.112	-164.395	-0.163	0.008
-740.098	-113.209	-0.083	-0.017
-739.083	412.314	0.050	-0.107
-738.069	-45.588	0.461	0.229
-737.054	33.026	0.179	-0.156
-736.039	800.000	0.001	-0.003
-735.025	-9.407	0.089	-0.060
-734.010	-200.000	-0.037	-0.347
-732.996	460.440	0.046	-0.104
-731.981	-98.687	-0.031	0.008
-730.966	-163.224	-0.039	0.002
-729.952	800.000	-0.014	0.048
-728.937	-88.484	-0.363	-0.109
-727.923	663.556	0.062	-0.162
-726.908	-68.856	0.517	-0.201
-725.894	-61.992	-0.271	-0.114
-724.879	276.468	-0.067	-0.119
-723.864	9.374	-0.300	-0.228
-722.850	-200.000	0.015	-0.114
-721.835	31.718	-0.124	0.107
-720.821	486.897	-0.067	-0.153
-719.806	115.832	0.079	-0.097
-718.791	-200.000	-0.033	-0.243
-717.777	-200.000	0.010	-0.486
-716.762	1.879	-0.056	0.041
-715.748	277.451	-0.089	0.159
-714.733	434.804	-0.040	0.088
-713.718	238.376	-0.282	0.471
-712.704	514.560	-0.107	0.252
-711.689	-200.000	0.026	-0.126
-710.675	-83.150	-0.300	-0.097
-709.660	-200.000	-0.003	-0.017
-708.645	800.000	0.058	0.171
-707.631	473.300	0.144	0.326
-706.616	-94.017	-0.118	-0.032
-705.602	-200.000	-0.035	-0.229
-704.587	94.269	-0.126	-0.144
-703.572	526.633	-0.197	-0.467
-702.558	-85.563	0.089	-0.028
-701.543	2.454	0.009	-0.007
-700.529	-200.000	-0.008	-0.196
-699.514	800.000	0.049	0.146
-698.499	557.988	-0.046	-0.110
-697.485	-27.428	0.204	0.119
-696.470	-73.735	0.227	-0.083
-695.456	800.000	0.051	-0.143
-694.441	-33.249	-0.221	-0.123
-693.426	800.000	0.006	0.021
-692.412	91.660	0.083	0.093
-691.397	800.000	0.118	-0.427
-690.383	390.918	0.060	0.124
-689.368	800.000	-0.023	0.078
-688.354	-25.470	-0.480	-0.285
-687.339	-129.556	0.184	-0.026
-686.324	-114.541	-0.165	0.032
-685.310	-35.257	0.227	0.124
-684.295	-80.319	-0.387	0.130
-683.281	31.377	0.218	0.188
-682.266	-200.000	0.023	-0.272
-681.251	-6.743	0.248	0.169
-680.237	103.137	-0.263	-0.309
-679.222	800.000	0.107	-0.439
-678.208	800.000	-0.077	0.296
-677.193	800.000	-0.045	-0.161
-676.178	-91.247	-0.143	0.041
-675.164	498.153	-0.091	-0.210
-674.149	62.302	0.068	0.068
-673.135	165.780	0.263	-0.372
-672.120	-88.025	-0.292	-0.088
-671.105	-200.000	-0.011	-0.308
-670.091	433.042	-0.150	0.327
-669.076	-200.000	0.025	-0.132
-668.062	236.907	-0.235	-0.391
-667.047	107.362	-0.152	0.181
-666.032	140.925	0.154	-0.204
-665.018	82.251	0.098	0.106
-664.003	52.029	-0.117	0.112
-662.989	93.255	-0.256	-0.290
-661.974	-131.580	-0.130	0.017
-660.959	-200.000	-0.012	0.118
-659.945	310.768	0.028	0.052
-658.930	800.000	0.029	-0.083
-657.916	-129.604	0.128	0.018
-656.901	-33.268	0.295	-0.164
-655.886	180.563	0.140	-0.206
-654.872	-168.174	0.188	-0.007
-653.857	-28.598	0.248	0.143
-652.843	357.411	-0.057	-0.115
-651.828	25.196	-0.233	-0.194
-650.814	-143.666	-0.179	0.017
-649.799	-134.231	-0.255	-0.031
-648.784	-200.000	0.023	-0.140
-647.770	226.464	0.079	-0.129
-646.755	141.937	-0.229	0.304
-645.741	88.270	-0.057	-0.063
-644.726	54.908	0.395	-0.382
-643.711	410.726	0.072	0.153
-642.697	134.076	0.275	-0.357
-641.682	-172.966	-0.252	0.008
-640.668	-38.199	0.189	-0.100
-639.653	201.020	-0.173	-0.267
-638.638	257.684	0.164	0.282
-637.624	-200.000	0.023	-0.139
-636.609	-39.448	-0.228	0.119
-635.595	130.142	-0.149	0.191
-634.580	800.000	-0.100	-0.351
-633.565	-59.463	0.107	0.046
-632.551	-200.000	-0.014	0.094
-631.536	267.740	0.252	0.442
-630.522	-72.556	0.203	-0.075
-629.507	2.292	-0.142	-0.103
-628.492	-30.751	0.439	-0.249
-627.478	-44.551	-0.057	-0.028
-626.463	-91.782	0.287	-0.082
-625.449	-95.466	0.205	-0.055
-624.434	-200.000	0.022	-0.215
-623.419	-97.844	-0.169	-0.044
-622.405	-81.058	0.290	-0.096
-621.390	115.473	-0.134	0.164
-620.376	-133.349	-0.192	-0.024
-619.361	476.474	-0.194	-0.439
-618.346	202.693	-0.014	0.022
-617.332	-26.244	-0.224	0.131
-616.317	101.631	0.057	-0.067
-615.303	-200.000	-0.084	-0.378
-614.288	50.378	0.163	-0.154
-613.273	164.152	0.138	0.194
-612.259	800.000	0.076	-0.295
-611.244	89.955	0.146	-0.163
-610.230	435.727	-0.182	-0.395
-609.215	201.928	0.230	-0.355
-608.201	-60.804	-0.212	-0.090
-607.186	62.387	0.409	0.408
-606.171	195.624	0.076	0.115
-605.157	92.393	-0.215	-0.242
-604.142	-156.294	0.218	-0.014
-603.128	-159.715	-0.179	0.010
-602.113	-39.149	-0.318	0.167
-601.098	-180.556	-0.096	-0.002
-600.084	-200.000	-0.023	0.117
-599.069	376.063	-0.066	0.134
-598.055	-200.000	0.026	-0.404
-597.040	-144.339	0.291	0.027
-596.025	140.513	-0.129	-0.170
-595.011	20.950	0.265	0.215
-593.996	-200.000	0.034	0.234
-592.982	39.726	-0.210	0.189
-591.967	-27.512	-0.191	0.111
-590.952	-35.172	-0.173	-0.094
-589.938	-28.719	-0.131	0.076
-588.923	273.445	0.098	-0.174
-587.909	124.765	-0.213	0.268
-586.894	-145.458	-0.087	0.008
-585.879	-17.597	0.275	0.173
-584.865	-200.000	-0.023	-0.216
-583.850	-200.000	-0.018	-0.224
-582.836	-129.368	0.125	0.017
-581.821	-195.882	-0.160	0.001
-580.806	-82.020	0.106	-0.035
-579.792	-149.315	-0.130	0.010
-578.777	-71.723	0.209	-0.078
-577.763	-200.000	0.026	-0.157
-576.748	-200.000	-0.000	-0.158
-575.733	142.320	-0.234	-0.310
-574.719	-5.732	-0.121	0.083
-573.704	14.638	0.229	0.179
-572.690	155.083	0.165	0.226
-571.675	800.000	0.079	0.240
-570.661	800.000	-0.029	0.118
-569.646	143.620	-0.062	0.083
-568.631	33.369	-0.101	-0.088
-567.617	132.219	0.120	0.155
-566.602	-129.554	-0.178	0.025
-565.588	-91.040	0.236	0.068
-564.573	-88.692	-0.092	0.027
-563.558	-29.739	0.113	0.064
-562.544	-200.000	0.024	-0.148
-561.529	-200.000	-0.031	0.182
-560.515	-171.693	0.205	-0.007
-559.500	-74.138	0.114	0.041
-558.485	255.386	0.165	-0.283
-557.471	-152.259	0.110	-0.008
-556.456	-190.145	-0.179	-0.002
-555.442	468.709	0.010	0.022
-554.427	-200.000	-0.000	-0.215
-553.412	32.704	-0.129	-0.111
-552.398	800.000	-0.007	0.025
-551.383	246.984	-0.163	-0.275
-550.369	-200.000	0.002	-0.144
-549.354	-95.112	-0.155	0.042
-548.339	127.990	-0.141	-0.179
-547.325	158.244	-0.094	0.131
-546.310	-82.209	-0.442	0.143
-545.296	93.082	-0.196	0.221
-544.281	-68.043	0.334	0.130
-543.266	64.826	0.251	-0.253
-542.252	-200.000	-0.058	-0.283
-541.237	-29.697	0.085	-0.048
-540.223	480.551	0.088	0.200
-539.208	-11.298	0.118	-0.077
-538.193	182.763	-0.203	-0.299
-537.179	3.175	0.380	0.275
-536.164	-130.347	-0.125	-0.017
-535.150	47.609	-0.037	-0.034
-534.135	-29.848	0.187	0.106
-533.121	-7.993	-0.069	-0.046
-532.106	705.121	0.161	0.422
-531.091	408.641	-0.052	-0.109
-530.077	359.840	0.079	0.158
-529.062	-55.083	0.079	-0.035
-528.048	-60.482	0.339	-0.143
-527.033	-83.523	-0.308	-0.098
-526.018	-200.000	0.033	0.151
-525.004	139.234	-0.069	-0.091
-523.989	-148.407	-0.291	0.024
-522.975	-46.958	0.094	-0.046
-521.960	-102.808	-0.135	-0.032
-520.945	-133.495	0.205	0.026
-519.931	-71.157	0.175	0.065
-518.916	-43.773	0.179	-0.090
-517.902	-93.034	-0.147	0.041
-516.887	-200.000	0.031	0.171
-515.872	-200.000	0.005	-0.168
-514.858	789.681	0.134	-0.366
-513.843	-200.000	0.001	-0.080
-512.829	102.315	-0.351	0.409
-511.814	-200.000	-0.016	-0.195
-510.799	-143.665	-0.223	-0.021
-509.785	-200.000	0.106	0.000
-508.770	689.649	-0.078	0.204
-507.756	-22.385	0.224	0.135
-506.741	-148.851	0.122	-0.010
-505.726	800.000	-0.051	-0.144
-504.712	-115.583	-0.269	-0.050
-503.697	-200.000	-0.011	0.184
-502.683	191.832	-0.063	0.094
-501.668	99.247	-0.212	0.244
-500.653	-72.418	-0.124	-0.046
-499.639	9.790	0.082	-0.062
-498.624	-81.347	-0.034	0.011
-497.610	-189.000	-0.104	-0.001
-496.595	-16.749	0.120	0.076
-495.581	800.000	0.079	0.303
-494.566	-54.825	-0.258	0.116
-493.551	-200.000	0.043	-0.237
-492.537	800.000	-0.032	-0.114
-491.522	-93.581	-0.158	-0.044
-490.508	338.392	0.085	0.165
-489.493	200.525	0.152	-0.233
-488.478	-43.724	-0.146	0.073
-487.464	423.293	-0.053	-0.113
-486.449	263.017	0.083	-0.144
-485.435	177.060	0.040	0.058
-484.420	-192.709	0.070	-0.001
-483.405	-160.952	0.375	-0.020
-482.391	34.079	-0.168	0.146
-481.376	-200.000	-0.006	-0.449
-480.362	-103.453	-0.302	-0.071
-479.347	71.626	-0.243	-0.251
-478.332	-200.000	-0.025	-0.144
-477.318	-87.035	0.175	0.053
-476.303	755.577	0.112	-0.303
-475.289	84.304	0.084	0.091
-474.274	613.858	0.076	0.188
-473.259	580.732	0.075	0.183
-472.245	800.000	-0.054	0.167
-471.230	-200.000	0.031	-0.333
-470.216	-127.902	-0.071	-0.010
-469.201	-63.679	-0.079	-0.032
-468.186	800.000	-0.049	-0.156
-467.172	98.832	-0.068	0.078
-466.157	-75.266	0.254	-0.090
-465.143	35.922	0.148	0.129
-464.128	-100.561	-0.608	-0.149
-463.113	-200.000	0.023	0.269
-462.099	16.567	0.171	-0.134
-461.084	100.100	-0.257	-0.297
-460.070	57.235	0.230	0.223
-459.055	800.000	-0.027	0.100
-458.040	92.004	0.217	0.243
-457.026	588.556	0.064	0.157
-456.011	-128.007	-0.120	-0.017
-454.997	170.611	-0.227	-0.323
-453.982	-47.146	-0.174	0.084
-452.968	98.603	0.229	0.262
-451.953	217.939	-0.066	-0.105
-450.938	-18.980	0.267	-0.165
-449.924	-128.939	-0.374	0.052
-448.909	-46.791	-0.115	0.056
-447.895	20.576	0.086	0.069
-446.880	-200.000	-0.030	-0.154
-445.865	-108.820	-0.073	0.016
-444.851	-69.363	-0.206	0.079
-443.836	-69.602	0.248	0.094
-442.822	-108.216	0.317	0.068
-441.807	800.000	-0.040	-0.134
-440.792	800.000	0.075	0.321
-439.778	-200.000	0.063	0.580
-438.763	40.528	0.100	0.089
-437.749	-132.127	-0.551	-0.071
-436.734	452.585	-0.140	-0.307
-435.719	50.086	0.106	0.099
-434.705	390.210	0.044	-0.091
-433.690	361.675	-0.115	-0.229
-432.676	36.952	0.226	0.199
-431.661	-17.427	-0.281	0.175
-430.646	292.885	0.064	0.116
-429.632	48.542	-0.093	0.087
-428.617	-146.286	-0.129	0.011
-427.603	-200.000	0.029	-0.304
-426.588	246.329	-0.088	-0.148
-425.573	-167.205	0.104	-0.004
-424.559	749.912	-0.116	0.310
-423.544	309.523	0.070	0.130
-422.530	20.336	0.331	-0.265
-421.515	13.332	-0.009	-0.007
-420.500	261.162	-0.221	-0.379
-419.486	-25.490	0.313	0.183
-418.471	-11.754	0.128	-0.084
-417.457	16.793	0.117	-0.092
-416.442	-69.137	0.096	0.037
-415.428	-78.309	-0.098	-0.033
-414.413	193.373	0.316	0.474
-413.398	194.801	0.043	0.064
-412.384	-200.000	-0.033	0.184
-411.369	14.992	0.169	0.131
-410.355	-29.488	0.199	-0.113
-409.340	-132.300	0.035	-0.004
-408.325	-57.393	-0.124	0.054
-407.311	-137.185	0.187	-0.021
-406.296	303.326	0.063	-0.116
-405.282	-158.032	-0.151	-0.009
-404.267	63.861	0.092	-0.092
-403.252	71.427	0.316	-0.326
-402.238	800.000	-0.008	0.030
-401.223	800.000	0.069	-0.208
-400.209	-200.000	0.013	-0.124
-399.194	405.757	0.109	0.229
-398.179	7.315	-0.186	-0.138
-397.165	127.014	0.328	0.413
-396.150	-21.600	-0.356	-0.215
-395.136	-200.000	-0.004	0.126
-394.121	-44.316	0.060	-0.030
-393.106	-94.359	-0.278	-0.075
-392.092	-7.727	-0.221	-0.148
-391.077	10.097	-0.357	-0.269
-390.063	111.150	-0.115	0.137
-389.048	-26.717	-0.108	-0.062
-388.033	-200.000	0.054	0.255
-387.019	289.126	-0.092	-0.165
-386.004	-36.477	-0.213	0.114
-384.990	261.256	0.075	-0.129
-383.975	59.626	-0.114	-0.111
-382.960	-25.084	-0.072	0.042
-381.946	-56.689	-0.028	0.012
-380.931	-18.570	-0.295	0.183
-379.917	-74.550	-0.147	0.053
-378.902	-60.170	-0.241	-0.102
-377.888	-200.000	0.031	-0.226
-376.873	217.865	-0.183	-0.289
-375.858	49.824	0.123	0.115
-374.844	46.803	0.333	0.307
-373.829	-21.087	0.216	0.131
-372.815	-134.264	0.242	0.029
-371.800	-200.000	-0.003	-0.064
-370.785	-200.000	-0.043	0.258
-369.771	-135.899	0.519	-0.061
-368.756	161.147	0.171	-0.237
-367.742	-105.240	0.159	0.036
-366.727	-103.513	-0.166	0.039
-365.712	8.660	-0.122	0.091
-364.698	-200.000	0.017	0.095
-363.683	66.891	0.160	-0.161
-362.669	-85.970	-0.266	-0.081
-361.654	-200.000	0.045	0.297
-360.639	154.671	0.087	-0.119
-359.625	-200.000	-0.019	0.100
-358.610	800.000	0.138	-0.398
-357.596	193.727	-0.140	0.209
-356.581	-139.358	0.326	0.035
-355.566	-98.662	0.380	0.096
-354.552	-122.804	0.089	0.014
-353.537	800.000	0.034	-0.093
-352.523	198.574	-0.058	0.088
-351.508	152.718	0.179	0.242
-350.493	-168.820	-0.200	-0.007
-349.479	5.742	-0.150	0.110
-348.464	-70.630	-0.319	-0.119
-347.450	-200.000	-0.019	0.270
-346.435	401.066	-0.122	0.254
-345.420	-200.000	0.015	-0.286
-344.406	340.131	0.148	-0.286
-343.391	-200.000	-0.023	-0.132
-342.377	-184.794	0.219	-0.003
-341.362	37.771	-0.478	0.420
-340.348	-0.861	-0.162	0.114
-339.333	427.352	-0.038	-0.080
-338.318	254.527	-0.126	-0.213
-337.304	50.891	-0.228	-0.213
-336.289	31.981	0.034	0.029
-335.275	69.264	-0.085	0.086
-334.260	-26.293	-0.355	-0.206
-333.245	800.000	-0.023	-0.076
-332.231	-19.847	0.213	0.130
-331.216	-200.000	-0.030	0.133
-330.202	44.292	-0.414	0.376
-329.187	90.724	0.213	0.236
-328.172	-24.305	0.303	-0.179
-327.158	-112.465	0.230	0.045
-326.143	49.723	-0.245	0.228
-325.129	35.831	-0.085	0.074
-324.114	443.607	0.158	-0.342
-323.099	-151.935	-0.116	0.008
-322.085	-113.528	-0.186	-0.036
-321.070	-139.493	0.073	-0.008
-320.056	-137.069	-0.321	-0.036
-319.041	90.701	-0.157	-0.174
-318.026	247.176	-0.044	0.074
-317.012	-89.657	0.289	-0.084
-315.997	136.786	0.238	0.307
-314.983	-63.242	-0.260	-0.106
-313.968	-10.938	0.098	0.064
-312.953	-52.900	-0.204	0.093
-311.939	-108.413	0.263	0.056
-310.924	398.548	-0.080	-0.166
-309.910	275.980	0.193	-0.339
-308.895	-189.104	-0.231	-0.003
-307.880	10.790	-0.026	0.020
-306.866	-163.531	0.084	0.004
-305.851	37.018	0.137	-0.120
-304.837	800.000	-0.019	-0.073
-303.822	-63.182	-0.299	-0.122
-302.807	121.047	-0.167	-0.206
-301.793	488.396	-0.137	0.309
-300.778	568.627	-0.029	-0.070
-299.764	800.000	0.025	0.073
-298.749	-53.955	0.181	-0.082
-297.735	-200.000	-0.003	0.074
-296.720	-129.267	-0.265	0.036
-295.705	-5.358	-0.100	-0.068
-294.691	160.734	-0.218	-0.301
-293.676	-73.256	0.138	-0.050
-292.662	-88.331	0.362	0.107
-291.647	50.441	-0.144	-0.134
-290.632	464.070	0.091	-0.202
-289.618	-48.169	-0.207	-0.099
-288.603	-46.809	-0.150	0.073
-287.589	-29.575	0.188	-0.106
-286.574	191.959	0.111	-0.165
-285.559	-200.000	0.021	-0.129
-284.545	-68.660	0.379	-0.145
-283.530	25.064	-0.153	0.126
-282.516	-48.871	0.092	0.044
-281.501	482.045	0.029	-0.064
-280.486	81.741	-0.069	-0.074
-279.472	-41.206	0.067	-0.034
-278.457	-124.121	-0.471	-0.073
-277.443	-57.691	0.245	-0.106
-276.428	-135.462	-0.042	0.005
-275.413	800.000	-0.072	0.203
-274.399	598.711	0.182	-0.444
-273.384	66.410	-0.147	-0.148
-272.370	190.476	0.065	-0.097
-271.355	58.719	-0.135	0.131
-270.340	12.413	-0.104	0.079
-269.326	312.418	-0.093	-0.173
-268.311	-92.379	-0.330	-0.092
-267.297	-168.693	-0.411	0.015
-266.282	235.573	0.103	0.168
-265.267	58.165	0.083	0.080
-264.253	90.798	0.150	-0.166
-263.238	-160.495	-0.110	-0.006
-262.224	-200.000	0.046	0.477
-261.209	46.151	-0.380	0.348
-260.195	800.000	-0.058	0.178
-259.180	-183.698	-0.135	-0.002
-258.165	103.418	0.147	0.170
-257.151	-10.780	0.153	0.100
-256.136	800.000	0.011	0.033
-255.122	-58.447	0.278	-0.119
-254.107	-102.938	0.081	0.019
-253.092	-200.000	0.044	0.332
-252.078	800.000	0.103	-0.352
-251.063	-140.985	0.175	0.018
-250.049	-200.000	0.016	-0.311
-249.034	-27.686	0.114	-0.065
-248.019	800.000	0.080	-0.253
-247.005	-91.290	0.205	0.058
-245.990	-26.439	0.019	0.011
-244.976	200.726	0.105	0.160
-243.961	-200.000	-0.006	0.312
-242.946	-30.986	0.262	-0.146
-241.932	158.461	-0.125	-0.170
-240.917	22.921	0.122	0.098
-239.903	357.797	0.126	-0.248
-238.888	-200.000	0.002	0.338
-237.873	-163.184	0.177	-0.008
-236.859	237.022	0.168	-0.275
-235.844	13.966	0.178	0.137
-234.830	175.690	0.256	0.366
-233.815	122.624	-0.219	0.270
-232.800	180.279	-0.204	0.295
-231.786	-200.000	-0.028	0.337
-230.771	-127.981	0.266	0.038
-229.757	-43.781	-0.121	0.060
-228.742	435.750	-0.075	0.161
-227.727	-200.000	0.003	0.190
-226.713	673.507	0.029	0.074
-225.698	18.737	0.154	-0.122
-224.684	-152.393	-0.393	0.028
-223.669	-39.284	-0.301	-0.156
-222.655	-200.000	0.052	0.284
-221.640	-200.000	-0.029	0.288
-220.625	-200.000	-0.092	0.397
-219.611	107.624	-0.102	0.119
-218.596	-0.081	-0.237	-0.166
-217.582	-200.000	0.000	0.233
-216.567	30.537	0.107	-0.090
-215.552	-200.000	0.005	0.098
-214.538	-162.086	-0.046	-0.002
-213.523	89.567	0.044	-0.048
-212.509	-6.812	0.168	-0.112
-211.494	-200.000	-0.018	0.109
-210.479	138.778	-0.209	0.270
-209.465	800.000	0.119	0.338
-208.450	135.315	0.280	-0.359
-207.436	470.912	0.030	0.067
-206.421	800.000	-0.046	0.189
-205.406	-120.716	-0.091	-0.015
-204.392	800.000	-0.015	-0.045
-203.377	800.000	-0.059	0.191
-202.363	-38.808	-0.161	0.083
-201.348	149.370	0.235	-0.313
-200.333	257.855	-0.155	-0.263
-199.319	308.264	-0.072	-0.133
-198.304	215.067	0.154	0.241
-197.290	-78.197	0.346	-0.117
-196.275	-191.309	0.173	0.002
-195.260	-123.746	-0.236	-0.037
-194.246	-124.852	-0.326	-0.049
-193.231	800.000	0.039	-0.134
-192.217	-10.617	-0.149	-0.097
-191.202	-200.000	0.039	0.250
-190.187	-200.000	-0.013	-0.147
-189.173	222.416	-0.178	0.283
-188.158	-106.969	0.211	0.046
-187.144	-200.000	0.024	-0.259
-186.129	-176.324	-0.270	0.007
-185.114	67.194	0.169	-0.170
-184.100	4.314	-0.134	-0.096
-183.085	-36.892	-0.131	0.069
-182.071	-200.000	0.021	-0.206
-181.056	15.688	0.114	0.088
-180.042	-98.039	0.321	0.081
-179.027	-200.000	-0.005	-0.030
-178.012	-161.343	0.174	0.009
-176.998	78.623	-0.253	0.266
-175.983	-68.850	0.347	0.132
-174.969	90.882	-0.090	-0.099
-173.954	239.480	0.076	-0.124
-172.939	-19.144	-0.099	-0.060
-171.925	800.000	0.044	-0.125
-170.910	-200.000	0.079	0.563
-169.896	-114.353	-0.108	0.020
-168.881	146.659	-0.182	-0.240
-167.866	138.340	0.261	0.336
-166.852	130.935	0.093	-0.118
-165.837	101.614	0.181	-0.208
-164.823	-20.895	-0.267	-0.161
-163.808	-200.000	-0.032	-0.343
-162.793	-164.156	0.220	-0.010
-161.779	-27.670	0.068	0.039
-160.764	375.366	-0.074	0.149
-159.750	-87.122	-0.098	-0.029
-158.735	288.963	-0.283	0.504
-157.720	-200.000	0.028	0.158
-156.706	59.763	0.044	-0.042
-155.691	43.775	0.105	0.095
-154.677	361.737	-0.053	-0.104
-153.662	566.671	-0.077	0.183
-152.647	-9.641	0.425	0.278
-151.633	135.608	0.164	-0.210
-150.618	-101.190	0.282	-0.068
-149.604	-51.676	0.142	0.065
-148.589	-200.000	-0.012	-0.188
-147.574	41.705	-0.081	-0.072
-146.560	-117.975	0.093	0.016
-145.545	577.553	0.069	0.166
-144.531	-91.622	0.208	0.058
-143.516	-200.000	-0.023	0.152
-142.502	-78.669	0.060	0.020
-141.487	-200.000	-0.003	-0.110
-140.472	184.746	0.069	0.101
-139.458	-4.519	0.121	-0.082
-138.443	-140.460	-0.516	-0.053
-137.429	-200.000	0.016	0.398
-136.414	-200.000	0.259	0.000
-135.399	-50.314	-0.139	-0.065
-134.385	-43.008	-0.029	-0.014
-133.370	-200.000	-0.025	0.255
-132.356	97.171	-0.128	0.145
-131.341	24.834	0.349	0.284
-130.326	-102.000	0.480	0.114
-129.312	-51.360	0.079	-0.036
-128.297	-119.382	0.116	0.020
-127.283	166.148	-0.135	-0.187
-126.268	182.846	0.151	0.218
-125.253	-135.119	0.304	0.036
-124.239	176.937	0.104	0.148
-123.224	-200.000	0.002	0.254
-122.210	-38.639	-0.137	-0.071
-121.195	14.550	-0.131	-0.101
