DTS Sentinel unit serial number:	SN413079Multiplexer serial number:	ORYXHardware model number:	OX4-SRSoftware version number:	ORYX F/W v4.00 Oryx Data Collector v3.7.2.0data status	okinstallation	princeton_trtdifferential loss correction	single-endedforward channel	channel 2reverse channel	N/Adate	2019/09/11time	02:41:11forward acquisition time	60.00reverse acquisition time	0.00gamma	496.2192k internal	0.2331k external	0.2331temperature offset calibration	0.9940default loss term (dB/km)	0.3790temperature slope calibration	1.0000multiplexer offset coefficient	1.0000multiplexer slope coefficient	1.0000fibre end	0.00T internal ref (°C)	29.25T ext. ref 1 (°C)	-0.31T ext. ref 2 (°C)	23.15length (m)	temperature (°C)	Stokes	anti-Stokes-747.200	-29.384	-0.250	0.144
-746.185	-11.434	0.170	-0.113
-745.171	140.752	-0.118	-0.157
-744.156	800.000	0.071	-0.225
-743.142	-153.300	0.185	-0.013
-742.127	-200.000	-0.025	0.192
-741.112	-18.144	0.142	-0.090
-740.098	103.816	0.197	0.233
-739.083	116.362	-0.026	-0.032
-738.069	-200.000	0.026	-0.316
-737.054	133.894	0.313	-0.408
-736.039	131.072	-0.221	-0.286
-735.025	-168.633	-0.110	-0.004
-734.010	124.959	0.101	-0.128
-732.996	-134.647	-0.210	-0.026
-731.981	-200.000	-0.038	-0.281
-730.966	-41.000	-0.316	0.164
-729.952	-200.000	-0.095	-0.449
-728.937	-200.000	-0.038	-0.323
-727.923	241.384	-0.219	0.368
-726.908	-62.620	0.270	-0.113
-725.894	-138.014	0.097	-0.011
-724.879	-200.000	0.001	-0.120
-723.864	-144.742	-0.119	0.011
-722.850	-200.000	-0.004	0.216
-721.835	-108.034	0.201	0.044
-720.821	-86.976	0.379	-0.116
-719.806	-169.943	0.037	-0.001
-718.791	282.412	-0.110	0.198
-717.777	800.000	-0.068	-0.237
-716.762	-18.815	-0.087	0.054
-715.748	800.000	-0.114	-0.333
-714.733	-7.534	-0.102	-0.069
-713.718	-120.367	0.316	0.054
-712.704	-74.293	-0.254	-0.092
-711.689	800.000	0.057	0.219
-710.675	152.208	0.178	-0.244
-709.660	-121.307	-0.364	-0.061
-708.645	61.978	-0.143	-0.143
-707.631	-28.260	0.310	0.180
-706.616	-14.988	-0.230	0.148
-705.602	-160.237	-0.025	-0.001
-704.587	-200.000	-0.008	0.076
-703.572	-79.022	0.160	-0.055
-702.558	88.042	-0.277	-0.309
-701.543	-200.000	0.031	-0.168
-700.529	-86.718	0.224	-0.069
-699.514	-24.591	0.069	0.041
-698.499	75.008	-0.220	-0.233
-697.485	800.000	0.051	-0.218
-696.470	-200.000	-0.037	0.201
-695.456	-72.397	-0.261	0.097
-694.441	735.600	-0.064	0.173
-693.426	-127.050	0.248	0.037
-692.412	551.834	-0.101	0.243
-691.397	-57.440	-0.234	0.103
-690.383	294.571	-0.146	0.269
-689.368	-153.838	-0.375	-0.026
-688.354	-200.000	0.016	-0.099
-687.339	-11.491	-0.388	-0.256
-686.324	208.044	0.041	-0.065
-685.310	41.267	-0.199	-0.181
-684.295	32.507	-0.104	0.090
-683.281	145.090	-0.197	0.265
-682.266	800.000	-0.028	-0.080
-681.251	-88.361	-0.522	0.157
-680.237	-55.771	-0.442	-0.198
-679.222	-57.809	0.396	0.174
-678.208	301.634	0.082	0.152
-677.193	-92.531	-0.450	0.127
-676.178	-200.000	0.000	-0.110
-675.164	34.526	-0.148	0.130
-674.149	-154.276	-0.205	-0.014
-673.135	-200.000	0.020	0.353
-672.120	-200.000	0.015	-0.225
-671.105	-200.000	-0.002	-0.109
-670.091	800.000	0.062	0.258
-669.076	343.277	0.218	-0.429
-668.062	192.288	-0.230	0.348
-667.047	-200.000	0.041	0.223
-666.032	800.000	0.037	-0.136
-665.018	-165.651	0.177	0.008
-664.003	-1.192	0.134	0.095
-662.989	102.868	0.103	-0.121
-661.974	22.167	-0.090	0.074
-660.959	800.000	0.177	-0.496
-659.945	-200.000	0.020	0.269
-658.930	96.092	-0.116	-0.133
-657.916	800.000	-0.009	0.027
-656.901	-200.000	-0.044	-0.334
-655.886	411.972	0.107	-0.227
-654.872	240.975	0.071	-0.119
-653.857	792.448	-0.078	-0.214
-652.843	4.999	-0.280	0.206
-651.828	-18.668	-0.230	-0.144
-650.814	-52.281	0.395	0.184
-649.799	800.000	0.044	0.177
-648.784	-120.870	0.213	-0.036
-647.770	-120.126	-0.318	0.055
-646.755	-42.369	0.121	-0.062
-645.741	-35.333	0.096	-0.052
-644.726	75.266	0.051	0.054
-643.711	800.000	0.042	-0.167
-642.697	-200.000	0.035	0.360
-641.682	-23.654	-0.121	0.073
-640.668	255.092	-0.077	0.133
-639.653	-66.987	0.279	0.110
-638.638	224.336	-0.180	-0.292
-637.624	-69.082	0.170	-0.065
-636.609	172.201	-0.028	-0.041
-635.595	86.081	0.217	0.240
-634.580	105.928	-0.070	-0.082
-633.565	61.242	0.127	0.126
-632.551	11.241	-0.018	0.014
-631.536	356.010	-0.152	-0.303
-630.522	-11.496	0.065	-0.043
-629.507	-200.000	0.035	0.201
-628.492	-92.276	0.170	0.048
-627.478	-58.650	-0.206	-0.090
-626.463	-200.000	0.015	0.245
-625.449	-82.941	0.259	-0.084
-624.434	-44.839	0.446	0.223
-623.419	-183.934	0.443	-0.007
-622.405	800.000	0.147	0.422
-621.390	-100.035	-0.143	0.036
-620.376	62.329	0.097	-0.097
-619.361	-31.805	0.099	0.055
-618.346	-101.241	-0.364	-0.089
-617.332	-138.643	-0.188	-0.021
-616.317	-200.000	-0.000	-0.118
-615.303	65.125	-0.244	-0.247
-614.288	-200.000	-0.026	-0.217
-613.273	212.741	-0.136	-0.215
-612.259	48.908	-0.354	-0.333
-611.244	800.000	0.046	-0.145
-610.230	-200.000	-0.058	-0.308
-609.215	800.000	-0.047	0.155
-608.201	167.038	-0.160	0.227
-607.186	800.000	0.103	0.298
-606.171	-200.000	-0.019	-0.212
-605.157	522.087	0.039	-0.092
-604.142	-141.432	0.157	-0.016
-603.128	9.482	-0.236	-0.179
-602.113	800.000	0.105	-0.320
-601.098	800.000	0.058	-0.166
-600.084	-125.759	0.432	0.065
-599.069	-13.632	0.100	0.065
-598.055	-173.678	-0.163	0.005
-597.040	-115.373	0.108	-0.020
-596.025	-12.441	0.187	0.122
-595.011	-146.795	0.085	-0.007
-593.996	314.797	0.150	0.283
-592.982	732.746	0.053	-0.141
-591.967	10.440	0.165	0.126
-590.952	1.450	-0.229	0.165
-589.938	-42.464	0.199	-0.101
-588.923	133.345	-0.129	0.166
-587.909	-125.243	-0.368	0.056
-586.894	-70.425	-0.256	0.097
-585.879	-121.936	0.415	-0.068
-584.865	12.873	-0.230	-0.178
-583.850	29.914	-0.141	0.120
-582.836	-106.196	0.086	0.019
-581.821	152.424	-0.070	-0.096
-580.806	-81.489	0.167	0.055
-579.792	504.002	-0.053	-0.123
-578.777	57.059	0.089	-0.087
-577.763	713.545	-0.069	-0.183
-576.748	-87.908	-0.033	-0.010
-575.733	76.068	-0.105	-0.112
-574.719	-200.000	-0.011	-0.255
-573.704	-74.119	0.147	0.053
-572.690	292.668	-0.047	-0.085
-571.675	-200.000	-0.003	0.061
-570.661	-12.185	0.126	0.082
-569.646	-200.000	0.042	-0.470
-568.631	-52.261	-0.276	-0.128
-567.617	800.000	-0.054	0.191
-566.602	-158.005	-0.337	0.020
-565.588	400.523	-0.034	0.071
-564.573	800.000	0.102	-0.367
-563.558	-73.644	-0.182	0.066
-562.544	-59.299	0.111	-0.048
-561.529	231.196	-0.115	-0.188
-560.515	10.508	0.419	-0.319
-559.500	-130.457	-0.159	-0.022
-558.485	-140.036	-0.092	0.010
-557.471	639.360	-0.028	0.070
-556.456	370.508	0.129	0.262
-555.442	-63.682	0.498	-0.204
-554.427	196.410	0.094	0.142
-553.412	530.632	-0.124	-0.292
-552.398	-200.000	0.027	-0.348
-551.383	-200.000	-0.036	0.323
-550.369	-40.457	0.394	0.204
-549.354	-200.000	-0.050	-0.377
-548.339	800.000	0.039	-0.112
-547.325	-171.351	0.204	-0.007
-546.310	316.139	0.118	0.222
-545.296	-197.054	-0.117	-0.001
-544.281	-41.432	0.321	0.165
-543.266	-15.972	-0.176	-0.112
-542.252	22.642	-0.145	0.118
-541.237	-72.060	-0.060	-0.022
-540.223	-200.000	-0.042	-0.370
-539.208	-14.295	0.201	-0.129
-538.193	164.225	0.171	-0.241
-537.179	268.737	0.134	0.235
-536.164	187.617	-0.034	0.050
-535.150	-87.960	0.416	-0.125
-534.135	310.052	-0.185	0.345
-533.121	74.140	-0.013	0.013
-532.106	189.327	0.102	0.153
-531.091	-200.000	0.017	-0.080
-530.077	15.198	-0.324	0.253
-529.062	193.817	-0.082	0.124
-528.048	-45.032	-0.309	-0.153
-527.033	506.468	-0.050	-0.116
-526.018	100.783	-0.139	-0.161
-525.004	167.791	0.026	0.037
-523.989	-18.811	-0.175	0.109
-522.975	-5.586	-0.292	0.200
-521.960	190.328	0.101	0.151
-520.945	-94.844	-0.252	0.068
-519.931	31.374	-0.125	-0.107
-518.916	-110.216	-0.043	-0.009
-517.902	-42.576	0.149	-0.076
-516.887	-74.527	-0.224	0.080
-515.872	189.178	0.239	-0.358
-514.858	252.061	-0.091	0.154
-513.843	-200.000	-0.031	-0.306
-512.829	800.000	0.055	0.207
-511.814	279.347	0.069	0.123
-510.799	-39.514	-0.267	0.140
-509.785	-26.889	0.162	0.094
-508.770	-143.566	0.109	-0.010
-507.756	-200.000	0.028	0.326
-506.741	-200.000	0.021	0.103
-505.726	-129.362	-0.069	0.010
-504.712	-200.000	0.007	-0.151
-503.697	-200.000	-0.044	0.335
-502.683	-123.120	-0.145	-0.023
-501.668	-50.171	0.160	-0.076
-500.653	138.446	-0.167	0.219
-499.639	145.317	0.066	-0.088
-498.624	800.000	0.055	0.179
-497.610	58.388	0.278	0.272
-496.595	129.977	-0.124	-0.158
-495.581	104.723	0.119	-0.140
-494.566	-81.212	0.189	-0.062
-493.551	-52.562	0.021	0.010
-492.537	-84.922	0.299	0.094
-491.522	-151.591	0.564	-0.042
-490.508	-200.000	-0.005	-0.046
-489.493	44.729	-0.107	0.098
-488.478	-200.000	-0.016	-0.082
-487.464	-1.578	0.280	-0.197
-486.449	449.709	0.145	-0.318
-485.435	-200.000	0.004	-0.060
-484.420	-200.000	0.021	0.107
-483.405	-200.000	-0.008	0.203
-482.391	-22.716	-0.143	-0.086
-481.376	204.894	0.286	0.443
-480.362	91.179	0.225	0.251
-479.347	-129.073	-0.287	-0.040
-478.332	302.839	0.164	0.302
-477.318	-74.005	-0.112	0.041
-476.303	299.217	-0.129	-0.237
-475.289	709.910	0.052	0.137
-474.274	27.390	0.214	0.179
-473.259	59.374	-0.128	-0.126
-472.245	-27.655	-0.153	-0.089
-471.230	-105.807	0.215	0.048
-470.216	77.752	-0.108	-0.114
-469.201	452.519	0.173	0.380
-468.186	-200.000	-0.032	0.160
-467.172	-110.053	-0.231	0.048
-466.157	-200.000	-0.001	-0.286
-465.143	-107.626	0.233	-0.051
-464.128	-19.101	0.188	-0.116
-463.113	-109.110	-0.208	0.044
-462.099	-72.884	0.101	-0.037
-461.084	-25.110	-0.247	-0.146
-460.070	336.668	-0.106	0.204
-459.055	-106.054	-0.048	0.011
-458.040	-200.000	-0.033	0.165
-457.026	800.000	0.076	-0.262
-456.011	203.351	0.075	0.115
-454.997	800.000	-0.018	0.072
-453.982	-200.000	0.011	0.125
-452.968	-139.451	0.316	-0.034
-451.953	87.657	-0.241	0.266
-450.938	-41.750	0.173	0.088
-449.924	-52.764	0.176	-0.081
-448.909	-200.000	-0.013	0.084
-447.895	-105.407	0.022	-0.005
-446.880	800.000	0.026	0.090
-445.865	150.924	0.105	0.143
-444.851	-28.104	-0.203	0.117
-443.836	27.821	-0.037	0.031
-442.822	-200.000	-0.032	-0.145
-441.807	30.903	-0.195	0.166
-440.792	530.840	-0.044	0.104
-439.778	-101.384	-0.239	-0.058
-438.763	-200.000	0.007	-0.169
-437.749	275.282	0.055	-0.096
-436.734	-160.089	-0.294	-0.016
-435.719	-200.000	-0.022	-0.135
-434.705	-200.000	-0.065	0.377
-433.690	214.526	0.170	0.267
-432.676	-84.509	-0.501	-0.157
-431.661	-58.137	-0.434	0.188
-430.646	-181.999	-0.155	0.003
-429.632	-200.000	0.021	-0.264
-428.617	216.106	0.216	0.341
-427.603	780.986	-0.042	0.115
-426.588	104.260	0.111	0.130
-425.573	463.411	0.178	-0.396
-424.559	-200.000	0.025	-0.239
-423.544	-35.428	0.170	-0.092
-422.530	-130.919	-0.226	-0.030
-421.515	-84.933	0.258	-0.080
-420.500	1.902	0.342	-0.245
-419.486	541.748	0.136	0.323
-418.471	800.000	-0.076	-0.220
-417.457	238.983	0.120	0.198
-416.442	572.594	-0.096	-0.234
-415.428	-99.292	0.242	-0.061
-414.413	15.318	-0.137	0.107
-413.398	800.000	0.082	-0.323
-412.384	-117.371	0.107	-0.019
-411.369	158.213	0.118	0.163
-410.355	4.665	-0.049	0.036
-409.340	-200.000	-0.003	0.041
-408.325	-9.267	-0.195	-0.130
-407.311	33.540	-0.159	-0.137
-406.296	16.642	-0.205	-0.161
-405.282	-89.897	0.148	-0.043
-404.267	245.991	0.152	-0.255
-403.252	800.000	-0.098	-0.396
-402.238	-26.761	-0.385	-0.224
-401.223	-200.000	-0.093	-0.000
-400.209	-145.921	0.341	0.030
-399.194	-200.000	0.014	-0.229
-398.179	383.515	0.080	-0.164
-397.165	-70.616	-0.132	0.049
-396.150	282.023	-0.106	-0.189
-395.136	-200.000	0.022	0.393
-394.121	800.000	-0.008	-0.028
-393.106	394.784	0.196	-0.406
-392.092	-93.083	0.349	0.096
-391.077	367.662	0.110	-0.221
-390.063	-200.000	0.031	0.221
-389.048	-200.000	-0.003	-0.076
-388.033	-115.006	-0.205	0.039
-387.019	-81.464	0.178	-0.058
-386.004	-108.159	0.285	0.061
-384.990	-71.593	0.075	0.028
-383.975	184.365	-0.264	-0.388
-382.960	-200.000	-0.024	-0.306
-381.946	-200.000	0.018	-0.162
-380.931	800.000	-0.103	-0.376
-379.917	800.000	-0.028	-0.108
-378.902	165.380	0.128	-0.179
-377.888	-93.368	-0.107	-0.030
-376.873	309.438	0.144	0.268
-375.858	37.645	0.040	-0.035
-374.844	-24.559	-0.107	-0.063
-373.829	1.862	-0.089	0.064
-372.815	-134.446	-0.363	-0.044
-371.800	430.880	0.087	0.187
-370.785	-200.000	-0.057	0.265
-369.771	28.653	0.065	-0.054
-368.756	-200.000	0.002	0.180
-367.742	-47.931	-0.079	0.038
-366.727	800.000	-0.139	0.439
-365.712	-200.000	-0.011	0.161
-364.698	-30.665	0.224	-0.125
-363.683	1.729	0.190	-0.135
-362.669	89.518	0.261	0.289
-361.654	-77.167	0.179	-0.062
-360.639	800.000	-0.088	-0.381
-359.625	9.042	-0.108	0.081
-358.610	-97.064	-0.161	0.042
-357.596	-200.000	-0.034	0.187
-356.581	-145.858	-0.034	-0.003
-355.566	95.386	0.090	-0.102
-354.552	-200.000	-0.016	-0.239
-353.537	-200.000	-0.038	0.182
-352.523	-46.737	-0.317	0.154
-351.508	800.000	0.021	-0.059
-350.493	594.184	0.046	0.113
-349.479	-149.445	-0.159	-0.013
-348.464	-86.609	0.284	0.086
-347.450	-89.158	0.117	-0.034
-346.435	-26.728	-0.091	-0.053
-345.420	-151.741	0.296	0.022
-344.406	-200.000	0.014	0.103
-343.391	44.073	-0.122	-0.111
-342.377	312.042	-0.071	-0.133
-341.362	-27.227	0.026	0.015
-340.348	-200.000	0.008	0.084
-339.333	-83.753	0.010	-0.003
-338.318	-200.000	-0.033	0.307
-337.304	418.391	-0.184	0.390
-336.289	-72.971	0.363	-0.132
-335.275	-200.000	-0.092	-0.000
-334.260	-23.746	0.044	0.026
-333.245	-200.000	0.034	-0.223
-332.231	66.674	-0.178	0.179
-331.216	-54.536	0.153	-0.069
-330.202	291.888	0.158	-0.284
-329.187	31.649	-0.235	0.200
-328.172	61.336	-0.317	-0.312
-327.158	204.906	-0.198	-0.305
-326.143	-64.269	0.307	-0.124
-325.129	-79.166	0.414	0.139
-324.114	-200.000	0.004	-0.229
-323.099	-40.321	-0.120	-0.062
-322.085	-124.878	0.300	-0.046
-321.070	53.318	0.113	-0.107
-320.056	-200.000	0.048	-0.269
-319.041	542.013	0.064	0.152
-318.026	-200.000	0.019	0.089
-317.012	217.857	-0.106	-0.167
-315.997	69.321	0.290	-0.296
-314.983	-200.000	0.015	0.278
-313.968	12.880	0.151	0.116
-312.953	385.102	-0.130	0.265
-311.939	-200.000	0.013	0.260
-310.924	-138.489	0.249	0.027
-309.910	220.020	0.031	0.049
-308.895	-65.903	-0.173	0.068
-307.880	-124.357	-0.190	0.029
-306.866	32.083	-0.135	-0.116
-305.851	56.799	-0.174	-0.167
-304.837	-200.000	-0.096	-0.428
-303.822	-8.082	-0.069	0.046
-302.807	-200.000	0.038	-0.333
-301.793	-144.511	-0.113	0.010
-300.778	-80.388	0.365	-0.121
-299.764	318.220	0.085	0.160
-298.749	222.540	0.128	0.204
-297.735	480.685	0.145	0.326
-296.720	-200.000	0.001	-0.037
-295.705	-200.000	-0.021	-0.116
-294.691	126.100	0.293	0.367
-293.676	520.386	0.097	0.225
-292.662	-110.738	-0.348	-0.071
-291.647	800.000	-0.114	0.337
-290.632	3.952	-0.153	0.111
-289.618	120.454	-0.160	-0.197
-288.603	-43.557	0.120	-0.060
-287.589	47.672	-0.216	-0.199
-286.574	378.333	-0.036	0.073
-285.559	49.768	-0.365	0.340
-284.545	-165.952	-0.254	-0.011
-283.530	566.782	-0.084	0.202
-282.516	-151.032	0.055	0.004
-281.501	-108.661	-0.315	0.067
-280.486	148.684	0.118	-0.158
-279.472	411.569	-0.011	-0.023
-278.457	-200.000	-0.031	-0.285
-277.443	456.338	-0.096	0.211
-276.428	36.590	-0.173	0.151
-275.413	385.872	-0.129	0.264
-274.399	366.624	0.146	-0.292
-273.384	-16.479	-0.099	-0.062
-272.370	-59.004	-0.190	0.081
-271.355	128.770	0.255	-0.321
-270.340	-72.249	0.008	0.003
-269.326	-111.394	-0.346	-0.070
-268.311	332.346	0.048	0.092
-267.297	183.520	0.147	0.214
-266.282	457.678	-0.083	-0.182
-265.267	-200.000	0.021	-0.179
-264.253	74.875	-0.280	-0.292
-263.238	-24.207	-0.163	0.096
-262.224	107.061	-0.029	-0.034
-261.209	-102.751	0.241	-0.057
-260.195	-96.797	0.114	0.029
-259.180	148.432	-0.070	0.093
-258.165	-131.835	-0.225	0.029
-257.151	-101.450	0.077	-0.019
-256.136	4.346	0.266	0.192
-255.122	195.555	-0.220	-0.330
-254.107	310.664	0.166	0.308
-253.092	800.000	-0.030	0.105
-252.078	-111.257	0.476	0.096
-251.063	135.117	0.196	0.251
-250.049	-200.000	-0.043	-0.221
-249.034	-10.662	-0.188	-0.123
-248.019	40.985	-0.130	-0.116
-247.005	329.937	-0.140	0.266
-245.990	-200.000	0.003	-0.081
-244.976	800.000	0.128	0.484
-243.961	362.402	-0.084	-0.167
-242.946	-200.000	0.012	-0.286
-241.932	249.310	0.122	0.205
-240.917	-44.038	-0.280	0.139
-239.903	-29.327	0.170	-0.096
-238.888	-58.869	0.181	0.077
-237.873	7.371	-0.300	0.221
-236.859	800.000	0.072	-0.293
-235.844	800.000	0.110	0.363
-234.830	36.619	-0.209	0.182
-233.815	-194.714	-0.147	0.001
-232.800	-200.000	-0.008	-0.080
-231.786	-200.000	0.047	0.208
-230.771	-200.000	-0.012	-0.208
-229.757	-29.082	-0.030	0.017
-228.742	800.000	0.055	-0.155
-227.727	284.483	0.025	-0.044
-226.713	525.066	0.019	-0.044
-225.698	-55.866	-0.123	0.054
-224.684	427.236	0.110	0.234
-223.669	-95.403	-0.255	-0.068
-222.655	800.000	-0.047	0.188
-221.640	750.868	-0.139	-0.369
-220.625	-200.000	-0.005	-0.053
-219.611	-78.326	0.085	-0.029
-218.596	119.570	-0.267	-0.326
-217.582	136.979	0.104	-0.134
-216.567	-63.467	0.080	-0.032
-215.552	162.175	0.037	-0.052
-214.538	-126.294	-0.246	0.036
-213.523	-138.857	-0.281	0.030
-212.509	532.577	0.034	0.079
-211.494	-48.365	-0.231	-0.110
-210.479	-200.000	0.018	-0.081
-209.465	353.833	-0.102	0.200
-208.450	-176.154	-0.034	0.001
-207.436	-4.146	0.202	-0.138
-206.421	800.000	0.072	-0.240
-205.406	800.000	-0.059	0.204
-204.392	484.373	-0.123	0.276
-203.377	-115.485	-0.530	-0.098
-202.363	-200.000	-0.071	0.332
-201.348	-79.023	0.249	0.083
-200.333	-200.000	0.016	0.076
-199.319	-161.504	0.189	0.010
-198.304	-198.224	-0.360	0.002
-197.290	-115.497	0.348	0.065
-196.275	-177.129	0.121	-0.003
-195.260	-200.000	-0.060	0.364
-194.246	-200.000	0.003	0.077
-193.231	582.436	0.131	-0.316
-192.217	-47.791	0.239	0.114
-191.202	115.731	-0.127	-0.153
-190.187	-131.683	0.306	0.040
-189.173	-200.000	0.053	0.364
-188.158	526.268	-0.116	0.269
-187.144	16.025	0.106	0.082
-186.129	-200.000	0.043	0.349
-185.114	57.960	-0.251	0.242
-184.100	-200.000	0.016	-0.333
-183.085	800.000	0.062	-0.205
-182.071	-67.403	-0.183	-0.071
-181.056	489.369	-0.129	0.290
-180.042	-44.810	-0.074	0.036
-179.027	-90.268	-0.201	-0.058
-178.012	-200.000	-0.025	-0.193
-176.998	-131.810	-0.239	0.031
-175.983	-5.319	0.126	0.085
-174.969	-35.823	0.123	0.066
-173.954	441.117	-0.169	-0.364
-172.939	-132.365	-0.141	0.018
-171.925	-88.116	-0.047	0.014
-170.910	82.246	-0.134	-0.143
-169.896	-81.635	-0.234	0.075
-168.881	102.062	-0.107	0.122
-167.866	800.000	-0.002	-0.007
-166.852	257.829	-0.126	-0.213
-165.837	373.546	0.171	-0.341
-164.823	-82.711	-0.346	0.110
-163.808	-200.000	0.001	0.510
-162.793	164.985	0.224	0.312
-161.779	43.307	-0.273	0.246
-160.764	-7.926	0.265	0.176
-159.750	-35.230	0.177	0.095
-158.735	-200.000	-0.014	-0.364
-157.720	345.102	-0.088	0.171
-156.706	249.503	0.092	0.153
-155.691	-28.635	0.400	-0.227
-154.677	-3.546	0.171	0.117
-153.662	571.459	-0.101	-0.241
-152.647	100.665	-0.097	0.111
-151.633	800.000	0.185	-0.539
-150.618	-200.000	-0.050	-0.256
-149.604	-200.000	-0.016	0.070
-148.589	309.866	0.039	0.072
-147.574	73.567	-0.195	-0.201
-146.560	126.666	0.129	0.161
-145.545	82.765	0.184	0.196
-144.531	315.277	0.092	0.171
-143.516	-45.507	0.179	0.087
-142.502	-200.000	0.008	0.089
-141.487	486.360	-0.166	0.373
-140.472	-75.126	0.301	-0.106
-139.458	-96.123	-0.487	0.127
-138.443	116.324	-0.311	0.375
-137.429	1.260	0.253	-0.178
-136.414	250.256	-0.025	-0.042
-135.399	-77.162	0.224	-0.077
-134.385	334.723	0.246	0.468
-133.370	800.000	0.084	0.357
-132.356	90.371	-0.136	0.149
-131.341	800.000	-0.085	-0.235
-130.326	636.566	-0.089	0.223
-129.312	638.222	0.119	0.297
-128.297	800.000	-0.045	-0.163
-127.283	300.661	0.184	0.334
-126.268	-35.152	-0.122	0.065
-125.253	217.713	0.158	0.248
-124.239	761.645	0.176	-0.470
-123.224	-95.389	-0.038	-0.010
-122.210	677.076	0.111	0.283
