DTS Sentinel unit serial number:	SN413079Multiplexer serial number:	ORYXHardware model number:	OX4-SRSoftware version number:	ORYX F/W v4.00 Oryx Data Collector v3.7.2.0data status	okinstallation	princeton_trtdifferential loss correction	single-endedforward channel	channel 2reverse channel	N/Adate	2019/09/16time	15:07:35forward acquisition time	60.00reverse acquisition time	0.00gamma	496.2192k internal	0.2299k external	0.2299temperature offset calibration	0.9939default loss term (dB/km)	0.3790temperature slope calibration	1.0000multiplexer offset coefficient	1.0000multiplexer slope coefficient	1.0000fibre end	0.00T internal ref (°C)	41.12T ext. ref 1 (°C)	14.51T ext. ref 2 (°C)	36.43length (m)	temperature (°C)	Stokes	anti-Stokes-747.200	-9.440	0.160	-0.109
-746.185	-200.000	0.000	0.194
-745.171	-103.724	0.167	0.040
-744.156	274.745	0.221	0.399
-743.142	90.855	-0.077	-0.088
-742.127	73.381	0.272	0.291
-741.112	35.842	0.300	-0.269
-740.098	-200.000	0.001	0.006
-739.083	800.000	-0.025	-0.080
-738.069	-200.000	0.058	0.332
-737.054	-124.847	0.297	-0.047
-736.039	0.778	0.075	-0.055
-735.025	-49.137	0.066	0.032
-734.010	-200.000	-0.025	-0.161
-732.996	-115.738	-0.106	-0.020
-731.981	58.919	0.234	0.234
-730.966	202.063	0.146	0.229
-729.952	141.649	-0.077	-0.104
-728.937	-200.000	-0.009	-0.255
-727.923	-131.429	-0.082	-0.011
-726.908	13.873	-0.098	-0.078
-725.894	17.460	-0.216	0.175
-724.879	330.985	0.177	-0.347
-723.864	-122.907	0.255	0.042
-722.850	-38.401	0.566	0.305
-721.835	-55.975	-0.198	-0.090
-720.821	563.378	-0.105	-0.259
-719.806	240.162	-0.076	-0.128
-718.791	-200.000	-0.001	-0.274
-717.777	160.575	-0.032	-0.046
-716.762	-150.915	-0.196	0.015
-715.748	-12.154	-0.178	-0.119
-714.733	-84.130	-0.214	0.069
-713.718	67.249	-0.131	-0.136
-712.704	125.528	0.116	-0.149
-711.689	-66.302	-0.257	-0.104
-710.675	177.741	-0.047	0.069
-709.660	112.650	0.273	0.337
-708.645	337.730	-0.120	0.237
-707.631	174.884	0.080	0.119
-706.616	-193.411	-0.190	-0.002
-705.602	205.899	-0.119	0.189
-704.587	233.925	-0.157	0.264
-703.572	13.739	0.109	0.086
-702.558	-152.947	0.065	-0.005
-701.543	-200.000	0.028	-0.473
-700.529	13.501	0.294	-0.232
-699.514	-118.417	-0.418	-0.075
-698.499	-117.251	-0.350	0.065
-697.485	-200.000	-0.043	-0.399
-696.470	-200.000	-0.067	-0.354
-695.456	-69.192	-0.217	0.085
-694.441	-182.048	0.265	-0.005
-693.426	-200.000	-0.036	-0.260
-692.412	-145.847	-0.222	-0.020
-691.397	-52.178	-0.105	-0.050
-690.383	-98.920	0.079	-0.021
-689.368	-200.000	-0.025	-0.121
-688.354	-47.102	-0.079	0.039
-687.339	800.000	-0.042	-0.162
-686.324	800.000	0.073	0.308
-685.310	26.271	-0.068	-0.058
-684.295	14.026	-0.056	-0.044
-683.281	-53.923	-0.226	-0.105
-682.266	21.997	-0.084	-0.070
-681.251	55.751	-0.243	-0.240
-680.237	-149.256	0.235	0.019
-679.222	800.000	-0.109	0.391
-678.208	19.039	-0.229	-0.187
-677.193	5.992	-0.062	-0.047
-676.178	134.959	-0.188	-0.249
-675.164	-46.393	0.365	-0.183
-674.149	-117.655	-0.039	0.007
-673.135	778.679	-0.032	0.090
-672.120	213.265	-0.152	-0.245
-671.105	439.081	0.025	-0.056
-670.091	91.493	0.086	0.099
-669.076	-18.584	0.112	-0.071
-668.062	-91.377	0.309	0.090
-667.047	21.719	-0.288	0.238
-666.032	-170.920	-0.182	0.006
-665.018	-2.419	-0.242	0.172
-664.003	-97.725	0.354	0.093
-662.989	-28.645	-0.259	-0.152
-661.974	33.812	0.129	-0.114
-660.959	-27.166	0.082	0.049
-659.945	800.000	-0.125	0.504
-658.930	27.142	-0.075	-0.064
-657.916	-36.518	0.212	0.116
-656.901	71.946	-0.092	0.097
-655.886	492.225	0.017	0.040
-654.872	93.623	-0.115	-0.133
-653.857	-200.000	-0.038	-0.172
-652.843	59.023	0.269	-0.269
-651.828	-200.000	-0.018	0.102
-650.814	221.478	-0.145	0.237
-649.799	435.824	-0.055	0.121
-648.784	-103.512	-0.150	-0.036
-647.770	-96.100	-0.243	-0.066
-646.755	194.799	-0.019	0.029
-645.741	-200.000	0.037	-0.338
-644.726	-11.798	0.104	0.069
-643.711	398.693	-0.079	-0.168
-642.697	-61.580	-0.238	-0.101
-641.682	270.545	-0.110	-0.197
-640.668	-200.000	0.005	-0.024
-639.653	-152.946	0.203	-0.015
-638.638	-61.240	-0.456	0.195
-637.624	800.000	0.067	-0.214
-636.609	-34.277	0.367	-0.205
-635.595	310.371	-0.046	-0.087
-634.580	800.000	-0.042	0.138
-633.565	60.252	0.045	0.045
-632.551	-200.000	-0.006	-0.239
-631.536	244.329	0.104	0.178
-630.522	-200.000	-0.020	0.218
-629.507	-4.107	-0.047	-0.033
-628.492	145.371	-0.066	0.090
-627.478	138.820	-0.129	0.172
-626.463	-124.922	-0.123	0.019
-625.449	282.777	-0.041	-0.075
-624.434	-9.591	-0.102	-0.069
-623.419	-5.062	-0.091	0.063
-622.405	-107.485	0.287	-0.064
-621.390	508.417	0.070	0.164
-620.376	270.257	0.205	-0.366
-619.361	-69.628	0.148	-0.057
-618.346	-96.425	-0.076	-0.020
-617.332	-55.490	0.299	0.136
-616.317	-6.054	-0.376	-0.261
-615.303	-200.000	-0.005	-0.197
-614.288	800.000	0.047	0.177
-613.273	18.138	-0.094	-0.076
-612.259	107.259	0.317	-0.383
-611.244	-200.000	-0.022	0.204
-610.230	13.773	-0.251	0.198
-609.215	-74.827	-0.184	0.067
-608.201	464.011	0.136	0.308
-607.186	-17.466	0.055	0.035
-606.171	600.153	0.178	-0.449
-605.157	-4.101	-0.277	0.195
-604.142	-16.651	0.187	-0.120
-603.128	-119.473	-0.076	0.013
-602.113	27.456	0.018	-0.015
-601.098	-56.930	-0.174	-0.078
-600.084	-72.099	0.390	0.147
-599.069	-105.684	-0.277	-0.064
-598.055	-200.000	0.077	-0.362
-597.040	-178.025	0.268	0.006
-596.025	310.558	0.140	0.265
-595.011	-128.516	-0.102	0.015
-593.996	77.702	-0.155	-0.167
-592.982	-153.918	0.194	-0.013
-591.967	-92.691	0.111	-0.031
-590.952	-200.000	-0.003	-0.064
-589.938	800.000	0.076	0.231
-588.923	-200.000	-0.029	0.177
-587.909	-200.000	0.105	0.537
-586.894	-78.050	-0.181	0.063
-585.879	16.239	0.127	0.102
-584.865	267.873	-0.029	-0.051
-583.850	-72.131	-0.293	0.110
-582.836	339.682	-0.027	-0.054
-581.821	163.254	-0.185	0.264
-580.806	800.000	-0.092	-0.300
-579.792	-143.067	0.268	-0.026
-578.777	-88.495	-0.180	-0.054
-577.763	-94.309	0.276	-0.076
-576.748	-200.000	-0.005	0.100
-575.733	-35.609	0.242	-0.133
-574.719	-112.008	-0.162	-0.033
-573.704	-24.170	-0.058	-0.035
-572.690	-69.585	0.297	-0.115
-571.675	126.535	0.078	0.100
-570.661	437.877	0.103	0.227
-569.646	-24.789	0.129	-0.078
-568.631	-200.000	-0.023	0.362
-567.617	63.665	-0.296	0.301
-566.602	33.724	0.158	0.139
-565.588	24.870	-0.242	-0.203
-564.573	267.080	-0.061	0.108
-563.558	-200.000	-0.004	-0.192
-562.544	46.128	-0.100	-0.093
-561.529	-200.000	0.002	-0.013
-560.515	-9.358	0.129	-0.087
-559.500	-42.155	-0.276	-0.143
-558.485	-101.739	0.111	0.027
-557.471	72.239	-0.316	0.333
-556.456	25.361	-0.124	0.104
-555.442	-200.000	-0.048	0.294
-554.427	-97.086	0.120	-0.032
-553.412	800.000	0.050	-0.198
-552.398	299.337	0.255	-0.475
-551.383	-140.144	0.160	0.017
-550.369	18.487	0.103	-0.083
-549.354	298.798	-0.015	-0.027
-548.339	800.000	-0.110	-0.413
-547.325	235.649	-0.272	-0.455
-546.310	800.000	-0.056	-0.159
-545.296	800.000	-0.126	0.421
-544.281	92.737	-0.020	-0.023
-543.266	-200.000	-0.003	0.057
-542.252	-33.389	-0.386	-0.216
-541.237	800.000	0.014	-0.061
-540.223	241.374	-0.091	-0.153
-539.208	177.822	0.130	-0.192
-538.193	107.706	-0.093	-0.112
-537.179	-56.666	-0.270	-0.121
-536.164	800.000	0.024	-0.078
-535.150	-97.511	-0.495	-0.130
-534.135	-73.303	0.114	0.042
-533.121	800.000	-0.018	-0.051
-532.106	14.523	0.236	-0.187
-531.091	-184.694	0.330	0.005
-530.077	17.640	0.512	0.412
-529.062	-114.958	0.261	-0.050
-528.048	-28.548	0.347	0.202
-527.033	476.764	-0.128	0.294
-526.018	-6.268	-0.192	-0.133
-525.004	-200.000	-0.030	0.263
-523.989	-90.899	0.198	0.058
-522.975	-38.774	-0.115	0.061
-521.960	800.000	-0.072	-0.289
-520.945	-200.000	0.039	-0.389
-519.931	-131.966	0.154	0.020
-518.916	-200.000	0.007	0.166
-517.902	800.000	-0.084	-0.254
-516.887	-200.000	0.029	0.000
-515.872	64.751	-0.123	0.126
-514.858	-200.000	-0.015	0.073
-513.843	-200.000	0.041	-0.296
-512.829	-122.260	0.181	-0.030
-511.814	-95.976	0.352	0.095
-510.799	-200.000	0.019	0.091
-509.785	182.496	0.282	0.421
-508.770	193.780	0.033	0.051
-507.756	-53.800	0.226	-0.104
-506.741	-200.000	-0.034	0.172
-505.726	42.534	-0.305	0.281
-504.712	96.277	-0.029	-0.034
-503.697	174.649	-0.117	-0.172
-502.683	-70.559	0.123	-0.047
-501.668	-200.000	-0.038	-0.205
-500.653	-124.550	-0.246	0.039
-499.639	-200.000	0.006	0.042
-498.624	-25.578	-0.239	0.143
-497.610	327.904	0.080	-0.156
-496.595	-87.686	0.149	0.045
-495.581	-163.722	-0.221	0.010
-494.566	-72.597	-0.200	0.075
-493.551	-50.966	-0.070	-0.033
-492.537	28.212	-0.210	0.179
-491.522	389.604	0.035	0.074
-490.508	618.738	0.138	0.351
-489.493	-146.430	0.243	0.021
-488.478	-103.171	-0.232	-0.055
-487.464	-16.293	-0.384	0.246
-486.449	-200.000	-0.049	0.234
-485.435	-165.270	0.008	-0.000
-484.420	-15.471	0.348	-0.224
-483.405	-139.728	-0.210	0.022
-482.391	-49.985	0.067	-0.032
-481.376	22.438	-0.245	-0.203
-480.362	271.745	0.092	-0.164
-479.347	-169.673	0.108	0.004
-478.332	-200.000	-0.020	0.140
-477.318	-154.238	-0.343	0.023
-476.303	-200.000	0.019	0.210
-475.289	632.605	-0.050	0.129
-474.274	-44.290	0.237	-0.120
-473.259	197.035	0.244	-0.375
-472.245	-122.980	0.224	0.036
-471.230	-88.611	-0.167	-0.050
-470.216	-200.000	0.036	0.172
-469.201	-200.000	-0.024	0.441
-468.186	-134.876	-0.204	0.025
-467.172	-127.544	-0.195	-0.029
-466.157	-111.962	0.239	0.049
-465.143	-124.661	-0.098	-0.015
-464.128	-23.319	-0.252	-0.153
-463.113	394.724	-0.044	0.094
-462.099	136.704	-0.077	0.101
-461.084	80.275	0.113	-0.122
-460.070	19.226	0.135	0.109
-459.055	762.879	-0.015	0.040
-458.040	800.000	-0.077	-0.335
-457.026	80.648	-0.067	-0.073
-456.011	-91.740	-0.064	-0.018
-454.997	-129.322	0.155	-0.022
-453.982	-156.687	-0.095	-0.006
-452.968	800.000	0.015	-0.049
-451.953	624.842	0.070	0.179
-450.938	257.167	0.086	0.149
-449.924	256.527	0.153	0.266
-448.909	12.282	-0.209	0.162
-447.895	-31.343	0.061	0.034
-446.880	304.508	0.277	0.519
-445.865	800.000	-0.056	-0.206
-444.851	-51.871	-0.112	0.053
-443.836	800.000	0.067	0.233
-442.822	-41.285	-0.341	-0.177
-441.807	-127.065	0.284	-0.042
-440.792	-131.494	-0.517	0.069
-439.778	-7.705	-0.064	0.043
-438.763	551.802	-0.039	0.095
-437.749	-200.000	0.034	0.402
-436.734	454.324	-0.177	-0.395
-435.719	287.383	-0.155	-0.282
-434.705	778.254	-0.070	0.192
-433.690	-200.000	0.000	-0.112
-432.676	-5.219	0.129	0.089
-431.661	-132.692	-0.052	-0.007
-430.646	220.835	-0.121	-0.196
-429.632	354.948	-0.058	-0.116
-428.617	-200.000	-0.030	-0.359
-427.603	344.170	-0.046	0.091
-426.588	-51.686	0.178	-0.083
-425.573	-180.015	0.111	0.002
-424.559	-73.108	-0.052	0.019
-423.544	-9.228	-0.140	-0.094
-422.530	77.966	0.080	-0.086
-421.515	2.794	-0.167	-0.122
-420.500	-22.990	0.203	0.123
-419.486	-124.655	-0.190	0.030
-418.471	-200.000	0.056	0.287
-417.457	-200.000	-0.036	0.289
-416.442	-26.008	0.143	0.084
-415.428	-141.904	-0.281	-0.028
-414.413	-43.997	0.097	0.049
-413.398	-2.030	0.083	0.058
-412.384	215.852	0.259	-0.414
-411.369	-187.544	-0.299	0.004
-410.355	-200.000	0.040	0.238
-409.340	-161.489	0.189	-0.010
-408.325	265.302	-0.158	-0.277
-407.311	-44.315	0.169	0.085
-406.296	-120.938	-0.013	-0.002
-405.282	-104.683	0.170	0.039
-404.267	800.000	-0.053	0.181
-403.252	-19.680	-0.204	0.127
-402.238	-200.000	-0.013	-0.071
-401.223	-200.000	0.354	0.001
-400.209	-25.691	-0.159	0.095
-399.194	-32.440	0.081	-0.046
-398.179	800.000	-0.078	0.291
-397.165	169.790	-0.131	-0.189
-396.150	-122.580	0.270	-0.044
-395.136	-36.657	0.202	0.109
-394.121	20.915	0.036	-0.029
-393.106	-62.957	0.196	0.081
-392.092	800.000	-0.065	0.247
-391.077	-97.850	-0.374	0.097
-390.063	662.620	0.018	-0.047
-389.048	142.921	-0.152	0.203
-388.033	-140.731	-0.243	-0.025
-387.019	253.180	-0.131	-0.225
-386.004	-200.000	-0.035	-0.241
-384.990	-140.996	-0.263	-0.027
-383.975	-200.000	-0.040	-0.205
-382.960	-45.767	-0.239	-0.119
-381.946	-200.000	-0.044	0.194
-380.931	-16.639	0.069	-0.044
-379.917	-200.000	0.012	-0.073
-378.902	89.250	0.064	-0.072
-377.888	-95.517	-0.411	-0.111
-376.873	-200.000	-0.038	-0.267
-375.858	-164.092	0.231	-0.011
-374.844	-200.000	0.012	0.093
-373.829	-10.818	-0.066	0.044
-372.815	800.000	0.067	-0.221
-371.800	800.000	0.070	-0.244
-370.785	75.523	-0.060	-0.063
-369.771	-200.000	0.027	0.318
-368.756	178.136	0.280	0.410
-367.742	-136.774	0.353	0.041
-366.727	-200.000	-0.071	0.405
-365.712	-43.015	-0.333	0.170
-364.698	-24.322	-0.319	-0.191
-363.683	32.214	0.103	0.090
-362.669	-25.155	-0.278	0.166
-361.654	-200.000	-0.053	-0.245
-360.639	800.000	0.027	0.074
-359.625	3.164	-0.119	-0.087
-358.610	-120.834	0.375	0.063
-357.596	305.473	0.159	0.297
-356.581	399.229	0.092	-0.194
-355.566	-155.074	-0.506	0.033
-354.552	-33.027	-0.232	-0.129
-353.537	623.746	-0.171	-0.434
-352.523	129.039	-0.079	0.102
-351.508	404.229	0.131	0.277
-350.493	-84.561	0.124	-0.039
-349.479	359.066	0.148	-0.297
-348.464	-200.000	0.068	-0.306
-347.450	-200.000	0.057	-0.253
-346.435	122.053	-0.162	0.203
-345.420	-51.261	-0.243	0.114
-344.406	63.319	0.068	0.069
-343.391	-48.140	-0.293	-0.142
-342.377	52.686	-0.310	-0.298
-341.362	-20.152	0.191	0.118
-340.348	800.000	0.173	-0.487
-339.333	389.317	-0.158	-0.329
-338.318	-46.257	0.219	-0.108
-337.304	165.410	0.188	0.267
-336.289	800.000	0.054	0.222
-335.275	-111.796	0.217	0.044
-334.260	-200.000	-0.052	-0.356
-333.245	-27.675	0.516	-0.301
-332.231	800.000	0.080	-0.271
-331.216	-154.144	0.294	0.020
-330.202	-114.600	-0.169	-0.032
-329.187	21.813	0.024	0.020
-328.172	305.046	-0.133	0.248
-327.158	66.040	-0.176	0.179
-326.143	-200.000	-0.029	-0.199
-325.129	59.713	0.193	0.191
-324.114	-57.828	-0.203	-0.089
-323.099	-14.187	0.080	0.052
-322.085	-200.000	0.051	-0.239
-321.070	315.924	-0.022	0.042
-320.056	-42.453	0.218	0.112
-319.041	-139.236	0.186	-0.020
-318.026	195.647	0.115	-0.175
-317.012	-200.000	-0.074	0.350
-315.997	-79.412	0.057	-0.019
-314.983	-186.217	0.177	-0.003
-313.968	13.466	0.116	-0.090
-312.953	-200.000	-0.009	0.423
-311.939	-80.234	0.114	0.038
-310.924	771.559	-0.053	-0.145
-309.910	-200.000	0.003	-0.275
-308.895	599.280	-0.080	-0.199
-307.880	-80.316	-0.052	0.018
-306.866	621.805	0.107	-0.270
-305.851	-110.229	0.151	-0.032
-304.837	294.286	0.085	0.156
-303.822	-123.343	-0.164	0.026
-302.807	38.853	0.198	0.178
-301.793	-16.046	0.149	0.095
-300.778	276.179	-0.079	0.141
-299.764	74.344	-0.124	0.131
-298.749	-87.440	-0.208	0.063
-297.735	-200.000	0.082	-0.451
-296.720	-190.546	-0.225	-0.002
-295.705	69.320	-0.160	0.165
-294.691	26.850	-0.463	-0.389
-293.676	-47.076	0.321	-0.157
-292.662	554.327	-0.072	0.173
-291.647	-22.356	0.147	0.089
-290.632	675.074	0.206	-0.537
-289.618	-50.356	0.179	-0.085
-288.603	-71.336	0.133	0.050
-287.589	295.773	-0.078	0.143
-286.574	270.386	0.148	0.261
-285.559	-83.240	-0.187	0.060
-284.545	335.243	0.192	0.373
-283.530	-91.463	0.132	-0.038
-282.516	-94.024	0.276	-0.076
-281.501	800.000	-0.087	0.322
-280.486	254.581	0.102	-0.174
-279.472	-200.000	0.007	-0.077
-278.457	27.099	-0.231	0.194
-277.443	-100.436	0.444	0.110
-276.428	213.966	0.138	-0.219
-275.413	348.087	-0.096	-0.190
-274.399	-123.884	-0.145	0.023
-273.384	-118.612	0.173	-0.031
-272.370	-138.948	-0.177	0.019
-271.355	17.726	-0.127	-0.101
-270.340	800.000	0.045	-0.153
-269.326	-200.000	0.001	0.096
-268.311	800.000	-0.038	0.165
-267.297	-32.127	-0.124	0.069
-266.282	40.860	-0.059	0.053
-265.267	774.083	0.033	-0.090
-264.253	-68.708	0.109	-0.042
-263.238	327.606	-0.113	0.217
-262.224	120.121	-0.088	0.109
-261.209	163.154	-0.058	0.081
-260.195	-42.889	-0.092	0.047
-259.180	-52.117	0.345	0.160
-258.165	-24.264	-0.314	0.188
-257.151	-161.494	-0.158	-0.008
-256.136	-139.699	-0.348	0.037
-255.122	269.916	-0.154	-0.271
-254.107	68.221	0.092	0.094
-253.092	56.547	0.173	-0.169
-252.078	222.194	0.139	-0.223
-251.063	-200.000	-0.008	-0.051
-250.049	-200.000	-0.053	0.266
-249.034	-8.641	-0.193	0.130
-248.019	-133.845	-0.251	0.031
-247.005	314.606	0.044	0.084
-245.990	-200.000	0.004	-0.127
-244.976	346.497	0.133	0.263
-243.961	43.082	0.056	-0.051
-242.946	800.000	0.046	-0.158
-241.932	-200.000	0.062	0.342
-240.917	-82.266	-0.255	-0.083
-239.903	-200.000	0.022	-0.294
-238.888	-40.732	0.264	-0.137
-237.873	-200.000	0.045	-0.324
-236.859	-107.917	-0.357	-0.078
-235.844	-25.363	-0.181	-0.107
-234.830	-148.206	0.339	-0.028
-233.815	82.149	0.326	0.354
-232.800	-168.139	0.339	-0.013
-231.786	-137.131	0.279	0.032
-230.771	-167.716	-0.292	-0.012
-229.757	-200.000	-0.036	0.217
-228.742	-29.854	-0.173	-0.098
-227.727	-191.601	0.154	-0.002
-226.713	-132.362	0.276	-0.036
-225.698	-200.000	0.064	-0.401
-224.684	-120.962	0.134	0.023
-223.669	-13.534	0.291	-0.188
-222.655	-124.499	-0.217	0.034
-221.640	-200.000	0.065	-0.396
-220.625	-8.964	0.117	0.078
-219.611	-131.884	-0.170	0.022
-218.596	155.130	0.119	0.164
-217.582	425.188	0.161	0.345
-216.567	-35.274	0.163	0.089
-215.552	434.660	0.125	-0.271
-214.538	178.046	0.080	0.116
-213.523	-50.830	-0.153	-0.072
-212.509	-200.000	-0.035	0.296
-211.494	800.000	0.076	0.318
-210.479	191.275	-0.043	-0.064
-209.465	-95.322	0.121	-0.033
-208.450	339.522	0.036	0.069
-207.436	88.417	-0.111	0.123
-206.421	120.271	-0.118	0.146
-205.406	-68.996	-0.127	-0.049
-204.392	-200.000	-0.074	0.326
-203.377	75.129	-0.213	0.224
-202.363	800.000	0.038	-0.127
-201.348	-136.219	0.248	-0.029
-200.333	-200.000	-0.040	0.369
-199.319	-41.328	0.132	0.068
-198.304	-200.000	0.010	-0.175
-197.290	201.756	-0.211	-0.325
-196.275	-166.329	0.127	-0.005
-195.260	625.909	-0.057	0.145
-194.246	31.694	-0.078	-0.067
-193.231	193.873	0.091	0.138
-192.217	36.768	-0.074	0.066
-191.202	-156.808	0.235	-0.014
-190.187	189.473	-0.080	-0.120
-189.173	-129.242	-0.258	0.036
-188.158	199.897	-0.113	-0.174
-187.144	151.641	-0.195	0.265
-186.129	-97.525	0.371	-0.096
-185.114	40.004	0.321	0.288
-184.100	-182.358	-0.417	0.008
-183.085	184.326	0.081	-0.120
-182.071	800.000	-0.045	0.160
-181.056	-4.882	0.259	0.178
-180.042	-200.000	0.061	0.284
-179.027	-200.000	-0.036	0.304
-178.012	70.648	-0.382	-0.395
-176.998	123.097	-0.138	-0.173
-175.983	377.426	0.074	0.150
-174.969	800.000	-0.024	0.102
-173.954	-200.000	-0.033	-0.222
-172.939	-28.999	0.062	-0.035
-171.925	-52.766	-0.127	-0.058
-170.910	800.000	0.061	-0.174
-169.896	-154.419	-0.193	0.013
-168.881	-133.510	-0.383	0.048
-167.866	-38.951	0.100	-0.052
-166.852	-200.000	-0.044	0.250
-165.837	-16.958	0.079	-0.050
-164.823	91.412	0.046	0.052
-163.808	-129.694	0.163	-0.022
-162.793	-69.679	0.395	-0.151
-161.779	-37.317	0.291	-0.155
-160.764	-200.000	-0.041	0.185
-159.750	352.442	-0.148	0.293
-158.735	-43.377	0.293	0.148
-157.720	304.943	0.124	-0.229
-156.706	539.452	-0.101	-0.239
-155.691	800.000	0.084	-0.235
-154.677	157.840	0.131	-0.181
-153.662	-111.663	0.293	-0.059
-152.647	72.296	-0.121	-0.126
-151.633	-120.862	-0.182	-0.031
-150.618	267.368	0.073	0.127
-149.604	-52.354	-0.126	-0.058
-148.589	17.167	0.128	-0.101
-147.574	-154.048	-0.230	-0.016
-146.560	-200.000	0.017	0.243
-145.545	9.910	0.375	-0.284
-144.531	800.000	-0.027	0.096
-143.516	300.514	0.182	0.334
-142.502	-200.000	-0.048	-0.366
-141.487	-112.924	-0.261	0.051
-140.472	-200.000	-0.016	-0.108
-139.458	-70.337	0.137	0.052
-138.443	-89.619	-0.077	-0.022
-137.429	-20.105	-0.209	0.128
-136.414	-184.961	-0.192	-0.003
-135.399	-62.345	0.169	0.070
-134.385	62.800	0.240	0.239
-133.370	-155.237	-0.018	-0.001
-132.356	-200.000	0.012	0.054
-131.341	-200.000	0.010	0.341
-130.326	-200.000	-0.032	-0.156
-129.312	120.607	0.121	-0.150
-128.297	11.996	-0.160	0.122
-127.283	-133.314	-0.118	0.015
-126.268	-73.015	0.177	0.065
-125.253	-111.667	-0.112	-0.023
-124.239	-200.000	0.055	0.244
-123.224	-66.373	-0.261	0.103
