DTS Sentinel unit serial number:	SN413079Multiplexer serial number:	ORYXHardware model number:	OX4-SRSoftware version number:	ORYX F/W v4.00 Oryx Data Collector v3.7.2.0data status	okinstallation	princeton_trtdifferential loss correction	single-endedforward channel	channel 2reverse channel	N/Adate	2019/09/17time	18:31:35forward acquisition time	60.00reverse acquisition time	0.00gamma	496.2192k internal	0.2289k external	0.2289temperature offset calibration	0.9980default loss term (dB/km)	0.3790temperature slope calibration	1.0000multiplexer offset coefficient	1.0000multiplexer slope coefficient	1.0000fibre end	0.00T internal ref (°C)	42.95T ext. ref 1 (°C)	0.29T ext. ref 2 (°C)	36.01length (m)	temperature (°C)	Stokes	anti-Stokes-747.200	91.117	0.059	-0.068
-746.185	200.524	0.220	0.346
-745.171	109.269	-0.203	-0.249
-744.156	40.434	0.193	0.178
-743.142	-149.084	-0.220	-0.018
-742.127	293.270	0.231	0.432
-741.112	-54.414	-0.124	-0.058
-740.098	-158.739	-0.365	-0.021
-739.083	500.058	0.128	-0.303
-738.069	-200.000	-0.015	0.234
-737.054	16.101	0.318	-0.257
-736.039	-200.000	0.008	0.110
-735.025	-166.765	0.258	-0.011
-734.010	-96.035	0.175	0.048
-732.996	-187.647	-0.555	-0.008
-731.981	800.000	0.094	-0.282
-730.966	408.706	-0.135	0.292
-729.952	-200.000	-0.026	-0.184
-728.937	-200.000	0.011	-0.087
-727.923	244.694	-0.116	0.199
-726.908	-47.796	-0.253	0.125
-725.894	-65.325	-0.148	-0.061
-724.879	-103.182	0.306	-0.074
-723.864	230.148	0.151	-0.253
-722.850	800.000	-0.037	-0.145
-721.835	-123.409	-0.197	-0.032
-720.821	800.000	-0.048	0.163
-719.806	-112.858	0.318	-0.065
-718.791	34.584	0.148	0.132
-717.777	385.352	-0.255	-0.539
-716.762	629.371	0.164	-0.425
-715.748	-52.740	-0.523	-0.247
-714.733	-56.603	-0.522	0.237
-713.718	-20.804	0.079	-0.049
-712.704	-200.000	-0.058	-0.297
-711.689	731.287	-0.067	0.183
-710.675	-55.107	-0.269	0.124
-709.660	-104.207	0.349	-0.083
-708.645	19.337	-0.273	-0.224
-707.631	145.570	-0.053	-0.073
-706.616	41.799	0.250	-0.232
-705.602	-34.531	-0.225	-0.126
-704.587	-43.253	-0.271	0.140
-703.572	-139.666	0.129	0.014
-702.558	800.000	0.055	-0.164
-701.543	-144.672	-0.309	0.029
-700.529	800.000	0.141	0.400
-699.514	133.902	-0.185	-0.246
-698.499	302.723	0.160	-0.302
-697.485	-23.313	-0.088	-0.054
-696.470	800.000	-0.083	0.236
-695.456	-0.962	0.251	-0.182
-694.441	85.684	0.225	-0.253
-693.426	794.492	0.081	0.229
-692.412	-152.726	0.172	0.013
-691.397	-84.327	-0.354	-0.115
-690.383	-96.828	0.295	-0.079
-689.368	429.843	0.165	0.366
-688.354	50.295	-0.062	0.060
-687.339	26.469	0.184	-0.157
-686.324	800.000	-0.092	-0.370
-685.310	168.735	-0.115	-0.168
-684.295	68.380	-0.199	-0.209
-683.281	354.670	0.068	-0.138
-682.266	-51.680	-0.223	-0.106
-681.251	772.167	-0.101	-0.281
-680.237	52.202	-0.163	-0.159
-679.222	-13.651	0.079	-0.053
-678.208	232.117	-0.200	-0.335
-677.193	800.000	0.059	-0.258
-676.178	-4.626	-0.127	0.090
-675.164	-200.000	0.036	0.437
-674.149	579.509	-0.028	-0.069
-673.135	800.000	0.072	0.229
-672.120	-200.000	-0.062	-0.332
-671.105	800.000	-0.075	-0.280
-670.091	-21.362	0.217	-0.135
-669.076	68.907	0.044	0.046
-668.062	57.510	-0.073	-0.073
-667.047	154.312	-0.165	-0.231
-666.032	23.252	-0.232	-0.194
-665.018	800.000	0.106	-0.386
-664.003	-200.000	-0.014	-0.095
-662.989	171.834	-0.156	-0.229
-661.974	-107.182	-0.249	-0.056
-660.959	-1.504	-0.163	0.117
-659.945	-13.444	-0.284	-0.188
-658.930	-59.751	-0.248	-0.108
-657.916	199.704	0.145	0.228
-656.901	618.922	0.143	0.366
-655.886	1.604	-0.121	-0.089
-654.872	-103.733	0.536	0.128
-653.857	288.842	-0.111	0.205
-652.843	-93.380	0.139	-0.039
-651.828	-49.659	-0.082	0.040
-650.814	152.942	0.066	-0.092
-649.799	800.000	0.056	-0.231
-648.784	-38.142	-0.217	-0.118
-647.770	-42.989	0.482	-0.249
-646.755	111.482	0.111	0.136
-645.741	-200.000	0.009	0.231
-644.726	-41.304	-0.187	0.098
-643.711	301.411	0.115	-0.217
-642.697	150.088	0.105	-0.145
-641.682	174.712	0.125	0.185
-640.668	-1.810	0.050	0.036
-639.653	-200.000	-0.025	-0.440
-638.638	124.528	-0.175	-0.225
-637.624	20.596	0.102	0.085
-636.609	800.000	0.048	0.192
-635.595	-153.099	-0.329	-0.024
-634.580	-138.998	-0.245	0.027
-633.565	800.000	0.050	0.182
-632.551	286.451	-0.086	0.159
-631.536	-13.965	-0.273	-0.180
-630.522	800.000	-0.039	0.165
-629.507	-43.174	-0.248	-0.128
-628.492	-200.000	-0.017	-0.085
-627.478	60.012	-0.128	0.129
-626.463	35.194	-0.206	0.184
-625.449	-72.386	-0.150	-0.057
-624.434	21.407	-0.276	-0.229
-623.419	-26.492	-0.102	0.061
-622.405	12.158	0.113	0.089
-621.390	800.000	0.051	-0.204
-620.376	800.000	-0.066	-0.187
-619.361	-101.533	-0.239	-0.059
-618.346	53.071	0.094	-0.092
-617.332	-200.000	-0.059	-0.267
-616.317	-200.000	0.008	0.128
-615.303	-200.000	0.011	0.059
-614.288	-61.646	0.258	-0.110
-613.273	98.098	-0.108	0.126
-612.259	2.827	0.227	-0.168
-611.244	120.568	0.131	0.166
-610.230	-34.520	0.129	0.072
-609.215	260.661	-0.051	0.090
-608.201	799.968	-0.092	-0.259
-607.186	-200.000	-0.007	-0.149
-606.171	800.000	0.037	0.148
-605.157	498.538	-0.043	-0.101
-604.142	-200.000	-0.022	0.140
-603.128	-11.421	0.162	0.108
-602.113	82.768	0.134	-0.148
-601.098	38.841	0.135	-0.123
-600.084	800.000	0.081	-0.306
-599.069	-78.193	0.221	0.077
-598.055	136.113	-0.157	-0.208
-597.040	-200.000	0.008	-0.201
-596.025	-200.000	-0.048	-0.229
-595.011	-72.010	-0.212	-0.080
-593.996	105.265	0.128	-0.154
-592.982	1.494	-0.063	-0.046
-591.967	-200.000	0.002	-0.033
-590.952	664.844	-0.031	-0.081
-589.938	-141.389	-0.249	-0.026
-588.923	-42.506	-0.022	-0.012
-587.909	-200.000	-0.000	-0.054
-586.894	-193.455	-0.061	-0.001
-585.879	-67.386	0.254	-0.102
-584.865	-200.000	-0.044	-0.333
-583.850	-32.352	0.201	0.114
-582.836	-17.430	-0.162	-0.104
-581.821	-200.000	-0.003	-0.375
-580.806	-90.360	-0.184	0.054
-579.792	-200.000	0.046	0.279
-578.777	-83.324	-0.273	0.089
-577.763	800.000	-0.042	-0.159
-576.748	-200.000	-0.056	-0.264
-575.733	-90.649	-0.116	0.034
-574.719	800.000	0.017	-0.048
-573.704	800.000	-0.061	-0.247
-572.690	132.260	0.128	0.167
-571.675	-200.000	-0.030	-0.224
-570.661	302.211	-0.178	-0.335
-569.646	-200.000	-0.030	-0.261
-568.631	-26.109	0.333	-0.199
-567.617	800.000	-0.034	-0.136
-566.602	730.410	0.099	0.268
-565.588	77.560	-0.147	-0.159
-564.573	-96.723	0.276	-0.074
-563.558	-103.844	0.080	0.019
-562.544	377.906	0.071	-0.148
-561.529	-200.000	0.072	-0.361
-560.515	488.130	0.057	0.132
-559.500	-135.449	-0.330	0.040
-558.485	-200.000	0.044	-0.227
-557.471	268.202	0.131	0.233
-556.456	-124.327	-0.236	0.037
-555.442	717.798	0.020	-0.053
-554.427	263.136	-0.128	-0.226
-553.412	56.239	0.242	0.239
-552.398	-200.000	-0.042	0.191
-551.383	79.030	0.202	0.221
-550.369	-156.212	0.289	0.018
-549.354	-118.657	-0.133	0.024
-548.339	-200.000	0.027	0.272
-547.325	128.760	0.207	0.269
-546.310	800.000	-0.091	-0.314
-545.296	800.000	-0.058	0.213
-544.281	106.326	-0.284	0.342
-543.266	800.000	0.050	0.145
-542.252	129.981	-0.079	0.103
-541.237	-200.000	0.006	-0.112
-540.223	-27.870	0.190	-0.112
-539.208	-69.108	0.109	-0.043
-538.193	381.288	0.033	-0.070
-537.179	150.358	-0.044	-0.061
-536.164	-133.937	0.325	0.041
-535.150	93.644	0.067	-0.077
-534.135	117.491	0.165	0.207
-533.121	-41.729	0.336	0.175
-532.106	25.964	-0.193	-0.163
-531.091	-200.000	0.015	0.203
-530.077	204.708	-0.137	0.216
-529.062	55.276	-0.212	-0.208
-528.048	167.162	0.144	-0.208
-527.033	229.631	0.047	0.077
-526.018	800.000	0.021	-0.076
-525.004	-200.000	-0.060	0.372
-523.989	-101.420	0.137	0.034
-522.975	380.950	-0.144	0.300
-521.960	59.642	-0.079	-0.079
-520.945	205.671	-0.101	-0.160
-519.931	800.000	0.020	0.082
-518.916	700.458	-0.052	-0.139
-517.902	164.941	0.061	0.087
-516.887	-17.673	-0.201	-0.128
-515.872	-101.292	-0.405	-0.100
-514.858	111.034	0.240	-0.294
-513.843	549.383	0.009	-0.023
-512.829	-164.174	-0.181	-0.008
-511.814	210.882	0.112	-0.179
-510.799	-58.160	-0.154	0.068
-509.785	-8.076	-0.039	-0.027
-508.770	683.124	0.054	0.144
-507.756	260.259	0.059	0.103
-506.741	28.112	0.219	0.188
-505.726	-113.159	0.187	-0.037
-504.712	44.313	-0.176	-0.164
-503.697	-200.000	-0.044	0.197
-502.683	-21.259	0.046	-0.028
-501.668	161.619	-0.076	-0.108
-500.653	-147.586	0.088	0.008
-499.639	18.129	-0.177	-0.143
-498.624	800.000	-0.029	0.094
-497.610	62.980	-0.158	-0.160
-496.595	246.024	0.055	-0.095
-495.581	209.540	0.181	0.288
-494.566	-175.258	0.160	-0.004
-493.551	-149.032	-0.022	0.002
-492.537	-72.414	-0.174	-0.065
-491.522	651.208	-0.145	0.378
-490.508	-34.641	0.183	-0.102
-489.493	-86.245	-0.199	0.062
-488.478	45.477	0.136	-0.127
-487.464	-63.106	0.114	-0.048
-486.449	80.276	0.237	0.259
-485.435	-200.000	-0.004	-0.051
-484.420	800.000	0.051	-0.210
-483.405	15.016	0.138	0.110
-482.391	344.902	-0.041	-0.081
-481.376	21.490	-0.180	0.148
-480.362	-148.314	0.122	0.010
-479.347	-200.000	0.008	0.432
-478.332	110.929	-0.067	0.082
-477.318	-200.000	-0.044	0.224
-476.303	800.000	0.101	0.349
-475.289	-30.710	-0.247	-0.142
-474.274	-55.467	-0.137	-0.062
-473.259	-200.000	-0.001	0.124
-472.245	322.602	-0.195	0.377
-471.230	766.378	-0.170	-0.469
-470.216	-138.457	0.157	-0.018
-469.201	-200.000	-0.019	0.086
-468.186	-200.000	-0.002	0.235
-467.172	28.786	-0.268	-0.230
-466.157	252.915	0.086	-0.149
-465.143	-146.521	-0.119	-0.010
-464.128	13.743	0.104	-0.082
-463.113	194.488	-0.117	0.180
-462.099	800.000	0.088	0.293
-461.084	-112.965	-0.078	0.016
-460.070	-99.680	-0.063	-0.016
-459.055	-165.303	0.331	0.015
-458.040	800.000	0.061	0.261
-457.026	-151.936	0.176	-0.013
-456.011	-90.757	-0.235	0.069
-454.997	-62.500	0.082	-0.035
-453.982	294.875	0.155	0.287
-452.968	800.000	0.104	0.363
-451.953	452.790	0.066	0.148
-450.938	-200.000	-0.003	0.245
-449.924	-200.000	0.002	-0.086
-448.909	121.927	-0.029	-0.037
-447.895	-127.432	-0.306	0.045
-446.880	118.625	0.092	0.115
-445.865	800.000	0.072	0.223
-444.851	13.934	0.370	0.292
-443.836	-124.081	0.104	-0.017
-442.822	-118.303	-0.200	-0.036
-441.807	-20.668	0.215	0.134
-440.792	-33.070	-0.040	0.022
-439.778	562.105	0.041	-0.100
-438.763	-42.521	-0.041	-0.021
-437.749	800.000	0.081	0.263
-436.734	491.603	-0.069	0.160
-435.719	-56.344	-0.125	-0.056
-434.705	-59.312	-0.160	-0.070
-433.690	-150.205	0.166	0.013
-432.676	81.570	0.099	-0.108
-431.661	11.061	0.146	-0.113
-430.646	-200.000	0.025	0.246
-429.632	-86.321	-0.182	-0.057
-428.617	-200.000	-0.048	-0.316
-427.603	-19.768	0.163	-0.102
-426.588	373.159	0.017	-0.035
-425.573	421.588	0.122	0.264
-424.559	-200.000	-0.002	-0.266
-423.544	-81.165	-0.426	0.143
-422.530	800.000	-0.007	-0.021
-421.515	800.000	-0.021	-0.085
-420.500	216.879	0.053	-0.085
-419.486	607.006	0.085	0.215
-418.471	-4.077	0.235	0.165
-417.457	-174.720	0.141	-0.004
-416.442	212.274	-0.087	-0.139
-415.428	-84.451	-0.290	-0.093
-414.413	721.959	0.084	-0.227
-413.398	22.823	0.116	0.096
-412.384	5.665	-0.096	0.072
-411.369	297.717	0.079	-0.147
-410.355	13.446	-0.199	0.156
-409.340	253.527	-0.140	-0.241
-408.325	-200.000	0.032	-0.147
-407.311	800.000	-0.054	0.161
-406.296	-153.778	-0.168	0.012
-405.282	94.305	0.104	-0.120
-404.267	-46.611	0.118	0.058
-403.252	-120.548	0.148	-0.025
-402.238	472.186	0.009	-0.021
-401.223	-200.000	-0.003	-0.141
-400.209	-70.814	-0.191	-0.073
-399.194	102.813	0.180	-0.213
-398.179	-102.677	0.457	0.110
-397.165	315.006	0.060	-0.114
-396.150	-122.916	0.029	0.005
-395.136	-109.577	-0.175	0.037
-394.121	-183.421	-0.020	0.000
-393.106	-97.832	0.204	0.053
-392.092	-200.000	0.027	0.166
-391.077	20.750	-0.250	-0.205
-390.063	-10.493	-0.036	0.024
-389.048	-66.728	0.267	-0.107
-388.033	-16.274	0.129	-0.083
-387.019	-200.000	0.048	0.536
-386.004	-192.245	0.129	0.001
-384.990	578.542	0.070	-0.172
-383.975	35.565	-0.022	-0.020
-382.960	62.249	-0.256	-0.258
-381.946	179.077	0.134	-0.199
-380.931	-200.000	-0.003	-0.173
-379.917	-22.676	0.306	-0.187
-378.902	-81.105	0.317	0.106
-377.888	-200.000	-0.091	0.404
-376.873	243.731	-0.169	-0.286
-375.858	-200.000	0.011	-0.123
-374.844	8.328	0.277	-0.210
-373.829	-10.310	-0.147	-0.099
-372.815	-30.793	0.030	0.017
-371.800	-200.000	0.009	-0.183
-370.785	42.625	-0.064	0.059
-369.771	230.051	-0.239	0.395
-368.756	-140.630	0.156	0.016
-367.742	800.000	-0.079	0.294
-366.727	-108.705	0.231	-0.050
-365.712	-42.849	0.056	-0.029
-364.698	34.085	-0.405	0.357
-363.683	-79.671	-0.172	0.059
-362.669	-82.628	0.483	0.158
-361.654	-2.049	-0.034	0.024
-360.639	-72.736	-0.241	-0.090
-359.625	3.885	-0.406	-0.299
-358.610	144.354	0.258	0.348
-357.596	-66.453	0.238	0.096
-356.581	370.713	0.079	-0.162
-355.566	-68.801	-0.139	-0.054
-354.552	-200.000	0.011	0.278
-353.537	1.119	0.267	-0.193
-352.523	239.763	-0.048	0.080
-351.508	341.343	-0.147	0.289
-350.493	207.090	0.125	-0.197
-349.479	-154.219	-0.073	-0.005
-348.464	-26.114	-0.128	-0.076
-347.450	-84.044	-0.204	0.065
-346.435	7.185	0.242	0.182
-345.420	-200.000	0.017	0.284
-344.406	502.469	-0.030	0.069
-343.391	-54.991	-0.297	0.135
-342.377	-87.513	0.067	0.020
-341.362	-90.461	-0.366	-0.107
-340.348	530.277	0.058	-0.139
-339.333	800.000	-0.020	-0.076
-338.318	-200.000	-0.005	-0.068
-337.304	9.302	-0.242	-0.184
-336.289	-52.672	0.223	-0.104
-335.275	-141.544	-0.286	0.029
-334.260	10.642	0.114	0.088
-333.245	121.945	-0.040	0.050
-332.231	-40.217	-0.419	0.220
-331.216	223.276	-0.031	-0.051
-330.202	-99.602	0.311	0.079
-329.187	143.721	0.154	0.207
-328.172	-105.690	0.178	-0.041
-327.158	89.030	0.182	-0.204
-326.143	617.397	0.118	0.299
-325.129	-200.000	0.004	-0.284
-324.114	800.000	-0.040	-0.125
-323.099	330.955	-0.071	-0.137
-322.085	613.832	0.144	-0.364
-321.070	800.000	0.047	-0.131
-320.056	-104.073	0.078	0.018
-319.041	-50.788	-0.097	0.046
-318.026	800.000	0.045	0.146
-317.012	-26.441	-0.089	-0.053
-315.997	758.312	0.091	0.249
-314.983	-18.377	0.125	-0.079
-313.968	-121.225	0.333	-0.056
-312.953	-54.467	-0.239	0.109
-311.939	-137.083	0.127	0.015
-310.924	-83.908	-0.042	-0.013
-309.910	-133.214	0.236	-0.030
-308.895	-200.000	0.059	-0.461
-307.880	-121.320	-0.097	-0.016
-306.866	187.720	0.243	0.365
-305.851	24.510	0.063	-0.053
-304.837	-107.768	0.546	0.120
-303.822	-115.150	0.204	0.039
-302.807	68.533	-0.132	-0.136
-301.793	-106.729	0.152	-0.034
-300.778	25.154	-0.393	0.328
-299.764	175.243	-0.193	-0.281
-298.749	229.814	-0.147	0.242
-297.735	-122.493	0.172	-0.028
-296.720	725.126	0.112	-0.302
-295.705	-14.062	-0.172	-0.112
-294.691	-40.548	-0.466	-0.244
-293.676	-19.613	0.081	0.050
-292.662	-147.565	-0.404	-0.034
-291.647	-54.828	0.143	-0.065
-290.632	96.873	-0.274	0.316
-289.618	-110.180	-0.250	0.053
-288.603	2.293	0.279	0.203
-287.589	-14.497	-0.375	-0.243
-286.574	18.453	0.048	-0.038
-285.559	-22.327	0.189	0.115
-284.545	-57.991	0.270	-0.119
-283.530	199.944	0.115	-0.178
-282.516	32.727	-0.243	0.211
-281.501	800.000	-0.049	-0.203
-280.486	800.000	0.121	0.469
-279.472	33.783	-0.078	-0.068
-278.457	43.912	-0.126	0.116
-277.443	-32.066	0.186	0.105
-276.428	132.726	-0.172	0.224
-275.413	-200.000	0.015	-0.273
-274.399	181.905	0.066	-0.097
-273.384	-200.000	-0.035	-0.156
-272.370	517.379	-0.086	-0.203
-271.355	-11.116	-0.123	-0.082
-270.340	64.785	0.276	-0.280
-269.326	-25.903	-0.157	0.093
-268.311	-200.000	0.003	0.118
-267.297	-200.000	0.026	0.510
-266.282	-29.473	0.110	-0.064
-265.267	29.872	-0.261	0.223
-264.253	4.225	-0.218	0.160
-263.238	-200.000	-0.002	0.223
-262.224	-155.250	0.135	-0.009
-261.209	-52.141	-0.225	0.105
-260.195	-5.929	0.206	-0.142
-259.180	106.241	-0.313	0.373
-258.165	800.000	-0.115	0.381
-257.151	800.000	-0.050	0.189
-256.136	86.638	0.201	0.223
-255.122	-175.347	-0.190	-0.005
-254.107	470.430	-0.037	-0.085
-253.092	800.000	0.051	0.177
-252.078	-138.353	-0.082	-0.009
-251.063	-26.938	-0.183	-0.108
-250.049	-200.000	0.023	0.123
-249.034	-76.647	0.158	-0.056
-248.019	-44.444	-0.143	-0.072
-247.005	154.171	0.105	0.145
-245.990	-67.138	-0.121	0.048
-244.976	-200.000	0.028	-0.234
-243.961	-200.000	-0.001	-0.041
-242.946	-69.175	-0.101	0.039
-241.932	-47.431	0.185	-0.090
-240.917	-178.539	-0.402	0.009
-239.903	-200.000	0.012	-0.204
-238.888	-89.019	-0.336	-0.100
-237.873	127.697	0.190	-0.242
-236.859	89.896	0.154	-0.173
-235.844	-194.756	0.145	-0.001
-234.830	-200.000	0.020	0.165
-233.815	408.093	-0.045	-0.095
-232.800	153.674	0.167	-0.230
-231.786	-200.000	0.010	-0.153
-230.771	-200.000	0.004	0.259
-229.757	-10.333	0.107	-0.071
-228.742	800.000	-0.054	-0.196
-227.727	-73.839	-0.173	-0.063
-226.713	59.514	-0.204	-0.202
-225.698	-200.000	-0.002	-0.093
-224.684	-56.886	0.058	-0.026
-223.669	-200.000	0.010	-0.100
-222.655	-87.740	-0.148	0.045
-221.640	-134.408	0.284	0.035
-220.625	182.630	-0.144	0.213
-219.611	-200.000	0.053	0.293
-218.596	-150.957	0.143	0.011
-217.582	-71.683	0.143	-0.054
-216.567	-15.538	-0.064	0.041
-215.552	-76.585	-0.243	-0.086
-214.538	236.032	0.155	-0.257
-213.523	-152.662	0.356	-0.025
-212.509	186.378	-0.071	-0.105
-211.494	-62.087	0.148	0.062
-210.479	-26.030	-0.156	-0.092
-209.465	-142.498	-0.198	-0.020
-208.450	800.000	-0.120	0.343
-207.436	27.864	-0.153	0.130
-206.421	-200.000	-0.001	-0.100
-205.406	-47.495	0.209	0.102
-204.392	-137.721	-0.257	0.029
-203.377	-200.000	-0.003	-0.146
-202.363	800.000	-0.071	-0.197
-201.348	-135.031	0.294	-0.036
-200.333	-200.000	-0.007	0.602
-199.319	640.300	-0.090	-0.231
-198.304	319.458	-0.068	0.130
-197.290	-115.959	0.118	-0.022
-196.275	63.281	-0.080	0.081
-195.260	-12.069	0.219	0.144
-194.246	-74.960	-0.161	0.058
-193.231	87.736	0.227	-0.253
-192.217	800.000	0.091	0.383
-191.202	800.000	-0.062	0.197
-190.187	-200.000	0.019	-0.316
-189.173	9.524	0.071	-0.054
-188.158	21.876	0.057	-0.047
-187.144	-200.000	-0.020	0.152
-186.129	-200.000	-0.002	-0.175
-185.114	-200.000	0.008	0.224
-184.100	-200.000	-0.036	-0.512
-183.085	172.336	0.079	-0.113
-182.071	-200.000	-0.008	0.051
-181.056	-75.014	0.142	0.051
-180.042	176.156	-0.052	0.075
-179.027	800.000	-0.021	0.077
-178.012	-200.000	-0.007	0.240
-176.998	472.331	-0.083	0.188
-175.983	112.205	0.012	-0.014
-174.969	152.626	0.240	0.329
-173.954	-104.710	0.128	-0.030
-172.939	116.641	0.053	-0.065
-171.925	-2.860	-0.097	-0.068
-170.910	800.000	-0.021	-0.091
-169.896	448.557	-0.142	0.313
-168.881	125.908	-0.104	0.131
-167.866	-200.000	0.057	-0.303
-166.852	-200.000	-0.037	0.199
-165.837	-71.714	-0.167	0.062
-164.823	161.719	0.226	-0.317
-163.808	89.492	0.115	0.128
-162.793	494.145	0.042	-0.095
-161.779	280.915	0.110	-0.197
-160.764	-200.000	0.032	-0.246
-159.750	374.548	-0.079	0.161
-158.735	-200.000	0.038	0.427
-157.720	57.015	-0.361	-0.353
-156.706	-120.145	0.283	-0.049
-155.691	153.889	-0.167	-0.229
-154.677	-45.108	0.347	-0.173
-153.662	25.312	-0.202	-0.168
-152.647	117.583	0.189	0.232
-151.633	-144.249	-0.317	-0.030
-150.618	357.158	0.151	-0.301
-149.604	1.592	0.296	-0.213
-148.589	-35.216	-0.226	-0.123
-147.574	-59.203	0.126	-0.055
-146.560	-200.000	-0.040	-0.251
-145.545	66.214	0.135	-0.137
-144.531	465.711	-0.073	-0.163
-143.516	800.000	0.063	-0.179
-142.502	800.000	-0.105	-0.444
-141.487	800.000	-0.052	0.188
-140.472	114.703	0.159	0.194
-139.458	-9.475	0.283	0.189
-138.443	333.886	0.093	0.179
-137.429	-200.000	-0.011	-0.160
-136.414	170.154	-0.068	0.097
-135.399	129.127	-0.095	0.121
-134.385	105.843	-0.091	-0.108
-133.370	-106.025	-0.218	-0.049
-132.356	-32.584	0.232	-0.129
-131.341	143.053	-0.279	0.371
-130.326	14.553	-0.122	0.096
-129.312	194.253	-0.120	0.182
-128.297	-115.271	-0.088	-0.017
-127.283	170.422	0.129	0.185
-126.268	49.382	-0.038	0.036
-125.253	56.074	-0.235	0.228
-124.239	-187.186	0.279	-0.004
-123.224	-200.000	0.007	0.032
-122.210	44.581	-0.110	-0.101
