DTS Sentinel unit serial number:	SN413079Multiplexer serial number:	ORYXHardware model number:	OX4-SRSoftware version number:	ORYX F/W v4.00 Oryx Data Collector v3.7.2.0data status	okinstallation	princeton_trtdifferential loss correction	single-endedforward channel	channel 2reverse channel	N/Adate	2019/09/18time	16:15:35forward acquisition time	60.00reverse acquisition time	0.00gamma	496.2192k internal	0.2302k external	0.2302temperature offset calibration	1.0006default loss term (dB/km)	0.3790temperature slope calibration	1.0000multiplexer offset coefficient	1.0000multiplexer slope coefficient	1.0000fibre end	0.00T internal ref (°C)	38.42T ext. ref 1 (°C)	0.83T ext. ref 2 (°C)	36.67length (m)	temperature (°C)	Stokes	anti-Stokes-747.200	-98.826	-0.042	0.011
-746.185	-200.000	0.009	0.243
-745.171	-127.182	0.102	-0.015
-744.156	-200.000	0.012	0.435
-743.142	-55.577	0.342	0.156
-742.127	-200.000	-0.020	0.286
-741.112	-90.509	-0.286	0.084
-740.098	169.802	-0.279	0.406
-739.083	100.317	-0.150	-0.177
-738.069	-200.000	0.031	0.204
-737.054	-6.157	-0.054	0.038
-736.039	78.776	-0.096	0.105
-735.025	72.647	0.182	-0.193
-734.010	-4.363	-0.212	0.150
-732.996	800.000	-0.063	-0.179
-731.981	-2.513	0.133	-0.095
-730.966	312.839	-0.070	-0.135
-729.952	422.177	-0.089	0.194
-728.937	24.962	0.142	0.120
-727.923	-124.920	-0.334	0.052
-726.908	-89.782	-0.117	0.035
-725.894	-86.849	0.225	0.070
-724.879	-135.037	-0.293	-0.036
-723.864	364.597	-0.030	-0.061
-722.850	-117.508	-0.153	-0.028
-721.835	23.590	0.162	0.136
-720.821	-84.678	-0.228	-0.073
-719.806	-135.577	-0.149	0.018
-718.791	-200.000	0.020	-0.220
-717.777	157.670	0.129	0.181
-716.762	-200.000	0.005	0.081
-715.748	24.935	0.164	0.138
-714.733	-200.000	0.051	-0.323
-713.718	-34.086	-0.391	0.219
-712.704	800.000	0.041	0.144
-711.689	-200.000	-0.029	-0.213
-710.675	77.430	-0.173	0.188
-709.660	-160.888	0.207	-0.011
-708.645	-200.000	0.014	-0.191
-707.631	-78.068	-0.200	-0.070
-706.616	-151.291	-0.286	0.022
-705.602	-31.574	-0.035	0.020
-704.587	275.594	0.155	0.280
-703.572	62.054	-0.399	0.405
-702.558	-110.505	-0.300	0.063
-701.543	277.565	0.037	-0.068
-700.529	564.021	-0.122	-0.301
-699.514	-34.550	0.124	-0.069
-698.499	-60.036	0.208	-0.090
-697.485	47.859	0.108	-0.103
-696.470	-200.000	-0.005	0.179
-695.456	11.638	0.198	-0.154
-694.441	-36.398	0.142	0.078
-693.426	42.461	0.019	0.018
-692.412	-65.594	-0.078	0.032
-691.397	126.155	0.040	-0.052
-690.383	38.947	-0.165	-0.150
-689.368	-155.104	-0.177	0.012
-688.354	425.645	0.050	-0.109
-687.339	7.416	0.247	0.188
-686.324	-2.471	-0.207	-0.147
-685.310	441.132	0.086	-0.191
-684.295	-15.220	-0.092	0.060
-683.281	506.488	-0.222	0.522
-682.266	85.470	0.341	0.381
-681.251	800.000	-0.092	0.338
-680.237	-200.000	-0.012	0.277
-679.222	71.163	0.092	-0.097
-678.208	-115.135	-0.275	0.053
-677.193	-27.672	0.131	0.077
-676.178	-47.554	0.147	-0.072
-675.164	-90.367	0.177	0.052
-674.149	223.927	0.161	0.264
-673.135	-3.156	0.265	0.188
-672.120	800.000	0.085	0.274
-671.105	517.636	-0.091	0.216
-670.091	-200.000	-0.006	0.252
-669.076	4.186	-0.065	0.049
-668.062	-8.240	-0.043	-0.030
-667.047	372.425	0.164	0.338
-666.032	-8.285	-0.246	0.168
-665.018	-151.329	-0.330	0.025
-664.003	290.713	-0.039	0.073
-662.989	-25.568	-0.096	0.057
-661.974	-79.292	0.219	-0.075
-660.959	-129.313	0.072	-0.010
-659.945	-33.054	-0.131	-0.074
-658.930	-20.687	0.179	0.112
-657.916	661.143	-0.053	-0.139
-656.901	603.519	-0.058	0.146
-655.886	6.221	0.217	0.163
-654.872	392.986	0.061	0.128
-653.857	164.904	0.168	0.241
-652.843	84.480	-0.112	-0.124
-651.828	-200.000	0.029	0.143
-650.814	800.000	-0.021	0.091
-649.799	-200.000	-0.006	0.157
-648.784	92.093	-0.225	-0.258
-647.770	248.116	-0.083	-0.143
-646.755	299.763	0.154	-0.288
-645.741	36.542	-0.188	0.168
-644.726	-152.629	-0.348	-0.025
-643.711	-30.949	0.153	-0.088
-642.697	154.413	0.260	-0.362
-641.682	-87.447	0.271	0.083
-640.668	25.580	0.223	0.188
-639.653	-200.000	-0.019	-0.273
-638.638	86.533	0.116	-0.130
-637.624	35.869	0.383	-0.342
-636.609	-83.479	-0.380	0.124
-635.595	-128.085	-0.117	-0.017
-634.580	-56.839	0.064	-0.029
-633.565	315.323	0.057	-0.109
-632.551	11.480	-0.125	0.097
-631.536	32.081	-0.093	0.081
-630.522	-200.000	0.001	-0.258
-629.507	-53.497	-0.137	-0.063
-628.492	-200.000	-0.016	0.597
-627.478	-75.872	0.215	-0.077
-626.463	-122.214	0.146	-0.024
-625.449	800.000	0.027	0.110
-624.434	76.519	0.070	-0.075
-623.419	-103.419	-0.209	0.050
-622.405	21.875	0.341	-0.282
-621.390	-72.973	0.274	0.102
-620.376	83.082	0.171	-0.189
-619.361	480.932	0.111	0.255
-618.346	47.300	-0.325	-0.307
-617.332	89.859	0.118	0.133
-616.317	-200.000	-0.004	0.225
-615.303	-134.354	-0.475	0.059
-614.288	-10.718	-0.173	0.116
-613.273	53.601	-0.067	-0.065
-612.259	97.563	0.248	0.288
-611.244	75.558	-0.046	-0.049
-610.230	-19.401	0.192	-0.121
-609.215	-200.000	0.043	-0.194
-608.201	192.609	0.193	-0.296
-607.186	81.651	0.089	0.098
-606.171	-200.000	0.286	0.000
-605.157	-116.078	0.109	-0.021
-604.142	-200.000	0.012	-0.094
-603.128	79.324	-0.222	0.242
-602.113	776.940	-0.104	0.287
-601.098	-200.000	-0.019	-0.186
-600.084	631.071	-0.081	-0.207
-599.069	-18.554	0.065	0.041
-598.055	511.502	-0.074	-0.174
-597.040	800.000	-0.026	-0.076
-596.025	111.080	0.042	0.051
-595.011	800.000	-0.045	-0.186
-593.996	-160.098	-0.490	-0.027
-592.982	81.321	-0.255	-0.279
-591.967	-178.287	0.086	-0.002
-590.952	40.962	0.134	0.122
-589.938	-185.907	-0.220	0.003
-588.923	-200.000	-0.013	-0.168
-587.909	-200.000	0.011	-0.207
-586.894	226.090	-0.053	-0.087
-585.879	-70.810	-0.277	-0.106
-584.865	-200.000	-0.006	-0.100
-583.850	-200.000	-0.004	0.238
-582.836	-96.463	0.352	0.094
-581.821	-127.281	-0.133	0.020
-580.806	-200.000	0.020	0.138
-579.792	-74.476	-0.362	-0.132
-578.777	23.708	-0.261	0.218
-577.763	800.000	-0.045	0.177
-576.748	-47.268	-0.192	0.095
-575.733	-185.205	-0.163	0.003
-574.719	130.046	0.067	0.087
-573.704	-73.656	0.173	0.064
-572.690	-58.943	0.165	-0.072
-571.675	136.811	0.051	-0.067
-570.661	159.228	-0.084	0.118
-569.646	-60.111	0.094	0.041
-568.631	-67.460	0.230	-0.092
-567.617	-13.557	0.065	0.043
-566.602	-56.743	-0.766	-0.343
-565.588	182.641	-0.152	-0.227
-564.573	708.128	0.066	-0.176
-563.558	39.443	0.168	-0.152
-562.544	-123.774	-0.129	-0.021
-561.529	-26.029	0.126	-0.075
-560.515	416.781	0.062	-0.134
-559.500	-71.717	-0.200	-0.075
-558.485	-155.930	-0.417	-0.027
-557.471	800.000	-0.071	0.218
-556.456	69.212	-0.216	0.224
-555.442	-10.530	-0.048	-0.032
-554.427	-130.045	0.245	0.034
-553.412	-200.000	0.032	0.239
-552.398	-200.000	0.050	0.243
-551.383	-45.695	-0.156	-0.078
-550.369	311.390	-0.173	-0.329
-549.354	-85.574	-0.192	-0.060
-548.339	800.000	0.035	-0.121
-547.325	800.000	0.060	-0.193
-546.310	204.055	-0.107	-0.168
-545.296	-200.000	0.015	0.075
-544.281	38.198	0.101	0.091
-543.266	-36.554	0.231	-0.126
-542.252	-155.118	-0.223	0.015
-541.237	-22.073	-0.278	0.171
-540.223	-130.561	-0.170	0.023
-539.208	-27.918	0.126	0.074
-538.193	10.089	-0.128	0.098
-537.179	-200.000	0.012	-0.284
-536.164	800.000	0.012	-0.046
-535.150	-200.000	-0.003	-0.269
-534.135	-200.000	0.020	0.158
-533.121	-24.936	-0.097	-0.058
-532.106	-53.716	0.194	0.089
-531.091	-138.107	-0.156	-0.017
-530.077	-169.897	-0.125	0.005
-529.062	-200.000	0.037	-0.292
-528.048	362.571	-0.027	0.055
-527.033	-200.000	-0.046	-0.276
-526.018	-140.171	0.239	-0.025
-525.004	-10.186	-0.245	0.165
-523.989	346.995	-0.038	-0.075
-522.975	136.562	-0.199	-0.262
-521.960	-200.000	-0.008	-0.207
-520.945	-200.000	0.053	-0.257
-519.931	334.230	0.071	-0.139
-518.916	490.780	0.039	0.090
-517.902	-200.000	-0.011	-0.072
-516.887	2.224	0.159	-0.116
-515.872	45.047	0.021	0.020
-514.858	100.062	-0.204	0.239
-513.843	24.681	0.025	-0.021
-512.829	28.731	-0.084	0.072
-511.814	75.553	-0.024	-0.026
-510.799	-200.000	0.009	0.104
-509.785	-26.897	-0.222	0.131
-508.770	-193.099	0.078	-0.001
-507.756	-53.670	-0.126	0.058
-506.741	-0.974	-0.137	-0.098
-505.726	-200.000	0.039	-0.362
-504.712	264.383	-0.259	-0.456
-503.697	74.710	0.129	0.137
-502.683	-119.950	0.262	0.045
-501.668	-200.000	0.021	0.155
-500.653	629.080	-0.040	0.102
-499.639	-22.093	-0.103	0.063
-498.624	-200.000	0.006	0.106
-497.610	-59.971	-0.273	-0.118
-496.595	98.067	0.039	-0.045
-495.581	46.712	0.346	0.325
-494.566	-16.423	0.230	0.147
-493.551	53.471	-0.126	-0.122
-492.537	-200.000	0.026	-0.206
-491.522	246.970	0.062	-0.105
-490.508	254.793	0.022	0.039
-489.493	-129.899	-0.273	-0.038
-488.478	285.712	-0.087	-0.159
-487.464	-200.000	0.049	-0.351
-486.449	387.438	0.066	0.137
-485.435	21.301	-0.017	0.014
-484.420	-167.529	0.340	0.014
-483.405	-57.475	-0.053	0.023
-482.391	-130.561	-0.295	0.040
-481.376	-154.921	-0.115	0.008
-480.362	-8.457	-0.152	0.103
-479.347	-52.940	-0.136	-0.063
-478.332	-174.282	0.095	-0.003
-477.318	684.544	-0.037	0.097
-476.303	-200.000	0.001	0.022
-475.289	-151.195	-0.127	0.010
-474.274	-200.000	0.035	0.378
-473.259	-143.394	0.145	0.014
-472.245	-59.537	-0.267	-0.116
-471.230	186.811	0.061	-0.092
-470.216	-200.000	0.017	0.139
-469.201	-168.258	-0.082	0.003
-468.186	-80.228	0.170	-0.057
-467.172	-200.000	-0.039	-0.277
-466.157	-109.570	0.137	-0.029
-465.143	344.773	-0.118	0.233
-464.128	800.000	0.036	-0.120
-463.113	800.000	-0.031	-0.130
-462.099	-16.590	0.395	-0.252
-461.084	187.869	0.122	0.183
-460.070	474.338	-0.079	-0.179
-459.055	800.000	0.039	0.135
-458.040	-27.386	-0.127	0.074
-457.026	152.447	-0.172	0.237
-456.011	-57.632	-0.132	-0.058
-454.997	-72.625	0.308	0.114
-453.982	208.264	-0.045	-0.071
-452.968	800.000	-0.085	0.292
-451.953	-95.655	0.130	-0.035
-450.938	-118.811	0.321	0.057
-449.924	177.240	-0.192	0.281
-448.909	200.026	-0.149	0.231
-447.895	-57.172	0.154	-0.068
-446.880	99.094	0.042	-0.049
-445.865	-20.128	-0.075	-0.046
-444.851	203.549	0.107	-0.167
-443.836	-200.000	0.001	-0.179
-442.822	-32.267	0.179	-0.101
-441.807	38.365	-0.086	0.077
-440.792	441.705	-0.172	-0.378
-439.778	-13.063	-0.008	0.005
-438.763	424.063	-0.068	0.148
-437.749	800.000	0.051	0.154
-436.734	-65.024	-0.242	0.098
-435.719	42.631	0.124	-0.113
-434.705	-200.000	0.019	0.180
-433.690	297.974	0.091	0.169
-432.676	-72.860	-0.092	-0.034
-431.661	18.273	0.311	-0.250
-430.646	550.682	-0.096	0.232
-429.632	20.683	0.159	0.129
-428.617	168.369	0.065	0.093
-427.603	800.000	-0.070	-0.277
-426.588	-200.000	0.003	-0.337
-425.573	-148.931	-0.130	0.011
-424.559	17.118	-0.140	-0.112
-423.544	-200.000	0.039	0.198
-422.530	800.000	-0.038	-0.131
-421.515	86.463	0.018	-0.020
-420.500	-46.001	0.145	-0.072
-419.486	343.654	-0.143	0.282
-418.471	-11.620	-0.126	0.083
-417.457	106.577	0.042	-0.050
-416.442	800.000	0.142	-0.398
-415.428	800.000	-0.060	-0.251
-414.413	-200.000	0.074	0.343
-413.398	68.088	0.190	0.196
-412.384	-39.583	-0.129	-0.068
-411.369	-200.000	-0.085	-0.000
-410.355	-164.321	-0.262	-0.012
-409.340	10.152	0.083	0.063
-408.325	-200.000	-0.052	0.284
-407.311	176.186	0.210	-0.307
-406.296	-114.808	0.198	-0.038
-405.282	-200.000	-0.038	0.296
-404.267	78.933	0.064	0.069
-403.252	72.780	0.102	0.107
-402.238	418.925	0.069	-0.149
-401.223	381.786	0.015	-0.030
-400.209	800.000	-0.067	-0.194
-399.194	-51.077	0.253	-0.120
-398.179	-200.000	0.005	0.400
-397.165	261.581	0.061	0.107
-396.150	341.400	-0.024	-0.048
-395.136	143.608	0.303	-0.405
-394.121	466.067	-0.039	-0.087
-393.106	-200.000	0.085	-0.408
-392.092	-0.321	-0.251	-0.180
-391.077	133.713	-0.186	0.242
-390.063	140.374	0.237	0.315
-389.048	84.821	-0.050	0.056
-388.033	38.253	-0.118	-0.105
-387.019	-52.935	-0.203	0.094
-386.004	-200.000	-0.006	-0.290
-384.990	-200.000	0.032	0.204
-383.975	123.714	0.160	-0.202
-382.960	37.310	0.162	0.145
-381.946	-93.710	-0.017	0.005
-380.931	121.771	0.075	0.094
-379.917	-200.000	-0.021	0.310
-378.902	-74.381	0.030	0.011
-377.888	373.906	0.085	0.175
-376.873	87.892	0.323	-0.360
-375.858	-29.769	0.066	-0.038
-374.844	110.910	0.173	-0.209
-373.829	3.883	-0.107	-0.078
-372.815	-65.987	-0.497	-0.199
-371.800	-85.803	-0.291	-0.091
-370.785	-90.569	0.174	-0.050
-369.771	800.000	-0.090	-0.312
-368.756	222.723	-0.074	0.119
-367.742	297.815	-0.023	0.042
-366.727	34.639	0.227	0.199
-365.712	-38.069	0.087	0.046
-364.698	757.691	0.045	-0.122
-363.683	-200.000	-0.029	-0.323
-362.669	1.946	0.347	0.251
-361.654	-200.000	-0.036	-0.219
-360.639	151.721	-0.175	-0.239
-359.625	-97.168	0.204	0.054
-358.610	552.176	0.116	0.280
-357.596	-5.061	-0.045	-0.031
-356.581	-37.603	-0.336	0.180
-355.566	157.560	-0.131	0.183
-354.552	118.151	0.081	0.101
-353.537	800.000	-0.046	0.147
-352.523	687.099	0.092	0.242
-351.508	-15.675	0.314	-0.201
-350.493	556.397	-0.082	-0.199
-349.479	-15.752	-0.159	-0.102
-348.464	800.000	0.046	-0.156
-347.450	-160.882	0.411	-0.022
-346.435	246.245	-0.045	-0.077
-345.420	25.710	0.440	0.368
-344.406	-200.000	-0.025	0.174
-343.391	-127.240	0.057	0.008
-342.377	10.417	0.172	0.131
-341.362	-44.272	0.219	-0.110
-340.348	-200.000	-0.035	0.232
-339.333	-158.220	-0.082	-0.005
-338.318	800.000	0.138	-0.400
-337.304	-42.914	-0.266	-0.136
-336.289	261.412	-0.186	0.322
-335.275	-21.817	0.108	-0.066
-334.260	800.000	-0.069	0.250
-333.245	-108.026	-0.028	0.006
-332.231	-32.915	0.226	-0.126
-331.216	-21.913	0.231	-0.141
-330.202	-200.000	0.032	0.265
-329.187	34.031	0.207	0.181
-328.172	-200.000	-0.072	0.324
-327.158	800.000	0.022	-0.076
-326.143	-113.334	0.210	-0.041
-325.129	-200.000	-0.047	0.265
-324.114	-200.000	0.013	-0.234
-323.099	264.869	0.107	0.188
-322.085	-42.869	0.286	0.145
-321.070	-36.269	-0.066	0.036
-320.056	800.000	0.054	0.177
-319.041	-67.927	-0.089	-0.035
-318.026	80.496	-0.072	0.077
-317.012	-169.906	-0.143	-0.005
-315.997	-104.112	0.065	-0.015
-314.983	-200.000	-0.003	-0.014
-313.968	119.226	-0.159	0.197
-312.953	-200.000	-0.096	0.471
-311.939	-118.498	0.032	-0.006
-310.924	29.909	0.174	0.148
-309.910	-146.853	0.417	-0.036
-308.895	217.771	0.174	-0.277
-307.880	86.957	0.162	-0.179
-306.866	-96.203	0.243	-0.065
-305.851	20.738	-0.323	0.262
-304.837	234.677	0.125	0.207
-303.822	64.563	-0.206	-0.208
-302.807	99.729	-0.083	-0.097
-301.793	-99.720	-0.218	0.055
-300.778	-195.875	0.177	-0.001
-299.764	-123.840	0.165	-0.026
-298.749	88.989	0.051	-0.056
-297.735	-200.000	-0.076	0.372
-296.720	272.321	0.031	0.055
-295.705	-200.000	0.002	0.381
-294.691	-32.358	0.123	0.069
-293.676	-200.000	-0.027	0.133
-292.662	-200.000	-0.081	0.430
-291.647	67.876	-0.308	-0.316
-290.632	-200.000	-0.002	0.057
-289.618	85.486	-0.108	-0.119
-288.603	-131.787	-0.367	0.048
-287.589	6.884	0.184	0.138
-286.574	263.319	-0.087	0.151
-285.559	0.229	-0.148	-0.106
-284.545	47.081	-0.295	0.275
-283.530	-95.571	0.203	-0.054
-282.516	-113.026	-0.351	-0.069
-281.501	9.945	-0.305	-0.232
-280.486	80.227	0.095	0.102
-279.472	-200.000	-0.028	0.372
-278.457	-200.000	-0.002	-0.098
-277.443	800.000	0.132	0.420
-276.428	-84.718	0.143	-0.045
-275.413	223.706	-0.151	0.245
-274.399	44.764	-0.316	0.291
-273.384	26.220	0.200	0.168
-272.370	-110.954	0.517	0.106
-271.355	-63.551	0.241	-0.099
-270.340	-200.000	0.037	-0.238
-269.326	59.742	0.233	0.230
-268.311	105.572	0.212	0.250
-267.297	90.151	0.127	0.142
-266.282	-133.016	-0.195	-0.025
-265.267	800.000	-0.116	-0.485
-264.253	-168.037	-0.219	0.009
-263.238	-14.590	-0.098	0.063
-262.224	-72.840	0.219	0.080
-261.209	-147.474	-0.351	-0.030
-260.195	576.980	0.052	-0.127
-259.180	-124.084	0.179	-0.028
-258.165	-29.589	0.145	0.083
-257.151	90.634	-0.116	0.129
-256.136	110.855	0.045	0.055
-255.122	80.818	0.283	-0.306
-254.107	-154.024	0.407	0.028
-253.092	111.142	-0.234	0.282
-252.078	-59.090	-0.089	0.039
-251.063	-126.705	-0.299	-0.044
-250.049	-68.267	-0.213	0.083
-249.034	-34.620	-0.045	-0.025
-248.019	-200.000	0.000	0.033
-247.005	800.000	0.034	-0.111
-245.990	-200.000	-0.007	0.165
-244.976	-200.000	-0.020	-0.185
-243.961	11.162	-0.133	0.101
-242.946	-200.000	-0.049	0.269
-241.932	365.662	0.094	-0.189
-240.917	-200.000	-0.058	0.315
-239.903	-20.329	-0.058	-0.036
-238.888	157.628	-0.404	-0.559
-237.873	411.139	0.180	-0.382
-236.859	-2.678	-0.084	-0.059
-235.844	-154.645	-0.059	-0.004
-234.830	303.267	0.206	0.382
-233.815	130.311	-0.085	-0.109
-232.800	-106.311	0.193	0.043
-231.786	90.064	0.126	0.141
-230.771	-154.757	0.407	0.027
-229.757	-12.655	-0.178	-0.116
-228.742	599.439	-0.111	-0.275
-227.727	-107.635	0.217	0.047
-226.713	57.626	0.153	-0.150
-225.698	-200.000	-0.002	-0.087
-224.684	800.000	0.036	-0.155
-223.669	80.667	-0.124	0.134
-222.655	-200.000	0.014	-0.081
-221.640	39.747	0.197	-0.176
-220.625	-102.011	-0.220	-0.053
-219.611	-140.279	-0.232	0.024
-218.596	-59.495	-0.227	-0.097
-217.582	207.512	0.196	-0.306
-216.567	-6.939	0.233	0.158
-215.552	188.597	0.163	0.243
-214.538	699.523	-0.167	0.440
-213.523	80.285	0.138	0.148
-212.509	-121.854	0.120	-0.020
-211.494	800.000	-0.097	0.312
-210.479	213.329	-0.124	0.196
-209.465	-53.881	0.174	-0.079
-208.450	-200.000	-0.033	0.345
-207.436	-158.013	-0.027	0.002
-206.421	-52.262	-0.100	-0.046
-205.406	-200.000	0.032	0.346
-204.392	-8.251	-0.198	-0.133
-203.377	63.257	0.070	-0.070
-202.363	720.227	-0.108	0.286
-201.348	-22.273	-0.143	-0.087
-200.333	-66.068	0.011	0.004
-199.319	240.713	0.098	-0.164
-198.304	-200.000	0.034	-0.169
-197.290	-90.596	0.312	-0.090
-196.275	20.993	-0.234	0.189
-195.260	-121.867	0.184	-0.030
-194.246	-172.131	0.089	0.003
-193.231	-188.463	0.042	0.001
-192.217	-200.000	0.056	-0.446
-191.202	-200.000	-0.012	-0.101
-190.187	-168.753	-0.338	-0.013
-189.173	-200.000	0.039	0.247
-188.158	83.302	-0.202	0.220
-187.144	729.217	-0.071	-0.189
-186.129	-45.371	0.372	-0.184
-185.114	-52.200	-0.223	0.103
-184.100	102.771	0.054	0.063
-183.085	-200.000	-0.051	0.560
-182.071	-67.469	-0.170	-0.066
-181.056	711.242	0.072	-0.191
-180.042	16.959	0.052	-0.041
-179.027	502.766	0.091	-0.210
-178.012	-31.652	-0.035	-0.020
-176.998	-200.000	-0.042	-0.397
-175.983	-5.142	0.266	0.183
-174.969	-95.915	0.293	-0.078
-173.954	-200.000	-0.014	-0.105
-172.939	236.570	0.068	-0.113
-171.925	154.074	0.043	0.059
-170.910	176.992	-0.073	-0.106
-169.896	-73.930	-0.164	-0.059
-168.881	24.249	-0.225	0.185
-167.866	-200.000	0.002	0.011
-166.852	-103.515	0.296	-0.069
-165.837	367.874	-0.144	-0.291
-164.823	-200.000	0.000	0.051
-163.808	-105.182	0.104	0.024
-162.793	-55.445	-0.208	-0.093
-161.779	185.959	0.067	-0.099
-160.764	108.481	-0.146	0.173
-159.750	298.325	0.169	0.310
-158.735	40.745	-0.240	-0.215
-157.720	135.423	-0.074	-0.096
-156.706	800.000	0.034	0.117
-155.691	800.000	0.062	0.190
-154.677	800.000	0.133	-0.422
-153.662	-13.171	-0.090	-0.058
-152.647	-200.000	-0.020	0.182
-151.633	449.439	0.077	0.168
-150.618	4.564	-0.126	0.092
-149.604	-149.173	-0.193	-0.015
-148.589	-146.898	0.162	-0.014
-147.574	800.000	-0.089	-0.251
-146.560	300.715	0.147	0.271
-145.545	-95.627	-0.273	-0.073
-144.531	-124.004	-0.075	0.012
-143.516	64.222	-0.262	-0.263
-142.502	-17.408	0.406	-0.254
-141.487	120.095	0.112	0.138
-140.472	-93.157	0.297	-0.082
-139.458	-40.727	0.153	0.079
-138.443	155.096	-0.142	0.194
-137.429	513.040	-0.086	-0.200
-136.414	179.273	-0.042	-0.062
-135.399	-200.000	0.007	0.215
-134.385	140.665	-0.166	0.218
-133.370	21.981	0.159	0.129
-132.356	270.474	0.056	0.098
-131.341	-61.021	0.091	-0.038
-130.326	443.291	0.072	0.157
-129.312	-100.481	-0.120	-0.030
-128.297	93.045	-0.166	-0.186
-127.283	21.735	-0.188	-0.152
-126.268	-47.362	0.203	0.098
-125.253	8.794	0.153	0.115
-124.239	-166.142	-0.164	-0.007
-123.224	260.744	-0.063	-0.108
-122.210	490.401	0.079	-0.180
-121.195	-114.342	-0.170	-0.033
-120.180	220.666	0.096	-0.154
