DTS Sentinel unit serial number:	SN413079Multiplexer serial number:	ORYXHardware model number:	OX4-SRSoftware version number:	ORYX F/W v4.00 Oryx Data Collector v3.7.2.0data status	okinstallation	princeton_trtdifferential loss correction	single-endedforward channel	channel 2reverse channel	N/Adate	2019/09/17time	11:47:34forward acquisition time	60.00reverse acquisition time	0.00gamma	496.2192k internal	0.2323k external	0.2323temperature offset calibration	0.9987default loss term (dB/km)	0.3790temperature slope calibration	1.0000multiplexer offset coefficient	1.0000multiplexer slope coefficient	1.0000fibre end	0.00T internal ref (°C)	30.92T ext. ref 1 (°C)	0.39T ext. ref 2 (°C)	26.70length (m)	temperature (°C)	Stokes	anti-Stokes-747.200	221.276	0.116	-0.188
-746.185	-99.162	-0.053	0.014
-745.171	-200.000	-0.040	0.306
-744.156	-48.938	-0.268	0.129
-743.142	382.741	-0.094	-0.195
-742.127	800.000	0.119	0.469
-741.112	-48.599	0.103	-0.050
-740.098	110.190	-0.301	0.365
-739.083	-125.159	-0.069	0.011
-738.069	-2.636	-0.183	0.129
-737.054	800.000	-0.132	-0.412
-736.039	88.609	-0.302	-0.339
-735.025	-43.362	0.213	-0.109
-734.010	324.760	0.030	0.058
-732.996	314.310	-0.076	0.145
-731.981	800.000	-0.042	-0.150
-730.966	800.000	-0.083	0.290
-729.952	142.910	0.124	0.167
-728.937	66.799	-0.215	-0.221
-727.923	-128.153	-0.192	0.028
-726.908	-200.000	-0.063	0.000
-725.894	-200.000	0.063	-0.315
-724.879	31.723	-0.171	-0.148
-723.864	292.801	0.074	0.137
-722.850	800.000	-0.035	-0.098
-721.835	-146.439	-0.273	-0.024
-720.821	-200.000	0.043	-0.288
-719.806	-124.446	-0.347	0.054
-718.791	800.000	0.009	0.034
-717.777	-51.147	0.100	-0.047
-716.762	-56.127	-0.223	-0.100
-715.748	-174.741	-0.109	-0.003
-714.733	-12.323	0.151	-0.100
-713.718	-111.672	-0.339	-0.069
-712.704	19.870	0.280	-0.228
-711.689	-81.672	0.042	0.014
-710.675	249.373	-0.064	0.110
-709.660	-58.956	-0.102	-0.045
-708.645	-92.728	0.583	0.165
-707.631	-200.000	-0.004	0.204
-706.616	212.689	0.031	0.050
-705.602	-200.000	-0.008	-0.089
-704.587	326.142	-0.144	-0.277
-703.572	-200.000	0.038	-0.368
-702.558	-1.709	0.067	0.047
-701.543	40.196	0.084	0.077
-700.529	325.166	0.042	-0.082
-699.514	-63.466	-0.334	-0.138
-698.499	-12.015	0.121	-0.080
-697.485	32.165	0.150	0.131
-696.470	-200.000	0.012	-0.402
-695.456	228.407	0.061	0.100
-694.441	-56.201	0.390	-0.175
-693.426	-102.925	0.315	-0.075
-692.412	131.649	-0.269	0.348
-691.397	800.000	0.016	0.050
-690.383	277.862	-0.068	0.122
-689.368	-82.271	-0.133	0.044
-688.354	-54.685	-0.208	0.095
-687.339	108.275	0.066	-0.079
-686.324	-26.014	-0.262	-0.155
-685.310	5.142	0.134	0.100
-684.295	56.388	0.029	-0.028
-683.281	-28.486	-0.215	-0.125
-682.266	-133.087	0.536	-0.068
-681.251	-141.298	-0.174	-0.018
-680.237	299.625	0.178	-0.330
-679.222	-65.373	-0.088	-0.036
-678.208	-40.156	0.350	0.183
-677.193	-184.588	0.275	0.004
-676.178	50.997	-0.028	-0.027
-675.164	800.000	-0.011	0.038
-674.149	-200.000	0.035	0.512
-673.135	-27.937	0.137	-0.080
-672.120	127.595	0.119	-0.152
-671.105	-88.405	0.133	0.040
-670.091	-98.051	-0.513	0.133
-669.076	77.638	-0.077	-0.082
-668.062	208.042	-0.093	0.147
-667.047	-200.000	0.052	0.238
-666.032	168.822	0.215	0.308
-665.018	-101.223	-0.246	0.061
-664.003	-200.000	0.000	-0.050
-662.989	139.717	0.190	-0.252
-661.974	200.975	0.087	-0.135
-660.959	63.615	0.363	-0.367
-659.945	-113.949	0.306	-0.060
-658.930	-186.680	0.155	-0.002
-657.916	204.082	0.075	0.116
-656.901	800.000	0.104	0.387
-655.886	397.569	0.030	-0.064
-654.872	82.255	-0.151	-0.165
-653.857	242.515	-0.112	0.188
-652.843	-15.546	-0.226	-0.145
-651.828	733.038	0.095	-0.256
-650.814	800.000	-0.011	-0.031
-649.799	-200.000	0.025	0.321
-648.784	-5.373	0.163	-0.113
-647.770	64.331	0.199	0.202
-646.755	97.649	-0.225	-0.261
-645.741	800.000	-0.135	-0.378
-644.726	-141.115	-0.309	-0.032
-643.711	-200.000	-0.024	0.225
-642.697	192.382	-0.133	-0.202
-641.682	-58.114	0.169	0.074
-640.668	-84.416	-0.214	-0.068
-639.653	131.112	-0.158	-0.204
-638.638	-200.000	0.023	0.219
-637.624	23.802	-0.214	0.177
-636.609	322.317	0.145	0.278
-635.595	-182.172	-0.097	0.002
-634.580	-200.000	0.060	-0.310
-633.565	-54.638	0.036	0.017
-632.551	-97.104	0.127	-0.033
-631.536	365.759	-0.113	0.229
-630.522	-158.078	0.108	0.006
-629.507	-200.000	0.029	0.177
-628.492	-12.086	-0.287	0.189
-627.478	711.952	0.083	-0.221
-626.463	96.652	-0.228	-0.262
-625.449	-120.130	0.074	0.013
-624.434	146.796	0.040	-0.054
-623.419	-98.124	0.191	-0.049
-622.405	-17.972	0.203	-0.128
-621.390	764.780	0.085	-0.233
-620.376	180.038	0.044	0.064
-619.361	-20.290	-0.128	0.079
-618.346	-200.000	0.252	0.000
-617.332	-30.332	-0.286	-0.163
-616.317	260.127	-0.117	0.203
-615.303	-77.206	0.196	-0.069
-614.288	647.659	0.128	0.329
-613.273	-200.000	0.010	-0.066
-612.259	800.000	-0.068	0.262
-611.244	-91.973	0.259	-0.074
-610.230	267.999	-0.160	0.281
-609.215	-63.170	-0.196	-0.081
-608.201	447.462	0.090	-0.198
-607.186	-93.166	-0.295	-0.082
-606.171	-200.000	0.002	-0.226
-605.157	73.497	-0.089	0.094
-604.142	370.447	0.148	-0.301
-603.128	255.428	0.068	0.116
-602.113	-139.327	0.177	-0.019
-601.098	15.617	-0.281	-0.222
-600.084	135.138	-0.168	-0.220
-599.069	-167.176	0.351	0.014
-598.055	268.924	-0.103	-0.181
-597.040	-128.395	0.167	-0.024
-596.025	347.453	0.095	0.189
-595.011	255.411	-0.097	0.166
-593.996	-94.955	-0.252	-0.068
-592.982	23.378	0.084	0.070
-591.967	339.208	-0.098	0.192
-590.952	-75.899	-0.495	0.176
-589.938	-107.025	-0.446	0.099
-588.923	-163.013	0.419	0.020
-587.909	-89.240	-0.191	0.057
-586.894	-97.446	0.291	0.076
-585.879	-52.653	-0.146	0.068
-584.865	-200.000	-0.017	0.125
-583.850	173.685	-0.108	-0.156
-582.836	800.000	-0.076	-0.260
-581.821	-5.079	-0.104	-0.072
-580.806	-79.184	0.086	-0.029
-579.792	315.139	0.051	0.097
-578.777	57.480	-0.108	-0.106
-577.763	-44.681	0.115	-0.058
-576.748	800.000	-0.132	-0.400
-575.733	501.120	-0.080	-0.186
-574.719	59.556	-0.230	0.228
-573.704	750.927	-0.161	0.437
-572.690	-60.149	-0.425	-0.182
-571.675	-11.102	-0.226	-0.149
-570.661	36.025	0.166	0.147
-569.646	15.220	-0.263	-0.207
-568.631	273.079	-0.137	-0.242
-567.617	-85.127	0.255	-0.080
-566.602	400.292	0.067	-0.140
-565.588	256.848	0.042	0.072
-564.573	-200.000	0.019	-0.098
-563.558	194.229	0.111	0.169
-562.544	74.311	0.169	0.178
-561.529	800.000	-0.008	-0.031
-560.515	-46.901	0.144	-0.070
-559.500	-142.879	-0.388	-0.038
-558.485	320.317	0.124	-0.236
-557.471	-82.219	-0.148	0.048
-556.456	62.949	-0.285	-0.286
-555.442	-117.115	-0.024	-0.004
-554.427	306.857	-0.135	-0.253
-553.412	-41.190	0.252	0.130
-552.398	800.000	0.064	0.229
-551.383	403.214	0.047	-0.099
-550.369	-156.538	-0.120	0.007
-549.354	187.678	-0.173	0.259
-548.339	93.247	-0.124	-0.141
-547.325	-49.861	-0.292	0.139
-546.310	-94.326	0.183	0.050
-545.296	-165.429	0.220	0.010
-544.281	-122.262	-0.021	0.003
-543.266	-110.516	-0.349	0.072
-542.252	-154.336	0.104	0.007
-541.237	307.377	-0.067	-0.126
-540.223	-127.095	-0.296	0.043
-539.208	-200.000	-0.014	-0.087
-538.193	-185.628	-0.252	-0.004
-537.179	-200.000	-0.067	0.307
-536.164	800.000	-0.065	-0.240
-535.150	153.335	-0.130	0.178
-534.135	-48.218	0.280	0.135
-533.121	455.818	0.145	-0.322
-532.106	-99.369	0.128	0.032
-531.091	109.984	0.158	-0.190
-530.077	-110.867	0.157	-0.032
-529.062	592.396	-0.097	-0.240
-528.048	-9.376	-0.247	-0.165
-527.033	84.934	0.066	-0.073
-526.018	-49.686	-0.124	-0.059
-525.004	93.169	-0.337	-0.382
-523.989	208.142	0.284	-0.444
-522.975	-148.410	0.275	0.023
-521.960	-40.671	-0.040	-0.021
-520.945	800.000	0.027	-0.095
-519.931	252.978	0.199	-0.340
-518.916	-40.343	-0.189	-0.099
-517.902	-200.000	-0.040	-0.186
-516.887	-104.624	-0.290	-0.067
-515.872	-200.000	0.002	0.220
-514.858	-200.000	0.001	-0.321
-513.843	-157.438	-0.062	0.004
-512.829	-94.086	-0.331	0.091
-511.814	452.961	-0.008	-0.019
-510.799	-186.093	-0.161	-0.002
-509.785	-65.744	-0.429	-0.172
-508.770	-37.633	-0.149	0.080
-507.756	-91.265	-0.323	0.092
-506.741	-200.000	-0.006	0.173
-505.726	39.426	0.358	-0.321
-504.712	-200.000	0.028	0.363
-503.697	557.038	-0.105	0.254
-502.683	179.356	0.093	-0.136
-501.668	-78.237	-0.152	0.052
-500.653	-200.000	-0.025	-0.391
-499.639	-200.000	0.017	0.123
-498.624	202.349	-0.065	-0.100
-497.610	571.787	0.091	0.222
-496.595	37.426	-0.302	0.267
-495.581	-67.342	-0.120	0.047
-494.566	472.762	0.103	0.232
-493.551	-72.785	0.195	0.072
-492.537	800.000	-0.068	0.223
-491.522	-67.647	-0.216	-0.085
-490.508	595.648	-0.067	0.165
-489.493	-200.000	-0.016	-0.080
-488.478	-99.550	0.418	0.105
-487.464	663.687	0.043	-0.110
-486.449	107.338	-0.166	0.198
-485.435	-121.929	0.348	-0.057
-484.420	-200.000	0.023	-0.160
-483.405	800.000	0.066	-0.289
-482.391	-108.390	0.278	-0.060
-481.376	-59.159	0.148	0.064
-480.362	-0.668	0.030	0.021
-479.347	-200.000	0.003	-0.139
-478.332	800.000	0.083	-0.279
-477.318	-150.452	0.169	0.013
-476.303	85.398	0.070	0.077
-475.289	-111.955	-0.313	0.063
-474.274	131.023	-0.077	-0.098
-473.259	-200.000	-0.012	-0.257
-472.245	800.000	-0.084	0.306
-471.230	786.542	0.044	0.121
-470.216	160.077	0.074	-0.103
-469.201	26.951	0.180	-0.151
-468.186	800.000	0.013	0.057
-467.172	800.000	-0.049	0.181
-466.157	800.000	-0.142	0.475
-465.143	-82.257	0.059	-0.019
-464.128	-200.000	-0.014	0.311
-463.113	-17.391	-0.441	-0.277
-462.099	-0.517	0.204	-0.144
-461.084	-55.129	0.335	0.151
-460.070	37.814	0.112	-0.100
-459.055	-200.000	0.006	-0.120
-458.040	310.987	0.101	-0.189
-457.026	-131.909	0.290	-0.038
-456.011	-58.389	-0.129	0.056
-454.997	154.271	0.148	-0.203
-453.982	-7.164	0.216	-0.146
-452.968	514.835	-0.122	-0.285
-451.953	295.214	0.140	-0.256
-450.938	570.566	0.092	0.224
-449.924	198.555	0.165	0.252
-448.909	724.975	-0.077	0.205
-447.895	-84.322	0.050	-0.016
-446.880	-200.000	0.013	0.416
-445.865	-78.421	0.195	-0.067
-444.851	487.009	0.133	-0.303
-443.836	49.955	-0.123	0.116
-442.822	-39.907	-0.214	0.111
-441.807	-200.000	0.025	-0.220
-440.792	-200.000	0.009	-0.072
-439.778	43.906	-0.027	0.024
-438.763	708.020	-0.065	0.173
-437.749	55.628	0.095	-0.092
-436.734	105.871	-0.201	0.238
-435.719	-200.000	0.088	-0.496
-434.705	119.150	-0.259	0.319
-433.690	-169.584	0.143	-0.005
-432.676	242.371	0.021	0.035
-431.661	-84.962	0.033	-0.010
-430.646	321.790	-0.164	0.312
-429.632	-114.125	-0.142	0.027
-428.617	465.840	-0.086	0.193
-427.603	-98.166	-0.330	-0.085
-426.588	-86.425	-0.276	-0.084
-425.573	20.415	0.288	0.232
-424.559	4.099	0.035	0.025
-423.544	712.838	-0.054	-0.142
-422.530	147.048	0.050	-0.068
-421.515	179.607	0.143	0.208
-420.500	-200.000	0.027	0.394
-419.486	-200.000	0.010	0.218
-418.471	-200.000	0.035	-0.179
-417.457	439.393	-0.020	0.043
-416.442	800.000	0.078	-0.254
-415.428	578.559	-0.050	0.122
-414.413	-21.989	0.233	0.141
-413.398	-200.000	0.011	0.232
-412.384	289.929	0.122	-0.220
-411.369	143.662	0.173	0.229
-410.355	-68.457	-0.194	-0.075
-409.340	-162.247	0.128	0.006
-408.325	-200.000	-0.004	-0.085
-407.311	-19.599	-0.387	0.239
-406.296	-40.285	-0.143	0.074
-405.282	800.000	0.007	0.021
-404.267	-84.029	0.239	0.076
-403.252	-200.000	0.111	-0.502
-402.238	-64.588	0.260	-0.105
-401.223	527.054	-0.057	0.133
-400.209	89.286	0.219	-0.243
-399.194	333.128	0.144	0.278
-398.179	-1.538	-0.225	0.158
-397.165	-200.000	0.020	-0.377
-396.150	140.313	-0.149	0.195
-395.136	196.148	-0.180	-0.272
-394.121	65.626	0.271	-0.274
-393.106	800.000	0.023	-0.079
-392.092	181.219	-0.095	0.139
-391.077	-129.026	-0.091	-0.013
-390.063	800.000	0.051	0.153
-389.048	-2.299	0.113	-0.079
-388.033	107.024	-0.034	-0.041
-387.019	-200.000	0.023	0.146
-386.004	800.000	-0.087	0.369
-384.990	717.206	-0.094	-0.248
-383.975	186.954	-0.173	0.257
-382.960	-39.683	0.284	-0.148
-381.946	800.000	-0.078	-0.280
-380.931	146.144	0.216	-0.289
-379.917	164.146	-0.153	-0.214
-378.902	-136.433	-0.181	0.021
-377.888	0.601	-0.149	0.106
-376.873	-39.328	-0.117	-0.061
-375.858	-200.000	-0.011	0.097
-374.844	-88.703	-0.139	-0.041
-373.829	-200.000	-0.011	0.205
-372.815	763.727	0.060	-0.162
-371.800	-115.602	-0.212	-0.040
-370.785	41.543	-0.150	0.136
-369.771	98.628	-0.088	0.101
-368.756	-148.045	-0.165	-0.014
-367.742	-200.000	-0.029	-0.253
-366.727	32.445	-0.257	-0.221
-365.712	-200.000	-0.003	0.242
-364.698	-185.289	0.134	-0.002
-363.683	66.407	0.312	-0.315
-362.669	45.692	0.181	-0.166
-361.654	-200.000	-0.022	0.193
-360.639	-63.647	-0.408	0.167
-359.625	-44.240	0.138	-0.069
-358.610	-165.084	0.403	-0.018
-357.596	-124.648	0.204	0.031
-356.581	-42.131	-0.456	-0.232
-355.566	367.323	0.078	-0.156
-354.552	-200.000	0.000	-0.275
-353.537	-100.520	0.091	-0.022
-352.523	-130.386	0.282	-0.038
-351.508	-56.620	0.167	0.074
-350.493	800.000	-0.062	0.180
-349.479	364.434	-0.070	-0.140
-348.464	-0.450	-0.141	0.099
-347.450	237.299	0.120	-0.198
-346.435	251.952	-0.048	-0.081
-345.420	190.086	0.064	0.096
-344.406	-26.684	0.119	0.069
-343.391	-200.000	-0.003	-0.050
-342.377	142.671	0.026	-0.035
-341.362	349.842	-0.197	0.387
-340.348	-29.960	-0.362	0.205
-339.333	569.841	-0.075	-0.181
-338.318	-114.048	0.153	0.030
-337.304	-200.000	-0.006	0.176
-336.289	230.754	0.068	0.111
-335.275	33.018	-0.199	-0.171
-334.260	337.787	-0.051	0.098
-333.245	-200.000	0.025	0.135
-332.231	-200.000	0.039	-0.218
-331.216	-19.533	-0.354	0.218
-330.202	800.000	0.078	0.262
-329.187	-128.271	-0.093	0.013
-328.172	29.563	-0.186	-0.157
-327.158	-99.072	0.364	-0.092
-326.143	98.720	0.068	-0.077
-325.129	-151.861	-0.284	0.021
-324.114	542.565	0.099	-0.235
-323.099	97.693	0.287	-0.327
-322.085	-16.438	0.288	-0.181
-321.070	-84.059	0.099	0.031
-320.056	159.455	0.076	-0.104
-319.041	800.000	0.083	0.244
-318.026	422.023	-0.070	0.149
-317.012	21.352	0.337	0.272
-315.997	-200.000	-0.036	0.181
-314.983	253.383	-0.099	0.169
-313.968	298.020	0.066	-0.120
-312.953	-200.000	0.028	-0.169
-311.939	-200.000	-0.044	-0.328
-310.924	-53.561	-0.063	-0.028
-309.910	-200.000	-0.034	0.238
-308.895	-40.824	-0.156	-0.080
-307.880	13.494	0.127	-0.098
-306.866	-200.000	0.047	-0.287
-305.851	513.658	-0.067	0.155
-304.837	800.000	-0.102	0.285
-303.822	75.891	-0.064	0.068
-302.807	-99.654	0.320	0.080
-301.793	-19.456	0.288	0.177
-300.778	-200.000	-0.003	0.155
-299.764	-9.336	0.250	0.166
-298.749	11.909	-0.187	0.143
-297.735	207.238	-0.078	0.121
-296.720	800.000	0.093	0.397
-295.705	119.063	-0.148	-0.181
-294.691	-127.891	0.385	0.055
-293.676	-200.000	-0.022	0.200
-292.662	-35.035	-0.156	-0.084
-291.647	-43.224	-0.274	-0.138
-290.632	64.876	0.165	0.165
-289.618	74.547	0.106	0.110
-288.603	177.579	0.045	-0.064
-287.589	-91.797	0.245	-0.069
-286.574	-132.967	-0.174	-0.022
-285.559	800.000	0.049	0.151
-284.545	324.055	0.072	-0.136
-283.530	337.365	0.022	0.042
-282.516	25.251	0.204	0.168
-281.501	-26.975	0.378	0.219
-280.486	-84.348	-0.169	-0.053
-279.472	494.262	-0.105	-0.238
-278.457	-138.129	0.172	-0.019
-277.443	-200.000	-0.032	-0.209
-276.428	-200.000	-0.005	0.249
-275.413	-11.181	0.129	0.084
-274.399	-200.000	0.047	0.345
-273.384	-56.310	-0.117	0.051
-272.370	788.420	-0.077	-0.209
-271.355	-67.316	-0.327	0.128
-270.340	206.979	-0.312	-0.482
-269.326	-102.357	-0.346	-0.082
-268.311	36.328	-0.077	-0.067
-267.297	721.283	0.099	0.261
-266.282	-79.068	0.192	-0.065
-265.267	-39.872	0.131	0.068
-264.253	-117.246	0.216	0.039
-263.238	800.000	0.154	-0.483
-262.224	-200.000	0.021	-0.293
-261.209	-64.175	-0.187	0.076
-260.195	327.206	0.158	0.301
-259.180	-92.615	-0.231	-0.064
-258.165	700.351	-0.077	-0.202
-257.151	-100.608	-0.369	0.090
-256.136	366.544	-0.155	-0.310
-255.122	343.503	-0.086	0.167
-254.107	-93.032	0.122	-0.034
-253.092	-107.013	0.054	0.012
-252.078	789.571	0.112	-0.306
-251.063	178.082	-0.219	-0.316
-250.049	94.882	0.190	0.214
-249.034	800.000	0.080	-0.304
-248.019	169.716	-0.102	-0.144
-247.005	-99.355	0.105	0.026
-245.990	-155.589	-0.026	0.002
-244.976	401.604	-0.082	0.170
-243.961	670.876	-0.101	-0.259
-242.946	70.985	0.152	-0.156
-241.932	151.318	0.151	-0.204
-240.917	154.442	0.170	-0.231
-239.903	-144.194	0.199	0.018
-238.888	-76.825	0.413	0.143
-237.873	800.000	-0.104	-0.313
-236.859	-127.555	0.223	0.032
-235.844	387.304	-0.107	-0.219
-234.830	39.836	0.310	-0.276
-233.815	-99.403	-0.257	-0.064
-232.800	83.784	0.159	-0.171
-231.786	65.644	0.157	0.157
-230.771	-200.000	0.018	0.479
-229.757	-29.441	0.431	-0.244
-228.742	291.381	0.041	0.074
-227.727	-44.634	-0.285	-0.141
-226.713	-71.162	0.089	0.033
-225.698	-19.988	0.149	-0.091
-224.684	-51.050	0.083	0.039
-223.669	-56.205	-0.314	0.138
-222.655	-114.210	0.052	0.010
-221.640	-11.469	0.188	-0.122
-220.625	-100.180	0.488	0.120
-219.611	299.097	-0.138	-0.252
-218.596	-200.000	0.006	0.082
-217.582	775.667	0.101	0.273
-216.567	-200.000	0.035	0.298
-215.552	800.000	-0.045	0.170
-214.538	-12.935	0.159	-0.102
-213.523	376.656	-0.048	-0.097
-212.509	370.252	-0.023	-0.046
-211.494	-80.213	0.520	-0.172
-210.479	86.419	0.029	0.032
-209.465	44.557	0.189	-0.171
-208.450	-15.592	0.078	0.049
-207.436	-135.219	0.279	0.033
-206.421	-2.643	-0.252	-0.174
-205.406	-98.711	-0.146	-0.037
-204.392	211.520	0.161	-0.250
-203.377	-4.940	0.092	-0.062
-202.363	372.448	-0.068	0.137
-201.348	118.723	-0.288	0.352
-200.333	-5.405	-0.205	0.139
-199.319	-91.131	0.054	-0.015
-198.304	-200.000	-0.019	0.265
-197.290	-200.000	0.003	0.104
-196.275	-83.157	0.089	-0.028
-195.260	168.473	0.184	0.259
-194.246	110.995	-0.112	0.133
-193.231	-10.479	-0.197	0.129
-192.217	-26.414	0.254	0.147
-191.202	-200.000	0.012	-0.160
-190.187	96.513	0.030	0.034
-189.173	535.969	0.090	0.212
-188.158	131.061	-0.107	0.136
-187.144	154.270	-0.079	0.107
-186.129	-89.896	-0.064	-0.019
-185.114	152.719	-0.235	0.318
-184.100	-99.901	-0.225	-0.055
-183.085	31.022	-0.246	0.208
-182.071	-175.480	0.286	-0.008
-181.056	-112.427	-0.333	0.066
-180.042	-200.000	0.038	-0.279
-179.027	-200.000	-0.002	0.149
-178.012	-81.119	-0.097	0.032
-176.998	800.000	-0.061	-0.204
-175.983	78.258	0.144	0.152
-174.969	114.140	-0.197	0.237
-173.954	99.954	0.144	0.164
-172.939	800.000	0.048	0.159
-171.925	314.809	-0.018	-0.034
-170.910	161.469	0.205	-0.283
-169.896	-82.410	0.500	-0.160
-168.881	-142.011	-0.153	-0.015
-167.866	77.489	-0.289	0.303
-166.852	335.147	0.199	0.380
-165.837	-134.929	0.169	0.020
-164.823	-52.982	0.193	-0.088
-163.808	408.675	-0.008	-0.016
-162.793	-200.000	0.021	0.415
-161.779	-83.723	0.124	0.039
-160.764	121.849	-0.071	0.088
-159.750	-200.000	-0.042	-0.248
-158.735	-137.390	-0.120	-0.013
-157.720	-6.135	0.208	0.140
-156.706	87.963	0.100	0.109
-155.691	25.866	0.141	0.116
-154.677	226.294	-0.132	0.212
-153.662	-91.444	0.169	0.047
-152.647	256.343	0.114	0.194
-151.633	241.640	-0.168	0.276
-150.618	164.269	0.160	-0.222
-149.604	250.840	0.083	-0.139
-148.589	-143.503	-0.326	-0.031
-147.574	453.544	0.080	0.174
-146.560	260.924	0.068	0.116
-145.545	-200.000	-0.014	-0.232
-144.531	-200.000	-0.053	-0.238
-143.516	78.583	-0.329	-0.347
-142.502	-13.109	0.115	0.074
-141.487	8.249	-0.137	0.101
-140.472	133.517	-0.039	0.050
-139.458	800.000	0.036	0.117
-138.443	-111.538	0.167	0.033
-137.429	-141.081	0.144	-0.015
-136.414	-93.936	0.547	0.148
-135.399	-93.999	-0.193	-0.052
-134.385	-200.000	0.002	-0.178
-133.370	-113.178	-0.171	-0.033
-132.356	-40.049	0.084	0.043
-131.341	170.030	0.127	-0.179
-130.326	-32.404	0.230	-0.126
-129.312	465.078	0.199	0.439
-128.297	168.773	-0.010	0.014
-127.283	-19.738	0.239	-0.146
-126.268	-6.992	0.356	0.239
-125.253	-102.305	-0.323	0.076
-124.239	299.321	-0.062	-0.113
-123.224	45.820	0.160	-0.145
-122.210	21.713	-0.166	-0.133
-121.195	98.642	-0.109	-0.124
