DTS Sentinel unit serial number:	SN413079Multiplexer serial number:	ORYXHardware model number:	OX4-SRSoftware version number:	ORYX F/W v4.00 Oryx Data Collector v3.7.2.0data status	okinstallation	princeton_trtdifferential loss correction	single-endedforward channel	channel 2reverse channel	N/Adate	2019/09/12time	10:45:11forward acquisition time	60.00reverse acquisition time	0.00gamma	496.2192k internal	0.2308k external	0.2308temperature offset calibration	1.0067default loss term (dB/km)	0.3790temperature slope calibration	1.0000multiplexer offset coefficient	1.0000multiplexer slope coefficient	1.0000fibre end	0.00T internal ref (°C)	37.70T ext. ref 1 (°C)	1.92T ext. ref 2 (°C)	36.19length (m)	temperature (°C)	Stokes	anti-Stokes-747.200	800.000	0.019	0.066
-746.185	46.073	-0.203	0.191
-745.171	178.905	-0.205	0.304
-744.156	-200.000	0.037	0.336
-743.142	800.000	0.052	0.148
-742.127	-200.000	0.031	0.327
-741.112	-200.000	-0.029	-0.255
-740.098	-200.000	-0.016	0.253
-739.083	-159.336	0.140	-0.008
-738.069	188.605	-0.216	0.328
-737.054	-74.767	-0.028	0.010
-736.039	800.000	0.118	0.335
-735.025	76.384	0.175	0.188
-734.010	-11.534	-0.186	0.124
-732.996	11.784	-0.259	0.202
-731.981	145.262	-0.043	0.059
-730.966	53.648	0.080	-0.078
-729.952	315.615	0.079	-0.152
-728.937	800.000	0.100	-0.326
-727.923	152.226	-0.274	-0.380
-726.908	-14.611	0.262	-0.171
-725.894	304.449	0.164	0.309
-724.879	114.926	-0.073	0.090
-723.864	-75.401	-0.226	0.082
-722.850	800.000	-0.077	0.261
-721.835	-11.880	0.182	0.121
-720.821	-200.000	-0.015	-0.220
-719.806	12.814	0.132	0.104
-718.791	800.000	0.015	0.064
-717.777	42.214	-0.136	0.126
-716.762	-76.047	-0.097	-0.035
-715.748	-200.000	-0.050	-0.242
-714.733	-200.000	0.033	0.184
-713.718	246.837	-0.023	0.040
-712.704	45.186	0.125	0.117
-711.689	-66.255	-0.106	-0.043
-710.675	-8.333	-0.058	-0.040
-709.660	332.222	0.150	-0.294
-708.645	486.545	-0.137	-0.316
-707.631	303.135	0.266	-0.500
-706.616	800.000	-0.075	-0.255
-705.602	108.818	0.171	-0.208
-704.587	-46.632	0.368	-0.183
-703.572	252.404	-0.043	0.075
-702.558	682.042	-0.158	0.417
-701.543	765.865	-0.052	-0.145
-700.529	399.814	-0.177	-0.377
-699.514	-45.736	0.239	-0.120
-698.499	-200.000	0.021	-0.292
-697.485	276.891	-0.110	-0.198
-696.470	-30.182	-0.112	-0.064
-695.456	-10.055	0.273	0.184
-694.441	-99.550	-0.132	-0.034
-693.426	-63.362	-0.358	0.150
-692.412	-119.656	-0.274	0.048
-691.397	-200.000	-0.002	0.077
-690.383	19.191	-0.099	0.080
-689.368	-53.609	-0.123	0.057
-688.354	-63.160	-0.235	-0.098
-687.339	19.745	-0.190	-0.155
-686.324	82.264	-0.133	0.146
-685.310	-200.000	0.000	0.129
-684.295	91.373	0.071	0.081
-683.281	-87.247	-0.055	-0.017
-682.266	-174.252	-0.067	0.002
-681.251	571.723	-0.082	-0.203
-680.237	-138.581	-0.152	-0.017
-679.222	-67.846	-0.111	-0.044
-678.208	-194.635	-0.198	-0.002
-677.193	-200.000	0.022	-0.164
-676.178	-34.218	-0.155	0.086
-675.164	-200.000	0.048	-0.447
-674.149	-77.576	0.181	0.064
-673.135	-200.000	0.010	-0.264
-672.120	-126.443	-0.236	0.036
-671.105	-109.157	-0.164	0.035
-670.091	-117.005	0.224	-0.042
-669.076	800.000	0.074	-0.252
-668.062	-200.000	-0.067	-0.580
-667.047	-200.000	-0.007	-0.050
-666.032	65.343	-0.109	0.111
-665.018	-200.000	0.039	0.391
-664.003	-12.342	0.188	0.125
-662.989	323.451	0.141	-0.272
-661.974	800.000	-0.075	-0.277
-660.959	800.000	-0.071	0.292
-659.945	336.657	0.181	-0.357
-658.930	-200.000	-0.009	0.155
-657.916	800.000	0.009	0.031
-656.901	-139.935	0.140	0.015
-655.886	269.743	-0.113	-0.202
-654.872	-128.259	0.406	0.059
-653.857	-151.093	-0.105	-0.008
-652.843	10.510	-0.093	0.071
-651.828	327.661	-0.233	-0.453
-650.814	112.396	-0.113	0.138
-649.799	-95.835	-0.342	-0.092
-648.784	800.000	0.036	-0.137
-647.770	-68.455	-0.292	-0.115
-646.755	-174.606	0.366	-0.011
-645.741	238.979	0.094	-0.158
-644.726	656.462	-0.076	-0.198
-643.711	-135.178	-0.108	-0.013
-642.697	-33.753	-0.228	0.127
-641.682	-200.000	-0.030	-0.135
-640.668	-200.000	0.015	-0.140
-639.653	800.000	-0.110	-0.459
-638.638	-13.860	-0.206	-0.135
-637.624	-17.721	0.303	-0.192
-636.609	-200.000	-0.015	0.090
-635.595	-113.737	0.106	-0.021
-634.580	-200.000	-0.347	0.000
-633.565	-151.222	-0.334	-0.025
-632.551	140.687	0.010	-0.014
-631.536	283.328	0.040	-0.073
-630.522	58.883	-0.061	-0.061
-629.507	800.000	0.093	0.324
-628.492	-110.574	0.213	-0.045
-627.478	-200.000	-0.006	-0.131
-626.463	-63.663	-0.242	0.100
-625.449	-33.619	-0.233	0.130
-624.434	-96.560	-0.214	0.057
-623.419	12.518	0.102	-0.079
-622.405	209.338	0.157	-0.248
-621.390	-43.788	0.075	0.038
-620.376	-152.578	0.154	-0.011
-619.361	-200.000	0.030	0.371
-618.346	154.207	0.067	0.094
-617.332	81.287	0.023	0.025
-616.317	-200.000	-0.027	0.125
-615.303	-43.008	0.234	-0.120
-614.288	-53.655	-0.104	0.048
-613.273	152.721	0.091	0.126
-612.259	-19.969	0.067	-0.042
-611.244	71.467	0.111	0.116
-610.230	-65.216	-0.407	0.166
-609.215	-200.000	0.015	0.255
-608.201	-95.015	0.228	-0.062
-607.186	-200.000	0.013	-0.070
-606.171	-200.000	-0.009	-0.196
-605.157	310.333	0.115	0.217
-604.142	-60.250	-0.181	-0.078
-603.128	800.000	0.052	0.216
-602.113	-200.000	0.030	-0.314
-601.098	-200.000	0.013	-0.337
-600.084	-111.701	0.082	-0.017
-599.069	3.148	0.050	0.037
-598.055	-171.547	-0.265	0.009
-597.040	-200.000	-0.014	0.108
-596.025	800.000	-0.023	-0.086
-595.011	181.729	-0.146	-0.217
-593.996	-200.000	-0.063	0.360
-592.982	-153.000	0.226	0.016
-591.967	-200.000	-0.254	0.000
-590.952	1.682	0.410	-0.298
-589.938	-200.000	0.009	0.189
-588.923	-42.318	-0.236	-0.122
-587.909	79.010	-0.199	0.215
-586.894	266.066	-0.091	0.161
-585.879	-200.000	0.040	-0.194
-584.865	231.443	0.093	0.153
-583.850	85.054	0.186	0.206
-582.836	-51.214	0.162	0.077
-581.821	23.278	0.242	0.201
-580.806	-64.832	0.294	-0.120
-579.792	-200.000	0.045	-0.406
-578.777	-74.725	-0.379	-0.138
-577.763	-147.430	0.187	0.016
-576.748	-102.960	0.270	0.065
-575.733	-63.115	-0.072	0.030
-574.719	276.807	-0.075	-0.134
-573.704	501.978	0.143	-0.334
-572.690	447.766	0.067	0.148
-571.675	-200.000	-0.044	-0.207
-570.661	-88.909	-0.273	0.082
-569.646	-96.335	0.070	0.019
-568.631	800.000	-0.015	-0.052
-567.617	-200.000	-0.017	-0.145
-566.602	-104.119	-0.064	-0.015
-565.588	-37.406	0.167	0.090
-564.573	800.000	-0.018	0.076
-563.558	-117.342	-0.280	-0.051
-562.544	-200.000	-0.008	-0.297
-561.529	106.839	0.148	-0.178
-560.515	-200.000	-0.026	-0.116
-559.500	342.095	-0.019	0.038
-558.485	279.859	0.117	0.211
-557.471	-36.548	-0.147	-0.080
-556.456	230.738	0.057	-0.095
-555.442	-200.000	0.032	0.192
-554.427	-200.000	-0.036	0.168
-553.412	-170.487	0.139	0.005
-552.398	-12.237	0.180	0.119
-551.383	-200.000	-0.011	-0.158
-550.369	800.000	0.013	-0.051
-549.354	-158.811	0.196	-0.011
-548.339	800.000	-0.026	-0.108
-547.325	-58.202	0.114	-0.050
-546.310	-200.000	0.101	0.000
-545.296	-164.230	-0.188	0.009
-544.281	-87.981	-0.065	0.020
-543.266	-200.000	0.004	-0.244
-542.252	800.000	0.068	0.204
-541.237	-200.000	-0.024	-0.161
-540.223	288.475	0.011	0.020
-539.208	-200.000	0.040	-0.255
-538.193	-135.593	-0.301	-0.036
-537.179	98.595	0.076	0.088
-536.164	-66.861	-0.270	-0.108
-535.150	62.544	-0.252	0.254
-534.135	4.166	0.117	-0.086
-533.121	547.445	0.076	0.182
-532.106	-94.381	0.201	-0.055
-531.091	-200.000	0.030	-0.154
-530.077	-87.022	-0.277	-0.085
-529.062	-133.985	-0.129	0.016
-528.048	312.978	0.147	-0.278
-527.033	-104.544	-0.266	0.062
-526.018	-83.453	0.100	-0.032
-525.004	32.478	0.109	-0.095
-523.989	511.972	0.090	-0.212
-522.975	2.223	-0.288	0.210
-521.960	-75.943	0.021	-0.008
-520.945	11.480	-0.251	0.194
-519.931	42.765	0.146	0.134
-518.916	276.673	-0.136	-0.243
-517.902	39.048	0.112	0.101
-516.887	28.803	-0.131	-0.112
-515.872	148.594	-0.171	-0.233
-514.858	-123.502	-0.415	0.066
-513.843	48.901	-0.265	-0.251
-512.829	-99.866	-0.150	0.038
-511.814	227.305	0.115	-0.188
-510.799	-8.809	0.173	-0.117
-509.785	-126.283	0.209	0.032
-508.770	-200.000	-0.013	-0.165
-507.756	33.675	-0.097	-0.085
-506.741	-171.547	0.174	-0.006
-505.726	-200.000	-0.000	-0.345
-504.712	-15.970	-0.171	-0.109
-503.697	147.425	-0.027	0.036
-502.683	13.440	-0.008	-0.006
-501.668	-80.717	0.168	-0.056
-500.653	-200.000	0.022	0.167
-499.639	-200.000	0.006	-0.036
-498.624	93.172	0.242	0.276
-497.610	117.813	0.078	0.096
-496.595	-17.351	0.188	0.119
-495.581	800.000	-0.077	0.337
-494.566	-200.000	-0.012	0.167
-493.551	29.618	0.131	-0.112
-492.537	-108.055	-0.332	0.073
-491.522	254.371	0.144	-0.248
-490.508	-200.000	-0.007	0.384
-489.493	800.000	-0.036	0.134
-488.478	302.493	-0.027	0.051
-487.464	43.605	-0.101	-0.093
-486.449	-200.000	-0.005	0.050
-485.435	-200.000	-0.016	0.112
-484.420	800.000	-0.010	0.037
-483.405	-176.642	0.223	-0.006
-482.391	-59.551	-0.234	-0.101
-481.376	23.250	-0.226	-0.187
-480.362	800.000	0.026	0.102
-479.347	-109.812	-0.225	-0.047
-478.332	-60.759	-0.159	0.068
-477.318	-200.000	-0.018	-0.265
-476.303	-77.204	-0.173	-0.060
-475.289	-200.000	-0.045	0.480
-474.274	-200.000	0.037	-0.163
-473.259	-45.778	0.093	-0.046
-472.245	62.782	-0.068	0.068
-471.230	143.767	0.095	-0.128
-470.216	198.457	0.035	0.054
-469.201	-86.737	-0.427	-0.131
-468.186	-110.757	0.142	0.029
-467.172	-86.466	0.147	-0.046
-466.157	-54.219	-0.251	0.115
-465.143	124.505	-0.109	-0.138
-464.128	38.685	-0.458	-0.411
-463.113	20.827	0.245	0.199
-462.099	-54.858	-0.258	0.117
-461.084	-78.490	0.203	0.070
-460.070	455.872	0.042	-0.094
-459.055	44.827	-0.203	0.188
-458.040	-11.918	-0.128	0.084
-457.026	-93.853	-0.116	0.032
-456.011	486.683	-0.085	-0.195
-454.997	800.000	0.110	0.333
-453.982	209.762	0.195	-0.307
-452.968	-131.949	-0.202	-0.027
-451.953	0.763	-0.226	-0.162
-450.938	-180.099	0.242	-0.005
-449.924	153.750	-0.052	0.072
-448.909	66.159	-0.250	-0.255
-447.895	111.309	-0.140	0.170
-446.880	-95.722	-0.247	-0.066
-445.865	-24.761	0.335	0.200
-444.851	-200.000	0.023	0.214
-443.836	-42.003	0.077	0.040
-442.822	-91.676	-0.146	-0.042
-441.807	3.900	-0.321	-0.236
-440.792	209.508	-0.061	-0.097
-439.778	199.390	0.089	0.138
-438.763	-108.428	-0.212	-0.046
-437.749	-26.131	0.196	-0.116
-436.734	174.193	0.194	-0.282
-435.719	219.024	-0.141	-0.226
-434.705	-8.055	-0.126	-0.085
-433.690	156.914	0.101	-0.140
-432.676	241.707	0.082	-0.138
-431.661	-112.862	-0.204	0.041
-430.646	-4.163	-0.145	0.101
-429.632	-103.496	-0.116	0.027
-428.617	-200.000	0.047	0.000
-427.603	235.781	-0.126	-0.209
-426.588	-182.651	0.206	0.004
-425.573	-16.819	0.279	-0.177
-424.559	-200.000	0.016	-0.138
-423.544	194.753	-0.114	-0.174
-422.530	535.780	0.125	0.297
-421.515	-200.000	-0.069	-0.506
-420.500	-77.907	-0.164	0.057
-419.486	48.414	-0.227	-0.214
-418.471	-119.892	0.099	0.017
-417.457	-17.982	-0.183	0.115
-416.442	137.446	-0.196	0.258
-415.428	86.071	-0.088	-0.097
-414.413	185.114	0.045	0.067
-413.398	-57.835	-0.178	-0.078
-412.384	549.659	0.103	0.248
-411.369	110.519	0.131	0.158
-410.355	335.176	-0.118	-0.230
-409.340	396.502	-0.049	-0.104
-408.325	675.743	0.042	0.110
-407.311	307.513	0.137	0.257
-406.296	132.893	0.068	-0.088
-405.282	103.315	0.335	0.394
-404.267	800.000	-0.077	-0.229
-403.252	-200.000	0.048	-0.271
-402.238	-200.000	0.029	-0.193
-401.223	-120.589	0.034	-0.006
-400.209	-88.813	-0.353	0.105
-399.194	306.883	-0.068	-0.126
-398.179	-200.000	0.030	-0.422
-397.165	35.501	-0.195	0.172
-396.150	-119.968	-0.094	0.016
-395.136	235.389	0.108	-0.178
-394.121	-200.000	-0.040	0.406
-393.106	105.644	0.107	0.127
-392.092	26.062	0.130	-0.109
-391.077	461.948	-0.042	-0.094
-390.063	33.444	-0.301	-0.262
-389.048	-177.399	0.145	-0.004
-388.033	70.542	0.211	0.218
-387.019	277.249	0.074	-0.133
-386.004	-200.000	0.003	-0.108
-384.990	800.000	-0.108	-0.340
-383.975	800.000	-0.028	-0.094
-382.960	22.933	-0.164	-0.135
-381.946	-106.770	-0.238	-0.053
-380.931	-145.138	-0.135	0.012
-379.917	-200.000	-0.032	0.279
-378.902	665.668	-0.154	-0.399
-377.888	-11.232	0.087	-0.058
-376.873	495.858	0.164	0.377
-375.858	-200.000	-0.027	0.199
-374.844	-85.675	0.432	-0.135
-373.829	64.997	0.143	-0.145
-372.815	35.420	0.243	-0.214
-371.800	24.046	0.202	-0.167
-370.785	-200.000	0.012	-0.061
-369.771	399.344	-0.117	0.245
-368.756	-91.032	0.120	-0.035
-367.742	137.042	0.130	-0.170
-366.727	100.116	-0.069	0.080
-365.712	-42.955	0.174	0.088
-364.698	383.789	-0.045	-0.093
-363.683	-55.337	0.055	0.025
-362.669	-128.609	0.516	-0.073
-361.654	83.351	-0.251	-0.274
-360.639	-200.000	0.002	0.039
-359.625	-29.083	-0.224	-0.129
-358.610	-170.587	0.265	0.009
-357.596	-200.000	0.010	-0.054
-356.581	22.338	0.139	0.114
-355.566	-200.000	-0.003	0.029
-354.552	748.622	0.080	0.217
-353.537	298.260	-0.167	-0.307
-352.523	-200.000	-0.026	0.166
-351.508	4.753	-0.281	-0.207
-350.493	-200.000	-0.063	0.282
-349.479	37.075	-0.090	-0.080
-348.464	40.663	0.162	0.147
-347.450	126.017	-0.261	0.330
-346.435	-129.093	-0.064	-0.009
-345.420	69.598	0.075	-0.077
-344.406	800.000	-0.025	0.078
-343.391	249.061	0.224	0.380
-342.377	800.000	0.097	0.303
-341.362	-200.000	0.004	-0.203
-340.348	-164.782	-0.281	-0.013
-339.333	-102.463	0.477	0.114
-338.318	-162.242	0.439	0.022
-337.304	-154.418	0.223	-0.015
-336.289	-63.058	-0.487	0.201
-335.275	-106.019	0.319	0.072
-334.260	110.225	0.067	-0.081
-333.245	-57.570	0.207	-0.091
-332.231	-200.000	0.007	0.179
-331.216	-105.697	-0.291	0.066
-330.202	-114.619	0.103	0.020
-329.187	-3.804	-0.252	-0.175
-328.172	53.543	0.289	0.278
-327.158	-50.306	-0.244	-0.115
-326.143	329.519	-0.094	-0.180
-325.129	-6.235	-0.253	-0.173
-324.114	-169.661	0.282	0.010
-323.099	-151.897	-0.242	0.018
-322.085	86.066	-0.108	-0.118
-321.070	-155.337	-0.072	-0.005
-320.056	6.827	0.066	0.049
-319.041	-141.827	-0.167	0.017
-318.026	658.099	0.072	-0.185
-317.012	-142.589	-0.105	0.010
-315.997	-58.236	-0.121	0.053
-314.983	19.712	0.090	0.073
-313.968	39.572	-0.113	0.101
-312.953	800.000	0.066	0.185
-311.939	-167.292	-0.118	-0.005
-310.924	42.923	-0.074	-0.067
-309.910	87.728	-0.126	-0.139
-308.895	-71.639	-0.271	-0.101
-307.880	155.616	-0.132	-0.181
-306.866	-123.715	0.445	-0.070
-305.851	495.089	0.161	0.370
-304.837	178.224	0.067	0.098
-303.822	-11.364	0.142	-0.094
-302.807	-190.603	0.231	-0.002
-301.793	-79.935	0.114	-0.038
-300.778	-200.000	-0.005	-0.142
-299.764	140.242	-0.137	-0.180
-298.749	176.765	0.007	0.011
-297.735	800.000	-0.015	0.045
-296.720	-117.659	0.173	0.031
-295.705	800.000	0.058	0.242
-294.691	-59.592	-0.236	-0.101
-293.676	-110.978	-0.179	0.037
-292.662	800.000	0.082	0.341
-291.647	-117.631	-0.167	0.030
-290.632	333.218	0.159	-0.307
-289.618	-35.806	-0.173	-0.093
-288.603	-200.000	-0.011	-0.091
-287.589	800.000	-0.104	0.335
-286.574	-200.000	-0.011	0.084
-285.559	800.000	-0.028	0.081
-284.545	-66.778	-0.335	0.132
-283.530	-200.000	0.022	-0.184
-282.516	72.697	0.027	-0.028
-281.501	34.203	-0.284	0.248
-280.486	60.289	0.245	-0.242
-279.472	-50.870	0.105	-0.049
-278.457	800.000	0.010	0.029
-277.443	-101.959	-0.129	0.031
-276.428	243.306	-0.117	0.195
-275.413	0.094	-0.179	0.127
-274.399	-192.744	-0.304	-0.003
-273.384	-122.065	-0.259	-0.042
-272.370	-119.128	0.131	0.023
-271.355	-67.279	0.253	0.099
-270.340	-200.000	0.010	-0.172
-269.326	-90.439	-0.044	-0.013
-268.311	-65.175	-0.249	0.100
-267.297	303.004	0.031	-0.057
-266.282	-139.057	0.118	-0.013
-265.267	-25.920	0.301	-0.177
-264.253	-200.000	0.016	-0.253
-263.238	98.106	0.096	-0.110
-262.224	314.978	-0.122	0.229
-261.209	28.777	-0.286	0.242
-260.195	-119.112	0.192	0.033
-259.180	-52.079	0.135	0.062
-258.165	800.000	0.040	0.125
-257.151	131.516	-0.119	0.152
-256.136	778.661	-0.078	-0.212
-255.122	117.505	0.053	-0.065
-254.107	37.173	0.110	-0.097
-253.092	-20.061	0.190	-0.117
-252.078	800.000	0.029	0.094
-251.063	188.711	0.023	-0.034
-250.049	-200.000	-0.042	-0.437
-249.034	-117.311	-0.415	-0.075
-248.019	800.000	0.015	0.051
-247.005	58.300	0.071	-0.070
-245.990	-200.000	0.016	0.188
-244.976	-1.206	0.462	-0.325
-243.961	-58.548	-0.307	-0.133
-242.946	49.403	-0.182	-0.170
-241.932	-124.668	0.400	0.062
-240.917	737.415	-0.061	0.164
-239.903	545.509	0.096	0.228
-238.888	25.427	0.090	0.075
-237.873	173.525	0.073	-0.105
-236.859	229.741	0.079	-0.129
-235.844	-68.314	0.181	0.070
-234.830	233.702	-0.026	0.043
-233.815	376.498	-0.073	-0.149
-232.800	238.135	0.157	0.260
-231.786	-34.424	0.517	0.282
-230.771	-200.000	-0.022	0.099
-229.757	3.953	0.214	0.156
-228.742	-5.241	0.229	-0.157
-227.727	-115.813	-0.068	0.013
-226.713	-46.373	0.335	-0.164
-225.698	9.265	-0.152	-0.115
-224.684	162.378	0.199	0.278
-223.669	557.325	-0.083	-0.199
-222.655	-132.112	-0.074	-0.010
-221.640	-144.646	0.185	-0.017
-220.625	800.000	-0.055	0.221
-219.611	10.026	-0.026	0.020
-218.596	-32.705	0.298	-0.165
-217.582	800.000	-0.078	0.238
-216.567	413.449	-0.149	-0.316
-215.552	6.599	0.219	0.162
-214.538	292.848	0.121	0.220
-213.523	-51.787	-0.297	0.138
-212.509	0.504	-0.120	-0.085
-211.494	-4.506	-0.187	0.128
-210.479	-123.875	0.215	-0.034
-209.465	170.260	-0.062	0.088
-208.450	-0.577	0.362	-0.256
-207.436	22.529	0.174	-0.142
-206.421	166.484	0.179	0.252
-205.406	72.243	0.017	0.018
-204.392	-32.432	0.192	-0.106
-203.377	22.200	0.141	0.115
-202.363	-48.635	-0.138	0.066
-201.348	-159.063	-0.308	-0.017
-200.333	127.732	-0.114	0.145
-199.319	800.000	-0.109	0.356
-198.304	-200.000	-0.009	0.125
-197.290	800.000	0.034	0.138
-196.275	29.909	0.221	0.187
-195.260	-120.460	-0.207	0.035
-194.246	43.835	-0.119	0.108
-193.231	251.378	0.113	0.192
-192.217	-26.715	0.285	-0.166
-191.202	107.536	-0.052	-0.061
-190.187	-200.000	0.090	0.442
-189.173	-200.000	0.011	0.096
-188.158	25.539	0.258	0.214
-187.144	-169.616	0.126	-0.005
-186.129	256.897	0.165	-0.282
-185.114	-138.404	0.046	0.005
-184.100	800.000	-0.040	0.162
-183.085	-200.000	-0.026	0.414
-182.071	452.276	0.083	0.183
-181.056	-200.000	-0.020	0.292
-180.042	92.412	-0.179	0.200
-179.027	-110.716	0.036	0.007
-178.012	-16.503	-0.247	-0.156
-176.998	68.611	0.235	-0.240
-175.983	-200.000	0.027	0.163
-174.969	297.119	0.104	0.190
-173.954	122.450	0.171	-0.212
-172.939	-200.000	0.089	0.460
-171.925	-33.597	0.088	0.048
-170.910	51.602	0.328	-0.310
-169.896	-128.877	0.280	0.039
-168.881	123.624	0.137	0.171
-167.866	135.220	-0.115	-0.149
-166.852	-200.000	-0.068	0.375
-165.837	-89.809	0.083	-0.024
-164.823	5.917	-0.177	-0.130
-163.808	800.000	-0.043	0.171
-162.793	-200.000	-0.046	0.263
-161.779	800.000	-0.119	0.469
-160.764	-39.310	-0.251	0.131
-159.750	-12.042	0.266	0.173
-158.735	133.118	-0.036	0.047
-157.720	462.865	0.190	-0.421
-156.706	-94.883	0.345	-0.093
-155.691	-124.881	0.265	0.041
-154.677	-91.892	-0.189	0.053
-153.662	-160.591	-0.101	0.005
-152.647	370.663	0.034	0.068
-151.633	337.156	-0.113	0.219
-150.618	169.739	-0.152	0.216
-149.604	188.178	-0.107	0.159
-148.589	153.632	0.238	-0.324
-147.574	22.530	-0.151	0.122
-146.560	-104.521	0.102	0.024
-145.545	-95.071	-0.198	-0.053
-144.531	-98.342	0.331	-0.084
-143.516	-34.193	0.099	-0.054
-142.502	800.000	-0.057	-0.196
-141.487	-151.919	0.074	-0.005
-140.472	177.213	-0.086	-0.125
-139.458	-92.318	-0.294	0.082
-138.443	253.266	0.022	-0.038
-137.429	800.000	0.065	0.209
-136.414	-64.005	-0.271	-0.110
-135.399	267.752	0.106	-0.185
-134.385	-200.000	-0.057	0.430
-133.370	-200.000	-0.017	0.399
-132.356	-49.476	0.074	-0.035
-131.341	-168.241	-0.069	0.003
-130.326	-200.000	-0.011	-0.302
-129.312	40.973	-0.104	-0.093
-128.297	-200.000	-0.000	0.187
-127.283	102.775	0.180	0.209
-126.268	-200.000	0.012	-0.156
-125.253	121.997	-0.077	0.095
-124.239	-200.000	0.009	-0.150
-123.224	-103.623	0.599	-0.140
-122.210	-200.000	0.032	-0.198
