DTS Sentinel unit serial number:	SN413079Multiplexer serial number:	ORYXHardware model number:	OX4-SRSoftware version number:	ORYX F/W v4.00 Oryx Data Collector v3.7.2.0data status	okinstallation	princeton_trtdifferential loss correction	single-endedforward channel	channel 2reverse channel	N/Adate	2019/09/12time	19:42:49forward acquisition time	15.00reverse acquisition time	0.00gamma	496.2192k internal	0.2327k external	0.2327temperature offset calibration	1.0160default loss term (dB/km)	0.3790temperature slope calibration	1.0000multiplexer offset coefficient	1.0000multiplexer slope coefficient	1.0000fibre end	0.00T internal ref (°C)	32.06T ext. ref 1 (°C)	3.51T ext. ref 2 (°C)	26.54length (m)	temperature (°C)	Stokes	anti-Stokes-747.200	800.000	0.098	0.411
-746.185	-200.000	0.041	0.241
-745.171	800.000	0.068	0.293
-744.156	22.009	0.020	-0.016
-743.142	137.620	-0.422	-0.557
-742.127	164.662	-0.265	-0.377
-741.112	800.000	-0.086	-0.284
-740.098	-12.675	-0.313	0.206
-739.083	19.195	-0.597	-0.483
-738.069	-66.962	0.986	0.392
-737.054	17.125	-0.476	-0.381
-736.039	-198.331	-1.144	0.007
-735.025	114.011	0.192	-0.236
-734.010	76.604	-0.712	-0.761
-732.996	51.807	-0.551	-0.529
-731.981	16.342	-0.212	0.169
-730.966	181.533	0.335	-0.497
-729.952	136.793	0.377	-0.496
-728.937	-200.000	-0.066	-0.786
-727.923	402.831	-0.186	0.394
-726.908	-200.000	-0.091	0.976
-725.894	532.223	0.184	-0.440
-724.879	-200.000	-0.056	-0.250
-723.864	696.946	-0.119	-0.315
-722.850	-200.000	-0.069	-0.449
-721.835	60.159	0.143	-0.142
-720.821	168.496	0.124	-0.179
-719.806	-133.488	-0.796	-0.101
-718.791	-89.524	-0.408	0.121
-717.777	-200.000	0.038	0.380
-716.762	305.918	0.420	-0.788
-715.748	-90.045	0.890	-0.261
-714.733	-157.470	0.184	0.011
-713.718	-55.027	0.055	-0.025
-712.704	-101.964	-0.624	0.152
-711.689	363.083	0.193	-0.391
-710.675	591.200	0.286	-0.711
-709.660	368.119	-0.168	0.342
-708.645	672.602	-0.243	0.633
-707.631	800.000	0.077	0.234
-706.616	256.466	-0.524	-0.905
-705.602	-200.000	0.013	0.455
-704.587	800.000	-0.107	-0.334
-703.572	50.794	-0.431	0.411
-702.558	118.140	-0.307	0.381
-701.543	81.470	0.260	0.283
-700.529	29.778	-0.796	0.683
-699.514	800.000	-0.139	0.393
-698.499	284.158	-0.075	-0.136
-697.485	408.930	0.325	-0.693
-696.470	295.498	0.348	0.642
-695.456	800.000	0.222	0.624
-694.441	201.266	-0.631	-0.978
-693.426	-131.863	0.347	0.046
-692.412	484.973	0.184	0.423
-691.397	45.188	-0.510	-0.473
-690.383	-90.701	-0.968	-0.281
-689.368	800.000	0.078	0.232
-688.354	-33.332	-0.308	-0.172
-687.339	275.129	-0.020	0.036
-686.324	-200.000	0.140	-0.869
-685.310	271.534	-0.362	0.642
-684.295	-28.790	-0.706	-0.409
-683.281	27.398	0.443	-0.374
-682.266	-177.283	0.608	0.015
-681.251	-176.277	-0.690	0.018
-680.237	800.000	0.165	-0.479
-679.222	132.767	-0.109	0.141
-678.208	83.252	0.226	0.248
-677.193	50.834	-0.237	-0.225
-676.178	-81.508	0.806	-0.267
-675.164	-184.387	-0.664	-0.011
-674.149	-200.000	-0.220	-1.257
-673.135	59.880	0.117	0.116
-672.120	-151.280	0.668	-0.050
-671.105	-64.720	-1.186	0.483
-670.091	160.647	0.438	-0.615
-669.076	501.723	0.183	0.424
-668.062	99.387	0.272	-0.316
-667.047	-125.029	-0.287	-0.044
-666.032	-48.414	0.343	0.166
-665.018	-10.207	-0.824	-0.550
-664.003	-74.122	-0.107	-0.039
-662.989	-60.834	0.963	0.410
-661.974	150.729	0.117	-0.160
-660.959	96.199	0.508	-0.583
-659.945	7.294	-0.894	-0.671
-658.930	2.364	0.643	-0.468
-657.916	-68.511	-0.283	0.110
-656.901	225.930	0.756	-1.232
-655.886	13.674	0.728	-0.568
-654.872	45.643	-0.550	0.511
-653.857	-92.174	-0.632	0.179
-652.843	-200.000	0.048	-0.247
-651.828	59.729	0.179	-0.177
-650.814	800.000	-0.196	-0.667
-649.799	-80.963	-0.881	0.293
-648.784	-200.000	-0.079	-0.599
-647.770	-114.140	0.858	0.167
-646.755	105.850	-0.121	-0.144
-645.741	143.555	-0.308	0.412
-644.726	188.729	0.419	0.629
-643.711	800.000	-0.190	-0.794
-642.697	-133.647	1.178	0.148
-641.682	105.514	-0.118	-0.140
-640.668	-200.000	0.036	0.221
-639.653	-24.794	-0.716	-0.427
-638.638	-94.306	-0.957	0.263
-637.624	800.000	0.035	-0.136
-636.609	-200.000	-0.004	-0.442
-635.595	42.909	-0.152	0.139
-634.580	-200.000	-0.117	-0.662
-633.565	-44.337	0.141	0.071
-632.551	145.010	-0.120	-0.161
-631.536	-200.000	-0.036	0.368
-630.522	-110.921	-0.388	-0.080
-629.507	-82.313	0.247	-0.081
-628.492	263.664	-0.353	0.617
-627.478	-58.935	-0.988	0.429
-626.463	800.000	0.124	0.507
-625.449	-200.000	-0.030	-0.621
-624.434	-152.268	-0.218	-0.016
-623.419	153.454	0.432	-0.594
-622.405	-200.000	0.190	-1.105
-621.390	97.984	0.635	-0.733
-620.376	-142.176	0.306	-0.030
-619.361	-158.347	0.912	-0.053
-618.346	-120.896	0.675	-0.114
-617.332	800.000	-0.068	0.274
-616.317	50.394	-0.203	0.192
-615.303	169.819	0.205	-0.294
-614.288	-90.338	0.616	-0.179
-613.273	82.764	-0.191	-0.208
-612.259	800.000	0.267	-0.997
-611.244	-128.001	-0.856	0.123
-610.230	-150.723	0.457	-0.035
-609.215	254.366	-0.313	-0.536
-608.201	-99.014	-0.129	-0.033
-607.186	-200.000	0.017	-0.112
-606.171	-42.056	0.717	-0.368
-605.157	42.098	0.073	-0.066
-604.142	-166.528	-1.030	-0.043
-603.128	-12.067	0.650	0.427
-602.113	800.000	-0.178	0.644
-601.098	-70.292	-0.708	-0.270
-600.084	-24.874	-0.639	-0.380
-599.069	-54.570	-0.543	-0.246
-598.055	97.955	0.185	0.214
-597.040	350.671	0.138	-0.274
-596.025	-41.411	-0.819	0.423
-595.011	-95.097	-0.557	0.151
-593.996	-125.116	-0.318	0.049
-592.982	-69.669	-0.497	-0.191
-591.967	140.168	0.453	-0.599
-590.952	-18.294	0.317	-0.199
-589.938	137.788	0.346	-0.454
-588.923	-61.221	-0.218	-0.092
-587.909	566.696	-0.337	-0.820
-586.894	485.606	0.307	0.701
-585.879	155.047	-0.381	0.525
-584.865	192.265	0.555	-0.839
-583.850	-98.337	0.507	-0.130
-582.836	-167.096	-0.565	-0.023
-581.821	-71.705	-0.893	0.334
-580.806	-200.000	0.115	-0.530
-579.792	800.000	0.084	-0.282
-578.777	-200.000	0.019	-0.101
-577.763	87.385	0.439	-0.486
-576.748	-200.000	0.023	0.885
-575.733	479.434	0.147	0.333
-574.719	170.792	-0.253	-0.363
-573.704	-25.421	0.362	-0.214
-572.690	12.390	0.117	0.090
-571.675	316.320	-0.445	-0.842
-570.661	480.595	0.111	-0.252
-569.646	28.434	0.604	0.512
-568.631	-50.093	-0.307	-0.146
-567.617	-131.613	0.889	-0.117
-566.602	-145.514	0.619	-0.056
-565.588	800.000	0.120	-0.430
-564.573	-79.550	0.445	-0.150
-563.558	204.534	-0.119	0.185
-562.544	-0.141	-0.840	0.598
-561.529	134.029	-0.610	0.791
-560.515	-200.000	0.014	0.115
-559.500	304.145	-0.222	0.412
-558.485	-149.921	0.293	0.023
-557.471	-200.000	0.024	0.184
-556.456	182.142	0.405	0.598
-555.442	-22.857	0.560	0.338
-554.427	514.822	-0.167	0.390
-553.412	-200.000	0.728	-0.002
-552.398	-200.000	-0.873	-0.004
-551.383	75.355	-0.713	0.753
-550.369	50.527	-0.824	0.780
-549.354	62.771	0.715	-0.716
-548.339	373.669	-0.330	0.672
-547.325	394.066	0.282	-0.587
-546.310	-81.143	-0.972	-0.321
-545.296	103.511	-0.068	-0.080
-544.281	261.158	0.528	-0.914
-543.266	-47.082	0.944	-0.461
-542.252	-133.525	-0.568	0.071
-541.237	19.349	0.561	-0.451
-540.223	-120.646	-0.477	0.081
-539.208	66.109	0.374	-0.380
-538.193	343.530	-0.075	-0.147
-537.179	238.854	-0.063	0.105
-536.164	-132.418	1.090	-0.141
-535.150	314.363	0.442	-0.833
-534.135	-200.000	-0.082	1.280
-533.121	515.011	-0.363	0.848
-532.106	163.871	0.449	-0.633
-531.091	2.282	-0.361	0.261
-530.077	-200.000	0.121	0.630
-529.062	-22.544	-0.506	-0.306
-528.048	-200.000	0.023	-0.283
-527.033	800.000	-0.138	-0.507
-526.018	-93.260	-0.914	0.254
-525.004	-41.525	-0.661	-0.340
-523.989	616.684	0.105	0.263
-522.975	0.667	-0.744	0.532
-521.960	57.749	0.368	-0.359
-520.945	151.107	0.465	0.632
-519.931	-200.000	-0.057	-0.671
-518.916	-124.694	0.369	-0.057
-517.902	-200.000	0.048	-0.445
-516.887	366.075	-0.154	-0.309
-515.872	322.779	0.264	0.503
-514.858	21.961	-0.239	0.195
-513.843	-72.685	0.439	0.162
-512.829	-14.650	-0.282	-0.181
-511.814	-64.302	0.695	-0.283
-510.799	331.172	0.218	0.419
-509.785	-134.901	0.544	-0.066
-508.770	670.715	-0.357	0.923
-507.756	368.048	0.198	0.400
-506.741	-154.534	-0.719	-0.048
-505.726	-200.000	0.057	-0.923
-504.712	0.205	0.316	-0.225
-503.697	151.838	0.244	-0.332
-502.683	800.000	0.202	-0.628
-501.668	-155.935	-0.533	0.034
-500.653	800.000	0.330	1.040
-499.639	215.029	0.764	1.210
-498.624	-134.501	-0.609	0.074
-497.610	800.000	0.058	0.218
-496.595	487.247	0.223	-0.509
-495.581	-48.487	0.420	0.202
-494.566	-87.284	0.495	0.150
-493.551	-102.197	-0.676	-0.162
-492.537	-99.325	0.246	-0.062
-491.522	-71.003	-0.255	-0.096
-490.508	-0.369	-0.758	0.538
-489.493	558.753	-0.084	0.202
-488.478	72.796	-0.538	0.560
-487.464	-95.603	-0.028	-0.007
-486.449	-200.000	-0.099	0.437
-485.435	63.995	0.244	-0.245
-484.420	-50.679	0.124	-0.058
-483.405	-200.000	0.061	-0.288
-482.391	781.381	0.205	-0.559
-481.376	800.000	-0.074	-0.291
-480.362	113.194	-0.342	-0.414
-479.347	123.764	0.078	0.097
-478.332	-200.000	0.064	-0.689
-477.318	19.512	0.270	-0.216
-476.303	-38.106	0.490	0.260
-475.289	800.000	-0.282	0.948
-474.274	-200.000	-0.116	0.517
-473.259	76.547	-0.489	-0.517
-472.245	28.509	-0.135	-0.114
-471.230	-8.336	-0.219	0.147
-470.216	-200.000	0.010	0.441
-469.201	15.004	0.270	-0.211
-468.186	482.220	-0.423	-0.958
-467.172	-200.000	0.183	-0.838
-466.157	80.612	0.190	0.204
-465.143	800.000	0.045	-0.162
-464.128	-200.000	0.152	1.248
-463.113	-38.340	-0.816	0.431
-462.099	-125.818	0.308	0.046
-461.084	800.000	0.228	0.715
-460.070	-200.000	-0.131	0.739
-459.055	161.316	-0.597	0.832
-458.040	-83.078	-1.403	-0.450
-457.026	133.409	0.116	-0.150
-456.011	-16.492	0.243	0.153
-454.997	98.732	0.549	-0.632
-453.982	718.834	-0.260	0.688
-452.968	10.083	-0.623	-0.472
-451.953	-74.498	0.849	0.305
-450.938	-116.974	-0.670	-0.122
-449.924	-147.183	-0.382	0.032
-448.909	-200.000	-0.033	0.197
-447.895	128.810	0.071	-0.090
-446.880	171.571	-0.344	-0.493
-445.865	-24.540	0.221	0.131
-444.851	-70.031	0.270	-0.102
-443.836	-200.000	0.162	-0.881
-442.822	-108.479	0.748	-0.160
-441.807	18.914	-0.461	0.368
-440.792	-67.515	0.572	0.224
-439.778	-200.000	0.034	-0.220
-438.763	63.030	-0.022	-0.022
-437.749	229.664	0.377	0.613
-436.734	-59.471	-0.171	0.073
-435.719	-200.000	-0.116	0.521
-434.705	6.315	0.280	-0.207
-433.690	564.855	0.298	0.719
-432.676	455.504	0.154	0.341
-431.661	74.802	-0.447	0.469
-430.646	514.271	-0.336	0.782
-429.632	-65.094	1.106	0.445
-428.617	800.000	0.220	0.631
-427.603	-7.923	-0.272	0.183
-426.588	-9.947	-0.330	0.219
-425.573	-200.000	-0.014	0.706
-424.559	105.962	-0.517	-0.609
-423.544	15.129	-0.325	0.254
-422.530	-53.952	0.096	0.044
-421.515	-200.000	-0.036	0.410
-420.500	-45.432	-0.292	-0.144
-419.486	730.247	0.107	-0.285
-418.471	-55.370	-0.257	-0.115
-417.457	757.772	0.226	0.608
-416.442	-21.153	-0.307	-0.187
-415.428	113.821	0.045	-0.054
-414.413	-134.664	0.849	-0.103
-413.398	-200.000	-0.112	-0.640
-412.384	269.705	-0.420	-0.735
-411.369	-200.000	-0.026	-0.130
-410.355	-138.120	-0.694	-0.077
-409.340	-22.629	0.497	0.299
-408.325	800.000	0.285	0.823
-407.311	198.349	-0.517	-0.787
-406.296	127.791	0.460	0.582
-405.282	203.920	-0.121	0.187
-404.267	-200.000	-0.038	-1.028
-403.252	-79.363	0.547	0.184
-402.238	460.167	-0.151	0.334
-401.223	-145.880	-0.814	0.072
-400.209	800.000	0.163	-0.453
-399.194	-38.244	0.545	0.287
-398.179	-5.840	0.484	-0.330
-397.165	19.680	0.567	-0.454
-396.150	-20.493	-0.199	-0.122
-395.136	-20.443	0.561	-0.343
-394.121	-52.017	0.260	-0.120
-393.106	-160.060	-0.688	0.037
-392.092	-65.543	0.217	-0.087
-391.077	80.029	0.647	0.692
-390.063	-15.181	0.416	-0.265
-389.048	-87.533	0.381	-0.115
-388.033	2.506	0.298	0.214
-387.019	-72.097	-0.767	-0.283
-386.004	-77.700	0.628	0.216
-384.990	20.641	0.431	-0.347
-383.975	29.864	0.487	-0.412
-382.960	76.936	-0.580	0.612
-381.946	-200.000	0.105	0.828
-380.931	-8.308	-0.215	-0.144
-379.917	-145.686	-0.414	0.037
-378.902	-131.066	-0.382	0.051
-377.888	-200.000	-0.050	0.522
-376.873	254.517	-0.387	0.657
-375.858	-65.170	0.499	-0.200
-374.844	172.200	-0.542	-0.774
-373.829	72.836	0.299	0.311
-372.815	341.623	-0.405	-0.786
-371.800	53.524	0.395	0.376
-370.785	-117.083	-0.450	-0.081
-369.771	235.966	-0.324	-0.532
-368.756	-86.006	-0.516	-0.158
-367.742	-166.554	0.201	-0.008
-366.727	-111.561	-0.397	0.080
-365.712	-21.275	-0.532	0.323
-364.698	-156.646	0.214	-0.013
-363.683	80.404	0.135	-0.144
-362.669	181.415	0.343	0.501
-361.654	176.508	-0.425	-0.613
-360.639	424.724	-0.251	0.536
-359.625	271.126	0.166	-0.291
-358.610	-125.717	-0.318	0.048
-357.596	-200.000	-0.013	-0.240
-356.581	-44.640	0.783	-0.389
-355.566	54.983	-0.083	0.079
-354.552	-62.141	0.658	0.272
-353.537	-69.213	0.298	0.114
-352.523	-99.354	0.335	-0.084
-351.508	62.069	-0.275	0.272
-350.493	-200.000	0.004	-0.485
-349.479	-126.313	-0.122	0.018
-348.464	-114.298	0.220	0.042
-347.450	-200.000	-0.198	1.009
-346.435	557.658	-0.181	-0.433
-345.420	227.707	-0.410	0.662
-344.406	39.841	0.428	-0.382
-343.391	11.409	0.411	0.313
-342.377	2.738	0.633	-0.455
-341.362	63.847	0.567	-0.565
-340.348	-67.735	-0.634	0.246
-339.333	-86.708	0.659	0.200
-338.318	8.610	-0.369	-0.275
-337.304	67.813	0.438	-0.444
-336.289	1.339	0.077	0.055
-335.275	22.700	-0.227	-0.184
-334.260	436.693	-0.140	-0.302
-333.245	-30.199	-0.529	-0.298
-332.231	-127.726	1.357	0.194
-331.216	-129.259	-0.640	0.088
-330.202	313.338	-0.222	0.415
-329.187	-200.000	-0.037	-0.731
-328.172	-200.000	0.062	0.379
-327.158	555.475	0.348	0.832
-326.143	-86.068	-0.546	-0.167
-325.129	117.680	0.458	-0.560
-324.114	-200.000	0.029	0.137
-323.099	163.324	0.412	-0.574
-322.085	41.106	-0.068	-0.061
-321.070	-200.000	0.124	0.919
-320.056	-200.000	0.189	-1.038
-319.041	89.516	0.420	-0.464
-318.026	800.000	0.242	-0.671
-317.012	50.604	-0.147	0.138
-315.997	-7.060	-0.483	0.325
-314.983	-200.000	0.034	0.977
-313.968	-200.000	-0.016	-0.152
-312.953	291.561	-0.546	0.986
-311.939	-130.671	0.097	0.013
-310.924	800.000	-0.159	0.676
-309.910	-63.330	0.979	0.400
-308.895	215.735	0.121	0.191
-307.880	-118.862	-0.583	0.102
-306.866	-200.000	0.102	-0.913
-305.851	-200.000	0.004	0.287
-304.837	800.000	0.105	0.355
-303.822	58.431	-0.564	0.549
-302.807	-200.000	-0.171	0.866
-301.793	800.000	0.215	0.676
-300.778	-117.451	0.503	-0.090
-299.764	-96.819	-0.257	0.067
-298.749	100.022	0.420	-0.482
-297.735	-149.664	-0.618	-0.048
-296.720	800.000	0.078	0.245
-295.705	640.420	0.397	1.002
-294.691	-131.262	-1.180	0.155
-293.676	-142.058	0.255	-0.025
-292.662	-115.100	-0.352	-0.066
-291.647	-144.857	1.321	-0.120
-290.632	-139.824	-0.916	-0.096
-289.618	82.689	0.375	-0.404
-288.603	800.000	0.092	0.308
-287.589	521.122	0.194	0.452
-286.574	64.394	-0.864	-0.862
-285.559	-200.000	-0.194	-1.413
-284.545	204.435	0.224	-0.344
-283.530	-139.269	-0.670	0.071
-282.516	202.469	0.107	-0.164
-281.501	-106.714	0.211	-0.046
-280.486	-63.670	0.665	-0.270
-279.472	-75.781	-0.594	-0.209
-278.457	-200.000	0.080	0.567
-277.443	800.000	-0.055	0.159
-276.428	-10.641	-0.126	-0.082
-275.413	16.480	-0.497	-0.388
-274.399	-200.000	0.030	-0.646
-273.384	312.434	0.211	-0.393
-272.370	356.819	0.121	-0.239
-271.355	-47.309	-0.521	0.251
-270.340	241.189	-0.378	-0.626
-269.326	-200.000	0.031	0.349
-268.311	-200.000	-0.001	0.240
-267.297	-17.395	0.658	-0.410
-266.282	-200.000	0.116	0.647
-265.267	-200.000	-0.083	-0.671
-264.253	-141.465	0.237	-0.024
-263.238	17.312	0.559	-0.439
-262.224	-36.110	-0.557	0.298
-261.209	-91.773	1.234	-0.347
-260.195	-185.818	1.078	0.016
-259.180	-121.102	0.553	-0.092
-258.165	-200.000	-0.050	0.258
-257.151	800.000	-0.154	-0.603
-256.136	-105.707	-0.282	-0.063
-255.122	-57.845	-0.917	-0.397
-254.107	29.008	-0.210	-0.176
-253.092	76.567	-0.428	-0.449
-252.078	-43.321	0.656	-0.328
-251.063	-200.000	0.042	-0.373
-250.049	693.620	0.203	-0.526
-249.034	7.219	0.478	0.353
-248.019	-200.000	0.015	0.208
-247.005	-200.000	-0.149	0.987
-245.990	-93.180	0.425	-0.117
-244.976	66.683	0.196	0.197
-243.961	-31.087	-0.281	0.157
-242.946	-200.000	0.051	0.503
-241.932	27.418	-0.208	0.173
-240.917	55.623	0.493	0.472
-239.903	-77.768	0.412	-0.141
-238.888	64.767	0.374	0.373
-237.873	27.387	-0.418	0.348
-236.859	-77.411	0.273	0.094
-235.844	129.257	-0.689	-0.869
-234.830	416.086	-0.066	0.139
-233.815	91.710	-0.364	0.404
-232.800	464.613	0.272	-0.601
-231.786	-200.000	-0.078	-0.642
-230.771	800.000	-0.179	0.503
-229.757	-81.409	0.469	-0.153
-228.742	-200.000	-0.034	0.225
-227.727	-200.000	-0.037	-0.653
-226.713	183.896	0.435	0.635
-225.698	-23.050	0.473	-0.282
-224.684	-200.000	-0.017	-0.087
-223.669	106.582	0.509	0.596
-222.655	800.000	-0.229	-0.754
-221.640	-100.317	0.616	-0.151
-220.625	-98.393	0.385	0.097
-219.611	-200.000	0.018	0.166
-218.596	-118.281	0.942	-0.166
-217.582	192.005	0.073	-0.109
-216.567	-166.013	0.338	0.014
-215.552	643.617	0.221	-0.558
-214.538	116.331	-0.577	0.699
-213.523	-77.442	-0.578	0.198
-212.509	63.142	-0.628	-0.622
-211.494	-85.596	0.518	0.159
-210.479	540.128	-0.156	-0.366
-209.465	800.000	-0.183	-0.631
-208.450	-1.115	-0.282	-0.197
-207.436	61.788	-0.511	-0.503
-206.421	489.358	0.128	-0.289
-205.406	-147.372	-0.466	0.039
-204.392	-101.999	-0.487	0.116
-203.377	5.399	-0.642	0.468
-202.363	-200.000	-0.108	-0.523
-201.348	441.953	0.126	-0.273
-200.333	-82.111	-0.429	-0.138
-199.319	-55.886	0.088	0.039
-198.304	455.057	-0.037	0.081
-197.290	-105.884	0.540	0.120
-196.275	580.610	0.182	-0.439
-195.260	800.000	0.112	0.381
-194.246	207.910	0.178	-0.275
-193.231	-200.000	0.162	0.792
-192.217	-32.191	0.400	0.220
-191.202	334.367	0.380	0.727
-190.187	-74.237	-0.388	0.139
-189.173	3.063	0.432	-0.310
-188.158	120.467	-0.516	0.632
-187.144	31.186	0.443	0.375
-186.129	800.000	-0.148	-0.450
-185.114	-98.633	-0.482	-0.121
-184.100	-200.000	-0.059	0.539
-183.085	-78.853	-0.476	-0.160
-182.071	116.343	-0.506	-0.612
-181.056	-7.188	0.454	0.304
-180.042	-171.026	0.056	0.002
-179.027	122.944	0.215	-0.266
-178.012	-137.873	-0.122	-0.013
-176.998	50.578	-0.202	-0.188
-175.983	154.354	0.171	0.232
-174.969	561.188	-0.179	-0.427
-173.954	242.449	0.127	0.209
-172.939	-31.241	0.889	0.494
-171.925	-171.016	-0.459	-0.015
-170.910	188.548	0.183	-0.270
-169.896	-200.000	0.008	0.075
-168.881	-200.000	0.001	0.165
-167.866	23.446	-0.528	-0.428
-166.852	187.691	-0.088	0.130
-165.837	27.147	-0.202	0.167
-164.823	-200.000	-0.097	0.491
-163.808	-36.138	0.232	0.123
-162.793	115.766	-0.198	0.239
-161.779	303.985	0.048	0.088
-160.764	241.766	0.338	0.556
-159.750	80.241	0.165	0.175
-158.735	-54.095	-0.868	-0.389
-157.720	-84.340	-0.833	-0.260
-156.706	56.394	-0.337	-0.323
-155.691	234.433	0.168	0.273
-154.677	599.359	0.234	0.571
-153.662	-93.168	-0.565	0.155
-152.647	11.006	-0.558	0.420
-151.633	-130.906	-0.186	-0.025
-150.618	18.964	-0.404	0.319
-149.604	-154.684	0.532	0.035
-148.589	-157.452	0.714	0.042
-147.574	-134.408	0.475	-0.057
-146.560	-200.000	0.042	0.275
-145.545	-55.371	0.556	0.246
-144.531	800.000	-0.149	-0.470
-143.516	-63.530	-0.629	-0.254
-142.502	-71.427	-0.024	-0.009
-141.487	3.837	0.226	0.162
-140.472	-200.000	-0.097	0.578
-139.458	785.277	0.121	-0.328
-138.443	-67.023	0.496	0.193
-137.429	-127.212	0.741	0.107
-136.414	419.745	-0.187	0.393
-135.399	77.592	0.145	-0.152
-134.385	-112.806	-0.721	-0.141
-133.370	-157.253	-1.120	0.067
-132.356	13.220	0.334	0.254
-131.341	316.265	0.235	-0.437
-130.326	-200.000	-0.019	0.978
-129.312	109.833	-0.319	0.376
-128.297	-43.519	0.630	-0.313
-127.283	101.076	0.820	-0.939
-126.268	-157.704	0.623	0.037
-125.253	-159.423	0.430	-0.024
-124.239	-200.000	-0.087	0.860
-123.224	755.186	0.137	0.366
-122.210	15.721	-0.601	0.465
-121.195	40.107	-0.433	-0.383
-120.180	576.379	0.188	-0.451
