DTS Sentinel unit serial number:	SN413079Multiplexer serial number:	ORYXHardware model number:	OX4-SRSoftware version number:	ORYX F/W v4.00 Oryx Data Collector v3.7.2.0data status	okinstallation	princeton_trtdifferential loss correction	single-endedforward channel	channel 2reverse channel	N/Adate	2019/09/12time	22:19:34forward acquisition time	60.00reverse acquisition time	0.00gamma	496.2192k internal	0.2331k external	0.2331temperature offset calibration	1.0177default loss term (dB/km)	0.3790temperature slope calibration	1.0000multiplexer offset coefficient	1.0000multiplexer slope coefficient	1.0000fibre end	0.00T internal ref (°C)	29.81T ext. ref 1 (°C)	3.73T ext. ref 2 (°C)	24.42length (m)	temperature (°C)	Stokes	anti-Stokes-747.200	-35.813	0.184	0.100
-746.185	-107.766	0.118	-0.026
-745.171	32.732	0.432	0.377
-744.156	96.075	-0.170	0.195
-743.142	-11.649	0.110	-0.073
-742.127	594.942	-0.085	0.210
-741.112	800.000	-0.113	-0.336
-740.098	33.188	-0.170	0.148
-739.083	6.883	0.176	0.132
-738.069	-200.000	0.005	0.360
-737.054	-77.638	-0.299	0.104
-736.039	-2.537	-0.287	0.202
-735.025	-200.000	0.034	0.290
-734.010	716.248	-0.119	0.319
-732.996	-200.000	-0.062	0.277
-731.981	-200.000	-0.001	-0.423
-730.966	-147.641	-0.105	-0.009
-729.952	104.591	-0.090	-0.106
-728.937	238.762	-0.039	-0.066
-727.923	-10.272	-0.266	-0.177
-726.908	800.000	0.034	-0.108
-725.894	-116.239	-0.375	-0.070
-724.879	324.125	0.121	0.232
-723.864	-200.000	0.003	-0.040
-722.850	-200.000	0.015	-0.312
-721.835	-200.000	-0.006	-0.207
-720.821	106.193	-0.129	0.153
-719.806	-28.204	-0.251	0.146
-718.791	-66.202	-0.321	0.129
-717.777	-127.928	0.138	-0.020
-716.762	25.776	0.155	0.130
-715.748	787.817	0.036	-0.099
-714.733	99.701	-0.177	0.206
-713.718	800.000	0.118	0.328
-712.704	300.475	0.085	-0.158
-711.689	79.122	0.373	-0.402
-710.675	128.550	-0.208	-0.266
-709.660	-200.000	-0.020	0.117
-708.645	-53.660	0.250	-0.115
-707.631	556.149	-0.070	0.169
-706.616	-200.000	-0.019	-0.113
-705.602	12.323	0.195	-0.151
-704.587	58.223	0.248	-0.244
-703.572	-50.724	0.321	0.152
-702.558	545.974	0.014	-0.034
-701.543	11.757	0.237	-0.183
-700.529	-200.000	-0.016	-0.263
-699.514	95.612	0.059	-0.068
-698.499	-77.363	-0.308	0.107
-697.485	284.529	-0.064	-0.116
-696.470	360.320	0.203	-0.407
-695.456	800.000	0.111	-0.324
-694.441	-200.000	0.033	-0.400
-693.426	-143.898	0.122	-0.012
-692.412	341.330	-0.042	0.082
-691.397	709.111	0.098	0.261
-690.383	30.759	-0.140	0.120
-689.368	-33.077	-0.093	0.052
-688.354	-59.875	-0.281	-0.121
-687.339	110.147	0.280	0.337
-686.324	-112.378	-0.167	-0.034
-685.310	316.212	-0.099	0.188
-684.295	-28.330	-0.129	-0.075
-683.281	-41.747	0.147	0.076
-682.266	-71.161	-0.135	-0.051
-681.251	111.458	-0.215	-0.260
-680.237	118.225	-0.197	-0.244
-679.222	-200.000	-0.015	-0.174
-678.208	-71.147	0.223	-0.084
-677.193	-55.146	-0.125	-0.056
-676.178	166.332	-0.153	-0.218
-675.164	-81.588	0.146	0.048
-674.149	-200.000	-0.010	-0.241
-673.135	-48.707	-0.089	-0.043
-672.120	-67.567	0.265	-0.104
-671.105	161.920	-0.128	-0.180
-670.091	295.910	0.270	0.497
-669.076	-97.313	-0.397	-0.104
-668.062	-125.509	-0.634	0.097
-667.047	35.948	0.218	-0.193
-666.032	268.480	-0.144	-0.253
-665.018	800.000	-0.080	-0.255
-664.003	800.000	0.053	-0.160
-662.989	-137.269	-0.315	0.036
-661.974	-101.206	-0.106	0.026
-660.959	209.211	-0.210	-0.330
-659.945	800.000	0.040	0.154
-658.930	-189.886	0.330	0.004
-657.916	126.256	-0.324	-0.411
-656.901	117.556	0.247	-0.304
-655.886	-6.215	-0.135	0.093
-654.872	-141.787	-0.196	-0.020
-653.857	-49.357	-0.156	0.074
-652.843	-21.061	-0.269	-0.165
-651.828	280.311	-0.099	-0.177
-650.814	800.000	0.086	-0.364
-649.799	-37.427	-0.111	-0.060
-648.784	18.664	0.115	0.092
-647.770	-200.000	-0.014	0.290
-646.755	-200.000	0.022	0.102
-645.741	-0.131	-0.453	-0.323
-644.726	140.401	0.084	-0.111
-643.711	-131.622	-0.218	-0.029
-642.697	586.955	-0.039	-0.097
-641.682	-150.832	-0.337	-0.026
-640.668	-200.000	-0.007	-0.235
-639.653	-180.620	-0.279	-0.006
-638.638	-53.691	-0.251	-0.115
-637.624	-38.681	0.219	-0.116
-636.609	-42.275	0.176	0.090
-635.595	737.031	0.069	0.186
-634.580	-177.082	-0.238	0.006
-633.565	11.095	0.179	-0.137
-632.551	-52.486	-0.064	0.030
-631.536	369.327	-0.149	0.302
-630.522	-122.336	-0.319	0.052
-629.507	800.000	0.019	-0.066
-628.492	29.098	0.279	0.237
-627.478	104.730	-0.206	0.244
-626.463	202.043	-0.014	-0.022
-625.449	-156.356	-0.066	-0.004
-624.434	-200.000	0.064	0.000
-623.419	-200.000	0.042	0.255
-622.405	211.556	-0.246	0.388
-621.390	-200.000	-0.013	-0.110
-620.376	-69.418	-0.126	-0.049
-619.361	800.000	0.065	-0.225
-618.346	347.963	0.036	-0.072
-617.332	-18.897	0.183	-0.114
-616.317	115.681	-0.119	-0.146
-615.303	800.000	0.082	0.226
-614.288	178.688	0.050	0.073
-613.273	-99.617	-0.252	0.063
-612.259	-87.565	-0.189	0.057
-611.244	178.568	0.184	-0.269
-610.230	-55.767	0.122	0.055
-609.215	-109.300	-0.329	-0.070
-608.201	177.653	0.272	-0.398
-607.186	130.435	0.131	-0.168
-606.171	-144.843	0.078	0.007
-605.157	371.972	-0.111	0.226
-604.142	-51.741	-0.268	-0.125
-603.128	-6.814	-0.128	-0.087
-602.113	195.540	0.091	-0.138
-601.098	-52.173	-0.095	-0.044
-600.084	-85.930	-0.149	0.046
-599.069	-129.511	0.275	-0.038
-598.055	467.856	0.052	0.117
-597.040	-3.421	-0.107	0.075
-596.025	-39.860	0.067	0.035
-595.011	67.372	0.078	-0.080
-593.996	-137.463	-0.078	-0.009
-592.982	192.382	0.152	-0.229
-591.967	673.743	-0.048	0.124
-590.952	170.074	0.218	-0.312
-589.938	-30.821	0.119	0.067
-588.923	54.377	0.191	-0.184
-587.909	800.000	0.063	0.227
-586.894	126.018	0.135	0.171
-585.879	-200.000	0.014	0.226
-584.865	-60.715	0.249	0.105
-583.850	-157.054	0.145	-0.009
-582.836	559.447	0.097	-0.235
-581.821	28.078	-0.160	-0.135
-580.806	296.790	0.108	-0.199
-579.792	-135.114	0.204	0.025
-578.777	800.000	0.146	-0.617
-577.763	130.134	-0.114	-0.146
-576.748	-200.000	-0.002	0.240
-575.733	35.557	-0.049	-0.043
-574.719	-200.000	0.022	-0.114
-573.704	-34.024	0.291	0.160
-572.690	125.224	0.086	0.109
-571.675	-200.000	-0.006	-0.149
-570.661	317.569	-0.095	-0.180
-569.646	-200.000	0.043	-0.269
-568.631	-58.720	-0.385	0.167
-567.617	-200.000	0.003	0.158
-566.602	42.005	0.104	-0.094
-565.588	42.168	-0.354	0.321
-564.573	800.000	0.028	0.097
-563.558	-200.000	-0.032	-0.141
-562.544	-11.782	-0.125	0.082
-561.529	-74.115	0.385	0.139
-560.515	674.721	0.090	-0.233
-559.500	-89.198	0.251	-0.074
-558.485	800.000	-0.037	0.122
-557.471	-27.818	-0.073	0.042
-556.456	-127.973	-0.112	0.016
-555.442	342.673	-0.127	0.248
-554.427	-35.297	0.308	0.167
-553.412	45.539	0.053	0.049
-552.398	800.000	-0.018	-0.074
-551.383	-103.477	-0.079	0.019
-550.369	-200.000	0.040	0.220
-549.354	-2.905	-0.171	0.119
-548.339	-200.000	-0.029	-0.134
-547.325	25.676	-0.097	0.080
-546.310	-50.184	0.052	-0.025
-545.296	176.151	0.047	0.068
-544.281	138.170	-0.091	0.120
-543.266	-200.000	0.053	-0.307
-542.252	800.000	-0.157	0.519
-541.237	-24.380	-0.141	-0.084
-540.223	-200.000	-0.003	0.019
-539.208	-99.960	-0.202	0.050
-538.193	-200.000	-0.005	0.208
-537.179	158.780	-0.177	-0.245
-536.164	283.012	-0.088	0.158
-535.150	85.058	0.108	-0.118
-534.135	800.000	0.022	-0.091
-533.121	-200.000	-0.026	-0.145
-532.106	125.012	-0.080	-0.101
-531.091	-200.000	0.019	-0.173
-530.077	96.805	-0.110	0.126
-529.062	335.800	0.070	-0.136
-528.048	-38.147	-0.061	0.032
-527.033	-200.000	-0.033	-0.185
-526.018	485.435	0.012	-0.027
-525.004	-200.000	-0.000	0.155
-523.989	-44.046	0.161	-0.081
-522.975	13.308	0.247	0.191
-521.960	-200.000	-0.023	-0.162
-520.945	-129.960	0.210	0.029
-519.931	232.281	0.157	0.258
-518.916	246.102	0.154	0.260
-517.902	723.231	-0.072	0.190
-516.887	-121.975	-0.148	0.024
-515.872	477.625	-0.044	-0.099
-514.858	38.229	-0.394	-0.350
-513.843	-71.410	0.267	-0.100
-512.829	189.979	0.090	0.135
-511.814	320.082	-0.070	0.133
-510.799	-139.998	0.127	-0.013
-509.785	-200.000	-0.004	-0.227
-508.770	-98.150	-0.206	-0.053
-507.756	160.199	-0.100	-0.139
-506.741	-133.688	-0.110	0.014
-505.726	104.219	-0.219	0.257
-504.712	650.123	-0.053	0.135
-503.697	-200.000	-0.014	-0.134
-502.683	6.695	0.164	-0.122
-501.668	35.547	0.208	0.182
-500.653	753.651	-0.117	0.316
-499.639	-23.696	0.140	-0.083
-498.624	95.321	0.153	-0.174
-497.610	-97.400	-0.233	0.061
-496.595	47.817	0.123	-0.114
-495.581	35.927	-0.148	-0.130
-494.566	-87.801	-0.328	0.099
-493.551	800.000	-0.041	0.160
-492.537	-16.468	0.069	-0.044
-491.522	14.841	-0.141	-0.110
-490.508	-200.000	0.023	0.160
-489.493	480.136	-0.126	-0.285
-488.478	-200.000	-0.005	0.122
-487.464	297.621	-0.075	0.137
-486.449	-98.472	-0.204	0.052
-485.435	24.247	-0.124	0.102
-484.420	-200.000	0.014	-0.300
-483.405	-85.328	0.180	-0.056
-482.391	18.843	0.116	0.092
-481.376	800.000	-0.117	-0.361
-480.362	-154.591	-0.045	0.003
-479.347	82.687	0.174	0.188
-478.332	-109.692	-0.312	-0.065
-477.318	800.000	0.119	0.327
-476.303	-78.471	0.292	-0.099
-475.289	-158.144	0.149	-0.009
-474.274	-200.000	0.015	0.292
-473.259	18.940	-0.116	0.093
-472.245	-3.714	-0.055	-0.038
-471.230	-45.881	0.240	-0.118
-470.216	-144.662	0.244	-0.022
-469.201	-133.986	0.247	0.030
-468.186	101.888	0.124	0.144
-467.172	376.852	0.139	-0.284
-466.157	-175.236	0.077	0.002
-465.143	477.441	0.086	0.193
-464.128	395.086	-0.097	-0.202
-463.113	-200.000	0.003	-0.083
-462.099	800.000	0.105	-0.318
-461.084	59.976	0.385	-0.379
-460.070	-68.395	0.127	0.049
-459.055	246.710	0.064	-0.107
-458.040	5.417	-0.100	0.074
-457.026	628.666	-0.036	0.091
-456.011	4.911	-0.078	0.057
-454.997	-98.264	-0.208	-0.053
-453.982	-14.735	0.370	-0.236
-452.968	-118.833	-0.181	-0.032
-451.953	355.208	-0.132	-0.261
-450.938	-63.031	-0.252	-0.104
-449.924	214.360	0.030	-0.047
-448.909	36.130	0.227	-0.199
-447.895	-47.254	-0.162	-0.079
-446.880	-128.613	-0.112	-0.016
-445.865	-122.349	-0.071	0.011
-444.851	451.592	-0.110	0.241
-443.836	-63.741	0.129	0.053
-442.822	-89.696	-0.078	-0.023
-441.807	-110.934	-0.294	0.060
-440.792	-188.509	-0.063	0.001
-439.778	-45.469	0.216	0.106
-438.763	-124.219	0.099	0.015
-437.749	-127.187	-0.408	0.059
-436.734	-32.609	0.251	0.139
-435.719	-69.542	-0.386	0.147
-434.705	77.754	-0.167	0.177
-433.690	100.639	-0.258	0.298
-432.676	182.669	0.335	-0.492
-431.661	-56.664	0.183	-0.081
-430.646	236.135	0.178	0.294
-429.632	55.953	0.223	-0.215
-428.617	-140.913	0.553	0.057
-427.603	-40.397	-0.469	-0.242
-426.588	185.220	0.152	0.225
-425.573	800.000	0.031	0.085
-424.559	-33.405	-0.194	-0.107
-423.544	-88.834	0.423	0.125
-422.530	-61.888	-0.245	-0.102
-421.515	-200.000	-0.043	-0.197
-420.500	-200.000	0.026	-0.117
-419.486	-86.656	0.370	-0.113
-418.471	800.000	-0.038	-0.157
-417.457	423.891	0.087	0.186
-416.442	-200.000	0.084	0.519
-415.428	6.678	-0.178	0.132
-414.413	-200.000	-0.033	-0.215
-413.398	0.416	0.311	0.220
-412.384	78.240	-0.046	0.049
-411.369	90.653	0.171	0.190
-410.355	-200.000	-0.013	0.238
-409.340	-200.000	-0.042	0.223
-408.325	38.603	-0.130	-0.115
-407.311	6.143	0.222	-0.164
-406.296	-200.000	-0.011	0.113
-405.282	371.263	-0.081	0.164
-404.267	-93.137	0.173	-0.048
-403.252	146.968	-0.229	-0.305
-402.238	596.213	0.157	-0.387
-401.223	-45.562	-0.157	0.077
-400.209	-118.545	0.205	0.036
-399.194	85.084	-0.130	0.142
-398.179	311.619	0.108	-0.202
-397.165	47.581	0.332	-0.307
-396.150	-94.330	0.166	-0.045
-395.136	-21.235	-0.218	0.132
-394.121	-26.975	-0.271	-0.157
-393.106	-124.718	0.325	-0.050
-392.092	-22.107	0.306	0.185
-391.077	-27.056	0.184	-0.107
-390.063	-76.911	-0.297	-0.103
-389.048	-69.218	0.097	0.037
-388.033	-65.127	0.114	-0.046
-387.019	-108.762	0.334	0.071
-386.004	28.275	-0.295	-0.247
-384.990	-88.859	0.323	-0.095
-383.975	-19.441	0.098	-0.060
-382.960	800.000	0.034	0.119
-381.946	667.895	-0.060	0.154
-380.931	231.872	-0.163	0.265
-379.917	800.000	-0.070	0.233
-378.902	57.803	-0.176	0.171
-377.888	364.034	0.116	-0.231
-376.873	-200.000	0.014	-0.062
-375.858	79.100	0.091	0.097
-374.844	-34.297	0.304	0.166
-373.829	-26.782	0.156	-0.091
-372.815	-40.716	0.182	0.093
-371.800	-6.763	-0.124	-0.084
-370.785	-63.767	-0.151	0.061
-369.771	-121.051	-0.212	-0.035
-368.756	612.930	-0.121	0.299
-367.742	-77.634	0.191	0.066
-366.727	144.213	0.100	-0.133
-365.712	97.710	0.032	0.037
-364.698	800.000	-0.114	-0.380
-363.683	87.635	-0.167	0.184
-362.669	-97.702	-0.206	0.053
-361.654	102.240	-0.067	0.078
-360.639	192.633	-0.038	0.057
-359.625	16.984	0.316	-0.248
-358.610	-125.098	0.023	-0.004
-357.596	17.128	-0.266	0.209
-356.581	261.827	0.083	0.143
-355.566	111.872	-0.191	0.229
-354.552	79.462	0.044	-0.047
-353.537	-81.842	-0.160	-0.052
-352.523	-200.000	-0.044	-0.249
-351.508	-200.000	0.049	0.258
-350.493	697.507	-0.092	-0.241
-349.479	83.846	0.193	0.209
-348.464	-200.000	0.013	-0.206
-347.450	-200.000	0.030	-0.188
-346.435	-88.170	-0.100	-0.030
-345.420	-26.334	-0.286	0.166
-344.406	-52.877	-0.191	-0.087
-343.391	20.689	-0.188	0.150
-342.377	68.704	-0.068	-0.070
-341.362	-126.551	0.286	0.042
-340.348	-29.176	0.110	-0.062
-339.333	-2.584	0.060	0.041
-338.318	-100.639	-0.245	0.060
-337.304	-38.673	0.251	-0.131
-336.289	278.134	-0.059	0.104
-335.275	-27.908	-0.282	0.162
-334.260	800.000	-0.111	0.437
-333.245	17.362	-0.194	0.152
-332.231	-44.010	-0.310	-0.154
-331.216	-200.000	-0.012	0.232
-330.202	271.444	0.158	-0.276
-329.187	1.186	0.195	-0.139
-328.172	211.784	0.080	0.125
-327.158	22.713	0.232	0.188
-326.143	-141.719	0.158	-0.016
-325.129	-187.569	0.341	0.004
-324.114	5.137	-0.169	-0.123
-323.099	-95.306	-0.227	0.061
-322.085	138.466	0.109	-0.142
-321.070	23.459	0.226	-0.184
-320.056	-129.051	-0.128	-0.018
-319.041	800.000	0.077	-0.231
-318.026	800.000	-0.038	-0.107
-317.012	101.988	0.093	-0.107
-315.997	-126.752	0.203	0.030
-314.983	572.235	0.085	0.205
-313.968	-114.575	0.383	-0.073
-312.953	-200.000	-0.034	0.151
-311.939	-48.750	-0.365	0.173
-310.924	-135.050	-0.115	-0.014
-309.910	800.000	0.051	0.172
-308.895	-98.108	-0.213	0.054
-307.880	-121.158	0.061	0.010
-306.866	349.257	0.100	-0.196
-305.851	-90.178	-0.468	-0.135
-304.837	-44.031	0.105	0.052
-303.822	-140.798	-0.135	-0.014
-302.807	-103.514	-0.227	0.053
-301.793	-118.039	-0.215	0.038
-300.778	403.394	0.102	0.212
-299.764	-200.000	-0.042	0.299
-298.749	800.000	-0.096	-0.339
-297.735	-59.279	-0.044	-0.019
-296.720	243.750	-0.197	-0.327
-295.705	-47.483	-0.233	0.112
-294.691	655.064	0.103	0.262
-293.676	-200.000	0.002	0.216
-292.662	11.507	0.247	0.187
-291.647	-200.000	0.008	-0.152
-290.632	-200.000	-0.012	-0.192
-289.618	-54.740	0.437	0.195
-288.603	317.145	0.121	-0.226
-287.589	52.393	0.090	-0.085
-286.574	86.082	0.196	0.213
-285.559	65.105	0.204	-0.203
-284.545	-53.148	-0.079	-0.036
-283.530	-72.202	0.332	0.122
-282.516	37.000	-0.257	0.225
-281.501	800.000	0.035	0.096
-280.486	27.171	-0.161	0.134
-279.472	-200.000	0.009	0.457
-278.457	-5.227	-0.146	0.099
-277.443	-168.343	0.102	0.004
-276.428	-200.000	-0.441	-0.000
-275.413	196.576	-0.073	-0.109
-274.399	-97.823	0.220	0.056
-273.384	-144.614	-0.196	0.018
-272.370	51.618	0.082	0.077
-271.355	-23.425	-0.035	0.021
-270.340	-117.546	-0.103	0.018
-269.326	-98.185	0.301	0.077
-268.311	-8.481	0.212	0.140
-267.297	-52.116	0.386	-0.177
-266.282	490.637	0.047	0.107
-265.267	-200.000	0.037	0.250
-264.253	35.785	0.163	-0.142
-263.238	295.894	0.046	0.083
-262.224	-95.370	0.280	-0.074
-261.209	-200.000	-0.041	0.437
-260.195	30.218	0.092	0.078
-259.180	800.000	-0.043	-0.185
-258.165	-169.928	0.116	-0.004
-257.151	-64.714	-0.046	0.018
-256.136	106.313	-0.143	-0.168
-255.122	-86.262	-0.167	-0.051
-254.107	-45.258	0.239	0.117
-253.092	444.566	0.061	0.131
-252.078	-177.148	-0.176	0.004
-251.063	-200.000	-0.003	0.142
-250.049	261.181	0.224	-0.382
-249.034	800.000	-0.075	-0.297
-248.019	-200.000	0.057	-0.327
-247.005	461.438	0.114	0.250
-245.990	329.278	-0.089	-0.168
-244.976	-4.315	-0.085	0.058
-243.961	-43.066	-0.016	-0.008
-242.946	87.261	0.149	-0.162
-241.932	61.729	0.063	0.062
-240.917	-132.066	-0.100	0.013
-239.903	341.424	-0.103	0.199
-238.888	515.532	-0.118	-0.271
-237.873	-59.296	0.274	0.116
-236.859	-42.616	-0.108	-0.054
-235.844	-5.565	-0.024	0.016
-234.830	193.501	-0.161	-0.240
-233.815	-158.279	-0.484	-0.028
-232.800	-147.543	-0.079	0.007
-231.786	-45.268	0.096	0.047
-230.771	-47.833	0.240	-0.115
-229.757	34.939	-0.322	0.278
-228.742	-200.000	-0.025	0.176
-227.727	-84.403	0.190	-0.059
-226.713	230.700	0.074	-0.119
-225.698	-200.000	0.001	0.239
-224.684	213.554	0.087	0.136
-223.669	-66.825	-0.218	-0.085
-222.655	-160.880	-0.203	0.011
-221.640	-1.456	0.147	0.103
-220.625	800.000	-0.028	0.103
-219.611	7.568	-0.221	0.163
-218.596	-113.023	-0.319	-0.062
-217.582	-200.000	-0.064	-0.391
-216.567	176.498	-0.036	-0.051
-215.552	-23.686	0.115	0.068
-214.538	-200.000	0.025	-0.112
-213.523	-189.950	0.264	-0.003
-212.509	-200.000	0.003	0.058
-211.494	-200.000	-0.008	-0.039
-210.479	-75.639	0.024	-0.008
-209.465	-200.000	0.020	0.096
-208.450	-153.228	0.163	-0.011
-207.436	-5.534	-0.269	0.182
-206.421	-200.000	-0.012	0.262
-205.406	483.429	0.032	0.072
-204.392	-125.895	-0.102	-0.015
-203.377	155.929	0.060	-0.082
-202.363	-67.408	0.202	0.078
-201.348	800.000	-0.051	0.193
-200.333	-0.983	-0.252	-0.176
-199.319	-78.722	0.123	-0.041
-198.304	750.671	0.085	-0.225
-197.290	198.938	-0.166	-0.251
-196.275	-200.000	0.005	-0.152
-195.260	-113.763	-0.178	-0.034
-194.246	-104.265	0.364	0.083
-193.231	-31.425	-0.197	-0.109
-192.217	-69.405	0.094	-0.036
-191.202	-200.000	-0.008	-0.074
-190.187	-4.152	0.082	0.056
-189.173	386.798	0.147	-0.300
-188.158	-200.000	0.024	-0.289
-187.144	24.592	-0.184	0.150
-186.129	-139.513	-0.057	-0.006
-185.114	361.882	-0.144	-0.285
-184.100	129.654	0.062	-0.078
-183.085	-106.412	0.022	0.005
-182.071	-0.061	0.159	-0.112
-181.056	16.241	0.253	0.197
-180.042	243.908	-0.123	-0.204
-179.027	800.000	0.042	0.173
-178.012	-200.000	0.002	0.014
-176.998	-149.451	0.278	0.022
-175.983	589.666	-0.084	-0.203
-174.969	441.277	-0.060	-0.129
-173.954	10.705	-0.125	0.094
-172.939	-132.244	-0.163	-0.021
-171.925	255.790	-0.049	0.082
-170.910	80.727	-0.052	-0.055
-169.896	175.799	-0.064	0.092
-168.881	-114.777	-0.177	0.033
-167.866	84.090	-0.095	0.103
-166.852	544.985	-0.079	-0.187
-165.837	120.910	-0.108	0.132
-164.823	17.443	-0.171	0.133
-163.808	788.749	0.086	0.232
-162.793	-48.194	0.154	-0.073
-161.779	240.752	-0.086	-0.141
-160.764	67.473	-0.181	-0.182
-159.750	98.983	0.099	-0.112
-158.735	-96.666	-0.366	0.095
-157.720	-102.210	0.242	0.057
-156.706	60.760	0.176	0.171
-155.691	74.407	-0.071	0.074
-154.677	-200.000	-0.055	0.272
-153.662	336.481	-0.161	-0.308
-152.647	800.000	-0.046	-0.171
-151.633	800.000	0.110	-0.401
-150.618	-51.372	-0.246	-0.113
-149.604	465.581	-0.050	-0.110
-148.589	431.138	-0.072	-0.153
-147.574	93.538	0.053	-0.059
-146.560	-141.128	0.413	-0.041
-145.545	26.125	0.153	0.125
-144.531	-109.869	-0.082	-0.017
-143.516	15.995	0.117	0.090
-142.502	-83.971	-0.046	-0.014
-141.487	-132.480	-0.144	0.018
-140.472	800.000	-0.066	-0.265
-139.458	-200.000	-0.028	0.189
-138.443	497.376	-0.100	-0.225
-137.429	-73.363	0.151	-0.054
-136.414	-200.000	0.002	0.221
-135.399	-76.138	-0.473	-0.164
-134.385	553.918	0.150	-0.355
-133.370	369.439	0.082	0.163
-132.356	50.025	0.104	-0.096
-131.341	-127.352	-0.110	0.016
-130.326	-200.000	-0.008	0.149
-129.312	46.484	-0.139	0.127
-128.297	-115.236	0.186	0.035
-127.283	622.776	-0.094	-0.232
-126.268	50.775	0.136	-0.127
-125.253	-113.746	-0.172	0.033
-124.239	-3.146	-0.065	-0.045
-123.224	800.000	0.065	-0.244
-122.210	-144.562	0.079	0.007
-121.195	27.386	0.103	0.085
