DTS Sentinel unit serial number:	SN413079Multiplexer serial number:	ORYXHardware model number:	OX4-SRSoftware version number:	ORYX F/W v4.00 Oryx Data Collector v3.7.2.0data status	okinstallation	princeton_trtdifferential loss correction	single-endedforward channel	channel 2reverse channel	N/Adate	2019/09/17time	20:07:34forward acquisition time	60.00reverse acquisition time	0.00gamma	496.2192k internal	0.2333k external	0.2333temperature offset calibration	0.9984default loss term (dB/km)	0.3790temperature slope calibration	1.0000multiplexer offset coefficient	1.0000multiplexer slope coefficient	1.0000fibre end	0.00T internal ref (°C)	32.58T ext. ref 1 (°C)	0.22T ext. ref 2 (°C)	22.58length (m)	temperature (°C)	Stokes	anti-Stokes-747.200	202.318	-0.036	-0.056
-746.185	-101.300	-0.421	0.103
-745.171	262.844	-0.055	0.097
-744.156	194.894	0.127	0.193
-743.142	24.124	0.212	-0.176
-742.127	34.818	-0.216	-0.190
-741.112	-113.694	-0.177	-0.035
-740.098	-78.433	0.179	-0.062
-739.083	502.409	0.093	-0.215
-738.069	-200.000	0.005	-0.124
-737.054	543.718	0.036	-0.085
-736.039	137.800	-0.106	-0.140
-735.025	121.877	-0.217	-0.272
-734.010	232.933	-0.197	0.325
-732.996	-101.243	0.145	0.036
-731.981	42.100	0.183	-0.167
-730.966	-143.465	-0.148	0.014
-729.952	18.323	-0.071	0.057
-728.937	-161.864	-0.082	-0.004
-727.923	-84.349	-0.324	-0.103
-726.908	-99.395	-0.495	-0.125
-725.894	272.990	-0.048	-0.085
-724.879	364.365	-0.064	0.129
-723.864	83.567	-0.196	0.215
-722.850	-52.537	0.026	-0.012
-721.835	130.292	-0.056	-0.072
-720.821	-34.164	-0.158	0.087
-719.806	-79.985	-0.122	-0.041
-718.791	800.000	-0.025	-0.072
-717.777	-84.187	-0.151	-0.048
-716.762	544.025	0.131	-0.314
-715.748	732.522	0.105	-0.283
-714.733	441.850	-0.090	-0.198
-713.718	-58.826	-0.271	0.118
-712.704	800.000	-0.059	-0.232
-711.689	32.134	0.132	0.114
-710.675	-125.363	-0.257	-0.039
-709.660	723.096	-0.105	-0.281
-708.645	30.800	0.276	-0.237
-707.631	-58.850	-0.307	0.133
-706.616	-135.083	-0.257	-0.031
-705.602	260.398	-0.124	0.216
-704.587	-200.000	-0.012	-0.186
-703.572	333.315	0.055	-0.107
-702.558	-142.904	0.314	-0.031
-701.543	-23.594	0.407	-0.245
-700.529	408.582	-0.054	-0.114
-699.514	-200.000	0.033	0.303
-698.499	-129.972	0.296	0.041
-697.485	-11.139	0.047	0.031
-696.470	-71.561	0.110	-0.041
-695.456	158.859	0.289	-0.403
-694.441	-97.935	-0.188	-0.049
-693.426	-40.949	0.105	0.054
-692.412	355.505	-0.146	-0.291
-691.397	-141.020	-0.146	-0.015
-690.383	156.119	0.126	-0.174
-689.368	413.102	0.078	-0.166
-688.354	158.106	-0.214	-0.298
-687.339	-200.000	-0.026	0.233
-686.324	-139.270	0.140	-0.015
-685.310	800.000	-0.029	-0.102
-684.295	132.874	-0.149	-0.193
-683.281	-72.706	-0.244	-0.090
-682.266	800.000	-0.113	-0.399
-681.251	113.805	0.146	-0.178
-680.237	-84.204	0.146	-0.046
-679.222	-84.125	-0.454	-0.144
-678.208	-200.000	-0.048	-0.227
-677.193	-81.321	0.255	0.084
-676.178	-120.301	-0.229	-0.039
-675.164	-0.815	0.556	0.395
-674.149	-200.000	-0.016	-0.159
-673.135	59.031	-0.185	0.182
-672.120	2.063	-0.314	0.227
-671.105	146.359	0.047	0.063
-670.091	139.783	-0.080	-0.106
-669.076	129.695	0.135	0.173
-668.062	-110.795	-0.066	0.014
-667.047	-187.180	0.085	0.001
-666.032	189.383	-0.106	-0.160
-665.018	-200.000	0.027	0.448
-664.003	299.286	-0.058	0.106
-662.989	41.839	-0.169	0.154
-661.974	-200.000	-0.009	-0.265
-660.959	14.735	-0.162	-0.127
-659.945	321.252	-0.043	-0.082
-658.930	373.967	-0.215	0.438
-657.916	-35.536	-0.258	0.140
-656.901	-200.000	-0.086	0.396
-655.886	-111.978	-0.097	-0.020
-654.872	78.104	0.109	0.117
-653.857	106.961	0.168	0.200
-652.843	800.000	0.036	0.140
-651.828	-57.069	-0.045	0.020
-650.814	-115.284	0.075	0.014
-649.799	-170.609	-0.125	-0.004
-648.784	-59.592	-0.379	-0.163
-647.770	-200.000	0.000	-0.100
-646.755	327.533	-0.063	-0.121
-645.741	-23.297	0.207	-0.125
-644.726	-94.281	-0.265	0.073
-643.711	800.000	0.096	-0.333
-642.697	53.242	0.124	-0.119
-641.682	-200.000	-0.002	-0.181
-640.668	100.474	-0.146	-0.170
-639.653	800.000	0.085	0.247
-638.638	-66.188	-0.380	0.152
-637.624	-104.920	-0.147	-0.034
-636.609	800.000	-0.070	-0.286
-635.595	80.929	0.177	0.191
-634.580	-112.785	-0.189	-0.038
-633.565	204.567	-0.085	-0.132
-632.551	675.505	0.070	-0.181
-631.536	-200.000	0.096	-0.525
-630.522	-93.395	-0.132	-0.037
-629.507	370.307	0.170	0.344
-628.492	44.715	-0.235	-0.216
-627.478	14.347	0.077	-0.060
-626.463	182.303	0.155	-0.228
-625.449	-46.778	0.193	0.095
-624.434	-200.000	0.003	-0.136
-623.419	-118.539	-0.126	-0.022
-622.405	-29.732	-0.153	0.088
-621.390	800.000	0.119	-0.374
-620.376	207.028	0.126	-0.197
-619.361	233.854	-0.108	-0.178
-618.346	-200.000	0.040	0.179
-617.332	-4.050	0.017	-0.012
-616.317	-56.898	-0.215	-0.095
-615.303	25.294	0.145	0.121
-614.288	57.867	-0.258	-0.252
-613.273	152.516	-0.193	0.264
-612.259	131.300	0.067	0.087
-611.244	384.568	-0.068	0.141
-610.230	-200.000	0.001	-0.125
-609.215	800.000	0.047	-0.155
-608.201	800.000	0.110	-0.311
-607.186	-87.695	0.069	-0.021
-606.171	-128.570	-0.165	-0.023
-605.157	348.082	0.026	-0.052
-604.142	-133.643	-0.148	0.019
-603.128	-175.287	-0.209	0.006
-602.113	-106.142	0.111	-0.025
-601.098	162.386	0.182	0.255
-600.084	383.080	-0.056	-0.116
-599.069	192.807	-0.096	-0.146
-598.055	200.614	-0.175	-0.268
-597.040	-34.412	-0.038	0.021
-596.025	339.162	-0.106	-0.207
-595.011	-200.000	-0.024	0.500
-593.996	129.423	-0.139	-0.177
-592.982	576.033	0.097	-0.236
-591.967	-200.000	0.000	-0.113
-590.952	-200.000	0.033	0.157
-589.938	-200.000	-0.004	0.219
-588.923	-47.993	0.203	0.098
-587.909	206.152	0.156	0.242
-586.894	485.823	-0.079	0.181
-585.879	49.345	-0.173	0.162
-584.865	800.000	-0.063	0.196
-583.850	-158.355	0.115	0.007
-582.836	-143.840	0.188	0.018
-581.821	-60.770	-0.112	-0.047
-580.806	-58.156	-0.137	0.060
-579.792	-120.370	-0.393	0.067
-578.777	-41.811	-0.106	0.054
-577.763	-72.234	-0.288	-0.107
-576.748	77.042	-0.167	0.178
-575.733	-200.000	-0.010	0.135
-574.719	-200.000	0.104	-0.474
-573.704	-200.000	-0.002	-0.065
-572.690	29.327	-0.157	0.133
-571.675	309.895	-0.076	-0.142
-570.661	-89.555	-0.314	0.092
-569.646	68.780	-0.191	-0.196
-568.631	-200.000	-0.002	0.128
-567.617	32.098	0.329	0.283
-566.602	800.000	0.087	-0.312
-565.588	-92.062	-0.397	0.112
-564.573	129.187	0.256	-0.326
-563.558	629.981	-0.048	0.121
-562.544	282.029	0.108	0.192
-561.529	800.000	0.040	-0.146
-560.515	-45.937	-0.111	-0.055
-559.500	-17.105	0.053	-0.034
-558.485	239.464	0.110	-0.183
-557.471	800.000	-0.089	-0.259
-556.456	481.740	0.073	-0.166
-555.442	157.721	-0.268	0.371
-554.427	-69.850	0.209	-0.080
-553.412	21.240	0.212	-0.172
-552.398	-54.419	-0.153	-0.069
-551.383	-82.585	-0.152	0.049
-550.369	-11.816	0.201	-0.132
-549.354	576.004	-0.096	0.235
-548.339	-200.000	-0.002	-0.109
-547.325	-154.791	0.443	-0.029
-546.310	216.978	0.213	-0.339
-545.296	-146.557	-0.138	0.012
-544.281	-98.301	-0.417	-0.107
-543.266	-19.680	0.234	0.144
-542.252	14.762	0.109	0.085
-541.237	-87.016	0.182	0.055
-540.223	-72.503	0.108	0.040
-539.208	-12.778	-0.130	0.085
-538.193	-88.024	-0.367	-0.110
-537.179	-82.550	0.188	-0.061
-536.164	-200.000	0.024	0.121
-535.150	-125.254	-0.295	-0.045
-534.135	-200.000	0.011	0.087
-533.121	-27.734	0.167	0.097
-532.106	-93.037	-0.153	0.043
-531.091	238.799	-0.068	-0.113
-530.077	-100.185	0.188	0.047
-529.062	800.000	-0.091	0.291
-528.048	338.687	0.096	-0.187
-527.033	800.000	-0.033	-0.123
-526.018	800.000	-0.046	-0.129
-525.004	-125.671	0.117	-0.018
-523.989	2.452	-0.058	-0.042
-522.975	63.454	-0.178	0.178
-521.960	93.533	0.210	-0.237
-520.945	14.176	-0.334	0.259
-519.931	11.048	-0.070	0.054
-518.916	212.340	-0.080	-0.125
-517.902	-105.732	-0.224	-0.050
-516.887	-95.144	0.257	-0.069
-515.872	-149.614	-0.530	-0.042
-514.858	29.926	0.066	-0.056
-513.843	56.562	0.104	0.101
-512.829	-200.000	0.006	0.113
-511.814	143.640	0.066	-0.087
-510.799	420.110	0.091	-0.194
-509.785	-31.040	0.105	-0.059
-508.770	272.569	-0.025	-0.044
-507.756	87.413	0.120	0.132
-506.741	-166.232	0.096	-0.004
-505.726	76.636	-0.150	0.158
-504.712	-200.000	0.037	0.191
-503.697	800.000	-0.165	-0.596
-502.683	-84.394	0.278	0.087
-501.668	-56.673	0.006	0.003
-500.653	-88.415	0.324	-0.096
-499.639	-9.059	-0.116	0.077
-498.624	800.000	0.059	0.202
-497.610	-65.034	0.133	0.053
-496.595	-200.000	0.018	-0.264
-495.581	800.000	-0.050	0.172
-494.566	93.500	0.066	0.075
-493.551	56.360	-0.167	-0.162
-492.537	105.838	0.189	0.223
-491.522	-85.994	-0.062	-0.019
-490.508	-200.000	-0.004	-0.223
-489.493	-113.583	-0.176	0.034
-488.478	-200.000	-0.032	-0.266
-487.464	-14.719	-0.244	-0.156
-486.449	-160.356	-0.183	-0.010
-485.435	800.000	-0.063	-0.177
-484.420	800.000	-0.018	0.050
-483.405	120.141	-0.127	0.157
-482.391	-200.000	-0.002	-0.180
-481.376	-166.018	-0.076	0.003
-480.362	-183.392	-0.181	-0.003
-479.347	-184.240	0.214	0.004
-478.332	-130.734	0.176	-0.024
-477.318	248.886	0.152	-0.256
-476.303	-35.840	0.176	0.095
-475.289	800.000	0.024	0.076
-474.274	-200.000	0.099	-0.469
-473.259	555.377	0.029	-0.070
-472.245	800.000	0.106	0.304
-471.230	49.121	0.201	0.188
-470.216	-149.012	-0.318	0.025
-469.201	-93.333	0.457	-0.126
-468.186	-200.000	-0.048	0.329
-467.172	-200.000	0.003	0.034
-466.157	800.000	-0.024	-0.092
-465.143	554.421	-0.031	0.073
-464.128	-33.236	-0.192	-0.106
-463.113	-200.000	0.000	-0.113
-462.099	490.100	-0.125	-0.285
-461.084	23.387	0.134	-0.109
-460.070	-95.672	0.180	-0.048
-459.055	-200.000	0.060	0.262
-458.040	29.295	-0.090	-0.076
-457.026	-98.778	-0.135	0.034
-456.011	115.838	-0.195	-0.237
-454.997	-80.059	-0.238	0.079
-453.982	10.485	-0.121	0.092
-452.968	8.641	0.256	-0.192
-451.953	159.106	-0.113	-0.156
-450.938	309.721	-0.068	0.127
-449.924	20.393	-0.256	0.206
-448.909	-97.244	0.246	-0.064
-447.895	-38.358	0.382	0.201
-446.880	242.374	0.282	0.470
-445.865	-200.000	-0.011	0.102
-444.851	-4.100	-0.101	0.070
-443.836	-200.000	0.012	-0.331
-442.822	351.283	-0.068	-0.134
-441.807	411.530	-0.105	0.221
-440.792	-200.000	-0.015	0.103
-439.778	-185.468	-0.165	0.002
-438.763	800.000	-0.074	0.283
-437.749	376.758	0.050	0.101
-436.734	800.000	0.101	0.280
-435.719	-200.000	-0.010	-0.177
-434.705	760.240	-0.024	0.066
-433.690	117.056	-0.121	0.147
-432.676	17.906	0.235	0.186
-431.661	152.535	0.139	0.188
-430.646	-200.000	0.010	0.335
-429.632	-63.117	0.098	-0.040
-428.617	-79.779	-0.203	-0.068
-427.603	17.467	0.122	0.096
-426.588	262.222	0.184	-0.316
-425.573	-200.000	0.036	-0.218
-424.559	-190.924	0.047	-0.000
-423.544	343.608	-0.107	0.207
-422.530	800.000	-0.071	-0.195
-421.515	62.294	-0.312	0.309
-420.500	-200.000	-0.032	-0.158
-419.486	-115.740	0.207	-0.039
-418.471	195.502	0.050	-0.076
-417.457	30.563	0.020	-0.017
-416.442	25.570	-0.136	-0.112
-415.428	-92.688	0.313	0.087
-414.413	-43.515	0.092	-0.046
-413.398	72.003	0.030	0.031
-412.384	-192.289	-0.248	0.002
-411.369	-29.137	-0.193	0.110
-410.355	-200.000	-0.073	0.442
-409.340	-57.437	0.328	0.143
-408.325	-30.158	0.072	0.041
-407.311	68.926	0.294	-0.299
-406.296	-21.006	0.252	-0.153
-405.282	70.974	0.078	0.080
-404.267	-200.000	0.001	-0.317
-403.252	111.551	-0.073	0.087
-402.238	492.633	-0.028	0.063
-401.223	193.448	0.104	-0.156
-400.209	109.252	-0.085	0.101
-399.194	-98.754	-0.155	-0.039
-398.179	-84.074	0.084	0.026
-397.165	-168.714	0.261	-0.010
-396.150	800.000	0.093	0.283
-395.136	800.000	0.119	0.350
-394.121	39.702	0.160	-0.142
-393.106	-101.054	0.165	0.040
-392.092	800.000	-0.068	-0.187
-391.077	13.817	0.106	0.082
-390.063	-200.000	0.031	0.142
-389.048	-98.114	0.308	-0.079
-388.033	-80.369	-0.197	0.065
-387.019	-78.140	-0.177	-0.060
-386.004	550.655	-0.119	-0.282
-384.990	800.000	-0.109	-0.352
-383.975	-200.000	-0.014	-0.074
-382.960	-71.208	0.146	0.054
-381.946	-200.000	-0.056	0.282
-380.931	133.599	0.341	0.437
-379.917	-72.707	-0.479	0.175
-378.902	4.228	-0.189	-0.137
-377.888	-200.000	0.057	0.495
-376.873	212.628	-0.033	-0.052
-375.858	395.872	-0.052	0.109
-374.844	-154.361	0.093	0.006
-373.829	-187.973	-0.414	0.005
-372.815	527.963	-0.086	-0.200
-371.800	22.093	-0.028	-0.023
-370.785	39.267	-0.060	-0.053
-369.771	-200.000	-0.010	-0.150
-368.756	-27.825	-0.041	-0.024
-367.742	-135.282	-0.147	0.017
-366.727	-27.913	0.128	-0.073
-365.712	-91.878	-0.425	-0.119
-364.698	324.207	0.091	0.171
-363.683	-75.498	0.365	-0.129
-362.669	226.054	-0.044	0.071
-361.654	-109.827	0.206	-0.043
-360.639	-131.840	0.492	0.064
-359.625	478.935	-0.068	0.153
-358.610	-2.619	0.230	-0.159
-357.596	-200.000	-0.003	-0.354
-356.581	-83.706	0.303	0.096
-355.566	-200.000	-0.016	-0.273
-354.552	40.284	0.038	0.034
-353.537	-92.375	0.117	-0.033
-352.523	-53.053	-0.178	-0.081
-351.508	-25.332	0.082	-0.048
-350.493	-200.000	-0.007	-0.222
-349.479	-16.829	-0.283	0.177
-348.464	-143.291	-0.093	0.009
-347.450	-200.000	-0.024	-0.176
-346.435	-57.398	-0.105	0.046
-345.420	575.012	-0.006	0.014
-344.406	-68.759	-0.247	0.095
-343.391	-47.388	0.252	0.121
-342.377	-200.000	-0.014	0.124
-341.362	-76.509	0.244	0.085
-340.348	-200.000	0.017	-0.086
-339.333	116.345	0.197	-0.238
-338.318	-85.881	-0.377	-0.116
-337.304	74.538	0.200	0.208
-336.289	800.000	-0.059	0.190
-335.275	80.795	-0.132	-0.140
-334.260	127.612	-0.109	0.136
-333.245	63.976	-0.232	0.231
-332.231	-67.421	-0.126	0.049
-331.216	22.709	-0.200	-0.162
-330.202	-50.577	-0.227	0.106
-329.187	236.108	-0.204	0.333
-328.172	45.244	0.230	0.210
-327.158	-73.488	0.221	0.080
-326.143	800.000	0.102	-0.312
-325.129	-16.921	-0.168	0.105
-324.114	70.920	0.061	-0.062
-323.099	29.242	-0.195	-0.164
-322.085	-200.000	-0.084	0.398
-321.070	-200.000	0.048	0.273
-320.056	-21.200	-0.265	0.160
-319.041	-106.379	-0.260	-0.057
-318.026	67.891	0.327	0.331
-317.012	-90.018	0.189	0.055
-315.997	500.388	0.079	-0.179
-314.983	109.835	0.118	-0.140
-313.968	2.537	0.120	0.086
-312.953	-20.271	-0.282	0.172
-311.939	-52.928	-0.185	0.084
-310.924	695.285	0.039	0.102
-309.910	-67.221	-0.067	0.026
-308.895	408.678	-0.044	0.092
-307.880	-200.000	0.016	-0.069
-306.866	532.743	0.109	0.255
-305.851	-70.833	-0.099	-0.037
-304.837	128.103	-0.142	0.179
-303.822	411.833	-0.082	0.171
-302.807	-77.644	0.133	-0.045
-301.793	-200.000	-0.005	0.347
-300.778	608.836	-0.056	-0.139
-299.764	223.378	-0.165	-0.263
-298.749	-154.825	0.200	-0.013
-297.735	-131.808	0.105	0.014
-296.720	-46.371	0.298	-0.144
-295.705	-47.026	0.079	-0.038
-294.691	86.114	-0.167	0.182
-293.676	800.000	-0.060	-0.192
-292.662	112.863	-0.205	0.245
-291.647	-103.795	0.240	-0.055
-290.632	-200.000	0.035	-0.337
-289.618	-173.301	-0.173	-0.005
-288.603	242.514	-0.162	-0.267
-287.589	800.000	-0.032	0.102
-286.574	-200.000	-0.017	-0.076
-285.559	-44.033	-0.221	-0.110
-284.545	759.566	0.064	-0.172
-283.530	252.459	0.062	-0.105
-282.516	592.584	-0.087	0.212
-281.501	529.574	0.066	0.155
-280.486	396.223	0.105	0.216
-279.472	800.000	-0.049	-0.145
-278.457	382.204	0.094	0.192
-277.443	-111.929	0.227	0.045
-276.428	800.000	-0.048	0.176
-275.413	-148.881	0.313	-0.025
-274.399	130.895	0.078	-0.099
-273.384	-91.739	-0.144	0.040
-272.370	-23.309	0.083	-0.049
-271.355	104.216	0.061	0.071
-270.340	800.000	-0.025	-0.097
-269.326	-71.237	-0.049	-0.018
-268.311	-35.770	0.104	-0.055
-267.297	800.000	-0.058	0.232
-266.282	-200.000	-0.018	-0.232
-265.267	-141.382	0.271	-0.027
-264.253	211.290	-0.169	-0.262
-263.238	283.015	0.048	-0.085
-262.224	-22.566	0.338	-0.201
-261.209	10.354	-0.383	-0.288
-260.195	133.152	-0.097	-0.124
-259.180	-73.160	0.435	-0.157
-258.165	-56.761	-0.316	-0.138
-257.151	-200.000	0.002	0.049
-256.136	-18.274	0.111	-0.068
-255.122	173.249	-0.067	0.096
-254.107	756.208	0.129	-0.343
-253.092	-3.964	-0.153	-0.105
-252.078	93.222	-0.088	-0.098
-251.063	-74.755	-0.318	0.113
-250.049	-179.530	-0.222	-0.005
-249.034	-200.000	-0.009	0.040
-248.019	65.807	0.248	-0.248
-247.005	-52.948	0.169	0.077
-245.990	109.267	-0.280	0.330
-244.976	-200.000	-0.002	0.042
-243.961	676.395	0.043	0.109
-242.946	-159.296	0.126	0.007
-241.932	800.000	0.040	0.129
-240.917	17.202	0.159	0.124
-239.903	-19.435	-0.190	0.116
-238.888	137.221	0.078	-0.101
-237.873	800.000	-0.009	-0.033
-236.859	224.407	-0.069	-0.110
-235.844	-200.000	0.026	0.155
-234.830	-12.864	0.468	-0.300
-233.815	-103.976	0.311	0.072
-232.800	137.462	0.168	0.217
-231.786	800.000	-0.044	0.125
-230.771	-95.926	0.246	-0.065
-229.757	3.259	-0.407	-0.292
-228.742	-200.000	0.016	0.455
-227.727	356.232	0.099	-0.195
-226.713	-200.000	0.016	-0.170
-225.698	-200.000	-0.053	0.457
-224.684	133.864	-0.172	0.219
-223.669	800.000	0.159	0.458
-222.655	133.783	0.121	-0.155
-221.640	99.139	0.068	-0.077
-220.625	-194.716	0.138	-0.001
-219.611	-200.000	0.055	-0.347
-218.596	-200.000	-0.089	-0.546
-217.582	-197.905	0.244	0.001
-216.567	-200.000	-0.050	0.312
-215.552	-127.204	-0.300	0.043
-214.538	-7.793	0.356	0.237
-213.523	305.892	-0.091	-0.166
-212.509	21.862	0.276	-0.222
-211.494	-61.376	0.303	0.126
-210.479	-139.961	0.259	0.027
-209.465	98.017	0.212	0.240
-208.450	34.171	-0.269	0.231
-207.436	161.145	-0.281	0.387
-206.421	94.785	0.260	0.291
-205.406	602.345	-0.144	0.352
-204.392	9.163	0.166	-0.123
-203.377	426.965	0.096	0.203
-202.363	-151.069	-0.074	-0.006
-201.348	232.214	-0.132	0.214
-200.333	-120.484	0.043	-0.007
-199.319	34.918	0.260	-0.224
-198.304	6.331	-0.108	-0.079
-197.290	-200.000	-0.004	-0.166
-196.275	-48.361	0.298	-0.141
-195.260	-44.245	0.277	-0.136
-194.246	163.290	-0.202	0.279
-193.231	51.295	0.039	0.037
-192.217	-104.989	-0.193	0.043
-191.202	800.000	0.046	0.147
-190.187	800.000	0.095	0.271
-189.173	215.578	0.144	0.225
-188.158	800.000	-0.066	0.203
-187.144	74.219	0.296	-0.306
-186.129	-162.521	0.128	0.006
-185.114	-200.000	-0.012	-0.152
-184.100	-128.707	0.200	-0.028
-183.085	-19.004	-0.215	0.131
-182.071	-159.808	-0.039	-0.002
-181.056	-114.776	-0.224	-0.042
-180.042	-13.982	-0.076	0.048
-179.027	-37.100	0.160	-0.084
-178.012	-169.518	0.046	-0.002
-176.998	434.557	0.056	-0.120
-175.983	-192.426	-0.212	-0.002
-174.969	22.181	0.198	-0.159
-173.954	-200.000	0.007	-0.146
-172.939	-92.792	0.078	0.021
-171.925	4.228	-0.181	0.130
-170.910	433.577	-0.038	0.080
-169.896	164.168	0.136	-0.188
-168.881	-41.246	0.164	0.083
-167.866	-16.143	-0.367	-0.229
-166.852	-94.120	-0.254	0.068
-165.837	30.851	-0.144	0.121
-164.823	139.527	0.065	0.084
-163.808	800.000	-0.077	0.320
-162.793	-100.411	-0.205	0.050
-161.779	-200.000	0.009	0.239
-160.764	-26.949	0.147	0.084
-159.750	800.000	-0.048	-0.201
-158.735	-89.565	-0.207	-0.060
-157.720	-150.111	0.218	-0.017
-156.706	118.178	-0.093	0.113
-155.691	-131.389	0.362	0.047
-154.677	800.000	-0.032	-0.116
-153.662	37.354	-0.056	-0.049
-152.647	-131.386	0.176	-0.023
-151.633	300.515	-0.182	-0.330
-150.618	8.186	0.081	0.059
-149.604	-73.977	-0.049	0.017
-148.589	-4.643	-0.418	-0.284
-147.574	800.000	0.097	0.266
-146.560	-200.000	0.023	-0.180
-145.545	-17.619	-0.193	-0.119
-144.531	-79.732	0.217	0.072
-143.516	58.050	0.085	-0.082
-142.502	156.474	-0.044	-0.059
-141.487	154.603	-0.276	0.372
-140.472	-200.000	0.019	0.357
-139.458	-119.320	-0.310	0.053
-138.443	51.787	-0.270	-0.252
-137.429	-124.579	-0.130	0.020
-136.414	-86.729	-0.121	0.036
-135.399	-117.685	-0.130	0.023
-134.385	800.000	0.043	0.167
-133.370	32.243	-0.042	-0.036
-132.356	-10.959	0.137	-0.089
-131.341	487.466	0.079	-0.177
-130.326	800.000	-0.008	0.036
-129.312	410.829	-0.100	-0.209
-128.297	-200.000	0.004	-0.335
-127.283	-17.487	0.163	0.101
-126.268	285.378	-0.033	0.058
-125.253	-14.702	-0.077	0.048
-124.239	-96.462	0.123	0.032
-123.224	-118.603	0.335	-0.058
-122.210	598.191	0.039	0.095
