DTS Sentinel unit serial number:	SN413079Multiplexer serial number:	ORYXHardware model number:	OX4-SRSoftware version number:	ORYX F/W v4.00 Oryx Data Collector v3.7.2.0data status	okinstallation	princeton_trtdifferential loss correction	single-endedforward channel	channel 2reverse channel	N/Adate	2019/09/14time	05:39:34forward acquisition time	60.00reverse acquisition time	0.00gamma	496.2192k internal	0.2335k external	0.2335temperature offset calibration	1.0133default loss term (dB/km)	0.3790temperature slope calibration	1.0000multiplexer offset coefficient	1.0000multiplexer slope coefficient	1.0000fibre end	0.00T internal ref (°C)	26.92T ext. ref 1 (°C)	3.40T ext. ref 2 (°C)	21.76length (m)	temperature (°C)	Stokes	anti-Stokes-747.200	-4.599	-0.194	-0.135
-746.185	359.516	-0.074	0.150
-745.171	50.076	0.114	0.108
-744.156	134.084	-0.144	0.188
-743.142	6.867	-0.136	0.102
-742.127	-101.470	-0.226	-0.055
-741.112	-105.128	0.136	0.031
-740.098	-200.000	0.008	0.191
-739.083	-52.861	0.055	-0.025
-738.069	-60.005	0.161	0.069
-737.054	-108.100	-0.140	0.030
-736.039	159.389	-0.146	-0.204
-735.025	-132.975	0.187	0.024
-734.010	-200.000	-0.010	0.090
-732.996	111.490	-0.095	-0.115
-731.981	11.502	-0.150	-0.115
-730.966	-200.000	0.001	0.078
-729.952	44.141	0.308	-0.284
-728.937	715.868	0.117	-0.313
-727.923	473.720	0.230	-0.521
-726.908	-144.568	-0.281	-0.026
-725.894	-4.193	-0.181	-0.126
-724.879	203.168	-0.157	-0.243
-723.864	800.000	0.070	-0.253
-722.850	45.229	-0.236	0.219
-721.835	29.355	-0.083	-0.071
-720.821	353.331	-0.181	-0.361
-719.806	-114.018	-0.270	0.053
-718.791	165.551	0.191	0.271
-717.777	779.055	-0.069	0.190
-716.762	-35.089	-0.101	-0.055
-715.748	81.942	0.190	-0.206
-714.733	217.431	0.124	0.198
-713.718	163.355	0.106	-0.150
-712.704	800.000	-0.081	-0.321
-711.689	-49.856	0.164	-0.078
-710.675	-77.895	-0.132	-0.046
-709.660	800.000	-0.111	-0.422
-708.645	-18.698	0.297	0.186
-707.631	53.571	0.085	0.082
-706.616	248.204	0.036	-0.061
-705.602	313.822	0.035	-0.066
-704.587	-117.990	-0.177	-0.032
-703.572	3.554	-0.028	-0.021
-702.558	-50.802	0.217	-0.102
-701.543	92.015	-0.168	-0.190
-700.529	-75.713	0.218	0.078
-699.514	-96.683	-0.157	0.041
-698.499	-200.000	-0.086	-0.407
-697.485	-78.912	-0.202	-0.069
-696.470	-70.680	-0.191	-0.072
-695.456	-43.129	-0.017	-0.009
-694.441	-34.971	0.095	-0.052
-693.426	-200.000	-0.021	0.362
-692.412	800.000	0.013	0.041
-691.397	666.180	-0.112	0.291
-690.383	31.666	0.092	-0.079
-689.368	104.687	-0.246	0.291
-688.354	-3.438	-0.064	0.044
-687.339	-115.050	0.261	-0.050
-686.324	674.238	-0.188	0.488
-685.310	-200.000	-0.098	0.000
-684.295	252.106	-0.073	-0.124
-683.281	133.604	-0.151	-0.196
-682.266	259.852	0.018	-0.032
-681.251	-181.589	-0.117	-0.002
-680.237	-86.864	-0.116	0.035
-679.222	24.706	0.139	-0.115
-678.208	-200.000	0.031	-0.137
-677.193	-200.000	0.033	-0.252
-676.178	132.248	-0.315	0.407
-675.164	-38.112	-0.211	-0.112
-674.149	-101.257	-0.162	-0.040
-673.135	91.647	0.128	-0.145
-672.120	377.130	0.184	-0.377
-671.105	-125.614	0.206	0.031
-670.091	-117.778	-0.249	0.045
-669.076	713.674	-0.079	-0.210
-668.062	142.453	-0.076	-0.102
-667.047	174.207	0.035	0.051
-666.032	-200.000	0.010	-0.158
-665.018	-138.244	-0.042	0.005
-664.003	24.975	-0.064	-0.053
-662.989	-200.000	-0.040	-0.277
-661.974	40.052	0.014	-0.012
-660.959	-200.000	0.031	0.138
-659.945	-200.000	-0.000	-0.016
-658.930	800.000	0.089	-0.308
-657.916	188.095	-0.079	0.118
-656.901	-200.000	-0.027	0.265
-655.886	0.188	0.049	0.035
-654.872	-81.181	0.168	-0.056
-653.857	110.368	-0.084	0.101
-652.843	-96.223	0.075	0.020
-651.828	-154.838	-0.216	0.014
-650.814	-25.662	0.308	0.182
-649.799	-88.063	0.168	-0.050
-648.784	800.000	0.016	0.045
-647.770	-63.701	-0.231	-0.095
-646.755	-200.000	-0.004	0.172
-645.741	-43.347	0.227	0.115
-644.726	-137.304	-0.198	0.022
-643.711	362.378	0.119	-0.238
-642.697	285.559	-0.056	-0.102
-641.682	-52.998	0.059	-0.027
-640.668	462.897	-0.094	0.209
-639.653	67.051	0.237	0.242
-638.638	263.413	-0.164	0.284
-637.624	800.000	0.102	0.377
-636.609	50.320	0.044	0.042
-635.595	8.944	0.222	0.168
-634.580	299.051	0.082	0.150
-633.565	16.764	-0.107	-0.084
-632.551	-200.000	0.019	-0.218
-631.536	214.463	0.050	-0.079
-630.522	402.055	0.131	-0.275
-629.507	-18.228	0.144	-0.090
-628.492	90.935	0.055	-0.062
-627.478	-96.587	0.133	-0.035
-626.463	-81.288	-0.083	-0.027
-625.449	-200.000	-0.010	-0.384
-624.434	115.431	0.165	-0.201
-623.419	-46.897	0.182	0.089
-622.405	-200.000	-0.005	-0.132
-621.390	-165.360	-0.395	-0.017
-620.376	-123.541	0.275	-0.044
-619.361	-76.709	-0.062	-0.022
-618.346	545.976	0.059	-0.142
-617.332	800.000	-0.016	-0.058
-616.317	-102.161	-0.240	0.058
-615.303	-110.031	-0.197	0.041
-614.288	-146.348	0.265	-0.023
-613.273	800.000	0.116	0.384
-612.259	-58.963	-0.307	-0.132
-611.244	800.000	0.110	0.303
-610.230	96.173	-0.085	0.097
-609.215	800.000	-0.073	0.308
-608.201	-103.827	0.266	-0.062
-607.186	-5.513	-0.143	0.098
-606.171	20.873	0.300	-0.243
-605.157	-2.106	-0.087	-0.061
-604.142	-94.055	0.353	-0.097
-603.128	-200.000	0.018	-0.078
-602.113	80.741	-0.144	0.155
-601.098	492.098	0.084	0.192
-600.084	226.979	-0.026	0.042
-599.069	800.000	-0.062	-0.196
-598.055	146.337	-0.171	-0.229
-597.040	-42.373	0.195	-0.099
-596.025	528.381	0.153	-0.360
-595.011	285.726	-0.050	-0.090
-593.996	8.172	-0.319	0.239
-592.982	-143.555	0.255	-0.024
-591.967	-39.720	0.103	-0.054
-590.952	2.165	0.293	0.212
-589.938	106.940	-0.111	0.131
-588.923	800.000	-0.119	0.402
-587.909	4.457	-0.212	0.156
-586.894	197.238	-0.059	-0.091
-585.879	-69.420	-0.311	-0.119
-584.865	130.498	0.202	0.259
-583.850	-27.261	-0.096	-0.056
-582.836	190.119	-0.069	0.103
-581.821	358.756	-0.042	-0.084
-580.806	61.622	-0.171	0.170
-579.792	-67.588	0.234	-0.092
-578.777	-81.261	0.244	0.080
-577.763	329.895	0.139	0.267
-576.748	-176.070	-0.342	-0.009
-575.733	800.000	0.043	0.151
-574.719	-200.000	0.015	0.544
-573.704	-83.082	-0.378	0.122
-572.690	-141.944	-0.266	-0.027
-571.675	-170.922	-0.255	0.009
-570.661	800.000	0.113	0.371
-569.646	-130.965	-0.043	-0.006
-568.631	-116.417	0.219	-0.040
-567.617	-200.000	0.038	-0.368
-566.602	-17.253	-0.447	-0.281
-565.588	-45.398	0.138	0.068
-564.573	800.000	0.082	-0.311
-563.558	-160.132	-0.185	0.010
-562.544	-138.046	0.060	-0.007
-561.529	-167.828	0.304	0.012
-560.515	-65.022	0.167	-0.067
-559.500	-200.000	-0.007	-0.317
-558.485	-37.577	-0.142	0.075
-557.471	-200.000	0.015	0.090
-556.456	775.867	0.088	-0.239
-555.442	-66.214	0.307	0.122
-554.427	-4.383	-0.031	-0.021
-553.412	-200.000	0.042	0.220
-552.398	103.436	-0.136	0.159
-551.383	322.186	0.104	0.198
-550.369	118.458	0.138	-0.170
-549.354	-200.000	0.027	-0.189
-548.339	800.000	0.085	0.271
-547.325	800.000	-0.019	-0.065
-546.310	-200.000	0.011	-0.111
-545.296	343.152	-0.070	0.136
-544.281	-37.785	-0.097	0.051
-543.266	15.052	-0.095	0.074
-542.252	-125.465	0.095	0.014
-541.237	126.513	0.042	0.053
-540.223	207.285	-0.136	0.211
-539.208	-179.017	-0.288	0.006
-538.193	95.874	0.032	-0.036
-537.179	-200.000	0.009	0.204
-536.164	172.918	-0.036	0.051
-535.150	-192.178	-0.209	-0.002
-534.135	106.797	-0.087	-0.103
-533.121	36.995	-0.127	0.112
-532.106	147.372	-0.207	-0.277
-531.091	-100.175	-0.159	-0.039
-530.077	106.487	-0.027	0.032
-529.062	-8.612	0.155	0.103
-528.048	2.131	-0.190	-0.137
-527.033	475.546	0.038	-0.086
-526.018	-200.000	0.016	0.120
-525.004	314.573	-0.068	-0.127
-523.989	112.415	0.020	-0.024
-522.975	333.220	-0.092	-0.178
-521.960	-140.514	-0.028	0.003
-520.945	-6.621	-0.195	0.132
-519.931	-127.023	-0.294	0.043
-518.916	118.320	0.143	0.175
-517.902	-200.000	0.019	-0.477
-516.887	118.526	-0.163	-0.200
-515.872	-54.045	0.194	-0.088
-514.858	-200.000	0.034	-0.206
-513.843	-46.034	-0.059	0.029
-512.829	94.402	-0.033	-0.038
-511.814	800.000	0.022	0.096
-510.799	407.128	0.084	0.177
-509.785	23.973	-0.270	-0.222
-508.770	-138.082	-0.323	-0.036
-507.756	-73.262	-0.300	0.109
-506.741	672.173	0.145	-0.375
-505.726	-200.000	0.033	0.156
-504.712	-133.332	-0.109	-0.014
-503.697	-3.469	-0.320	-0.222
-502.683	-19.418	-0.065	-0.040
-501.668	-200.000	0.154	-0.000
-500.653	-62.326	-0.256	0.106
-499.639	-148.818	-0.599	0.048
-498.624	-138.083	0.291	-0.032
-497.610	250.918	0.159	0.270
-496.595	7.420	-0.111	-0.083
-495.581	800.000	-0.017	0.046
-494.566	-108.298	0.184	-0.040
-493.551	86.014	0.110	0.120
-492.537	800.000	0.044	-0.162
-491.522	225.690	0.133	-0.215
-490.508	91.280	0.237	0.265
-489.493	-200.000	0.019	0.202
-488.478	-103.444	-0.169	-0.040
-487.464	-49.328	0.239	0.113
-486.449	-200.000	-0.013	0.076
-485.435	-46.979	0.262	-0.127
-484.420	89.740	0.200	0.222
-483.405	168.000	0.105	-0.149
-482.391	-200.000	-0.032	0.242
-481.376	368.950	-0.044	0.088
-480.362	-130.080	-0.230	0.031
-479.347	-200.000	0.015	0.074
-478.332	-135.322	0.312	0.037
-477.318	34.811	-0.319	0.277
-476.303	16.726	-0.218	0.171
-475.289	0.006	0.093	-0.066
-474.274	65.262	0.219	0.221
-473.259	800.000	0.075	0.244
-472.245	577.452	-0.156	-0.380
-471.230	-200.000	-0.048	-0.335
-470.216	-96.422	0.245	0.064
-469.201	-130.640	-0.205	-0.027
-468.186	270.718	-0.112	-0.196
-467.172	-73.690	-0.084	-0.030
-466.157	-82.357	0.117	0.038
-465.143	6.649	-0.412	-0.304
-464.128	-200.000	0.008	0.253
-463.113	-134.023	0.120	-0.015
-462.099	498.812	0.086	-0.197
-461.084	-25.820	-0.103	0.060
-460.070	60.072	0.226	-0.222
-459.055	134.227	0.225	-0.289
-458.040	286.707	-0.223	0.400
-457.026	-200.000	0.059	-0.335
-456.011	25.225	0.200	0.165
-454.997	-79.459	0.254	0.085
-453.982	-58.414	-0.242	-0.104
-452.968	324.269	0.079	-0.150
-451.953	-133.910	0.290	-0.036
-450.938	-73.085	-0.244	0.089
-449.924	-200.000	-0.010	0.051
-448.909	-93.780	-0.174	-0.048
-447.895	-73.594	0.069	-0.025
-446.880	-97.966	-0.177	0.045
-445.865	-78.387	0.137	0.047
-444.851	-10.844	-0.166	-0.109
-443.836	800.000	-0.074	0.267
-442.822	-113.768	0.276	0.053
-441.807	-154.457	-0.235	-0.016
-440.792	98.516	0.141	0.161
-439.778	31.262	-0.067	0.057
-438.763	-46.056	0.202	-0.099
-437.749	70.608	0.267	-0.275
-436.734	-96.603	-0.321	0.084
-435.719	-61.923	0.069	0.029
-434.705	195.399	0.140	0.212
-433.690	-37.878	0.215	0.113
-432.676	-129.979	-0.084	-0.011
-431.661	-56.386	-0.168	0.074
-430.646	-33.808	-0.344	0.188
-429.632	-200.000	0.018	0.246
-428.617	800.000	-0.037	-0.157
-427.603	-164.123	-0.315	-0.014
-426.588	57.898	-0.057	-0.056
-425.573	800.000	0.055	-0.225
-424.559	167.857	-0.171	-0.241
-423.544	-53.530	-0.237	0.108
-422.530	269.160	-0.286	0.499
-421.515	-200.000	-0.008	0.065
-420.500	44.833	-0.313	-0.286
-419.486	800.000	-0.071	0.251
-418.471	800.000	-0.065	0.204
-417.457	429.822	-0.096	0.205
-416.442	133.809	0.099	0.128
-415.428	489.051	0.047	-0.107
-414.413	7.827	0.499	-0.371
-413.398	800.000	-0.117	0.366
-412.384	348.126	-0.045	0.087
-411.369	97.153	-0.190	-0.216
-410.355	23.285	-0.371	-0.302
-409.340	-73.390	0.160	0.058
-408.325	-77.888	-0.027	0.009
-407.311	32.872	-0.244	0.210
-406.296	38.936	0.160	-0.142
-405.282	-34.349	0.260	0.141
-404.267	-19.399	0.116	0.071
-403.252	-85.418	0.020	-0.006
-402.238	96.122	0.068	0.077
-401.223	5.487	0.239	0.175
-400.209	524.076	-0.109	-0.255
-399.194	208.215	0.133	0.207
-398.179	800.000	-0.097	-0.274
-397.165	95.515	-0.092	0.104
-396.150	-200.000	-0.062	-0.349
-395.136	-200.000	0.070	-0.350
-394.121	754.457	0.071	-0.191
-393.106	28.037	0.248	-0.207
-392.092	-116.693	0.031	0.006
-391.077	-200.000	0.034	-0.325
-390.063	800.000	0.035	-0.132
-389.048	-83.648	-0.052	-0.017
-388.033	-34.561	-0.178	-0.096
-387.019	800.000	-0.017	0.067
-386.004	-200.000	-0.004	0.170
-384.990	270.041	0.117	0.204
-383.975	800.000	0.009	0.025
-382.960	800.000	0.036	-0.126
-381.946	-200.000	0.012	0.136
-380.931	154.687	-0.108	0.147
-379.917	-2.151	-0.214	0.148
-378.902	-65.413	0.316	0.126
-377.888	307.401	-0.030	0.056
-376.873	-127.943	-0.124	-0.018
-375.858	-77.356	-0.050	0.017
-374.844	-199.201	-0.292	-0.002
-373.829	-39.276	-0.223	-0.116
-372.815	-125.861	-0.111	-0.017
-371.800	17.248	-0.201	-0.158
-370.785	-104.208	-0.223	-0.051
-369.771	-20.737	-0.028	-0.017
-368.756	-200.000	0.016	0.121
-367.742	609.937	-0.058	0.142
-366.727	79.160	-0.192	-0.204
-365.712	-151.541	0.320	0.023
-364.698	-184.730	-0.135	-0.002
-363.683	519.665	-0.030	0.070
-362.669	202.534	-0.043	0.066
-361.654	78.660	0.016	0.017
-360.639	-61.752	0.243	0.101
-359.625	800.000	-0.102	-0.328
-358.610	-45.339	-0.064	0.032
-357.596	-171.825	-0.310	-0.010
-356.581	24.253	0.027	-0.022
-355.566	249.278	0.062	-0.104
-354.552	-175.746	0.115	0.003
-353.537	800.000	-0.023	0.094
-352.523	-200.000	-0.045	-0.288
-351.508	220.428	-0.011	0.017
-350.493	-200.000	-0.059	-0.462
-349.479	424.735	-0.037	-0.078
-348.464	-29.254	-0.244	-0.138
-347.450	-85.768	0.062	0.019
-346.435	-200.000	0.061	0.345
-345.420	-42.967	0.134	-0.067
-344.406	-200.000	-0.016	0.087
-343.391	99.129	0.169	-0.193
-342.377	-54.289	0.099	-0.044
-341.362	136.064	-0.139	0.180
-340.348	229.399	0.107	-0.173
-339.333	-200.000	0.020	-0.107
-338.318	722.436	-0.057	0.150
-337.304	-200.000	0.004	0.126
-336.289	800.000	-0.054	0.221
-335.275	33.729	-0.103	0.089
-334.260	386.986	-0.093	0.189
-333.245	800.000	0.050	-0.143
-332.231	2.203	0.016	0.012
-331.216	800.000	-0.097	-0.361
-330.202	-200.000	0.010	-0.145
-329.187	-200.000	0.013	0.106
-328.172	222.240	0.165	-0.263
-327.158	-44.409	-0.077	-0.038
-326.143	-138.145	0.313	0.034
-325.129	302.877	0.084	0.153
-324.114	-91.902	-0.151	-0.042
-323.099	-23.774	0.243	0.144
-322.085	-106.896	0.135	-0.030
-321.070	-80.664	-0.056	0.018
-320.056	175.540	-0.118	0.170
-319.041	-106.932	0.070	0.015
-318.026	-91.994	-0.116	0.033
-317.012	524.926	-0.043	0.100
-315.997	159.792	0.036	0.049
-314.983	-4.854	0.382	-0.260
-313.968	166.430	-0.117	0.164
-312.953	414.786	0.057	-0.119
-311.939	-12.982	0.308	-0.198
-310.924	-200.000	0.021	-0.333
-309.910	-200.000	-0.055	0.250
-308.895	20.027	0.234	0.186
-307.880	181.968	0.065	0.094
-306.866	-10.195	0.294	-0.193
-305.851	800.000	-0.022	-0.061
-304.837	278.913	0.172	-0.302
-303.822	360.672	0.115	0.228
-302.807	-200.000	-0.015	-0.413
-301.793	36.893	-0.299	0.261
-300.778	-49.906	-0.263	-0.123
-299.764	194.163	-0.094	-0.140
-298.749	-29.469	0.213	0.120
-297.735	800.000	-0.045	-0.141
-296.720	-105.370	0.554	-0.124
-295.705	-55.328	0.251	-0.111
-294.691	-119.470	-0.299	-0.051
-293.676	-1.926	-0.260	0.180
-292.662	275.203	-0.232	-0.406
-291.647	800.000	-0.044	-0.130
-290.632	-200.000	0.006	-0.051
-289.618	-200.000	-0.043	0.363
-288.603	275.501	-0.108	-0.188
-287.589	57.923	-0.158	0.153
-286.574	-175.050	0.309	0.008
-285.559	-54.542	0.245	-0.110
-284.545	504.278	0.111	0.253
-283.530	-200.000	0.007	0.356
-282.516	307.889	0.063	0.116
-281.501	263.280	-0.083	-0.142
-280.486	192.575	-0.093	-0.138
-279.472	326.210	0.050	-0.095
-278.457	133.039	0.091	-0.116
-277.443	336.207	-0.035	0.068
-276.428	488.675	0.110	0.247
-275.413	398.408	-0.054	-0.112
-274.399	-15.579	-0.085	0.054
-273.384	59.801	0.199	0.193
-272.370	-200.000	0.029	0.243
-271.355	154.198	-0.167	-0.225
-270.340	-122.593	0.389	-0.062
-269.326	-200.000	0.153	-0.000
-268.311	69.612	0.166	-0.169
-267.297	-171.737	0.122	0.004
-266.282	6.370	0.272	-0.199
-265.267	101.691	0.102	-0.118
-264.253	-137.616	0.161	0.018
-263.238	-64.437	0.343	0.137
-262.224	-200.000	-0.006	-0.041
-261.209	169.743	0.119	-0.167
-260.195	-1.040	0.312	0.218
-259.180	-96.259	-0.005	-0.001
-258.165	83.942	-0.115	-0.123
-257.151	48.104	0.118	-0.109
-256.136	-52.376	0.079	-0.036
-255.122	-126.181	-0.188	-0.028
-254.107	83.921	-0.274	0.295
-253.092	415.065	0.084	0.177
-252.078	-200.000	-0.022	0.256
-251.063	-91.397	0.366	-0.103
-250.049	-8.329	-0.099	-0.066
-249.034	81.788	0.272	-0.290
-248.019	27.619	-0.308	-0.255
-247.005	-196.562	0.260	0.002
-245.990	-42.017	0.328	0.166
-244.976	-62.879	-0.304	-0.124
-243.961	276.916	0.045	0.078
-242.946	-44.368	0.247	-0.122
-241.932	203.581	-0.110	0.167
-240.917	337.159	0.131	-0.250
-239.903	146.361	0.176	-0.232
-238.888	-200.000	-0.028	0.142
-237.873	471.793	0.055	0.123
-236.859	446.983	-0.134	-0.290
-235.844	-119.966	0.167	0.028
-234.830	-53.451	-0.111	0.050
-233.815	-138.556	-0.364	0.039
-232.800	22.733	0.142	0.115
-231.786	-58.674	0.343	0.147
-230.771	-130.938	-0.442	-0.058
-229.757	-4.298	0.229	0.156
-228.742	294.605	-0.059	0.106
-227.727	14.220	0.122	0.094
-226.713	64.772	-0.146	-0.145
-225.698	417.391	-0.176	-0.371
-224.684	-44.129	0.111	0.055
-223.669	657.392	-0.066	-0.166
-222.655	208.060	-0.104	-0.159
-221.640	296.472	0.098	0.177
-220.625	67.223	0.065	0.065
-219.611	-175.648	0.096	0.003
-218.596	-152.886	0.174	0.012
-217.582	93.356	-0.145	-0.161
-216.567	-200.000	-0.017	-0.114
-215.552	72.247	0.144	0.147
-214.538	234.099	-0.101	0.163
-213.523	-137.819	-0.373	0.041
-212.509	-200.000	-0.008	0.201
-211.494	-112.054	-0.187	-0.037
-210.479	-74.837	0.196	-0.069
-209.465	96.676	0.069	-0.077
-208.450	-128.791	-0.147	0.020
-207.436	108.913	0.223	-0.262
-206.421	-46.274	0.086	0.041
-205.406	-200.000	-0.058	0.356
-204.392	144.865	0.222	-0.293
-203.377	176.324	0.096	0.136
-202.363	44.795	-0.179	-0.162
-201.348	-200.000	0.014	0.212
-200.333	176.036	-0.198	-0.282
-199.319	-200.000	-0.064	-0.313
-198.304	800.000	-0.098	0.275
-197.290	-42.802	0.179	0.089
-196.275	50.248	0.239	-0.222
-195.260	-24.973	0.225	-0.132
-194.246	-188.552	0.284	-0.003
-193.231	-26.991	0.145	0.083
-192.217	-4.795	-0.418	-0.284
-191.202	-68.121	0.147	-0.056
-190.187	-127.476	-0.159	-0.023
-189.173	-36.259	0.214	-0.114
-188.158	-50.614	-0.233	0.108
-187.144	-200.000	0.005	0.101
-186.129	-133.951	-0.136	-0.017
-185.114	117.519	-0.135	0.163
-184.100	-113.409	0.172	0.033
-183.085	-116.553	-0.421	-0.076
-182.071	-59.082	-0.054	0.023
-181.056	84.508	-0.102	-0.110
-180.042	3.913	-0.098	-0.071
-179.027	72.325	0.213	0.218
-178.012	3.960	0.064	0.046
-176.998	-31.086	-0.236	-0.131
-175.983	42.623	0.199	-0.178
-174.969	178.398	0.191	0.274
-173.954	-148.136	-0.132	0.011
-172.939	-2.009	-0.198	0.136
-171.925	-83.492	0.369	-0.116
-170.910	291.098	-0.048	0.085
-169.896	-200.000	0.048	0.316
-168.881	118.089	0.278	0.337
-167.866	800.000	0.038	0.152
-166.852	213.165	-0.188	0.291
-165.837	-200.000	-0.046	0.255
-164.823	39.821	0.200	0.176
-163.808	-98.686	0.156	0.039
-162.793	-117.863	-0.503	-0.089
-161.779	25.754	-0.083	0.068
-160.764	106.016	0.252	0.293
-159.750	-75.286	-0.503	-0.176
-158.735	-200.000	-0.048	0.246
-157.720	800.000	-0.016	-0.064
-156.706	-127.694	-0.128	-0.018
-155.691	232.084	0.209	-0.337
-154.677	70.245	-0.115	-0.117
-153.662	358.715	0.102	-0.200
-152.647	-87.259	-0.212	-0.063
-151.633	-123.702	-0.102	-0.016
-150.618	-72.092	0.134	0.049
-149.604	63.344	0.034	-0.033
-148.589	789.044	0.097	0.261
-147.574	683.318	-0.139	0.355
-146.560	-3.598	-0.038	0.026
-145.545	-153.958	0.345	0.023
-144.531	-200.000	0.090	-0.403
-143.516	-200.000	-0.016	0.209
-142.502	-200.000	0.035	0.491
-141.487	-200.000	0.012	0.276
-140.472	-200.000	0.016	0.106
-139.458	-118.176	-0.281	-0.049
-138.443	16.558	0.226	0.175
-137.429	-42.952	-0.287	-0.143
-136.414	-115.280	-0.152	0.028
-135.399	69.220	0.090	-0.091
-134.385	513.830	-0.102	0.233
-133.370	6.692	0.142	0.103
-132.356	72.303	-0.179	0.183
-131.341	-136.916	0.108	0.012
-130.326	49.804	-0.141	0.130
-129.312	389.683	0.143	-0.291
-128.297	94.795	0.194	-0.216
-127.283	184.198	0.074	0.107
-126.268	-107.428	-0.108	0.023
-125.253	-57.988	0.092	-0.039
-124.239	94.570	-0.163	0.181
-123.224	-200.000	-0.039	0.223
-122.210	800.000	-0.027	0.093
-121.195	-121.117	-0.447	0.073
-120.180	0.929	0.215	-0.151
