DTS Sentinel unit serial number:	SN413079Multiplexer serial number:	ORYXHardware model number:	OX4-SRSoftware version number:	ORYX F/W v4.00 Oryx Data Collector v3.7.2.0data status	okinstallation	princeton_trtdifferential loss correction	single-endedforward channel	channel 2reverse channel	N/Adate	2019/09/14time	05:27:35forward acquisition time	60.00reverse acquisition time	0.00gamma	496.2192k internal	0.2335k external	0.2335temperature offset calibration	1.0132default loss term (dB/km)	0.3790temperature slope calibration	1.0000multiplexer offset coefficient	1.0000multiplexer slope coefficient	1.0000fibre end	0.00T internal ref (°C)	26.94T ext. ref 1 (°C)	3.37T ext. ref 2 (°C)	21.89length (m)	temperature (°C)	Stokes	anti-Stokes-747.200	800.000	0.057	-0.231
-746.185	-87.069	-0.633	0.194
-745.171	-200.000	0.025	-0.353
-744.156	800.000	-0.140	-0.457
-743.142	-107.644	-0.243	0.053
-742.127	-14.166	0.116	-0.075
-741.112	-149.580	-0.224	0.018
-740.098	-154.154	-0.029	-0.002
-739.083	457.777	-0.046	-0.103
-738.069	-17.589	0.388	0.245
-737.054	15.712	-0.230	-0.182
-736.039	-90.494	-0.373	0.108
-735.025	-104.593	0.346	0.080
-734.010	800.000	-0.071	-0.247
-732.996	777.445	0.073	-0.201
-731.981	8.452	-0.028	0.021
-730.966	-150.364	-0.370	0.029
-729.952	-39.748	0.152	-0.080
-728.937	-37.026	0.062	-0.033
-727.923	-72.707	-0.405	-0.150
-726.908	181.520	-0.107	-0.159
-725.894	-11.825	0.291	0.192
-724.879	6.108	0.165	-0.123
-723.864	135.214	-0.155	-0.203
-722.850	-200.000	-0.019	-0.289
-721.835	301.971	-0.159	-0.295
-720.821	-47.010	-0.190	-0.093
-719.806	-200.000	-0.018	0.092
-718.791	32.075	-0.231	0.200
-717.777	-112.207	-0.191	0.039
-716.762	-5.228	-0.346	0.238
-715.748	737.341	-0.091	-0.245
-714.733	-99.629	-0.164	0.041
-713.718	144.760	-0.163	-0.219
-712.704	154.553	0.184	-0.253
-711.689	-81.642	-0.245	0.081
-710.675	617.375	0.067	0.168
-709.660	-200.000	-0.023	0.220
-708.645	-44.476	-0.101	-0.051
-707.631	13.896	-0.265	-0.207
-706.616	212.125	0.138	0.218
-705.602	-59.907	-0.213	0.091
-704.587	-200.000	0.005	0.021
-703.572	800.000	-0.065	0.206
-702.558	242.459	-0.133	0.223
-701.543	800.000	-0.080	0.344
-700.529	-110.372	-0.154	-0.032
-699.514	-51.674	-0.214	-0.100
-698.499	800.000	-0.077	0.326
-697.485	-200.000	0.004	0.022
-696.470	-200.000	-0.008	0.148
-695.456	-200.000	-0.020	-0.109
-694.441	-34.227	-0.099	0.054
-693.426	-28.813	0.254	0.147
-692.412	-97.482	0.299	-0.078
-691.397	-115.329	-0.091	0.017
-690.383	-51.101	-0.272	0.128
-689.368	-123.433	-0.123	0.020
-688.354	103.603	-0.157	0.185
-687.339	41.796	0.028	-0.025
-686.324	717.346	-0.089	-0.238
-685.310	128.854	-0.147	0.188
-684.295	-37.726	0.138	0.073
-683.281	-44.880	-0.056	-0.028
-682.266	-200.000	-0.003	-0.193
-681.251	-18.134	-0.157	0.099
-680.237	195.318	-0.075	-0.114
-679.222	42.891	0.117	0.107
-678.208	-161.176	0.304	-0.016
-677.193	-168.497	-0.303	-0.012
-676.178	159.019	-0.051	0.071
-675.164	-108.261	-0.376	0.081
-674.149	800.000	0.031	0.135
-673.135	435.576	0.170	0.370
-672.120	183.386	0.134	-0.199
-671.105	-90.066	-0.277	-0.081
-670.091	-84.254	0.085	0.027
-669.076	-60.507	-0.315	0.134
-668.062	800.000	-0.038	-0.117
-667.047	25.650	0.117	0.098
-666.032	-200.000	-0.001	-0.083
-665.018	800.000	0.037	0.124
-664.003	-102.969	0.255	0.060
-662.989	32.351	-0.123	-0.107
-661.974	-200.000	0.012	0.205
-660.959	-65.444	-0.388	0.156
-659.945	800.000	0.112	0.338
-658.930	-200.000	-0.019	-0.121
-657.916	-200.000	-0.024	0.178
-656.901	672.720	0.128	-0.332
-655.886	180.190	-0.122	0.180
-654.872	-5.328	-0.082	-0.056
-653.857	-149.479	0.226	-0.018
-652.843	-45.658	-0.423	-0.210
-651.828	-200.000	-0.056	0.300
-650.814	-95.982	0.136	-0.036
-649.799	361.881	0.037	0.075
-648.784	-200.000	0.033	-0.277
-647.770	1.245	0.145	0.104
-646.755	0.081	0.130	-0.093
-645.741	182.866	-0.231	0.341
-644.726	-54.561	0.327	0.148
-643.711	238.413	-0.113	-0.187
-642.697	-36.295	0.257	-0.139
-641.682	-24.119	-0.056	-0.033
-640.668	236.940	-0.138	0.229
-639.653	-200.000	-0.057	-0.507
-638.638	-37.126	-0.241	-0.129
-637.624	-200.000	0.005	-0.194
-636.609	800.000	-0.107	-0.298
-635.595	-61.909	-0.128	-0.053
-634.580	-200.000	-0.011	0.267
-633.565	42.540	0.143	-0.130
-632.551	69.299	-0.057	0.058
-631.536	-200.000	0.008	0.069
-630.522	149.595	0.147	0.199
-629.507	-82.986	0.283	-0.091
-628.492	227.699	-0.189	-0.307
-627.478	534.233	0.079	0.186
-626.463	-118.910	-0.098	0.017
-625.449	187.242	-0.173	0.259
-624.434	28.341	0.095	0.080
-623.419	-10.375	0.589	0.390
-622.405	-144.123	0.213	-0.020
-621.390	142.107	0.208	0.276
-620.376	-38.190	0.240	0.127
-619.361	78.559	-0.124	0.133
-618.346	800.000	0.068	-0.213
-617.332	5.337	-0.319	-0.235
-616.317	57.995	0.182	-0.179
-615.303	-4.901	0.098	0.067
-614.288	-147.602	-0.256	-0.022
-613.273	182.671	0.054	-0.079
-612.259	478.923	0.131	-0.297
-611.244	-26.782	0.047	0.027
-610.230	25.968	0.090	0.075
-609.215	247.384	-0.109	-0.184
-608.201	311.221	-0.227	-0.425
-607.186	85.727	0.207	0.227
-606.171	-200.000	0.015	-0.171
-605.157	-122.388	-0.158	-0.026
-604.142	-200.000	-0.022	0.182
-603.128	-96.566	0.194	-0.051
-602.113	164.345	-0.095	0.134
-601.098	70.747	-0.198	0.204
-600.084	323.495	-0.113	-0.216
-599.069	100.817	-0.198	0.230
-598.055	-200.000	0.017	-0.196
-597.040	-130.622	-0.270	0.036
-596.025	-20.940	-0.216	-0.132
-595.011	-92.790	-0.250	0.070
-593.996	800.000	0.095	0.288
-592.982	10.103	-0.100	0.076
-591.967	-63.858	-0.136	0.055
-590.952	800.000	-0.047	0.174
-589.938	5.192	-0.175	0.129
-588.923	-89.703	0.198	-0.058
-587.909	32.288	0.250	-0.216
-586.894	-198.705	0.693	-0.004
-585.879	-7.030	-0.344	-0.233
-584.865	-107.698	0.278	0.060
-583.850	-4.086	-0.051	-0.035
-582.836	800.000	0.126	-0.396
-581.821	412.122	0.020	0.043
-580.806	35.746	0.183	0.161
-579.792	612.014	-0.007	-0.017
-578.777	0.766	-0.301	-0.215
-577.763	-200.000	0.002	0.027
-576.748	-89.507	-0.256	0.075
-575.733	-169.246	-0.202	-0.007
-574.719	-169.202	-0.289	0.011
-573.704	-43.953	-0.153	-0.077
-572.690	130.481	-0.130	-0.166
-571.675	-21.792	0.320	-0.194
-570.661	48.209	-0.284	0.265
-569.646	-200.000	0.029	0.446
-568.631	60.011	0.215	-0.212
-567.617	766.792	0.129	-0.350
-566.602	-200.000	0.020	0.147
-565.588	25.170	-0.395	-0.327
-564.573	46.838	0.149	-0.139
-563.558	-95.572	-0.167	-0.045
-562.544	214.057	0.041	-0.065
-561.529	81.710	0.257	-0.277
-560.515	-27.722	-0.287	-0.166
-559.500	315.755	0.116	0.219
-558.485	387.588	0.074	-0.152
-557.471	-200.000	0.052	0.250
-556.456	800.000	-0.089	0.247
-555.442	405.044	0.024	0.050
-554.427	166.957	0.068	-0.097
-553.412	-132.040	-0.158	-0.020
-552.398	732.384	0.057	0.153
-551.383	136.294	0.252	0.328
-550.369	410.154	0.057	0.121
-549.354	-200.000	-0.064	0.309
-548.339	105.355	-0.224	0.264
-547.325	-200.000	-0.013	-0.056
-546.310	19.382	-0.312	0.250
-545.296	800.000	-0.021	-0.070
-544.281	293.359	-0.061	-0.110
-543.266	-98.884	-0.097	0.025
-542.252	-25.904	0.236	0.138
-541.237	-200.000	0.009	0.083
-540.223	144.409	0.023	0.030
-539.208	488.602	-0.130	0.296
-538.193	-153.558	0.226	0.016
-537.179	43.833	-0.154	0.141
-536.164	123.519	0.119	0.149
-535.150	-180.914	-0.087	0.002
-534.135	-55.500	-0.088	0.039
-533.121	108.765	-0.045	0.054
-532.106	111.561	-0.114	-0.137
-531.091	-200.000	0.007	-0.040
-530.077	-100.920	0.239	0.058
-529.062	-200.000	-0.051	-0.346
-528.048	275.910	0.114	0.201
-527.033	-23.537	-0.042	0.025
-526.018	-91.873	-0.042	0.012
-525.004	-154.599	-0.181	-0.012
-523.989	-34.612	-0.343	0.187
-522.975	-200.000	-0.001	0.236
-521.960	-4.480	-0.298	-0.205
-520.945	-27.649	0.133	-0.077
-519.931	800.000	0.030	0.110
-518.916	-28.101	0.062	-0.035
-517.902	-122.673	0.225	0.036
-516.887	800.000	0.045	0.144
-515.872	-200.000	0.037	0.403
-514.858	121.064	-0.044	-0.054
-513.843	-51.620	-0.176	-0.082
-512.829	-90.152	0.204	0.059
-511.814	-59.184	-0.173	-0.074
-510.799	-200.000	0.414	-0.001
-509.785	250.730	0.131	0.222
-508.770	-200.000	-0.001	-0.119
-507.756	800.000	0.037	0.116
-506.741	626.170	0.069	-0.174
-505.726	-135.061	-0.069	0.008
-504.712	-62.518	-0.107	0.044
-503.697	409.989	0.143	-0.301
-502.683	608.314	0.090	-0.223
-501.668	-127.384	0.063	0.009
-500.653	-200.000	0.061	-0.283
-499.639	-106.577	-0.169	-0.038
-498.624	-133.137	-0.240	-0.030
-497.610	-104.382	0.294	-0.068
-496.595	-149.505	-0.384	0.030
-495.581	-47.329	0.111	0.054
-494.566	-86.504	-0.071	-0.022
-493.551	-154.612	-0.146	-0.010
-492.537	65.240	0.091	0.091
-491.522	657.074	-0.103	-0.263
-490.508	800.000	-0.043	-0.147
-489.493	60.723	0.122	0.120
-488.478	-96.184	0.147	-0.039
-487.464	-200.000	-0.012	0.432
-486.449	-66.243	-0.613	0.243
-485.435	-200.000	-0.042	-0.256
-484.420	280.596	0.114	0.202
-483.405	-200.000	-0.004	-0.137
-482.391	69.776	0.064	-0.066
-481.376	265.152	-0.049	-0.085
-480.362	-105.918	-0.122	-0.027
-479.347	35.540	0.198	-0.173
-478.332	-200.000	0.007	0.144
-477.318	-85.514	0.433	-0.134
-476.303	122.469	0.140	-0.175
-475.289	-137.931	-0.158	-0.018
-474.274	-200.000	0.032	-0.207
-473.259	-18.595	-0.093	0.058
-472.245	-55.472	-0.156	0.069
-471.230	-108.515	0.173	-0.037
-470.216	800.000	0.012	-0.035
-469.201	-200.000	-0.016	-0.110
-468.186	-200.000	-0.020	0.127
-467.172	-40.559	0.244	-0.126
-466.157	-129.037	0.123	0.017
-465.143	374.692	0.116	-0.236
-464.128	87.743	0.038	0.041
-463.113	-73.249	0.053	-0.019
-462.099	537.554	0.077	-0.182
-461.084	436.402	0.143	-0.308
-460.070	-137.741	-0.242	-0.027
-459.055	-123.364	0.158	-0.025
-458.040	201.247	0.024	-0.037
-457.026	-78.469	-0.212	-0.072
-456.011	-150.371	0.204	-0.016
-454.997	36.045	-0.070	-0.061
-453.982	253.065	-0.139	-0.236
-452.968	584.335	-0.059	0.143
-451.953	662.715	0.055	0.141
-450.938	-92.836	-0.556	-0.154
-449.924	-200.000	-0.001	-0.237
-448.909	-37.242	-0.138	-0.073
-447.895	143.153	0.132	-0.174
-446.880	800.000	0.025	-0.090
-445.865	-200.000	-0.006	0.094
-444.851	-147.776	0.162	-0.014
-443.836	410.697	0.039	-0.082
-442.822	-200.000	0.017	0.556
-441.807	-200.000	-0.012	0.080
-440.792	-200.000	0.013	-0.336
-439.778	800.000	0.041	0.169
-438.763	271.695	0.065	0.113
-437.749	-116.419	-0.105	-0.019
-436.734	-23.207	0.136	-0.081
-435.719	-186.732	0.391	0.005
-434.705	551.179	-0.123	-0.294
-433.690	224.992	0.029	0.047
-432.676	620.856	0.050	-0.125
-431.661	-32.865	-0.120	0.066
-430.646	115.357	-0.116	-0.141
-429.632	-200.000	-0.036	-0.171
-428.617	49.008	0.142	-0.133
-427.603	-200.000	0.009	-0.178
-426.588	800.000	0.041	0.174
-425.573	-143.618	0.317	0.030
-424.559	22.615	0.132	0.107
-423.544	-200.000	0.011	0.120
-422.530	800.000	-0.059	-0.166
-421.515	329.653	0.033	-0.063
-420.500	457.746	0.094	0.208
-419.486	77.312	0.193	0.204
-418.471	289.208	-0.049	0.089
-417.457	-200.000	0.013	-0.176
-416.442	42.758	-0.087	0.078
-415.428	-52.796	0.179	0.082
-414.413	-57.589	-0.064	-0.028
-413.398	2.495	-0.183	0.131
-412.384	-183.001	-0.294	-0.005
-411.369	184.498	-0.021	0.030
-410.355	-106.896	0.113	-0.025
-409.340	126.356	-0.231	-0.290
-408.325	24.673	0.091	-0.074
-407.311	-7.313	0.086	0.058
-406.296	-200.000	-0.004	0.253
-405.282	87.404	-0.137	-0.150
-404.267	264.792	-0.126	0.218
-403.252	584.505	-0.078	0.190
-402.238	-46.551	-0.050	-0.024
-401.223	-56.697	0.391	-0.171
-400.209	-200.000	-0.034	0.188
-399.194	-154.774	0.097	0.006
-398.179	123.948	-0.046	0.058
-397.165	86.038	0.058	0.063
-396.150	800.000	0.070	-0.207
-395.136	66.401	0.096	0.097
-394.121	504.781	-0.036	0.083
-393.106	143.325	0.060	-0.080
-392.092	-200.000	0.009	0.056
-391.077	-138.909	-0.117	-0.013
-390.063	-200.000	0.002	0.038
-389.048	208.110	0.121	0.188
-388.033	700.542	0.075	-0.195
-387.019	647.938	0.102	0.259
-386.004	621.994	0.042	0.105
-384.990	88.113	0.134	0.147
-383.975	111.090	0.145	-0.173
-382.960	800.000	0.064	-0.218
-381.946	-67.007	-0.154	0.060
-380.931	800.000	0.097	0.309
-379.917	-164.861	0.234	0.010
-378.902	106.323	0.032	0.038
-377.888	40.188	0.163	-0.145
-376.873	-55.117	-0.075	0.033
-375.858	-98.553	-0.178	0.045
-374.844	-96.625	0.279	-0.073
-373.829	636.844	0.131	-0.330
-372.815	-200.000	0.061	-0.268
-371.800	-200.000	0.019	-0.164
-370.785	-200.000	0.033	0.291
-369.771	-19.118	0.311	0.191
-368.756	-72.571	-0.236	0.086
-367.742	100.742	0.118	-0.136
-366.727	5.666	-0.062	0.046
-365.712	225.308	-0.181	0.290
-364.698	21.083	-0.366	0.294
-363.683	-200.000	-0.004	0.025
-362.669	-200.000	-0.056	-0.359
-361.654	-152.598	0.367	-0.026
-360.639	513.196	0.229	0.528
-359.625	-200.000	0.082	0.484
-358.610	612.888	0.191	-0.473
-357.596	89.989	-0.131	0.145
-356.581	800.000	-0.072	0.267
-355.566	-16.930	-0.181	-0.113
-354.552	-156.658	0.089	0.005
-353.537	-107.957	0.277	0.060
-352.523	-200.000	0.051	-0.304
-351.508	-59.976	-0.147	0.062
-350.493	315.121	0.079	0.147
-349.479	-53.275	-0.370	0.168
-348.464	-200.000	0.009	-0.212
-347.450	362.634	-0.052	-0.102
-346.435	-122.741	-0.158	0.025
-345.420	-35.757	0.177	-0.095
-344.406	-38.376	-0.150	-0.079
-343.391	-157.790	-0.366	-0.022
-342.377	-27.388	0.177	0.102
-341.362	-106.738	0.095	-0.021
-340.348	-117.339	-0.246	0.044
-339.333	-72.039	-0.179	0.066
-338.318	-200.000	0.022	0.157
-337.304	-55.655	0.280	-0.124
-336.289	64.079	0.123	0.122
-335.275	800.000	-0.050	0.147
-334.260	-200.000	0.004	-0.226
-333.245	369.697	-0.087	-0.175
-332.231	56.092	0.202	-0.194
-331.216	421.009	0.024	-0.050
-330.202	-200.000	0.014	-0.064
-329.187	800.000	-0.083	0.266
-328.172	-76.543	-0.229	-0.080
-327.158	-200.000	-0.000	-0.055
-326.143	-176.833	0.321	-0.008
-325.129	-26.433	0.110	0.063
-324.114	-200.000	0.016	0.206
-323.099	8.383	0.148	0.110
-322.085	-67.297	-0.163	0.063
-321.070	-200.000	0.029	0.131
-320.056	-45.435	0.189	-0.093
-319.041	381.336	-0.131	0.265
-318.026	45.646	-0.192	0.175
-317.012	-200.000	0.044	-0.213
-315.997	534.304	0.077	0.180
-314.983	-38.428	0.362	-0.189
-313.968	-150.517	-0.258	0.020
-312.953	-17.697	-0.328	0.204
-311.939	-153.886	0.464	-0.031
-310.924	44.889	0.123	-0.112
-309.910	-200.000	-0.030	0.253
-308.895	-200.000	0.029	0.168
-307.880	800.000	0.073	0.238
-306.866	-200.000	0.058	0.268
-305.851	191.232	0.019	-0.028
-304.837	22.241	-0.383	-0.309
-303.822	176.927	0.139	0.200
-302.807	-107.813	-0.147	0.032
-301.793	800.000	0.056	-0.185
-300.778	71.534	0.056	-0.057
-299.764	98.886	-0.181	0.207
-298.749	-200.000	0.018	-0.124
-297.735	119.651	0.248	-0.303
-296.720	5.308	-0.068	0.050
-295.705	-74.758	0.210	-0.074
-294.691	483.057	0.108	-0.243
-293.676	403.647	-0.111	0.232
-292.662	139.737	0.046	-0.060
-291.647	-40.348	-0.253	0.130
-290.632	-148.236	-0.064	-0.005
-289.618	800.000	-0.040	-0.111
-288.603	-52.918	-0.116	-0.053
-287.589	28.739	-0.258	0.216
-286.574	-88.857	0.182	0.053
-285.559	-21.332	0.251	0.151
-284.545	409.948	-0.050	0.106
-283.530	-200.000	-0.007	0.247
-282.516	55.219	-0.121	0.115
-281.501	621.189	0.112	-0.278
-280.486	800.000	0.105	0.397
-279.472	40.466	0.023	0.021
-278.457	-93.827	-0.255	-0.069
-277.443	-127.312	-0.155	-0.022
-276.428	-24.482	-0.088	0.051
-275.413	-21.614	0.064	0.039
-274.399	-147.525	0.217	0.018
-273.384	-128.590	0.215	-0.030
-272.370	390.985	-0.173	-0.355
-271.355	-111.800	0.391	-0.078
-270.340	-161.437	-0.233	-0.012
-269.326	95.517	-0.221	0.249
-268.311	-175.344	-0.055	-0.001
-267.297	-200.000	0.029	-0.553
-266.282	181.556	0.062	-0.090
-265.267	-122.000	-0.149	-0.024
-264.253	369.719	-0.043	0.086
-263.238	-86.790	0.103	0.031
-262.224	26.108	0.317	-0.261
-261.209	239.800	-0.099	-0.163
-260.195	519.754	0.105	-0.243
-259.180	-94.745	0.188	0.050
-258.165	300.416	-0.130	-0.236
-257.151	800.000	-0.083	-0.284
-256.136	-49.266	-0.057	-0.027
-255.122	-124.562	0.341	-0.052
-254.107	-37.718	-0.274	-0.144
-253.092	74.362	-0.035	-0.037
-252.078	-80.721	-0.360	0.118
-251.063	-147.134	-0.315	0.027
-250.049	800.000	-0.096	-0.345
-249.034	43.523	-0.151	0.136
-248.019	82.656	0.174	0.186
-247.005	-200.000	-0.087	-0.464
-245.990	-50.784	0.172	0.080
-244.976	800.000	0.069	-0.240
-243.961	59.149	-0.125	0.121
-242.946	-21.741	0.472	0.283
-241.932	-84.669	-0.303	0.094
-240.917	-152.807	0.148	0.010
-239.903	-64.688	0.201	-0.080
-238.888	-200.000	0.025	-0.234
-237.873	273.145	0.046	-0.080
-236.859	-65.438	-0.224	-0.089
-235.844	-200.000	0.002	0.107
-234.830	168.671	-0.065	-0.092
-233.815	161.718	0.205	-0.282
-232.800	-27.876	-0.105	0.060
-231.786	25.094	0.280	0.229
-230.771	-101.837	-0.252	-0.060
-229.757	800.000	-0.024	0.073
-228.742	-154.371	-0.257	0.017
-227.727	-79.032	0.401	0.134
-226.713	-171.481	0.013	0.000
-225.698	167.069	-0.079	-0.110
-224.684	-133.345	-0.293	0.036
-223.669	-16.828	-0.315	0.196
-222.655	-164.572	0.172	0.008
-221.640	89.788	-0.113	-0.124
-220.625	391.815	-0.041	0.084
-219.611	800.000	-0.115	-0.370
-218.596	800.000	0.015	-0.054
-217.582	-67.080	-0.033	0.013
-216.567	-200.000	0.088	0.390
-215.552	-16.610	0.449	0.280
-214.538	-28.627	0.128	-0.073
-213.523	463.624	-0.102	-0.223
-212.509	39.580	0.156	-0.138
-211.494	800.000	-0.014	-0.038
-210.479	-42.347	0.149	0.075
-209.465	-2.173	-0.200	-0.138
-208.450	-200.000	0.057	-0.304
-207.436	-200.000	-0.009	-0.218
-206.421	179.551	-0.113	0.162
-205.406	800.000	0.163	0.454
-204.392	-94.852	-0.415	0.111
-203.377	-200.000	0.003	-0.060
-202.363	-25.464	-0.185	0.108
-201.348	62.320	-0.127	0.124
-200.333	800.000	-0.083	0.268
-199.319	-200.000	0.172	0.001
-198.304	-100.556	-0.216	0.053
-197.290	445.724	0.115	-0.249
-196.275	367.693	-0.050	0.100
-195.260	293.458	0.035	-0.063
-194.246	34.868	-0.177	0.152
-193.231	800.000	-0.085	0.319
-192.217	-56.503	-0.085	-0.037
-191.202	121.297	-0.367	-0.450
-190.187	145.387	0.034	0.044
-189.173	242.694	-0.064	0.105
-188.158	-119.472	-0.256	-0.044
-187.144	200.581	0.172	-0.260
-186.129	-87.173	-0.272	0.081
-185.114	-191.320	0.414	0.004
-184.100	-200.000	0.074	-0.440
-183.085	-72.488	-0.258	-0.094
-182.071	536.787	-0.087	0.203
-181.056	-74.708	-0.108	-0.038
-180.042	108.660	0.103	-0.121
-179.027	-83.820	0.323	0.101
-178.012	-32.995	0.181	0.098
-176.998	-11.121	-0.195	-0.127
-175.983	51.996	-0.172	-0.161
-174.969	274.405	0.012	-0.021
-173.954	-200.000	0.035	0.206
-172.939	16.437	0.219	0.170
-171.925	-99.809	-0.227	0.056
-170.910	-155.680	-0.153	-0.010
-169.896	-200.000	-0.003	0.043
-168.881	505.448	-0.117	-0.267
-167.866	-58.561	0.230	0.098
-166.852	-144.645	-0.143	-0.013
-165.837	-200.000	0.004	0.152
-164.823	800.000	0.115	0.413
-163.808	59.825	0.109	0.106
-162.793	-77.442	-0.161	-0.055
-161.779	-8.810	0.221	-0.146
-160.764	-158.918	-0.095	0.005
-159.750	-200.000	0.032	0.246
-158.735	-57.730	0.153	0.066
-157.720	-100.385	-0.084	-0.020
-156.706	-94.658	-0.039	-0.010
-155.691	-22.967	-0.104	-0.061
-154.677	-200.000	-0.029	-0.257
-153.662	-58.032	-0.344	0.147
-152.647	37.555	0.124	0.108
-151.633	131.115	0.179	0.225
-150.618	57.054	0.129	-0.124
-149.604	-200.000	-0.009	-0.275
-148.589	86.713	-0.092	-0.100
-147.574	800.000	-0.065	-0.246
-146.560	111.995	0.102	0.121
-145.545	-142.339	0.145	0.014
-144.531	289.140	0.081	0.143
-143.516	60.155	0.165	-0.160
-142.502	-43.190	0.322	-0.160
-141.487	-9.203	0.075	0.049
-140.472	800.000	0.063	0.235
-139.458	410.574	-0.130	0.270
-138.443	-5.141	-0.101	0.068
-137.429	9.919	0.315	0.235
-136.414	-200.000	0.014	0.538
-135.399	167.641	-0.086	-0.120
-134.385	183.959	0.053	0.077
-133.370	-137.867	0.340	0.037
-132.356	-200.000	-0.016	-0.092
-131.341	49.267	0.078	-0.072
-130.326	677.175	-0.074	0.189
-129.312	-11.882	0.392	0.252
-128.297	67.082	-0.124	-0.124
-127.283	-156.439	-0.311	-0.019
-126.268	328.323	0.113	-0.212
-125.253	442.372	-0.017	0.037
-124.239	433.363	-0.074	-0.157
-123.224	12.048	-0.224	0.169
-122.210	-31.688	0.037	0.021
-121.195	-200.000	-0.011	-0.263
