DTS Sentinel unit serial number:	SN413079Multiplexer serial number:	ORYXHardware model number:	OX4-SRSoftware version number:	ORYX F/W v4.00 Oryx Data Collector v3.7.2.0data status	okinstallation	princeton_trtdifferential loss correction	single-endedforward channel	channel 2reverse channel	N/Adate	2019/09/19time	05:07:34forward acquisition time	60.00reverse acquisition time	0.00gamma	496.2192k internal	0.2352k external	0.2352temperature offset calibration	1.0012default loss term (dB/km)	0.3790temperature slope calibration	1.0000multiplexer offset coefficient	1.0000multiplexer slope coefficient	1.0000fibre end	0.00T internal ref (°C)	19.62T ext. ref 1 (°C)	0.60T ext. ref 2 (°C)	12.76length (m)	temperature (°C)	Stokes	anti-Stokes-747.200	81.773	0.079	0.086
-746.185	131.047	-0.132	0.170
-745.171	-51.041	-0.129	0.060
-744.156	-164.973	0.390	-0.017
-743.142	-200.000	-0.040	0.340
-742.127	268.791	-0.112	-0.196
-741.112	171.901	0.255	-0.365
-740.098	165.233	-0.142	0.200
-739.083	41.428	0.104	0.093
-738.069	-63.052	-0.556	0.229
-737.054	-87.927	-0.115	0.035
-736.039	-200.000	0.005	-0.255
-735.025	-13.582	0.266	-0.172
-734.010	-191.876	-0.167	0.002
-732.996	-200.000	-0.009	0.135
-731.981	-7.779	0.054	0.037
-730.966	120.368	0.136	0.169
-729.952	210.890	-0.214	-0.336
-728.937	-51.901	-0.156	-0.072
-727.923	39.414	-0.307	-0.274
-726.908	-41.209	0.096	-0.050
-725.894	-200.000	-0.020	-0.391
-724.879	-31.474	-0.104	0.058
-723.864	8.799	0.194	0.146
-722.850	-70.690	0.093	-0.035
-721.835	2.857	-0.265	-0.192
-720.821	304.378	-0.171	-0.316
-719.806	789.917	0.171	-0.467
-718.791	-81.370	-0.112	0.037
-717.777	-85.053	-0.127	-0.040
-716.762	-107.128	-0.101	0.022
-715.748	-31.549	0.333	-0.187
-714.733	-200.000	-0.010	0.150
-713.718	-157.389	0.259	0.016
-712.704	800.000	-0.077	0.314
-711.689	800.000	0.013	-0.041
-710.675	-35.361	-0.270	-0.146
-709.660	11.835	0.206	-0.157
-708.645	-23.123	-0.255	0.153
-707.631	156.250	-0.072	-0.100
-706.616	-118.587	-0.236	-0.042
-705.602	188.207	-0.077	0.115
-704.587	-200.000	-0.124	0.582
-703.572	-53.601	-0.463	-0.211
-702.558	86.573	0.235	0.258
-701.543	-29.868	0.111	-0.063
-700.529	36.156	0.236	-0.207
-699.514	-200.000	-0.018	0.322
-698.499	-123.295	-0.110	0.018
-697.485	216.195	-0.110	-0.174
-696.470	230.681	-0.033	0.054
-695.456	-128.684	-0.219	-0.031
-694.441	800.000	-0.043	0.131
-693.426	770.851	0.055	0.150
-692.412	-153.708	0.233	0.016
-691.397	-200.000	0.018	0.122
-690.383	800.000	-0.103	-0.285
-689.368	446.830	-0.018	-0.040
-688.354	344.500	-0.080	0.157
-687.339	-183.562	-0.502	-0.009
-686.324	-163.707	0.090	-0.004
-685.310	-93.145	-0.245	-0.068
-684.295	-200.000	-0.023	-0.321
-683.281	51.139	-0.303	0.286
-682.266	-58.201	-0.372	0.161
-681.251	-53.311	-0.084	0.038
-680.237	-63.726	0.271	-0.111
-679.222	-200.000	0.008	-0.299
-678.208	325.022	0.073	-0.140
-677.193	-95.680	0.331	-0.088
-676.178	-200.000	-0.001	-0.063
-675.164	-90.466	-0.030	-0.009
-674.149	376.087	0.155	0.316
-673.135	-13.135	-0.197	0.128
-672.120	-153.676	-0.096	-0.007
-671.105	42.003	-0.176	-0.159
-670.091	-85.516	-0.391	-0.121
-669.076	280.757	0.082	0.145
-668.062	49.021	-0.142	0.132
-667.047	206.939	0.070	-0.109
-666.032	-200.000	-0.014	-0.099
-665.018	-200.000	-0.040	-0.222
-664.003	-200.000	0.044	0.457
-662.989	30.159	-0.226	-0.192
-661.974	-200.000	0.008	0.293
-660.959	-18.726	0.048	-0.030
-659.945	-171.846	-0.308	-0.010
-658.930	-193.126	0.269	-0.002
-657.916	-84.870	-0.180	-0.056
-656.901	800.000	0.062	0.204
-655.886	21.392	-0.308	0.249
-654.872	288.683	0.190	-0.343
-653.857	-200.000	-0.058	-0.255
-652.843	-2.627	-0.061	-0.042
-651.828	130.753	-0.043	-0.055
-650.814	63.496	0.156	-0.155
-649.799	-18.674	-0.300	-0.186
-648.784	107.671	0.084	0.100
-647.770	202.921	-0.212	0.325
-646.755	135.158	-0.050	0.064
-645.741	93.528	-0.113	0.127
-644.726	-200.000	0.001	-0.039
-643.711	-106.086	0.254	0.057
-642.697	-92.838	-0.231	-0.064
-641.682	800.000	0.037	0.150
-640.668	32.292	0.063	0.054
-639.653	-81.676	-0.109	0.036
-638.638	-39.466	0.133	0.069
-637.624	-160.597	0.063	-0.003
-636.609	38.132	-0.087	0.077
-635.595	-200.000	0.044	-0.205
-634.580	-123.165	-0.354	0.056
-633.565	-200.000	0.015	0.215
-632.551	154.978	0.098	0.134
-631.536	-17.964	-0.181	-0.112
-630.522	-96.476	0.172	0.045
-629.507	800.000	-0.117	-0.380
-628.492	251.881	0.205	-0.346
-627.478	92.640	-0.285	0.320
-626.463	69.890	0.106	0.108
-625.449	253.356	0.013	0.022
-624.434	800.000	-0.087	-0.318
-623.419	-89.089	-0.173	-0.051
-622.405	-200.000	0.015	0.176
-621.390	68.726	0.172	-0.175
-620.376	-59.091	0.172	0.074
-619.361	-88.524	-0.226	0.067
-618.346	125.291	-0.111	0.139
-617.332	-200.000	0.033	-0.304
-616.317	269.637	-0.160	-0.278
-615.303	62.261	-0.094	0.093
-614.288	800.000	-0.080	0.225
-613.273	306.590	0.088	0.163
-612.259	-151.018	0.020	-0.001
-611.244	-62.796	0.123	-0.051
-610.230	-18.036	-0.029	0.018
-609.215	-200.000	-0.016	0.232
-608.201	800.000	-0.028	-0.102
-607.186	-200.000	0.020	0.178
-606.171	241.676	0.070	0.116
-605.157	-101.782	0.185	0.045
-604.142	-200.000	0.064	0.283
-603.128	-38.596	-0.264	-0.138
-602.113	89.214	0.131	0.145
-601.098	800.000	-0.043	-0.141
-600.084	800.000	-0.054	-0.157
-599.069	202.758	-0.084	0.129
-598.055	800.000	0.043	-0.175
-597.040	800.000	-0.044	-0.155
-596.025	-178.604	0.071	-0.002
-595.011	-200.000	-0.014	-0.154
-593.996	122.218	-0.151	-0.188
-592.982	800.000	-0.045	0.164
-591.967	-124.040	0.178	0.028
-590.952	-34.183	-0.248	0.135
-589.938	-159.798	-0.141	0.008
-588.923	245.483	0.062	-0.104
-587.909	470.120	-0.062	0.138
-586.894	-69.285	0.015	-0.006
-585.879	2.739	0.244	0.175
-584.865	103.874	0.102	0.118
-583.850	-88.232	0.131	-0.039
-582.836	772.236	0.100	0.271
-581.821	-13.112	0.140	-0.090
-580.806	-200.000	0.074	-0.407
-579.792	-200.000	-0.040	0.199
-578.777	-200.000	0.015	-0.327
-577.763	-200.000	0.035	0.156
-576.748	105.256	0.222	-0.260
-575.733	234.675	-0.181	-0.296
-574.719	-66.316	-0.291	-0.115
-573.704	252.091	0.127	-0.215
-572.690	-3.342	-0.216	-0.149
-571.675	270.165	0.024	-0.043
-570.661	21.418	-0.092	-0.074
-569.646	-69.290	-0.373	0.142
-568.631	-8.674	0.050	0.033
-567.617	-49.650	0.077	-0.036
-566.602	37.072	0.421	0.369
-565.588	455.092	0.122	-0.268
-564.573	-200.000	0.061	0.384
-563.558	-200.000	0.026	-0.214
-562.544	20.481	0.034	0.027
-561.529	-64.142	-0.247	-0.100
-560.515	-128.924	-0.054	-0.007
-559.500	77.937	0.123	-0.129
-558.485	-87.959	-0.172	-0.051
-557.471	-200.000	-0.008	-0.340
-556.456	-81.931	0.089	-0.029
-555.442	78.051	-0.126	0.133
-554.427	800.000	0.066	-0.273
-553.412	338.388	-0.070	0.136
-552.398	61.594	0.081	0.080
-551.383	-9.444	0.098	-0.065
-550.369	-17.070	-0.247	0.155
-549.354	322.062	-0.084	-0.159
-548.339	-135.024	0.166	0.020
-547.325	77.610	-0.230	0.242
-546.310	-200.000	0.020	-0.239
-545.296	75.003	0.267	-0.279
-544.281	-200.000	0.023	0.133
-543.266	33.390	0.130	-0.112
-542.252	154.515	0.144	0.196
-541.237	-46.393	0.106	0.051
-540.223	-135.044	0.304	-0.036
-539.208	76.394	-0.180	-0.188
-538.193	-200.000	0.040	-0.249
-537.179	-127.476	-0.223	0.032
-536.164	39.821	-0.228	0.202
-535.150	-95.167	-0.127	0.034
-534.135	-133.504	-0.210	-0.026
-533.121	-7.166	-0.140	-0.094
-532.106	71.790	0.099	-0.101
-531.091	749.681	0.023	-0.060
-530.077	186.250	-0.045	-0.067
-529.062	-60.127	-0.288	0.122
-528.048	82.011	-0.271	-0.290
-527.033	12.088	0.309	-0.235
-526.018	-89.683	0.211	-0.061
-525.004	167.365	-0.122	0.172
-523.989	-168.301	0.134	-0.005
-522.975	291.286	-0.031	-0.056
-521.960	-112.272	-0.260	0.052
-520.945	-28.595	0.095	0.054
-519.931	200.437	-0.267	0.406
-518.916	-147.539	-0.156	0.013
-517.902	-63.259	0.292	-0.119
-516.887	800.000	0.136	-0.408
-515.872	-47.042	0.151	-0.073
-514.858	-73.322	0.100	-0.036
-513.843	800.000	0.029	-0.081
-512.829	436.258	0.024	-0.051
-511.814	-7.407	-0.189	0.127
-510.799	16.973	-0.190	0.148
-509.785	-200.000	-0.011	0.116
-508.770	20.031	-0.082	-0.065
-507.756	58.038	-0.092	-0.089
-506.741	59.634	0.123	0.120
-505.726	140.125	0.170	0.222
-504.712	-28.185	-0.354	-0.202
-503.697	-200.000	0.007	-0.311
-502.683	101.387	0.170	-0.196
-501.668	-200.000	-0.027	-0.264
-500.653	-6.764	0.085	0.057
-499.639	252.970	-0.114	-0.193
-498.624	800.000	-0.007	-0.024
-497.610	-29.231	-0.050	0.028
-496.595	524.996	-0.038	-0.089
-495.581	550.874	-0.074	-0.175
-494.566	197.647	-0.224	0.338
-493.551	-123.672	0.042	-0.007
-492.537	185.951	-0.065	-0.096
-491.522	-200.000	0.038	0.408
-490.508	-78.748	0.254	0.086
-489.493	-200.000	0.047	0.247
-488.478	-13.515	-0.133	0.085
-487.464	-139.975	-0.161	0.017
-486.449	-134.502	0.426	-0.051
-485.435	57.872	0.137	0.133
-484.420	144.143	0.059	-0.078
-483.405	-174.519	-0.280	0.008
-482.391	19.025	-0.128	0.102
-481.376	-200.000	0.041	-0.277
-480.362	-2.533	0.320	0.221
-479.347	-200.000	0.077	0.457
-478.332	377.320	-0.176	0.355
-477.318	-95.800	0.247	-0.065
-476.303	-72.614	0.130	0.047
-475.289	49.622	0.156	0.145
-474.274	119.523	0.072	0.088
-473.259	452.873	0.113	0.248
-472.245	-125.313	0.105	0.016
-471.230	148.898	0.055	-0.074
-470.216	-20.724	0.310	-0.188
-469.201	-158.455	-0.118	0.007
-468.186	-88.192	-0.219	-0.065
-467.172	-200.000	0.008	0.099
-466.157	-22.492	0.045	-0.027
-465.143	431.733	0.026	0.056
-464.128	86.791	-0.252	0.275
-463.113	800.000	0.013	-0.056
-462.099	-85.124	0.501	-0.155
-461.084	103.768	-0.252	-0.292
-460.070	-107.288	-0.150	-0.032
-459.055	800.000	0.052	0.211
-458.040	-143.809	-0.283	0.026
-457.026	800.000	0.104	-0.306
-456.011	-5.741	0.030	0.020
-454.997	143.576	0.103	-0.135
-453.982	367.758	0.051	0.101
-452.968	-3.261	0.119	-0.081
-451.953	7.267	0.014	0.011
-450.938	-25.362	-0.207	-0.121
-449.924	363.380	0.126	0.249
-448.909	-46.730	0.111	0.053
-447.895	-105.246	-0.107	-0.024
-446.880	241.407	-0.085	0.141
-445.865	47.759	0.197	-0.181
-444.851	-200.000	-0.033	0.378
-443.836	-150.099	-0.275	-0.021
-442.822	-119.430	0.088	0.015
-441.807	13.717	0.020	0.015
-440.792	245.531	-0.133	-0.221
-439.778	228.338	-0.175	0.281
-438.763	-200.000	0.010	0.151
-437.749	627.891	0.141	0.351
-436.734	-20.758	-0.057	0.034
-435.719	298.179	0.094	0.171
-434.705	-12.278	-0.532	-0.343
-433.690	-13.664	0.263	0.168
-432.676	-53.973	-0.148	-0.067
-431.661	16.245	0.200	0.156
-430.646	-55.966	0.277	-0.122
-429.632	648.873	-0.057	-0.143
-428.617	82.500	-0.132	-0.141
-427.603	-129.081	-0.111	0.015
-426.588	567.185	0.068	0.162
-425.573	412.338	0.093	-0.195
-424.559	57.611	-0.120	-0.115
-423.544	541.098	0.072	-0.169
-422.530	800.000	-0.140	-0.436
-421.515	3.402	0.111	0.080
-420.500	-200.000	-0.020	-0.144
-419.486	26.425	0.055	-0.046
-418.471	-200.000	-0.075	0.351
-417.457	-26.645	0.292	0.168
-416.442	-91.846	0.325	-0.091
-415.428	-146.828	-0.248	-0.021
-414.413	-200.000	0.018	-0.313
-413.398	100.820	0.358	-0.410
-412.384	21.463	-0.211	-0.169
-411.369	-166.405	-0.162	0.007
-410.355	-200.000	0.009	-0.071
-409.340	-56.689	-0.065	0.028
-408.325	65.363	0.224	-0.223
-407.311	288.466	-0.007	0.013
-406.296	170.245	0.095	-0.133
-405.282	140.383	0.102	-0.132
-404.267	-30.418	-0.068	0.038
-403.252	-120.312	-0.193	-0.032
-402.238	-200.000	-0.014	-0.368
-401.223	800.000	-0.045	-0.193
-400.209	-65.107	-0.123	-0.049
-399.194	514.264	0.097	-0.222
-398.179	-86.069	-0.117	-0.036
-397.165	10.527	-0.286	-0.214
-396.150	94.971	0.085	0.095
-395.136	-102.302	0.126	-0.030
-394.121	-200.000	0.024	0.231
-393.106	-19.790	0.202	0.123
-392.092	796.633	0.055	-0.148
-391.077	-40.745	-0.427	0.217
-390.063	37.914	0.250	0.218
-389.048	-51.908	-0.048	0.022
-388.033	304.528	-0.080	0.147
-387.019	634.758	0.146	0.365
-386.004	-200.000	-0.012	-0.134
-384.990	320.090	-0.098	-0.183
-383.975	42.837	0.260	0.233
-382.960	26.754	-0.040	0.033
-381.946	-50.058	-0.134	0.063
-380.931	-10.894	0.408	-0.265
-379.917	-200.000	0.012	-0.116
-378.902	-189.290	-0.179	0.002
-377.888	15.845	-0.224	-0.173
-376.873	121.562	-0.064	0.079
-375.858	-54.835	-0.231	-0.103
-374.844	-133.630	0.259	0.032
-373.829	800.000	0.073	-0.302
-372.815	-16.327	0.087	0.055
-371.800	-163.210	-0.136	0.006
-370.785	15.560	0.137	-0.106
-369.771	449.653	0.059	0.127
-368.756	438.746	0.073	-0.156
-367.742	-69.413	0.062	0.023
-366.727	47.401	-0.260	0.238
-365.712	-38.144	0.418	0.218
-364.698	-118.443	0.174	0.030
-363.683	-200.000	-0.032	-0.212
-362.669	-60.722	-0.166	-0.069
-361.654	-40.841	0.243	0.123
-360.639	-8.679	0.190	0.125
-359.625	-200.000	0.027	0.199
-358.610	-175.692	0.476	0.013
-357.596	-21.551	0.238	0.142
-356.581	-162.982	0.131	0.006
-355.566	-200.000	0.020	0.231
-354.552	117.354	-0.101	-0.122
-353.537	97.078	-0.057	0.065
-352.523	169.147	0.139	0.195
-351.508	-144.065	-0.577	-0.053
-350.493	316.690	-0.017	0.031
-349.479	800.000	0.036	-0.135
-348.464	8.446	-0.026	0.019
-347.450	-33.328	-0.168	0.091
-346.435	56.874	0.147	0.141
-345.420	-24.926	-0.177	0.103
-344.406	194.823	0.095	0.141
-343.391	-200.000	-0.007	0.183
-342.377	675.851	-0.084	-0.215
-341.362	-8.892	0.136	0.089
-340.348	468.591	-0.117	0.259
-339.333	-200.000	-0.020	0.160
-338.318	-109.936	-0.231	0.048
-337.304	-129.974	0.313	0.042
-336.289	74.678	0.105	-0.108
-335.275	-200.000	-0.050	0.328
-334.260	121.782	-0.222	0.272
-333.245	10.254	0.114	0.085
-332.231	800.000	-0.042	0.122
-331.216	64.870	-0.145	-0.143
-330.202	474.019	-0.025	0.055
-329.187	246.845	0.137	-0.228
-328.172	56.145	-0.184	0.175
-327.158	-157.724	0.090	-0.005
-326.143	-200.000	0.029	-0.343
-325.129	-200.000	0.016	0.146
-324.114	-200.000	-0.056	0.289
-323.099	222.278	-0.147	0.233
-322.085	-42.610	-0.239	0.120
-321.070	-33.017	0.208	-0.113
-320.056	87.669	0.113	-0.123
-319.041	116.404	0.245	-0.295
-318.026	800.000	-0.052	0.184
-317.012	-100.977	0.430	0.104
-315.997	-200.000	-0.017	-0.093
-314.983	0.223	-0.195	0.136
-313.968	15.451	-0.201	-0.155
-312.953	477.051	-0.113	0.251
-311.939	174.023	-0.075	0.106
-310.924	6.116	-0.078	0.057
-309.910	144.823	0.197	-0.259
-308.895	-20.121	-0.179	0.108
-307.880	112.263	0.114	-0.136
-306.866	61.842	0.135	0.132
-305.851	-82.977	-0.427	0.135
-304.837	139.824	-0.173	-0.223
-303.822	-45.283	0.179	-0.087
-302.807	-20.386	-0.310	0.187
-301.793	-33.396	0.227	-0.123
-300.778	84.742	0.169	-0.181
-299.764	-200.000	-0.054	-0.335
-298.749	-3.244	-0.092	-0.063
-297.735	18.394	-0.246	-0.192
-296.720	149.205	-0.096	-0.128
-295.705	-7.835	0.036	0.024
-294.691	127.935	0.164	0.204
-293.676	-28.002	-0.208	0.118
-292.662	42.356	0.238	-0.212
-291.647	800.000	-0.099	0.405
-290.632	-165.641	-0.026	0.001
-289.618	-0.525	0.154	-0.107
-288.603	-114.829	0.359	0.067
-287.589	-115.106	0.094	0.017
-286.574	16.516	-0.082	0.064
-285.559	-1.260	-0.069	0.048
-284.545	-139.708	0.156	0.016
-283.530	35.187	-0.337	-0.289
-282.516	800.000	0.016	-0.065
-281.501	0.166	-0.148	0.103
-280.486	-14.979	0.065	-0.041
-279.472	-64.063	-0.247	0.099
-278.457	-72.612	0.285	-0.103
-277.443	310.938	-0.070	-0.128
-276.428	-200.000	0.010	0.318
-275.413	175.781	0.261	-0.371
-274.399	187.738	-0.093	-0.136
-273.384	-42.118	-0.369	0.185
-272.370	-200.000	0.006	-0.033
-271.355	-151.734	0.311	0.022
-270.340	-200.000	0.012	-0.253
-269.326	-125.633	-0.188	0.028
-268.311	-117.789	-0.342	0.060
-267.297	-127.586	0.018	0.003
-266.282	-200.000	0.059	-0.272
-265.267	0.887	-0.430	0.302
-264.253	88.764	-0.147	-0.160
-263.238	-49.295	0.136	0.064
-262.224	4.312	-0.084	0.061
-261.209	69.550	-0.086	0.087
-260.195	165.381	0.021	0.029
-259.180	276.591	0.094	-0.163
-258.165	85.610	-0.212	0.228
-257.151	23.594	0.251	0.203
-256.136	319.236	0.066	-0.123
-255.122	800.000	0.065	0.262
-254.107	-148.955	0.292	-0.023
-253.092	-200.000	0.068	-0.330
-252.078	242.496	-0.087	-0.142
-251.063	-67.713	-0.207	0.079
-250.049	28.878	-0.225	0.186
-249.034	-69.088	-0.273	-0.103
-248.019	-20.521	0.291	-0.175
-247.005	-16.666	-0.157	-0.097
-245.990	440.824	-0.035	-0.074
-244.976	-1.635	0.169	0.117
-243.961	-102.792	0.412	0.096
-242.946	103.527	0.134	0.154
-241.932	307.149	-0.025	0.046
-240.917	-200.000	0.038	-0.186
-239.903	-113.325	-0.122	0.023
-238.888	602.425	-0.065	0.158
-237.873	800.000	-0.120	0.336
-236.859	-82.795	-0.253	-0.080
-235.844	183.916	-0.121	0.175
-234.830	-15.805	0.283	-0.176
-233.815	-120.466	-0.290	-0.048
-232.800	-91.462	-0.203	-0.057
-231.786	-153.568	0.436	-0.029
-230.771	399.549	-0.099	-0.202
-229.757	-66.201	-0.105	-0.041
-228.742	-132.439	0.137	0.017
-227.727	800.000	-0.018	-0.068
-226.713	485.382	0.059	0.132
-225.698	136.370	-0.039	0.050
-224.684	-135.578	0.265	-0.031
-223.669	-76.412	0.446	0.153
-222.655	800.000	-0.019	0.063
-221.640	184.578	0.049	0.070
-220.625	324.967	0.103	0.192
-219.611	517.574	-0.100	-0.229
-218.596	-200.000	-0.015	-0.288
-217.582	155.172	-0.223	0.300
-216.567	244.341	-0.030	0.048
-215.552	-64.157	0.268	-0.107
-214.538	-97.198	0.463	-0.118
-213.523	-86.474	-0.279	0.084
-212.509	800.000	-0.032	-0.125
-211.494	-127.405	0.270	0.038
-210.479	107.785	-0.165	-0.192
-209.465	-91.945	-0.239	-0.066
-208.450	295.542	-0.142	0.254
-207.436	493.962	-0.060	-0.134
-206.421	-200.000	-0.002	0.227
-205.406	800.000	-0.016	-0.052
-204.392	-200.000	-0.035	0.215
-203.377	800.000	0.074	-0.236
-202.363	82.117	-0.186	-0.197
-201.348	83.244	0.108	-0.114
-200.333	-200.000	0.038	-0.180
-199.319	-103.919	-0.103	-0.024
-198.304	-200.000	0.031	-0.185
-197.290	-200.000	-0.015	-0.176
-196.275	-117.672	-0.418	-0.074
-195.260	-103.387	0.404	-0.093
-194.246	-112.987	-0.052	-0.010
-193.231	92.504	-0.273	0.300
-192.217	546.553	0.102	-0.237
-191.202	419.526	-0.054	0.113
-190.187	173.171	0.119	0.168
-189.173	-70.362	-0.173	0.064
-188.158	-200.000	-0.016	0.254
-187.144	-136.107	0.344	0.039
-186.129	2.128	0.322	0.227
-185.114	457.776	-0.103	-0.224
-184.100	762.991	-0.100	-0.266
-183.085	-175.353	-0.258	-0.007
-182.071	-200.000	-0.038	0.185
-181.056	-44.562	0.350	-0.171
-180.042	-200.000	0.017	0.261
-179.027	-24.014	-0.218	0.127
-178.012	771.673	0.116	-0.309
-176.998	-154.512	-0.160	-0.010
-175.983	-32.367	-0.285	-0.155
-174.969	-180.884	-0.041	0.001
-173.954	800.000	0.025	0.079
-172.939	-5.019	0.173	-0.116
-171.925	16.029	-0.111	-0.085
-170.910	265.710	0.136	0.231
-169.896	-73.508	0.060	-0.021
-168.881	-50.699	-0.336	0.154
-167.866	290.967	-0.087	-0.154
-166.852	-45.761	0.249	-0.120
-165.837	-171.352	0.214	0.007
-164.823	-26.294	-0.145	-0.083
-163.808	397.113	0.111	0.226
-162.793	70.024	0.140	-0.141
-161.779	-86.106	0.224	-0.067
-160.764	52.664	0.074	-0.069
-159.750	46.696	0.179	0.162
-158.735	25.139	-0.055	0.045
-157.720	97.507	-0.133	-0.149
-156.706	-200.000	0.046	0.286
-155.691	472.185	-0.124	0.273
-154.677	800.000	0.112	0.413
-153.662	48.967	0.124	-0.113
-152.647	-39.913	0.147	-0.075
-151.633	-200.000	0.028	0.191
-150.618	-21.227	-0.091	0.054
-149.604	473.606	0.117	-0.257
-148.589	-61.179	-0.246	-0.101
-147.574	575.472	-0.087	-0.207
-146.560	415.224	0.165	0.343
-145.545	477.368	0.058	0.129
-144.531	231.362	0.238	-0.380
-143.516	-126.911	-0.096	0.014
-142.502	479.438	0.046	-0.101
-141.487	-147.333	0.269	0.022
-140.472	-117.668	-0.185	0.033
-139.458	-79.627	0.019	-0.006
-138.443	-85.313	-0.360	0.110
-137.429	163.807	0.103	-0.141
-136.414	-19.556	-0.296	0.179
-135.399	-181.993	0.217	0.004
-134.385	-86.956	0.031	-0.009
-133.370	-72.255	0.036	0.013
-132.356	-200.000	0.036	0.276
-131.341	743.789	0.086	0.224
-130.326	-200.000	-0.003	0.511
-129.312	-200.000	-0.002	0.166
-128.297	191.987	0.070	0.102
-127.283	-177.603	0.200	-0.005
-126.268	752.048	-0.090	-0.238
-125.253	-106.831	0.177	-0.038
-124.239	-103.253	-0.293	0.067
-123.224	-148.576	0.426	-0.034
-122.210	-106.886	0.438	0.094
-121.195	-108.115	0.125	0.026
-120.180	800.000	0.069	-0.246
