DTS Sentinel unit serial number:	SN413079Multiplexer serial number:	ORYXHardware model number:	OX4-SRSoftware version number:	ORYX F/W v4.00 Oryx Data Collector v3.7.2.0data status	okinstallation	princeton_trtdifferential loss correction	single-endedforward channel	channel 2reverse channel	N/Adate	2019/09/12time	17:09:11forward acquisition time	60.00reverse acquisition time	0.00gamma	496.2192k internal	0.2325k external	0.2325temperature offset calibration	1.0126default loss term (dB/km)	0.3790temperature slope calibration	1.0000multiplexer offset coefficient	1.0000multiplexer slope coefficient	1.0000fibre end	0.00T internal ref (°C)	35.37T ext. ref 1 (°C)	2.79T ext. ref 2 (°C)	28.77length (m)	temperature (°C)	Stokes	anti-Stokes-747.200	-98.143	0.158	0.041
-746.185	718.067	-0.106	0.283
-745.171	-29.085	-0.196	-0.114
-744.156	70.973	0.226	0.236
-743.142	800.000	-0.041	0.135
-742.127	-103.745	-0.301	0.071
-741.112	800.000	0.052	0.220
-740.098	800.000	0.132	0.450
-739.083	192.024	-0.129	-0.196
-738.069	-176.591	0.150	-0.004
-737.054	-111.985	0.299	-0.061
-736.039	-170.159	-0.481	0.017
-735.025	-99.282	0.080	-0.020
-734.010	-44.494	-0.067	0.034
-732.996	711.166	-0.076	-0.203
-731.981	-142.027	0.278	-0.028
-730.966	44.578	-0.226	-0.209
-729.952	-147.987	0.226	0.019
-728.937	-27.243	0.109	0.064
-727.923	-125.018	0.343	-0.053
-726.908	-200.000	0.029	-0.169
-725.894	43.729	-0.074	0.069
-724.879	-71.311	0.061	-0.023
-723.864	27.811	0.139	0.118
-722.850	21.994	-0.160	-0.132
-721.835	-53.537	0.109	-0.050
-720.821	-83.551	-0.179	0.058
-719.806	369.173	-0.109	-0.223
-718.791	-13.330	-0.119	0.078
-717.777	787.368	-0.151	0.419
-716.762	128.464	0.247	-0.316
-715.748	-163.915	0.099	-0.005
-714.733	141.937	-0.221	-0.296
-713.718	603.543	0.117	0.292
-712.704	44.039	-0.032	0.030
-711.689	-63.729	-0.226	0.093
-710.675	-22.036	0.228	-0.140
-709.660	35.272	0.095	0.084
-708.645	-200.000	-0.019	-0.132
-707.631	-200.000	-0.063	-0.291
-706.616	107.119	0.085	-0.101
-705.602	-104.378	-0.326	0.076
-704.587	-1.249	-0.171	-0.122
-703.572	-37.021	-0.151	-0.082
-702.558	221.619	-0.164	-0.266
-701.543	-155.324	0.345	-0.023
-700.529	-200.000	0.010	-0.130
-699.514	229.783	0.109	0.179
-698.499	-24.362	-0.128	0.077
-697.485	-151.853	-0.250	-0.018
-696.470	-117.298	-0.158	0.029
-695.456	800.000	0.142	0.460
-694.441	-105.395	0.219	0.050
-693.426	-100.579	0.399	-0.099
-692.412	-32.609	-0.248	-0.139
-691.397	237.224	0.077	0.129
-690.383	60.477	0.291	0.290
-689.368	327.253	0.019	-0.037
-688.354	65.963	-0.419	-0.428
-687.339	-108.534	-0.241	-0.052
-686.324	161.185	-0.165	-0.232
-685.310	-179.560	-0.363	0.008
-684.295	361.745	-0.047	-0.096
-683.281	-200.000	0.087	0.436
-682.266	-88.421	0.153	-0.046
-681.251	-93.240	-0.154	-0.043
-680.237	0.011	0.324	-0.232
-679.222	167.591	-0.232	0.332
-678.208	-79.560	-0.411	0.140
-677.193	-197.366	-0.205	0.001
-676.178	-200.000	0.007	-0.302
-675.164	-37.667	0.158	0.085
-674.149	106.030	0.152	0.181
-673.135	60.035	0.153	0.152
-672.120	95.715	0.083	-0.095
-671.105	-157.957	-0.288	-0.017
-670.091	183.802	0.207	-0.308
-669.076	-31.720	-0.415	-0.234
-668.062	431.670	-0.114	-0.248
-667.047	211.199	0.053	-0.084
-666.032	146.675	-0.163	-0.221
-665.018	-19.407	0.091	0.056
-664.003	-200.000	0.056	0.370
-662.989	11.767	-0.141	-0.109
-661.974	-200.000	0.007	-0.165
-660.959	-200.000	0.005	0.165
-659.945	-92.491	0.267	-0.075
-658.930	349.467	0.116	-0.230
-657.916	57.775	-0.174	-0.171
-656.901	562.593	0.074	-0.180
-655.886	229.306	0.097	-0.160
-654.872	-200.000	0.016	0.212
-653.857	-118.602	0.359	-0.064
-652.843	-86.617	-0.242	-0.075
-651.828	216.652	-0.074	-0.118
-650.814	76.744	-0.197	-0.211
-649.799	-83.958	-0.122	-0.039
-648.784	122.026	0.107	-0.135
-647.770	-200.000	-0.016	-0.121
-646.755	-200.000	0.086	-0.434
-645.741	-200.000	0.032	-0.526
-644.726	155.645	0.240	-0.333
-643.711	307.512	-0.028	-0.053
-642.697	-3.110	0.155	0.109
-641.682	-30.944	0.133	0.076
-640.668	-82.301	0.395	0.129
-639.653	-151.344	-0.247	-0.019
-638.638	-134.496	0.128	-0.016
-637.624	717.921	-0.113	0.302
-636.609	-41.390	-0.404	0.209
-635.595	77.139	-0.044	0.047
-634.580	800.000	0.090	0.339
-633.565	233.869	0.185	0.305
-632.551	800.000	-0.061	0.263
-631.536	-21.024	-0.194	0.120
-630.522	-160.556	0.122	-0.007
-629.507	205.262	-0.075	0.117
-628.492	10.095	0.214	-0.163
-627.478	4.596	0.230	0.169
-626.463	394.674	0.114	-0.240
-625.449	397.097	-0.123	-0.258
-624.434	-113.798	0.354	0.069
-623.419	-90.387	0.426	-0.124
-622.405	-84.869	-0.321	0.101
-621.390	-125.879	-0.262	0.040
-620.376	6.213	-0.122	0.091
-619.361	64.467	-0.179	0.181
-618.346	-119.895	0.082	-0.014
-617.332	344.773	0.109	-0.215
-616.317	18.767	0.117	-0.094
-615.303	800.000	0.071	-0.256
-614.288	30.813	0.075	-0.065
-613.273	25.600	-0.093	-0.078
-612.259	-36.216	-0.110	-0.060
-611.244	474.532	-0.065	-0.147
-610.230	123.884	-0.175	-0.221
-609.215	-11.114	-0.267	-0.177
-608.201	118.417	0.141	-0.175
-607.186	-78.855	-0.276	-0.094
-606.171	-3.390	0.355	-0.248
-605.157	-162.784	0.350	-0.017
-604.142	-23.405	-0.197	0.119
-603.128	-151.976	0.382	-0.028
-602.113	22.082	0.285	-0.233
-601.098	800.000	-0.099	0.319
-600.084	61.043	0.123	-0.123
-599.069	-133.517	-0.202	0.025
-598.055	2.800	-0.260	-0.189
-597.040	32.248	0.135	0.117
-596.025	608.337	0.012	0.031
-595.011	-74.680	-0.055	-0.020
-593.996	85.379	-0.189	0.208
-592.982	-163.057	-0.154	0.007
-591.967	38.300	-0.262	-0.234
-590.952	-160.205	-0.038	-0.002
-589.938	33.848	-0.148	-0.130
-588.923	-127.309	-0.170	-0.025
-587.909	-100.506	-0.282	-0.070
-586.894	800.000	0.057	-0.240
-585.879	-28.968	0.324	-0.186
-584.865	-13.446	0.314	0.204
-583.850	86.274	0.297	-0.328
-582.836	800.000	0.066	0.258
-581.821	-59.367	-0.064	0.027
-580.806	287.920	-0.111	-0.201
-579.792	-121.158	-0.235	0.039
-578.777	473.760	0.039	-0.088
-577.763	17.698	0.063	-0.050
-576.748	-45.040	-0.341	-0.170
-575.733	310.461	0.072	-0.135
-574.719	-200.000	-0.043	-0.389
-573.704	128.413	-0.073	-0.093
-572.690	163.502	-0.148	0.208
-571.675	-96.739	-0.219	-0.058
-570.661	-200.000	-0.015	-0.071
-569.646	87.765	0.186	0.206
-568.631	-200.000	-0.075	0.430
-567.617	144.657	-0.143	-0.191
-566.602	56.539	-0.311	-0.303
-565.588	487.686	-0.066	-0.152
-564.573	84.632	0.187	0.205
-563.558	-200.000	0.037	0.312
-562.544	-82.042	0.117	0.038
-561.529	-107.357	-0.121	-0.027
-560.515	213.853	-0.214	0.339
-559.500	-200.000	-0.058	-0.286
-558.485	134.637	0.145	-0.189
-557.471	-113.334	-0.294	-0.058
-556.456	31.922	-0.145	0.125
-555.442	135.153	0.191	-0.248
-554.427	800.000	-0.044	0.181
-553.412	-200.000	-0.015	-0.259
-552.398	197.156	-0.112	-0.171
-551.383	-6.189	0.126	0.086
-550.369	66.980	0.336	-0.343
-549.354	-71.027	0.409	-0.154
-548.339	80.348	0.144	-0.155
-547.325	800.000	0.067	-0.204
-546.310	247.326	0.156	-0.264
-545.296	29.323	-0.193	0.164
-544.281	720.625	0.091	-0.243
-543.266	800.000	0.059	-0.183
-542.252	54.011	0.132	-0.127
-541.237	-32.272	0.191	-0.107
-540.223	-104.538	0.200	0.046
-539.208	86.529	-0.200	0.221
-538.193	800.000	0.042	0.132
-537.179	188.568	-0.100	-0.150
-536.164	-200.000	0.012	-0.292
-535.150	155.541	0.251	0.347
-534.135	-200.000	0.072	-0.325
-533.121	563.959	0.139	-0.337
-532.106	-3.387	-0.151	0.105
-531.091	-200.000	0.016	0.279
-530.077	-132.422	0.563	-0.073
-529.062	-126.621	-0.172	-0.026
-528.048	-16.330	0.050	-0.032
-527.033	551.928	0.120	-0.288
-526.018	-77.845	-0.096	-0.033
-525.004	321.979	-0.084	0.159
-523.989	124.537	0.007	-0.008
-522.975	-200.000	-0.012	0.322
-521.960	-58.738	0.097	-0.042
-520.945	-101.144	-0.182	-0.045
-519.931	-4.720	-0.217	0.150
-518.916	800.000	-0.133	-0.425
-517.902	-109.885	-0.210	0.044
-516.887	800.000	0.055	0.231
-515.872	279.155	0.131	-0.234
-514.858	-46.457	-0.114	-0.056
-513.843	-200.000	0.044	-0.228
-512.829	119.953	-0.118	0.147
-511.814	-200.000	0.082	0.402
-510.799	-120.723	0.108	0.018
-509.785	48.864	-0.077	-0.072
-508.770	-80.636	-0.316	-0.105
-507.756	100.445	-0.073	0.085
-506.741	-127.621	-0.247	-0.036
-505.726	0.841	0.165	-0.118
-504.712	149.719	0.055	0.075
-503.697	800.000	-0.078	0.251
-502.683	-107.192	-0.255	-0.056
-501.668	30.961	-0.197	0.169
-500.653	258.920	-0.134	0.230
-499.639	79.495	-0.264	0.283
-498.624	-6.417	-0.127	-0.086
-497.610	104.512	-0.063	0.074
-496.595	178.207	-0.256	0.374
-495.581	800.000	-0.034	0.099
-494.566	26.428	0.086	-0.072
-493.551	94.484	-0.158	-0.179
-492.537	-38.779	-0.165	-0.087
-491.522	-49.035	-0.250	-0.120
-490.508	-200.000	0.012	-0.091
-489.493	319.509	-0.187	0.355
-488.478	388.764	-0.092	-0.190
-487.464	-200.000	0.016	-0.165
-486.449	-200.000	0.003	0.258
-485.435	800.000	-0.034	0.139
-484.420	-97.016	0.171	0.045
-483.405	-63.587	-0.277	0.114
-482.391	-7.133	-0.187	0.127
-481.376	-200.000	-0.022	0.521
-480.362	5.387	-0.206	0.152
-479.347	28.352	-0.087	-0.074
-478.332	27.094	-0.217	-0.182
-477.318	-67.640	-0.329	0.129
-476.303	-200.000	-0.020	-0.306
-475.289	235.573	0.107	0.176
-474.274	-200.000	-0.241	-0.000
-473.259	-200.000	0.023	-0.146
-472.245	-143.837	0.163	0.015
-471.230	133.657	0.062	0.080
-470.216	144.768	-0.088	0.118
-469.201	148.500	-0.123	0.166
-468.186	800.000	0.090	0.343
-467.172	319.897	0.103	-0.195
-466.157	9.142	0.311	-0.235
-465.143	-74.916	0.206	-0.074
-464.128	-200.000	-0.015	-0.232
-463.113	228.993	-0.171	-0.278
-462.099	800.000	-0.076	-0.308
-461.084	800.000	-0.048	-0.183
-460.070	-136.768	-0.280	0.032
-459.055	394.328	-0.209	0.435
-458.040	235.374	-0.110	0.180
-457.026	125.092	-0.046	0.058
-456.011	30.651	-0.129	0.110
-454.997	-184.214	0.250	-0.004
-453.982	-138.593	0.278	0.030
-452.968	800.000	0.085	0.357
-451.953	-200.000	0.002	-0.229
-450.938	318.360	0.110	0.207
-449.924	57.529	-0.077	-0.075
-448.909	-10.008	0.215	0.142
-447.895	-150.840	0.220	-0.017
-446.880	-144.467	0.165	-0.015
-445.865	153.308	0.150	0.204
-444.851	800.000	-0.114	-0.347
-443.836	-200.000	-0.025	0.140
-442.822	-200.000	-0.015	0.091
-441.807	-200.000	0.012	0.155
-440.792	-200.000	0.011	-0.239
-439.778	-137.223	-0.302	0.034
-438.763	-68.689	0.138	0.053
-437.749	369.175	0.123	0.248
-436.734	-48.574	-0.358	-0.172
-435.719	-2.179	-0.140	-0.098
-434.705	74.392	-0.020	0.021
-433.690	363.679	0.194	-0.389
-432.676	800.000	-0.111	-0.329
-431.661	800.000	0.093	-0.381
-430.646	-87.785	-0.053	-0.016
-429.632	-28.289	0.143	0.082
-428.617	-143.107	0.132	-0.013
-427.603	-136.503	0.753	-0.087
-426.588	-84.815	-0.136	0.043
-425.573	-32.945	0.037	0.021
-424.559	-115.186	0.158	0.030
-423.544	-99.016	-0.246	0.062
-422.530	-200.000	-0.024	0.227
-421.515	136.826	-0.138	0.180
-420.500	800.000	-0.082	0.352
-419.486	8.523	-0.409	-0.307
-418.471	-141.854	0.286	0.029
-417.457	132.385	0.142	0.182
-416.442	-108.344	-0.115	0.025
-415.428	-200.000	-0.040	-0.374
-414.413	-73.138	0.273	0.100
-413.398	53.231	-0.161	0.153
-412.384	-106.678	0.185	-0.041
-411.369	-78.709	0.225	0.077
-410.355	-200.000	-0.042	-0.317
-409.340	497.304	0.140	-0.322
-408.325	29.989	-0.138	0.117
-407.311	188.843	0.089	-0.132
-406.296	280.587	0.204	0.364
-405.282	-104.312	0.515	0.119
-404.267	-200.000	0.379	0.001
-403.252	-30.407	0.162	0.092
-402.238	-94.898	0.393	-0.106
-401.223	-54.874	0.190	0.085
-400.209	-154.559	0.287	-0.019
-399.194	-131.934	0.138	0.018
-398.179	366.485	0.066	-0.133
-397.165	-108.158	0.323	0.070
-396.150	80.063	-0.162	-0.174
-395.136	800.000	-0.037	-0.129
-394.121	-50.049	0.269	0.127
-393.106	-37.391	-0.170	-0.090
-392.092	800.000	-0.142	0.402
-391.077	702.167	0.070	-0.185
-390.063	134.705	-0.180	-0.233
-389.048	128.698	-0.050	0.064
-388.033	1.956	0.248	-0.178
-387.019	-50.948	-0.367	0.172
-386.004	-200.000	-0.003	0.090
-384.990	-200.000	0.072	0.449
-383.975	-62.043	0.531	-0.221
-382.960	500.129	0.067	-0.154
-381.946	-63.946	0.295	-0.120
-380.931	110.179	0.085	0.101
-379.917	599.807	0.077	0.189
-378.902	0.161	0.099	-0.070
-377.888	-88.906	0.306	-0.090
-376.873	11.155	-0.153	0.116
-375.858	800.000	0.089	-0.307
-374.844	-72.909	-0.102	-0.037
-373.829	-64.058	-0.197	-0.080
-372.815	77.874	0.167	-0.177
-371.800	-75.013	-0.156	0.056
-370.785	-97.416	0.158	-0.041
-369.771	-200.000	-0.009	0.304
-368.756	-8.868	0.350	0.233
-367.742	-148.846	0.109	0.009
-366.727	-68.553	-0.142	0.055
-365.712	84.549	-0.192	-0.209
-364.698	185.379	-0.061	0.090
-363.683	333.208	-0.127	-0.244
-362.669	-67.928	-0.162	0.063
-361.654	80.156	0.091	-0.098
-360.639	-200.000	-0.017	0.141
-359.625	-86.755	0.051	0.016
-358.610	107.355	-0.202	-0.239
-357.596	359.134	-0.118	0.235
-356.581	403.194	0.099	0.207
-355.566	-77.716	-0.174	0.060
-354.552	125.046	-0.062	-0.077
-353.537	577.820	0.090	-0.220
-352.523	56.571	0.162	-0.157
-351.508	120.895	0.138	0.171
-350.493	-102.709	-0.007	0.002
-349.479	735.034	-0.114	0.302
-348.464	222.463	-0.036	0.058
-347.450	211.691	0.029	-0.046
-346.435	111.214	-0.123	-0.148
-345.420	-113.488	0.245	0.048
-344.406	32.896	-0.036	-0.031
-343.391	87.216	0.202	0.222
-342.377	-200.000	-0.024	-0.172
-341.362	5.504	-0.260	-0.191
-340.348	-200.000	0.052	-0.457
-339.333	129.333	0.261	0.332
-338.318	718.306	0.111	0.294
-337.304	127.487	-0.097	-0.122
-336.289	-200.000	-0.034	0.209
-335.275	800.000	-0.077	0.218
-334.260	-200.000	0.051	0.225
-333.245	800.000	-0.133	-0.430
-332.231	-30.585	-0.275	0.155
-331.216	-26.967	-0.212	0.123
-330.202	-50.927	0.062	0.029
-329.187	-51.196	-0.217	-0.101
-328.172	-59.538	0.112	0.048
-327.158	11.361	-0.169	0.129
-326.143	-200.000	0.049	0.400
-325.129	205.158	0.194	0.299
-324.114	-68.250	-0.219	0.085
-323.099	-163.372	-0.190	-0.009
-322.085	-9.508	-0.105	0.069
-321.070	-16.267	-0.079	-0.050
-320.056	49.744	0.270	0.252
-319.041	358.612	0.088	-0.175
-318.026	800.000	-0.050	0.150
-317.012	55.049	0.161	0.154
-315.997	336.971	0.056	0.109
-314.983	103.084	-0.161	0.187
-313.968	-37.854	-0.207	-0.109
-312.953	-52.200	0.263	0.121
-311.939	-89.567	-0.158	0.046
-310.924	89.844	0.227	0.251
-309.910	-109.258	-0.360	0.076
-308.895	-98.638	0.226	0.057
-307.880	800.000	0.054	0.218
-306.866	-200.000	0.015	-0.193
-305.851	800.000	-0.062	-0.178
-304.837	-107.166	0.240	-0.052
-303.822	726.151	-0.125	0.331
-302.807	-34.155	-0.075	0.041
-301.793	-200.000	0.001	0.161
-300.778	-41.633	-0.230	0.117
-299.764	-95.613	0.349	-0.093
-298.749	-96.756	-0.155	0.040
-297.735	-72.728	-0.202	0.074
-296.720	-200.000	0.017	-0.083
-295.705	-156.056	-0.148	0.009
-294.691	-46.918	0.301	0.146
-293.676	30.494	0.151	0.128
-292.662	62.486	0.106	0.105
-291.647	-200.000	0.007	0.263
-290.632	800.000	-0.153	0.427
-289.618	-87.227	0.240	0.072
-288.603	-44.082	-0.142	-0.071
-287.589	430.569	-0.138	0.297
-286.574	231.749	-0.390	0.633
-285.559	-42.064	-0.155	0.079
-284.545	-63.011	0.379	-0.155
-283.530	-73.769	-0.277	0.100
-282.516	-200.000	-0.024	0.112
-281.501	-200.000	-0.013	0.383
-280.486	166.005	0.114	-0.160
-279.472	800.000	0.048	-0.196
-278.457	-111.316	-0.336	-0.068
-277.443	800.000	0.023	0.097
-276.428	33.807	-0.312	-0.269
-275.413	106.715	0.117	-0.138
-274.399	-145.055	0.235	-0.021
-273.384	-49.506	-0.108	0.051
-272.370	-81.031	0.117	-0.038
-271.355	344.663	-0.076	-0.147
-270.340	-140.541	-0.328	-0.034
-269.326	800.000	0.077	0.280
-268.311	54.130	-0.231	0.220
-267.297	282.063	0.084	-0.150
-266.282	-0.804	0.091	0.064
-265.267	-200.000	0.036	0.213
-264.253	-60.807	0.251	0.105
-263.238	164.647	-0.149	0.207
-262.224	800.000	0.113	0.374
-261.209	81.944	0.229	0.246
-260.195	-94.628	-0.341	-0.092
-259.180	454.630	0.154	-0.338
-258.165	-146.696	0.339	-0.029
-257.151	781.680	-0.067	0.182
-256.136	800.000	-0.069	-0.217
-255.122	0.356	-0.065	0.046
-254.107	-200.000	0.003	-0.038
-253.092	75.566	-0.172	0.179
-252.078	-134.251	-0.369	-0.045
-251.063	329.091	0.055	-0.104
-250.049	-35.603	0.133	-0.072
-249.034	10.359	0.323	0.244
-248.019	-200.000	-0.021	-0.285
-247.005	-158.205	0.371	0.021
-245.990	83.851	0.045	0.048
-244.976	-88.597	-0.203	-0.060
-243.961	-148.620	-0.221	0.018
-242.946	-44.017	-0.077	-0.038
-241.932	-200.000	0.045	-0.269
-240.917	800.000	-0.074	0.228
-239.903	121.658	0.134	0.165
-238.888	-31.253	0.137	-0.076
-237.873	233.439	-0.059	0.096
-236.859	786.627	-0.070	0.191
-235.844	164.970	0.241	-0.337
-234.830	46.916	0.139	-0.128
-233.815	-121.936	-0.438	-0.071
-232.800	60.869	0.120	-0.117
-231.786	-191.178	-0.041	-0.000
-230.771	800.000	0.062	-0.233
-229.757	800.000	0.065	0.216
-228.742	-88.917	-0.230	0.067
-227.727	14.034	0.200	0.154
-226.713	316.044	-0.093	-0.173
-225.698	200.567	-0.164	-0.249
-224.684	-71.577	0.201	-0.074
-223.669	46.382	-0.086	-0.079
-222.655	164.119	-0.035	-0.049
-221.640	-74.949	-0.169	-0.060
-220.625	22.167	-0.095	-0.076
-219.611	-22.334	-0.135	0.081
-218.596	-10.017	0.064	-0.042
-217.582	-200.000	-0.012	0.309
-216.567	-26.935	-0.142	0.082
-215.552	175.303	0.181	-0.260
-214.538	-85.433	0.303	0.093
-213.523	-200.000	-0.026	0.115
-212.509	388.702	-0.208	-0.425
-211.494	-200.000	0.023	-0.155
-210.479	-122.702	-0.140	-0.022
-209.465	-24.222	-0.124	0.073
-208.450	-144.863	0.282	-0.026
-207.436	590.607	0.145	0.353
-206.421	66.417	0.188	0.189
-205.406	45.327	0.124	-0.113
-204.392	-24.117	-0.049	-0.029
-203.377	800.000	0.056	0.159
-202.363	-8.004	0.412	-0.274
-201.348	105.078	-0.252	0.294
-200.333	-200.000	-0.012	0.199
-199.319	81.004	-0.152	-0.163
-198.304	-153.112	-0.430	-0.030
-197.290	-38.254	0.014	0.007
-196.275	-200.000	-0.014	0.133
-195.260	287.304	0.185	-0.331
-194.246	240.894	-0.082	0.135
-193.231	800.000	-0.223	-0.635
-192.217	-199.732	0.259	0.001
-191.202	-64.755	0.202	0.081
-190.187	-46.846	-0.195	-0.094
-189.173	-200.000	0.044	-0.360
-188.158	-23.172	-0.377	0.224
-187.144	265.004	-0.211	0.363
-186.129	234.147	-0.144	0.234
-185.114	24.342	0.109	-0.089
-184.100	-40.614	-0.254	-0.130
-183.085	-200.000	-0.053	-0.289
-182.071	-63.320	-0.213	0.087
-181.056	-58.981	0.102	-0.044
-180.042	13.880	0.221	0.170
-179.027	-116.652	-0.454	0.082
-178.012	145.922	-0.069	-0.092
-176.998	-200.000	-0.024	0.108
-175.983	-100.722	-0.387	-0.094
-174.969	39.964	0.267	-0.236
-173.954	-71.294	0.119	-0.044
-172.939	-134.347	-0.027	-0.003
-171.925	-39.845	0.270	0.139
-170.910	116.808	0.119	-0.144
-169.896	-200.000	0.052	-0.308
-168.881	-200.000	-0.001	-0.262
-167.866	-200.000	-0.003	0.233
-166.852	553.700	0.161	0.382
-165.837	800.000	0.043	0.126
-164.823	-80.656	-0.073	-0.024
-163.808	-200.000	-0.033	-0.275
-162.793	380.738	-0.139	-0.282
-161.779	695.655	-0.265	-0.686
-160.764	-85.670	-0.224	-0.069
-159.750	-126.044	0.282	-0.042
-158.735	-5.802	0.366	-0.247
-157.720	-50.711	-0.199	0.092
-156.706	-67.768	-0.101	-0.039
-155.691	-135.775	0.380	0.044
-154.677	192.696	0.108	0.161
-153.662	-49.726	0.124	0.058
-152.647	-200.000	0.003	0.067
-151.633	800.000	0.040	0.130
-150.618	-200.000	0.012	-0.268
-149.604	220.420	0.100	-0.158
-148.589	800.000	-0.032	-0.107
-147.574	-200.000	0.007	-0.240
-146.560	16.684	-0.118	0.092
-145.545	242.484	0.174	-0.286
-144.531	103.088	-0.153	-0.177
-143.516	112.120	0.035	-0.041
-142.502	35.165	0.084	0.072
-141.487	-115.719	-0.257	0.047
-140.472	-122.197	0.475	0.077
-139.458	296.704	-0.155	-0.279
-138.443	-142.160	-0.293	0.029
-137.429	800.000	0.056	0.193
-136.414	-58.724	0.209	0.089
-135.399	-25.366	-0.162	0.095
-134.385	-104.589	0.160	-0.036
-133.370	629.507	0.131	0.327
-132.356	-16.014	0.253	0.159
-131.341	800.000	-0.070	0.229
-130.326	-101.346	-0.068	-0.016
-129.312	-69.490	-0.292	-0.110
-128.297	312.112	-0.027	-0.051
-127.283	-61.214	-0.074	0.031
-126.268	577.215	0.056	0.134
-125.253	-200.000	0.001	0.323
-124.239	426.750	0.070	-0.149
-123.224	-200.000	-0.003	-0.146
-122.210	14.688	-0.144	0.111
-121.195	99.852	-0.078	-0.089
