DTS Sentinel unit serial number:	SN413079Multiplexer serial number:	ORYXHardware model number:	OX4-SRSoftware version number:	ORYX F/W v4.00 Oryx Data Collector v3.7.2.0data status	okinstallation	princeton_trtdifferential loss correction	single-endedforward channel	channel 2reverse channel	N/Adate	2019/09/15time	13:43:34forward acquisition time	60.00reverse acquisition time	0.00gamma	496.2192k internal	0.2303k external	0.2303temperature offset calibration	0.9989default loss term (dB/km)	0.3790temperature slope calibration	1.0000multiplexer offset coefficient	1.0000multiplexer slope coefficient	1.0000fibre end	0.00T internal ref (°C)	37.94T ext. ref 1 (°C)	4.89T ext. ref 2 (°C)	35.26length (m)	temperature (°C)	Stokes	anti-Stokes-747.200	800.000	0.038	0.118
-746.185	-94.229	-0.169	0.047
-745.171	22.490	-0.232	-0.193
-744.156	-109.376	-0.351	0.076
-743.142	190.736	-0.200	0.307
-742.127	113.790	-0.201	0.249
-741.112	51.021	-0.204	-0.196
-740.098	-131.621	-0.200	-0.027
-739.083	-10.854	0.174	0.117
-738.069	-163.096	0.372	-0.018
-737.054	43.635	-0.128	0.120
-736.039	800.000	-0.088	-0.273
-735.025	-0.618	-0.169	0.122
-734.010	-76.501	-0.232	-0.083
-732.996	123.400	0.107	-0.137
-731.981	-119.881	-0.329	-0.058
-730.966	351.292	0.056	0.112
-729.952	800.000	0.160	0.493
-728.937	-134.750	-0.077	-0.009
-727.923	800.000	-0.148	-0.548
-726.908	369.905	0.100	0.207
-725.894	127.908	-0.077	-0.100
-724.879	800.000	-0.088	-0.303
-723.864	-9.978	-0.303	-0.205
-722.850	-117.702	-0.435	-0.080
-721.835	291.141	0.107	-0.199
-720.821	-200.000	-0.009	0.055
-719.806	1.803	-0.188	-0.138
-718.791	158.157	-0.092	-0.129
-717.777	94.228	-0.249	-0.287
-716.762	30.852	0.147	-0.128
-715.748	68.184	0.052	-0.054
-714.733	88.529	-0.070	0.079
-713.718	-200.000	0.008	0.157
-712.704	800.000	-0.048	-0.213
-711.689	30.166	-0.074	-0.064
-710.675	-58.160	0.138	-0.061
-709.660	-200.000	-0.035	-0.165
-708.645	-32.980	-0.281	-0.159
-707.631	180.059	-0.257	-0.384
-706.616	-200.000	-0.013	0.299
-705.602	-200.000	0.044	0.282
-704.587	98.993	-0.131	0.153
-703.572	-124.954	-0.126	-0.020
-702.558	-13.361	-0.012	-0.008
-701.543	-200.000	0.018	0.434
-700.529	172.308	0.152	0.222
-699.514	-200.000	-0.017	-0.226
-698.499	-184.067	-0.201	0.003
-697.485	142.232	-0.192	-0.259
-696.470	122.197	0.076	-0.097
-695.456	-109.017	-0.264	-0.057
-694.441	506.524	0.115	0.272
-693.426	403.061	0.065	-0.140
-692.412	-90.509	-0.297	-0.087
-691.397	62.638	-0.055	-0.056
-690.383	800.000	-0.052	-0.202
-689.368	-200.000	-0.015	0.330
-688.354	-200.000	-0.039	-0.230
-687.339	655.656	-0.150	0.391
-686.324	-200.000	-0.000	0.224
-685.310	-200.000	0.042	-0.188
-684.295	-17.618	-0.221	-0.141
-683.281	-77.150	-0.407	-0.144
-682.266	-115.818	-0.091	-0.017
-681.251	-17.177	-0.071	0.046
-680.237	-200.000	-0.052	0.307
-679.222	-9.751	-0.217	0.147
-678.208	-115.796	0.318	0.061
-677.193	-200.000	0.017	-0.111
-676.178	800.000	-0.036	-0.103
-675.164	-108.125	0.145	0.032
-674.149	-200.000	-0.000	-0.110
-673.135	566.298	0.049	-0.122
-672.120	-200.000	0.043	0.220
-671.105	45.854	0.107	0.101
-670.091	13.045	0.127	0.100
-669.076	-85.852	-0.233	-0.073
-668.062	-44.427	0.352	-0.179
-667.047	169.168	0.063	-0.092
-666.032	713.689	-0.077	0.208
-665.018	6.153	0.174	-0.131
-664.003	800.000	-0.072	-0.208
-662.989	-43.207	-0.112	-0.058
-661.974	133.636	0.164	0.215
-660.959	221.569	-0.113	-0.185
-659.945	170.344	0.200	0.291
-658.930	-40.826	-0.170	-0.089
-657.916	242.193	-0.125	-0.212
-656.901	-31.673	-0.177	-0.101
-655.886	-193.779	-0.397	-0.003
-654.872	-200.000	-0.047	-0.208
-653.857	164.601	-0.238	-0.340
-652.843	-168.647	-0.024	-0.001
-651.828	69.894	-0.028	0.029
-650.814	38.848	-0.109	0.098
-649.799	-53.983	-0.145	0.067
-648.784	-177.385	-0.334	-0.008
-647.770	-86.299	0.056	0.017
-646.755	-77.738	0.322	-0.113
-645.741	-200.000	0.006	-0.050
-644.726	42.951	0.191	-0.176
-643.711	-179.922	0.150	-0.003
-642.697	57.153	-0.156	-0.154
-641.682	26.130	0.152	0.128
-640.668	-127.635	0.294	-0.043
-639.653	81.410	-0.070	-0.077
-638.638	-132.619	-0.248	0.032
-637.624	-100.238	0.262	0.066
-636.609	73.383	0.180	-0.191
-635.595	-200.000	0.030	-0.415
-634.580	746.370	0.048	-0.132
-633.565	-54.882	-0.138	-0.063
-632.551	-44.717	-0.134	0.068
-631.536	-129.291	0.172	-0.024
-630.522	-7.586	-0.104	-0.072
-629.507	-56.335	-0.150	0.068
-628.492	76.544	-0.188	-0.202
-627.478	80.761	0.113	-0.124
-626.463	4.309	-0.187	0.139
-625.449	-26.837	-0.156	0.093
-624.434	-81.187	0.382	-0.128
-623.419	-76.494	0.148	0.053
-622.405	388.897	-0.158	-0.332
-621.390	800.000	-0.059	0.212
-620.376	800.000	0.080	0.294
-619.361	69.042	0.183	0.191
-618.346	106.337	-0.153	-0.184
-617.332	156.153	0.066	0.092
-616.317	-56.932	0.270	-0.121
-615.303	800.000	-0.023	-0.081
-614.288	119.404	-0.097	0.122
-613.273	51.405	-0.151	-0.146
-612.259	-142.663	0.118	0.012
-611.244	-200.000	0.006	0.080
-610.230	-200.000	0.284	-0.001
-609.215	457.469	-0.068	0.152
-608.201	800.000	0.087	-0.247
-607.186	-8.026	-0.195	0.133
-606.171	-66.340	0.103	0.042
-605.157	-0.707	-0.149	-0.107
-604.142	82.369	-0.399	-0.439
-603.128	-200.000	0.008	-0.067
-602.113	800.000	-0.063	0.177
-601.098	-200.000	0.014	-0.158
-600.084	-73.285	-0.224	0.083
-599.069	356.392	-0.021	0.042
-598.055	73.686	0.069	-0.074
-597.040	408.584	-0.068	0.146
-596.025	-124.612	0.239	0.038
-595.011	800.000	-0.075	0.291
-593.996	-168.783	0.273	-0.010
-592.982	-32.019	-0.143	-0.081
-591.967	-35.648	-0.242	0.133
-590.952	223.307	-0.161	-0.263
-589.938	-87.379	0.229	-0.070
-588.923	240.654	0.202	0.340
-587.909	-43.542	-0.239	-0.122
-586.894	-102.758	0.016	-0.004
-585.879	-173.961	-0.232	0.007
-584.865	-156.047	0.373	-0.024
-583.850	800.000	0.028	0.100
-582.836	103.515	0.238	-0.283
-581.821	-100.348	-0.127	0.032
-580.806	-200.000	-0.035	0.330
-579.792	-200.000	-0.022	-0.305
-578.777	17.289	0.104	-0.083
-577.763	323.154	0.142	0.273
-576.748	-86.380	-0.158	0.049
-575.733	-137.075	0.130	0.015
-574.719	-138.256	0.106	0.012
-573.704	192.239	-0.111	0.170
-572.690	-200.000	-0.009	0.178
-571.675	81.733	-0.146	0.160
-570.661	-16.847	-0.314	-0.201
-569.646	-135.249	0.221	0.027
-568.631	-115.434	0.196	-0.037
-567.617	-14.340	-0.187	0.122
-566.602	337.092	-0.178	0.349
-565.588	166.993	-0.271	0.389
-564.573	800.000	0.031	0.112
-563.558	-0.189	-0.124	0.089
-562.544	2.525	0.317	0.232
-561.529	-200.000	-0.027	0.432
-560.515	216.560	-0.068	-0.110
-559.500	24.557	0.334	0.280
-558.485	-200.000	0.008	0.150
-557.471	292.403	0.093	-0.172
-556.456	573.603	-0.110	0.272
-555.442	184.436	-0.043	-0.064
-554.427	800.000	-0.101	-0.351
-553.412	-106.817	0.178	0.040
-552.398	-200.000	0.015	-0.159
-551.383	493.707	0.041	0.094
-550.369	-98.623	0.137	0.035
-549.354	58.975	-0.075	-0.075
-548.339	-11.653	-0.137	0.091
-547.325	800.000	0.031	0.102
-546.310	317.400	-0.123	-0.235
-545.296	-200.000	0.047	0.269
-544.281	-200.000	-0.028	-0.198
-543.266	800.000	0.078	0.287
-542.252	-3.164	0.299	0.211
-541.237	47.758	0.206	0.195
-540.223	588.932	0.062	-0.155
-539.208	-89.336	0.273	-0.081
-538.193	210.541	0.045	-0.071
-537.179	800.000	-0.088	0.300
-536.164	-32.227	-0.153	0.086
-535.150	-31.300	0.145	0.083
-534.135	-84.099	0.069	0.022
-533.121	3.666	0.098	0.072
-532.106	24.487	0.289	-0.242
-531.091	-200.000	0.013	0.099
-530.077	800.000	0.077	-0.271
-529.062	800.000	0.015	-0.050
-528.048	-102.973	-0.115	0.028
-527.033	-200.000	-0.012	-0.130
-526.018	70.063	-0.139	-0.145
-525.004	-175.889	0.098	0.003
-523.989	-200.000	0.008	-0.038
-522.975	800.000	0.034	-0.144
-521.960	-143.374	-0.115	0.011
-520.945	-200.000	-0.002	0.065
-519.931	766.930	0.071	-0.194
-518.916	-112.487	-0.099	0.020
-517.902	-74.424	-0.136	-0.049
-516.887	192.358	0.195	0.297
-515.872	356.771	0.107	0.216
-514.858	99.050	0.136	0.158
-513.843	166.725	0.140	-0.200
-512.829	-200.000	-0.003	-0.416
-511.814	-84.235	0.080	-0.026
-510.799	118.824	0.293	-0.365
-509.785	-19.213	0.145	-0.091
-508.770	-89.543	-0.086	-0.026
-507.756	-53.191	-0.388	0.180
-506.741	-7.356	-0.261	-0.179
-505.726	126.708	0.263	-0.337
-504.712	-17.580	-0.143	-0.091
-503.697	-133.586	-0.028	0.004
-502.683	325.562	0.093	-0.180
-501.668	800.000	0.081	-0.255
-500.653	8.584	-0.148	0.112
-499.639	24.947	-0.044	0.037
-498.624	800.000	0.073	-0.218
-497.610	222.341	0.112	-0.182
-496.595	-97.863	0.134	0.035
-495.581	98.540	0.068	-0.080
-494.566	-71.516	-0.209	0.079
-493.551	-92.318	-0.482	-0.137
-492.537	210.877	-0.064	-0.102
-491.522	-94.595	0.197	0.054
-490.508	16.164	0.134	0.106
-489.493	579.430	0.085	-0.210
-488.478	-98.969	0.066	-0.017
-487.464	152.402	0.140	0.192
-486.449	7.866	0.287	-0.217
-485.435	-120.381	0.060	-0.010
-484.420	-200.000	-0.048	0.340
-483.405	-200.000	-0.002	0.172
-482.391	-130.162	-0.211	-0.029
-481.376	82.302	0.050	0.054
-480.362	73.846	0.241	-0.255
-479.347	-176.310	-0.327	-0.009
-478.332	-110.519	0.069	0.014
-477.318	48.499	-0.251	-0.237
-476.303	800.000	-0.033	-0.118
-475.289	800.000	-0.063	0.210
-474.274	-200.000	0.029	-0.132
-473.259	-14.607	0.235	-0.152
-472.245	-6.109	0.244	-0.168
-471.230	24.185	-0.351	-0.292
-470.216	5.947	0.259	0.193
-469.201	-125.579	-0.387	-0.059
-468.186	66.753	-0.193	-0.198
-467.172	286.881	-0.129	-0.235
-466.157	47.214	0.136	0.128
-465.143	800.000	-0.045	0.190
-464.128	-169.886	-0.183	0.007
-463.113	-69.221	0.325	0.126
-462.099	240.442	-0.047	-0.080
-461.084	3.315	0.116	-0.085
-460.070	-118.900	-0.242	0.043
-459.055	800.000	0.071	0.217
-458.040	800.000	0.120	-0.362
-457.026	116.609	-0.141	-0.174
-456.011	-37.741	-0.210	-0.113
-454.997	53.632	0.211	-0.204
-453.982	-200.000	-0.077	0.397
-452.968	-22.149	-0.086	-0.052
-451.953	-200.000	-0.037	0.329
-450.938	-138.340	-0.333	-0.037
-449.924	16.837	-0.163	0.130
-448.909	-200.000	0.041	0.284
-447.895	-128.534	-0.537	0.077
-446.880	59.334	0.119	0.118
-445.865	-96.138	0.231	0.062
-444.851	67.111	0.178	-0.183
-443.836	800.000	-0.034	-0.114
-442.822	398.981	-0.106	-0.224
-441.807	371.704	-0.080	0.163
-440.792	-200.000	-0.018	0.247
-439.778	-200.000	0.012	0.192
-438.763	-200.000	-0.005	-0.046
-437.749	800.000	0.047	0.139
-436.734	688.912	-0.060	0.157
-435.719	-103.100	-0.226	0.054
-434.705	800.000	0.130	-0.389
-433.690	135.304	0.035	-0.046
-432.676	507.035	-0.093	0.218
-431.661	-181.442	0.209	0.004
-430.646	-200.000	-0.009	0.097
-429.632	-61.108	0.143	0.061
-428.617	-7.922	0.047	-0.032
-427.603	-13.699	-0.303	-0.197
-426.588	126.278	-0.096	-0.122
-425.573	184.056	-0.142	0.212
-424.559	800.000	0.140	0.391
-423.544	488.120	0.135	0.310
-422.530	-91.842	0.129	-0.037
-421.515	-57.566	-0.216	-0.095
-420.500	143.378	0.163	-0.219
-419.486	-85.029	0.032	-0.010
-418.471	157.921	0.075	-0.104
-417.457	10.772	0.237	-0.182
-416.442	135.650	0.153	-0.200
-415.428	412.090	-0.048	0.103
-414.413	-200.000	-0.035	-0.174
-413.398	800.000	0.046	0.173
-412.384	205.920	-0.097	0.152
-411.369	365.943	-0.045	0.092
-410.355	33.591	0.096	0.084
-409.340	800.000	0.039	0.160
-408.325	157.805	0.097	-0.135
-407.311	44.346	0.191	-0.176
-406.296	-154.864	0.074	0.005
-405.282	187.940	0.135	0.203
-404.267	-7.712	-0.133	0.090
-403.252	-87.463	0.101	0.031
-402.238	-115.987	-0.069	-0.013
-401.223	-115.948	-0.238	-0.045
-400.209	36.837	-0.161	0.143
-399.194	570.466	-0.086	-0.211
-398.179	36.518	0.203	0.180
-397.165	148.886	0.218	0.297
-396.150	-111.641	-0.298	0.061
-395.136	230.686	-0.109	-0.179
-394.121	-141.436	-0.290	0.030
-393.106	-44.963	0.238	-0.119
-392.092	72.666	-0.138	-0.144
-391.077	142.655	-0.072	-0.096
-390.063	-83.751	0.137	0.044
-389.048	-40.953	-0.273	-0.142
-388.033	51.907	-0.286	-0.273
-387.019	89.654	-0.075	0.084
-386.004	-19.860	0.325	0.202
-384.990	-113.891	0.208	0.041
-383.975	181.736	-0.132	0.195
-382.960	-3.845	0.172	0.120
-381.946	-134.922	0.287	-0.035
-380.931	33.093	0.303	0.264
-379.917	-81.251	0.198	0.066
-378.902	-145.383	-0.018	0.002
-377.888	359.591	-0.190	-0.382
-376.873	186.749	0.108	0.162
-375.858	171.459	-0.062	0.090
-374.844	186.934	-0.101	0.150
-373.829	-92.225	0.217	0.061
-372.815	120.688	-0.084	-0.105
-371.800	527.786	0.020	-0.048
-370.785	758.584	0.051	-0.137
-369.771	-81.110	0.275	-0.091
-368.756	-54.491	-0.140	-0.064
-367.742	-75.385	0.039	-0.014
-366.727	393.248	-0.141	0.295
-365.712	-154.475	-0.311	0.021
-364.698	-200.000	0.056	-0.298
-363.683	161.038	-0.168	0.236
-362.669	-200.000	-0.025	-0.407
-361.654	-81.648	-0.169	-0.056
-360.639	20.244	0.046	0.037
-359.625	800.000	-0.019	-0.072
-358.610	-200.000	-0.035	-0.195
-357.596	-72.009	-0.220	0.082
-356.581	-53.889	0.269	-0.123
-355.566	-200.000	-0.027	0.258
-354.552	-34.788	0.066	-0.036
-353.537	102.286	0.201	-0.236
-352.523	-200.000	0.024	0.136
-351.508	-76.500	-0.298	0.105
-350.493	17.772	-0.284	-0.227
-349.479	98.584	-0.212	0.245
-348.464	-200.000	-0.007	0.077
-347.450	-200.000	-0.021	-0.338
-346.435	-200.000	-0.048	0.248
-345.420	356.593	0.107	0.214
-344.406	-171.427	-0.254	-0.008
-343.391	228.341	-0.178	0.291
-342.377	6.245	0.125	-0.093
-341.362	260.419	0.113	0.195
-340.348	55.605	0.181	-0.176
-339.333	-47.440	-0.215	-0.105
-338.318	-120.570	-0.105	0.018
-337.304	-153.932	-0.184	-0.013
-336.289	344.117	0.157	-0.308
-335.275	55.456	-0.180	-0.175
-334.260	172.687	-0.172	-0.248
-333.245	90.489	-0.091	-0.102
-332.231	800.000	0.075	-0.295
-331.216	-154.532	0.268	-0.018
-330.202	-14.236	-0.181	-0.117
-329.187	95.138	-0.169	-0.192
-328.172	800.000	0.047	0.178
-327.158	229.018	0.160	-0.262
-326.143	563.608	-0.038	-0.093
-325.129	-50.269	0.084	-0.040
-324.114	-36.081	0.223	-0.120
-323.099	448.784	-0.111	-0.245
-322.085	-200.000	-0.091	0.406
-321.070	-7.966	0.135	0.091
-320.056	29.872	-0.244	0.208
-319.041	-122.094	-0.069	-0.011
-318.026	-98.560	-0.366	-0.094
-317.012	-166.316	-0.214	-0.009
-315.997	-177.433	0.165	-0.004
-314.983	800.000	0.037	-0.122
-313.968	225.143	0.172	0.278
-312.953	31.900	-0.113	-0.097
-311.939	186.555	0.104	0.155
-310.924	-34.207	-0.083	0.046
-309.910	243.751	-0.061	-0.102
-308.895	-108.657	-0.544	0.117
-307.880	126.750	0.105	0.133
-306.866	-35.136	-0.179	0.098
-305.851	800.000	0.041	-0.155
-304.837	-97.508	0.078	-0.020
-303.822	800.000	0.072	-0.267
-302.807	-97.894	0.150	0.039
-301.793	800.000	0.052	-0.214
-300.778	800.000	-0.038	0.153
-299.764	236.576	-0.097	0.160
-298.749	-63.142	-0.332	0.137
-297.735	91.106	-0.251	0.282
-296.720	135.103	-0.071	0.092
-295.705	46.776	-0.198	-0.185
-294.691	-81.228	0.235	-0.078
-293.676	800.000	-0.113	0.390
-292.662	800.000	-0.037	-0.131
-291.647	-200.000	0.013	-0.105
-290.632	31.273	0.110	-0.095
-289.618	-200.000	0.001	0.353
-288.603	196.302	0.047	0.072
-287.589	4.543	0.093	-0.069
-286.574	-102.104	-0.172	0.042
-285.559	-71.012	0.316	-0.119
-284.545	24.440	0.167	0.138
-283.530	-200.000	0.027	-0.388
-282.516	8.410	0.166	0.125
-281.501	-54.055	0.065	-0.029
-280.486	33.175	0.303	0.262
-279.472	-140.186	0.118	0.012
-278.457	300.866	0.100	0.184
-277.443	-110.501	0.072	0.015
-276.428	381.405	0.110	-0.227
-275.413	122.189	-0.055	0.069
-274.399	59.159	0.091	0.090
-273.384	62.658	0.170	-0.170
-272.370	520.746	0.094	-0.219
-271.355	90.428	-0.273	-0.305
-270.340	325.086	0.123	0.234
-269.326	800.000	0.062	-0.270
-268.311	-200.000	-0.001	0.048
-267.297	357.419	-0.097	0.193
-266.282	16.736	0.271	-0.214
-265.267	29.402	-0.166	0.141
-264.253	-29.638	-0.171	-0.098
-263.238	-37.283	-0.247	0.132
-262.224	557.219	-0.115	0.276
-261.209	-0.262	0.132	0.094
-260.195	-32.718	-0.131	-0.073
-259.180	-41.338	0.084	-0.043
-258.165	-17.303	0.226	-0.142
-257.151	-200.000	0.019	-0.112
-256.136	-50.924	-0.132	-0.062
-255.122	-136.044	-0.307	0.036
-254.107	-139.655	0.357	-0.038
-253.092	2.864	-0.080	-0.058
-252.078	-83.576	0.167	-0.053
-251.063	112.142	0.144	0.173
-250.049	342.151	0.066	0.129
-249.034	-159.520	-0.365	0.020
-248.019	73.218	0.243	-0.254
-247.005	-57.633	0.099	0.043
-245.990	-133.734	-0.126	0.016
-244.976	-200.000	0.000	0.046
-243.961	-13.637	0.402	-0.260
-242.946	15.335	0.397	0.311
-241.932	-74.825	0.225	0.081
-240.917	-200.000	0.003	-0.204
-239.903	-149.099	0.429	0.034
-238.888	-26.409	0.275	-0.161
-237.873	-59.140	0.325	0.140
-236.859	-107.362	-0.149	0.033
-235.844	164.334	-0.106	-0.149
-234.830	333.665	0.038	0.074
-233.815	-15.609	-0.406	0.258
-232.800	-192.982	-0.293	0.003
-231.786	800.000	-0.025	0.084
-230.771	371.334	0.087	-0.177
-229.757	47.605	-0.121	0.113
-228.742	-200.000	-0.008	-0.068
-227.727	-144.307	0.179	-0.017
-226.713	-7.106	-0.184	0.125
-225.698	209.188	-0.196	0.307
-224.684	-107.946	0.261	0.057
-223.669	196.281	-0.062	0.094
-222.655	-126.615	0.322	0.048
-221.640	95.661	-0.101	0.115
-220.625	101.434	0.092	0.107
-219.611	181.690	-0.231	-0.339
-218.596	-22.777	-0.079	-0.048
-217.582	179.694	-0.184	-0.269
-216.567	-165.063	-0.089	0.004
-215.552	663.142	0.092	-0.236
-214.538	-48.659	-0.322	0.154
-213.523	441.437	0.181	0.396
-212.509	-200.000	0.010	0.089
-211.494	211.822	-0.099	0.156
-210.479	139.647	-0.133	0.175
-209.465	188.849	-0.052	-0.078
-208.450	356.934	-0.117	-0.233
-207.436	-200.000	-0.030	0.372
-206.421	-126.380	0.103	0.015
-205.406	8.737	0.067	-0.051
-204.392	402.207	-0.077	-0.161
-203.377	-127.427	0.101	0.015
-202.363	-119.033	-0.112	0.020
-201.348	102.738	-0.070	-0.082
-200.333	-200.000	-0.017	0.137
-199.319	168.755	0.060	0.086
-198.304	274.853	-0.071	-0.125
-197.290	800.000	0.040	0.118
-196.275	379.969	0.227	0.464
-195.260	-3.312	-0.070	-0.049
-194.246	-200.000	-0.025	-0.432
-193.231	115.553	-0.103	-0.125
-192.217	-159.472	-0.138	0.008
-191.202	-63.225	-0.166	-0.068
-190.187	-55.705	-0.155	-0.069
-189.173	334.311	-0.152	0.294
-188.158	-3.858	0.266	-0.184
-187.144	80.183	0.050	-0.054
-186.129	-21.995	-0.353	-0.214
-185.114	298.491	-0.058	-0.107
-184.100	-84.141	-0.231	0.073
-183.085	326.251	0.199	-0.379
-182.071	-200.000	-0.010	-0.065
-181.056	800.000	-0.064	0.192
-180.042	-46.609	0.256	0.125
-179.027	-200.000	0.006	-0.210
-178.012	276.279	-0.138	-0.245
-176.998	-164.746	-0.099	0.004
-175.983	800.000	0.067	0.215
-174.969	54.784	0.140	0.134
-173.954	-106.472	0.179	0.040
-172.939	-49.479	-0.173	0.082
-171.925	-200.000	-0.007	-0.183
-170.910	-149.722	-0.165	0.013
-169.896	344.103	0.108	-0.210
-168.881	-200.000	-0.014	0.093
-167.866	-160.461	0.205	0.011
-166.852	80.328	0.106	0.114
-165.837	-200.000	-0.021	-0.120
-164.823	109.048	0.102	0.121
-163.808	-54.287	-0.335	0.151
-162.793	-72.323	-0.052	0.019
-161.779	-55.273	-0.204	0.091
-160.764	-40.765	-0.089	-0.046
-159.750	5.436	-0.118	-0.087
-158.735	-5.990	-0.132	0.090
-157.720	154.793	0.141	0.192
-156.706	800.000	0.008	0.030
-155.691	-52.143	0.136	-0.063
-154.677	10.832	0.257	0.195
-153.662	417.401	-0.046	0.098
-152.647	-114.537	0.312	0.060
-151.633	-69.982	0.068	-0.026
-150.618	800.000	-0.083	-0.274
-149.604	-74.918	-0.117	-0.042
-148.589	-200.000	-0.024	0.492
-147.574	-109.590	0.217	0.045
-146.560	-81.207	-0.086	0.028
-145.545	249.213	0.027	-0.045
-144.531	92.410	0.049	-0.055
-143.516	-77.869	0.311	0.107
-142.502	604.583	-0.071	0.175
-141.487	-200.000	-0.056	-0.308
-140.472	390.745	-0.063	-0.131
-139.458	5.879	-0.160	-0.118
-138.443	-42.146	-0.074	-0.038
-137.429	-9.699	0.031	-0.021
-136.414	-200.000	0.010	0.176
-135.399	-200.000	-0.028	0.149
-134.385	216.328	0.117	0.185
-133.370	-75.245	-0.245	0.087
-132.356	-179.432	0.021	0.000
-131.341	31.969	-0.239	-0.205
-130.326	-31.638	-0.290	0.162
-129.312	-112.175	0.227	-0.045
-128.297	70.459	-0.153	0.157
-127.283	800.000	0.065	0.221
-126.268	-94.261	0.383	-0.104
-125.253	-200.000	0.012	-0.108
-124.239	-66.689	0.265	-0.104
-123.224	-101.151	0.174	-0.042
-122.210	122.308	0.067	-0.083
-121.195	57.201	0.260	0.252
