DTS Sentinel unit serial number:	SN413079Multiplexer serial number:	ORYXHardware model number:	OX4-SRSoftware version number:	ORYX F/W v4.00 Oryx Data Collector v3.7.2.0data status	okinstallation	princeton_trtdifferential loss correction	single-endedforward channel	channel 2reverse channel	N/Adate	2019/09/18time	18:15:35forward acquisition time	60.00reverse acquisition time	0.00gamma	496.2192k internal	0.2304k external	0.2304temperature offset calibration	1.0021default loss term (dB/km)	0.3790temperature slope calibration	1.0000multiplexer offset coefficient	1.0000multiplexer slope coefficient	1.0000fibre end	0.00T internal ref (°C)	38.92T ext. ref 1 (°C)	0.92T ext. ref 2 (°C)	32.17length (m)	temperature (°C)	Stokes	anti-Stokes-747.200	800.000	0.084	0.246
-746.185	800.000	0.093	0.413
-745.171	15.144	0.052	0.041
-744.156	-104.813	0.195	0.046
-743.142	-124.602	-0.335	-0.053
-742.127	369.871	-0.164	0.338
-741.112	-200.000	-0.001	0.047
-740.098	-160.960	0.280	0.015
-739.083	-196.252	-0.153	-0.001
-738.069	-33.423	0.154	0.087
-737.054	-200.000	-0.011	0.329
-736.039	126.650	0.072	0.093
-735.025	-68.539	0.377	0.149
-734.010	-200.000	-0.009	0.067
-732.996	-200.000	-0.189	-0.000
-731.981	211.617	-0.114	0.182
-730.966	219.692	-0.168	-0.273
-729.952	292.049	-0.139	0.258
-728.937	-109.571	-0.218	-0.047
-727.923	-124.612	-0.046	-0.007
-726.908	-200.000	0.022	-0.255
-725.894	-31.349	0.328	-0.188
-724.879	195.593	0.042	-0.065
-723.864	800.000	-0.009	-0.041
-722.850	-31.287	-0.269	-0.154
-721.835	-147.341	0.105	-0.009
-720.821	-200.000	-0.025	0.286
-719.806	106.973	0.191	-0.230
-718.791	-112.042	-0.176	-0.036
-717.777	800.000	0.093	-0.336
-716.762	-200.000	0.054	-0.267
-715.748	214.302	-0.256	-0.413
-714.733	81.549	0.106	0.117
-713.718	-16.515	0.233	-0.150
-712.704	-200.000	-0.007	-0.355
-711.689	-200.000	-0.001	-0.073
-710.675	124.674	0.107	-0.137
-709.660	25.476	0.172	0.145
-708.645	-82.379	-0.138	-0.046
-707.631	165.399	-0.254	-0.365
-706.616	-200.000	-0.009	-0.048
-705.602	-200.000	0.057	-0.264
-704.587	-200.000	-0.071	-0.345
-703.572	-24.591	-0.298	-0.180
-702.558	-16.836	0.365	0.235
-701.543	179.001	0.131	-0.195
-700.529	800.000	0.058	0.173
-699.514	-200.000	0.009	0.286
-698.499	-44.553	-0.348	-0.177
-697.485	-200.000	-0.016	-0.356
-696.470	-64.608	-0.200	-0.082
-695.456	-200.000	0.058	0.270
-694.441	732.685	0.051	0.138
-693.426	-200.000	-0.007	0.036
-692.412	445.359	0.124	-0.277
-691.397	-200.000	0.018	-0.203
-690.383	30.420	-0.198	-0.172
-689.368	-200.000	0.019	0.256
-688.354	46.710	0.095	-0.090
-687.339	-101.603	0.220	-0.054
-686.324	-80.162	-0.417	-0.142
-685.310	-200.000	-0.017	-0.277
-684.295	-44.143	-0.417	0.213
-683.281	195.929	-0.025	-0.038
-682.266	265.960	-0.052	-0.091
-681.251	166.555	0.165	0.238
-680.237	-1.675	0.048	0.035
-679.222	724.764	-0.037	-0.100
-678.208	505.019	-0.083	0.196
-677.193	-38.506	-0.281	-0.151
-676.178	91.701	-0.101	0.115
-675.164	164.935	0.104	-0.149
-674.149	19.976	0.048	-0.039
-673.135	-104.917	0.212	-0.049
-672.120	-200.000	0.019	-0.127
-671.105	-200.000	0.047	0.254
-670.091	57.509	-0.143	0.142
-669.076	-200.000	0.094	-0.591
-668.062	-200.000	-0.062	-0.397
-667.047	28.489	-0.102	0.087
-666.032	-145.602	-0.192	0.017
-665.018	-92.893	0.345	0.098
-664.003	800.000	-0.039	-0.109
-662.989	-103.379	-0.126	-0.030
-661.974	-38.254	-0.133	-0.072
-660.959	800.000	0.095	0.275
-659.945	-85.968	-0.217	0.068
-658.930	-200.000	0.032	-0.372
-657.916	-146.051	-0.219	-0.020
-656.901	2.419	-0.248	-0.182
-655.886	30.158	0.300	-0.260
-654.872	-80.598	0.308	0.104
-653.857	45.833	-0.153	0.144
-652.843	-7.740	-0.151	0.103
-651.828	-116.588	0.240	0.045
-650.814	-57.827	0.217	0.096
-649.799	-83.050	-0.194	-0.063
-648.784	-200.000	-0.021	0.182
-647.770	-82.638	-0.258	-0.085
-646.755	0.425	0.231	0.167
-645.741	-17.038	0.095	-0.061
-644.726	-200.000	-0.414	0.001
-643.711	-95.074	-0.277	0.076
-642.697	-79.414	0.089	-0.030
-641.682	-102.651	-0.303	-0.073
-640.668	238.262	-0.062	0.105
-639.653	138.607	-0.117	-0.155
-638.638	38.539	-0.079	0.071
-637.624	52.990	0.200	-0.194
-636.609	-200.000	-0.015	-0.213
-635.595	-130.576	0.214	0.029
-634.580	800.000	0.105	-0.399
-633.565	270.521	0.115	0.205
-632.551	800.000	0.030	0.110
-631.536	337.792	0.104	0.205
-630.522	179.756	-0.106	0.158
-629.507	82.757	0.184	-0.203
-628.492	498.124	0.078	0.183
-627.478	62.430	-0.062	0.063
-626.463	-119.291	0.119	0.021
-625.449	-24.871	0.282	0.170
-624.434	-16.191	0.140	-0.090
-623.419	-136.675	-0.199	-0.023
-622.405	-115.460	-0.279	0.053
-621.390	-177.426	0.157	-0.004
-620.376	285.566	0.081	-0.147
-619.361	800.000	-0.065	-0.271
-618.346	-96.780	-0.378	0.101
-617.332	111.037	-0.240	0.292
-616.317	205.192	0.012	-0.019
-615.303	-152.144	0.184	-0.014
-614.288	150.068	-0.325	-0.446
-613.273	-103.211	0.001	-0.000
-612.259	800.000	0.066	-0.287
-611.244	774.969	0.023	-0.064
-610.230	20.215	-0.304	0.249
-609.215	800.000	-0.054	-0.166
-608.201	15.529	0.137	0.109
-607.186	292.095	0.084	0.155
-606.171	491.987	-0.053	-0.124
-605.157	-87.493	0.068	0.021
-604.142	-71.060	-0.189	0.072
-603.128	-14.018	0.032	0.021
-602.113	-197.857	-0.141	0.001
-601.098	800.000	-0.078	0.235
-600.084	669.094	-0.042	0.110
-599.069	5.144	0.150	-0.112
-598.055	-104.664	-0.190	0.044
-597.040	398.502	-0.061	-0.130
-596.025	67.221	0.189	-0.195
-595.011	30.844	0.029	-0.025
-593.996	158.644	0.062	0.087
-592.982	-30.222	0.022	0.013
-591.967	-200.000	0.006	0.038
-590.952	-71.899	-0.187	0.070
-589.938	-21.759	0.192	-0.118
-588.923	-200.000	0.041	-0.325
-587.909	724.908	-0.081	-0.219
-586.894	-94.744	-0.137	-0.038
-585.879	550.822	0.089	-0.216
-584.865	293.023	0.109	0.202
-583.850	357.596	-0.174	-0.350
-582.836	209.878	-0.064	0.101
-581.821	91.909	-0.140	0.160
-580.806	-200.000	-0.015	-0.209
-579.792	800.000	0.024	-0.082
-578.777	353.185	0.074	-0.149
-577.763	659.318	0.131	0.342
-576.748	-142.110	-0.346	-0.035
-575.733	-10.103	0.484	-0.325
-574.719	-100.117	0.155	-0.039
-573.704	-200.000	-0.024	0.136
-572.690	-18.332	-0.133	-0.084
-571.675	149.676	-0.153	-0.210
-570.661	188.385	0.101	0.153
-569.646	-21.560	0.045	0.028
-568.631	-46.732	0.178	-0.088
-567.617	-27.992	0.180	0.105
-566.602	120.171	0.130	-0.163
-565.588	61.702	-0.147	-0.148
-564.573	-200.000	-0.032	-0.141
-563.558	-27.596	-0.153	0.090
-562.544	-200.000	-0.047	0.380
-561.529	168.426	-0.127	-0.183
-560.515	-82.068	-0.109	0.036
-559.500	301.467	0.019	-0.036
-558.485	-108.644	-0.533	-0.116
-557.471	-20.070	-0.169	-0.105
-556.456	-62.859	0.225	-0.094
-555.442	-200.000	-0.031	-0.281
-554.427	-200.000	0.043	0.230
-553.412	-84.118	-0.197	-0.063
-552.398	-5.279	-0.153	0.106
-551.383	-21.042	0.377	0.233
-550.369	800.000	-0.019	0.056
-549.354	-88.116	0.180	-0.055
-548.339	800.000	-0.049	-0.195
-547.325	68.535	-0.062	0.064
-546.310	-74.479	-0.292	-0.106
-545.296	-87.202	0.219	0.067
-544.281	276.589	-0.229	0.411
-543.266	-200.000	-0.025	0.265
-542.252	-55.310	0.229	-0.104
-541.237	-117.418	-0.407	0.075
-540.223	588.588	0.053	-0.131
-539.208	694.754	0.065	0.173
-538.193	122.194	0.237	0.298
-537.179	31.908	-0.090	-0.078
-536.164	-47.362	-0.243	0.119
-535.150	-66.331	0.029	-0.011
-534.135	-49.599	0.345	-0.166
-533.121	498.789	-0.120	0.280
-532.106	197.535	0.085	0.130
-531.091	277.012	-0.060	-0.107
-530.077	-200.000	0.051	0.490
-529.062	800.000	0.031	0.108
-528.048	800.000	0.078	-0.259
-527.033	-106.687	-0.240	-0.054
-526.018	91.156	-0.357	-0.405
-525.004	800.000	-0.069	0.197
-523.989	360.248	0.076	-0.154
-522.975	19.756	-0.176	-0.143
-521.960	240.790	-0.153	-0.258
-520.945	-18.314	0.212	-0.134
-519.931	194.828	0.097	-0.149
-518.916	83.089	0.076	-0.083
-517.902	-47.646	-0.181	0.089
-516.887	628.437	0.073	-0.186
-515.872	-200.000	-0.028	-0.133
-514.858	-139.346	0.044	0.005
-513.843	-200.000	-0.024	-0.188
-512.829	800.000	0.019	0.058
-511.814	58.507	-0.164	0.162
-510.799	-57.172	0.194	0.086
-509.785	-200.000	-0.013	0.122
-508.770	85.328	-0.120	-0.132
-507.756	313.348	0.055	0.103
-506.741	-200.000	0.013	0.245
-505.726	-106.385	0.134	-0.030
-504.712	202.368	-0.088	-0.137
-503.697	-115.226	-0.353	-0.067
-502.683	-87.285	0.223	-0.068
-501.668	-157.238	0.056	-0.003
-500.653	108.609	-0.237	-0.286
-499.639	-200.000	-0.056	0.385
-498.624	40.564	-0.154	0.140
-497.610	402.286	-0.128	-0.272
-496.595	288.212	0.129	0.235
-495.581	-131.052	0.113	-0.015
-494.566	176.353	-0.031	0.045
-493.551	103.315	0.013	0.015
-492.537	-21.325	-0.026	-0.016
-491.522	132.334	-0.208	-0.271
-490.508	308.153	0.198	-0.372
-489.493	-138.198	0.232	-0.026
-488.478	331.331	0.070	0.136
-487.464	1.383	0.318	0.231
-486.449	296.744	-0.088	0.163
-485.435	800.000	0.049	0.213
-484.420	123.597	0.158	-0.200
-483.405	-0.209	-0.455	0.326
-482.391	-141.450	-0.107	-0.011
-481.376	-75.544	-0.287	0.103
-480.362	31.339	-0.065	-0.056
-479.347	-25.160	-0.074	-0.044
-478.332	-2.638	-0.209	-0.147
-477.318	161.422	0.074	0.104
-476.303	-200.000	-0.051	-0.451
-475.289	-95.145	0.124	0.034
-474.274	50.130	-0.020	-0.019
-473.259	534.440	-0.191	-0.457
-472.245	-62.830	0.294	-0.123
-471.230	240.538	-0.243	-0.407
-470.216	105.435	0.236	0.280
-469.201	96.876	-0.113	0.130
-468.186	-200.000	0.002	-0.010
-467.172	-174.266	0.197	0.006
-466.157	781.977	0.084	-0.232
-465.143	357.221	0.180	0.361
-464.128	-40.524	-0.137	0.071
-463.113	11.486	-0.270	-0.209
-462.099	-164.824	0.085	0.004
-461.084	129.686	-0.212	-0.273
-460.070	390.066	-0.084	-0.176
-459.055	-200.000	0.012	-0.105
-458.040	-180.875	0.093	0.002
-457.026	70.416	-0.311	0.324
-456.011	800.000	0.071	0.268
-454.997	800.000	0.117	-0.338
-453.982	254.186	0.094	-0.162
-452.968	-200.000	-0.012	-0.208
-451.953	219.869	0.087	-0.141
-450.938	-200.000	-0.030	-0.268
-449.924	206.368	-0.219	-0.343
-448.909	14.431	0.338	-0.266
-447.895	70.344	-0.217	-0.226
-446.880	206.128	-0.221	0.346
-445.865	800.000	0.111	0.377
-444.851	186.346	-0.068	0.102
-443.836	197.157	-0.102	0.157
-442.822	-124.094	-0.366	0.058
-441.807	300.498	-0.053	0.099
-440.792	386.237	-0.175	-0.364
-439.778	544.045	0.016	0.039
-438.763	-83.789	-0.181	-0.058
-437.749	469.001	0.042	-0.094
-436.734	-163.115	0.149	0.007
-435.719	781.261	0.040	-0.110
-434.705	-43.470	-0.221	0.112
-433.690	-200.000	0.012	0.275
-432.676	800.000	0.044	0.182
-431.661	44.672	0.113	0.105
-430.646	200.471	0.110	0.170
-429.632	-127.428	0.169	-0.025
-428.617	234.750	-0.058	-0.097
-427.603	-200.000	-0.028	0.273
-426.588	-200.000	-0.014	0.120
-425.573	65.479	-0.134	0.137
-424.559	-165.514	-0.158	0.007
-423.544	-52.541	0.163	-0.076
-422.530	800.000	-0.010	-0.029
-421.515	140.097	-0.115	0.153
-420.500	201.224	-0.215	-0.333
-419.486	-1.557	-0.106	-0.075
-418.471	-78.333	-0.285	0.098
-417.457	-64.111	-0.103	0.042
-416.442	-200.000	0.018	-0.100
-415.428	-110.701	0.316	-0.066
-414.413	122.690	0.145	0.182
-413.398	55.339	0.163	0.158
-412.384	-16.325	-0.172	-0.110
-411.369	58.944	-0.246	-0.243
-410.355	-200.000	-0.001	-0.316
-409.340	165.773	-0.076	-0.107
-408.325	-145.207	0.171	0.016
-407.311	-200.000	0.058	-0.300
-406.296	-13.743	-0.204	-0.132
-405.282	193.023	0.088	0.134
-404.267	321.592	0.105	0.201
-403.252	584.426	-0.135	-0.334
-402.238	-200.000	-0.004	-0.242
-401.223	292.521	-0.126	-0.230
-400.209	-107.530	0.368	0.081
-399.194	455.969	0.133	-0.297
-398.179	-104.354	-0.134	0.031
-397.165	-49.687	0.335	-0.160
-396.150	18.808	0.304	0.244
-395.136	-63.205	0.312	0.129
-394.121	800.000	-0.081	-0.254
-393.106	392.477	-0.067	-0.140
-392.092	391.920	0.143	-0.299
-391.077	800.000	-0.095	0.306
-390.063	800.000	-0.052	0.146
-389.048	-200.000	0.025	0.251
-388.033	-63.754	0.135	-0.055
-387.019	-200.000	0.054	-0.263
-386.004	778.784	-0.102	0.281
-384.990	-46.237	0.274	0.135
-383.975	-48.327	-0.305	0.148
-382.960	-123.177	0.105	-0.017
-381.946	-77.876	0.305	0.106
-380.931	233.086	0.116	-0.192
-379.917	136.339	0.271	-0.355
-378.902	88.646	0.087	-0.097
-377.888	-75.375	-0.241	0.086
-376.873	-115.333	-0.189	0.036
-375.858	34.212	-0.242	-0.211
-374.844	154.002	-0.180	-0.248
-373.829	-149.618	0.070	-0.006
-372.815	616.660	0.147	-0.370
-371.800	-140.369	0.239	-0.025
-370.785	-178.625	-0.162	-0.004
-369.771	-94.417	0.243	0.067
-368.756	129.644	0.216	0.277
-367.742	101.818	0.080	-0.094
-366.727	-41.500	-0.119	-0.061
-365.712	99.904	0.240	-0.278
-364.698	-85.568	-0.202	-0.063
-363.683	800.000	0.006	0.020
-362.669	6.730	-0.096	-0.072
-361.654	148.657	0.247	-0.334
-360.639	-200.000	0.004	-0.115
-359.625	148.661	0.083	0.113
-358.610	-180.563	0.181	-0.004
-357.596	56.549	-0.178	-0.174
-356.581	533.700	0.142	0.337
-355.566	-200.000	0.043	-0.260
-354.552	-114.996	0.020	0.004
-353.537	49.652	0.087	0.082
-352.523	168.158	-0.184	-0.263
-351.508	-80.965	0.181	0.060
-350.493	-200.000	-0.006	0.198
-349.479	276.910	-0.154	0.275
-348.464	-200.000	0.021	-0.199
-347.450	-154.584	0.326	0.022
-346.435	-76.411	0.227	-0.080
-345.420	-70.559	0.013	0.005
-344.406	128.078	-0.086	-0.110
-343.391	466.840	0.094	0.212
-342.377	-9.421	-0.411	0.275
-341.362	-200.000	0.001	-0.140
-340.348	-200.000	0.046	-0.234
-339.333	-9.711	-0.188	-0.125
-338.318	697.733	0.098	0.259
-337.304	-30.449	-0.137	0.078
-336.289	-184.970	-0.246	-0.004
-335.275	-26.216	0.128	0.075
-334.260	167.304	-0.061	-0.086
-333.245	14.293	0.218	0.170
-332.231	417.311	-0.057	0.121
-331.216	40.779	0.195	0.176
-330.202	-200.000	0.019	0.164
-329.187	325.297	-0.157	0.301
-328.172	-54.627	-0.306	0.138
-327.158	18.806	0.221	0.177
-326.143	-38.846	-0.114	0.060
-325.129	23.760	-0.229	0.189
-324.114	0.702	0.185	0.132
-323.099	-200.000	0.042	0.322
-322.085	152.942	-0.240	0.329
-321.070	-118.073	0.191	0.034
-320.056	-200.000	0.037	-0.184
-319.041	-200.000	-0.012	0.076
-318.026	-200.000	0.041	-0.204
-317.012	-6.523	-0.166	0.113
-315.997	46.897	-0.162	-0.151
-314.983	-18.369	0.130	0.081
-313.968	112.249	0.177	0.215
-312.953	12.019	0.365	0.281
-311.939	49.082	0.110	-0.103
-310.924	72.149	-0.152	0.158
-309.910	231.277	0.111	0.182
-308.895	-108.740	0.105	-0.022
-307.880	-196.510	-0.127	0.001
-306.866	-200.000	0.034	-0.284
-305.851	-200.000	-0.040	-0.255
-304.837	267.864	-0.180	-0.315
-303.822	-200.000	-0.013	0.090
-302.807	-56.445	-0.106	-0.047
-301.793	-49.875	0.035	-0.017
-300.778	-200.000	0.034	-0.239
-299.764	800.000	0.093	-0.305
-298.749	321.227	-0.112	0.213
-297.735	351.507	-0.049	-0.097
-296.720	-115.395	-0.140	-0.026
-295.705	517.502	0.036	-0.085
-294.691	-79.472	0.411	0.139
-293.676	-83.805	0.113	0.036
-292.662	594.747	0.073	0.181
-291.647	-17.430	0.241	-0.152
-290.632	-73.376	0.179	0.066
-289.618	-4.467	0.171	0.118
-288.603	800.000	-0.122	-0.486
-287.589	-136.606	-0.173	0.020
-286.574	327.649	-0.107	0.204
-285.559	92.154	0.150	-0.169
-284.545	255.848	0.167	0.286
-283.530	-19.519	-0.362	0.224
-282.516	78.131	-0.285	0.304
-281.501	141.781	0.027	0.036
-280.486	-159.199	0.148	-0.008
-279.472	2.027	0.123	0.089
-278.457	103.720	-0.302	-0.354
-277.443	-10.320	0.071	0.047
-276.428	84.656	0.076	0.083
-275.413	-23.880	0.189	0.113
-274.399	-109.441	-0.081	0.017
-273.384	-200.000	-0.024	-0.172
-272.370	-48.558	-0.320	-0.154
-271.355	-200.000	-0.012	0.109
-270.340	614.979	-0.055	0.138
-269.326	381.168	-0.053	0.109
-268.311	-80.283	0.348	0.116
-267.297	-200.000	0.009	-0.053
-266.282	-32.543	0.274	-0.152
-265.267	54.650	0.016	-0.016
-264.253	42.585	0.105	-0.096
-263.238	-200.000	0.397	-0.001
-262.224	17.775	0.089	-0.070
-261.209	-200.000	-0.048	0.345
-260.195	97.436	-0.125	0.144
-259.180	9.133	-0.196	-0.148
-258.165	-125.552	0.166	-0.025
-257.151	109.204	0.139	-0.166
-256.136	-13.222	0.314	-0.204
-255.122	-104.923	0.097	-0.022
-254.107	-124.818	0.335	0.052
-253.092	-200.000	0.017	0.473
-252.078	320.081	-0.115	0.217
-251.063	158.155	-0.065	-0.090
-250.049	-200.000	-0.033	0.333
-249.034	800.000	0.069	0.277
-248.019	230.518	0.203	0.331
-247.005	26.050	0.305	0.254
-245.990	-118.104	0.225	0.040
-244.976	-144.753	-0.309	0.028
-243.961	-32.087	-0.044	0.025
-242.946	-16.885	-0.121	0.076
-241.932	-116.086	0.115	-0.021
-240.917	-123.124	-0.179	-0.029
-239.903	-151.444	-0.151	-0.011
-238.888	251.444	-0.104	0.176
-237.873	-200.000	0.003	0.228
-236.859	-109.711	-0.212	-0.044
-235.844	18.302	0.148	0.118
-234.830	-76.999	0.411	-0.143
-233.815	-200.000	0.012	-0.061
-232.800	-45.062	0.184	0.091
-231.786	-162.053	-0.345	0.017
-230.771	-37.561	0.075	-0.040
-229.757	800.000	-0.008	-0.023
-228.742	215.968	-0.148	0.235
-227.727	78.892	0.235	0.251
-226.713	-11.617	0.273	0.179
-225.698	394.736	-0.050	-0.105
-224.684	242.865	-0.236	0.394
-223.669	-19.962	0.183	-0.113
-222.655	-109.470	-0.130	-0.027
-221.640	-182.540	0.026	-0.000
-220.625	97.753	-0.066	-0.076
-219.611	153.296	0.102	-0.139
-218.596	-165.399	0.254	0.011
-217.582	-120.774	-0.117	0.020
-216.567	360.062	0.061	0.122
-215.552	38.552	0.118	-0.105
-214.538	-143.385	0.221	-0.021
-213.523	-35.740	0.206	0.111
-212.509	114.038	-0.163	0.197
-211.494	800.000	0.074	-0.244
-210.479	-121.028	0.120	0.020
-209.465	-28.347	-0.316	-0.182
-208.450	-69.651	0.291	0.111
-207.436	293.696	0.084	0.153
-206.421	-149.686	0.267	-0.021
-205.406	-132.271	-0.341	-0.044
-204.392	476.246	0.127	0.286
-203.377	-2.469	-0.098	0.069
-202.363	800.000	-0.036	0.115
-201.348	-200.000	-0.021	-0.114
-200.333	45.306	0.213	0.195
-199.319	89.265	-0.159	0.176
-198.304	158.635	-0.050	-0.069
-197.290	55.397	-0.164	-0.158
-196.275	101.723	-0.114	-0.132
-195.260	-200.000	0.007	-0.035
-194.246	-97.145	-0.418	0.109
-193.231	21.666	0.254	0.206
-192.217	-130.072	-0.305	0.042
-191.202	167.905	0.162	-0.229
-190.187	-43.946	-0.054	-0.027
-189.173	-110.623	0.002	0.000
-188.158	40.347	-0.067	-0.060
-187.144	102.341	0.154	-0.179
-186.129	324.411	-0.070	0.132
-185.114	800.000	-0.083	0.291
-184.100	-200.000	0.035	-0.188
-183.085	39.177	-0.060	0.053
-182.071	-200.000	-0.033	-0.156
-181.056	-200.000	-0.019	0.157
-180.042	-77.970	0.040	0.014
-179.027	-146.942	-0.374	-0.032
-178.012	-113.846	0.175	0.034
-176.998	-76.571	0.129	-0.045
-175.983	-200.000	-0.008	-0.063
-174.969	-200.000	0.010	-0.203
-173.954	18.478	0.111	-0.088
-172.939	318.526	-0.157	-0.297
-171.925	58.915	-0.053	-0.052
-170.910	-58.219	0.238	-0.103
-169.896	-36.458	-0.076	0.041
-168.881	-115.569	-0.231	-0.043
-167.866	-199.223	-0.050	0.000
-166.852	181.082	0.125	0.183
-165.837	-120.857	-0.238	0.040
-164.823	229.377	0.177	-0.287
-163.808	-200.000	-0.010	-0.103
-162.793	-65.821	0.381	0.152
-161.779	-24.408	0.193	-0.115
-160.764	341.587	-0.111	-0.216
-159.750	-200.000	-0.008	0.282
-158.735	-40.401	0.339	0.175
-157.720	-7.467	0.057	0.038
-156.706	9.818	-0.193	0.145
-155.691	167.725	-0.179	0.253
-154.677	800.000	-0.100	0.332
-153.662	800.000	-0.048	-0.151
-152.647	-96.498	-0.074	-0.019
-151.633	96.399	0.169	0.193
-150.618	335.307	0.017	0.032
-149.604	-200.000	-0.059	0.308
-148.589	-54.185	0.255	0.115
-147.574	-86.343	-0.147	-0.045
-146.560	417.484	0.168	-0.356
-145.545	17.397	0.143	-0.113
-144.531	800.000	0.034	-0.098
-143.516	34.065	-0.073	-0.063
-142.502	-88.527	0.173	0.051
-141.487	-200.000	-0.011	-0.283
-140.472	308.317	0.177	0.329
-139.458	25.786	-0.509	0.421
-138.443	536.534	-0.052	-0.123
-137.429	536.859	0.052	0.122
-136.414	-31.105	0.226	0.127
-135.399	-200.000	0.011	0.187
-134.385	800.000	-0.085	-0.320
-133.370	544.756	0.047	0.110
-132.356	-124.392	0.063	-0.010
-131.341	-200.000	-0.025	-0.185
-130.326	284.621	-0.019	0.033
-129.312	54.055	0.055	0.053
-128.297	-57.660	0.007	0.003
-127.283	-15.027	0.050	0.032
-126.268	-99.340	0.152	-0.038
-125.253	353.781	-0.026	0.052
-124.239	-200.000	0.040	0.198
-123.224	38.470	0.116	-0.102
-122.210	-121.409	0.281	-0.047
-121.195	361.066	0.109	0.217
