DTS Sentinel unit serial number:	SN413079Multiplexer serial number:	ORYXHardware model number:	OX4-SRSoftware version number:	ORYX F/W v4.00 Oryx Data Collector v3.7.2.0data status	okinstallation	princeton_trtdifferential loss correction	single-endedforward channel	channel 2reverse channel	N/Adate	2019/09/14time	11:51:35forward acquisition time	60.00reverse acquisition time	0.00gamma	496.2192k internal	0.2309k external	0.2309temperature offset calibration	1.0153default loss term (dB/km)	0.3790temperature slope calibration	1.0000multiplexer offset coefficient	1.0000multiplexer slope coefficient	1.0000fibre end	0.00T internal ref (°C)	37.12T ext. ref 1 (°C)	4.64T ext. ref 2 (°C)	34.27length (m)	temperature (°C)	Stokes	anti-Stokes-747.200	800.000	-0.054	-0.210
-746.185	-200.000	0.005	0.124
-745.171	33.898	0.245	0.217
-744.156	255.507	0.115	-0.200
-743.142	-55.357	-0.298	-0.136
-742.127	-5.371	-0.403	0.281
-741.112	-71.040	-0.086	-0.033
-740.098	-161.020	-0.265	0.014
-739.083	-129.424	-0.183	-0.026
-738.069	800.000	0.120	0.355
-737.054	-55.406	-0.235	0.107
-736.039	-49.969	-0.144	0.070
-735.025	-200.000	0.007	0.051
-734.010	-60.767	-0.108	-0.046
-732.996	-17.497	-0.130	-0.083
-731.981	-41.612	-0.081	-0.042
-730.966	-13.374	0.050	0.033
-729.952	800.000	0.016	-0.064
-728.937	-90.465	-0.206	0.061
-727.923	-69.922	-0.247	0.096
-726.908	-67.559	0.268	-0.107
-725.894	-200.000	0.022	-0.229
-724.879	-108.175	-0.202	-0.044
-723.864	-78.561	-0.232	-0.081
-722.850	-57.272	-0.177	0.079
-721.835	20.035	-0.115	-0.094
-720.821	280.096	0.147	-0.267
-719.806	-200.000	-0.010	-0.122
-718.791	-200.000	-0.004	-0.044
-717.777	-200.000	0.002	0.092
-716.762	168.129	-0.145	-0.210
-715.748	-76.285	0.029	-0.011
-714.733	197.286	-0.197	-0.305
-713.718	-102.558	-0.047	-0.011
-712.704	800.000	0.035	-0.100
-711.689	76.673	-0.109	0.118
-710.675	-200.000	0.033	0.349
-709.660	-84.404	-0.218	-0.070
-708.645	-82.795	-0.185	-0.061
-707.631	116.194	0.215	-0.267
-706.616	-3.749	0.327	0.230
-705.602	-97.816	-0.201	-0.053
-704.587	-200.000	0.026	-0.219
-703.572	-94.370	0.102	0.028
-702.558	157.954	-0.076	-0.107
-701.543	28.902	0.034	-0.029
-700.529	355.059	0.149	0.300
-699.514	-114.742	-0.407	0.079
-698.499	800.000	-0.065	-0.241
-697.485	183.216	-0.036	-0.054
-696.470	341.205	-0.101	0.200
-695.456	-200.000	0.016	0.380
-694.441	-95.998	-0.377	-0.102
-693.426	123.247	0.251	0.319
-692.412	275.170	0.060	0.107
-691.397	-143.732	-0.091	0.009
-690.383	71.217	-0.281	-0.295
-689.368	274.353	-0.125	0.225
-688.354	-85.968	-0.220	0.069
-687.339	-200.000	-0.001	-0.398
-686.324	510.665	0.104	0.246
-685.310	38.519	0.366	-0.331
-684.295	-200.000	0.007	0.145
-683.281	105.128	0.182	0.218
-682.266	521.151	-0.020	-0.047
-681.251	-181.734	-0.318	-0.006
-680.237	450.182	0.093	-0.209
-679.222	38.384	0.031	-0.028
-678.208	-63.910	0.142	-0.059
-677.193	800.000	0.085	0.287
-676.178	800.000	0.051	0.192
-675.164	-22.215	0.240	-0.147
-674.149	199.890	0.155	-0.241
-673.135	-79.984	0.226	0.077
-672.120	-16.261	-0.362	0.233
-671.105	33.600	-0.082	-0.072
-670.091	720.147	0.048	-0.128
-669.076	30.470	-0.230	-0.199
-668.062	-95.045	0.265	-0.073
-667.047	71.865	-0.126	0.132
-666.032	-200.000	0.002	-0.185
-665.018	226.801	-0.104	-0.172
-664.003	-200.000	0.026	0.333
-662.989	-90.638	-0.426	-0.125
-661.974	23.599	0.229	0.191
-660.959	77.968	0.252	-0.272
-659.945	800.000	-0.082	-0.244
-658.930	256.978	0.187	-0.325
-657.916	-141.091	-0.256	-0.026
-656.901	69.154	0.087	0.090
-655.886	113.599	0.133	0.164
-654.872	800.000	-0.070	0.288
-653.857	-24.080	-0.148	-0.090
-652.843	34.453	0.171	0.151
-651.828	-200.000	0.027	0.333
-650.814	-33.204	-0.179	-0.100
-649.799	14.697	0.144	-0.114
-648.784	225.624	-0.214	0.351
-647.770	-11.455	0.062	0.041
-646.755	192.754	0.140	-0.214
-645.741	-78.711	0.149	-0.052
-644.726	-3.072	-0.027	-0.019
-643.711	2.255	0.139	0.102
-642.697	-142.551	0.169	0.017
-641.682	-200.000	0.017	-0.137
-640.668	716.954	-0.077	-0.208
-639.653	129.263	0.141	-0.182
-638.638	35.057	0.128	0.113
-637.624	-3.879	-0.219	-0.154
-636.609	103.362	0.267	-0.317
-635.595	533.570	-0.117	-0.279
-634.580	-200.000	-0.084	-0.485
-633.565	-162.177	0.168	0.009
-632.551	646.719	-0.054	-0.139
-631.536	-200.000	0.017	0.154
-630.522	234.786	0.074	-0.124
-629.507	-112.959	0.288	-0.058
-628.492	-177.090	0.171	0.004
-627.478	800.000	0.056	-0.162
-626.463	-79.685	-0.337	0.115
-625.449	-49.549	-0.224	0.108
-624.434	661.231	0.008	-0.022
-623.419	800.000	0.082	0.263
-622.405	274.467	0.080	-0.144
-621.390	23.125	0.225	-0.186
-620.376	1.695	-0.249	-0.181
-619.361	-101.430	0.226	0.056
-618.346	77.825	-0.061	-0.066
-617.332	-65.415	0.360	-0.147
-616.317	-5.498	-0.259	0.179
-615.303	-68.889	-0.143	0.056
-614.288	-22.541	-0.302	-0.185
-613.273	-68.068	0.286	-0.113
-612.259	9.781	-0.071	0.054
-611.244	-98.654	0.145	0.037
-610.230	-114.235	0.270	-0.053
-609.215	146.971	0.111	-0.150
-608.201	-10.284	-0.265	0.178
-607.186	-97.867	0.190	-0.049
-606.171	-33.668	-0.225	0.125
-605.157	334.848	-0.055	0.107
-604.142	800.000	0.122	-0.425
-603.128	123.761	-0.141	-0.179
-602.113	-200.000	-0.011	0.132
-601.098	267.342	-0.049	-0.087
-600.084	-51.022	0.077	0.037
-599.069	-15.695	0.202	0.130
-598.055	-200.000	0.032	-0.239
-597.040	-155.770	-0.153	-0.010
-596.025	256.294	0.104	0.180
-595.011	606.900	0.111	0.280
-593.996	-79.716	-0.033	-0.011
-592.982	-100.061	-0.313	-0.079
-591.967	-200.000	0.034	-0.363
-590.952	-200.000	-0.008	-0.097
-589.938	547.817	-0.132	-0.320
-588.923	406.758	0.121	-0.259
-587.909	-67.006	-0.267	0.107
-586.894	-200.000	-0.037	0.173
-585.879	130.568	-0.174	0.225
-584.865	-6.315	-0.219	-0.151
-583.850	48.124	0.313	0.296
-582.836	31.181	0.262	0.227
-581.821	-200.000	-0.066	-0.311
-580.806	-49.258	-0.026	0.013
-579.792	-89.393	-0.173	0.051
-578.777	-200.000	-0.012	-0.077
-577.763	143.197	0.141	0.189
-576.748	345.313	0.100	0.198
-575.733	800.000	-0.082	0.273
-574.719	446.850	0.039	-0.086
-573.704	-84.795	0.113	-0.036
-572.690	-29.620	0.386	0.223
-571.675	-160.884	-0.053	0.003
-570.661	-194.423	-0.122	-0.001
-569.646	418.026	0.021	-0.046
-568.631	-20.330	-0.314	-0.195
-567.617	353.958	-0.077	-0.155
-566.602	800.000	-0.054	-0.235
-565.588	295.461	0.138	-0.255
-564.573	-200.000	-0.028	-0.133
-563.558	65.260	-0.073	-0.075
-562.544	-60.970	0.198	-0.084
-561.529	-120.779	-0.201	-0.034
-560.515	47.886	-0.158	-0.148
-559.500	-200.000	0.007	0.070
-558.485	-200.000	-0.026	0.166
-557.471	210.779	-0.204	0.323
-556.456	230.973	-0.049	0.081
-555.442	396.347	-0.067	-0.142
-554.427	335.741	0.136	-0.267
-553.412	-23.049	0.190	-0.115
-552.398	800.000	-0.026	-0.079
-551.383	-200.000	0.000	0.063
-550.369	149.848	0.216	0.295
-549.354	381.113	-0.163	0.338
-548.339	360.714	-0.111	-0.225
-547.325	-183.229	-0.208	-0.004
-546.310	-1.245	0.221	0.158
-545.296	500.165	0.072	0.166
-544.281	800.000	-0.076	-0.240
-543.266	70.984	0.113	0.118
-542.252	-41.423	0.171	0.089
-541.237	-4.810	0.079	0.055
-540.223	259.073	0.079	0.138
-539.208	-116.767	-0.293	-0.054
-538.193	-186.521	-0.058	-0.001
-537.179	-8.528	0.105	0.071
-536.164	-200.000	-0.006	-0.215
-535.150	-48.518	-0.158	-0.077
-534.135	57.804	-0.203	-0.200
-533.121	-14.431	0.422	0.274
-532.106	-200.000	0.003	0.411
-531.091	19.827	0.263	0.213
-530.077	-73.561	0.160	0.059
-529.062	79.520	0.165	0.178
-528.048	-107.877	0.007	-0.001
-527.033	-200.000	-0.319	0.000
-526.018	-122.346	0.195	-0.032
-525.004	72.446	-0.081	0.085
-523.989	-183.531	-0.407	-0.007
-522.975	-67.993	0.133	0.052
-521.960	800.000	-0.049	-0.137
-520.945	54.831	0.134	-0.131
-519.931	-132.586	0.392	0.051
-518.916	-200.000	0.002	0.067
-517.902	-200.000	-0.032	-0.207
-516.887	-122.551	-0.143	0.023
-515.872	413.253	0.068	-0.145
-514.858	-120.541	-0.079	-0.013
-513.843	800.000	0.041	0.158
-512.829	371.648	0.136	0.277
-511.814	-200.000	0.102	0.463
-510.799	-200.000	0.015	0.500
-509.785	-113.236	-0.155	-0.031
-508.770	40.092	-0.287	-0.260
-507.756	-106.743	-0.342	-0.076
-506.741	-79.701	-0.063	0.022
-505.726	-55.848	-0.164	-0.074
-504.712	800.000	0.095	-0.275
-503.697	800.000	-0.092	-0.299
-502.683	-200.000	-0.067	-0.354
-501.668	-124.827	-0.026	0.004
-500.653	245.123	0.146	-0.246
-499.639	-159.996	-0.045	-0.002
-498.624	800.000	-0.018	-0.055
-497.610	123.287	0.105	0.132
-496.595	-112.428	0.095	0.019
-495.581	-200.000	-0.008	-0.149
-494.566	196.975	-0.103	0.158
-493.551	-200.000	-0.007	-0.061
-492.537	-18.560	-0.378	-0.237
-491.522	202.859	0.165	0.256
-490.508	198.380	-0.120	-0.185
-489.493	800.000	0.053	-0.227
-488.478	188.418	0.139	0.209
-487.464	-103.874	-0.187	-0.044
-486.449	-98.415	0.445	0.115
-485.435	45.940	-0.209	0.194
-484.420	-200.000	-0.023	0.166
-483.405	40.536	-0.148	0.134
-482.391	222.867	0.183	-0.297
-481.376	8.673	-0.258	-0.196
-480.362	-136.083	0.216	0.026
-479.347	272.624	-0.029	0.051
-478.332	-68.434	-0.111	-0.043
-477.318	-124.157	-0.162	-0.025
-476.303	-200.000	-0.037	0.193
-475.289	-48.923	0.186	-0.090
-474.274	337.768	-0.062	0.121
-473.259	-200.000	0.001	-0.155
-472.245	-108.899	-0.203	0.044
-471.230	-121.208	-0.376	-0.063
-470.216	-17.202	-0.194	-0.123
-469.201	-153.345	-0.319	0.022
-468.186	59.466	0.020	-0.020
-467.172	183.077	-0.139	-0.207
-466.157	800.000	0.113	-0.371
-465.143	279.591	0.137	-0.246
-464.128	-101.251	-0.270	-0.066
-463.113	29.876	-0.416	-0.356
-462.099	-200.000	0.029	0.265
-461.084	800.000	-0.062	-0.189
-460.070	800.000	0.033	-0.123
-459.055	-62.834	0.175	-0.073
-458.040	479.514	-0.049	-0.111
-457.026	509.134	0.083	-0.194
-456.011	800.000	0.158	0.520
-454.997	-106.188	-0.198	-0.045
-453.982	331.287	-0.098	-0.190
-452.968	16.278	-0.039	-0.031
-451.953	385.604	-0.073	0.151
-450.938	677.520	-0.142	0.370
-449.924	-51.403	-0.091	-0.043
-448.909	373.062	0.098	-0.200
-447.895	-137.670	0.381	0.043
-446.880	-130.294	-0.150	0.021
-445.865	115.595	0.127	0.156
-444.851	209.460	0.061	-0.095
-443.836	-200.000	0.048	-0.276
-442.822	-200.000	0.018	-0.112
-441.807	430.338	0.063	-0.137
-440.792	263.979	0.036	-0.064
-439.778	126.680	-0.051	-0.065
-438.763	63.494	-0.027	0.027
-437.749	189.239	0.143	0.215
-436.734	-7.994	0.111	0.075
-435.719	-200.000	-0.030	0.188
-434.705	-119.555	0.282	0.049
-433.690	-200.000	0.045	0.290
-432.676	-200.000	0.005	0.332
-431.661	-200.000	0.004	-0.033
-430.646	74.757	0.275	0.290
-429.632	-47.262	-0.167	-0.082
-428.617	-190.039	0.084	0.001
-427.603	800.000	0.041	0.159
-426.588	-100.341	-0.189	-0.047
-425.573	-163.579	0.088	0.004
-424.559	-200.000	0.061	0.400
-423.544	41.209	0.035	0.032
-422.530	-97.132	0.156	-0.041
-421.515	800.000	-0.007	-0.021
-420.500	691.467	-0.054	-0.142
-419.486	-70.251	0.232	0.088
-418.471	362.045	-0.099	0.199
-417.457	206.858	0.155	-0.242
-416.442	-122.483	-0.567	-0.093
-415.428	47.761	0.130	0.122
-414.413	-200.000	-0.059	0.269
-413.398	-29.697	-0.114	-0.066
-412.384	191.152	0.142	0.214
-411.369	573.434	0.087	-0.212
-410.355	-13.997	0.161	-0.104
-409.340	-47.374	0.298	-0.145
-408.325	-50.178	-0.141	0.067
-407.311	800.000	0.037	-0.131
-406.296	-200.000	0.016	0.321
-405.282	140.675	0.212	0.280
-404.267	800.000	0.112	0.369
-403.252	17.978	-0.218	0.174
-402.238	69.832	0.267	-0.276
-401.223	-160.382	-0.061	0.003
-400.209	-74.377	0.279	-0.101
-399.194	182.108	-0.044	-0.066
-398.179	-0.998	-0.061	-0.044
-397.165	225.020	0.091	0.148
-396.150	-107.343	-0.160	-0.035
-395.136	-28.173	-0.334	-0.193
-394.121	101.603	0.293	0.342
-393.106	-104.153	-0.165	-0.038
-392.092	10.341	-0.085	0.065
-391.077	-200.000	0.012	-0.392
-390.063	348.015	-0.086	-0.169
-389.048	800.000	-0.075	-0.212
-388.033	-103.783	-0.381	-0.089
-387.019	288.375	-0.207	-0.375
-386.004	800.000	-0.008	0.033
-384.990	94.743	-0.226	-0.257
-383.975	-162.735	-0.219	0.011
-382.960	-149.554	0.049	0.004
-381.946	13.706	0.238	0.185
-380.931	395.538	-0.040	0.084
-379.917	21.717	-0.107	-0.087
-378.902	363.466	-0.096	0.194
-377.888	-96.700	-0.004	-0.001
-376.873	248.913	-0.042	-0.071
-375.858	-11.468	0.075	0.049
-374.844	45.455	-0.232	-0.214
-373.829	-47.323	0.203	0.099
-372.815	70.344	0.090	0.093
-371.800	-143.690	0.146	0.014
-370.785	58.644	-0.062	-0.061
-369.771	-200.000	-0.041	0.384
-368.756	170.709	-0.045	-0.065
-367.742	-200.000	0.062	-0.370
-366.727	-104.545	-0.332	0.077
-365.712	-132.956	-0.264	-0.034
-364.698	-200.000	-0.009	-0.209
-363.683	724.309	0.117	-0.313
-362.669	-200.000	-0.050	-0.326
-361.654	-200.000	-0.003	-0.048
-360.639	-140.801	0.584	0.060
-359.625	760.611	0.081	0.220
-358.610	326.697	0.042	0.080
-357.596	-122.466	0.254	-0.041
-356.581	34.127	-0.274	0.239
-355.566	325.579	-0.049	-0.094
-354.552	153.417	-0.066	-0.091
-353.537	-200.000	0.008	-0.197
-352.523	-51.807	0.310	0.145
-351.508	72.641	0.107	-0.112
-350.493	24.735	0.434	0.360
-349.479	-71.144	0.321	0.121
-348.464	-200.000	-0.043	-0.191
-347.450	-200.000	-0.015	-0.224
-346.435	-115.293	0.362	0.068
-345.420	49.959	0.057	0.054
-344.406	97.252	-0.082	-0.094
-343.391	-69.954	-0.364	0.139
-342.377	200.198	0.013	-0.020
-341.362	-90.167	-0.188	0.055
-340.348	132.454	-0.065	0.084
-339.333	-6.809	-0.203	0.138
-338.318	322.844	0.106	0.201
-337.304	-64.474	0.423	0.172
-336.289	-37.919	0.328	0.174
-335.275	-200.000	0.030	0.461
-334.260	316.014	-0.116	-0.218
-333.245	-72.365	0.195	0.072
-332.231	10.759	-0.152	0.116
-331.216	42.617	-0.058	-0.053
-330.202	-162.926	0.104	0.005
-329.187	364.563	0.059	-0.118
-328.172	150.231	-0.127	-0.173
-327.158	94.375	-0.172	-0.195
-326.143	-200.000	0.023	0.277
-325.129	800.000	-0.097	0.305
-324.114	-173.653	0.239	0.007
-323.099	-57.715	0.166	0.072
-322.085	127.840	0.142	0.180
-321.070	65.447	-0.244	-0.246
-320.056	-200.000	0.011	0.070
-319.041	-139.139	0.296	0.032
-318.026	-200.000	0.025	0.124
-317.012	-43.107	0.282	-0.143
-315.997	-107.942	0.258	0.056
-314.983	92.749	-0.093	0.105
-313.968	-99.581	0.170	0.043
-312.953	289.832	-0.121	0.220
-311.939	-110.981	-0.191	0.039
-310.924	-100.221	-0.053	-0.013
-309.910	254.720	-0.039	-0.067
-308.895	800.000	-0.039	0.134
-307.880	-9.120	0.291	0.194
-306.866	-200.000	-0.041	0.245
-305.851	48.240	-0.188	-0.176
-304.837	-200.000	0.012	-0.373
-303.822	328.986	0.113	-0.217
-302.807	-86.411	0.241	-0.074
-301.793	-200.000	0.054	0.339
-300.778	155.049	0.050	-0.068
-299.764	800.000	0.041	-0.124
-298.749	-57.382	-0.070	-0.031
-297.735	-200.000	-0.013	0.267
-296.720	-200.000	-0.023	-0.236
-295.705	226.877	0.090	0.146
-294.691	32.093	0.102	-0.087
-293.676	98.499	-0.263	-0.303
-292.662	800.000	0.076	-0.312
-291.647	5.868	0.164	0.121
-290.632	209.286	0.067	-0.104
-289.618	-106.453	0.363	0.081
-288.603	800.000	0.050	-0.193
-287.589	252.618	-0.055	-0.094
-286.574	-65.848	-0.236	0.094
-285.559	-96.906	0.265	-0.069
-284.545	-200.000	-0.050	0.220
-283.530	-200.000	-0.069	0.354
-282.516	-143.817	-0.211	0.020
-281.501	-200.000	-0.018	-0.233
-280.486	-159.912	-0.148	-0.008
-279.472	389.642	0.049	-0.102
-278.457	100.488	0.191	0.222
-277.443	91.612	-0.191	0.214
-276.428	-200.000	-0.019	0.112
-275.413	-114.196	0.176	0.034
-274.399	-120.797	0.470	-0.079
-273.384	-200.000	-0.001	-0.318
-272.370	-12.801	0.146	0.095
-271.355	-200.000	0.008	0.165
-270.340	134.508	-0.080	-0.104
-269.326	-167.909	-0.200	-0.008
-268.311	100.407	0.093	0.107
-267.297	-101.950	0.233	-0.056
-266.282	64.647	-0.069	-0.069
-265.267	-107.159	-0.355	-0.078
-264.253	-184.890	-0.372	-0.006
-263.238	48.348	0.297	-0.277
-262.224	-60.254	0.096	-0.041
-261.209	800.000	0.029	-0.109
-260.195	280.355	-0.050	-0.089
-259.180	78.527	-0.116	0.124
-258.165	95.259	-0.138	-0.157
-257.151	800.000	-0.053	0.194
-256.136	-169.807	0.065	-0.002
-255.122	-150.894	-0.144	0.011
-254.107	402.086	0.183	-0.384
-253.092	-200.000	-0.002	0.149
-252.078	166.889	0.094	-0.133
-251.063	59.195	-0.242	0.237
-250.049	-27.335	0.031	-0.018
-249.034	-25.316	-0.223	0.131
-248.019	-200.000	0.294	-0.001
-247.005	800.000	0.068	0.207
-245.990	247.694	-0.158	0.265
-244.976	-55.546	0.128	-0.057
-243.961	35.836	-0.248	0.217
-242.946	104.554	-0.116	0.136
-241.932	159.755	-0.087	-0.120
-240.917	284.252	0.246	-0.441
-239.903	135.522	0.241	-0.312
-238.888	-156.318	-0.062	0.004
-237.873	-41.750	-0.064	0.033
-236.859	-80.684	0.185	-0.061
-235.844	741.803	-0.109	0.293
-234.830	-200.000	-0.017	-0.089
-233.815	-18.406	0.146	0.091
-232.800	-200.000	-0.015	0.159
-231.786	205.887	-0.123	0.190
-230.771	-200.000	0.017	0.284
-229.757	211.931	-0.020	-0.031
-228.742	62.393	-0.105	-0.105
-227.727	-200.000	-0.018	-0.364
-226.713	-26.701	-0.251	0.146
-225.698	93.492	0.131	0.148
-224.684	25.633	-0.083	-0.069
-223.669	-147.528	-0.403	0.034
-222.655	291.096	-0.165	-0.299
-221.640	-200.000	0.007	0.320
-220.625	-200.000	-0.007	-0.250
-219.611	-80.981	-0.153	-0.051
-218.596	91.365	-0.155	-0.173
-217.582	-111.618	-0.040	0.008
-216.567	-200.000	-0.020	-0.090
-215.552	-35.894	-0.335	-0.180
-214.538	-38.890	-0.283	-0.148
-213.523	-16.823	-0.241	0.152
-212.509	-200.000	0.038	-0.311
-211.494	448.382	-0.080	-0.176
-210.479	-200.000	-0.031	-0.175
-209.465	122.905	0.194	0.241
-208.450	343.013	0.049	0.096
-207.436	-21.951	-0.192	-0.116
-206.421	-13.420	-0.295	-0.190
-205.406	12.083	-0.040	-0.031
-204.392	267.077	-0.117	0.203
-203.377	-160.437	0.191	-0.010
-202.363	-122.538	0.142	-0.023
-201.348	46.223	-0.043	0.040
-200.333	38.818	-0.228	-0.203
-199.319	385.114	0.112	0.230
-198.304	-16.327	-0.012	0.007
-197.290	584.462	0.087	-0.213
-196.275	274.523	-0.015	0.027
-195.260	153.879	-0.190	-0.259
-194.246	261.126	-0.162	-0.279
-193.231	142.670	-0.093	0.122
-192.217	174.266	0.184	0.265
-191.202	-108.251	0.102	-0.022
-190.187	800.000	-0.061	-0.174
-189.173	-200.000	-0.011	-0.157
-188.158	111.419	0.306	0.367
-187.144	-200.000	0.026	0.228
-186.129	-148.705	0.147	0.012
-185.114	45.366	-0.098	0.090
-184.100	-182.308	0.073	0.001
-183.085	243.807	-0.045	0.075
-182.071	800.000	-0.061	0.219
-181.056	60.926	-0.262	0.259
-180.042	-200.000	0.029	0.217
-179.027	433.086	0.112	0.242
-178.012	-191.114	0.233	0.002
-176.998	156.165	0.113	0.154
-175.983	-200.000	-0.015	0.073
-174.969	-153.433	-0.308	0.021
-173.954	-106.814	0.161	-0.036
-172.939	691.156	0.048	0.126
-171.925	-97.174	-0.256	0.066
-170.910	176.979	-0.130	0.188
-169.896	-133.538	0.110	0.014
-168.881	-200.000	0.022	-0.147
-167.866	-41.876	0.173	-0.088
-166.852	-200.000	-0.032	0.251
-165.837	96.224	0.126	0.143
-164.823	103.038	-0.124	0.145
-163.808	-82.248	0.203	-0.066
-162.793	-120.425	0.121	-0.020
-161.779	-22.060	-0.203	0.123
-160.764	-22.585	-0.220	-0.132
-159.750	-37.837	-0.146	0.077
-158.735	97.789	-0.146	-0.167
-157.720	-200.000	-0.049	0.284
-156.706	-62.704	0.304	-0.125
-155.691	-0.617	0.283	0.200
-154.677	31.578	0.428	0.365
-153.662	-175.409	0.154	0.004
-152.647	-39.676	-0.259	0.135
-151.633	-86.169	-0.299	-0.092
-150.618	13.146	0.086	0.066
-149.604	-200.000	-0.049	0.299
-148.589	-127.271	0.231	-0.033
-147.574	-200.000	-0.008	0.255
-146.560	583.843	0.064	-0.155
-145.545	-179.592	-0.111	0.002
-144.531	-200.000	-0.009	-0.212
-143.516	-13.241	0.177	-0.114
-142.502	67.469	0.186	0.188
-141.487	26.923	0.142	-0.118
-140.472	5.175	0.290	-0.212
-139.458	800.000	-0.033	-0.127
-138.443	-200.000	0.027	0.359
-137.429	-7.588	-0.383	0.257
-136.414	387.408	-0.019	-0.040
-135.399	-38.523	0.357	-0.187
-134.385	-200.000	0.011	-0.159
-133.370	103.762	0.099	-0.116
-132.356	-15.892	-0.125	0.079
-131.341	800.000	-0.067	-0.228
-130.326	3.552	-0.011	0.008
-129.312	-102.634	0.340	0.080
-128.297	468.090	-0.092	0.204
-127.283	-111.632	-0.227	0.046
-126.268	-63.590	0.093	-0.038
-125.253	-59.168	-0.108	0.046
-124.239	73.208	-0.151	-0.156
-123.224	-142.910	0.298	0.029
-122.210	118.087	-0.231	0.282
