DTS Sentinel unit serial number:	SN413079Multiplexer serial number:	ORYXHardware model number:	OX4-SRSoftware version number:	ORYX F/W v4.00 Oryx Data Collector v3.7.2.0data status	okinstallation	princeton_trtdifferential loss correction	single-endedforward channel	channel 2reverse channel	N/Adate	2019/09/18time	23:27:35forward acquisition time	60.00reverse acquisition time	0.00gamma	496.2192k internal	0.2351k external	0.2351temperature offset calibration	1.0018default loss term (dB/km)	0.3790temperature slope calibration	1.0000multiplexer offset coefficient	1.0000multiplexer slope coefficient	1.0000fibre end	0.00T internal ref (°C)	23.75T ext. ref 1 (°C)	0.76T ext. ref 2 (°C)	16.72length (m)	temperature (°C)	Stokes	anti-Stokes-747.200	751.278	-0.064	0.172
-746.185	12.808	-0.156	-0.120
-745.171	800.000	-0.070	0.245
-744.156	-200.000	0.021	-0.203
-743.142	534.641	0.107	0.253
-742.127	-14.365	-0.120	0.077
-741.112	-122.766	0.023	-0.004
-740.098	-5.630	-0.304	-0.208
-739.083	83.007	0.236	-0.256
-738.069	-200.000	-0.023	0.241
-737.054	-163.483	-0.061	0.003
-736.039	173.766	-0.121	-0.174
-735.025	-200.000	0.065	0.319
-734.010	-87.908	-0.182	-0.055
-732.996	92.797	0.268	0.301
-731.981	-25.553	0.168	0.099
-730.966	-135.958	-0.113	-0.013
-729.952	-169.914	-0.229	0.008
-728.937	325.657	-0.164	0.313
-727.923	-200.000	0.025	-0.257
-726.908	367.779	-0.124	-0.250
-725.894	-11.387	0.152	-0.100
-724.879	-161.437	-0.327	-0.017
-723.864	-14.387	-0.124	-0.080
-722.850	-200.000	0.028	0.125
-721.835	-159.119	-0.368	-0.021
-720.821	-38.422	0.173	-0.091
-719.806	-73.649	-0.115	0.042
-718.791	-200.000	0.001	-0.077
-717.777	-200.000	-0.026	0.514
-716.762	176.288	-0.125	0.181
-715.748	-30.420	-0.282	0.160
-714.733	-200.000	-0.024	-0.209
-713.718	-28.269	-0.224	0.129
-712.704	-200.000	0.019	0.107
-711.689	-126.230	0.151	0.023
-710.675	44.497	0.047	0.043
-709.660	-31.169	-0.493	0.277
-708.645	-129.575	0.307	-0.042
-707.631	303.314	-0.184	-0.339
-706.616	73.009	0.204	-0.213
-705.602	-78.498	-0.292	-0.100
-704.587	-7.533	0.091	0.061
-703.572	762.504	0.102	0.275
-702.558	800.000	-0.084	-0.233
-701.543	104.798	-0.233	-0.273
-700.529	-58.309	-0.016	0.007
-699.514	-71.525	0.125	-0.047
-698.499	107.924	0.097	0.115
-697.485	120.718	-0.194	0.241
-696.470	157.741	-0.124	0.171
-695.456	-24.614	0.196	-0.116
-694.441	698.081	-0.093	-0.243
-693.426	800.000	0.104	-0.415
-692.412	-142.627	-0.336	0.033
-691.397	259.404	-0.106	0.182
-690.383	165.356	-0.047	-0.066
-689.368	90.811	0.157	-0.175
-688.354	426.482	-0.047	0.101
-687.339	-200.000	-0.022	-0.265
-686.324	205.427	-0.055	0.085
-685.310	24.071	0.239	0.197
-684.295	12.635	-0.144	-0.111
-683.281	-200.000	-0.011	-0.122
-682.266	-22.899	-0.334	0.201
-681.251	75.092	0.201	-0.211
-680.237	15.201	0.099	0.077
-679.222	80.585	-0.134	-0.144
-678.208	-193.994	0.136	0.001
-677.193	-5.095	0.093	-0.064
-676.178	93.224	0.113	0.128
-675.164	-9.973	0.118	-0.078
-674.149	-50.061	-0.027	0.013
-673.135	-200.000	0.002	0.113
-672.120	-113.220	0.402	-0.079
-671.105	-31.231	-0.206	-0.115
-670.091	-200.000	-0.005	-0.087
-669.076	75.443	-0.185	-0.195
-668.062	-200.000	0.035	-0.397
-667.047	-14.573	0.194	0.124
-666.032	377.638	-0.120	-0.245
-665.018	-83.844	-0.110	0.035
-664.003	1.486	-0.174	-0.124
-662.989	-194.196	0.343	-0.003
-661.974	474.117	0.120	-0.269
-660.959	68.605	0.311	-0.317
-659.945	12.332	-0.407	-0.312
-658.930	-133.462	0.258	0.032
-657.916	800.000	-0.108	0.422
-656.901	21.276	0.170	0.137
-655.886	103.313	-0.072	-0.084
-654.872	-44.724	0.402	0.200
-653.857	-16.602	0.314	-0.198
-652.843	-103.684	-0.090	-0.021
-651.828	-98.643	-0.204	-0.052
-650.814	42.161	0.314	-0.284
-649.799	126.904	-0.064	0.081
-648.784	518.112	-0.097	0.226
-647.770	447.931	0.171	0.375
-646.755	800.000	-0.148	0.441
-645.741	19.344	-0.230	0.183
-644.726	-200.000	0.060	-0.263
-643.711	-154.363	-0.114	-0.008
-642.697	-93.727	-0.050	0.014
-641.682	342.883	0.118	-0.229
-640.668	253.016	-0.034	-0.058
-639.653	146.216	0.064	0.085
-638.638	30.343	-0.131	0.112
-637.624	-30.336	0.223	-0.126
-636.609	302.294	0.135	-0.248
-635.595	215.404	-0.105	-0.166
-634.580	-28.104	-0.170	-0.098
-633.565	-35.586	-0.076	-0.041
-632.551	-52.847	0.099	-0.045
-631.536	-85.984	-0.079	0.024
-630.522	-37.344	0.141	0.075
-629.507	183.630	0.107	-0.157
-628.492	513.786	-0.011	-0.026
-627.478	-79.118	0.131	-0.044
-626.463	94.627	0.098	0.110
-625.449	83.233	0.131	0.142
-624.434	-200.000	-0.001	-0.009
-623.419	800.000	0.063	0.271
-622.405	-200.000	-0.006	0.038
-621.390	7.065	-0.039	-0.029
-620.376	-72.438	-0.511	0.188
-619.361	46.647	-0.318	-0.293
-618.346	-200.000	-0.049	-0.457
-617.332	-200.000	0.009	0.163
-616.317	-200.000	0.038	-0.245
-615.303	-18.695	-0.200	-0.124
-614.288	660.463	-0.129	0.330
-613.273	19.917	-0.154	-0.123
-612.259	-137.362	0.211	0.024
-611.244	-120.910	-0.177	0.030
-610.230	-98.551	-0.247	-0.063
-609.215	-46.296	0.145	0.071
-608.201	-102.034	0.121	-0.029
-607.186	-99.080	-0.290	-0.073
-606.171	-56.814	-0.322	0.141
-605.157	-36.166	-0.047	0.025
-604.142	192.640	0.142	-0.213
-603.128	338.014	-0.091	0.176
-602.113	540.917	0.061	0.144
-601.098	283.706	-0.147	0.262
-600.084	-200.000	0.012	0.081
-599.069	-200.000	-0.013	-0.191
-598.055	136.350	0.189	0.245
-597.040	800.000	0.055	-0.232
-596.025	15.253	-0.227	-0.177
-595.011	-31.329	0.108	0.061
-593.996	800.000	0.057	0.216
-592.982	14.169	-0.266	0.206
-591.967	44.951	0.088	-0.080
-590.952	-200.000	-0.006	-0.132
-589.938	408.116	0.116	-0.244
-588.923	-200.000	-0.028	-0.145
-587.909	-97.712	0.441	0.113
-586.894	58.194	0.271	0.263
-585.879	800.000	-0.073	-0.199
-584.865	76.347	0.319	-0.335
-583.850	-45.538	-0.146	-0.072
-582.836	4.802	0.259	0.189
-581.821	42.019	-0.196	-0.176
-580.806	182.356	-0.107	0.157
-579.792	304.474	0.169	-0.311
-578.777	46.384	-0.469	0.431
-577.763	-111.405	-0.198	0.040
-576.748	-120.618	-0.259	0.044
-575.733	-44.418	0.328	-0.163
-574.719	-17.348	-0.133	0.083
-573.704	-189.132	-0.298	-0.004
-572.690	265.486	0.181	-0.313
-571.675	173.358	0.144	-0.205
-570.661	-200.000	0.001	0.178
-569.646	-122.386	0.402	0.065
-568.631	124.040	0.368	0.458
-567.617	800.000	0.037	0.115
-566.602	-34.082	-0.231	0.126
-565.588	-200.000	-0.110	-0.483
-564.573	-158.674	0.340	-0.019
-563.558	-200.000	0.003	-0.146
-562.544	-121.342	-0.137	0.023
-561.529	-200.000	0.007	-0.110
-560.515	-18.586	-0.132	0.081
-559.500	86.905	-0.033	0.037
-558.485	-128.902	-0.339	-0.047
-557.471	-198.683	0.209	-0.001
-556.456	-200.000	-0.001	-0.080
-555.442	529.921	0.129	-0.302
-554.427	23.481	0.211	-0.172
-553.412	-38.011	-0.095	0.050
-552.398	-106.147	0.134	0.030
-551.383	791.978	0.093	-0.253
-550.369	54.941	0.242	-0.231
-549.354	-41.085	0.093	0.048
-548.339	-200.000	-0.083	-0.367
-547.325	579.064	-0.022	0.054
-546.310	500.448	-0.085	-0.193
-545.296	-119.529	0.089	-0.015
-544.281	-55.852	-0.142	-0.063
-543.266	-65.952	-0.128	0.051
-542.252	800.000	0.046	-0.135
-541.237	-112.145	0.147	-0.029
-540.223	-200.000	0.009	0.308
-539.208	-25.440	-0.254	0.149
-538.193	800.000	0.006	-0.019
-537.179	-187.933	0.021	-0.000
-536.164	-34.174	-0.102	-0.056
-535.150	-126.844	0.147	-0.021
-534.135	88.473	0.166	-0.183
-533.121	-200.000	-0.087	0.000
-532.106	800.000	0.084	-0.341
-531.091	-27.626	-0.316	0.182
-530.077	-200.000	0.032	-0.169
-529.062	-83.927	0.319	-0.100
-528.048	-141.537	0.291	-0.029
-527.033	800.000	-0.110	0.338
-526.018	535.671	-0.074	0.174
-525.004	211.522	-0.220	-0.343
-523.989	-136.955	-0.465	-0.053
-522.975	538.907	0.179	0.422
-521.960	31.239	-0.253	0.215
-520.945	-111.200	0.219	0.044
-519.931	320.484	0.059	0.112
-518.916	170.772	0.077	0.109
-517.902	-18.711	-0.256	-0.158
-516.887	-131.621	0.067	-0.009
-515.872	-75.019	0.142	-0.050
-514.858	-3.337	-0.196	-0.135
-513.843	141.966	-0.070	0.092
-512.829	-200.000	0.009	0.257
-511.814	90.140	-0.098	0.109
-510.799	800.000	0.091	-0.351
-509.785	47.189	-0.326	0.301
-508.770	-200.000	-0.056	0.319
-507.756	-102.105	-0.037	-0.009
-506.741	-4.744	-0.142	-0.097
-505.726	-200.000	-0.021	0.409
-504.712	677.643	0.071	0.182
-503.697	-23.642	-0.098	0.058
-502.683	-33.247	-0.198	-0.108
-501.668	-200.000	0.041	-0.226
-500.653	37.576	-0.279	0.244
-499.639	-34.006	0.413	-0.225
-498.624	371.510	-0.095	-0.191
-497.610	-39.861	-0.104	0.054
-496.595	313.442	-0.169	-0.314
-495.581	-73.887	0.235	-0.084
-494.566	-40.586	-0.318	-0.163
-493.551	-5.613	-0.163	-0.111
-492.537	-114.230	0.237	-0.045
-491.522	393.755	-0.105	0.216
-490.508	-10.562	-0.145	0.095
-489.493	-200.000	0.045	0.233
-488.478	-200.000	-0.006	0.061
-487.464	-147.426	-0.063	-0.005
-486.449	-42.587	-0.268	0.135
-485.435	-174.238	-0.463	0.013
-484.420	75.688	-0.172	-0.180
-483.405	-200.000	0.014	-0.446
-482.391	196.578	0.125	0.187
-481.376	-170.140	-0.158	-0.006
-480.362	195.505	0.084	0.126
-479.347	30.166	0.103	-0.087
-478.332	-73.253	0.267	-0.097
-477.318	-152.662	-0.107	0.008
-476.303	-117.807	-0.318	-0.056
-475.289	174.247	0.169	0.241
-474.274	22.734	0.243	0.196
-473.259	-107.109	-0.190	0.041
-472.245	-136.243	-0.070	-0.008
-471.230	43.173	0.251	-0.226
-470.216	-200.000	0.032	-0.292
-469.201	58.763	0.110	-0.106
-468.186	11.720	-0.053	-0.040
-467.172	488.438	0.148	-0.334
-466.157	-12.392	-0.163	0.105
-465.143	-200.000	0.024	0.115
-464.128	38.523	-0.062	-0.055
-463.113	-75.009	-0.196	-0.069
-462.099	710.510	-0.028	0.074
-461.084	-159.413	-0.222	-0.012
-460.070	-200.000	0.021	-0.314
-459.055	-75.181	-0.180	0.063
-458.040	-200.000	0.009	0.206
-457.026	289.698	-0.049	-0.087
-456.011	-101.815	0.080	0.019
-454.997	800.000	-0.013	0.053
-453.982	383.341	-0.067	-0.137
-452.968	-192.911	-0.126	0.001
-451.953	-200.000	-0.012	0.378
-450.938	-99.903	-0.223	-0.055
-449.924	165.242	0.171	0.239
-448.909	353.366	0.059	-0.115
-447.895	800.000	-0.072	0.216
-446.880	-178.588	-0.185	-0.004
-445.865	-104.467	0.289	-0.066
-444.851	28.048	0.166	0.138
-443.836	116.403	-0.179	-0.217
-442.822	-19.556	-0.192	-0.118
-441.807	672.123	-0.018	-0.045
-440.792	612.344	-0.131	-0.324
-439.778	800.000	-0.104	0.325
-438.763	-132.848	-0.150	0.019
-437.749	-200.000	0.022	-0.249
-436.734	-200.000	-0.017	-0.139
-435.719	-114.755	0.084	-0.016
-434.705	256.549	-0.026	-0.044
-433.690	182.985	-0.099	-0.144
-432.676	-200.000	-0.069	0.373
-431.661	-30.037	-0.269	-0.151
-430.646	-138.632	0.455	0.049
-429.632	282.258	0.065	-0.115
-428.617	-188.129	-0.040	-0.001
-427.603	-200.000	-0.411	0.001
-426.588	460.639	0.029	-0.064
-425.573	-68.484	0.228	0.087
-424.559	800.000	-0.034	-0.104
-423.544	-107.762	0.310	0.067
-422.530	164.080	0.129	0.179
-421.515	94.255	-0.241	0.270
-420.500	-1.280	-0.094	0.065
-419.486	40.109	-0.209	-0.185
-418.471	-138.077	0.424	0.047
-417.457	45.363	0.098	0.089
-416.442	16.678	-0.144	-0.112
-415.428	61.883	0.354	0.347
-414.413	-131.485	-0.385	-0.050
-413.398	-200.000	0.010	0.048
-412.384	-200.000	0.032	-0.387
-411.369	-152.692	-0.082	-0.006
-410.355	-200.000	0.060	0.311
-409.340	666.782	0.129	0.328
-408.325	-188.315	-0.231	-0.003
-407.311	-200.000	-0.006	-0.097
-406.296	269.920	-0.061	0.106
-405.282	47.512	-0.138	-0.127
-404.267	800.000	-0.120	0.337
-403.252	-200.000	-0.007	0.049
-402.238	-200.000	0.009	-0.248
-401.223	-200.000	0.082	0.377
-400.209	-150.347	-0.515	0.039
-399.194	800.000	0.097	0.351
-398.179	-110.265	0.361	0.074
-397.165	119.421	0.232	-0.283
-396.150	-149.450	0.126	0.010
-395.136	57.542	-0.375	-0.361
-394.121	-40.511	0.397	-0.203
-393.106	800.000	-0.069	0.215
-392.092	-16.735	0.124	0.077
-391.077	88.496	0.137	-0.150
-390.063	-34.387	-0.236	-0.127
-389.048	107.442	0.229	-0.268
-388.033	-200.000	0.097	-0.486
-387.019	-4.431	-0.085	0.058
-386.004	173.573	-0.120	0.170
-384.990	8.094	-0.128	0.094
-383.975	284.148	-0.106	0.188
-382.960	307.245	-0.146	0.268
-381.946	380.919	-0.066	-0.133
-380.931	227.467	0.052	-0.084
-379.917	595.814	-0.070	0.171
-378.902	85.275	-0.149	0.161
-377.888	128.040	-0.053	0.066
-376.873	-72.101	0.231	0.085
-375.858	474.667	0.205	-0.454
-374.844	186.302	-0.183	0.268
-373.829	-169.543	-0.400	0.014
-372.815	-179.979	0.197	-0.004
-371.800	-88.155	-0.200	-0.059
-370.785	-69.151	-0.200	-0.076
-369.771	-18.163	-0.116	-0.071
-368.756	-126.370	0.195	-0.029
-367.742	-200.000	0.014	0.118
-366.727	-120.534	0.331	0.055
-365.712	213.909	-0.081	-0.125
-364.698	-200.000	0.006	0.097
-363.683	800.000	0.070	0.297
-362.669	199.525	0.053	-0.080
-361.654	-200.000	-0.184	-0.001
-360.639	-65.621	-0.016	-0.006
-359.625	-89.182	0.292	-0.085
-358.610	-200.000	0.005	0.117
-357.596	-23.976	0.090	0.053
-356.581	-77.726	0.057	0.019
-355.566	95.926	0.092	-0.103
-354.552	43.579	-0.159	-0.143
-353.537	-200.000	-0.028	-0.307
-352.523	800.000	-0.135	-0.370
-351.508	77.934	0.168	0.176
-350.493	-66.513	0.126	-0.049
-349.479	-38.486	-0.316	0.164
-348.464	-200.000	0.015	0.116
-347.450	577.221	-0.029	0.070
-346.435	-102.528	0.160	0.038
-345.420	-200.000	0.042	-0.248
-344.406	-127.293	0.141	0.020
-343.391	30.464	-0.077	-0.065
-342.377	72.950	0.120	0.123
-341.362	-122.054	0.203	0.033
-340.348	-169.268	0.257	-0.009
-339.333	-2.601	-0.343	-0.236
-338.318	31.820	0.090	0.076
-337.304	124.318	-0.092	0.113
-336.289	-37.525	-0.067	-0.035
-335.275	-47.839	-0.126	0.060
-334.260	6.058	-0.278	0.202
-333.245	-68.016	0.086	0.033
-332.231	100.607	-0.104	-0.119
-331.216	800.000	0.101	0.296
-330.202	53.279	0.115	0.108
-329.187	32.885	0.077	-0.066
-328.172	60.194	-0.211	-0.204
-327.158	34.764	0.360	0.309
-326.143	103.838	0.053	-0.061
-325.129	800.000	0.036	-0.132
-324.114	800.000	-0.128	0.376
-323.099	0.527	-0.124	0.087
-322.085	-119.848	0.158	-0.027
-321.070	-13.813	-0.099	-0.063
-320.056	341.952	-0.090	0.173
-319.041	-38.321	0.119	0.062
-318.026	-200.000	0.046	0.206
-317.012	-200.000	0.020	0.095
-315.997	84.573	-0.110	-0.118
-314.983	-15.557	-0.089	-0.056
-313.968	800.000	-0.037	-0.105
-312.953	-159.814	0.158	0.009
-311.939	-24.928	0.155	0.090
-310.924	800.000	0.051	-0.189
-309.910	800.000	0.024	-0.082
-308.895	13.431	0.306	0.233
-307.880	359.824	0.095	0.187
-306.866	-27.344	0.195	-0.111
-305.851	195.663	0.084	0.126
-304.837	598.941	0.050	-0.121
-303.822	421.252	-0.055	0.115
-302.807	75.191	0.104	0.108
-301.793	-73.763	-0.209	-0.075
-300.778	-200.000	-0.045	-0.246
-299.764	-16.423	-0.251	-0.156
-298.749	-51.939	0.389	-0.177
-297.735	-117.444	0.282	0.050
-296.720	-83.800	-0.218	-0.068
-295.705	-200.000	0.019	0.209
-294.691	6.282	0.166	-0.120
-293.676	-200.000	0.021	0.295
-292.662	-200.000	0.051	-0.230
-291.647	478.078	-0.097	0.215
-290.632	800.000	0.072	-0.223
-289.618	59.304	0.044	-0.043
-288.603	-200.000	0.009	0.070
-287.589	241.974	-0.164	-0.268
-286.574	283.440	0.148	0.261
-285.559	-5.110	-0.053	-0.036
-284.545	193.383	0.087	0.129
-283.530	21.318	-0.163	-0.129
-282.516	575.202	0.005	0.012
-281.501	-15.890	-0.323	-0.202
-280.486	693.549	0.174	0.447
-279.472	-32.751	0.072	-0.039
-278.457	-200.000	0.018	-0.313
-277.443	-200.000	0.051	-0.353
-276.428	800.000	-0.047	0.139
-275.413	270.424	-0.077	0.132
-274.399	-200.000	-0.013	0.131
-273.384	250.018	0.111	-0.184
-272.370	-200.000	-0.075	-0.389
-271.355	115.765	-0.116	-0.139
-270.340	-200.000	0.009	0.209
-269.326	-78.340	-0.221	-0.074
-268.311	509.912	-0.059	0.135
-267.297	653.370	-0.100	-0.251
-266.282	41.385	-0.156	-0.139
-265.267	399.344	-0.066	0.136
-264.253	800.000	0.032	-0.113
-263.238	-21.866	-0.143	-0.085
-262.224	-61.361	-0.181	0.075
-261.209	162.714	0.124	-0.171
-260.195	441.079	-0.034	-0.073
-259.180	126.480	0.093	0.115
-258.165	-17.153	-0.364	0.225
-257.151	143.219	0.097	-0.126
-256.136	133.353	0.194	-0.245
-255.122	456.162	-0.126	0.275
-254.107	800.000	0.078	0.222
-253.092	-81.810	0.296	0.095
-252.078	-200.000	0.010	0.177
-251.063	-93.435	-0.163	0.044
-250.049	-200.000	-0.028	0.296
-249.034	-8.441	-0.129	-0.085
-248.019	43.883	-0.083	-0.075
-247.005	-70.196	0.228	-0.085
-245.990	151.275	0.283	-0.376
-244.976	-44.054	-0.164	0.081
-243.961	73.312	0.043	-0.044
-242.946	5.194	-0.267	0.193
-241.932	449.039	-0.101	0.217
-240.917	-200.000	-0.041	0.194
-239.903	-200.000	-0.010	0.047
-238.888	-17.778	0.167	-0.103
-237.873	92.537	0.269	0.297
-236.859	196.418	-0.072	0.107
-235.844	64.824	0.060	-0.059
-234.830	25.971	-0.296	-0.241
-233.815	-200.000	-0.009	-0.295
-232.800	751.069	0.086	-0.227
-231.786	246.152	0.116	0.192
-230.771	-120.719	0.122	0.020
-229.757	-73.217	0.297	-0.107
-228.742	-27.086	0.051	-0.029
-227.727	72.616	0.227	0.232
-226.713	-97.680	-0.100	-0.025
-225.698	83.743	0.162	-0.172
-224.684	-118.250	0.031	0.005
-223.669	-84.413	0.191	0.059
-222.655	46.925	0.209	0.190
-221.640	-200.000	-0.010	0.161
-220.625	82.608	-0.084	0.089
-219.611	201.358	0.084	-0.126
-218.596	-2.013	0.308	-0.212
-217.582	170.302	-0.045	-0.062
-216.567	-9.617	-0.286	-0.187
-215.552	-200.000	0.015	-0.085
-214.538	105.835	-0.111	0.128
-213.523	710.270	0.090	-0.233
-212.509	-99.629	0.230	-0.056
-211.494	800.000	-0.061	0.188
-210.479	-200.000	0.021	-0.163
-209.465	310.202	0.186	0.341
-208.450	-134.087	-0.261	0.031
-207.436	-83.218	0.243	0.076
-206.421	-131.514	0.258	0.033
-205.406	800.000	-0.159	0.431
-204.392	-6.373	0.104	0.069
-203.377	-75.919	0.174	0.060
-202.363	-131.275	0.227	-0.029
-201.348	345.832	0.107	0.205
-200.333	412.452	-0.016	0.033
-199.319	-89.547	0.178	0.051
-198.304	-42.336	0.202	0.101
-197.290	-200.000	-0.006	-0.087
-196.275	240.345	0.120	-0.195
-195.260	-9.238	0.100	-0.065
-194.246	-36.046	0.166	0.088
-193.231	-164.145	0.192	-0.009
-192.217	-160.214	0.228	0.012
-191.202	-118.412	0.180	-0.031
-190.187	152.023	-0.087	0.116
-189.173	56.821	0.158	0.150
-188.158	-105.650	0.091	-0.020
-187.144	-200.000	0.027	-0.128
-186.129	10.985	-0.291	0.217
-185.114	105.829	0.161	0.186
-184.100	142.415	0.304	-0.394
-183.085	209.599	0.079	-0.120
-182.071	386.568	0.066	0.132
-181.056	207.230	-0.100	-0.152
-180.042	228.869	0.172	-0.273
-179.027	62.515	-0.150	0.146
-178.012	800.000	0.061	-0.202
-176.998	-124.469	-0.628	-0.095
-175.983	456.359	0.042	0.091
-174.969	74.982	-0.310	-0.319
-173.954	-105.849	0.069	0.015
-172.939	263.643	0.173	0.294
-171.925	800.000	-0.021	-0.072
-170.910	-72.142	0.271	0.098
-169.896	-57.654	-0.111	-0.047
-168.881	-9.302	-0.113	-0.074
-167.866	-51.860	-0.334	0.151
-166.852	149.621	0.234	-0.309
-165.837	-11.244	0.167	0.107
-164.823	-92.476	-0.240	-0.066
-163.808	-200.000	0.025	-0.206
-162.793	547.514	0.105	-0.244
-161.779	107.581	0.097	-0.113
-160.764	82.313	-0.166	0.175
-159.750	-75.494	0.162	-0.056
-158.735	800.000	0.089	-0.321
-157.720	602.270	-0.019	0.047
-156.706	103.082	0.181	0.207
-155.691	-200.000	0.081	0.385
-154.677	108.890	-0.093	0.108
-153.662	-141.722	-0.080	-0.008
-152.647	100.713	0.114	0.129
-151.633	-12.661	0.081	0.051
-150.618	17.733	0.243	0.188
-149.604	-23.172	-0.122	0.072
-148.589	-140.212	0.224	-0.023
-147.574	504.036	0.159	0.358
-146.560	140.846	-0.207	0.267
-145.545	-162.969	-0.194	-0.009
-144.531	-124.641	-0.309	-0.047
-143.516	-136.018	0.338	0.039
-142.502	800.000	-0.022	0.088
-141.487	-77.350	0.350	-0.118
-140.472	800.000	-0.026	-0.100
-139.458	800.000	-0.034	0.096
-138.443	202.988	-0.105	0.158
-137.429	76.840	-0.057	0.059
-136.414	360.086	0.059	-0.114
-135.399	-22.148	-0.220	-0.130
-134.385	230.637	0.131	-0.209
-133.370	48.773	0.063	0.058
-132.356	-200.000	0.018	-0.233
-131.341	-143.298	0.182	-0.017
-130.326	-200.000	-0.004	0.414
-129.312	200.656	-0.022	0.032
-128.297	-200.000	0.019	0.294
-127.283	85.258	0.062	-0.066
-126.268	-14.514	0.046	0.029
-125.253	358.490	-0.088	-0.171
-124.239	13.461	-0.211	-0.159
-123.224	663.073	0.065	-0.164
-122.210	-182.549	0.138	0.002
-121.195	-200.000	0.037	0.384
