DTS Sentinel unit serial number:	SN413079Multiplexer serial number:	ORYXHardware model number:	OX4-SRSoftware version number:	ORYX F/W v4.00 Oryx Data Collector v3.7.2.0data status	okinstallation	princeton_trtdifferential loss correction	single-endedforward channel	channel 2reverse channel	N/Adate	2019/09/12time	21:31:34forward acquisition time	60.00reverse acquisition time	0.00gamma	496.2192k internal	0.2329k external	0.2329temperature offset calibration	1.0167default loss term (dB/km)	0.3790temperature slope calibration	1.0000multiplexer offset coefficient	1.0000multiplexer slope coefficient	1.0000fibre end	0.00T internal ref (°C)	30.42T ext. ref 1 (°C)	3.67T ext. ref 2 (°C)	25.03length (m)	temperature (°C)	Stokes	anti-Stokes-747.200	362.005	0.130	-0.264
-746.185	125.754	-0.300	-0.382
-745.171	158.793	0.185	-0.259
-744.156	289.646	0.213	-0.389
-743.142	-111.850	0.176	-0.036
-742.127	-200.000	-0.036	0.268
-741.112	-200.000	0.024	-0.465
-740.098	128.328	0.165	-0.212
-739.083	234.153	-0.050	0.083
-738.069	-19.530	-0.398	-0.248
-737.054	69.569	0.262	0.271
-736.039	800.000	0.077	-0.227
-735.025	-97.531	0.250	0.066
-734.010	-142.887	-0.123	0.012
-732.996	-51.703	-0.135	0.063
-731.981	-200.000	-0.045	-0.306
-730.966	291.765	-0.063	0.115
-729.952	-87.451	-0.276	-0.084
-728.937	-200.000	0.006	0.343
-727.923	-82.989	-0.320	0.104
-726.908	800.000	-0.038	-0.169
-725.894	-200.000	-0.021	-0.153
-724.879	-26.992	-0.413	-0.243
-723.864	16.251	-0.092	-0.073
-722.850	54.070	0.160	-0.155
-721.835	-68.896	0.222	-0.086
-720.821	-62.146	0.158	-0.066
-719.806	337.283	0.216	0.423
-718.791	-101.067	-0.148	-0.037
-717.777	-7.121	-0.226	-0.154
-716.762	-116.236	0.460	0.086
-715.748	436.957	-0.074	-0.163
-714.733	19.381	0.172	-0.139
-713.718	-56.001	-0.376	-0.169
-712.704	-200.000	-0.050	-0.537
-711.689	74.676	-0.292	-0.310
-710.675	61.011	-0.112	-0.112
-709.660	-128.277	0.186	0.027
-708.645	101.197	0.218	0.256
-707.631	450.147	0.165	-0.365
-706.616	800.000	0.045	0.129
-705.602	190.492	0.147	-0.222
-704.587	222.319	0.051	0.083
-703.572	-5.691	0.050	0.034
-702.558	125.304	0.003	0.004
-701.543	548.785	-0.057	-0.138
-700.529	-20.136	0.329	-0.204
-699.514	-200.000	-0.067	-0.449
-698.499	39.279	-0.209	0.188
-697.485	24.219	-0.231	-0.192
-696.470	-67.587	-0.099	-0.039
-695.456	-200.000	-0.028	0.288
-694.441	12.232	-0.164	-0.127
-693.426	281.981	-0.042	-0.075
-692.412	684.067	0.026	0.068
-691.397	-25.678	-0.161	-0.096
-690.383	-156.236	0.070	0.004
-689.368	75.110	-0.141	-0.149
-688.354	800.000	0.091	-0.290
-687.339	120.762	-0.135	0.168
-686.324	-28.758	0.090	-0.052
-685.310	-124.982	-0.167	0.026
-684.295	-200.000	0.002	0.009
-683.281	800.000	-0.080	0.289
-682.266	-200.000	0.009	-0.158
-681.251	406.105	-0.128	-0.272
-680.237	191.172	0.145	-0.220
-679.222	-106.819	0.091	0.020
-678.208	134.577	-0.205	-0.267
-677.193	129.430	-0.084	-0.107
-676.178	-200.000	-0.025	-0.110
-675.164	79.981	-0.074	-0.079
-674.149	-200.000	-0.005	0.088
-673.135	136.925	0.101	0.132
-672.120	6.237	0.205	-0.153
-671.105	-124.076	-0.237	-0.037
-670.091	127.960	0.180	-0.230
-669.076	21.549	-0.154	-0.126
-668.062	-7.718	0.046	-0.031
-667.047	-146.538	-0.023	-0.002
-666.032	544.062	-0.032	-0.077
-665.018	9.537	-0.137	0.104
-664.003	116.834	-0.231	0.285
-662.989	174.541	-0.245	-0.356
-661.974	557.500	0.104	-0.251
-660.959	-109.654	0.474	-0.100
-659.945	210.821	0.172	0.271
-658.930	-114.007	0.360	-0.070
-657.916	753.108	-0.132	-0.358
-656.901	464.302	0.153	0.343
-655.886	-39.373	0.255	0.134
-654.872	190.378	-0.212	-0.319
-653.857	-200.000	-0.053	0.363
-652.843	19.926	0.164	-0.133
-651.828	-191.672	0.353	0.004
-650.814	-121.232	-0.173	-0.029
-649.799	-177.462	0.312	0.008
-648.784	104.163	0.088	-0.104
-647.770	-44.829	-0.190	0.095
-646.755	-200.000	-0.001	-0.123
-645.741	-150.651	-0.248	-0.019
-644.726	800.000	0.101	-0.320
-643.711	488.872	-0.039	-0.090
-642.697	-120.471	0.157	0.027
-641.682	418.321	-0.035	0.075
-640.668	68.052	-0.061	0.063
-639.653	724.978	0.140	0.373
-638.638	-77.390	0.285	0.099
-637.624	-92.675	-0.296	0.083
-636.609	30.169	-0.208	0.178
-635.595	-191.786	-0.086	0.001
-634.580	377.720	0.158	-0.323
-633.565	680.483	0.018	0.046
-632.551	-38.702	0.132	0.070
-631.536	199.440	-0.107	0.164
-630.522	-177.584	-0.129	0.003
-629.507	-29.504	0.178	0.102
-628.492	-1.972	-0.289	-0.204
-627.478	-76.398	-0.335	-0.118
-626.463	-82.272	-0.358	0.117
-625.449	-0.952	-0.084	-0.060
-624.434	-195.903	0.253	0.002
-623.419	51.662	0.252	0.241
-622.405	-92.377	0.195	0.055
-621.390	13.185	-0.158	-0.123
-620.376	25.068	0.027	0.023
-619.361	449.976	-0.122	0.270
-618.346	-200.000	0.060	-0.272
-617.332	-200.000	0.011	0.088
-616.317	232.026	-0.070	-0.116
-615.303	-116.862	-0.228	0.042
-614.288	121.750	-0.184	-0.230
-613.273	242.918	0.132	-0.221
-612.259	-159.087	0.363	-0.021
-611.244	101.458	-0.103	-0.121
-610.230	-63.789	0.083	-0.034
-609.215	800.000	-0.068	-0.236
-608.201	800.000	-0.068	-0.225
-607.186	318.621	-0.055	0.105
-606.171	2.449	0.133	-0.097
-605.157	-130.646	0.251	0.034
-604.142	-94.756	0.133	0.036
-603.128	83.658	-0.158	-0.173
-602.113	-16.668	0.141	0.089
-601.098	218.326	0.167	0.267
-600.084	-140.124	-0.285	0.030
-599.069	96.463	-0.102	-0.117
-598.055	-200.000	0.290	0.001
-597.040	63.264	-0.249	-0.251
-596.025	106.555	-0.133	0.158
-595.011	-192.710	0.351	0.003
-593.996	6.995	0.232	-0.173
-592.982	-200.000	0.006	-0.139
-591.967	-200.000	-0.011	0.195
-590.952	-59.981	0.136	-0.058
-589.938	5.783	-0.018	0.014
-588.923	81.134	0.027	0.030
-587.909	-19.083	-0.152	0.095
-586.894	134.196	0.102	0.133
-585.879	39.591	-0.077	0.069
-584.865	90.048	-0.264	-0.296
-583.850	-39.586	-0.090	0.047
-582.836	315.670	-0.077	0.145
-581.821	383.753	-0.092	-0.189
-580.806	-200.000	-0.058	-0.488
-579.792	674.620	-0.042	-0.110
-578.777	-39.178	0.190	0.100
-577.763	502.133	0.093	-0.214
-576.748	800.000	-0.077	-0.232
-575.733	27.802	-0.268	-0.226
-574.719	-200.000	0.008	-0.241
-573.704	132.767	0.243	0.314
-572.690	-71.090	-0.384	-0.145
-571.675	-56.747	-0.111	0.049
-570.661	-65.789	0.122	0.049
-569.646	-110.392	0.128	0.027
-568.631	-38.344	-0.085	-0.045
-567.617	800.000	-0.058	0.191
-566.602	-87.907	0.176	-0.053
-565.588	-200.000	-0.031	-0.167
-564.573	-13.683	-0.129	-0.083
-563.558	-200.000	-0.047	0.244
-562.544	800.000	-0.029	0.116
-561.529	-95.339	0.199	-0.054
-560.515	240.623	-0.065	-0.108
-559.500	464.773	0.103	0.230
-558.485	-25.918	-0.212	0.125
-557.471	28.643	0.209	-0.177
-556.456	-30.045	-0.274	-0.156
-555.442	-65.242	-0.342	-0.138
-554.427	97.096	-0.189	0.217
-553.412	-5.664	0.117	-0.080
-552.398	-200.000	-0.035	0.223
-551.383	26.375	-0.122	-0.102
-550.369	-114.912	0.397	-0.076
-549.354	555.496	0.042	-0.102
-548.339	-137.809	0.194	-0.022
-547.325	-44.479	-0.227	-0.113
-546.310	-200.000	0.038	0.170
-545.296	-200.000	-0.002	-0.253
-544.281	-200.000	-0.014	0.097
-543.266	-75.421	-0.172	0.061
-542.252	800.000	0.060	0.183
-541.237	-80.746	0.401	0.133
-540.223	-186.019	-0.279	0.004
-539.208	129.730	0.199	-0.254
-538.193	-42.362	0.190	-0.097
-537.179	800.000	-0.121	0.417
-536.164	-200.000	-0.011	-0.291
-535.150	125.529	0.037	0.047
-534.135	-52.296	0.349	0.161
-533.121	-70.015	-0.358	-0.136
-532.106	11.811	0.181	-0.139
-531.091	-89.049	0.033	0.010
-530.077	11.063	-0.255	-0.195
-529.062	-200.000	0.012	-0.064
-528.048	245.571	-0.108	0.181
-527.033	-161.954	-0.332	0.017
-526.018	297.806	0.042	0.077
-525.004	800.000	0.091	-0.387
-523.989	178.947	-0.061	-0.088
-522.975	114.171	-0.091	0.111
-521.960	3.752	0.080	0.059
-520.945	800.000	0.105	-0.297
-519.931	800.000	-0.061	0.216
-518.916	155.919	0.171	-0.236
-517.902	184.637	0.118	0.175
-516.887	11.567	-0.148	-0.113
-515.872	-5.827	0.368	0.252
-514.858	800.000	0.021	0.088
-513.843	-66.380	-0.236	-0.094
-512.829	753.396	0.103	0.279
-511.814	-44.572	-0.214	-0.107
-510.799	-85.445	0.214	0.066
-509.785	-43.359	-0.050	-0.025
-508.770	-99.144	0.098	0.025
-507.756	617.332	0.138	-0.345
-506.741	286.130	-0.112	0.201
-505.726	105.163	-0.217	0.255
-504.712	191.039	-0.049	0.074
-503.697	-122.172	0.040	-0.007
-502.683	-200.000	0.031	0.154
-501.668	174.005	-0.158	0.227
-500.653	-39.609	0.264	-0.138
-499.639	-200.000	-0.047	0.321
-498.624	-139.184	-0.131	0.014
-497.610	18.664	-0.179	-0.143
-496.595	29.740	0.214	-0.182
-495.581	99.340	0.066	-0.076
-494.566	-33.179	-0.254	0.141
-493.551	-34.857	-0.323	-0.176
-492.537	800.000	0.083	0.331
-491.522	58.737	-0.123	0.121
-490.508	-19.989	0.340	-0.210
-489.493	-65.349	0.401	-0.161
-488.478	37.202	-0.030	0.027
-487.464	-89.174	-0.354	0.104
-486.449	322.484	-0.046	-0.088
-485.435	272.129	0.131	-0.231
-484.420	-124.186	0.246	0.038
-483.405	-87.448	0.310	-0.094
-482.391	-200.000	0.006	0.288
-481.376	-78.047	0.316	0.108
-480.362	800.000	0.046	-0.169
-479.347	223.504	0.104	-0.167
-478.332	-200.000	-0.034	-0.372
-477.318	167.306	-0.156	-0.221
-476.303	75.450	0.127	-0.134
-475.289	-160.800	0.285	-0.015
-474.274	-200.000	0.022	-0.277
-473.259	202.439	-0.032	-0.049
-472.245	800.000	-0.084	-0.335
-471.230	-166.013	-0.076	0.003
-470.216	800.000	0.010	-0.035
-469.201	-180.035	0.275	-0.006
-468.186	83.477	-0.307	-0.334
-467.172	462.397	-0.017	0.037
-466.157	-30.604	-0.275	0.155
-465.143	-200.000	-0.080	0.362
-464.128	195.909	-0.089	0.134
-463.113	-66.758	0.227	0.090
-462.099	-6.219	-0.120	-0.082
-461.084	2.104	0.130	-0.093
-460.070	-200.000	-0.055	0.430
-459.055	-33.315	-0.072	-0.040
-458.040	-111.688	-0.239	-0.048
-457.026	-29.425	-0.212	-0.121
-456.011	-200.000	0.004	-0.026
-454.997	-198.311	0.096	0.001
-453.982	688.659	-0.089	0.232
-452.968	282.445	-0.036	-0.065
-451.953	-200.000	0.015	-0.286
-450.938	-200.000	0.009	-0.089
-449.924	-68.732	0.249	-0.096
-448.909	-99.615	0.215	0.054
-447.895	379.992	0.158	-0.323
-446.880	42.147	-0.133	0.120
-445.865	-3.040	-0.287	0.199
-444.851	800.000	0.053	-0.176
-443.836	59.689	0.124	0.122
-442.822	800.000	0.072	0.242
-441.807	-200.000	-0.004	-0.292
-440.792	459.307	0.061	-0.135
-439.778	-107.848	0.161	0.035
-438.763	329.796	0.185	-0.354
-437.749	119.952	-0.080	0.099
-436.734	800.000	-0.075	0.241
-435.719	52.057	-0.162	-0.153
-434.705	-164.488	-0.258	0.012
-433.690	-200.000	-0.051	-0.271
-432.676	-146.809	0.259	-0.022
-431.661	-200.000	0.094	0.415
-430.646	65.289	0.322	0.324
-429.632	-65.364	0.123	-0.049
-428.617	-200.000	-0.010	-0.197
-427.603	-62.162	0.079	0.033
-426.588	308.063	-0.088	0.163
-425.573	182.870	0.255	-0.375
-424.559	-58.230	-0.310	0.134
-423.544	637.527	0.027	-0.067
-422.530	-59.944	0.073	-0.031
-421.515	139.919	0.097	-0.127
-420.500	-200.000	0.002	-0.101
-419.486	95.622	0.183	0.207
-418.471	9.455	-0.275	-0.207
-417.457	122.945	0.273	0.340
-416.442	800.000	-0.038	-0.124
-415.428	53.700	-0.128	0.122
-414.413	800.000	-0.039	0.111
-413.398	800.000	-0.058	0.226
-412.384	-40.781	0.265	0.137
-411.369	-200.000	-0.024	-0.166
-410.355	-200.000	-0.008	0.085
-409.340	-98.214	-0.083	-0.021
-408.325	-108.394	0.311	-0.067
-407.311	-129.504	-0.196	0.027
-406.296	220.349	-0.236	0.376
-405.282	246.090	0.114	-0.191
-404.267	500.737	-0.080	-0.183
-403.252	-39.356	0.273	0.142
-402.238	-200.000	-0.026	-0.166
-401.223	153.935	0.159	-0.216
-400.209	800.000	-0.096	0.290
-399.194	-122.457	-0.157	0.025
-398.179	65.250	0.163	-0.164
-397.165	-5.046	0.143	-0.098
-396.150	-44.322	-0.283	-0.141
-395.136	-200.000	-0.017	-0.177
-394.121	-83.885	0.219	-0.069
-393.106	-22.976	-0.311	0.187
-392.092	21.994	0.276	-0.224
-391.077	-31.459	0.078	0.043
-390.063	-200.000	-0.020	0.160
-389.048	800.000	0.038	0.160
-388.033	150.289	-0.130	0.175
-387.019	133.289	0.018	-0.023
-386.004	-93.210	-0.446	0.123
-384.990	40.526	-0.054	-0.048
-383.975	115.794	-0.140	-0.171
-382.960	173.106	-0.060	-0.086
-381.946	61.824	0.182	0.180
-380.931	30.460	-0.054	-0.046
-379.917	-200.000	0.012	-0.065
-378.902	387.108	0.048	-0.099
-377.888	-175.302	-0.151	0.004
-376.873	-200.000	0.017	-0.084
-375.858	-200.000	0.003	0.049
-374.844	-200.000	0.064	0.500
-373.829	-91.404	0.290	-0.082
-372.815	124.334	0.122	0.153
-371.800	3.355	0.130	0.094
-370.785	-200.000	0.046	0.362
-369.771	37.904	-0.072	-0.064
-368.756	-6.215	0.016	0.011
-367.742	391.462	-0.115	-0.236
-366.727	-200.000	-0.018	-0.177
-365.712	183.977	-0.101	0.149
-364.698	800.000	0.016	0.061
-363.683	-86.481	-0.211	0.064
-362.669	-119.326	-0.378	0.065
-361.654	-24.564	-0.110	0.065
-360.639	-66.686	-0.300	-0.118
-359.625	11.492	-0.128	0.097
-358.610	-200.000	0.020	0.257
-357.596	-200.000	-0.051	-0.283
-356.581	517.354	-0.061	0.142
-355.566	633.842	0.163	0.411
-354.552	-56.172	-0.205	-0.091
-353.537	551.074	0.094	0.224
-352.523	800.000	0.074	-0.246
-351.508	-86.552	0.412	-0.125
-350.493	-97.459	0.306	0.079
-349.479	-106.085	0.406	0.090
-348.464	89.837	-0.213	-0.236
-347.450	-200.000	-0.054	-0.442
-346.435	-45.217	0.208	-0.103
-345.420	80.927	0.091	0.097
-344.406	5.247	-0.338	-0.247
-343.391	39.079	0.222	0.196
-342.377	150.559	-0.164	0.221
-341.362	-85.390	-0.205	0.063
-340.348	-200.000	0.010	-0.282
-339.333	800.000	-0.045	0.152
-338.318	-84.731	0.245	0.076
-337.304	403.312	0.032	-0.067
-336.289	-89.861	-0.169	0.049
-335.275	-15.960	-0.271	-0.171
-334.260	245.881	-0.312	0.521
-333.245	372.534	-0.074	0.149
-332.231	800.000	-0.062	-0.256
-331.216	-22.096	-0.193	0.116
-330.202	117.776	0.200	0.245
-329.187	154.291	0.019	0.026
-328.172	31.361	-0.104	0.088
-327.158	-26.689	0.048	0.028
-326.143	-138.693	-0.397	0.043
-325.129	-22.413	0.183	-0.110
-324.114	-49.541	-0.275	0.130
-323.099	-200.000	0.014	-0.145
-322.085	88.143	-0.194	0.213
-321.070	-188.700	0.380	-0.005
-320.056	111.150	0.172	-0.206
-319.041	98.155	0.189	-0.216
-318.026	42.638	0.295	-0.266
-317.012	-74.658	0.099	-0.035
-315.997	-70.603	0.064	-0.024
-314.983	-10.804	-0.106	0.069
-313.968	-29.683	-0.140	0.079
-312.953	259.651	-0.106	-0.181
-311.939	-37.544	-0.205	0.108
-310.924	-78.884	-0.240	0.081
-309.910	-106.565	0.312	-0.069
-308.895	38.150	0.157	-0.138
-307.880	-95.468	-0.132	-0.035
-306.866	684.375	0.055	0.142
-305.851	451.726	0.061	-0.134
-304.837	800.000	0.034	0.102
-303.822	172.909	-0.106	-0.151
-302.807	-32.899	0.241	0.133
-301.793	565.840	0.091	0.219
-300.778	-108.923	-0.516	0.109
-299.764	-10.555	0.046	0.030
-298.749	-115.210	0.296	-0.056
-297.735	-61.566	0.148	-0.062
-296.720	-61.651	-0.254	-0.105
-295.705	-116.604	0.167	0.030
-294.691	-28.918	-0.134	-0.076
-293.676	197.174	0.094	-0.142
-292.662	-115.521	0.235	0.044
-291.647	-110.619	-0.198	0.041
-290.632	-52.546	-0.127	0.058
-289.618	45.720	0.203	0.186
-288.603	127.196	-0.289	0.362
-287.589	295.850	0.137	0.248
-286.574	-127.631	-0.201	0.029
-285.559	-5.545	0.173	-0.117
-284.545	37.948	-0.204	-0.179
-283.530	54.010	-0.068	-0.065
-282.516	-54.199	0.140	-0.063
-281.501	-200.000	-0.004	-0.198
-280.486	-44.185	0.086	0.043
-279.472	-165.151	0.143	0.006
-278.457	97.207	0.191	0.217
-277.443	277.331	-0.177	0.312
-276.428	-188.085	-0.441	0.006
-275.413	418.158	0.131	-0.277
-274.399	11.101	-0.082	0.062
-273.384	-144.684	0.348	-0.032
-272.370	122.717	0.101	0.125
-271.355	188.432	0.065	0.096
-270.340	-104.343	0.220	0.051
-269.326	-200.000	-0.009	0.290
-268.311	-100.518	0.245	-0.060
-267.297	705.332	0.042	-0.110
-266.282	91.057	-0.171	-0.190
-265.267	-37.772	-0.145	0.076
-264.253	257.005	-0.113	-0.192
-263.238	-200.000	0.047	-0.222
-262.224	800.000	0.065	-0.235
-261.209	-64.020	-0.300	0.121
-260.195	-69.658	-0.143	0.054
-259.180	800.000	-0.046	-0.179
-258.165	-108.344	-0.329	0.070
-257.151	-51.889	0.148	-0.068
-256.136	-200.000	-0.023	-0.118
-255.122	57.514	0.230	-0.222
-254.107	-200.000	-0.037	-0.462
-253.092	-100.360	0.417	0.102
-252.078	-200.000	-0.052	-0.234
-251.063	-77.527	0.162	-0.055
-250.049	-200.000	-0.012	0.256
-249.034	-200.000	-0.001	0.183
-248.019	213.227	0.116	0.181
-247.005	-200.000	-0.005	-0.038
-245.990	-46.259	0.128	-0.062
-244.976	42.074	0.083	0.074
-243.961	138.532	0.110	-0.143
-242.946	-90.287	-0.258	-0.074
-241.932	42.595	0.051	-0.046
-240.917	436.903	-0.146	0.315
-239.903	-140.908	0.399	-0.041
-238.888	330.734	-0.064	0.122
-237.873	-89.142	-0.167	-0.049
-236.859	189.366	-0.078	0.116
-235.844	-160.043	0.138	-0.007
-234.830	-30.161	-0.044	-0.025
-233.815	800.000	-0.069	-0.209
-232.800	-200.000	-0.005	0.068
-231.786	-23.426	0.220	0.131
-230.771	-91.948	-0.365	0.102
-229.757	800.000	-0.064	-0.220
-228.742	332.175	-0.099	0.189
-227.727	-69.357	0.175	-0.066
-226.713	-200.000	-0.002	0.125
-225.698	42.808	0.306	-0.275
-224.684	232.929	-0.038	0.062
-223.669	-143.788	0.342	-0.032
-222.655	191.920	-0.112	0.167
-221.640	-200.000	0.008	-0.183
-220.625	-95.404	-0.299	0.079
-219.611	-200.000	0.009	-0.108
-218.596	167.451	-0.095	-0.134
-217.582	800.000	-0.024	0.090
-216.567	56.189	0.035	0.033
-215.552	800.000	-0.045	0.173
-214.538	-200.000	0.048	-0.420
-213.523	-200.000	-0.001	0.010
-212.509	296.810	-0.188	-0.340
-211.494	800.000	-0.094	0.295
-210.479	800.000	-0.033	0.124
-209.465	-99.688	-0.391	0.097
-208.450	-200.000	0.029	-0.163
-207.436	78.632	0.076	0.080
-206.421	-40.230	0.250	0.128
-205.406	71.323	0.054	-0.055
-204.392	800.000	-0.040	-0.127
-203.377	-19.064	-0.133	0.082
-202.363	800.000	-0.101	0.320
-201.348	800.000	0.064	0.203
-200.333	800.000	0.030	-0.126
-199.319	367.900	-0.088	-0.176
-198.304	195.201	-0.137	0.206
-197.290	32.213	-0.199	-0.169
-196.275	209.288	-0.056	0.087
-195.260	-156.254	0.246	0.015
-194.246	-200.000	-0.056	0.534
-193.231	-70.021	0.220	0.083
-192.217	19.873	-0.113	-0.090
-191.202	-23.957	0.288	0.170
-190.187	800.000	-0.089	-0.340
-189.173	-142.123	0.317	-0.031
-188.158	-200.000	-0.009	0.072
-187.144	394.615	-0.172	0.354
-186.129	-73.704	0.251	0.090
-185.114	167.783	-0.193	0.271
-184.100	139.181	0.051	-0.066
-183.085	-61.832	-0.276	0.114
-182.071	33.531	-0.188	0.161
-181.056	-55.722	0.069	-0.030
-180.042	-4.533	-0.117	0.079
-179.027	-200.000	-0.002	-0.096
-178.012	34.556	-0.102	0.088
-176.998	489.294	0.077	0.174
-175.983	800.000	0.081	-0.301
-174.969	-200.000	0.013	-0.216
-173.954	21.365	-0.022	0.018
-172.939	692.280	0.088	-0.226
-171.925	8.245	-0.045	-0.033
-170.910	96.272	-0.163	-0.183
-169.896	-200.000	0.005	-0.120
-168.881	-36.764	-0.284	0.150
-167.866	-78.411	-0.176	-0.059
-166.852	-129.821	0.315	0.043
-165.837	-200.000	0.041	0.203
-164.823	-4.099	-0.200	0.136
-163.808	792.026	0.121	0.329
-162.793	-98.592	0.084	0.021
-161.779	-8.619	0.238	-0.157
-160.764	-200.000	0.010	-0.119
-159.750	800.000	0.136	0.425
-158.735	128.381	-0.015	0.019
-157.720	-93.327	0.092	-0.025
-156.706	-123.194	-0.170	0.027
-155.691	-200.000	-0.059	0.523
-154.677	-138.817	0.162	-0.017
-153.662	227.692	-0.095	-0.152
-152.647	-200.000	-0.006	0.158
-151.633	-60.202	0.215	0.090
-150.618	148.518	0.247	0.329
-149.604	-70.091	-0.070	-0.026
-148.589	168.843	0.114	-0.160
-147.574	-144.209	0.215	0.020
-146.560	-29.269	-0.085	0.048
-145.545	-163.221	-0.358	0.017
-144.531	-200.000	-0.005	0.149
-143.516	-200.000	-0.023	-0.226
-142.502	-200.000	0.001	0.054
-141.487	-97.719	-0.394	-0.101
-140.472	-200.000	-0.003	0.029
-139.458	-200.000	0.035	-0.322
-138.443	-23.583	0.145	0.086
-137.429	295.073	0.129	0.232
-136.414	465.011	0.056	0.124
-135.399	34.604	-0.053	-0.046
-134.385	-200.000	0.006	0.078
-133.370	169.563	0.177	-0.248
-132.356	-121.331	0.163	0.027
-131.341	800.000	0.052	-0.186
-130.326	227.353	0.118	-0.188
-129.312	-72.659	-0.078	-0.028
-128.297	37.108	-0.304	-0.264
-127.283	127.896	-0.303	0.379
-126.268	106.587	0.204	0.238
-125.253	-84.484	-0.342	-0.106
-124.239	800.000	0.053	-0.203
-123.224	-144.819	0.489	0.044
-122.210	133.160	-0.160	-0.203
-121.195	38.984	0.330	0.290
