DTS Sentinel unit serial number:	SN413079Multiplexer serial number:	ORYXHardware model number:	OX4-SRSoftware version number:	ORYX F/W v4.00 Oryx Data Collector v3.7.2.0data status	okinstallation	princeton_trtdifferential loss correction	single-endedforward channel	channel 2reverse channel	N/Adate	2019/09/15time	12:43:35forward acquisition time	60.00reverse acquisition time	0.00gamma	496.2192k internal	0.2311k external	0.2311temperature offset calibration	1.0010default loss term (dB/km)	0.3790temperature slope calibration	1.0000multiplexer offset coefficient	1.0000multiplexer slope coefficient	1.0000fibre end	0.00T internal ref (°C)	35.70T ext. ref 1 (°C)	5.04T ext. ref 2 (°C)	33.51length (m)	temperature (°C)	Stokes	anti-Stokes-747.200	-1.827	0.122	-0.087
-746.185	-73.609	0.096	-0.036
-745.171	660.703	0.070	0.183
-744.156	-200.000	-0.048	0.565
-743.142	-50.680	-0.165	0.079
-742.127	-93.864	0.096	0.027
-741.112	-200.000	-0.015	0.092
-740.098	-200.000	-0.011	0.167
-739.083	-97.891	0.371	0.097
-738.069	-200.000	0.032	0.412
-737.054	158.013	0.050	0.071
-736.039	35.733	-0.423	-0.378
-735.025	177.918	0.092	-0.137
-734.010	-200.000	-0.034	0.196
-732.996	536.964	0.060	-0.144
-731.981	111.881	0.058	-0.071
-730.966	-101.382	-0.139	0.034
-729.952	-75.624	0.157	-0.057
-728.937	-66.880	-0.109	-0.044
-727.923	-87.669	-0.379	-0.116
-726.908	-200.000	-0.064	-0.342
-725.894	-63.623	0.151	0.063
-724.879	750.702	-0.096	0.263
-723.864	145.676	-0.206	-0.280
-722.850	800.000	-0.111	-0.373
-721.835	639.390	0.091	0.235
-720.821	-200.000	-0.054	-0.420
-719.806	29.985	0.170	-0.147
-718.791	-159.722	-0.375	0.021
-717.777	-38.839	-0.242	0.129
-716.762	-74.254	0.176	-0.065
-715.748	-200.000	-0.005	-0.383
-714.733	-200.000	-0.035	-0.293
-713.718	-87.776	0.389	-0.119
-712.704	-42.852	-0.099	0.051
-711.689	-200.000	0.051	0.231
-710.675	-88.882	0.253	-0.076
-709.660	-104.565	-0.160	0.038
-708.645	373.085	-0.072	-0.148
-707.631	-200.000	-0.065	-0.347
-706.616	-32.197	-0.288	0.163
-705.602	-65.634	-0.121	-0.049
-704.587	-200.000	-0.004	-0.244
-703.572	-200.000	0.042	0.334
-702.558	5.776	-0.342	0.256
-701.543	394.275	-0.128	-0.269
-700.529	-200.000	0.027	0.368
-699.514	-137.214	-0.114	-0.013
-698.499	186.464	-0.099	-0.149
-697.485	122.746	0.049	0.062
-696.470	-200.000	-0.024	0.150
-695.456	800.000	0.078	0.228
-694.441	-164.315	0.337	0.016
-693.426	800.000	0.029	-0.114
-692.412	-38.675	-0.134	0.072
-691.397	-111.818	0.061	-0.013
-690.383	36.413	0.207	0.185
-689.368	83.846	0.240	0.265
-688.354	-74.954	0.254	0.092
-687.339	800.000	-0.042	-0.161
-686.324	32.977	-0.265	0.233
-685.310	68.973	0.229	-0.238
-684.295	292.788	0.168	-0.309
-683.281	553.062	-0.160	-0.390
-682.266	474.924	-0.050	-0.115
-681.251	-200.000	0.000	0.370
-680.237	144.220	0.045	0.061
-679.222	-200.000	0.018	-0.177
-678.208	768.619	-0.037	-0.103
-677.193	-80.298	-0.173	-0.059
-676.178	202.854	0.074	0.116
-675.164	-44.017	-0.249	-0.127
-674.149	-9.026	-0.254	-0.172
-673.135	93.330	0.116	-0.133
-672.120	-200.000	0.015	-0.190
-671.105	-167.551	0.110	-0.004
-670.091	295.357	0.033	0.061
-669.076	341.047	-0.079	-0.156
-668.062	-68.927	-0.378	-0.148
-667.047	-200.000	0.069	-0.343
-666.032	-200.000	0.030	0.174
-665.018	-139.416	-0.072	-0.008
-664.003	-100.850	0.137	0.034
-662.989	111.610	-0.162	-0.198
-661.974	-165.042	0.028	-0.001
-660.959	205.841	-0.058	0.091
-659.945	12.955	-0.304	-0.238
-658.930	-115.269	0.177	0.034
-657.916	-134.634	0.386	-0.048
-656.901	-94.018	-0.132	-0.037
-655.886	41.590	-0.019	0.017
-654.872	543.416	0.081	0.195
-653.857	429.728	0.101	0.222
-652.843	80.644	-0.200	0.218
-651.828	371.282	-0.119	-0.243
-650.814	-64.056	0.150	-0.062
-649.799	193.659	0.063	-0.096
-648.784	800.000	-0.076	-0.231
-647.770	-138.452	0.109	0.012
-646.755	-185.601	0.251	-0.004
-645.741	800.000	-0.035	-0.124
-644.726	-113.509	-0.518	0.102
-643.711	-52.208	0.100	0.047
-642.697	-65.549	-0.322	-0.131
-641.682	800.000	-0.009	0.038
-640.668	-92.207	0.263	-0.075
-639.653	-200.000	-0.009	0.113
-638.638	135.490	-0.086	-0.113
-637.624	556.346	-0.105	0.256
-636.609	-200.000	0.006	0.324
-635.595	-103.413	0.242	0.058
-634.580	698.200	-0.094	-0.250
-633.565	506.404	0.067	-0.156
-632.551	-94.773	0.051	-0.014
-631.536	800.000	0.120	-0.378
-630.522	-99.331	-0.203	0.052
-629.507	37.576	0.197	-0.177
-628.492	-31.892	0.206	-0.116
-627.478	10.619	0.089	0.068
-626.463	-80.609	0.357	-0.120
-625.449	-109.438	-0.192	0.041
-624.434	-79.361	0.233	0.080
-623.419	281.637	-0.177	-0.320
-622.405	233.295	0.037	0.061
-621.390	-11.146	0.134	0.089
-620.376	-82.537	0.123	0.040
-619.361	-19.539	0.092	0.058
-618.346	-29.754	0.027	0.016
-617.332	-19.277	0.208	-0.130
-616.317	800.000	0.081	0.275
-615.303	-127.036	-0.085	-0.013
-614.288	-102.476	0.115	-0.028
-613.273	-25.012	-0.193	0.116
-612.259	52.394	0.173	0.166
-611.244	-6.682	0.015	0.011
-610.230	120.908	-0.028	0.035
-609.215	769.524	0.042	-0.115
-608.201	-11.550	0.347	-0.230
-607.186	469.198	-0.125	-0.282
-606.171	-171.649	-0.436	-0.015
-605.157	223.422	0.098	0.160
-604.142	-8.093	-0.232	0.158
-603.128	-200.000	-0.008	0.291
-602.113	-175.361	-0.493	-0.014
-601.098	-94.880	-0.413	0.113
-600.084	-63.038	-0.338	0.141
-599.069	-200.000	-0.010	0.372
-598.055	462.921	-0.092	0.208
-597.040	686.472	-0.040	-0.106
-596.025	-200.000	0.026	-0.347
-595.011	-75.210	0.216	0.078
-593.996	56.913	0.224	0.220
-592.982	-145.289	-0.448	0.041
-591.967	-200.000	0.067	-0.322
-590.952	-100.595	0.052	0.013
-589.938	42.880	0.041	0.038
-588.923	176.960	0.114	-0.167
-587.909	-200.000	0.023	-0.131
-586.894	-15.696	-0.056	-0.036
-585.879	-200.000	-0.044	-0.255
-584.865	-200.000	0.275	0.001
-583.850	800.000	-0.123	-0.382
-582.836	141.459	-0.132	-0.176
-581.821	-111.093	0.327	-0.068
-580.806	-83.604	0.084	0.027
-579.792	515.819	0.062	0.145
-578.777	23.223	0.044	-0.037
-577.763	-34.462	-0.238	0.131
-576.748	19.884	-0.355	-0.288
-575.733	21.257	0.256	0.210
-574.719	-53.309	-0.396	-0.183
-573.704	-200.000	-0.054	-0.257
-572.690	-124.653	-0.262	-0.041
-571.675	-78.450	0.265	0.092
-570.661	102.022	-0.208	0.245
-569.646	800.000	-0.035	-0.105
-568.631	-100.111	0.283	0.071
-567.617	106.405	0.306	0.366
-566.602	189.622	0.089	0.134
-565.588	109.481	0.076	0.091
-564.573	-200.000	-0.013	0.118
-563.558	5.106	-0.069	0.051
-562.544	295.130	0.328	0.605
-561.529	468.431	-0.004	-0.009
-560.515	481.688	0.082	-0.188
-559.500	-96.235	-0.109	0.029
-558.485	190.874	-0.206	-0.312
-557.471	-77.861	-0.240	0.084
-556.456	-200.000	-0.006	0.054
-555.442	-17.577	0.301	-0.191
-554.427	-18.304	0.229	-0.145
-553.412	-200.000	0.054	-0.262
-552.398	-73.428	-0.483	0.178
-551.383	-32.673	0.209	-0.117
-550.369	32.064	-0.117	0.101
-549.354	92.452	0.258	0.293
-548.339	-157.408	-0.165	-0.010
-547.325	288.388	0.090	-0.164
-546.310	80.031	0.192	0.208
-545.296	-54.072	-0.481	-0.220
-544.281	-50.410	-0.036	-0.017
-543.266	4.189	-0.291	-0.215
-542.252	800.000	-0.075	0.210
-541.237	-44.903	-0.091	-0.046
-540.223	16.209	-0.170	-0.135
-539.208	-7.345	-0.233	0.159
-538.193	93.967	-0.140	0.159
-537.179	-194.959	0.286	-0.002
-536.164	391.966	0.063	0.133
-535.150	-44.643	-0.398	0.200
-534.135	-200.000	-0.045	0.255
-533.121	-91.719	0.353	0.101
-532.106	276.469	-0.079	0.142
-531.091	7.715	-0.213	0.161
-530.077	-78.655	-0.343	0.118
-529.062	-47.407	0.144	0.070
-528.048	800.000	0.050	0.147
-527.033	-151.364	-0.083	0.006
-526.018	-0.427	-0.266	0.190
-525.004	105.502	-0.183	-0.217
-523.989	-36.225	-0.250	-0.136
-522.975	800.000	0.041	-0.177
-521.960	195.714	-0.081	0.124
-520.945	-102.270	0.390	-0.094
-519.931	-19.636	-0.063	0.040
-518.916	-58.962	0.146	-0.063
-517.902	398.632	-0.034	0.072
-516.887	-86.608	0.268	-0.083
-515.872	-49.090	-0.111	-0.053
-514.858	800.000	0.011	-0.032
-513.843	657.446	-0.016	0.040
-512.829	-169.480	-0.359	0.013
-511.814	-135.043	-0.134	-0.016
-510.799	-174.136	-0.228	0.007
-509.785	-160.209	-0.328	-0.018
-508.770	-140.968	-0.223	-0.023
-507.756	-125.057	0.219	-0.034
-506.741	-69.140	-0.082	0.032
-505.726	-123.808	-0.181	-0.029
-504.712	-200.000	-0.017	0.088
-503.697	800.000	0.160	-0.523
-502.683	-200.000	-0.007	-0.296
-501.668	-96.966	-0.181	-0.048
-500.653	115.506	0.238	0.293
-499.639	115.200	0.300	0.368
-498.624	-96.103	0.223	-0.060
-497.610	800.000	0.187	-0.536
-496.595	-126.044	-0.196	0.030
-495.581	-110.382	-0.159	-0.033
-494.566	-161.732	-0.037	-0.002
-493.551	-13.629	0.361	-0.235
-492.537	-200.000	0.016	-0.140
-491.522	-33.231	0.224	0.124
-490.508	-19.359	0.067	0.042
-489.493	-40.454	-0.057	0.030
-488.478	-200.000	-0.007	-0.063
-487.464	531.037	0.041	-0.098
-486.449	-19.843	-0.305	0.190
-485.435	-200.000	-0.019	0.093
-484.420	-85.469	-0.386	0.121
-483.405	-200.000	-0.004	-0.072
-482.391	-163.804	0.034	-0.002
-481.376	-200.000	0.047	0.287
-480.362	800.000	-0.072	0.246
-479.347	595.796	0.090	0.225
-478.332	-100.767	-0.147	0.036
-477.318	800.000	-0.050	-0.202
-476.303	242.824	0.029	0.049
-475.289	-115.434	0.318	0.060
-474.274	168.995	0.161	-0.231
-473.259	213.154	-0.077	-0.121
-472.245	-41.344	0.259	0.134
-471.230	-200.000	-0.023	-0.114
-470.216	362.807	-0.024	-0.049
-469.201	-159.109	0.537	-0.030
-468.186	-23.313	-0.281	-0.170
-467.172	-200.000	-0.050	0.245
-466.157	20.755	-0.199	0.162
-465.143	22.553	0.184	-0.151
-464.128	-200.000	0.006	0.320
-463.113	53.081	0.238	0.229
-462.099	-126.146	-0.136	-0.020
-461.084	-200.000	0.011	-0.050
-460.070	-46.872	0.220	0.108
-459.055	-82.708	0.271	0.088
-458.040	-43.752	0.307	-0.155
-457.026	-3.501	-0.132	0.092
-456.011	-49.321	-0.449	0.215
-454.997	-39.674	0.166	0.087
-453.982	96.346	-0.103	-0.119
-452.968	-30.334	-0.430	0.245
-451.953	15.687	-0.188	-0.148
-450.938	-102.536	0.118	0.028
-449.924	800.000	0.056	-0.196
-448.909	-49.913	0.289	0.138
-447.895	-200.000	-0.058	0.284
-446.880	-147.371	-0.121	0.010
-445.865	49.366	-0.091	0.086
-444.851	202.707	-0.057	-0.088
-443.836	-72.104	-0.197	-0.073
-442.822	78.786	0.131	-0.140
-441.807	80.001	-0.112	-0.121
-440.792	-132.167	0.116	-0.015
-439.778	114.695	0.123	-0.150
-438.763	-10.144	-0.137	0.091
-437.749	34.668	0.146	0.128
-436.734	-35.005	-0.022	0.012
-435.719	-73.112	0.203	-0.075
-434.705	336.756	0.141	0.274
-433.690	-135.152	-0.248	-0.030
-432.676	-88.076	-0.214	0.064
-431.661	-27.421	-0.151	-0.088
-430.646	-200.000	-0.007	-0.149
-429.632	800.000	-0.082	-0.346
-428.617	174.396	0.125	-0.181
-427.603	-151.145	-0.128	-0.010
-426.588	-200.000	-0.039	-0.278
-425.573	498.748	-0.056	0.129
-424.559	66.766	-0.136	-0.138
-423.544	283.056	0.227	0.409
-422.530	-45.245	0.480	-0.239
-421.515	-98.405	0.273	-0.070
-420.500	499.968	0.108	-0.249
-419.486	-200.000	-0.037	0.390
-418.471	-97.811	0.288	-0.075
-417.457	-80.959	-0.400	-0.133
-416.442	18.589	-0.195	-0.157
-415.428	-95.691	-0.103	-0.028
-414.413	-84.842	-0.328	-0.103
-413.398	0.626	-0.192	-0.138
-412.384	237.585	-0.073	-0.122
-411.369	57.373	0.125	0.122
-410.355	670.788	0.079	0.204
-409.340	755.154	0.131	0.354
-408.325	60.679	0.280	0.278
-407.311	-200.000	0.013	-0.376
-406.296	-200.000	0.094	0.424
-405.282	-8.958	-0.250	-0.168
-404.267	57.008	-0.148	-0.144
-403.252	58.849	0.310	0.305
-402.238	189.853	-0.084	-0.126
-401.223	-118.489	-0.067	0.012
-400.209	239.647	0.157	0.262
-399.194	544.525	-0.158	-0.377
-398.179	-200.000	0.001	-0.189
-397.165	-200.000	0.035	-0.284
-396.150	146.167	-0.171	-0.229
-395.136	192.449	-0.212	0.321
-394.121	-38.551	-0.389	0.206
-393.106	27.363	0.108	0.091
-392.092	-31.736	-0.220	-0.124
-391.077	106.329	-0.061	-0.073
-390.063	-98.180	-0.178	-0.046
-389.048	-200.000	-0.010	-0.184
-388.033	-175.236	-0.282	0.008
-387.019	-1.845	0.177	-0.125
-386.004	-10.618	-0.219	0.145
-384.990	93.594	0.044	0.050
-383.975	-80.297	0.363	-0.121
-382.960	-74.806	-0.041	0.015
-381.946	469.098	0.122	-0.274
-380.931	-200.000	-0.037	0.275
-379.917	100.244	-0.197	-0.228
-378.902	514.084	0.038	-0.089
-377.888	115.276	0.199	-0.244
-376.873	-200.000	-0.045	-0.208
-375.858	-55.589	-0.221	0.099
-374.844	-124.817	0.379	-0.059
-373.829	285.930	-0.120	-0.217
-372.815	-8.997	0.192	0.129
-371.800	67.836	-0.016	0.017
-370.785	165.432	0.093	0.132
-369.771	-200.000	-0.025	-0.139
-368.756	160.781	-0.062	-0.086
-367.742	-142.638	-0.186	0.018
-366.727	-86.923	0.143	-0.044
-365.712	-119.889	0.148	-0.025
-364.698	-90.264	0.198	0.058
-363.683	-122.873	0.157	0.025
-362.669	17.513	0.210	-0.167
-361.654	-34.862	-0.211	-0.115
-360.639	-157.257	0.257	-0.016
-359.625	362.812	-0.029	-0.058
-358.610	-200.000	-0.041	-0.212
-357.596	227.781	-0.217	-0.353
-356.581	-139.941	-0.170	0.018
-355.566	96.696	0.051	-0.058
-354.552	-162.153	0.302	0.015
-353.537	37.431	-0.259	-0.230
-352.523	-200.000	-0.019	0.196
-351.508	-129.570	0.153	0.021
-350.493	94.735	0.048	-0.055
-349.479	-67.194	-0.234	-0.092
-348.464	-89.808	-0.287	0.084
-347.450	-200.000	-0.034	0.271
-346.435	-23.310	-0.186	0.112
-345.420	-59.498	0.301	0.129
-344.406	10.196	-0.175	-0.133
-343.391	382.069	0.113	-0.232
-342.377	-87.174	-0.095	-0.029
-341.362	335.580	-0.118	-0.228
-340.348	512.010	-0.091	-0.211
-339.333	73.315	-0.018	-0.019
-338.318	-133.776	0.450	-0.056
-337.304	340.841	-0.146	-0.286
-336.289	-95.815	-0.438	-0.117
-335.275	7.336	0.128	0.096
-334.260	96.061	0.190	-0.217
-333.245	-45.911	-0.189	0.093
-332.231	-136.478	-0.171	-0.020
-331.216	-54.653	0.181	0.082
-330.202	-111.219	-0.172	0.035
-329.187	56.382	0.170	0.165
-328.172	725.073	0.132	0.353
-327.158	-116.450	0.444	0.082
-326.143	800.000	-0.059	0.191
-325.129	32.109	0.212	-0.182
-324.114	121.742	0.013	0.016
-323.099	144.962	0.115	-0.153
-322.085	800.000	-0.039	0.151
-321.070	-42.549	-0.129	0.065
-320.056	274.194	0.067	0.119
-319.041	-200.000	-0.006	0.064
-318.026	-94.305	-0.120	-0.033
-317.012	24.861	0.244	-0.202
-315.997	214.237	-0.020	0.031
-314.983	-85.530	0.256	-0.079
-313.968	144.800	0.102	0.137
-312.953	-200.000	0.002	0.269
-311.939	-101.664	0.269	-0.065
-310.924	-161.284	0.219	-0.011
-309.910	-61.418	-0.317	-0.133
-308.895	-133.834	0.169	-0.021
-307.880	800.000	0.077	0.270
-306.866	136.604	0.129	0.168
-305.851	800.000	-0.093	-0.368
-304.837	98.111	-0.227	0.261
-303.822	-79.531	0.125	-0.042
-302.807	42.076	0.179	0.162
-301.793	96.704	0.089	0.102
-300.778	2.581	0.026	-0.019
-299.764	586.555	0.074	0.182
-298.749	333.053	-0.067	0.129
-297.735	1.481	-0.223	-0.160
-296.720	153.583	0.214	-0.292
-295.705	-164.544	-0.140	-0.006
-294.691	-200.000	0.013	0.124
-293.676	135.039	-0.129	0.167
-292.662	-101.840	0.059	-0.014
-291.647	-200.000	-0.013	0.074
-290.632	800.000	-0.161	-0.491
-289.618	161.925	0.109	-0.153
-288.603	-67.731	0.135	0.053
-287.589	770.585	0.068	0.186
-286.574	-81.656	0.037	0.012
-285.559	-14.072	0.221	0.142
-284.545	-200.000	-0.011	-0.149
-283.530	-128.021	0.437	0.062
-282.516	207.949	-0.117	-0.182
-281.501	-68.147	0.058	0.023
-280.486	-27.709	-0.044	-0.026
-279.472	176.763	-0.157	0.227
-278.457	85.480	-0.192	0.210
-277.443	-113.388	-0.195	-0.038
-276.428	26.814	-0.112	-0.094
-275.413	-49.880	-0.354	0.167
-274.399	16.007	-0.177	0.139
-273.384	-200.000	0.030	0.278
-272.370	-200.000	0.013	0.268
-271.355	800.000	0.136	0.534
-270.340	57.548	0.245	-0.239
-269.326	-200.000	0.037	-0.233
-268.311	-93.177	0.196	0.054
-267.297	569.878	0.050	-0.122
-266.282	800.000	-0.075	-0.324
-265.267	167.763	0.012	-0.017
-264.253	-10.848	-0.197	0.130
-263.238	-164.689	0.172	0.008
-262.224	596.764	0.046	-0.112
-261.209	31.430	0.364	0.312
-260.195	-41.681	0.308	0.158
-259.180	18.214	-0.142	-0.113
-258.165	-200.000	0.007	0.083
-257.151	-37.411	-0.088	0.047
-256.136	139.841	0.105	-0.137
-255.122	800.000	0.071	0.252
-254.107	-120.595	0.059	0.010
-253.092	-76.210	-0.226	0.080
-252.078	-200.000	0.013	-0.071
-251.063	-115.407	-0.107	0.020
-250.049	722.158	-0.169	0.447
-249.034	-34.285	-0.285	-0.156
-248.019	-32.774	-0.186	-0.103
-247.005	-200.000	0.058	0.278
-245.990	-144.839	-0.061	0.006
-244.976	-200.000	-0.067	-0.342
-243.961	-200.000	-0.009	0.145
-242.946	-111.446	0.175	-0.035
-241.932	800.000	0.068	0.235
-240.917	-172.611	-0.312	-0.010
-239.903	-34.496	-0.310	0.169
-238.888	-40.822	0.224	0.115
-237.873	50.593	-0.034	0.032
-236.859	-20.766	0.444	-0.271
-235.844	-122.139	0.187	0.030
-234.830	-196.704	-0.182	0.001
-233.815	-157.526	0.133	-0.008
-232.800	518.798	-0.064	-0.149
-231.786	-173.744	-0.038	0.001
-230.771	-77.354	-0.023	0.008
-229.757	11.380	0.015	-0.012
-228.742	800.000	-0.086	0.265
-227.727	-152.998	-0.225	0.016
-226.713	-23.556	0.114	-0.068
-225.698	-200.000	-0.042	0.235
-224.684	-134.282	0.160	-0.020
-223.669	-28.756	-0.288	-0.165
-222.655	800.000	-0.127	0.482
-221.640	195.023	0.037	-0.056
-220.625	69.503	-0.250	0.256
-219.611	-117.188	0.201	0.036
-218.596	38.763	-0.085	0.076
-217.582	-4.437	0.030	0.020
-216.567	-10.167	-0.058	-0.038
-215.552	-97.546	0.235	0.061
-214.538	-200.000	-0.027	0.272
-213.523	119.073	-0.235	-0.289
-212.509	606.469	-0.159	-0.395
-211.494	-120.209	-0.320	0.054
-210.479	-137.937	-0.196	-0.022
-209.465	386.250	0.089	-0.183
-208.450	-200.000	0.050	0.234
-207.436	-48.429	0.306	0.146
-206.421	115.184	0.318	-0.386
-205.406	-90.131	0.359	0.104
-204.392	-2.131	0.049	-0.034
-203.377	31.146	-0.164	-0.140
-202.363	23.247	-0.255	-0.208
-201.348	27.434	-0.158	0.132
-200.333	343.381	0.184	0.358
-199.319	-148.684	-0.216	0.017
-198.304	91.591	0.093	0.104
-197.290	-200.000	0.043	-0.210
-196.275	800.000	-0.023	-0.064
-195.260	-92.564	-0.259	-0.072
-194.246	-26.829	-0.141	0.082
-193.231	287.098	0.047	-0.085
-192.217	-9.482	0.093	-0.061
-191.202	-24.673	0.276	0.163
-190.187	578.297	0.076	-0.184
-189.173	-18.464	-0.136	0.084
-188.158	-160.275	0.160	-0.009
-187.144	184.242	-0.126	-0.186
-186.129	269.985	0.010	-0.017
-185.114	178.136	0.268	0.389
-184.100	-200.000	-0.003	0.036
-183.085	238.390	0.196	-0.323
-182.071	-168.069	-0.169	0.007
-181.056	-27.203	0.236	0.137
-180.042	262.604	0.186	-0.321
-179.027	-87.918	-0.224	0.067
-178.012	-52.856	0.259	0.119
-176.998	-139.973	-0.335	-0.035
-175.983	-200.000	-0.000	0.048
-174.969	789.065	0.093	0.254
-173.954	-40.056	0.160	0.083
-172.939	-83.854	-0.088	-0.028
-171.925	800.000	0.092	-0.355
-170.910	800.000	0.174	0.508
-169.896	-98.304	-0.087	0.022
-168.881	-200.000	0.015	-0.205
-167.866	60.322	-0.203	-0.200
-166.852	36.235	0.119	-0.104
-165.837	-200.000	-0.023	-0.140
-164.823	210.131	0.106	-0.165
-163.808	-15.494	0.372	-0.236
-162.793	800.000	0.043	0.148
-161.779	800.000	-0.093	-0.301
-160.764	-87.633	-0.397	0.119
-159.750	-43.683	0.300	-0.150
-158.735	-124.803	0.149	-0.023
-157.720	563.415	0.085	-0.204
-156.706	32.960	0.239	0.205
-155.691	-164.288	0.199	0.009
-154.677	-200.000	-0.037	-0.172
-153.662	-141.478	0.166	0.017
-152.647	630.339	-0.048	0.121
-151.633	-200.000	-0.033	0.260
-150.618	30.747	-0.210	0.178
-149.604	-200.000	0.018	-0.180
-148.589	-68.817	0.349	-0.134
-147.574	477.451	0.168	0.376
-146.560	-146.996	-0.194	-0.017
-145.545	-101.602	0.141	-0.034
-144.531	256.739	-0.077	0.131
-143.516	53.483	-0.053	0.050
-142.502	58.131	0.246	-0.239
-141.487	-49.026	-0.121	0.057
-140.472	-48.166	0.042	-0.020
-139.458	-145.191	-0.313	-0.028
-138.443	282.678	0.132	-0.236
-137.429	800.000	0.063	0.233
-136.414	68.880	0.103	0.105
-135.399	-136.679	0.278	-0.032
-134.385	-87.118	0.019	-0.006
-133.370	-109.018	0.436	0.092
-132.356	26.642	-0.301	-0.250
-131.341	135.803	-0.181	-0.233
-130.326	-0.763	0.102	-0.072
-129.312	106.370	0.028	0.033
-128.297	-5.719	-0.232	-0.157
-127.283	-200.000	0.018	0.140
-126.268	-200.000	-0.011	-0.429
-125.253	184.375	-0.069	-0.101
-124.239	-135.492	-0.205	-0.024
-123.224	466.855	-0.038	0.085
-122.210	167.571	0.076	0.107
