DTS Sentinel unit serial number:	SN413079Multiplexer serial number:	ORYXHardware model number:	OX4-SRSoftware version number:	ORYX F/W v4.00 Oryx Data Collector v3.7.2.0data status	okinstallation	princeton_trtdifferential loss correction	single-endedforward channel	channel 2reverse channel	N/Adate	2019/09/12time	18:52:49forward acquisition time	15.00reverse acquisition time	0.00gamma	496.2192k internal	0.2325k external	0.2325temperature offset calibration	1.0125default loss term (dB/km)	0.3790temperature slope calibration	1.0000multiplexer offset coefficient	1.0000multiplexer slope coefficient	1.0000fibre end	0.00T internal ref (°C)	32.87T ext. ref 1 (°C)	2.96T ext. ref 2 (°C)	27.40length (m)	temperature (°C)	Stokes	anti-Stokes-747.200	87.984	-0.465	-0.521
-746.185	11.991	-0.134	-0.104
-745.171	164.913	0.398	0.567
-744.156	-79.624	-0.065	-0.022
-743.142	2.980	0.489	-0.359
-742.127	800.000	0.057	0.247
-741.112	286.971	0.238	0.434
-740.098	-200.000	0.027	-0.221
-739.083	11.769	0.249	0.193
-738.069	-172.971	0.287	0.009
-737.054	-77.319	-0.971	0.340
-736.039	-200.000	0.231	-1.137
-735.025	-146.427	0.306	0.027
-734.010	308.857	-0.359	-0.676
-732.996	318.498	-0.325	-0.620
-731.981	33.854	0.265	-0.233
-730.966	1.221	0.633	-0.458
-729.952	603.666	-0.039	-0.099
-728.937	177.114	0.205	-0.301
-727.923	637.068	-0.300	-0.769
-726.908	641.303	-0.189	-0.486
-725.894	-87.031	0.403	-0.124
-724.879	800.000	0.112	0.455
-723.864	136.704	0.222	-0.292
-722.850	35.872	-0.420	-0.372
-721.835	555.505	-0.117	0.284
-720.821	148.273	-0.279	0.380
-719.806	98.124	0.672	-0.780
-718.791	-84.900	0.580	0.184
-717.777	-149.255	-0.321	-0.026
-716.762	337.144	0.251	-0.492
-715.748	-54.484	-0.627	0.286
-714.733	189.071	0.273	-0.412
-713.718	263.900	-0.507	0.889
-712.704	-87.042	-0.686	-0.211
-711.689	54.450	0.460	0.446
-710.675	72.246	0.123	-0.129
-709.660	46.438	0.423	0.395
-708.645	800.000	-0.098	-0.418
-707.631	501.732	-0.050	-0.116
-706.616	53.499	0.805	0.778
-705.602	-200.000	-0.197	1.071
-704.587	-105.199	-0.698	0.161
-703.572	88.813	0.556	-0.623
-702.558	-122.301	-0.465	0.077
-701.543	170.259	0.183	0.264
-700.529	500.901	0.255	-0.592
-699.514	-149.951	0.159	0.013
-698.499	126.185	-0.361	0.460
-697.485	-200.000	0.079	0.859
-696.470	463.888	0.261	0.588
-695.456	-52.492	-1.074	0.500
-694.441	800.000	-0.103	0.430
-693.426	-198.892	-0.734	-0.004
-692.412	-172.243	-0.358	0.012
-691.397	-2.120	0.279	-0.197
-690.383	91.554	0.127	-0.144
-689.368	-125.844	-0.422	-0.064
-688.354	-150.902	0.376	-0.029
-687.339	15.040	0.532	-0.420
-686.324	-53.410	0.845	0.390
-685.310	-122.205	0.334	0.055
-684.295	-45.846	0.493	-0.245
-683.281	-71.642	0.673	0.253
-682.266	-21.991	0.469	0.287
-681.251	-17.817	0.274	-0.173
-680.237	-200.000	-0.006	-0.250
-679.222	-50.183	-0.109	0.052
-678.208	-200.000	0.056	-0.482
-677.193	-200.000	-0.079	-1.227
-676.178	-200.000	0.003	0.182
-675.164	-200.000	0.133	0.597
-674.149	215.875	0.201	0.321
-673.135	-200.000	-0.015	0.189
-672.120	-200.000	0.018	-0.363
-671.105	-91.919	0.316	-0.090
-670.091	-200.000	-0.108	0.623
-669.076	420.336	-0.269	0.580
-668.062	-200.000	0.100	0.922
-667.047	226.937	-0.478	0.782
-666.032	-200.000	0.004	0.667
-665.018	-54.383	-0.137	-0.063
-664.003	-56.181	-0.509	0.228
-662.989	-200.000	-0.004	0.445
-661.974	-200.000	0.121	-0.556
-660.959	236.391	-0.182	-0.303
-659.945	-96.895	-0.384	0.101
-658.930	51.979	-0.224	-0.215
-657.916	-63.229	-0.390	-0.162
-656.901	20.042	0.560	-0.455
-655.886	-200.000	0.038	0.313
-654.872	-167.175	0.618	-0.025
-653.857	13.551	-0.371	-0.289
-652.843	-106.403	0.595	0.134
-651.828	280.294	0.244	0.439
-650.814	55.890	0.815	-0.795
-649.799	462.789	0.027	0.062
-648.784	47.383	0.498	0.467
-647.770	800.000	0.189	-0.744
-646.755	45.281	-0.206	-0.191
-645.741	548.199	-0.258	0.622
-644.726	-93.719	0.681	-0.189
-643.711	-200.000	0.039	0.647
-642.697	7.110	0.131	0.098
-641.682	-189.685	-0.784	-0.009
-640.668	800.000	-0.074	-0.212
-639.653	-181.031	-0.755	0.015
-638.638	-99.312	-0.542	0.137
-637.624	-26.467	0.622	-0.366
-636.609	372.104	0.135	-0.275
-635.595	-85.101	-0.304	-0.096
-634.580	-124.525	0.395	-0.062
-633.565	-117.089	0.312	-0.057
-632.551	61.481	0.446	-0.446
-631.536	300.261	-0.523	-0.969
-630.522	17.252	0.346	0.276
-629.507	-91.551	0.975	0.279
-628.492	800.000	0.049	-0.192
-627.478	-145.240	-0.296	-0.027
-626.463	40.442	0.318	-0.287
-625.449	135.350	-0.375	0.490
-624.434	-17.263	-0.742	0.470
-623.419	-200.000	0.061	-0.434
-622.405	-143.112	0.559	0.054
-621.390	-43.056	0.421	-0.214
-620.376	-38.824	-0.776	0.411
-619.361	110.557	-0.172	0.207
-618.346	800.000	0.135	-0.427
-617.332	-21.351	0.863	-0.529
-616.317	303.305	0.240	-0.446
-615.303	-169.971	-0.840	0.030
-614.288	-145.074	0.393	0.036
-613.273	-63.765	0.528	0.217
-612.259	751.363	-0.150	-0.407
-611.244	-87.512	0.359	0.109
-610.230	-193.341	0.615	-0.005
-609.215	-108.436	0.282	-0.061
-608.201	-96.318	-0.882	-0.234
-607.186	-60.245	0.262	0.112
-606.171	-200.000	-0.048	-0.595
-605.157	800.000	-0.141	-0.451
-604.142	206.432	0.321	0.502
-603.128	82.301	0.187	-0.203
-602.113	-0.721	0.515	-0.367
-601.098	83.910	-0.313	0.343
-600.084	-87.120	0.398	-0.121
-599.069	177.366	0.414	0.605
-598.055	432.240	-0.362	0.787
-597.040	107.526	0.323	-0.386
-596.025	282.696	-0.441	-0.793
-595.011	-200.000	0.077	-0.603
-593.996	-200.000	-0.043	-0.205
-592.982	-102.951	-0.917	-0.218
-591.967	45.255	0.206	0.190
-590.952	78.934	0.156	0.168
-589.938	1.332	-0.416	-0.300
-588.923	-200.000	-0.039	-0.369
-587.909	-200.000	0.018	-0.377
-586.894	-200.000	0.086	0.763
-585.879	-200.000	-0.038	0.623
-584.865	205.330	-0.234	0.365
-583.850	174.256	-0.282	0.409
-582.836	-104.618	-0.100	0.023
-581.821	-90.634	0.187	-0.054
-580.806	-140.076	-0.376	0.040
-579.792	-169.720	0.567	0.021
-578.777	-22.075	0.414	0.252
-577.763	41.076	0.540	0.489
-576.748	252.623	0.220	0.377
-575.733	-163.814	0.120	0.006
-574.719	-200.000	0.072	0.326
-573.704	-61.978	-0.934	0.392
-572.690	-108.472	0.730	-0.158
-571.675	74.979	0.420	0.444
-570.661	-29.695	-0.237	-0.136
-569.646	146.993	-0.219	-0.295
-568.631	216.835	-0.136	-0.217
-567.617	737.844	-0.354	-0.953
-566.602	121.280	0.160	0.200
-565.588	-200.000	-0.008	-0.160
-564.573	-200.000	0.193	0.897
-563.558	90.805	0.353	0.396
-562.544	87.993	0.605	-0.673
-561.529	800.000	-0.262	0.885
-560.515	154.436	0.294	0.405
-559.500	-122.484	-0.699	0.114
-558.485	261.879	0.154	0.268
-557.471	-53.169	0.334	0.154
-556.456	170.610	0.089	0.128
-555.442	-200.000	0.013	0.358
-554.427	174.752	0.370	0.537
-553.412	800.000	-0.076	-0.279
-552.398	-25.737	-0.544	-0.321
-551.383	-69.269	-0.146	0.056
-550.369	4.124	-0.631	-0.463
-549.354	85.875	0.336	-0.371
-548.339	216.857	-0.483	-0.771
-547.325	-140.235	0.443	0.046
-546.310	800.000	0.077	0.295
-545.296	23.075	-0.350	-0.288
-544.281	-21.103	0.641	0.393
-543.266	800.000	-0.140	0.411
-542.252	800.000	0.018	0.076
-541.237	61.345	-0.129	-0.128
-540.223	10.754	0.216	0.165
-539.208	-91.650	-0.410	0.117
-538.193	179.801	-0.274	0.402
-537.179	81.295	-0.259	-0.281
-536.164	800.000	-0.193	-0.550
-535.150	260.032	0.151	-0.261
-534.135	-108.554	-0.200	0.043
-533.121	64.417	0.126	-0.127
-532.106	800.000	0.238	-0.970
-531.091	634.220	0.137	-0.349
-530.077	-142.811	-0.736	0.072
-529.062	406.544	0.178	0.376
-528.048	800.000	-0.205	-0.610
-527.033	17.021	-0.326	-0.258
-526.018	-200.000	0.007	0.768
-525.004	-106.263	0.763	-0.171
-523.989	-200.000	-0.023	0.554
-522.975	-11.305	-0.617	0.407
-521.960	382.868	-0.117	0.240
-520.945	-200.000	-0.017	-0.409
-519.931	132.216	-0.326	-0.420
-518.916	800.000	0.137	-0.593
-517.902	437.809	0.229	0.499
-516.887	-200.000	-0.099	-0.581
-515.872	-60.511	0.325	-0.138
-514.858	-200.000	-0.010	-0.151
-513.843	-58.430	-0.504	-0.219
-512.829	-200.000	-0.109	0.678
-511.814	-100.227	-1.044	-0.259
-510.799	-135.874	0.416	0.049
-509.785	-173.354	-0.604	0.018
-508.770	600.820	-0.131	0.326
-507.756	-37.322	-0.525	-0.281
-506.741	174.360	0.175	-0.253
-505.726	40.308	-0.497	-0.448
-504.712	800.000	0.310	-0.861
-503.697	306.769	-0.384	-0.716
-502.683	-200.000	-0.122	-0.649
-501.668	-180.011	0.509	-0.011
-500.653	800.000	-0.122	-0.481
-499.639	-134.290	0.572	0.070
-498.624	-56.354	0.573	0.254
-497.610	-112.236	-0.385	-0.077
-496.595	744.264	0.228	-0.612
-495.581	-100.823	0.766	-0.188
-494.566	67.675	-0.461	0.470
-493.551	119.823	0.432	0.535
-492.537	-135.402	-0.821	0.098
-491.522	-60.825	0.199	-0.084
-490.508	-46.664	0.235	-0.115
-489.493	-200.000	0.157	-0.872
-488.478	-83.431	-0.224	0.072
-487.464	240.789	0.113	0.188
-486.449	758.136	-0.094	0.255
-485.435	-130.211	-0.884	0.120
-484.420	-200.000	0.010	1.031
-483.405	-67.132	0.559	0.220
-482.391	-200.000	-0.011	-0.054
-481.376	-64.052	-0.502	0.205
-480.362	800.000	-0.222	-0.662
-479.347	-157.853	-0.345	-0.020
-478.332	-2.164	0.392	-0.275
-477.318	-40.556	-0.410	-0.212
-476.303	-141.767	0.319	0.032
-475.289	-200.000	0.059	0.296
-474.274	-200.000	0.021	0.913
-473.259	568.621	-0.240	-0.583
-472.245	-72.861	0.407	0.149
-471.230	-63.216	1.227	0.505
-470.216	212.563	-0.793	1.249
-469.201	86.899	0.366	0.404
-468.186	800.000	-0.239	0.856
-467.172	-28.043	0.130	-0.075
-466.157	800.000	0.248	0.701
-465.143	-46.103	0.737	0.363
-464.128	66.991	0.516	-0.524
-463.113	123.130	0.505	-0.631
-462.099	-86.003	-0.638	-0.197
-461.084	-15.421	0.132	0.084
-460.070	-56.330	-0.132	0.058
-459.055	-200.000	-0.161	-0.868
-458.040	-5.747	0.381	-0.260
-457.026	-161.843	-1.156	-0.059
-456.011	-62.850	-0.154	-0.064
-454.997	800.000	-0.049	-0.179
-453.982	-200.000	0.098	-0.000
-452.968	3.827	-0.476	0.347
-451.953	-16.516	-0.231	0.146
-450.938	-200.000	0.061	0.418
-449.924	234.971	-0.551	0.907
-448.909	-175.272	0.623	0.017
-447.895	800.000	0.129	0.494
-446.880	800.000	0.144	0.414
-445.865	-34.299	1.111	-0.608
-444.851	-15.947	-0.302	0.192
-443.836	-133.811	-0.471	-0.058
-442.822	-99.206	0.158	0.040
-441.807	-61.980	-0.614	0.256
-440.792	-41.634	-0.545	-0.279
-439.778	-77.534	0.216	-0.075
-438.763	-36.203	-0.432	-0.233
-437.749	-87.495	0.496	-0.150
-436.734	-200.000	0.072	0.390
-435.719	-168.410	0.185	0.007
-434.705	68.295	0.122	0.125
-433.690	57.767	-0.164	0.160
-432.676	150.908	0.489	-0.662
-431.661	17.242	-0.118	0.093
-430.646	-152.921	-0.254	0.018
-429.632	-200.000	0.135	0.837
-428.617	23.275	-0.825	-0.675
-427.603	-33.449	0.528	0.291
-426.588	281.793	-0.215	0.384
-425.573	-200.000	0.035	-0.241
-424.559	51.018	0.795	0.752
-423.544	800.000	0.105	0.304
-422.530	800.000	0.107	-0.382
-421.515	-48.558	-1.027	0.492
-420.500	360.081	-0.283	-0.564
-419.486	-38.063	0.306	-0.162
-418.471	-71.444	0.753	0.281
-417.457	189.414	0.186	-0.278
-416.442	-200.000	-0.001	-0.755
-415.428	2.005	-0.467	0.336
-414.413	257.470	-0.153	0.263
-413.398	627.328	0.092	0.231
-412.384	-112.098	0.155	-0.031
-411.369	-200.000	0.043	-0.444
-410.355	-14.736	-0.794	-0.508
-409.340	-43.842	-0.250	0.125
-408.325	37.174	0.083	-0.073
-407.311	16.557	-0.132	0.104
-406.296	305.961	-0.169	-0.314
-405.282	-200.000	-0.089	0.647
-404.267	-200.000	0.015	-0.321
-403.252	800.000	-0.088	0.302
-402.238	-118.000	0.402	-0.072
-401.223	-96.580	-0.433	-0.114
-400.209	-63.315	-0.895	-0.367
-399.194	-170.419	0.593	0.021
-398.179	232.877	0.182	-0.298
-397.165	-20.305	0.927	-0.568
-396.150	-10.839	-0.342	-0.225
-395.136	-33.369	-0.283	0.156
-394.121	161.356	0.136	0.190
-393.106	-149.738	0.428	0.033
-392.092	-121.061	-0.550	-0.092
-391.077	55.439	0.123	-0.118
-390.063	-139.789	0.739	-0.078
-389.048	-143.238	0.647	-0.062
-388.033	-81.177	0.884	0.291
-387.019	208.571	0.428	-0.667
-386.004	107.468	-0.159	0.188
-384.990	-200.000	0.049	-0.697
-383.975	469.496	-0.246	0.550
-382.960	780.254	0.222	0.606
-381.946	800.000	-0.334	1.081
-380.931	-68.627	-0.587	0.226
-379.917	-56.809	0.921	-0.405
-378.902	133.345	0.066	-0.084
-377.888	116.657	0.185	-0.225
-376.873	-87.351	-0.776	0.234
-375.858	-84.130	0.155	-0.049
-374.844	-200.000	0.021	0.273
-373.829	-142.042	-0.717	0.071
-372.815	58.098	-0.715	0.697
-371.800	66.502	0.648	-0.656
-370.785	34.621	0.469	0.408
-369.771	800.000	-0.231	0.731
-368.756	-88.015	0.567	-0.169
-367.742	-96.377	0.437	0.115
-366.727	404.061	0.082	-0.172
-365.712	20.409	0.205	0.165
-364.698	-95.043	0.436	0.117
-363.683	-149.252	-0.695	0.055
-362.669	-200.000	-0.004	-0.479
-361.654	173.892	0.406	-0.583
-360.639	340.966	-0.534	-1.037
-359.625	-146.596	-0.529	-0.046
-358.610	29.929	-0.516	-0.437
-357.596	-200.000	-0.181	-1.089
-356.581	-200.000	0.017	-0.223
-355.566	-200.000	0.012	-0.368
-354.552	-84.976	0.325	0.101
-353.537	-123.678	-0.443	-0.070
-352.523	-144.672	0.245	-0.022
-351.508	-200.000	0.029	1.172
-350.493	1.802	-0.291	0.209
-349.479	-200.000	0.083	-0.616
-348.464	800.000	0.082	0.251
-347.450	-72.615	0.493	-0.181
-346.435	-101.423	0.701	0.170
-345.420	-56.220	-0.340	-0.150
-344.406	-200.000	-0.013	-0.174
-343.391	800.000	0.042	0.156
-342.377	-52.123	-0.465	0.214
-341.362	-200.000	-0.055	0.576
-340.348	679.989	-0.108	-0.280
-339.333	254.662	-0.248	0.421
-338.318	167.321	-0.381	-0.537
-337.304	-79.865	0.120	0.040
-336.289	800.000	-0.071	0.281
-335.275	-168.780	1.300	0.049
-334.260	-56.212	0.336	-0.148
-333.245	-133.312	-0.130	0.016
-332.231	423.124	-0.209	-0.445
-331.216	158.350	-0.231	0.318
-330.202	-200.000	0.037	-0.169
-329.187	-108.833	-0.633	0.134
-328.172	31.996	0.084	-0.072
-327.158	-51.514	0.752	0.348
-326.143	70.358	0.618	0.634
-325.129	4.728	0.219	-0.160
-324.114	-149.714	-0.843	-0.066
-323.099	-200.000	-0.035	0.522
-322.085	244.829	-0.509	0.849
-321.070	149.025	-0.125	-0.168
-320.056	531.790	-0.229	-0.537
-319.041	800.000	-0.235	0.646
-318.026	800.000	0.145	0.463
-317.012	-46.128	-0.794	-0.388
-315.997	-103.375	0.514	0.120
-314.983	229.110	0.142	-0.231
-313.968	-200.000	0.034	0.923
-312.953	-8.260	0.435	0.291
-311.939	-70.887	-0.682	-0.255
-310.924	-71.430	-0.137	-0.051
-309.910	-18.497	0.791	0.490
-308.895	-200.000	-0.095	1.446
-307.880	-200.000	0.160	1.265
-306.866	-14.306	-0.815	-0.521
-305.851	192.224	0.228	-0.342
-304.837	190.248	-0.477	-0.710
-303.822	-72.227	0.214	-0.079
-302.807	49.992	-0.338	0.317
-301.793	-99.216	-0.448	-0.112
-300.778	-56.877	0.677	-0.297
-299.764	-133.588	-0.670	-0.083
-298.749	800.000	-0.078	0.286
-297.735	-117.595	-0.174	-0.031
-296.720	-28.550	-0.599	0.342
-295.705	173.446	-0.078	-0.112
-294.691	-34.554	-0.351	-0.190
-293.676	149.709	0.481	0.646
-292.662	-79.824	1.142	-0.381
-291.647	307.801	0.160	0.297
-290.632	-200.000	-0.016	-0.388
-289.618	-63.750	0.655	0.266
-288.603	83.153	0.600	0.648
-287.589	521.332	-0.288	0.671
-286.574	279.958	0.548	-0.970
-285.559	-200.000	-0.091	0.407
-284.545	-116.362	-0.788	-0.144
-283.530	-164.120	0.361	-0.017
-282.516	-9.681	-0.672	-0.444
-281.501	25.230	0.396	-0.326
-280.486	202.019	-0.284	0.433
-279.472	528.589	0.199	0.466
-278.457	425.273	-0.154	0.329
-277.443	-86.713	-0.583	-0.177
-276.428	-181.979	0.351	-0.007
-275.413	43.843	-0.569	0.517
-274.399	69.371	-0.447	0.455
-273.384	-120.144	-0.530	-0.090
-272.370	-200.000	-0.108	0.915
-271.355	-144.462	0.186	0.017
-270.340	-200.000	0.048	0.435
-269.326	15.880	0.338	-0.263
-268.311	800.000	0.162	-0.558
-267.297	-6.917	0.357	0.240
-266.282	-42.146	-0.689	0.349
-265.267	-27.535	-0.273	0.157
-264.253	-114.633	0.155	0.029
-263.238	-200.000	-0.103	-0.781
-262.224	53.458	-0.531	-0.504
-261.209	-147.550	-0.263	0.022
-260.195	15.045	0.678	-0.525
-259.180	236.930	-0.275	0.452
-258.165	-73.918	0.354	-0.127
-257.151	205.495	0.141	-0.218
-256.136	-100.855	0.829	0.202
-255.122	91.914	-0.708	-0.789
-254.107	25.435	-0.767	-0.631
-253.092	800.000	-0.220	-0.926
-252.078	-44.736	-0.526	0.260
-251.063	-20.003	0.557	0.340
-250.049	50.260	-0.234	-0.219
-249.034	800.000	-0.198	-0.854
-248.019	-93.714	0.712	0.194
-247.005	-91.229	-0.638	0.181
-245.990	-94.245	0.627	0.170
-244.976	-132.803	0.477	-0.060
-243.961	800.000	0.078	-0.223
-242.946	304.191	-0.160	0.294
-241.932	-200.000	-0.067	0.370
-240.917	-200.000	-0.046	-0.290
-239.903	-127.292	-0.192	-0.028
-238.888	109.488	-0.341	-0.404
-237.873	72.702	-0.378	-0.390
-236.859	182.949	-0.422	-0.616
-235.844	-152.273	0.450	-0.032
-234.830	-200.000	-0.019	0.192
-233.815	-82.211	0.728	0.234
-232.800	800.000	0.126	-0.408
-231.786	-93.193	-0.438	-0.120
-230.771	210.074	-0.231	0.358
-229.757	289.012	0.252	-0.452
-228.742	7.108	0.844	-0.623
-227.727	-122.447	-0.946	-0.152
-226.713	-126.585	-0.588	0.086
-225.698	106.493	-0.244	0.286
-224.684	259.167	0.305	-0.520
-223.669	800.000	-0.122	0.433
-222.655	246.313	-0.246	0.410
-221.640	60.578	0.578	0.566
-220.625	191.984	0.241	0.359
-219.611	-161.061	0.828	-0.043
-218.596	-55.962	-0.358	0.158
-217.582	330.116	-0.444	0.845
-216.567	-106.734	-0.344	0.076
-215.552	57.792	-0.607	-0.587
-214.538	-75.471	-0.504	0.177
-213.523	-200.000	-0.039	-0.605
-212.509	-39.279	-0.611	0.317
-211.494	-101.405	-0.283	-0.068
-210.479	-66.260	0.227	-0.089
-209.465	404.667	0.281	0.585
-208.450	82.912	0.122	0.131
-207.436	432.586	0.076	-0.164
-206.421	-200.000	-0.043	0.458
-205.406	-26.855	0.099	-0.057
-204.392	-115.028	0.631	0.118
-203.377	-200.000	0.031	-0.446
-202.363	625.539	-0.184	0.459
-201.348	-200.000	0.042	-0.273
-200.333	31.200	0.458	-0.388
-199.319	26.982	-0.543	0.450
-198.304	-200.000	0.055	-0.644
-197.290	-200.000	-0.097	0.566
-196.275	191.603	-0.210	-0.313
-195.260	-14.649	0.370	-0.235
-194.246	-75.484	0.625	-0.220
-193.231	-94.310	0.912	0.246
-192.217	-109.795	-0.501	0.104
-191.202	138.009	0.313	-0.405
-190.187	-200.000	0.008	-0.674
-189.173	-69.068	0.542	0.206
-188.158	800.000	-0.105	-0.361
-187.144	173.378	0.422	0.602
-186.129	109.814	0.486	-0.576
-185.114	407.683	0.328	0.684
-184.100	-30.126	-0.372	0.209
-183.085	749.901	0.109	-0.289
-182.071	316.035	0.106	-0.197
-181.056	-142.967	0.228	0.022
-180.042	-39.611	0.306	-0.158
-179.027	-45.131	0.270	0.133
-178.012	-200.000	0.075	-0.559
-176.998	-200.000	-0.012	0.067
-175.983	-93.135	-0.639	-0.176
-174.969	627.597	0.052	0.130
-173.954	-142.957	-0.376	-0.036
-172.939	-200.000	0.042	0.732
-171.925	-56.966	0.327	0.143
-170.910	800.000	-0.127	0.437
-169.896	736.213	-0.052	0.136
-168.881	419.291	0.229	0.483
-167.866	-171.061	0.836	0.028
-166.852	652.886	0.311	-0.787
-165.837	-11.541	-0.083	0.054
-164.823	439.059	0.142	-0.307
-163.808	-200.000	-0.097	0.590
-162.793	-110.907	0.371	-0.075
-161.779	-98.287	0.449	0.114
-160.764	-143.348	-1.393	-0.132
-159.750	-33.199	-0.345	-0.188
-158.735	800.000	-0.113	-0.389
-157.720	-169.208	-0.447	0.016
-156.706	124.663	-0.201	-0.250
-155.691	800.000	0.282	-0.841
-154.677	210.270	0.197	-0.305
-153.662	-69.897	-0.222	-0.084
-152.647	-56.844	-0.197	0.086
-151.633	146.208	0.335	-0.444
-150.618	20.096	-0.710	0.565
-149.604	-200.000	0.038	0.450
-148.589	-129.126	-0.907	-0.125
-147.574	387.685	0.348	0.711
-146.560	33.982	-0.492	-0.422
-145.545	-98.157	-0.294	-0.075
-144.531	-102.019	-0.156	0.037
-143.516	-130.887	-0.491	0.065
-142.502	-46.776	-0.593	-0.286
-141.487	150.838	0.420	-0.563
-140.472	407.299	0.233	-0.486
-139.458	274.570	-0.274	-0.478
-138.443	-200.000	0.092	-0.655
-137.429	-65.293	-0.073	-0.029
-136.414	-37.054	0.985	-0.520
-135.399	-76.356	0.275	0.095
-134.385	155.413	-0.357	0.484
-133.370	-200.000	0.022	-0.611
-132.356	-200.000	-0.138	-0.627
-131.341	88.497	0.221	0.242
-130.326	562.980	-0.090	-0.214
-129.312	-130.681	-0.273	0.036
-128.297	-156.843	0.293	-0.018
-127.283	762.789	-0.223	0.595
-126.268	800.000	0.297	0.891
-125.253	-146.753	-0.466	-0.040
-124.239	-200.000	0.093	1.029
-123.224	745.691	0.400	1.061
-122.210	-200.000	0.128	-0.855
