DTS Sentinel unit serial number:	SN413079Multiplexer serial number:	ORYXHardware model number:	OX4-SRSoftware version number:	ORYX F/W v4.00 Oryx Data Collector v3.7.2.0data status	okinstallation	princeton_trtdifferential loss correction	single-endedforward channel	channel 2reverse channel	N/Adate	2019/09/12time	19:59:49forward acquisition time	15.00reverse acquisition time	0.00gamma	496.2192k internal	0.2328k external	0.2328temperature offset calibration	1.0162default loss term (dB/km)	0.3790temperature slope calibration	1.0000multiplexer offset coefficient	1.0000multiplexer slope coefficient	1.0000fibre end	0.00T internal ref (°C)	31.81T ext. ref 1 (°C)	3.55T ext. ref 2 (°C)	26.37length (m)	temperature (°C)	Stokes	anti-Stokes-747.200	110.209	-0.402	-0.486
-746.185	-66.466	-0.316	0.126
-745.171	-40.400	-0.539	-0.282
-744.156	97.482	-0.382	-0.443
-743.142	-106.773	0.751	-0.168
-742.127	-200.000	-0.096	0.434
-741.112	87.712	-0.437	0.488
-740.098	287.128	-0.126	-0.229
-739.083	-126.049	-0.670	0.101
-738.069	-200.000	-0.027	-0.379
-737.054	-200.000	-0.026	0.543
-736.039	-200.000	0.043	0.194
-735.025	-69.980	0.392	0.150
-734.010	-200.000	0.074	0.705
-732.996	-113.870	-0.380	0.074
-731.981	-200.000	-0.061	-0.517
-730.966	172.132	0.333	0.482
-729.952	-200.000	0.068	0.325
-728.937	13.917	-0.443	-0.347
-727.923	-118.481	-0.919	0.164
-726.908	-5.119	0.347	-0.241
-725.894	207.984	-0.165	0.260
-724.879	-64.900	-0.590	0.240
-723.864	-165.361	0.691	0.031
-722.850	800.000	-0.178	0.496
-721.835	-24.634	0.449	-0.269
-720.821	800.000	-0.154	-0.452
-719.806	352.471	0.099	-0.197
-718.791	27.725	-0.440	0.373
-717.777	800.000	0.037	0.153
-716.762	3.900	-0.561	-0.413
-715.748	-200.000	0.131	-0.906
-714.733	41.847	0.107	-0.098
-713.718	39.123	-0.234	-0.211
-712.704	-83.655	1.177	0.378
-711.689	66.327	0.526	-0.538
-710.675	-16.546	0.165	-0.105
-709.660	0.212	-0.239	-0.171
-708.645	800.000	-0.109	-0.431
-707.631	34.250	-0.285	0.250
-706.616	-102.553	-0.566	0.136
-705.602	40.350	-0.362	0.327
-704.587	177.443	-0.447	-0.655
-703.572	732.825	0.124	0.335
-702.558	-158.323	0.141	0.008
-701.543	-200.000	0.124	0.697
-700.529	629.553	0.118	0.299
-699.514	800.000	0.047	0.143
-698.499	-114.424	-0.458	-0.089
-697.485	-172.783	-0.190	-0.006
-696.470	-170.185	-0.461	0.016
-695.456	176.757	0.087	0.128
-694.441	-200.000	-0.001	0.076
-693.426	-200.000	-0.049	-0.331
-692.412	-113.082	-0.520	0.103
-691.397	37.568	-0.893	0.797
-690.383	-131.045	0.602	0.081
-689.368	102.722	-0.436	-0.513
-688.354	-200.000	0.055	-0.646
-687.339	-99.902	0.112	-0.028
-686.324	136.910	-0.158	0.208
-685.310	-154.278	-0.324	0.022
-684.295	1.509	0.606	-0.438
-683.281	-82.968	0.476	0.154
-682.266	503.835	-0.292	0.680
-681.251	103.248	-0.394	0.465
-680.237	-173.286	-0.659	0.020
-679.222	100.125	0.311	0.363
-678.208	800.000	0.117	-0.504
-677.193	800.000	0.204	0.781
-676.178	58.564	0.366	0.361
-675.164	75.112	0.372	-0.394
-674.149	-70.080	0.124	-0.047
-673.135	608.121	0.334	-0.838
-672.120	278.758	0.257	-0.461
-671.105	-200.000	0.063	-0.665
-670.091	66.969	-0.217	0.222
-669.076	-200.000	-0.011	-0.048
-668.062	46.177	-0.267	0.248
-667.047	-85.656	-0.258	-0.080
-666.032	-200.000	-0.075	0.428
-665.018	539.607	0.217	-0.519
-664.003	314.854	0.154	-0.292
-662.989	-200.000	-0.027	-0.546
-661.974	-137.331	0.294	-0.034
-660.959	-200.000	-0.078	-0.496
-659.945	71.796	0.268	-0.280
-658.930	25.558	0.096	-0.080
-657.916	800.000	-0.203	-0.643
-656.901	-30.431	0.396	0.225
-655.886	800.000	0.143	-0.625
-654.872	-36.759	-0.184	0.099
-653.857	800.000	0.223	-0.696
-652.843	-200.000	-0.138	-1.109
-651.828	-92.677	-0.918	0.258
-650.814	327.593	0.399	-0.769
-649.799	800.000	-0.181	-0.744
-648.784	199.542	0.253	-0.390
-647.770	-129.947	-0.083	-0.011
-646.755	-126.474	0.084	0.013
-645.741	800.000	-0.142	-0.429
-644.726	63.012	0.475	0.477
-643.711	-98.198	-0.449	-0.116
-642.697	-200.000	0.136	-0.608
-641.682	54.383	-0.357	-0.345
-640.668	800.000	-0.138	-0.423
-639.653	-200.000	-0.199	-0.949
-638.638	217.601	0.145	0.232
-637.624	505.762	-0.020	-0.047
-636.609	-95.042	0.671	0.182
-635.595	-72.240	-0.718	0.267
-634.580	-179.495	-0.676	0.015
-633.565	-166.283	-0.412	-0.017
-632.551	-114.521	1.011	-0.195
-631.536	-117.800	1.238	0.223
-630.522	-122.636	-0.542	-0.088
-629.507	521.751	0.252	-0.594
-628.492	800.000	-0.127	0.434
-627.478	56.851	0.213	0.208
-626.463	-200.000	0.005	-0.297
-625.449	-200.000	0.058	-0.827
-624.434	63.193	0.308	-0.309
-623.419	218.656	-0.411	-0.659
-622.405	-161.433	0.304	0.016
-621.390	36.090	0.254	0.224
-620.376	15.630	-0.217	0.171
-619.361	-200.000	0.119	-0.639
-618.346	-200.000	0.138	-0.804
-617.332	517.894	-0.295	0.692
-616.317	800.000	0.102	0.435
-615.303	-81.074	0.573	0.190
-614.288	800.000	-0.160	0.489
-613.273	107.490	-0.265	0.317
-612.259	-55.100	0.266	0.120
-611.244	-26.906	0.203	-0.119
-610.230	-200.000	-0.124	0.754
-609.215	-200.000	-0.022	-0.772
-608.201	-200.000	-0.056	0.601
-607.186	-128.469	0.548	-0.078
-606.171	800.000	0.220	-0.613
-605.157	-55.850	-0.553	-0.247
-604.142	80.005	-0.513	0.553
-603.128	-57.535	0.500	0.220
-602.113	-36.662	0.329	0.177
-601.098	266.311	0.281	0.492
-600.084	297.882	-0.203	0.373
-599.069	-200.000	-0.009	-0.693
-598.055	-9.680	-0.408	-0.273
-597.040	800.000	-0.130	-0.371
-596.025	-200.000	0.113	-0.599
-595.011	-145.901	0.969	0.086
-593.996	-200.000	0.042	0.599
-592.982	800.000	-0.142	0.479
-591.967	437.773	0.015	-0.034
-590.952	94.139	0.753	0.856
-589.938	-200.000	-0.020	-0.372
-588.923	436.602	-0.256	-0.559
-587.909	-116.048	-0.714	0.133
-586.894	36.389	0.224	0.198
-585.879	614.068	0.356	0.893
-584.865	291.769	0.103	0.189
-583.850	-200.000	-0.004	-0.211
-582.836	-110.772	-0.243	-0.050
-581.821	145.232	-0.176	-0.236
-580.806	-52.645	-0.678	-0.313
-579.792	-30.449	0.352	-0.200
-578.777	-45.479	-0.159	-0.079
-577.763	-161.639	1.035	-0.053
-576.748	-114.891	-0.712	-0.136
-575.733	-18.138	-0.608	-0.381
-574.719	-103.732	-0.552	-0.129
-573.704	-200.000	-0.011	-0.219
-572.690	-97.197	-0.813	-0.212
-571.675	-11.382	0.338	-0.223
-570.661	57.754	-0.551	-0.540
-569.646	-11.702	-0.455	-0.299
-568.631	278.934	-0.164	-0.292
-567.617	-2.146	-0.386	0.271
-566.602	-52.283	0.175	0.081
-565.588	492.262	-0.450	1.032
-564.573	-65.153	-0.430	0.174
-563.558	-110.933	-0.208	0.043
-562.544	-71.685	0.453	0.169
-561.529	-23.362	0.251	0.151
-560.515	134.507	0.286	-0.371
-559.500	562.477	-0.415	-1.005
-558.485	474.606	0.233	-0.525
-557.471	800.000	-0.174	-0.609
-556.456	-131.863	0.369	-0.048
-555.442	9.132	-0.559	0.422
-554.427	-48.093	0.546	-0.264
-553.412	34.780	-0.561	0.491
-552.398	800.000	0.045	0.128
-551.383	-84.467	0.545	-0.172
-550.369	-200.000	0.067	0.530
-549.354	614.132	-0.354	0.886
-548.339	328.629	0.230	0.441
-547.325	-101.380	-0.481	-0.117
-546.310	-200.000	0.079	-0.580
-545.296	800.000	0.133	0.366
-544.281	-151.864	0.861	-0.063
-543.266	-15.249	0.435	-0.278
-542.252	-32.968	0.138	-0.077
-541.237	-3.258	0.374	-0.261
-540.223	-97.193	-1.096	-0.286
-539.208	-90.813	0.194	0.056
-538.193	321.368	0.141	-0.268
-537.179	-200.000	0.022	-0.356
-536.164	-46.086	0.546	-0.269
-535.150	-200.000	0.114	-0.718
-534.135	-90.323	0.204	0.059
-533.121	-60.951	0.641	0.271
-532.106	-61.429	-0.692	-0.291
-531.091	276.975	-0.048	0.085
-530.077	-200.000	0.002	0.546
-529.062	-100.345	0.918	0.228
-528.048	-200.000	-0.014	-0.193
-527.033	-200.000	-0.094	0.740
-526.018	32.387	0.293	0.253
-525.004	-110.762	0.389	-0.080
-523.989	-92.922	0.286	0.080
-522.975	-0.414	-0.162	-0.115
-521.960	31.929	0.520	-0.447
-520.945	241.616	0.530	0.884
-519.931	-200.000	-0.125	0.854
-518.916	-17.219	-0.316	0.199
-517.902	800.000	0.110	0.438
-516.887	484.634	-0.156	-0.355
-515.872	-200.000	0.011	1.227
-514.858	11.994	-0.451	0.347
-513.843	-18.215	-0.173	-0.108
-512.829	-34.207	0.938	0.514
-511.814	67.815	-0.278	-0.283
-510.799	80.521	0.058	-0.062
-509.785	-200.000	-0.087	0.434
-508.770	-172.680	0.129	0.004
-507.756	-1.020	-0.241	0.170
-506.741	794.709	-0.164	-0.450
-505.726	800.000	-0.344	-1.069
-504.712	-200.000	-0.043	-0.672
-503.697	-85.137	-0.552	0.172
-502.683	800.000	-0.091	0.345
-501.668	144.236	-0.479	0.638
-500.653	-200.000	0.028	-0.570
-499.639	473.585	-0.112	-0.252
-498.624	800.000	-0.048	-0.196
-497.610	369.923	0.256	-0.517
-496.595	3.810	-0.374	-0.273
-495.581	-59.913	-0.079	0.034
-494.566	800.000	-0.180	0.716
-493.551	-66.685	0.220	0.087
-492.537	462.940	-0.116	-0.259
-491.522	20.016	0.256	0.206
-490.508	46.102	-0.760	0.702
-489.493	140.356	-0.123	0.162
-488.478	-83.582	-0.620	0.198
-487.464	-76.637	-0.211	-0.074
-486.449	74.686	0.202	-0.212
-485.435	-58.942	0.301	-0.130
-484.420	5.505	-0.842	-0.620
-483.405	-27.787	-0.268	0.155
-482.391	636.907	-0.188	0.475
-481.376	177.982	0.364	-0.530
-480.362	-180.401	0.378	0.008
-479.347	-44.314	-0.508	-0.254
-478.332	15.295	-0.554	-0.434
-477.318	-200.000	-0.130	0.630
-476.303	121.471	-0.184	0.228
-475.289	314.390	-0.137	-0.258
-474.274	-200.000	0.000	-0.496
-473.259	203.263	0.724	-1.117
-472.245	-200.000	0.026	0.308
-471.230	-82.665	-0.565	0.182
-470.216	555.599	-0.132	-0.316
-469.201	800.000	0.125	0.431
-468.186	767.387	0.103	0.279
-467.172	-5.258	0.237	-0.163
-466.157	109.586	0.211	-0.252
-465.143	-54.842	-0.367	0.165
-464.128	-2.747	0.257	0.179
-463.113	-200.000	0.024	0.663
-462.099	329.874	-0.244	0.468
-461.084	428.365	-0.165	0.354
-460.070	165.076	0.552	-0.776
-459.055	-59.154	0.115	-0.049
-458.040	-128.335	-0.859	0.122
-457.026	-200.000	0.017	0.479
-456.011	-111.995	-0.852	-0.171
-454.997	-24.931	0.423	-0.250
-453.982	-200.000	-0.021	-0.700
-452.968	-200.000	0.211	0.990
-451.953	-67.513	0.084	-0.033
-450.938	-200.000	0.017	-0.601
-449.924	0.605	-0.613	-0.437
-448.909	-19.809	-0.526	0.324
-447.895	-115.949	0.628	0.117
-446.880	-133.745	-0.395	-0.049
-445.865	-72.163	0.383	0.142
-444.851	-194.459	0.871	0.007
-443.836	96.222	-0.222	-0.252
-442.822	800.000	0.115	-0.448
-441.807	371.030	0.103	-0.207
-440.792	-95.709	0.599	0.159
-439.778	-63.139	-0.593	0.243
-438.763	-135.855	-0.593	-0.070
-437.749	190.251	-0.245	0.367
-436.734	16.118	-0.589	-0.462
-435.719	-35.215	0.592	0.321
-434.705	-126.954	-1.235	0.181
-433.690	-200.000	-0.257	-1.246
-432.676	800.000	0.264	0.889
-431.661	-200.000	-0.107	0.529
-430.646	-41.107	0.464	0.238
-429.632	602.767	0.255	0.631
-428.617	73.022	0.568	0.591
-427.603	-5.160	-0.673	0.461
-426.588	-200.000	0.051	-0.529
-425.573	-177.311	0.486	0.012
-424.559	-24.794	-0.424	0.250
-423.544	-74.687	0.376	0.134
-422.530	-200.000	0.052	0.496
-421.515	800.000	0.213	-0.811
-420.500	35.890	0.442	-0.387
-419.486	-200.000	0.023	-0.702
-418.471	17.152	-0.386	-0.305
-417.457	-200.000	0.449	-0.002
-416.442	-26.175	1.121	-0.655
-415.428	74.237	0.752	-0.786
-414.413	53.091	-0.616	0.586
-413.398	-174.958	-0.442	-0.012
-412.384	-44.947	0.373	0.185
-411.369	-86.214	0.659	-0.202
-410.355	145.482	-0.357	0.475
-409.340	800.000	-0.108	0.324
-408.325	-35.786	-0.771	0.416
-407.311	-5.992	-0.176	0.120
-406.296	-200.000	0.011	0.123
-405.282	20.347	0.210	-0.169
-404.267	-200.000	0.164	0.837
-403.252	20.843	-0.175	0.141
-402.238	660.582	0.323	0.827
-401.223	800.000	0.097	0.286
-400.209	162.391	-0.269	0.375
-399.194	0.343	0.592	0.420
-398.179	346.400	0.096	-0.187
-397.165	-42.078	0.228	0.116
-396.150	-84.646	0.554	-0.173
-395.136	-74.802	-0.163	-0.058
-394.121	183.850	-0.651	0.957
-393.106	38.592	-0.196	-0.174
-392.092	18.935	-0.634	0.505
-391.077	-119.958	-0.627	0.107
-390.063	800.000	0.025	0.091
-389.048	83.690	0.505	0.547
-388.033	-7.658	0.339	-0.228
-387.019	647.254	0.224	0.568
-386.004	192.667	0.159	0.239
-384.990	271.359	-0.305	0.534
-383.975	800.000	0.179	-0.491
-382.960	-65.766	0.536	-0.213
-381.946	643.434	0.119	-0.301
-380.931	23.622	-0.627	-0.513
-379.917	800.000	0.393	1.143
-378.902	33.880	0.569	-0.492
-377.888	-28.390	-0.464	0.266
-376.873	-128.401	-0.570	0.081
-375.858	-37.455	-0.179	-0.095
-374.844	800.000	0.105	0.358
-373.829	171.597	0.121	0.173
-372.815	-140.864	0.255	-0.026
-371.800	800.000	-0.040	-0.139
-370.785	51.269	0.219	0.207
-369.771	35.001	0.235	0.204
-368.756	6.966	-0.377	-0.279
-367.742	-128.736	-0.959	-0.134
-366.727	103.895	-0.618	0.721
-365.712	-169.808	0.276	-0.010
-364.698	280.965	0.334	0.594
-363.683	-8.659	-0.609	0.406
-362.669	-132.818	-0.279	0.035
-361.654	-86.596	0.473	0.144
-360.639	-200.000	-0.144	0.844
-359.625	13.650	-0.448	-0.345
-358.610	-116.186	-0.277	0.051
-357.596	-190.101	-0.480	-0.005
-356.581	37.666	-0.791	0.697
-355.566	-145.587	0.504	-0.045
-354.552	-33.747	0.466	-0.255
-353.537	-74.106	-0.314	-0.113
-352.523	-119.983	0.312	-0.053
-351.508	-49.473	-0.664	-0.314
-350.493	205.703	0.626	-0.965
-349.479	116.164	0.527	-0.640
-348.464	800.000	0.064	-0.255
-347.450	-17.698	0.267	0.167
-346.435	118.143	-0.077	-0.094
-345.420	10.364	-0.600	-0.453
-344.406	-157.742	-0.442	-0.026
-343.391	45.960	-0.328	-0.301
-342.377	-200.000	-0.000	0.275
-341.362	16.919	-0.186	0.146
-340.348	-46.218	-0.323	-0.157
-339.333	-165.782	0.782	0.033
-338.318	463.171	0.278	0.615
-337.304	-121.528	-0.070	-0.012
-336.289	-76.257	-0.192	0.067
-335.275	21.709	-0.429	0.347
-334.260	-69.647	0.558	0.212
-333.245	41.181	0.651	-0.583
-332.231	-111.468	-0.326	-0.066
-331.216	800.000	0.064	0.261
-330.202	800.000	-0.037	0.141
-329.187	-6.654	-0.575	-0.388
-328.172	-200.000	-0.049	0.217
-327.158	-200.000	-0.073	-0.497
-326.143	-125.431	-0.495	0.075
-325.129	29.966	-0.326	0.276
-324.114	276.854	-0.151	-0.266
-323.099	-78.401	0.791	0.269
-322.085	414.630	-0.142	0.299
-321.070	86.450	0.377	0.412
-320.056	-200.000	0.009	0.607
-319.041	-118.830	0.348	0.061
-318.026	-57.469	0.624	0.271
-317.012	51.513	-0.589	0.555
-315.997	-147.218	0.699	0.059
-314.983	120.961	-0.185	0.228
-313.968	178.132	-0.327	-0.473
-312.953	800.000	0.258	0.750
-311.939	97.914	-0.291	-0.331
-310.924	281.735	-0.295	-0.524
-309.910	-25.418	0.502	-0.294
-308.895	7.907	0.642	0.477
-307.880	578.962	-0.153	-0.372
-306.866	-115.140	0.326	-0.061
-305.851	-1.958	-0.304	0.212
-304.837	-93.615	-1.121	-0.307
-303.822	-200.000	-0.040	0.793
-302.807	-142.584	0.190	-0.018
-301.793	14.497	-0.602	0.466
-300.778	-106.131	0.904	0.201
-299.764	-37.237	0.792	0.419
-298.749	800.000	-0.290	0.862
-297.735	-40.462	0.723	-0.372
-296.720	-200.000	0.070	0.312
-295.705	-132.260	-0.751	-0.096
-294.691	800.000	0.182	-0.577
-293.676	-0.753	0.267	-0.188
-292.662	13.739	0.764	0.587
-291.647	-200.000	-0.064	-0.290
-290.632	50.655	0.319	0.299
-289.618	-8.596	0.461	0.307
-288.603	304.311	-0.103	-0.189
-287.589	13.212	-0.478	-0.366
-286.574	-103.636	-0.807	0.187
-285.559	115.286	-0.261	-0.316
-284.545	51.043	0.559	-0.524
-283.530	254.849	-0.187	0.317
-282.516	-112.962	-0.455	0.089
-281.501	59.949	-0.551	-0.539
-280.486	13.130	-0.794	-0.608
-279.472	800.000	0.209	0.899
-278.457	4.979	0.560	-0.408
-277.443	-5.259	0.493	0.335
-276.428	-200.000	-0.116	-0.625
-275.413	-56.451	-0.440	-0.193
-274.399	800.000	-0.263	-0.773
-273.384	-200.000	0.009	0.161
-272.370	-71.696	-0.315	-0.116
-271.355	-19.900	0.495	-0.302
-270.340	2.990	0.151	0.109
-269.326	-0.065	-1.074	-0.756
-268.311	189.647	-0.124	0.184
-267.297	299.815	0.216	-0.394
-266.282	-200.000	0.115	0.959
-265.267	-59.109	0.356	-0.152
-264.253	-109.638	-0.249	-0.052
-263.238	745.078	-0.160	-0.426
-262.224	-118.295	0.245	0.043
-261.209	475.414	-0.133	-0.298
-260.195	322.981	-0.112	0.212
-259.180	-61.887	-0.322	-0.133
-258.165	-60.654	-0.320	-0.134
-257.151	-16.632	-0.467	0.292
-256.136	-200.000	0.048	0.402
-255.122	20.136	-0.365	-0.291
-254.107	-4.622	0.476	-0.325
-253.092	210.304	-0.135	-0.209
-252.078	-25.232	-0.654	0.383
-251.063	-200.000	-0.069	-0.707
-250.049	-172.547	0.740	-0.023
-249.034	241.458	-0.261	0.430
-248.019	800.000	0.109	0.369
-247.005	645.600	0.239	0.604
-245.990	-162.042	0.578	-0.029
-244.976	-48.733	0.754	0.358
-243.961	-200.000	-0.002	1.074
-242.946	-48.567	-0.688	-0.327
-241.932	99.937	0.477	-0.547
-240.917	-12.436	0.221	-0.143
-239.903	-121.242	-0.412	-0.068
-238.888	52.108	-0.163	0.154
-237.873	-200.000	0.001	0.211
-236.859	-58.229	-0.358	0.154
-235.844	-77.432	0.223	0.077
-234.830	-58.885	0.793	-0.339
-233.815	-76.202	0.143	0.050
-232.800	10.934	0.711	-0.537
-231.786	800.000	-0.183	0.573
-230.771	-200.000	0.187	-1.060
-229.757	-122.761	0.405	-0.065
-228.742	240.461	-0.354	-0.584
-227.727	374.853	-0.308	0.620
-226.713	22.706	0.544	-0.440
-225.698	-21.984	-0.829	-0.498
-224.684	35.992	0.183	-0.159
-223.669	62.333	-0.621	0.612
-222.655	-154.156	-0.352	0.024
-221.640	28.441	0.083	-0.069
-220.625	144.210	0.513	-0.676
-219.611	86.044	-0.599	-0.651
-218.596	-159.002	0.830	0.046
-217.582	163.133	-0.297	0.412
-216.567	50.097	0.575	0.536
-215.552	364.260	0.340	-0.675
-214.538	-12.206	0.603	-0.390
-213.523	-54.595	-0.104	0.046
-212.509	58.650	0.282	0.274
-211.494	442.618	0.263	0.568
-210.479	235.988	0.294	0.480
-209.465	208.615	-0.164	0.253
-208.450	9.807	-0.541	0.405
-207.436	-200.000	0.180	-1.034
-206.421	233.450	-0.391	-0.635
-205.406	-200.000	0.059	0.602
-204.392	142.130	0.631	0.826
-203.377	791.827	0.206	-0.560
-202.363	-144.797	-0.786	-0.071
-201.348	800.000	-0.361	-1.184
-200.333	137.943	0.314	-0.407
-199.319	507.379	0.388	0.888
-198.304	106.660	0.593	0.694
-197.290	-200.000	-0.006	0.439
-196.275	-200.000	0.054	0.603
-195.260	-200.000	-0.030	-0.367
-194.246	800.000	-0.232	-0.676
-193.231	-96.904	0.452	0.117
-192.217	98.586	0.321	0.365
-191.202	53.831	0.303	-0.287
-190.187	449.856	-0.116	-0.252
-189.173	483.340	0.330	-0.739
-188.158	-200.000	-0.075	-0.347
-187.144	5.444	0.281	0.205
-186.129	-161.211	0.465	0.024
-185.114	-200.000	0.043	0.477
-184.100	399.005	-0.300	-0.618
-183.085	-96.810	0.693	-0.180
-182.071	511.676	-0.150	0.344
-181.056	324.946	0.588	-1.108
-180.042	800.000	-0.048	-0.142
-179.027	96.398	0.084	-0.095
-178.012	-38.459	0.270	0.141
-176.998	-82.533	-0.293	0.094
-175.983	800.000	0.092	-0.270
-174.969	187.729	0.666	0.980
-173.954	384.432	0.267	-0.543
-172.939	207.306	-0.528	-0.812
-171.925	304.855	0.062	0.113
-170.910	324.161	-0.243	0.458
-169.896	-41.582	-0.753	0.381
-168.881	-109.531	0.596	-0.124
-167.866	-156.986	-0.139	0.008
-166.852	241.523	-0.213	-0.350
-165.837	270.522	-0.446	0.772
-164.823	236.961	0.286	-0.467
-163.808	-0.933	-0.813	0.567
-162.793	-79.592	0.257	-0.085
-161.779	800.000	-0.068	-0.193
-160.764	24.700	-0.639	-0.521
-159.750	-14.114	0.219	0.139
-158.735	-200.000	0.046	-0.578
-157.720	39.038	-0.260	0.229
-156.706	370.157	-0.091	-0.182
-155.691	75.579	0.163	-0.169
-154.677	800.000	0.209	-0.657
-153.662	800.000	-0.116	-0.461
-152.647	596.493	-0.110	0.268
-151.633	-109.381	0.293	-0.061
-150.618	-7.834	0.171	0.114
-149.604	800.000	0.106	0.304
-148.589	-42.592	0.723	-0.362
-147.574	-45.539	-0.197	-0.096
-146.560	195.973	-0.415	-0.622
-145.545	324.064	-0.090	-0.169
-144.531	-166.134	-0.954	0.040
-143.516	-200.000	-0.007	-0.227
-142.502	431.071	0.383	0.817
-141.487	604.975	0.071	0.174
-140.472	-59.255	-0.909	0.385
-139.458	-76.542	0.516	0.178
-138.443	-113.850	0.447	0.086
-137.429	-8.719	-0.441	0.291
-136.414	-200.000	0.087	0.724
-135.399	-200.000	-0.107	-0.000
-134.385	-151.408	-0.619	0.045
-133.370	-200.000	-0.008	-0.257
-132.356	223.940	-0.232	0.369
-131.341	-134.046	-0.542	-0.066
-130.326	651.881	0.362	-0.914
-129.312	-7.051	0.545	0.364
-128.297	-200.000	0.091	-1.025
-127.283	439.104	-0.252	-0.541
-126.268	172.565	-0.701	0.993
-125.253	484.901	-0.246	-0.551
-124.239	-200.000	0.141	-0.686
-123.224	800.000	-0.016	-0.060
-122.210	-200.000	-0.009	-1.163
-121.195	-144.056	-0.297	-0.027
-120.180	300.938	0.363	0.659
