DTS Sentinel unit serial number:	SN413079Multiplexer serial number:	ORYXHardware model number:	OX4-SRSoftware version number:	ORYX F/W v4.00 Oryx Data Collector v3.7.2.0data status	okinstallation	princeton_trtdifferential loss correction	single-endedforward channel	channel 2reverse channel	N/Adate	2019/09/14time	17:03:35forward acquisition time	60.00reverse acquisition time	0.00gamma	496.2192k internal	0.2307k external	0.2307temperature offset calibration	1.0121default loss term (dB/km)	0.3790temperature slope calibration	1.0000multiplexer offset coefficient	1.0000multiplexer slope coefficient	1.0000fibre end	0.00T internal ref (°C)	38.00T ext. ref 1 (°C)	5.00T ext. ref 2 (°C)	33.14length (m)	temperature (°C)	Stokes	anti-Stokes-747.200	-200.000	-0.001	0.237
-746.185	-199.673	-0.245	-0.001
-745.171	-105.551	0.206	0.048
-744.156	86.343	-0.308	0.345
-743.142	256.288	-0.090	-0.158
-742.127	29.179	-0.106	0.091
-741.112	84.023	-0.069	-0.077
-740.098	-89.874	0.166	0.049
-739.083	-200.000	-0.023	0.398
-738.069	23.874	-0.426	-0.357
-737.054	320.147	-0.117	-0.227
-736.039	800.000	-0.061	0.203
-735.025	159.043	0.214	0.302
-734.010	7.892	-0.051	-0.039
-732.996	693.884	-0.089	0.237
-731.981	-200.000	0.049	0.414
-730.966	9.818	-0.141	0.108
-729.952	-65.940	0.151	-0.061
-728.937	-160.540	0.144	-0.008
-727.923	-125.051	-0.281	0.044
-726.908	-139.114	-0.381	-0.042
-725.894	-58.638	0.119	0.052
-724.879	156.130	-0.133	0.187
-723.864	125.064	-0.113	-0.145
-722.850	278.218	-0.174	0.315
-721.835	-74.756	-0.163	0.059
-720.821	800.000	-0.021	0.079
-719.806	-139.544	-0.505	0.055
-718.791	82.665	-0.020	-0.022
-717.777	159.764	0.041	0.058
-716.762	-200.000	-0.010	0.299
-715.748	-106.497	0.205	0.046
-714.733	-114.367	-0.177	-0.035
-713.718	621.981	0.044	-0.112
-712.704	-200.000	0.028	-0.199
-711.689	45.804	0.150	0.141
-710.675	182.673	0.125	0.187
-709.660	-200.000	-0.080	-0.363
-708.645	-84.787	0.145	-0.046
-707.631	17.338	0.131	0.106
-706.616	133.343	-0.145	-0.190
-705.602	0.244	0.235	-0.170
-704.587	31.218	-0.093	0.081
-703.572	-120.508	-0.425	0.073
-702.558	336.979	-0.082	0.162
-701.543	-200.000	0.004	-0.273
-700.529	-200.000	-0.005	-0.079
-699.514	-200.000	0.019	-0.294
-698.499	44.422	-0.110	-0.103
-697.485	13.388	0.142	-0.111
-696.470	721.876	0.231	0.624
-695.456	-200.000	-0.050	0.444
-694.441	-200.000	-0.010	0.069
-693.426	-96.791	-0.134	0.036
-692.412	-200.000	-0.026	-0.172
-691.397	413.787	-0.121	-0.261
-690.383	-172.344	0.152	0.005
-689.368	460.381	-0.094	-0.212
-688.354	616.651	0.111	-0.282
-687.339	-84.439	-0.191	-0.061
-686.324	185.925	-0.100	-0.151
-685.310	800.000	0.050	-0.198
-684.295	-200.000	0.042	-0.353
-683.281	-10.232	-0.121	0.081
-682.266	-56.509	0.288	0.129
-681.251	-200.000	0.044	-0.313
-680.237	-104.806	-0.061	0.014
-679.222	-109.726	0.324	-0.069
-678.208	16.094	0.202	-0.162
-677.193	-120.066	-0.196	0.034
-676.178	89.973	-0.149	0.169
-675.164	-9.121	0.168	-0.114
-674.149	-132.901	0.085	0.011
-673.135	255.733	0.191	-0.332
-672.120	21.309	0.024	0.020
-671.105	-74.472	-0.144	-0.053
-670.091	-200.000	0.013	0.362
-669.076	50.621	-0.078	-0.075
-668.062	800.000	-0.105	-0.340
-667.047	5.483	-0.251	-0.188
-666.032	-0.724	-0.165	0.118
-665.018	-93.220	0.200	-0.056
-664.003	-200.000	-0.015	0.291
-662.989	-200.000	-0.007	-0.172
-661.974	-200.000	-0.005	-0.278
-660.959	800.000	-0.051	0.175
-659.945	-84.728	0.262	-0.083
-658.930	-39.726	0.216	-0.115
-657.916	800.000	-0.028	0.106
-656.901	-139.126	-0.078	-0.009
-655.886	-56.202	-0.360	-0.162
-654.872	800.000	0.034	0.111
-653.857	30.039	-0.096	0.083
-652.843	-77.138	-0.282	-0.100
-651.828	253.133	-0.158	0.274
-650.814	-200.000	0.017	-0.227
-649.799	15.476	-0.219	-0.174
-648.784	13.119	0.317	0.248
-647.770	-87.731	-0.271	0.083
-646.755	212.306	-0.153	0.245
-645.741	-200.000	0.013	-0.214
-644.726	456.257	0.019	0.042
-643.711	800.000	0.141	0.404
-642.697	140.589	-0.119	0.159
-641.682	-61.706	-0.094	0.040
-640.668	-85.978	-0.058	0.018
-639.653	800.000	0.038	-0.113
-638.638	-160.642	0.254	0.014
-637.624	-180.422	-0.098	-0.002
-636.609	35.189	-0.065	0.058
-635.595	800.000	0.036	0.105
-634.580	117.353	-0.117	-0.145
-633.565	-55.430	-0.390	0.177
-632.551	800.000	-0.055	-0.161
-631.536	161.719	0.043	0.061
-630.522	147.734	-0.288	0.393
-629.507	-56.092	-0.105	-0.047
-628.492	-200.000	0.004	0.104
-627.478	9.843	-0.102	0.079
-626.463	-44.658	-0.218	-0.110
-625.449	24.241	0.269	-0.225
-624.434	-200.000	0.027	-0.310
-623.419	787.065	-0.043	0.119
-622.405	92.068	0.188	0.215
-621.390	182.942	-0.209	0.313
-620.376	-71.174	-0.166	0.063
-619.361	-37.200	0.319	0.172
-618.346	-129.412	0.246	0.035
-617.332	-79.078	0.073	0.025
-616.317	135.302	-0.043	-0.056
-615.303	-174.675	-0.190	-0.005
-614.288	-200.000	0.022	-0.596
-613.273	-200.000	-0.004	0.114
-612.259	-116.305	-0.211	-0.040
-611.244	800.000	0.079	-0.312
-610.230	-114.192	-0.418	0.082
-609.215	-53.878	0.110	0.051
-608.201	-200.000	-0.015	0.145
-607.186	216.709	-0.153	-0.246
-606.171	-200.000	-0.035	0.191
-605.157	-86.931	0.257	-0.079
-604.142	-112.066	-0.091	0.019
-603.128	83.774	0.350	-0.386
-602.113	-132.819	0.347	-0.045
-601.098	35.881	-0.106	0.094
-600.084	512.813	0.080	0.189
-599.069	186.893	0.190	0.287
-598.055	75.895	-0.209	0.224
-597.040	-105.645	0.392	-0.090
-596.025	60.636	0.143	-0.143
-595.011	-74.034	-0.234	0.086
-593.996	800.000	0.110	-0.329
-592.982	-104.974	-0.384	0.089
-591.967	80.794	-0.166	-0.181
-590.952	-166.094	-0.345	0.015
-589.938	800.000	-0.037	-0.123
-588.923	56.670	0.072	-0.071
-587.909	202.856	-0.142	0.222
-586.894	283.725	-0.070	0.127
-585.879	485.068	0.041	0.095
-584.865	-200.000	-0.105	0.000
-583.850	338.068	0.045	-0.089
-582.836	-2.525	-0.111	-0.079
-581.821	-80.379	0.219	0.074
-580.806	-18.398	0.209	-0.132
-579.792	-122.548	0.236	-0.039
-578.777	532.343	0.081	-0.194
-577.763	800.000	0.132	-0.549
-576.748	-177.280	-0.054	0.001
-575.733	-200.000	-0.012	0.265
-574.719	15.897	-0.130	0.103
-573.704	-73.574	-0.155	-0.057
-572.690	171.569	-0.089	-0.129
-571.675	800.000	-0.044	-0.179
-570.661	-200.000	0.020	-0.136
-569.646	-94.086	-0.354	0.098
-568.631	102.945	0.257	-0.304
-567.617	-200.000	0.004	0.241
-566.602	784.396	0.065	0.179
-565.588	-114.219	0.187	0.037
-564.573	-42.417	-0.240	-0.123
-563.558	4.074	0.352	0.260
-562.544	-139.065	-0.065	-0.007
-561.529	-200.000	-0.029	-0.161
-560.515	243.965	0.074	0.125
-559.500	31.515	0.173	0.150
-558.485	-73.341	0.191	0.071
-557.471	-101.000	0.375	-0.093
-556.456	-65.939	-0.045	-0.018
-555.442	-200.000	-0.038	0.255
-554.427	-146.386	0.146	-0.013
-553.412	187.983	-0.151	0.228
-552.398	-58.861	-0.029	-0.012
-551.383	-135.426	0.131	-0.016
-550.369	397.647	-0.053	-0.112
-549.354	302.663	-0.209	-0.391
-548.339	18.974	-0.100	0.081
-547.325	-103.458	0.034	-0.008
-546.310	-200.000	0.029	-0.228
-545.296	800.000	0.038	0.133
-544.281	-40.703	0.097	-0.051
-543.266	-136.225	0.217	0.026
-542.252	-200.000	-0.046	0.340
-541.237	216.575	0.090	0.144
-540.223	18.019	-0.232	0.186
-539.208	123.939	-0.230	-0.292
-538.193	-53.053	-0.231	0.107
-537.179	-143.579	0.195	0.019
-536.164	-69.583	0.393	-0.152
-535.150	597.965	-0.049	-0.123
-534.135	-200.000	-0.006	0.133
-533.121	-19.212	-0.094	-0.059
-532.106	202.526	-0.171	-0.266
-531.091	-200.000	-0.051	0.228
-530.077	434.929	0.074	0.163
-529.062	800.000	0.052	0.191
-528.048	-13.231	0.251	0.164
-527.033	800.000	-0.090	0.384
-526.018	-200.000	-0.021	0.182
-525.004	-109.676	-0.481	0.102
-523.989	-87.294	0.089	0.027
-522.975	599.188	0.080	0.201
-521.960	-200.000	0.190	-0.000
-520.945	-62.186	-0.358	0.150
-519.931	96.873	-0.142	0.164
-518.916	-121.151	0.241	0.041
-517.902	-4.355	-0.032	0.023
-516.887	75.518	0.099	-0.105
-515.872	-200.000	-0.026	-0.227
-514.858	452.279	-0.076	-0.169
-513.843	58.345	-0.140	0.139
-512.829	-22.813	-0.086	-0.052
-511.814	328.044	0.118	0.229
-510.799	-31.451	-0.112	0.064
-509.785	800.000	0.075	0.311
-508.770	800.000	-0.079	-0.305
-507.756	312.411	0.180	0.341
-506.741	422.082	0.143	0.309
-505.726	272.390	-0.073	0.129
-504.712	-30.627	-0.239	-0.136
-503.697	-96.589	-0.312	-0.083
-502.683	-72.352	0.267	0.099
-501.668	15.314	0.348	-0.275
-500.653	-200.000	-0.008	0.110
-499.639	140.823	0.135	-0.180
-498.624	-200.000	-0.021	-0.190
-497.610	264.259	0.221	0.387
-496.595	-128.862	-0.124	0.018
-495.581	309.385	-0.221	-0.417
-494.566	32.168	-0.229	0.199
-493.551	-13.172	0.140	0.091
-492.537	-192.778	0.284	-0.003
-491.522	84.924	0.090	-0.100
-490.508	-47.023	0.326	0.160
-489.493	146.490	0.035	-0.048
-488.478	-137.020	-0.058	0.007
-487.464	-5.817	-0.114	-0.079
-486.449	800.000	-0.030	-0.100
-485.435	-137.328	-0.094	0.011
-484.420	287.085	0.148	0.269
-483.405	-79.510	0.109	-0.037
-482.391	-80.734	0.132	0.044
-481.376	800.000	0.001	-0.005
-480.362	187.676	-0.246	0.370
-479.347	35.948	0.274	0.243
-478.332	-81.901	0.281	-0.093
-477.318	-149.152	-0.379	-0.031
-476.303	71.150	-0.077	-0.081
-475.289	85.188	-0.187	0.206
-474.274	127.902	0.126	-0.161
-473.259	223.527	0.057	-0.093
-472.245	-167.918	0.419	-0.017
-471.230	509.384	0.091	0.212
-470.216	800.000	0.033	-0.144
-469.201	-121.289	-0.081	-0.014
-468.186	-200.000	-0.017	0.082
-467.172	28.483	-0.116	-0.099
-466.157	62.002	0.257	-0.257
-465.143	-165.611	-0.045	0.002
-464.128	-118.639	0.153	-0.027
-463.113	-98.450	-0.137	0.035
-462.099	-67.020	-0.179	-0.071
-461.084	-200.000	0.029	-0.150
-460.070	43.083	0.172	0.158
-459.055	-141.563	-0.029	0.003
-458.040	-200.000	0.017	0.411
-457.026	1.859	-0.168	0.122
-456.011	-179.893	-0.485	0.010
-454.997	124.182	-0.135	-0.171
-453.982	27.242	-0.041	0.034
-452.968	62.742	0.063	0.063
-451.953	800.000	-0.058	-0.208
-450.938	19.709	0.211	0.171
-449.924	1.810	0.164	-0.119
-448.909	800.000	-0.064	0.190
-447.895	33.168	0.027	-0.024
-446.880	-80.609	-0.132	-0.044
-445.865	-200.000	0.013	0.383
-444.851	-200.000	-0.023	0.257
-443.836	7.234	0.294	0.221
-442.822	-36.610	0.154	-0.083
-441.807	75.896	0.066	-0.070
-440.792	-200.000	-0.008	-0.285
-439.778	85.335	0.016	0.018
-438.763	-200.000	0.021	-0.218
-437.749	800.000	0.052	0.165
-436.734	-96.086	-0.321	0.086
-435.719	-53.769	0.253	-0.116
-434.705	-153.086	0.080	-0.006
-433.690	196.229	0.243	0.371
-432.676	-104.276	-0.085	-0.020
-431.661	365.645	0.090	-0.183
-430.646	-109.153	0.155	0.033
-429.632	-200.000	0.007	-0.211
-428.617	-20.561	0.323	-0.199
-427.603	-55.073	-0.431	0.195
-426.588	380.235	0.079	-0.162
-425.573	-30.566	-0.160	0.091
-424.559	-128.430	0.415	-0.059
-423.544	-104.980	-0.320	0.074
-422.530	-59.543	0.301	0.130
-421.515	-66.541	0.112	-0.044
-420.500	68.898	-0.155	-0.160
-419.486	792.407	-0.016	-0.045
-418.471	-182.650	0.267	-0.005
-417.457	48.705	-0.131	0.123
-416.442	111.162	-0.121	0.146
-415.428	84.774	-0.202	-0.222
-414.413	-125.900	-0.287	-0.043
-413.398	-18.242	-0.148	-0.093
-412.384	-200.000	-0.021	-0.101
-411.369	752.373	-0.096	0.261
-410.355	-31.719	0.253	-0.142
-409.340	-200.000	-0.039	-0.375
-408.325	-110.577	0.029	-0.006
-407.311	424.578	-0.163	-0.351
-406.296	100.463	0.150	0.175
-405.282	-129.611	-0.034	-0.005
-404.267	-38.898	-0.210	0.111
-403.252	487.507	-0.062	-0.141
-402.238	800.000	-0.106	-0.346
-401.223	-200.000	0.033	-0.192
-400.209	-200.000	0.004	-0.087
-399.194	800.000	0.055	-0.199
-398.179	-151.571	0.140	-0.010
-397.165	258.348	0.086	-0.149
-396.150	-200.000	-0.013	-0.329
-395.136	-16.667	-0.084	0.053
-394.121	-200.000	0.046	-0.393
-393.106	-138.228	-0.373	0.041
-392.092	67.259	0.229	0.234
-391.077	-47.364	0.258	-0.126
-390.063	69.815	-0.199	-0.206
-389.048	-44.741	-0.198	-0.099
-388.033	-200.000	-0.038	0.201
-387.019	-200.000	0.043	0.344
-386.004	800.000	-0.068	-0.254
-384.990	-69.230	0.112	0.043
-383.975	-79.465	0.131	-0.044
-382.960	-29.640	0.169	-0.097
-381.946	107.326	0.058	-0.069
-380.931	109.915	-0.121	-0.146
-379.917	-131.939	0.055	-0.007
-378.902	47.507	0.132	-0.124
-377.888	-200.000	0.007	-0.121
-376.873	-200.000	-0.026	-0.165
-375.858	79.239	-0.109	-0.117
-374.844	295.289	0.113	-0.208
-373.829	31.898	0.399	0.344
-372.815	-200.000	-0.020	0.147
-371.800	-60.334	-0.394	-0.168
-370.785	-200.000	0.011	-0.178
-369.771	14.522	-0.121	0.095
-368.756	71.282	-0.021	-0.022
-367.742	-77.697	0.232	0.080
-366.727	800.000	-0.021	0.062
-365.712	107.369	-0.087	0.103
-364.698	183.124	0.180	-0.267
-363.683	-28.743	-0.097	-0.056
-362.669	189.015	-0.101	-0.152
-361.654	-200.000	-0.001	0.013
-360.639	18.582	-0.191	0.153
-359.625	148.360	0.052	0.071
-358.610	-200.000	0.010	-0.275
-357.596	331.288	0.186	0.359
-356.581	14.266	-0.119	0.093
-355.566	-58.646	0.274	-0.119
-354.552	-200.000	0.017	0.277
-353.537	-68.395	0.197	-0.077
-352.523	800.000	0.066	-0.280
-351.508	-100.390	-0.160	0.040
-350.493	-96.500	0.460	0.122
-349.479	219.510	0.165	-0.265
-348.464	153.020	-0.079	-0.109
-347.450	120.226	-0.082	0.102
-346.435	-200.000	0.001	-0.100
-345.420	575.780	0.013	0.032
-344.406	172.511	-0.102	-0.147
-343.391	-95.925	-0.404	0.108
-342.377	-45.361	0.147	-0.073
-341.362	-94.336	-0.366	-0.100
-340.348	-119.996	0.173	-0.030
-339.333	64.219	-0.192	-0.194
-338.318	-86.131	0.137	0.042
-337.304	359.979	0.085	0.171
-336.289	411.730	0.104	-0.222
-335.275	219.167	0.187	-0.300
-334.260	-39.072	0.206	-0.109
-333.245	-200.000	0.008	0.138
-332.231	-155.158	-0.153	-0.010
-331.216	-86.526	0.142	0.043
-330.202	800.000	-0.046	0.161
-329.187	-200.000	0.041	0.264
-328.172	-94.217	0.232	0.063
-327.158	287.012	0.029	0.052
-326.143	-45.338	0.249	0.124
-325.129	-200.000	-0.030	-0.401
-324.114	73.659	0.101	-0.106
-323.099	-11.545	-0.156	-0.103
-322.085	-142.405	-0.207	-0.020
-321.070	-200.000	0.059	-0.292
-320.056	27.524	-0.048	-0.040
-319.041	15.521	-0.070	0.055
-318.026	-22.264	-0.028	0.017
-317.012	17.773	0.078	0.062
-315.997	216.837	-0.258	0.411
-314.983	-200.000	0.003	-0.153
-313.968	401.233	0.035	-0.074
-312.953	99.895	-0.053	0.062
-311.939	-200.000	-0.088	0.407
-310.924	-31.201	-0.315	0.177
-309.910	279.232	0.140	0.249
-308.895	18.603	-0.087	-0.069
-307.880	-45.300	0.191	-0.095
-306.866	14.184	0.053	0.041
-305.851	-200.000	0.019	0.333
-304.837	558.717	-0.192	0.463
-303.822	3.308	-0.102	-0.074
-302.807	334.620	-0.144	-0.279
-301.793	-200.000	0.021	-0.481
-300.778	-200.000	0.070	-0.327
-299.764	25.713	-0.110	0.092
-298.749	-43.717	0.209	-0.105
-297.735	217.018	-0.060	-0.095
-296.720	4.416	-0.133	0.097
-295.705	40.869	-0.370	-0.333
-294.691	210.230	-0.209	-0.327
-293.676	-120.837	-0.204	0.034
-292.662	-0.903	-0.239	0.169
-291.647	83.091	-0.059	-0.064
-290.632	-88.157	0.185	-0.055
-289.618	444.923	-0.070	0.154
-288.603	238.862	0.022	0.036
-287.589	-200.000	0.016	-0.302
-286.574	-200.000	0.016	-0.121
-285.559	49.341	-0.192	-0.180
-284.545	212.701	0.112	-0.176
-283.530	188.408	0.074	-0.111
-282.516	800.000	0.083	-0.267
-281.501	99.119	0.208	-0.240
-280.486	-45.999	0.146	-0.072
-279.472	-103.618	0.302	-0.071
-278.457	-15.013	-0.272	0.174
-277.443	220.122	0.131	0.210
-276.428	-16.969	-0.384	-0.242
-275.413	-102.970	-0.197	0.047
-274.399	179.246	0.252	-0.368
-273.384	800.000	-0.171	0.507
-272.370	-144.297	0.072	-0.007
-271.355	-10.540	-0.046	-0.030
-270.340	800.000	0.020	0.068
-269.326	288.486	0.094	-0.170
-268.311	800.000	0.013	0.039
-267.297	-94.529	-0.116	0.032
-266.282	-130.576	0.043	-0.006
-265.267	250.306	0.075	0.127
-264.253	800.000	-0.056	-0.171
-263.238	186.836	0.156	0.233
-262.224	-22.620	-0.235	-0.142
-261.209	-109.125	-0.257	0.054
-260.195	-42.852	0.468	0.237
-259.180	800.000	0.082	0.239
-258.165	34.660	-0.236	-0.205
-257.151	-97.719	-0.283	0.073
-256.136	-200.000	-0.025	-0.187
-255.122	387.183	0.026	-0.053
-254.107	-78.862	0.102	0.035
-253.092	221.057	-0.060	0.096
-252.078	147.869	0.052	0.070
-251.063	-78.148	-0.072	0.025
-250.049	800.000	0.070	-0.241
-249.034	67.911	0.151	0.154
-248.019	165.356	0.082	-0.116
-247.005	-28.159	-0.117	-0.068
-245.990	800.000	-0.014	0.046
-244.976	-130.493	0.247	-0.033
-243.961	-128.545	-0.134	-0.019
-242.946	-55.399	0.266	-0.119
-241.932	-98.910	-0.061	-0.016
-240.917	215.713	0.172	-0.272
-239.903	80.481	0.137	0.147
-238.888	184.160	-0.324	0.478
-237.873	68.421	-0.149	0.152
-236.859	-72.303	0.221	0.081
-235.844	-200.000	-0.063	0.334
-234.830	-88.690	0.383	0.114
-233.815	-15.794	-0.166	-0.105
-232.800	-129.832	0.099	-0.014
-231.786	-116.252	-0.189	-0.035
-230.771	-32.034	-0.119	-0.066
-229.757	71.581	0.233	0.241
-228.742	-87.011	-0.304	0.092
-227.727	-105.872	0.245	0.055
-226.713	-9.642	-0.182	-0.121
-225.698	-59.922	0.104	0.044
-224.684	331.831	-0.051	-0.097
-223.669	1.341	-0.111	-0.080
-222.655	-71.220	0.404	-0.151
-221.640	455.952	-0.111	0.246
-220.625	800.000	0.078	0.223
-219.611	-200.000	0.042	0.324
-218.596	-200.000	-0.006	0.088
-217.582	-136.787	-0.279	-0.032
-216.567	-200.000	0.012	-0.065
-215.552	800.000	0.046	0.147
-214.538	-200.000	0.028	0.130
-213.523	-192.212	0.264	-0.003
-212.509	-99.777	-0.145	0.036
-211.494	-82.643	-0.197	0.063
-210.479	86.953	0.176	0.193
-209.465	240.264	0.106	0.175
-208.450	155.262	-0.211	-0.289
-207.436	214.024	0.261	0.411
-206.421	-67.539	0.194	-0.076
-205.406	95.910	0.217	0.246
-204.392	32.552	0.159	-0.137
-203.377	25.513	0.104	-0.086
-202.363	-45.796	0.192	0.094
-201.348	-114.104	-0.147	0.028
-200.333	-85.887	-0.202	0.062
-199.319	24.758	-0.182	0.150
-198.304	238.476	0.164	0.271
-197.290	-95.056	-0.431	0.116
-196.275	-200.000	-0.014	-0.261
-195.260	337.412	0.106	-0.205
-194.246	-200.000	0.052	-0.280
-193.231	-69.833	-0.056	-0.021
-192.217	59.714	-0.087	0.086
-191.202	57.031	0.079	-0.077
-190.187	18.327	0.184	0.147
-189.173	-200.000	0.096	-0.457
-188.158	28.250	-0.172	-0.145
-187.144	-60.172	-0.205	-0.087
-186.129	507.658	-0.130	-0.301
-185.114	553.108	-0.046	-0.109
-184.100	-76.935	-0.249	-0.087
-183.085	-129.136	0.093	0.013
-182.071	-200.000	0.002	0.272
-181.056	-200.000	0.067	0.528
-180.042	63.133	-0.069	0.068
-179.027	66.557	0.317	0.321
-178.012	-79.677	-0.275	-0.092
-176.998	-149.357	0.272	-0.021
-175.983	95.339	-0.289	0.328
-174.969	-22.658	-0.257	-0.154
-173.954	-89.344	0.222	-0.065
-172.939	15.718	-0.246	0.193
-171.925	-200.000	-0.012	-0.127
-170.910	-44.014	0.198	-0.099
-169.896	531.516	-0.087	-0.204
-168.881	800.000	0.033	0.112
-167.866	-142.122	-0.449	-0.044
-166.852	-35.175	0.124	0.067
-165.837	131.634	-0.186	-0.237
-164.823	-200.000	-0.012	-0.158
-163.808	19.295	0.180	-0.144
-162.793	69.107	-0.168	-0.172
-161.779	-76.390	0.153	-0.054
-160.764	67.115	0.140	0.142
-159.750	-34.074	0.444	-0.243
-158.735	423.156	0.066	-0.141
-157.720	800.000	0.014	-0.051
-156.706	147.348	-0.050	0.066
-155.691	-70.736	-0.355	0.133
-154.677	-59.450	-0.126	-0.054
-153.662	310.383	0.068	-0.127
-152.647	-200.000	0.082	0.368
-151.633	-66.480	-0.120	0.047
-150.618	176.138	0.084	0.121
-149.604	-8.030	0.147	0.099
-148.589	151.469	-0.121	-0.164
-147.574	-76.791	-0.164	-0.057
-146.560	-200.000	-0.020	0.339
-145.545	-120.829	0.052	-0.009
-144.531	-200.000	0.073	-0.473
-143.516	-102.056	0.261	-0.062
-142.502	447.404	-0.060	-0.130
-141.487	-200.000	-0.045	0.218
-140.472	-57.616	0.097	-0.042
-139.458	249.187	0.087	0.146
-138.443	-93.137	-0.251	-0.069
-137.429	383.579	0.124	0.252
-136.414	-149.278	-0.225	0.018
-135.399	-200.000	0.017	-0.098
-134.385	224.080	-0.023	-0.037
-133.370	-91.862	-0.417	0.118
-132.356	-200.000	-0.031	0.237
-131.341	-1.527	0.413	0.289
-130.326	323.561	-0.133	0.252
-129.312	-77.016	0.166	0.058
-128.297	159.120	0.064	-0.088
-127.283	-177.648	-0.433	0.010
-126.268	361.200	0.051	-0.101
-125.253	-150.277	-0.202	0.015
-124.239	-30.272	0.149	0.084
-123.224	189.509	-0.245	0.364
-122.210	800.000	0.117	0.342
-121.195	405.107	-0.007	0.015
