DTS Sentinel unit serial number:	SN413079Multiplexer serial number:	ORYXHardware model number:	OX4-SRSoftware version number:	ORYX F/W v4.00 Oryx Data Collector v3.7.2.0data status	okinstallation	princeton_trtdifferential loss correction	single-endedforward channel	channel 2reverse channel	N/Adate	2019/09/16time	21:19:35forward acquisition time	60.00reverse acquisition time	0.00gamma	496.2192k internal	0.2329k external	0.2329temperature offset calibration	0.9968default loss term (dB/km)	0.3790temperature slope calibration	1.0000multiplexer offset coefficient	1.0000multiplexer slope coefficient	1.0000fibre end	0.00T internal ref (°C)	31.64T ext. ref 1 (°C)	0.05T ext. ref 2 (°C)	25.51length (m)	temperature (°C)	Stokes	anti-Stokes-747.200	-200.000	-0.023	-0.132
-746.185	243.703	-0.182	0.308
-745.171	5.995	0.249	-0.186
-744.156	-124.901	-0.233	0.036
-743.142	-129.899	0.110	0.015
-742.127	129.524	-0.041	0.053
-741.112	-200.000	0.086	-0.442
-740.098	-22.661	-0.316	0.192
-739.083	105.230	-0.133	0.158
-738.069	19.108	0.239	0.193
-737.054	314.466	-0.050	0.094
-736.039	545.488	-0.133	0.321
-735.025	-51.429	0.080	0.038
-734.010	16.284	-0.267	0.212
-732.996	79.901	0.044	-0.048
-731.981	610.247	-0.138	-0.348
-730.966	-54.623	-0.136	0.062
-729.952	-16.841	-0.197	-0.125
-728.937	-200.000	0.046	-0.323
-727.923	-80.494	-0.263	-0.088
-726.908	128.191	-0.221	-0.283
-725.894	456.745	-0.062	0.138
-724.879	800.000	0.034	-0.102
-723.864	-41.520	-0.071	-0.037
-722.850	-158.206	0.211	0.012
-721.835	67.864	-0.140	0.144
-720.821	-15.751	-0.134	-0.086
-719.806	53.124	-0.191	-0.184
-718.791	144.516	-0.206	0.277
-717.777	800.000	-0.058	-0.231
-716.762	24.727	-0.143	-0.119
-715.748	-200.000	-0.020	-0.108
-714.733	-78.462	-0.051	0.018
-713.718	-200.000	-0.079	0.353
-712.704	-3.477	0.120	0.084
-711.689	28.116	-0.318	-0.270
-710.675	-200.000	0.009	-0.082
-709.660	265.256	-0.060	-0.105
-708.645	-77.261	0.523	0.183
-707.631	-141.513	0.151	0.015
-706.616	800.000	0.035	0.135
-705.602	-74.771	0.259	-0.094
-704.587	-146.660	-0.217	0.019
-703.572	-66.544	-0.110	-0.044
-702.558	-200.000	0.005	-0.321
-701.543	-86.521	0.220	-0.068
-700.529	147.162	0.085	0.115
-699.514	-110.124	0.527	0.111
-698.499	279.648	0.292	-0.524
-697.485	-45.924	0.273	-0.136
-696.470	73.766	0.202	-0.212
-695.456	-83.738	0.333	-0.107
-694.441	-136.274	0.158	-0.019
-693.426	-200.000	-0.022	-0.293
-692.412	-200.000	-0.010	-0.152
-691.397	800.000	0.078	-0.270
-690.383	-66.092	-0.158	-0.063
-689.368	310.114	0.116	-0.219
-688.354	125.642	-0.173	-0.220
-687.339	800.000	-0.054	-0.196
-686.324	142.759	-0.130	-0.174
-685.310	-200.000	-0.013	-0.213
-684.295	102.999	0.282	-0.332
-683.281	47.507	-0.109	0.102
-682.266	-70.855	0.131	0.050
-681.251	-166.184	-0.212	-0.009
-680.237	-19.006	0.164	-0.103
-679.222	-51.445	0.393	-0.184
-678.208	-168.609	-0.096	0.004
-677.193	-200.000	0.026	-0.135
-676.178	-37.689	-0.353	0.189
-675.164	-7.785	0.263	-0.178
-674.149	317.455	0.275	0.523
-673.135	383.166	0.153	-0.315
-672.120	800.000	0.033	-0.101
-671.105	58.031	-0.223	0.219
-670.091	538.072	0.024	0.058
-669.076	493.675	0.058	-0.134
-668.062	-30.607	0.179	-0.102
-667.047	-125.777	-0.161	0.025
-666.032	3.900	0.008	-0.006
-665.018	-3.074	0.369	0.259
-664.003	-26.474	-0.349	0.205
-662.989	-200.000	0.010	0.144
-661.974	-200.000	-0.024	-0.381
-660.959	800.000	-0.106	-0.331
-659.945	-200.000	-0.018	-0.157
-658.930	-147.541	0.169	0.014
-657.916	-129.734	-0.138	-0.019
-656.901	41.970	-0.130	0.119
-655.886	-47.268	0.172	0.084
-654.872	-200.000	-0.040	0.201
-653.857	315.008	0.073	-0.139
-652.843	-200.000	0.006	0.242
-651.828	-10.764	-0.155	-0.103
-650.814	221.978	-0.090	0.145
-649.799	154.018	-0.053	-0.073
-648.784	67.449	-0.171	-0.175
-647.770	2.436	-0.341	0.248
-646.755	14.485	0.150	-0.118
-645.741	121.965	-0.187	-0.235
-644.726	8.844	0.309	0.234
-643.711	362.789	0.127	0.255
-642.697	-34.808	-0.447	0.245
-641.682	-30.066	-0.179	-0.102
-640.668	-200.000	-0.028	0.181
-639.653	485.515	0.066	-0.150
-638.638	249.545	0.127	-0.216
-637.624	-200.000	-0.006	0.027
-636.609	-200.000	0.033	-0.242
-635.595	-12.622	-0.190	-0.125
-634.580	-32.233	-0.053	0.030
-633.565	800.000	0.073	0.264
-632.551	214.244	0.027	-0.043
-631.536	-28.180	0.297	-0.172
-630.522	-200.000	-0.003	0.261
-629.507	-39.653	-0.142	-0.075
-628.492	-200.000	-0.047	-0.272
-627.478	-53.480	-0.221	0.101
-626.463	-158.709	-0.436	0.025
-625.449	9.526	-0.322	-0.245
-624.434	199.509	-0.218	-0.335
-623.419	800.000	-0.066	0.213
-622.405	-29.964	-0.220	0.126
-621.390	-31.259	-0.124	0.070
-620.376	453.723	0.123	-0.272
-619.361	-56.911	0.093	0.041
-618.346	173.051	0.048	-0.070
-617.332	-184.396	0.039	-0.001
-616.317	363.695	0.081	0.163
-615.303	-200.000	0.012	0.122
-614.288	50.445	-0.360	-0.341
-613.273	-142.938	0.250	0.024
-612.259	10.273	-0.158	0.120
-611.244	129.507	-0.172	0.220
-610.230	111.275	0.058	0.070
-609.215	-55.748	0.200	-0.090
-608.201	-200.000	-0.041	-0.382
-607.186	-55.598	-0.254	-0.114
-606.171	-14.401	-0.067	0.043
-605.157	-39.891	0.062	0.033
-604.142	800.000	-0.114	0.367
-603.128	-61.212	0.401	0.169
-602.113	-44.736	-0.107	-0.053
-601.098	48.354	-0.285	0.267
-600.084	-40.692	-0.146	0.076
-599.069	-46.405	-0.333	0.164
-598.055	107.630	0.081	0.097
-597.040	-12.638	0.237	0.155
-596.025	-22.176	-0.379	-0.230
-595.011	343.611	0.028	0.056
-593.996	118.439	0.175	0.217
-592.982	-57.465	0.497	0.219
-591.967	-200.000	-0.015	-0.106
-590.952	-200.000	-0.031	0.169
-589.938	735.298	0.105	0.281
-588.923	-82.843	-0.211	-0.068
-587.909	513.984	0.105	0.246
-586.894	-200.000	0.012	-0.170
-585.879	-73.357	-0.102	-0.037
-584.865	-91.280	0.120	0.035
-583.850	-200.000	-0.044	0.275
-582.836	-200.000	0.020	0.242
-581.821	800.000	0.022	-0.087
-580.806	800.000	-0.050	0.159
-579.792	46.360	-0.301	-0.279
-578.777	-66.907	-0.066	0.026
-577.763	-200.000	0.036	0.212
-576.748	800.000	-0.067	-0.253
-575.733	570.595	0.061	-0.148
-574.719	-200.000	0.004	0.270
-573.704	40.339	-0.230	0.207
-572.690	-200.000	-0.002	-0.124
-571.675	-32.251	-0.362	-0.203
-570.661	-20.132	0.219	0.135
-569.646	477.528	-0.028	0.063
-568.631	-155.790	-0.303	0.019
-567.617	168.573	0.081	0.115
-566.602	800.000	0.029	0.102
-565.588	-200.000	0.001	-0.162
-564.573	200.265	-0.054	0.083
-563.558	-12.395	0.094	-0.061
-562.544	63.796	0.275	-0.276
-561.529	-87.799	0.144	-0.043
-560.515	-5.813	-0.229	0.157
-559.500	-200.000	-0.010	0.080
-558.485	800.000	0.097	-0.284
-557.471	-166.179	-0.104	-0.004
-556.456	-3.026	-0.185	0.129
-555.442	800.000	-0.060	-0.249
-554.427	-126.823	0.266	0.039
-553.412	-200.000	-0.007	0.056
-552.398	800.000	0.094	-0.294
-551.383	-107.974	-0.201	0.044
-550.369	94.039	0.038	-0.043
-549.354	-108.586	-0.035	0.008
-548.339	414.828	-0.008	0.018
-547.325	800.000	-0.091	0.338
-546.310	-17.924	-0.179	0.112
-545.296	-200.000	-0.016	-0.150
-544.281	-177.964	0.359	0.009
-543.266	800.000	-0.032	-0.120
-542.252	-176.032	-0.228	0.006
-541.237	-113.551	0.266	0.052
-540.223	-91.871	0.140	-0.040
-539.208	114.591	-0.219	-0.266
-538.193	-80.756	-0.086	0.028
-537.179	-200.000	-0.112	-0.596
-536.164	-200.000	-0.040	-0.334
-535.150	-172.855	0.228	-0.007
-534.135	-200.000	-0.040	-0.237
-533.121	-130.048	0.326	0.045
-532.106	-182.733	0.429	-0.008
-531.091	19.773	-0.183	0.147
-530.077	470.909	0.103	0.231
-529.062	49.040	-0.102	0.095
-528.048	-94.985	-0.258	0.070
-527.033	-92.090	-0.211	0.060
-526.018	-177.527	-0.209	-0.005
-525.004	-14.222	-0.337	-0.217
-523.989	-88.498	0.177	-0.053
-522.975	-60.970	-0.234	-0.099
-521.960	64.591	0.271	0.273
-520.945	-49.815	-0.139	0.066
-519.931	-200.000	0.019	-0.213
-518.916	394.318	0.100	0.208
-517.902	-143.261	0.346	0.033
-516.887	-146.894	-0.328	-0.028
-515.872	-200.000	0.022	0.106
-514.858	-200.000	0.009	-0.051
-513.843	-28.541	-0.388	0.223
-512.829	765.486	0.149	0.404
-511.814	150.542	0.097	0.131
-510.799	-15.678	-0.177	0.113
-509.785	-200.000	0.001	0.130
-508.770	800.000	0.012	-0.045
-507.756	9.826	0.170	-0.129
-506.741	800.000	0.024	-0.101
-505.726	-12.949	-0.125	-0.081
-504.712	209.634	-0.086	-0.134
-503.697	800.000	0.130	0.394
-502.683	-200.000	0.006	-0.173
-501.668	39.452	-0.147	-0.131
-500.653	462.541	0.073	-0.162
-499.639	800.000	-0.061	-0.191
-498.624	165.046	0.134	-0.188
-497.610	14.100	-0.183	0.142
-496.595	-44.223	-0.198	-0.099
-495.581	174.234	0.048	-0.070
-494.566	66.100	-0.210	0.213
-493.551	-128.330	0.150	-0.021
-492.537	-200.000	0.085	-0.466
-491.522	-200.000	0.046	-0.275
-490.508	278.874	0.151	0.269
-489.493	-200.000	0.051	-0.242
-488.478	-53.191	0.041	0.019
-487.464	800.000	-0.067	0.278
-486.449	271.266	-0.071	-0.124
-485.435	-200.000	0.021	-0.307
-484.420	-125.026	-0.085	0.013
-483.405	137.529	0.142	0.185
-482.391	-147.627	0.053	0.004
-481.376	89.549	-0.037	-0.041
-480.362	-200.000	0.067	0.337
-479.347	-162.548	0.098	0.005
-478.332	17.743	-0.158	0.125
-477.318	800.000	0.047	-0.154
-476.303	-200.000	0.053	-0.250
-475.289	41.446	0.168	-0.151
-474.274	51.358	-0.143	0.135
-473.259	135.441	-0.091	-0.118
-472.245	-29.512	-0.362	-0.206
-471.230	-200.000	0.003	-0.031
-470.216	800.000	-0.041	0.172
-469.201	343.295	0.032	0.062
-468.186	35.575	-0.086	0.075
-467.172	-106.021	-0.038	0.009
-466.157	-200.000	0.012	0.080
-465.143	-54.168	-0.205	-0.093
-464.128	106.988	0.302	-0.358
-463.113	-200.000	0.022	0.184
-462.099	56.979	-0.060	-0.059
-461.084	122.513	-0.085	0.106
-460.070	-61.197	-0.261	0.109
-459.055	-79.886	-0.305	0.102
-458.040	119.512	-0.114	-0.141
-457.026	-81.693	0.359	-0.117
-456.011	421.266	-0.093	0.198
-454.997	-147.641	-0.091	-0.008
-453.982	-75.832	-0.119	0.042
-452.968	-20.049	0.256	0.157
-451.953	-200.000	-0.001	-0.269
-450.938	701.024	-0.088	-0.231
-449.924	-200.000	0.009	0.139
-448.909	202.816	-0.090	0.139
-447.895	5.799	0.269	0.198
-446.880	335.866	0.140	-0.271
-445.865	137.379	-0.229	0.298
-444.851	241.440	-0.131	-0.218
-443.836	-60.951	0.141	0.059
-442.822	-0.937	-0.110	0.077
-441.807	-200.000	-0.003	0.436
-440.792	121.348	-0.127	0.157
-439.778	-44.668	-0.342	0.170
-438.763	800.000	0.112	-0.362
-437.749	8.844	-0.193	-0.145
-436.734	-200.000	0.010	-0.202
-435.719	-122.435	-0.037	-0.006
-434.705	-200.000	0.038	-0.265
-433.690	498.598	0.083	-0.190
-432.676	800.000	0.060	0.222
-431.661	441.220	0.050	-0.109
-430.646	-200.000	0.004	0.135
-429.632	-198.975	-0.267	-0.001
-428.617	340.038	-0.032	0.062
-427.603	202.547	-0.012	0.019
-426.588	240.446	-0.280	-0.464
-425.573	-31.816	0.071	0.039
-424.559	-133.648	-0.153	-0.019
-423.544	-121.355	0.299	-0.050
-422.530	-86.092	-0.061	0.019
-421.515	-200.000	0.015	0.121
-420.500	-200.000	-0.002	-0.141
-419.486	-108.409	0.314	-0.067
-418.471	-119.341	-0.408	0.071
-417.457	-200.000	0.028	0.143
-416.442	-143.319	0.373	0.036
-415.428	-38.492	-0.481	0.253
-414.413	-34.368	0.059	0.032
-413.398	-200.000	0.078	0.382
-412.384	-200.000	0.061	-0.333
-411.369	-200.000	0.052	0.361
-410.355	-146.985	0.051	-0.004
-409.340	-200.000	-0.003	0.447
-408.325	-175.555	-0.306	0.008
-407.311	-200.000	-0.032	-0.345
-406.296	130.926	0.231	0.295
-405.282	-92.990	-0.097	-0.027
-404.267	-19.048	0.120	0.074
-403.252	74.395	-0.036	0.037
-402.238	33.102	0.158	0.136
-401.223	-43.751	0.104	-0.052
-400.209	-19.308	0.180	-0.111
-399.194	-8.419	0.174	0.117
-398.179	-200.000	-0.064	-0.396
-397.165	527.766	-0.070	-0.164
-396.150	246.755	-0.100	-0.168
-395.136	335.002	0.165	0.318
-394.121	-118.488	-0.383	0.067
-393.106	51.388	-0.126	-0.119
-392.092	800.000	-0.030	0.131
-391.077	-200.000	0.002	-0.070
-390.063	-200.000	0.005	0.281
-389.048	201.731	0.166	0.255
-388.033	71.440	-0.138	-0.142
-387.019	170.200	-0.198	-0.282
-386.004	800.000	-0.029	-0.091
-384.990	206.371	-0.123	0.190
-383.975	-164.675	0.134	0.006
-382.960	15.473	0.103	0.081
-381.946	-200.000	-0.075	-0.398
-380.931	-40.900	0.070	-0.036
-379.917	-77.512	-0.266	0.092
-378.902	-200.000	0.078	-0.000
-377.888	-106.203	-0.118	0.026
-376.873	154.156	-0.013	0.018
-375.858	670.357	0.084	0.215
-374.844	-132.912	0.163	-0.021
-373.829	-40.130	-0.371	-0.192
-372.815	-200.000	-0.052	-0.407
-371.800	-16.366	0.110	-0.069
-370.785	-200.000	-0.027	0.424
-369.771	-88.214	0.138	0.041
-368.756	-24.380	0.425	-0.251
-367.742	262.928	0.036	0.062
-366.727	-46.216	0.116	0.057
-365.712	-152.646	0.045	0.003
-364.698	800.000	-0.061	-0.241
-363.683	287.768	0.105	0.189
-362.669	-200.000	-0.010	-0.236
-361.654	-110.286	0.349	-0.072
-360.639	800.000	0.037	0.141
-359.625	-4.503	-0.004	0.003
-358.610	115.325	0.246	0.298
-357.596	-171.208	-0.050	-0.002
-356.581	-200.000	0.019	-0.197
-355.566	-4.433	0.211	0.145
-354.552	8.976	-0.182	0.136
-353.537	54.231	-0.243	-0.232
-352.523	39.695	0.202	-0.180
-351.508	-200.000	-0.020	-0.124
-350.493	-200.000	0.028	0.311
-349.479	-134.357	0.186	0.023
-348.464	-141.147	0.565	-0.057
-347.450	47.298	0.110	-0.102
-346.435	-80.804	-0.316	-0.104
-345.420	-82.839	0.164	-0.053
-344.406	-10.839	0.042	-0.028
-343.391	-190.245	0.330	-0.004
-342.377	-74.099	0.372	0.134
-341.362	29.395	-0.139	-0.118
-340.348	-132.259	0.186	-0.024
-339.333	243.870	-0.205	0.341
-338.318	-40.573	0.266	0.137
-337.304	346.012	0.050	0.098
-336.289	-168.300	0.224	-0.009
-335.275	-200.000	-0.024	-0.258
-334.260	-42.214	0.388	0.197
-333.245	136.705	-0.190	0.246
-332.231	-136.096	0.158	-0.018
-331.216	142.191	-0.201	-0.264
-330.202	800.000	0.083	-0.264
-329.187	-200.000	0.001	0.283
-328.172	179.505	0.213	0.308
-327.158	283.221	-0.174	0.310
-326.143	626.935	-0.059	0.149
-325.129	-12.122	-0.206	0.134
-324.114	166.924	-0.108	0.152
-323.099	-200.000	-0.010	0.236
-322.085	228.368	0.114	-0.183
-321.070	241.586	0.184	-0.305
-320.056	-92.902	0.108	-0.030
-319.041	233.333	0.096	-0.156
-318.026	746.879	-0.044	-0.118
-317.012	-51.932	-0.216	-0.100
-315.997	-67.332	0.152	0.059
-314.983	131.948	-0.040	0.051
-313.968	54.286	0.222	0.212
-312.953	-111.847	-0.206	-0.041
-311.939	-83.181	0.581	-0.185
-310.924	-174.326	0.304	0.009
-309.910	-200.000	0.010	0.173
-308.895	-62.297	-0.254	0.105
-307.880	-200.000	0.051	-0.224
-306.866	-22.043	-0.038	0.023
-305.851	-140.886	-0.133	0.014
-304.837	-109.211	-0.367	-0.077
-303.822	119.554	-0.089	0.109
-302.807	-79.781	0.256	0.085
-301.793	59.301	-0.100	-0.098
-300.778	241.963	-0.048	-0.079
-299.764	-147.709	0.336	0.028
-298.749	260.022	0.123	-0.210
-297.735	800.000	-0.015	-0.045
-296.720	-200.000	-0.005	-0.044
-295.705	132.211	-0.080	0.101
-294.691	-109.609	0.327	-0.068
-293.676	-91.053	-0.366	-0.104
-292.662	-19.054	0.306	0.188
-291.647	257.665	0.083	-0.141
-290.632	193.034	-0.049	-0.073
-289.618	103.984	-0.070	0.081
-288.603	-120.681	-0.063	0.011
-287.589	800.000	0.058	0.193
-286.574	-68.027	0.141	-0.054
-285.559	-10.013	0.277	-0.182
-284.545	40.762	-0.268	0.239
-283.530	127.634	0.145	0.183
-282.516	-133.486	0.092	-0.011
-281.501	-200.000	-0.015	-0.209
-280.486	163.819	0.067	0.094
-279.472	52.839	-0.288	-0.272
-278.457	-87.204	0.171	0.051
-277.443	-112.139	-0.187	0.037
-276.428	-200.000	-0.016	0.196
-275.413	157.703	-0.054	-0.074
-274.399	-200.000	0.000	0.285
-273.384	-200.000	-0.039	-0.341
-272.370	800.000	-0.126	-0.378
-271.355	63.232	0.080	-0.079
-270.340	73.539	0.077	-0.080
-269.326	115.256	0.146	-0.176
-268.311	-200.000	-0.001	-0.194
-267.297	-200.000	-0.045	-0.372
-266.282	230.247	-0.135	-0.219
-265.267	116.903	-0.070	0.085
-264.253	63.031	-0.327	-0.323
-263.238	73.380	-0.127	0.131
-262.224	59.972	0.199	0.194
-261.209	171.550	-0.102	-0.145
-260.195	800.000	0.052	0.177
-259.180	135.669	0.128	0.164
-258.165	77.997	0.098	0.103
-257.151	-173.912	0.263	-0.008
-256.136	-146.173	-0.214	-0.019
-255.122	-200.000	0.064	0.319
-254.107	190.938	0.057	0.085
-253.092	-6.403	-0.165	-0.111
-252.078	220.497	0.197	-0.312
-251.063	17.965	0.296	-0.233
-250.049	-58.696	0.303	-0.130
-249.034	-23.144	0.249	-0.148
-248.019	-97.556	-0.218	0.056
-247.005	332.504	0.079	0.150
-245.990	11.604	0.132	0.100
-244.976	-200.000	0.058	-0.309
-243.961	-200.000	-0.204	-0.000
-242.946	26.758	-0.239	-0.198
-241.932	32.278	0.181	0.155
-240.917	-8.690	-0.101	-0.067
-239.903	-200.000	-0.009	0.207
-238.888	-41.604	0.116	0.059
-237.873	-200.000	0.008	0.272
-236.859	-70.923	0.060	0.022
-235.844	-130.406	0.500	-0.067
-234.830	-158.949	-0.212	0.012
-233.815	41.873	0.197	-0.176
-232.800	195.620	-0.115	-0.172
-231.786	-28.278	-0.300	-0.171
-230.771	-116.313	0.269	-0.049
-229.757	-165.251	-0.002	0.000
-228.742	800.000	-0.063	0.230
-227.727	-182.117	0.306	-0.006
-226.713	44.988	-0.335	-0.304
-225.698	298.365	-0.096	0.174
-224.684	-54.435	0.100	0.045
-223.669	-125.459	-0.216	0.032
-222.655	534.660	-0.052	0.121
-221.640	133.521	-0.130	-0.166
-220.625	-127.371	0.113	-0.016
-219.611	-142.234	0.304	-0.030
-218.596	800.000	-0.072	-0.290
-217.582	-11.719	-0.147	-0.095
-216.567	741.436	0.097	-0.257
-215.552	425.738	0.092	0.195
-214.538	231.065	0.013	0.022
-213.523	-58.352	0.149	-0.064
-212.509	-200.000	-0.039	0.329
-211.494	38.593	-0.043	-0.038
-210.479	-65.661	0.114	-0.045
-209.465	-66.712	-0.211	0.082
-208.450	39.698	0.227	-0.200
-207.436	33.924	-0.186	-0.160
-206.421	71.320	0.017	0.018
-205.406	800.000	0.078	-0.236
-204.392	800.000	0.082	0.340
-203.377	-123.814	-0.187	-0.029
-202.363	120.726	-0.344	-0.422
-201.348	163.142	0.064	-0.088
-200.333	-112.759	-0.185	-0.036
-199.319	18.598	0.106	0.084
-198.304	241.909	0.130	0.214
-197.290	-33.834	0.064	0.035
-196.275	800.000	0.098	0.283
-195.260	-71.961	-0.162	0.060
-194.246	185.052	-0.122	0.178
-193.231	243.535	0.156	0.258
-192.217	-110.283	0.177	-0.036
-191.202	94.670	0.051	-0.057
-190.187	-147.433	-0.338	0.028
-189.173	185.897	-0.067	0.098
-188.158	565.674	0.072	0.172
-187.144	103.280	-0.261	0.302
-186.129	-12.195	0.239	-0.154
-185.114	-200.000	0.001	-0.205
-184.100	800.000	0.085	0.301
-183.085	16.724	-0.151	-0.118
-182.071	136.209	0.162	-0.208
-181.056	-200.000	-0.044	-0.247
-180.042	-88.837	-0.386	0.113
-179.027	-59.774	-0.096	-0.041
-178.012	-107.995	-0.154	0.033
-176.998	22.007	-0.022	0.018
-175.983	-21.598	-0.249	-0.150
-174.969	37.447	-0.088	-0.077
-173.954	-119.410	0.434	-0.074
-172.939	-95.337	0.376	0.100
-171.925	693.172	0.087	-0.224
-170.910	462.501	0.135	0.297
-169.896	-98.974	-0.272	-0.068
-168.881	-18.993	0.097	-0.059
-167.866	176.231	0.246	0.352
-166.852	172.149	0.096	0.136
-165.837	-157.718	0.203	0.012
-164.823	-160.632	0.143	0.008
-163.808	-200.000	0.025	0.163
-162.793	-43.871	0.219	-0.108
-161.779	-126.700	0.238	-0.035
-160.764	-200.000	0.021	0.120
-159.750	-36.565	0.185	0.098
-158.735	96.925	-0.193	0.218
-157.720	75.700	-0.078	-0.081
-156.706	-89.149	-0.137	0.040
-155.691	800.000	0.093	0.341
-154.677	141.079	-0.073	-0.095
-153.662	-59.882	-0.232	-0.098
-152.647	216.180	-0.053	-0.083
-151.633	-79.828	0.279	-0.093
-150.618	-111.540	-0.369	-0.074
-149.604	-200.000	0.087	-0.411
-148.589	-171.752	-0.038	-0.001
-147.574	-85.418	0.097	-0.030
-146.560	17.058	-0.043	0.034
-145.545	-107.801	-0.266	0.057
-144.531	-20.884	0.238	-0.143
-143.516	-181.540	0.130	-0.002
-142.502	-200.000	-0.019	0.227
-141.487	56.457	0.042	0.040
-140.472	-19.338	-0.105	-0.064
-139.458	78.524	-0.109	0.114
-138.443	386.951	-0.119	0.242
-137.429	-122.413	-0.065	-0.010
-136.414	-200.000	0.000	-0.034
-135.399	-200.000	0.009	-0.380
-134.385	681.393	0.199	-0.511
-133.370	52.825	-0.259	-0.243
-132.356	-200.000	0.000	-0.262
-131.341	499.569	-0.041	-0.093
-130.326	39.782	0.095	0.084
-129.312	-114.628	0.086	-0.016
-128.297	-200.000	-0.020	-0.112
-127.283	-90.251	0.070	-0.020
-126.268	-200.000	0.032	-0.159
-125.253	-104.542	-0.176	0.040
-124.239	800.000	0.053	0.214
-123.224	793.224	0.098	-0.264
-122.210	-200.000	0.051	0.412
