DTS Sentinel unit serial number:	SN413079Multiplexer serial number:	ORYXHardware model number:	OX4-SRSoftware version number:	ORYX F/W v4.00 Oryx Data Collector v3.7.2.0data status	okinstallation	princeton_trtdifferential loss correction	single-endedforward channel	channel 2reverse channel	N/Adate	2019/09/19time	14:27:35forward acquisition time	60.00reverse acquisition time	0.00gamma	496.2192k internal	0.2324k external	0.2324temperature offset calibration	1.0020default loss term (dB/km)	0.3790temperature slope calibration	1.0000multiplexer offset coefficient	1.0000multiplexer slope coefficient	1.0000fibre end	0.00T internal ref (°C)	32.06T ext. ref 1 (°C)	1.07T ext. ref 2 (°C)	29.26length (m)	temperature (°C)	Stokes	anti-Stokes-747.200	267.463	-0.125	0.220
-746.185	298.778	0.190	0.353
-745.171	-200.000	0.073	-0.349
-744.156	-174.731	-0.132	-0.004
-743.142	-200.000	0.017	0.260
-742.127	800.000	0.076	-0.232
-741.112	-136.054	-0.234	-0.028
-740.098	-56.685	-0.119	-0.053
-739.083	800.000	-0.065	-0.262
-738.069	800.000	0.061	0.267
-737.054	-200.000	-0.305	0.000
-736.039	-124.363	-0.354	-0.056
-735.025	23.411	-0.035	0.029
-734.010	103.865	-0.096	-0.114
-732.996	-200.000	-0.065	-0.360
-731.981	-200.000	-0.041	-0.209
-730.966	290.833	0.088	-0.161
-729.952	257.212	0.028	0.049
-728.937	61.544	-0.190	-0.191
-727.923	-200.000	-0.030	-0.186
-726.908	800.000	0.069	-0.218
-725.894	114.041	-0.160	-0.196
-724.879	800.000	-0.126	-0.431
-723.864	327.332	-0.085	0.165
-722.850	118.296	0.152	-0.189
-721.835	-75.135	0.232	-0.084
-720.821	-191.011	-0.398	-0.004
-719.806	62.509	-0.250	-0.252
-718.791	-18.221	-0.230	-0.145
-717.777	14.282	0.185	-0.146
-716.762	-53.229	-0.139	0.064
-715.748	-1.604	0.212	0.151
-714.733	380.796	0.121	-0.250
-713.718	-72.736	0.232	-0.086
-712.704	-61.672	0.252	0.107
-711.689	-70.435	-0.206	-0.079
-710.675	4.938	0.036	-0.027
-709.660	-200.000	0.008	-0.045
-708.645	-2.354	-0.153	-0.108
-707.631	228.027	-0.146	-0.240
-706.616	-92.760	-0.122	-0.034
-705.602	-40.194	0.196	0.103
-704.587	-200.000	0.011	-0.148
-703.572	-128.593	0.202	0.029
-702.558	35.280	-0.372	-0.329
-701.543	-3.089	-0.144	0.101
-700.529	-200.000	-0.058	-0.269
-699.514	-200.000	0.022	-0.344
-698.499	-200.000	0.068	-0.348
-697.485	-119.175	-0.377	-0.066
-696.470	-3.807	0.033	0.023
-695.456	-200.000	-0.064	0.507
-694.441	47.529	0.039	0.036
-693.426	332.387	0.131	-0.255
-692.412	262.932	0.078	-0.136
-691.397	-61.646	0.244	-0.103
-690.383	800.000	0.053	0.214
-689.368	41.479	-0.173	0.158
-688.354	-63.735	0.211	0.087
-687.339	-149.064	0.177	0.014
-686.324	-5.807	0.202	-0.140
-685.310	286.935	-0.195	0.354
-684.295	48.698	-0.113	-0.106
-683.281	-100.964	-0.131	0.032
-682.266	244.687	0.026	-0.044
-681.251	-123.079	-0.107	-0.017
-680.237	-117.873	-0.215	0.039
-679.222	-114.176	0.174	0.034
-678.208	-29.608	0.094	0.054
-677.193	106.478	-0.155	0.185
-676.178	-49.431	-0.308	0.148
-675.164	-106.209	-0.033	0.007
-674.149	-129.819	-0.128	-0.018
-673.135	593.753	0.058	-0.144
-672.120	-138.292	-0.162	0.018
-671.105	-110.146	-0.179	-0.038
-670.091	494.293	0.092	-0.212
-669.076	28.313	0.244	-0.207
-668.062	18.386	-0.307	0.247
-667.047	-103.905	-0.428	0.101
-666.032	106.005	-0.170	-0.203
-665.018	-80.935	0.202	-0.067
-664.003	-134.426	-0.346	-0.043
-662.989	-200.000	-0.012	-0.099
-661.974	-36.199	0.082	-0.045
-660.959	458.015	0.043	0.096
-659.945	82.436	-0.246	-0.269
-658.930	-200.000	-0.003	0.277
-657.916	-99.978	0.141	-0.035
-656.901	386.675	-0.097	-0.202
-655.886	424.306	0.137	-0.298
-654.872	800.000	-0.024	-0.075
-653.857	-185.250	0.230	-0.004
-652.843	800.000	0.059	-0.175
-651.828	800.000	0.119	-0.431
-650.814	-200.000	0.017	0.493
-649.799	-57.794	-0.085	-0.038
-648.784	-70.320	-0.148	0.057
-647.770	13.672	-0.242	0.189
-646.755	439.691	0.090	0.197
-645.741	93.311	-0.233	-0.265
-644.726	-200.000	0.004	-0.074
-643.711	-200.000	-0.034	0.394
-642.697	114.853	-0.039	-0.048
-641.682	-55.596	-0.419	-0.189
-640.668	201.074	-0.074	0.114
-639.653	-69.805	-0.434	0.166
-638.638	-200.000	0.022	-0.123
-637.624	800.000	0.124	-0.500
-636.609	-153.091	0.112	0.008
-635.595	182.121	-0.203	-0.300
-634.580	191.348	0.088	0.133
-633.565	242.472	0.121	0.204
-632.551	202.053	-0.122	0.189
-631.536	70.124	-0.084	0.088
-630.522	-45.576	-0.417	0.207
-629.507	-79.141	0.163	0.055
-628.492	252.695	-0.182	0.312
-627.478	-27.317	0.035	0.020
-626.463	-151.416	-0.301	-0.022
-625.449	245.944	-0.037	-0.063
-624.434	430.418	-0.097	0.211
-623.419	-24.645	0.113	0.068
-622.405	-200.000	0.018	0.201
-621.390	723.322	-0.062	0.167
-620.376	266.110	0.069	-0.121
-619.361	-36.533	-0.079	0.043
-618.346	-85.550	-0.079	-0.025
-617.332	800.000	-0.002	-0.005
-616.317	774.889	-0.102	0.279
-615.303	-27.891	-0.148	-0.086
-614.288	-32.085	0.240	-0.135
-613.273	298.368	-0.108	0.199
-612.259	-54.309	-0.115	-0.052
-611.244	-72.019	-0.298	0.111
-610.230	132.317	0.098	-0.127
-609.215	-200.000	0.009	-0.188
-608.201	156.215	-0.324	0.449
-607.186	75.965	0.218	0.232
-606.171	-200.000	-0.017	-0.441
-605.157	-133.212	-0.070	0.009
-604.142	-87.398	0.158	-0.048
-603.128	535.333	-0.055	0.132
-602.113	76.077	-0.064	-0.068
-601.098	363.434	-0.054	-0.109
-600.084	10.095	-0.170	-0.130
-599.069	96.036	-0.166	0.190
-598.055	340.247	0.008	-0.016
-597.040	-32.778	-0.079	0.044
-596.025	-200.000	-0.057	-0.273
-595.011	-200.000	0.012	0.142
-593.996	196.793	-0.197	0.302
-592.982	-63.450	0.137	0.056
-591.967	-106.335	-0.329	0.074
-590.952	63.486	0.048	0.048
-589.938	121.861	0.140	-0.175
-588.923	-2.240	0.195	-0.137
-587.909	-200.000	-0.048	0.291
-586.894	-105.215	-0.133	0.030
-585.879	-38.718	0.196	-0.104
-584.865	45.094	0.121	-0.111
-583.850	800.000	-0.044	0.129
-582.836	209.959	-0.254	-0.399
-581.821	571.432	-0.145	-0.353
-580.806	-101.452	-0.311	0.076
-579.792	205.185	-0.118	-0.183
-578.777	-65.361	0.076	0.031
-577.763	-36.574	0.161	0.087
-576.748	-171.806	-0.069	-0.002
-575.733	-13.768	0.174	0.113
-574.719	-103.796	-0.084	-0.020
-573.704	-169.057	0.336	-0.013
-572.690	-200.000	-0.017	0.184
-571.675	-180.079	0.052	0.001
-570.661	-22.370	0.146	0.089
-569.646	-200.000	-0.044	-0.282
-568.631	-53.276	0.385	0.177
-567.617	138.421	-0.207	-0.272
-566.602	-45.129	0.238	0.119
-565.588	90.206	-0.167	-0.187
-564.573	-125.911	-0.058	0.009
-563.558	291.411	-0.061	-0.112
-562.544	-95.735	-0.266	-0.071
-561.529	800.000	-0.054	-0.237
-560.515	-39.740	0.188	-0.098
-559.500	-47.819	0.428	-0.208
-558.485	-67.548	-0.152	0.060
-557.471	800.000	-0.090	-0.259
-556.456	474.821	0.143	-0.324
-555.442	-34.253	0.116	-0.064
-554.427	630.802	0.070	0.177
-553.412	55.104	-0.188	0.182
-552.398	-200.000	0.003	0.067
-551.383	92.011	0.139	-0.157
-550.369	800.000	-0.086	-0.354
-549.354	94.129	0.180	-0.205
-548.339	115.497	0.077	-0.094
-547.325	685.376	0.109	-0.285
-546.310	83.940	-0.034	-0.038
-545.296	124.668	-0.147	0.185
-544.281	-200.000	0.002	-0.029
-543.266	-200.000	0.011	-0.059
-542.252	169.592	0.066	0.094
-541.237	47.503	-0.170	-0.159
-540.223	450.522	-0.198	-0.438
-539.208	523.057	-0.006	-0.013
-538.193	-118.046	-0.362	0.065
-537.179	-200.000	0.028	0.286
-536.164	211.226	0.236	-0.371
-535.150	328.135	0.067	0.129
-534.135	-90.590	0.124	0.036
-533.121	4.941	0.095	0.070
-532.106	494.716	0.227	-0.522
-531.091	142.260	-0.061	0.082
-530.077	-31.106	-0.128	0.072
-529.062	-99.037	-0.293	-0.074
-528.048	800.000	0.021	0.062
-527.033	-200.000	-0.012	-0.070
-526.018	-200.000	0.014	0.148
-525.004	-88.475	-0.106	0.032
-523.989	-94.029	-0.412	-0.113
-522.975	10.814	0.278	-0.213
-521.960	-200.000	0.016	-0.128
-520.945	393.728	0.190	-0.395
-519.931	800.000	0.092	-0.337
-518.916	-51.097	0.114	-0.054
-517.902	-10.276	-0.061	0.040
-516.887	-170.314	0.145	0.005
-515.872	469.081	-0.115	0.258
-514.858	24.684	-0.184	0.153
-513.843	-200.000	0.031	0.319
-512.829	800.000	-0.085	-0.294
-511.814	-200.000	0.004	-0.106
-510.799	-60.820	-0.293	0.124
-509.785	-200.000	-0.007	0.155
-508.770	31.154	0.212	0.182
-507.756	221.220	0.129	-0.207
-506.741	-36.823	0.320	-0.172
-505.726	-138.591	-0.159	-0.017
-504.712	545.190	-0.063	0.151
-503.697	138.395	-0.066	0.087
-502.683	-175.709	0.267	-0.007
-501.668	-89.398	0.301	-0.088
-500.653	320.227	-0.187	-0.355
-499.639	-200.000	-0.003	0.105
-498.624	-38.835	-0.122	-0.064
-497.610	30.130	-0.223	0.190
-496.595	-83.101	0.141	0.045
-495.581	-45.505	-0.142	-0.071
-494.566	187.575	-0.064	0.095
-493.551	-178.275	0.210	-0.005
-492.537	760.251	0.093	-0.253
-491.522	800.000	0.068	-0.244
-490.508	-144.972	-0.450	0.041
-489.493	-2.321	-0.167	-0.117
-488.478	-83.843	0.069	-0.022
-487.464	800.000	0.032	-0.121
-486.449	126.200	-0.148	0.187
-485.435	183.436	-0.160	0.236
-484.420	-200.000	-0.028	-0.125
-483.405	472.012	-0.054	0.122
-482.391	2.241	0.250	0.181
-481.376	177.653	0.021	-0.031
-480.362	-104.066	0.039	-0.009
-479.347	-200.000	0.052	0.280
-478.332	-149.685	-0.373	0.029
-477.318	-118.948	0.093	0.016
-476.303	26.000	-0.028	-0.023
-475.289	-89.705	-0.184	-0.054
-474.274	-200.000	-0.031	0.351
-473.259	-200.000	0.027	0.173
-472.245	-200.000	0.041	-0.217
-471.230	515.705	-0.093	0.216
-470.216	448.903	-0.126	0.276
-469.201	29.642	0.221	0.188
-468.186	-200.000	0.001	0.230
-467.172	-23.280	-0.342	0.206
-466.157	-143.456	-0.223	0.021
-465.143	-24.924	-0.180	-0.107
-464.128	-20.035	-0.068	-0.042
-463.113	151.628	0.068	-0.093
-462.099	-129.581	0.170	0.024
-461.084	-200.000	0.015	-0.157
-460.070	-68.373	0.272	0.105
-459.055	-96.367	-0.252	-0.067
-458.040	84.766	0.259	-0.283
-457.026	-71.769	-0.247	-0.092
-456.011	-152.690	0.368	0.026
-454.997	-101.444	0.055	0.013
-453.982	800.000	0.061	0.221
-452.968	103.399	-0.178	0.209
-451.953	36.488	0.225	-0.198
-450.938	800.000	-0.065	0.227
-449.924	14.264	0.171	0.133
-448.909	625.895	-0.001	-0.003
-447.895	-118.032	0.041	0.007
-446.880	61.833	-0.064	0.064
-445.865	-65.616	0.266	-0.107
-444.851	-200.000	-0.002	-0.114
-443.836	-115.815	0.135	-0.025
-442.822	295.925	0.200	-0.365
-441.807	-65.294	-0.059	0.024
-440.792	-89.621	0.071	-0.021
-439.778	342.929	0.084	0.163
-438.763	-80.442	-0.312	0.104
-437.749	-92.906	-0.186	0.052
-436.734	-200.000	0.013	0.183
-435.719	-58.401	0.164	0.071
-434.705	146.698	-0.233	0.312
-433.690	-156.793	-0.310	0.019
-432.676	-110.243	-0.106	0.022
-431.661	-143.922	0.135	-0.013
-430.646	-29.962	0.287	-0.163
-429.632	373.526	0.067	-0.135
-428.617	-200.000	-0.304	-0.001
-427.603	-79.559	-0.221	0.075
-426.588	-55.828	-0.179	-0.080
-425.573	-99.555	-0.417	0.104
-424.559	88.729	0.105	0.117
-423.544	-95.282	-0.075	0.020
-422.530	361.215	0.069	-0.138
-421.515	-200.000	-0.059	0.259
-420.500	82.483	0.029	0.032
-419.486	-173.009	-0.157	0.005
-418.471	24.470	-0.138	-0.114
-417.457	37.420	0.186	0.164
-416.442	-83.006	-0.322	-0.103
-415.428	800.000	0.015	0.049
-414.413	5.656	0.171	-0.126
-413.398	124.005	0.044	0.055
-412.384	800.000	0.095	-0.362
-411.369	31.431	-0.179	0.153
-410.355	-200.000	-0.012	0.105
-409.340	800.000	-0.057	-0.196
-408.325	-200.000	0.001	-0.123
-407.311	114.220	0.298	0.362
-406.296	99.655	0.265	0.306
-405.282	-15.281	-0.193	0.123
-404.267	-200.000	0.015	-0.088
-403.252	800.000	0.014	-0.049
-402.238	5.674	0.227	-0.167
-401.223	-111.452	-0.218	-0.044
-400.209	-88.536	-0.354	-0.105
-399.194	-29.649	-0.138	-0.078
-398.179	110.470	0.166	-0.199
-397.165	-178.584	-0.229	0.005
-396.150	-200.000	0.027	0.157
-395.136	42.734	-0.201	-0.182
-394.121	377.276	-0.044	-0.090
-393.106	397.152	0.106	-0.220
-392.092	-200.000	0.012	-0.061
-391.077	-122.335	0.156	-0.025
-390.063	4.051	-0.129	-0.094
-389.048	-60.920	0.128	0.054
-388.033	0.860	-0.224	0.160
-387.019	-91.119	-0.151	-0.043
-386.004	-3.330	0.291	0.202
-384.990	12.441	0.055	0.042
-383.975	800.000	0.092	0.351
-382.960	152.357	-0.194	0.264
-381.946	547.083	-0.072	0.172
-380.931	-200.000	0.026	0.142
-379.917	-56.505	0.297	0.131
-378.902	296.225	-0.155	-0.283
-377.888	33.982	0.104	-0.090
-376.873	-64.891	0.276	-0.111
-375.858	443.119	-0.095	-0.208
-374.844	-118.368	-0.125	-0.022
-373.829	-170.839	0.318	-0.011
-372.815	-34.531	0.260	0.142
-371.800	800.000	-0.047	-0.174
-370.785	800.000	0.060	-0.183
-369.771	-117.547	0.418	0.075
-368.756	-200.000	-0.101	0.469
-367.742	-200.000	0.023	0.197
-366.727	45.811	-0.178	0.164
-365.712	-171.163	-0.247	0.008
-364.698	-71.648	0.246	-0.091
-363.683	-200.000	-0.044	-0.277
-362.669	43.241	0.098	-0.089
-361.654	-200.000	0.025	-0.137
-360.639	800.000	-0.084	0.323
-359.625	43.122	0.348	0.315
-358.610	415.497	-0.127	0.269
-357.596	-19.141	-0.273	-0.169
-356.581	-167.226	0.407	-0.016
-355.566	-91.236	0.200	-0.057
-354.552	-2.584	0.183	0.127
-353.537	780.589	-0.060	0.164
-352.523	-84.732	0.060	-0.019
-351.508	-80.524	-0.323	-0.107
-350.493	-89.440	0.300	0.088
-349.479	-29.892	0.151	0.085
-348.464	-200.000	-0.033	-0.305
-347.450	-29.343	0.136	0.077
-346.435	-139.515	0.248	0.026
-345.420	10.209	-0.038	0.029
-344.406	-200.000	0.026	0.298
-343.391	-92.356	0.259	0.073
-342.377	-112.020	-0.416	0.083
-341.362	-137.417	0.420	0.047
-340.348	-200.000	0.043	0.630
-339.333	331.931	0.071	0.136
-338.318	800.000	-0.042	-0.119
-337.304	-35.752	-0.342	-0.184
-336.289	-200.000	0.010	-0.186
-335.275	-73.157	0.217	-0.079
-334.260	-4.157	-0.331	-0.228
-333.245	-151.197	-0.295	-0.022
-332.231	67.815	-0.190	-0.193
-331.216	53.745	0.163	0.156
-330.202	27.212	0.124	0.104
-329.187	-107.134	-0.197	0.043
-328.172	275.325	0.068	-0.121
-327.158	-34.954	-0.127	-0.069
-326.143	-25.557	-0.163	0.096
-325.129	-61.672	0.241	-0.100
-324.114	-40.568	-0.157	-0.081
-323.099	-95.146	0.147	0.039
-322.085	74.788	-0.206	0.216
-321.070	-27.204	0.231	0.133
-320.056	-19.768	0.257	-0.157
-319.041	528.959	-0.017	0.040
-318.026	206.096	-0.106	0.164
-317.012	-71.292	-0.039	0.015
-315.997	-200.000	-0.030	0.518
-314.983	800.000	0.035	-0.122
-313.968	122.859	-0.020	0.025
-312.953	-52.244	-0.241	0.111
-311.939	351.967	-0.069	-0.136
-310.924	88.736	0.264	-0.291
-309.910	800.000	-0.078	0.243
-308.895	617.452	-0.078	0.195
-307.880	0.203	0.196	-0.139
-306.866	1.844	0.221	-0.158
-305.851	-85.117	-0.329	0.102
-304.837	-129.577	0.311	-0.043
-303.822	-34.705	-0.175	-0.095
-302.807	328.638	0.087	-0.166
-301.793	102.556	-0.061	-0.071
-300.778	-200.000	0.016	-0.242
-299.764	-200.000	0.015	0.265
-298.749	642.044	0.039	-0.098
-297.735	-190.676	0.245	0.003
-296.720	800.000	-0.064	-0.216
-295.705	635.469	-0.051	-0.128
-294.691	-115.659	-0.227	0.042
-293.676	352.560	-0.047	-0.093
-292.662	-175.815	-0.096	-0.003
-291.647	162.490	0.205	-0.286
-290.632	-167.562	0.288	0.011
-289.618	-200.000	0.296	0.001
-288.603	-200.000	-0.011	0.099
-287.589	321.462	0.094	-0.178
-286.574	-42.937	0.200	0.101
-285.559	-200.000	0.039	0.230
-284.545	800.000	-0.040	0.147
-283.530	-94.133	-0.161	-0.044
-282.516	218.902	0.071	0.112
-281.501	49.270	0.192	-0.179
-280.486	-38.719	-0.376	0.197
-279.472	-36.280	0.271	-0.145
-278.457	-80.070	-0.271	0.090
-277.443	43.263	0.042	-0.038
-276.428	-60.260	-0.205	0.086
-275.413	301.745	0.190	-0.348
-274.399	-55.493	0.271	-0.120
-273.384	-200.000	0.059	-0.270
-272.370	-94.393	0.271	0.073
-271.355	3.629	0.170	0.123
-270.340	-200.000	-0.029	-0.267
-269.326	63.358	0.092	-0.091
-268.311	747.368	-0.095	-0.254
-267.297	733.514	-0.069	-0.182
-266.282	380.766	0.086	-0.175
-265.267	-13.127	-0.154	0.099
-264.253	12.711	-0.275	0.211
-263.238	-65.303	0.252	0.100
-262.224	-164.221	-0.069	-0.003
-261.209	-200.000	0.019	0.287
-260.195	800.000	0.062	0.245
-259.180	738.031	0.100	0.266
-258.165	238.813	-0.082	-0.135
-257.151	800.000	0.062	0.226
-256.136	-59.311	0.247	0.105
-255.122	527.963	0.077	-0.180
-254.107	-24.418	-0.219	0.129
-253.092	356.126	-0.180	0.355
-252.078	-200.000	-0.000	0.113
-251.063	-200.000	0.066	-0.000
-250.049	800.000	-0.028	0.096
-249.034	166.615	-0.095	0.134
-248.019	-200.000	0.016	0.069
-247.005	800.000	0.022	-0.092
-245.990	-144.735	-0.085	-0.008
-244.976	60.368	0.211	-0.207
-243.961	-200.000	0.005	0.124
-242.946	33.690	-0.075	-0.064
-241.932	-96.046	-0.100	0.026
-240.917	-76.381	-0.270	-0.094
-239.903	-200.000	0.003	-0.034
-238.888	-75.818	-0.342	0.120
-237.873	52.186	-0.111	-0.105
-236.859	-122.449	-0.189	-0.030
-235.844	-153.875	-0.177	0.012
-234.830	800.000	-0.105	-0.385
-233.815	34.710	0.247	-0.214
-232.800	800.000	0.075	-0.301
-231.786	0.563	-0.232	-0.164
-230.771	100.616	0.262	0.302
-229.757	300.076	0.238	-0.434
-228.742	-37.965	-0.129	-0.068
-227.727	117.167	-0.069	-0.083
-226.713	-92.801	-0.381	0.105
-225.698	-200.000	-0.021	-0.146
-224.684	800.000	0.050	0.148
-223.669	-108.529	0.253	0.054
-222.655	-200.000	-0.016	-0.275
-221.640	185.730	0.091	0.134
-220.625	-97.217	-0.165	0.043
-219.611	-115.001	0.244	-0.046
-218.596	-200.000	0.022	-0.294
-217.582	800.000	0.098	0.288
-216.567	-140.161	0.269	0.028
-215.552	34.159	0.075	0.065
-214.538	9.923	0.212	0.159
-213.523	-177.163	-0.234	0.006
-212.509	800.000	0.057	-0.223
-211.494	-55.558	0.497	0.220
-210.479	220.340	0.119	0.188
-209.465	-200.000	0.000	-0.316
-208.450	211.329	-0.109	0.169
-207.436	-119.623	-0.066	0.011
-206.421	-79.027	0.164	-0.055
-205.406	175.362	-0.134	-0.192
-204.392	-200.000	-0.038	-0.205
-203.377	800.000	0.063	0.182
-202.363	541.814	0.113	0.265
-201.348	130.081	0.225	-0.284
-200.333	164.080	0.174	-0.242
-199.319	102.747	0.185	0.214
-198.304	-59.820	0.123	-0.052
-197.290	-200.000	0.001	-0.357
-196.275	-200.000	0.057	0.335
-195.260	58.081	-0.061	-0.059
-194.246	-82.119	0.148	-0.048
-193.231	-70.614	0.093	-0.035
-192.217	-121.596	0.100	0.016
-191.202	491.024	0.178	0.403
-190.187	-200.000	0.000	-0.072
-189.173	-200.000	0.004	0.243
-188.158	35.743	0.251	-0.218
-187.144	-18.128	0.191	0.118
-186.129	-200.000	0.011	0.141
-185.114	-64.916	-0.307	-0.122
-184.100	184.732	0.137	0.200
-183.085	-200.000	0.055	0.301
-182.071	-75.585	0.243	0.085
-181.056	16.936	0.190	0.148
-180.042	254.923	0.079	0.134
-179.027	-10.693	0.139	0.090
-178.012	256.936	0.046	-0.077
-176.998	-200.000	0.043	0.288
-175.983	19.631	-0.518	-0.412
-174.969	800.000	-0.056	-0.169
-173.954	106.801	0.164	-0.192
-172.939	40.662	0.138	-0.123
-171.925	800.000	-0.051	-0.195
-170.910	-15.649	0.265	-0.167
-169.896	-165.078	-0.117	0.005
-168.881	688.540	0.070	-0.182
-167.866	800.000	-0.123	-0.341
-166.852	-71.057	0.084	-0.031
-165.837	-4.723	0.249	0.170
-164.823	44.589	0.081	-0.073
-163.808	-45.407	-0.171	-0.084
-162.793	729.441	0.138	-0.365
-161.779	454.844	-0.123	0.270
-160.764	800.000	0.098	0.391
-159.750	-76.116	-0.128	0.044
-158.735	209.016	0.054	-0.084
-157.720	-45.136	-0.145	-0.071
-156.706	77.101	0.117	0.123
-155.691	-91.187	-0.221	0.063
-154.677	-96.474	-0.458	0.119
-153.662	15.725	0.194	0.151
-152.647	-200.000	0.023	0.254
-151.633	-200.000	0.012	-0.309
-150.618	72.423	-0.034	0.035
-149.604	11.974	0.161	0.122
-148.589	697.728	-0.104	-0.270
-147.574	9.471	-0.074	-0.056
-146.560	190.892	-0.259	-0.385
-145.545	800.000	-0.061	0.194
-144.531	50.472	0.118	0.110
-143.516	27.747	0.103	-0.086
-142.502	-113.730	0.177	0.034
-141.487	39.423	-0.135	0.119
-140.472	280.863	-0.072	0.128
-139.458	800.000	0.051	-0.192
-138.443	-81.154	-0.184	-0.060
-137.429	-144.457	0.113	0.010
-136.414	154.451	-0.098	-0.133
-135.399	-24.829	-0.249	0.146
-134.385	800.000	-0.063	-0.250
-133.370	498.166	-0.014	0.032
-132.356	-200.000	-0.011	0.073
-131.341	-118.070	0.254	-0.045
-130.326	-200.000	-0.022	0.361
-129.312	188.261	-0.030	0.044
-128.297	437.853	-0.180	-0.387
-127.283	-166.024	-0.401	-0.017
-126.268	-200.000	0.005	-0.278
-125.253	-15.949	0.238	-0.149
-124.239	-174.233	0.191	0.005
-123.224	33.782	0.152	-0.130
-122.210	-88.956	0.252	-0.073
-121.195	-70.438	0.306	-0.114
