DTS Sentinel unit serial number:	SN413079Multiplexer serial number:	ORYXHardware model number:	OX4-SRSoftware version number:	ORYX F/W v4.00 Oryx Data Collector v3.7.2.0data status	okinstallation	princeton_trtdifferential loss correction	single-endedforward channel	channel 2reverse channel	N/Adate	2019/09/14time	19:43:35forward acquisition time	60.00reverse acquisition time	0.00gamma	496.2192k internal	0.2320k external	0.2320temperature offset calibration	1.0096default loss term (dB/km)	0.3790temperature slope calibration	1.0000multiplexer offset coefficient	1.0000multiplexer slope coefficient	1.0000fibre end	0.00T internal ref (°C)	34.44T ext. ref 1 (°C)	4.88T ext. ref 2 (°C)	28.66length (m)	temperature (°C)	Stokes	anti-Stokes-747.200	-42.240	-0.169	0.087
-746.185	79.729	0.229	0.249
-745.171	40.507	0.162	0.147
-744.156	43.866	-0.174	-0.161
-743.142	365.957	0.143	-0.292
-742.127	-40.740	-0.309	0.162
-741.112	-200.000	0.005	0.142
-740.098	128.846	-0.187	0.241
-739.083	377.740	-0.100	-0.206
-738.069	-93.623	-0.119	-0.033
-737.054	-141.410	0.081	0.008
-736.039	92.185	0.058	-0.066
-735.025	-200.000	0.010	-0.132
-734.010	74.003	-0.234	-0.248
-732.996	800.000	-0.022	-0.078
-731.981	403.248	0.097	-0.206
-730.966	-108.426	-0.078	0.017
-729.952	-200.000	-0.033	-0.230
-728.937	-176.207	0.182	-0.005
-727.923	99.595	0.023	0.027
-726.908	-21.144	-0.298	0.184
-725.894	800.000	-0.021	0.065
-724.879	-200.000	0.019	0.191
-723.864	20.914	-0.144	0.118
-722.850	-47.577	0.321	0.157
-721.835	-20.131	-0.354	-0.220
-720.821	-200.000	-0.064	-0.331
-719.806	-167.417	0.268	0.011
-718.791	52.963	0.103	0.099
-717.777	800.000	-0.062	0.233
-716.762	140.547	0.144	-0.193
-715.748	800.000	-0.193	-0.549
-714.733	108.572	0.056	0.068
-713.718	-32.492	-0.139	0.078
-712.704	800.000	-0.049	0.141
-711.689	-13.544	-0.253	0.165
-710.675	-200.000	-0.001	-0.065
-709.660	-74.651	-0.097	0.035
-708.645	-88.880	0.175	0.053
-707.631	53.216	-0.141	0.136
-706.616	-200.000	0.029	0.150
-705.602	173.972	-0.186	0.271
-704.587	473.842	-0.079	-0.181
-703.572	800.000	-0.021	0.071
-702.558	-200.000	0.007	-0.065
-701.543	202.412	-0.261	-0.407
-700.529	-200.000	-0.025	-0.202
-699.514	-200.000	0.032	-0.258
-698.499	565.833	0.129	-0.315
-697.485	-139.348	-0.455	-0.049
-696.470	800.000	-0.030	-0.117
-695.456	-140.794	-0.135	-0.014
-694.441	-200.000	0.001	0.094
-693.426	-60.470	-0.372	-0.159
-692.412	-66.387	-0.165	0.066
-691.397	-200.000	-0.008	0.054
-690.383	-200.000	-0.030	-0.215
-689.368	-200.000	-0.033	-0.238
-688.354	-200.000	-0.010	0.049
-687.339	-200.000	-0.015	-0.232
-686.324	800.000	0.072	-0.222
-685.310	-180.053	-0.151	-0.003
-684.295	-55.460	-0.255	-0.115
-683.281	11.683	-0.112	-0.087
-682.266	-125.518	0.128	0.020
-681.251	-96.954	0.161	-0.042
-680.237	123.713	-0.188	0.238
-679.222	27.085	-0.238	0.201
-678.208	128.403	-0.188	0.242
-677.193	-200.000	-0.063	-0.285
-676.178	5.062	-0.056	-0.041
-675.164	-200.000	-0.051	-0.325
-674.149	-159.616	-0.317	-0.018
-673.135	-155.357	0.233	-0.015
-672.120	-200.000	0.009	-0.393
-671.105	800.000	0.046	0.200
-670.091	800.000	0.061	-0.176
-669.076	800.000	0.081	-0.253
-668.062	-200.000	-0.020	-0.205
-667.047	800.000	-0.048	-0.189
-666.032	-0.170	0.195	0.140
-665.018	-200.000	0.071	-0.336
-664.003	60.438	-0.191	0.190
-662.989	-163.148	0.337	0.016
-661.974	373.554	-0.097	0.200
-660.959	143.705	0.136	-0.183
-659.945	215.740	-0.051	0.082
-658.930	800.000	-0.063	-0.248
-657.916	800.000	0.091	-0.313
-656.901	252.067	-0.048	-0.083
-655.886	206.970	-0.110	-0.173
-654.872	5.898	-0.045	-0.033
-653.857	479.443	-0.053	-0.122
-652.843	5.345	-0.414	-0.308
-651.828	63.178	0.212	-0.214
-650.814	-118.822	0.249	-0.044
-649.799	-200.000	-0.009	-0.258
-648.784	-94.118	-0.171	-0.047
-647.770	-49.147	0.190	-0.092
-646.755	-192.354	0.176	0.002
-645.741	-200.000	-0.017	0.393
-644.726	10.295	-0.210	0.161
-643.711	-200.000	0.094	0.485
-642.697	91.312	0.155	-0.176
-641.682	-111.232	-0.143	0.029
-640.668	413.962	0.085	0.182
-639.653	-200.000	-0.014	-0.147
-638.638	35.139	-0.090	0.079
-637.624	-134.537	0.163	-0.020
-636.609	3.671	-0.309	-0.227
-635.595	-165.666	0.543	-0.024
-634.580	253.989	0.155	-0.266
-633.565	22.977	0.164	-0.135
-632.551	658.150	0.013	-0.035
-631.536	352.071	-0.060	-0.121
-630.522	800.000	0.080	0.254
-629.507	-40.235	-0.247	-0.129
-628.492	-38.031	-0.179	-0.096
-627.478	800.000	-0.012	0.034
-626.463	-111.516	-0.392	-0.080
-625.449	191.101	0.188	-0.285
-624.434	-159.805	0.040	-0.002
-623.419	-200.000	0.015	-0.313
-622.405	-200.000	0.018	0.365
-621.390	317.777	0.130	-0.248
-620.376	207.079	-0.112	0.176
-619.361	-60.459	-0.255	0.109
-618.346	27.884	-0.223	-0.189
-617.332	-161.757	-0.242	0.012
-616.317	24.480	0.130	0.108
-615.303	-200.000	-0.011	-0.395
-614.288	-200.000	0.039	-0.184
-613.273	-62.379	-0.044	0.018
-612.259	-200.000	-0.011	-0.175
-611.244	-20.080	-0.123	0.076
-610.230	-200.000	0.016	0.159
-609.215	-25.570	-0.126	0.075
-608.201	-64.385	0.276	0.113
-607.186	335.242	-0.029	0.057
-606.171	224.301	0.120	-0.194
-605.157	110.105	0.174	-0.210
-604.142	-12.416	-0.210	0.138
-603.128	170.404	0.086	-0.124
-602.113	-94.340	0.071	-0.020
-601.098	29.241	0.071	0.061
-600.084	47.918	0.167	0.157
-599.069	800.000	0.076	0.291
-598.055	-26.523	0.156	-0.092
-597.040	800.000	0.025	0.099
-596.025	800.000	0.056	-0.158
-595.011	-2.638	-0.198	0.139
-593.996	31.151	0.300	0.258
-592.982	-200.000	-0.008	-0.161
-591.967	-104.767	-0.402	0.093
-590.952	410.279	-0.055	0.116
-589.938	-70.628	0.240	-0.091
-588.923	-200.000	-0.022	0.242
-587.909	75.231	-0.123	-0.130
-586.894	-109.866	-0.106	-0.022
-585.879	-24.793	-0.425	-0.254
-584.865	90.240	0.207	-0.233
-583.850	-136.426	0.185	-0.022
-582.836	-46.340	-0.162	-0.080
-581.821	85.373	0.115	-0.127
-580.806	-200.000	0.003	0.389
-579.792	358.464	0.032	-0.063
-578.777	-175.804	0.267	-0.007
-577.763	-163.076	0.194	0.009
-576.748	-105.693	-0.116	-0.026
-575.733	-72.466	-0.081	0.030
-574.719	105.287	0.198	0.235
-573.704	253.560	-0.115	-0.197
-572.690	-200.000	-0.002	-0.144
-571.675	-98.943	0.145	-0.037
-570.661	448.255	-0.101	-0.223
-569.646	-183.628	-0.222	-0.004
-568.631	62.137	-0.115	0.115
-567.617	-16.431	0.207	0.132
-566.602	-124.860	-0.462	-0.072
-565.588	-87.077	0.440	0.135
-564.573	-162.439	-0.193	0.010
-563.558	-200.000	0.009	0.159
-562.544	123.008	0.128	0.161
-561.529	316.040	-0.080	0.151
-560.515	-81.058	0.317	0.105
-559.500	-200.000	-0.019	-0.357
-558.485	56.028	0.174	-0.170
-557.471	97.533	0.156	0.179
-556.456	-5.113	-0.065	-0.045
-555.442	-96.704	0.383	0.101
-554.427	-176.444	-0.265	-0.007
-553.412	147.893	0.136	0.185
-552.398	147.956	-0.154	0.208
-551.383	-114.519	-0.231	-0.045
-550.369	53.304	-0.123	0.118
-549.354	-200.000	0.023	0.227
-548.339	273.563	0.124	0.220
-547.325	-73.565	-0.216	0.079
-546.310	-136.907	0.361	0.042
-545.296	800.000	-0.019	-0.056
-544.281	-174.113	0.191	0.006
-543.266	108.119	0.054	0.065
-542.252	-113.542	0.419	-0.082
-541.237	-200.000	-0.028	-0.175
-540.223	-74.589	-0.096	-0.035
-539.208	-200.000	0.005	0.163
-538.193	-123.326	-0.339	-0.054
-537.179	-122.276	-0.115	0.019
-536.164	61.588	0.174	-0.174
-535.150	-200.000	0.027	0.274
-534.135	-78.653	-0.084	-0.029
-533.121	-88.986	-0.179	0.053
-532.106	-200.000	-0.006	0.162
-531.091	202.923	-0.127	-0.197
-530.077	213.057	-0.234	0.370
-529.062	-200.000	-0.014	0.119
-528.048	-96.880	0.197	-0.052
-527.033	284.582	0.063	-0.113
-526.018	-124.107	0.207	0.033
-525.004	138.075	-0.020	0.026
-523.989	-120.738	-0.242	-0.041
-522.975	0.525	-0.360	0.258
-521.960	-122.355	0.127	0.021
-520.945	-27.618	-0.092	0.054
-519.931	180.718	0.147	0.217
-518.916	-2.328	-0.256	-0.180
-517.902	800.000	0.140	-0.428
-516.887	800.000	-0.058	-0.208
-515.872	-200.000	0.016	-0.084
-514.858	-4.751	0.167	-0.115
-513.843	8.247	-0.072	0.054
-512.829	-133.016	0.569	0.072
-511.814	-200.000	-0.009	-0.052
-510.799	-94.473	0.304	-0.083
-509.785	-14.173	-0.118	0.076
-508.770	-7.298	-0.149	0.101
-507.756	127.289	-0.085	0.108
-506.741	192.157	-0.197	-0.298
-505.726	-200.000	0.043	0.322
-504.712	544.334	0.014	0.034
-503.697	-50.056	-0.204	-0.097
-502.683	143.883	0.039	-0.052
-501.668	204.952	0.122	-0.190
-500.653	433.408	-0.130	-0.282
-499.639	244.084	-0.154	-0.259
-498.624	70.592	-0.037	0.038
-497.610	577.683	-0.162	0.397
-496.595	800.000	0.002	-0.007
-495.581	-56.154	0.342	-0.153
-494.566	-84.416	-0.158	0.050
-493.551	5.691	-0.050	-0.037
-492.537	108.965	0.148	-0.177
-491.522	-31.943	0.166	-0.093
-490.508	253.486	-0.240	0.410
-489.493	-200.000	0.024	-0.160
-488.478	132.621	0.033	0.043
-487.464	-114.263	-0.130	-0.025
-486.449	163.782	0.215	-0.303
-485.435	-114.618	0.132	-0.025
-484.420	156.909	0.248	0.343
-483.405	-200.000	-0.079	0.421
-482.391	-67.221	-0.148	-0.058
-481.376	-112.068	0.418	0.084
-480.362	-45.849	0.066	0.033
-479.347	591.414	0.042	-0.103
-478.332	282.163	-0.135	-0.242
-477.318	-30.589	0.117	-0.066
-476.303	-200.000	0.052	-0.281
-475.289	-19.471	0.150	-0.093
-474.274	36.178	0.108	-0.095
-473.259	280.741	-0.028	-0.050
-472.245	-115.402	-0.064	-0.012
-471.230	-200.000	0.019	0.214
-470.216	800.000	0.083	-0.277
-469.201	-200.000	-0.009	0.047
-468.186	202.737	0.250	-0.386
-467.172	3.127	0.183	0.133
-466.157	-31.932	0.020	-0.011
-465.143	-200.000	-0.037	0.265
-464.128	52.085	-0.037	-0.035
-463.113	-13.875	-0.182	-0.118
-462.099	-200.000	-0.024	-0.338
-461.084	800.000	0.119	-0.331
-460.070	6.636	0.082	-0.061
-459.055	-159.106	0.269	-0.015
-458.040	-119.677	-0.172	-0.030
-457.026	278.369	0.146	-0.260
-456.011	800.000	-0.108	0.357
-454.997	650.115	0.085	-0.218
-453.982	-200.000	0.019	-0.247
-452.968	119.336	0.041	0.051
-451.953	580.662	0.106	0.260
-450.938	-62.021	0.161	-0.067
-449.924	-200.000	0.029	-0.582
-448.909	-70.592	0.285	0.108
-447.895	-164.136	-0.260	-0.012
-446.880	800.000	-0.039	0.129
-445.865	-120.677	-0.127	-0.022
-444.851	691.399	-0.063	0.166
-443.836	436.406	-0.025	-0.053
-442.822	-200.000	-0.029	0.183
-441.807	12.100	0.083	-0.064
-440.792	392.136	0.049	0.101
-439.778	199.977	-0.205	-0.314
-438.763	-48.881	-0.186	-0.089
-437.749	11.332	-0.012	-0.009
-436.734	15.102	-0.224	0.175
-435.719	800.000	-0.028	-0.081
-434.705	14.848	-0.210	0.165
-433.690	65.004	0.158	0.159
-432.676	46.995	-0.090	-0.083
-431.661	-143.847	0.167	0.016
-430.646	-50.565	-0.360	0.170
-429.632	367.919	-0.029	0.059
-428.617	398.363	-0.039	-0.082
-427.603	-116.975	0.253	0.046
-426.588	800.000	-0.050	-0.153
-425.573	139.279	0.119	0.156
-424.559	-7.933	0.164	0.110
-423.544	-91.825	-0.114	0.032
-422.530	183.817	-0.091	-0.134
-421.515	800.000	0.011	-0.046
-420.500	107.547	-0.226	0.268
-419.486	-131.998	-0.152	0.020
-418.471	-98.586	-0.167	0.043
-417.457	-10.148	-0.154	-0.102
-416.442	194.781	0.088	-0.134
-415.428	23.111	-0.319	0.261
-414.413	79.323	0.072	0.077
-413.398	-60.994	-0.174	-0.073
-412.384	-104.543	0.086	-0.020
-411.369	45.929	0.143	-0.132
-410.355	297.430	-0.030	-0.056
-409.340	-13.531	-0.283	0.183
-408.325	202.690	0.211	0.325
-407.311	-8.790	-0.169	-0.113
-406.296	-156.534	0.317	-0.020
-405.282	-114.041	-0.094	0.018
-404.267	-10.235	-0.318	-0.211
-403.252	27.000	0.091	-0.076
-402.238	20.185	-0.293	-0.236
-401.223	326.943	-0.016	0.030
-400.209	-73.850	-0.186	0.067
-399.194	-71.451	-0.091	-0.034
-398.179	-30.970	0.173	-0.097
-397.165	-200.000	0.011	-0.063
-396.150	-110.244	-0.143	0.030
-395.136	203.163	0.066	0.102
-394.121	365.511	-0.047	0.095
-393.106	-173.243	0.409	-0.012
-392.092	-176.592	0.037	-0.001
-391.077	800.000	0.087	-0.333
-390.063	800.000	-0.095	-0.291
-389.048	-21.533	-0.357	0.217
-388.033	-18.168	-0.032	0.020
-387.019	-1.521	0.262	-0.184
-386.004	18.549	-0.088	-0.070
-384.990	471.354	-0.129	-0.290
-383.975	-24.211	-0.178	-0.106
-382.960	74.804	0.155	0.162
-381.946	-200.000	0.042	-0.383
-380.931	-97.781	-0.140	-0.036
-379.917	-200.000	0.240	0.000
-378.902	800.000	-0.075	0.282
-377.888	800.000	-0.152	0.467
-376.873	-200.000	0.017	-0.218
-375.858	528.697	0.047	0.110
-374.844	-141.762	0.196	-0.020
-373.829	290.769	-0.022	0.040
-372.815	-200.000	-0.001	-0.239
-371.800	228.167	0.086	-0.140
-370.785	206.098	-0.176	0.273
-369.771	281.748	-0.091	-0.162
-368.756	-200.000	0.171	0.001
-367.742	684.659	-0.111	0.287
-366.727	10.196	-0.155	-0.117
-365.712	-146.514	-0.148	0.013
-364.698	74.140	0.172	-0.180
-363.683	800.000	0.152	-0.422
-362.669	-8.353	0.279	0.187
-361.654	-156.813	0.149	0.009
-360.639	40.853	-0.233	0.210
-359.625	-45.816	-0.205	0.101
-358.610	-200.000	-0.056	0.257
-357.596	431.750	-0.167	0.360
-356.581	321.587	-0.173	0.327
-355.566	134.705	0.063	0.082
-354.552	-18.913	0.192	0.119
-353.537	151.616	-0.189	-0.256
-352.523	207.147	0.311	0.483
-351.508	-93.723	-0.147	-0.040
-350.493	-74.077	-0.268	0.097
-349.479	85.528	0.172	-0.188
-348.464	-46.556	-0.126	0.062
-347.450	228.670	0.063	-0.102
-346.435	205.144	0.087	-0.134
-345.420	456.533	0.085	-0.188
-344.406	-119.249	0.158	-0.027
-343.391	45.639	-0.131	0.120
-342.377	145.115	0.134	-0.178
-341.362	-55.984	-0.290	0.129
-340.348	23.236	0.219	-0.179
-339.333	97.591	0.127	-0.145
-338.318	32.103	-0.067	-0.057
-337.304	349.019	0.144	0.284
-336.289	-52.761	-0.068	0.031
-335.275	800.000	0.065	-0.268
-334.260	-177.975	-0.268	-0.006
-333.245	-200.000	-0.007	-0.174
-332.231	197.561	0.191	-0.289
-331.216	-140.624	0.211	0.022
-330.202	-46.744	0.167	-0.082
-329.187	800.000	0.057	-0.171
-328.172	-200.000	0.006	0.069
-327.158	108.229	-0.086	-0.102
-326.143	-200.000	-0.064	-0.310
-325.129	55.323	-0.022	0.021
-324.114	78.519	-0.457	0.486
-323.099	800.000	-0.037	0.157
-322.085	-150.267	0.327	0.025
-321.070	-131.009	-0.154	0.020
-320.056	-200.000	-0.020	0.302
-319.041	-131.329	0.244	-0.032
-318.026	0.899	0.250	0.178
-317.012	-48.612	-0.262	-0.125
-315.997	-200.000	0.031	0.174
-314.983	140.083	-0.118	-0.155
-313.968	395.349	0.099	-0.206
-312.953	800.000	-0.096	0.404
-311.939	-200.000	-0.025	0.320
-310.924	-10.931	-0.087	0.057
-309.910	-172.892	0.263	-0.008
-308.895	800.000	0.062	0.195
-307.880	-72.734	-0.250	0.092
-306.866	174.832	-0.081	-0.117
-305.851	218.079	-0.048	0.076
-304.837	800.000	-0.102	-0.288
-303.822	-200.000	-0.000	-0.373
-302.807	145.508	-0.178	-0.237
-301.793	-200.000	0.011	-0.156
-300.778	-88.167	-0.264	-0.078
-299.764	-33.926	0.602	0.329
-298.749	800.000	0.098	0.344
-297.735	309.624	0.060	0.111
-296.720	-131.442	-0.221	0.029
-295.705	-200.000	-0.014	-0.124
-294.691	80.536	0.090	-0.096
-293.676	-16.119	0.170	-0.108
-292.662	-200.000	0.026	0.138
-291.647	-200.000	0.016	0.242
-290.632	432.429	0.145	0.313
-289.618	273.986	-0.134	-0.236
-288.603	800.000	0.042	-0.179
-287.589	-0.206	-0.265	-0.187
-286.574	-139.832	-0.087	0.009
-285.559	-200.000	0.021	0.116
-284.545	-53.423	-0.170	-0.077
-283.530	800.000	0.044	0.187
-282.516	-51.268	0.169	-0.079
-281.501	106.305	-0.109	-0.128
-280.486	-116.339	0.172	-0.032
-279.472	-104.172	0.340	-0.078
-278.457	360.627	0.127	0.253
-277.443	121.660	-0.159	0.197
-276.428	330.496	-0.260	0.498
-275.413	800.000	-0.088	0.298
-274.399	-52.736	0.077	0.035
-273.384	-78.374	-0.170	0.058
-272.370	-200.000	-0.002	0.054
-271.355	-131.077	0.288	-0.038
-270.340	-200.000	-0.066	-0.328
-269.326	-96.778	-0.257	-0.067
-268.311	-200.000	-0.025	0.132
-267.297	-200.000	0.038	-0.223
-266.282	343.413	-0.062	0.120
-265.267	-18.580	-0.278	0.172
-264.253	-57.791	-0.414	-0.180
-263.238	581.511	0.014	-0.035
-262.224	-3.083	-0.155	0.107
-261.209	800.000	0.088	-0.365
-260.195	267.609	-0.046	0.080
-259.180	-200.000	-0.043	-0.224
-258.165	-137.315	-0.088	0.010
-257.151	-86.105	-0.097	-0.030
-256.136	-91.873	0.191	-0.054
-255.122	-47.849	-0.242	-0.116
-254.107	-95.255	0.108	-0.029
-253.092	70.100	-0.201	-0.206
-252.078	81.836	0.068	-0.073
-251.063	800.000	-0.029	0.083
-250.049	-200.000	-0.012	-0.221
-249.034	-84.187	0.027	-0.009
-248.019	-200.000	-0.010	0.171
-247.005	77.648	-0.299	0.316
-245.990	87.684	-0.141	0.155
-244.976	-70.677	-0.110	0.041
-243.961	-200.000	0.181	0.000
-242.946	-86.543	-0.328	-0.100
-241.932	-200.000	0.013	-0.088
-240.917	800.000	-0.095	0.344
-239.903	-200.000	-0.037	-0.170
-238.888	448.705	0.104	-0.228
-237.873	20.294	0.260	-0.208
-236.859	-75.298	0.104	-0.037
-235.844	104.705	0.039	-0.046
-234.830	292.380	0.178	-0.322
-233.815	72.207	0.234	0.242
-232.800	191.434	0.262	-0.392
-231.786	-3.091	-0.200	0.138
-230.771	444.732	-0.028	0.062
-229.757	238.023	0.140	-0.230
-228.742	-167.341	-0.079	0.003
-227.727	-200.000	0.036	-0.206
-226.713	800.000	0.070	-0.288
-225.698	-61.184	0.363	-0.152
-224.684	800.000	-0.074	0.271
-223.669	718.833	-0.152	0.399
-222.655	-200.000	-0.048	0.229
-221.640	677.209	-0.069	-0.179
-220.625	-153.677	0.276	-0.019
-219.611	247.458	0.053	0.088
-218.596	-157.223	0.151	0.009
-217.582	206.918	0.155	-0.239
-216.567	-86.492	0.072	-0.022
-215.552	-0.391	0.048	-0.034
-214.538	-200.000	0.030	0.214
-213.523	-189.965	-0.181	0.002
-212.509	23.731	-0.123	0.100
-211.494	-49.493	0.062	0.029
-210.479	-12.582	0.306	0.198
-209.465	518.226	-0.115	0.267
-208.450	-200.000	-0.025	0.183
-207.436	-43.937	0.353	-0.176
-206.421	0.447	0.086	-0.061
-205.406	-58.755	-0.254	0.109
-204.392	-21.405	0.319	0.193
-203.377	-200.000	0.024	0.132
-202.363	-124.568	-0.391	-0.060
-201.348	-89.231	0.481	-0.140
-200.333	-200.000	-0.008	0.100
-199.319	-67.794	0.178	0.069
-198.304	-75.681	0.106	-0.037
-197.290	131.768	0.216	0.275
-196.275	361.321	-0.224	0.445
-195.260	800.000	-0.056	-0.190
-194.246	-90.292	0.246	0.071
-193.231	-39.964	-0.361	-0.187
-192.217	800.000	0.066	0.225
-191.202	800.000	-0.159	0.477
-190.187	27.023	-0.078	0.065
-189.173	-72.340	-0.117	-0.043
-188.158	184.673	-0.232	-0.341
-187.144	3.967	0.144	0.105
-186.129	38.247	0.146	-0.128
-185.114	800.000	-0.024	-0.092
-184.100	-149.639	0.237	0.018
-183.085	-5.166	0.129	-0.088
-182.071	-44.250	-0.253	-0.126
-181.056	204.079	-0.150	-0.229
-180.042	-143.968	-0.269	0.025
-179.027	-200.000	0.033	0.190
-178.012	-200.000	0.006	0.297
-176.998	121.202	-0.129	-0.158
-175.983	-116.912	-0.165	0.030
-174.969	-200.000	0.004	-0.219
-173.954	-200.000	0.005	0.108
-172.939	313.093	0.101	-0.187
-171.925	48.753	-0.236	-0.219
-170.910	800.000	0.120	0.415
-169.896	-200.000	0.005	0.184
-168.881	-1.683	-0.176	-0.123
-167.866	214.174	0.192	-0.300
-166.852	313.623	-0.096	0.179
-165.837	-200.000	0.015	0.247
-164.823	-120.112	-0.168	0.028
-163.808	-181.889	0.364	0.007
-162.793	-200.000	0.091	-0.442
-161.779	-200.000	0.038	0.211
-160.764	-128.215	0.086	-0.012
-159.750	-32.991	-0.239	-0.131
-158.735	-150.611	-0.408	0.031
-157.720	-85.717	0.311	0.095
-156.706	537.062	0.206	0.484
-155.691	213.835	-0.101	-0.158
-154.677	248.242	-0.068	-0.114
-153.662	200.622	-0.084	0.127
-152.647	-88.955	0.359	-0.105
-151.633	-108.322	-0.049	0.010
-150.618	435.528	0.122	-0.263
-149.604	89.405	0.032	0.035
-148.589	410.006	-0.121	0.253
-147.574	759.050	-0.034	-0.090
-146.560	-83.142	-0.266	0.084
-145.545	800.000	0.075	0.236
-144.531	445.251	-0.097	0.210
-143.516	56.113	-0.193	-0.185
-142.502	368.029	0.030	0.061
-141.487	-22.523	0.123	-0.074
-140.472	-103.557	0.368	0.085
-139.458	-200.000	0.020	-0.158
-138.443	69.497	0.218	-0.222
-137.429	-200.000	0.009	0.236
-136.414	-130.490	0.141	-0.019
-135.399	-40.901	0.509	0.260
-134.385	-200.000	0.025	0.122
-133.370	343.560	0.188	-0.364
-132.356	290.653	-0.068	0.122
-131.341	610.517	0.115	-0.283
-130.326	-60.595	0.079	0.033
-129.312	4.024	-0.085	-0.061
-128.297	-90.683	-0.109	0.031
-127.283	-13.724	0.370	-0.236
-126.268	-200.000	0.050	0.302
-125.253	100.307	0.133	-0.152
-124.239	-37.127	-0.181	0.096
-123.224	400.596	0.053	0.109
-122.210	-200.000	-0.021	0.398
