DTS Sentinel unit serial number:	SN413079Multiplexer serial number:	ORYXHardware model number:	OX4-SRSoftware version number:	ORYX F/W v4.00 Oryx Data Collector v3.7.2.0data status	okinstallation	princeton_trtdifferential loss correction	single-endedforward channel	channel 2reverse channel	N/Adate	2019/09/10time	18:29:10forward acquisition time	60.00reverse acquisition time	0.00gamma	496.2192k internal	0.2320k external	0.2320temperature offset calibration	0.9941default loss term (dB/km)	0.3790temperature slope calibration	1.0000multiplexer offset coefficient	1.0000multiplexer slope coefficient	1.0000fibre end	0.00T internal ref (°C)	35.92T ext. ref 1 (°C)	-0.35T ext. ref 2 (°C)	28.00length (m)	temperature (°C)	Stokes	anti-Stokes-747.200	-91.812	-0.119	0.034
-746.185	31.077	-0.192	0.166
-745.171	174.866	-0.123	0.181
-744.156	6.664	-0.043	-0.032
-743.142	229.893	-0.218	-0.359
-742.127	-91.964	-0.123	-0.035
-741.112	406.304	-0.065	-0.138
-740.098	-53.056	-0.174	0.081
-739.083	37.565	-0.094	0.084
-738.069	132.042	-0.278	0.362
-737.054	-200.000	-0.049	-0.293
-736.039	30.026	-0.152	-0.131
-735.025	-200.000	-0.045	0.460
-734.010	318.027	0.124	0.237
-732.996	313.084	-0.085	-0.161
-731.981	-86.015	-0.177	-0.055
-730.966	-200.000	-0.056	-0.252
-729.952	-67.597	-0.095	0.038
-728.937	800.000	0.026	-0.075
-727.923	52.709	0.148	0.143
-726.908	-94.713	0.433	0.119
-725.894	51.173	0.033	0.032
-724.879	-200.000	0.027	0.151
-723.864	14.096	-0.347	0.273
-722.850	-200.000	0.020	0.117
-721.835	800.000	0.041	0.169
-720.821	800.000	-0.065	0.202
-719.806	800.000	-0.050	0.164
-718.791	-200.000	0.014	-0.079
-717.777	-159.853	0.377	-0.021
-716.762	39.050	-0.045	0.040
-715.748	38.400	0.103	0.092
-714.733	86.140	-0.143	0.159
-713.718	-133.906	-0.163	0.020
-712.704	800.000	-0.103	-0.417
-711.689	-15.032	-0.303	-0.196
-710.675	-155.660	0.252	0.016
-709.660	-106.612	-0.121	-0.027
-708.645	14.690	0.207	-0.164
-707.631	-14.000	-0.262	-0.171
-706.616	800.000	-0.072	-0.298
-705.602	50.686	-0.160	-0.153
-704.587	66.392	0.156	0.160
-703.572	-16.872	0.283	-0.180
-702.558	-161.070	-0.334	-0.018
-701.543	5.336	0.162	-0.121
-700.529	-22.798	0.129	-0.079
-699.514	8.121	0.093	0.071
-698.499	46.847	0.084	-0.078
-697.485	-84.383	0.141	-0.045
-696.470	-11.910	0.090	-0.060
-695.456	-51.194	-0.078	0.037
-694.441	-200.000	-0.085	-0.434
-693.426	-200.000	0.000	-0.111
-692.412	98.668	0.071	-0.083
-691.397	-200.000	0.010	-0.149
-690.383	2.357	0.207	0.151
-689.368	36.787	-0.165	-0.148
-688.354	-200.000	-0.034	0.211
-687.339	-87.047	0.038	0.012
-686.324	800.000	-0.103	0.312
-685.310	-161.678	0.170	0.009
-684.295	-60.735	-0.465	0.199
-683.281	-33.774	-0.307	0.171
-682.266	-132.554	-0.307	0.040
-681.251	71.891	0.057	0.060
-680.237	397.942	0.177	-0.374
-679.222	207.818	-0.226	-0.355
-678.208	293.786	-0.105	0.194
-677.193	39.708	-0.238	-0.215
-676.178	-200.000	-0.006	0.032
-675.164	21.497	-0.323	-0.265
-674.149	499.019	0.048	-0.111
-673.135	212.464	-0.029	-0.046
-672.120	90.776	0.117	0.132
-671.105	746.951	-0.008	-0.020
-670.091	-87.913	0.155	-0.047
-669.076	-9.023	0.110	-0.074
-668.062	-200.000	0.008	-0.550
-667.047	112.163	-0.098	0.119
-666.032	-83.202	0.238	0.077
-665.018	-61.546	-0.031	-0.013
-664.003	-200.000	-0.018	-0.300
-662.989	386.374	-0.099	-0.206
-661.974	491.672	-0.061	0.141
-660.959	-200.000	0.013	-0.154
-659.945	149.806	-0.258	0.352
-658.930	800.000	-0.033	-0.146
-657.916	40.722	-0.124	0.112
-656.901	-83.928	-0.226	0.072
-655.886	39.901	-0.129	0.117
-654.872	-200.000	-0.017	-0.231
-653.857	-200.000	-0.022	0.149
-652.843	130.658	-0.084	-0.108
-651.828	273.822	0.147	-0.262
-650.814	57.916	-0.105	-0.104
-649.799	-2.132	0.098	-0.070
-648.784	13.766	-0.275	0.215
-647.770	391.701	0.097	0.202
-646.755	-87.964	-0.216	-0.066
-645.741	284.957	-0.216	0.393
-644.726	-59.986	0.303	-0.130
-643.711	66.515	0.118	-0.121
-642.697	-68.648	-0.230	0.090
-641.682	800.000	-0.027	-0.114
-640.668	89.289	0.143	0.160
-639.653	204.589	-0.120	-0.187
-638.638	11.769	-0.239	-0.184
-637.624	-149.225	0.214	-0.017
-636.609	-200.000	-0.194	-0.001
-635.595	-58.042	-0.090	0.040
-634.580	47.183	-0.054	-0.051
-633.565	194.540	-0.082	0.125
-632.551	139.891	-0.237	0.315
-631.536	-127.295	0.248	0.036
-630.522	800.000	0.072	-0.218
-629.507	508.373	0.081	0.189
-628.492	-193.499	-0.085	-0.001
-627.478	-74.555	0.256	-0.093
-626.463	386.781	-0.111	-0.231
-625.449	193.345	-0.079	0.120
-624.434	-200.000	-0.016	0.179
-623.419	-114.090	0.055	0.011
-622.405	-160.089	-0.095	-0.005
-621.390	291.300	0.098	-0.179
-620.376	-141.178	-0.178	-0.018
-619.361	7.784	0.110	-0.083
-618.346	-47.204	0.433	0.213
-617.332	-48.706	-0.076	-0.037
-616.317	-107.467	0.346	0.076
-615.303	22.096	0.191	0.157
-614.288	-116.337	0.244	-0.045
-613.273	-200.000	0.011	-0.064
-612.259	-137.783	0.258	0.029
-611.244	-60.096	-0.060	0.026
-610.230	14.436	-0.183	0.144
-609.215	538.759	0.012	0.028
-608.201	112.888	-0.197	0.240
-607.186	203.375	-0.194	-0.302
-606.171	-200.000	-0.074	0.334
-605.157	800.000	0.027	0.097
-604.142	800.000	-0.003	-0.009
-603.128	147.836	-0.096	0.131
-602.113	-200.000	0.035	-0.582
-601.098	800.000	-0.069	-0.213
-600.084	139.215	-0.294	0.389
-599.069	-94.551	-0.172	0.047
-598.055	-200.000	0.022	-0.414
-597.040	-85.578	0.277	0.086
-596.025	-72.039	0.253	0.094
-595.011	-54.421	0.236	0.107
-593.996	184.176	-0.135	0.201
-592.982	-200.000	0.033	0.190
-591.967	-200.000	0.028	0.298
-590.952	-41.288	0.258	-0.134
-589.938	-72.897	0.220	0.081
-588.923	231.824	0.145	-0.239
-587.909	779.582	0.142	-0.390
-586.894	85.604	0.168	-0.185
-585.879	311.310	-0.040	0.076
-584.865	-159.738	0.206	-0.011
-583.850	800.000	0.042	-0.163
-582.836	230.398	-0.164	-0.269
-581.821	142.408	-0.151	-0.201
-580.806	-153.439	0.228	0.016
-579.792	-200.000	-0.017	0.183
-578.777	-200.000	-0.009	-0.297
-577.763	-122.709	0.079	0.013
-576.748	510.787	-0.183	-0.427
-575.733	-155.062	-0.090	0.006
-574.719	-40.827	-0.163	0.085
-573.704	-200.000	-0.053	0.257
-572.690	83.458	-0.158	0.173
-571.675	314.936	0.097	0.184
-570.661	724.176	0.034	0.090
-569.646	-200.000	-0.029	-0.165
-568.631	-132.258	0.125	-0.016
-567.617	27.673	-0.102	0.087
-566.602	-98.911	-0.101	-0.026
-565.588	334.816	0.096	-0.187
-564.573	24.441	0.149	0.124
-563.558	26.332	-0.091	0.076
-562.544	-127.596	0.375	0.055
-561.529	-92.553	-0.152	0.043
-560.515	29.600	-0.130	0.111
-559.500	46.927	-0.258	-0.241
-558.485	-94.929	-0.238	-0.065
-557.471	19.594	0.344	-0.278
-556.456	800.000	-0.102	0.309
-555.442	-62.092	-0.184	0.077
-554.427	31.804	-0.093	0.080
-553.412	-200.000	0.228	0.000
-552.398	256.846	-0.196	-0.338
-551.383	46.951	0.023	-0.021
-550.369	-75.374	-0.387	0.139
-549.354	-98.659	0.317	-0.081
-548.339	113.063	-0.294	0.357
-547.325	-108.980	-0.032	-0.007
-546.310	-162.286	-0.181	0.009
-545.296	-200.000	-0.009	0.413
-544.281	-200.000	0.009	-0.226
-543.266	-200.000	-0.049	-0.329
-542.252	-200.000	0.053	-0.264
-541.237	313.214	-0.111	-0.210
-540.223	148.991	0.136	0.185
-539.208	237.906	-0.049	-0.081
-538.193	-104.897	-0.328	-0.076
-537.179	168.532	0.197	0.281
-536.164	-154.818	0.275	0.018
-535.150	691.265	-0.060	0.158
-534.135	-57.293	0.030	0.013
-533.121	278.424	-0.019	0.033
-532.106	17.214	-0.203	0.162
-531.091	-52.043	0.180	0.084
-530.077	-27.069	-0.405	0.237
-529.062	20.527	-0.078	-0.063
-528.048	131.194	0.078	0.101
-527.033	128.807	0.084	-0.107
-526.018	-114.105	0.212	-0.041
-525.004	-26.446	-0.237	-0.139
-523.989	-200.000	0.002	0.105
-522.975	325.411	-0.132	0.253
-521.960	112.333	0.075	-0.091
-520.945	-51.120	-0.126	-0.059
-519.931	-99.714	-0.150	0.038
-518.916	-53.408	-0.204	0.094
-517.902	-200.000	0.038	0.227
-516.887	-200.000	0.011	0.168
-515.872	800.000	-0.079	0.253
-514.858	-84.126	0.230	0.073
-513.843	-79.037	-0.442	-0.151
-512.829	770.664	0.049	0.134
-511.814	800.000	-0.027	0.112
-510.799	-139.280	-0.513	0.055
-509.785	194.794	-0.075	-0.113
-508.770	-34.195	-0.140	0.077
-507.756	-200.000	0.014	0.262
-506.741	128.943	0.190	0.243
-505.726	125.187	-0.244	0.308
-504.712	50.237	-0.027	-0.026
-503.697	-123.765	-0.083	0.013
-502.683	-70.960	0.173	-0.065
-501.668	114.174	-0.284	-0.347
-500.653	39.221	-0.240	-0.215
-499.639	46.328	-0.106	0.098
-498.624	-200.000	0.030	-0.220
-497.610	234.756	0.095	-0.157
-496.595	29.755	-0.335	-0.286
-495.581	26.652	-0.106	0.089
-494.566	-200.000	-0.043	-0.246
-493.551	338.403	-0.175	0.342
-492.537	712.110	0.150	0.399
-491.522	40.218	-0.131	0.118
-490.508	240.286	0.045	0.076
-489.493	53.492	0.145	0.139
-488.478	87.345	-0.060	-0.066
-487.464	-200.000	0.004	-0.172
-486.449	109.217	0.084	-0.100
-485.435	-200.000	0.026	0.166
-484.420	242.932	0.107	-0.179
-483.405	-161.797	0.134	-0.007
-482.391	80.341	0.180	0.194
-481.376	800.000	-0.070	-0.252
-480.362	-156.894	0.092	-0.006
-479.347	-173.339	0.127	-0.004
-478.332	-173.283	0.194	-0.006
-477.318	60.176	-0.128	0.127
-476.303	-69.562	0.099	0.038
-475.289	-196.514	-0.153	-0.001
-474.274	800.000	-0.011	0.032
-473.259	800.000	0.054	-0.196
-472.245	270.371	0.189	0.332
-471.230	42.902	-0.152	-0.139
-470.216	-0.648	-0.300	-0.213
-469.201	-168.035	0.175	-0.007
-468.186	-44.266	0.247	0.124
-467.172	-15.225	-0.209	-0.134
-466.157	-200.000	0.144	0.001
-465.143	140.678	-0.014	0.018
-464.128	-200.000	-0.013	0.135
-463.113	-180.437	-0.300	0.006
-462.099	-24.984	-0.227	0.135
-461.084	4.028	-0.076	0.056
-460.070	515.538	-0.051	-0.119
-459.055	-200.000	-0.003	0.290
-458.040	-155.696	0.310	-0.020
-457.026	-200.000	-0.014	-0.075
-456.011	-200.000	0.012	0.129
-454.997	-71.213	0.238	0.089
-453.982	-139.200	0.120	0.013
-452.968	-18.699	0.286	-0.178
-451.953	-20.412	0.257	0.158
-450.938	-159.536	0.078	0.004
-449.924	-28.547	-0.174	-0.100
-448.909	125.617	-0.194	-0.244
-447.895	-60.415	0.274	-0.117
-446.880	-200.000	0.024	0.181
-445.865	5.749	-0.294	-0.218
-444.851	-200.000	0.078	0.355
-443.836	-162.831	-0.085	-0.004
-442.822	123.259	-0.073	0.091
-441.807	117.143	0.217	0.266
-440.792	-200.000	0.005	-0.061
-439.778	-115.364	-0.156	-0.029
-438.763	54.260	0.108	0.104
-437.749	-200.000	0.001	0.040
-436.734	4.822	0.181	-0.133
-435.719	-117.608	-0.184	0.033
-434.705	154.529	-0.166	-0.227
-433.690	-71.215	0.238	0.089
-432.676	800.000	-0.102	0.358
-431.661	253.379	0.069	0.117
-430.646	302.312	-0.135	0.249
-429.632	143.299	0.072	0.095
-428.617	-2.650	0.143	-0.100
-427.603	-200.000	0.041	-0.254
-426.588	800.000	0.045	0.146
-425.573	-150.171	0.151	0.012
-424.559	800.000	-0.062	0.210
-423.544	377.937	0.154	0.315
-422.530	-41.857	0.093	-0.048
-421.515	-200.000	-0.013	-0.112
-420.500	4.300	-0.131	0.096
-419.486	116.934	-0.221	-0.271
-418.471	-62.628	0.291	-0.121
-417.457	-195.538	-0.121	-0.001
-416.442	68.289	0.203	-0.208
-415.428	-200.000	0.002	-0.112
-414.413	167.548	0.068	-0.097
-413.398	800.000	0.047	-0.199
-412.384	-29.950	0.152	0.086
-411.369	143.856	-0.107	0.143
-410.355	-200.000	-0.008	0.109
-409.340	218.266	0.141	-0.225
-408.325	73.859	0.112	-0.117
-407.311	-1.203	-0.210	-0.148
-406.296	22.608	0.078	0.063
-405.282	-15.482	0.285	0.182
-404.267	67.875	0.038	0.038
-403.252	-200.000	0.028	0.168
-402.238	-79.783	0.102	0.034
-401.223	-30.959	-0.135	0.076
-400.209	-96.847	-0.112	0.029
-399.194	427.136	0.150	-0.322
-398.179	-200.000	0.009	-0.075
-397.165	254.802	-0.028	-0.047
-396.150	477.606	0.070	-0.158
-395.136	800.000	-0.080	-0.319
-394.121	-162.975	-0.150	0.007
-393.106	-200.000	0.006	-0.112
-392.092	346.211	-0.058	0.114
-391.077	125.092	0.138	0.174
-390.063	157.815	-0.131	-0.181
-389.048	-35.399	0.100	-0.054
-388.033	-149.108	-0.384	-0.031
-387.019	-116.881	-0.166	0.030
-386.004	-200.000	0.006	0.087
-384.990	301.447	0.162	-0.298
-383.975	-101.507	0.334	-0.081
-382.960	-37.138	0.207	0.110
-381.946	-134.381	0.194	0.024
-380.931	-89.506	0.388	0.114
-379.917	-61.047	0.069	-0.029
-378.902	-13.360	-0.146	-0.094
-377.888	-146.805	-0.159	0.014
-376.873	-200.000	0.014	0.166
-375.858	281.767	0.143	-0.256
-374.844	-118.811	-0.300	0.053
-373.829	98.834	-0.057	0.066
-372.815	800.000	0.035	-0.112
-371.800	-200.000	-0.036	0.198
-370.785	-200.000	-0.056	-0.281
-369.771	117.812	0.177	0.217
-368.756	67.691	-0.124	0.127
-367.742	800.000	0.034	0.146
-366.727	-175.014	-0.181	-0.005
-365.712	-38.573	0.141	0.074
-364.698	-200.000	-0.002	0.358
-363.683	-23.330	0.175	0.105
-362.669	-200.000	0.038	-0.187
-361.654	320.968	-0.126	-0.238
-360.639	-200.000	-0.007	-0.043
-359.625	-138.430	-0.303	-0.033
-358.610	81.012	-0.344	-0.370
-357.596	-82.731	-0.362	-0.117
-356.581	-78.483	-0.314	-0.107
-355.566	95.120	0.102	0.116
-354.552	-74.523	0.337	0.121
-353.537	-54.456	-0.319	0.144
-352.523	149.003	-0.138	-0.186
-351.508	-200.000	-0.011	-0.152
-350.493	290.195	0.065	-0.118
-349.479	-147.243	-0.290	-0.025
-348.464	91.370	-0.089	-0.100
-347.450	482.223	-0.110	-0.248
-346.435	-43.747	0.180	-0.090
-345.420	43.881	-0.170	-0.155
-344.406	800.000	0.041	-0.166
-343.391	216.783	-0.061	0.097
-342.377	140.556	0.078	-0.103
-341.362	-130.034	-0.083	-0.011
-340.348	49.006	-0.252	-0.235
-339.333	-27.615	0.296	-0.171
-338.318	-136.552	-0.113	-0.013
-337.304	46.342	-0.083	-0.076
-336.289	800.000	0.018	-0.073
-335.275	111.831	0.087	-0.104
-334.260	-119.981	-0.288	0.049
-333.245	86.847	0.066	-0.073
-332.231	-47.271	-0.148	0.072
-331.216	-6.277	-0.107	0.073
-330.202	631.512	0.168	0.424
-329.187	-91.209	-0.280	-0.080
-328.172	-17.884	-0.239	-0.149
-327.158	-200.000	0.000	0.022
-326.143	-62.448	0.268	0.111
-325.129	-200.000	0.021	-0.123
-324.114	231.969	-0.123	0.202
-323.099	-200.000	-0.006	-0.055
-322.085	800.000	0.020	0.078
-321.070	59.148	0.133	-0.130
-320.056	-200.000	0.029	-0.151
-319.041	326.309	0.031	-0.058
-318.026	-35.538	0.057	0.031
-317.012	-200.000	-0.012	0.127
-315.997	136.301	0.085	0.110
-314.983	146.490	-0.101	-0.134
-313.968	570.294	-0.109	-0.264
-312.953	-110.224	0.439	-0.091
-311.939	-200.000	0.014	0.149
-310.924	268.409	-0.129	-0.225
-309.910	800.000	-0.078	-0.233
-308.895	-161.951	0.340	0.017
-307.880	-200.000	-0.010	-0.181
-306.866	-200.000	-0.008	-0.151
-305.851	20.942	0.117	-0.094
-304.837	646.031	0.015	0.038
-303.822	-197.336	0.189	-0.001
-302.807	800.000	-0.063	0.245
-301.793	-200.000	0.036	-0.214
-300.778	-131.895	0.396	-0.051
-299.764	78.408	0.139	0.148
-298.749	423.823	-0.194	-0.415
-297.735	276.343	-0.056	-0.099
-296.720	800.000	-0.061	-0.257
-295.705	-143.819	0.125	-0.012
-294.691	106.846	-0.190	-0.224
-293.676	-157.847	-0.214	0.013
-292.662	236.440	-0.219	0.360
-291.647	-55.097	0.072	-0.032
-290.632	123.658	0.199	0.248
-289.618	-200.000	0.042	0.249
-288.603	-58.170	0.084	0.036
-287.589	584.043	-0.167	-0.407
-286.574	201.085	-0.118	-0.181
-285.559	-200.000	-0.065	-0.382
-284.545	-200.000	-0.004	-0.054
-283.530	-144.234	-0.218	0.020
-282.516	21.469	0.038	0.031
-281.501	-200.000	0.005	-0.038
-280.486	-152.795	0.316	-0.022
-279.472	-44.562	-0.202	-0.100
-278.457	181.687	0.065	-0.094
-277.443	-119.530	-0.222	0.038
-276.428	-194.231	-0.074	0.001
-275.413	401.776	0.112	-0.234
-274.399	-124.815	0.143	-0.022
-273.384	-71.723	0.356	-0.132
-272.370	-93.045	0.255	0.071
-271.355	-15.310	0.146	0.093
-270.340	233.176	0.110	0.179
-269.326	473.730	-0.142	0.319
-268.311	-85.628	0.218	0.067
-267.297	373.119	0.104	0.210
-266.282	-57.522	-0.492	-0.214
-265.267	719.098	0.100	0.264
-264.253	-64.261	0.157	0.063
-263.238	-200.000	-0.019	-0.121
-262.224	-118.997	0.198	-0.034
-261.209	-39.315	0.206	0.108
-260.195	288.487	-0.048	0.087
-259.180	492.584	0.074	0.169
-258.165	316.556	-0.043	-0.080
-257.151	-22.697	0.333	0.200
-256.136	-42.484	0.184	0.093
-255.122	163.417	0.151	0.211
-254.107	61.116	0.067	0.066
-253.092	-200.000	-0.016	0.398
-252.078	575.155	-0.090	-0.219
-251.063	-200.000	0.015	0.151
-250.049	9.076	-0.157	0.118
-249.034	797.456	0.085	0.232
-248.019	309.588	0.069	-0.128
-247.005	47.399	-0.078	-0.072
-245.990	-22.487	-0.260	-0.156
-244.976	153.828	0.092	0.126
-243.961	42.143	0.180	0.162
-242.946	-34.291	0.124	0.067
-241.932	98.562	0.236	0.270
-240.917	680.201	0.126	-0.326
-239.903	257.300	0.156	-0.265
-238.888	-67.416	-0.261	0.102
-237.873	8.171	-0.241	0.179
-236.859	-159.652	0.170	-0.009
-235.844	-42.712	0.144	0.073
-234.830	249.055	-0.188	0.316
-233.815	-200.000	-0.017	-0.258
-232.800	161.806	-0.113	0.156
-231.786	451.535	-0.158	-0.345
-230.771	-74.611	-0.081	-0.029
-229.757	-200.000	-0.005	0.112
-228.742	3.295	0.135	0.098
-227.727	169.905	-0.057	0.081
-226.713	-32.140	0.272	0.151
-225.698	49.711	0.071	-0.067
-224.684	357.318	-0.072	-0.143
-223.669	295.875	0.183	0.333
-222.655	306.480	-0.210	0.387
-221.640	-176.181	0.239	-0.006
-220.625	800.000	0.063	0.266
-219.611	425.691	0.072	-0.154
-218.596	495.095	0.159	-0.361
-217.582	45.713	-0.128	0.117
-216.567	80.302	-0.292	0.312
-215.552	48.728	0.242	0.224
-214.538	-97.260	0.239	0.062
-213.523	-85.501	0.233	-0.072
-212.509	50.377	0.177	0.166
-211.494	656.867	-0.075	0.190
-210.479	88.450	-0.106	0.116
-209.465	112.279	-0.065	0.077
-208.450	124.095	0.088	0.109
-207.436	-66.539	0.220	0.086
-206.421	293.934	0.082	0.148
-205.406	0.577	-0.072	0.051
-204.392	127.806	-0.084	0.106
-203.377	-31.588	0.062	0.035
-202.363	27.546	-0.254	0.211
-201.348	-149.943	-0.290	-0.022
-200.333	32.664	-0.156	0.134
-199.319	-44.169	0.177	-0.088
-198.304	-47.202	0.072	0.035
-197.290	275.150	0.143	0.251
-196.275	-200.000	0.001	-0.139
-195.260	240.994	0.028	-0.047
-194.246	800.000	0.023	-0.097
-193.231	-101.752	-0.286	0.069
-192.217	-64.359	-0.196	0.079
-191.202	-153.890	-0.068	0.005
-190.187	-140.036	0.148	-0.015
-189.173	-144.711	-0.275	-0.025
-188.158	800.000	-0.045	-0.137
-187.144	-200.000	0.006	-0.220
-186.129	-0.785	-0.282	-0.198
-185.114	-135.005	-0.247	0.030
-184.100	122.831	0.171	-0.211
-183.085	295.160	-0.210	-0.381
-182.071	-28.320	0.247	-0.141
-181.056	107.564	-0.050	0.059
-180.042	-90.497	0.317	0.091
-179.027	-101.012	0.235	0.057
-178.012	-102.778	-0.309	-0.073
-176.998	-99.873	-0.215	0.053
-175.983	92.632	-0.154	0.172
-174.969	480.683	0.125	-0.280
-173.954	-182.928	-0.159	0.003
-172.939	800.000	-0.054	0.168
-171.925	18.443	-0.289	-0.228
-170.910	-45.422	-0.152	0.075
-169.896	-62.816	0.103	-0.042
-168.881	136.175	0.057	0.074
-167.866	105.779	-0.175	-0.205
-166.852	-89.107	0.277	-0.081
-165.837	-124.090	-0.203	-0.031
-164.823	50.580	-0.090	-0.084
-163.808	669.259	0.084	0.215
-162.793	279.512	0.147	0.260
-161.779	800.000	-0.029	-0.091
-160.764	-32.862	0.180	-0.099
-159.750	-200.000	-0.018	-0.225
-158.735	-200.000	-0.012	0.122
-157.720	246.741	-0.181	-0.301
-156.706	-36.947	0.065	0.035
-155.691	192.090	0.135	-0.200
-154.677	115.554	0.313	-0.378
-153.662	-200.000	-0.060	-0.354
-152.647	92.752	-0.092	-0.103
-151.633	-66.055	0.546	-0.215
-150.618	521.350	0.062	0.143
-149.604	94.898	0.350	0.393
-148.589	-13.474	-0.119	0.076
-147.574	12.142	-0.093	0.071
-146.560	-157.878	-0.231	-0.013
-145.545	354.315	0.057	0.112
-144.531	-20.762	0.261	-0.158
-143.516	800.000	0.036	0.122
-142.502	-31.312	-0.246	0.137
-141.487	7.865	-0.240	-0.178
-140.472	-171.559	-0.104	0.003
-139.458	-129.340	-0.154	0.021
-138.443	214.657	-0.186	0.291
-137.429	22.323	0.101	0.081
-136.414	54.598	-0.303	0.288
-135.399	-200.000	-0.035	0.223
-134.385	-200.000	0.041	-0.255
-133.370	-200.000	-0.011	-0.116
-132.356	509.988	-0.123	0.282
-131.341	-200.000	0.097	0.518
-130.326	-200.000	-0.015	-0.135
-129.312	-136.295	-0.197	0.023
-128.297	-115.193	0.329	-0.062
-127.283	535.567	-0.044	-0.103
-126.268	-149.771	-0.308	0.024
-125.253	-200.000	-0.002	-0.327
-124.239	522.988	0.095	0.219
-123.224	-200.000	0.093	0.442
-122.210	199.561	-0.003	-0.004
-121.195	-91.753	0.220	-0.062
