DTS Sentinel unit serial number:	SN413079Multiplexer serial number:	ORYXHardware model number:	OX4-SRSoftware version number:	ORYX F/W v4.00 Oryx Data Collector v3.7.2.0data status	okinstallation	princeton_trtdifferential loss correction	single-endedforward channel	channel 2reverse channel	N/Adate	2019/09/14time	05:35:34forward acquisition time	60.00reverse acquisition time	0.00gamma	496.2192k internal	0.2336k external	0.2336temperature offset calibration	1.0133default loss term (dB/km)	0.3790temperature slope calibration	1.0000multiplexer offset coefficient	1.0000multiplexer slope coefficient	1.0000fibre end	0.00T internal ref (°C)	26.94T ext. ref 1 (°C)	3.40T ext. ref 2 (°C)	21.78length (m)	temperature (°C)	Stokes	anti-Stokes-747.200	232.558	-0.211	-0.348
-746.185	800.000	0.025	0.103
-745.171	164.416	-0.080	0.113
-744.156	141.109	-0.173	-0.229
-743.142	-55.158	-0.229	-0.104
-742.127	-200.000	0.027	0.122
-741.112	-200.000	0.024	0.127
-740.098	141.542	0.135	0.180
-739.083	-200.000	-0.026	0.208
-738.069	93.146	-0.329	0.374
-737.054	-31.592	-0.232	0.131
-736.039	-149.217	-0.159	-0.013
-735.025	-200.000	-0.464	-0.002
-734.010	-8.091	-0.116	-0.079
-732.996	-200.000	-0.006	0.087
-731.981	-7.999	0.107	0.073
-730.966	-200.000	0.011	0.307
-729.952	25.482	0.174	-0.145
-728.937	278.690	-0.075	-0.134
-727.923	-200.000	0.010	0.061
-726.908	19.761	-0.178	0.144
-725.894	-0.793	-0.269	-0.191
-724.879	-69.348	-0.120	0.046
-723.864	-14.566	-0.145	0.093
-722.850	-27.125	0.239	-0.140
-721.835	29.390	-0.152	0.129
-720.821	109.311	0.264	-0.317
-719.806	125.935	-0.108	0.137
-718.791	39.986	0.194	-0.175
-717.777	524.923	-0.156	-0.367
-716.762	-56.857	-0.232	-0.103
-715.748	800.000	0.090	0.357
-714.733	58.384	-0.181	-0.178
-713.718	65.728	-0.039	0.040
-712.704	800.000	-0.061	0.229
-711.689	-122.468	-0.137	-0.022
-710.675	800.000	-0.028	-0.100
-709.660	-62.898	0.277	0.115
-708.645	-188.327	0.167	-0.002
-707.631	293.042	0.048	0.089
-706.616	56.289	-0.127	0.123
-705.602	172.533	0.112	-0.161
-704.587	728.559	-0.107	0.287
-703.572	-122.662	-0.132	0.022
-702.558	446.039	-0.059	0.129
-701.543	-200.000	-0.041	0.228
-700.529	-109.809	0.174	0.037
-699.514	-200.000	0.023	0.317
-698.499	800.000	0.069	0.279
-697.485	-200.000	-0.042	0.235
-696.470	16.180	-0.136	0.107
-695.456	105.286	-0.138	-0.164
-694.441	77.650	0.267	-0.285
-693.426	-73.376	-0.232	0.085
-692.412	180.746	-0.236	0.347
-691.397	-200.000	0.026	0.195
-690.383	113.112	-0.134	-0.163
-689.368	-200.000	0.073	0.363
-688.354	-200.000	-0.040	-0.483
-687.339	-145.270	0.306	0.028
-686.324	14.207	-0.401	0.313
-685.310	243.328	0.094	0.158
-684.295	-113.303	-0.063	-0.012
-683.281	100.657	-0.114	0.133
-682.266	665.874	0.070	0.181
-681.251	800.000	-0.040	0.115
-680.237	-44.458	0.329	0.165
-679.222	-126.517	0.293	0.044
-678.208	192.833	-0.060	0.091
-677.193	-200.000	-0.017	0.105
-676.178	531.342	-0.126	-0.299
-675.164	169.272	0.097	-0.139
-674.149	-52.116	-0.216	-0.100
-673.135	-200.000	0.017	-0.383
-672.120	41.795	0.118	-0.107
-671.105	-99.630	-0.357	0.090
-670.091	157.062	0.120	-0.166
-669.076	-193.298	-0.438	-0.004
-668.062	-200.000	0.041	-0.403
-667.047	445.733	0.041	0.090
-666.032	-200.000	-0.014	-0.160
-665.018	-43.020	-0.173	0.088
-664.003	-200.000	0.034	-0.281
-662.989	582.646	0.132	-0.325
-661.974	-200.000	-0.271	-0.000
-660.959	158.190	-0.057	-0.079
-659.945	420.360	0.128	0.274
-658.930	-33.599	-0.051	0.028
-657.916	-130.620	0.209	0.028
-656.901	26.692	0.053	0.045
-655.886	11.595	0.247	-0.189
-654.872	-200.000	0.004	-0.033
-653.857	-137.836	-0.113	-0.013
-652.843	-200.000	0.082	-0.443
-651.828	-28.567	0.247	-0.142
-650.814	1.446	0.065	-0.047
-649.799	83.290	-0.169	-0.185
-648.784	-200.000	-0.014	-0.289
-647.770	-200.000	-0.051	-0.293
-646.755	-5.143	-0.070	0.048
-645.741	-200.000	-0.027	0.140
-644.726	-161.135	0.088	-0.005
-643.711	-77.670	0.171	0.059
-642.697	87.676	-0.191	-0.212
-641.682	800.000	-0.098	-0.320
-640.668	327.663	0.165	0.316
-639.653	-116.427	0.245	-0.045
-638.638	-38.887	-0.078	0.041
-637.624	-122.723	-0.068	-0.011
-636.609	800.000	-0.129	0.500
-635.595	-105.521	0.205	-0.046
-634.580	800.000	0.077	-0.278
-633.565	270.843	0.174	-0.306
-632.551	-200.000	-0.023	0.140
-631.536	-94.963	-0.186	-0.050
-630.522	-159.340	0.032	0.002
-629.507	29.082	-0.113	-0.096
-628.492	-152.503	-0.281	-0.020
-627.478	59.153	-0.110	0.109
-626.463	0.812	0.363	0.260
-625.449	77.193	0.116	0.124
-624.434	20.796	-0.086	0.070
-623.419	800.000	-0.011	0.032
-622.405	102.234	0.018	0.021
-621.390	-99.637	0.193	0.048
-620.376	-200.000	-0.004	-0.154
-619.361	-173.645	-0.115	-0.003
-618.346	-19.210	-0.356	0.221
-617.332	98.250	0.173	0.199
-616.317	-3.368	-0.137	-0.096
-615.303	463.585	-0.041	0.091
-614.288	363.058	-0.154	0.309
-613.273	-200.000	-0.001	-0.029
-612.259	800.000	-0.011	0.040
-611.244	-3.728	0.296	-0.206
-610.230	88.102	-0.311	0.344
-609.215	-146.202	0.087	0.008
-608.201	800.000	-0.039	0.112
-607.186	-200.000	-0.019	0.131
-606.171	-94.593	0.177	-0.048
-605.157	-200.000	-0.002	0.245
-604.142	346.078	-0.262	0.515
-603.128	8.107	-0.164	-0.123
-602.113	39.221	-0.090	0.081
-601.098	-110.948	0.168	0.035
-600.084	-67.750	-0.340	-0.133
-599.069	800.000	0.108	0.299
-598.055	-97.857	-0.164	0.042
-597.040	8.231	-0.237	0.178
-596.025	-145.759	-0.148	0.013
-595.011	-57.379	-0.097	0.043
-593.996	24.255	0.127	-0.104
-592.982	-63.491	-0.109	-0.045
-591.967	199.172	-0.249	0.381
-590.952	30.424	-0.212	-0.181
-589.938	112.208	0.051	0.062
-588.923	-93.148	-0.365	-0.101
-587.909	87.291	0.073	-0.081
-586.894	-200.000	0.007	0.206
-585.879	-151.096	-0.150	0.011
-584.865	11.091	-0.282	-0.215
-583.850	-79.646	0.431	0.145
-582.836	104.816	0.116	-0.136
-581.821	-149.051	0.130	0.010
-580.806	6.624	0.502	-0.373
-579.792	37.800	0.067	-0.060
-578.777	-41.540	-0.129	0.066
-577.763	-200.000	0.018	0.332
-576.748	4.515	-0.439	0.322
-575.733	25.797	-0.171	0.142
-574.719	-95.459	0.190	0.051
-573.704	800.000	-0.044	0.126
-572.690	-200.000	-0.001	-0.130
-571.675	-151.041	0.271	0.020
-570.661	800.000	-0.050	-0.217
-569.646	-200.000	-0.023	0.187
-568.631	-200.000	0.013	0.276
-567.617	-65.548	-0.210	0.084
-566.602	-200.000	-0.296	-0.001
-565.588	211.451	-0.060	-0.095
-564.573	-2.464	0.079	-0.055
-563.558	-164.281	-0.421	0.019
-562.544	306.723	0.134	0.249
-561.529	75.596	-0.232	0.245
-560.515	371.539	-0.144	-0.291
-559.500	800.000	-0.035	0.096
-558.485	157.373	0.157	0.217
-557.471	800.000	-0.082	-0.309
-556.456	-69.701	-0.072	-0.028
-555.442	-102.634	0.090	0.021
-554.427	-139.720	-0.214	0.023
-553.412	174.091	-0.139	-0.201
-552.398	-200.000	0.044	0.302
-551.383	-170.755	0.332	-0.011
-550.369	91.611	0.081	0.091
-549.354	78.556	-0.141	-0.150
-548.339	176.107	0.108	0.157
-547.325	185.555	0.146	-0.215
-546.310	-90.713	-0.217	-0.062
-545.296	-200.000	0.019	-0.098
-544.281	81.811	0.048	-0.052
-543.266	6.250	0.193	-0.142
-542.252	-106.567	-0.318	-0.071
-541.237	-15.773	-0.170	-0.108
-540.223	210.699	-0.206	-0.323
-539.208	166.461	-0.071	-0.100
-538.193	-146.328	0.130	-0.011
-537.179	142.050	0.125	0.165
-536.164	-43.721	0.512	0.257
-535.150	282.354	-0.022	0.039
-534.135	-10.420	-0.247	0.163
-533.121	43.068	-0.122	-0.110
-532.106	-200.000	-0.028	-0.480
-531.091	101.105	0.115	0.134
-530.077	692.079	-0.148	0.386
-529.062	-112.437	0.034	0.007
-528.048	133.120	0.029	-0.037
-527.033	205.524	-0.098	-0.151
-526.018	-200.000	-0.003	-0.028
-525.004	-195.181	-0.021	0.000
-523.989	-200.000	0.007	-0.039
-522.975	800.000	-0.043	-0.185
-521.960	-87.216	0.139	-0.042
-520.945	-122.776	0.292	-0.047
-519.931	103.230	-0.239	-0.279
-518.916	35.816	0.265	0.232
-517.902	473.437	-0.122	0.273
-516.887	308.767	0.047	-0.088
-515.872	-5.708	0.177	-0.121
-514.858	17.813	-0.183	-0.145
-513.843	479.159	-0.079	0.178
-512.829	-146.374	0.254	0.022
-511.814	48.806	0.118	0.110
-510.799	-56.602	-0.020	-0.009
-509.785	421.345	-0.108	0.230
-508.770	-111.094	0.222	-0.045
-507.756	13.817	-0.402	0.311
-506.741	-78.286	-0.234	0.080
-505.726	-61.122	0.131	-0.055
-504.712	-200.000	-0.023	0.307
-503.697	-53.177	-0.177	-0.081
-502.683	257.215	0.159	0.272
-501.668	-200.000	0.039	0.215
-500.653	800.000	-0.068	-0.251
-499.639	192.584	0.214	0.321
-498.624	-139.425	0.168	0.018
-497.610	-20.482	-0.363	0.222
-496.595	2.943	-0.207	0.150
-495.581	-38.066	-0.275	-0.145
-494.566	16.844	0.168	0.132
-493.551	-200.000	-0.007	-0.269
-492.537	-200.000	0.003	-0.147
-491.522	204.228	-0.043	-0.066
-490.508	-200.000	0.017	0.150
-489.493	-156.049	0.107	-0.007
-488.478	227.548	0.260	-0.421
-487.464	-74.216	0.332	-0.120
-486.449	289.132	0.125	-0.226
-485.435	-58.522	0.216	0.093
-484.420	800.000	0.024	-0.074
-483.405	553.658	0.018	0.043
-482.391	-47.989	-0.107	0.051
-481.376	-200.000	0.002	-0.185
-480.362	337.627	0.108	0.209
-479.347	92.365	-0.065	-0.073
-478.332	396.548	0.129	-0.268
-477.318	-191.593	-0.086	0.001
-476.303	800.000	0.142	0.498
-475.289	-33.162	0.309	0.170
-474.274	-54.014	-0.057	-0.026
-473.259	151.555	-0.146	-0.198
-472.245	-44.016	0.179	-0.089
-471.230	-5.269	0.173	0.118
-470.216	-118.230	0.432	0.077
-469.201	21.205	0.191	0.154
-468.186	800.000	-0.089	-0.252
-467.172	-200.000	0.001	-0.344
-466.157	85.910	-0.021	-0.023
-465.143	99.223	0.139	0.160
-464.128	-0.336	0.167	-0.118
-463.113	-76.836	-0.313	-0.109
-462.099	-200.000	-0.076	-0.351
-461.084	33.066	-0.166	0.143
-460.070	-47.384	-0.234	-0.113
-459.055	-118.145	-0.319	-0.057
-458.040	-200.000	0.008	-0.135
-457.026	199.994	0.069	0.105
-456.011	101.378	-0.134	-0.155
-454.997	629.047	-0.026	-0.066
-453.982	338.778	0.089	0.172
-452.968	-0.921	0.221	-0.155
-451.953	-19.698	0.185	-0.113
-450.938	565.140	-0.051	0.123
-449.924	-27.031	-0.170	-0.099
-448.909	-106.102	-0.074	-0.016
-447.895	800.000	0.081	-0.308
-446.880	-200.000	0.002	-0.438
-445.865	-129.188	0.136	-0.019
-444.851	-200.000	0.050	-0.238
-443.836	15.262	0.248	-0.193
-442.822	121.249	0.119	-0.147
-441.807	800.000	-0.108	0.318
-440.792	-200.000	0.015	0.364
-439.778	-137.957	0.086	-0.009
-438.763	53.925	0.157	0.149
-437.749	-137.121	-0.090	0.010
-436.734	67.842	0.274	0.278
-435.719	334.891	0.059	0.113
-434.705	-96.013	0.191	0.051
-433.690	536.146	-0.105	-0.246
-432.676	415.154	-0.178	-0.376
-431.661	800.000	-0.113	0.397
-430.646	-44.252	0.173	0.086
-429.632	-200.000	0.055	-0.307
-428.617	-14.218	-0.299	-0.191
-427.603	0.355	-0.276	0.195
-426.588	-200.000	-0.006	-0.487
-425.573	185.797	0.234	0.345
-424.559	800.000	0.016	0.062
-423.544	194.217	0.048	0.072
-422.530	-38.005	-0.324	-0.170
-421.515	-139.842	-0.178	0.019
-420.500	-2.765	-0.077	-0.053
-419.486	-200.000	0.008	0.081
-418.471	475.991	-0.086	0.193
-417.457	25.338	0.117	-0.096
-416.442	-200.000	-0.011	-0.125
-415.428	28.666	-0.342	0.287
-414.413	-57.921	0.302	-0.131
-413.398	-200.000	-0.023	0.165
-412.384	-123.680	0.467	-0.073
-411.369	140.258	0.181	-0.237
-410.355	-200.000	0.027	0.269
-409.340	-50.760	-0.167	0.078
-408.325	35.251	-0.272	-0.237
-407.311	-92.190	0.178	-0.050
-406.296	-118.255	-0.386	0.068
-405.282	-185.735	0.160	0.002
-404.267	-69.838	0.126	-0.047
-403.252	-84.311	0.092	-0.029
-402.238	-114.628	-0.386	0.073
-401.223	-96.393	0.097	0.026
-400.209	-50.607	-0.207	0.097
-399.194	56.229	0.156	-0.150
-398.179	-200.000	0.002	-0.244
-397.165	-142.149	0.342	-0.034
-396.150	-33.326	0.239	0.131
-395.136	-88.025	0.317	0.094
-394.121	-186.525	0.181	-0.003
-393.106	-110.270	-0.134	0.028
-392.092	559.653	0.042	0.100
-391.077	65.150	-0.148	-0.148
-390.063	30.131	-0.110	0.093
-389.048	82.949	-0.114	0.123
-388.033	-147.550	-0.363	-0.030
-387.019	800.000	-0.097	0.301
-386.004	-95.401	-0.300	0.080
-384.990	-9.392	-0.076	0.050
-383.975	-110.804	-0.132	-0.027
-382.960	-200.000	-0.027	-0.297
-381.946	800.000	-0.044	-0.124
-380.931	-128.717	-0.206	0.029
-379.917	682.680	-0.090	-0.231
-378.902	-117.904	0.151	-0.027
-377.888	98.208	0.326	0.371
-376.873	32.097	-0.267	0.228
-375.858	23.825	-0.188	0.153
-374.844	54.134	-0.105	0.100
-373.829	45.491	-0.044	0.041
-372.815	249.842	-0.129	0.217
-371.800	-200.000	-0.026	-0.292
-370.785	-80.703	0.085	0.028
-369.771	-22.381	-0.048	0.029
-368.756	1.389	-0.133	0.095
-367.742	-42.675	-0.059	-0.030
-366.727	3.889	-0.117	-0.084
-365.712	-24.210	0.189	-0.111
-364.698	29.805	0.138	0.116
-363.683	-29.342	-0.265	0.150
-362.669	800.000	-0.053	0.174
-361.654	800.000	0.042	-0.134
-360.639	281.915	-0.072	0.128
-359.625	-186.498	-0.145	0.002
-358.610	-200.000	0.012	0.177
-357.596	-200.000	-0.040	0.249
-356.581	-35.350	-0.192	-0.103
-355.566	-70.366	0.179	0.067
-354.552	-64.912	0.209	-0.084
-353.537	800.000	-0.097	0.272
-352.523	573.247	-0.073	-0.177
-351.508	107.730	-0.056	-0.066
-350.493	-42.522	-0.192	0.097
-349.479	-200.000	-0.013	-0.175
-348.464	-20.262	-0.197	0.120
-347.450	-6.274	0.181	-0.122
-346.435	38.428	0.146	-0.128
-345.420	-200.000	0.056	-0.378
-344.406	-29.428	-0.067	0.038
-343.391	357.344	-0.162	0.320
-342.377	-23.735	-0.098	0.058
-341.362	45.973	-0.084	-0.077
-340.348	-65.175	-0.367	-0.146
-339.333	-56.670	-0.270	0.118
-338.318	-21.152	-0.343	-0.207
-337.304	-200.000	0.017	-0.204
-336.289	-200.000	-0.006	0.054
-335.275	323.575	-0.106	0.199
-334.260	-200.000	0.000	-0.277
-333.245	800.000	0.083	0.262
-332.231	-24.380	0.159	0.094
-331.216	-200.000	-0.014	-0.102
-330.202	-134.971	0.102	0.012
-329.187	-14.239	-0.133	0.085
-328.172	-85.770	-0.118	-0.036
-327.158	800.000	-0.072	-0.262
-326.143	-200.000	-0.016	-0.085
-325.129	516.814	0.123	-0.285
-324.114	33.601	-0.096	-0.083
-323.099	1.693	0.165	-0.118
-322.085	485.327	0.050	-0.112
-321.070	301.762	0.137	0.250
-320.056	800.000	0.009	0.034
-319.041	267.751	0.144	0.249
-318.026	-70.668	0.155	-0.058
-317.012	-200.000	0.006	0.086
-315.997	197.320	0.088	-0.133
-314.983	-200.000	0.037	-0.235
-313.968	-164.463	-0.408	-0.018
-312.953	-10.476	0.304	0.199
-311.939	-17.867	-0.317	-0.196
-310.924	-200.000	-0.017	-0.437
-309.910	-116.038	0.098	0.018
-308.895	-93.493	0.233	-0.064
-307.880	800.000	-0.052	-0.192
-306.866	74.906	0.241	-0.250
-305.851	77.169	0.248	0.260
-304.837	-105.311	-0.114	-0.026
-303.822	-119.136	0.124	-0.021
-302.807	-86.779	0.136	-0.041
-301.793	158.264	-0.275	0.376
-300.778	-200.000	-0.016	0.204
-299.764	6.098	-0.189	0.139
-298.749	-107.104	0.278	0.061
-297.735	-147.729	0.106	-0.009
-296.720	-200.000	-0.068	0.305
-295.705	800.000	0.099	-0.340
-294.691	-97.213	0.118	-0.030
-293.676	-69.877	-0.194	-0.073
-292.662	517.934	-0.219	0.507
-291.647	-200.000	0.048	0.248
-290.632	112.160	-0.224	0.267
-289.618	-37.924	0.251	0.132
-288.603	-29.002	0.172	0.097
-287.589	-97.580	0.064	-0.016
-286.574	508.563	-0.058	0.134
-285.559	19.355	-0.165	0.131
-284.545	241.261	0.091	0.149
-283.530	30.884	0.114	0.097
-282.516	265.820	0.112	0.193
-281.501	-20.522	0.257	0.156
-280.486	-81.121	-0.395	0.129
-279.472	-147.917	-0.098	0.008
-278.457	14.458	0.229	-0.177
-277.443	0.298	0.255	-0.179
-276.428	423.309	0.098	0.208
-275.413	-200.000	0.018	-0.156
-274.399	-200.000	0.026	-0.203
-273.384	247.079	0.122	-0.203
-272.370	-73.013	0.148	0.054
-271.355	6.239	-0.311	-0.227
-270.340	-200.000	0.016	-0.086
-269.326	-200.000	-0.024	0.108
-268.311	800.000	0.057	0.244
-267.297	-55.978	0.298	-0.131
-266.282	155.429	-0.182	-0.247
-265.267	-27.143	-0.149	-0.086
-264.253	-86.436	-0.162	0.049
-263.238	210.304	0.106	-0.164
-262.224	151.663	-0.155	-0.208
-261.209	-23.817	0.483	-0.285
-260.195	81.839	0.044	-0.046
-259.180	607.314	-0.092	-0.227
-258.165	30.868	0.245	0.207
-257.151	800.000	-0.057	0.229
-256.136	540.277	0.063	-0.148
-255.122	105.390	-0.065	-0.076
-254.107	226.923	0.057	-0.091
-253.092	-156.156	-0.213	0.013
-252.078	56.519	-0.101	-0.097
-251.063	-200.000	-0.044	-0.283
-250.049	-44.725	-0.063	0.031
-249.034	-115.788	0.270	0.050
-248.019	-200.000	-0.007	0.257
-247.005	-67.847	-0.309	-0.119
-245.990	59.683	-0.168	0.163
-244.976	800.000	-0.059	0.192
-243.961	22.858	-0.235	-0.190
-242.946	-200.000	0.008	-0.043
-241.932	-171.724	-0.088	-0.003
-240.917	56.136	0.052	0.050
-239.903	476.352	-0.062	0.138
-238.888	-58.859	-0.147	-0.063
-237.873	-200.000	0.022	0.244
-236.859	44.080	0.182	-0.165
-235.844	-31.096	-0.213	-0.118
-234.830	-126.166	-0.315	0.046
-233.815	-61.693	0.160	-0.066
-232.800	-200.000	-0.057	0.250
-231.786	-200.000	0.023	0.101
-230.771	-43.738	0.041	0.020
-229.757	-9.522	0.364	-0.239
-228.742	452.784	-0.073	-0.159
-227.727	160.138	-0.071	0.098
-226.713	800.000	-0.100	-0.305
-225.698	512.296	-0.053	-0.121
-224.684	-26.613	0.241	0.139
-223.669	-200.000	0.009	-0.085
-222.655	-200.000	-0.013	-0.161
-221.640	-121.688	-0.217	-0.035
-220.625	48.293	-0.206	-0.190
-219.611	800.000	-0.008	-0.031
-218.596	94.867	0.171	0.191
-217.582	-50.025	0.190	0.089
-216.567	800.000	0.075	0.249
-215.552	-129.210	-0.041	-0.006
-214.538	3.806	0.163	-0.117
-213.523	-10.702	0.328	-0.213
-212.509	-45.560	0.141	-0.069
-211.494	-138.888	0.171	-0.018
-210.479	163.330	0.178	0.247
-209.465	-200.000	-0.034	-0.209
-208.450	427.773	0.150	0.318
-207.436	105.441	-0.250	-0.290
-206.421	207.102	-0.037	-0.057
-205.406	-145.538	0.070	0.006
-204.392	-117.315	0.592	-0.106
-203.377	193.824	-0.169	0.252
-202.363	-200.000	0.029	0.291
-201.348	28.707	0.154	0.128
-200.333	-200.000	-0.005	-0.067
-199.319	-55.824	-0.042	-0.018
-198.304	-7.366	-0.187	-0.124
-197.290	-129.223	0.451	0.062
-196.275	800.000	-0.050	-0.192
-195.260	-92.401	-0.139	-0.039
-194.246	-91.321	0.359	0.101
-193.231	248.069	0.130	0.216
-192.217	573.924	-0.041	-0.098
-191.202	1.421	0.206	-0.146
-190.187	-71.637	0.272	-0.100
-189.173	-30.198	0.282	-0.158
-188.158	-78.406	-0.269	0.091
-187.144	-200.000	0.023	0.111
-186.129	382.561	-0.005	-0.009
-185.114	157.510	-0.241	0.328
-184.100	-200.000	-0.026	0.318
-183.085	16.674	0.128	0.100
-182.071	-73.460	0.197	-0.071
-181.056	-200.000	-0.072	0.392
-180.042	-32.177	0.250	-0.137
-179.027	-133.986	0.223	0.027
-178.012	-180.277	0.231	0.005
-176.998	800.000	-0.085	-0.363
-175.983	800.000	-0.030	0.101
-174.969	-88.754	0.218	0.064
-173.954	800.000	-0.012	-0.050
-172.939	-28.840	0.239	-0.135
-171.925	-76.091	-0.309	-0.107
-170.910	-200.000	0.014	-0.278
-169.896	202.292	-0.138	-0.210
-168.881	800.000	0.029	-0.092
-167.866	-43.474	-0.144	-0.072
-166.852	-44.204	-0.111	-0.055
-165.837	-85.871	0.251	0.076
-164.823	-200.000	-0.006	-0.155
-163.808	385.010	-0.083	-0.168
-162.793	27.152	0.136	0.112
-161.779	-110.580	-0.260	0.053
-160.764	160.588	0.098	0.135
-159.750	-81.816	0.314	-0.101
-158.735	-200.000	0.005	-0.222
-157.720	800.000	-0.069	-0.198
-156.706	-169.302	-0.099	-0.004
-155.691	260.837	0.097	-0.165
-154.677	366.325	0.099	-0.197
-153.662	-200.000	-0.014	-0.202
-152.647	-80.443	0.128	0.042
-151.633	145.946	0.035	0.046
-150.618	-127.891	0.038	-0.005
-149.604	-200.000	0.002	-0.062
-148.589	217.928	0.079	-0.124
-147.574	136.961	-0.137	0.175
-146.560	-97.607	-0.176	0.045
-145.545	-200.000	0.008	0.159
-144.531	-146.581	-0.160	0.014
-143.516	800.000	0.049	-0.152
-142.502	-200.000	-0.063	0.305
-141.487	-17.343	0.122	-0.076
-140.472	9.041	-0.293	0.217
-139.458	-21.281	-0.104	-0.062
-138.443	-142.630	0.157	0.015
-137.429	-71.928	-0.188	0.069
-136.414	-110.092	-0.575	-0.118
-135.399	40.290	-0.099	0.088
-134.385	-7.333	0.173	0.115
-133.370	26.053	-0.196	-0.160
-132.356	0.516	-0.128	-0.089
-131.341	800.000	0.054	0.159
-130.326	-54.083	0.364	0.162
-129.312	-200.000	0.030	0.160
-128.297	265.211	0.239	0.408
-127.283	53.836	0.139	0.131
-126.268	-200.000	-0.050	0.296
-125.253	-60.743	-0.118	-0.049
-124.239	-77.310	0.289	-0.098
-123.224	202.818	-0.123	-0.186
-122.210	10.802	0.184	-0.138
-121.195	-200.000	-0.005	-0.022
