DTS Sentinel unit serial number:	SN413079Multiplexer serial number:	ORYXHardware model number:	OX4-SRSoftware version number:	ORYX F/W v4.00 Oryx Data Collector v3.7.2.0data status	okinstallation	princeton_trtdifferential loss correction	single-endedforward channel	channel 2reverse channel	N/Adate	2019/09/17time	09:03:34forward acquisition time	60.00reverse acquisition time	0.00gamma	496.2192k internal	0.2330k external	0.2330temperature offset calibration	0.9973default loss term (dB/km)	0.3790temperature slope calibration	1.0000multiplexer offset coefficient	1.0000multiplexer slope coefficient	1.0000fibre end	0.00T internal ref (°C)	28.12T ext. ref 1 (°C)	0.14T ext. ref 2 (°C)	24.67length (m)	temperature (°C)	Stokes	anti-Stokes-747.200	800.000	-0.059	-0.210
-746.185	-8.388	0.117	-0.079
-745.171	-81.858	-0.191	-0.063
-744.156	208.825	-0.096	0.152
-743.142	-200.000	0.057	-0.266
-742.127	115.142	0.068	0.083
-741.112	701.389	0.055	-0.147
-740.098	241.293	-0.197	0.332
-739.083	-200.000	-0.010	0.054
-738.069	687.899	-0.056	0.146
-737.054	256.971	0.189	0.328
-736.039	-71.884	-0.247	-0.093
-735.025	-200.000	-0.029	0.152
-734.010	-59.510	0.294	0.127
-732.996	-150.048	-0.457	-0.036
-731.981	197.820	-0.135	0.208
-730.966	65.636	0.052	0.053
-729.952	-83.084	-0.270	0.087
-728.937	-86.470	-0.439	-0.136
-727.923	135.369	-0.084	-0.110
-726.908	-136.220	0.402	0.047
-725.894	800.000	0.048	-0.147
-724.879	214.247	-0.032	-0.051
-723.864	61.145	0.249	0.249
-722.850	-76.875	-0.259	-0.091
-721.835	800.000	-0.109	0.349
-720.821	-87.119	-0.239	0.073
-719.806	-146.246	-0.422	-0.037
-718.791	-132.747	-0.397	0.051
-717.777	-113.364	0.295	0.058
-716.762	456.817	-0.150	-0.335
-715.748	-200.000	0.043	-0.278
-714.733	-127.617	0.091	-0.013
-713.718	-173.911	0.030	0.001
-712.704	186.238	-0.243	-0.363
-711.689	54.129	-0.296	0.286
-710.675	40.576	-0.211	0.191
-709.660	46.200	0.348	0.324
-708.645	-151.402	-0.154	0.012
-707.631	-200.000	-0.001	-0.196
-706.616	-55.107	0.135	-0.061
-705.602	344.766	0.112	0.222
-704.587	-6.296	0.448	-0.307
-703.572	-0.202	0.046	0.033
-702.558	-110.266	-0.221	0.046
-701.543	319.497	-0.112	-0.213
-700.529	-200.000	0.037	-0.215
-699.514	308.317	0.127	-0.238
-698.499	-38.795	-0.265	0.140
-697.485	517.111	-0.080	0.188
-696.470	153.706	0.201	0.277
-695.456	-167.687	0.301	-0.012
-694.441	88.643	-0.120	-0.133
-693.426	-95.634	0.075	0.020
-692.412	-121.584	0.193	0.032
-691.397	170.004	0.192	-0.276
-690.383	800.000	0.050	-0.218
-689.368	800.000	0.040	-0.140
-688.354	47.043	0.027	-0.025
-687.339	-114.708	-0.140	-0.027
-686.324	-110.369	-0.212	-0.044
-685.310	-200.000	-0.012	-0.156
-684.295	-200.000	0.046	-0.268
-683.281	653.469	0.043	0.112
-682.266	428.738	-0.115	-0.249
-681.251	233.995	0.132	-0.218
-680.237	55.257	-0.255	-0.248
-679.222	-30.376	-0.319	-0.182
-678.208	98.027	-0.187	0.216
-677.193	564.979	0.040	-0.097
-676.178	800.000	-0.014	0.060
-675.164	106.757	-0.244	-0.290
-674.149	-1.483	0.112	-0.080
-673.135	158.448	0.052	0.073
-672.120	-122.623	0.322	-0.052
-671.105	-135.473	0.177	-0.021
-670.091	233.509	-0.086	-0.142
-669.076	403.980	0.058	0.123
-668.062	101.518	0.072	-0.084
-667.047	34.249	0.245	-0.214
-666.032	-42.397	-0.329	-0.168
-665.018	-122.155	0.239	0.039
-664.003	-28.691	0.169	-0.098
-662.989	-133.333	-0.384	-0.048
-661.974	411.749	0.058	-0.123
-660.959	191.855	-0.136	-0.206
-659.945	-162.201	-0.257	0.013
-658.930	12.832	-0.085	0.066
-657.916	47.532	0.157	0.147
-656.901	-110.188	0.094	0.020
-655.886	-43.306	0.114	0.058
-654.872	58.322	-0.158	0.156
-653.857	-118.947	0.127	0.022
-652.843	203.460	0.120	-0.186
-651.828	-31.226	-0.137	0.078
-650.814	800.000	-0.086	-0.255
-649.799	-7.168	0.286	-0.194
-648.784	-88.236	-0.331	-0.099
-647.770	-63.027	0.026	-0.011
-646.755	-173.642	-0.405	0.012
-645.741	800.000	-0.097	-0.355
-644.726	-1.360	0.101	-0.072
-643.711	-195.006	0.306	0.002
-642.697	-33.771	0.196	-0.108
-641.682	37.341	-0.168	0.149
-640.668	269.240	0.195	-0.344
-639.653	-200.000	-0.011	-0.211
-638.638	800.000	0.042	-0.132
-637.624	-200.000	-0.021	0.233
-636.609	-52.215	0.333	-0.155
-635.595	-200.000	-0.015	0.083
-634.580	-93.044	-0.106	-0.030
-633.565	-200.000	-0.053	0.000
-632.551	-200.000	0.013	-0.233
-631.536	-200.000	0.006	-0.112
-630.522	32.206	0.337	0.292
-629.507	187.765	0.099	0.148
-628.492	-76.722	0.298	-0.105
-627.478	-12.357	-0.162	-0.106
-626.463	-18.544	-0.180	0.113
-625.449	-63.878	-0.296	0.121
-624.434	30.354	-0.239	-0.205
-623.419	-100.569	0.336	-0.083
-622.405	-33.165	0.133	0.074
-621.390	646.093	0.035	-0.089
-620.376	-113.405	-0.198	0.039
-619.361	113.703	0.066	0.080
-618.346	173.145	0.172	-0.249
-617.332	346.121	-0.068	0.134
-616.317	347.658	-0.076	0.151
-615.303	562.282	-0.107	-0.260
-614.288	-122.140	0.193	0.032
-613.273	-57.548	-0.271	-0.119
-612.259	-150.250	-0.406	-0.031
-611.244	44.538	-0.055	-0.051
-610.230	-51.057	0.132	0.062
-609.215	223.425	0.199	-0.322
-608.201	-51.821	-0.185	0.086
-607.186	-200.000	0.001	0.015
-606.171	-69.810	0.104	0.040
-605.157	-181.025	-0.363	-0.007
-604.142	-72.204	0.197	-0.073
-603.128	-177.276	0.402	-0.010
-602.113	15.366	-0.412	0.324
-601.098	-1.906	0.230	0.162
-600.084	800.000	-0.020	-0.076
-599.069	490.834	0.087	0.199
-598.055	-200.000	-0.021	0.183
-597.040	124.387	0.100	-0.126
-596.025	-81.847	0.237	-0.078
-595.011	370.990	0.094	-0.190
-593.996	-160.444	-0.022	0.001
-592.982	-122.356	-0.042	0.007
-591.967	-200.000	0.018	0.128
-590.952	800.000	0.022	0.077
-589.938	-2.483	0.255	-0.179
-588.923	-200.000	0.001	-0.133
-587.909	-200.000	-0.010	0.077
-586.894	-200.000	-0.068	-0.511
-585.879	-56.954	-0.206	0.091
-584.865	-200.000	-0.050	0.289
-583.850	573.368	0.133	-0.323
-582.836	-149.947	0.251	-0.020
-581.821	-125.087	-0.282	-0.043
-580.806	-112.754	0.318	0.063
-579.792	55.274	0.108	-0.104
-578.777	-92.196	-0.093	0.026
-577.763	800.000	-0.065	-0.261
-576.748	-133.316	-0.069	0.009
-575.733	505.115	-0.090	0.209
-574.719	23.734	0.053	0.044
-573.704	15.510	0.156	0.122
-572.690	-173.526	-0.168	-0.005
-571.675	8.447	0.383	-0.288
-570.661	-182.317	0.480	-0.009
-569.646	-141.922	-0.255	-0.026
-568.631	37.520	0.220	-0.195
-567.617	243.037	-0.148	0.248
-566.602	-84.392	-0.073	0.023
-565.588	50.786	0.164	-0.155
-564.573	-200.000	-0.043	-0.206
-563.558	153.070	-0.141	0.192
-562.544	-108.426	0.432	0.093
-561.529	-75.740	0.335	-0.119
-560.515	93.132	0.083	0.094
-559.500	-53.488	-0.252	-0.115
-558.485	800.000	-0.037	0.159
-557.471	122.715	0.220	0.275
-556.456	-129.074	0.253	0.035
-555.442	-178.517	-0.148	0.003
-554.427	-200.000	-0.040	0.305
-553.412	352.723	-0.101	-0.200
-552.398	-66.411	-0.291	0.116
-551.383	-151.498	0.252	0.019
-550.369	-125.269	-0.090	0.014
-549.354	-36.234	-0.412	0.222
-548.339	655.536	0.050	0.128
-547.325	-200.000	-0.015	0.138
-546.310	-46.643	-0.089	-0.043
-545.296	800.000	0.050	-0.163
-544.281	-38.977	0.101	-0.053
-543.266	-81.007	-0.260	-0.086
-542.252	161.148	-0.158	0.220
-541.237	800.000	-0.037	-0.126
-540.223	-37.577	-0.220	-0.117
-539.208	-83.182	-0.252	-0.081
-538.193	-44.149	0.160	0.080
-537.179	44.361	-0.086	-0.079
-536.164	191.416	-0.105	0.158
-535.150	46.941	-0.309	-0.287
-534.135	-86.643	0.041	0.012
-533.121	800.000	-0.054	0.186
-532.106	-111.885	-0.159	-0.032
-531.091	-130.422	-0.328	0.044
-530.077	-33.346	-0.076	0.042
-529.062	56.918	-0.263	0.256
-528.048	-200.000	-0.024	-0.162
-527.033	82.211	-0.032	-0.034
-526.018	592.177	0.060	-0.148
-525.004	-50.464	0.256	-0.120
-523.989	498.000	0.061	-0.140
-522.975	-181.020	-0.052	0.001
-521.960	800.000	0.074	0.286
-520.945	77.704	0.257	0.273
-519.931	-97.361	0.016	0.004
-518.916	-124.388	-0.334	-0.052
-517.902	338.402	-0.085	0.164
-516.887	-164.850	0.186	0.008
-515.872	-200.000	0.060	-0.337
-514.858	-2.480	-0.418	-0.292
-513.843	800.000	0.161	-0.472
-512.829	-200.000	-0.010	-0.330
-511.814	-119.366	0.017	-0.003
-510.799	25.759	0.298	-0.248
-509.785	-47.300	0.215	0.105
-508.770	-200.000	-0.055	-0.294
-507.756	83.353	0.193	0.210
-506.741	-35.111	0.069	0.037
-505.726	-200.000	-0.038	0.391
-504.712	-31.460	-0.245	-0.137
-503.697	13.747	0.170	0.132
-502.683	800.000	-0.074	-0.239
-501.668	75.969	-0.247	-0.261
-500.653	126.239	-0.289	-0.364
-499.639	-3.015	-0.193	-0.134
-498.624	800.000	0.081	-0.246
-497.610	-200.000	-0.015	0.130
-496.595	-100.372	0.739	0.183
-495.581	-56.438	-0.127	-0.056
-494.566	254.180	-0.167	0.285
-493.551	203.212	0.145	-0.223
-492.537	800.000	-0.010	0.040
-491.522	95.994	0.124	0.141
-490.508	243.416	0.238	0.398
-489.493	-103.857	-0.097	0.023
-488.478	-200.000	-0.004	0.304
-487.464	42.373	-0.292	0.265
-486.449	-111.410	-0.186	-0.038
-485.435	275.725	-0.141	0.250
-484.420	-22.995	-0.133	0.080
-483.405	-200.000	0.032	-0.317
-482.391	346.488	0.061	0.120
-481.376	800.000	0.083	0.329
-480.362	-200.000	0.017	0.085
-479.347	-26.904	-0.419	-0.244
-478.332	800.000	0.006	-0.025
-477.318	149.934	-0.255	0.344
-476.303	121.558	-0.172	0.214
-475.289	-86.505	0.121	-0.037
-474.274	194.781	0.185	-0.280
-473.259	-11.186	-0.158	0.104
-472.245	242.484	-0.207	-0.345
-471.230	265.651	0.194	0.336
-470.216	251.307	0.072	0.123
-469.201	-95.168	0.210	-0.057
-468.186	-200.000	-0.094	0.510
-467.172	334.982	-0.105	0.203
-466.157	552.793	-0.132	-0.316
-465.143	79.969	-0.158	0.169
-464.128	-165.563	-0.489	-0.021
-463.113	44.284	-0.282	-0.258
-462.099	800.000	0.114	0.387
-461.084	48.399	-0.183	-0.171
-460.070	199.964	0.122	-0.187
-459.055	-112.626	-0.382	0.076
-458.040	800.000	-0.097	0.298
-457.026	-200.000	0.026	0.118
-456.011	800.000	0.052	0.202
-454.997	179.156	0.124	-0.180
-453.982	-200.000	0.019	0.105
-452.968	-200.000	0.009	-0.144
-451.953	-57.978	-0.309	0.134
-450.938	-114.152	-0.113	-0.022
-449.924	293.142	0.076	0.138
-448.909	-81.630	-0.344	0.112
-447.895	-173.719	-0.305	0.009
-446.880	33.933	0.110	-0.095
-445.865	800.000	-0.121	0.436
-444.851	-17.017	0.029	0.018
-443.836	156.675	-0.031	0.043
-442.822	114.519	0.027	-0.032
-441.807	-200.000	0.013	0.099
-440.792	800.000	-0.072	-0.198
-439.778	-90.047	-0.051	-0.015
-438.763	337.490	0.072	-0.140
-437.749	-144.840	0.405	0.037
-436.734	-200.000	0.012	0.076
-435.719	-156.240	0.391	0.024
-434.705	-128.019	-0.231	-0.033
-433.690	290.389	-0.112	-0.203
-432.676	800.000	-0.075	0.236
-431.661	800.000	-0.102	-0.300
-430.646	800.000	-0.026	-0.075
-429.632	0.141	0.212	-0.150
-428.617	-185.791	-0.151	-0.002
-427.603	-200.000	-0.038	0.247
-426.588	800.000	-0.157	-0.449
-425.573	-25.683	0.084	-0.049
-424.559	-22.838	-0.123	-0.074
-423.544	298.170	-0.173	0.316
-422.530	-112.287	-0.124	-0.025
-421.515	800.000	-0.100	-0.303
-420.500	-125.402	0.286	-0.043
-419.486	417.800	-0.113	-0.240
-418.471	-200.000	0.007	-0.243
-417.457	762.518	-0.038	0.103
-416.442	142.820	0.073	-0.096
-415.428	63.495	0.092	0.092
-414.413	-200.000	-0.031	-0.209
-413.398	-36.924	0.233	-0.124
-412.384	-7.210	-0.157	0.106
-411.369	-200.000	-0.065	-0.448
-410.355	-200.000	0.021	0.259
-409.340	-70.889	0.075	-0.028
-408.325	75.070	0.186	-0.195
-407.311	800.000	0.053	0.191
-406.296	-52.767	-0.282	0.129
-405.282	-200.000	-0.002	-0.122
-404.267	-131.015	-0.068	0.009
-403.252	87.696	-0.260	0.286
-402.238	-200.000	-0.053	-0.236
-401.223	30.737	-0.282	-0.239
-400.209	-200.000	-0.033	-0.387
-399.194	14.227	-0.237	0.184
-398.179	800.000	-0.107	0.433
-397.165	-32.463	0.111	0.061
-396.150	-107.712	-0.375	0.081
-395.136	-102.235	-0.206	0.049
-394.121	-156.595	0.164	-0.010
-393.106	-50.381	0.164	0.077
-392.092	-76.259	0.313	0.110
-391.077	12.660	0.170	0.130
-390.063	-200.000	-0.004	0.074
-389.048	-21.446	0.214	0.130
-388.033	800.000	0.084	-0.329
-387.019	-200.000	-0.065	-0.421
-386.004	9.511	0.067	-0.051
-384.990	2.267	-0.040	0.029
-383.975	470.760	-0.115	-0.257
-382.960	-159.386	0.104	-0.006
-381.946	420.943	-0.029	0.062
-380.931	22.045	0.344	-0.279
-379.917	-40.165	0.081	0.042
-378.902	3.026	0.116	0.083
-377.888	-76.040	0.106	0.037
-376.873	425.407	-0.061	-0.130
-375.858	-200.000	0.003	0.059
-374.844	-111.271	-0.370	-0.075
-373.829	188.698	0.117	-0.174
-372.815	800.000	-0.071	0.230
-371.800	567.839	0.106	-0.254
-370.785	89.761	0.084	0.094
-369.771	60.669	-0.194	0.191
-368.756	800.000	0.049	-0.157
-367.742	-82.732	-0.133	-0.043
-366.727	-27.035	0.098	-0.057
-365.712	-88.737	-0.246	-0.072
-364.698	-200.000	-0.050	0.242
-363.683	-79.085	0.303	0.102
-362.669	-4.850	0.095	-0.065
-361.654	11.434	0.156	0.118
-360.639	-137.607	-0.125	-0.014
-359.625	-200.000	-0.042	-0.207
-358.610	-117.840	-0.525	0.093
-357.596	-32.965	-0.207	0.114
-356.581	-123.804	0.309	-0.048
-355.566	-130.513	0.388	-0.052
-354.552	-85.681	0.141	0.043
-353.537	4.577	-0.326	-0.237
-352.523	269.341	-0.101	0.176
-351.508	-20.743	-0.198	-0.121
-350.493	-103.474	0.249	-0.058
-349.479	273.074	-0.054	-0.094
-348.464	800.000	-0.066	0.182
-347.450	-20.711	0.062	-0.038
-346.435	64.961	-0.104	-0.104
-345.420	-200.000	0.042	-0.227
-344.406	-166.071	0.411	0.017
-343.391	-200.000	0.036	-0.163
-342.377	468.197	-0.103	0.229
-341.362	-25.631	0.259	0.152
-340.348	-138.836	-0.294	-0.032
-339.333	-96.231	0.323	-0.085
-338.318	-37.077	-0.244	-0.129
-337.304	-112.146	-0.157	0.031
-336.289	119.957	-0.246	-0.302
-335.275	-200.000	0.052	-0.435
-334.260	-65.436	0.139	-0.055
-333.245	-200.000	0.000	0.259
-332.231	-19.202	0.212	0.131
-331.216	800.000	0.049	-0.187
-330.202	-200.000	0.034	0.175
-329.187	-85.642	0.274	-0.084
-328.172	-200.000	0.001	-0.012
-327.158	56.300	-0.075	0.072
-326.143	-200.000	0.003	0.341
-325.129	-200.000	0.005	0.181
-324.114	570.609	0.186	-0.448
-323.099	709.748	-0.138	0.363
-322.085	126.861	-0.049	0.061
-321.070	-200.000	0.015	-0.132
-320.056	1.832	-0.195	0.139
-319.041	-200.000	0.001	-0.051
-318.026	-9.900	-0.208	0.137
-317.012	111.974	-0.199	0.238
-315.997	-200.000	0.027	0.150
-314.983	643.071	-0.072	-0.181
-313.968	-41.172	0.406	-0.208
-312.953	-93.963	0.233	-0.063
-311.939	-200.000	0.066	0.336
-310.924	124.350	0.223	-0.278
-309.910	80.869	-0.203	-0.217
-308.895	-65.178	-0.489	-0.195
-307.880	-120.994	0.173	-0.029
-306.866	-24.830	-0.046	-0.027
-305.851	463.544	0.120	0.265
-304.837	-119.636	-0.212	-0.036
-303.822	314.619	-0.091	0.170
-302.807	747.106	-0.076	0.202
-301.793	-200.000	-0.025	0.130
-300.778	-10.539	0.129	0.084
-299.764	360.313	0.072	-0.143
-298.749	6.283	0.213	0.156
-297.735	19.635	-0.090	0.072
-296.720	-23.378	0.287	0.171
-295.705	-75.954	0.152	0.053
-294.691	-8.888	0.206	-0.137
-293.676	800.000	0.060	0.170
-292.662	800.000	-0.150	-0.434
-291.647	-172.620	0.319	-0.010
-290.632	47.970	-0.145	0.134
-289.618	42.109	-0.159	-0.143
-288.603	285.829	0.131	-0.234
-287.589	800.000	0.020	0.057
-286.574	-200.000	-0.019	-0.352
-285.559	-200.000	-0.023	-0.210
-284.545	51.208	-0.192	0.180
-283.530	402.819	-0.038	0.079
-282.516	-200.000	0.032	-0.230
-281.501	-200.000	0.025	0.144
-280.486	180.240	0.168	-0.243
-279.472	-168.966	-0.369	-0.014
-278.457	-173.129	0.214	0.007
-277.443	-118.548	0.121	-0.021
-276.428	5.776	0.082	-0.060
-275.413	358.564	0.078	-0.154
-274.399	102.006	0.123	-0.142
-273.384	-90.360	-0.142	-0.041
-272.370	800.000	-0.058	-0.207
-271.355	-140.105	-0.113	0.012
-270.340	-182.026	0.422	-0.008
-269.326	7.181	0.195	0.144
-268.311	-33.663	-0.429	0.234
-267.297	800.000	0.070	-0.271
-266.282	-200.000	0.025	0.346
-265.267	-200.000	0.005	0.114
-264.253	537.395	-0.135	0.317
-263.238	21.118	-0.099	0.079
-262.224	69.306	-0.147	-0.150
-261.209	65.046	0.200	0.200
-260.195	222.087	0.030	0.048
-259.180	-28.084	-0.301	-0.172
-258.165	-15.494	-0.193	0.122
-257.151	409.011	-0.020	0.042
-256.136	15.609	-0.085	0.066
-255.122	14.993	-0.051	0.040
-254.107	78.627	-0.080	0.084
-253.092	215.844	0.222	-0.347
-252.078	42.827	0.191	0.172
-251.063	-89.039	0.162	-0.047
-250.049	410.687	-0.009	-0.018
-249.034	-200.000	-0.056	0.377
-248.019	90.268	0.288	0.318
-247.005	800.000	-0.064	0.239
-245.990	166.675	-0.167	-0.234
-244.976	237.483	-0.169	0.277
-243.961	-200.000	0.047	0.233
-242.946	-200.000	0.019	0.097
-241.932	143.257	-0.130	0.171
-240.917	800.000	-0.055	-0.158
-239.903	183.442	-0.060	-0.087
-238.888	800.000	0.066	-0.272
-237.873	73.707	0.085	0.088
-236.859	-82.167	0.161	-0.052
-235.844	800.000	0.010	0.031
-234.830	-182.987	0.211	0.004
-233.815	22.912	0.099	-0.080
-232.800	-123.479	0.328	0.051
-231.786	-158.264	0.224	0.013
-230.771	800.000	0.032	0.094
-229.757	-200.000	0.030	0.377
-228.742	800.000	0.120	-0.484
-227.727	800.000	0.062	-0.174
-226.713	37.608	0.264	-0.231
-225.698	62.095	-0.147	0.144
-224.684	-183.467	0.200	0.003
-223.669	287.366	0.207	0.369
-222.655	-150.934	0.036	0.003
-221.640	220.292	0.095	0.151
-220.625	-47.666	-0.070	0.034
-219.611	261.116	0.095	-0.162
-218.596	-10.850	-0.210	0.137
-217.582	-200.000	-0.002	-0.020
-216.567	563.880	0.056	-0.133
-215.552	800.000	-0.038	-0.113
-214.538	-24.982	-0.267	-0.156
-213.523	800.000	-0.038	0.141
-212.509	-45.567	0.250	-0.122
-211.494	87.866	0.312	0.342
-210.479	-200.000	0.003	-0.078
-209.465	-97.878	-0.356	0.091
-208.450	-197.829	0.074	-0.000
-207.436	743.578	0.067	0.178
-206.421	72.928	0.086	-0.089
-205.406	98.274	0.255	0.289
-204.392	-200.000	0.021	-0.152
-203.377	-63.028	0.436	0.177
-202.363	189.693	-0.197	0.291
-201.348	-143.517	0.085	0.008
-200.333	-35.241	0.192	0.103
-199.319	800.000	0.020	0.069
-198.304	800.000	-0.037	0.123
-197.290	800.000	-0.135	-0.370
-196.275	-106.797	-0.257	0.056
-195.260	-200.000	-0.033	0.200
-194.246	-79.434	0.299	0.100
-193.231	-145.605	0.093	-0.008
-192.217	-0.848	0.053	0.037
-191.202	-200.000	0.013	-0.228
-190.187	800.000	0.084	0.249
-189.173	-200.000	-0.040	0.202
-188.158	800.000	0.076	0.214
-187.144	-99.813	0.048	-0.012
-186.129	-24.386	-0.185	-0.109
-185.114	-147.095	-0.359	-0.030
-184.100	-200.000	-0.034	0.202
-183.085	-200.000	0.043	0.189
-182.071	-69.733	-0.179	-0.067
-181.056	800.000	-0.043	-0.159
-180.042	-149.590	0.355	0.028
-179.027	-179.238	0.107	0.002
-178.012	-27.290	0.368	-0.211
-176.998	-200.000	-0.012	0.159
-175.983	-129.452	0.370	-0.051
-174.969	120.098	0.107	0.131
-173.954	369.153	-0.127	-0.254
-172.939	-181.002	-0.151	-0.003
-171.925	279.067	0.060	0.106
-170.910	-44.917	0.174	0.085
-169.896	-125.059	0.191	0.029
-168.881	468.611	-0.145	-0.320
-167.866	-184.886	0.171	-0.003
-166.852	-200.000	0.006	0.070
-165.837	-200.000	0.017	-0.374
-164.823	-144.449	-0.175	0.016
-163.808	163.559	-0.123	-0.170
-162.793	58.981	-0.092	0.089
-161.779	-116.965	-0.084	0.015
-160.764	-200.000	-0.004	0.122
-159.750	21.026	0.233	-0.186
-158.735	292.461	-0.135	0.241
-157.720	288.674	-0.037	0.065
-156.706	-200.000	-0.018	0.178
-155.691	-6.288	-0.117	-0.079
-154.677	-200.000	0.008	-0.154
-153.662	800.000	-0.153	0.527
-152.647	-108.242	-0.166	-0.035
-151.633	-40.857	-0.170	0.086
-150.618	266.381	0.057	0.097
-149.604	467.961	0.030	0.066
-148.589	61.310	-0.303	0.296
-147.574	-200.000	0.040	0.354
-146.560	-120.449	-0.357	-0.060
-145.545	-67.823	0.079	0.030
-144.531	-129.490	-0.294	0.040
-143.516	16.491	-0.123	-0.096
-142.502	-91.310	-0.293	0.082
-141.487	-106.796	-0.190	0.042
-140.472	23.865	-0.171	-0.139
-139.458	-200.000	-0.019	0.174
-138.443	-34.790	-0.312	-0.167
-137.429	32.473	0.208	0.177
-136.414	-39.053	-0.331	0.171
-135.399	-200.000	0.028	-0.324
-134.385	-24.672	0.129	-0.075
-133.370	-97.273	-0.121	0.031
-132.356	-158.042	-0.208	-0.012
-131.341	-200.000	-0.015	-0.303
-130.326	-55.046	0.257	-0.114
-129.312	-83.210	0.282	0.089
-128.297	58.519	0.252	0.243
-127.283	793.995	-0.124	0.335
-126.268	6.232	0.122	0.089
-125.253	-120.165	-0.233	0.039
-124.239	-63.857	0.112	0.045
-123.224	60.297	0.211	0.205
-122.210	321.769	0.012	0.022
-121.195	31.638	0.341	0.289
