DTS Sentinel unit serial number:	SN413079Multiplexer serial number:	ORYXHardware model number:	OX4-SRSoftware version number:	ORYX F/W v4.00 Oryx Data Collector v3.7.2.0data status	okinstallation	princeton_trtdifferential loss correction	single-endedforward channel	channel 2reverse channel	N/Adate	2019/09/18time	17:07:34forward acquisition time	60.00reverse acquisition time	0.00gamma	496.2192k internal	0.2302k external	0.2302temperature offset calibration	1.0015default loss term (dB/km)	0.3790temperature slope calibration	1.0000multiplexer offset coefficient	1.0000multiplexer slope coefficient	1.0000fibre end	0.00T internal ref (°C)	39.91T ext. ref 1 (°C)	0.87T ext. ref 2 (°C)	33.26length (m)	temperature (°C)	Stokes	anti-Stokes-747.200	800.000	-0.081	0.336
-746.185	596.480	0.033	0.082
-745.171	-13.834	0.206	0.136
-744.156	-157.080	-0.003	0.000
-743.142	318.320	0.124	-0.240
-742.127	251.560	-0.172	0.298
-741.112	77.974	0.163	0.177
-740.098	78.226	-0.165	0.180
-739.083	337.914	-0.167	0.330
-738.069	-200.000	-0.014	0.318
-737.054	60.150	0.044	0.045
-736.039	-73.573	-0.082	-0.030
-735.025	605.136	0.099	0.252
-734.010	-110.772	0.316	0.066
-732.996	424.585	-0.141	0.310
-731.981	165.246	0.074	0.106
-730.966	109.937	0.159	-0.195
-729.952	-200.000	0.033	-0.235
-728.937	104.978	0.054	-0.065
-727.923	308.749	0.143	0.271
-726.908	-93.142	-0.271	0.077
-725.894	240.238	-0.031	0.052
-724.879	262.913	-0.252	-0.446
-723.864	-21.557	0.198	0.123
-722.850	-164.670	-0.205	-0.009
-721.835	22.067	-0.231	0.192
-720.821	-34.609	-0.431	-0.240
-719.806	-200.000	-0.048	0.229
-718.791	-165.982	-0.179	0.008
-717.777	800.000	-0.066	-0.213
-716.762	96.786	-0.108	0.126
-715.748	252.567	0.234	-0.407
-714.733	800.000	0.017	-0.053
-713.718	-62.981	0.069	-0.029
-712.704	800.000	-0.062	-0.271
-711.689	116.652	0.185	-0.230
-710.675	180.970	-0.024	0.036
-709.660	-200.000	-0.033	-0.288
-708.645	62.596	0.133	-0.135
-707.631	-37.258	-0.143	-0.078
-706.616	607.596	0.106	-0.270
-705.602	-75.340	0.320	-0.116
-704.587	412.740	-0.048	0.104
-703.572	800.000	0.091	-0.316
-702.558	-164.176	-0.106	0.005
-701.543	800.000	0.061	0.195
-700.529	-46.928	0.054	-0.027
-699.514	-86.050	-0.252	0.079
-698.499	197.353	-0.139	-0.216
-697.485	70.367	-0.181	0.191
-696.470	376.995	-0.063	-0.131
-695.456	414.712	-0.137	0.296
-694.441	-200.000	-0.055	0.304
-693.426	-157.373	-0.377	-0.023
-692.412	800.000	-0.050	0.170
-691.397	-74.429	0.056	0.020
-690.383	800.000	-0.071	-0.253
-689.368	-93.575	0.111	-0.031
-688.354	221.171	0.155	0.253
-687.339	800.000	-0.043	0.137
-686.324	-104.357	-0.088	0.021
-685.310	216.810	0.192	-0.311
-684.295	800.000	0.091	0.297
-683.281	54.015	0.328	-0.321
-682.266	-181.923	-0.296	-0.006
-681.251	239.950	-0.026	0.044
-680.237	467.334	0.065	-0.149
-679.222	254.054	-0.118	0.204
-678.208	553.580	-0.088	-0.216
-677.193	-34.433	-0.206	0.115
-676.178	-85.120	-0.068	-0.022
-675.164	384.559	0.118	-0.246
-674.149	-200.000	-0.047	-0.423
-673.135	391.817	0.087	0.183
-672.120	-90.514	-0.013	0.004
-671.105	481.233	-0.077	-0.177
-670.091	159.921	-0.144	-0.204
-669.076	-200.000	-0.018	0.187
-668.062	-168.677	-0.583	0.022
-667.047	800.000	-0.096	0.300
-666.032	800.000	0.015	0.061
-665.018	62.427	0.278	0.283
-664.003	333.504	-0.117	-0.231
-662.989	800.000	0.033	-0.128
-661.974	204.983	-0.082	-0.129
-660.959	-200.000	0.030	-0.375
-659.945	12.828	0.125	-0.098
-658.930	96.906	0.249	-0.290
-657.916	-1.842	-0.244	-0.175
-656.901	-200.000	-0.017	-0.280
-655.886	-200.000	0.052	-0.298
-654.872	111.115	-0.111	0.135
-653.857	64.198	-0.065	0.066
-652.843	217.032	0.041	0.066
-651.828	-200.000	-0.038	0.347
-650.814	-200.000	-0.048	0.254
-649.799	184.453	0.089	0.134
-648.784	-200.000	-0.047	0.487
-647.770	-200.000	0.030	-0.336
-646.755	-38.408	-0.049	0.027
-645.741	-78.057	-0.164	-0.057
-644.726	-75.557	-0.152	-0.055
-643.711	-169.613	-0.191	0.007
-642.697	203.431	0.355	0.557
-641.682	46.168	-0.155	0.146
-640.668	-40.353	-0.060	-0.031
-639.653	74.684	0.068	0.073
-638.638	6.849	-0.280	-0.212
-637.624	-74.447	0.230	0.084
-636.609	-200.000	0.057	-0.417
-635.595	-5.230	-0.378	-0.264
-634.580	-109.745	0.078	0.017
-633.565	800.000	-0.044	-0.174
-632.551	-27.577	0.119	-0.070
-631.536	-121.383	0.222	0.037
-630.522	-51.285	0.212	-0.101
-629.507	-88.475	0.124	0.038
-628.492	-37.963	0.334	0.180
-627.478	718.037	-0.075	0.201
-626.463	-154.547	0.024	0.002
-625.449	800.000	-0.112	-0.320
-624.434	-83.000	-0.333	-0.109
-623.419	-47.198	-0.048	-0.024
-622.405	-200.000	-0.016	0.209
-621.390	-100.223	0.108	-0.027
-620.376	55.663	-0.096	0.095
-619.361	-140.548	-0.154	0.016
-618.346	-200.000	0.119	-0.000
-617.332	-200.000	0.011	0.224
-616.317	-97.823	-0.205	0.054
-615.303	157.385	-0.179	0.251
-614.288	-200.000	-0.053	-0.237
-613.273	-16.390	0.073	-0.047
-612.259	-200.000	-0.002	-0.177
-611.244	162.020	-0.247	-0.351
-610.230	435.879	-0.032	0.070
-609.215	191.011	-0.085	-0.130
-608.201	338.731	-0.062	0.122
-607.186	-186.157	-0.124	0.002
-606.171	-158.384	-0.321	0.019
-605.157	-137.785	0.164	-0.019
-604.142	385.732	-0.069	0.143
-603.128	451.928	0.074	-0.165
-602.113	800.000	-0.139	-0.486
-601.098	-131.054	0.300	-0.041
-600.084	800.000	0.099	-0.406
-599.069	40.319	-0.037	-0.034
-598.055	-200.000	0.029	-0.154
-597.040	153.721	-0.186	0.258
-596.025	-174.891	-0.048	0.001
-595.011	-95.320	-0.067	0.018
-593.996	211.070	0.068	0.109
-592.982	9.246	-0.311	0.238
-591.967	-200.000	-0.042	-0.234
-590.952	-91.505	-0.093	0.027
-589.938	-106.024	-0.166	0.038
-588.923	-73.127	0.201	-0.075
-587.909	84.932	0.119	-0.132
-586.894	35.377	0.146	-0.130
-585.879	161.450	0.037	0.052
-584.865	-200.000	0.019	0.213
-583.850	-2.774	0.102	-0.072
-582.836	43.478	0.172	0.159
-581.821	-200.000	0.002	-0.054
-580.806	-200.000	0.006	0.297
-579.792	-7.808	-0.421	0.288
-578.777	-79.329	-0.227	-0.078
-577.763	82.663	0.268	0.295
-576.748	-178.037	-0.324	-0.008
-575.733	-200.000	-0.039	-0.196
-574.719	272.790	0.088	0.157
-573.704	122.777	-0.127	0.161
-572.690	-157.145	-0.170	-0.010
-571.675	-87.872	0.188	-0.057
-570.661	-200.000	0.039	0.213
-569.646	-200.000	0.033	-0.350
-568.631	35.980	-0.207	0.184
-567.617	29.359	0.215	-0.185
-566.602	236.055	0.130	0.218
-565.588	-61.167	0.199	-0.085
-564.573	-35.392	-0.417	-0.229
-563.558	-200.000	-0.004	-0.236
-562.544	-200.000	0.034	-0.392
-561.529	-93.628	0.214	0.060
-560.515	-10.718	-0.294	-0.197
-559.500	-81.341	0.181	0.060
-558.485	-110.361	0.108	-0.023
-557.471	800.000	0.104	-0.405
-556.456	216.006	-0.056	0.089
-555.442	-200.000	0.037	-0.329
-554.427	-118.549	-0.151	-0.027
-553.412	-66.814	-0.321	-0.128
-552.398	-200.000	-0.003	-0.234
-551.383	-12.554	-0.321	-0.212
-550.369	800.000	0.025	0.077
-549.354	191.502	-0.132	-0.201
-548.339	-26.704	0.017	-0.010
-547.325	107.536	0.111	-0.134
-546.310	175.661	0.245	0.359
-545.296	-112.870	-0.198	-0.040
-544.281	-27.517	-0.135	0.080
-543.266	-28.176	-0.072	0.042
-542.252	-200.000	0.033	0.293
-541.237	7.347	0.284	-0.215
-540.223	-140.234	0.089	-0.009
-539.208	254.948	0.160	-0.276
-538.193	-155.783	0.518	-0.033
-537.179	-200.000	-0.023	0.216
-536.164	4.823	0.087	0.064
-535.150	-200.000	0.005	0.092
-534.135	-20.855	-0.149	-0.092
-533.121	-176.553	-0.263	0.007
-532.106	-200.000	-0.070	-0.503
-531.091	24.750	-0.075	-0.063
-530.077	681.565	0.090	0.237
-529.062	121.759	-0.111	0.141
-528.048	-8.717	0.374	0.254
-527.033	-63.988	0.293	0.121
-526.018	800.000	0.029	0.089
-525.004	-16.397	-0.220	-0.141
-523.989	800.000	0.057	-0.202
-522.975	145.338	-0.069	-0.093
-521.960	-5.836	-0.081	-0.056
-520.945	-114.871	-0.240	-0.046
-519.931	75.030	0.137	-0.145
-518.916	-24.522	-0.294	0.177
-517.902	128.790	0.127	0.163
-516.887	-24.378	-0.194	0.117
-515.872	-99.725	-0.117	0.030
-514.858	-139.730	0.206	0.022
-513.843	86.422	-0.311	0.346
-512.829	9.753	0.218	-0.167
-511.814	173.270	-0.113	-0.165
-510.799	100.827	0.064	0.076
-509.785	427.062	0.116	-0.252
-508.770	-142.184	-0.175	0.018
-507.756	24.493	-0.239	0.200
-506.741	5.820	0.126	0.094
-505.726	222.824	-0.145	-0.236
-504.712	-115.384	0.259	-0.049
-503.697	-63.069	-0.431	0.180
-502.683	603.722	-0.013	0.031
-501.668	-55.245	0.297	0.135
-500.653	-76.068	0.169	0.060
-499.639	800.000	0.057	-0.163
-498.624	-82.190	-0.273	0.090
-497.610	-101.344	0.166	-0.041
-496.595	-200.000	0.013	-0.285
-495.581	19.734	0.263	-0.213
-494.566	68.646	-0.085	-0.088
-493.551	800.000	0.041	0.177
-492.537	800.000	-0.041	-0.168
-491.522	293.709	-0.056	-0.104
-490.508	-137.080	0.379	-0.044
-489.493	43.126	-0.100	0.092
-488.478	800.000	0.052	-0.173
-487.464	556.435	-0.096	-0.234
-486.449	6.063	-0.169	-0.126
-485.435	144.992	0.043	-0.058
-484.420	-9.543	0.083	-0.056
-483.405	690.857	-0.025	-0.065
-482.391	800.000	0.094	0.280
-481.376	-77.364	0.291	0.102
-480.362	-200.000	-0.002	-0.086
-479.347	172.031	-0.154	0.224
-478.332	-68.731	0.225	0.088
-477.318	8.843	0.136	-0.104
-476.303	800.000	-0.035	0.145
-475.289	80.080	0.023	-0.025
-474.274	-141.448	-0.178	0.018
-473.259	138.974	0.089	-0.117
-472.245	322.419	0.152	-0.291
-471.230	657.006	0.080	-0.208
-470.216	-29.192	0.140	-0.081
-469.201	800.000	0.060	0.197
-468.186	800.000	0.053	0.212
-467.172	-200.000	-0.039	-0.199
-466.157	800.000	-0.020	-0.062
-465.143	-14.861	-0.057	-0.037
-464.128	231.218	-0.158	0.261
-463.113	51.472	-0.100	0.095
-462.099	-93.317	0.262	-0.073
-461.084	-198.043	-0.234	0.001
-460.070	-200.000	-0.033	0.259
-459.055	-200.000	0.012	0.086
-458.040	489.268	0.174	0.400
-457.026	-30.032	0.199	0.114
-456.011	-70.328	0.279	0.107
-454.997	-52.321	0.170	-0.079
-453.982	-200.000	-0.024	-0.278
-452.968	42.570	-0.106	0.097
-451.953	-200.000	-0.027	0.166
-450.938	57.886	0.102	-0.101
-449.924	-126.802	0.245	0.036
-448.909	800.000	0.035	0.106
-447.895	-200.000	0.038	-0.273
-446.880	691.422	-0.116	-0.306
-445.865	218.839	0.099	-0.160
-444.851	-0.524	-0.380	0.272
-443.836	-95.237	-0.191	-0.052
-442.822	160.340	0.096	0.134
-441.807	800.000	-0.065	0.267
-440.792	257.826	0.152	0.264
-439.778	157.885	-0.092	-0.128
-438.763	490.495	0.081	-0.186
-437.749	800.000	-0.106	0.392
-436.734	-119.510	-0.062	-0.011
-435.719	-110.514	-0.117	0.024
-434.705	457.805	0.035	-0.078
-433.690	-53.118	0.142	-0.066
-432.676	-200.000	-0.007	-0.070
-431.661	93.744	-0.247	0.282
-430.646	-21.654	-0.388	-0.238
-429.632	128.536	-0.149	-0.191
-428.617	-200.000	-0.003	-0.156
-427.603	353.378	-0.049	0.099
-426.588	-200.000	-0.008	-0.136
-425.573	-200.000	-0.078	-0.369
-424.559	371.949	-0.119	-0.244
-423.544	262.749	-0.044	0.078
-422.530	133.992	0.244	-0.318
-421.515	9.561	-0.163	-0.124
-420.500	-72.783	-0.324	0.120
-419.486	-200.000	-0.016	-0.341
-418.471	-128.663	0.290	0.041
-417.457	-31.335	0.186	0.106
-416.442	66.288	0.300	-0.307
-415.428	15.850	-0.296	0.234
-414.413	33.213	-0.056	0.049
-413.398	-67.774	-0.252	0.099
-412.384	269.980	0.006	0.011
-411.369	-119.775	-0.258	-0.045
-410.355	27.210	-0.303	-0.256
-409.340	-57.702	0.293	-0.129
-408.325	-24.175	0.115	0.069
-407.311	58.245	0.015	0.015
-406.296	131.234	0.196	0.254
-405.282	-100.388	-0.254	0.063
-404.267	-200.000	-0.089	-0.412
-403.252	-134.691	0.279	-0.034
-402.238	-200.000	0.003	0.032
-401.223	101.355	-0.125	0.147
-400.209	-80.733	0.112	0.037
-399.194	-200.000	-0.018	0.172
-398.179	138.877	-0.170	0.225
-397.165	-86.556	-0.214	-0.066
-396.150	246.183	0.133	0.225
-395.136	-45.783	-0.334	-0.166
-394.121	-94.054	0.252	-0.069
-393.106	-140.842	0.348	-0.036
-392.092	-116.294	0.181	-0.034
-391.077	-170.471	0.139	-0.005
-390.063	-29.208	0.236	0.136
-389.048	139.909	0.032	-0.043
-388.033	-146.752	0.213	-0.018
-387.019	330.322	-0.201	-0.389
-386.004	-85.940	-0.142	0.044
-384.990	-200.000	0.080	-0.354
-383.975	-146.662	-0.326	0.028
-382.960	239.185	-0.075	-0.125
-381.946	112.871	-0.096	0.117
-380.931	357.260	0.147	-0.294
-379.917	-200.000	0.029	-0.324
-378.902	800.000	0.044	0.142
-377.888	-64.155	0.093	-0.038
-376.873	-153.448	0.287	-0.020
-375.858	11.210	0.278	0.213
-374.844	-8.282	0.156	-0.105
-373.829	-200.000	0.035	-0.188
-372.815	96.964	0.123	0.142
-371.800	150.068	0.167	0.227
-370.785	-82.066	-0.108	-0.035
-369.771	-200.000	-0.091	-0.538
-368.756	-69.512	-0.176	0.068
-367.742	800.000	-0.088	-0.318
-366.727	36.129	-0.196	-0.173
-365.712	-200.000	0.008	0.343
-364.698	-30.412	0.123	-0.070
-363.683	35.663	-0.299	0.264
-362.669	-101.505	-0.361	0.088
-361.654	192.655	-0.045	-0.069
-360.639	-200.000	-0.054	0.475
-359.625	-8.495	-0.023	0.015
-358.610	800.000	0.135	0.386
-357.596	-200.000	-0.062	0.416
-356.581	-85.353	0.157	-0.049
-355.566	12.174	0.139	-0.107
-354.552	28.242	-0.060	0.051
-353.537	325.933	0.054	0.105
-352.523	-100.135	0.027	-0.007
-351.508	148.010	0.155	-0.210
-350.493	-32.253	0.282	-0.158
-349.479	800.000	0.085	-0.363
-348.464	-200.000	0.010	0.151
-347.450	32.876	0.165	-0.143
-346.435	219.278	-0.148	0.238
-345.420	-63.879	-0.148	-0.061
-344.406	432.219	0.189	0.412
-343.391	-127.080	0.277	-0.041
-342.377	-189.722	0.209	0.002
-341.362	105.461	0.114	-0.135
-340.348	-200.000	0.028	-0.180
-339.333	308.133	0.098	0.184
-338.318	369.050	0.164	-0.334
-337.304	800.000	-0.050	-0.139
-336.289	300.758	0.205	0.380
-335.275	-2.160	-0.297	-0.209
-334.260	-96.545	-0.484	0.128
-333.245	800.000	0.033	0.111
-332.231	364.652	-0.048	-0.097
-331.216	-182.003	-0.191	0.004
-330.202	594.260	-0.029	0.072
-329.187	135.530	0.073	-0.095
-328.172	-105.248	0.321	0.073
-327.158	121.123	-0.265	-0.331
-326.143	-108.166	-0.256	-0.055
-325.129	-200.000	-0.041	0.184
-324.114	121.262	0.140	0.174
-323.099	-200.000	0.019	-0.171
-322.085	-56.459	0.186	0.083
-321.070	-40.392	-0.308	0.160
-320.056	-25.334	-0.172	0.102
-319.041	627.326	-0.081	0.204
-318.026	121.952	0.259	-0.324
-317.012	309.847	0.132	0.247
-315.997	55.472	-0.081	0.079
-314.983	197.859	0.120	-0.184
-313.968	150.479	0.167	-0.227
-312.953	114.321	-0.189	-0.230
-311.939	14.793	-0.157	-0.123
-310.924	48.024	0.067	-0.063
-309.910	-108.201	-0.238	0.052
-308.895	-116.680	-0.196	0.036
-307.880	-200.000	0.398	-0.002
-306.866	44.288	-0.063	-0.058
-305.851	-8.208	0.178	0.120
-304.837	-40.516	0.469	0.244
-303.822	-15.568	0.085	0.054
-302.807	800.000	-0.038	-0.126
-301.793	-200.000	-0.013	0.211
-300.778	82.000	0.204	0.221
-299.764	-200.000	-0.033	-0.144
-298.749	-43.434	0.168	0.085
-297.735	56.223	0.362	0.352
-296.720	-200.000	0.048	-0.318
-295.705	-200.000	0.034	-0.176
-294.691	215.881	0.129	-0.205
-293.676	33.128	-0.222	0.193
-292.662	800.000	-0.060	-0.169
-291.647	-142.749	0.106	-0.010
-290.632	-32.211	0.296	-0.166
-289.618	-10.451	0.179	0.119
-288.603	15.660	-0.219	-0.172
-287.589	593.987	-0.076	-0.189
-286.574	-36.075	0.367	-0.198
-285.559	19.293	-0.146	0.118
-284.545	800.000	-0.061	0.188
-283.530	800.000	0.045	0.128
-282.516	53.546	-0.139	0.134
-281.501	-200.000	-0.014	-0.130
-280.486	-102.431	-0.214	-0.051
-279.472	607.594	-0.131	-0.328
-278.457	-78.283	-0.344	0.118
-277.443	-64.054	-0.236	-0.096
-276.428	-30.405	0.268	-0.152
-275.413	800.000	-0.028	0.111
-274.399	-132.231	0.179	-0.023
-273.384	-200.000	0.008	0.378
-272.370	-86.047	-0.193	0.060
-271.355	-21.006	0.151	0.093
-270.340	-169.824	0.217	-0.008
-269.326	116.427	-0.246	0.302
-268.311	-6.873	0.094	-0.064
-267.297	800.000	-0.015	0.066
-266.282	56.635	0.278	0.270
-265.267	-56.843	0.292	0.129
-264.253	243.875	0.116	-0.195
-263.238	-75.755	0.291	-0.103
-262.224	800.000	0.058	0.227
-261.209	-86.530	-0.261	0.080
-260.195	10.091	-0.231	-0.175
-259.180	-37.991	-0.063	-0.033
-258.165	-144.655	-0.543	0.050
-257.151	37.313	0.041	0.036
-256.136	-127.007	0.172	0.025
-255.122	-154.929	-0.268	-0.018
-254.107	442.346	-0.075	0.164
-253.092	-110.316	0.079	0.016
-252.078	183.078	0.083	-0.122
-251.063	-32.320	0.204	0.114
-250.049	115.768	0.089	0.109
-249.034	-140.906	0.214	0.022
-248.019	-57.724	-0.203	0.089
-247.005	-95.926	-0.325	-0.086
-245.990	58.196	0.020	0.020
-244.976	-99.736	-0.099	0.025
-243.961	84.865	-0.294	0.322
-242.946	-101.310	-0.256	0.062
-241.932	-34.472	0.335	0.183
-240.917	79.978	0.039	-0.042
-239.903	-200.000	-0.044	-0.216
-238.888	-105.593	-0.351	-0.080
-237.873	-125.577	0.163	-0.025
-236.859	82.441	-0.254	0.276
-235.844	-43.922	-0.212	0.107
-234.830	54.018	-0.125	0.120
-233.815	480.639	0.067	-0.152
-232.800	-106.642	0.055	0.012
-231.786	9.865	0.193	0.146
-230.771	196.605	-0.088	0.134
-229.757	-200.000	0.030	0.152
-228.742	125.701	-0.175	-0.221
-227.727	-79.111	0.177	0.060
-226.713	-82.393	0.277	-0.090
-225.698	-200.000	0.013	0.137
-224.684	236.293	-0.040	-0.066
-223.669	139.521	0.072	-0.094
-222.655	1.224	0.290	-0.208
-221.640	62.896	-0.041	-0.041
-220.625	-48.895	-0.289	0.138
-219.611	345.084	0.124	-0.242
-218.596	-200.000	-0.018	-0.387
-217.582	-200.000	-0.006	0.133
-216.567	32.567	0.283	0.244
-215.552	96.549	-0.125	0.143
-214.538	-92.426	-0.069	0.019
-213.523	-90.971	0.185	0.053
-212.509	458.102	-0.083	0.184
-211.494	92.406	-0.165	0.186
-210.479	16.359	-0.212	0.167
-209.465	-200.000	-0.015	0.098
-208.450	112.652	0.126	0.153
-207.436	800.000	-0.048	0.170
-206.421	-18.485	-0.142	0.089
-205.406	-200.000	-0.017	0.182
-204.392	-124.205	-0.082	-0.013
-203.377	231.979	0.112	-0.184
-202.363	123.068	0.292	-0.365
-201.348	-200.000	-0.018	0.237
-200.333	577.282	0.141	0.343
-199.319	203.768	-0.058	-0.090
-198.304	83.844	-0.051	-0.055
-197.290	800.000	0.081	0.345
-196.275	-200.000	-0.023	0.127
-195.260	-76.667	0.134	-0.047
-194.246	-145.785	0.317	-0.028
-193.231	800.000	0.053	0.220
-192.217	13.415	0.060	0.046
-191.202	-123.016	0.230	0.037
-190.187	475.405	0.028	-0.063
-189.173	-137.506	-0.269	0.030
-188.158	-102.272	-0.035	0.008
-187.144	531.664	0.091	-0.214
-186.129	-67.869	0.240	0.093
-185.114	-62.566	-0.185	0.077
-184.100	-200.000	-0.078	0.360
-183.085	800.000	0.085	-0.240
-182.071	3.124	0.262	-0.190
-181.056	-200.000	-0.042	-0.341
-180.042	-70.870	0.103	-0.039
-179.027	22.666	0.089	0.072
-178.012	-200.000	-0.017	0.162
-176.998	622.099	-0.043	-0.108
-175.983	0.175	-0.173	0.123
-174.969	-200.000	-0.098	0.553
-173.954	-156.518	-0.222	-0.014
-172.939	-23.914	0.192	0.115
-171.925	-200.000	0.045	-0.226
-170.910	85.267	0.124	0.136
-169.896	248.358	0.088	0.149
-168.881	117.369	-0.017	0.021
-167.866	62.426	-0.202	-0.201
-166.852	-20.765	-0.163	-0.100
-165.837	-200.000	0.041	-0.263
-164.823	-174.849	-0.383	0.011
-163.808	-200.000	-0.001	0.054
-162.793	174.396	-0.011	-0.016
-161.779	-0.303	0.068	0.048
-160.764	30.293	0.076	-0.065
-159.750	-134.613	-0.066	-0.008
-158.735	-200.000	-0.007	0.079
-157.720	6.531	-0.056	0.042
-156.706	60.961	-0.283	0.280
-155.691	503.348	0.037	-0.084
-154.677	-85.600	-0.069	-0.021
-153.662	-27.006	0.121	0.070
-152.647	47.132	0.115	-0.106
-151.633	270.401	-0.107	0.188
-150.618	-72.588	0.058	0.021
-149.604	5.478	0.122	0.089
-148.589	555.531	0.008	-0.019
-147.574	-200.000	0.016	-0.141
-146.560	-37.375	0.154	-0.082
-145.545	800.000	-0.083	0.356
-144.531	-129.414	-0.135	0.019
-143.516	-200.000	-0.043	-0.380
-142.502	200.414	0.094	-0.144
-141.487	53.035	0.349	0.333
-140.472	150.093	0.037	-0.051
-139.458	-200.000	0.025	0.186
-138.443	22.390	-0.124	-0.101
-137.429	654.663	-0.011	-0.029
-136.414	-110.479	0.327	0.068
-135.399	-126.046	-0.326	0.049
-134.385	-66.273	-0.096	-0.038
-133.370	-83.799	-0.049	0.016
-132.356	800.000	-0.060	-0.223
-131.341	-200.000	0.012	0.456
-130.326	22.192	0.187	0.152
-129.312	-134.598	-0.252	-0.031
-128.297	-200.000	0.034	0.210
-127.283	88.623	0.049	-0.055
-126.268	719.691	-0.022	0.058
-125.253	-58.508	-0.075	0.033
-124.239	9.824	-0.105	0.080
-123.224	91.036	-0.029	-0.032
-122.210	-139.300	-0.300	-0.032
-121.195	34.434	0.184	-0.160
