DTS Sentinel unit serial number:	SN413079Multiplexer serial number:	ORYXHardware model number:	OX4-SRSoftware version number:	ORYX F/W v4.00 Oryx Data Collector v3.7.2.0data status	okinstallation	princeton_trtdifferential loss correction	single-endedforward channel	channel 2reverse channel	N/Adate	2019/09/19time	03:43:35forward acquisition time	60.00reverse acquisition time	0.00gamma	496.2192k internal	0.2352k external	0.2352temperature offset calibration	1.0017default loss term (dB/km)	0.3790temperature slope calibration	1.0000multiplexer offset coefficient	1.0000multiplexer slope coefficient	1.0000fibre end	0.00T internal ref (°C)	20.52T ext. ref 1 (°C)	0.64T ext. ref 2 (°C)	14.15length (m)	temperature (°C)	Stokes	anti-Stokes-747.200	-22.132	-0.127	-0.077
-746.185	-200.000	0.030	-0.135
-745.171	-8.524	-0.245	0.164
-744.156	716.071	-0.133	0.353
-743.142	291.048	-0.203	-0.369
-742.127	29.022	-0.319	0.270
-741.112	-53.524	0.419	0.191
-740.098	-200.000	0.011	0.057
-739.083	-36.388	-0.113	-0.061
-738.069	-200.000	0.008	-0.152
-737.054	194.084	-0.081	0.122
-736.039	-95.256	-0.363	-0.098
-735.025	-41.436	-0.190	0.097
-734.010	190.258	-0.057	-0.086
-732.996	-80.348	-0.359	-0.120
-731.981	800.000	-0.097	-0.328
-730.966	-200.000	0.036	-0.271
-729.952	-200.000	0.048	0.232
-728.937	-101.557	-0.246	-0.060
-727.923	-150.414	-0.138	0.011
-726.908	800.000	0.076	-0.304
-725.894	-160.763	0.110	0.006
-724.879	-60.716	-0.203	-0.086
-723.864	-200.000	-0.007	0.053
-722.850	-115.215	-0.247	-0.047
-721.835	232.480	-0.121	0.197
-720.821	370.897	0.070	0.141
-719.806	290.378	0.128	-0.232
-718.791	-99.362	0.156	0.039
-717.777	-174.777	-0.111	0.003
-716.762	15.327	-0.168	-0.131
-715.748	-53.985	-0.045	0.020
-714.733	328.903	0.061	-0.117
-713.718	694.506	-0.086	-0.225
-712.704	418.598	-0.045	0.095
-711.689	321.506	0.091	-0.172
-710.675	195.956	-0.051	-0.077
-709.660	46.068	-0.054	0.050
-708.645	800.000	0.097	0.319
-707.631	800.000	0.118	0.379
-706.616	513.973	0.239	-0.556
-705.602	113.468	0.087	-0.105
-704.587	-31.886	-0.094	0.053
-703.572	-28.409	0.412	-0.237
-702.558	-200.000	-0.005	0.103
-701.543	-150.397	-0.283	-0.022
-700.529	800.000	-0.110	0.419
-699.514	800.000	0.038	0.110
-698.499	-71.973	0.132	0.049
-697.485	-57.739	0.235	0.102
-696.470	25.068	-0.161	0.133
-695.456	800.000	-0.014	0.043
-694.441	123.123	-0.105	-0.131
-693.426	-29.759	-0.319	-0.181
-692.412	27.047	-0.249	0.208
-691.397	-36.622	-0.204	0.109
-690.383	-72.491	-0.042	0.015
-689.368	-62.945	0.232	0.095
-688.354	-123.513	-0.148	-0.023
-687.339	291.787	0.192	0.349
-686.324	-119.483	0.253	-0.044
-685.310	-79.384	-0.372	0.125
-684.295	64.582	0.119	-0.119
-683.281	145.681	0.089	-0.119
-682.266	-89.924	0.194	-0.056
-681.251	-62.750	0.138	-0.057
-680.237	800.000	0.046	-0.167
-679.222	-200.000	0.064	-0.458
-678.208	-125.511	0.226	0.034
-677.193	-176.156	-0.290	0.008
-676.178	92.066	0.170	-0.190
-675.164	-200.000	-0.006	0.059
-674.149	-70.746	-0.099	0.037
-673.135	35.137	0.065	-0.057
-672.120	800.000	-0.037	-0.143
-671.105	-19.132	0.200	-0.124
-670.091	-200.000	-0.014	0.347
-669.076	-25.328	-0.172	-0.101
-668.062	537.345	-0.110	0.260
-667.047	800.000	0.060	0.207
-666.032	800.000	-0.035	0.101
-665.018	49.824	0.241	0.226
-664.003	-147.599	0.208	-0.017
-662.989	-119.933	-0.226	-0.039
-661.974	71.343	0.138	-0.143
-660.959	39.533	-0.153	0.136
-659.945	233.373	0.122	0.199
-658.930	210.213	-0.092	0.144
-657.916	-3.736	-0.148	0.102
-656.901	-55.507	-0.156	-0.069
-655.886	800.000	-0.048	0.176
-654.872	350.192	0.089	0.176
-653.857	-59.366	-0.156	0.067
-652.843	59.311	0.118	-0.116
-651.828	800.000	0.025	-0.072
-650.814	-9.595	-0.261	0.173
-649.799	-131.329	-0.156	-0.021
-648.784	-18.410	-0.250	-0.155
-647.770	113.572	-0.130	-0.157
-646.755	-200.000	0.056	-0.308
-645.741	498.763	-0.115	-0.262
-644.726	-74.148	0.212	-0.076
-643.711	-42.853	0.112	-0.056
-642.697	130.718	0.017	-0.022
-641.682	-4.263	0.189	0.130
-640.668	2.735	-0.263	-0.189
-639.653	-175.656	0.158	-0.004
-638.638	457.075	-0.146	0.323
-637.624	-3.498	-0.069	0.048
-636.609	-130.731	0.204	-0.027
-635.595	-200.000	0.024	0.401
-634.580	233.508	-0.109	0.178
-633.565	723.518	-0.152	-0.401
-632.551	257.581	0.131	0.224
-631.536	272.227	-0.024	-0.043
-630.522	-109.334	-0.297	-0.063
-629.507	-200.000	-0.014	-0.147
-628.492	-200.000	-0.021	-0.435
-627.478	-6.233	0.299	0.202
-626.463	-141.284	-0.122	-0.012
-625.449	-121.904	-0.104	0.017
-624.434	567.042	-0.004	0.011
-623.419	220.606	0.140	-0.223
-622.405	800.000	-0.022	0.077
-621.390	-200.000	0.016	-0.295
-620.376	-51.817	-0.163	-0.075
-619.361	356.845	-0.088	0.174
-618.346	176.662	0.100	0.145
-617.332	327.102	-0.135	0.257
-616.317	-192.878	-0.197	-0.002
-615.303	-142.561	0.219	-0.021
-614.288	29.054	-0.177	0.149
-613.273	-106.028	-0.164	-0.037
-612.259	-131.048	0.095	0.013
-611.244	-107.585	0.149	-0.032
-610.230	-7.470	0.309	0.208
-609.215	208.948	-0.244	-0.378
-608.201	-69.059	0.284	-0.109
-607.186	-200.000	0.036	0.270
-606.171	116.378	-0.029	-0.036
-605.157	-140.204	-0.404	0.042
-604.142	-95.068	-0.290	0.078
-603.128	-19.073	0.156	-0.096
-602.113	103.396	-0.158	0.184
-601.098	-58.066	-0.136	-0.059
-600.084	-200.000	0.008	0.309
-599.069	89.623	-0.184	-0.204
-598.055	-157.779	-0.307	-0.018
-597.040	-172.443	0.276	-0.009
-596.025	-18.172	0.160	0.099
-595.011	-17.134	-0.234	-0.146
-593.996	-200.000	0.024	-0.202
-592.982	-33.248	-0.010	0.006
-591.967	-200.000	-0.049	0.316
-590.952	626.371	-0.076	0.190
-589.938	-200.000	0.031	-0.436
-588.923	-162.240	-0.235	0.012
-587.909	800.000	-0.034	0.122
-586.894	208.313	0.157	0.244
-585.879	674.913	-0.058	0.149
-584.865	-200.000	0.004	-0.040
-583.850	-139.363	-0.375	-0.040
-582.836	261.401	-0.234	0.402
-581.821	-200.000	0.014	-0.061
-580.806	160.909	-0.151	-0.209
-579.792	428.444	-0.105	0.224
-578.777	-200.000	0.039	0.185
-577.763	800.000	0.063	0.197
-576.748	-86.200	-0.290	-0.089
-575.733	-54.357	0.302	0.136
-574.719	162.844	-0.148	0.206
-573.704	347.642	0.125	-0.244
-572.690	-125.142	-0.158	-0.024
-571.675	134.131	-0.066	-0.085
-570.661	-33.842	-0.027	-0.015
-569.646	-200.000	-0.055	-0.436
-568.631	-200.000	-0.015	0.092
-567.617	-93.680	0.367	-0.100
-566.602	182.301	-0.086	-0.125
-565.588	-200.000	-0.003	0.277
-564.573	143.999	-0.099	0.131
-563.558	-101.718	-0.107	-0.026
-562.544	-200.000	-0.013	0.146
-561.529	36.683	0.087	0.076
-560.515	-154.598	0.170	0.011
-559.500	82.747	-0.175	-0.188
-558.485	88.633	-0.245	0.270
-557.471	800.000	-0.076	0.229
-556.456	-52.357	0.287	-0.132
-555.442	191.496	-0.065	0.098
-554.427	-200.000	-0.001	-0.071
-553.412	-200.000	0.021	0.386
-552.398	8.810	-0.413	-0.308
-551.383	139.760	0.145	0.189
-550.369	0.783	0.104	-0.074
-549.354	-93.750	-0.157	0.043
-548.339	-101.140	0.322	-0.078
-547.325	-70.519	0.253	-0.095
-546.310	-109.959	0.027	-0.006
-545.296	800.000	0.103	-0.315
-544.281	-200.000	-0.012	0.080
-543.266	-11.726	-0.239	-0.156
-542.252	5.825	0.035	0.025
-541.237	15.540	-0.095	-0.074
-540.223	578.470	0.060	0.146
-539.208	230.940	-0.066	0.107
-538.193	-96.599	-0.095	-0.025
-537.179	8.219	-0.118	0.088
-536.164	47.990	0.325	-0.301
-535.150	-56.428	0.184	-0.081
-534.135	209.200	-0.025	-0.039
-533.121	-200.000	0.027	-0.188
-532.106	-86.815	-0.326	-0.098
-531.091	406.726	0.125	0.260
-530.077	-8.885	0.029	-0.019
-529.062	-128.257	0.281	0.040
-528.048	750.012	-0.047	-0.125
-527.033	15.778	0.068	0.053
-526.018	-113.766	-0.191	0.037
-525.004	197.671	-0.243	-0.367
-523.989	0.065	0.201	0.142
-522.975	-160.834	-0.431	-0.023
-521.960	91.660	0.092	0.103
-520.945	329.148	0.244	0.464
-519.931	-29.378	-0.173	0.098
-518.916	-52.051	-0.315	-0.145
-517.902	43.166	-0.337	-0.304
-516.887	-16.059	-0.096	0.060
-515.872	86.368	-0.160	0.174
-514.858	-26.589	0.184	-0.107
-513.843	-48.923	-0.172	0.082
-512.829	92.559	-0.158	-0.176
-511.814	800.000	0.068	-0.219
-510.799	-177.588	0.394	-0.009
-509.785	-147.550	-0.129	-0.011
-508.770	87.800	0.089	-0.098
-507.756	-161.533	-0.253	-0.013
-506.741	-200.000	-0.035	0.244
-505.726	111.710	-0.082	-0.098
-504.712	-200.000	0.031	-0.139
-503.697	260.287	-0.026	-0.045
-502.683	-20.079	0.128	0.078
-501.668	-38.458	0.220	0.115
-500.653	-200.000	-0.002	-0.249
-499.639	-80.270	0.346	-0.114
-498.624	571.850	-0.014	-0.034
-497.610	46.728	0.161	0.147
-496.595	134.850	-0.045	0.058
-495.581	-92.633	0.334	-0.092
-494.566	-125.753	-0.219	-0.033
-493.551	-77.185	-0.104	-0.036
-492.537	-115.723	-0.415	0.077
-491.522	-200.000	-0.000	-0.368
-490.508	-147.796	0.239	0.020
-489.493	-136.977	0.225	0.025
-488.478	-178.994	0.173	-0.004
-487.464	-200.000	-0.001	-0.118
-486.449	800.000	-0.042	0.165
-485.435	800.000	-0.110	-0.403
-484.420	-112.911	0.239	-0.047
-483.405	800.000	0.018	0.079
-482.391	131.007	0.051	0.065
-481.376	-131.986	-0.278	0.036
-480.362	800.000	-0.130	0.476
-479.347	34.973	-0.297	0.256
-478.332	-81.366	-0.093	0.030
-477.318	17.846	0.284	-0.223
-476.303	26.841	-0.221	-0.183
-475.289	-86.679	0.173	0.052
-474.274	-200.000	0.035	0.351
-473.259	800.000	0.026	0.108
-472.245	-83.176	-0.118	0.037
-471.230	593.736	-0.044	-0.106
-470.216	-200.000	-0.010	-0.359
-469.201	612.693	-0.093	0.230
-468.186	45.189	0.242	0.220
-467.172	-170.483	0.170	0.006
-466.157	40.949	0.123	-0.110
-465.143	-58.905	-0.120	0.051
-464.128	53.492	-0.202	-0.192
-463.113	-175.192	-0.041	0.001
-462.099	-11.200	-0.344	-0.224
-461.084	-97.458	0.109	0.028
-460.070	-200.000	-0.010	0.196
-459.055	-105.827	0.130	0.029
-458.040	303.527	-0.028	0.051
-457.026	238.832	0.113	-0.185
-456.011	-1.892	0.146	0.101
-454.997	-113.981	-0.097	0.019
-453.982	525.886	0.110	-0.256
-452.968	800.000	0.037	-0.116
-451.953	-62.051	0.295	-0.121
-450.938	73.749	0.175	0.181
-449.924	-200.000	-0.046	-0.207
-448.909	99.345	-0.263	-0.300
-447.895	559.652	-0.069	0.164
-446.880	-142.609	-0.277	0.027
-445.865	-200.000	-0.012	-0.252
-444.851	-200.000	0.014	0.391
-443.836	-10.515	0.121	-0.079
-442.822	-83.279	0.154	0.049
-441.807	800.000	-0.070	0.222
-440.792	-147.845	-0.123	0.010
-439.778	-200.000	0.039	0.289
-438.763	-200.000	-0.017	0.097
-437.749	-200.000	-0.004	-0.176
-436.734	165.567	-0.132	0.185
-435.719	-75.606	0.500	-0.175
-434.705	800.000	0.092	0.261
-433.690	398.134	-0.104	0.215
-432.676	-97.753	0.023	-0.006
-431.661	67.660	-0.303	-0.305
-430.646	633.037	-0.061	-0.151
-429.632	-53.218	-0.167	-0.075
-428.617	156.286	0.103	0.139
-427.603	159.258	-0.118	0.162
-426.588	-120.962	-0.352	0.058
-425.573	-200.000	0.023	-0.201
-424.559	505.300	-0.097	0.221
-423.544	252.941	-0.173	0.291
-422.530	-200.000	-0.029	-0.324
-421.515	-7.842	0.230	0.153
-420.500	63.887	-0.053	0.053
-419.486	208.074	0.140	0.215
-418.471	-184.745	0.155	0.002
-417.457	-9.686	0.114	0.075
-416.442	-80.228	0.421	-0.139
-415.428	-200.000	0.010	-0.458
-414.413	-99.249	-0.203	0.050
-413.398	-57.084	0.353	-0.153
-412.384	-200.000	-0.021	-0.148
-411.369	-94.101	0.031	0.008
-410.355	800.000	0.156	-0.433
-409.340	-31.469	0.179	-0.099
-408.325	35.804	-0.176	0.152
-407.311	14.092	0.250	-0.192
-406.296	800.000	0.084	-0.235
-405.282	-200.000	0.014	0.224
-404.267	-114.683	-0.303	-0.057
-403.252	-51.182	0.147	-0.068
-402.238	133.249	0.013	-0.016
-401.223	800.000	-0.064	0.260
-400.209	-9.369	-0.197	-0.130
-399.194	-200.000	0.027	-0.229
-398.179	-200.000	0.034	-0.193
-397.165	800.000	0.075	0.292
-396.150	-37.251	-0.093	0.049
-395.136	800.000	-0.097	-0.409
-394.121	-200.000	0.029	-0.533
-393.106	-200.000	0.093	-0.428
-392.092	160.972	0.121	0.167
-391.077	800.000	0.084	-0.318
-390.063	-132.428	-0.051	0.006
-389.048	633.954	0.070	-0.174
-388.033	-147.667	-0.141	-0.012
-387.019	257.454	-0.189	0.320
-386.004	-200.000	-0.009	-0.061
-384.990	592.013	-0.154	-0.374
-383.975	370.977	0.088	-0.176
-382.960	-180.206	-0.072	0.001
-381.946	-1.614	0.163	-0.113
-380.931	-83.746	0.201	-0.063
-379.917	102.791	-0.058	0.067
-378.902	-92.620	0.201	0.055
-377.888	-200.000	-0.024	0.144
-376.873	204.967	0.068	-0.104
-375.858	35.027	-0.099	-0.085
-374.844	-28.552	0.134	0.076
-373.829	-79.765	0.114	0.038
-372.815	800.000	-0.092	-0.271
-371.800	51.191	0.014	-0.013
-370.785	-52.410	-0.165	0.075
-369.771	800.000	-0.004	-0.017
-368.756	-70.345	0.160	0.059
-367.742	0.735	-0.181	0.128
-366.727	122.985	-0.137	-0.168
-365.712	-103.808	-0.190	-0.044
-364.698	-29.215	0.126	0.071
-363.683	800.000	0.058	-0.163
-362.669	-4.501	-0.322	-0.218
-361.654	99.011	0.111	0.126
-360.639	85.388	-0.223	-0.241
-359.625	155.463	-0.141	0.190
-358.610	181.344	0.258	0.373
-357.596	-115.292	-0.186	-0.034
-356.581	-200.000	-0.003	-0.089
-355.566	-61.949	0.096	0.040
-354.552	-135.468	0.224	0.026
-353.537	-24.427	0.240	-0.140
-352.523	-9.971	0.231	0.151
-351.508	796.809	-0.030	-0.082
-350.493	98.946	-0.455	-0.516
-349.479	18.468	-0.149	0.117
-348.464	-200.000	0.020	-0.113
-347.450	-50.374	-0.105	-0.049
-346.435	-200.000	0.013	0.311
-345.420	-83.892	-0.088	0.027
-344.406	-72.013	-0.171	0.063
-343.391	-200.000	-0.057	-0.395
-342.377	472.759	-0.104	-0.231
-341.362	-200.000	0.021	0.159
-340.348	-200.000	-0.011	-0.086
-339.333	38.962	0.196	0.172
-338.318	-80.726	0.098	-0.032
-337.304	674.053	0.118	0.301
-336.289	800.000	-0.096	0.263
-335.275	-200.000	0.046	0.285
-334.260	-24.103	-0.198	-0.116
-333.245	59.477	-0.272	-0.263
-332.231	-157.233	-0.062	0.004
-331.216	-52.633	-0.136	-0.062
-330.202	-177.463	-0.130	0.003
-329.187	-46.198	-0.048	0.023
-328.172	-143.423	0.074	0.007
-327.158	-52.505	0.182	-0.083
-326.143	172.081	-0.114	-0.160
-325.129	-200.000	0.112	-0.484
-324.114	-100.196	-0.321	0.078
-323.099	-128.727	0.107	0.015
-322.085	800.000	-0.087	-0.250
-321.070	-10.026	0.215	0.140
-320.056	800.000	-0.090	0.357
-319.041	800.000	-0.006	0.022
-318.026	-37.539	-0.409	-0.214
-317.012	94.615	0.130	0.145
-315.997	-200.000	0.022	0.214
-314.983	38.161	0.118	-0.103
-313.968	33.146	0.172	0.146
-312.953	364.672	0.143	0.283
-311.939	-200.000	0.016	0.089
-310.924	374.949	-0.063	-0.125
-309.910	-132.643	-0.290	0.036
-308.895	-28.862	0.113	0.064
-307.880	144.734	0.068	0.089
-306.866	-200.000	0.011	-0.291
-305.851	-102.172	-0.213	0.050
-304.837	14.831	0.385	0.295
-303.822	-45.739	0.114	0.055
-302.807	62.511	0.176	-0.173
-301.793	-200.000	0.043	-0.194
-300.778	24.509	-0.271	0.220
-299.764	-200.000	-0.024	0.214
-298.749	410.789	0.063	-0.132
-297.735	-101.835	0.101	-0.024
-296.720	-200.000	-0.016	0.074
-295.705	219.698	0.008	-0.013
-294.691	-200.000	0.039	0.209
-293.676	800.000	-0.059	-0.236
-292.662	-200.000	-0.003	-0.093
-291.647	340.957	0.161	-0.308
-290.632	-54.189	0.329	0.146
-289.618	-11.285	-0.109	-0.070
-288.603	93.944	-0.162	-0.180
-287.589	-95.839	0.209	0.055
-286.574	192.441	-0.172	-0.254
-285.559	-79.632	-0.191	0.063
-284.545	55.143	0.093	-0.088
-283.530	-4.582	-0.500	0.338
-282.516	-111.002	0.213	-0.043
-281.501	677.477	0.106	-0.269
-280.486	-111.332	0.141	0.028
-279.472	15.470	0.167	-0.128
-278.457	-200.000	0.007	-0.067
-277.443	445.035	-0.106	-0.227
-276.428	800.000	0.060	-0.205
-275.413	118.607	0.183	0.222
-274.399	-118.198	0.067	-0.012
-273.384	351.491	0.073	0.142
-272.370	67.742	0.123	0.123
-271.355	-200.000	-0.111	0.000
-270.340	134.557	-0.094	0.119
-269.326	-42.645	0.070	0.035
-268.311	-200.000	0.019	0.226
-267.297	-137.294	-0.187	-0.021
-266.282	120.714	0.152	0.184
-265.267	800.000	0.092	-0.270
-264.253	800.000	-0.054	0.220
-263.238	163.933	0.029	0.040
-262.224	151.872	-0.047	0.062
-261.209	-100.499	0.144	0.035
-260.195	-200.000	0.009	0.319
-259.180	-60.520	0.248	0.103
-258.165	73.675	0.149	-0.153
-257.151	37.232	0.275	-0.238
-256.136	-58.467	0.257	-0.109
-255.122	800.000	0.004	0.013
-254.107	180.518	0.161	0.231
-253.092	176.933	0.064	-0.091
-252.078	-200.000	-0.020	-0.117
-251.063	108.240	0.053	-0.062
-250.049	73.274	-0.243	-0.249
-249.034	-15.733	-0.123	0.077
-248.019	-129.047	0.217	-0.030
-247.005	800.000	-0.060	-0.218
-245.990	-13.691	0.439	-0.278
-244.976	75.143	0.102	0.105
-243.961	-83.307	-0.157	0.049
-242.946	36.529	0.194	0.167
-241.932	383.318	0.081	0.163
-240.917	173.449	0.035	0.049
-239.903	229.562	-0.099	0.158
-238.888	-119.830	0.056	-0.009
-237.873	-136.268	0.354	-0.040
-236.859	24.795	-0.163	0.132
-235.844	-130.672	0.152	0.020
-234.830	-46.428	0.121	0.058
-233.815	284.444	-0.261	-0.459
-232.800	-99.510	0.247	0.061
-231.786	496.325	0.114	0.257
-230.771	800.000	-0.115	0.337
-229.757	800.000	-0.119	-0.353
-228.742	-200.000	0.093	-0.451
-227.727	-91.991	-0.140	-0.039
-226.713	-34.996	0.075	0.040
-225.698	9.080	-0.229	0.169
-224.684	800.000	0.062	-0.210
-223.669	233.470	0.072	-0.115
-222.655	-46.116	-0.208	-0.100
-221.640	111.069	0.072	-0.084
-220.625	40.617	-0.136	0.120
-219.611	84.046	0.164	0.176
-218.596	3.538	0.370	0.263
-217.582	70.420	-0.213	0.215
-216.567	800.000	-0.065	0.236
-215.552	-9.274	-0.128	-0.084
-214.538	800.000	-0.002	-0.010
-213.523	-55.295	-0.293	-0.129
-212.509	800.000	-0.049	0.186
-211.494	-106.956	0.155	0.034
-210.479	55.999	-0.043	0.041
-209.465	-22.491	0.295	0.174
-208.450	61.525	0.297	-0.288
-207.436	70.585	0.110	0.111
-206.421	159.191	-0.100	0.135
-205.406	800.000	0.108	0.302
-204.392	800.000	0.059	0.183
-203.377	-36.688	0.228	-0.120
-202.363	71.550	-0.163	-0.165
-201.348	800.000	0.062	-0.196
-200.333	-108.072	-0.382	-0.081
-199.319	-56.555	-0.026	-0.011
-198.304	71.632	-0.244	-0.247
-197.290	-200.000	0.053	0.285
-196.275	800.000	0.086	-0.336
-195.260	75.974	-0.266	0.274
-194.246	583.940	-0.109	0.261
-193.231	800.000	-0.045	0.191
-192.217	-23.446	0.159	0.093
-191.202	-80.778	-0.107	-0.035
-190.187	800.000	0.131	0.542
-189.173	272.845	0.088	0.152
-188.158	800.000	-0.084	0.285
-187.144	-200.000	-0.018	0.102
-186.129	-78.423	0.286	0.096
-185.114	-89.929	0.154	-0.044
-184.100	83.386	-0.025	0.027
-183.085	131.644	0.277	0.348
-182.071	601.009	-0.192	0.466
-181.056	29.021	-0.134	0.111
-180.042	-2.540	0.145	-0.099
-179.027	-200.000	0.005	0.287
-178.012	-200.000	-0.002	-0.142
-176.998	84.826	-0.178	-0.190
-175.983	-200.000	-0.053	0.318
-174.969	723.740	-0.068	-0.177
-173.954	-116.640	-0.056	0.010
-172.939	71.674	0.149	-0.151
-171.925	-88.929	0.566	-0.164
-170.910	-27.927	0.081	-0.046
-169.896	-62.044	-0.104	0.042
-168.881	-95.428	-0.270	-0.071
-167.866	-151.667	0.136	0.010
-166.852	263.073	-0.068	0.115
-165.837	219.747	-0.104	-0.162
-164.823	301.447	0.114	0.205
-163.808	476.637	-0.077	0.170
-162.793	-200.000	-0.026	0.362
-161.779	800.000	0.134	-0.383
-160.764	-155.983	-0.414	-0.026
-159.750	94.219	0.215	0.238
-158.735	290.923	0.103	-0.183
-157.720	-200.000	-0.027	0.143
-156.706	-185.053	0.189	0.003
-155.691	250.568	0.162	0.268
-154.677	61.784	0.295	0.287
-153.662	-200.000	0.038	-0.226
-152.647	364.825	-0.042	-0.082
-151.633	138.310	-0.136	0.174
-150.618	421.630	-0.123	0.258
-149.604	-90.583	0.125	-0.035
-148.589	30.713	0.056	-0.046
-147.574	442.589	0.105	-0.225
-146.560	-200.000	-0.127	0.554
-145.545	691.422	0.011	0.028
-144.531	-200.000	-0.029	0.212
-143.516	233.611	0.230	0.369
-142.502	-117.762	0.114	-0.020
-141.487	81.816	-0.097	0.102
-140.472	102.766	-0.060	0.068
-139.458	24.219	0.187	0.151
-138.443	291.906	-0.107	-0.190
-137.429	800.000	0.060	-0.215
-136.414	-200.000	-0.107	0.476
-135.399	569.661	-0.036	-0.085
-134.385	62.529	0.112	0.109
-133.370	484.409	-0.049	-0.108
-132.356	800.000	-0.058	-0.198
-131.341	111.185	-0.117	0.137
-130.326	-200.000	-0.027	0.253
-129.312	621.602	-0.029	-0.072
-128.297	-180.338	0.135	-0.003
-127.283	33.772	-0.229	0.194
-126.268	139.771	-0.109	-0.140
-125.253	-200.000	0.025	-0.391
-124.239	-108.111	0.126	0.027
-123.224	800.000	-0.074	-0.219
-122.210	-200.000	-0.002	-0.134
-121.195	-82.389	-0.051	-0.016
