DTS Sentinel unit serial number:	SN413079Multiplexer serial number:	ORYXHardware model number:	OX4-SRSoftware version number:	ORYX F/W v4.00 Oryx Data Collector v3.7.2.0data status	okinstallation	princeton_trtdifferential loss correction	single-endedforward channel	channel 2reverse channel	N/Adate	2019/09/12time	18:08:49forward acquisition time	15.00reverse acquisition time	0.00gamma	496.2192k internal	0.2323k external	0.2323temperature offset calibration	1.0135default loss term (dB/km)	0.3790temperature slope calibration	1.0000multiplexer offset coefficient	1.0000multiplexer slope coefficient	1.0000fibre end	0.00T internal ref (°C)	33.62T ext. ref 1 (°C)	2.92T ext. ref 2 (°C)	28.03length (m)	temperature (°C)	Stokes	anti-Stokes-747.200	-144.685	-0.628	-0.058
-746.185	-200.000	0.056	0.297
-745.171	157.694	-0.325	-0.454
-744.156	-3.674	-0.293	-0.205
-743.142	-147.011	0.665	-0.058
-742.127	65.254	-0.236	-0.241
-741.112	32.448	0.356	-0.311
-740.098	506.550	0.252	0.589
-739.083	107.198	0.282	-0.338
-738.069	800.000	0.030	0.091
-737.054	-129.074	0.146	-0.021
-736.039	238.049	0.246	0.413
-735.025	70.382	0.512	0.534
-734.010	800.000	0.144	-0.416
-732.996	275.388	-0.421	0.753
-731.981	164.922	-0.285	0.406
-730.966	-69.487	-0.190	0.073
-729.952	-159.541	0.311	0.017
-728.937	-108.237	0.758	-0.165
-727.923	-70.151	-0.706	-0.271
-726.908	128.606	0.437	-0.561
-725.894	800.000	0.220	-0.666
-724.879	-22.848	-0.562	0.342
-723.864	397.293	0.130	-0.275
-722.850	107.780	0.344	0.413
-721.835	207.751	-0.545	-0.858
-720.821	-85.100	-0.556	-0.176
-719.806	54.699	0.247	-0.241
-718.791	498.493	0.141	0.328
-717.777	800.000	-0.045	-0.129
-716.762	-69.503	0.609	-0.236
-715.748	-12.279	-0.907	0.598
-714.733	800.000	-0.259	1.076
-713.718	-200.000	-0.111	0.511
-712.704	-116.130	-0.246	0.046
-711.689	-200.000	0.019	0.493
-710.675	463.851	-0.296	0.668
-709.660	800.000	0.135	0.582
-708.645	-200.000	-0.024	-0.569
-707.631	45.819	0.298	-0.278
-706.616	-131.750	-0.590	-0.078
-705.602	800.000	0.139	0.468
-704.587	276.974	0.415	0.743
-703.572	-35.106	-0.502	0.276
-702.558	701.874	0.281	0.747
-701.543	-200.000	0.140	-0.675
-700.529	-15.453	0.588	0.379
-699.514	167.268	0.227	-0.325
-698.499	800.000	0.019	-0.078
-697.485	-72.098	-0.427	0.160
-696.470	-62.419	0.427	0.179
-695.456	42.925	-0.452	0.415
-694.441	13.081	0.534	0.417
-693.426	-200.000	-0.016	0.139
-692.412	-143.790	-0.364	-0.035
-691.397	-68.964	1.106	-0.430
-690.383	68.555	-0.181	-0.187
-689.368	-132.501	-0.413	-0.054
-688.354	-145.769	0.304	0.027
-687.339	800.000	0.208	0.891
-686.324	12.039	-0.721	0.559
-685.310	98.490	-0.196	0.228
-684.295	800.000	-0.038	-0.153
-683.281	-158.866	-0.611	-0.035
-682.266	-200.000	-0.746	0.000
-681.251	-111.125	-0.481	0.099
-680.237	-200.000	0.046	0.351
-679.222	800.000	-0.188	0.709
-678.208	800.000	-0.096	0.298
-677.193	116.919	0.144	-0.178
-676.178	364.515	0.015	0.030
-675.164	563.505	-0.239	0.584
-674.149	-54.269	-0.381	-0.174
-673.135	-200.000	0.051	-0.328
-672.120	128.539	0.296	-0.379
-671.105	36.470	-0.273	0.242
-670.091	776.233	0.143	0.393
-669.076	53.481	0.165	0.159
-668.062	-131.031	0.451	0.061
-667.047	732.390	-0.273	-0.737
-666.032	-62.507	0.674	0.282
-665.018	-107.291	-0.513	0.114
-664.003	-200.000	-0.041	0.690
-662.989	241.398	-0.498	0.837
-661.974	19.742	-0.181	-0.147
-660.959	-200.000	-0.012	-0.534
-659.945	-73.096	0.166	0.061
-658.930	390.540	0.169	-0.353
-657.916	-200.000	0.062	0.488
-656.901	265.213	-0.081	0.141
-655.886	214.633	-0.148	0.236
-654.872	47.514	-0.422	0.396
-653.857	202.822	-0.381	-0.593
-652.843	-50.450	-0.451	-0.214
-651.828	-7.461	-0.639	-0.435
-650.814	-133.827	-0.268	0.034
-649.799	132.888	-0.130	0.169
-648.784	33.891	0.449	0.393
-647.770	-200.000	0.192	-0.897
-646.755	682.247	0.164	0.429
-645.741	404.298	-0.129	-0.272
-644.726	800.000	0.132	0.507
-643.711	-91.418	1.105	-0.317
-642.697	473.221	0.052	0.118
-641.682	-200.000	0.011	-0.345
-640.668	733.913	-0.223	-0.600
-639.653	-112.314	-0.798	0.161
-638.638	800.000	-0.131	0.572
-637.624	-200.000	-0.229	1.234
-636.609	68.242	-0.233	-0.240
-635.595	55.154	-0.309	0.300
-634.580	27.282	-0.179	-0.151
-633.565	-21.190	-0.475	-0.292
-632.551	13.366	0.219	0.171
-631.536	800.000	-0.176	-0.643
-630.522	490.402	0.647	1.488
-629.507	-172.937	-0.367	-0.011
-628.492	156.601	-0.043	-0.060
-627.478	317.912	-0.257	0.489
-626.463	-73.496	-0.236	0.087
-625.449	-200.000	0.080	-0.673
-624.434	536.823	-0.100	0.239
-623.419	-41.657	-0.178	-0.092
-622.405	-51.801	0.025	-0.012
-621.390	44.118	0.261	0.240
-620.376	-136.866	-0.587	-0.068
-619.361	77.240	0.625	0.668
-618.346	-20.592	0.772	-0.477
-617.332	23.531	0.576	-0.476
-616.317	-200.000	0.058	-0.740
-615.303	238.997	-0.231	0.386
-614.288	164.477	-0.087	-0.123
-613.273	218.984	-0.612	-0.983
-612.259	-88.133	0.757	-0.228
-611.244	-53.074	0.118	0.055
-610.230	800.000	-0.072	-0.225
-609.215	-47.094	0.570	-0.279
-608.201	-200.000	-0.018	0.282
-607.186	81.474	-0.397	0.431
-606.171	-200.000	-0.149	1.099
-605.157	-200.000	0.133	0.646
-604.142	574.111	0.186	-0.457
-603.128	-200.000	-0.014	0.473
-602.113	-200.000	0.057	-0.547
-601.098	-200.000	0.036	0.196
-600.084	-200.000	0.006	0.175
-599.069	80.036	0.318	0.343
-598.055	800.000	0.106	0.375
-597.040	121.063	-0.216	-0.269
-596.025	-75.991	0.437	-0.155
-595.011	-63.107	-0.320	-0.133
-593.996	-22.434	-0.420	0.255
-592.982	50.543	0.308	-0.292
-591.967	800.000	0.150	-0.524
-590.952	153.185	0.447	-0.614
-589.938	275.962	-0.530	0.944
-588.923	491.353	0.166	-0.383
-587.909	-78.425	0.457	0.157
-586.894	-200.000	0.004	-0.237
-585.879	247.639	-0.603	1.023
-584.865	298.031	-0.190	-0.351
-583.850	-116.594	0.327	-0.060
-582.836	-101.325	0.651	0.159
-581.821	-200.000	0.174	0.806
-580.806	266.277	0.257	0.451
-579.792	800.000	-0.043	-0.150
-578.777	-47.653	0.311	-0.151
-577.763	800.000	-0.157	0.509
-576.748	10.795	-0.617	0.472
-575.733	201.540	0.372	0.575
-574.719	800.000	0.125	0.417
-573.704	800.000	-0.106	-0.342
-572.690	91.930	-0.496	-0.560
-571.675	-200.000	-0.122	-0.634
-570.661	-159.186	-0.723	0.041
-569.646	308.015	0.328	0.614
-568.631	800.000	0.118	0.515
-567.617	-45.770	0.295	-0.146
-566.602	-78.336	-0.548	-0.189
-565.588	800.000	0.207	-0.624
-564.573	-43.594	0.260	-0.132
-563.558	-200.000	0.021	0.308
-562.544	800.000	0.089	-0.339
-561.529	47.800	0.324	0.303
-560.515	77.531	0.633	0.675
-559.500	-122.450	0.506	-0.083
-558.485	-22.581	0.302	0.183
-557.471	254.082	0.425	-0.728
-556.456	-69.863	-0.803	0.307
-555.442	-73.069	1.128	0.415
-554.427	-200.000	0.020	0.259
-553.412	-28.027	-0.259	-0.150
-552.398	-192.470	-0.353	-0.003
-551.383	332.657	-0.026	-0.051
-550.369	277.003	0.397	0.707
-549.354	-200.000	0.093	-0.532
-548.339	102.860	-0.257	-0.302
-547.325	-122.475	-0.899	0.147
-546.310	172.203	0.424	-0.611
-545.296	-64.759	0.118	0.048
-544.281	100.408	0.512	-0.596
-543.266	-32.378	-0.174	0.097
-542.252	-140.743	0.465	0.048
-541.237	262.443	-0.309	-0.538
-540.223	26.089	0.321	0.268
-539.208	13.614	0.267	-0.208
-538.193	-124.047	-0.326	-0.051
-537.179	62.399	-0.236	-0.236
-536.164	-200.000	0.032	-0.157
-535.150	-80.488	0.438	0.146
-534.135	674.238	-0.389	1.011
-533.121	383.281	-0.057	-0.117
-532.106	80.094	-0.290	0.313
-531.091	-13.295	0.013	0.009
-530.077	-56.742	-0.784	-0.347
-529.062	-4.142	-0.794	-0.551
-528.048	-124.338	0.931	-0.146
-527.033	-3.272	-0.331	0.231
-526.018	-200.000	-0.039	0.277
-525.004	324.037	-0.107	0.204
-523.989	-57.919	-0.427	-0.187
-522.975	800.000	-0.131	-0.371
-521.960	-200.000	-0.154	-0.975
-520.945	800.000	-0.138	-0.528
-519.931	17.815	0.586	-0.467
-518.916	-144.311	0.287	-0.027
-517.902	16.385	-0.394	-0.311
-516.887	132.832	0.595	-0.768
-515.872	56.403	-0.446	-0.434
-514.858	-60.747	0.517	-0.219
-513.843	-23.394	0.853	-0.513
-512.829	-200.000	-0.047	-0.273
-511.814	54.444	-0.406	0.391
-510.799	302.745	-0.149	-0.277
-509.785	-103.118	0.633	-0.150
-508.770	800.000	-0.253	0.733
-507.756	97.822	0.291	-0.335
-506.741	800.000	0.188	0.692
-505.726	800.000	0.167	-0.486
-504.712	-200.000	-0.060	-1.633
-503.697	113.238	-0.612	-0.743
-502.683	99.602	-0.562	-0.651
-501.668	44.581	-0.364	-0.335
-500.653	800.000	-0.073	-0.227
-499.639	109.647	0.310	-0.372
-498.624	-72.567	-0.949	0.351
-497.610	-56.265	-0.634	-0.282
-496.595	191.941	0.258	-0.389
-495.581	-68.618	-0.617	-0.239
-494.566	-17.734	0.520	-0.327
-493.551	-110.632	0.389	0.080
-492.537	160.438	0.789	-1.101
-491.522	23.076	0.193	-0.158
-490.508	800.000	-0.108	0.305
-489.493	-71.251	-0.458	0.172
-488.478	-200.000	-0.010	0.152
-487.464	-54.567	-0.314	0.142
-486.449	-34.849	-0.208	0.114
-485.435	-76.278	-0.167	-0.059
-484.420	-200.000	-0.185	-1.055
-483.405	168.718	-0.155	-0.220
-482.391	800.000	-0.163	-0.594
-481.376	-200.000	0.002	-0.160
-480.362	130.781	0.399	0.511
-479.347	-81.747	-0.731	-0.240
-478.332	82.996	-0.149	0.162
-477.318	-200.000	-0.109	-1.113
-476.303	214.677	0.229	-0.362
-475.289	800.000	-0.046	0.171
-474.274	-88.823	0.464	0.138
-473.259	125.674	0.323	-0.407
-472.245	12.387	0.298	-0.229
-471.230	-115.505	-0.396	0.074
-470.216	-23.960	-0.805	0.481
-469.201	-200.000	0.012	0.260
-468.186	13.349	-0.151	-0.117
-467.172	-115.738	0.599	0.112
-466.157	-22.187	0.292	0.177
-465.143	-200.000	-0.045	-0.327
-464.128	-41.740	-0.701	0.359
-463.113	-53.576	0.553	-0.253
-462.099	-137.005	-0.336	0.038
-461.084	-114.106	0.441	-0.085
-460.070	800.000	-0.090	0.328
-459.055	-200.000	0.110	0.546
-458.040	-200.000	0.031	-0.509
-457.026	-200.000	0.023	-0.756
-456.011	138.647	-0.478	0.627
-454.997	800.000	0.067	0.210
-453.982	-42.354	-0.199	0.101
-452.968	800.000	-0.196	-0.787
-451.953	282.215	0.233	0.418
-450.938	-53.991	-0.191	-0.087
-449.924	-114.465	-0.373	-0.071
-448.909	-162.924	1.326	0.064
-447.895	16.013	-0.432	-0.340
-446.880	467.918	0.511	-1.143
-445.865	-200.000	0.042	-0.396
-444.851	-200.000	-0.161	0.761
-443.836	-83.791	0.478	-0.152
-442.822	12.854	0.436	-0.336
-441.807	641.787	0.423	1.075
-440.792	13.125	0.334	-0.258
-439.778	-134.570	1.052	0.128
-438.763	-145.648	0.516	-0.046
-437.749	-48.962	-0.407	-0.194
-436.734	-156.235	0.782	-0.049
-435.719	463.842	-0.141	-0.315
-434.705	-57.742	0.187	-0.082
-433.690	230.787	0.349	-0.570
-432.676	-10.620	0.760	-0.502
-431.661	-121.617	-0.520	0.086
-430.646	-47.869	-0.681	0.329
-429.632	75.488	-0.201	-0.212
-428.617	17.639	-0.582	-0.462
-427.603	-67.261	-0.429	0.169
-426.588	800.000	-0.080	0.340
-425.573	677.623	-0.220	-0.572
-424.559	-20.431	0.693	0.425
-423.544	800.000	-0.173	0.628
-422.530	56.926	-0.214	-0.208
-421.515	-200.000	-0.020	-0.318
-420.500	210.551	0.215	-0.336
-419.486	127.002	-0.365	0.462
-418.471	64.822	-0.257	-0.259
-417.457	-54.693	-0.591	-0.266
-416.442	-2.696	0.181	-0.126
-415.428	-200.000	-0.125	0.584
-414.413	-146.297	-0.370	-0.032
-413.398	-45.288	0.592	0.293
-412.384	-63.879	-0.290	0.118
-411.369	-45.388	0.310	-0.153
-410.355	80.076	-0.267	-0.286
-409.340	-200.000	0.004	0.271
-408.325	63.713	-0.219	0.219
-407.311	93.555	0.208	-0.235
-406.296	-107.739	-0.583	0.127
-405.282	108.382	-0.477	-0.567
-404.267	54.306	0.788	-0.756
-403.252	176.860	-0.159	-0.231
-402.238	123.797	-0.313	-0.392
-401.223	-96.002	-0.828	-0.220
-400.209	-54.050	0.778	0.353
-399.194	-49.187	0.333	0.159
-398.179	-88.780	0.381	-0.113
-397.165	-158.069	0.780	-0.046
-396.150	-200.000	-0.078	-0.705
-395.136	-32.983	0.322	0.178
-394.121	95.534	0.067	0.076
-393.106	488.014	-0.346	0.786
-392.092	800.000	-0.275	1.090
-391.077	384.709	-0.127	0.260
-390.063	-142.557	-0.643	-0.063
-389.048	-4.030	0.428	0.296
-388.033	-87.206	-0.956	-0.289
-387.019	-92.843	-0.058	0.016
-386.004	-100.478	1.118	0.276
-384.990	800.000	-0.151	0.539
-383.975	-200.000	0.132	0.626
-382.960	-105.005	-0.572	-0.131
-381.946	-115.767	0.972	-0.181
-380.931	120.214	-0.125	-0.155
-379.917	-200.000	0.043	-0.188
-378.902	-144.905	-0.425	0.039
-377.888	-200.000	0.086	0.379
-376.873	800.000	-0.092	0.343
-375.858	-114.237	0.599	0.115
-374.844	-33.343	0.414	-0.228
-373.829	25.253	-0.287	0.237
-372.815	21.413	-0.984	-0.796
-371.800	144.633	0.410	-0.545
-370.785	-183.917	0.229	-0.004
-369.771	159.999	-0.263	0.365
-368.756	90.096	-0.318	-0.353
-367.742	581.315	-0.204	0.496
-366.727	407.657	0.316	0.665
-365.712	-118.125	-0.557	0.099
-364.698	109.546	0.261	0.311
-363.683	-200.000	0.052	0.326
-362.669	120.346	0.265	-0.327
-361.654	60.095	0.094	-0.093
-360.639	8.370	-0.277	0.207
-359.625	-150.065	-0.453	0.035
-358.610	-44.983	0.298	-0.148
-357.596	15.664	-0.311	-0.244
-356.581	-75.141	-0.717	-0.255
-355.566	-50.207	0.550	0.259
-354.552	-124.420	0.099	0.015
-353.537	25.129	0.473	-0.390
-352.523	82.682	-0.153	-0.165
-351.508	-200.000	0.017	-0.352
-350.493	38.869	-0.462	0.411
-349.479	-60.324	-0.217	-0.092
-348.464	-86.419	0.149	0.046
-347.450	-200.000	-0.039	-0.250
-346.435	331.726	-0.202	-0.388
-345.420	56.167	0.571	-0.551
-344.406	-200.000	0.048	-0.677
-343.391	-151.685	0.857	0.063
-342.377	-26.179	0.283	0.165
-341.362	29.367	-0.514	0.434
-340.348	129.803	-0.406	0.516
-339.333	53.326	0.352	0.335
-338.318	800.000	0.177	0.530
-337.304	-200.000	-0.076	1.215
-336.289	81.147	-0.522	-0.560
-335.275	800.000	-0.168	0.471
-334.260	-197.347	-0.845	-0.005
-333.245	-69.786	-0.245	-0.093
-332.231	142.589	0.830	1.096
-331.216	67.163	-0.265	0.268
-330.202	175.130	-0.499	-0.719
-329.187	-200.000	0.001	0.503
-328.172	800.000	-0.117	0.465
-327.158	-59.549	-0.284	-0.121
-326.143	106.881	-0.808	0.953
-325.129	41.730	-0.793	0.714
-324.114	-200.000	-0.172	-0.766
-323.099	-45.804	0.476	-0.234
-322.085	-157.745	1.387	-0.082
-321.070	55.996	-0.175	0.168
-320.056	-200.000	-0.021	-0.791
-319.041	800.000	0.212	0.656
-318.026	-119.767	0.560	-0.096
-317.012	-132.424	-0.377	0.048
-315.997	-132.837	1.093	0.138
-314.983	-59.848	-0.478	-0.203
-313.968	191.034	0.025	0.037
-312.953	260.022	0.336	0.577
-311.939	-21.722	0.145	-0.087
-310.924	11.387	0.308	0.234
-309.910	-200.000	-0.047	0.546
-308.895	296.929	-0.130	0.237
-307.880	-200.000	-0.022	0.184
-306.866	800.000	-0.134	-0.500
-305.851	-102.709	0.571	-0.135
-304.837	-6.101	-0.650	-0.441
-303.822	-130.174	-0.436	-0.059
-302.807	-116.292	0.676	-0.124
-301.793	83.812	-0.341	-0.369
-300.778	-131.158	0.331	-0.044
-299.764	-159.509	0.547	0.030
-298.749	63.444	-0.606	0.603
-297.735	185.953	0.104	0.153
-296.720	-200.000	-0.171	-0.889
-295.705	58.902	0.437	0.426
-294.691	800.000	-0.136	0.374
-293.676	-114.208	-0.535	0.103
-292.662	-200.000	0.164	-0.907
-291.647	-135.311	-0.808	-0.096
-290.632	5.968	0.314	-0.231
-289.618	-81.307	0.309	-0.101
-288.603	-8.911	0.277	0.184
-287.589	-200.000	-0.132	-0.620
-286.574	800.000	0.094	-0.302
-285.559	-127.986	-0.256	0.036
-284.545	-92.652	-0.590	0.164
-283.530	680.264	-0.420	-1.085
-282.516	-42.086	-0.293	0.149
-281.501	-141.358	0.752	-0.076
-280.486	-146.416	0.133	-0.012
-279.472	-16.574	-0.800	-0.503
-278.457	29.690	-0.136	-0.115
-277.443	-200.000	-0.005	0.373
-276.428	135.533	-0.565	0.729
-275.413	36.244	0.434	-0.380
-274.399	147.757	-0.393	0.525
-273.384	-199.601	0.534	-0.003
-272.370	-90.041	0.393	-0.114
-271.355	39.345	0.336	0.299
-270.340	19.621	-0.279	0.222
-269.326	207.344	-0.454	-0.701
-268.311	27.070	-0.464	0.386
-267.297	122.493	0.154	-0.191
-266.282	42.975	-0.417	-0.377
-265.267	-135.070	0.209	0.025
-264.253	-128.381	-0.371	-0.052
-263.238	-200.000	-0.046	-0.640
-262.224	46.117	0.342	0.314
-261.209	422.847	0.344	0.732
-260.195	109.567	0.326	0.387
-259.180	800.000	0.040	-0.142
-258.165	-118.378	1.175	-0.207
-257.151	39.823	0.218	0.194
-256.136	-39.891	-0.783	0.405
-255.122	201.690	0.057	0.087
-254.107	249.174	-0.661	1.110
-253.092	25.094	0.252	0.207
-252.078	110.675	-0.465	-0.554
-251.063	-91.840	0.453	-0.127
-250.049	242.801	-0.261	-0.434
-249.034	325.985	-0.095	-0.180
-248.019	124.213	-0.223	0.278
-247.005	-63.972	0.568	-0.230
-245.990	113.391	-0.486	-0.584
-244.976	93.322	-0.453	0.507
-243.961	-171.843	0.822	0.027
-242.946	359.729	0.123	0.243
-241.932	-59.030	-0.840	-0.359
-240.917	-49.853	-1.159	0.545
-239.903	304.256	-0.503	0.924
-238.888	-200.000	0.102	-0.523
-237.873	-200.000	-0.173	1.005
-236.859	563.594	-0.293	0.703
-235.844	-29.425	0.905	-0.512
-234.830	86.123	0.483	0.526
-233.815	-109.386	0.421	-0.088
-232.800	-66.419	0.485	0.191
-231.786	-200.000	-0.071	0.467
-230.771	75.342	-0.286	-0.299
-229.757	-200.000	0.019	-0.119
-228.742	-200.000	-0.045	-0.495
-227.727	179.545	0.700	1.014
-226.713	0.451	0.177	0.125
-225.698	116.375	-0.381	-0.462
-224.684	441.538	0.352	-0.763
-223.669	-19.614	0.227	-0.139
-222.655	291.726	-0.253	-0.456
-221.640	-58.239	0.446	0.192
-220.625	93.987	0.286	0.321
-219.611	-200.000	-0.032	-0.579
-218.596	-105.651	-0.431	0.097
-217.582	-99.034	0.558	0.140
-216.567	-200.000	0.098	-0.433
-215.552	-47.198	0.390	-0.188
-214.538	-2.105	-0.386	-0.268
-213.523	-47.161	0.760	-0.367
-212.509	800.000	0.178	0.518
-211.494	298.414	-0.433	0.787
-210.479	454.319	-0.352	0.772
-209.465	484.250	0.165	0.372
-208.450	-118.352	0.195	-0.034
-207.436	800.000	-0.021	0.076
-206.421	-29.723	0.418	-0.236
-205.406	771.416	0.194	-0.522
-204.392	-65.811	-0.645	0.255
-203.377	81.744	-0.488	0.522
-202.363	-200.000	-0.071	0.643
-201.348	127.115	0.343	0.430
-200.333	800.000	-0.208	0.579
-199.319	12.118	-0.501	-0.381
-198.304	-200.000	0.003	0.296
-197.290	335.471	0.197	-0.378
-196.275	226.951	-0.474	-0.761
-195.260	210.104	-0.257	0.399
-194.246	-200.000	0.129	0.684
-193.231	-200.000	0.141	0.616
-192.217	-200.000	0.144	-0.817
-191.202	-187.974	-0.738	-0.009
-190.187	480.445	0.232	-0.520
-189.173	19.466	0.542	0.431
-188.158	684.559	0.155	0.400
-187.144	-32.916	-0.787	0.432
-186.129	14.213	-0.373	0.287
-185.114	785.788	0.018	0.049
-184.100	150.113	0.070	-0.094
-183.085	38.579	-1.172	1.033
-182.071	-123.740	0.246	-0.038
-181.056	1.560	0.286	0.204
-180.042	183.563	-0.066	-0.097
-179.027	192.721	-0.047	-0.071
-178.012	-200.000	-0.060	-0.392
-176.998	175.230	-0.142	-0.203
-175.983	141.217	0.447	0.585
-174.969	99.518	-0.483	0.552
-173.954	109.457	-0.201	-0.238
-172.939	-18.864	0.370	0.228
-171.925	-200.000	-0.064	0.423
-170.910	-200.000	0.067	0.315
-169.896	-200.000	0.015	-0.153
-168.881	-61.882	-0.465	-0.192
-167.866	368.969	-0.322	-0.642
-166.852	-109.900	0.501	-0.104
-165.837	190.525	0.334	-0.496
-164.823	26.899	0.298	0.247
-163.808	-200.000	0.177	0.873
-162.793	661.648	0.106	-0.269
-161.779	256.457	-0.116	-0.196
-160.764	-200.000	0.066	0.601
-159.750	49.741	-0.587	-0.546
-158.735	-180.698	-0.238	0.005
-157.720	263.531	0.398	0.683
-156.706	-8.696	0.533	-0.353
-155.691	84.678	-0.628	0.679
-154.677	-200.000	-0.170	-0.918
-153.662	-200.000	0.013	0.379
-152.647	800.000	0.086	-0.285
-151.633	-100.954	0.614	0.149
-150.618	-200.000	-0.075	-0.624
-149.604	48.011	0.925	0.853
-148.589	253.245	0.279	-0.471
-147.574	-78.642	0.565	-0.191
-146.560	510.523	0.137	0.315
-145.545	-45.844	-0.042	-0.021
-144.531	39.195	0.538	-0.475
-143.516	10.312	0.396	0.297
-142.502	-154.344	-1.058	-0.070
-141.487	62.640	-0.281	-0.277
-140.472	800.000	0.091	-0.317
-139.458	499.792	0.053	0.120
-138.443	800.000	0.069	-0.213
-137.429	-17.844	0.215	0.133
-136.414	-71.012	-0.281	-0.104
-135.399	-102.915	-0.262	-0.061
-134.385	510.738	-0.209	0.479
-133.370	-5.930	-0.317	-0.214
-132.356	92.102	0.208	0.231
-131.341	132.642	-0.064	0.082
-130.326	346.590	0.321	-0.623
-129.312	25.052	0.729	0.597
-128.297	-56.314	0.320	0.140
-127.283	225.172	0.470	-0.749
-126.268	-27.904	0.198	0.113
-125.253	276.716	0.277	0.485
-124.239	-200.000	0.047	0.310
-123.224	-153.547	0.402	-0.027
-122.210	-56.826	0.336	0.146
-121.195	139.031	0.316	0.410
