DTS Sentinel unit serial number:	SN413079Multiplexer serial number:	ORYXHardware model number:	OX4-SRSoftware version number:	ORYX F/W v4.00 Oryx Data Collector v3.7.2.0data status	okinstallation	princeton_trtdifferential loss correction	single-endedforward channel	channel 2reverse channel	N/Adate	2019/09/18time	20:39:35forward acquisition time	60.00reverse acquisition time	0.00gamma	496.2192k internal	0.2339k external	0.2339temperature offset calibration	1.0032default loss term (dB/km)	0.3790temperature slope calibration	1.0000multiplexer offset coefficient	1.0000multiplexer slope coefficient	1.0000fibre end	0.00T internal ref (°C)	27.69T ext. ref 1 (°C)	1.01T ext. ref 2 (°C)	18.67length (m)	temperature (°C)	Stokes	anti-Stokes-747.200	-130.667	-0.305	-0.041
-746.185	800.000	0.068	0.255
-745.171	456.126	0.168	0.373
-744.156	33.205	-0.093	0.081
-743.142	-47.717	0.154	0.075
-742.127	-10.163	0.127	-0.085
-741.112	-200.000	-0.031	-0.146
-740.098	155.561	-0.213	0.294
-739.083	-175.657	0.313	0.008
-738.069	-200.000	0.006	-0.076
-737.054	-43.564	-0.016	-0.008
-736.039	322.834	-0.258	-0.494
-735.025	287.112	0.078	0.141
-734.010	61.586	0.176	0.176
-732.996	-49.976	-0.261	0.124
-731.981	408.148	0.115	-0.245
-730.966	607.175	-0.045	0.114
-729.952	-75.088	-0.214	0.077
-728.937	29.802	0.187	0.160
-727.923	-2.814	0.117	0.082
-726.908	800.000	0.023	-0.093
-725.894	217.387	0.203	0.324
-724.879	167.247	-0.134	-0.191
-723.864	292.794	-0.194	-0.354
-722.850	475.243	-0.111	0.252
-721.835	-200.000	-0.004	0.093
-720.821	212.686	-0.235	0.372
-719.806	-200.000	-0.002	-0.167
-718.791	320.724	-0.222	-0.423
-717.777	800.000	0.092	0.373
-716.762	106.281	0.153	0.181
-715.748	227.919	0.129	-0.210
-714.733	-117.997	-0.280	-0.050
-713.718	-109.520	0.164	-0.035
-712.704	132.284	-0.086	-0.112
-711.689	-177.707	-0.035	-0.001
-710.675	75.514	0.307	-0.325
-709.660	-126.276	-0.183	0.027
-708.645	131.019	0.087	-0.112
-707.631	-155.695	0.135	0.009
-706.616	22.755	0.170	0.140
-705.602	-139.705	-0.337	-0.036
-704.587	-42.930	-0.170	-0.087
-703.572	-59.101	-0.177	0.077
-702.558	800.000	0.050	0.187
-701.543	395.991	-0.065	0.135
-700.529	-172.358	-0.224	0.007
-699.514	10.354	0.256	-0.195
-698.499	800.000	0.034	0.143
-697.485	231.900	-0.019	0.031
-696.470	239.025	-0.073	-0.122
-695.456	-200.000	0.002	-0.096
-694.441	-200.000	-0.017	-0.126
-693.426	431.779	0.137	-0.297
-692.412	-0.209	0.209	0.149
-691.397	-58.190	0.126	-0.055
-690.383	800.000	0.072	0.204
-689.368	66.633	-0.297	0.302
-688.354	800.000	0.076	-0.316
-687.339	-174.561	-0.038	0.001
-686.324	800.000	0.020	0.057
-685.310	46.482	-0.180	0.167
-684.295	-200.000	0.055	-0.332
-683.281	157.752	0.060	-0.083
-682.266	14.282	-0.013	-0.010
-681.251	45.420	-0.057	-0.052
-680.237	-101.366	0.235	0.057
-679.222	162.333	-0.177	-0.249
-678.208	-36.837	-0.204	-0.109
-677.193	64.577	0.237	-0.239
-676.178	-133.164	-0.513	0.065
-675.164	800.000	-0.028	0.106
-674.149	-101.264	0.020	0.005
-673.135	-77.912	-0.169	-0.058
-672.120	-57.251	0.099	0.044
-671.105	41.201	0.221	-0.200
-670.091	-56.386	-0.155	-0.069
-669.076	-49.131	0.074	0.035
-668.062	800.000	-0.076	-0.246
-667.047	6.305	-0.146	-0.109
-666.032	-200.000	-0.060	-0.321
-665.018	259.086	0.202	0.349
-664.003	76.779	-0.208	0.221
-662.989	1.604	-0.173	-0.125
-661.974	17.647	0.067	-0.053
-660.959	302.681	-0.178	0.330
-659.945	434.795	-0.107	0.233
-658.930	304.035	-0.074	0.137
-657.916	-103.052	-0.099	-0.023
-656.901	231.306	0.059	0.096
-655.886	329.529	-0.134	0.257
-654.872	-167.711	-0.329	-0.013
-653.857	28.203	0.209	-0.176
-652.843	-42.497	-0.200	0.102
-651.828	409.810	-0.077	0.163
-650.814	-130.230	-0.162	0.022
-649.799	-60.147	-0.270	-0.115
-648.784	-10.553	-0.227	-0.150
-647.770	-133.620	0.377	-0.047
-646.755	-200.000	-0.012	-0.157
-645.741	-32.645	-0.246	0.137
-644.726	-157.174	-0.262	0.016
-643.711	35.513	0.260	0.228
-642.697	-62.929	-0.038	-0.016
-641.682	-200.000	0.001	0.057
-640.668	-89.463	0.217	-0.064
-639.653	390.548	0.206	-0.427
-638.638	800.000	0.037	0.108
-637.624	800.000	0.048	-0.137
-636.609	800.000	-0.079	-0.326
-635.595	434.371	-0.171	-0.370
-634.580	-49.144	0.141	0.067
-633.565	44.478	0.229	0.210
-632.551	-10.728	0.357	-0.235
-631.536	-200.000	0.049	0.421
-630.522	-48.230	-0.333	0.160
-629.507	-154.515	-0.271	0.018
-628.492	-123.541	0.361	-0.057
-627.478	92.610	-0.090	0.101
-626.463	85.245	0.170	-0.187
-625.449	-99.253	-0.104	0.026
-624.434	-100.514	-0.194	-0.048
-623.419	-33.598	0.165	0.091
-622.405	-200.000	0.003	-0.014
-621.390	-200.000	0.000	0.310
-620.376	-58.440	-0.190	0.082
-619.361	-200.000	-0.031	-0.142
-618.346	-74.549	-0.283	0.102
-617.332	-200.000	-0.010	-0.256
-616.317	-178.489	0.277	0.006
-615.303	43.295	-0.128	0.117
-614.288	800.000	-0.063	0.181
-613.273	18.558	0.153	0.122
-612.259	-39.642	-0.235	0.123
-611.244	404.205	0.098	0.206
-610.230	29.597	0.137	0.116
-609.215	-200.000	-0.026	0.171
-608.201	53.528	-0.311	0.297
-607.186	-47.090	0.035	0.017
-606.171	-131.841	0.088	-0.012
-605.157	-51.820	0.044	0.021
-604.142	-64.095	0.340	-0.139
-603.128	73.543	-0.124	-0.130
-602.113	94.209	0.108	0.122
-601.098	-45.918	-0.092	-0.045
-600.084	110.083	-0.196	-0.235
-599.069	-65.083	0.063	-0.025
-598.055	439.398	0.043	0.093
-597.040	-200.000	-0.012	0.210
-596.025	31.847	-0.228	-0.196
-595.011	42.599	-0.103	0.094
-593.996	-200.000	0.021	0.238
-592.982	144.198	0.028	-0.037
-591.967	-134.617	-0.203	-0.025
-590.952	-116.656	0.234	-0.043
-589.938	338.558	0.184	-0.358
-588.923	-138.969	0.174	-0.019
-587.909	-57.990	-0.291	-0.127
-586.894	-19.023	-0.151	0.094
-585.879	-200.000	0.032	-0.199
-584.865	-200.000	-0.008	0.100
-583.850	76.750	-0.125	-0.133
-582.836	-75.173	0.184	-0.066
-581.821	63.058	0.063	0.063
-580.806	-200.000	-0.018	-0.345
-579.792	141.426	0.165	-0.217
-578.777	-191.470	0.209	0.002
-577.763	-79.225	-0.100	-0.034
-576.748	673.802	-0.124	-0.320
-575.733	42.637	0.167	0.152
-574.719	-33.250	0.126	0.069
-573.704	800.000	0.029	-0.096
-572.690	-200.000	0.055	-0.373
-571.675	-200.000	-0.035	0.336
-570.661	-185.427	-0.407	-0.006
-569.646	58.007	-0.108	0.105
-568.631	93.890	0.258	-0.292
-567.617	-107.148	-0.342	-0.075
-566.602	326.984	0.080	0.153
-565.588	123.762	0.179	0.224
-564.573	2.491	0.029	-0.021
-563.558	485.223	0.131	-0.297
-562.544	191.329	0.224	-0.335
-561.529	128.133	-0.093	0.118
-560.515	69.946	0.041	0.042
-559.500	87.996	-0.387	0.427
-558.485	-131.424	0.153	-0.020
-557.471	-0.888	-0.239	0.168
-556.456	800.000	-0.090	0.268
-555.442	-124.960	-0.307	-0.047
-554.427	-123.171	-0.073	-0.012
-553.412	800.000	-0.091	-0.385
-552.398	-200.000	0.054	-0.503
-551.383	-56.715	-0.139	0.061
-550.369	-65.174	0.012	0.005
-549.354	-19.836	0.242	-0.149
-548.339	-97.009	-0.398	0.104
-547.325	308.955	0.103	0.192
-546.310	-117.043	-0.260	-0.047
-545.296	-200.000	0.014	0.110
-544.281	-200.000	0.011	-0.065
-543.266	-189.517	-0.164	-0.002
-542.252	800.000	-0.021	0.065
-541.237	369.541	0.033	0.066
-540.223	-48.524	-0.252	0.121
-539.208	18.955	-0.131	-0.105
-538.193	469.001	0.124	-0.277
-537.179	324.611	0.124	0.235
-536.164	-54.221	-0.240	-0.109
-535.150	800.000	0.060	0.188
-534.135	55.299	0.080	0.077
-533.121	-18.481	0.227	-0.141
-532.106	-143.396	-0.248	-0.024
-531.091	-200.000	-0.032	0.284
-530.077	741.656	0.080	0.214
-529.062	-80.914	-0.215	0.071
-528.048	-189.505	-0.220	0.003
-527.033	447.671	0.064	-0.140
-526.018	20.483	0.173	-0.139
-525.004	-16.152	0.094	-0.059
-523.989	-56.952	-0.189	0.083
-522.975	37.752	-0.266	-0.235
-521.960	166.214	-0.108	-0.152
-520.945	-93.209	-0.299	-0.083
-519.931	-87.916	-0.017	0.005
-518.916	-200.000	0.000	-0.034
-517.902	271.297	0.199	0.348
-516.887	-106.168	0.262	0.058
-515.872	426.319	0.152	-0.327
-514.858	-200.000	0.024	-0.140
-513.843	-200.000	0.006	0.143
-512.829	-107.758	-0.164	-0.036
-511.814	-200.000	0.015	-0.237
-510.799	534.843	0.050	0.119
-509.785	-164.814	-0.292	-0.013
-508.770	-200.000	-0.030	0.213
-507.756	85.301	0.239	0.261
-506.741	661.254	-0.085	-0.219
-505.726	-7.560	0.193	-0.129
-504.712	84.064	0.146	0.159
-503.697	342.053	0.113	0.219
-502.683	-200.000	-0.022	-0.095
-501.668	135.184	0.348	-0.449
-500.653	-149.496	0.128	-0.010
-499.639	228.104	0.146	-0.237
-498.624	-200.000	0.031	-0.216
-497.610	-43.743	0.190	-0.095
-496.595	-200.000	-0.058	0.403
-495.581	-89.646	0.154	0.045
-494.566	-200.000	0.378	0.002
-493.551	206.214	-0.076	0.117
-492.537	175.475	0.183	0.264
-491.522	108.661	-0.092	0.109
-490.508	179.596	0.084	0.122
-489.493	471.119	0.089	-0.199
-488.478	-200.000	0.005	-0.074
-487.464	-75.826	-0.266	0.093
-486.449	-87.215	0.182	-0.055
-485.435	527.208	0.079	0.186
-484.420	79.381	-0.065	0.069
-483.405	335.418	-0.033	0.064
-482.391	152.178	0.020	0.027
-481.376	-168.041	-0.271	-0.011
-480.362	115.364	-0.132	-0.160
-479.347	-58.470	-0.210	0.091
-478.332	162.091	-0.121	0.168
-477.318	223.874	-0.235	0.376
-476.303	258.626	0.050	-0.085
-475.289	-91.502	-0.064	-0.018
-474.274	329.203	0.117	0.224
-473.259	-2.383	0.379	0.264
-472.245	591.181	0.021	-0.052
-471.230	218.286	-0.203	-0.321
-470.216	-51.420	-0.118	0.055
-469.201	-68.632	-0.444	0.171
-468.186	188.384	0.125	0.186
-467.172	-200.000	-0.020	-0.217
-466.157	-127.780	-0.265	0.038
-465.143	16.568	-0.320	0.251
-464.128	-145.284	0.196	-0.018
-463.113	-153.259	-0.135	-0.009
-462.099	-200.000	-0.021	0.180
-461.084	-200.000	0.026	0.179
-460.070	-200.000	0.022	0.178
-459.055	127.285	-0.263	0.332
-458.040	-145.425	-0.206	-0.018
-457.026	142.287	0.080	-0.105
-456.011	535.675	-0.089	-0.208
-454.997	264.312	-0.108	-0.187
-453.982	800.000	0.093	-0.352
-452.968	716.106	-0.108	-0.283
-451.953	-126.470	0.327	0.048
-450.938	197.530	-0.137	0.208
-449.924	-200.000	0.018	0.267
-448.909	-200.000	-0.017	-0.086
-447.895	-200.000	-0.013	0.209
-446.880	194.604	0.080	-0.120
-445.865	-200.000	0.036	-0.162
-444.851	308.806	-0.022	-0.041
-443.836	94.202	0.206	0.232
-442.822	800.000	-0.032	0.117
-441.807	-200.000	0.024	0.119
-440.792	95.680	0.395	0.447
-439.778	713.113	-0.112	0.294
-438.763	321.150	-0.034	0.065
-437.749	-83.280	0.017	0.006
-436.734	-148.839	-0.216	-0.017
-435.719	106.861	-0.220	0.259
-434.705	336.229	0.031	0.059
-433.690	35.721	-0.227	0.198
-432.676	164.769	0.297	0.415
-431.661	-200.000	0.037	0.372
-430.646	-8.281	-0.149	0.100
-429.632	-123.095	-0.357	0.057
-428.617	35.313	-0.125	0.108
-427.603	-200.000	-0.034	-0.289
-426.588	22.947	0.152	0.124
-425.573	-86.966	-0.121	-0.037
-424.559	55.207	-0.089	0.085
-423.544	-83.058	-0.319	0.102
-422.530	-59.747	0.032	-0.014
-421.515	197.595	0.062	0.094
-420.500	32.181	0.117	-0.100
-419.486	-80.300	0.185	0.061
-418.471	-97.570	-0.016	-0.004
-417.457	-200.000	-0.026	0.272
-416.442	-129.417	0.377	0.052
-415.428	800.000	0.136	0.439
-414.413	-200.000	0.010	0.277
-413.398	661.099	0.103	0.263
-412.384	73.088	0.277	-0.287
-411.369	-200.000	0.054	0.286
-410.355	800.000	-0.042	-0.150
-409.340	-181.749	-0.201	-0.004
-408.325	800.000	-0.090	-0.350
-407.311	-27.580	-0.264	0.152
-406.296	-200.000	0.075	0.335
-405.282	133.214	-0.116	-0.149
-404.267	-85.589	0.234	-0.072
-403.252	800.000	0.123	-0.428
-402.238	177.767	0.076	-0.110
-401.223	398.451	0.174	-0.361
-400.209	800.000	0.059	0.209
-399.194	-126.814	-0.258	0.038
-398.179	800.000	0.066	0.195
-397.165	146.065	-0.064	-0.085
-396.150	-134.605	-0.104	-0.013
-395.136	-134.901	0.285	-0.034
-394.121	546.720	-0.085	-0.201
-393.106	-20.312	0.043	0.026
-392.092	-93.871	-0.159	0.043
-391.077	-85.043	0.151	0.047
-390.063	-101.382	-0.134	0.032
-389.048	-53.994	0.183	0.082
-388.033	-51.001	-0.249	-0.116
-387.019	-190.441	-0.141	0.002
-386.004	233.642	-0.320	-0.521
-384.990	-200.000	0.027	-0.420
-383.975	459.073	0.072	-0.159
-382.960	-85.394	0.105	0.033
-381.946	698.504	0.156	0.405
-380.931	151.128	-0.219	0.295
-379.917	-37.774	0.246	-0.130
-378.902	-82.048	0.349	-0.113
-377.888	75.072	-0.182	-0.189
-376.873	-56.091	0.317	-0.140
-375.858	-150.353	-0.133	0.010
-374.844	800.000	-0.057	0.186
-373.829	-200.000	0.069	0.356
-372.815	100.298	0.074	0.085
-371.800	303.703	-0.067	0.123
-370.785	-200.000	0.019	-0.108
-369.771	37.680	-0.287	0.252
-368.756	16.633	-0.120	-0.094
-367.742	42.897	0.195	0.176
-366.727	-200.000	0.055	0.346
-365.712	800.000	0.032	-0.120
-364.698	40.403	-0.128	-0.114
-363.683	-200.000	-0.022	0.198
-362.669	-200.000	-0.022	-0.112
-361.654	-138.380	-0.283	0.031
-360.639	-200.000	-0.007	0.237
-359.625	-72.279	-0.115	-0.042
-358.610	635.267	0.109	-0.274
-357.596	-111.696	0.310	-0.062
-356.581	-128.742	0.250	-0.035
-355.566	800.000	-0.022	0.074
-354.552	-200.000	0.032	-0.397
-353.537	800.000	0.077	0.316
-352.523	495.928	-0.078	-0.178
-351.508	87.579	-0.159	-0.174
-350.493	-106.518	-0.281	-0.062
-349.479	-46.563	0.172	0.083
-348.464	219.380	-0.069	-0.109
-347.450	-43.375	0.080	-0.040
-346.435	101.326	0.054	-0.062
-345.420	103.649	0.303	-0.352
-344.406	800.000	-0.081	-0.285
-343.391	-106.722	-0.076	-0.017
-342.377	41.236	0.279	-0.249
-341.362	-147.852	0.349	-0.029
-340.348	-200.000	0.039	0.314
-339.333	800.000	-0.067	0.214
-338.318	800.000	0.056	0.223
-337.304	-11.404	-0.231	-0.150
-336.289	800.000	-0.095	0.300
-335.275	-200.000	-0.010	-0.362
-334.260	126.259	0.139	0.173
-333.245	-66.364	-0.175	0.069
-332.231	-92.058	-0.219	0.061
-331.216	229.754	-0.068	0.110
-330.202	83.456	-0.192	-0.207
-329.187	-200.000	-0.002	-0.327
-328.172	-200.000	0.022	-0.186
-327.158	77.050	0.121	0.127
-326.143	-34.360	-0.202	-0.110
-325.129	11.556	0.316	0.239
-324.114	-100.185	-0.307	0.075
-323.099	494.547	0.146	-0.330
-322.085	-70.419	-0.313	0.117
-321.070	275.707	0.158	0.277
-320.056	-98.902	0.189	-0.047
-319.041	-77.292	-0.092	-0.032
-318.026	91.306	0.240	0.266
-317.012	-181.629	-0.304	0.006
-315.997	118.509	0.044	0.054
-314.983	220.842	-0.112	0.177
-313.968	-38.337	0.105	0.055
-312.953	332.222	-0.146	0.279
-311.939	800.000	-0.093	0.384
-310.924	800.000	0.063	-0.201
-309.910	2.596	-0.242	-0.173
-308.895	653.934	0.082	-0.207
-307.880	800.000	0.050	0.152
-306.866	-200.000	0.058	0.335
-305.851	-200.000	0.045	-0.231
-304.837	56.298	-0.149	0.143
-303.822	7.371	0.050	-0.037
-302.807	356.423	-0.032	0.063
-301.793	-26.509	-0.324	0.187
-300.778	-200.000	-0.025	0.113
-299.764	673.668	-0.104	-0.266
-298.749	114.825	-0.181	-0.217
-297.735	74.683	-0.017	0.018
-296.720	-107.919	0.217	0.047
-295.705	374.601	-0.075	-0.150
-294.691	-30.033	0.253	0.142
-293.676	-112.969	0.052	0.010
-292.662	-85.678	0.230	0.070
-291.647	-163.414	-0.532	0.025
-290.632	-125.235	0.173	-0.026
-289.618	460.405	-0.182	0.399
-288.603	322.872	-0.187	-0.351
-287.589	47.259	-0.127	0.117
-286.574	42.938	0.270	0.243
-285.559	439.094	0.063	0.136
-284.545	-9.905	0.069	0.045
-283.530	-147.105	0.480	-0.040
-282.516	-76.746	-0.343	-0.118
-281.501	12.921	0.283	-0.215
-280.486	-139.512	0.186	0.020
-279.472	-56.785	0.332	-0.145
-278.457	222.272	-0.209	-0.332
-277.443	-9.688	0.103	-0.067
-276.428	-33.371	-0.071	0.039
-275.413	-200.000	0.012	-0.079
-274.399	-53.948	-0.239	-0.107
-273.384	-200.000	0.005	-0.136
-272.370	-82.783	-0.188	0.060
-271.355	34.230	0.130	-0.112
-270.340	-141.371	0.260	-0.026
-269.326	87.358	-0.123	0.134
-268.311	-133.916	-0.255	-0.031
-267.297	-144.570	-0.162	0.015
-266.282	-189.765	-0.091	-0.001
-265.267	84.206	0.111	-0.119
-264.253	-102.835	0.388	-0.091
-263.238	-200.000	-0.010	-0.064
-262.224	379.300	0.100	-0.202
-261.209	-200.000	-0.015	-0.366
-260.195	565.713	-0.082	-0.195
-259.180	-102.821	-0.344	0.081
-258.165	-200.000	0.014	0.230
-257.151	-200.000	-0.008	-0.181
-256.136	-56.432	-0.234	-0.102
-255.122	192.533	-0.172	-0.255
-254.107	262.891	0.152	0.260
-253.092	368.731	-0.049	-0.097
-252.078	-200.000	0.027	-0.203
-251.063	88.168	-0.006	-0.007
-250.049	-148.716	-0.152	-0.012
-249.034	-120.850	0.151	-0.025
-248.019	-15.956	-0.099	0.062
-247.005	-116.362	0.047	0.009
-245.990	26.655	0.264	-0.217
-244.976	126.061	0.165	-0.206
-243.961	-126.357	0.434	0.064
-242.946	-200.000	0.034	0.159
-241.932	-27.053	-0.419	-0.241
-240.917	-110.258	-0.226	-0.046
-239.903	466.564	0.106	0.233
-238.888	344.829	0.096	-0.186
-237.873	-12.754	0.120	-0.077
-236.859	-52.333	0.056	0.025
-235.844	800.000	0.096	-0.309
-234.830	800.000	0.039	-0.126
-233.815	-200.000	0.014	-0.114
-232.800	-200.000	-0.022	-0.156
-231.786	800.000	-0.045	-0.192
-230.771	-200.000	-0.032	-0.173
-229.757	-152.583	-0.323	-0.023
-228.742	-96.940	0.369	-0.095
-227.727	-200.000	-0.040	0.177
-226.713	-200.000	-0.007	-0.166
-225.698	-162.991	-0.131	0.006
-224.684	-99.246	-0.084	-0.021
-223.669	-200.000	-0.011	-0.079
-222.655	-137.690	0.199	0.022
-221.640	263.066	-0.067	0.114
-220.625	-15.806	0.216	0.135
-219.611	-139.576	-0.516	0.054
-218.596	53.872	0.171	-0.161
-217.582	-200.000	-0.003	0.160
-216.567	396.490	0.151	-0.309
-215.552	158.503	0.058	-0.079
-214.538	370.658	-0.229	0.456
-213.523	24.823	0.189	-0.154
-212.509	-79.564	-0.050	-0.017
-211.494	537.801	0.132	-0.308
-210.479	-91.123	0.216	-0.061
-209.465	-21.438	0.164	-0.098
-208.450	-130.516	0.563	0.075
-207.436	-161.629	0.180	0.009
-206.421	-22.832	0.176	0.104
-205.406	28.938	-0.245	0.204
-204.392	68.068	-0.051	-0.051
-203.377	86.754	-0.231	0.250
-202.363	-27.240	0.282	0.161
-201.348	-200.000	0.027	-0.342
-200.333	-153.282	0.448	0.031
-199.319	549.342	0.036	-0.086
-198.304	-119.941	0.238	0.040
-197.290	-200.000	0.124	0.609
-196.275	-200.000	0.051	-0.246
-195.260	-72.877	0.301	-0.109
-194.246	-87.556	-0.349	-0.103
-193.231	-21.664	0.135	-0.081
-192.217	-33.929	0.135	-0.073
-191.202	-125.527	-0.227	-0.034
-190.187	-200.000	-0.024	-0.150
-189.173	-72.840	-0.255	-0.092
-188.158	542.624	0.052	0.121
-187.144	-117.193	-0.254	-0.045
-186.129	108.112	0.088	0.103
-185.114	-20.129	-0.227	-0.137
-184.100	-200.000	-0.041	0.211
-183.085	408.185	0.029	-0.060
-182.071	800.000	0.022	-0.093
-181.056	800.000	0.041	0.146
-180.042	-200.000	-0.050	-0.231
-179.027	-136.046	0.202	-0.023
-178.012	109.651	0.154	-0.181
-176.998	2.486	-0.087	-0.062
-175.983	249.357	0.061	-0.102
-174.969	-163.356	0.276	0.013
-173.954	-98.697	-0.260	-0.065
-172.939	-54.943	0.299	-0.132
-171.925	-200.000	-0.072	0.312
-170.910	-200.000	0.021	0.179
-169.896	-24.716	-0.070	0.041
-168.881	800.000	0.050	0.191
-167.866	-200.000	-0.007	0.089
-166.852	-34.924	-0.287	-0.154
-165.837	66.709	0.149	-0.148
-164.823	-30.426	0.246	-0.137
-163.808	-48.841	-0.138	-0.065
-162.793	125.232	0.231	0.286
-161.779	-117.686	0.106	0.019
-160.764	174.338	0.100	-0.142
-159.750	7.097	-0.087	0.064
-158.735	52.472	-0.163	-0.153
-157.720	636.207	-0.090	-0.225
-156.706	323.903	0.179	0.335
-155.691	-38.156	-0.088	-0.046
-154.677	-48.790	0.188	0.089
-153.662	-3.747	0.101	0.069
-152.647	33.253	-0.048	-0.041
-151.633	-177.850	-0.228	0.005
-150.618	237.763	0.130	0.211
-149.604	-117.961	0.339	-0.059
-148.589	21.009	-0.386	-0.307
-147.574	-107.169	0.063	0.014
-146.560	800.000	-0.007	0.021
-145.545	-49.403	-0.185	-0.086
-144.531	-158.025	-0.139	-0.008
-143.516	-125.298	0.222	0.033
-142.502	-200.000	-0.001	0.065
-141.487	129.436	-0.275	0.344
-140.472	-194.576	-0.303	-0.002
-139.458	56.991	-0.119	-0.114
-138.443	800.000	-0.043	-0.128
-137.429	-200.000	0.038	-0.190
-136.414	19.885	-0.310	-0.245
-135.399	109.343	0.096	0.112
-134.385	35.421	0.135	0.116
-133.370	413.264	-0.065	0.135
-132.356	-106.960	-0.265	-0.057
-131.341	-200.000	-0.007	-0.055
-130.326	-57.499	0.239	0.103
-129.312	119.714	0.179	0.217
-128.297	800.000	-0.057	0.207
-127.283	-63.973	0.032	0.013
-126.268	285.858	-0.127	-0.225
-125.253	-200.000	0.053	-0.241
-124.239	-200.000	0.028	-0.198
-123.224	-66.833	0.261	-0.101
-122.210	3.184	-0.090	0.064
