DTS Sentinel unit serial number:	SN413079Multiplexer serial number:	ORYXHardware model number:	OX4-SRSoftware version number:	ORYX F/W v4.00 Oryx Data Collector v3.7.2.0data status	okinstallation	princeton_trtdifferential loss correction	single-endedforward channel	channel 2reverse channel	N/Adate	2019/09/12time	02:49:11forward acquisition time	60.00reverse acquisition time	0.00gamma	496.2192k internal	0.2326k external	0.2326temperature offset calibration	1.0091default loss term (dB/km)	0.3790temperature slope calibration	1.0000multiplexer offset coefficient	1.0000multiplexer slope coefficient	1.0000fibre end	0.00T internal ref (°C)	32.36T ext. ref 1 (°C)	2.11T ext. ref 2 (°C)	26.89length (m)	temperature (°C)	Stokes	anti-Stokes-747.200	-146.994	0.139	-0.012
-746.185	-109.774	0.403	-0.085
-745.171	109.023	-0.125	0.150
-744.156	-46.301	-0.205	0.102
-743.142	68.986	-0.309	0.320
-742.127	-120.877	-0.377	0.064
-741.112	800.000	0.022	0.089
-740.098	800.000	-0.085	0.330
-739.083	99.378	0.187	0.218
-738.069	800.000	0.094	0.301
-737.054	-53.809	-0.118	0.054
-736.039	-117.057	-0.313	-0.057
-735.025	10.563	-0.238	0.183
-734.010	-141.851	-0.299	-0.030
-732.996	-59.540	-0.281	0.122
-731.981	242.836	0.170	0.287
-730.966	530.962	0.051	-0.121
-729.952	112.444	-0.186	-0.227
-728.937	-200.000	-0.030	-0.186
-727.923	-200.000	0.002	-0.154
-726.908	-43.536	0.101	-0.051
-725.894	-18.058	0.086	0.054
-724.879	-52.056	-0.076	0.036
-723.864	266.331	-0.241	0.425
-722.850	59.060	-0.169	0.168
-721.835	70.039	-0.142	-0.148
-720.821	126.541	-0.142	-0.181
-719.806	-55.112	-0.353	-0.160
-718.791	-64.913	-0.090	-0.037
-717.777	-197.607	0.089	0.001
-716.762	121.046	0.301	-0.378
-715.748	91.160	-0.224	-0.254
-714.733	-200.000	0.007	-0.124
-713.718	750.234	0.101	-0.274
-712.704	68.409	0.219	0.226
-711.689	-105.397	0.102	0.023
-710.675	-132.002	-0.291	-0.038
-709.660	-63.221	-0.181	-0.075
-708.645	-8.995	-0.054	-0.037
-707.631	-158.121	0.184	-0.011
-706.616	800.000	0.063	-0.175
-705.602	62.535	0.331	0.333
-704.587	-200.000	0.009	-0.222
-703.572	45.765	0.109	-0.101
-702.558	-200.000	0.007	-0.208
-701.543	23.831	-0.113	-0.094
-700.529	-200.000	0.043	0.315
-699.514	127.569	-0.208	0.266
-698.499	-133.998	0.132	0.016
-697.485	-31.832	0.115	0.065
-696.470	250.083	0.109	-0.186
-695.456	-14.335	-0.109	-0.071
-694.441	-82.182	-0.347	0.114
-693.426	800.000	0.088	-0.316
-692.412	-70.224	-0.325	-0.124
-691.397	-157.877	-0.200	-0.012
-690.383	-123.647	0.105	0.017
-689.368	789.131	0.041	0.113
-688.354	-79.640	0.260	-0.088
-687.339	-105.268	0.271	0.062
-686.324	-54.405	0.049	-0.023
-685.310	175.228	0.074	-0.108
-684.295	180.093	0.091	-0.134
-683.281	412.080	-0.115	0.245
-682.266	-102.100	-0.129	-0.031
-681.251	0.848	0.134	-0.096
-680.237	432.897	-0.087	-0.190
-679.222	100.138	0.185	-0.216
-678.208	351.478	0.164	-0.326
-677.193	800.000	0.038	-0.143
-676.178	-0.932	-0.281	-0.200
-675.164	-38.145	0.079	0.042
-674.149	800.000	0.091	0.255
-673.135	-110.343	-0.089	-0.019
-672.120	-56.685	0.050	-0.022
-671.105	-171.986	-0.724	-0.024
-670.091	67.200	-0.224	0.229
-669.076	-200.000	-0.020	-0.365
-668.062	-200.000	0.014	-0.349
-667.047	-149.374	0.148	0.012
-666.032	-200.000	0.020	0.289
-665.018	188.201	-0.095	0.143
-664.003	-143.033	-0.227	0.022
-662.989	163.024	-0.077	0.109
-661.974	-61.965	-0.077	0.032
-660.959	-200.000	-0.044	0.367
-659.945	406.162	-0.167	-0.354
-658.930	-154.470	-0.252	-0.017
-657.916	-25.326	0.219	0.130
-656.901	184.647	-0.119	0.178
-655.886	-26.949	-0.212	0.125
-654.872	532.123	-0.136	-0.324
-653.857	120.801	-0.229	-0.286
-652.843	-63.813	-0.219	-0.090
-651.828	123.298	0.012	-0.015
-650.814	-146.231	-0.061	-0.005
-649.799	11.341	0.094	0.072
-648.784	-200.000	0.030	0.354
-647.770	-200.000	-0.015	0.245
-646.755	57.745	0.049	-0.048
-645.741	-26.934	-0.339	-0.199
-644.726	-183.494	-0.305	0.005
-643.711	-200.000	0.066	0.343
-642.697	173.245	-0.111	0.161
-641.682	-47.882	-0.140	0.068
-640.668	800.000	0.042	0.150
-639.653	12.786	-0.042	0.033
-638.638	-77.911	-0.282	0.098
-637.624	-200.000	-0.051	-0.353
-636.609	800.000	0.092	0.375
-635.595	-200.000	0.002	-0.014
-634.580	424.328	0.061	0.132
-633.565	513.950	-0.096	-0.226
-632.551	-200.000	-0.080	0.545
-631.536	-131.630	0.272	-0.036
-630.522	26.392	0.144	-0.121
-629.507	800.000	-0.035	-0.129
-628.492	35.229	-0.233	0.205
-627.478	-200.000	-0.038	0.222
-626.463	-17.864	0.356	-0.224
-625.449	-200.000	0.034	0.268
-624.434	-103.668	-0.233	-0.055
-623.419	-200.000	0.025	-0.117
-622.405	800.000	-0.036	0.104
-621.390	-200.000	0.021	0.114
-620.376	800.000	-0.059	0.196
-619.361	420.951	-0.148	0.317
-618.346	-150.392	0.180	0.014
-617.332	800.000	-0.114	-0.417
-616.317	-57.633	-0.163	0.072
-615.303	90.704	-0.321	-0.360
-614.288	-200.000	-0.035	-0.326
-613.273	573.365	0.041	0.101
-612.259	-1.793	-0.263	0.186
-611.244	77.083	0.207	-0.220
-610.230	800.000	0.173	-0.505
-609.215	586.926	0.024	-0.058
-608.201	1.688	0.244	0.176
-607.186	5.490	0.317	0.235
-606.171	159.854	-0.127	-0.177
-605.157	-15.055	0.038	-0.024
-604.142	7.207	-0.344	-0.258
-603.128	293.892	0.126	0.232
-602.113	-113.582	-0.230	-0.045
-601.098	-102.901	0.171	0.041
-600.084	34.989	0.218	0.191
-599.069	-63.520	0.250	-0.103
-598.055	800.000	0.028	0.083
-597.040	47.348	-0.148	-0.138
-596.025	-200.000	-0.016	-0.176
-595.011	-12.231	-0.264	0.173
-593.996	-200.000	0.008	0.115
-592.982	-200.000	-0.008	0.264
-591.967	-85.210	-0.271	-0.085
-590.952	607.309	0.030	-0.075
-589.938	-86.905	-0.292	0.089
-588.923	492.484	-0.045	0.103
-587.909	92.898	0.332	-0.375
-586.894	-129.239	0.041	-0.006
-585.879	-200.000	0.014	0.133
-584.865	119.898	0.224	0.278
-583.850	-18.606	-0.109	0.068
-582.836	-41.812	0.120	-0.062
-581.821	-51.953	0.110	-0.051
-580.806	-164.988	-0.372	-0.017
-579.792	-200.000	-0.002	-0.047
-578.777	-149.188	0.404	-0.032
-577.763	634.145	0.094	-0.239
-576.748	-52.065	-0.337	-0.157
-575.733	103.717	0.132	-0.156
-574.719	-200.000	0.018	-0.417
-573.704	800.000	-0.109	-0.402
-572.690	-200.000	-0.032	-0.258
-571.675	-200.000	0.019	0.196
-570.661	-166.968	-0.156	0.006
-569.646	-162.337	-0.118	0.006
-568.631	-88.022	0.219	0.066
-567.617	-200.000	-0.017	-0.080
-566.602	-144.153	-0.239	-0.022
-565.588	-13.221	0.092	-0.060
-564.573	-64.819	-0.380	0.154
-563.558	-42.774	-0.445	-0.227
-562.544	56.585	0.243	0.237
-561.529	107.450	0.119	0.141
-560.515	111.151	0.109	-0.132
-559.500	153.285	0.125	0.171
-558.485	298.269	-0.037	-0.068
-557.471	17.255	-0.210	0.167
-556.456	-106.740	-0.146	0.033
-555.442	60.561	-0.216	0.215
-554.427	-200.000	0.105	0.653
-553.412	-48.036	0.178	0.086
-552.398	106.128	0.142	0.169
-551.383	-156.729	-0.034	-0.002
-550.369	-54.091	-0.156	0.071
-549.354	284.682	0.084	-0.151
-548.339	-106.419	-0.174	-0.039
-547.325	15.114	-0.042	-0.033
-546.310	-75.277	-0.061	0.022
-545.296	800.000	-0.050	-0.198
-544.281	-53.559	0.205	0.094
-543.266	-200.000	-0.036	-0.232
-542.252	153.510	0.282	0.387
-541.237	-55.805	0.100	-0.045
-540.223	523.434	0.095	-0.224
-539.208	108.003	0.169	0.201
-538.193	-200.000	0.001	-0.372
-537.179	-125.903	-0.105	-0.016
-536.164	-48.383	-0.081	0.039
-535.150	240.206	-0.077	-0.128
-534.135	-123.912	-0.565	-0.089
-533.121	-105.637	0.097	0.022
-532.106	1.832	0.463	0.334
-531.091	279.108	-0.170	-0.303
-530.077	25.340	0.296	-0.246
-529.062	24.447	-0.197	-0.163
-528.048	169.300	0.134	-0.191
-527.033	95.122	0.145	-0.165
-526.018	89.496	-0.174	0.194
-525.004	-70.004	0.365	0.139
-523.989	800.000	0.049	-0.144
-522.975	24.196	0.287	-0.237
-521.960	140.264	0.131	-0.172
-520.945	28.291	0.161	0.136
-519.931	800.000	-0.035	-0.101
-518.916	45.012	-0.498	-0.458
-517.902	234.164	0.033	0.054
-516.887	61.351	-0.086	-0.086
-515.872	312.476	-0.049	0.092
-514.858	-146.372	-0.347	-0.030
-513.843	-4.232	0.147	-0.101
-512.829	-119.438	0.413	-0.072
-511.814	-34.011	-0.228	0.126
-510.799	11.812	0.206	-0.158
-509.785	165.209	-0.311	0.439
-508.770	-200.000	0.004	0.028
-507.756	-200.000	-0.020	0.176
-506.741	653.322	-0.056	-0.144
-505.726	-160.931	0.200	-0.011
-504.712	417.819	-0.104	-0.221
-503.697	499.644	0.157	0.362
-502.683	52.886	0.251	0.240
-501.668	-63.149	-0.321	-0.132
-500.653	717.146	-0.141	0.374
-499.639	256.398	0.078	0.134
-498.624	214.215	-0.065	0.103
-497.610	-198.610	0.290	0.002
-496.595	213.802	-0.095	0.151
-495.581	-159.669	-0.091	0.005
-494.566	-62.293	-0.176	0.073
-493.551	-62.334	-0.276	-0.115
-492.537	-93.558	-0.256	-0.071
-491.522	-200.000	-0.018	-0.186
-490.508	800.000	0.010	-0.039
-489.493	-160.382	-0.185	-0.010
-488.478	276.151	-0.137	0.242
-487.464	387.591	0.027	-0.055
-486.449	-0.119	0.293	-0.208
-485.435	152.812	0.075	0.102
-484.420	-15.253	0.260	-0.166
-483.405	50.976	0.114	-0.108
-482.391	800.000	0.043	-0.123
-481.376	-17.121	0.170	-0.107
-480.362	498.108	-0.078	-0.180
-479.347	39.219	-0.190	-0.170
-478.332	-139.462	-0.246	-0.026
-477.318	138.609	0.062	-0.081
-476.303	-200.000	-0.012	0.250
-475.289	-153.672	-0.112	0.008
-474.274	-200.000	-0.007	-0.171
-473.259	208.841	0.203	-0.316
-472.245	800.000	-0.108	0.343
-471.230	25.191	-0.124	0.103
-470.216	-40.247	-0.368	0.191
-469.201	60.480	-0.254	0.251
-468.186	744.467	0.063	0.168
-467.172	84.791	0.192	0.209
-466.157	-150.104	0.054	-0.004
-465.143	96.225	0.072	-0.082
-464.128	-66.286	0.180	0.072
-463.113	-87.598	-0.331	-0.100
-462.099	-16.965	0.103	-0.065
-461.084	25.904	-0.150	0.125
-460.070	118.334	-0.183	0.225
-459.055	44.234	0.212	-0.194
-458.040	481.028	-0.195	-0.442
-457.026	192.563	0.167	0.251
-456.011	163.465	-0.162	0.227
-454.997	-200.000	0.014	0.153
-453.982	-200.000	-0.045	-0.348
-452.968	-200.000	0.003	-0.099
-451.953	23.430	-0.047	0.039
-450.938	-43.655	0.272	0.137
-449.924	-64.859	0.271	-0.109
-448.909	694.347	0.039	0.103
-447.895	348.626	0.246	-0.484
-446.880	-160.396	0.230	-0.012
-445.865	-200.000	-0.014	0.361
-444.851	-118.292	-0.040	0.007
-443.836	-102.832	0.112	-0.026
-442.822	23.101	0.264	-0.216
-441.807	-200.000	0.022	-0.182
-440.792	320.483	-0.241	-0.455
-439.778	0.949	0.089	0.064
-438.763	182.790	-0.079	-0.116
-437.749	-29.389	0.151	0.086
-436.734	48.214	-0.170	-0.159
-435.719	158.569	-0.066	0.092
-434.705	-65.303	0.326	-0.131
-433.690	-200.000	-0.067	-0.323
-432.676	63.694	0.217	0.217
-431.661	-185.932	0.128	0.002
-430.646	720.551	-0.111	-0.295
-429.632	25.559	-0.167	0.138
-428.617	214.407	-0.115	0.181
-427.603	185.948	0.075	-0.111
-426.588	182.492	0.080	-0.117
-425.573	625.968	0.027	-0.067
-424.559	37.679	0.231	-0.204
-423.544	800.000	0.068	0.207
-422.530	-158.834	-0.136	0.008
-421.515	-56.786	0.179	0.079
-420.500	-69.153	-0.206	0.079
-419.486	182.715	-0.074	0.108
-418.471	-25.185	-0.262	-0.155
-417.457	2.269	0.305	0.219
-416.442	-32.945	-0.257	0.142
-415.428	156.364	-0.112	-0.153
-414.413	77.189	-0.148	0.157
-413.398	-128.967	0.105	0.015
-412.384	-167.813	0.435	-0.017
-411.369	-200.000	0.009	0.203
-410.355	179.079	-0.155	-0.226
-409.340	-200.000	0.061	0.427
-408.325	157.759	-0.046	-0.063
-407.311	97.665	-0.167	0.191
-406.296	-200.000	0.023	-0.315
-405.282	-150.241	-0.311	-0.024
-404.267	-175.501	0.225	0.006
-403.252	-144.648	-0.067	-0.006
-402.238	800.000	0.065	-0.245
-401.223	246.562	0.268	-0.450
-400.209	125.753	0.033	-0.042
-399.194	29.003	0.305	0.257
-398.179	800.000	0.096	0.265
-397.165	-168.059	0.296	-0.011
-396.150	-200.000	-0.005	0.072
-395.136	-200.000	0.016	-0.079
-394.121	-200.000	0.046	-0.263
-393.106	-78.703	-0.204	0.069
-392.092	240.472	-0.068	0.112
-391.077	-67.774	-0.275	0.107
-390.063	-166.016	-0.098	-0.004
-389.048	800.000	-0.062	-0.184
-388.033	-200.000	0.015	-0.150
-387.019	126.331	-0.210	-0.265
-386.004	17.985	0.158	0.125
-384.990	-179.023	0.124	0.003
-383.975	-31.071	-0.100	0.056
-382.960	116.362	0.184	0.224
-381.946	-14.111	0.046	-0.030
-380.931	3.896	-0.098	-0.071
-379.917	105.532	-0.076	-0.089
-378.902	-14.917	-0.126	-0.081
-377.888	22.671	-0.407	-0.331
-376.873	800.000	0.046	-0.168
-375.858	-74.280	-0.065	-0.023
-374.844	800.000	0.016	-0.046
-373.829	-104.469	0.229	-0.053
-372.815	23.592	-0.189	0.154
-371.800	69.194	-0.196	0.201
-370.785	215.211	0.120	0.189
-369.771	435.710	0.021	0.045
-368.756	383.332	-0.047	-0.096
-367.742	-86.367	-0.148	0.045
-366.727	800.000	0.026	0.088
-365.712	-170.529	-0.112	-0.004
-364.698	12.409	-0.244	0.187
-363.683	-76.813	0.085	0.030
-362.669	-165.303	0.159	0.007
-361.654	-126.795	0.144	-0.021
-360.639	188.693	0.002	-0.003
-359.625	-90.621	0.216	-0.062
-358.610	-164.201	-0.267	-0.012
-357.596	-196.076	0.299	0.002
-356.581	-14.261	0.188	0.120
-355.566	-84.035	0.098	0.031
-354.552	-38.093	-0.223	0.118
-353.537	-97.632	0.280	-0.072
-352.523	464.749	0.067	-0.148
-351.508	-82.479	-0.519	0.167
-350.493	-130.211	0.241	-0.033
-349.479	6.516	0.094	0.069
-348.464	-63.745	0.245	0.100
-347.450	568.858	-0.050	-0.120
-346.435	-124.216	0.469	0.073
-345.420	61.116	0.181	-0.178
-344.406	-200.000	-0.047	-0.415
-343.391	-7.737	0.179	0.120
-342.377	413.291	0.157	-0.331
-341.362	264.140	0.130	-0.224
-340.348	-71.409	-0.115	0.043
-339.333	507.473	-0.016	0.037
-338.318	-17.448	-0.046	-0.029
-337.304	-200.000	0.081	0.469
-336.289	-28.146	0.142	-0.082
-335.275	343.953	-0.150	0.292
-334.260	96.031	0.057	-0.064
-333.245	-66.242	0.303	0.120
-332.231	315.963	0.198	-0.371
-331.216	554.819	0.077	-0.183
-330.202	-184.375	-0.085	-0.001
-329.187	-200.000	0.006	0.168
-328.172	70.429	-0.296	-0.304
-327.158	161.953	-0.120	-0.167
-326.143	-26.484	0.081	0.047
-325.129	-200.000	-0.007	0.132
-324.114	15.568	0.234	-0.182
-323.099	-127.194	0.131	-0.019
-322.085	-200.000	-0.038	0.200
-321.070	-118.728	-0.280	0.049
-320.056	757.310	0.122	0.327
-319.041	800.000	0.085	0.316
-318.026	-17.904	0.071	-0.044
-317.012	105.463	0.090	0.105
-315.997	-109.468	0.134	-0.028
-314.983	-74.489	-0.335	-0.120
-313.968	480.272	-0.006	-0.014
-312.953	-33.108	-0.172	-0.094
-311.939	800.000	-0.033	-0.112
-310.924	-63.933	0.113	0.046
-309.910	-12.903	0.216	0.139
-308.895	-200.000	-0.037	0.212
-307.880	-200.000	-0.033	-0.209
-306.866	150.300	-0.127	-0.171
-305.851	-137.140	0.348	-0.039
-304.837	-168.982	-0.364	-0.014
-303.822	-160.468	0.390	0.021
-302.807	81.662	0.249	0.267
-301.793	-116.032	-0.024	-0.004
-300.778	800.000	-0.063	0.272
-299.764	30.793	-0.148	-0.125
-298.749	458.623	0.063	-0.139
-297.735	-98.854	0.440	0.111
-296.720	-88.934	0.116	-0.034
-295.705	-22.342	0.127	0.076
-294.691	30.506	-0.138	0.117
-293.676	273.065	0.143	0.251
-292.662	1.642	0.212	-0.151
-291.647	-148.377	-0.256	-0.021
-290.632	-200.000	-0.065	-0.424
-289.618	17.946	0.182	-0.144
-288.603	-14.847	-0.033	0.021
-287.589	-137.350	-0.164	-0.018
-286.574	-200.000	0.088	-0.431
-285.559	725.244	0.051	-0.134
-284.545	-200.000	0.001	-0.238
-283.530	-59.168	0.076	0.032
-282.516	-200.000	-0.010	-0.175
-281.501	108.250	0.127	0.150
-280.486	-200.000	-0.054	0.259
-279.472	-76.842	-0.264	-0.091
-278.457	-200.000	-0.003	-0.067
-277.443	-19.055	-0.248	0.152
-276.428	-48.245	-0.192	-0.092
-275.413	31.059	-0.249	0.211
-274.399	104.471	0.306	0.357
-273.384	264.137	0.087	-0.149
-272.370	400.120	0.136	-0.283
-271.355	-28.738	0.214	0.122
-270.340	-190.420	-0.096	-0.001
-269.326	37.405	0.185	0.162
-268.311	-191.148	-0.189	-0.002
-267.297	800.000	-0.058	0.234
-266.282	-104.653	-0.288	-0.066
-265.267	-183.048	-0.166	0.003
-264.253	759.271	-0.094	-0.252
-263.238	180.873	-0.155	0.225
-262.224	-200.000	-0.029	-0.323
-261.209	712.969	-0.032	0.084
-260.195	-47.036	0.189	0.091
-259.180	800.000	-0.073	0.227
-258.165	209.609	-0.213	0.330
-257.151	-155.274	0.233	-0.015
-256.136	-64.343	0.185	0.075
-255.122	146.400	0.162	-0.215
-254.107	-105.623	0.157	-0.035
-253.092	-43.566	-0.045	-0.023
-252.078	108.994	0.232	-0.274
-251.063	104.150	-0.074	-0.086
-250.049	-42.604	-0.387	-0.195
-249.034	83.634	-0.133	0.144
-248.019	-151.105	0.194	-0.014
-247.005	13.394	-0.306	-0.235
-245.990	121.454	-0.235	0.289
-244.976	-200.000	0.011	0.128
-243.961	-118.000	-0.145	0.026
-242.946	193.766	-0.118	0.176
-241.932	195.785	-0.069	0.104
-240.917	800.000	-0.061	-0.217
-239.903	-50.316	-0.420	-0.196
-238.888	-130.840	0.444	0.059
-237.873	-34.698	-0.383	-0.207
-236.859	800.000	0.072	-0.280
-235.844	800.000	0.043	-0.136
-234.830	477.849	0.106	0.238
-233.815	-152.052	-0.105	-0.008
-232.800	359.208	0.201	0.396
-231.786	-157.966	-0.211	-0.012
-230.771	73.042	-0.030	0.031
-229.757	800.000	-0.038	0.129
-228.742	-139.144	-0.290	-0.031
-227.727	-30.728	0.213	0.119
-226.713	2.825	-0.087	0.063
-225.698	231.995	0.044	-0.071
-224.684	-27.456	-0.086	-0.049
-223.669	-7.598	-0.488	-0.326
-222.655	-49.720	0.112	-0.052
-221.640	-200.000	-0.027	0.248
-220.625	83.174	0.168	-0.180
-219.611	355.544	0.098	0.193
-218.596	-200.000	-0.041	0.218
-217.582	264.583	0.173	-0.297
-216.567	-200.000	0.040	-0.225
-215.552	-200.000	-0.024	-0.307
-214.538	119.313	0.229	-0.280
-213.523	96.551	0.075	0.084
-212.509	-40.402	-0.187	0.096
-211.494	-137.780	0.097	-0.011
-210.479	-99.813	-0.260	-0.064
-209.465	-125.605	-0.198	-0.030
-208.450	-26.014	0.382	-0.222
-207.436	361.034	0.079	0.157
-206.421	32.276	-0.153	0.130
-205.406	153.584	0.073	0.098
-204.392	129.569	-0.168	0.212
-203.377	28.775	0.177	-0.148
-202.363	-25.500	0.264	-0.154
-201.348	66.041	0.070	0.070
-200.333	84.132	-0.039	0.042
-199.319	86.206	-0.186	0.202
-198.304	-200.000	-0.017	0.174
-197.290	606.864	0.059	0.145
-196.275	-71.677	-0.056	-0.021
-195.260	-200.000	-0.039	0.193
-194.246	800.000	0.035	-0.115
-193.231	466.104	-0.082	0.182
-192.217	93.239	0.055	0.061
-191.202	-49.189	0.042	-0.020
-190.187	-120.287	-0.251	-0.042
-189.173	680.367	0.215	0.553
-188.158	666.936	0.051	-0.130
-187.144	-45.188	-0.044	-0.022
-186.129	-50.501	-0.429	-0.200
-185.114	-68.669	0.239	0.091
-184.100	343.215	-0.115	0.223
-183.085	-200.000	0.049	0.327
-182.071	9.691	-0.156	-0.117
-181.056	800.000	-0.069	-0.240
-180.042	-33.697	0.281	0.153
-179.027	-50.131	-0.081	-0.038
-178.012	-200.000	0.023	0.114
-176.998	128.705	0.223	-0.280
-175.983	-200.000	0.001	-0.048
-174.969	-200.000	-0.051	0.316
-173.954	381.781	0.132	0.267
-172.939	52.287	-0.159	0.150
-171.925	142.140	-0.152	-0.199
-170.910	47.688	0.352	0.324
-169.896	19.946	-0.083	0.066
-168.881	800.000	0.052	-0.209
-167.866	-59.158	-0.097	0.041
-166.852	-200.000	-0.001	-0.281
-165.837	272.142	0.230	0.400
-164.823	-168.785	0.195	-0.007
-163.808	5.408	-0.055	0.040
-162.793	-138.028	0.015	0.002
-161.779	471.863	0.034	0.076
-160.764	351.129	0.101	-0.196
-159.750	140.426	0.156	-0.204
-158.735	-106.432	0.131	0.029
-157.720	51.434	-0.286	-0.268
-156.706	27.594	0.212	0.176
-155.691	800.000	0.006	-0.022
-154.677	-53.559	-0.302	-0.136
-153.662	132.853	-0.098	0.124
-152.647	-200.000	0.030	0.144
-151.633	-70.154	-0.119	0.044
-150.618	-84.628	-0.169	0.052
-149.604	800.000	0.131	0.362
-148.589	118.168	-0.162	0.197
-147.574	-200.000	-0.030	-0.144
-146.560	-70.397	-0.211	0.079
-145.545	-133.551	0.214	0.026
-144.531	78.838	0.115	0.121
-143.516	41.748	0.212	0.189
-142.502	106.711	-0.164	-0.191
-141.487	138.536	-0.148	-0.191
-140.472	-123.490	0.266	0.042
-139.458	25.541	0.370	0.303
-138.443	800.000	-0.056	0.168
-137.429	-124.333	0.350	-0.054
-136.414	283.483	-0.123	-0.218
-135.399	302.981	0.088	-0.160
-134.385	-110.364	-0.236	-0.048
-133.370	800.000	0.078	-0.258
-132.356	-75.955	0.387	0.135
-131.341	800.000	-0.042	-0.153
-130.326	290.368	0.162	0.290
-129.312	521.947	-0.102	0.237
-128.297	-104.802	-0.163	0.037
-127.283	800.000	0.057	0.199
-126.268	744.013	0.050	-0.131
-125.253	163.517	0.227	0.314
-124.239	-133.883	-0.121	-0.015
-123.224	446.695	0.059	-0.128
-122.210	57.235	-0.337	-0.323
-121.195	-200.000	-0.079	0.560
