DTS Sentinel unit serial number:	SN413079Multiplexer serial number:	ORYXHardware model number:	OX4-SRSoftware version number:	ORYX F/W v4.00 Oryx Data Collector v3.7.2.0data status	okinstallation	princeton_trtdifferential loss correction	single-endedforward channel	channel 2reverse channel	N/Adate	2019/09/12time	15:41:11forward acquisition time	60.00reverse acquisition time	0.00gamma	496.2192k internal	0.2303k external	0.2303temperature offset calibration	1.0102default loss term (dB/km)	0.3790temperature slope calibration	1.0000multiplexer offset coefficient	1.0000multiplexer slope coefficient	1.0000fibre end	0.00T internal ref (°C)	40.09T ext. ref 1 (°C)	2.47T ext. ref 2 (°C)	32.72length (m)	temperature (°C)	Stokes	anti-Stokes-747.200	-143.735	-0.338	-0.033
-746.185	800.000	-0.170	0.590
-745.171	614.677	0.088	0.224
-744.156	800.000	-0.085	0.275
-743.142	-59.143	0.330	-0.145
-742.127	-200.000	-0.071	0.540
-741.112	261.532	-0.199	0.351
-740.098	-77.329	-0.370	0.131
-739.083	-168.016	-0.212	0.008
-738.069	-200.000	0.017	0.232
-737.054	-3.833	-0.164	0.116
-736.039	-45.083	-0.110	0.056
-735.025	58.955	-0.242	0.242
-734.010	-29.625	0.278	-0.162
-732.996	80.989	-0.019	-0.021
-731.981	67.210	0.209	-0.217
-730.966	-81.099	-0.389	0.131
-729.952	-83.141	-0.605	-0.198
-728.937	-200.000	-0.037	-0.245
-727.923	-200.000	0.034	-0.158
-726.908	-200.000	-0.016	-0.135
-725.894	162.849	-0.133	-0.190
-724.879	-200.000	0.012	0.156
-723.864	-99.265	0.348	0.089
-722.850	-120.458	-0.357	0.062
-721.835	24.318	0.136	-0.115
-720.821	69.179	0.163	-0.171
-719.806	-200.000	0.032	-0.219
-718.791	228.560	-0.053	-0.088
-717.777	-200.000	0.002	0.218
-716.762	-45.362	-0.164	-0.083
-715.748	591.334	0.121	0.304
-714.733	382.973	-0.048	0.101
-713.718	800.000	0.050	0.194
-712.704	-132.310	-0.097	-0.013
-711.689	-88.825	-0.182	0.055
-710.675	-200.000	-0.021	0.251
-709.660	-178.630	0.185	-0.004
-708.645	94.385	-0.091	0.105
-707.631	-74.489	-0.244	0.089
-706.616	-39.772	-0.158	-0.084
-705.602	14.351	-0.157	-0.125
-704.587	-117.945	0.090	-0.016
-703.572	-200.000	-0.030	-0.142
-702.558	-200.000	-0.010	0.138
-701.543	-73.905	0.157	-0.058
-700.529	-200.000	-0.020	-0.111
-699.514	382.874	-0.023	-0.049
-698.499	800.000	-0.071	0.305
-697.485	800.000	-0.019	-0.079
-696.470	-200.000	0.026	0.299
-695.456	-101.849	0.197	-0.049
-694.441	-102.653	0.461	0.112
-693.426	-77.255	0.308	0.109
-692.412	374.374	-0.076	0.158
-691.397	219.043	-0.056	-0.092
-690.383	179.395	-0.151	0.224
-689.368	164.229	-0.076	0.109
-688.354	3.223	0.065	0.048
-687.339	120.310	0.064	0.081
-686.324	-200.000	0.355	0.001
-685.310	-125.874	-0.135	-0.021
-684.295	52.787	-0.154	-0.149
-683.281	-200.000	-0.035	0.203
-682.266	66.954	-0.145	0.151
-681.251	-113.992	-0.271	0.053
-680.237	77.209	0.211	0.228
-679.222	112.298	-0.134	-0.164
-678.208	3.331	0.037	0.028
-677.193	650.903	-0.038	-0.100
-676.178	-102.761	-0.181	-0.044
-675.164	-200.000	0.003	-0.129
-674.149	800.000	0.032	0.112
-673.135	-0.693	-0.109	0.079
-672.120	514.957	-0.066	0.156
-671.105	-68.508	0.149	-0.059
-670.091	800.000	0.060	0.233
-669.076	-119.121	-0.545	-0.097
-668.062	74.026	-0.148	-0.158
-667.047	-200.000	0.005	-0.084
-666.032	-98.634	-0.069	-0.018
-665.018	-24.003	-0.071	0.043
-664.003	43.458	-0.174	-0.162
-662.989	-11.023	-0.246	0.165
-661.974	92.818	0.277	-0.318
-660.959	-173.530	-0.324	0.010
-659.945	233.423	-0.283	0.472
-658.930	38.850	0.046	-0.042
-657.916	-160.576	-0.091	-0.005
-656.901	-105.466	0.264	-0.061
-655.886	395.186	-0.079	-0.167
-654.872	-52.100	0.142	-0.067
-653.857	-20.212	-0.273	-0.171
-652.843	-92.876	0.307	-0.087
-651.828	83.919	0.029	0.032
-650.814	-2.157	-0.180	-0.128
-649.799	191.006	0.121	-0.185
-648.784	157.736	-0.052	-0.074
-647.770	-43.872	-0.294	0.150
-646.755	701.861	-0.032	-0.086
-645.741	126.303	-0.171	-0.219
-644.726	-165.936	0.134	-0.006
-643.711	53.439	-0.288	-0.281
-642.697	329.220	-0.106	0.206
-641.682	73.915	0.077	0.082
-640.668	29.620	-0.284	-0.245
-639.653	800.000	0.053	-0.199
-638.638	136.261	0.134	0.177
-637.624	-70.140	-0.343	0.132
-636.609	-150.203	0.183	0.014
-635.595	-89.869	0.110	0.033
-634.580	63.768	-0.048	-0.049
-633.565	377.521	-0.175	-0.362
-632.551	-200.000	-0.002	0.194
-631.536	-115.695	-0.229	-0.044
-630.522	162.251	0.079	0.113
-629.507	-50.861	-0.216	0.103
-628.492	-130.317	-0.168	-0.023
-627.478	-30.152	0.110	0.063
-626.463	93.911	-0.194	0.223
-625.449	271.413	0.106	-0.189
-624.434	-99.767	0.286	-0.073
-623.419	-106.057	-0.232	0.053
-622.405	-63.779	-0.215	-0.089
-621.390	-200.000	-0.048	0.286
-620.376	-129.706	0.306	0.043
-619.361	-62.959	0.059	-0.025
-618.346	76.758	-0.190	0.204
-617.332	-200.000	-0.023	-0.139
-616.317	-121.539	-0.270	-0.045
-615.303	63.963	0.102	0.104
-614.288	28.430	-0.128	-0.110
-613.273	-200.000	0.031	-0.333
-612.259	-98.452	0.104	0.027
-611.244	116.900	-0.217	-0.270
-610.230	800.000	-0.024	0.082
-609.215	-200.000	0.046	-0.303
-608.201	-53.417	-0.055	-0.026
-607.186	84.590	-0.071	0.079
-606.171	78.197	-0.233	0.252
-605.157	6.688	0.046	0.035
-604.142	122.091	0.104	-0.131
-603.128	-115.998	-0.089	0.017
-602.113	141.020	0.078	-0.105
-601.098	162.266	-0.082	0.117
-600.084	-36.673	0.137	-0.075
-599.069	-26.076	-0.088	-0.053
-598.055	-39.251	0.089	0.048
-597.040	-200.000	0.041	-0.234
-596.025	800.000	0.020	-0.061
-595.011	-60.221	-0.266	0.115
-593.996	8.285	-0.176	0.134
-592.982	800.000	0.058	-0.225
-591.967	-22.148	-0.143	-0.088
-590.952	294.801	0.133	-0.246
-589.938	-200.000	-0.042	0.326
-588.923	-102.185	0.178	0.043
-587.909	218.021	0.099	-0.160
-586.894	79.444	0.066	0.072
-585.879	800.000	-0.059	0.168
-584.865	-200.000	-0.023	-0.233
-583.850	133.704	-0.165	-0.216
-582.836	-200.000	-0.011	0.303
-581.821	122.228	-0.113	-0.143
-580.806	449.364	-0.106	0.237
-579.792	-200.000	-0.054	0.412
-578.777	-157.099	-0.373	-0.023
-577.763	382.516	0.287	0.598
-576.748	800.000	0.025	-0.105
-575.733	313.915	-0.012	-0.023
-574.719	209.630	0.093	-0.147
-573.704	482.474	0.069	0.159
-572.690	-200.000	0.021	-0.288
-571.675	-185.228	0.102	0.002
-570.661	800.000	-0.036	-0.137
-569.646	-78.499	0.212	-0.074
-568.631	-168.251	0.326	0.013
-567.617	-108.160	0.108	0.024
-566.602	57.680	0.091	-0.090
-565.588	662.519	-0.081	-0.212
-564.573	-161.060	0.336	-0.018
-563.558	175.664	-0.102	0.149
-562.544	487.571	-0.025	-0.057
-561.529	-111.880	-0.139	0.028
-560.515	-126.162	-0.445	0.067
-559.500	642.992	0.176	0.453
-558.485	-169.848	0.473	0.017
-557.471	-200.000	0.015	-0.609
-556.456	-104.945	-0.246	-0.057
-555.442	199.839	-0.095	-0.147
-554.427	46.029	-0.099	0.092
-553.412	-200.000	-0.002	0.278
-552.398	-200.000	0.003	-0.224
-551.383	397.400	0.049	-0.104
-550.369	50.208	-0.274	-0.262
-549.354	-91.856	-0.185	-0.053
-548.339	102.405	-0.224	0.265
-547.325	23.390	-0.395	0.328
-546.310	800.000	-0.001	0.002
-545.296	-200.000	-0.059	-0.310
-544.281	800.000	-0.112	0.348
-543.266	180.453	0.156	-0.231
-542.252	800.000	0.042	0.157
-541.237	61.569	-0.208	0.209
-540.223	76.392	-0.202	0.216
-539.208	-52.298	-0.095	-0.044
-538.193	85.059	-0.079	-0.088
-537.179	800.000	-0.060	-0.194
-536.164	-22.416	0.242	-0.148
-535.150	321.656	-0.115	0.221
-534.135	91.729	-0.124	-0.140
-533.121	-200.000	0.016	-0.150
-532.106	-200.000	0.024	-0.351
-531.091	-3.410	-0.292	-0.205
-530.077	-130.817	-0.086	0.012
-529.062	33.035	0.402	-0.352
-528.048	81.475	-0.115	-0.126
-527.033	-200.000	0.027	0.331
-526.018	-73.005	0.143	0.053
-525.004	344.840	0.168	0.333
-523.989	78.719	0.078	0.084
-522.975	-200.000	-0.005	-0.222
-521.960	0.312	0.128	-0.093
-520.945	171.263	-0.096	-0.139
-519.931	-200.000	-0.021	-0.196
-518.916	-78.889	0.182	-0.063
-517.902	-51.128	-0.054	-0.025
-516.887	-110.689	0.121	0.025
-515.872	224.484	-0.099	-0.161
-514.858	329.438	0.212	-0.411
-513.843	-128.095	-0.136	-0.020
-512.829	800.000	0.059	0.195
-511.814	-50.300	0.227	-0.108
-510.799	800.000	-0.016	-0.047
-509.785	-200.000	-0.003	-0.248
-508.770	5.245	-0.196	-0.146
-507.756	14.731	-0.103	0.081
-506.741	-81.561	-0.400	-0.133
-505.726	-28.924	0.121	-0.070
-504.712	119.570	-0.177	-0.222
-503.697	-139.326	0.373	-0.040
-502.683	800.000	-0.090	0.254
-501.668	-200.000	-0.034	0.260
-500.653	800.000	-0.081	0.319
-499.639	224.061	0.232	-0.379
-498.624	-130.359	-0.141	-0.019
-497.610	800.000	-0.059	0.215
-496.595	-20.942	0.147	0.091
-495.581	-155.603	0.092	-0.006
-494.566	-200.000	-0.046	-0.368
-493.551	-200.000	0.004	0.202
-492.537	-161.018	0.438	-0.023
-491.522	108.416	0.251	-0.302
-490.508	137.333	-0.043	0.057
-489.493	407.726	0.136	0.290
-488.478	103.235	0.093	-0.111
-487.464	-51.206	-0.135	-0.064
-486.449	-71.569	-0.532	0.201
-485.435	138.053	-0.111	-0.147
-484.420	331.793	-0.120	0.234
-483.405	-200.000	0.013	0.127
-482.391	800.000	-0.050	0.205
-481.376	-200.000	0.022	-0.376
-480.362	353.489	-0.237	-0.475
-479.347	-200.000	0.052	-0.357
-478.332	69.912	-0.186	-0.194
-477.318	218.813	-0.084	0.135
-476.303	134.286	-0.141	0.184
-475.289	800.000	0.045	0.198
-474.274	800.000	0.067	-0.295
-473.259	600.692	0.103	0.259
-472.245	-200.000	0.026	-0.137
-471.230	-73.542	-0.062	0.023
-470.216	-95.687	-0.336	-0.091
-469.201	-31.392	0.436	-0.247
-468.186	-200.000	0.021	-0.199
-467.172	349.416	-0.190	-0.378
-466.157	-121.360	-0.286	0.048
-465.143	-3.986	-0.182	-0.127
-464.128	43.958	-0.120	-0.110
-463.113	-154.529	0.092	0.006
-462.099	424.320	-0.071	0.154
-461.084	-32.449	-0.340	0.191
-460.070	-200.000	0.013	0.103
-459.055	145.996	0.141	0.191
-458.040	-200.000	-0.066	0.311
-457.026	38.545	0.110	-0.099
-456.011	-43.106	0.306	0.156
-454.997	-123.923	-0.486	0.077
-453.982	-4.944	-0.214	-0.148
-452.968	-138.746	-0.128	-0.014
-451.953	-200.000	0.050	0.409
-450.938	226.151	-0.055	0.090
-449.924	259.576	0.115	-0.199
-448.909	90.938	-0.207	-0.234
-447.895	35.832	-0.194	-0.172
-446.880	-76.349	0.487	-0.172
-445.865	800.000	0.028	0.114
-444.851	-200.000	-0.074	-0.433
-443.836	-87.047	0.125	-0.038
-442.822	-85.377	-0.182	-0.057
-441.807	119.680	-0.140	-0.175
-440.792	-169.679	-0.126	-0.005
-439.778	21.453	0.252	0.206
-438.763	-122.105	0.194	-0.032
-437.749	800.000	0.121	0.412
-436.734	-162.750	-0.099	0.005
-435.719	-6.510	-0.125	-0.086
-434.705	82.325	-0.317	-0.346
-433.690	216.510	0.065	-0.105
-432.676	160.131	-0.128	0.179
-431.661	175.296	-0.018	0.026
-430.646	-200.000	0.002	0.360
-429.632	-46.864	-0.199	0.098
-428.617	-89.774	-0.196	0.058
-427.603	135.094	-0.161	0.211
-426.588	-200.000	0.001	-0.104
-425.573	314.216	-0.116	0.220
-424.559	37.102	-0.193	0.172
-423.544	422.928	-0.070	0.151
-422.530	-200.000	-0.015	0.147
-421.515	48.566	0.081	0.076
-420.500	-3.856	0.171	-0.119
-419.486	-200.000	-0.005	-0.109
-418.471	-102.814	0.217	-0.052
-417.457	-17.003	-0.173	0.110
-416.442	800.000	0.101	0.363
-415.428	-42.648	-0.090	-0.046
-414.413	122.930	-0.114	0.144
-413.398	51.838	0.143	0.137
-412.384	-200.000	0.003	-0.194
-411.369	515.715	0.159	0.374
-410.355	-5.950	0.083	0.057
-409.340	235.077	-0.148	-0.246
-408.325	-121.597	-0.054	0.009
-407.311	800.000	0.169	0.514
-406.296	-200.000	0.001	0.005
-405.282	235.996	0.091	0.151
-404.267	218.762	0.053	0.085
-403.252	39.979	-0.119	-0.107
-402.238	-109.273	-0.163	-0.035
-401.223	-93.180	0.273	0.076
-400.209	-200.000	0.018	-0.353
-399.194	-37.730	-0.121	-0.065
-398.179	449.033	-0.093	-0.206
-397.165	-200.000	-0.044	-0.248
-396.150	-126.390	0.266	0.040
-395.136	-1.333	0.360	0.255
-394.121	-160.463	0.471	-0.025
-393.106	-70.739	-0.047	0.018
-392.092	-151.512	-0.123	0.009
-391.077	-200.000	0.003	-0.148
-390.063	800.000	-0.043	0.142
-389.048	296.335	-0.140	-0.259
-388.033	567.259	-0.058	-0.142
-387.019	-200.000	0.042	0.205
-386.004	-176.588	0.160	0.004
-384.990	800.000	-0.016	0.060
-383.975	89.769	0.199	0.223
-382.960	-200.000	0.001	-0.191
-381.946	800.000	-0.084	0.289
-380.931	-200.000	0.032	0.377
-379.917	-87.967	-0.304	0.092
-378.902	-200.000	-0.004	0.150
-377.888	-200.000	-0.011	-0.074
-376.873	800.000	-0.068	0.255
-375.858	16.908	0.256	0.204
-374.844	-200.000	0.001	-0.118
-373.829	69.948	-0.176	0.182
-372.815	-83.533	-0.211	0.068
-371.800	-15.668	0.213	0.137
-370.785	-26.718	0.164	0.097
-369.771	-2.893	0.172	-0.121
-368.756	800.000	0.062	0.185
-367.742	183.480	0.049	-0.073
-366.727	279.915	0.167	-0.299
-365.712	-73.795	0.233	0.085
-364.698	-183.355	0.312	0.005
-363.683	286.732	-0.112	0.202
-362.669	-43.654	-0.205	0.104
-361.654	-34.032	0.278	0.153
-360.639	29.344	-0.126	0.107
-359.625	24.516	0.160	-0.132
-358.610	-200.000	-0.021	-0.111
-357.596	285.437	-0.113	-0.204
-356.581	-107.418	0.497	-0.109
-355.566	-95.404	0.373	0.101
-354.552	-90.265	0.172	0.050
-353.537	800.000	0.055	0.178
-352.523	-33.531	-0.256	-0.142
-351.508	800.000	0.056	0.155
-350.493	-57.200	0.126	-0.055
-349.479	-200.000	-0.039	-0.320
-348.464	19.623	-0.222	-0.179
-347.450	-100.221	-0.150	0.038
-346.435	-57.718	0.357	-0.157
-345.420	469.327	0.080	0.181
-344.406	574.555	0.096	-0.236
-343.391	-200.000	-0.034	0.280
-342.377	-93.468	-0.142	-0.039
-341.362	100.330	-0.077	0.090
-340.348	-100.530	0.268	-0.066
-339.333	177.494	0.167	-0.244
-338.318	-100.693	0.312	0.077
-337.304	603.939	0.048	-0.119
-336.289	-107.860	0.538	-0.117
-335.275	100.621	0.228	0.266
-334.260	-87.513	-0.196	0.060
-333.245	-77.314	-0.222	0.077
-332.231	-200.000	0.007	0.062
-331.216	5.576	0.175	-0.129
-330.202	-19.058	0.067	0.041
-329.187	-113.927	0.105	0.020
-328.172	671.221	0.061	0.159
-327.158	-137.121	0.270	0.031
-326.143	211.742	0.104	0.163
-325.129	-146.498	0.399	0.035
-324.114	20.110	-0.225	-0.182
-323.099	-121.815	0.220	-0.036
-322.085	800.000	-0.015	-0.057
-321.070	-200.000	-0.074	-0.456
-320.056	752.826	-0.069	-0.187
-319.041	-200.000	0.021	-0.132
-318.026	755.742	0.033	-0.090
-317.012	271.951	-0.195	0.344
-315.997	194.281	0.206	0.312
-314.983	-138.955	-0.188	-0.020
-313.968	34.595	-0.094	0.082
-312.953	-41.640	0.129	-0.066
-311.939	14.576	-0.113	0.089
-310.924	206.749	-0.165	0.257
-309.910	-75.422	-0.153	0.055
-308.895	-200.000	-0.019	0.138
-307.880	-53.708	0.254	-0.116
-306.866	31.863	0.165	-0.142
-305.851	800.000	0.011	0.037
-304.837	-100.257	0.162	-0.040
-303.822	455.180	0.060	-0.133
-302.807	800.000	-0.188	0.524
-301.793	99.616	0.346	0.401
-300.778	-33.759	-0.161	-0.089
-299.764	-54.422	-0.330	-0.150
-298.749	-16.832	-0.227	-0.144
-297.735	-48.459	0.226	-0.109
-296.720	-125.087	0.234	0.036
-295.705	199.223	-0.146	-0.225
-294.691	-91.114	-0.234	-0.067
-293.676	-200.000	-0.043	-0.236
-292.662	-8.868	0.254	0.170
-291.647	-200.000	0.001	0.015
-290.632	800.000	0.091	-0.313
-289.618	-161.603	-0.081	0.004
-288.603	800.000	0.011	-0.031
-287.589	-11.072	-0.216	0.143
-286.574	800.000	0.013	0.044
-285.559	-165.924	-0.342	0.015
-284.545	58.746	-0.329	0.324
-283.530	57.128	0.119	0.116
-282.516	-69.802	0.125	0.048
-281.501	-72.242	-0.267	-0.099
-280.486	-200.000	0.044	-0.263
-279.472	0.513	0.120	-0.086
-278.457	-12.957	0.211	-0.138
-277.443	35.629	0.125	-0.110
-276.428	180.458	0.086	0.126
-275.413	-200.000	0.066	-0.415
-274.399	162.418	-0.148	-0.207
-273.384	177.849	0.120	-0.175
-272.370	-200.000	-0.001	0.203
-271.355	-92.092	-0.439	0.124
-270.340	-200.000	0.006	-0.124
-269.326	157.523	-0.073	-0.102
-268.311	51.735	-0.150	-0.143
-267.297	-0.310	0.183	0.130
-266.282	-200.000	-0.070	-0.332
-265.267	-200.000	0.005	-0.372
-264.253	-18.946	-0.139	-0.086
-263.238	-1.737	-0.315	-0.222
-262.224	295.409	0.157	0.287
-261.209	152.419	0.030	-0.041
-260.195	-200.000	-0.223	0.000
-259.180	273.181	0.055	-0.096
-258.165	-200.000	-0.005	0.081
-257.151	-64.546	0.137	0.055
-256.136	-177.432	-0.158	-0.004
-255.122	-200.000	-0.018	0.091
-254.107	-169.476	-0.126	0.005
-253.092	-40.577	-0.174	-0.090
-252.078	442.815	0.096	0.210
-251.063	-18.839	-0.008	-0.005
-250.049	800.000	0.028	-0.120
-249.034	-158.429	-0.195	-0.011
-248.019	-91.683	0.159	0.045
-247.005	14.262	0.157	-0.122
-245.990	345.864	0.079	-0.155
-244.976	-121.310	-0.099	0.017
-243.961	800.000	0.078	0.337
-242.946	6.689	0.053	-0.039
-241.932	-114.798	0.289	0.055
-240.917	758.168	-0.078	0.212
-239.903	-200.000	0.028	0.397
-238.888	-100.359	-0.154	0.038
-237.873	-34.703	0.223	0.122
-236.859	-198.240	0.226	0.001
-235.844	104.513	0.283	-0.333
-234.830	800.000	-0.062	-0.220
-233.815	164.043	0.110	0.155
-232.800	185.783	0.059	0.088
-231.786	-6.791	-0.357	0.242
-230.771	-118.158	0.115	0.020
-229.757	-183.658	-0.121	0.002
-228.742	-23.984	0.213	-0.127
-227.727	-37.880	-0.286	-0.152
-226.713	800.000	0.056	-0.180
-225.698	800.000	0.137	0.419
-224.684	-49.898	0.169	-0.080
-223.669	364.483	-0.037	0.075
-222.655	306.786	0.006	0.011
-221.640	574.344	0.110	-0.269
-220.625	800.000	0.081	-0.282
-219.611	-57.163	-0.206	-0.091
-218.596	-200.000	0.154	-0.000
-217.582	-200.000	-0.001	-0.322
-216.567	-7.647	0.218	-0.147
-215.552	449.488	-0.084	0.184
-214.538	800.000	0.041	-0.158
-213.523	-200.000	-0.047	-0.216
-212.509	-200.000	0.012	0.093
-211.494	-143.544	0.239	-0.023
-210.479	-27.467	0.243	0.141
-209.465	548.966	-0.098	0.233
-208.450	111.150	-0.117	-0.141
-207.436	139.948	-0.006	-0.008
-206.421	189.698	0.118	-0.177
-205.406	-200.000	0.027	0.149
-204.392	-51.667	0.263	-0.122
-203.377	-200.000	-0.069	0.327
-202.363	-133.443	0.369	-0.046
-201.348	31.810	-0.233	0.200
-200.333	226.360	-0.254	-0.410
-199.319	12.421	-0.133	0.102
-198.304	-43.867	0.496	-0.249
-197.290	318.899	-0.040	-0.075
-196.275	-44.993	-0.465	0.231
-195.260	-36.294	0.192	-0.103
-194.246	800.000	-0.136	-0.442
-193.231	24.428	-0.235	0.194
-192.217	26.703	-0.086	0.072
-191.202	-90.446	0.074	-0.021
-190.187	-85.114	0.341	-0.106
-189.173	147.222	0.140	-0.188
-188.158	429.161	0.142	0.307
-187.144	-200.000	0.035	0.292
-186.129	-54.355	0.041	0.019
-185.114	206.364	0.089	0.138
-184.100	45.910	0.134	0.123
-183.085	252.271	0.119	0.202
-182.071	-152.694	0.349	-0.025
-181.056	-172.159	-0.374	0.012
-180.042	-94.151	-0.028	0.008
-179.027	800.000	-0.025	-0.105
-178.012	800.000	0.008	-0.029
-176.998	-44.518	0.124	0.062
-175.983	800.000	-0.046	-0.141
-174.969	444.024	-0.108	0.236
-173.954	331.311	-0.116	0.223
-172.939	-61.237	-0.247	0.103
-171.925	64.466	0.228	-0.229
-170.910	-17.575	0.217	0.136
-169.896	-200.000	-0.020	0.224
-168.881	-200.000	0.018	-0.457
-167.866	52.763	-0.278	-0.265
-166.852	-180.488	-0.137	-0.003
-165.837	800.000	0.118	0.434
-164.823	39.225	0.252	0.225
-163.808	-27.584	-0.181	0.105
-162.793	477.908	-0.049	-0.110
-161.779	280.216	0.184	0.328
-160.764	478.465	-0.213	0.481
-159.750	-83.333	0.192	-0.061
-158.735	-81.287	-0.078	0.026
-157.720	117.596	0.119	0.146
-156.706	-89.553	0.220	0.064
-155.691	-17.338	-0.192	0.121
-154.677	-200.000	-0.032	0.168
-153.662	-152.034	-0.245	0.018
-152.647	-103.098	0.371	0.087
-151.633	326.681	-0.152	0.289
-150.618	144.476	-0.045	0.060
-149.604	-200.000	0.058	-0.402
-148.589	-89.957	0.237	-0.069
-147.574	-200.000	-0.007	-0.088
-146.560	-200.000	-0.027	0.128
-145.545	-119.377	0.299	0.052
-144.531	84.519	-0.060	-0.065
-143.516	-175.069	-0.299	0.008
-142.502	3.805	0.184	0.134
-141.487	-20.792	0.114	-0.069
-140.472	-57.534	0.311	-0.136
-139.458	-200.000	-0.013	-0.065
-138.443	-6.822	-0.254	-0.172
-137.429	29.378	0.162	0.137
-136.414	800.000	-0.117	0.339
-135.399	14.675	0.331	0.258
-134.385	-148.524	-0.087	0.007
-133.370	186.942	-0.039	-0.058
-132.356	638.351	0.138	0.349
-131.341	83.474	-0.120	0.130
-130.326	30.171	0.098	0.083
-129.312	-200.000	0.027	-0.124
-128.297	-23.402	-0.139	0.083
-127.283	194.225	0.166	-0.249
-126.268	-144.445	-0.314	-0.029
-125.253	-184.878	-0.095	-0.002
-124.239	255.862	0.117	-0.200
-123.224	28.849	-0.192	-0.162
-122.210	46.912	-0.032	0.030
