DTS Sentinel unit serial number:	SN413079Multiplexer serial number:	ORYXHardware model number:	OX4-SRSoftware version number:	ORYX F/W v4.00 Oryx Data Collector v3.7.2.0data status	okinstallation	princeton_trtdifferential loss correction	single-endedforward channel	channel 2reverse channel	N/Adate	2019/09/19time	04:31:35forward acquisition time	60.00reverse acquisition time	0.00gamma	496.2192k internal	0.2351k external	0.2351temperature offset calibration	1.0012default loss term (dB/km)	0.3790temperature slope calibration	1.0000multiplexer offset coefficient	1.0000multiplexer slope coefficient	1.0000fibre end	0.00T internal ref (°C)	20.12T ext. ref 1 (°C)	0.62T ext. ref 2 (°C)	13.12length (m)	temperature (°C)	Stokes	anti-Stokes-747.200	-47.810	-0.414	-0.200
-746.185	-30.359	0.076	0.043
-745.171	-200.000	-0.066	-0.295
-744.156	-58.293	-0.373	0.162
-743.142	-102.275	0.135	-0.032
-742.127	-130.648	-0.466	0.063
-741.112	-69.226	0.047	-0.018
-740.098	-200.000	-0.001	-0.016
-739.083	137.611	0.218	-0.285
-738.069	139.298	-0.068	-0.089
-737.054	-189.631	0.186	0.002
-736.039	80.697	-0.168	0.181
-735.025	20.205	0.289	0.233
-734.010	-0.970	-0.282	-0.199
-732.996	25.929	0.247	-0.206
-731.981	-18.770	-0.173	0.108
-730.966	-81.266	-0.254	-0.084
-729.952	-26.279	-0.084	-0.049
-728.937	-87.496	-0.493	0.149
-727.923	260.325	-0.060	-0.103
-726.908	-77.460	-0.059	-0.021
-725.894	128.381	-0.203	-0.257
-724.879	-58.405	-0.289	-0.125
-723.864	800.000	-0.109	0.304
-722.850	-9.903	0.224	0.149
-721.835	53.200	0.096	-0.092
-720.821	-34.647	0.148	-0.081
-719.806	-78.935	-0.449	0.152
-718.791	-156.839	-0.040	0.002
-717.777	76.988	-0.145	0.154
-716.762	12.863	-0.150	-0.116
-715.748	-136.002	-0.238	0.028
-714.733	134.308	0.179	0.231
-713.718	-200.000	0.029	0.171
-712.704	-166.667	-0.055	0.002
-711.689	-99.742	-0.595	0.149
-710.675	85.977	-0.022	-0.024
-709.660	76.705	-0.175	-0.185
-708.645	-126.692	0.201	0.030
-707.631	463.217	0.100	0.223
-706.616	599.073	0.188	0.464
-705.602	-200.000	0.000	-0.040
-704.587	800.000	-0.073	-0.202
-703.572	27.073	0.117	-0.098
-702.558	800.000	0.052	-0.224
-701.543	-50.608	-0.390	-0.183
-700.529	-200.000	-0.005	-0.163
-699.514	-177.887	-0.174	0.004
-698.499	-141.448	0.315	0.032
-697.485	-49.641	-0.263	0.125
-696.470	-90.266	0.248	0.072
-695.456	41.427	0.187	-0.168
-694.441	-66.856	-0.057	0.022
-693.426	-51.393	-0.090	-0.042
-692.412	800.000	-0.065	0.207
-691.397	-200.000	-0.007	0.184
-690.383	755.812	-0.070	0.188
-689.368	225.495	-0.201	-0.324
-688.354	-28.417	0.148	0.085
-687.339	7.169	0.094	-0.070
-686.324	290.234	-0.122	-0.220
-685.310	-200.000	0.019	-0.162
-684.295	-138.544	0.245	0.027
-683.281	-200.000	-0.001	-0.092
-682.266	112.625	0.098	0.118
-681.251	-142.106	-0.169	-0.017
-680.237	4.827	-0.201	-0.147
-679.222	800.000	-0.106	0.414
-678.208	-172.269	0.244	0.008
-677.193	-15.823	0.120	-0.076
-676.178	800.000	0.098	-0.390
-675.164	-200.000	0.021	-0.157
-674.149	-149.123	0.322	0.026
-673.135	-65.981	-0.172	0.068
-672.120	129.330	-0.167	-0.212
-671.105	-196.600	-0.623	0.004
-670.091	800.000	0.074	0.211
-669.076	615.969	-0.194	0.485
-668.062	-60.092	0.136	-0.058
-667.047	195.355	-0.098	-0.148
-666.032	-44.039	-0.335	-0.167
-665.018	-44.492	0.281	0.140
-664.003	198.823	0.147	0.224
-662.989	-200.000	-0.002	-0.025
-661.974	-157.601	0.073	0.004
-660.959	-128.426	0.125	0.018
-659.945	-68.484	-0.202	0.078
-658.930	0.500	-0.280	-0.199
-657.916	715.927	-0.071	-0.186
-656.901	-173.473	0.198	-0.006
-655.886	82.284	-0.106	-0.114
-654.872	47.904	-0.135	-0.125
-653.857	0.211	0.093	0.066
-652.843	-12.817	0.375	-0.243
-651.828	84.834	-0.200	-0.218
-650.814	60.708	-0.229	-0.225
-649.799	-70.659	0.214	-0.080
-648.784	-200.000	0.103	-0.452
-647.770	-56.390	-0.272	0.120
-646.755	-200.000	-0.041	-0.316
-645.741	-49.388	-0.044	-0.021
-644.726	109.094	-0.220	0.262
-643.711	-141.056	-0.345	-0.035
-642.697	-122.953	0.195	-0.031
-641.682	-123.227	-0.123	0.020
-640.668	285.796	0.079	-0.142
-639.653	-200.000	0.029	-0.395
-638.638	499.897	-0.081	-0.185
-637.624	-21.491	0.293	-0.177
-636.609	-130.347	-0.297	-0.040
-635.595	101.209	0.130	-0.150
-634.580	689.469	-0.053	-0.139
-633.565	58.042	-0.258	0.251
-632.551	-70.579	0.141	-0.053
-631.536	-75.225	0.569	-0.202
-630.522	57.633	0.150	0.146
-629.507	-200.000	-0.019	0.127
-628.492	404.480	-0.046	0.096
-627.478	-2.559	-0.113	-0.079
-626.463	96.323	-0.213	0.242
-625.449	-200.000	-0.015	-0.108
-624.434	-113.044	-0.073	0.014
-623.419	-165.739	0.286	-0.012
-622.405	-83.645	0.093	-0.030
-621.390	-200.000	0.005	0.098
-620.376	152.037	0.122	0.165
-619.361	-54.622	-0.280	0.126
-618.346	262.638	0.077	0.134
-617.332	-122.043	-0.056	0.009
-616.317	342.167	-0.118	0.230
-615.303	60.208	0.129	-0.126
-614.288	800.000	-0.036	-0.137
-613.273	82.019	0.088	0.095
-612.259	-176.039	-0.248	-0.007
-611.244	334.112	0.017	-0.033
-610.230	329.309	0.149	-0.283
-609.215	-200.000	-0.010	-0.201
-608.201	-84.774	0.154	0.048
-607.186	40.610	-0.156	0.139
-606.171	-74.925	-0.148	-0.053
-605.157	-91.478	0.026	0.007
-604.142	-43.440	-0.298	-0.149
-603.128	-169.626	-0.269	0.010
-602.113	68.007	-0.062	0.063
-601.098	-110.827	0.304	0.062
-600.084	17.129	-0.247	-0.194
-599.069	-200.000	-0.020	-0.239
-598.055	-29.530	-0.226	0.128
-597.040	7.443	0.153	-0.113
-596.025	229.253	-0.224	0.363
-595.011	70.212	-0.072	0.074
-593.996	-52.155	0.202	0.093
-592.982	-200.000	0.006	-0.281
-591.967	-200.000	0.023	-0.229
-590.952	-29.930	-0.184	0.104
-589.938	-124.053	-0.348	-0.054
-588.923	-99.731	0.120	0.030
-587.909	112.823	0.085	-0.102
-586.894	-161.010	0.166	0.009
-585.879	76.945	-0.194	0.205
-584.865	-51.099	-0.268	-0.124
-583.850	-32.854	0.205	0.113
-582.836	-60.666	0.150	0.063
-581.821	-89.562	0.240	-0.070
-580.806	-200.000	0.087	-0.414
-579.792	-200.000	-0.016	-0.118
-578.777	-200.000	0.054	-0.276
-577.763	46.816	0.326	0.300
-576.748	-62.147	-0.244	-0.101
-575.733	-29.909	0.073	0.041
-574.719	137.685	-0.063	-0.082
-573.704	225.028	-0.176	0.282
-572.690	-200.000	0.061	0.350
-571.675	800.000	-0.059	0.233
-570.661	-99.246	-0.336	-0.084
-569.646	-160.150	0.096	-0.005
-568.631	43.554	0.142	-0.129
-567.617	-112.585	0.391	-0.077
-566.602	-9.985	0.026	-0.017
-565.588	28.297	0.247	0.207
-564.573	327.786	-0.050	-0.095
-563.558	-200.000	-0.053	-0.237
-562.544	-81.759	0.217	-0.071
-561.529	25.066	-0.281	-0.231
-560.515	-84.590	-0.142	0.044
-559.500	98.338	0.172	0.196
-558.485	-126.208	-0.327	-0.048
-557.471	-33.777	0.154	0.084
-556.456	34.120	0.370	-0.319
-555.442	135.718	-0.230	0.296
-554.427	10.690	-0.130	0.098
-553.412	70.825	0.249	-0.255
-552.398	466.218	-0.133	-0.295
-551.383	150.927	0.145	0.196
-550.369	-200.000	0.029	-0.161
-549.354	-200.000	0.027	-0.152
-548.339	-70.819	0.049	0.018
-547.325	-110.936	0.037	-0.008
-546.310	56.883	0.050	0.049
-545.296	-200.000	-0.048	-0.308
-544.281	-103.018	0.316	-0.074
-543.266	73.739	-0.266	0.276
-542.252	-200.000	0.046	-0.343
-541.237	47.666	0.336	0.311
-540.223	-87.112	0.291	0.088
-539.208	-120.118	-0.086	0.015
-538.193	-152.558	-0.478	0.034
-537.179	-200.000	-0.020	0.106
-536.164	-145.394	0.172	0.015
-535.150	-200.000	-0.003	0.250
-534.135	-200.000	-0.019	0.165
-533.121	800.000	-0.044	0.173
-532.106	-200.000	0.027	-0.135
-531.091	92.317	0.101	-0.113
-530.077	800.000	0.106	0.313
-529.062	93.992	-0.127	-0.142
-528.048	176.531	-0.017	-0.025
-527.033	-91.704	0.350	-0.098
-526.018	3.286	0.241	0.174
-525.004	481.636	-0.074	-0.166
-523.989	263.678	0.077	-0.132
-522.975	-46.314	0.180	-0.088
-521.960	-102.847	-0.048	0.011
-520.945	-79.744	0.326	-0.109
-519.931	82.721	-0.316	0.339
-518.916	-8.232	0.216	-0.144
-517.902	-134.713	-0.429	-0.052
-516.887	-200.000	-0.016	0.373
-515.872	-200.000	-0.034	-0.243
-514.858	26.752	0.156	-0.129
-513.843	136.145	-0.062	-0.079
-512.829	800.000	0.032	-0.096
-511.814	374.317	0.187	0.377
-510.799	226.218	0.080	-0.128
-509.785	663.203	-0.076	0.193
-508.770	181.358	-0.013	-0.019
-507.756	-200.000	-0.055	-0.248
-506.741	-98.299	0.026	-0.007
-505.726	-178.147	0.017	-0.000
-504.712	17.306	-0.191	0.150
-503.697	-45.035	0.079	0.039
-502.683	76.714	-0.016	-0.017
-501.668	136.196	-0.025	-0.032
-500.653	-200.000	-0.029	-0.143
-499.639	12.424	-0.027	-0.021
-498.624	800.000	-0.084	0.347
-497.610	328.890	0.074	0.141
-496.595	-159.641	0.046	-0.003
-495.581	-82.667	0.438	-0.140
-494.566	-200.000	0.011	0.140
-493.551	47.987	-0.133	-0.123
-492.537	800.000	0.103	-0.313
-491.522	178.860	-0.029	0.042
-490.508	-79.737	-0.132	0.044
-489.493	537.312	0.059	-0.138
-488.478	368.413	-0.171	-0.341
-487.464	-98.175	0.230	0.058
-486.449	-91.792	0.203	0.057
-485.435	-200.000	0.010	0.050
-484.420	-120.699	0.203	-0.034
-483.405	-154.802	-0.094	-0.006
-482.391	274.675	0.057	0.099
-481.376	-200.000	-0.008	-0.035
-480.362	-200.000	-0.000	0.206
-479.347	-93.758	-0.195	-0.053
-478.332	-11.827	0.388	0.251
-477.318	187.843	0.051	0.075
-476.303	358.085	0.183	0.360
-475.289	296.259	-0.043	0.077
-474.274	-71.771	0.366	0.135
-473.259	206.075	-0.133	-0.205
-472.245	24.093	0.140	0.114
-471.230	800.000	0.095	0.323
-470.216	-17.499	0.136	-0.084
-469.201	66.536	0.164	0.164
-468.186	-200.000	-0.007	0.050
-467.172	-110.150	0.152	0.031
-466.157	13.098	0.116	-0.089
-465.143	-200.000	-0.006	-0.238
-464.128	-13.367	-0.126	-0.081
-463.113	-200.000	0.013	-0.218
-462.099	243.764	-0.130	0.216
-461.084	800.000	-0.068	-0.239
-460.070	6.559	0.244	0.179
-459.055	30.184	-0.149	-0.126
-458.040	490.720	0.115	0.260
-457.026	-200.000	-0.046	0.237
-456.011	82.822	-0.040	0.043
-454.997	583.842	0.110	-0.267
-453.982	-200.000	0.010	0.200
-452.968	6.312	-0.143	-0.105
-451.953	-200.000	0.038	-0.247
-450.938	248.842	0.114	-0.190
-449.924	81.671	-0.173	-0.184
-448.909	-200.000	-0.019	-0.119
-447.895	800.000	-0.088	0.322
-446.880	800.000	0.077	0.314
-445.865	134.945	0.028	-0.036
-444.851	-103.286	0.541	-0.126
-443.836	-200.000	0.004	-0.255
-442.822	62.686	0.106	0.104
-441.807	598.820	0.283	-0.692
-440.792	431.711	-0.061	0.130
-439.778	194.545	0.031	0.046
-438.763	-200.000	-0.005	0.434
-437.749	800.000	0.081	0.237
-436.734	444.094	0.019	-0.041
-435.719	-24.150	-0.187	-0.110
-434.705	-155.171	0.183	-0.012
-433.690	166.995	-0.140	-0.196
-432.676	-200.000	-0.007	-0.293
-431.661	-108.917	-0.117	-0.025
-430.646	574.501	0.023	-0.054
-429.632	-81.271	0.197	0.064
-428.617	-200.000	0.026	-0.197
-427.603	203.883	-0.425	-0.648
-426.588	-75.724	-0.259	0.091
-425.573	-31.415	-0.204	-0.113
-424.559	530.128	0.132	0.308
-423.544	-67.550	-0.215	-0.083
-422.530	26.601	-0.094	-0.077
-421.515	454.688	0.050	0.110
-420.500	800.000	-0.123	0.401
-419.486	456.926	0.078	0.170
-418.471	4.877	-0.086	0.062
-417.457	-86.830	-0.245	0.074
-416.442	-79.250	-0.185	-0.062
-415.428	-34.235	-0.437	-0.236
-414.413	-21.530	0.535	0.321
-413.398	267.672	0.048	0.082
-412.384	162.460	0.073	-0.101
-411.369	28.369	-0.165	0.137
-410.355	800.000	-0.063	0.195
-409.340	28.353	-0.331	0.275
-408.325	62.269	-0.173	0.170
-407.311	-20.911	0.125	0.076
-406.296	229.738	-0.119	-0.192
-405.282	394.409	-0.114	0.235
-404.267	24.947	0.186	0.152
-403.252	800.000	-0.037	0.114
-402.238	800.000	0.096	0.396
-401.223	-151.571	0.228	0.017
-400.209	-200.000	-0.005	0.289
-399.194	569.982	-0.179	-0.427
-398.179	-56.530	0.134	-0.059
-397.165	369.570	-0.067	0.134
-396.150	-9.351	0.200	0.132
-395.136	-200.000	0.018	-0.208
-394.121	-200.000	0.002	0.197
-393.106	-200.000	0.028	-0.281
-392.092	159.779	-0.153	0.209
-391.077	-200.000	0.006	-0.083
-390.063	-76.797	-0.190	0.065
-389.048	-100.376	0.320	0.078
-388.033	524.809	-0.147	0.339
-387.019	-58.033	0.089	0.038
-386.004	132.506	-0.147	0.187
-384.990	410.434	0.135	-0.282
-383.975	92.756	0.170	-0.189
-382.960	-16.651	0.363	0.226
-381.946	800.000	0.048	-0.157
-380.931	612.914	0.122	-0.301
-379.917	795.941	-0.056	0.153
-378.902	-200.000	0.020	-0.275
-377.888	-65.485	0.168	-0.066
-376.873	54.561	-0.099	0.094
-375.858	-200.000	-0.036	0.167
-374.844	153.579	-0.233	-0.314
-373.829	-164.847	-0.443	-0.020
-372.815	289.731	0.056	-0.099
-371.800	-72.524	-0.090	0.033
-370.785	159.029	-0.205	-0.280
-369.771	65.034	-0.091	0.090
-368.756	-200.000	-0.001	-0.203
-367.742	-46.568	0.177	0.085
-366.727	-72.355	0.119	-0.043
-365.712	33.806	-0.125	0.107
-364.698	-53.801	0.307	0.138
-363.683	226.964	0.081	0.130
-362.669	-8.605	-0.128	0.084
-361.654	0.741	0.161	-0.113
-360.639	547.081	0.079	-0.186
-359.625	-104.065	-0.482	0.110
-358.610	91.477	-0.133	0.147
-357.596	161.283	-0.103	0.142
-356.581	175.942	-0.162	-0.231
-355.566	41.930	0.104	-0.092
-354.552	800.000	0.008	0.032
-353.537	-116.144	-0.294	0.054
-352.523	800.000	-0.035	-0.131
-351.508	-0.977	0.095	0.066
-350.493	-125.760	0.134	0.020
-349.479	135.508	-0.167	0.213
-348.464	-45.456	-0.066	-0.032
-347.450	-145.058	-0.109	-0.010
-346.435	800.000	-0.041	0.128
-345.420	-18.447	0.302	0.185
-344.406	-80.079	-0.258	-0.085
-343.391	-200.000	-0.012	0.163
-342.377	40.850	0.051	0.045
-341.362	268.901	0.078	0.135
-340.348	151.892	0.171	-0.229
-339.333	-82.553	-0.209	-0.067
-338.318	121.957	-0.143	-0.175
-337.304	-85.586	-0.324	0.099
-336.289	129.078	-0.095	-0.119
-335.275	-200.000	-0.029	-0.132
-334.260	375.271	0.248	0.496
-333.245	289.289	0.047	-0.083
-332.231	-185.324	0.275	0.004
-331.216	800.000	-0.032	0.087
-330.202	-17.602	0.045	0.028
-329.187	-159.029	0.324	-0.018
-328.172	446.797	0.088	0.190
-327.158	-40.606	0.084	0.043
-326.143	121.432	-0.237	-0.290
-325.129	-141.653	0.091	0.009
-324.114	-167.757	-0.157	0.006
-323.099	-60.418	-0.390	-0.163
-322.085	-200.000	0.025	0.254
-321.070	201.179	0.232	-0.350
-320.056	578.903	-0.088	-0.211
-319.041	-200.000	0.009	-0.105
-318.026	138.616	0.029	-0.038
-317.012	-85.500	0.151	0.046
-315.997	64.036	0.116	0.115
-314.983	635.263	0.050	-0.124
-313.968	-200.000	0.013	0.085
-312.953	487.677	-0.067	-0.149
-311.939	-200.000	0.002	0.182
-310.924	-134.840	0.125	0.015
-309.910	-19.025	-0.205	0.125
-308.895	145.251	-0.130	0.170
-307.880	-106.794	0.108	-0.024
-306.866	-200.000	0.048	-0.215
-305.851	-42.522	-0.233	-0.117
-304.837	9.828	-0.033	-0.025
-303.822	-20.690	0.104	-0.063
-302.807	-200.000	0.010	-0.108
-301.793	-67.863	0.241	-0.092
-300.778	-200.000	-0.028	-0.132
-299.764	264.687	0.175	-0.299
-298.749	-58.439	0.135	0.057
-297.735	0.389	-0.231	-0.162
-296.720	-125.010	0.219	-0.033
-295.705	-75.183	0.127	0.045
-294.691	-7.272	0.204	-0.135
-293.676	-200.000	0.006	-0.516
-292.662	-58.554	0.273	0.116
-291.647	-200.000	-0.073	-0.326
-290.632	-95.228	-0.126	-0.033
-289.618	-71.339	-0.188	0.069
-288.603	-16.991	-0.304	-0.188
-287.589	-58.396	-0.263	-0.112
-286.574	800.000	-0.038	0.121
-285.559	189.414	-0.107	0.157
-284.545	303.878	0.050	-0.092
-283.530	183.571	0.032	-0.046
-282.516	800.000	-0.052	-0.213
-281.501	-48.862	0.178	-0.084
-280.486	217.436	-0.096	-0.150
-279.472	-138.199	0.411	-0.045
-278.457	800.000	-0.037	0.112
-277.443	800.000	-0.027	-0.112
-276.428	129.775	0.279	0.349
-275.413	138.927	-0.231	0.297
-274.399	-147.656	0.243	-0.020
-273.384	399.064	-0.019	-0.039
-272.370	49.909	-0.154	-0.142
-271.355	-55.827	0.184	-0.081
-270.340	-168.978	0.172	0.006
-269.326	800.000	-0.043	0.156
-268.311	-75.015	-0.123	-0.043
-267.297	214.306	0.159	0.246
-266.282	339.871	-0.052	0.100
-265.267	253.256	0.094	0.158
-264.253	-55.242	-0.243	0.107
-263.238	249.062	0.125	-0.208
-262.224	-200.000	0.022	-0.100
-261.209	-200.000	0.050	0.497
-260.195	-35.140	-0.230	0.123
-259.180	-110.925	0.148	0.030
-258.165	-111.477	-0.384	0.077
-257.151	343.745	0.082	0.157
-256.136	436.078	0.047	-0.101
-255.122	616.997	-0.051	0.125
-254.107	-157.301	0.084	0.005
-253.092	-62.536	0.301	-0.122
-252.078	218.936	0.226	0.354
-251.063	36.327	0.124	0.107
-250.049	-134.644	-0.390	-0.047
-249.034	41.698	-0.119	0.105
-248.019	-200.000	-0.021	0.101
-247.005	15.800	-0.122	-0.094
-245.990	-26.016	-0.130	-0.075
-244.976	-200.000	-0.046	0.231
-243.961	800.000	-0.124	-0.341
-242.946	-106.020	-0.182	0.040
-241.932	-13.947	0.297	-0.187
-240.917	-112.032	-0.455	0.090
-239.903	-5.893	0.069	-0.047
-238.888	-55.979	0.067	0.029
-237.873	800.000	-0.095	0.323
-236.859	800.000	-0.048	-0.187
-235.844	552.729	0.039	0.091
-234.830	-200.000	-0.028	0.244
-233.815	320.843	-0.121	-0.225
-232.800	-103.386	0.186	0.043
-231.786	34.279	-0.228	0.195
-230.771	-76.774	-0.133	-0.045
-229.757	180.146	-0.167	0.239
-228.742	-144.621	0.133	0.012
-227.727	-44.410	-0.249	-0.122
-226.713	59.756	0.065	0.063
-225.698	-71.162	-0.081	-0.030
-224.684	-131.287	0.076	0.010
-223.669	800.000	0.025	-0.070
-222.655	0.926	-0.074	-0.052
-221.640	110.077	0.013	-0.015
-220.625	-200.000	0.030	0.291
-219.611	-74.880	0.024	-0.008
-218.596	-122.179	0.219	-0.035
-217.582	284.696	0.029	0.052
-216.567	800.000	-0.073	-0.274
-215.552	-72.441	-0.039	-0.014
-214.538	-200.000	0.002	0.058
-213.523	437.745	-0.059	0.127
-212.509	243.829	-0.075	0.124
-211.494	-47.442	-0.138	-0.066
-210.479	800.000	-0.033	0.111
-209.465	473.606	-0.073	-0.160
-208.450	37.435	-0.025	-0.022
-207.436	-124.569	-0.479	-0.073
-206.421	-200.000	-0.074	0.393
-205.406	-99.803	0.061	-0.015
-204.392	-165.700	0.063	-0.003
-203.377	291.441	0.091	-0.163
-202.363	182.563	0.117	0.169
-201.348	-77.396	0.265	0.090
-200.333	-70.974	-0.097	-0.036
-199.319	-129.359	0.290	0.039
-198.304	-72.310	-0.184	0.066
-197.290	170.255	0.175	0.245
-196.275	454.713	0.147	-0.318
-195.260	-18.335	-0.147	-0.090
-194.246	-80.534	-0.267	0.087
-193.231	-51.634	0.109	0.050
-192.217	-173.625	-0.168	0.005
-191.202	249.785	-0.127	0.211
-190.187	-200.000	0.017	0.091
-189.173	711.622	-0.041	-0.105
-188.158	95.237	0.262	-0.292
-187.144	310.309	0.267	-0.487
-186.129	-200.000	0.008	-0.102
-185.114	-96.889	0.132	-0.034
-184.100	-1.308	0.115	0.079
-183.085	677.001	-0.038	0.097
-182.071	286.476	-0.202	-0.355
-181.056	800.000	0.030	0.089
-180.042	25.917	-0.306	-0.249
-179.027	-116.613	-0.225	0.040
-178.012	-200.000	-0.031	-0.317
-176.998	-2.062	0.132	0.090
-175.983	-66.855	-0.208	-0.080
-174.969	-129.289	0.088	-0.012
-173.954	-200.000	-0.051	0.333
-172.939	-47.186	0.150	-0.071
-171.925	-200.000	0.014	0.294
-170.910	-100.090	0.238	0.058
-169.896	-49.257	-0.326	0.152
-168.881	-200.000	0.025	-0.169
-167.866	800.000	0.052	-0.171
-166.852	-116.739	0.169	0.030
-165.837	-72.044	-0.245	-0.089
-164.823	-139.084	0.227	-0.024
-163.808	183.574	-0.060	0.086
-162.793	-59.213	-0.116	0.049
-161.779	-43.008	-0.247	0.122
-160.764	67.702	0.342	0.341
-159.750	-200.000	0.035	0.179
-158.735	331.656	-0.073	-0.137
-157.720	162.516	-0.044	0.060
-156.706	377.004	-0.062	-0.123
-155.691	319.372	0.064	0.117
-154.677	-107.969	-0.182	-0.039
-153.662	628.458	0.136	0.336
-152.647	14.529	-0.073	0.055
-151.633	194.192	-0.169	-0.250
-150.618	-200.000	-0.013	0.245
-149.604	144.521	0.064	-0.083
-148.589	-88.616	0.247	-0.072
-147.574	-39.911	0.048	0.024
-146.560	-79.769	-0.112	-0.037
-145.545	96.090	-0.115	-0.128
-144.531	18.492	-0.147	0.115
-143.516	-4.568	-0.130	0.087
-142.502	-73.954	-0.321	0.113
-141.487	-200.000	-0.014	0.113
-140.472	-116.591	0.279	0.050
-139.458	-200.000	-0.024	0.199
-138.443	-78.862	0.234	0.078
-137.429	153.330	-0.056	-0.074
-136.414	-98.851	-0.260	-0.064
-135.399	-93.834	0.199	-0.053
-134.385	21.328	0.129	0.102
-133.370	800.000	-0.044	0.155
-132.356	-52.735	0.230	-0.103
-131.341	-200.000	0.023	-0.202
-130.326	144.383	0.190	0.247
-129.312	389.604	-0.126	0.254
-128.297	-17.690	-0.071	-0.044
-127.283	-96.541	0.179	0.046
-126.268	-3.062	0.051	0.035
-125.253	562.991	0.013	-0.032
-124.239	-66.918	0.101	0.039
-123.224	186.540	-0.190	-0.276
-122.210	-84.621	-0.250	-0.077
-121.195	-200.000	0.013	0.075
