DTS Sentinel unit serial number:	SN413079Multiplexer serial number:	ORYXHardware model number:	OX4-SRSoftware version number:	ORYX F/W v4.00 Oryx Data Collector v3.7.2.0data status	okinstallation	princeton_trtdifferential loss correction	single-endedforward channel	channel 2reverse channel	N/Adate	2019/09/11time	19:37:10forward acquisition time	60.00reverse acquisition time	0.00gamma	496.2192k internal	0.2306k external	0.2306temperature offset calibration	1.0050default loss term (dB/km)	0.3790temperature slope calibration	1.0000multiplexer offset coefficient	1.0000multiplexer slope coefficient	1.0000fibre end	0.00T internal ref (°C)	40.00T ext. ref 1 (°C)	1.33T ext. ref 2 (°C)	32.28length (m)	temperature (°C)	Stokes	anti-Stokes-747.200	800.000	0.036	-0.133
-746.185	57.751	-0.217	0.216
-745.171	104.801	-0.016	-0.020
-744.156	14.079	0.257	0.204
-743.142	-200.000	0.066	-0.484
-742.127	800.000	-0.094	0.275
-741.112	383.779	-0.137	0.286
-740.098	-200.000	-0.032	0.271
-739.083	-43.982	0.231	-0.118
-738.069	-40.283	0.184	-0.097
-737.054	109.764	-0.202	0.246
-736.039	222.641	-0.162	0.266
-735.025	398.378	0.090	-0.192
-734.010	17.665	-0.307	0.248
-732.996	-74.274	-0.525	0.193
-731.981	92.084	-0.242	-0.278
-730.966	-152.835	0.185	-0.013
-729.952	307.326	-0.102	0.193
-728.937	618.564	-0.076	-0.195
-727.923	128.793	-0.042	0.054
-726.908	-153.993	-0.121	0.008
-725.894	-79.738	0.214	-0.073
-724.879	-110.894	-0.063	-0.013
-723.864	121.539	0.118	-0.150
-722.850	34.278	0.163	-0.145
-721.835	-99.909	-0.476	-0.121
-720.821	-121.090	-0.114	-0.019
-719.806	-64.929	-0.205	-0.084
-718.791	-53.845	-0.165	-0.077
-717.777	485.715	-0.072	-0.166
-716.762	-200.000	0.159	0.000
-715.748	-29.032	-0.099	0.058
-714.733	518.911	0.100	-0.239
-713.718	601.860	0.122	-0.309
-712.704	60.385	-0.101	-0.102
-711.689	-153.963	0.239	0.017
-710.675	-200.000	-0.048	-0.260
-709.660	68.886	-0.276	0.288
-708.645	-176.478	-0.235	-0.006
-707.631	-46.826	0.159	0.079
-706.616	517.759	-0.047	0.112
-705.602	48.740	-0.101	0.096
-704.587	-42.790	-0.195	0.100
-703.572	-102.758	-0.288	0.070
-702.558	23.305	0.193	0.161
-701.543	-142.213	-0.286	-0.029
-700.529	98.887	-0.086	0.101
-699.514	-200.000	0.019	0.095
-698.499	-89.707	-0.186	-0.055
-697.485	800.000	-0.061	-0.257
-696.470	648.914	0.016	0.041
-695.456	-58.628	0.267	-0.117
-694.441	90.280	-0.194	-0.221
-693.426	180.783	0.107	0.160
-692.412	206.851	-0.033	0.052
-691.397	173.450	0.179	-0.263
-690.383	-70.626	0.124	0.048
-689.368	-200.000	0.032	-0.275
-688.354	45.582	-0.151	0.142
-687.339	-200.000	-0.055	0.247
-686.324	-200.000	0.074	-0.361
-685.310	-120.740	-0.040	0.007
-684.295	141.944	0.129	0.173
-683.281	-177.722	-0.132	0.003
-682.266	-200.000	0.053	-0.375
-681.251	-200.000	0.028	-0.268
-680.237	13.609	0.094	0.074
-679.222	-25.867	0.364	0.218
-678.208	-200.000	-0.233	0.001
-677.193	-34.135	0.098	0.055
-676.178	-3.846	-0.118	0.083
-675.164	-0.515	-0.142	-0.102
-674.149	-112.530	-0.315	-0.064
-673.135	-122.095	0.198	-0.033
-672.120	131.104	0.077	0.100
-671.105	312.815	0.044	-0.084
-670.091	-73.703	-0.090	0.033
-669.076	179.320	-0.143	0.213
-668.062	800.000	-0.016	0.063
-667.047	136.856	-0.142	0.189
-666.032	18.378	0.401	-0.325
-665.018	194.601	0.083	-0.128
-664.003	800.000	0.078	0.231
-662.989	-87.053	0.273	-0.084
-661.974	-76.830	-0.302	0.107
-660.959	201.007	0.139	-0.217
-659.945	155.171	-0.095	-0.132
-658.930	60.925	0.150	-0.151
-657.916	-18.795	0.361	-0.228
-656.901	413.859	-0.252	-0.543
-655.886	-27.739	0.088	-0.052
-654.872	-200.000	-0.038	0.221
-653.857	-136.237	-0.256	-0.030
-652.843	-49.706	-0.253	0.122
-651.828	649.693	-0.121	-0.313
-650.814	107.868	0.094	-0.114
-649.799	30.411	-0.237	-0.205
-648.784	-26.215	-0.222	0.132
-647.770	-83.817	-0.364	-0.118
-646.755	508.583	0.123	0.290
-645.741	-200.000	-0.017	-0.119
-644.726	195.017	0.019	-0.030
-643.711	-122.005	0.056	0.009
-642.697	93.976	0.155	-0.178
-641.682	-200.000	0.022	0.325
-640.668	800.000	-0.123	0.437
-639.653	-200.000	0.005	0.127
-638.638	-21.181	0.180	0.112
-637.624	800.000	-0.009	-0.032
-636.609	-99.947	0.338	0.085
-635.595	130.071	0.067	-0.087
-634.580	-140.133	-0.278	0.030
-633.565	-200.000	0.026	0.131
-632.551	28.407	0.168	0.144
-631.536	-200.000	0.338	0.000
-630.522	22.680	-0.281	0.233
-629.507	-136.260	-0.295	0.035
-628.492	-82.617	-0.110	0.036
-627.478	-200.000	0.012	-0.062
-626.463	209.284	-0.083	0.132
-625.449	-200.000	-0.026	0.193
-624.434	-200.000	-0.071	0.345
-623.419	6.626	0.272	-0.205
-622.405	218.817	-0.190	-0.308
-621.390	-39.551	0.177	-0.094
-620.376	462.734	0.211	-0.476
-619.361	-2.112	-0.145	-0.103
-618.346	-200.000	0.004	-0.064
-617.332	53.599	0.129	0.126
-616.317	-117.539	0.071	0.013
-615.303	226.065	-0.114	0.187
-614.288	-54.633	0.065	-0.030
-613.273	156.300	-0.087	0.121
-612.259	-200.000	0.038	-0.294
-611.244	-148.857	0.368	0.030
-610.230	-65.632	0.475	0.193
-609.215	-146.633	0.168	-0.015
-608.201	-47.068	0.212	0.105
-607.186	800.000	-0.088	-0.314
-606.171	-82.323	0.057	0.019
-605.157	-24.446	-0.024	0.014
-604.142	-15.345	-0.285	-0.184
-603.128	800.000	0.080	0.242
-602.113	99.011	-0.212	-0.248
-601.098	-156.584	0.141	-0.009
-600.084	59.498	-0.091	-0.091
-599.069	-14.748	-0.077	-0.050
-598.055	372.103	0.094	0.194
-597.040	449.748	-0.064	0.143
-596.025	-200.000	-0.015	-0.266
-595.011	20.277	-0.136	0.111
-593.996	340.828	-0.059	0.117
-592.982	-44.084	-0.231	-0.117
-591.967	800.000	0.078	-0.250
-590.952	800.000	-0.078	-0.240
-589.938	-46.442	0.142	-0.070
-588.923	35.298	0.130	-0.116
-587.909	800.000	-0.112	0.314
-586.894	-200.000	-0.005	0.076
-585.879	-149.670	0.298	0.024
-584.865	19.586	-0.065	-0.053
-583.850	-113.495	-0.218	0.043
-582.836	800.000	0.134	0.401
-581.821	-161.707	0.173	-0.009
-580.806	307.768	0.195	0.368
-579.792	70.212	0.085	-0.088
-578.777	-133.090	0.107	-0.014
-577.763	717.156	0.215	-0.576
-576.748	-200.000	-0.053	-0.257
-575.733	25.745	-0.141	-0.119
-574.719	-173.159	0.099	-0.003
-573.704	-200.000	-0.004	0.112
-572.690	-112.017	-0.147	0.030
-571.675	-141.736	0.403	0.041
-570.661	-200.000	0.016	-0.135
-569.646	-134.041	0.135	0.017
-568.631	800.000	0.106	-0.333
-567.617	800.000	-0.051	0.209
-566.602	143.515	0.049	-0.066
-565.588	-200.000	0.010	-0.184
-564.573	-33.631	-0.257	0.143
-563.558	24.476	0.185	-0.154
-562.544	82.793	0.013	-0.014
-561.529	800.000	-0.101	-0.335
-560.515	-64.915	0.174	0.071
-559.500	-200.000	0.020	0.123
-558.485	119.223	-0.116	0.144
-557.471	-200.000	0.030	-0.239
-556.456	331.929	0.166	0.323
-555.442	134.769	-0.182	0.239
-554.427	-0.648	-0.300	-0.215
-553.412	-34.392	-0.385	0.213
-552.398	223.210	-0.124	-0.203
-551.383	243.143	0.127	0.216
-550.369	800.000	0.059	0.246
-549.354	137.971	0.123	0.163
-548.339	192.343	-0.064	0.098
-547.325	341.037	0.119	0.235
-546.310	34.413	-0.140	-0.123
-545.296	169.265	-0.151	-0.217
-544.281	-128.979	0.194	0.027
-543.266	-36.999	-0.318	-0.172
-542.252	157.866	0.112	-0.157
-541.237	-103.091	0.159	0.038
-540.223	-200.000	0.020	-0.198
-539.208	-31.049	0.210	0.119
-538.193	20.870	0.179	-0.146
-537.179	148.816	-0.190	0.259
-536.164	-57.619	0.129	0.057
-535.150	-200.000	-0.003	-0.288
-534.135	800.000	0.089	-0.307
-533.121	-84.380	-0.172	0.055
-532.106	38.918	-0.259	-0.234
-531.091	522.994	-0.051	-0.122
-530.077	-200.000	0.010	-0.209
-529.062	800.000	0.118	-0.364
-528.048	363.754	-0.217	-0.440
-527.033	439.254	-0.098	-0.215
-526.018	144.981	0.095	-0.128
-525.004	-161.823	-0.313	-0.016
-523.989	-100.594	0.335	-0.083
-522.975	-15.207	-0.358	0.231
-521.960	800.000	-0.047	0.182
-520.945	392.152	-0.141	-0.296
-519.931	14.242	-0.160	0.126
-518.916	-9.606	0.333	0.224
-517.902	80.775	0.187	0.203
-516.887	605.478	-0.102	0.255
-515.872	-146.429	0.042	-0.004
-514.858	800.000	0.032	-0.138
-513.843	543.397	-0.056	0.135
-512.829	149.461	-0.141	-0.192
-511.814	-67.347	-0.339	-0.134
-510.799	800.000	-0.020	-0.067
-509.785	-12.030	-0.227	-0.150
-508.770	107.236	0.159	0.191
-507.756	-34.816	-0.145	0.080
-506.741	373.324	0.058	0.119
-505.726	454.670	-0.028	0.064
-504.712	800.000	0.065	0.190
-503.697	124.799	0.189	-0.240
-502.683	-8.572	-0.194	-0.131
-501.668	50.906	-0.139	-0.132
-500.653	-58.036	-0.127	-0.056
-499.639	46.546	0.093	-0.087
-498.624	-7.798	-0.046	-0.031
-497.610	61.275	-0.228	-0.229
-496.595	36.988	0.241	0.215
-495.581	-139.287	0.062	0.007
-494.566	99.724	0.095	0.111
-493.551	180.603	-0.116	-0.171
-492.537	3.431	0.075	-0.055
-491.522	-144.289	-0.222	-0.021
-490.508	-200.000	-0.011	-0.113
-489.493	-118.270	0.533	-0.096
-488.478	-63.890	0.024	-0.010
-487.464	-200.000	-0.013	-0.129
-486.449	800.000	-0.079	-0.343
-485.435	201.014	-0.204	0.315
-484.420	-54.508	-0.055	0.025
-483.405	342.289	0.059	-0.116
-482.391	55.144	0.135	0.132
-481.376	624.860	-0.100	0.254
-480.362	-33.746	-0.165	0.091
-479.347	572.112	0.042	0.102
-478.332	-95.825	0.182	-0.049
-477.318	-48.061	0.099	-0.048
-476.303	245.606	-0.139	-0.235
-475.289	-177.802	0.284	0.007
-474.274	-6.001	0.362	-0.249
-473.259	-200.000	-0.046	0.225
-472.245	-43.481	-0.042	0.021
-471.230	-95.626	-0.094	0.025
-470.216	81.109	-0.105	-0.114
-469.201	-154.948	0.249	0.017
-468.186	-200.000	0.013	0.146
-467.172	163.126	0.124	-0.176
-466.157	-200.000	0.012	-0.116
-465.143	-52.299	0.056	0.026
-464.128	564.615	0.139	0.339
-463.113	800.000	0.037	0.135
-462.099	800.000	-0.030	0.098
-461.084	-136.898	-0.057	0.007
-460.070	-200.000	0.030	-0.285
-459.055	-200.000	0.051	0.412
-458.040	-150.896	0.345	-0.026
-457.026	-155.631	-0.154	0.010
-456.011	174.338	0.264	-0.384
-454.997	93.539	0.062	0.071
-453.982	144.465	-0.114	0.153
-452.968	316.750	-0.201	-0.382
-451.953	800.000	0.030	-0.115
-450.938	-132.451	-0.177	-0.023
-449.924	800.000	0.084	0.326
-448.909	-25.322	-0.236	0.141
-447.895	-47.466	0.284	0.139
-446.880	-1.109	0.192	-0.137
-445.865	800.000	0.070	0.216
-444.851	91.663	0.173	-0.196
-443.836	-165.217	-0.240	0.011
-442.822	-44.018	-0.250	-0.126
-441.807	-200.000	-0.015	-0.348
-440.792	800.000	-0.045	0.152
-439.778	-58.082	-0.219	-0.096
-438.763	187.354	-0.109	0.164
-437.749	51.312	0.238	0.228
-436.734	12.870	0.211	0.164
-435.719	89.416	-0.091	-0.102
-434.705	206.246	0.120	0.187
-433.690	311.131	-0.031	-0.059
-432.676	328.431	0.168	0.324
-431.661	-101.172	0.182	-0.045
-430.646	37.063	0.363	0.323
-429.632	-200.000	-0.029	0.330
-428.617	129.644	-0.065	0.083
-427.603	50.795	-0.272	-0.259
-426.588	447.427	0.081	-0.179
-425.573	142.300	-0.313	0.417
-424.559	293.092	0.319	0.585
-423.544	-108.069	-0.048	0.010
-422.530	-128.715	-0.179	-0.025
-421.515	-200.000	-0.042	0.196
-420.500	-200.000	0.064	0.390
-419.486	27.703	-0.202	0.171
-418.471	-200.000	-0.024	-0.177
-417.457	-200.000	-0.019	-0.349
-416.442	92.854	0.070	-0.079
-415.428	131.108	-0.157	-0.202
-414.413	62.494	0.108	-0.108
-413.398	569.988	0.042	-0.102
-412.384	-130.720	0.207	-0.028
-411.369	800.000	0.040	0.150
-410.355	651.159	0.077	-0.199
-409.340	-123.950	-0.270	0.043
-408.325	366.867	-0.097	-0.196
-407.311	180.212	0.299	0.440
-406.296	10.969	0.081	0.062
-405.282	-80.261	-0.128	0.043
-404.267	155.501	-0.066	-0.091
-403.252	800.000	-0.040	-0.128
-402.238	192.617	-0.038	-0.057
-401.223	687.507	0.019	-0.050
-400.209	-200.000	0.003	0.350
-399.194	-87.352	0.081	-0.025
-398.179	800.000	-0.021	0.078
-397.165	800.000	0.067	0.194
-396.150	232.347	0.084	0.138
-395.136	-200.000	0.017	0.242
-394.121	800.000	-0.096	-0.292
-393.106	-85.186	-0.239	0.075
-392.092	97.219	-0.099	-0.114
-391.077	-118.476	0.462	-0.082
-390.063	6.235	0.365	-0.271
-389.048	71.805	0.172	-0.179
-388.033	-121.057	0.310	-0.052
-387.019	-14.238	-0.394	-0.255
-386.004	89.063	-0.195	-0.218
-384.990	-130.927	0.188	0.025
-383.975	656.339	0.038	0.098
-382.960	91.689	0.022	-0.025
-381.946	215.650	0.103	0.165
-380.931	-200.000	-0.027	-0.137
-379.917	-9.992	-0.134	-0.089
-378.902	87.680	-0.194	0.215
-377.888	-132.291	0.266	0.034
-376.873	-22.217	0.150	0.091
-375.858	-138.728	-0.402	0.044
-374.844	800.000	0.052	0.161
-373.829	727.307	0.084	-0.225
-372.815	-64.616	0.178	-0.072
-371.800	800.000	-0.049	0.138
-370.785	-198.022	-0.429	-0.003
-369.771	427.954	-0.087	-0.187
-368.756	418.198	0.068	-0.147
-367.742	-140.398	-0.213	0.022
-366.727	100.661	0.119	-0.139
-365.712	-68.994	-0.432	-0.167
-364.698	-122.399	0.051	-0.008
-363.683	-61.705	-0.063	0.027
-362.669	127.015	-0.128	0.162
-361.654	616.634	-0.066	0.166
-360.639	-148.017	0.082	-0.007
-359.625	89.798	0.020	-0.023
-358.610	145.135	0.094	-0.125
-357.596	67.269	0.177	-0.181
-356.581	-70.632	-0.083	-0.032
-355.566	800.000	-0.029	-0.102
-354.552	40.875	-0.057	0.052
-353.537	-76.581	-0.208	0.073
-352.523	-34.539	-0.132	0.072
-351.508	800.000	0.094	-0.289
-350.493	31.992	0.077	0.067
-349.479	-127.263	0.044	0.006
-348.464	-200.000	-0.001	-0.032
-347.450	221.678	0.089	-0.144
-346.435	-200.000	-0.038	-0.315
-345.420	10.820	-0.292	-0.224
-344.406	-200.000	0.037	-0.285
-343.391	176.144	0.052	0.076
-342.377	45.227	-0.323	-0.298
-341.362	98.063	0.100	-0.116
-340.348	-200.000	-0.003	-0.056
-339.333	222.440	-0.060	0.096
-338.318	73.952	-0.328	-0.344
-337.304	-91.108	-0.302	-0.087
-336.289	-200.000	0.009	-0.261
-335.275	-169.541	-0.290	0.011
-334.260	32.211	-0.198	-0.171
-333.245	193.788	0.156	0.236
-332.231	800.000	0.034	0.101
-331.216	-19.038	-0.263	-0.164
-330.202	-119.231	-0.378	0.066
-329.187	-200.000	0.013	0.072
-328.172	-168.181	0.264	-0.010
-327.158	-200.000	-0.012	-0.123
-326.143	334.862	0.187	-0.363
-325.129	53.523	0.230	0.221
-324.114	800.000	-0.097	0.294
-323.099	80.331	0.281	0.302
-322.085	800.000	-0.056	-0.164
-321.070	107.816	-0.137	-0.164
-320.056	-118.203	-0.165	-0.029
-319.041	-11.879	-0.069	-0.045
-318.026	44.070	0.133	-0.122
-317.012	-73.226	-0.165	0.060
-315.997	-200.000	0.002	0.325
-314.983	21.769	0.323	-0.263
-313.968	-100.706	0.044	0.011
-312.953	32.970	0.202	0.175
-311.939	196.279	-0.187	0.285
-310.924	800.000	0.025	-0.105
-309.910	-121.823	0.136	-0.022
-308.895	64.419	0.079	0.080
-307.880	-200.000	-0.029	-0.281
-306.866	-89.086	0.121	-0.036
-305.851	-102.659	0.169	0.040
-304.837	800.000	-0.133	-0.379
-303.822	-74.564	-0.191	0.069
-302.807	25.166	-0.177	-0.147
-301.793	57.370	-0.126	0.123
-300.778	-91.428	0.101	-0.029
-299.764	-157.543	0.188	0.011
-298.749	-200.000	0.068	0.301
-297.735	617.130	-0.068	-0.170
-296.720	728.986	-0.107	0.287
-295.705	800.000	-0.029	0.114
-294.691	-174.891	0.250	0.007
-293.676	348.143	0.076	-0.150
-292.662	-24.730	-0.380	-0.226
-291.647	150.634	0.126	-0.172
-290.632	-88.615	0.122	-0.036
-289.618	78.591	0.121	0.129
-288.603	134.976	0.270	0.351
-287.589	90.850	-0.190	0.213
-286.574	-61.057	-0.370	-0.156
-285.559	-84.118	-0.175	-0.055
-284.545	-2.188	0.179	-0.125
-283.530	121.879	-0.103	0.128
-282.516	-200.000	-0.095	0.485
-281.501	-200.000	0.039	0.190
-280.486	-81.727	-0.225	0.074
-279.472	-38.183	0.360	0.191
-278.457	37.626	0.177	-0.157
-277.443	-119.645	0.109	0.019
-276.428	245.646	0.195	0.329
-275.413	81.128	0.094	-0.102
-274.399	385.968	0.036	0.074
-273.384	-121.363	-0.272	0.045
-272.370	488.741	-0.083	-0.189
-271.355	-121.065	-0.110	0.019
-270.340	761.845	-0.015	0.040
-269.326	-200.000	0.013	0.300
-268.311	800.000	-0.096	0.375
-267.297	305.382	0.079	0.146
-266.282	-100.828	-0.090	0.022
-265.267	24.490	-0.140	-0.116
-264.253	-139.308	-0.109	-0.012
-263.238	-200.000	0.016	0.142
-262.224	-200.000	-0.014	-0.165
-261.209	800.000	-0.052	-0.149
-260.195	-145.241	0.370	0.033
-259.180	16.236	-0.149	-0.117
-258.165	-2.539	-0.263	0.184
-257.151	70.728	0.137	0.142
-256.136	-97.246	-0.119	0.031
-255.122	69.659	0.170	0.175
-254.107	393.550	-0.164	0.341
-253.092	-128.488	0.247	0.035
-252.078	-200.000	0.044	-0.239
-251.063	800.000	0.070	-0.204
-250.049	165.938	-0.108	-0.153
-249.034	210.004	0.025	0.039
-248.019	-46.084	-0.216	-0.106
-247.005	273.658	0.107	0.189
-245.990	356.325	0.167	0.332
-244.976	9.509	-0.214	0.161
-243.961	-48.349	0.146	-0.070
-242.946	800.000	-0.044	0.168
-241.932	-200.000	0.017	0.260
-240.917	684.842	0.049	-0.128
-239.903	-69.792	-0.196	0.074
-238.888	-143.840	0.373	0.035
-237.873	-200.000	0.004	0.052
-236.859	70.017	-0.167	0.172
-235.844	78.952	-0.065	0.069
-234.830	-200.000	-0.000	0.358
-233.815	-136.974	-0.085	0.010
-232.800	36.384	-0.307	-0.270
-231.786	-6.084	0.128	-0.087
-230.771	455.097	0.127	0.280
-229.757	-200.000	-0.011	-0.137
-228.742	725.099	0.004	0.010
-227.727	90.351	0.152	0.169
-226.713	-125.579	-0.333	-0.050
-225.698	800.000	0.049	-0.141
-224.684	37.157	0.428	0.378
-223.669	-200.000	-0.000	0.056
-222.655	-10.258	0.132	0.088
-221.640	-53.602	-0.232	-0.106
-220.625	800.000	-0.012	0.040
-219.611	-110.772	0.421	0.087
-218.596	77.946	0.290	0.309
-217.582	111.259	-0.018	-0.022
-216.567	-200.000	0.076	-0.335
-215.552	-81.404	0.256	-0.084
-214.538	243.231	0.082	-0.138
-213.523	115.380	-0.215	0.261
-212.509	597.219	-0.030	0.075
-211.494	800.000	-0.067	0.205
-210.479	653.098	0.090	-0.230
-209.465	-144.515	-0.166	0.015
-208.450	-144.775	-0.398	0.036
-207.436	437.627	0.079	-0.171
-206.421	16.147	0.183	0.144
-205.406	83.325	-0.134	0.145
-204.392	-188.648	0.299	0.004
-203.377	62.122	-0.146	0.146
-202.363	-24.384	-0.293	-0.174
-201.348	-17.526	-0.139	-0.087
-200.333	-108.884	0.194	0.041
-199.319	-132.342	-0.071	0.009
-198.304	612.583	-0.026	0.064
-197.290	-200.000	0.022	0.157
-196.275	191.808	-0.184	0.276
-195.260	-200.000	-0.020	0.118
-194.246	-161.098	0.099	0.005
-193.231	-193.986	0.102	-0.001
-192.217	-200.000	-0.034	-0.262
-191.202	44.909	-0.071	-0.065
-190.187	279.198	0.100	-0.177
-189.173	800.000	-0.039	-0.160
-188.158	71.740	0.212	0.219
-187.144	800.000	0.063	-0.246
-186.129	663.310	-0.055	-0.141
-185.114	-82.905	0.373	-0.120
-184.100	-111.196	-0.025	0.005
-183.085	-40.461	0.084	-0.043
-182.071	25.702	0.199	-0.165
-181.056	74.162	-0.026	-0.027
-180.042	-108.250	-0.173	-0.037
-179.027	-72.427	0.115	-0.042
-178.012	800.000	-0.116	0.336
-176.998	82.154	-0.143	-0.154
-175.983	-200.000	-0.007	-0.070
-174.969	174.750	-0.118	0.170
-173.954	146.793	-0.161	-0.215
-172.939	-121.868	-0.045	0.007
-171.925	-98.251	0.314	-0.080
-170.910	-200.000	0.016	-0.328
-169.896	800.000	-0.125	0.389
-168.881	-76.091	0.230	-0.081
-167.866	59.449	-0.159	0.156
-166.852	-85.530	-0.072	-0.022
-165.837	-81.057	-0.291	0.096
-164.823	-112.461	0.259	0.051
-163.808	-200.000	-0.042	-0.204
-162.793	-200.000	0.030	-0.224
-161.779	-57.904	-0.199	-0.086
-160.764	-129.569	-0.401	0.055
-159.750	-33.229	0.091	0.050
-158.735	105.601	0.047	0.055
-157.720	41.518	0.141	-0.127
-156.706	307.305	-0.121	0.225
-155.691	-200.000	0.068	-0.484
-154.677	-70.812	0.095	0.035
-153.662	284.980	-0.090	-0.160
-152.647	-5.052	0.046	0.032
-151.633	-141.561	-0.047	0.005
-150.618	-170.497	0.477	0.017
-149.604	-200.000	-0.002	0.047
-148.589	-200.000	0.004	-0.466
-147.574	120.321	0.057	-0.070
-146.560	-92.692	-0.208	0.058
-145.545	87.116	-0.110	0.121
-144.531	-75.560	-0.363	0.128
-143.516	-8.694	0.332	0.221
-142.502	-67.929	-0.350	-0.136
-141.487	-23.370	0.308	-0.184
-140.472	47.379	0.117	-0.108
-139.458	-82.439	-0.351	-0.113
-138.443	220.271	-0.073	0.117
-137.429	-101.586	0.193	0.047
-136.414	261.063	0.201	-0.346
-135.399	-200.000	-0.035	-0.364
-134.385	-190.782	0.066	-0.001
-133.370	-200.000	-0.017	0.130
-132.356	419.163	0.071	-0.151
-131.341	172.364	0.092	-0.131
-130.326	-109.540	0.252	-0.053
-129.312	-200.000	-0.002	0.014
-128.297	31.978	-0.133	0.114
-127.283	800.000	-0.013	0.042
-126.268	-73.717	-0.238	-0.086
-125.253	402.809	-0.112	-0.233
-124.239	313.149	0.056	-0.105
-123.224	-35.271	0.105	-0.057
-122.210	-186.963	0.374	-0.005
-121.195	-200.000	0.019	-0.291
