DTS Sentinel unit serial number:	SN413079Multiplexer serial number:	ORYXHardware model number:	OX4-SRSoftware version number:	ORYX F/W v4.00 Oryx Data Collector v3.7.2.0data status	okinstallation	princeton_trtdifferential loss correction	single-endedforward channel	channel 2reverse channel	N/Adate	2019/09/18time	16:43:35forward acquisition time	60.00reverse acquisition time	0.00gamma	496.2192k internal	0.2299k external	0.2299temperature offset calibration	1.0013default loss term (dB/km)	0.3790temperature slope calibration	1.0000multiplexer offset coefficient	1.0000multiplexer slope coefficient	1.0000fibre end	0.00T internal ref (°C)	39.81T ext. ref 1 (°C)	0.86T ext. ref 2 (°C)	36.52length (m)	temperature (°C)	Stokes	anti-Stokes-747.200	54.973	0.123	-0.121
-746.185	-200.000	0.001	0.045
-745.171	241.233	0.121	0.207
-744.156	642.730	-0.033	0.086
-743.142	114.385	0.145	0.181
-742.127	113.574	-0.078	0.096
-741.112	67.442	-0.090	-0.094
-740.098	-36.600	-0.359	0.197
-739.083	-64.525	0.341	-0.141
-738.069	-56.981	-0.250	0.113
-737.054	124.285	-0.085	-0.109
-736.039	-161.729	-0.340	-0.018
-735.025	161.583	0.184	0.262
-734.010	-191.103	-0.215	-0.002
-732.996	19.112	-0.019	-0.016
-731.981	-135.988	-0.408	0.049
-730.966	-56.718	0.108	0.049
-729.952	-79.217	-0.274	0.095
-728.937	-120.076	-0.289	0.050
-727.923	-129.646	-0.226	0.032
-726.908	562.788	0.076	-0.188
-725.894	44.217	-0.028	0.026
-724.879	705.819	0.100	0.268
-723.864	-152.029	0.074	-0.006
-722.850	283.688	0.040	-0.073
-721.835	-146.543	0.100	0.009
-720.821	800.000	0.092	-0.262
-719.806	-200.000	-0.013	-0.230
-718.791	52.642	-0.191	-0.186
-717.777	-200.000	-0.054	-0.339
-716.762	-200.000	0.003	0.024
-715.748	-75.558	0.260	0.094
-714.733	800.000	-0.036	-0.145
-713.718	-19.827	-0.224	0.141
-712.704	-62.666	-0.394	-0.166
-711.689	-16.923	0.250	-0.161
-710.675	-55.674	0.304	-0.139
-709.660	800.000	0.068	-0.234
-708.645	93.287	0.196	-0.226
-707.631	800.000	-0.046	-0.173
-706.616	-200.000	0.203	0.000
-705.602	20.290	0.346	-0.285
-704.587	-42.765	0.197	0.102
-703.572	103.861	0.095	0.114
-702.558	-63.641	0.312	-0.130
-701.543	317.426	0.161	0.309
-700.529	344.105	-0.042	-0.083
-699.514	-92.384	-0.052	0.015
-698.499	82.742	0.100	-0.111
-697.485	-200.000	0.008	-0.215
-696.470	-44.672	-0.358	-0.182
-695.456	5.797	0.225	0.170
-694.441	525.120	0.024	-0.057
-693.426	517.085	-0.051	0.122
-692.412	800.000	0.029	-0.089
-691.397	-175.664	0.234	-0.006
-690.383	268.221	-0.110	0.196
-689.368	-200.000	0.032	-0.228
-688.354	8.204	0.125	0.095
-687.339	792.525	0.038	0.106
-686.324	138.339	-0.126	-0.168
-685.310	308.424	0.082	-0.156
-684.295	800.000	-0.093	-0.264
-683.281	-50.384	-0.401	-0.193
-682.266	95.972	0.134	-0.156
-681.251	148.057	-0.143	0.197
-680.237	-200.000	0.032	0.177
-679.222	205.300	0.111	-0.176
-678.208	234.072	-0.238	-0.399
-677.193	75.813	-0.150	-0.161
-676.178	-5.946	0.096	-0.067
-675.164	16.020	0.161	-0.129
-674.149	84.076	-0.081	-0.090
-673.135	114.547	-0.138	-0.171
-672.120	-100.657	-0.329	-0.083
-671.105	563.102	-0.108	-0.266
-670.091	233.983	-0.143	-0.240
-669.076	466.830	0.034	-0.077
-668.062	800.000	-0.021	-0.073
-667.047	800.000	0.050	-0.196
-666.032	-37.299	-0.105	0.057
-665.018	-20.081	-0.121	0.076
-664.003	134.618	0.218	0.287
-662.989	-76.306	0.239	-0.086
-661.974	96.459	0.127	-0.147
-660.959	-125.426	0.293	0.045
-659.945	800.000	-0.065	-0.226
-658.930	-46.456	0.245	-0.122
-657.916	350.162	-0.123	0.247
-656.901	-133.982	-0.183	0.023
-655.886	-1.440	0.104	-0.075
-654.872	-81.186	-0.156	-0.053
-653.857	-146.112	-0.232	-0.021
-652.843	-200.000	0.014	0.179
-651.828	-200.000	0.048	0.304
-650.814	162.125	0.065	-0.093
-649.799	48.317	-0.146	0.139
-648.784	-15.728	0.353	0.229
-647.770	122.092	0.112	-0.143
-646.755	-156.238	-0.261	-0.017
-645.741	188.791	-0.047	-0.072
-644.726	35.663	0.265	0.237
-643.711	125.614	-0.122	0.156
-642.697	-96.583	0.041	-0.011
-641.682	-83.348	0.127	-0.041
-640.668	-171.260	0.077	0.003
-639.653	-198.402	-0.384	-0.002
-638.638	-22.245	0.171	-0.105
-637.624	-152.605	0.286	-0.021
-636.609	30.333	-0.134	0.116
-635.595	-149.520	0.264	-0.021
-634.580	490.264	0.077	-0.180
-633.565	-55.562	-0.231	0.105
-632.551	-147.393	0.146	0.013
-631.536	13.990	-0.182	0.144
-630.522	172.470	-0.079	-0.115
-629.507	-200.000	0.021	-0.108
-628.492	198.755	-0.058	-0.091
-627.478	383.123	-0.158	-0.331
-626.463	-114.709	-0.251	0.049
-625.449	800.000	-0.013	-0.057
-624.434	-200.000	0.029	-0.171
-623.419	-125.392	0.045	-0.007
-622.405	155.139	-0.282	-0.394
-621.390	-43.112	-0.101	0.052
-620.376	-136.673	-0.341	0.040
-619.361	-200.000	0.097	-0.585
-618.346	155.671	-0.077	0.108
-617.332	800.000	-0.022	0.077
-616.317	295.012	-0.021	-0.039
-615.303	-19.658	0.293	-0.184
-614.288	8.786	0.271	0.207
-613.273	-200.000	0.035	-0.262
-612.259	-200.000	-0.001	-0.205
-611.244	305.131	-0.027	-0.051
-610.230	130.302	0.077	0.100
-609.215	207.607	-0.243	0.385
-608.201	-175.520	-0.324	-0.009
-607.186	-20.266	0.079	0.049
-606.171	595.899	0.117	0.295
-605.157	-50.965	-0.242	-0.115
-604.142	-200.000	-0.007	0.177
-603.128	422.557	0.094	0.205
-602.113	7.026	0.110	0.083
-601.098	80.401	0.050	-0.054
-600.084	-78.500	0.133	0.046
-599.069	5.534	-0.281	0.211
-598.055	-123.868	-0.041	-0.007
-597.040	50.373	0.115	-0.111
-596.025	16.863	0.207	-0.166
-595.011	-121.310	-0.273	0.046
-593.996	157.673	0.130	-0.183
-592.982	-200.000	0.003	-0.205
-591.967	-28.808	0.328	0.191
-590.952	-28.877	0.089	0.052
-589.938	-161.770	0.144	-0.007
-588.923	-174.828	-0.073	-0.002
-587.909	-144.717	0.225	0.021
-586.894	-43.807	0.218	-0.112
-585.879	-200.000	-0.050	0.274
-584.865	-33.568	0.207	-0.116
-583.850	-124.640	0.518	0.082
-582.836	-71.198	0.013	0.005
-581.821	-144.667	0.158	-0.015
-580.806	-91.465	0.356	0.103
-579.792	-79.456	0.262	0.090
-578.777	142.158	0.103	-0.138
-577.763	-47.952	0.323	-0.158
-576.748	-200.000	-0.007	-0.043
-575.733	800.000	0.019	-0.076
-574.719	-80.335	-0.243	-0.082
-573.704	271.741	-0.036	-0.064
-572.690	683.597	0.081	-0.214
-571.675	371.556	0.099	-0.203
-570.661	-200.000	-0.000	-0.153
-569.646	425.355	-0.114	0.249
-568.631	-46.267	-0.272	0.135
-567.617	420.093	0.168	0.365
-566.602	558.175	-0.040	-0.098
-565.588	110.761	-0.084	-0.103
-564.573	482.088	0.066	0.153
-563.558	32.459	0.128	-0.112
-562.544	-38.287	-0.128	-0.069
-561.529	549.052	0.042	0.101
-560.515	-200.000	0.039	0.433
-559.500	168.327	-0.092	0.133
-558.485	-28.635	0.108	0.063
-557.471	-200.000	0.004	0.104
-556.456	-139.525	0.074	0.008
-555.442	-200.000	0.021	-0.142
-554.427	-143.692	-0.446	-0.043
-553.412	-19.363	0.163	0.102
-552.398	-47.724	-0.213	-0.105
-551.383	597.649	-0.059	0.147
-550.369	-200.000	-0.043	0.307
-549.354	732.845	-0.080	-0.217
-548.339	-200.000	0.059	-0.284
-547.325	-93.482	0.204	0.057
-546.310	-200.000	-0.003	0.038
-545.296	800.000	-0.039	-0.159
-544.281	72.866	-0.195	-0.206
-543.266	-144.544	0.246	-0.023
-542.252	-200.000	0.014	0.408
-541.237	800.000	-0.106	0.331
-540.223	84.584	-0.135	0.149
-539.208	-133.878	0.250	-0.031
-538.193	274.842	0.161	-0.289
-537.179	-200.000	-0.020	0.230
-536.164	-200.000	-0.010	0.107
-535.150	97.587	-0.066	0.076
-534.135	178.797	0.122	0.180
-533.121	26.661	0.050	0.042
-532.106	800.000	0.074	0.214
-531.091	800.000	-0.014	-0.052
-530.077	402.259	-0.071	-0.150
-529.062	-74.660	0.393	0.143
-528.048	-200.000	-0.001	0.126
-527.033	-11.539	-0.175	0.117
-526.018	195.614	0.107	0.164
-525.004	411.213	0.117	-0.252
-523.989	308.599	-0.128	0.241
-522.975	-42.057	-0.141	0.073
-521.960	-102.144	0.110	0.027
-520.945	-90.517	-0.079	0.023
-519.931	53.823	-0.208	0.202
-518.916	-50.470	0.380	-0.182
-517.902	10.845	0.157	-0.122
-516.887	-74.720	-0.171	0.062
-515.872	46.404	0.164	-0.154
-514.858	-193.548	0.217	0.002
-513.843	800.000	0.096	0.318
-512.829	-82.521	-0.249	0.082
-511.814	-200.000	-0.014	-0.077
-510.799	109.099	-0.093	-0.113
-509.785	66.354	0.371	0.381
-508.770	-200.000	0.005	0.116
-507.756	11.849	-0.365	-0.283
-506.741	-178.740	0.114	0.003
-505.726	238.884	0.165	0.278
-504.712	-120.974	-0.362	-0.061
-503.697	-119.559	-0.394	0.069
-502.683	266.583	0.048	-0.084
-501.668	-117.185	-0.192	-0.035
-500.653	-73.149	-0.128	0.048
-499.639	-200.000	0.003	-0.300
-498.624	-200.000	0.014	0.197
-497.610	-200.000	0.027	0.448
-496.595	800.000	-0.044	-0.161
-495.581	468.248	-0.070	-0.159
-494.566	120.817	-0.053	0.066
-493.551	-28.288	-0.090	0.052
-492.537	261.722	0.138	0.242
-491.522	90.137	-0.086	-0.097
-490.508	-138.931	-0.564	0.062
-489.493	800.000	-0.116	-0.325
-488.478	800.000	0.093	-0.399
-487.464	203.298	0.067	-0.104
-486.449	-79.809	-0.174	-0.059
-485.435	-47.223	0.047	-0.023
-484.420	395.235	-0.016	-0.035
-483.405	419.577	-0.099	0.214
-482.391	-200.000	-0.003	0.170
-481.376	83.332	-0.138	0.152
-480.362	-166.877	-0.106	0.004
-479.347	754.867	0.100	-0.274
-478.332	26.879	-0.223	-0.189
-477.318	53.166	-0.125	-0.121
-476.303	83.433	-0.060	-0.066
-475.289	-200.000	-0.027	-0.211
-474.274	-70.972	-0.074	0.028
-473.259	-128.693	0.379	0.054
-472.245	268.569	-0.047	-0.082
-471.230	196.970	0.078	0.121
-470.216	-200.000	0.001	-0.116
-469.201	-93.105	-0.213	-0.060
-468.186	-88.351	-0.104	-0.031
-467.172	-139.572	-0.290	0.031
-466.157	-87.661	0.154	0.047
-465.143	-200.000	-0.002	-0.121
-464.128	-70.083	0.078	0.030
-463.113	178.564	-0.079	0.117
-462.099	800.000	-0.048	0.147
-461.084	-5.984	-0.140	-0.097
-460.070	70.748	-0.047	0.049
-459.055	-162.848	0.157	-0.008
-458.040	349.803	-0.106	0.211
-457.026	5.333	0.119	-0.089
-456.011	800.000	-0.033	0.115
-454.997	296.421	-0.218	0.403
-453.982	92.892	0.155	0.176
-452.968	-115.653	-0.078	0.015
-451.953	33.683	-0.266	-0.233
-450.938	289.288	0.148	-0.270
-449.924	189.103	0.069	-0.104
-448.909	4.805	0.270	-0.200
-447.895	-200.000	-0.022	0.187
-446.880	293.494	0.181	0.333
-445.865	-200.000	0.000	-0.124
-444.851	57.982	0.283	0.280
-443.836	800.000	-0.026	-0.113
-442.822	165.900	-0.083	0.118
-441.807	-44.719	-0.173	0.087
-440.792	99.604	-0.253	0.295
-439.778	-18.283	-0.262	0.165
-438.763	-70.447	-0.277	-0.106
-437.749	-88.445	0.104	-0.031
-436.734	-60.181	0.233	0.100
-435.719	-200.000	-0.081	0.460
-434.705	-113.870	-0.076	-0.015
-433.690	-4.457	-0.252	-0.176
-432.676	335.752	0.139	0.273
-431.661	-200.000	-0.031	-0.186
-430.646	26.295	-0.316	0.266
-429.632	-36.724	0.133	-0.072
-428.617	-129.422	0.369	0.052
-427.603	67.536	0.294	0.302
-426.588	-39.228	-0.198	-0.105
-425.573	214.704	-0.076	-0.122
-424.559	170.698	0.157	-0.227
-423.544	-127.492	0.223	0.033
-422.530	585.148	-0.040	0.098
-421.515	261.121	0.155	-0.270
-420.500	5.749	0.104	-0.078
-419.486	-200.000	0.033	0.223
-418.471	-40.054	-0.091	0.048
-417.457	-200.000	-0.063	-0.350
-416.442	800.000	0.078	-0.267
-415.428	-174.609	0.141	-0.004
-414.413	64.310	-0.094	0.095
-413.398	-14.533	0.227	-0.147
-412.384	77.763	-0.039	-0.042
-411.369	81.200	-0.258	-0.280
-410.355	-200.000	0.022	0.184
-409.340	160.507	-0.208	0.292
-408.325	787.243	0.040	0.111
-407.311	199.822	0.091	0.141
-406.296	800.000	-0.056	0.187
-405.282	87.319	-0.295	-0.329
-404.267	-200.000	0.005	0.036
-403.252	668.486	-0.091	-0.238
-402.238	-170.174	-0.070	0.003
-401.223	47.894	-0.376	-0.354
-400.209	800.000	-0.009	-0.036
-399.194	158.769	-0.077	0.108
-398.179	-64.623	-0.106	0.043
-397.165	-60.480	-0.174	-0.075
-396.150	800.000	0.086	-0.360
-395.136	-73.457	-0.278	0.102
-394.121	-29.382	0.236	0.136
-393.106	152.884	0.250	0.344
-392.092	404.767	-0.165	0.349
-391.077	-62.334	0.271	0.114
-390.063	575.959	0.087	-0.213
-389.048	-200.000	0.019	0.128
-388.033	-146.993	-0.220	-0.019
-387.019	-200.000	-0.019	-0.219
-386.004	56.091	-0.196	0.192
-384.990	-106.318	-0.072	0.016
-383.975	150.142	-0.035	-0.048
-382.960	800.000	-0.161	0.458
-381.946	-200.000	0.036	-0.202
-380.931	46.417	0.150	-0.140
-379.917	-6.509	0.266	-0.183
-378.902	-200.000	-0.012	-0.119
-377.888	371.677	0.168	-0.342
-376.873	-200.000	-0.001	-0.061
-375.858	-3.137	-0.132	-0.092
-374.844	291.304	0.154	-0.282
-373.829	-148.933	0.146	-0.012
-372.815	144.044	0.145	0.195
-371.800	-200.000	0.027	-0.121
-370.785	800.000	0.061	-0.176
-369.771	800.000	0.080	-0.240
-368.756	135.594	-0.206	0.270
-367.742	800.000	-0.029	-0.096
-366.727	-37.212	0.258	-0.139
-365.712	16.405	0.114	-0.090
-364.698	96.483	-0.180	-0.207
-363.683	-84.857	0.128	0.040
-362.669	800.000	0.018	0.074
-361.654	-200.000	-0.016	-0.110
-360.639	71.372	0.321	0.335
-359.625	250.764	0.209	-0.357
-358.610	-200.000	-0.042	-0.208
-357.596	164.687	0.153	-0.217
-356.581	2.478	-0.083	-0.060
-355.566	65.896	0.188	-0.191
-354.552	6.272	-0.185	-0.138
-353.537	-62.027	-0.422	-0.177
-352.523	800.000	0.061	0.257
-351.508	-200.000	0.024	0.211
-350.493	135.032	-0.277	-0.362
-349.479	381.599	0.075	-0.155
-348.464	-71.795	-0.061	-0.023
-347.450	-137.313	-0.064	0.007
-346.435	90.731	-0.119	-0.134
-345.420	38.197	-0.227	-0.203
-344.406	-200.000	-0.014	0.084
-343.391	-54.296	0.084	-0.038
-342.377	232.195	-0.108	-0.179
-341.362	-200.000	0.001	0.223
-340.348	-156.628	-0.571	0.036
-339.333	-82.504	-0.054	0.018
-338.318	10.779	-0.160	-0.123
-337.304	800.000	-0.108	-0.355
-336.289	-118.165	0.229	-0.041
-335.275	44.192	-0.197	-0.181
-334.260	41.345	0.031	-0.028
-333.245	-200.000	-0.007	-0.324
-332.231	-3.187	-0.259	0.181
-331.216	123.706	0.170	0.214
-330.202	239.564	0.088	0.147
-329.187	800.000	0.114	0.344
-328.172	75.276	-0.148	-0.156
-327.158	60.101	0.134	-0.133
-326.143	-200.000	-0.044	-0.261
-325.129	-47.410	0.106	-0.052
-324.114	-66.869	-0.364	0.145
-323.099	0.502	-0.241	-0.173
-322.085	-200.000	0.026	0.318
-321.070	51.350	-0.135	0.129
-320.056	-200.000	-0.020	-0.331
-319.041	2.198	0.236	0.171
-318.026	800.000	0.072	-0.216
-317.012	-86.856	-0.112	0.034
-315.997	123.019	-0.136	-0.171
-314.983	752.662	-0.104	0.282
-313.968	-200.000	-0.009	-0.058
-312.953	106.494	0.077	-0.092
-311.939	-105.953	-0.075	-0.017
-310.924	153.976	0.082	0.113
-309.910	-35.469	0.197	0.107
-308.895	-101.691	0.390	-0.095
-307.880	-200.000	-0.031	-0.309
-306.866	108.539	0.053	-0.064
-305.851	-73.279	0.073	-0.027
-304.837	285.531	-0.168	-0.304
-303.822	-81.042	-0.031	-0.010
-302.807	800.000	-0.039	0.112
-301.793	520.068	-0.048	0.114
-300.778	212.945	0.167	0.264
-299.764	28.318	-0.192	0.163
-298.749	-78.386	-0.269	0.092
-297.735	-200.000	0.077	0.380
-296.720	707.361	0.149	0.394
-295.705	-71.272	-0.130	0.049
-294.691	394.508	0.048	-0.100
-293.676	800.000	0.044	0.174
-292.662	90.386	-0.038	0.042
-291.647	800.000	0.050	0.177
-290.632	-83.861	0.219	0.070
-289.618	-200.000	-0.058	-0.507
-288.603	-133.196	0.201	-0.026
-287.589	-157.452	-0.198	-0.012
-286.574	-29.009	-0.252	0.145
-285.559	-97.581	-0.112	-0.029
-284.545	-99.980	0.098	-0.024
-283.530	-79.148	-0.326	-0.111
-282.516	199.577	-0.043	0.065
-281.501	-168.483	0.301	0.012
-280.486	-170.860	0.126	-0.004
-279.472	-120.979	-0.058	-0.010
-278.457	800.000	0.050	-0.204
-277.443	800.000	-0.051	-0.167
-276.428	133.628	0.214	-0.277
-275.413	44.625	0.304	-0.280
-274.399	6.469	0.176	0.131
-273.384	-6.971	0.190	0.129
-272.370	-143.403	-0.169	0.016
-271.355	-30.765	0.372	0.211
-270.340	-45.518	0.247	-0.123
-269.326	93.437	-0.249	-0.283
-268.311	255.754	0.110	0.188
-267.297	-154.983	0.118	-0.008
-266.282	-28.034	-0.126	-0.073
-265.267	663.323	0.050	-0.128
-264.253	-94.181	0.216	-0.059
-263.238	-25.659	-0.131	-0.078
-262.224	241.648	-0.085	0.143
-261.209	-29.547	-0.086	0.049
-260.195	66.211	-0.243	0.247
-259.180	-200.000	0.017	0.137
-258.165	109.033	-0.323	0.387
-257.151	-56.337	0.250	-0.111
-256.136	-110.750	-0.121	0.025
-255.122	324.463	-0.053	0.102
-254.107	135.446	-0.116	0.152
-253.092	-93.949	0.381	0.105
-252.078	37.468	0.184	0.163
-251.063	-125.922	-0.047	-0.007
-250.049	73.908	0.161	0.169
-249.034	-54.999	-0.224	-0.101
-248.019	-140.740	0.060	-0.006
-247.005	-200.000	-0.024	0.111
-245.990	84.268	-0.149	-0.163
-244.976	174.863	0.091	0.131
-243.961	58.311	0.016	-0.016
-242.946	-200.000	0.021	-0.165
-241.932	57.675	0.090	0.088
-240.917	67.934	0.109	-0.111
-239.903	211.965	-0.078	-0.122
-238.888	-106.367	0.148	-0.033
-237.873	-114.893	0.300	-0.057
-236.859	111.333	0.177	-0.214
-235.844	800.000	0.021	0.085
-234.830	2.815	-0.414	0.300
-233.815	-200.000	-0.032	0.318
-232.800	-122.064	-0.416	-0.068
-231.786	507.358	0.122	0.282
-230.771	74.050	0.112	0.118
-229.757	-130.906	0.429	-0.057
-228.742	142.057	-0.124	-0.164
-227.727	-92.796	-0.142	0.040
-226.713	321.315	0.165	0.314
-225.698	800.000	0.032	-0.109
-224.684	-200.000	-0.076	0.366
-223.669	800.000	-0.085	-0.300
-222.655	-61.087	0.239	-0.101
-221.640	-200.000	0.053	0.296
-220.625	-87.656	0.229	0.069
-219.611	-35.158	0.270	-0.147
-218.596	-53.317	-0.212	-0.097
-217.582	-138.867	0.331	0.036
-216.567	800.000	-0.030	-0.112
-215.552	-130.614	-0.277	0.037
-214.538	-200.000	-0.005	0.115
-213.523	-200.000	-0.045	-0.264
-212.509	-56.682	0.256	-0.113
-211.494	14.818	0.340	0.266
-210.479	-84.518	-0.098	0.031
-209.465	-11.972	-0.174	-0.114
-208.450	668.462	-0.039	-0.101
-207.436	132.503	-0.361	-0.465
-206.421	800.000	0.024	-0.088
-205.406	-40.085	-0.212	0.110
-204.392	256.410	-0.062	0.106
-203.377	-93.122	-0.252	-0.070
-202.363	800.000	-0.153	0.460
-201.348	-116.634	-0.141	0.026
-200.333	-81.570	-0.172	0.057
-199.319	-200.000	0.001	0.256
-198.304	800.000	0.078	-0.305
-197.290	-115.164	0.214	-0.040
-196.275	-187.030	-0.148	0.002
-195.260	359.740	-0.055	0.110
-194.246	800.000	-0.086	0.239
-193.231	-50.289	0.298	0.141
-192.217	135.711	0.016	-0.021
-191.202	100.094	0.064	-0.074
-190.187	-122.475	0.371	-0.060
-189.173	77.764	-0.294	-0.313
-188.158	-148.714	0.203	-0.017
-187.144	-4.753	0.157	0.108
-186.129	82.554	0.159	-0.172
-185.114	-200.000	-0.006	-0.395
-184.100	126.646	0.159	-0.202
-183.085	800.000	0.106	0.380
-182.071	-22.404	-0.108	0.065
-181.056	600.228	-0.152	0.375
-180.042	621.288	0.077	-0.194
-179.027	-200.000	0.079	-0.411
-178.012	155.804	0.099	-0.136
-176.998	-200.000	0.021	-0.133
-175.983	23.841	-0.158	-0.130
-174.969	-120.829	0.197	-0.033
-173.954	28.963	-0.128	0.108
-172.939	97.346	0.053	0.060
-171.925	-13.383	0.090	0.058
-170.910	36.542	0.256	0.225
-169.896	32.337	0.145	0.125
-168.881	-136.110	-0.358	-0.042
-167.866	800.000	0.030	0.092
-166.852	-42.169	-0.193	0.098
-165.837	24.473	0.225	0.186
-164.823	-100.634	0.387	0.095
-163.808	-73.319	-0.325	-0.119
-162.793	-130.249	-0.121	-0.016
-161.779	-200.000	0.019	0.128
-160.764	-200.000	0.008	0.038
-159.750	183.204	-0.247	0.363
-158.735	-45.531	-0.422	-0.208
-157.720	-57.575	0.394	-0.172
-156.706	-117.283	-0.221	-0.040
-155.691	-80.636	-0.095	-0.032
-154.677	-50.354	0.141	-0.066
-153.662	129.142	-0.063	-0.081
-152.647	800.000	-0.106	-0.329
-151.633	-90.350	0.139	-0.040
-150.618	109.447	0.233	0.278
-149.604	-31.839	-0.070	0.039
-148.589	114.753	0.258	-0.313
-147.574	-21.607	0.211	-0.128
-146.560	199.303	-0.156	-0.238
-145.545	-200.000	-0.025	-0.178
-144.531	11.539	0.045	0.035
-143.516	81.744	-0.141	0.152
-142.502	800.000	-0.084	-0.276
-141.487	-86.925	0.201	0.061
-140.472	-200.000	-0.021	0.383
-139.458	333.011	-0.137	0.264
-138.443	-67.087	-0.234	-0.092
-137.429	-200.000	-0.014	0.388
-136.414	106.594	-0.136	0.161
-135.399	-27.722	0.186	0.108
-134.385	176.963	-0.308	0.447
-133.370	792.718	0.082	-0.224
-132.356	41.865	0.057	-0.051
-131.341	-6.553	-0.209	-0.142
-130.326	-96.099	0.213	0.056
-129.312	-200.000	0.007	-0.136
-128.297	-72.191	-0.246	-0.091
-127.283	-194.896	-0.141	-0.001
-126.268	121.350	-0.055	-0.068
-125.253	168.650	0.271	-0.385
-124.239	-200.000	0.011	0.269
-123.224	800.000	-0.091	0.373
-122.210	-200.000	0.030	0.185
-121.195	451.240	-0.036	-0.078
