DTS Sentinel unit serial number:	SN413079Multiplexer serial number:	ORYXHardware model number:	OX4-SRSoftware version number:	ORYX F/W v4.00 Oryx Data Collector v3.7.2.0data status	okinstallation	princeton_trtdifferential loss correction	single-endedforward channel	channel 2reverse channel	N/Adate	2019/09/15time	08:51:35forward acquisition time	60.00reverse acquisition time	0.00gamma	496.2192k internal	0.2321k external	0.2321temperature offset calibration	1.0018default loss term (dB/km)	0.3790temperature slope calibration	1.0000multiplexer offset coefficient	1.0000multiplexer slope coefficient	1.0000fibre end	0.00T internal ref (°C)	32.44T ext. ref 1 (°C)	4.97T ext. ref 2 (°C)	29.74length (m)	temperature (°C)	Stokes	anti-Stokes-747.200	328.456	0.094	0.182
-746.185	-200.000	0.010	0.189
-745.171	-145.734	-0.063	-0.006
-744.156	293.146	-0.074	0.136
-743.142	-127.928	0.394	-0.057
-742.127	-78.272	-0.312	0.108
-741.112	33.345	-0.183	-0.160
-740.098	-120.492	-0.249	0.043
-739.083	30.297	0.270	0.233
-738.069	-16.440	0.224	0.143
-737.054	-128.597	-0.234	-0.034
-736.039	-125.728	0.073	-0.011
-735.025	488.354	-0.069	-0.160
-734.010	-102.751	0.229	0.055
-732.996	672.410	-0.011	-0.030
-731.981	-23.796	-0.193	-0.117
-730.966	-200.000	0.001	0.063
-729.952	108.945	-0.177	-0.214
-728.937	86.315	-0.114	-0.126
-727.923	273.957	0.135	-0.242
-726.908	-90.374	-0.267	0.078
-725.894	101.848	-0.234	-0.276
-724.879	194.663	0.050	-0.076
-723.864	-200.000	0.038	-0.184
-722.850	-144.722	0.086	0.008
-721.835	458.014	-0.124	-0.279
-720.821	232.520	0.182	0.302
-719.806	800.000	-0.033	-0.101
-718.791	525.346	-0.114	0.270
-717.777	-85.323	-0.136	-0.043
-716.762	-129.630	0.235	0.033
-715.748	-66.503	-0.349	0.140
-714.733	-200.000	0.025	-0.117
-713.718	-200.000	-0.007	-0.100
-712.704	-85.582	-0.037	0.012
-711.689	272.273	0.181	-0.323
-710.675	81.363	-0.298	-0.325
-709.660	598.608	-0.080	-0.200
-708.645	800.000	-0.044	-0.159
-707.631	-100.659	-0.322	-0.080
-706.616	800.000	0.035	-0.136
-705.602	-200.000	-0.040	-0.336
-704.587	144.923	-0.062	0.083
-703.572	223.572	-0.043	-0.071
-702.558	-60.859	0.315	-0.135
-701.543	323.369	0.034	-0.065
-700.529	334.391	0.089	0.174
-699.514	-75.018	0.372	-0.135
-698.499	-106.544	-0.234	0.053
-697.485	-17.936	-0.379	0.239
-696.470	-76.383	0.136	-0.048
-695.456	54.603	0.063	-0.061
-694.441	800.000	-0.079	-0.239
-693.426	69.366	-0.201	0.209
-692.412	44.849	0.185	-0.172
-691.397	87.760	-0.092	-0.102
-690.383	185.130	-0.055	-0.082
-689.368	-4.809	-0.140	0.097
-688.354	250.936	0.172	-0.296
-687.339	800.000	0.113	0.348
-686.324	-200.000	-0.020	0.278
-685.310	-111.214	-0.074	-0.015
-684.295	-66.060	0.114	0.046
-683.281	77.889	0.161	-0.173
-682.266	-5.743	-0.205	0.142
-681.251	748.177	-0.028	0.077
-680.237	62.763	0.292	-0.294
-679.222	-126.539	-0.079	0.012
-678.208	34.662	-0.275	0.242
-677.193	510.502	0.070	0.164
-676.178	-87.592	0.095	0.029
-675.164	-19.986	0.141	-0.088
-674.149	14.190	-0.168	0.132
-673.135	-65.687	-0.267	0.108
-672.120	-88.677	-0.321	0.096
-671.105	-146.193	-0.132	0.012
-670.091	28.027	0.132	-0.112
-669.076	59.218	-0.234	-0.233
-668.062	487.395	-0.039	0.089
-667.047	137.108	-0.192	0.252
-666.032	-200.000	0.054	0.254
-665.018	-102.189	0.403	0.098
-664.003	-86.182	-0.258	-0.080
-662.989	-92.191	-0.226	-0.064
-661.974	-100.239	-0.161	-0.040
-660.959	60.550	-0.090	-0.090
-659.945	-200.000	-0.013	0.100
-658.930	8.260	-0.140	0.106
-657.916	258.929	-0.041	-0.071
-656.901	1.768	0.063	0.046
-655.886	800.000	-0.046	-0.139
-654.872	59.996	-0.252	-0.251
-653.857	22.291	-0.109	-0.090
-652.843	-62.192	0.125	-0.052
-651.828	87.161	0.102	0.113
-650.814	-35.928	-0.283	0.154
-649.799	408.234	-0.219	-0.466
-648.784	-200.000	-0.009	-0.082
-647.770	800.000	-0.116	0.334
-646.755	-9.164	0.219	-0.147
-645.741	-200.000	-0.045	0.250
-644.726	61.473	-0.194	-0.195
-643.711	-90.120	-0.255	-0.075
-642.697	-200.000	0.032	0.277
-641.682	104.403	0.133	0.157
-640.668	-83.618	0.224	0.072
-639.653	-200.000	-0.033	-0.253
-638.638	27.430	-0.230	-0.195
-637.624	-200.000	-0.013	-0.206
-636.609	-79.805	0.307	-0.104
-635.595	-200.000	-0.017	-0.083
-634.580	800.000	-0.035	-0.131
-633.565	379.544	0.087	0.179
-632.551	163.042	-0.082	0.116
-631.536	456.573	-0.110	0.247
-630.522	800.000	-0.055	-0.208
-629.507	-200.000	-0.027	0.281
-628.492	-74.249	-0.282	-0.103
-627.478	800.000	-0.054	0.209
-626.463	699.906	-0.086	-0.227
-625.449	-21.907	-0.195	-0.119
-624.434	8.887	-0.270	0.204
-623.419	-40.911	-0.122	0.064
-622.405	198.572	-0.151	-0.232
-621.390	-58.220	-0.357	-0.156
-620.376	1.684	0.219	0.159
-619.361	-145.088	0.131	0.012
-618.346	-167.673	0.093	-0.004
-617.332	-25.584	0.188	-0.112
-616.317	122.672	-0.039	0.049
-615.303	-200.000	-0.022	-0.198
-614.288	195.691	0.105	0.160
-613.273	-200.000	0.337	-0.001
-612.259	-53.688	-0.264	-0.121
-611.244	800.000	0.081	-0.250
-610.230	-200.000	-0.021	-0.196
-609.215	-200.000	0.069	0.371
-608.201	337.811	-0.019	0.037
-607.186	268.752	-0.144	0.254
-606.171	98.485	0.211	0.245
-605.157	599.940	-0.156	-0.390
-604.142	288.613	0.071	-0.130
-603.128	449.029	-0.134	0.296
-602.113	159.971	0.195	0.273
-601.098	-200.000	0.051	-0.295
-600.084	-154.205	0.153	-0.010
-599.069	322.260	0.148	-0.283
-598.055	130.380	0.099	-0.127
-597.040	-44.134	-0.533	0.269
-596.025	239.969	0.052	-0.087
-595.011	-10.832	0.093	0.062
-593.996	7.652	0.054	0.041
-592.982	-78.765	-0.071	0.024
-591.967	-7.679	-0.265	0.180
-590.952	-200.000	0.022	0.223
-589.938	-87.182	0.130	-0.040
-588.923	-69.684	0.147	-0.057
-587.909	800.000	-0.054	-0.173
-586.894	-104.227	0.424	-0.099
-585.879	-200.000	0.086	-0.413
-584.865	-73.620	0.079	-0.029
-583.850	179.361	-0.141	0.207
-582.836	-200.000	-0.057	0.312
-581.821	409.903	-0.154	-0.328
-580.806	-133.438	-0.385	0.049
-579.792	-29.309	0.239	0.137
-578.777	-200.000	-0.016	-0.361
-577.763	-29.080	-0.122	0.070
-576.748	800.000	-0.068	-0.230
-575.733	800.000	0.027	0.085
-574.719	-32.529	0.163	-0.091
-573.704	139.711	-0.275	0.363
-572.690	-46.740	0.257	-0.126
-571.675	-200.000	0.043	-0.350
-570.661	-34.926	0.184	-0.101
-569.646	-98.219	0.196	-0.050
-568.631	-200.000	0.005	0.289
-567.617	2.602	0.291	-0.212
-566.602	-200.000	-0.021	0.173
-565.588	-200.000	0.000	0.190
-564.573	-68.879	0.300	0.116
-563.558	800.000	0.026	-0.105
-562.544	-47.267	-0.242	-0.118
-561.529	337.468	0.188	-0.367
-560.515	-14.287	-0.352	0.228
-559.500	-16.360	-0.263	0.167
-558.485	-109.198	0.310	-0.066
-557.471	43.487	-0.241	-0.221
-556.456	-40.043	-0.165	-0.086
-555.442	464.270	-0.095	0.213
-554.427	-200.000	-0.053	-0.312
-553.412	-105.670	-0.176	0.040
-552.398	30.229	-0.162	0.138
-551.383	-200.000	-0.078	-0.408
-550.369	-200.000	-0.011	-0.096
-549.354	-56.066	0.183	-0.082
-548.339	-8.886	-0.209	0.140
-547.325	-200.000	0.030	-0.141
-546.310	-64.210	-0.260	0.106
-545.296	-60.688	-0.380	-0.161
-544.281	-200.000	-0.028	0.200
-543.266	-200.000	0.033	0.435
-542.252	-200.000	0.001	0.134
-541.237	800.000	0.084	0.239
-540.223	-69.784	0.528	0.202
-539.208	130.576	0.091	0.117
-538.193	-9.512	-0.112	-0.075
-537.179	-112.511	0.122	0.024
-536.164	800.000	-0.028	-0.109
-535.150	-125.534	-0.171	-0.026
-534.135	-200.000	0.016	-0.252
-533.121	800.000	-0.049	-0.158
-532.106	507.163	-0.139	-0.323
-531.091	408.580	0.152	0.322
-530.077	13.951	0.221	-0.172
-529.062	265.598	-0.070	-0.123
-528.048	37.768	0.052	-0.046
-527.033	-129.986	0.099	0.014
-526.018	-136.547	-0.254	-0.030
-525.004	-100.357	-0.184	0.046
-523.989	-58.423	-0.184	-0.080
-522.975	18.924	0.147	-0.118
-521.960	-163.469	0.293	-0.014
-520.945	-30.008	0.091	0.052
-519.931	581.227	0.103	0.254
-518.916	41.048	0.158	-0.143
-517.902	323.284	-0.243	-0.464
-516.887	-76.138	-0.245	-0.087
-515.872	192.277	0.115	0.173
-514.858	113.112	-0.067	0.081
-513.843	-19.210	0.246	0.153
-512.829	-200.000	-0.016	-0.091
-511.814	606.831	-0.087	-0.218
-510.799	800.000	0.058	0.170
-509.785	51.923	-0.085	-0.081
-508.770	659.595	0.154	-0.398
-507.756	-109.430	-0.486	-0.103
-506.741	-200.000	0.029	0.152
-505.726	579.985	-0.069	0.170
-504.712	182.840	-0.077	0.113
-503.697	-91.413	0.295	0.084
-502.683	278.679	0.079	0.141
-501.668	-43.609	-0.082	0.041
-500.653	800.000	0.034	0.104
-499.639	0.792	-0.286	0.205
-498.624	485.478	-0.127	0.289
-497.610	800.000	0.116	-0.447
-496.595	-200.000	-0.010	0.334
-495.581	-200.000	0.009	0.117
-494.566	33.948	-0.060	-0.053
-493.551	-28.343	-0.078	0.045
-492.537	305.762	-0.127	-0.235
-491.522	307.160	0.145	0.270
-490.508	800.000	0.052	-0.188
-489.493	34.421	0.131	-0.114
-488.478	144.068	0.298	0.398
-487.464	-36.298	-0.247	-0.133
-486.449	-200.000	0.057	0.383
-485.435	-24.487	0.150	-0.090
-484.420	764.368	-0.088	-0.239
-483.405	-127.388	-0.208	0.030
-482.391	-60.532	0.160	0.068
-481.376	-5.815	-0.189	0.129
-480.362	562.137	0.102	0.247
-479.347	-200.000	0.015	-0.382
-478.332	-114.894	-0.073	-0.014
-477.318	-200.000	-0.000	-0.145
-476.303	-200.000	0.008	-0.044
-475.289	-116.790	-0.101	-0.019
-474.274	-200.000	-0.029	0.192
-473.259	-12.639	0.113	-0.074
-472.245	96.926	-0.111	-0.127
-471.230	6.957	-0.119	0.089
-470.216	154.749	0.076	0.104
-469.201	209.872	0.125	-0.197
-468.186	-200.000	-0.001	0.094
-467.172	155.552	-0.109	0.150
-466.157	260.634	0.148	-0.256
-465.143	407.244	-0.067	0.142
-464.128	40.405	0.201	0.181
-463.113	-54.523	0.153	0.069
-462.099	687.941	0.112	0.293
-461.084	-156.658	0.244	-0.015
-460.070	-125.667	-0.083	-0.013
-459.055	104.207	-0.053	-0.062
-458.040	77.350	-0.124	-0.132
-457.026	-66.047	0.414	0.165
-456.011	-200.000	-0.058	0.547
-454.997	606.768	-0.090	-0.225
-453.982	-154.713	-0.098	-0.007
-452.968	-1.044	0.110	0.077
-451.953	535.106	-0.025	-0.060
-450.938	11.321	-0.168	0.129
-449.924	79.502	0.044	0.047
-448.909	99.648	0.124	-0.143
-447.895	-200.000	0.032	-0.250
-446.880	378.949	-0.194	-0.396
-445.865	90.060	0.118	-0.131
-444.851	346.449	-0.038	-0.075
-443.836	800.000	-0.071	-0.255
-442.822	-124.714	-0.317	-0.049
-441.807	-200.000	-0.013	0.106
-440.792	98.317	-0.132	0.152
-439.778	0.344	-0.131	-0.094
-438.763	-153.356	0.380	0.026
-437.749	-29.446	0.136	0.078
-436.734	184.088	0.107	0.158
-435.719	2.964	-0.177	-0.129
-434.705	229.501	-0.156	0.254
-433.690	181.339	-0.052	-0.076
-432.676	191.849	0.083	0.125
-431.661	800.000	-0.032	-0.134
-430.646	176.772	0.025	0.037
-429.632	-19.327	-0.148	-0.091
-428.617	658.760	0.088	-0.227
-427.603	-142.209	0.468	-0.046
-426.588	441.440	-0.114	-0.248
-425.573	800.000	-0.035	0.134
-424.559	60.146	-0.287	-0.284
-423.544	-200.000	-0.083	-0.395
-422.530	159.870	0.152	-0.211
-421.515	-97.095	-0.110	0.029
-420.500	-82.648	0.213	-0.069
-419.486	251.924	0.036	0.061
-418.471	-16.612	-0.148	-0.094
-417.457	135.547	0.192	-0.249
-416.442	-200.000	0.000	0.124
-415.428	-96.807	0.153	-0.040
-414.413	-22.496	-0.168	0.102
-413.398	428.249	-0.200	0.430
-412.384	-110.623	-0.156	0.032
-411.369	418.614	0.103	-0.220
-410.355	53.906	-0.192	-0.184
-409.340	-105.044	-0.071	-0.016
-408.325	-12.752	0.289	-0.188
-407.311	-91.176	0.061	0.017
-406.296	800.000	0.111	-0.418
-405.282	284.776	-0.098	-0.176
-404.267	230.328	0.100	-0.164
-403.252	-19.623	-0.145	-0.089
-402.238	-86.327	-0.055	-0.017
-401.223	-83.970	0.256	0.081
-400.209	800.000	0.070	0.231
-399.194	-200.000	-0.004	-0.035
-398.179	-67.575	0.088	0.034
-397.165	-30.174	-0.088	-0.050
-396.150	-84.231	0.246	0.078
-395.136	735.924	-0.063	0.169
-394.121	-97.162	-0.150	-0.039
-393.106	-28.298	-0.054	-0.031
-392.092	83.964	-0.028	0.030
-391.077	21.352	0.303	0.245
-390.063	-81.248	0.167	0.055
-389.048	800.000	0.035	0.152
-388.033	-144.429	0.038	-0.004
-387.019	-68.469	-0.210	-0.081
-386.004	-200.000	0.023	-0.366
-384.990	3.718	-0.199	-0.145
-383.975	-104.848	0.138	0.032
-382.960	-34.880	-0.147	-0.080
-381.946	800.000	0.066	0.225
-380.931	800.000	0.049	-0.160
-379.917	90.551	0.072	0.081
-378.902	-178.834	-0.432	0.010
-377.888	138.127	0.302	0.394
-376.873	-200.000	0.026	-0.158
-375.858	367.440	-0.226	0.455
-374.844	-51.046	0.111	0.052
-373.829	206.958	-0.112	0.174
-372.815	32.353	0.159	0.136
-371.800	-192.279	0.283	0.003
-370.785	100.314	0.149	-0.172
-369.771	-200.000	-0.035	-0.241
-368.756	464.989	0.160	0.357
-367.742	-200.000	-0.001	0.449
-366.727	85.877	0.181	-0.198
-365.712	-182.266	0.208	-0.004
-364.698	-68.516	0.090	0.035
-363.683	64.692	0.084	-0.085
-362.669	5.161	-0.048	0.035
-361.654	-61.910	0.144	0.060
-360.639	623.873	0.138	-0.346
-359.625	800.000	0.023	-0.087
-358.610	-102.911	-0.223	0.053
-357.596	-200.000	0.030	-0.206
-356.581	-200.000	0.006	0.127
-355.566	119.348	-0.324	0.399
-354.552	-70.124	0.196	0.074
-353.537	-25.733	0.306	0.179
-352.523	34.865	0.029	-0.026
-351.508	73.343	0.059	0.062
-350.493	362.650	0.104	0.208
-349.479	112.813	-0.308	-0.371
-348.464	-200.000	-0.004	0.024
-347.450	-200.000	-0.064	0.282
-346.435	233.134	0.088	0.144
-345.420	-3.840	-0.039	-0.027
-344.406	180.779	-0.124	0.182
-343.391	-62.959	0.315	0.129
-342.377	37.208	-0.053	0.047
-341.362	67.654	-0.176	0.179
-340.348	-140.639	0.235	-0.024
-339.333	-129.083	-0.066	-0.009
-338.318	-113.440	-0.233	-0.045
-337.304	-200.000	0.011	0.057
-336.289	136.303	-0.146	0.189
-335.275	-200.000	0.038	0.202
-334.260	55.315	0.116	0.112
-333.245	271.920	-0.090	0.157
-332.231	470.771	-0.085	-0.191
-331.216	-159.409	0.192	-0.011
-330.202	-200.000	0.002	0.105
-329.187	-63.993	0.103	-0.042
-328.172	649.763	-0.108	0.274
-327.158	27.045	0.095	-0.079
-326.143	-164.176	-0.284	-0.013
-325.129	-3.075	0.124	0.086
-324.114	-200.000	-0.022	-0.255
-323.099	75.981	0.148	0.156
-322.085	-80.364	0.025	-0.008
-321.070	-94.494	0.196	-0.053
-320.056	800.000	0.037	0.122
-319.041	-200.000	0.066	0.361
-318.026	-98.303	-0.251	-0.064
-317.012	-200.000	-0.002	0.255
-315.997	23.095	-0.234	-0.191
-314.983	294.953	-0.042	-0.076
-313.968	-200.000	0.036	-0.299
-312.953	-200.000	-0.069	-0.374
-311.939	800.000	-0.082	0.252
-310.924	629.302	-0.038	-0.097
-309.910	-0.335	0.346	0.244
-308.895	-200.000	-0.039	0.249
-307.880	-200.000	-0.032	0.324
-306.866	171.339	0.056	0.080
-305.851	800.000	0.132	-0.384
-304.837	-153.412	-0.430	-0.030
-303.822	-124.922	-0.188	0.029
-302.807	-113.068	0.219	-0.043
-301.793	-101.087	-0.181	0.044
-300.778	62.453	0.028	-0.028
-299.764	10.385	0.257	0.194
-298.749	51.631	0.060	0.057
-297.735	-200.000	0.035	0.254
-296.720	-68.967	0.096	-0.037
-295.705	-119.726	-0.244	-0.042
-294.691	188.083	0.112	0.167
-293.676	107.524	0.137	0.162
-292.662	168.011	-0.063	-0.090
-291.647	-37.897	0.089	-0.047
-290.632	-116.645	0.250	0.046
-289.618	-200.000	0.021	-0.235
-288.603	800.000	-0.087	0.301
-287.589	800.000	0.134	-0.463
-286.574	-81.947	0.196	-0.064
-285.559	-86.722	0.111	-0.034
-284.545	-140.893	0.259	0.026
-283.530	800.000	0.146	0.404
-282.516	54.139	0.084	-0.080
-281.501	-50.616	-0.260	-0.122
-280.486	-43.180	-0.125	-0.063
-279.472	-101.577	0.246	-0.059
-278.457	103.303	0.221	-0.258
-277.443	-112.022	-0.129	0.026
-276.428	-200.000	0.010	0.199
-275.413	-126.101	-0.221	0.033
-274.399	-54.049	-0.258	-0.116
-273.384	-70.141	-0.176	-0.066
-272.370	-200.000	-0.063	0.335
-271.355	-200.000	0.007	0.146
-270.340	-126.385	-0.261	0.039
-269.326	-200.000	0.079	-0.457
-268.311	-130.722	0.419	0.056
-267.297	109.056	-0.175	0.208
-266.282	59.518	-0.010	-0.010
-265.267	19.312	-0.223	-0.178
-264.253	-9.565	0.095	-0.063
-263.238	-200.000	-0.007	-0.070
-262.224	-27.067	-0.125	-0.072
-261.209	168.226	0.246	-0.347
-260.195	-72.348	0.305	-0.112
-259.180	800.000	0.080	0.294
-258.165	800.000	0.025	-0.072
-257.151	92.741	-0.110	-0.123
-256.136	106.490	-0.192	0.226
-255.122	78.258	0.290	0.307
-254.107	-200.000	-0.002	-0.139
-253.092	-30.313	0.106	-0.060
-252.078	-200.000	0.013	0.438
-251.063	-121.696	0.195	0.032
-250.049	-84.166	-0.017	0.005
-249.034	-103.791	-0.157	-0.036
-248.019	800.000	-0.045	0.169
-247.005	-70.195	-0.110	-0.042
-245.990	-153.057	0.083	0.006
-244.976	-200.000	0.010	0.171
-243.961	-200.000	-0.043	-0.309
-242.946	171.528	0.049	-0.070
-241.932	751.978	0.052	-0.140
-240.917	-12.193	-0.306	0.198
-239.903	42.678	0.166	0.150
-238.888	682.940	-0.008	0.021
-237.873	800.000	-0.055	-0.152
-236.859	-73.380	-0.094	0.034
-235.844	-160.634	-0.281	0.015
-234.830	-89.039	0.193	0.057
-233.815	64.702	-0.118	-0.117
-232.800	-200.000	-0.009	0.164
-231.786	-41.496	-0.035	0.018
-230.771	-82.306	0.331	0.107
-229.757	265.048	-0.046	0.079
-228.742	-128.710	-0.155	0.022
-227.727	151.631	0.138	-0.186
-226.713	30.000	-0.187	-0.158
-225.698	46.328	-0.149	0.137
-224.684	49.590	-0.093	0.087
-223.669	-88.478	-0.190	0.056
-222.655	800.000	0.129	-0.409
-221.640	-26.323	-0.273	0.159
-220.625	116.877	0.089	-0.108
-219.611	-193.667	-0.369	0.003
-218.596	-32.353	-0.217	-0.120
-217.582	31.742	-0.080	0.068
-216.567	-58.207	-0.080	0.035
-215.552	-200.000	0.040	-0.263
-214.538	452.102	0.044	-0.096
-213.523	52.696	-0.062	-0.058
-212.509	167.366	0.109	-0.153
-211.494	-85.324	0.112	0.035
-210.479	137.330	0.064	-0.082
-209.465	-200.000	0.044	-0.352
-208.450	-130.305	-0.383	-0.051
-207.436	-61.842	0.368	-0.152
-206.421	-200.000	-0.002	0.054
-205.406	583.598	0.062	-0.150
-204.392	199.256	0.018	-0.027
-203.377	-49.400	-0.226	0.107
-202.363	2.042	-0.055	-0.039
-201.348	-200.000	-0.020	-0.149
-200.333	-23.109	0.358	-0.213
-199.319	195.449	-0.157	-0.237
-198.304	42.637	-0.092	0.082
-197.290	-200.000	-0.007	-0.115
-196.275	800.000	-0.065	0.179
-195.260	-25.208	-0.057	0.034
-194.246	93.745	-0.152	0.170
-193.231	93.302	0.363	0.407
-192.217	-200.000	-0.043	0.203
-191.202	-61.934	0.162	0.067
-190.187	-200.000	-0.012	0.144
-189.173	-168.579	0.571	0.022
-188.158	550.095	0.117	0.277
-187.144	-200.000	-0.035	-0.358
-186.129	-196.846	0.160	-0.001
-185.114	649.445	0.055	0.139
-184.100	-200.000	0.004	-0.071
-183.085	555.284	-0.067	-0.160
-182.071	358.267	0.117	0.231
-181.056	-138.925	-0.244	-0.026
-180.042	-2.606	0.341	-0.236
-179.027	800.000	-0.074	-0.213
-178.012	-76.253	-0.087	-0.030
-176.998	-40.957	-0.217	-0.111
-175.983	433.813	0.012	-0.025
-174.969	800.000	0.060	-0.200
-173.954	-109.920	-0.243	0.050
-172.939	-155.596	-0.322	-0.020
-171.925	800.000	-0.022	0.067
-170.910	-89.539	-0.046	0.013
-169.896	-200.000	-0.043	0.189
-168.881	38.102	-0.094	-0.083
-167.866	11.118	-0.123	0.093
-166.852	-200.000	-0.058	0.291
-165.837	-200.000	0.018	0.140
-164.823	800.000	-0.030	-0.087
-163.808	-200.000	-0.001	-0.323
-162.793	-68.297	-0.192	-0.074
-161.779	335.717	-0.128	-0.246
-160.764	113.639	0.026	-0.032
-159.750	-17.789	0.250	-0.155
-158.735	800.000	0.070	0.191
-157.720	26.152	-0.142	0.117
-156.706	456.522	-0.120	0.264
-155.691	11.664	0.122	-0.093
-154.677	-92.214	0.212	0.059
-153.662	9.175	0.309	0.231
-152.647	196.928	0.096	0.145
-151.633	-81.977	-0.109	-0.035
-150.618	-44.895	0.061	-0.030
-149.604	-138.281	-0.238	0.026
-148.589	166.808	0.129	0.181
-147.574	-200.000	0.004	-0.078
-146.560	-27.434	-0.230	0.132
-145.545	130.260	-0.076	-0.096
-144.531	-11.992	-0.135	0.088
-143.516	-37.720	0.122	0.064
-142.502	-200.000	0.029	0.165
-141.487	234.435	0.012	0.019
-140.472	-132.561	0.294	0.037
-139.458	-180.673	-0.389	-0.008
-138.443	800.000	0.044	-0.150
-137.429	-25.079	0.107	0.063
-136.414	800.000	-0.115	-0.347
-135.399	-113.763	0.110	0.021
-134.385	165.258	0.157	0.218
-133.370	-200.000	0.024	0.210
-132.356	117.250	-0.215	0.261
-131.341	-114.605	0.042	-0.008
-130.326	305.531	0.211	-0.387
-129.312	33.268	-0.138	-0.118
-128.297	-28.133	-0.337	-0.192
-127.283	103.146	0.185	-0.214
-126.268	3.202	0.221	0.159
-125.253	-79.460	-0.175	0.058
-124.239	294.974	-0.092	0.166
-123.224	-200.000	-0.020	-0.280
-122.210	-158.876	-0.319	-0.018
