DTS Sentinel unit serial number:	SN413079Multiplexer serial number:	ORYXHardware model number:	OX4-SRSoftware version number:	ORYX F/W v4.00 Oryx Data Collector v3.7.2.0data status	okinstallation	princeton_trtdifferential loss correction	single-endedforward channel	channel 2reverse channel	N/Adate	2019/09/17time	07:27:34forward acquisition time	60.00reverse acquisition time	0.00gamma	496.2192k internal	0.2335k external	0.2335temperature offset calibration	0.9978default loss term (dB/km)	0.3790temperature slope calibration	1.0000multiplexer offset coefficient	1.0000multiplexer slope coefficient	1.0000fibre end	0.00T internal ref (°C)	27.19T ext. ref 1 (°C)	0.12T ext. ref 2 (°C)	21.61length (m)	temperature (°C)	Stokes	anti-Stokes-747.200	76.663	0.051	-0.054
-746.185	52.922	0.238	0.229
-745.171	455.717	-0.015	0.033
-744.156	-25.202	0.271	-0.161
-743.142	-134.716	0.271	0.033
-742.127	111.302	-0.229	0.277
-741.112	13.127	-0.227	0.176
-740.098	347.563	-0.064	0.128
-739.083	-93.569	0.278	-0.077
-738.069	547.850	-0.087	0.210
-737.054	-177.719	0.296	-0.007
-736.039	146.796	-0.259	-0.350
-735.025	-200.000	0.044	-0.221
-734.010	-200.000	-0.017	0.182
-732.996	-85.850	0.234	0.073
-731.981	114.832	-0.245	-0.300
-730.966	-64.087	0.248	0.102
-729.952	89.600	-0.140	0.157
-728.937	-128.317	-0.277	-0.040
-727.923	-115.489	-0.125	-0.024
-726.908	87.727	-0.370	0.411
-725.894	800.000	-0.086	-0.315
-724.879	61.395	-0.142	0.142
-723.864	800.000	0.036	0.124
-722.850	363.841	0.054	-0.109
-721.835	-51.472	-0.226	-0.106
-720.821	-110.541	-0.389	-0.081
-719.806	-200.000	0.056	-0.367
-718.791	54.278	0.289	-0.279
-717.777	-122.846	-0.089	0.014
-716.762	596.816	0.160	-0.397
-715.748	-200.000	0.005	-0.257
-714.733	-27.414	0.312	-0.182
-713.718	153.015	-0.125	0.171
-712.704	-112.033	0.153	0.031
-711.689	-93.117	0.190	-0.053
-710.675	38.962	-0.076	0.068
-709.660	63.354	-0.085	0.086
-708.645	379.404	0.098	-0.202
-707.631	-125.838	-0.257	-0.039
-706.616	-42.968	-0.120	0.061
-705.602	38.835	0.065	-0.058
-704.587	-71.187	0.183	0.069
-703.572	-40.981	-0.134	-0.070
-702.558	93.615	0.142	0.162
-701.543	800.000	0.084	0.302
-700.529	-200.000	-0.045	-0.273
-699.514	-164.869	0.204	-0.009
-698.499	800.000	0.101	0.380
-697.485	-152.363	-0.377	-0.027
-696.470	760.479	0.062	0.169
-695.456	-94.390	0.161	0.044
-694.441	-21.791	-0.246	-0.150
-693.426	-36.625	0.084	0.045
-692.412	-111.689	-0.358	-0.073
-691.397	-200.000	0.067	-0.303
-690.383	109.976	-0.154	-0.185
-689.368	-70.557	-0.103	-0.039
-688.354	33.517	0.078	-0.068
-687.339	364.501	0.022	0.045
-686.324	0.621	0.067	0.048
-685.310	41.777	-0.053	0.048
-684.295	416.073	-0.042	-0.089
-683.281	585.868	-0.096	-0.236
-682.266	-106.578	-0.230	-0.051
-681.251	-59.021	-0.150	-0.065
-680.237	-200.000	0.040	-0.194
-679.222	65.969	-0.187	-0.190
-678.208	262.168	0.079	0.137
-677.193	219.814	0.130	0.209
-676.178	-145.938	-0.530	0.047
-675.164	356.691	0.020	0.040
-674.149	-77.413	0.200	-0.070
-673.135	-200.000	-0.006	-0.136
-672.120	-200.000	0.006	-0.089
-671.105	-200.000	0.003	0.096
-670.091	-30.063	0.198	0.113
-669.076	-117.635	0.280	-0.051
-668.062	800.000	-0.067	-0.248
-667.047	208.189	-0.137	-0.214
-666.032	-44.729	0.285	-0.142
-665.018	33.930	0.126	-0.110
-664.003	800.000	0.036	0.130
-662.989	-200.000	0.083	-0.377
-661.974	-55.940	0.071	-0.032
-660.959	-200.000	0.072	0.322
-659.945	800.000	-0.061	0.211
-658.930	145.173	-0.235	-0.316
-657.916	-49.494	-0.127	0.061
-656.901	-48.725	-0.098	-0.047
-655.886	181.135	-0.121	-0.178
-654.872	247.333	-0.130	-0.221
-653.857	88.765	-0.350	0.390
-652.843	-143.707	0.421	-0.040
-651.828	-13.786	0.141	-0.091
-650.814	73.160	0.093	-0.097
-649.799	47.876	0.264	-0.247
-648.784	62.438	0.074	0.074
-647.770	-36.729	0.052	0.028
-646.755	-200.000	-0.005	0.202
-645.741	219.160	0.236	-0.378
-644.726	800.000	0.021	-0.084
-643.711	32.135	0.267	-0.231
-642.697	191.065	0.132	0.200
-641.682	-28.137	0.442	0.256
-640.668	-57.398	-0.116	-0.051
-639.653	523.337	-0.165	-0.388
-638.638	18.820	-0.019	0.015
-637.624	66.666	-0.207	-0.211
-636.609	437.766	0.109	0.238
-635.595	455.797	-0.012	0.026
-634.580	31.739	-0.129	0.111
-633.565	-24.390	0.452	-0.270
-632.551	-166.560	0.312	-0.013
-631.536	-200.000	0.006	-0.485
-630.522	-52.393	-0.356	-0.165
-629.507	-1.575	0.211	0.149
-628.492	-96.362	-0.119	-0.031
-627.478	-200.000	-0.199	0.000
-626.463	-42.430	0.124	-0.063
-625.449	164.195	-0.134	-0.189
-624.434	-200.000	0.017	-0.447
-623.419	-35.083	0.098	0.053
-622.405	118.767	0.035	-0.044
-621.390	32.229	0.008	-0.007
-620.376	-68.466	0.355	0.138
-619.361	214.774	-0.063	-0.100
-618.346	800.000	-0.047	-0.168
-617.332	94.234	0.161	0.183
-616.317	312.775	0.035	0.065
-615.303	342.363	0.122	0.240
-614.288	-168.668	-0.327	-0.012
-613.273	23.212	0.118	0.097
-612.259	163.788	-0.143	0.201
-611.244	23.607	-0.234	0.193
-610.230	6.873	-0.216	0.161
-609.215	800.000	0.141	0.540
-608.201	-97.808	0.324	0.084
-607.186	-145.728	-0.212	-0.019
-606.171	167.816	-0.051	0.073
-605.157	54.529	-0.233	-0.224
-604.142	-12.727	-0.069	-0.045
-603.128	-200.000	-0.024	-0.115
-602.113	-56.152	-0.163	0.072
-601.098	134.024	-0.096	-0.124
-600.084	555.839	-0.073	0.177
-599.069	231.202	0.064	-0.105
-598.055	-200.000	-0.008	-0.085
-597.040	-200.000	-0.011	-0.072
-596.025	-35.319	-0.146	-0.080
-595.011	-96.438	-0.293	0.077
-593.996	-35.625	0.188	0.102
-592.982	716.709	0.129	0.342
-591.967	800.000	0.053	0.153
-590.952	-200.000	0.024	-0.293
-589.938	-200.000	-0.005	-0.125
-588.923	-118.473	0.141	-0.025
-587.909	-200.000	-0.026	0.190
-586.894	-15.003	0.036	-0.023
-585.879	-200.000	0.001	0.254
-584.865	-118.679	-0.303	-0.053
-583.850	-31.106	-0.167	-0.094
-582.836	800.000	-0.066	-0.214
-581.821	560.532	-0.039	0.094
-580.806	-139.546	-0.397	-0.042
-579.792	165.492	-0.132	0.186
-578.777	-93.777	-0.091	-0.025
-577.763	252.629	0.088	-0.149
-576.748	-98.542	0.106	0.027
-575.733	7.746	-0.279	0.209
-574.719	800.000	0.045	-0.145
-573.704	279.019	-0.036	0.064
-572.690	11.566	-0.041	-0.031
-571.675	21.569	0.079	-0.064
-570.661	374.714	-0.095	0.192
-569.646	800.000	-0.047	-0.191
-568.631	19.241	-0.183	-0.146
-567.617	800.000	0.044	0.153
-566.602	800.000	0.053	0.150
-565.588	-79.272	-0.287	0.097
-564.573	-109.897	0.196	0.041
-563.558	34.174	0.101	-0.088
-562.544	-200.000	0.110	-0.580
-561.529	-104.873	0.190	0.043
-560.515	-200.000	-0.089	0.424
-559.500	509.037	-0.092	0.214
-558.485	306.379	0.069	0.129
-557.471	142.892	-0.273	-0.362
-556.456	50.654	0.338	-0.319
-555.442	36.440	0.214	0.188
-554.427	-158.913	0.229	0.013
-553.412	-200.000	0.022	-0.432
-552.398	100.273	0.081	-0.093
-551.383	-78.125	-0.214	-0.073
-550.369	-51.662	-0.132	0.061
-549.354	399.620	0.141	0.295
-548.339	-67.596	0.191	0.075
-547.325	90.947	-0.154	-0.173
-546.310	441.867	0.220	0.480
-545.296	101.993	0.173	-0.201
-544.281	-136.737	-0.132	0.015
-543.266	-72.278	-0.386	-0.142
-542.252	18.552	0.157	-0.126
-541.237	796.850	-0.007	-0.018
-540.223	68.233	0.132	-0.134
-539.208	800.000	-0.040	-0.166
-538.193	-152.852	0.383	-0.027
-537.179	-48.543	0.118	0.057
-536.164	800.000	0.055	-0.193
-535.150	64.766	-0.157	-0.158
-534.135	-66.399	-0.258	0.102
-533.121	574.068	0.099	-0.242
-532.106	-171.814	-0.197	-0.006
-531.091	9.309	-0.301	-0.227
-530.077	-175.706	0.230	0.006
-529.062	134.070	0.322	0.416
-528.048	-120.650	-0.319	-0.054
-527.033	-12.177	-0.249	0.162
-526.018	142.217	-0.227	0.300
-525.004	161.902	0.159	-0.222
-523.989	-143.225	-0.211	-0.020
-522.975	275.779	-0.084	-0.149
-521.960	-6.312	0.229	-0.156
-520.945	800.000	-0.045	-0.184
-519.931	-200.000	0.520	0.001
-518.916	-64.398	-0.343	0.139
-517.902	-3.906	0.251	-0.173
-516.887	648.019	0.098	-0.250
-515.872	-25.492	-0.151	0.089
-514.858	20.243	0.073	0.058
-513.843	-200.000	0.019	0.547
-512.829	685.038	0.097	-0.253
-511.814	800.000	-0.017	-0.056
-510.799	800.000	0.049	-0.160
-509.785	-50.773	-0.351	-0.165
-508.770	800.000	0.087	0.277
-507.756	442.243	-0.104	-0.226
-506.741	-30.680	-0.080	-0.045
-505.726	5.481	0.367	-0.270
-504.712	285.278	-0.055	0.098
-503.697	-61.694	-0.508	-0.212
-502.683	141.265	0.169	-0.223
-501.668	51.343	-0.116	-0.109
-500.653	305.356	-0.161	0.298
-499.639	-105.543	-0.079	-0.018
-498.624	-200.000	0.015	0.135
-497.610	-200.000	0.073	0.391
-496.595	-44.592	0.161	0.080
-495.581	44.933	-0.065	-0.060
-494.566	-49.728	0.322	-0.153
-493.551	800.000	-0.077	-0.275
-492.537	-26.189	-0.294	0.172
-491.522	0.488	-0.053	0.037
-490.508	-68.918	-0.188	0.072
-489.493	132.521	0.192	-0.247
-488.478	222.291	0.170	0.273
-487.464	203.154	0.222	0.342
-486.449	-200.000	0.025	-0.220
-485.435	313.776	-0.051	-0.095
-484.420	-200.000	-0.020	0.316
-483.405	-150.687	-0.248	0.019
-482.391	-129.514	-0.267	-0.037
-481.376	-69.986	-0.476	-0.180
-480.362	68.666	0.104	-0.106
-479.347	-81.974	-0.177	0.057
-478.332	-105.189	0.053	-0.012
-477.318	800.000	0.113	0.416
-476.303	158.187	-0.097	-0.133
-475.289	-114.475	0.118	0.023
-474.274	-184.040	0.408	-0.007
-473.259	297.603	-0.119	-0.217
-472.245	106.452	-0.150	-0.177
-471.230	76.353	0.130	0.137
-470.216	800.000	0.023	0.095
-469.201	-112.455	-0.349	0.069
-468.186	-38.397	-0.158	-0.083
-467.172	28.672	0.096	-0.081
-466.157	800.000	0.088	-0.272
-465.143	-5.163	-0.142	-0.097
-464.128	55.954	-0.311	-0.300
-463.113	61.350	-0.069	0.068
-462.099	-200.000	0.019	0.265
-461.084	-163.720	-0.176	0.008
-460.070	-33.460	-0.245	0.135
-459.055	-51.257	0.030	-0.014
-458.040	-58.760	0.087	-0.037
-457.026	800.000	0.046	0.139
-456.011	-87.004	0.106	-0.032
-454.997	-108.983	0.233	-0.049
-453.982	-7.930	0.195	-0.131
-452.968	274.336	-0.038	0.067
-451.953	238.703	-0.124	-0.205
-450.938	-200.000	-0.009	0.059
-449.924	-200.000	0.002	-0.211
-448.909	361.658	0.021	-0.043
-447.895	-200.000	-0.025	-0.199
-446.880	2.155	0.219	0.157
-445.865	-109.412	-0.099	0.021
-444.851	800.000	0.028	-0.115
-443.836	14.949	0.193	0.150
-442.822	-200.000	-0.052	-0.260
-441.807	-82.269	0.046	-0.015
-440.792	-200.000	-0.029	-0.419
-439.778	-117.590	0.270	0.048
-438.763	-21.972	-0.092	-0.056
-437.749	681.556	0.023	0.059
-436.734	-56.108	0.032	-0.014
-435.719	305.233	-0.045	0.083
-434.705	-9.499	-0.163	-0.108
-433.690	235.173	0.209	0.343
-432.676	44.742	0.105	-0.096
-431.661	202.652	-0.215	-0.329
-430.646	62.771	0.109	0.108
-429.632	-92.775	0.391	-0.109
-428.617	410.322	-0.021	-0.045
-427.603	-68.733	0.112	-0.043
-426.588	-105.614	0.223	0.050
-425.573	-200.000	0.021	-0.242
-424.559	-137.637	-0.131	-0.015
-423.544	51.059	0.073	0.069
-422.530	-43.946	-0.167	-0.083
-421.515	-31.144	0.279	-0.156
-420.500	-63.917	-0.208	0.084
-419.486	-85.794	-0.084	0.026
-418.471	62.763	0.160	0.159
-417.457	-0.155	0.130	-0.092
-416.442	489.193	0.150	0.341
-415.428	-200.000	-0.033	-0.185
-414.413	-19.679	0.194	0.119
-413.398	800.000	-0.072	-0.227
-412.384	700.619	-0.085	-0.221
-411.369	486.535	-0.071	0.160
-410.355	-103.992	0.211	0.049
-409.340	70.539	-0.288	-0.296
-408.325	-53.045	-0.283	0.129
-407.311	434.223	-0.090	0.194
-406.296	-51.286	-0.218	-0.101
-405.282	248.124	-0.186	0.312
-404.267	-200.000	0.065	-0.311
-403.252	-68.543	-0.212	0.081
-402.238	512.221	0.049	-0.113
-401.223	254.632	-0.218	0.370
-400.209	-200.000	0.008	0.230
-399.194	39.374	-0.111	-0.099
-398.179	185.922	0.134	0.197
-397.165	-200.000	-0.053	0.432
-396.150	84.682	-0.292	0.317
-395.136	79.876	-0.212	-0.226
-394.121	192.691	-0.083	0.124
-393.106	180.983	-0.029	0.043
-392.092	367.793	0.060	0.121
-391.077	-200.000	-0.048	0.320
-390.063	-199.532	0.215	-0.001
-389.048	-200.000	0.006	-0.037
-388.033	20.604	0.080	-0.064
-387.019	-65.962	-0.300	0.119
-386.004	-99.190	0.275	-0.069
-384.990	-73.750	0.287	0.103
-383.975	97.384	-0.101	-0.115
-382.960	372.818	-0.054	0.108
-381.946	-26.440	-0.083	0.048
-380.931	30.257	0.071	0.060
-379.917	731.269	0.052	-0.139
-378.902	-32.924	-0.213	-0.117
-377.888	-200.000	-0.002	-0.391
-376.873	-200.000	0.035	-0.231
-375.858	-11.463	-0.222	0.145
-374.844	-132.283	0.220	0.028
-373.829	695.638	0.075	-0.196
-372.815	146.767	-0.086	0.114
-371.800	-54.183	-0.165	-0.074
-370.785	800.000	0.038	0.115
-369.771	-79.827	0.151	-0.050
-368.756	800.000	-0.135	0.491
-367.742	591.266	0.059	0.145
-366.727	-24.439	-0.283	0.167
-365.712	125.588	-0.195	0.244
-364.698	3.661	-0.302	0.218
-363.683	436.136	-0.231	0.497
-362.669	-76.137	0.419	-0.146
-361.654	-88.638	0.155	-0.046
-360.639	-72.959	-0.160	0.058
-359.625	-98.842	-0.164	-0.041
-358.610	-46.241	-0.285	-0.139
-357.596	471.243	0.072	0.160
-356.581	-115.220	0.170	0.032
-355.566	-103.198	0.026	-0.006
-354.552	1.833	0.145	-0.103
-353.537	513.905	-0.153	-0.353
-352.523	-94.108	0.308	0.084
-351.508	800.000	-0.063	0.240
-350.493	608.276	0.049	0.120
-349.479	-2.361	-0.263	0.183
-348.464	254.540	-0.080	0.136
-347.450	108.850	0.066	-0.078
-346.435	-101.767	0.127	-0.031
-345.420	-99.980	0.264	-0.065
-344.406	-123.489	0.383	0.060
-343.391	237.356	-0.269	-0.441
-342.377	519.402	0.076	0.177
-341.362	-3.440	-0.177	-0.122
-340.348	46.205	-0.090	-0.083
-339.333	3.218	0.059	-0.043
-338.318	-143.577	0.115	-0.011
-337.304	-153.216	-0.355	-0.025
-336.289	800.000	-0.040	0.160
-335.275	15.944	0.095	-0.074
-334.260	575.398	0.066	-0.160
-333.245	-102.666	0.090	-0.021
-332.231	-200.000	-0.055	0.308
-331.216	-122.369	-0.231	0.037
-330.202	218.470	-0.104	0.164
-329.187	74.578	-0.158	0.164
-328.172	-99.342	-0.330	-0.082
-327.158	800.000	-0.045	0.135
-326.143	-89.959	-0.152	-0.044
-325.129	800.000	0.028	-0.081
-324.114	106.653	-0.039	-0.045
-323.099	800.000	0.057	-0.221
-322.085	67.980	-0.199	-0.201
-321.070	-100.068	0.201	-0.050
-320.056	-46.052	0.171	0.083
-319.041	-128.800	-0.382	0.053
-318.026	391.258	0.114	-0.234
-317.012	-171.944	-0.127	-0.004
-315.997	205.619	0.048	-0.074
-314.983	800.000	-0.043	0.146
-313.968	-59.950	-0.302	-0.127
-312.953	-200.000	0.027	-0.342
-311.939	-200.000	0.091	-0.480
-310.924	-200.000	0.007	-0.095
-309.910	582.422	-0.051	-0.122
-308.895	-76.855	0.506	0.175
-307.880	105.492	0.202	0.236
-306.866	741.741	0.072	0.191
-305.851	447.339	0.100	0.216
-304.837	-113.383	0.269	0.052
-303.822	-200.000	-0.035	-0.203
-302.807	279.238	-0.115	0.203
-301.793	-200.000	-0.055	0.354
-300.778	-171.728	-0.364	0.012
-299.764	-200.000	-0.026	-0.134
-298.749	-67.643	0.191	0.074
-297.735	-128.305	-0.344	-0.048
-296.720	-128.394	-0.115	-0.016
-295.705	88.223	-0.063	-0.070
-294.691	-135.303	-0.057	-0.007
-293.676	800.000	-0.030	-0.102
-292.662	-110.665	0.219	0.045
-291.647	208.815	0.013	0.019
-290.632	185.608	-0.084	-0.123
-289.618	-200.000	0.023	0.461
-288.603	-200.000	-0.072	0.377
-287.589	-32.196	-0.139	0.077
-286.574	-124.129	0.370	0.057
-285.559	-47.848	0.189	-0.090
-284.545	580.906	-0.018	-0.045
-283.530	162.960	-0.096	-0.133
-282.516	-166.749	-0.031	0.001
-281.501	-43.164	0.444	0.222
-280.486	-73.909	-0.438	-0.157
-279.472	-105.334	-0.384	-0.086
-278.457	-138.622	0.165	-0.018
-277.443	321.142	0.049	0.093
-276.428	175.688	-0.125	0.179
-275.413	-200.000	-0.008	-0.086
-274.399	-95.329	-0.370	-0.098
-273.384	-93.456	0.189	-0.052
-272.370	362.489	0.068	0.134
-271.355	-19.708	-0.022	0.014
-270.340	-200.000	0.031	0.219
-269.326	-76.086	0.088	-0.031
-268.311	-142.877	-0.193	0.018
-267.297	3.476	-0.065	0.047
-266.282	87.948	-0.232	-0.254
-265.267	7.013	0.103	-0.076
-264.253	99.506	-0.291	0.332
-263.238	-173.306	0.377	0.011
-262.224	8.228	-0.122	0.090
-261.209	-200.000	0.008	0.219
-260.195	-115.929	0.643	-0.118
-259.180	-27.983	0.113	0.065
-258.165	800.000	0.072	-0.202
-257.151	127.569	0.166	-0.208
-256.136	-71.141	0.132	0.049
-255.122	800.000	0.039	-0.131
-254.107	212.786	-0.099	0.154
-253.092	60.370	-0.196	0.192
-252.078	-200.000	-0.003	-0.040
-251.063	61.380	0.174	-0.171
-250.049	-200.000	0.029	0.197
-249.034	-200.000	-0.017	-0.184
-248.019	5.754	0.076	0.055
-247.005	-73.165	0.415	0.150
-245.990	77.813	0.168	0.176
-244.976	674.160	0.129	0.330
-243.961	-132.010	-0.212	-0.027
-242.946	202.955	-0.034	-0.052
-241.932	-68.616	0.107	-0.041
-240.917	529.834	0.076	0.177
-239.903	-106.702	0.084	0.018
-238.888	-200.000	-0.007	-0.178
-237.873	-101.911	-0.260	0.062
-236.859	-200.000	0.053	-0.251
-235.844	375.232	0.186	0.374
-234.830	83.882	0.073	0.078
-233.815	-91.101	-0.080	-0.023
-232.800	-70.522	-0.209	-0.078
-231.786	65.626	0.142	-0.142
-230.771	15.071	-0.073	0.056
-229.757	110.874	0.032	-0.038
-228.742	800.000	0.023	0.071
-227.727	-97.199	-0.174	-0.045
-226.713	-200.000	-0.016	0.259
-225.698	-153.305	-0.154	-0.011
-224.684	-7.868	0.159	-0.106
-223.669	-193.036	-0.226	-0.002
-222.655	569.691	0.094	0.226
-221.640	695.197	0.113	-0.293
-220.625	473.964	0.100	-0.223
-219.611	174.743	-0.144	0.205
-218.596	-6.331	-0.194	0.131
-217.582	152.038	0.162	0.217
-216.567	89.037	-0.318	0.348
-215.552	582.165	-0.182	-0.440
-214.538	-83.362	0.225	-0.071
-213.523	-141.140	-0.402	-0.040
-212.509	-85.345	-0.103	-0.032
-211.494	-51.114	-0.339	-0.157
-210.479	108.834	0.132	0.155
-209.465	-200.000	0.001	0.122
-208.450	204.177	-0.119	0.182
-207.436	-88.293	-0.129	-0.038
-206.421	-76.296	0.128	0.045
-205.406	-160.213	0.224	0.012
-204.392	-149.705	-0.170	-0.013
-203.377	331.025	0.033	0.062
-202.363	-97.251	0.291	-0.075
-201.348	-60.799	0.500	0.208
-200.333	-162.705	-0.161	0.008
-199.319	-108.372	0.310	0.066
-198.304	-60.202	-0.100	-0.042
-197.290	-104.882	0.186	0.042
-196.275	7.408	0.130	-0.095
-195.260	-49.153	-0.091	-0.043
-194.246	800.000	0.083	-0.313
-193.231	80.169	0.133	0.140
-192.217	-168.864	0.147	-0.005
-191.202	-29.296	-0.063	0.036
-190.187	9.137	0.048	-0.036
-189.173	800.000	-0.048	0.191
-188.158	11.750	-0.199	0.150
-187.144	-16.247	0.304	0.190
-186.129	343.589	0.140	-0.270
-185.114	6.283	0.247	-0.181
-184.100	-30.900	-0.168	-0.093
-183.085	-200.000	-0.038	-0.230
-182.071	-200.000	0.034	-0.189
-181.056	492.842	-0.155	0.350
-180.042	800.000	0.019	0.066
-179.027	-200.000	-0.065	0.466
-178.012	62.344	0.100	-0.098
-176.998	-200.000	-0.002	0.229
-175.983	781.368	-0.048	-0.130
-174.969	-173.584	0.213	-0.006
-173.954	379.346	-0.121	-0.243
-172.939	-200.000	-0.002	0.072
-171.925	59.857	-0.149	-0.145
-170.910	-58.608	0.107	0.046
-169.896	104.378	0.092	0.106
-168.881	416.563	-0.051	0.107
-167.866	-158.358	0.230	-0.013
-166.852	232.380	-0.062	-0.101
-165.837	-5.108	0.129	0.087
-164.823	239.439	0.182	-0.297
-163.808	-163.631	0.527	-0.024
-162.793	87.142	0.240	0.260
-161.779	-32.075	0.264	0.145
-160.764	800.000	0.033	0.143
-159.750	800.000	-0.127	-0.536
-158.735	-81.321	0.243	-0.079
-157.720	307.345	-0.173	0.317
-156.706	446.528	0.142	-0.307
-155.691	688.979	-0.116	-0.298
-154.677	100.750	-0.164	-0.187
-153.662	-66.815	0.374	-0.145
-152.647	-20.276	0.062	-0.038
-151.633	-139.252	-0.125	0.013
-150.618	77.707	0.387	-0.405
-149.604	113.843	-0.254	-0.303
-148.589	-161.230	0.242	-0.012
-147.574	-5.158	0.254	0.172
-146.560	-88.847	-0.280	0.082
-145.545	-197.642	0.288	-0.002
-144.531	209.203	0.105	0.161
-143.516	-39.080	0.079	0.041
-142.502	89.139	0.022	0.024
-141.487	-119.196	-0.110	-0.019
-140.472	492.375	0.071	0.159
-139.458	-19.538	0.235	0.143
-138.443	215.189	0.164	0.255
-137.429	-145.605	0.194	-0.017
-136.414	800.000	0.052	-0.174
-135.399	-103.965	0.377	-0.086
-134.385	398.207	-0.171	0.351
-133.370	-66.165	0.246	-0.096
-132.356	-200.000	0.016	0.213
-131.341	-200.000	-0.034	-0.313
-130.326	800.000	0.076	-0.239
-129.312	201.557	-0.194	-0.293
-128.297	-36.076	-0.089	0.047
-127.283	-200.000	0.048	-0.217
-126.268	-72.453	-0.495	0.180
-125.253	-171.423	0.230	-0.008
-124.239	451.756	0.106	-0.230
-123.224	-39.422	0.038	0.019
-122.210	-1.141	0.210	0.146
-121.195	-200.000	-0.001	-0.010
