DTS Sentinel unit serial number:	SN413079Multiplexer serial number:	ORYXHardware model number:	OX4-SRSoftware version number:	ORYX F/W v4.00 Oryx Data Collector v3.7.2.0data status	okinstallation	princeton_trtdifferential loss correction	single-endedforward channel	channel 2reverse channel	N/Adate	2019/09/17time	05:15:35forward acquisition time	60.00reverse acquisition time	0.00gamma	496.2192k internal	0.2329k external	0.2329temperature offset calibration	0.9980default loss term (dB/km)	0.3790temperature slope calibration	1.0000multiplexer offset coefficient	1.0000multiplexer slope coefficient	1.0000fibre end	0.00T internal ref (°C)	29.37T ext. ref 1 (°C)	0.14T ext. ref 2 (°C)	23.78length (m)	temperature (°C)	Stokes	anti-Stokes-747.200	-200.000	-0.002	0.265
-746.185	-15.087	0.365	0.236
-745.171	0.773	-0.286	0.207
-744.156	185.887	-0.168	0.252
-743.142	70.483	-0.017	-0.017
-742.127	-200.000	-0.015	0.388
-741.112	-80.391	-0.088	-0.030
-740.098	82.229	-0.208	0.228
-739.083	-200.000	0.053	-0.241
-738.069	800.000	0.076	-0.221
-737.054	-3.024	-0.309	0.217
-736.039	65.032	-0.256	-0.260
-735.025	-53.004	0.377	0.174
-734.010	-178.532	0.184	0.004
-732.996	142.979	-0.220	0.295
-731.981	-97.185	-0.256	0.067
-730.966	-74.592	-0.206	0.075
-729.952	-200.000	0.013	-0.174
-728.937	-200.000	-0.078	0.362
-727.923	-130.679	0.127	0.017
-726.908	-200.000	-0.024	-0.298
-725.894	268.169	-0.007	0.012
-724.879	-43.381	0.062	-0.032
-723.864	-51.864	-0.097	0.045
-722.850	800.000	0.062	0.180
-721.835	-127.834	-0.200	0.029
-720.821	49.500	-0.125	-0.118
-719.806	800.000	0.010	0.030
-718.791	227.605	-0.109	-0.179
-717.777	41.834	-0.078	0.071
-716.762	-200.000	0.030	0.141
-715.748	528.976	-0.072	-0.171
-714.733	800.000	-0.077	-0.339
-713.718	-41.523	0.323	-0.167
-712.704	182.956	0.116	-0.173
-711.689	342.472	0.160	-0.315
-710.675	-200.000	0.008	-0.268
-709.660	113.847	-0.179	-0.219
-708.645	107.512	0.144	0.172
-707.631	470.223	-0.147	0.333
-706.616	-70.447	-0.090	-0.034
-705.602	97.890	-0.220	-0.254
-704.587	800.000	-0.158	-0.443
-703.572	-121.442	-0.364	-0.061
-702.558	709.333	-0.188	-0.500
-701.543	-94.508	-0.115	0.032
-700.529	-75.334	0.160	-0.057
-699.514	-80.849	-0.232	-0.077
-698.499	-200.000	0.024	0.107
-697.485	1.680	0.156	0.113
-696.470	800.000	0.033	-0.141
-695.456	-200.000	-0.067	0.303
-694.441	-89.611	-0.160	0.047
-693.426	31.794	0.219	-0.190
-692.412	-200.000	0.028	-0.129
-691.397	-135.470	0.142	-0.017
-690.383	-23.160	0.339	-0.205
-689.368	19.229	-0.150	0.121
-688.354	2.169	-0.112	-0.082
-687.339	-200.000	0.008	-0.069
-686.324	-75.144	-0.689	0.248
-685.310	8.197	-0.241	-0.182
-684.295	-78.482	-0.124	0.043
-683.281	-58.430	0.110	-0.048
-682.266	-43.268	-0.187	0.095
-681.251	60.333	-0.162	-0.161
-680.237	-200.000	0.015	-0.080
-679.222	-200.000	0.035	-0.203
-678.208	-96.514	-0.255	-0.068
-677.193	85.586	-0.147	0.162
-676.178	8.259	0.241	-0.182
-675.164	781.513	-0.083	-0.228
-674.149	84.257	0.170	0.186
-673.135	-200.000	-0.033	0.199
-672.120	66.439	-0.160	-0.164
-671.105	441.263	-0.073	-0.161
-670.091	-200.000	-0.043	-0.251
-669.076	360.917	0.126	-0.254
-668.062	649.359	-0.068	0.176
-667.047	-200.000	0.028	-0.207
-666.032	-152.413	0.255	-0.018
-665.018	-23.613	-0.045	-0.027
-664.003	65.991	0.058	0.060
-662.989	-71.751	0.234	0.088
-661.974	-200.000	0.013	0.071
-660.959	27.378	0.164	0.139
-659.945	268.881	-0.189	-0.334
-658.930	135.539	-0.053	0.069
-657.916	800.000	0.018	-0.061
-656.901	-59.598	0.097	-0.042
-655.886	-200.000	0.028	0.177
-654.872	153.213	-0.210	0.288
-653.857	-125.699	-0.241	-0.037
-652.843	163.009	0.086	-0.121
-651.828	130.327	-0.164	-0.211
-650.814	-142.217	-0.136	0.013
-649.799	753.808	-0.079	0.213
-648.784	-78.746	-0.289	0.099
-647.770	-200.000	0.022	-0.182
-646.755	-96.402	-0.331	0.088
-645.741	800.000	0.095	-0.370
-644.726	-173.925	-0.080	0.002
-643.711	-200.000	0.005	-0.111
-642.697	51.469	-0.106	0.101
-641.682	800.000	0.033	0.125
-640.668	-28.479	-0.236	-0.137
-639.653	-127.118	0.287	0.042
-638.638	-200.000	-0.013	-0.145
-637.624	-200.000	-0.004	0.110
-636.609	247.910	0.143	0.243
-635.595	-200.000	-0.009	-0.183
-634.580	800.000	-0.104	-0.386
-633.565	195.555	0.280	-0.426
-632.551	-140.871	-0.236	-0.024
-631.536	77.647	-0.157	0.167
-630.522	-200.000	-0.040	-0.486
-629.507	44.783	-0.071	0.066
-628.492	-200.000	0.010	0.153
-627.478	88.951	0.205	0.229
-626.463	-120.277	0.467	0.080
-625.449	-28.052	-0.377	0.219
-624.434	62.360	0.156	0.157
-623.419	-200.000	0.026	-0.147
-622.405	22.792	0.147	-0.121
-621.390	114.023	0.126	-0.153
-620.376	486.608	-0.166	0.379
-619.361	507.154	-0.121	-0.282
-618.346	-200.000	-0.004	-0.370
-617.332	-200.000	0.010	-0.381
-616.317	409.720	-0.122	-0.259
-615.303	-200.000	-0.003	-0.067
-614.288	36.758	-0.248	-0.219
-613.273	-130.326	-0.446	-0.061
-612.259	43.198	0.085	-0.078
-611.244	-200.000	-0.007	-0.290
-610.230	-134.865	-0.255	-0.031
-609.215	800.000	0.060	0.184
-608.201	-162.556	0.072	0.004
-607.186	800.000	-0.122	-0.338
-606.171	88.296	0.082	-0.091
-605.157	591.391	0.192	0.474
-604.142	-8.053	0.406	0.274
-603.128	800.000	0.027	0.111
-602.113	-2.790	0.203	-0.142
-601.098	-200.000	0.008	0.037
-600.084	-103.739	0.228	-0.053
-599.069	-80.135	-0.181	-0.061
-598.055	-96.173	0.339	0.090
-597.040	-121.072	-0.216	-0.036
-596.025	-200.000	0.013	-0.139
-595.011	-41.586	-0.215	-0.111
-593.996	-90.440	-0.121	-0.035
-592.982	91.981	0.203	0.229
-591.967	175.477	0.154	-0.224
-590.952	-140.822	0.130	0.013
-589.938	559.761	0.148	-0.359
-588.923	264.647	0.233	-0.407
-587.909	33.372	0.460	-0.400
-586.894	160.057	-0.098	-0.137
-585.879	22.526	-0.028	0.023
-584.865	18.609	0.232	-0.186
-583.850	175.008	-0.160	-0.231
-582.836	800.000	0.168	-0.594
-581.821	357.744	-0.146	0.291
-580.806	-200.000	0.014	0.138
-579.792	52.379	0.072	0.069
-578.777	19.407	0.165	-0.133
-577.763	-130.889	0.334	-0.045
-576.748	49.679	-0.169	0.159
-575.733	2.442	0.161	-0.117
-574.719	-184.437	-0.133	0.002
-573.704	134.424	-0.125	0.162
-572.690	80.771	-0.051	0.055
-571.675	-163.077	0.224	-0.011
-570.661	144.118	-0.308	-0.411
-569.646	800.000	-0.088	0.271
-568.631	-113.148	-0.138	-0.027
-567.617	237.790	0.058	0.097
-566.602	-34.080	0.075	-0.041
-565.588	114.951	0.075	0.092
-564.573	800.000	0.054	0.161
-563.558	37.096	0.150	0.133
-562.544	-133.073	0.187	-0.024
-561.529	-98.007	0.235	-0.061
-560.515	-53.763	0.328	-0.150
-559.500	118.539	-0.155	-0.192
-558.485	64.565	0.056	-0.056
-557.471	323.479	0.094	-0.179
-556.456	-200.000	0.027	-0.149
-555.442	-164.851	0.317	0.014
-554.427	-78.429	0.115	0.039
-553.412	109.131	-0.133	0.160
-552.398	800.000	-0.085	-0.240
-551.383	672.436	0.043	0.113
-550.369	-7.055	-0.315	0.214
-549.354	-18.104	-0.108	0.067
-548.339	391.544	0.068	-0.140
-547.325	177.425	0.109	0.159
-546.310	-18.146	0.200	-0.125
-545.296	-113.001	-0.124	-0.024
-544.281	-33.083	0.345	-0.191
-543.266	-200.000	-0.063	0.449
-542.252	92.671	0.060	0.067
-541.237	148.616	0.145	0.196
-540.223	-200.000	0.031	-0.349
-539.208	-66.661	-0.160	0.063
-538.193	498.244	-0.048	-0.110
-537.179	10.350	0.048	-0.037
-536.164	-46.271	0.147	0.072
-535.150	687.203	0.106	-0.276
-534.135	-200.000	-0.008	-0.117
-533.121	-200.000	-0.022	-0.241
-532.106	-113.100	-0.192	0.038
-531.091	-200.000	0.025	0.134
-530.077	66.987	0.095	0.097
-529.062	-200.000	-0.026	0.144
-528.048	-200.000	0.005	-0.122
-527.033	134.223	0.077	-0.099
-526.018	588.402	0.179	-0.440
-525.004	-9.386	-0.140	-0.094
-523.989	-200.000	-0.015	0.120
-522.975	385.966	0.214	-0.442
-521.960	137.621	0.113	0.148
-520.945	140.655	0.032	0.042
-519.931	-200.000	0.015	-0.188
-518.916	800.000	0.045	0.154
-517.902	221.193	-0.096	-0.154
-516.887	-200.000	0.012	-0.289
-515.872	800.000	-0.101	0.348
-514.858	800.000	-0.076	0.223
-513.843	-21.511	0.224	-0.137
-512.829	-200.000	-0.028	-0.317
-511.814	3.587	0.210	0.153
-510.799	-150.293	-0.123	-0.009
-509.785	800.000	-0.043	-0.160
-508.770	-73.036	-0.176	0.065
-507.756	-136.122	0.245	0.029
-506.741	-200.000	-0.029	0.137
-505.726	800.000	0.094	0.316
-504.712	-116.367	-0.092	-0.017
-503.697	20.213	-0.038	0.031
-502.683	-113.889	-0.294	0.057
-501.668	194.589	0.099	-0.149
-500.653	-31.118	0.061	-0.034
-499.639	125.146	0.129	0.162
-498.624	349.179	0.120	0.237
-497.610	188.147	0.017	-0.026
-496.595	800.000	0.049	-0.199
-495.581	100.290	-0.290	0.336
-494.566	-200.000	0.023	0.458
-493.551	54.303	-0.143	0.137
-492.537	-35.400	-0.081	-0.044
-491.522	371.615	-0.177	0.359
-490.508	-157.005	0.073	-0.004
-489.493	34.763	-0.179	0.156
-488.478	-200.000	-0.038	0.166
-487.464	-200.000	0.017	-0.137
-486.449	235.816	0.140	0.231
-485.435	-47.080	-0.277	-0.135
-484.420	72.325	0.267	0.277
-483.405	147.129	-0.107	0.144
-482.391	-87.433	0.201	-0.061
-481.376	-11.169	-0.219	0.144
-480.362	-51.458	0.358	0.167
-479.347	309.802	0.046	0.086
-478.332	170.537	-0.114	0.163
-477.318	-200.000	0.026	-0.227
-476.303	83.199	-0.135	-0.147
-475.289	-105.235	-0.232	0.053
-474.274	-200.000	0.004	-0.189
-473.259	-200.000	0.000	-0.046
-472.245	-94.076	-0.245	0.067
-471.230	566.163	0.117	-0.283
-470.216	-155.040	-0.612	-0.040
-469.201	-10.267	0.309	0.204
-468.186	-30.836	0.437	0.246
-467.172	-74.280	-0.258	0.093
-466.157	-70.692	-0.272	-0.102
-465.143	172.049	-0.075	0.108
-464.128	-200.000	-0.025	0.332
-463.113	1.261	-0.209	0.150
-462.099	228.792	-0.042	-0.068
-461.084	14.429	0.142	0.110
-460.070	277.803	-0.109	0.193
-459.055	45.552	-0.117	0.108
-458.040	381.690	-0.099	0.202
-457.026	155.150	-0.209	0.286
-456.011	141.665	-0.207	0.274
-454.997	-128.248	-0.501	0.071
-453.982	24.156	0.076	-0.062
-452.968	800.000	0.027	-0.078
-451.953	800.000	-0.076	0.245
-450.938	-60.218	0.331	0.141
-449.924	752.770	0.075	-0.203
-448.909	120.457	-0.138	-0.171
-447.895	-1.917	-0.180	0.126
-446.880	-200.000	0.063	0.277
-445.865	-14.061	-0.131	0.084
-444.851	800.000	0.022	0.081
-443.836	800.000	0.043	0.123
-442.822	-200.000	-0.017	-0.221
-441.807	-99.055	0.302	-0.076
-440.792	-34.421	-0.410	0.224
-439.778	-143.229	0.126	-0.012
-438.763	360.329	-0.139	0.277
-437.749	800.000	-0.045	0.141
-436.734	-200.000	0.183	0.000
-435.719	511.284	-0.042	-0.098
-434.705	-52.732	0.447	0.205
-433.690	78.099	-0.172	0.183
-432.676	-200.000	-0.029	-0.189
-431.661	421.124	0.193	0.413
-430.646	-200.000	-0.004	0.197
-429.632	150.183	-0.155	0.209
-428.617	-129.740	0.126	0.017
-427.603	-18.347	-0.051	-0.032
-426.588	-0.424	0.182	0.129
-425.573	104.296	0.249	0.292
-424.559	-153.512	-0.111	-0.008
-423.544	-200.000	0.056	0.452
-422.530	-123.324	-0.202	0.032
-421.515	-200.000	0.009	0.071
-420.500	-200.000	0.013	0.219
-419.486	-200.000	-0.026	-0.345
-418.471	-81.480	-0.243	-0.079
-417.457	80.447	-0.073	-0.078
-416.442	159.920	0.112	-0.155
-415.428	-200.000	-0.003	0.169
-414.413	187.128	-0.055	0.082
-413.398	-70.694	0.156	0.058
-412.384	-200.000	0.017	0.104
-411.369	800.000	0.034	-0.100
-410.355	800.000	0.010	-0.036
-409.340	-127.461	-0.236	0.034
-408.325	45.138	0.133	-0.122
-407.311	21.152	0.301	0.243
-406.296	699.799	-0.020	0.053
-405.282	28.200	0.135	0.113
-404.267	40.696	-0.300	0.269
-403.252	-200.000	-0.009	-0.117
-402.238	28.522	0.093	-0.078
-401.223	74.432	0.157	-0.164
-400.209	644.895	-0.037	-0.093
-399.194	195.234	-0.104	-0.157
-398.179	-184.775	-0.501	0.008
-397.165	-200.000	0.014	0.115
-396.150	137.329	0.143	-0.186
-395.136	800.000	0.053	-0.198
-394.121	-20.975	0.195	0.119
-393.106	358.140	0.015	0.030
-392.092	-57.881	-0.120	0.052
-391.077	-200.000	0.013	-0.077
-390.063	-125.775	0.323	-0.049
-389.048	126.155	-0.140	0.176
-388.033	-56.579	0.253	0.111
-387.019	-174.167	-0.241	-0.007
-386.004	145.429	-0.309	0.412
-384.990	-200.000	-0.033	-0.524
-383.975	-3.914	-0.127	-0.088
-382.960	-41.682	-0.153	-0.078
-381.946	-21.977	0.152	-0.092
-380.931	174.934	0.250	-0.359
-379.917	17.265	0.035	0.027
-378.902	-200.000	-0.055	-0.290
-377.888	320.143	0.157	-0.295
-376.873	20.708	-0.093	-0.075
-375.858	464.803	0.143	0.318
-374.844	800.000	0.048	-0.144
-373.829	-200.000	0.009	-0.114
-372.815	-200.000	0.023	0.298
-371.800	302.534	-0.095	0.174
-370.785	12.282	-0.224	-0.171
-369.771	58.549	-0.025	-0.025
-368.756	227.476	-0.050	0.081
-367.742	117.525	-0.151	-0.185
-366.727	-155.537	0.134	0.009
-365.712	800.000	-0.066	0.180
-364.698	800.000	0.059	-0.181
-363.683	678.304	0.094	-0.243
-362.669	47.454	-0.157	-0.145
-361.654	-36.534	0.048	0.026
-360.639	800.000	-0.052	-0.173
-359.625	-200.000	0.062	-0.443
-358.610	-26.008	-0.224	0.130
-357.596	601.358	-0.084	0.206
-356.581	340.218	0.136	0.263
-355.566	185.098	-0.026	0.039
-354.552	196.476	-0.075	0.113
-353.537	-81.485	-0.162	-0.053
-352.523	-200.000	0.012	-0.232
-351.508	800.000	0.043	-0.153
-350.493	381.559	-0.075	-0.152
-349.479	229.156	0.123	-0.200
-348.464	345.200	-0.033	0.064
-347.450	-200.000	-0.043	0.477
-346.435	-71.070	-0.134	0.050
-345.420	-72.296	0.090	-0.033
-344.406	-29.129	-0.255	-0.145
-343.391	217.383	0.130	0.205
-342.377	-200.000	0.007	-0.067
-341.362	800.000	-0.040	-0.162
-340.348	-200.000	0.005	-0.026
-339.333	52.665	-0.164	0.155
-338.318	-70.384	0.237	-0.089
-337.304	56.413	0.249	0.240
-336.289	380.420	0.136	-0.277
-335.275	1.340	0.268	-0.191
-334.260	34.545	0.291	-0.252
-333.245	76.424	0.116	0.122
-332.231	-200.000	-0.007	-0.118
-331.216	159.761	-0.123	-0.170
-330.202	-24.328	0.471	0.278
-329.187	684.283	-0.036	-0.093
-328.172	319.412	0.025	-0.048
-327.158	-200.000	-0.017	0.181
-326.143	-38.780	-0.304	-0.159
-325.129	20.179	0.233	0.187
-324.114	-22.660	-0.131	0.078
-323.099	-33.998	0.356	0.194
-322.085	-89.763	0.068	0.020
-321.070	214.847	-0.165	-0.259
-320.056	-69.326	0.095	-0.036
-319.041	800.000	-0.122	-0.357
-318.026	-92.894	-0.216	0.060
-317.012	69.663	0.072	-0.073
-315.997	-200.000	0.014	0.281
-314.983	-200.000	0.001	0.109
-313.968	-111.721	0.146	-0.029
-312.953	-200.000	-0.015	-0.118
-311.939	-135.863	0.261	-0.031
-310.924	-45.414	0.183	0.090
-309.910	524.177	-0.075	0.174
-308.895	343.548	-0.191	-0.370
-307.880	225.956	0.174	-0.279
-306.866	-200.000	-0.049	-0.350
-305.851	-12.573	0.084	0.054
-304.837	-200.000	-0.012	-0.470
-303.822	-86.733	0.011	0.003
-302.807	-9.030	0.201	0.133
-301.793	-200.000	-0.023	-0.175
-300.778	800.000	-0.042	-0.160
-299.764	-200.000	-0.038	-0.273
-298.749	11.045	0.217	-0.164
-297.735	-200.000	-0.003	0.072
-296.720	-166.193	0.349	0.015
-295.705	-107.074	-0.094	0.020
-294.691	-200.000	0.044	0.262
-293.676	56.173	-0.089	0.085
-292.662	-200.000	-0.013	0.102
-291.647	274.132	-0.076	-0.133
-290.632	-200.000	-0.010	0.043
-289.618	297.054	-0.051	0.093
-288.603	-200.000	-0.011	-0.071
-287.589	-106.578	-0.044	0.010
-286.574	-19.482	-0.218	0.134
-285.559	102.600	0.122	-0.141
-284.545	-127.865	0.252	-0.036
-283.530	39.648	0.231	-0.205
-282.516	501.644	-0.026	0.059
-281.501	317.335	-0.124	-0.233
-280.486	-200.000	0.010	-0.211
-279.472	-79.931	0.347	0.115
-278.457	800.000	-0.039	0.156
-277.443	90.350	0.160	-0.177
-276.428	-74.658	-0.289	-0.103
-275.413	-117.125	0.398	-0.072
-274.399	98.165	0.120	-0.136
-273.384	150.009	-0.026	-0.035
-272.370	-39.919	-0.282	0.145
-271.355	-119.112	-0.117	0.020
-270.340	-200.000	0.013	0.102
-269.326	-128.074	0.073	0.010
-268.311	784.019	-0.050	-0.135
-267.297	-75.716	-0.247	-0.087
-266.282	-200.000	0.005	0.024
-265.267	-200.000	-0.009	0.125
-264.253	531.272	-0.102	0.237
-263.238	21.849	0.142	-0.115
-262.224	17.531	-0.182	0.143
-261.209	526.643	0.074	-0.173
-260.195	-174.257	-0.148	0.004
-259.180	-176.222	-0.137	0.004
-258.165	-200.000	0.012	0.131
-257.151	-62.885	-0.076	-0.031
-256.136	449.116	-0.067	0.147
-255.122	572.542	0.056	-0.136
-254.107	800.000	0.068	-0.283
-253.092	32.613	0.051	-0.043
-252.078	-86.522	-0.150	-0.046
-251.063	-161.647	-0.431	0.022
-250.049	-200.000	0.026	0.343
-249.034	800.000	0.117	0.343
-248.019	55.802	0.048	0.046
-247.005	100.739	-0.295	-0.339
-245.990	-43.612	-0.044	-0.022
-244.976	-170.602	0.342	-0.012
-243.961	90.751	0.298	-0.330
-242.946	124.052	0.156	0.194
-241.932	-200.000	-0.002	0.023
-240.917	-138.835	-0.026	0.003
-239.903	-200.000	0.017	-0.211
-238.888	57.972	-0.185	-0.179
-237.873	-44.533	0.163	-0.080
-236.859	-200.000	-0.016	0.106
-235.844	-14.634	-0.106	-0.067
-234.830	-200.000	-0.000	-0.341
-233.815	182.222	-0.231	-0.335
-232.800	-200.000	-0.003	-0.078
-231.786	800.000	-0.067	-0.222
-230.771	-20.717	0.070	-0.042
-229.757	-200.000	0.000	0.398
-228.742	-72.924	-0.361	0.131
-227.727	-60.412	0.202	0.085
-226.713	392.460	0.072	0.147
-225.698	49.610	-0.169	0.157
-224.684	-39.546	-0.125	0.065
-223.669	602.709	0.106	0.260
-222.655	18.756	-0.233	-0.184
-221.640	-35.418	-0.107	0.057
-220.625	2.596	-0.090	0.065
-219.611	496.648	-0.058	0.133
-218.596	-179.624	0.345	0.007
-217.582	97.648	0.134	-0.152
-216.567	-99.042	-0.391	-0.098
-215.552	800.000	0.063	-0.176
-214.538	601.680	0.035	-0.086
-213.523	72.574	0.189	-0.194
-212.509	-200.000	0.019	0.102
-211.494	800.000	-0.072	0.250
-210.479	445.434	0.029	0.062
-209.465	-200.000	-0.211	0.001
-208.450	-101.579	-0.511	-0.122
-207.436	800.000	0.039	-0.158
-206.421	18.661	0.020	0.016
-205.406	70.773	-0.302	0.308
-204.392	-133.568	-0.311	-0.038
-203.377	226.054	-0.183	-0.292
-202.363	-90.178	0.148	-0.042
-201.348	1.600	0.200	-0.142
-200.333	36.195	-0.062	0.054
-199.319	-140.434	-0.225	0.023
-198.304	59.431	-0.233	0.226
-197.290	-65.401	-0.223	-0.089
-196.275	45.382	-0.190	0.172
-195.260	-49.888	0.219	-0.103
-194.246	79.542	-0.307	0.324
-193.231	-102.826	-0.173	0.041
-192.217	-14.628	-0.164	-0.104
-191.202	170.729	-0.229	0.324
-190.187	800.000	0.087	0.310
-189.173	130.795	-0.410	0.519
-188.158	-200.000	-0.031	0.167
-187.144	-74.052	-0.387	-0.138
-186.129	-5.307	0.235	0.159
-185.114	639.967	0.101	0.254
-184.100	48.554	-0.088	-0.081
-183.085	142.309	0.177	0.232
-182.071	-200.000	-0.002	0.209
-181.056	505.262	0.065	-0.148
-180.042	800.000	0.055	-0.163
-179.027	-34.222	0.030	-0.016
-178.012	36.336	-0.275	-0.239
-176.998	-200.000	-0.014	0.129
-175.983	-134.581	0.155	0.019
-174.969	194.977	-0.199	0.297
-173.954	261.976	0.050	-0.085
-172.939	196.684	0.055	-0.083
-171.925	673.421	0.041	0.106
-170.910	391.069	-0.189	0.387
-169.896	-200.000	0.002	0.067
-168.881	-123.833	-0.135	0.021
-167.866	-176.292	-0.133	-0.003
-166.852	-73.636	0.327	-0.118
-165.837	-122.191	0.164	0.026
-164.823	-84.957	0.292	-0.090
-163.808	-170.719	0.288	0.010
-162.793	-52.719	0.062	-0.028
-161.779	298.855	0.056	-0.102
-160.764	22.911	0.342	-0.276
-159.750	57.953	0.237	-0.229
-158.735	67.977	0.247	-0.249
-157.720	-14.858	-0.220	0.139
-156.706	800.000	0.128	0.449
-155.691	76.458	-0.218	0.228
-154.677	-200.000	-0.000	0.355
-153.662	169.636	0.216	0.303
-152.647	-58.595	0.198	0.084
-151.633	-200.000	-0.004	0.102
-150.618	-83.895	0.159	0.050
-149.604	800.000	-0.038	-0.141
-148.589	-174.923	-0.261	0.007
-147.574	233.567	-0.192	-0.311
-146.560	-56.718	0.026	0.012
-145.545	-200.000	0.022	-0.187
-144.531	208.293	-0.034	-0.052
-143.516	95.506	0.167	0.187
-142.502	-200.000	-0.010	-0.105
-141.487	-200.000	0.021	0.108
-140.472	49.057	0.097	0.090
-139.458	-92.216	0.198	-0.055
-138.443	-200.000	0.008	-0.113
-137.429	88.290	-0.230	0.251
-136.414	-67.102	-0.305	-0.118
-135.399	800.000	-0.086	-0.346
-134.385	-88.946	-0.426	0.124
-133.370	442.900	-0.174	0.376
-132.356	485.338	-0.153	0.343
-131.341	-200.000	-0.019	-0.213
-130.326	-123.341	0.326	0.051
-129.312	-162.639	0.196	-0.009
-128.297	62.905	-0.351	-0.345
-127.283	-10.203	0.295	0.192
-126.268	87.826	-0.146	-0.160
-125.253	-92.192	0.097	-0.027
-124.239	377.073	0.049	-0.099
-123.224	-31.755	-0.148	-0.082
-122.210	-37.137	-0.157	0.083
-121.195	135.778	0.141	0.181
