DTS Sentinel unit serial number:	SN413079Multiplexer serial number:	ORYXHardware model number:	OX4-SRSoftware version number:	ORYX F/W v4.00 Oryx Data Collector v3.7.2.0data status	okinstallation	princeton_trtdifferential loss correction	single-endedforward channel	channel 2reverse channel	N/Adate	2019/09/13time	18:59:34forward acquisition time	60.00reverse acquisition time	0.00gamma	496.2192k internal	0.2327k external	0.2327temperature offset calibration	1.0175default loss term (dB/km)	0.3790temperature slope calibration	1.0000multiplexer offset coefficient	1.0000multiplexer slope coefficient	1.0000fibre end	0.00T internal ref (°C)	31.98T ext. ref 1 (°C)	3.95T ext. ref 2 (°C)	25.25length (m)	temperature (°C)	Stokes	anti-Stokes-747.200	3.724	-0.131	-0.096
-746.185	-144.544	0.080	0.007
-745.171	-115.218	0.111	0.021
-744.156	-78.871	0.293	-0.101
-743.142	56.953	0.098	0.096
-742.127	800.000	0.043	-0.148
-741.112	-150.161	-0.030	0.002
-740.098	322.145	0.101	0.193
-739.083	-53.648	0.110	-0.051
-738.069	-54.165	-0.238	-0.109
-737.054	-168.983	0.040	0.001
-736.039	-169.879	-0.288	0.010
-735.025	77.951	-0.137	0.147
-734.010	-134.631	0.220	0.027
-732.996	800.000	-0.028	-0.081
-731.981	20.063	0.135	-0.110
-730.966	328.939	0.094	-0.182
-729.952	42.614	-0.104	-0.095
-728.937	800.000	0.062	-0.236
-727.923	338.723	-0.293	-0.574
-726.908	112.604	-0.338	-0.412
-725.894	596.022	-0.176	-0.440
-724.879	124.579	0.048	0.061
-723.864	61.878	-0.157	-0.157
-722.850	800.000	-0.136	-0.383
-721.835	25.111	-0.188	-0.157
-720.821	172.714	-0.036	-0.052
-719.806	-200.000	0.008	-0.138
-718.791	-15.481	-0.160	-0.103
-717.777	107.176	-0.139	0.166
-716.762	-200.000	-0.030	-0.363
-715.748	-70.289	-0.233	0.089
-714.733	279.349	0.064	-0.115
-713.718	6.219	-0.282	-0.211
-712.704	311.837	-0.207	-0.391
-711.689	-121.725	0.401	0.067
-710.675	-200.000	-0.038	-0.286
-709.660	26.101	-0.344	0.289
-708.645	149.200	0.178	0.242
-707.631	-200.000	0.049	0.231
-706.616	-114.895	0.156	0.030
-705.602	-117.596	-0.431	0.078
-704.587	4.975	0.148	-0.110
-703.572	-147.454	0.430	-0.037
-702.558	390.701	-0.165	-0.344
-701.543	32.231	0.201	-0.175
-700.529	447.509	-0.065	0.144
-699.514	800.000	0.086	0.248
-698.499	-115.415	0.138	-0.026
-697.485	800.000	-0.057	0.207
-696.470	81.852	-0.224	0.244
-695.456	-119.637	-0.279	0.049
-694.441	6.036	0.169	0.126
-693.426	656.962	-0.088	-0.228
-692.412	-154.386	-0.432	0.029
-691.397	586.271	-0.181	-0.449
-690.383	-36.850	-0.048	-0.026
-689.368	-4.452	-0.226	0.157
-688.354	-100.388	-0.205	-0.051
-687.339	137.269	0.304	-0.400
-686.324	-200.000	-0.014	-0.162
-685.310	-62.825	-0.184	-0.077
-684.295	175.531	-0.196	0.285
-683.281	71.874	-0.153	0.160
-682.266	-60.306	-0.131	-0.056
-681.251	-146.457	0.200	0.018
-680.237	699.851	-0.060	-0.160
-679.222	-200.000	0.077	-0.472
-678.208	-50.370	0.067	-0.032
-677.193	-200.000	-0.002	-0.116
-676.178	-70.445	-0.010	0.004
-675.164	-200.000	0.012	-0.106
-674.149	140.195	-0.143	-0.190
-673.135	-26.306	0.092	-0.054
-672.120	-200.000	0.036	-0.497
-671.105	-200.000	-0.004	0.353
-670.091	17.877	0.162	-0.130
-669.076	-22.831	-0.096	0.058
-668.062	17.061	-0.088	-0.070
-667.047	-200.000	-0.004	-0.084
-666.032	534.680	0.131	0.312
-665.018	-37.656	0.066	0.035
-664.003	523.561	-0.116	0.273
-662.989	-17.340	-0.259	-0.164
-661.974	48.695	0.133	0.125
-660.959	-98.422	0.102	0.026
-659.945	-200.000	0.017	0.156
-658.930	-169.724	-0.409	0.015
-657.916	-59.429	0.195	0.084
-656.901	543.589	-0.090	0.216
-655.886	800.000	0.027	-0.078
-654.872	256.005	-0.265	-0.457
-653.857	103.538	0.188	-0.222
-652.843	-46.216	-0.044	0.022
-651.828	190.366	-0.114	-0.173
-650.814	44.650	0.116	0.107
-649.799	-55.310	-0.237	0.107
-648.784	-45.212	-0.249	0.124
-647.770	-73.050	-0.065	-0.024
-646.755	-200.000	-0.029	0.148
-645.741	-200.000	0.003	-0.087
-644.726	-104.511	-0.167	0.039
-643.711	-200.000	-0.016	0.426
-642.697	373.695	0.214	0.436
-641.682	230.832	-0.210	0.346
-640.668	-82.562	-0.148	0.048
-639.653	-117.546	0.128	-0.023
-638.638	-108.328	0.354	-0.077
-637.624	79.771	-0.079	0.085
-636.609	-11.723	-0.188	-0.124
-635.595	155.584	-0.099	0.137
-634.580	-79.667	-0.153	0.052
-633.565	148.255	0.066	0.089
-632.551	-71.576	0.268	-0.100
-631.536	-200.000	-0.002	0.168
-630.522	800.000	-0.060	-0.248
-629.507	-89.953	-0.302	-0.089
-628.492	605.200	-0.145	-0.363
-627.478	312.926	0.047	-0.089
-626.463	-46.932	0.182	-0.089
-625.449	37.256	-0.114	-0.101
-624.434	106.443	-0.213	-0.254
-623.419	-130.494	0.489	-0.066
-622.405	-27.712	-0.240	-0.140
-621.390	728.025	0.065	0.175
-620.376	800.000	0.080	-0.323
-619.361	-200.000	0.013	0.206
-618.346	800.000	-0.056	-0.202
-617.332	800.000	0.068	-0.269
-616.317	601.768	0.052	0.129
-615.303	-200.000	-0.045	-0.255
-614.288	-74.954	0.134	0.048
-613.273	800.000	-0.085	-0.277
-612.259	1.305	-0.126	-0.091
-611.244	-200.000	0.004	-0.256
-610.230	800.000	-0.029	-0.125
-609.215	800.000	-0.128	-0.418
-608.201	384.433	-0.091	0.188
-607.186	650.424	-0.076	-0.195
-606.171	-200.000	0.013	-0.074
-605.157	-200.000	-0.013	-0.158
-604.142	-78.537	0.405	-0.139
-603.128	800.000	-0.062	0.201
-602.113	-6.336	-0.132	-0.091
-601.098	-200.000	0.013	-0.077
-600.084	404.041	-0.097	0.204
-599.069	465.858	0.101	0.227
-598.055	60.114	-0.100	-0.099
-597.040	-152.362	-0.294	0.021
-596.025	-200.000	-0.006	-0.092
-595.011	35.825	-0.251	-0.221
-593.996	469.435	0.064	0.144
-592.982	800.000	0.108	-0.300
-591.967	-200.000	-0.027	-0.456
-590.952	-37.113	-0.180	-0.097
-589.938	800.000	0.129	-0.414
-588.923	44.974	-0.049	-0.045
-587.909	73.802	-0.072	0.075
-586.894	-91.819	0.168	0.048
-585.879	282.826	-0.031	0.055
-584.865	-121.711	-0.097	-0.016
-583.850	-104.572	0.024	0.006
-582.836	31.724	-0.231	0.199
-581.821	-200.000	-0.059	0.543
-580.806	-106.369	-0.303	0.068
-579.792	-162.860	0.291	-0.014
-578.777	-60.068	0.337	-0.144
-577.763	444.698	-0.071	0.157
-576.748	-200.000	-0.091	-0.458
-575.733	-200.000	0.285	0.000
-574.719	166.458	-0.085	0.121
-573.704	-134.068	-0.345	-0.043
-572.690	-41.935	0.088	0.045
-571.675	499.607	0.128	0.296
-570.661	127.218	-0.069	0.088
-569.646	37.731	0.043	-0.039
-568.631	310.365	-0.130	-0.243
-567.617	-51.119	0.183	0.086
-566.602	-80.328	0.088	-0.029
-565.588	32.526	0.113	0.098
-564.573	-200.000	-0.003	-0.018
-563.558	-1.490	0.199	0.141
-562.544	-200.000	-0.003	-0.040
-561.529	-200.000	-0.070	-0.373
-560.515	-200.000	-0.001	-0.235
-559.500	5.469	-0.348	-0.257
-558.485	-60.253	0.279	-0.119
-557.471	148.695	-0.154	-0.208
-556.456	800.000	0.057	0.187
-555.442	-100.906	0.083	-0.020
-554.427	301.322	0.135	-0.250
-553.412	130.942	0.209	0.268
-552.398	-179.612	-0.204	-0.004
-551.383	-30.916	0.152	-0.086
-550.369	-200.000	0.012	-0.312
-549.354	800.000	-0.106	0.370
-548.339	228.203	0.154	-0.250
-547.325	38.128	0.145	-0.129
-546.310	3.789	-0.159	-0.116
-545.296	-61.680	0.252	-0.106
-544.281	-127.459	0.389	0.057
-543.266	-100.565	0.148	-0.037
-542.252	50.576	0.129	0.122
-541.237	-135.440	-0.272	-0.032
-540.223	-170.184	0.314	-0.011
-539.208	-24.067	0.462	-0.276
-538.193	-121.959	-0.211	0.035
-537.179	-121.478	0.278	0.046
-536.164	-120.511	0.191	0.032
-535.150	-200.000	0.037	-0.451
-534.135	423.376	0.189	-0.406
-533.121	-200.000	-0.002	-0.016
-532.106	-14.743	0.292	-0.188
-531.091	106.728	0.055	-0.065
-530.077	-200.000	-0.007	-0.095
-529.062	-200.000	0.049	0.243
-528.048	52.730	0.215	0.205
-527.033	-200.000	-0.023	-0.159
-526.018	264.497	-0.084	-0.146
-525.004	-138.135	0.110	0.012
-523.989	14.723	0.272	0.212
-522.975	-200.000	-0.008	-0.457
-521.960	-200.000	-0.003	0.030
-520.945	496.446	0.127	0.293
-519.931	-14.358	0.043	0.028
-518.916	59.560	-0.225	-0.222
-517.902	-200.000	-0.007	-0.134
-516.887	34.084	0.293	-0.255
-515.872	123.562	0.041	-0.052
-514.858	66.095	0.182	0.185
-513.843	-115.236	0.303	-0.057
-512.829	-77.035	-0.206	0.072
-511.814	2.089	-0.271	0.195
-510.799	-98.288	0.246	0.063
-509.785	207.321	0.094	-0.147
-508.770	-200.000	-0.032	-0.283
-507.756	39.049	0.363	0.324
-506.741	-26.033	-0.174	-0.102
-505.726	-200.000	-0.005	0.141
-504.712	737.167	0.085	-0.228
-503.697	72.070	-0.276	0.287
-502.683	-162.926	0.412	-0.020
-501.668	132.424	-0.056	-0.071
-500.653	800.000	-0.059	0.239
-499.639	-165.532	-0.194	0.008
-498.624	-200.000	0.042	0.330
-497.610	30.290	0.238	0.203
-496.595	-91.810	-0.265	-0.075
-495.581	219.766	-0.070	-0.112
-494.566	233.633	0.160	0.262
-493.551	-200.000	0.047	-0.242
-492.537	800.000	-0.055	0.237
-491.522	-72.692	-0.252	-0.093
-490.508	58.862	0.133	0.131
-489.493	-200.000	-0.042	-0.369
-488.478	-200.000	-0.020	-0.132
-487.464	-84.866	0.057	-0.018
-486.449	-55.791	0.362	0.161
-485.435	590.937	0.057	0.141
-484.420	-200.000	-0.010	0.210
-483.405	-200.000	0.035	0.339
-482.391	-2.318	-0.273	0.191
-481.376	717.248	-0.145	-0.383
-480.362	-125.404	0.406	0.062
-479.347	602.465	0.099	0.246
-478.332	157.582	-0.026	-0.036
-477.318	57.398	-0.308	-0.300
-476.303	-126.694	0.110	0.016
-475.289	-34.983	0.216	0.117
-474.274	-77.999	-0.002	-0.001
-473.259	-21.959	-0.346	-0.210
-472.245	177.025	-0.199	-0.289
-471.230	-200.000	-0.016	-0.256
-470.216	-61.428	0.047	-0.020
-469.201	165.119	0.122	-0.172
-468.186	113.154	-0.011	-0.013
-467.172	-82.347	-0.342	0.111
-466.157	-47.526	-0.126	-0.061
-465.143	424.392	-0.041	0.088
-464.128	90.848	0.074	0.083
-463.113	-80.694	0.100	0.033
-462.099	-111.835	-0.308	0.062
-461.084	560.006	0.087	-0.211
-460.070	-6.318	0.054	-0.037
-459.055	-30.554	-0.388	-0.219
-458.040	255.003	0.049	0.084
-457.026	-12.273	0.259	0.169
-456.011	-200.000	0.024	0.154
-454.997	76.563	-0.500	-0.528
-453.982	-77.474	-0.260	0.090
-452.968	-103.625	0.146	0.034
-451.953	74.102	-0.327	-0.342
-450.938	-76.860	-0.154	-0.054
-449.924	79.012	0.154	-0.164
-448.909	110.468	0.101	0.121
-447.895	369.388	0.082	-0.166
-446.880	800.000	0.061	-0.258
-445.865	72.737	0.212	0.220
-444.851	175.335	0.135	0.195
-443.836	800.000	0.096	-0.273
-442.822	-75.375	0.089	-0.032
-441.807	-63.383	-0.163	0.067
-440.792	27.533	0.281	0.235
-439.778	-89.889	-0.312	-0.091
-438.763	-200.000	0.022	0.209
-437.749	-87.124	0.289	-0.087
-436.734	258.692	-0.145	0.249
-435.719	-200.000	0.010	0.375
-434.705	-200.000	-0.007	-0.211
-433.690	25.056	-0.245	-0.202
-432.676	-108.316	-0.613	-0.132
-431.661	261.107	0.104	-0.180
-430.646	-171.992	0.303	-0.010
-429.632	-124.879	-0.186	-0.029
-428.617	149.187	0.053	-0.072
-427.603	-184.343	0.020	0.000
-426.588	347.073	0.090	0.177
-425.573	32.260	-0.303	0.260
-424.559	-200.000	0.015	0.250
-423.544	-85.242	0.315	-0.098
-422.530	9.340	-0.207	0.156
-421.515	31.571	0.155	-0.133
-420.500	800.000	-0.023	0.076
-419.486	-61.521	0.061	-0.026
-418.471	637.407	-0.107	-0.271
-417.457	-103.296	-0.110	0.026
-416.442	-46.730	0.260	0.127
-415.428	11.384	-0.100	0.076
-414.413	-100.902	-0.275	0.067
-413.398	-61.209	-0.278	0.116
-412.384	-68.600	-0.350	0.135
-411.369	-84.074	0.261	0.082
-410.355	-56.552	-0.266	-0.117
-409.340	-9.684	0.419	-0.278
-408.325	229.683	-0.082	0.133
-407.311	520.695	-0.040	-0.093
-406.296	-200.000	0.030	0.414
-405.282	-50.897	0.220	-0.103
-404.267	129.483	-0.180	0.229
-403.252	800.000	-0.072	-0.293
-402.238	-108.549	0.424	-0.091
-401.223	510.333	0.189	-0.437
-400.209	13.741	0.221	-0.171
-399.194	800.000	0.017	0.047
-398.179	-76.904	-0.344	0.120
-397.165	23.247	0.226	-0.185
-396.150	-200.000	0.005	-0.142
-395.136	-200.000	0.006	-0.082
-394.121	800.000	0.063	0.249
-393.106	304.590	0.139	-0.257
-392.092	571.564	0.056	-0.135
-391.077	-46.535	0.294	0.143
-390.063	800.000	0.055	0.221
-389.048	386.132	0.098	-0.201
-388.033	-145.053	0.075	-0.007
-387.019	-106.952	-0.063	0.014
-386.004	133.746	0.134	0.172
-384.990	-139.621	-0.250	-0.027
-383.975	-200.000	0.007	0.172
-382.960	800.000	-0.084	0.358
-381.946	-159.783	0.046	0.003
-380.931	114.296	0.205	-0.248
-379.917	-114.874	-0.209	-0.040
-378.902	170.908	-0.148	-0.211
-377.888	-200.000	-0.020	0.340
-376.873	-154.396	0.228	-0.015
-375.858	-39.761	0.291	-0.151
-374.844	800.000	0.135	-0.430
-373.829	-168.184	-0.200	-0.008
-372.815	-200.000	0.017	0.381
-371.800	122.042	0.019	0.023
-370.785	125.657	0.196	0.246
-369.771	30.982	-0.121	0.103
-368.756	20.849	-0.168	-0.135
-367.742	407.600	0.108	-0.227
-366.727	32.002	-0.218	0.187
-365.712	180.445	-0.100	0.145
-364.698	97.114	0.013	0.015
-363.683	-58.590	-0.331	0.143
-362.669	523.949	0.105	0.246
-361.654	-2.410	-0.176	-0.123
-360.639	-200.000	0.057	0.252
-359.625	-200.000	0.007	0.215
-358.610	351.435	-0.094	0.185
-357.596	-30.459	0.361	0.203
-356.581	59.338	-0.106	0.104
-355.566	-90.870	-0.141	0.040
-354.552	-200.000	0.016	0.086
-353.537	-166.442	0.268	0.011
-352.523	95.897	0.207	-0.234
-351.508	-200.000	0.069	0.334
-350.493	189.908	-0.116	0.173
-349.479	-200.000	0.123	0.000
-348.464	59.829	0.136	-0.134
-347.450	-57.532	-0.154	0.067
-346.435	-125.834	0.353	0.053
-345.420	-104.562	0.129	-0.030
-344.406	-58.533	-0.117	0.050
-343.391	254.341	-0.137	0.232
-342.377	12.301	-0.254	-0.194
-341.362	251.915	0.101	-0.171
-340.348	307.285	-0.097	-0.179
-339.333	-147.507	-0.087	-0.007
-338.318	-50.393	0.032	-0.015
-337.304	800.000	0.078	0.249
-336.289	167.082	0.062	0.088
-335.275	352.123	0.053	-0.105
-334.260	-200.000	-0.046	0.226
-333.245	-41.423	-0.212	0.108
-332.231	-3.457	0.176	0.122
-331.216	781.076	-0.095	0.257
-330.202	17.602	-0.069	0.055
-329.187	29.897	-0.096	0.081
-328.172	-149.999	0.189	0.015
-327.158	-17.107	-0.109	0.069
-326.143	-2.499	-0.163	-0.113
-325.129	-127.365	0.297	0.043
-324.114	19.168	-0.133	-0.106
-323.099	198.275	-0.226	-0.343
-322.085	203.485	0.222	-0.341
-321.070	215.602	0.192	-0.302
-320.056	-28.109	-0.149	0.085
-319.041	29.218	0.136	-0.114
-318.026	-45.206	-0.184	-0.091
-317.012	233.809	-0.062	0.101
-315.997	202.727	0.022	0.033
-314.983	37.762	-0.365	0.322
-313.968	-42.667	-0.258	0.130
-312.953	-20.891	-0.060	0.036
-311.939	302.342	-0.035	-0.064
-310.924	21.961	0.071	0.057
-309.910	-50.287	0.297	0.139
-308.895	-80.785	-0.279	0.092
-307.880	-19.399	0.199	0.122
-306.866	148.734	0.192	0.257
-305.851	-148.730	-0.350	-0.028
-304.837	-127.932	-0.251	-0.036
-303.822	-78.265	0.079	-0.027
-302.807	38.041	-0.288	0.254
-301.793	418.810	-0.113	-0.239
-300.778	160.371	-0.132	-0.183
-299.764	248.154	0.185	0.310
-298.749	221.945	0.129	0.205
-297.735	114.896	-0.061	-0.074
-296.720	460.900	-0.122	-0.270
-295.705	-116.074	0.143	0.026
-294.691	800.000	0.054	0.169
-293.676	-180.581	-0.431	0.009
-292.662	-166.316	-0.426	-0.018
-291.647	400.626	-0.115	0.239
-290.632	800.000	0.024	-0.069
-289.618	-200.000	0.013	-0.118
-288.603	5.537	0.281	-0.205
-287.589	-200.000	-0.003	0.216
-286.574	-120.029	-0.010	-0.002
-285.559	266.126	0.194	0.336
-284.545	-37.331	0.313	0.165
-283.530	711.984	0.081	-0.212
-282.516	190.355	0.063	0.093
-281.501	232.870	0.039	-0.064
-280.486	85.060	0.117	0.127
-279.472	264.463	-0.076	0.131
-278.457	108.717	-0.064	0.075
-277.443	-20.890	0.367	-0.223
-276.428	85.509	0.094	-0.102
-275.413	-105.178	-0.111	-0.025
-274.399	-12.992	-0.195	0.125
-273.384	-200.000	-0.019	0.123
-272.370	257.416	-0.022	-0.038
-271.355	188.869	0.231	0.343
-270.340	-68.006	0.213	-0.082
-269.326	-200.000	-0.014	0.289
-268.311	800.000	-0.030	0.090
-267.297	175.158	-0.052	0.075
-266.282	-114.479	0.353	0.067
-265.267	154.333	0.163	0.221
-264.253	218.576	0.192	-0.303
-263.238	3.623	-0.064	0.046
-262.224	-61.303	0.289	-0.120
-261.209	710.724	0.047	0.122
-260.195	-35.370	0.069	-0.037
-259.180	447.433	-0.012	-0.025
-258.165	40.211	-0.013	-0.011
-257.151	147.936	-0.157	-0.210
-256.136	799.663	0.095	0.258
-255.122	-132.972	-0.375	-0.047
-254.107	32.168	0.201	0.172
-253.092	800.000	0.082	0.336
-252.078	0.896	-0.137	0.097
-251.063	800.000	0.034	-0.109
-250.049	361.315	-0.138	0.273
-249.034	800.000	0.035	0.141
-248.019	-138.147	0.244	-0.027
-247.005	-81.343	0.167	-0.054
-245.990	800.000	-0.059	-0.219
-244.976	231.435	0.009	0.015
-243.961	-200.000	0.051	-0.237
-242.946	119.429	-0.184	0.226
-241.932	377.899	-0.057	-0.116
-240.917	-200.000	-0.005	-0.042
-239.903	37.582	0.123	0.108
-238.888	-14.287	-0.508	0.324
-237.873	-58.353	0.134	-0.058
-236.859	1.793	-0.455	-0.324
-235.844	-68.997	-0.146	0.056
-234.830	28.153	0.113	0.095
-233.815	182.984	0.072	-0.105
-232.800	308.369	0.106	-0.196
-231.786	248.467	-0.263	-0.440
-230.771	-200.000	0.090	0.461
-229.757	800.000	-0.021	0.090
-228.742	-200.000	0.001	-0.086
-227.727	-105.279	-0.119	0.027
-226.713	155.366	-0.095	-0.129
-225.698	326.055	0.067	0.127
-224.684	-25.100	-0.118	0.069
-223.669	-22.374	-0.126	0.075
-222.655	55.518	-0.135	0.129
-221.640	-167.807	-0.491	-0.019
-220.625	261.726	0.038	-0.066
-219.611	67.198	-0.263	-0.265
-218.596	800.000	0.071	0.243
-217.582	-122.924	0.382	-0.061
-216.567	-10.567	-0.120	0.078
-215.552	-200.000	0.001	-0.009
-214.538	273.138	-0.131	-0.228
-213.523	-200.000	0.060	-0.317
-212.509	32.157	-0.196	0.167
-211.494	702.623	0.140	0.364
-210.479	800.000	0.091	0.302
-209.465	-108.661	0.211	-0.045
-208.450	-99.227	-0.058	0.015
-207.436	1.402	0.210	0.149
-206.421	-139.531	-0.107	0.011
-205.406	72.433	0.068	-0.070
-204.392	402.348	-0.098	0.204
-203.377	-121.974	0.349	-0.057
-202.363	118.719	-0.132	0.161
-201.348	-72.539	-0.125	0.046
-200.333	-200.000	0.010	-0.076
-199.319	130.191	0.195	-0.247
-198.304	632.051	-0.103	-0.257
-197.290	800.000	0.134	0.507
-196.275	-41.939	0.071	-0.036
-195.260	781.306	-0.123	-0.333
-194.246	-128.299	-0.323	0.045
-193.231	-46.432	-0.303	-0.147
-192.217	-200.000	0.445	0.001
-191.202	-31.214	0.323	0.179
-190.187	310.898	-0.087	-0.161
-189.173	266.517	0.201	-0.346
-188.158	44.445	0.174	-0.158
-187.144	-4.377	-0.180	0.123
-186.129	2.347	-0.128	-0.091
-185.114	800.000	0.016	-0.044
-184.100	477.576	0.090	-0.201
-183.085	-200.000	-0.028	-0.397
-182.071	-3.468	0.185	0.127
-181.056	11.599	-0.162	0.122
-180.042	-2.709	-0.216	0.149
-179.027	-118.398	-0.105	-0.018
-178.012	116.949	-0.008	0.010
-176.998	-153.750	0.381	0.026
-175.983	48.700	-0.237	0.219
-174.969	-149.168	0.361	-0.028
-173.954	142.192	-0.041	0.053
-172.939	-200.000	0.009	0.190
-171.925	-100.651	-0.580	0.141
-170.910	-128.029	-0.029	0.004
-169.896	-200.000	0.023	-0.112
-168.881	-200.000	-0.003	-0.044
-167.866	81.650	0.072	0.076
-166.852	800.000	-0.049	-0.167
-165.837	72.130	-0.300	-0.308
-164.823	-65.542	-0.068	-0.027
-163.808	800.000	-0.049	-0.183
-162.793	49.624	-0.317	0.294
-161.779	-180.114	-0.354	-0.007
-160.764	192.532	0.131	-0.195
-159.750	-200.000	-0.010	0.049
-158.735	-88.648	0.331	0.097
-157.720	800.000	-0.028	0.095
-156.706	128.573	-0.277	0.348
-155.691	-141.271	-0.216	-0.022
-154.677	-47.605	-0.383	0.183
-153.662	-166.436	0.240	-0.010
-152.647	-84.070	0.280	-0.087
-151.633	-200.000	0.060	0.361
-150.618	-159.414	-0.124	0.007
-149.604	-39.997	-0.321	0.165
-148.589	-92.337	0.322	-0.089
-147.574	-34.660	0.387	0.209
-146.560	206.228	0.041	0.063
-145.545	-24.759	0.169	-0.099
-144.531	-103.771	-0.061	0.014
-143.516	-200.000	-0.005	-0.051
-142.502	115.747	0.212	-0.255
-141.487	180.265	0.084	0.121
-140.472	-135.752	-0.137	-0.016
-139.458	122.084	0.156	-0.192
-138.443	-200.000	0.024	0.277
-137.429	-200.000	0.020	0.125
-136.414	73.662	0.308	0.318
-135.399	278.549	0.112	0.197
-134.385	800.000	-0.137	-0.372
-133.370	703.831	-0.054	0.139
-132.356	351.341	-0.112	-0.217
-131.341	48.042	-0.203	0.187
-130.326	281.972	0.182	-0.322
-129.312	235.695	-0.175	-0.285
-128.297	-55.517	0.281	0.124
-127.283	-56.583	0.058	0.025
-126.268	800.000	-0.017	0.050
-125.253	213.673	0.008	-0.013
-124.239	-128.640	-0.100	-0.014
-123.224	33.094	0.160	0.137
-122.210	372.026	0.021	-0.041
-121.195	433.895	-0.093	-0.199
