DTS Sentinel unit serial number:	SN413079Multiplexer serial number:	ORYXHardware model number:	OX4-SRSoftware version number:	ORYX F/W v4.00 Oryx Data Collector v3.7.2.0data status	okinstallation	princeton_trtdifferential loss correction	single-endedforward channel	channel 2reverse channel	N/Adate	2019/09/11time	09:01:11forward acquisition time	60.00reverse acquisition time	0.00gamma	496.2192k internal	0.2318k external	0.2318temperature offset calibration	0.9968default loss term (dB/km)	0.3790temperature slope calibration	1.0000multiplexer offset coefficient	1.0000multiplexer slope coefficient	1.0000fibre end	0.00T internal ref (°C)	34.11T ext. ref 1 (°C)	0.09T ext. ref 2 (°C)	30.49length (m)	temperature (°C)	Stokes	anti-Stokes-747.200	31.982	0.253	-0.221
-746.185	-200.000	0.073	0.361
-745.171	-92.752	0.336	-0.095
-744.156	-45.022	0.288	0.145
-743.142	77.338	-0.087	0.094
-742.127	-200.000	-0.004	0.253
-741.112	626.369	-0.067	0.171
-740.098	-7.642	0.015	0.010
-739.083	-55.232	0.115	0.052
-738.069	319.930	0.112	0.216
-737.054	167.846	0.044	0.063
-736.039	-200.000	-0.031	-0.280
-735.025	-32.341	0.163	-0.092
-734.010	-89.560	0.051	0.015
-732.996	692.125	-0.089	-0.237
-731.981	53.122	-0.165	-0.159
-730.966	-153.177	-0.121	-0.009
-729.952	-64.072	0.039	-0.016
-728.937	226.265	-0.056	-0.092
-727.923	629.083	-0.120	0.308
-726.908	-59.594	-0.222	0.097
-725.894	174.248	-0.083	-0.121
-724.879	800.000	-0.096	-0.412
-723.864	332.683	0.140	-0.273
-722.850	-80.799	-0.217	-0.073
-721.835	19.226	-0.094	-0.076
-720.821	401.320	0.120	0.256
-719.806	-169.942	-0.245	0.009
-718.791	555.650	0.206	-0.503
-717.777	800.000	0.077	-0.226
-716.762	139.924	-0.151	0.201
-715.748	40.089	0.303	-0.276
-714.733	800.000	0.052	0.221
-713.718	-81.468	-0.112	-0.037
-712.704	23.565	0.332	-0.277
-711.689	349.822	-0.164	0.327
-710.675	-200.000	0.003	0.133
-709.660	-93.786	0.157	-0.044
-708.645	148.984	-0.069	-0.094
-707.631	-105.495	0.025	0.006
-706.616	-200.000	-0.006	-0.140
-705.602	800.000	0.083	-0.251
-704.587	-200.000	0.005	0.075
-703.572	-109.061	0.205	-0.044
-702.558	55.945	-0.120	-0.118
-701.543	-59.316	-0.157	-0.068
-700.529	-52.049	0.357	-0.168
-699.514	-10.221	-0.080	0.054
-698.499	800.000	-0.056	-0.191
-697.485	-200.000	-0.018	-0.206
-696.470	670.847	0.087	0.229
-695.456	-44.064	0.194	-0.099
-694.441	-92.866	-0.162	0.046
-693.426	-120.096	-0.299	-0.052
-692.412	-123.113	-0.106	-0.017
-691.397	-200.000	0.002	0.089
-690.383	268.662	-0.065	-0.116
-689.368	14.464	-0.096	-0.076
-688.354	-200.000	-0.055	-0.266
-687.339	-200.000	-0.047	0.227
-686.324	-200.000	0.012	-0.305
-685.310	-70.965	0.177	-0.067
-684.295	354.787	0.020	-0.041
-683.281	-200.000	0.024	0.143
-682.266	136.073	-0.127	-0.167
-681.251	-200.000	-0.089	0.448
-680.237	-200.000	0.047	-0.227
-679.222	-200.000	-0.012	0.160
-678.208	-200.000	0.025	-0.115
-677.193	133.788	-0.129	0.169
-676.178	275.452	0.112	-0.200
-675.164	-200.000	-0.008	-0.096
-674.149	51.862	-0.102	-0.098
-673.135	55.196	-0.072	-0.070
-672.120	220.448	-0.212	0.343
-671.105	800.000	-0.053	-0.220
-670.091	518.297	0.087	-0.206
-669.076	-200.000	-0.015	-0.129
-668.062	-169.670	-0.126	0.005
-667.047	-200.000	-0.036	-0.160
-666.032	-200.000	-0.036	0.204
-665.018	-87.357	0.302	0.093
-664.003	52.117	-0.212	0.204
-662.989	-133.571	0.212	0.027
-661.974	-93.797	-0.206	-0.057
-660.959	44.248	0.170	0.158
-659.945	-61.528	0.137	0.058
-658.930	-25.501	-0.207	0.123
-657.916	-200.000	-0.012	-0.222
-656.901	-7.271	0.283	-0.194
-655.886	-169.799	0.086	-0.003
-654.872	-75.168	-0.167	0.060
-653.857	-200.000	0.044	-0.274
-652.843	-7.267	0.159	0.108
-651.828	153.555	0.079	0.110
-650.814	-200.000	-0.022	0.532
-649.799	449.211	0.074	0.165
-648.784	183.076	0.105	0.156
-647.770	-119.009	-0.070	-0.012
-646.755	37.002	0.202	0.180
-645.741	-84.598	0.390	-0.124
-644.726	-42.725	-0.264	0.136
-643.711	-97.182	0.155	0.041
-642.697	-118.123	-0.255	0.046
-641.682	-200.000	0.027	-0.337
-640.668	80.681	-0.389	-0.423
-639.653	-158.963	-0.231	-0.013
-638.638	-107.025	-0.249	0.055
-637.624	577.872	-0.057	-0.141
-636.609	-200.000	0.032	0.155
-635.595	-42.924	-0.248	0.127
-634.580	-105.249	0.198	-0.045
-633.565	-106.221	0.200	-0.045
-632.551	234.596	-0.025	0.042
-631.536	-200.000	0.017	-0.082
-630.522	555.247	0.182	-0.441
-629.507	-170.392	0.315	0.011
-628.492	45.498	-0.125	-0.116
-627.478	43.781	-0.272	0.250
-626.463	-200.000	0.014	0.073
-625.449	-79.619	0.106	-0.036
-624.434	137.735	-0.235	-0.310
-623.419	-16.301	0.278	-0.178
-622.405	-138.109	-0.204	0.023
-621.390	18.622	0.187	-0.151
-620.376	-190.057	0.090	0.001
-619.361	69.301	0.049	-0.051
-618.346	13.695	0.108	-0.085
-617.332	800.000	-0.017	0.061
-616.317	786.020	0.094	0.261
-615.303	402.558	0.029	0.062
-614.288	800.000	-0.053	-0.148
-613.273	419.556	0.065	0.140
-612.259	-99.079	0.170	0.043
-611.244	-142.652	-0.131	-0.013
-610.230	-60.455	0.190	0.081
-609.215	-118.673	-0.475	0.084
-608.201	-67.866	-0.178	-0.070
-607.186	86.599	-0.154	-0.171
-606.171	14.722	0.324	0.255
-605.157	-115.794	-0.059	0.011
-604.142	136.701	0.245	-0.323
-603.128	-200.000	-0.012	0.096
-602.113	-62.185	-0.274	-0.115
-601.098	215.698	0.193	0.309
-600.084	-39.755	0.251	0.132
-599.069	-113.389	-0.455	-0.090
-598.055	-155.164	-0.203	-0.013
-597.040	-22.535	0.098	-0.060
-596.025	800.000	-0.028	0.097
-595.011	-184.305	0.143	0.002
-593.996	-200.000	-0.011	-0.176
-592.982	-151.004	0.133	0.010
-591.967	-200.000	-0.004	0.579
-590.952	-200.000	0.036	-0.175
-589.938	800.000	-0.051	0.144
-588.923	-200.000	0.014	0.202
-587.909	-54.138	-0.093	-0.043
-586.894	-55.513	0.158	-0.071
-585.879	800.000	0.093	-0.283
-584.865	182.292	0.110	-0.163
-583.850	-4.389	-0.109	-0.076
-582.836	215.604	-0.145	0.231
-581.821	-42.223	0.603	-0.310
-580.806	621.498	-0.101	0.257
-579.792	800.000	0.026	0.097
-578.777	124.570	0.284	0.359
-577.763	-118.380	0.182	-0.033
-576.748	118.313	-0.039	0.048
-575.733	-79.155	-0.339	-0.116
-574.719	-4.639	0.335	-0.233
-573.704	-200.000	-0.014	0.157
-572.690	-168.107	-0.459	-0.018
-571.675	-200.000	0.026	0.117
-570.661	-73.820	0.381	-0.139
-569.646	-200.000	0.068	0.375
-568.631	23.355	-0.063	0.052
-567.617	20.204	-0.044	0.036
-566.602	-64.193	0.364	0.149
-565.588	-200.000	-0.037	-0.288
-564.573	129.444	-0.194	0.249
-563.558	-36.548	0.168	-0.091
-562.544	-200.000	-0.033	-0.210
-561.529	30.092	-0.122	0.104
-560.515	-12.861	0.229	-0.150
-559.500	-131.884	0.266	0.035
-558.485	440.708	0.140	-0.308
-557.471	-105.572	0.125	0.029
-556.456	-200.000	-0.014	-0.238
-555.442	-141.341	0.176	0.018
-554.427	32.114	-0.182	-0.158
-553.412	800.000	0.062	-0.246
-552.398	-71.581	-0.340	-0.128
-551.383	530.616	0.015	-0.036
-550.369	-65.861	-0.291	-0.117
-549.354	487.222	0.149	-0.342
-548.339	-53.443	0.089	-0.041
-547.325	-146.828	0.123	0.011
-546.310	17.198	-0.136	0.109
-545.296	-200.000	0.018	0.260
-544.281	-200.000	0.164	-0.001
-543.266	-7.448	-0.126	0.085
-542.252	-84.206	-0.238	0.076
-541.237	105.810	-0.171	-0.203
-540.223	800.000	-0.033	-0.099
-539.208	85.963	0.085	-0.094
-538.193	-77.914	-0.242	0.084
-537.179	-19.085	0.183	-0.114
-536.164	-141.790	-0.200	0.020
-535.150	248.444	-0.077	0.132
-534.135	164.248	0.021	-0.029
-533.121	7.884	0.087	-0.066
-532.106	-75.011	-0.282	-0.101
-531.091	-63.918	-0.145	-0.059
-530.077	136.900	-0.110	0.144
-529.062	-37.420	0.375	-0.201
-528.048	-8.226	-0.114	0.077
-527.033	145.528	-0.180	-0.242
-526.018	-200.000	-0.084	-0.536
-525.004	-200.000	-0.026	-0.190
-523.989	19.426	-0.024	-0.019
-522.975	-200.000	0.017	-0.111
-521.960	-94.440	0.207	-0.057
-520.945	135.282	0.317	-0.413
-519.931	-52.029	0.459	-0.214
-518.916	-102.289	-0.255	0.061
-517.902	41.438	0.206	0.187
-516.887	-96.733	0.287	-0.076
-515.872	800.000	-0.115	0.351
-514.858	6.393	-0.433	-0.323
-513.843	107.029	0.133	-0.159
-512.829	260.774	-0.262	-0.454
-511.814	-167.835	0.289	-0.011
-510.799	-119.998	-0.344	0.059
-509.785	-54.975	-0.097	0.044
-508.770	800.000	0.031	-0.134
-507.756	-111.993	-0.276	0.056
-506.741	-200.000	0.016	0.173
-505.726	74.670	-0.024	0.026
-504.712	184.219	0.119	-0.177
-503.697	140.539	-0.158	0.210
-502.683	-24.495	0.263	-0.157
-501.668	512.953	-0.200	-0.467
-500.653	254.981	-0.119	-0.205
-499.639	-68.310	-0.081	0.031
-498.624	-21.870	0.190	-0.116
-497.610	30.498	-0.256	-0.219
-496.595	165.658	0.079	0.112
-495.581	-11.086	0.208	0.138
-494.566	264.424	-0.120	0.210
-493.551	338.427	0.082	-0.159
-492.537	800.000	0.024	-0.090
-491.522	800.000	-0.082	0.300
-490.508	-105.175	-0.462	-0.106
-489.493	58.219	0.033	-0.032
-488.478	515.607	-0.079	0.184
-487.464	800.000	0.079	0.230
-486.449	253.503	0.032	0.056
-485.435	183.409	0.069	0.103
-484.420	-62.404	0.172	-0.072
-483.405	155.122	-0.093	-0.128
-482.391	138.429	-0.165	-0.218
-481.376	483.653	-0.084	0.192
-480.362	-108.781	-0.203	-0.044
-479.347	40.063	-0.236	-0.213
-478.332	-200.000	-0.030	0.209
-477.318	82.061	-0.185	0.201
-476.303	81.448	0.166	0.180
-475.289	169.206	-0.085	-0.121
-474.274	346.292	-0.067	-0.133
-473.259	164.361	-0.085	-0.120
-472.245	17.571	-0.161	0.128
-471.230	41.411	-0.188	0.170
-470.216	-70.006	0.134	0.051
-469.201	-200.000	0.017	0.151
-468.186	49.430	0.115	-0.108
-467.172	-200.000	-0.005	0.175
-466.157	30.896	0.044	-0.037
-465.143	97.816	0.182	-0.210
-464.128	-200.000	0.010	-0.312
-463.113	29.844	-0.190	-0.162
-462.099	-200.000	-0.041	0.207
-461.084	84.474	0.182	-0.200
-460.070	-200.000	0.031	0.254
-459.055	-162.715	-0.221	-0.011
-458.040	-59.143	0.139	0.060
-457.026	27.806	0.068	-0.057
-456.011	-81.347	-0.110	0.036
-454.997	-200.000	0.071	-0.338
-453.982	-200.000	0.031	-0.229
-452.968	674.041	-0.124	-0.323
-451.953	-35.805	-0.075	-0.041
-450.938	-55.507	0.138	0.062
-449.924	257.301	0.050	0.086
-448.909	-200.000	0.037	0.542
-447.895	-65.891	-0.115	0.046
-446.880	49.458	0.142	0.134
-445.865	-200.000	-0.009	0.287
-444.851	118.223	0.088	0.109
-443.836	-14.698	0.271	0.174
-442.822	-164.860	-0.410	-0.018
-441.807	147.538	-0.301	0.406
-440.792	397.646	-0.120	0.251
-439.778	463.630	-0.085	-0.190
-438.763	-141.613	-0.199	-0.020
-437.749	-116.630	-0.387	0.071
-436.734	33.493	0.167	-0.145
-435.719	-80.134	0.102	-0.034
-434.705	151.264	0.023	-0.032
-433.690	-200.000	-0.010	-0.143
-432.676	-184.166	-0.152	0.003
-431.661	96.163	-0.085	-0.097
-430.646	93.158	0.144	-0.163
-429.632	244.046	0.172	0.288
-428.617	-88.417	0.373	-0.111
-427.603	-58.100	-0.126	-0.055
-426.588	-22.224	-0.284	0.172
-425.573	140.909	-0.130	0.171
-424.559	-124.459	-0.189	0.029
-423.544	405.727	0.159	0.336
-422.530	-135.855	-0.448	-0.053
-421.515	-2.183	-0.365	-0.256
-420.500	304.233	0.149	0.277
-419.486	-200.000	-0.024	0.141
-418.471	-200.000	0.034	-0.151
-417.457	-200.000	-0.040	-0.199
-416.442	103.702	-0.128	-0.151
-415.428	-200.000	-0.092	0.408
-414.413	-200.000	0.012	-0.106
-413.398	469.914	0.033	-0.075
-412.384	800.000	0.065	-0.220
-411.369	800.000	0.002	0.007
-410.355	-97.745	-0.332	0.086
-409.340	35.058	-0.072	-0.063
-408.325	606.714	-0.054	0.135
-407.311	13.261	-0.064	0.049
-406.296	-64.322	0.275	-0.112
-405.282	-107.764	0.156	0.034
-404.267	-87.088	0.381	0.116
-403.252	-200.000	-0.054	0.316
-402.238	45.648	-0.196	-0.181
-401.223	168.428	-0.129	-0.183
-400.209	-75.615	-0.296	-0.105
-399.194	102.380	0.135	-0.158
-398.179	275.477	-0.104	0.185
-397.165	-200.000	-0.003	-0.034
-396.150	92.013	-0.216	0.243
-395.136	-164.342	-0.127	-0.006
-394.121	-200.000	-0.005	0.021
-393.106	21.341	0.119	0.096
-392.092	-78.953	0.093	-0.032
-391.077	-95.144	0.237	0.064
-390.063	490.292	0.085	0.195
-389.048	88.177	-0.279	0.309
-388.033	602.440	-0.144	0.358
-387.019	800.000	-0.060	-0.195
-386.004	-200.000	-0.035	-0.181
-384.990	-112.049	0.031	-0.006
-383.975	-200.000	-0.016	0.431
-382.960	-200.000	-0.020	-0.262
-381.946	800.000	-0.017	0.075
-380.931	-28.578	-0.097	0.056
-379.917	800.000	-0.029	-0.098
-378.902	-147.642	0.127	0.011
-377.888	-200.000	0.026	0.197
-376.873	306.618	0.071	0.132
-375.858	-72.532	0.049	0.018
-374.844	-200.000	-0.066	0.296
-373.829	800.000	-0.028	0.084
-372.815	-119.636	0.188	-0.032
-371.800	-200.000	0.019	0.113
-370.785	0.629	0.229	0.164
-369.771	158.148	0.292	0.404
-368.756	-43.713	0.153	-0.077
-367.742	-200.000	-0.008	0.201
-366.727	54.715	-0.102	0.098
-365.712	-44.255	-0.248	0.124
-364.698	-168.493	0.178	0.007
-363.683	-47.730	-0.041	0.020
-362.669	-200.000	-0.046	-0.260
-361.654	800.000	-0.047	-0.150
-360.639	129.228	0.206	0.262
-359.625	248.177	-0.112	0.189
-358.610	-165.135	-0.345	0.015
-357.596	-200.000	-0.013	0.062
-356.581	-151.100	-0.394	-0.030
-355.566	-200.000	0.094	0.421
-354.552	-44.430	0.030	0.015
-353.537	217.172	0.084	0.133
-352.523	-110.140	-0.177	0.037
-351.508	11.540	0.177	-0.136
-350.493	-128.954	-0.378	-0.053
-349.479	-7.301	-0.345	0.233
-348.464	297.882	-0.074	0.136
-347.450	-67.147	0.187	0.073
-346.435	800.000	-0.008	-0.029
-345.420	-200.000	-0.001	-0.110
-344.406	-200.000	-0.009	-0.140
-343.391	800.000	-0.086	-0.288
-342.377	29.316	0.072	-0.061
-341.362	800.000	0.016	-0.046
-340.348	-200.000	0.040	-0.393
-339.333	-46.739	-0.339	0.165
-338.318	-200.000	-0.002	-0.157
-337.304	173.823	0.184	0.264
-336.289	-89.475	0.337	0.099
-335.275	-200.000	-0.037	-0.292
-334.260	-200.000	0.009	-0.239
-333.245	800.000	0.029	0.095
-332.231	237.114	0.044	-0.072
-331.216	-200.000	-0.017	-0.178
-330.202	800.000	-0.086	0.269
-329.187	30.122	0.316	-0.268
-328.172	18.829	-0.011	0.009
-327.158	-9.199	0.107	-0.071
-326.143	-18.073	-0.222	0.139
-325.129	-66.479	-0.031	-0.012
-324.114	-39.869	0.284	-0.148
-323.099	379.765	0.144	-0.294
-322.085	70.639	0.238	-0.245
-321.070	-135.722	0.214	-0.025
-320.056	26.837	-0.143	-0.119
-319.041	-55.749	0.264	-0.118
-318.026	-3.237	0.203	0.141
-317.012	-57.991	0.145	0.063
-315.997	595.983	0.030	0.074
-314.983	1.273	0.271	0.194
-313.968	-112.407	0.242	-0.048
-312.953	-18.109	-0.344	-0.214
-311.939	-31.634	0.235	0.132
-310.924	153.866	0.098	-0.134
-309.910	800.000	-0.013	-0.037
-308.895	276.172	-0.137	-0.243
-307.880	-137.837	-0.171	-0.019
-306.866	556.587	0.165	-0.395
-305.851	-200.000	-0.026	-0.229
-304.837	22.359	-0.353	-0.287
-303.822	100.401	-0.012	-0.014
-302.807	-43.264	0.066	-0.033
-301.793	1.069	0.215	0.153
-300.778	-200.000	-0.035	0.235
-299.764	800.000	0.092	0.396
-298.749	402.053	0.068	-0.141
-297.735	-106.919	0.283	-0.062
-296.720	-90.824	0.123	-0.035
-295.705	622.202	0.047	-0.117
-294.691	-177.515	-0.220	-0.005
-293.676	-200.000	0.020	0.248
-292.662	-88.619	-0.196	0.058
-291.647	493.646	0.119	0.272
-290.632	800.000	0.025	-0.097
-289.618	719.035	-0.113	-0.300
-288.603	-28.612	-0.332	0.190
-287.589	121.102	0.170	0.211
-286.574	259.353	0.096	0.165
-285.559	-43.260	-0.253	0.127
-284.545	91.919	-0.025	0.028
-283.530	347.931	0.123	-0.241
-282.516	71.054	0.167	-0.172
-281.501	-200.000	-0.022	-0.407
-280.486	-6.674	-0.241	-0.163
-279.472	800.000	-0.079	0.251
-278.457	-107.930	-0.056	-0.012
-277.443	-41.142	0.364	0.187
-276.428	800.000	-0.037	0.104
-275.413	-119.743	-0.237	0.041
-274.399	206.378	0.145	0.224
-273.384	617.369	0.190	0.474
-272.370	12.293	-0.248	-0.190
-271.355	130.081	0.133	0.169
-270.340	46.905	0.217	-0.201
-269.326	-200.000	-0.055	0.330
-268.311	-154.979	0.352	-0.023
-267.297	-31.626	0.188	0.105
-266.282	-200.000	-0.033	0.256
-265.267	-66.624	-0.191	-0.075
-264.253	44.574	0.095	-0.087
-263.238	-120.381	-0.317	0.054
-262.224	39.158	-0.098	0.087
-261.209	800.000	0.083	0.321
-260.195	-83.070	-0.223	0.071
-259.180	19.732	0.132	-0.105
-258.165	642.131	-0.022	0.055
-257.151	-200.000	0.007	-0.298
-256.136	-200.000	-0.082	-0.402
-255.122	-200.000	-0.010	-0.057
-254.107	-162.297	0.198	0.010
-253.092	-105.158	-0.176	0.040
-252.078	-61.120	-0.320	-0.134
-251.063	-23.351	-0.173	0.103
-250.049	-66.027	-0.202	0.080
-249.034	800.000	-0.035	-0.096
-248.019	-142.318	0.241	0.024
-247.005	-56.079	0.374	-0.166
-245.990	-200.000	-0.027	0.185
-244.976	-122.229	-0.322	0.052
-243.961	403.126	0.029	0.060
-242.946	-200.000	0.012	-0.120
-241.932	800.000	-0.077	0.264
-240.917	-17.886	-0.060	-0.037
-239.903	-128.017	0.142	0.020
-238.888	48.919	0.188	-0.175
-237.873	800.000	-0.144	0.404
-236.859	-9.400	0.337	-0.223
-235.844	5.479	0.110	0.081
-234.830	185.251	-0.113	-0.166
-233.815	-200.000	0.012	-0.148
-232.800	-47.818	0.120	0.058
-231.786	800.000	-0.020	0.061
-230.771	-200.000	-0.003	0.050
-229.757	-37.228	-0.204	0.108
-228.742	-110.912	0.167	0.034
-227.727	43.774	-0.058	0.053
-226.713	800.000	0.051	0.216
-225.698	-163.032	0.105	0.005
-224.684	-200.000	-0.001	0.086
-223.669	41.387	-0.219	0.197
-222.655	564.413	0.039	-0.095
-221.640	-29.218	-0.342	0.194
-220.625	-193.060	0.248	0.002
-219.611	-200.000	-0.061	-0.463
-218.596	-130.568	0.142	0.019
-217.582	77.360	0.266	0.280
-216.567	-111.728	0.173	0.035
-215.552	-72.925	-0.186	0.068
-214.538	800.000	-0.037	0.145
-213.523	-134.639	0.082	-0.010
-212.509	135.329	-0.176	0.227
-211.494	43.680	-0.078	-0.071
-210.479	-69.964	-0.220	0.083
-209.465	-31.454	-0.123	0.068
-208.450	-200.000	0.017	-0.075
-207.436	-9.536	0.452	-0.299
-206.421	57.399	-0.073	-0.070
-205.406	-86.400	0.162	-0.049
-204.392	800.000	0.068	0.227
-203.377	164.162	-0.089	-0.124
-202.363	-148.029	-0.406	-0.033
-201.348	-79.998	0.197	-0.066
-200.333	-200.000	-0.000	-0.113
-199.319	107.104	-0.046	0.054
-198.304	44.274	-0.151	0.137
-197.290	-33.093	0.122	-0.067
-196.275	-18.077	0.193	-0.120
-195.260	137.341	-0.027	0.034
-194.246	-200.000	0.050	0.229
-193.231	205.581	0.145	-0.223
-192.217	-200.000	-0.030	0.189
-191.202	-58.400	-0.068	-0.029
-190.187	100.612	-0.080	0.092
-189.173	-135.657	0.347	0.041
-188.158	17.202	0.130	0.102
-187.144	-62.591	0.057	-0.023
-186.129	-165.261	-0.415	-0.018
-185.114	-91.290	0.384	0.109
-184.100	-130.345	0.201	0.027
-183.085	-200.000	0.009	-0.172
-182.071	-166.241	0.068	-0.003
-181.056	154.102	-0.098	0.133
-180.042	-200.000	0.006	0.041
-179.027	-14.314	0.286	0.183
-178.012	-84.922	-0.316	0.098
-176.998	-4.176	0.291	-0.199
-175.983	249.949	-0.029	-0.049
-174.969	-82.111	-0.076	-0.024
-173.954	59.429	-0.204	-0.199
-172.939	116.321	-0.125	0.152
-171.925	-141.904	-0.080	-0.008
-170.910	118.594	0.175	-0.214
-169.896	-54.063	-0.275	0.124
-168.881	-81.065	0.263	0.086
-167.866	800.000	0.069	-0.195
-166.852	-155.718	0.407	-0.026
-165.837	-152.098	0.283	-0.020
-164.823	-200.000	-0.021	-0.124
-163.808	-200.000	0.026	-0.440
-162.793	-133.197	-0.064	-0.008
-161.779	-20.186	0.289	0.176
-160.764	61.624	0.096	-0.094
-159.750	800.000	-0.069	-0.296
-158.735	163.206	0.127	0.176
-157.720	-6.647	-0.164	0.111
-156.706	-26.445	0.125	-0.073
-155.691	-105.415	-0.446	-0.100
-154.677	-5.566	0.034	-0.023
-153.662	800.000	0.060	0.198
-152.647	-200.000	0.003	-0.066
-151.633	139.375	0.134	0.175
-150.618	82.786	0.242	0.260
-149.604	-200.000	0.045	-0.240
-148.589	783.172	0.021	-0.058
-147.574	-129.852	-0.343	0.047
-146.560	800.000	0.058	-0.170
-145.545	-151.850	0.379	-0.027
-144.531	-200.000	0.020	-0.145
-143.516	-200.000	0.033	-0.151
-142.502	-200.000	0.031	0.234
-141.487	-84.411	0.217	0.068
-140.472	199.217	0.119	0.180
-139.458	800.000	0.047	-0.136
-138.443	386.883	0.078	-0.158
-137.429	800.000	0.067	-0.190
-136.414	201.027	0.039	0.059
-135.399	184.805	0.216	-0.316
-134.385	30.028	-0.075	0.064
-133.370	233.669	0.102	0.166
-132.356	-12.905	-0.382	-0.246
-131.341	118.034	0.182	0.221
-130.326	-134.963	-0.280	-0.033
-129.312	758.685	-0.029	-0.077
-128.297	-78.459	0.124	0.042
-127.283	-199.995	0.188	-0.001
-126.268	45.971	-0.090	0.082
-125.253	-84.387	-0.140	-0.044
-124.239	335.935	0.110	-0.211
-123.224	97.309	-0.051	-0.058
-122.210	424.837	-0.160	0.340
