DTS Sentinel unit serial number:	SN413079Multiplexer serial number:	ORYXHardware model number:	OX4-SRSoftware version number:	ORYX F/W v4.00 Oryx Data Collector v3.7.2.0data status	okinstallation	princeton_trtdifferential loss correction	single-endedforward channel	channel 2reverse channel	N/Adate	2019/09/16time	14:03:34forward acquisition time	60.00reverse acquisition time	0.00gamma	496.2192k internal	0.2295k external	0.2295temperature offset calibration	0.9941default loss term (dB/km)	0.3790temperature slope calibration	1.0000multiplexer offset coefficient	1.0000multiplexer slope coefficient	1.0000fibre end	0.00T internal ref (°C)	42.37T ext. ref 1 (°C)	14.04T ext. ref 2 (°C)	37.18length (m)	temperature (°C)	Stokes	anti-Stokes-747.200	-27.302	-0.141	0.084
-746.185	-81.064	-0.278	0.094
-745.171	-46.611	-0.106	-0.053
-744.156	-200.000	0.077	0.432
-743.142	-36.330	-0.123	-0.068
-742.127	-200.000	-0.019	0.090
-741.112	-92.027	0.235	0.068
-740.098	-200.000	-0.017	0.288
-739.083	-49.157	0.232	0.114
-738.069	67.093	0.044	0.046
-737.054	800.000	-0.046	-0.193
-736.039	-72.050	-0.373	0.142
-735.025	-200.000	0.007	0.213
-734.010	-107.138	0.190	-0.043
-732.996	-50.373	-0.275	0.133
-731.981	124.067	-0.183	-0.235
-730.966	-96.642	-0.220	-0.059
-729.952	110.366	-0.135	-0.166
-728.937	-200.000	-0.026	-0.245
-727.923	87.778	0.084	0.095
-726.908	86.139	0.011	0.012
-725.894	85.915	-0.147	-0.165
-724.879	-200.000	-0.031	0.211
-723.864	15.367	0.200	-0.160
-722.850	115.260	0.096	0.120
-721.835	-53.611	-0.017	0.008
-720.821	500.222	-0.065	-0.153
-719.806	-159.835	0.290	0.016
-718.791	800.000	0.061	-0.213
-717.777	800.000	-0.021	-0.068
-716.762	-157.114	-0.089	0.006
-715.748	455.226	0.148	0.335
-714.733	800.000	-0.117	-0.380
-713.718	-0.558	0.205	0.149
-712.704	365.271	-0.073	-0.150
-711.689	321.798	0.034	-0.066
-710.675	800.000	0.076	-0.259
-709.660	7.424	0.046	-0.035
-708.645	-200.000	-0.022	-0.371
-707.631	-82.326	0.312	-0.104
-706.616	-22.346	-0.173	0.107
-705.602	-136.338	0.045	-0.005
-704.587	-83.869	0.240	-0.078
-703.572	76.589	-0.319	0.345
-702.558	241.721	0.195	-0.333
-701.543	205.003	0.197	0.312
-700.529	25.829	0.174	0.148
-699.514	-200.000	-0.046	-0.355
-698.499	-200.000	0.006	0.358
-697.485	-85.340	0.023	-0.007
-696.470	800.000	0.026	-0.086
-695.456	-142.894	0.339	0.034
-694.441	717.780	0.062	-0.169
-693.426	150.923	0.087	-0.121
-692.412	8.607	0.078	-0.060
-691.397	33.870	-0.183	0.162
-690.383	800.000	0.053	-0.182
-689.368	-200.000	-0.034	-0.373
-688.354	-75.089	0.207	0.075
-687.339	-86.843	-0.245	0.076
-686.324	5.543	-0.076	-0.057
-685.310	-104.223	-0.106	0.025
-684.295	-68.981	-0.050	0.019
-683.281	565.230	-0.095	0.236
-682.266	-200.000	-0.032	-0.342
-681.251	-200.000	0.001	-0.008
-680.237	800.000	0.067	-0.294
-679.222	-126.447	-0.265	-0.040
-678.208	-99.928	0.242	0.062
-677.193	-62.180	-0.486	-0.207
-676.178	800.000	0.096	-0.310
-675.164	-166.499	-0.116	-0.005
-674.149	-29.757	0.229	-0.133
-673.135	-53.331	0.316	-0.148
-672.120	-174.573	0.232	-0.007
-671.105	-110.707	0.143	0.030
-670.091	468.297	0.130	-0.297
-669.076	800.000	0.053	0.194
-668.062	276.163	0.091	0.164
-667.047	-200.000	0.004	-0.100
-666.032	566.711	0.077	0.191
-665.018	-20.410	-0.068	0.043
-664.003	201.255	0.039	-0.061
-662.989	800.000	-0.151	-0.445
-661.974	283.183	-0.121	-0.221
-660.959	67.355	0.109	-0.113
-659.945	-138.249	-0.257	0.029
-658.930	285.656	0.075	-0.137
-657.916	340.758	-0.115	-0.229
-656.901	-148.213	0.062	-0.005
-655.886	-194.296	0.279	0.002
-654.872	26.468	0.173	0.147
-653.857	-158.688	0.539	-0.032
-652.843	313.522	0.146	-0.280
-651.828	108.232	0.054	0.065
-650.814	-120.755	-0.241	-0.041
-649.799	-200.000	0.045	-0.419
-648.784	147.449	0.129	-0.176
-647.770	800.000	0.067	0.292
-646.755	313.320	-0.078	-0.150
-645.741	290.973	-0.074	-0.137
-644.726	-200.000	-0.127	-0.601
-643.711	17.518	0.177	-0.143
-642.697	62.083	-0.180	-0.183
-641.682	21.204	0.199	-0.165
-640.668	59.726	0.105	0.106
-639.653	45.500	-0.032	-0.030
-638.638	-123.482	-0.139	-0.022
-637.624	315.424	0.016	0.031
-636.609	-60.432	-0.084	0.037
-635.595	100.918	-0.087	0.103
-634.580	-84.916	0.153	-0.049
-633.565	-189.766	0.364	0.004
-632.551	800.000	0.040	-0.158
-631.536	-27.903	0.083	0.049
-630.522	-107.837	0.094	0.021
-629.507	231.555	-0.173	0.288
-628.492	-4.865	-0.187	0.131
-627.478	151.467	0.186	0.258
-626.463	-200.000	-0.080	-0.449
-625.449	409.317	-0.107	0.230
-624.434	-101.345	0.102	0.025
-623.419	800.000	0.058	-0.186
-622.405	-72.758	-0.435	0.163
-621.390	82.909	0.113	-0.125
-620.376	-75.739	0.161	-0.058
-619.361	-200.000	-0.065	0.305
-618.346	254.274	0.025	-0.044
-617.332	-200.000	0.016	-0.323
-616.317	237.855	-0.094	0.159
-615.303	44.631	-0.036	-0.034
-614.288	1.505	0.284	-0.208
-613.273	-53.574	-0.328	0.152
-612.259	-200.000	-0.031	0.137
-611.244	-53.653	-0.085	0.039
-610.230	75.586	0.131	-0.140
-609.215	27.048	0.154	-0.131
-608.201	-144.588	0.222	0.021
-607.186	45.215	0.104	0.098
-606.171	-161.454	-0.392	0.021
-605.157	-200.000	0.087	0.464
-604.142	359.143	0.065	0.131
-603.128	64.671	0.064	0.066
-602.113	-39.510	-0.112	0.060
-601.098	-200.000	-0.030	-0.165
-600.084	-85.497	0.299	-0.095
-599.069	-127.186	-0.080	0.012
-598.055	-200.000	-0.043	0.204
-597.040	232.359	-0.154	-0.257
-596.025	6.433	0.114	-0.086
-595.011	-200.000	-0.049	-0.285
-593.996	-27.137	0.208	0.123
-592.982	17.657	0.162	-0.131
-591.967	800.000	-0.077	-0.277
-590.952	-200.000	0.001	-0.068
-589.938	-90.466	-0.182	-0.054
-588.923	-200.000	-0.009	-0.172
-587.909	-26.610	-0.093	-0.055
-586.894	153.718	-0.227	-0.316
-585.879	190.063	-0.109	-0.166
-584.865	800.000	0.051	-0.219
-583.850	74.881	0.205	-0.219
-582.836	800.000	-0.029	-0.082
-581.821	-43.040	-0.187	-0.096
-580.806	-119.941	-0.181	-0.032
-579.792	740.570	0.076	0.207
-578.777	526.329	0.079	-0.189
-577.763	-116.360	-0.161	-0.030
-576.748	-200.000	0.003	-0.335
-575.733	-200.000	0.002	0.128
-574.719	-32.544	-0.068	-0.039
-573.704	800.000	0.049	0.166
-572.690	-99.029	-0.249	0.064
-571.675	-23.647	-0.237	-0.144
-570.661	-17.058	-0.190	0.122
-569.646	-29.956	-0.025	0.014
-568.631	646.197	-0.093	-0.242
-567.617	153.355	0.235	0.326
-566.602	56.458	0.047	0.046
-565.588	-200.000	0.020	-0.195
-564.573	324.441	0.154	0.299
-563.558	-200.000	0.005	0.071
-562.544	-200.000	0.008	0.203
-561.529	103.508	-0.264	-0.314
-560.515	-131.381	0.175	0.024
-559.500	-50.376	-0.262	-0.126
-558.485	800.000	-0.073	-0.274
-557.471	-200.000	-0.001	-0.296
-556.456	800.000	0.035	-0.129
-555.442	588.111	-0.045	0.112
-554.427	-27.486	-0.388	-0.229
-553.412	-52.737	0.121	0.056
-552.398	-39.553	0.209	0.111
-551.383	-45.851	0.202	-0.101
-550.369	-200.000	0.024	0.250
-549.354	-200.000	0.033	-0.169
-548.339	102.411	-0.103	0.122
-547.325	-155.767	-0.132	0.009
-546.310	-170.518	-0.535	-0.019
-545.296	-130.440	-0.435	0.060
-544.281	52.308	-0.259	0.251
-543.266	351.343	0.098	0.197
-542.252	-46.242	0.239	0.119
-541.237	-81.410	0.212	-0.071
-540.223	78.155	0.045	0.049
-539.208	1.610	0.213	0.155
-538.193	275.708	-0.108	-0.194
-537.179	800.000	-0.069	-0.209
-536.164	-98.147	0.253	0.066
-535.150	-200.000	0.054	0.341
-534.135	-187.245	-0.296	0.004
-533.121	-154.358	0.275	0.019
-532.106	800.000	-0.079	-0.253
-531.091	46.800	-0.080	0.075
-530.077	118.337	-0.227	0.284
-529.062	191.505	0.157	0.240
-528.048	205.929	0.059	-0.094
-527.033	-74.421	0.177	-0.065
-526.018	332.845	0.119	-0.234
-525.004	99.155	-0.051	-0.060
-523.989	135.078	0.108	-0.142
-522.975	169.442	-0.142	0.205
-521.960	117.965	0.177	0.221
-520.945	46.665	0.198	-0.186
-519.931	-38.040	-0.062	-0.033
-518.916	103.106	-0.223	0.265
-517.902	211.445	-0.065	-0.103
-516.887	-67.072	-0.294	-0.118
-515.872	-157.126	0.081	0.005
-514.858	-200.000	0.011	0.284
-513.843	85.409	-0.110	0.122
-512.829	108.501	0.093	-0.112
-511.814	-5.315	-0.164	-0.114
-510.799	-31.531	-0.302	-0.172
-509.785	137.394	-0.068	0.090
-508.770	274.970	-0.198	-0.355
-507.756	-38.937	0.167	0.089
-506.741	62.909	-0.096	0.097
-505.726	48.069	0.192	-0.182
-504.712	-78.323	-0.383	0.133
-503.697	-36.576	-0.324	0.177
-502.683	-54.772	0.275	0.126
-501.668	-41.619	-0.265	0.138
-500.653	93.497	-0.112	-0.129
-499.639	-96.764	0.622	0.166
-498.624	-200.000	-0.001	0.271
-497.610	800.000	0.103	-0.356
-496.595	-165.518	-0.123	0.005
-495.581	-80.332	0.108	-0.037
-494.566	800.000	0.119	-0.479
-493.551	-113.950	0.017	0.003
-492.537	-73.882	0.238	-0.087
-491.522	-11.720	0.111	0.074
-490.508	-200.000	-0.043	0.337
-489.493	-138.888	0.422	-0.046
-488.478	-120.901	-0.172	0.029
-487.464	84.796	0.053	0.059
-486.449	69.620	0.095	0.099
-485.435	-5.416	-0.089	-0.062
-484.420	192.216	-0.114	-0.174
-483.405	-194.413	-0.338	0.003
-482.391	537.925	0.038	0.092
-481.376	-57.861	0.314	-0.139
-480.362	-200.000	-0.013	0.087
-479.347	-200.000	0.038	0.236
-478.332	20.213	-0.231	-0.189
-477.318	800.000	0.043	-0.135
-476.303	-130.091	-0.182	-0.025
-475.289	-200.000	0.003	-0.261
-474.274	230.912	-0.128	-0.211
-473.259	-200.000	0.003	0.160
-472.245	800.000	-0.048	0.206
-471.230	800.000	0.075	0.250
-470.216	-73.435	0.166	-0.061
-469.201	800.000	0.125	0.470
-468.186	-33.318	0.200	0.112
-467.172	-110.371	0.458	-0.096
-466.157	-132.734	-0.188	0.024
-465.143	-54.945	-0.118	0.054
-464.128	-145.441	0.192	0.017
-463.113	-100.625	0.553	-0.138
-462.099	-57.555	0.179	-0.079
-461.084	252.897	-0.133	0.230
-460.070	78.839	0.176	-0.191
-459.055	-92.260	-0.082	-0.023
-458.040	88.210	0.226	-0.254
-457.026	-200.000	0.090	-0.457
-456.011	292.753	0.073	-0.134
-454.997	582.679	0.111	-0.276
-453.982	-79.896	0.093	-0.032
-452.968	-200.000	0.006	-0.098
-451.953	-89.055	-0.249	0.074
-450.938	14.464	-0.255	0.201
-449.924	147.693	-0.168	0.229
-448.909	800.000	-0.026	0.094
-447.895	65.088	0.030	-0.030
-446.880	85.803	-0.116	-0.129
-445.865	800.000	-0.138	-0.495
-444.851	-23.632	-0.091	0.055
-443.836	302.746	-0.103	-0.192
-442.822	-200.000	-0.049	-0.392
-441.807	733.886	-0.043	0.116
-440.792	-15.483	0.142	-0.091
-439.778	77.453	0.264	0.284
-438.763	-79.250	-0.109	-0.037
-437.749	800.000	0.055	0.179
-436.734	141.320	0.078	0.105
-435.719	13.192	-0.317	-0.248
-434.705	40.953	-0.022	-0.020
-433.690	-163.718	0.289	-0.014
-432.676	106.717	0.194	0.233
-431.661	444.729	-0.123	-0.273
-430.646	157.423	-0.173	-0.242
-429.632	-10.719	-0.248	-0.166
-428.617	-200.000	-0.067	-0.330
-427.603	-163.352	-0.257	-0.012
-426.588	190.620	0.078	-0.118
-425.573	-76.414	-0.197	0.070
-424.559	183.611	0.138	0.205
-423.544	3.778	0.232	0.171
-422.530	230.082	0.111	-0.183
-421.515	-200.000	-0.004	-0.064
-420.500	208.514	0.042	-0.066
-419.486	-55.093	0.226	-0.103
-418.471	-184.721	0.124	-0.002
-417.457	526.881	-0.108	0.257
-416.442	-117.271	-0.358	0.066
-415.428	443.729	-0.197	0.436
-414.413	-200.000	-0.010	0.157
-413.398	134.169	-0.072	0.094
-412.384	149.938	0.126	-0.172
-411.369	-34.119	-0.161	0.089
-410.355	-200.000	0.028	-0.259
-409.340	-59.197	0.069	0.030
-408.325	52.868	0.232	0.224
-407.311	-134.262	-0.112	-0.014
-406.296	98.709	-0.081	-0.094
-405.282	-145.797	-0.314	-0.028
-404.267	-200.000	-0.046	0.230
-403.252	0.521	0.173	-0.124
-402.238	477.555	-0.052	0.120
-401.223	193.837	0.230	0.352
-400.209	-49.572	0.201	0.096
-399.194	27.603	0.140	0.119
-398.179	800.000	-0.045	-0.135
-397.165	-81.931	0.056	-0.018
-396.150	-71.099	-0.132	0.050
-395.136	306.314	-0.075	-0.140
-394.121	256.328	-0.052	-0.090
-393.106	-95.282	-0.241	-0.065
-392.092	-200.000	-0.007	-0.121
-391.077	-110.317	-0.171	-0.036
-390.063	-12.159	0.077	0.051
-389.048	-136.983	0.323	-0.037
-388.033	800.000	0.083	0.314
-387.019	452.094	0.142	0.316
-386.004	-42.595	-0.221	0.113
-384.990	-133.338	-0.280	-0.036
-383.975	-199.671	0.216	0.001
-382.960	51.970	0.051	-0.049
-381.946	276.739	0.079	-0.142
-380.931	-35.812	-0.353	-0.193
-379.917	78.655	-0.105	0.114
-378.902	431.172	0.039	-0.085
-377.888	620.103	-0.046	0.117
-376.873	75.930	0.154	-0.164
-375.858	83.286	-0.146	-0.161
-374.844	225.812	0.065	-0.106
-373.829	184.895	0.022	-0.033
-372.815	116.164	0.302	0.372
-371.800	21.242	-0.077	0.063
-370.785	245.401	-0.030	-0.051
-369.771	-200.000	0.024	-0.109
-368.756	-73.082	-0.138	0.051
-367.742	103.575	0.158	0.186
-366.727	800.000	0.055	0.180
-365.712	113.827	-0.194	-0.238
-364.698	-53.969	0.232	0.106
-363.683	47.017	0.092	0.086
-362.669	-65.885	-0.293	0.118
-361.654	156.423	0.043	0.060
-360.639	43.380	0.094	0.087
-359.625	-85.517	0.194	-0.061
-358.610	165.781	0.132	-0.189
-357.596	-69.252	-0.213	-0.082
-356.581	97.538	0.172	-0.199
-355.566	-6.011	-0.246	-0.170
-354.552	-41.093	0.227	0.118
-353.537	-180.756	0.350	-0.007
-352.523	-29.865	-0.356	-0.204
-351.508	739.319	0.076	0.205
-350.493	27.891	-0.253	0.214
-349.479	-40.304	-0.241	0.126
-348.464	-200.000	0.016	0.413
-347.450	216.317	-0.196	-0.314
-346.435	154.013	-0.105	-0.145
-345.420	79.004	-0.163	-0.175
-344.406	134.899	0.120	0.157
-343.391	452.074	0.045	0.100
-342.377	-200.000	0.010	0.063
-341.362	-200.000	-0.021	0.180
-340.348	448.124	-0.085	0.189
-339.333	-120.935	-0.226	-0.038
-338.318	-119.467	0.306	0.053
-337.304	54.818	-0.147	0.143
-336.289	472.607	-0.076	-0.172
-335.275	-73.202	-0.069	0.025
-334.260	-16.904	-0.255	-0.162
-333.245	646.648	-0.110	0.283
-332.231	-200.000	0.064	0.338
-331.216	698.159	-0.048	0.128
-330.202	146.274	0.226	-0.305
-329.187	-200.000	-0.032	-0.267
-328.172	-54.937	0.295	0.134
-327.158	367.148	-0.047	-0.096
-326.143	235.344	-0.173	0.287
-325.129	-200.000	0.011	0.135
-324.114	-200.000	0.010	-0.047
-323.099	-200.000	0.032	-0.276
-322.085	101.028	-0.149	-0.174
-321.070	707.402	0.148	0.393
-320.056	800.000	0.098	-0.354
-319.041	-107.403	0.369	0.081
-318.026	800.000	-0.110	0.362
-317.012	84.417	0.226	0.249
-315.997	-48.852	0.104	0.050
-314.983	-200.000	0.014	-0.097
-313.968	-200.000	0.028	-0.217
-312.953	297.229	0.139	0.257
-311.939	-117.174	0.035	0.006
-310.924	372.410	-0.105	0.215
-309.910	59.758	0.345	-0.342
-308.895	800.000	-0.042	0.161
-307.880	-200.000	0.012	0.143
-306.866	15.881	0.160	0.126
-305.851	620.921	0.182	-0.460
-304.837	-16.998	-0.160	-0.102
-303.822	536.915	0.170	0.405
-302.807	-148.335	0.112	0.009
-301.793	77.118	0.121	0.130
-300.778	-30.908	-0.073	-0.041
-299.764	-45.769	-0.242	0.120
-298.749	-192.925	0.286	-0.003
-297.735	155.271	-0.177	-0.245
-296.720	-200.000	0.004	-0.270
-295.705	-200.000	-0.014	-0.397
-294.691	716.755	-0.063	-0.168
-293.676	-12.738	0.120	-0.078
-292.662	-117.969	-0.396	-0.071
-291.647	-200.000	-0.035	-0.306
-290.632	-162.139	-0.155	0.008
-289.618	776.442	-0.123	0.337
-288.603	46.307	0.118	0.110
-287.589	269.315	-0.012	0.021
-286.574	-200.000	-0.058	-0.383
-285.559	76.949	0.115	0.123
-284.545	383.366	-0.051	0.105
-283.530	262.711	-0.063	-0.109
-282.516	-107.476	0.127	0.028
-281.501	530.265	-0.140	0.333
-280.486	-124.347	-0.194	-0.030
-279.472	800.000	-0.035	-0.102
-278.457	-4.164	0.200	0.139
-277.443	184.625	-0.084	0.126
-276.428	9.929	-0.225	0.171
-275.413	-46.131	-0.037	-0.018
-274.399	-124.303	0.094	0.015
-273.384	-133.407	0.300	0.038
-272.370	-138.671	-0.252	0.028
-271.355	34.726	-0.268	-0.235
-270.340	-24.928	-0.139	0.083
-269.326	278.417	-0.057	0.103
-268.311	315.781	-0.095	0.179
-267.297	800.000	-0.035	0.103
-266.282	-200.000	-0.005	0.453
-265.267	800.000	0.048	0.141
-264.253	-200.000	-0.003	0.170
-263.238	-200.000	-0.011	0.116
-262.224	-61.212	-0.092	-0.039
-261.209	-193.087	0.322	-0.003
-260.195	12.352	0.175	-0.135
-259.180	-62.394	0.101	-0.042
-258.165	800.000	-0.166	-0.492
-257.151	-142.129	0.290	0.029
-256.136	45.697	-0.231	-0.214
-255.122	16.293	-0.220	-0.174
-254.107	35.465	0.097	-0.085
-253.092	36.502	-0.164	0.145
-252.078	-135.143	-0.287	-0.035
-251.063	-44.964	0.153	-0.076
-250.049	-200.000	-0.015	-0.126
-249.034	-157.665	0.242	-0.014
-248.019	-170.178	0.391	-0.014
-247.005	14.811	0.443	0.348
-245.990	-0.921	0.160	-0.114
-244.976	-105.196	-0.184	-0.042
-243.961	115.634	0.110	-0.134
-242.946	-88.307	0.292	-0.087
-241.932	27.513	0.096	0.081
-240.917	800.000	0.013	-0.043
-239.903	488.018	0.088	0.202
-238.888	-122.618	0.311	0.050
-237.873	-136.421	0.170	-0.020
-236.859	-60.781	-0.456	-0.194
-235.844	70.594	0.113	-0.117
-234.830	-200.000	-0.075	0.499
-233.815	109.471	0.108	-0.130
-232.800	151.546	0.042	0.057
-231.786	-112.840	-0.111	0.022
-230.771	800.000	-0.188	-0.532
-229.757	-58.017	-0.135	0.059
-228.742	214.783	-0.094	-0.148
-227.727	151.090	0.084	-0.115
-226.713	169.596	0.177	0.253
-225.698	154.001	-0.075	0.103
-224.684	173.391	-0.335	0.484
-223.669	800.000	0.026	-0.080
-222.655	540.752	-0.004	-0.009
-221.640	-146.495	-0.225	-0.020
-220.625	-47.809	-0.180	-0.087
-219.611	-85.271	-0.033	0.010
-218.596	102.780	-0.051	-0.059
-217.582	162.759	-0.077	0.108
-216.567	38.427	-0.127	0.113
-215.552	95.170	0.353	0.403
-214.538	-200.000	0.025	0.373
-213.523	164.616	-0.116	0.164
-212.509	-14.502	-0.112	-0.072
-211.494	-113.987	-0.223	0.043
-210.479	149.165	0.126	-0.171
-209.465	-178.913	0.311	0.007
-208.450	-139.662	-0.228	0.024
-207.436	-129.249	-0.037	0.005
-206.421	-6.859	0.125	-0.085
-205.406	71.166	-0.271	0.281
-204.392	103.780	-0.078	0.091
-203.377	-71.379	-0.046	0.017
-202.363	800.000	0.121	0.455
-201.348	-160.558	0.049	0.003
-200.333	800.000	-0.053	0.154
-199.319	51.775	0.325	0.310
-198.304	-170.083	0.182	0.006
-197.290	27.975	0.296	0.250
-196.275	-200.000	-0.027	0.178
-195.260	-12.412	0.139	-0.091
-194.246	-147.956	0.069	0.006
-193.231	18.001	0.321	-0.256
-192.217	321.353	0.052	-0.099
-191.202	29.893	-0.287	0.245
-190.187	49.694	0.154	-0.145
-189.173	124.677	0.082	0.104
-188.158	-200.000	-0.075	0.384
-187.144	-74.265	0.224	-0.081
-186.129	256.369	-0.201	0.345
-185.114	-35.597	-0.262	0.142
-184.100	800.000	0.018	0.062
-183.085	192.965	0.267	-0.404
-182.071	164.469	0.066	0.093
-181.056	156.991	-0.190	-0.263
-180.042	513.629	0.033	0.077
-179.027	18.544	-0.220	-0.176
-178.012	-147.683	-0.172	-0.014
-176.998	800.000	0.057	0.241
-175.983	758.870	0.089	-0.241
-174.969	57.814	0.007	0.007
-173.954	-155.430	0.430	-0.028
-172.939	-132.850	-0.116	-0.015
-171.925	491.448	-0.054	-0.124
-170.910	251.114	0.049	-0.083
-169.896	-85.202	0.133	-0.041
-168.881	-130.337	-0.259	-0.035
-167.866	-51.900	0.394	-0.183
-166.852	198.089	-0.175	-0.268
-165.837	564.830	0.066	-0.160
-164.823	111.630	-0.190	0.229
-163.808	47.606	-0.223	0.208
-162.793	193.998	-0.196	-0.296
-161.779	347.213	0.101	-0.198
-160.764	162.176	0.137	0.191
-159.750	190.844	-0.148	0.222
-158.735	800.000	-0.072	0.298
-157.720	279.292	-0.052	0.092
-156.706	-200.000	0.006	-0.042
-155.691	800.000	0.078	-0.292
-154.677	207.673	0.125	0.195
-153.662	-70.121	0.360	-0.137
-152.647	33.941	-0.143	0.125
-151.633	-200.000	0.050	-0.247
-150.618	101.967	-0.268	-0.312
-149.604	121.177	0.276	0.343
-148.589	718.365	0.076	-0.201
-147.574	800.000	0.106	-0.348
-146.560	-57.187	-0.136	0.060
-145.545	-10.107	0.294	0.195
-144.531	-200.000	-0.001	0.056
-143.516	-81.553	-0.311	0.102
-142.502	52.608	-0.186	-0.177
-141.487	606.272	-0.088	-0.218
-140.472	-144.146	-0.055	0.005
-139.458	205.003	0.087	-0.135
-138.443	690.018	-0.098	0.255
-137.429	-139.068	-0.209	-0.023
-136.414	-118.630	-0.215	-0.038
-135.399	27.393	0.217	-0.182
-134.385	4.709	0.081	-0.060
-133.370	349.584	0.031	-0.062
-132.356	-177.787	-0.065	-0.002
-131.341	98.107	0.143	0.164
-130.326	800.000	0.053	-0.154
-129.312	-112.056	0.128	-0.026
-128.297	736.667	-0.054	-0.145
-127.283	254.786	-0.058	-0.099
-126.268	421.210	0.078	-0.167
-125.253	25.324	0.194	-0.161
-124.239	-12.185	-0.598	-0.390
-123.224	-151.546	0.212	0.016
-122.210	-200.000	0.050	-0.367
-121.195	315.232	0.029	0.054
