DTS Sentinel unit serial number:	SN413079Multiplexer serial number:	ORYXHardware model number:	OX4-SRSoftware version number:	ORYX F/W v4.00 Oryx Data Collector v3.7.2.0data status	okinstallation	princeton_trtdifferential loss correction	single-endedforward channel	channel 2reverse channel	N/Adate	2019/09/15time	21:51:35forward acquisition time	60.00reverse acquisition time	0.00gamma	496.2192k internal	0.2334k external	0.2334temperature offset calibration	0.9945default loss term (dB/km)	0.3790temperature slope calibration	1.0000multiplexer offset coefficient	1.0000multiplexer slope coefficient	1.0000fibre end	0.00T internal ref (°C)	30.09T ext. ref 1 (°C)	8.47T ext. ref 2 (°C)	23.12length (m)	temperature (°C)	Stokes	anti-Stokes-747.200	800.000	0.106	0.343
-746.185	800.000	0.098	0.351
-745.171	550.607	-0.022	-0.054
-744.156	800.000	0.093	0.404
-743.142	371.329	-0.050	0.101
-742.127	-200.000	0.026	0.207
-741.112	-32.586	0.230	-0.129
-740.098	-162.451	-0.152	-0.008
-739.083	14.446	-0.176	0.138
-738.069	-200.000	-0.044	0.289
-737.054	56.811	-0.215	-0.210
-736.039	-200.000	0.025	-0.157
-735.025	-4.908	-0.132	0.091
-734.010	-34.920	-0.081	0.045
-732.996	-14.450	-0.204	-0.132
-731.981	-118.331	-0.013	0.002
-730.966	-200.000	-0.031	0.182
-729.952	-64.592	-0.262	-0.107
-728.937	77.553	-0.118	-0.126
-727.923	-84.707	-0.029	0.009
-726.908	-45.722	0.052	0.026
-725.894	150.550	-0.124	-0.169
-724.879	-52.993	-0.134	-0.062
-723.864	282.353	0.112	-0.201
-722.850	-3.150	0.269	-0.188
-721.835	-121.071	-0.202	0.034
-720.821	800.000	-0.057	-0.243
-719.806	55.172	0.141	-0.137
-718.791	-116.536	-0.153	-0.028
-717.777	50.406	-0.065	0.061
-716.762	-200.000	0.012	0.106
-715.748	800.000	-0.035	-0.152
-714.733	-69.174	0.112	0.043
-713.718	-8.139	-0.193	0.131
-712.704	-103.592	-0.331	0.078
-711.689	-200.000	0.014	-0.065
-710.675	800.000	0.105	0.293
-709.660	-11.586	-0.266	0.175
-708.645	-153.186	0.217	0.015
-707.631	16.917	0.384	0.306
-706.616	382.154	-0.065	0.133
-705.602	-73.242	0.040	0.015
-704.587	-66.401	0.324	0.129
-703.572	74.455	-0.162	0.171
-702.558	-44.144	0.060	-0.030
-701.543	-200.000	0.059	-0.420
-700.529	-200.000	0.041	-0.234
-699.514	-200.000	-0.004	0.126
-698.499	45.295	0.100	0.092
-697.485	-144.350	0.256	0.024
-696.470	450.585	-0.061	-0.134
-695.456	29.301	0.265	0.226
-694.441	487.583	-0.009	0.020
-693.426	690.071	-0.075	-0.196
-692.412	800.000	0.063	-0.245
-691.397	-181.743	0.155	0.003
-690.383	-200.000	-0.020	-0.205
-689.368	-1.919	-0.145	-0.102
-688.354	162.891	-0.170	0.240
-687.339	-8.671	-0.252	0.170
-686.324	-108.587	0.426	-0.092
-685.310	232.972	0.041	-0.067
-684.295	29.570	-0.165	-0.141
-683.281	-30.786	0.185	-0.105
-682.266	-200.000	-0.051	0.343
-681.251	800.000	0.057	0.169
-680.237	-79.740	-0.042	-0.014
-679.222	-200.000	0.007	-0.356
-678.208	-200.000	-0.009	-0.076
-677.193	54.132	-0.193	-0.186
-676.178	-44.790	-0.137	0.069
-675.164	-67.454	-0.180	-0.071
-674.149	-200.000	-0.004	0.215
-673.135	31.732	0.201	-0.173
-672.120	66.328	0.225	-0.229
-671.105	51.518	0.046	0.043
-670.091	-112.862	-0.132	0.026
-669.076	-63.459	0.246	0.101
-668.062	-3.792	0.235	-0.163
-667.047	12.240	0.071	-0.055
-666.032	3.312	-0.269	-0.196
-665.018	800.000	-0.040	0.133
-664.003	159.688	-0.131	0.183
-662.989	70.756	0.341	0.353
-661.974	-158.396	0.361	-0.021
-660.959	-58.103	-0.193	-0.084
-659.945	-91.518	-0.391	0.112
-658.930	73.820	-0.149	-0.157
-657.916	-200.000	-0.002	0.071
-656.901	-49.063	-0.119	0.057
-655.886	177.751	0.051	-0.075
-654.872	215.024	-0.198	-0.314
-653.857	800.000	-0.062	0.180
-652.843	146.648	-0.188	0.253
-651.828	-200.000	-0.028	0.131
-650.814	671.620	-0.063	-0.163
-649.799	-200.000	-0.034	0.195
-648.784	682.638	-0.066	0.173
-647.770	-23.078	0.180	-0.109
-646.755	800.000	-0.186	0.649
-645.741	-121.597	0.069	-0.011
-644.726	327.132	-0.185	-0.356
-643.711	-57.431	0.128	0.056
-642.697	131.288	0.170	-0.219
-641.682	60.948	-0.043	-0.042
-640.668	800.000	-0.084	-0.307
-639.653	80.790	-0.085	0.091
-638.638	-200.000	0.001	-0.044
-637.624	43.353	-0.206	-0.189
-636.609	109.209	0.125	0.150
-635.595	199.102	-0.057	-0.088
-634.580	40.866	-0.120	0.108
-633.565	-31.729	0.104	-0.058
-632.551	93.819	-0.103	-0.117
-631.536	-5.338	-0.514	-0.353
-630.522	91.695	0.148	0.167
-629.507	178.835	0.088	-0.129
-628.492	-21.716	-0.284	-0.173
-627.478	-41.351	0.531	0.274
-626.463	434.188	-0.056	-0.121
-625.449	-10.559	0.335	-0.222
-624.434	-119.025	-0.146	0.026
-623.419	-200.000	0.014	-0.432
-622.405	-54.359	-0.129	-0.059
-621.390	-88.364	-0.533	0.159
-620.376	147.429	0.110	0.148
-619.361	74.324	0.049	0.052
-618.346	800.000	-0.081	0.324
-617.332	-169.418	-0.237	0.009
-616.317	-53.859	-0.319	-0.146
-615.303	742.986	-0.128	-0.344
-614.288	-164.741	-0.030	0.001
-613.273	-124.498	0.224	-0.035
-612.259	193.048	-0.068	0.103
-611.244	-200.000	0.029	0.149
-610.230	-12.479	-0.089	-0.058
-609.215	-187.119	0.339	-0.005
-608.201	-200.000	-0.030	0.146
-607.186	-3.534	0.164	-0.114
-606.171	247.058	0.052	-0.088
-605.157	419.797	0.150	-0.321
-604.142	-200.000	-0.026	0.141
-603.128	278.355	-0.148	0.264
-602.113	-50.585	0.213	-0.101
-601.098	-146.130	-0.373	-0.033
-600.084	-84.590	-0.201	0.063
-599.069	-91.940	0.292	-0.083
-598.055	384.366	0.049	-0.101
-597.040	-29.498	0.071	0.041
-596.025	-103.206	0.127	0.030
-595.011	-14.979	0.248	0.159
-593.996	163.741	0.078	-0.109
-592.982	-82.495	-0.106	0.034
-591.967	-167.835	-0.203	-0.008
-590.952	-153.591	0.214	0.015
-589.938	574.595	0.147	-0.359
-588.923	5.158	-0.427	0.315
-587.909	-27.197	-0.155	-0.090
-586.894	583.941	-0.086	0.210
-585.879	-128.628	0.384	0.054
-584.865	66.261	0.078	-0.079
-583.850	800.000	-0.081	-0.305
-582.836	235.721	0.116	0.191
-581.821	-200.000	0.046	0.327
-580.806	38.606	-0.171	-0.153
-579.792	-200.000	-0.005	0.185
-578.777	-104.401	-0.333	-0.077
-577.763	-200.000	0.050	0.382
-576.748	-200.000	-0.048	0.235
-575.733	-156.514	-0.315	0.020
-574.719	-24.132	-0.093	-0.055
-573.704	-27.705	0.292	-0.169
-572.690	-102.220	-0.370	-0.089
-571.675	-54.000	-0.153	0.070
-570.661	-65.155	0.340	-0.137
-569.646	21.610	-0.032	-0.026
-568.631	-33.114	0.406	0.225
-567.617	453.752	-0.132	-0.291
-566.602	573.894	-0.112	-0.272
-565.588	172.390	-0.174	-0.249
-564.573	800.000	0.045	0.148
-563.558	-103.210	-0.317	-0.075
-562.544	-150.030	-0.163	-0.013
-561.529	-139.594	0.116	0.012
-560.515	-200.000	0.010	-0.057
-559.500	-132.708	-0.304	0.039
-558.485	540.842	0.153	-0.363
-557.471	631.793	-0.201	-0.508
-556.456	800.000	0.054	0.155
-555.442	60.330	-0.037	0.036
-554.427	202.831	0.092	0.141
-553.412	800.000	0.056	0.210
-552.398	176.750	-0.168	0.244
-551.383	-11.039	0.034	-0.023
-550.369	-200.000	-0.006	0.061
-549.354	-88.264	0.030	0.009
-548.339	-52.130	0.132	-0.061
-547.325	-141.423	0.345	0.035
-546.310	-79.518	-0.244	-0.082
-545.296	58.198	-0.220	-0.215
-544.281	204.834	-0.143	0.222
-543.266	-200.000	0.015	0.341
-542.252	36.304	-0.008	-0.007
-541.237	800.000	0.024	0.094
-540.223	-200.000	-0.025	-0.295
-539.208	275.291	0.094	-0.167
-538.193	-200.000	0.011	0.182
-537.179	388.341	-0.073	-0.152
-536.164	-103.331	0.140	0.033
-535.150	-132.277	0.438	0.057
-534.135	-115.771	0.238	0.044
-533.121	-200.000	0.030	-0.147
-532.106	-200.000	-0.003	0.331
-531.091	-98.630	-0.405	-0.103
-530.077	6.231	-0.166	-0.122
-529.062	482.937	-0.088	0.199
-528.048	-200.000	-0.002	0.117
-527.033	107.576	0.381	0.452
-526.018	181.721	0.130	0.190
-525.004	19.317	0.197	-0.158
-523.989	28.097	-0.116	-0.098
-522.975	720.161	0.044	-0.116
-521.960	-200.000	0.013	-0.296
-520.945	88.030	0.243	-0.268
-519.931	34.358	0.306	-0.266
-518.916	800.000	0.100	-0.361
-517.902	-193.118	-0.073	-0.001
-516.887	-153.280	-0.305	0.021
-515.872	191.906	-0.195	0.292
-514.858	-200.000	0.010	0.067
-513.843	398.547	0.089	-0.185
-512.829	-123.242	-0.054	-0.009
-511.814	-144.745	-0.159	-0.015
-510.799	-0.543	0.128	-0.090
-509.785	509.822	-0.083	-0.191
-508.770	403.584	0.078	0.164
-507.756	800.000	-0.116	-0.336
-506.741	166.019	-0.216	0.305
-505.726	430.898	-0.102	0.219
-504.712	800.000	-0.141	0.530
-503.697	258.296	0.039	-0.067
-502.683	-76.574	-0.218	-0.076
-501.668	-153.452	0.263	0.018
-500.653	282.083	0.117	0.210
-499.639	800.000	-0.075	-0.296
-498.624	-10.566	0.086	0.057
-497.610	-65.423	0.157	0.063
-496.595	33.161	-0.225	0.194
-495.581	-27.796	-0.176	0.102
-494.566	-83.941	0.295	-0.093
-493.551	800.000	0.040	0.153
-492.537	90.186	-0.104	0.115
-491.522	800.000	-0.150	0.486
-490.508	17.480	0.146	0.115
-489.493	-104.938	-0.056	-0.013
-488.478	-152.043	-0.250	-0.018
-487.464	-200.000	-0.026	0.192
-486.449	-124.481	0.170	0.026
-485.435	480.784	-0.049	-0.112
-484.420	-6.145	0.095	-0.065
-483.405	-13.444	-0.132	0.085
-482.391	-27.871	-0.278	0.160
-481.376	178.081	0.064	0.093
-480.362	-200.000	-0.047	0.436
-479.347	-96.926	-0.283	-0.074
-478.332	38.794	-0.049	0.044
-477.318	7.884	0.249	0.186
-476.303	183.719	-0.048	0.070
-475.289	-200.000	0.016	-0.087
-474.274	-30.812	-0.159	0.090
-473.259	800.000	-0.065	-0.241
-472.245	-184.893	-0.265	0.004
-471.230	-200.000	0.052	-0.397
-470.216	-5.607	0.130	-0.089
-469.201	-200.000	-0.002	0.130
-468.186	-200.000	-0.013	0.089
-467.172	-115.389	-0.136	0.025
-466.157	11.507	0.205	-0.156
-465.143	36.393	-0.156	0.137
-464.128	-34.464	-0.250	0.136
-463.113	-46.010	0.121	-0.059
-462.099	390.439	-0.154	0.318
-461.084	79.186	0.006	-0.006
-460.070	213.793	-0.094	0.148
-459.055	-122.614	0.340	-0.055
-458.040	-125.706	0.222	-0.033
-457.026	-5.660	0.215	-0.146
-456.011	129.500	0.278	0.353
-454.997	29.573	-0.206	-0.174
-453.982	-172.792	0.297	0.009
-452.968	379.113	-0.055	-0.111
-451.953	-85.240	0.198	0.061
-450.938	-58.080	-0.082	-0.036
-449.924	250.571	-0.105	-0.177
-448.909	-22.950	0.224	-0.134
-447.895	40.315	0.422	0.377
-446.880	-200.000	0.028	0.196
-445.865	800.000	-0.145	0.428
-444.851	88.552	0.150	0.165
-443.836	81.897	-0.131	0.140
-442.822	800.000	-0.047	0.140
-441.807	-170.670	0.126	0.004
-440.792	-89.117	0.126	-0.037
-439.778	-34.176	0.212	0.116
-438.763	22.454	0.306	0.248
-437.749	27.929	0.187	0.156
-436.734	-200.000	-0.035	0.187
-435.719	88.893	-0.206	-0.227
-434.705	3.258	0.292	-0.211
-433.690	361.804	-0.130	0.259
-432.676	-9.270	-0.217	0.144
-431.661	-180.318	0.242	-0.005
-430.646	-12.759	0.135	-0.087
-429.632	92.892	0.066	0.074
-428.617	-54.499	-0.382	0.172
-427.603	-125.143	-0.168	-0.025
-426.588	405.284	-0.054	0.114
-425.573	-200.000	-0.017	0.100
-424.559	5.780	-0.069	-0.051
-423.544	-200.000	0.035	-0.229
-422.530	-17.968	0.152	0.094
-421.515	193.561	-0.237	-0.355
-420.500	333.408	0.110	-0.211
-419.486	87.634	0.159	0.175
-418.471	-63.208	-0.179	0.073
-417.457	-151.426	0.370	-0.027
-416.442	-39.292	-0.338	-0.176
-415.428	500.128	-0.060	0.138
-414.413	-125.221	-0.254	-0.039
-413.398	-157.534	0.194	-0.012
-412.384	89.789	0.155	0.172
-411.369	-62.307	0.253	-0.104
-410.355	-45.504	0.170	0.083
-409.340	76.394	-0.028	-0.029
-408.325	-200.000	0.021	-0.208
-407.311	49.159	-0.239	0.223
-406.296	207.595	-0.106	-0.164
-405.282	93.076	-0.165	-0.185
-404.267	-113.891	-0.312	-0.060
-403.252	228.031	-0.063	-0.102
-402.238	35.617	-0.219	-0.191
-401.223	-72.905	0.059	0.022
-400.209	-111.725	0.215	0.043
-399.194	-200.000	-0.047	-0.233
-398.179	28.017	0.267	-0.223
-397.165	-18.788	0.261	0.161
-396.150	125.503	0.157	-0.196
-395.136	-142.508	-0.311	-0.030
-394.121	-105.909	0.411	0.092
-393.106	-58.349	-0.271	0.117
-392.092	333.915	-0.090	0.173
-391.077	-82.021	-0.239	0.077
-390.063	-123.777	-0.306	0.048
-389.048	-48.326	0.176	0.084
-388.033	800.000	-0.073	-0.268
-387.019	-200.000	0.028	0.234
-386.004	165.542	0.183	0.256
-384.990	-200.000	-0.050	0.236
-383.975	13.645	0.192	-0.148
-382.960	-200.000	0.008	-0.109
-381.946	-200.000	0.066	-0.335
-380.931	113.149	-0.097	-0.117
-379.917	-102.774	0.091	-0.021
-378.902	510.313	-0.042	0.097
-377.888	177.250	0.053	0.076
-376.873	-122.971	-0.205	-0.033
-375.858	-118.042	0.112	0.020
-374.844	-88.266	-0.126	-0.037
-373.829	-153.102	0.137	-0.010
-372.815	800.000	-0.120	-0.384
-371.800	236.728	-0.135	0.221
-370.785	59.407	-0.201	-0.196
-369.771	-78.272	-0.340	0.116
-368.756	-200.000	-0.042	-0.262
-367.742	450.684	0.188	-0.410
-366.727	-64.655	-0.219	0.088
-365.712	-200.000	0.028	0.129
-364.698	-103.908	0.176	0.041
-363.683	-137.526	-0.188	-0.021
-362.669	52.133	0.118	-0.112
-361.654	-6.119	-0.162	-0.110
-360.639	-140.687	-0.217	-0.022
-359.625	119.125	-0.052	0.063
-358.610	-87.233	-0.227	-0.068
-357.596	-23.700	0.285	0.169
-356.581	-80.437	0.207	0.069
-355.566	800.000	0.011	-0.040
-354.552	398.330	0.063	-0.131
-353.537	-200.000	-0.013	0.240
-352.523	-190.509	0.320	0.003
-351.508	800.000	0.068	0.187
-350.493	-110.292	0.220	-0.045
-349.479	1.490	-0.111	-0.079
-348.464	168.931	0.242	0.342
-347.450	-44.613	-0.201	0.099
-346.435	-18.274	0.203	-0.126
-345.420	182.430	0.164	0.240
-344.406	263.949	0.089	0.152
-343.391	46.177	-0.183	-0.168
-342.377	-200.000	-0.023	-0.305
-341.362	-200.000	0.004	0.401
-340.348	-71.757	-0.161	0.059
-339.333	800.000	0.041	0.145
-338.318	-186.769	0.194	0.003
-337.304	18.796	0.303	0.240
-336.289	174.563	0.101	-0.145
-335.275	94.695	0.080	-0.090
-334.260	199.738	0.080	0.121
-333.245	800.000	-0.114	0.397
-332.231	-200.000	-0.304	0.000
-331.216	-18.409	0.162	0.100
-330.202	306.279	-0.136	0.250
-329.187	-153.931	0.137	-0.009
-328.172	43.118	-0.040	-0.036
-327.158	169.716	0.157	-0.223
-326.143	34.170	-0.280	-0.241
-325.129	800.000	0.106	-0.317
-324.114	-200.000	0.008	-0.060
-323.099	-200.000	0.012	-0.178
-322.085	800.000	0.032	-0.110
-321.070	458.395	0.132	-0.291
-320.056	268.725	-0.239	-0.414
-319.041	-200.000	0.022	-0.291
-318.026	-200.000	-0.003	0.116
-317.012	-136.991	0.128	0.014
-315.997	68.494	0.189	-0.192
-314.983	20.710	0.175	0.140
-313.968	800.000	0.091	0.254
-312.953	-95.413	0.201	0.053
-311.939	-8.080	-0.313	-0.208
-310.924	-115.505	0.071	0.013
-309.910	-200.000	0.014	0.116
-308.895	16.765	-0.142	0.111
-307.880	-92.486	0.230	0.064
-306.866	-148.027	-0.436	-0.036
-305.851	-57.613	-0.216	0.094
-304.837	437.207	0.055	-0.119
-303.822	-88.041	0.110	0.033
-302.807	46.360	0.057	0.052
-301.793	433.345	-0.038	0.081
-300.778	-70.205	-0.151	-0.057
-299.764	-1.843	0.105	-0.073
-298.749	-37.232	-0.229	0.121
-297.735	-200.000	-0.005	0.080
-296.720	414.782	-0.094	-0.198
-295.705	800.000	0.067	0.250
-294.691	506.177	-0.037	-0.084
-293.676	-200.000	0.070	0.364
-292.662	-108.981	-0.373	-0.079
-291.647	291.862	0.043	0.077
-290.632	71.358	-0.192	-0.197
-289.618	35.799	0.166	0.144
-288.603	-137.420	-0.067	0.008
-287.589	269.947	0.039	0.067
-286.574	800.000	0.170	0.501
-285.559	-200.000	-0.079	0.467
-284.545	-99.521	0.360	0.089
-283.530	-5.859	-0.151	0.102
-282.516	137.946	0.035	0.045
-281.501	308.381	0.102	-0.189
-280.486	394.190	0.142	-0.292
-279.472	557.982	0.077	-0.183
-278.457	46.117	-0.092	0.085
-277.443	-92.827	0.278	-0.077
-276.428	277.866	-0.054	-0.096
-275.413	182.083	0.055	-0.080
-274.399	800.000	0.010	-0.030
-273.384	26.117	-0.138	-0.114
-272.370	0.743	-0.349	0.247
-271.355	-135.335	-0.180	-0.021
-270.340	-200.000	0.031	0.428
-269.326	-200.000	-0.008	-0.046
-268.311	-120.877	0.280	0.047
-267.297	-118.891	0.265	0.046
-266.282	20.252	0.151	-0.120
-265.267	-16.795	-0.119	0.074
-264.253	113.245	0.109	0.130
-263.238	-200.000	-0.021	-0.357
-262.224	-49.519	-0.214	0.101
-261.209	319.464	-0.113	0.211
-260.195	-200.000	0.053	-0.243
-259.180	-104.192	-0.151	0.035
-258.165	55.532	-0.400	0.382
-257.151	-185.300	0.215	0.003
-256.136	163.704	-0.175	-0.243
-255.122	255.007	0.079	-0.133
-254.107	-200.000	0.012	-0.202
-253.092	-28.858	0.241	-0.137
-252.078	582.444	-0.079	0.190
-251.063	-200.000	-0.078	-0.385
-250.049	-200.000	-0.003	0.165
-249.034	265.317	0.172	0.296
-248.019	-153.515	0.108	0.007
-247.005	800.000	-0.103	-0.320
-245.990	-42.198	0.089	0.045
-244.976	98.270	-0.170	0.193
-243.961	306.480	-0.181	0.332
-242.946	-39.086	0.083	0.043
-241.932	800.000	-0.029	-0.115
-240.917	-93.948	-0.166	-0.045
-239.903	-200.000	0.002	0.254
-238.888	-200.000	-0.074	0.363
-237.873	605.600	-0.154	0.379
-236.859	-64.325	0.268	-0.107
-235.844	73.095	0.084	0.086
-234.830	-13.482	0.160	-0.102
-233.815	-200.000	0.008	-0.079
-232.800	-8.456	0.332	-0.220
-231.786	75.562	-0.133	-0.138
-230.771	45.452	-0.107	-0.097
-229.757	-105.115	0.239	-0.054
-228.742	-57.552	-0.343	-0.148
-227.727	87.624	-0.203	-0.221
-226.713	800.000	0.049	0.207
-225.698	-44.672	0.386	0.190
-224.684	800.000	0.020	0.064
-223.669	800.000	-0.023	0.089
-222.655	-200.000	-0.008	-0.157
-221.640	100.204	-0.249	-0.285
-220.625	-25.718	-0.146	-0.085
-219.611	-200.000	-0.010	0.116
-218.596	183.444	0.197	-0.286
-217.582	23.905	-0.207	0.168
-216.567	611.779	0.168	-0.413
-215.552	-200.000	0.004	-0.197
-214.538	370.923	0.110	-0.219
-213.523	92.328	-0.225	0.250
-212.509	-141.053	0.327	0.033
-211.494	-200.000	-0.047	-0.360
-210.479	253.631	-0.117	0.196
-209.465	-200.000	0.015	-0.172
-208.450	-200.000	0.031	-0.194
-207.436	-52.675	0.269	-0.122
-206.421	-148.394	-0.222	0.018
-205.406	52.952	0.080	-0.075
-204.392	248.184	-0.139	-0.231
-203.377	190.297	0.023	0.034
-202.363	-200.000	0.017	0.163
-201.348	9.819	0.146	0.109
-200.333	-81.440	0.303	0.098
-199.319	-110.414	0.216	0.044
-198.304	-200.000	-0.268	-0.001
-197.290	54.220	-0.170	-0.161
-196.275	-106.197	0.397	0.088
-195.260	81.863	0.215	-0.229
-194.246	139.793	0.091	-0.118
-193.231	-200.000	-0.002	-0.377
-192.217	-116.847	0.192	0.035
-191.202	-59.391	-0.206	-0.087
-190.187	240.655	-0.270	0.443
-189.173	-30.350	-0.053	-0.029
-188.158	-56.663	-0.263	-0.114
-187.144	-89.538	0.122	0.035
-186.129	204.491	-0.054	-0.082
-185.114	104.626	-0.243	0.281
-184.100	800.000	-0.050	0.188
-183.085	-200.000	0.009	0.113
-182.071	-200.000	0.021	-0.119
-181.056	-32.129	-0.163	0.089
-180.042	-85.517	0.179	-0.055
-179.027	518.522	-0.039	-0.089
-178.012	45.241	0.173	-0.157
-176.998	-94.152	0.317	0.085
-175.983	800.000	0.103	-0.364
-174.969	7.987	-0.182	-0.134
-173.954	92.412	-0.139	-0.154
-172.939	-200.000	0.054	0.352
-171.925	-140.281	0.179	0.018
-170.910	134.877	0.075	0.095
-169.896	-129.924	-0.261	-0.035
-168.881	800.000	-0.050	-0.207
-167.866	-122.110	0.231	-0.037
-166.852	-138.278	0.087	0.009
-165.837	339.582	-0.160	-0.306
-164.823	-20.501	0.144	-0.087
-163.808	-200.000	0.054	-0.295
-162.793	525.019	0.072	0.167
-161.779	255.544	-0.075	-0.126
-160.764	-200.000	-0.030	-0.213
-159.750	68.783	0.320	0.323
-158.735	305.931	-0.103	0.188
-157.720	-172.096	-0.122	0.004
-156.706	-18.441	-0.070	-0.043
-155.691	-46.512	0.041	-0.020
-154.677	234.518	0.099	-0.160
-153.662	-31.490	-0.065	-0.036
-152.647	-10.752	-0.136	-0.088
-151.633	800.000	0.086	-0.323
-150.618	-200.000	0.039	0.219
-149.604	-200.000	0.001	-0.254
-148.589	713.578	0.076	0.198
-147.574	-200.000	-0.014	0.117
-146.560	132.958	0.112	-0.142
-145.545	258.445	-0.170	0.288
-144.531	-200.000	-0.044	-0.377
-143.516	-109.967	0.374	-0.077
-142.502	384.379	0.047	0.096
-141.487	-200.000	0.018	0.148
-140.472	-26.028	-0.194	0.112
-139.458	800.000	-0.090	-0.284
-138.443	216.911	0.077	0.121
-137.429	65.320	-0.316	-0.314
-136.414	-200.000	0.039	-0.383
-135.399	6.366	-0.214	0.156
-134.385	-95.460	-0.200	0.053
-133.370	800.000	0.097	-0.298
-132.356	800.000	-0.080	0.240
-131.341	293.560	-0.079	-0.141
-130.326	-26.506	-0.067	-0.038
-129.312	800.000	0.137	-0.379
-128.297	-43.195	-0.156	-0.077
-127.283	-200.000	0.049	0.301
-126.268	585.264	-0.102	0.247
-125.253	49.120	0.210	0.193
-124.239	203.847	0.127	-0.193
-123.224	-50.959	0.092	-0.043
-122.210	-2.344	0.255	-0.176
-121.195	137.510	-0.141	0.180
