DTS Sentinel unit serial number:	SN413079Multiplexer serial number:	ORYXHardware model number:	OX4-SRSoftware version number:	ORYX F/W v4.00 Oryx Data Collector v3.7.2.0data status	okinstallation	princeton_trtdifferential loss correction	single-endedforward channel	channel 2reverse channel	N/Adate	2019/09/19time	11:43:35forward acquisition time	60.00reverse acquisition time	0.00gamma	496.2192k internal	0.2340k external	0.2340temperature offset calibration	1.0009default loss term (dB/km)	0.3790temperature slope calibration	1.0000multiplexer offset coefficient	1.0000multiplexer slope coefficient	1.0000fibre end	0.00T internal ref (°C)	25.69T ext. ref 1 (°C)	0.81T ext. ref 2 (°C)	21.48length (m)	temperature (°C)	Stokes	anti-Stokes-747.200	-160.036	-0.312	-0.017
-746.185	81.406	-0.251	0.272
-745.171	-200.000	0.003	0.096
-744.156	-24.191	-0.284	0.170
-743.142	183.220	0.161	0.239
-742.127	800.000	-0.023	0.065
-741.112	-200.000	0.050	0.233
-740.098	23.131	-0.420	0.346
-739.083	-200.000	-0.003	-0.015
-738.069	-169.460	-0.243	0.009
-737.054	-72.852	0.106	0.039
-736.039	-126.780	-0.110	0.016
-735.025	800.000	0.041	0.173
-734.010	403.953	0.073	-0.154
-732.996	67.380	-0.232	-0.237
-731.981	-200.000	0.017	-0.102
-730.966	104.674	-0.077	-0.091
-729.952	164.572	-0.022	0.030
-728.937	78.303	-0.068	0.073
-727.923	-9.346	-0.143	-0.095
-726.908	-70.277	-0.283	0.108
-725.894	91.665	-0.337	0.379
-724.879	20.296	-0.095	-0.077
-723.864	15.119	-0.062	-0.048
-722.850	228.801	0.157	-0.256
-721.835	416.314	-0.048	-0.103
-720.821	351.292	-0.115	-0.227
-719.806	49.190	-0.142	-0.134
-718.791	370.903	0.233	0.473
-717.777	157.493	-0.174	0.242
-716.762	90.626	-0.142	-0.159
-715.748	-161.751	0.331	-0.017
-714.733	-64.668	0.225	-0.091
-713.718	-27.390	-0.193	0.113
-712.704	81.779	-0.219	-0.238
-711.689	333.074	-0.063	-0.121
-710.675	-84.650	0.211	0.066
-709.660	297.679	-0.223	-0.409
-708.645	118.647	0.151	-0.186
-707.631	35.443	0.169	0.149
-706.616	-98.892	-0.318	0.081
-705.602	121.575	0.187	0.233
-704.587	495.452	-0.089	0.204
-703.572	-200.000	0.057	-0.258
-702.558	-82.198	-0.102	0.033
-701.543	509.295	-0.124	0.289
-700.529	2.236	-0.263	-0.190
-699.514	-73.391	0.286	0.105
-698.499	800.000	-0.069	0.196
-697.485	-200.000	0.066	0.492
-696.470	790.912	0.034	0.093
-695.456	166.296	0.135	-0.192
-694.441	800.000	-0.089	-0.314
-693.426	229.372	-0.107	0.174
-692.412	-43.234	-0.257	-0.130
-691.397	50.336	0.111	0.105
-690.383	-60.450	-0.077	-0.033
-689.368	77.119	-0.067	-0.072
-688.354	-192.150	0.124	0.001
-687.339	-11.779	-0.033	-0.022
-686.324	84.189	-0.239	-0.262
-685.310	49.487	0.273	-0.257
-684.295	-72.219	0.038	-0.014
-683.281	-37.806	0.269	0.143
-682.266	800.000	0.106	0.326
-681.251	179.187	0.212	-0.310
-680.237	420.631	0.052	0.112
-679.222	800.000	-0.131	0.492
-678.208	-108.736	0.069	-0.015
-677.193	-200.000	-0.040	0.346
-676.178	-30.632	-0.150	0.085
-675.164	122.704	0.129	0.162
-674.149	800.000	0.085	-0.355
-673.135	91.858	-0.080	0.089
-672.120	32.319	0.183	-0.158
-671.105	109.122	0.132	-0.157
-670.091	18.827	0.395	-0.316
-669.076	-200.000	-0.004	-0.038
-668.062	425.737	-0.176	-0.378
-667.047	-200.000	0.006	-0.078
-666.032	77.059	-0.017	0.018
-665.018	420.443	-0.145	0.310
-664.003	-200.000	-0.036	0.162
-662.989	-45.880	0.228	0.112
-661.974	-200.000	-0.106	-0.503
-660.959	-9.181	0.121	0.081
-659.945	134.464	-0.181	0.235
-658.930	-200.000	-0.062	0.318
-657.916	-200.000	0.008	-0.085
-656.901	800.000	-0.085	-0.271
-655.886	585.707	0.084	-0.206
-654.872	-13.469	-0.072	-0.047
-653.857	121.006	-0.036	0.045
-652.843	-200.000	-0.025	0.127
-651.828	-121.196	-0.139	-0.023
-650.814	-200.000	0.010	0.184
-649.799	-200.000	-0.067	-0.332
-648.784	21.162	-0.112	-0.091
-647.770	800.000	-0.074	0.217
-646.755	-17.333	0.156	-0.098
-645.741	-101.866	0.149	-0.036
-644.726	800.000	-0.066	0.272
-643.711	-169.682	0.230	0.008
-642.697	-200.000	0.021	0.215
-641.682	800.000	0.016	0.051
-640.668	800.000	0.071	-0.276
-639.653	800.000	-0.039	0.135
-638.638	-200.000	0.031	-0.162
-637.624	-200.000	0.065	0.391
-636.609	-13.847	-0.225	0.145
-635.595	-200.000	-0.020	-0.207
-634.580	-119.798	0.117	-0.020
-633.565	-68.731	0.340	-0.131
-632.551	-70.559	0.271	0.102
-631.536	253.598	-0.119	-0.203
-630.522	36.386	0.104	-0.091
-629.507	413.592	-0.116	-0.247
-628.492	164.589	-0.061	0.086
-627.478	397.828	-0.098	0.204
-626.463	800.000	0.044	0.141
-625.449	417.824	0.106	-0.226
-624.434	-167.804	0.131	-0.005
-623.419	800.000	-0.057	0.239
-622.405	-200.000	-0.057	-0.320
-621.390	-200.000	-0.014	0.100
-620.376	171.670	0.055	0.079
-619.361	-200.000	-0.032	-0.276
-618.346	-50.848	-0.225	0.105
-617.332	90.828	0.222	0.248
-616.317	784.657	-0.043	-0.118
-615.303	2.676	-0.227	0.164
-614.288	-69.019	0.395	-0.152
-613.273	800.000	-0.067	-0.241
-612.259	-43.016	-0.171	-0.086
-611.244	-200.000	-0.023	0.353
-610.230	19.972	0.097	-0.078
-609.215	388.489	0.154	0.318
-608.201	-200.000	-0.051	-0.284
-607.186	95.062	0.267	-0.303
-606.171	-127.289	-0.086	-0.013
-605.157	-64.870	-0.508	0.205
-604.142	-41.810	-0.357	0.183
-603.128	800.000	-0.135	-0.385
-602.113	-3.002	-0.146	-0.101
-601.098	800.000	0.092	-0.393
-600.084	174.649	0.048	0.069
-599.069	-200.000	0.002	0.104
-598.055	-25.028	0.252	-0.149
-597.040	-57.075	-0.328	0.144
-596.025	-200.000	-0.081	-0.461
-595.011	-4.146	-0.264	0.182
-593.996	20.415	0.134	-0.108
-592.982	15.786	0.081	-0.064
-591.967	459.135	-0.035	0.078
-590.952	138.175	0.070	-0.092
-589.938	-69.511	-0.154	0.059
-588.923	800.000	0.037	-0.128
-587.909	127.392	0.036	0.046
-586.894	800.000	-0.043	-0.141
-585.879	-34.243	0.282	-0.154
-584.865	599.140	0.013	-0.033
-583.850	-200.000	0.015	0.070
-582.836	57.969	-0.131	0.128
-581.821	-200.000	0.010	-0.168
-580.806	314.424	0.015	-0.028
-579.792	-16.881	0.242	0.153
-578.777	184.604	-0.222	-0.327
-577.763	353.420	-0.123	0.242
-576.748	19.876	0.276	-0.222
-575.733	-200.000	-0.021	-0.131
-574.719	106.264	0.245	0.289
-573.704	-73.430	-0.097	-0.035
-572.690	-200.000	-0.037	0.189
-571.675	-66.765	-0.345	0.136
-570.661	10.756	0.032	-0.024
-569.646	321.529	-0.061	-0.115
-568.631	7.014	-0.216	-0.160
-567.617	-200.000	-0.017	0.112
-566.602	-61.492	0.045	-0.019
-565.588	800.000	-0.065	0.237
-564.573	-20.772	0.004	-0.002
-563.558	-15.348	0.317	-0.202
-562.544	-105.361	-0.103	0.023
-561.529	322.303	-0.094	0.178
-560.515	-200.000	-0.025	-0.290
-559.500	-74.288	-0.143	0.051
-558.485	-36.889	-0.248	-0.132
-557.471	800.000	0.037	-0.148
-556.456	-200.000	0.053	0.246
-555.442	156.426	-0.167	0.229
-554.427	-42.008	0.232	-0.118
-553.412	-200.000	-0.012	-0.106
-552.398	-81.195	-0.178	-0.058
-551.383	-25.150	-0.288	0.170
-550.369	79.060	0.224	-0.238
-549.354	-58.749	0.206	-0.089
-548.339	-154.148	-0.134	-0.009
-547.325	-60.798	0.163	0.069
-546.310	31.598	0.258	-0.221
-545.296	102.539	-0.123	0.144
-544.281	520.610	-0.019	-0.043
-543.266	-200.000	-0.001	0.018
-542.252	-72.946	0.184	-0.067
-541.237	-88.727	0.204	0.060
-540.223	800.000	0.057	-0.197
-539.208	-200.000	-0.003	-0.142
-538.193	-144.850	-0.210	0.019
-537.179	-118.682	0.257	0.045
-536.164	-200.000	-0.028	0.161
-535.150	-166.646	0.226	-0.009
-534.135	800.000	0.016	-0.047
-533.121	-153.657	-0.134	-0.009
-532.106	31.218	-0.237	-0.202
-531.091	221.862	-0.082	0.131
-530.077	-200.000	-0.001	0.133
-529.062	595.585	0.106	0.262
-528.048	-200.000	-0.010	-0.111
-527.033	-200.000	-0.036	-0.190
-526.018	9.592	0.306	0.231
-525.004	136.232	0.169	-0.219
-523.989	-200.000	0.032	-0.192
-522.975	-23.281	-0.089	0.053
-521.960	54.884	0.059	-0.057
-520.945	-3.609	-0.151	0.104
-519.931	-72.850	0.139	-0.051
-518.916	-131.197	-0.073	-0.010
-517.902	800.000	0.079	-0.244
-516.887	27.070	-0.190	-0.159
-515.872	-91.479	0.278	0.079
-514.858	-200.000	-0.013	-0.258
-513.843	-41.501	0.092	0.047
-512.829	-41.336	-0.076	0.039
-511.814	-98.652	-0.265	0.067
-510.799	-48.809	0.309	0.147
-509.785	306.196	0.057	-0.106
-508.770	800.000	-0.023	0.068
-507.756	-82.611	-0.293	0.094
-506.741	155.033	-0.012	0.016
-505.726	-124.643	0.057	-0.009
-504.712	-78.482	0.106	0.036
-503.697	617.154	-0.189	0.471
-502.683	66.023	-0.039	0.039
-501.668	196.217	0.065	-0.099
-500.653	-200.000	0.024	-0.148
-499.639	11.247	-0.054	0.041
-498.624	-17.123	-0.136	-0.085
-497.610	62.623	-0.292	0.289
-496.595	-200.000	-0.033	-0.245
-495.581	-19.204	0.306	0.188
-494.566	456.087	0.028	0.062
-493.551	-0.658	-0.337	-0.237
-492.537	-22.246	-0.074	-0.044
-491.522	-126.710	0.073	0.011
-490.508	285.980	-0.062	0.112
-489.493	-200.000	-0.010	0.123
-488.478	-171.740	-0.118	-0.004
-487.464	-85.025	0.061	0.019
-486.449	70.063	-0.071	-0.073
-485.435	-145.146	0.268	-0.024
-484.420	239.095	0.182	0.301
-483.405	-200.000	-0.018	0.091
-482.391	-154.993	0.163	-0.011
-481.376	-133.844	-0.321	0.040
-480.362	157.308	0.100	0.138
-479.347	-200.000	-0.007	0.054
-478.332	-200.000	0.018	0.212
-477.318	11.343	-0.109	-0.083
-476.303	-59.053	0.126	0.054
-475.289	331.069	-0.121	-0.230
-474.274	-101.632	0.332	-0.080
-473.259	-200.000	0.050	0.241
-472.245	-121.820	-0.133	-0.022
-471.230	-158.510	-0.054	-0.003
-470.216	120.295	0.169	0.208
-469.201	143.393	0.046	0.060
-468.186	58.270	0.148	0.144
-467.172	-127.022	-0.202	-0.029
-466.157	587.353	0.104	0.254
-465.143	103.372	-0.199	0.232
-464.128	50.795	-0.365	0.343
-463.113	88.876	-0.104	-0.114
-462.099	800.000	-0.070	-0.291
-461.084	-26.515	-0.153	0.089
-460.070	-148.904	-0.229	-0.018
-459.055	-108.880	-0.164	-0.035
-458.040	-51.262	0.388	0.180
-457.026	224.004	-0.128	-0.204
-456.011	-128.065	0.153	-0.022
-454.997	18.479	-0.225	0.179
-453.982	51.229	0.095	-0.089
-452.968	127.992	0.267	0.336
-451.953	-7.361	-0.192	-0.129
-450.938	800.000	0.094	0.265
-449.924	-200.000	0.067	0.371
-448.909	-160.299	0.219	0.012
-447.895	19.103	-0.124	-0.098
-446.880	-200.000	0.066	0.371
-445.865	11.603	0.310	0.236
-444.851	-10.487	0.074	-0.049
-443.836	-146.396	-0.332	0.029
-442.822	-38.516	0.155	0.081
-441.807	-200.000	-0.028	0.127
-440.792	136.736	0.096	0.124
-439.778	498.611	0.099	0.225
-438.763	-37.816	0.178	0.094
-437.749	-200.000	-0.017	-0.346
-436.734	-96.146	0.087	0.023
-435.719	324.257	-0.047	-0.089
-434.705	69.149	-0.115	-0.117
-433.690	774.139	-0.067	-0.182
-432.676	800.000	0.041	0.113
-431.661	451.080	0.079	-0.174
-430.646	512.081	-0.054	-0.124
-429.632	-155.863	-0.120	-0.008
-428.617	-167.507	-0.101	-0.004
-427.603	-200.000	-0.069	0.319
-426.588	-148.310	-0.084	-0.007
-425.573	-60.080	-0.146	0.062
-424.559	800.000	-0.016	-0.054
-423.544	-53.240	-0.162	0.074
-422.530	-200.000	-0.055	-0.262
-421.515	27.893	-0.098	-0.082
-420.500	-200.000	-0.004	-0.252
-419.486	-10.214	-0.200	0.132
-418.471	-171.402	0.220	-0.007
-417.457	800.000	0.055	0.200
-416.442	20.415	-0.090	0.072
-415.428	300.442	-0.177	-0.324
-414.413	-61.723	-0.129	-0.054
-413.398	347.776	0.035	-0.068
-412.384	-59.276	-0.357	0.152
-411.369	462.399	0.050	-0.110
-410.355	122.239	0.022	0.027
-409.340	-200.000	-0.007	0.052
-408.325	-6.576	-0.195	-0.131
-407.311	-200.000	-0.016	0.084
-406.296	95.756	0.141	0.159
-405.282	-21.558	-0.040	0.024
-404.267	-200.000	-0.034	-0.174
-403.252	-102.066	0.190	-0.045
-402.238	-200.000	-0.047	-0.295
-401.223	124.814	0.258	0.321
-400.209	-56.076	-0.143	-0.063
-399.194	-150.430	0.168	-0.013
-398.179	800.000	0.027	0.106
-397.165	355.172	-0.159	0.313
-396.150	-87.440	-0.330	0.099
-395.136	348.659	0.068	0.132
-394.121	-100.602	-0.302	0.074
-393.106	99.506	-0.145	0.166
-392.092	95.615	-0.197	0.222
-391.077	106.193	-0.129	0.151
-390.063	-113.127	-0.376	-0.073
-389.048	52.102	0.095	-0.089
-388.033	-200.000	-0.032	-0.162
-387.019	-111.830	-0.122	0.024
-386.004	-32.583	-0.128	-0.070
-384.990	391.975	-0.089	-0.183
-383.975	162.631	-0.204	0.283
-382.960	-68.683	0.271	-0.104
-381.946	-200.000	0.020	0.110
-380.931	800.000	0.013	-0.057
-379.917	302.321	-0.096	0.176
-378.902	719.636	-0.059	-0.156
-377.888	46.333	0.252	0.230
-376.873	800.000	0.097	0.289
-375.858	352.338	-0.113	-0.221
-374.844	-88.822	0.272	-0.080
-373.829	-84.165	-0.193	0.061
-372.815	800.000	-0.054	-0.160
-371.800	-74.581	-0.213	-0.076
-370.785	-154.357	0.380	0.025
-369.771	-200.000	-0.010	-0.164
-368.756	-25.015	-0.338	-0.198
-367.742	800.000	0.121	0.343
-366.727	-122.029	-0.096	-0.016
-365.712	-200.000	-0.001	-0.219
-364.698	-200.000	-0.046	0.336
-363.683	-120.823	0.021	-0.004
-362.669	174.605	-0.189	0.269
-361.654	-200.000	0.010	-0.083
-360.639	-14.688	0.237	0.150
-359.625	65.400	-0.133	-0.133
-358.610	-34.467	0.181	0.098
-357.596	-200.000	-0.031	-0.249
-356.581	114.924	-0.296	-0.356
-355.566	-200.000	0.001	-0.062
-354.552	213.493	0.051	-0.079
-353.537	-6.770	-0.197	0.132
-352.523	260.812	-0.128	0.218
-351.508	-168.495	-0.177	-0.007
-350.493	-43.113	0.121	0.061
-349.479	214.557	0.059	-0.092
-348.464	-200.000	-0.056	-0.533
-347.450	-78.585	-0.506	-0.171
-346.435	-57.809	-0.124	-0.054
-345.420	27.752	0.052	0.043
-344.406	-174.786	0.246	0.007
-343.391	-22.252	0.346	0.207
-342.377	-96.145	-0.102	-0.027
-341.362	179.336	0.107	-0.155
-340.348	-96.280	-0.137	-0.036
-339.333	-50.956	0.294	-0.136
-338.318	800.000	-0.084	0.285
-337.304	-30.491	0.192	0.107
-336.289	-166.540	-0.281	-0.012
-335.275	127.732	0.037	0.047
-334.260	-19.466	0.309	-0.189
-333.245	-200.000	0.024	-0.105
-332.231	-200.000	-0.032	0.375
-331.216	800.000	0.027	-0.089
-330.202	-18.750	-0.122	0.075
-329.187	165.460	-0.105	0.147
-328.172	-57.523	0.247	-0.107
-327.158	-49.426	0.078	-0.037
-326.143	-115.814	-0.225	-0.042
-325.129	-57.563	0.234	-0.101
-324.114	-78.290	-0.201	0.068
-323.099	-24.885	0.200	0.117
-322.085	559.241	-0.050	-0.118
-321.070	13.572	0.142	-0.109
-320.056	349.422	-0.040	0.077
-319.041	-76.946	0.301	0.104
-318.026	800.000	0.055	0.191
-317.012	-94.662	0.181	0.048
-315.997	-138.581	-0.136	-0.015
-314.983	144.336	0.076	-0.101
-313.968	83.982	-0.198	0.213
-312.953	-16.235	-0.061	-0.038
-311.939	-52.308	-0.173	-0.079
-310.924	-31.185	-0.006	0.003
-309.910	-132.208	-0.061	0.008
-308.895	245.639	-0.045	-0.075
-307.880	-64.215	-0.130	0.052
-306.866	-200.000	0.005	-0.024
-305.851	-74.995	-0.174	0.062
-304.837	719.637	-0.157	-0.410
-303.822	800.000	0.094	-0.270
-302.807	-200.000	0.031	-0.155
-301.793	-16.122	0.289	-0.181
-300.778	-71.468	0.446	0.164
-299.764	13.420	-0.113	-0.086
-298.749	-200.000	-0.005	-0.176
-297.735	35.318	-0.238	-0.206
-296.720	-141.551	0.168	0.017
-295.705	800.000	0.077	-0.235
-294.691	-90.306	-0.037	-0.011
-293.676	462.717	-0.062	0.137
-292.662	-5.615	-0.117	-0.079
-291.647	182.868	0.056	-0.081
-290.632	-200.000	-0.007	0.160
-289.618	143.738	-0.041	0.054
-288.603	606.451	-0.029	0.072
-287.589	-37.087	-0.156	-0.082
-286.574	100.191	-0.095	0.109
-285.559	-200.000	-0.005	0.089
-284.545	349.283	0.078	0.152
-283.530	-74.440	0.399	-0.142
-282.516	73.593	-0.153	-0.158
-281.501	49.727	0.059	0.055
-280.486	268.684	0.059	-0.101
-279.472	78.394	0.104	-0.109
-278.457	68.476	0.286	-0.288
-277.443	-143.431	0.216	-0.020
-276.428	-200.000	-0.018	0.196
-275.413	417.294	0.030	0.063
-274.399	-53.760	-0.286	0.128
-273.384	82.327	0.050	-0.054
-272.370	-69.498	0.021	-0.008
-271.355	-82.322	-0.393	-0.126
-270.340	-36.863	-0.236	-0.125
-269.326	800.000	0.023	0.093
-268.311	-38.195	-0.278	-0.145
-267.297	-90.897	-0.261	0.074
-266.282	-12.287	-0.241	-0.155
-265.267	286.755	-0.110	-0.196
-264.253	-45.671	-0.026	-0.013
-263.238	800.000	0.026	-0.087
-262.224	800.000	0.102	0.278
-261.209	-57.639	0.107	-0.046
-260.195	210.082	-0.045	0.070
-259.180	-60.348	0.171	0.071
-258.165	-200.000	0.055	-0.281
-257.151	-65.462	-0.158	0.063
-256.136	234.958	0.235	0.382
-255.122	-169.961	0.481	0.017
-254.107	-43.520	-0.186	0.092
-253.092	16.600	-0.077	0.060
-252.078	67.098	0.244	0.244
-251.063	-200.000	0.051	-0.262
-250.049	800.000	-0.053	0.226
-249.034	236.417	0.203	-0.330
-248.019	-84.819	-0.180	-0.056
-247.005	45.296	-0.080	-0.073
-245.990	25.196	0.186	-0.152
-244.976	414.720	-0.107	-0.223
-243.961	33.125	0.147	0.125
-242.946	-4.915	0.250	-0.170
-241.932	800.000	0.103	0.367
-240.917	-20.660	-0.113	0.068
-239.903	36.708	-0.210	-0.183
-238.888	254.125	0.210	-0.352
-237.873	-114.228	-0.189	-0.036
-236.859	800.000	0.082	0.279
-235.844	34.405	0.177	0.151
-234.830	-69.116	0.149	0.056
-233.815	-200.000	0.021	-0.103
-232.800	-200.000	0.068	-0.327
-231.786	205.577	0.102	0.156
-230.771	-200.000	-0.008	-0.218
-229.757	800.000	0.062	-0.199
-228.742	800.000	0.038	-0.153
-227.727	-41.801	0.348	-0.175
-226.713	96.079	0.149	0.167
-225.698	-142.319	0.194	0.019
-224.684	-26.729	-0.324	-0.186
-223.669	-165.366	-0.141	-0.006
-222.655	-200.000	-0.020	0.166
-221.640	152.276	0.076	-0.102
-220.625	183.974	-0.184	-0.268
-219.611	90.006	0.178	-0.195
-218.596	-81.333	-0.081	-0.026
-217.582	305.328	0.133	-0.243
-216.567	800.000	0.120	0.461
-215.552	-200.000	-0.040	0.295
-214.538	-43.463	0.158	0.078
-213.523	800.000	0.079	-0.231
-212.509	-200.000	-0.001	0.050
-211.494	345.575	-0.179	0.346
-210.479	21.571	-0.059	-0.047
-209.465	-65.302	0.150	-0.059
-208.450	186.204	0.035	-0.051
-207.436	141.056	0.055	-0.071
-206.421	10.613	-0.092	0.069
-205.406	-69.302	0.165	0.062
-204.392	298.953	-0.147	-0.265
-203.377	35.847	-0.090	-0.077
-202.363	205.697	-0.031	0.047
-201.348	-63.145	0.039	0.016
-200.333	28.147	0.066	0.055
-199.319	107.335	0.017	0.019
-198.304	108.260	-0.128	0.149
-197.290	581.743	0.048	-0.116
-196.275	-101.271	0.216	-0.052
-195.260	-21.876	-0.226	-0.135
-194.246	195.336	-0.193	0.287
-193.231	-200.000	0.020	0.366
-192.217	-8.263	-0.241	-0.159
-191.202	64.713	-0.169	0.167
-190.187	473.745	-0.148	0.328
-189.173	-46.510	0.247	0.119
-188.158	162.848	0.286	0.394
-187.144	-161.929	0.287	-0.014
-186.129	-78.456	0.066	0.022
-185.114	-200.000	0.000	0.216
-184.100	-89.334	0.127	-0.037
-183.085	-2.209	-0.122	-0.084
-182.071	-149.677	-0.206	0.016
-181.056	-200.000	-0.016	0.145
-180.042	-83.511	-0.152	0.048
-179.027	56.802	-0.091	0.087
-178.012	103.786	0.207	-0.239
-176.998	-200.000	0.002	0.205
-175.983	-200.000	0.003	-0.147
-174.969	800.000	-0.062	-0.171
-173.954	71.603	-0.110	-0.112
-172.939	154.061	0.101	0.136
-171.925	377.307	0.073	0.145
-170.910	-3.844	-0.113	0.077
-169.896	-58.240	0.277	-0.118
-168.881	21.333	0.241	0.192
-167.866	-200.000	0.015	0.107
-166.852	-68.221	0.290	0.111
-165.837	305.392	-0.219	-0.398
-164.823	554.792	0.104	0.245
-163.808	800.000	0.085	0.352
-162.793	-200.000	-0.021	-0.199
-161.779	-121.849	-0.095	0.015
-160.764	91.532	0.288	-0.317
-159.750	800.000	0.044	-0.140
-158.735	51.117	0.089	0.082
-157.720	-130.851	0.203	0.027
-156.706	74.308	0.268	-0.276
-155.691	377.523	0.032	0.064
-154.677	-22.454	0.157	0.093
-153.662	-200.000	-0.009	0.039
-152.647	800.000	-0.043	-0.148
-151.633	283.007	0.024	-0.043
-150.618	-155.974	0.177	0.011
-149.604	-69.605	0.047	0.018
-148.589	-133.969	-0.297	-0.036
-147.574	61.244	-0.046	-0.044
-146.560	-200.000	-0.028	0.188
-145.545	800.000	0.072	-0.221
-144.531	-200.000	-0.009	-0.168
-143.516	-39.541	-0.268	-0.137
-142.502	-114.718	0.185	-0.035
-141.487	628.850	0.148	0.365
-140.472	800.000	-0.058	0.160
-139.458	4.347	0.279	0.200
-138.443	120.201	0.183	0.223
-137.429	-124.220	0.206	0.032
-136.414	-91.084	0.326	-0.092
-135.399	-200.000	0.028	-0.122
-134.385	-106.178	-0.221	0.048
-133.370	752.218	-0.098	-0.258
-132.356	563.509	-0.162	0.385
-131.341	-2.655	-0.397	0.272
-130.326	-200.000	0.009	0.125
-129.312	-29.897	0.331	-0.184
-128.297	800.000	0.107	-0.373
-127.283	-87.770	-0.220	-0.065
-126.268	-163.109	-0.264	0.012
-125.253	-96.361	-0.246	-0.064
-124.239	-113.105	0.227	-0.044
-123.224	535.485	-0.075	0.175
-122.210	-200.000	0.078	-0.341
