DTS Sentinel unit serial number:	SN413079Multiplexer serial number:	ORYXHardware model number:	OX4-SRSoftware version number:	ORYX F/W v4.00 Oryx Data Collector v3.7.2.0data status	okinstallation	princeton_trtdifferential loss correction	single-endedforward channel	channel 2reverse channel	N/Adate	2019/09/13time	08:15:35forward acquisition time	60.00reverse acquisition time	0.00gamma	496.2192k internal	0.2334k external	0.2334temperature offset calibration	1.0193default loss term (dB/km)	0.3790temperature slope calibration	1.0000multiplexer offset coefficient	1.0000multiplexer slope coefficient	1.0000fibre end	0.00T internal ref (°C)	27.17T ext. ref 1 (°C)	4.28T ext. ref 2 (°C)	23.08length (m)	temperature (°C)	Stokes	anti-Stokes-747.200	-77.558	0.200	0.070
-746.185	-6.942	-0.189	0.129
-745.171	-8.610	0.141	-0.095
-744.156	-121.428	-0.488	0.082
-743.142	65.208	-0.056	0.057
-742.127	0.653	-0.206	0.148
-741.112	18.296	0.123	0.098
-740.098	16.037	-0.211	0.167
-739.083	118.243	0.281	0.348
-738.069	-11.388	0.235	-0.155
-737.054	-99.220	0.291	-0.074
-736.039	800.000	-0.037	-0.157
-735.025	511.853	0.133	-0.312
-734.010	-149.528	-0.300	-0.024
-732.996	42.637	0.282	-0.258
-731.981	-147.408	-0.201	-0.017
-730.966	68.128	0.061	-0.063
-729.952	-114.248	-0.204	-0.039
-728.937	-157.266	0.112	-0.007
-727.923	800.000	-0.059	0.203
-726.908	-56.165	-0.207	-0.093
-725.894	1.398	-0.345	-0.249
-724.879	225.128	0.028	-0.045
-723.864	116.590	-0.119	0.147
-722.850	-120.914	-0.271	-0.046
-721.835	141.667	0.227	0.302
-720.821	110.921	-0.092	0.112
-719.806	710.639	-0.119	0.318
-718.791	479.930	-0.189	-0.430
-717.777	30.896	-0.064	-0.055
-716.762	-104.105	-0.146	-0.034
-715.748	-118.936	0.278	0.049
-714.733	-200.000	-0.005	-0.152
-713.718	-116.953	0.151	-0.028
-712.704	115.467	0.048	-0.059
-711.689	-120.990	-0.133	0.022
-710.675	231.971	0.235	-0.387
-709.660	-135.276	-0.191	0.023
-708.645	-91.034	0.136	-0.039
-707.631	-105.702	0.155	0.035
-706.616	-99.675	0.236	0.059
-705.602	470.180	-0.024	0.054
-704.587	-107.509	-0.244	-0.054
-703.572	-200.000	-0.004	0.314
-702.558	-96.819	-0.048	0.013
-701.543	-172.402	-0.446	-0.014
-700.529	222.184	0.181	0.292
-699.514	800.000	-0.057	0.184
-698.499	-200.000	-0.011	-0.076
-697.485	133.230	-0.318	0.412
-696.470	-37.354	-0.110	-0.059
-695.456	-34.369	0.030	0.017
-694.441	47.389	-0.114	0.106
-693.426	-93.406	-0.317	0.088
-692.412	299.600	-0.036	-0.066
-691.397	800.000	0.026	0.098
-690.383	102.645	0.077	-0.090
-689.368	-68.357	0.230	0.090
-688.354	12.304	-0.245	-0.189
-687.339	24.793	-0.351	-0.292
-686.324	35.126	-0.200	0.176
-685.310	-200.000	-0.012	0.140
-684.295	-200.000	0.011	0.229
-683.281	-99.511	0.200	-0.050
-682.266	-52.445	-0.025	0.011
-681.251	540.401	-0.137	0.327
-680.237	-166.780	-0.352	-0.015
-679.222	-26.731	0.204	-0.120
-678.208	321.484	0.124	-0.236
-677.193	-147.041	-0.273	0.023
-676.178	147.767	0.053	-0.071
-675.164	-6.859	-0.121	0.083
-674.149	40.016	-0.067	0.060
-673.135	49.980	0.222	-0.210
-672.120	126.675	-0.090	-0.114
-671.105	188.164	-0.119	0.178
-670.091	-7.473	0.259	-0.176
-669.076	482.184	0.093	0.211
-668.062	698.217	-0.099	-0.261
-667.047	-200.000	-0.020	-0.363
-666.032	7.525	-0.140	-0.105
-665.018	279.524	-0.058	0.104
-664.003	227.386	0.041	0.066
-662.989	52.900	-0.166	-0.159
-661.974	55.055	0.196	-0.190
-660.959	324.519	-0.095	0.183
-659.945	-52.494	0.130	0.060
-658.930	-0.067	-0.344	-0.245
-657.916	-126.108	-0.309	-0.046
-656.901	-108.062	-0.221	0.048
-655.886	263.960	0.148	-0.258
-654.872	647.105	0.098	-0.251
-653.857	82.143	-0.164	-0.179
-652.843	312.475	-0.146	-0.275
-651.828	-73.739	-0.087	-0.032
-650.814	227.065	-0.189	-0.308
-649.799	114.403	0.066	0.080
-648.784	20.807	-0.225	0.183
-647.770	-168.337	-0.346	0.013
-646.755	449.206	-0.071	-0.157
-645.741	800.000	-0.056	-0.170
-644.726	-200.000	0.026	-0.390
-643.711	4.814	0.139	-0.103
-642.697	-140.358	-0.314	-0.033
-641.682	-82.018	-0.199	0.065
-640.668	-181.090	0.325	0.007
-639.653	-200.000	0.018	-0.085
-638.638	-42.303	-0.222	-0.113
-637.624	-116.461	0.169	-0.031
-636.609	10.657	0.097	-0.074
-635.595	402.359	0.089	-0.188
-634.580	-200.000	0.038	-0.265
-633.565	216.006	-0.060	0.095
-632.551	156.005	-0.169	0.233
-631.536	59.139	-0.205	-0.202
-630.522	800.000	0.186	0.552
-629.507	-126.822	-0.075	-0.011
-628.492	-200.000	-0.036	0.166
-627.478	120.523	0.124	0.154
-626.463	-120.204	-0.333	-0.057
-625.449	-99.381	0.088	-0.022
-624.434	-53.194	0.521	0.239
-623.419	142.684	0.215	0.286
-622.405	-50.369	0.186	0.088
-621.390	800.000	-0.084	0.322
-620.376	4.320	0.105	-0.077
-619.361	-97.607	-0.042	-0.011
-618.346	602.400	-0.115	0.286
-617.332	87.758	0.162	0.180
-616.317	-141.533	-0.413	-0.042
-615.303	550.630	0.057	0.137
-614.288	-133.260	-0.286	-0.036
-613.273	66.467	-0.064	0.065
-612.259	104.711	-0.272	-0.321
-611.244	-49.454	0.075	0.036
-610.230	-0.953	-0.192	-0.136
-609.215	702.704	-0.027	0.071
-608.201	800.000	0.033	-0.121
-607.186	-110.036	-0.347	0.073
-606.171	800.000	-0.038	0.151
-605.157	-10.566	-0.118	-0.078
-604.142	-88.955	0.129	-0.038
-603.128	-33.883	-0.209	-0.115
-602.113	-38.151	0.318	-0.169
-601.098	800.000	0.066	-0.249
-600.084	-200.000	-0.039	-0.400
-599.069	-190.126	-0.212	0.002
-598.055	800.000	0.063	-0.189
-597.040	-46.781	-0.232	0.113
-596.025	-59.996	0.180	0.077
-595.011	-200.000	-0.041	-0.309
-593.996	-112.764	0.191	0.038
-592.982	92.634	-0.235	0.265
-591.967	62.503	-0.233	-0.233
-590.952	-171.426	-0.124	0.004
-589.938	-53.826	0.103	-0.047
-588.923	157.773	-0.202	-0.279
-587.909	-151.139	0.202	-0.015
-586.894	608.937	-0.006	-0.014
-585.879	-200.000	0.011	-0.189
-584.865	593.285	0.129	-0.318
-583.850	337.701	0.069	-0.134
-582.836	146.832	0.234	0.315
-581.821	-52.976	0.297	0.136
-580.806	-17.940	0.132	0.083
-579.792	-200.000	-0.015	-0.155
-578.777	-134.197	-0.221	-0.027
-577.763	35.091	-0.399	0.349
-576.748	189.687	0.054	-0.082
-575.733	-25.598	-0.246	-0.145
-574.719	-3.841	-0.346	0.240
-573.704	-200.000	-0.046	0.383
-572.690	335.899	0.117	-0.226
-571.675	284.127	-0.037	0.067
-570.661	-73.176	0.304	-0.111
-569.646	-47.062	-0.331	0.161
-568.631	-38.399	0.286	0.151
-567.617	-156.422	-0.114	0.007
-566.602	800.000	-0.044	-0.186
-565.588	83.215	0.180	0.196
-564.573	499.862	0.120	0.276
-563.558	-82.464	0.213	0.069
-562.544	-35.970	0.142	-0.076
-561.529	-200.000	0.017	-0.323
-560.515	-180.142	-0.395	-0.008
-559.500	0.231	-0.136	-0.097
-558.485	-67.213	-0.230	-0.090
-557.471	-1.560	0.209	-0.147
-556.456	82.491	-0.244	-0.265
-555.442	-110.883	-0.126	0.026
-554.427	-67.532	-0.134	-0.053
-553.412	-200.000	-0.005	-0.178
-552.398	-200.000	0.007	-0.297
-551.383	-200.000	-0.010	0.086
-550.369	27.948	-0.272	0.229
-549.354	800.000	0.014	-0.043
-548.339	-200.000	-0.084	-0.400
-547.325	-200.000	-0.256	-0.000
-546.310	-200.000	-0.032	-0.324
-545.296	-200.000	-0.051	-0.278
-544.281	-194.948	-0.099	-0.001
-543.266	-99.987	0.091	0.023
-542.252	-43.702	0.111	-0.056
-541.237	-200.000	-0.005	0.150
-540.223	800.000	0.036	0.148
-539.208	-155.170	-0.112	-0.007
-538.193	-200.000	-0.060	-0.296
-537.179	584.084	-0.113	0.276
-536.164	-70.273	0.172	-0.065
-535.150	207.357	-0.076	-0.119
-534.135	62.059	0.157	-0.156
-533.121	286.810	-0.163	0.293
-532.106	0.491	0.054	-0.038
-531.091	-122.707	-0.337	0.054
-530.077	750.073	-0.038	-0.102
-529.062	96.348	-0.141	0.161
-528.048	-68.860	0.161	0.062
-527.033	30.003	0.171	-0.146
-526.018	23.385	0.253	0.207
-525.004	-82.990	-0.277	-0.089
-523.989	331.031	0.089	0.172
-522.975	236.511	0.233	0.384
-521.960	800.000	0.091	-0.289
-520.945	800.000	-0.083	-0.255
-519.931	14.966	0.287	0.224
-518.916	17.756	-0.243	-0.193
-517.902	-200.000	-0.003	0.246
-516.887	-94.860	-0.167	-0.045
-515.872	0.523	-0.288	0.205
-514.858	-200.000	-0.009	-0.065
-513.843	-170.663	-0.391	0.013
-512.829	180.339	-0.279	0.408
-511.814	-58.606	0.117	-0.050
-510.799	258.730	0.106	0.182
-509.785	-122.097	-0.167	-0.027
-508.770	-101.506	0.177	0.043
-507.756	158.078	-0.153	-0.212
-506.741	1.573	0.226	-0.162
-505.726	-160.351	0.180	-0.010
-504.712	-15.369	0.204	0.130
-503.697	800.000	0.138	-0.526
-502.683	25.301	-0.361	-0.298
-501.668	-102.785	0.312	-0.074
-500.653	-107.998	0.220	-0.047
-499.639	17.878	0.253	0.201
-498.624	348.538	0.024	0.047
-497.610	-103.700	-0.230	-0.054
-496.595	-120.397	-0.044	0.007
-495.581	-200.000	0.014	0.157
-494.566	-16.872	0.289	0.182
-493.551	-200.000	-0.055	0.245
-492.537	-40.668	0.110	-0.057
-491.522	800.000	0.011	0.046
-490.508	57.935	-0.183	0.179
-489.493	-200.000	0.029	-0.214
-488.478	800.000	0.069	-0.298
-487.464	160.738	0.075	-0.104
-486.449	-81.279	-0.119	0.039
-485.435	-137.254	0.190	0.021
-484.420	-104.964	0.367	0.084
-483.405	-130.197	-0.258	0.035
-482.391	13.954	0.314	-0.243
-481.376	64.958	-0.105	-0.105
-480.362	74.698	0.150	0.157
-479.347	-200.000	-0.008	0.119
-478.332	800.000	0.090	-0.297
-477.318	-26.595	0.243	-0.142
-476.303	-200.000	0.004	0.080
-475.289	-49.922	0.090	-0.043
-474.274	53.587	0.119	0.113
-473.259	-39.461	-0.106	-0.055
-472.245	-200.000	-0.016	-0.207
-471.230	-200.000	0.039	-0.229
-470.216	68.059	0.313	-0.319
-469.201	-200.000	-0.048	0.249
-468.186	173.207	0.084	-0.120
-467.172	28.893	-0.279	-0.235
-466.157	800.000	-0.025	-0.109
-465.143	-115.258	0.253	0.048
-464.128	-200.000	-0.001	0.009
-463.113	-200.000	0.019	-0.183
-462.099	800.000	-0.011	-0.044
-461.084	-164.679	0.159	-0.007
-460.070	277.002	-0.222	0.392
-459.055	34.263	-0.091	0.079
-458.040	-104.886	0.227	0.052
-457.026	76.086	0.088	-0.093
-456.011	2.453	0.186	-0.134
-454.997	-200.000	-0.022	0.262
-453.982	95.615	-0.180	-0.204
-452.968	-132.455	0.539	-0.069
-451.953	-200.000	-0.019	0.103
-450.938	-0.968	-0.224	0.158
-449.924	-45.792	-0.111	-0.054
-448.909	-18.953	-0.092	-0.057
-447.895	-8.580	-0.295	-0.197
-446.880	167.699	-0.083	0.117
-445.865	800.000	0.011	-0.040
-444.851	-153.172	0.126	-0.009
-443.836	800.000	0.115	-0.340
-442.822	561.654	-0.068	0.162
-441.807	12.410	-0.217	-0.166
-440.792	-180.029	-0.231	0.005
-439.778	-200.000	0.009	0.226
-438.763	206.573	-0.123	-0.190
-437.749	-150.201	-0.230	-0.018
-436.734	-200.000	0.046	-0.370
-435.719	44.560	-0.060	-0.055
-434.705	-200.000	0.169	0.001
-433.690	5.226	0.054	0.040
-432.676	-200.000	-0.059	0.308
-431.661	-28.230	0.045	0.026
-430.646	311.794	0.084	0.156
-429.632	60.965	-0.210	0.206
-428.617	41.517	-0.208	0.187
-427.603	60.905	-0.254	0.250
-426.588	-107.295	-0.232	-0.051
-425.573	-26.719	-0.195	-0.113
-424.559	-200.000	0.055	-0.248
-423.544	-104.777	0.123	0.028
-422.530	42.289	0.128	0.115
-421.515	-139.091	-0.059	0.006
-420.500	-72.608	0.123	-0.045
-419.486	800.000	-0.107	-0.321
-418.471	-10.079	0.061	0.040
-417.457	309.549	0.019	-0.036
-416.442	-200.000	-0.031	0.210
-415.428	604.202	0.089	0.221
-414.413	-110.073	-0.248	-0.051
-413.398	-19.649	-0.067	-0.041
-412.384	234.470	-0.195	-0.319
-411.369	800.000	0.023	-0.096
-410.355	-116.329	0.045	0.008
-409.340	-176.291	-0.263	0.007
-408.325	-200.000	-0.022	-0.133
-407.311	800.000	-0.037	-0.148
-406.296	800.000	0.119	0.359
-405.282	379.665	0.119	0.242
-404.267	800.000	-0.057	0.189
-403.252	534.523	-0.048	0.112
-402.238	-172.983	-0.223	-0.007
-401.223	618.569	0.180	0.448
-400.209	-100.529	-0.183	-0.045
-399.194	141.001	0.089	0.117
-398.179	-67.720	0.191	0.074
-397.165	-33.291	-0.347	-0.191
-396.150	34.419	0.148	0.128
-395.136	800.000	0.018	-0.050
-394.121	48.817	0.167	0.155
-393.106	49.278	0.080	-0.074
-392.092	293.020	-0.122	0.221
-391.077	-136.264	-0.190	0.022
-390.063	-200.000	0.048	0.212
-389.048	244.928	0.070	-0.117
-388.033	407.334	0.043	-0.090
-387.019	330.739	0.075	0.144
-386.004	800.000	-0.050	0.157
-384.990	646.715	-0.078	-0.197
-383.975	800.000	-0.099	-0.367
-382.960	306.299	-0.154	0.284
-381.946	-50.314	0.263	-0.123
-380.931	800.000	0.065	0.246
-379.917	265.646	0.106	0.183
-378.902	-0.119	-0.137	0.097
-377.888	132.371	0.097	-0.124
-376.873	743.255	-0.166	0.442
-375.858	-111.257	0.155	-0.031
-374.844	187.577	0.105	-0.155
-373.829	252.158	0.025	-0.043
-372.815	-115.068	-0.103	-0.019
-371.800	9.910	0.103	0.077
-370.785	-64.455	0.286	0.115
-369.771	88.302	-0.155	0.170
-368.756	-200.000	0.020	0.296
-367.742	-179.646	0.268	0.006
-366.727	279.311	0.083	-0.146
-365.712	-67.978	-0.206	0.080
-364.698	11.894	0.349	0.266
-363.683	-125.641	0.256	0.038
-362.669	-44.821	0.212	0.105
-361.654	800.000	0.028	0.097
-360.639	800.000	0.013	0.054
-359.625	-200.000	0.022	-0.145
-358.610	-69.281	0.140	0.053
-357.596	-61.335	-0.344	0.143
-356.581	405.064	-0.047	0.098
-355.566	-121.169	0.274	-0.045
-354.552	668.181	0.080	-0.204
-353.537	-129.890	0.080	-0.011
-352.523	-200.000	-0.003	-0.040
-351.508	151.866	-0.159	-0.215
-350.493	315.225	-0.094	0.175
-349.479	1.764	-0.222	0.159
-348.464	12.093	-0.313	-0.239
-347.450	-62.060	0.267	0.110
-346.435	-126.338	0.044	0.007
-345.420	169.553	0.272	0.384
-344.406	0.359	-0.246	-0.174
-343.391	114.345	-0.151	-0.182
-342.377	-59.561	0.132	0.056
-341.362	-200.000	0.010	-0.091
-340.348	-28.676	-0.137	-0.078
-339.333	-83.820	-0.202	-0.064
-338.318	800.000	0.077	0.257
-337.304	36.348	0.226	0.197
-336.289	-34.587	-0.253	-0.137
-335.275	268.930	-0.071	-0.123
-334.260	800.000	0.029	-0.107
-333.245	-20.319	-0.312	0.190
-332.231	20.628	0.173	-0.139
-331.216	-93.891	0.244	-0.066
-330.202	-200.000	-0.037	-0.306
-329.187	-200.000	-0.018	-0.314
-328.172	-200.000	-0.001	0.092
-327.158	-200.000	-0.016	-0.150
-326.143	235.833	0.021	-0.034
-325.129	264.616	-0.168	0.290
-324.114	1.586	0.158	-0.113
-323.099	317.499	-0.079	-0.148
-322.085	-200.000	-0.003	0.059
-321.070	194.410	0.128	-0.192
-320.056	800.000	-0.022	-0.077
-319.041	800.000	0.098	-0.333
-318.026	-11.317	0.201	-0.131
-317.012	233.609	0.155	-0.252
-315.997	-16.246	0.280	-0.176
-314.983	83.963	-0.094	-0.102
-313.968	-5.248	-0.260	0.176
-312.953	-200.000	-0.035	0.317
-311.939	49.096	0.223	-0.207
-310.924	-110.247	-0.204	0.042
-309.910	800.000	-0.087	0.357
-308.895	-139.645	-0.259	0.027
-307.880	-79.292	0.453	-0.152
-306.866	-195.897	-0.314	0.002
-305.851	487.085	-0.043	0.097
-304.837	-123.016	0.290	-0.046
-303.822	-153.750	0.245	0.017
-302.807	-91.955	0.078	0.022
-301.793	-106.510	-0.215	0.047
-300.778	-96.826	-0.489	-0.127
-299.764	88.150	-0.173	0.190
-298.749	-115.502	-0.207	0.039
-297.735	-82.393	0.238	-0.077
-296.720	224.800	-0.032	-0.051
-295.705	19.879	-0.065	0.052
-294.691	-138.414	0.301	0.033
-293.676	-33.533	0.136	0.074
-292.662	-77.092	-0.272	0.094
-291.647	-2.921	0.195	-0.135
-290.632	32.266	0.374	-0.319
-289.618	52.616	0.239	0.226
-288.603	207.720	0.201	-0.310
-287.589	-200.000	0.003	-0.215
-286.574	-116.167	-0.304	0.056
-285.559	-154.803	0.052	-0.003
-284.545	8.465	-0.148	-0.110
-283.530	357.418	0.082	0.161
-282.516	138.501	-0.147	0.190
-281.501	-60.860	-0.249	-0.104
-280.486	3.004	0.228	0.163
-279.472	-200.000	0.001	0.125
-278.457	-200.000	-0.032	0.216
-277.443	-86.933	0.067	0.020
-276.428	-200.000	-0.049	0.297
-275.413	-127.860	0.437	0.062
-274.399	17.931	-0.116	0.091
-273.384	471.181	-0.187	0.415
-272.370	232.780	0.162	0.263
-271.355	-76.870	-0.244	0.084
-270.340	-200.000	0.056	0.344
-269.326	108.737	0.117	0.138
-268.311	-200.000	-0.028	-0.128
-267.297	207.515	-0.199	0.306
-266.282	68.480	-0.133	-0.135
-265.267	-200.000	-0.102	-0.456
-264.253	-113.203	-0.079	0.015
-263.238	-159.130	-0.117	0.007
-262.224	-148.532	-0.055	0.004
-261.209	-106.129	0.133	0.029
-260.195	-200.000	0.011	0.190
-259.180	131.671	0.163	0.206
-258.165	134.616	-0.126	-0.162
-257.151	8.036	0.211	-0.156
-256.136	-21.444	0.256	0.154
-255.122	-200.000	0.087	-0.396
-254.107	800.000	0.045	-0.182
-253.092	638.971	-0.075	-0.188
-252.078	-200.000	0.016	0.117
-251.063	-192.160	-0.297	0.003
-250.049	33.267	-0.185	0.158
-249.034	74.259	0.156	0.162
-248.019	-35.688	0.221	-0.118
-247.005	-200.000	-0.002	0.093
-245.990	172.781	0.151	0.215
-244.976	-81.274	0.247	-0.080
-243.961	-146.725	-0.176	-0.015
-242.946	-200.000	0.065	0.328
-241.932	-31.296	0.408	-0.227
-240.917	-89.977	-0.277	-0.080
-239.903	-167.556	-0.170	-0.007
-238.888	337.504	-0.060	-0.116
-237.873	250.332	0.136	-0.227
-236.859	-173.818	-0.203	0.006
-235.844	36.024	0.169	0.147
-234.830	699.490	0.079	0.206
-233.815	-140.354	-0.323	0.033
-232.800	-10.469	-0.262	-0.171
-231.786	568.420	-0.057	0.137
-230.771	-97.574	0.181	-0.046
-229.757	-124.962	0.431	-0.065
-228.742	-184.512	-0.418	-0.007
-227.727	-92.447	0.174	0.048
-226.713	134.021	0.236	-0.301
-225.698	-104.182	0.058	0.013
-224.684	113.246	-0.209	0.250
-223.669	800.000	-0.044	0.184
-222.655	-200.000	-0.017	0.255
-221.640	481.814	0.108	0.242
-220.625	-200.000	-0.088	0.386
-219.611	31.021	0.103	0.087
-218.596	-175.461	0.038	0.001
-217.582	-37.904	-0.307	0.160
-216.567	-6.901	-0.157	-0.105
-215.552	800.000	-0.065	-0.235
-214.538	-124.703	-0.112	0.017
-213.523	-142.816	0.096	-0.009
-212.509	800.000	-0.068	-0.206
-211.494	-121.273	-0.213	0.035
-210.479	800.000	-0.029	0.096
-209.465	800.000	-0.058	-0.178
-208.450	380.308	-0.063	-0.127
-207.436	-132.763	0.019	0.002
-206.421	-60.611	-0.182	0.076
-205.406	-10.744	0.169	0.110
-204.392	-56.093	-0.139	-0.061
-203.377	-16.414	0.199	-0.124
-202.363	5.588	-0.137	-0.099
-201.348	800.000	0.073	0.235
-200.333	1.746	0.166	-0.118
-199.319	752.632	0.195	0.518
-198.304	-200.000	-0.014	-0.118
-197.290	115.213	-0.062	-0.075
-196.275	-126.979	0.250	0.036
-195.260	-200.000	-0.001	0.129
-194.246	-102.301	0.332	-0.078
-193.231	-136.654	0.286	0.032
-192.217	800.000	0.066	0.183
-191.202	-200.000	-0.001	0.050
-190.187	68.836	0.229	0.231
-189.173	-200.000	-0.053	0.265
-188.158	3.716	-0.133	0.096
-187.144	-200.000	0.048	-0.370
-186.129	-200.000	0.059	0.260
-185.114	52.519	-0.131	0.123
-184.100	-34.920	-0.158	-0.085
-183.085	102.232	-0.057	0.065
-182.071	-200.000	0.080	0.417
-181.056	800.000	0.038	0.155
-180.042	361.025	0.143	-0.282
-179.027	304.029	-0.129	-0.235
-178.012	40.515	0.223	-0.198
-176.998	124.822	-0.032	-0.040
-175.983	-28.892	-0.049	0.028
-174.969	-200.000	0.030	-0.145
-173.954	-37.840	0.116	-0.061
-172.939	-93.547	0.223	-0.061
-171.925	41.141	0.028	-0.025
-170.910	-62.314	0.293	0.120
-169.896	72.883	-0.209	-0.215
-168.881	-126.150	0.233	-0.034
-167.866	92.008	-0.070	-0.078
-166.852	-10.884	-0.087	0.057
-165.837	800.000	-0.026	-0.095
-164.823	57.528	0.112	-0.108
-163.808	800.000	0.014	0.060
-162.793	-102.090	0.343	-0.081
-161.779	800.000	-0.027	-0.096
-160.764	128.294	0.005	-0.007
-159.750	165.930	0.179	0.249
-158.735	-64.730	-0.325	-0.129
-157.720	-55.501	0.320	0.141
-156.706	203.711	-0.191	-0.290
-155.691	-200.000	-0.039	-0.324
-154.677	-51.505	0.187	-0.086
-153.662	461.716	0.183	-0.400
-152.647	-69.048	-0.385	-0.146
-151.633	-134.289	0.311	0.038
-150.618	-200.000	0.009	0.116
-149.604	-39.296	0.147	-0.076
-148.589	-200.000	0.010	0.122
-147.574	-194.122	-0.351	-0.003
-146.560	634.453	0.101	0.251
-145.545	39.279	-0.215	-0.189
-144.531	-99.495	0.333	0.082
-143.516	-55.487	0.249	0.109
-142.502	8.114	-0.251	-0.185
-141.487	186.854	-0.042	0.062
-140.472	-55.378	-0.104	0.046
-139.458	-137.270	0.218	-0.024
-138.443	-79.056	-0.234	-0.078
-137.429	772.785	0.149	0.398
-136.414	206.507	0.173	0.265
-135.399	54.454	0.040	0.037
-134.385	-40.379	0.353	0.180
-133.370	174.654	0.164	-0.233
-132.356	55.826	-0.036	0.035
-131.341	336.263	-0.203	0.388
-130.326	26.207	-0.125	0.102
-129.312	746.444	0.082	0.218
-128.297	125.321	0.232	0.288
-127.283	766.575	0.108	0.289
-126.268	361.796	0.100	0.197
-125.253	-200.000	0.029	-0.269
-124.239	355.172	-0.087	-0.170
-123.224	-200.000	-0.048	-0.270
-122.210	800.000	0.091	0.355
-121.195	-200.000	0.010	0.175
