DTS Sentinel unit serial number:	SN413079Multiplexer serial number:	ORYXHardware model number:	OX4-SRSoftware version number:	ORYX F/W v4.00 Oryx Data Collector v3.7.2.0data status	okinstallation	princeton_trtdifferential loss correction	single-endedforward channel	channel 2reverse channel	N/Adate	2019/09/17time	16:39:35forward acquisition time	60.00reverse acquisition time	0.00gamma	496.2192k internal	0.2292k external	0.2292temperature offset calibration	0.9980default loss term (dB/km)	0.3790temperature slope calibration	1.0000multiplexer offset coefficient	1.0000multiplexer slope coefficient	1.0000fibre end	0.00T internal ref (°C)	41.94T ext. ref 1 (°C)	0.35T ext. ref 2 (°C)	38.74length (m)	temperature (°C)	Stokes	anti-Stokes-747.200	-51.467	0.300	-0.143
-746.185	394.528	0.105	0.224
-745.171	800.000	0.054	0.224
-744.156	125.238	0.296	0.382
-743.142	-200.000	0.030	0.399
-742.127	-63.804	0.229	0.096
-741.112	-45.545	0.090	0.046
-740.098	502.428	-0.199	0.470
-739.083	30.190	0.299	0.261
-738.069	-200.000	0.030	0.195
-737.054	-85.367	-0.149	-0.048
-736.039	-0.676	-0.432	0.313
-735.025	-134.868	0.228	0.028
-734.010	22.398	-0.193	0.162
-732.996	173.066	-0.148	-0.218
-731.981	127.881	-0.163	0.212
-730.966	-200.000	0.008	0.062
-729.952	-165.917	-0.176	0.008
-728.937	15.809	-0.177	0.143
-727.923	-200.000	-0.024	-0.217
-726.908	-74.019	0.161	-0.060
-725.894	-45.353	-0.186	0.094
-724.879	-33.852	-0.186	0.105
-723.864	-200.000	-0.002	-0.039
-722.850	-200.000	-0.030	0.288
-721.835	-96.712	-0.088	0.024
-720.821	267.922	-0.060	-0.108
-719.806	-200.000	0.040	0.220
-718.791	177.905	-0.120	-0.179
-717.777	153.678	0.157	-0.220
-716.762	-57.551	0.135	0.060
-715.748	-9.559	-0.124	-0.084
-714.733	593.817	-0.025	-0.064
-713.718	800.000	0.029	0.127
-712.704	-200.000	-0.013	-0.138
-711.689	-140.887	-0.045	-0.005
-710.675	800.000	-0.061	0.258
-709.660	96.746	0.047	0.055
-708.645	-82.441	0.056	-0.019
-707.631	-200.000	-0.001	0.047
-706.616	-75.897	0.051	-0.018
-705.602	4.802	-0.312	-0.235
-704.587	800.000	0.069	0.234
-703.572	-200.000	-0.019	-0.352
-702.558	175.867	-0.074	0.110
-701.543	88.663	-0.179	-0.203
-700.529	-200.000	0.018	0.304
-699.514	225.029	0.138	0.228
-698.499	216.471	-0.076	-0.123
-697.485	564.255	-0.133	-0.330
-696.470	542.028	-0.172	0.419
-695.456	-20.304	-0.244	0.154
-694.441	265.079	0.127	-0.226
-693.426	-116.967	0.336	0.063
-692.412	7.244	0.080	-0.061
-691.397	-11.138	-0.147	0.099
-690.383	-160.742	-0.160	-0.009
-689.368	11.158	0.107	-0.083
-688.354	59.342	-0.085	0.085
-687.339	-128.677	0.147	0.021
-686.324	-200.000	-0.016	-0.093
-685.310	-131.467	0.027	0.004
-684.295	-200.000	-0.014	0.223
-683.281	-44.289	-0.174	0.089
-682.266	124.374	0.072	0.092
-681.251	-200.000	-0.079	0.376
-680.237	465.628	0.091	0.208
-679.222	800.000	-0.082	-0.334
-678.208	-48.741	0.118	0.058
-677.193	-200.000	-0.022	-0.277
-676.178	800.000	-0.066	-0.223
-675.164	286.505	0.160	-0.294
-674.149	86.558	-0.068	0.076
-673.135	800.000	-0.051	0.156
-672.120	800.000	-0.102	0.354
-671.105	-35.892	0.161	-0.089
-670.091	-18.712	-0.181	0.115
-669.076	-38.184	0.224	0.121
-668.062	194.544	0.150	0.233
-667.047	-97.344	-0.343	0.091
-666.032	-200.000	-0.033	0.258
-665.018	-200.000	0.043	0.307
-664.003	635.655	-0.064	0.166
-662.989	54.694	-0.094	-0.092
-661.974	-3.646	0.338	0.240
-660.959	220.194	-0.124	-0.203
-659.945	-106.007	0.263	0.060
-658.930	124.787	0.186	-0.239
-657.916	35.668	0.448	-0.401
-656.901	-200.000	0.011	-0.265
-655.886	800.000	-0.150	-0.458
-654.872	225.914	-0.054	0.089
-653.857	208.066	0.169	0.270
-652.843	-200.000	-0.051	0.244
-651.828	800.000	-0.047	0.184
-650.814	-200.000	0.038	0.257
-649.799	-200.000	-0.035	0.399
-648.784	-171.347	-0.191	0.007
-647.770	-72.383	-0.131	0.049
-646.755	-72.141	0.235	0.089
-645.741	-148.921	0.037	0.003
-644.726	-69.642	0.125	0.049
-643.711	-103.219	0.145	0.035
-642.697	-13.331	0.335	0.221
-641.682	-200.000	-0.015	-0.554
-640.668	-200.000	-0.031	-0.227
-639.653	-117.329	0.360	-0.067
-638.638	408.853	-0.033	0.072
-637.624	-177.232	0.402	0.010
-636.609	800.000	0.036	0.109
-635.595	16.033	0.100	-0.080
-634.580	-78.690	0.205	0.071
-633.565	89.345	0.079	0.090
-632.551	-200.000	-0.041	0.311
-631.536	383.031	0.080	0.168
-630.522	74.226	-0.143	0.153
-629.507	103.874	-0.133	-0.159
-628.492	-90.806	-0.194	-0.057
-627.478	82.501	0.248	-0.275
-626.463	780.614	0.090	0.252
-625.449	244.369	-0.189	0.324
-624.434	159.725	-0.283	-0.402
-623.419	-82.088	-0.192	0.064
-622.405	-200.000	-0.009	-0.073
-621.390	58.522	0.227	-0.227
-620.376	3.881	-0.084	0.062
-619.361	622.758	-0.095	-0.245
-618.346	800.000	-0.028	0.114
-617.332	-85.432	-0.060	0.019
-616.317	800.000	0.051	0.198
-615.303	-43.851	-0.159	-0.081
-614.288	-139.930	-0.315	0.034
-613.273	-200.000	-0.002	-0.195
-612.259	195.921	0.065	-0.101
-611.244	-18.109	-0.240	-0.153
-610.230	598.957	-0.102	-0.258
-609.215	89.499	-0.217	0.247
-608.201	51.212	0.100	0.097
-607.186	-101.679	-0.361	0.089
-606.171	-200.000	0.034	-0.160
-605.157	-200.000	-0.022	0.105
-604.142	76.693	-0.193	-0.208
-603.128	800.000	-0.009	0.033
-602.113	523.515	0.109	0.260
-601.098	-5.981	0.135	-0.094
-600.084	-184.171	0.149	0.003
-599.069	-119.874	-0.075	-0.013
-598.055	211.550	-0.059	-0.095
-597.040	374.006	-0.053	0.109
-596.025	242.383	0.119	-0.203
-595.011	-200.000	-0.035	-0.317
-593.996	107.130	-0.046	-0.056
-592.982	-111.115	0.163	0.034
-591.967	-44.072	-0.183	-0.093
-590.952	-153.376	0.274	0.019
-589.938	-95.537	-0.315	-0.086
-588.923	-200.000	-0.008	0.132
-587.909	38.341	0.178	0.162
-586.894	-119.312	-0.101	-0.018
-585.879	-200.000	-0.048	-0.217
-584.865	-158.191	-0.071	-0.004
-583.850	243.914	0.246	0.419
-582.836	81.417	0.164	0.180
-581.821	-200.000	0.028	-0.228
-580.806	-116.885	-0.315	0.059
-579.792	123.027	-0.162	-0.206
-578.777	-93.587	0.383	0.108
-577.763	-200.000	0.022	0.383
-576.748	-200.000	-0.009	-0.077
-575.733	-119.333	0.310	-0.055
-574.719	97.620	-0.139	-0.163
-573.704	-32.719	-0.222	-0.125
-572.690	800.000	0.056	-0.228
-571.675	8.629	-0.076	0.058
-570.661	-7.910	0.215	0.148
-569.646	143.817	-0.104	-0.141
-568.631	371.529	-0.010	-0.021
-567.617	89.386	0.069	0.078
-566.602	800.000	0.037	0.125
-565.588	29.749	0.141	0.122
-564.573	502.274	-0.122	0.287
-563.558	800.000	0.117	-0.416
-562.544	-66.954	0.055	-0.022
-561.529	-200.000	-0.019	-0.099
-560.515	-88.002	0.152	-0.046
-559.500	168.969	0.080	0.115
-558.485	-47.597	-0.144	0.071
-557.471	119.607	0.282	-0.355
-556.456	74.419	-0.121	-0.129
-555.442	219.290	-0.058	0.094
-554.427	326.234	-0.086	-0.167
-553.412	-200.000	-0.012	-0.101
-552.398	-94.331	0.144	-0.040
-551.383	-200.000	0.010	0.197
-550.369	-31.517	-0.370	0.211
-549.354	-53.100	-0.393	0.183
-548.339	-156.846	0.409	-0.026
-547.325	99.953	-0.105	-0.124
-546.310	-155.058	0.043	-0.003
-545.296	116.146	0.181	0.225
-544.281	-37.831	0.138	-0.075
-543.266	-100.651	-0.132	-0.033
-542.252	327.541	0.046	0.089
-541.237	-14.012	0.138	0.090
-540.223	150.177	-0.123	0.169
-539.208	-76.357	-0.261	-0.093
-538.193	-27.026	-0.135	0.080
-537.179	-164.733	-0.130	-0.006
-536.164	-200.000	0.033	0.313
-535.150	-112.383	-0.358	-0.073
-534.135	-69.040	0.283	-0.111
-533.121	-104.408	-0.271	-0.064
-532.106	-200.000	-0.012	-0.080
-531.091	-200.000	-0.011	-0.181
-530.077	206.841	0.061	-0.097
-529.062	717.614	0.060	0.163
-528.048	-23.565	-0.112	-0.068
-527.033	-22.640	0.197	-0.121
-526.018	57.573	-0.155	-0.154
-525.004	266.803	-0.139	-0.247
-523.989	-135.490	-0.316	0.038
-522.975	120.671	0.113	0.143
-521.960	51.591	-0.036	0.034
-520.945	-155.359	-0.126	-0.008
-519.931	800.000	-0.047	0.198
-518.916	-29.997	-0.403	0.233
-517.902	800.000	-0.067	0.214
-516.887	116.089	0.292	-0.363
-515.872	315.338	-0.049	0.093
-514.858	-200.000	-0.251	-0.000
-513.843	-63.936	-0.190	-0.079
-512.829	-200.000	0.013	-0.273
-511.814	743.030	-0.069	0.189
-510.799	675.242	0.111	0.291
-509.785	-31.064	0.266	0.152
-508.770	11.743	-0.094	-0.074
-507.756	800.000	-0.058	0.186
-506.741	-92.323	-0.123	0.035
-505.726	53.557	-0.139	0.136
-504.712	-200.000	0.036	0.217
-503.697	118.926	-0.051	-0.063
-502.683	88.558	-0.171	-0.192
-501.668	367.281	-0.039	0.080
-500.653	-66.011	-0.238	0.096
-499.639	-32.526	-0.172	-0.097
-498.624	-155.883	0.358	0.023
-497.610	800.000	-0.083	-0.258
-496.595	-73.300	0.178	0.066
-495.581	42.281	0.288	0.265
-494.566	-79.713	-0.297	-0.101
-493.551	240.343	-0.104	0.176
-492.537	-32.126	-0.189	0.107
-491.522	272.733	-0.138	-0.248
-490.508	-200.000	-0.014	-0.128
-489.493	398.967	0.053	0.113
-488.478	-35.356	-0.061	0.033
-487.464	86.032	-0.300	0.335
-486.449	317.640	0.088	-0.169
-485.435	1.731	-0.109	-0.079
-484.420	-200.000	0.003	0.181
-483.405	183.080	0.047	0.070
-482.391	70.949	-0.113	-0.119
-481.376	-200.000	0.082	-0.630
-480.362	282.276	0.161	-0.293
-479.347	423.033	-0.087	0.189
-478.332	800.000	0.071	0.259
-477.318	-104.681	0.343	-0.080
-476.303	94.094	0.118	-0.135
-475.289	-44.843	0.211	-0.107
-474.274	179.561	0.136	0.202
-473.259	50.035	0.135	0.129
-472.245	267.008	0.115	0.204
-471.230	-101.624	0.216	-0.053
-470.216	-14.735	-0.179	-0.116
-469.201	-30.123	-0.104	0.060
-468.186	553.556	0.180	0.438
-467.172	152.546	-0.186	-0.257
-466.157	63.259	-0.059	-0.060
-465.143	-40.070	0.335	0.177
-464.128	-15.003	0.103	-0.067
-463.113	136.751	0.152	-0.201
-462.099	86.775	0.132	0.147
-461.084	-200.000	-0.017	-0.263
-460.070	-39.422	-0.151	0.080
-459.055	111.387	0.212	-0.259
-458.040	93.105	-0.174	-0.199
-457.026	-200.000	0.027	-0.206
-456.011	-67.971	0.192	-0.076
-454.997	800.000	-0.079	0.304
-453.982	158.083	0.142	0.200
-452.968	-18.439	0.243	-0.153
-451.953	-171.511	-0.233	0.008
-450.938	80.288	-0.312	-0.340
-449.924	173.689	-0.150	-0.219
-448.909	-200.000	0.027	0.201
-447.895	197.278	0.048	0.075
-446.880	-63.696	-0.076	0.031
-445.865	-67.089	-0.051	-0.020
-444.851	33.751	0.130	0.114
-443.836	106.270	-0.131	0.157
-442.822	-122.160	0.115	0.019
-441.807	-111.263	-0.156	-0.032
-440.792	43.077	-0.222	0.205
-439.778	43.695	-0.237	-0.219
-438.763	5.688	-0.124	0.092
-437.749	344.187	-0.093	-0.184
-436.734	-200.000	-0.411	-0.001
-435.719	414.276	0.167	-0.359
-434.705	297.522	0.083	-0.155
-433.690	-200.000	-0.057	-0.430
-432.676	52.067	-0.237	0.228
-431.661	800.000	-0.008	0.033
-430.646	-53.742	0.296	0.137
-429.632	142.881	0.026	0.035
-428.617	-129.809	-0.120	-0.017
-427.603	-116.905	-0.295	0.055
-426.588	84.910	0.059	-0.065
-425.573	800.000	0.056	-0.213
-424.559	-60.361	0.393	-0.169
-423.544	-89.653	0.181	-0.054
-422.530	193.884	0.082	0.125
-421.515	-110.674	-0.225	-0.047
-420.500	-125.981	-0.090	-0.014
-419.486	91.095	0.046	-0.052
-418.471	-145.156	-0.184	0.017
-417.457	-42.631	-0.111	0.057
-416.442	231.529	0.053	-0.087
-415.428	112.335	0.184	0.225
-414.413	111.494	-0.113	-0.138
-413.398	39.998	-0.185	-0.168
-412.384	78.122	-0.096	-0.103
-411.369	110.076	0.059	0.071
-410.355	-145.348	0.160	-0.015
-409.340	-127.186	-0.298	0.044
-408.325	-200.000	-0.017	0.196
-407.311	431.310	-0.082	0.180
-406.296	-200.000	-0.053	-0.386
-405.282	-93.736	0.234	-0.065
-404.267	-49.082	0.304	0.147
-403.252	364.215	0.106	0.214
-402.238	800.000	-0.057	0.182
-401.223	800.000	-0.027	-0.101
-400.209	419.290	0.103	-0.222
-399.194	800.000	0.018	-0.061
-398.179	6.746	-0.115	-0.086
-397.165	-10.287	0.120	-0.081
-396.150	418.140	-0.111	-0.239
-395.136	3.440	-0.124	0.091
-394.121	143.270	0.224	0.301
-393.106	355.545	0.106	0.212
-392.092	575.781	0.120	0.297
-391.077	-27.951	-0.290	0.169
-390.063	39.528	0.213	0.193
-389.048	-176.155	-0.252	-0.007
-388.033	-49.163	-0.187	0.090
-387.019	-200.000	-0.034	0.267
-386.004	1.644	-0.079	-0.057
-384.990	532.184	-0.101	0.240
-383.975	-130.307	-0.388	0.053
-382.960	-82.719	-0.257	0.084
-381.946	-200.000	0.010	0.156
-380.931	297.198	-0.079	-0.146
-379.917	31.235	-0.132	-0.115
-378.902	-172.106	-0.278	-0.009
-377.888	-11.617	-0.207	0.137
-376.873	119.292	0.100	-0.125
-375.858	-144.649	-0.105	0.010
-374.844	-14.366	-0.105	-0.068
-373.829	215.640	-0.218	0.348
-372.815	44.301	0.123	-0.114
-371.800	345.401	0.034	0.067
-370.785	109.337	0.213	-0.257
-369.771	-149.484	-0.021	-0.002
-368.756	-103.880	0.121	0.029
-367.742	73.353	-0.125	0.131
-366.727	80.996	-0.184	-0.201
-365.712	-79.628	-0.298	-0.101
-364.698	-38.575	-0.154	-0.082
-363.683	363.615	0.020	-0.041
-362.669	-8.082	-0.255	0.173
-361.654	-200.000	-0.084	-0.444
-360.639	-200.000	-0.013	-0.277
-359.625	421.853	-0.085	-0.183
-358.610	800.000	0.021	0.065
-357.596	548.347	0.027	0.065
-356.581	-23.177	0.304	-0.184
-355.566	-22.301	0.145	-0.089
-354.552	800.000	0.077	0.224
-353.537	-72.864	-0.082	-0.030
-352.523	-67.386	0.387	0.153
-351.508	110.009	-0.066	0.080
-350.493	-151.625	-0.401	-0.030
-349.479	473.143	0.108	0.244
-348.464	-200.000	-0.027	0.267
-347.450	-200.000	0.056	-0.282
-346.435	-58.600	0.287	-0.125
-345.420	704.902	0.104	-0.277
-344.406	-200.000	-0.009	-0.096
-343.391	-9.424	0.289	-0.194
-342.377	335.521	0.062	-0.121
-341.362	800.000	-0.126	0.388
-340.348	-41.433	0.465	-0.241
-339.333	-134.658	-0.132	0.016
-338.318	-200.000	-0.012	-0.167
-337.304	-83.032	-0.263	-0.085
-336.289	561.446	0.072	0.176
-335.275	-16.241	0.350	-0.224
-334.260	-71.363	-0.212	-0.080
-333.245	41.247	-0.291	0.265
-332.231	-53.171	0.193	0.089
-331.216	-67.318	0.363	0.144
-330.202	464.017	0.067	-0.151
-329.187	25.652	0.157	0.132
-328.172	-186.449	-0.207	-0.003
-327.158	-200.000	0.031	0.160
-326.143	81.048	0.154	-0.168
-325.129	108.842	0.119	-0.143
-324.114	-120.314	-0.151	0.026
-323.099	137.819	0.244	0.322
-322.085	-200.000	0.027	0.316
-321.070	330.439	0.143	0.277
-320.056	426.562	-0.086	0.186
-319.041	7.611	0.053	0.040
-318.026	-88.785	0.017	0.005
-317.012	-200.000	-0.014	0.280
-315.997	368.723	-0.156	0.318
-314.983	347.037	0.097	-0.193
-313.968	424.881	0.099	-0.214
-312.953	49.821	0.238	-0.226
-311.939	-200.000	0.058	-0.262
-310.924	58.152	0.025	0.024
-309.910	59.639	0.153	-0.152
-308.895	209.553	-0.089	-0.140
-307.880	-75.210	-0.225	0.081
-306.866	-0.217	0.136	-0.097
-305.851	-65.857	0.149	0.060
-304.837	697.338	0.021	-0.055
-303.822	89.316	0.215	-0.240
-302.807	-57.331	0.162	-0.072
-301.793	-198.434	-0.075	0.000
-300.778	-46.411	0.207	0.102
-299.764	10.705	0.131	-0.101
-298.749	83.564	0.124	-0.136
-297.735	-16.682	-0.289	0.184
-296.720	-200.000	-0.007	-0.079
-295.705	-101.393	-0.050	0.012
-294.691	8.444	0.050	0.037
-293.676	-49.912	0.304	-0.145
-292.662	143.544	-0.124	-0.166
-291.647	55.931	-0.379	-0.370
-290.632	-200.000	0.060	-0.684
-289.618	-27.602	0.186	0.108
-288.603	-9.588	-0.135	-0.091
-287.589	800.000	-0.067	-0.223
-286.574	-173.466	0.184	0.006
-285.559	543.851	0.134	0.321
-284.545	784.740	-0.058	-0.160
-283.530	-146.552	-0.047	0.004
-282.516	-23.936	0.179	0.108
-281.501	145.446	-0.156	0.210
-280.486	18.140	-0.243	-0.195
-279.472	800.000	-0.028	0.123
-278.457	31.312	-0.185	-0.159
-277.443	800.000	0.063	0.233
-276.428	289.594	0.177	0.323
-275.413	140.002	-0.136	-0.180
-274.399	71.216	-0.219	-0.229
-273.384	75.025	0.170	-0.180
-272.370	-200.000	-0.019	0.115
-271.355	-0.054	0.259	-0.185
-270.340	37.214	-0.216	-0.192
-269.326	7.294	0.204	0.153
-268.311	65.541	-0.152	0.154
-267.297	26.960	0.116	-0.098
-266.282	-28.287	0.248	0.144
-265.267	-200.000	0.048	0.447
-264.253	81.392	0.115	0.125
-263.238	-200.000	-0.012	-0.109
-262.224	-200.000	0.009	-0.078
-261.209	-36.506	0.117	0.063
-260.195	-115.444	0.217	-0.041
-259.180	-74.002	0.263	0.096
-258.165	-55.283	-0.078	-0.035
-257.151	-134.061	0.045	-0.006
-256.136	-174.819	0.133	-0.004
-255.122	-68.960	0.054	-0.021
-254.107	-5.659	-0.202	-0.139
-253.092	416.433	0.097	0.209
-252.078	-131.156	-0.101	0.013
-251.063	232.771	0.224	-0.369
-250.049	-115.424	0.344	0.065
-249.034	-110.420	0.224	0.047
-248.019	39.421	-0.282	-0.253
-247.005	21.088	-0.129	-0.105
-245.990	374.500	0.059	-0.121
-244.976	-72.058	0.213	-0.079
-243.961	-157.458	-0.043	-0.003
-242.946	-151.265	-0.407	0.031
-241.932	-51.773	-0.037	-0.017
-240.917	-56.133	0.123	-0.055
-239.903	800.000	0.066	0.263
-238.888	-74.063	0.118	-0.043
-237.873	-83.016	0.278	0.090
-236.859	-16.024	0.085	0.054
-235.844	800.000	0.024	-0.080
-234.830	-200.000	0.012	-0.209
-233.815	38.495	-0.174	-0.155
-232.800	160.629	0.116	-0.163
-231.786	-88.588	-0.372	0.111
-230.771	800.000	0.072	-0.267
-229.757	800.000	0.074	0.291
-228.742	-200.000	0.024	0.114
-227.727	-200.000	-0.004	0.233
-226.713	236.488	0.059	0.097
-225.698	133.921	-0.054	0.070
-224.684	-200.000	-0.003	0.085
-223.669	-200.000	0.018	0.168
-222.655	73.521	0.169	0.178
-221.640	654.241	0.079	-0.202
-220.625	800.000	-0.008	-0.030
-219.611	-200.000	0.006	-0.031
-218.596	-7.730	0.319	0.216
-217.582	-169.572	-0.100	0.004
-216.567	241.430	-0.148	-0.248
-215.552	-200.000	-0.006	-0.102
-214.538	-200.000	-0.016	0.236
-213.523	-50.462	-0.507	0.240
-212.509	642.275	-0.125	0.320
-211.494	800.000	0.156	-0.476
-210.479	-175.487	0.391	0.011
-209.465	344.109	0.134	0.264
-208.450	-200.000	0.002	0.142
-207.436	-182.750	0.118	-0.002
-206.421	614.928	0.130	0.327
-205.406	-120.224	-0.235	-0.040
-204.392	241.204	0.037	0.061
-203.377	484.157	-0.098	0.222
-202.363	139.664	-0.252	-0.332
-201.348	-29.331	0.268	-0.154
-200.333	-200.000	0.040	-0.450
-199.319	7.393	0.094	0.070
-198.304	-200.000	-0.048	0.227
-197.290	-132.642	-0.402	-0.052
-196.275	-7.263	0.313	0.212
-195.260	101.535	-0.121	0.141
-194.246	160.074	0.152	-0.212
-193.231	800.000	-0.079	-0.317
-192.217	-200.000	-0.011	0.281
-191.202	310.121	0.046	-0.087
-190.187	550.652	-0.097	0.233
-189.173	73.941	0.178	0.187
-188.158	163.876	-0.070	0.098
-187.144	-68.261	-0.427	-0.166
-186.129	40.118	-0.107	-0.096
-185.114	1.540	-0.221	-0.159
-184.100	87.822	0.110	-0.122
-183.085	800.000	-0.021	-0.058
-182.071	800.000	-0.051	-0.177
-181.056	120.326	0.082	-0.102
-180.042	-62.353	0.180	0.075
-179.027	-60.458	-0.098	-0.042
-178.012	-23.954	-0.204	-0.122
-176.998	-4.854	0.256	-0.176
-175.983	800.000	0.049	0.181
-174.969	-200.000	0.017	-0.081
-173.954	-134.081	0.108	0.013
-172.939	-38.902	-0.018	-0.010
-171.925	-11.238	0.142	0.094
-170.910	123.529	0.164	0.206
-169.896	535.083	-0.044	-0.105
-168.881	296.638	-0.079	-0.145
-167.866	-200.000	-0.045	0.223
-166.852	267.292	-0.128	0.224
-165.837	-17.105	0.112	-0.071
-164.823	-16.807	0.227	-0.144
-163.808	136.631	0.077	0.100
-162.793	59.639	-0.075	-0.074
-161.779	-54.742	0.015	-0.007
-160.764	-118.443	0.429	0.076
-159.750	800.000	0.039	0.127
-158.735	-48.241	-0.443	0.214
-157.720	800.000	-0.094	0.331
-156.706	-200.000	-0.002	0.144
-155.691	307.988	-0.191	0.356
-154.677	734.807	0.220	0.589
-153.662	800.000	-0.102	-0.320
-152.647	-58.480	0.176	-0.076
-151.633	12.214	-0.081	-0.063
-150.618	-8.617	-0.278	0.187
-149.604	275.660	0.137	0.243
-148.589	112.850	0.191	0.232
-147.574	800.000	0.129	-0.398
-146.560	800.000	-0.040	0.113
-145.545	-200.000	-0.043	-0.291
-144.531	-47.394	0.244	-0.119
-143.516	489.773	0.155	-0.354
-142.502	-70.332	-0.144	-0.055
-141.487	-99.757	0.254	-0.064
-140.472	800.000	0.003	0.011
-139.458	-200.000	-0.047	-0.508
-138.443	-104.847	-0.384	-0.088
-137.429	-200.000	0.034	0.183
-136.414	800.000	0.090	-0.334
-135.399	-200.000	0.002	0.163
-134.385	-145.845	-0.161	0.014
-133.370	345.303	0.133	-0.262
-132.356	-122.943	-0.458	0.074
-131.341	-60.862	-0.231	-0.098
-130.326	-109.661	0.074	0.016
-129.312	-96.283	-0.155	0.041
-128.297	254.983	-0.098	-0.168
-127.283	800.000	-0.046	-0.171
-126.268	-39.593	-0.187	0.098
-125.253	26.328	0.112	-0.093
-124.239	800.000	0.062	0.222
-123.224	47.574	0.143	0.133
-122.210	160.124	-0.130	-0.182
-121.195	194.894	-0.239	-0.363
-120.180	-200.000	-0.034	0.427
