DTS Sentinel unit serial number:	SN413079Multiplexer serial number:	ORYXHardware model number:	OX4-SRSoftware version number:	ORYX F/W v4.00 Oryx Data Collector v3.7.2.0data status	okinstallation	princeton_trtdifferential loss correction	single-endedforward channel	channel 2reverse channel	N/Adate	2019/09/18time	04:35:34forward acquisition time	60.00reverse acquisition time	0.00gamma	496.2192k internal	0.2348k external	0.2348temperature offset calibration	0.9983default loss term (dB/km)	0.3790temperature slope calibration	1.0000multiplexer offset coefficient	1.0000multiplexer slope coefficient	1.0000fibre end	0.00T internal ref (°C)	23.41T ext. ref 1 (°C)	0.18T ext. ref 2 (°C)	17.65length (m)	temperature (°C)	Stokes	anti-Stokes-747.200	4.924	0.176	0.129
-746.185	-200.000	0.038	0.216
-745.171	-130.062	0.411	-0.056
-744.156	-84.628	-0.260	0.082
-743.142	-200.000	-0.034	0.181
-742.127	-200.000	0.021	0.252
-741.112	-126.299	-0.121	-0.018
-740.098	468.412	-0.113	0.253
-739.083	125.155	-0.045	0.056
-738.069	-67.297	-0.227	0.089
-737.054	-150.455	0.039	0.003
-736.039	-12.630	-0.322	-0.210
-735.025	178.625	-0.084	0.123
-734.010	164.021	0.072	0.101
-732.996	167.121	-0.145	-0.206
-731.981	-12.517	-0.267	-0.174
-730.966	64.309	0.223	-0.225
-729.952	-200.000	-0.021	-0.126
-728.937	-200.000	0.022	0.103
-727.923	-106.404	0.210	-0.047
-726.908	-170.027	-0.169	-0.006
-725.894	-30.944	0.256	0.145
-724.879	-157.474	-0.270	0.016
-723.864	-200.000	0.016	-0.208
-722.850	67.098	-0.047	-0.048
-721.835	6.238	-0.174	0.129
-720.821	697.059	-0.065	-0.171
-719.806	-84.088	-0.286	-0.091
-718.791	300.448	0.157	-0.288
-717.777	-200.000	-0.004	0.057
-716.762	-160.392	-0.049	-0.003
-715.748	288.286	-0.112	0.203
-714.733	-82.959	0.226	-0.073
-713.718	-62.849	-0.266	-0.110
-712.704	38.086	0.120	0.106
-711.689	612.950	0.070	-0.174
-710.675	712.051	-0.052	-0.138
-709.660	-88.139	-0.150	0.045
-708.645	-120.528	0.359	0.061
-707.631	-27.047	-0.228	-0.133
-706.616	414.217	-0.072	-0.154
-705.602	-39.862	0.321	-0.167
-704.587	426.809	0.076	0.163
-703.572	217.440	-0.070	-0.111
-702.558	616.320	-0.087	0.217
-701.543	-15.075	0.264	-0.169
-700.529	-126.642	-0.128	0.019
-699.514	-188.659	-0.268	0.003
-698.499	-132.529	-0.148	-0.019
-697.485	139.030	-0.137	0.179
-696.470	140.305	-0.070	-0.092
-695.456	274.636	0.165	-0.291
-694.441	36.961	0.145	-0.128
-693.426	50.316	-0.068	0.064
-692.412	-135.253	-0.155	-0.018
-691.397	403.468	0.051	-0.108
-690.383	800.000	0.049	-0.149
-689.368	353.141	-0.155	-0.306
-688.354	-200.000	-0.044	-0.531
-687.339	-87.067	0.303	0.092
-686.324	-45.664	-0.220	0.108
-685.310	-200.000	-0.039	-0.365
-684.295	-200.000	-0.083	-0.405
-683.281	-200.000	0.021	-0.108
-682.266	-200.000	-0.071	0.348
-681.251	34.226	0.120	-0.104
-680.237	103.050	0.139	0.162
-679.222	800.000	-0.105	0.312
-678.208	800.000	0.016	-0.046
-677.193	-200.000	0.012	-0.079
-676.178	175.944	0.133	0.192
-675.164	-200.000	0.068	0.398
-674.149	-8.642	0.062	-0.042
-673.135	-200.000	-0.031	-0.156
-672.120	247.407	-0.026	-0.044
-671.105	-63.199	-0.218	-0.090
-670.091	-92.436	0.127	-0.036
-669.076	-92.658	-0.045	0.012
-668.062	167.370	0.112	-0.158
-667.047	172.422	-0.183	-0.262
-666.032	11.771	0.374	-0.286
-665.018	687.704	-0.039	-0.102
-664.003	-115.140	-0.189	0.036
-662.989	172.360	0.082	0.118
-661.974	800.000	-0.143	-0.405
-660.959	-200.000	0.021	-0.199
-659.945	280.608	-0.086	0.153
-658.930	-131.785	0.135	-0.018
-657.916	-62.879	0.266	0.110
-656.901	-29.227	-0.093	-0.053
-655.886	-140.695	0.218	0.022
-654.872	-101.483	-0.231	0.056
-653.857	210.033	-0.141	0.221
-652.843	-159.810	-0.075	-0.004
-651.828	-200.000	0.003	-0.562
-650.814	198.915	0.061	-0.094
-649.799	630.492	-0.074	-0.187
-648.784	422.788	-0.034	0.073
-647.770	344.689	-0.105	0.205
-646.755	371.281	0.096	0.194
-645.741	-200.000	-0.009	0.397
-644.726	-40.995	0.134	-0.069
-643.711	155.644	0.215	-0.295
-642.697	106.696	0.018	0.021
-641.682	-200.000	0.024	0.111
-640.668	-200.000	-0.019	-0.254
-639.653	15.861	-0.216	-0.169
-638.638	800.000	0.044	-0.153
-637.624	6.292	0.104	0.076
-636.609	800.000	-0.063	-0.256
-635.595	-200.000	-0.029	-0.254
-634.580	107.318	-0.103	-0.122
-633.565	-200.000	0.014	0.179
-632.551	-200.000	0.028	-0.351
-631.536	-100.829	-0.261	-0.064
-630.522	-200.000	-0.020	-0.219
-629.507	38.792	0.205	-0.182
-628.492	800.000	-0.137	-0.430
-627.478	800.000	-0.092	0.380
-626.463	800.000	-0.087	0.260
-625.449	-79.359	0.164	0.055
-624.434	-167.476	-0.189	-0.008
-623.419	75.426	-0.145	0.152
-622.405	-92.069	-0.146	0.041
-621.390	800.000	-0.172	0.505
-620.376	800.000	-0.036	-0.156
-619.361	-24.868	-0.237	0.140
-618.346	-41.962	-0.133	0.068
-617.332	-200.000	-0.013	0.159
-616.317	800.000	0.036	0.149
-615.303	-18.762	-0.217	-0.134
-614.288	752.966	-0.016	0.043
-613.273	32.740	-0.180	0.155
-612.259	800.000	0.063	-0.175
-611.244	-200.000	0.002	-0.091
-610.230	447.385	0.059	-0.128
-609.215	77.170	-0.130	0.137
-608.201	-45.833	0.144	0.071
-607.186	800.000	0.036	-0.147
-606.171	-200.000	-0.005	-0.082
-605.157	-123.213	-0.315	0.050
-604.142	-28.415	0.121	0.069
-603.128	-165.136	-0.176	0.008
-602.113	-137.815	0.087	0.010
-601.098	-82.145	-0.660	0.214
-600.084	800.000	0.100	0.279
-599.069	-171.923	-0.268	0.009
-598.055	-200.000	0.009	-0.300
-597.040	74.282	-0.110	0.115
-596.025	181.860	-0.125	-0.182
-595.011	-103.744	-0.338	0.079
-593.996	683.694	-0.051	0.132
-592.982	-27.282	0.133	0.077
-591.967	261.561	-0.117	0.202
-590.952	-200.000	-0.025	0.443
-589.938	800.000	-0.067	0.210
-588.923	228.907	-0.111	-0.180
-587.909	274.506	0.103	0.182
-586.894	-25.307	0.141	-0.083
-585.879	800.000	0.052	-0.192
-584.865	25.765	0.247	0.204
-583.850	53.238	0.175	-0.167
-582.836	380.083	0.053	-0.108
-581.821	33.626	-0.232	0.201
-580.806	-200.000	-0.078	0.348
-579.792	154.762	0.068	0.093
-578.777	-77.767	-0.151	0.052
-577.763	212.247	-0.150	-0.235
-576.748	-170.462	-0.130	0.005
-575.733	-10.333	-0.278	0.183
-574.719	106.511	-0.186	-0.218
-573.704	583.035	-0.080	0.195
-572.690	-95.908	-0.141	0.037
-571.675	27.566	-0.389	0.325
-570.661	16.062	0.196	-0.153
-569.646	-4.925	0.157	0.107
-568.631	-200.000	-0.024	-0.191
-567.617	266.837	-0.036	-0.063
-566.602	319.036	-0.199	-0.374
-565.588	20.954	-0.164	-0.132
-564.573	-46.981	0.120	-0.058
-563.558	-200.000	-0.023	-0.486
-562.544	-103.692	0.173	-0.040
-561.529	-200.000	0.014	-0.164
-560.515	283.398	-0.014	-0.025
-559.500	7.110	-0.297	0.220
-558.485	-11.139	0.204	0.133
-557.471	-77.633	0.090	0.031
-556.456	-200.000	-0.001	0.192
-555.442	800.000	0.095	-0.318
-554.427	53.311	-0.073	-0.070
-553.412	-18.866	-0.414	0.256
-552.398	-150.938	0.228	0.017
-551.383	-34.495	-0.197	0.107
-550.369	-165.982	-0.362	0.015
-549.354	69.403	-0.183	0.187
-548.339	800.000	-0.070	-0.281
-547.325	170.219	0.182	0.258
-546.310	-163.739	-0.263	-0.012
-545.296	-200.000	0.019	0.366
-544.281	67.759	-0.051	-0.051
-543.266	-155.524	0.121	0.008
-542.252	0.762	-0.141	-0.100
-541.237	-102.089	-0.098	0.023
-540.223	511.706	0.132	-0.304
-539.208	275.725	-0.153	0.269
-538.193	619.976	0.064	0.160
-537.179	90.443	0.110	-0.122
-536.164	426.619	-0.058	0.123
-535.150	205.457	-0.044	0.067
-534.135	192.287	-0.078	-0.116
-533.121	800.000	0.074	0.224
-532.106	7.528	0.195	-0.145
-531.091	478.913	-0.161	0.360
-530.077	-14.294	-0.128	0.082
-529.062	-105.440	-0.078	-0.017
-528.048	135.913	-0.117	0.151
-527.033	-52.279	0.205	0.094
-526.018	220.081	-0.029	-0.046
-525.004	-111.548	-0.128	-0.026
-523.989	125.317	0.170	0.213
-522.975	-59.889	-0.343	0.145
-521.960	-0.683	-0.194	0.136
-520.945	-160.583	0.270	0.014
-519.931	-200.000	-0.009	0.069
-518.916	-200.000	0.059	-0.331
-517.902	24.825	-0.108	0.089
-516.887	-200.000	0.029	0.143
-515.872	452.255	0.115	0.253
-514.858	299.071	-0.020	-0.036
-513.843	548.749	-0.028	-0.068
-512.829	-101.805	0.163	0.039
-511.814	-56.424	-0.227	0.100
-510.799	-200.000	0.019	-0.427
-509.785	-61.622	-0.061	-0.025
-508.770	-110.133	-0.173	-0.036
-507.756	-200.000	0.021	0.192
-506.741	-79.200	-0.139	0.047
-505.726	87.324	-0.228	0.250
-504.712	-112.025	0.101	0.020
-503.697	-200.000	-0.026	-0.322
-502.683	-120.025	0.106	0.018
-501.668	-60.826	0.111	0.046
-500.653	-200.000	0.026	-0.161
-499.639	199.909	0.233	-0.354
-498.624	-200.000	-0.058	-0.274
-497.610	426.071	-0.061	-0.130
-496.595	50.907	-0.137	0.128
-495.581	51.809	0.095	-0.090
-494.566	800.000	-0.075	-0.230
-493.551	-41.207	-0.091	0.046
-492.537	285.694	-0.033	-0.058
-491.522	32.188	-0.144	0.123
-490.508	-72.977	0.150	0.055
-489.493	240.448	0.186	-0.307
-488.478	-200.000	0.020	-0.171
-487.464	43.502	-0.202	-0.183
-486.449	-200.000	-0.031	-0.152
-485.435	481.946	-0.062	0.140
-484.420	-155.568	-0.089	0.006
-483.405	800.000	-0.084	-0.290
-482.391	-200.000	-0.026	0.278
-481.376	-35.554	0.386	0.207
-480.362	44.094	-0.161	-0.146
-479.347	-8.463	-0.057	-0.038
-478.332	28.238	-0.177	-0.148
-477.318	-115.951	0.269	0.050
-476.303	-67.714	0.282	0.109
-475.289	800.000	0.051	0.147
-474.274	209.620	-0.066	-0.102
-473.259	800.000	0.030	0.095
-472.245	-63.656	-0.147	-0.060
-471.230	-179.362	-0.050	0.001
-470.216	198.996	-0.018	0.027
-469.201	-200.000	0.032	0.172
-468.186	-154.551	0.169	0.011
-467.172	-33.797	-0.096	-0.052
-466.157	-11.689	-0.338	0.219
-465.143	-57.497	-0.118	-0.051
-464.128	541.845	-0.199	-0.469
-463.113	-200.000	0.055	-0.241
-462.099	-200.000	0.039	0.283
-461.084	800.000	-0.026	0.113
-460.070	12.622	-0.096	0.073
-459.055	-75.923	0.403	0.141
-458.040	-200.000	0.032	0.147
-457.026	-69.849	-0.343	0.129
-456.011	-173.835	0.389	-0.011
-454.997	288.880	-0.057	-0.102
-453.982	-200.000	0.036	-0.263
-452.968	-138.241	-0.300	0.033
-451.953	-103.375	0.469	-0.109
-450.938	-200.000	-0.019	0.130
-449.924	257.059	0.122	-0.207
-448.909	12.843	-0.070	-0.053
-447.895	40.068	0.051	-0.045
-446.880	-200.000	0.026	-0.127
-445.865	-57.177	-0.184	-0.080
-444.851	-106.672	0.355	0.078
-443.836	372.859	-0.098	0.198
-442.822	-200.000	0.005	-0.142
-441.807	345.811	-0.189	0.366
-440.792	-101.428	0.099	0.024
-439.778	-200.000	0.009	-0.147
-438.763	800.000	-0.050	0.145
-437.749	-168.986	-0.166	0.006
-436.734	-71.286	0.353	-0.131
-435.719	-40.906	-0.311	0.159
-434.705	-105.122	0.083	-0.019
-433.690	800.000	-0.047	-0.193
-432.676	-36.007	0.156	0.083
-431.661	800.000	-0.055	-0.153
-430.646	19.877	-0.153	-0.122
-429.632	-37.591	0.230	-0.121
-428.617	-16.466	0.231	-0.144
-427.603	189.862	-0.168	0.249
-426.588	-89.816	-0.455	-0.131
-425.573	-57.448	-0.235	0.102
-424.559	-81.959	0.084	-0.027
-423.544	-55.131	0.330	-0.146
-422.530	-200.000	-0.009	0.315
-421.515	-27.719	-0.261	0.149
-420.500	-100.142	-0.215	-0.053
-419.486	-193.581	0.145	0.001
-418.471	-46.777	0.072	-0.035
-417.457	433.612	-0.037	-0.079
-416.442	-84.498	-0.436	0.136
-415.428	800.000	-0.064	0.212
-414.413	-200.000	0.036	-0.177
-413.398	-75.034	-0.211	-0.075
-412.384	65.748	-0.187	0.186
-411.369	-200.000	0.076	0.328
-410.355	-46.230	-0.147	0.071
-409.340	775.480	0.074	0.199
-408.325	-141.874	-0.087	-0.009
-407.311	544.233	0.099	0.232
-406.296	800.000	-0.063	-0.216
-405.282	800.000	0.045	-0.187
-404.267	-61.304	-0.173	0.072
-403.252	-200.000	0.042	0.232
-402.238	-99.226	-0.062	0.015
-401.223	365.382	-0.071	-0.140
-400.209	595.845	-0.055	0.135
-399.194	226.627	-0.045	0.071
-398.179	8.369	0.250	0.185
-397.165	-200.000	-0.007	-0.123
-396.150	-196.301	-0.319	-0.002
-395.136	390.229	0.136	0.279
-394.121	257.796	0.072	-0.122
-393.106	-200.000	0.010	-0.113
-392.092	65.403	-0.194	0.193
-391.077	65.289	-0.087	-0.087
-390.063	197.348	0.042	-0.064
-389.048	-96.563	0.182	0.047
-388.033	-104.367	0.473	0.108
-387.019	-90.104	0.471	0.135
-386.004	79.944	-0.220	-0.233
-384.990	-78.984	-0.119	-0.040
-383.975	638.729	-0.064	0.161
-382.960	55.267	-0.213	-0.203
-381.946	-38.530	0.121	0.063
-380.931	800.000	-0.038	-0.136
-379.917	-5.003	0.304	-0.207
-378.902	-53.494	0.220	0.099
-377.888	-200.000	-0.048	0.313
-376.873	-150.385	0.422	-0.032
-375.858	-145.900	0.232	-0.020
-374.844	-161.006	0.315	-0.016
-373.829	216.021	-0.220	-0.344
-372.815	-30.365	0.190	-0.106
-371.800	3.353	0.122	-0.088
-370.785	82.094	-0.224	-0.240
-369.771	-149.592	0.093	-0.007
-368.756	1.205	-0.153	-0.108
-367.742	-129.932	0.397	0.054
-366.727	-14.326	0.201	0.128
-365.712	-46.541	-0.149	0.072
-364.698	800.000	-0.027	0.076
-363.683	478.351	-0.086	-0.191
-362.669	92.068	0.315	0.350
-361.654	800.000	0.033	-0.107
-360.639	-200.000	-0.082	-0.434
-359.625	15.106	0.038	0.029
-358.610	-200.000	-0.030	-0.135
-357.596	-200.000	0.043	-0.394
-356.581	-30.742	-0.142	0.079
-355.566	280.801	-0.133	0.234
-354.552	202.947	0.099	0.150
-353.537	-154.497	0.046	-0.003
-352.523	-200.000	0.009	0.180
-351.508	-21.347	0.170	0.102
-350.493	46.089	0.128	-0.116
-349.479	-200.000	-0.001	-0.059
-348.464	20.757	-0.233	-0.185
-347.450	90.343	0.083	-0.092
-346.435	175.764	0.094	-0.134
-345.420	-200.000	0.020	-0.153
-344.406	79.391	0.070	0.074
-343.391	218.178	0.098	0.155
-342.377	116.444	0.161	0.194
-341.362	280.069	0.121	0.212
-340.348	-144.193	0.184	0.017
-339.333	-58.917	0.090	-0.038
-338.318	325.268	0.100	-0.189
-337.304	167.050	0.149	-0.207
-336.289	129.861	-0.185	0.233
-335.275	-61.017	-0.117	-0.049
-334.260	340.571	-0.127	-0.243
-333.245	285.587	-0.043	-0.076
-332.231	84.724	-0.219	0.236
-331.216	-200.000	-0.013	-0.242
-330.202	-193.979	0.168	0.001
-329.187	47.670	-0.134	0.123
-328.172	-69.361	-0.313	-0.118
-327.158	-132.057	0.089	-0.011
-326.143	-0.214	0.093	-0.065
-325.129	-145.711	-0.023	-0.002
-324.114	337.600	0.046	0.087
-323.099	13.114	0.215	-0.164
-322.085	-143.328	-0.332	-0.031
-321.070	248.969	-0.054	0.090
-320.056	-200.000	0.028	-0.216
-319.041	-158.720	0.378	-0.021
-318.026	189.655	-0.154	0.227
-317.012	489.911	0.027	0.061
-315.997	-79.319	-0.187	0.062
-314.983	56.532	0.169	0.162
-313.968	73.048	0.212	-0.218
-312.953	-81.737	0.187	-0.060
-311.939	-200.000	0.005	-0.064
-310.924	267.797	0.092	-0.159
-309.910	-200.000	0.050	-0.233
-308.895	270.702	-0.175	0.303
-307.880	193.890	0.199	-0.297
-306.866	199.923	-0.007	0.010
-305.851	166.001	-0.193	0.269
-304.837	650.394	-0.150	-0.378
-303.822	325.627	0.058	0.109
-302.807	-162.995	0.304	0.014
-301.793	39.229	-0.154	-0.136
-300.778	94.949	0.202	0.226
-299.764	-200.000	0.056	-0.292
-298.749	86.019	0.137	-0.148
-297.735	-200.000	0.004	0.038
-296.720	58.230	-0.058	0.056
-295.705	-200.000	-0.037	0.192
-294.691	32.118	-0.356	0.301
-293.676	233.420	0.093	0.150
-292.662	23.315	0.128	-0.104
-291.647	428.030	-0.052	-0.111
-290.632	77.532	-0.100	0.105
-289.618	-142.637	-0.064	0.006
-288.603	-53.838	0.245	-0.110
-287.589	-200.000	0.032	-0.249
-286.574	12.355	-0.124	-0.094
-285.559	-108.124	0.143	0.030
-284.545	-159.911	-0.164	0.009
-283.530	-65.490	0.061	-0.024
-282.516	75.159	0.255	0.264
-281.501	-8.373	0.121	-0.080
-280.486	-3.161	0.196	-0.134
-279.472	16.319	-0.164	-0.127
-278.457	-59.850	0.135	-0.057
-277.443	800.000	0.039	0.167
-276.428	-46.973	0.347	0.166
-275.413	-200.000	-0.036	-0.264
-274.399	367.570	-0.068	-0.134
-273.384	-200.000	0.031	-0.203
-272.370	800.000	0.093	-0.330
-271.355	-18.215	0.202	0.124
-270.340	143.632	0.137	0.179
-269.326	-142.831	-0.384	0.037
-268.311	-103.204	0.231	0.054
-267.297	-14.839	0.411	0.259
-266.282	-86.190	0.158	-0.048
-265.267	-200.000	0.064	0.293
-264.253	18.937	0.067	0.053
-263.238	33.075	0.067	-0.057
-262.224	-153.726	0.329	0.022
-261.209	257.420	0.139	0.235
-260.195	-56.792	0.289	0.125
-259.180	82.465	-0.160	0.171
-258.165	166.168	-0.113	0.157
-257.151	171.872	0.077	0.108
-256.136	42.394	-0.100	-0.089
-255.122	20.735	0.100	0.079
-254.107	800.000	0.081	-0.281
-253.092	-71.831	-0.149	0.054
-252.078	351.960	-0.124	-0.240
-251.063	800.000	-0.057	-0.177
-250.049	-140.059	0.237	-0.024
-249.034	93.956	-0.262	0.291
-248.019	41.364	0.112	0.099
-247.005	-122.617	0.342	-0.054
-245.990	62.011	0.106	0.104
-244.976	-200.000	0.023	0.337
-243.961	152.421	-0.163	0.217
-242.946	470.564	0.076	0.168
-241.932	-200.000	0.022	-0.247
-240.917	800.000	0.151	-0.453
-239.903	67.542	0.143	0.143
-238.888	-101.586	0.273	0.065
-237.873	172.445	-0.195	-0.275
-236.859	183.235	-0.072	-0.105
-235.844	-60.978	0.435	0.180
-234.830	359.364	0.225	-0.441
-233.815	87.931	0.166	0.181
-232.800	-53.776	0.237	0.106
-231.786	-200.000	-0.056	0.443
-230.771	342.160	0.115	0.221
-229.757	800.000	0.130	-0.438
-228.742	-54.723	0.033	0.015
-227.727	436.101	0.191	-0.408
-226.713	-54.713	0.169	-0.075
-225.698	-61.286	0.316	0.130
-224.684	311.633	-0.144	0.265
-223.669	-186.398	-0.048	-0.001
-222.655	-132.201	-0.382	0.049
-221.640	-135.412	0.314	-0.037
-220.625	296.100	-0.168	-0.302
-219.611	-64.485	0.211	0.084
-218.596	261.759	-0.097	0.165
-217.582	393.022	-0.030	0.061
-216.567	103.275	0.103	-0.118
-215.552	800.000	0.047	-0.174
-214.538	-128.165	-0.083	-0.012
-213.523	-121.228	0.172	-0.028
-212.509	800.000	0.088	-0.333
-211.494	32.496	0.075	0.064
-210.479	-200.000	-0.031	0.186
-209.465	800.000	0.072	-0.257
-208.450	-200.000	0.001	0.179
-207.436	272.233	0.087	0.150
-206.421	800.000	0.124	0.391
-205.406	-103.456	-0.226	-0.052
-204.392	800.000	-0.037	-0.156
-203.377	-200.000	-0.038	-0.178
-202.363	126.743	0.047	0.058
-201.348	-57.928	-0.213	0.091
-200.333	16.746	-0.163	-0.126
-199.319	-59.744	-0.331	0.139
-198.304	-7.994	-0.187	0.123
-197.290	-8.762	-0.266	-0.174
-196.275	113.566	-0.031	0.037
-195.260	205.576	0.239	-0.364
-194.246	-200.000	0.030	-0.333
-193.231	116.658	0.112	0.134
-192.217	-137.497	-0.366	-0.040
-191.202	69.340	-0.080	0.081
-190.187	-159.455	-0.356	-0.019
-189.173	-97.010	-0.356	0.091
-188.158	145.586	0.049	0.065
-187.144	-200.000	0.003	-0.190
-186.129	-98.407	0.076	0.019
-185.114	-48.843	0.180	-0.085
-184.100	18.562	-0.209	-0.164
-183.085	11.751	0.037	-0.028
-182.071	-200.000	-0.021	-0.170
-181.056	-119.156	0.156	-0.027
-180.042	-84.040	0.112	0.035
-179.027	36.849	-0.160	-0.138
-178.012	177.854	0.173	-0.246
-176.998	95.328	0.161	-0.179
-175.983	-102.916	0.239	0.056
-174.969	619.221	0.089	-0.220
-173.954	307.149	0.130	-0.236
-172.939	523.255	-0.101	0.233
-171.925	-111.129	0.197	-0.039
-170.910	-35.754	-0.099	-0.052
-169.896	47.509	-0.191	-0.174
-168.881	-200.000	0.013	0.230
-167.866	220.034	0.096	0.151
-166.852	169.974	-0.225	0.314
-165.837	270.235	0.140	0.241
-164.823	-200.000	0.044	-0.271
-163.808	-200.000	-0.045	0.329
-162.793	-4.742	-0.305	0.206
-161.779	-164.128	0.360	-0.016
-160.764	-100.845	0.029	-0.007
-159.750	800.000	0.056	0.237
-158.735	-38.268	-0.252	-0.130
-157.720	82.467	0.082	-0.087
-156.706	126.518	-0.313	0.387
-155.691	60.204	0.286	0.276
-154.677	82.794	0.309	-0.328
-153.662	134.465	0.213	0.270
-152.647	-46.060	-0.267	-0.128
-151.633	-200.000	0.052	-0.286
-150.618	-8.974	-0.131	0.085
-149.604	337.023	-0.101	0.191
-148.589	-171.249	0.138	-0.005
-147.574	195.215	0.173	-0.257
-146.560	230.070	-0.102	-0.162
-145.545	-16.540	-0.519	0.321
-144.531	-80.557	0.208	-0.068
-143.516	26.510	-0.309	-0.253
-142.502	-199.654	0.219	0.001
-141.487	-200.000	0.005	0.085
-140.472	623.327	0.114	0.281
-139.458	503.497	0.105	0.238
-138.443	800.000	0.078	0.303
-137.429	-28.045	-0.245	-0.138
-136.414	800.000	-0.086	-0.344
-135.399	94.079	-0.080	-0.089
-134.385	-98.613	0.503	0.125
-133.370	207.780	-0.229	0.349
-132.356	7.343	-0.250	-0.182
-131.341	-10.111	-0.217	0.140
-130.326	38.059	-0.182	0.158
-129.312	408.206	-0.128	0.265
-128.297	-200.000	0.024	0.124
-127.283	35.707	-0.230	0.197
-126.268	-96.553	-0.174	-0.045
-125.253	23.374	0.111	-0.089
-124.239	-0.422	0.195	-0.135
-123.224	43.570	-0.215	0.191
-122.210	-142.999	0.280	0.026
-121.195	56.014	-0.221	-0.209
