DTS Sentinel unit serial number:	SN413079Multiplexer serial number:	ORYXHardware model number:	OX4-SRSoftware version number:	ORYX F/W v4.00 Oryx Data Collector v3.7.2.0data status	okinstallation	princeton_trtdifferential loss correction	single-endedforward channel	channel 2reverse channel	N/Adate	2019/09/18time	21:39:34forward acquisition time	60.00reverse acquisition time	0.00gamma	496.2192k internal	0.2346k external	0.2346temperature offset calibration	1.0018default loss term (dB/km)	0.3790temperature slope calibration	1.0000multiplexer offset coefficient	1.0000multiplexer slope coefficient	1.0000fibre end	0.00T internal ref (°C)	25.00T ext. ref 1 (°C)	0.82T ext. ref 2 (°C)	18.33length (m)	temperature (°C)	Stokes	anti-Stokes-747.200	87.690	0.154	-0.171
-746.185	753.893	0.134	0.361
-745.171	-111.040	-0.031	0.006
-744.156	14.965	-0.136	0.106
-743.142	25.323	-0.161	0.134
-742.127	166.151	-0.112	0.159
-741.112	37.008	0.235	0.208
-740.098	77.882	-0.114	-0.121
-739.083	-53.932	0.259	-0.118
-738.069	456.592	-0.140	0.310
-737.054	-137.051	0.205	-0.023
-736.039	-189.043	-0.424	0.005
-735.025	73.439	0.218	-0.228
-734.010	-156.182	-0.316	0.020
-732.996	-61.910	-0.263	-0.110
-731.981	793.304	-0.083	-0.227
-730.966	-200.000	0.049	-0.370
-729.952	-76.679	-0.197	-0.069
-728.937	-38.520	0.152	0.080
-727.923	-200.000	-0.030	-0.233
-726.908	-34.091	0.109	-0.060
-725.894	22.413	-0.343	-0.280
-724.879	75.329	0.053	-0.055
-723.864	-21.110	-0.343	0.209
-722.850	140.365	0.371	-0.489
-721.835	-160.629	0.060	-0.003
-720.821	19.023	0.055	-0.044
-719.806	259.980	-0.021	-0.035
-718.791	-200.000	-0.005	-0.070
-717.777	-0.022	-0.223	0.159
-716.762	447.630	0.078	-0.171
-715.748	35.971	-0.144	-0.127
-714.733	-200.000	0.004	-0.028
-713.718	800.000	0.052	0.176
-712.704	-200.000	0.001	0.349
-711.689	-70.622	0.174	0.066
-710.675	-141.159	0.205	-0.021
-709.660	-200.000	-0.003	0.144
-708.645	-173.821	0.256	-0.008
-707.631	800.000	-0.078	-0.276
-706.616	-127.950	0.055	0.008
-705.602	69.775	-0.076	0.078
-704.587	-97.507	0.255	0.066
-703.572	40.632	0.184	0.166
-702.558	17.128	-0.231	-0.183
-701.543	-111.877	-0.109	-0.022
-700.529	-125.513	0.241	-0.037
-699.514	800.000	-0.073	0.208
-698.499	20.697	-0.121	0.098
-697.485	-90.293	-0.327	-0.095
-696.470	-105.577	-0.185	-0.042
-695.456	800.000	0.015	0.057
-694.441	45.378	0.157	-0.145
-693.426	195.931	-0.035	0.053
-692.412	800.000	-0.107	-0.298
-691.397	1.355	0.209	-0.150
-690.383	800.000	0.058	0.174
-689.368	163.158	0.022	-0.032
-688.354	193.133	0.152	0.230
-687.339	102.374	-0.083	0.097
-686.324	22.491	-0.181	-0.147
-685.310	-200.000	0.024	-0.136
-684.295	-63.851	-0.058	0.024
-683.281	800.000	-0.079	-0.305
-682.266	-141.972	0.074	0.007
-681.251	32.138	-0.252	-0.217
-680.237	3.500	0.247	0.180
-679.222	-200.000	-0.023	-0.240
-678.208	28.586	-0.219	-0.184
-677.193	-16.698	0.349	0.220
-676.178	-6.310	-0.245	-0.167
-675.164	31.171	-0.279	-0.239
-674.149	-93.863	-0.287	-0.079
-673.135	-87.902	0.177	-0.053
-672.120	16.121	0.129	-0.102
-671.105	222.896	0.087	-0.140
-670.091	800.000	-0.097	-0.279
-669.076	-35.813	0.215	0.116
-668.062	92.887	0.110	-0.123
-667.047	-200.000	0.008	-0.058
-666.032	-112.945	0.222	0.044
-665.018	800.000	0.137	-0.394
-664.003	-66.761	0.169	0.067
-662.989	-31.994	-0.228	-0.127
-661.974	-133.308	0.523	0.066
-660.959	458.935	-0.175	0.388
-659.945	-14.614	-0.355	0.227
-658.930	-109.811	-0.055	0.011
-657.916	261.538	0.120	0.207
-656.901	-200.000	-0.027	-0.300
-655.886	-200.000	0.014	-0.194
-654.872	0.562	0.102	-0.073
-653.857	9.907	0.206	-0.156
-652.843	268.208	-0.062	0.108
-651.828	262.932	0.066	0.114
-650.814	250.785	-0.094	-0.159
-649.799	79.323	0.129	-0.138
-648.784	129.469	-0.200	-0.255
-647.770	36.728	0.236	-0.208
-646.755	-176.511	-0.235	-0.006
-645.741	-200.000	-0.004	-0.262
-644.726	-102.058	0.082	-0.020
-643.711	100.810	0.086	0.099
-642.697	59.529	-0.107	0.105
-641.682	13.789	0.086	0.067
-640.668	-82.902	-0.439	0.141
-639.653	-200.000	-0.015	0.246
-638.638	628.209	0.063	-0.159
-637.624	-200.000	0.208	-0.001
-636.609	-102.795	0.091	-0.022
-635.595	-70.127	-0.239	0.091
-634.580	-38.378	0.041	0.022
-633.565	109.129	-0.008	0.009
-632.551	-91.627	0.405	-0.115
-631.536	-119.103	-0.257	-0.045
-630.522	-200.000	0.019	-0.283
-629.507	-200.000	-0.014	-0.296
-628.492	125.746	0.236	-0.297
-627.478	-58.687	-0.339	0.146
-626.463	-115.358	0.382	0.072
-625.449	52.093	0.112	-0.106
-624.434	733.702	0.074	0.197
-623.419	-104.478	-0.423	-0.097
-622.405	730.276	-0.252	-0.671
-621.390	-30.228	-0.403	-0.228
-620.376	-200.000	-0.088	-0.404
-619.361	-6.698	-0.065	-0.044
-618.346	-174.074	-0.139	0.004
-617.332	77.227	-0.025	0.027
-616.317	-74.491	-0.230	0.082
-615.303	-140.310	-0.164	-0.017
-614.288	800.000	0.066	-0.239
-613.273	-34.596	0.328	0.179
-612.259	105.119	0.055	-0.064
-611.244	-39.163	0.072	-0.038
-610.230	-200.000	0.002	0.269
-609.215	6.193	-0.361	0.266
-608.201	9.373	-0.120	0.090
-607.186	800.000	-0.044	0.146
-606.171	800.000	0.072	-0.228
-605.157	437.458	-0.124	-0.270
-604.142	283.465	0.158	-0.282
-603.128	-13.193	0.426	0.275
-602.113	-109.941	0.230	0.048
-601.098	-200.000	0.072	-0.520
-600.084	-200.000	0.031	-0.313
-599.069	-105.519	0.169	-0.038
-598.055	-97.607	-0.376	-0.097
-597.040	298.955	-0.016	-0.029
-596.025	-137.263	0.313	-0.035
-595.011	-24.246	0.076	-0.045
-593.996	753.123	0.080	0.215
-592.982	-115.422	-0.241	0.045
-591.967	343.237	-0.054	0.106
-590.952	-127.228	-0.196	0.028
-589.938	-14.516	0.157	0.100
-588.923	254.693	-0.111	-0.189
-587.909	-200.000	0.002	-0.119
-586.894	-72.752	-0.168	0.062
-585.879	104.824	-0.237	0.277
-584.865	800.000	0.132	0.386
-583.850	-200.000	0.028	0.237
-582.836	-49.545	-0.117	-0.055
-581.821	-87.425	-0.136	-0.041
-580.806	160.893	-0.036	-0.050
-579.792	66.022	0.178	0.179
-578.777	227.512	-0.156	0.253
-577.763	-123.161	0.095	-0.015
-576.748	460.627	0.059	-0.130
-575.733	-200.000	0.026	0.266
-574.719	347.498	0.133	-0.259
-573.704	48.534	-0.105	0.098
-572.690	-200.000	-0.024	0.242
-571.675	800.000	-0.036	0.134
-570.661	-77.349	0.116	0.040
-569.646	-117.318	0.189	-0.034
-568.631	-37.135	-0.119	0.063
-567.617	-36.301	-0.178	-0.095
-566.602	-200.000	0.059	0.268
-565.588	-200.000	0.024	0.203
-564.573	3.746	-0.254	0.184
-563.558	-54.129	0.141	0.064
-562.544	-15.869	0.107	-0.068
-561.529	270.166	-0.140	-0.244
-560.515	800.000	-0.061	0.207
-559.500	-3.637	-0.265	0.183
-558.485	-32.206	-0.340	0.188
-557.471	-107.296	0.225	-0.049
-556.456	-22.159	0.404	-0.243
-555.442	186.630	0.117	0.173
-554.427	-200.000	-0.048	0.476
-553.412	32.907	0.167	0.144
-552.398	299.249	-0.030	0.056
-551.383	-200.000	-0.003	0.079
-550.369	-98.612	0.275	-0.070
-549.354	104.949	0.155	0.182
-548.339	-13.748	-0.153	0.098
-547.325	100.317	0.084	-0.097
-546.310	-200.000	-0.021	-0.107
-545.296	800.000	-0.110	0.378
-544.281	-22.625	0.038	-0.023
-543.266	-200.000	0.040	-0.190
-542.252	-143.840	0.255	0.024
-541.237	-200.000	-0.031	0.171
-540.223	-19.727	-0.498	0.305
-539.208	-82.584	0.214	0.069
-538.193	124.415	0.087	0.108
-537.179	35.108	-0.116	-0.101
-536.164	94.842	0.123	-0.138
-535.150	0.447	-0.129	0.091
-534.135	-51.948	-0.165	0.076
-533.121	-45.651	0.145	-0.071
-532.106	241.740	0.113	0.187
-531.091	-114.586	0.129	0.025
-530.077	32.916	0.157	0.135
-529.062	324.229	0.168	0.319
-528.048	105.268	-0.063	0.074
-527.033	-22.266	0.115	-0.069
-526.018	-163.227	0.439	0.021
-525.004	348.736	-0.126	0.246
-523.989	-200.000	0.006	-0.259
-522.975	-200.000	0.006	-0.030
-521.960	100.321	0.219	0.252
-520.945	800.000	-0.077	-0.290
-519.931	-15.804	-0.058	0.037
-518.916	185.949	-0.150	0.221
-517.902	-30.357	0.216	0.121
-516.887	-126.496	0.078	0.011
-515.872	-141.943	0.276	-0.027
-514.858	85.048	-0.168	0.182
-513.843	244.153	-0.071	0.118
-512.829	-200.000	0.009	0.241
-511.814	800.000	-0.041	0.163
-510.799	423.420	-0.061	0.131
-509.785	-79.053	-0.052	0.017
-508.770	94.151	0.082	-0.092
-507.756	-200.000	-0.008	0.351
-506.741	-132.306	-0.176	-0.022
-505.726	1.140	-0.232	-0.165
-504.712	81.462	-0.151	-0.162
-503.697	179.615	-0.086	-0.125
-502.683	-200.000	-0.004	-0.102
-501.668	3.328	-0.223	-0.161
-500.653	36.682	0.232	0.203
-499.639	-62.306	0.512	0.211
-498.624	800.000	-0.038	0.108
-497.610	-200.000	-0.036	0.307
-496.595	1.287	0.043	-0.030
-495.581	-200.000	0.050	-0.271
-494.566	507.630	0.058	0.132
-493.551	-61.752	-0.098	-0.040
-492.537	747.719	0.117	0.311
-491.522	-200.000	0.009	-0.150
-490.508	800.000	-0.030	0.106
-489.493	800.000	-0.032	0.100
-488.478	-31.012	-0.136	0.076
-487.464	-55.698	0.110	-0.049
-486.449	-17.269	0.093	-0.058
-485.435	133.190	0.421	-0.538
-484.420	14.192	0.443	-0.342
-483.405	45.523	-0.081	0.074
-482.391	123.856	-0.070	-0.087
-481.376	93.980	-0.338	0.379
-480.362	-200.000	0.017	-0.153
-479.347	285.949	0.161	-0.288
-478.332	-35.940	-0.198	0.106
-477.318	-126.569	0.146	-0.022
-476.303	20.300	0.138	0.110
-475.289	-38.032	-0.297	0.156
-474.274	800.000	-0.113	0.366
-473.259	13.498	-0.089	-0.069
-472.245	-200.000	-0.024	-0.148
-471.230	-58.903	0.219	0.094
-470.216	-200.000	-0.049	-0.349
-469.201	2.824	-0.167	0.120
-468.186	-200.000	0.020	0.178
-467.172	-200.000	-0.038	0.310
-466.157	110.805	-0.074	0.088
-465.143	58.788	0.148	0.144
-464.128	196.741	-0.037	0.055
-463.113	364.451	0.085	-0.168
-462.099	483.885	0.206	0.464
-461.084	55.362	0.212	-0.203
-460.070	-124.666	-0.070	-0.011
-459.055	59.702	-0.271	0.264
-458.040	-49.187	-0.243	0.115
-457.026	-54.376	0.301	0.135
-456.011	-111.671	-0.462	0.093
-454.997	149.100	-0.104	0.140
-453.982	800.000	-0.014	0.041
-452.968	-63.893	0.174	0.070
-451.953	-163.299	-0.171	-0.008
-450.938	800.000	-0.086	-0.248
-449.924	-122.416	0.369	0.059
-448.909	95.481	0.205	-0.232
-447.895	-200.000	-0.023	0.134
-446.880	418.878	-0.050	-0.106
-445.865	-81.657	-0.287	0.093
-444.851	-116.154	-0.072	-0.013
-443.836	-33.737	-0.305	-0.166
-442.822	-40.984	0.219	0.112
-441.807	-71.270	-0.105	0.039
-440.792	-75.406	0.062	-0.022
-439.778	-166.808	-0.236	-0.010
-438.763	181.350	0.229	0.332
-437.749	800.000	0.135	0.431
-436.734	-200.000	-0.002	0.109
-435.719	800.000	-0.027	-0.089
-434.705	-161.494	-0.178	0.009
-433.690	21.946	-0.125	0.101
-432.676	-172.068	0.380	0.012
-431.661	232.392	0.305	-0.494
-430.646	-52.708	-0.153	0.070
-429.632	-84.292	0.415	0.130
-428.617	800.000	-0.084	-0.278
-427.603	-18.826	-0.208	-0.128
-426.588	-123.505	0.058	0.009
-425.573	-7.440	0.241	0.161
-424.559	-200.000	-0.148	0.000
-423.544	-72.773	-0.071	0.026
-422.530	-64.660	-0.418	-0.167
-421.515	80.154	-0.194	-0.206
-420.500	-163.588	-0.270	0.013
-419.486	-200.000	0.040	-0.288
-418.471	225.381	-0.097	0.155
-417.457	88.991	0.100	0.110
-416.442	122.241	-0.111	-0.137
-415.428	55.597	0.159	-0.152
-414.413	-62.369	-0.245	0.101
-413.398	-110.956	-0.154	0.031
-412.384	416.527	0.059	0.124
-411.369	-75.338	0.242	0.085
-410.355	-105.824	0.145	0.032
-409.340	81.454	-0.244	-0.260
-408.325	-200.000	-0.033	-0.230
-407.311	-200.000	-0.001	0.198
-406.296	-200.000	-0.009	-0.226
-405.282	114.602	-0.158	-0.191
-404.267	282.734	-0.102	0.182
-403.252	-35.347	0.220	-0.118
-402.238	355.102	0.125	-0.246
-401.223	424.323	0.198	-0.420
-400.209	-68.052	-0.098	-0.038
-399.194	-68.342	-0.084	0.032
-398.179	8.069	-0.112	-0.083
-397.165	-38.831	-0.337	-0.175
-396.150	117.464	-0.131	-0.159
-395.136	-104.100	-0.332	0.076
-394.121	-186.360	0.198	0.003
-393.106	-132.933	-0.114	-0.014
-392.092	70.109	-0.301	-0.306
-391.077	199.641	0.129	0.195
-390.063	-89.317	0.055	-0.016
-389.048	14.351	0.470	0.361
-388.033	74.676	-0.189	0.196
-387.019	-63.621	0.219	-0.088
-386.004	800.000	0.075	-0.308
-384.990	-200.000	0.008	0.039
-383.975	446.953	-0.051	0.110
-382.960	-200.000	-0.002	-0.024
-381.946	-17.880	-0.079	0.049
-380.931	16.854	-0.419	0.327
-379.917	348.905	0.065	0.126
-378.902	35.175	-0.078	-0.067
-377.888	444.596	-0.090	-0.196
-376.873	-94.151	0.305	-0.082
-375.858	353.945	0.157	0.307
-374.844	-153.866	-0.416	0.028
-373.829	-200.000	-0.021	-0.137
-372.815	-200.000	0.038	0.323
-371.800	-73.668	0.243	0.087
-370.785	-17.888	0.120	-0.074
-369.771	-72.801	0.378	0.137
-368.756	-97.432	0.257	-0.066
-367.742	-189.833	0.211	0.002
-366.727	-134.238	-0.305	0.037
-365.712	-139.204	0.435	0.046
-364.698	-135.902	0.088	0.010
-363.683	-7.063	0.294	-0.197
-362.669	-108.248	0.242	-0.052
-361.654	-95.839	0.366	0.096
-360.639	-70.089	0.285	-0.107
-359.625	552.568	0.081	-0.191
-358.610	-113.473	-0.319	0.062
-357.596	-200.000	0.027	0.310
-356.581	284.565	0.036	-0.063
-355.566	-134.940	-0.277	-0.033
-354.552	-57.877	-0.156	-0.067
-353.537	-121.849	-0.143	0.023
-352.523	-161.735	0.160	0.008
-351.508	-62.372	-0.082	-0.034
-350.493	345.916	0.018	-0.034
-349.479	-51.580	0.069	-0.032
-348.464	-200.000	-0.023	0.239
-347.450	56.113	0.080	-0.076
-346.435	-81.578	0.100	0.032
-345.420	-162.500	0.119	-0.006
-344.406	21.883	-0.175	0.140
-343.391	-136.567	0.212	0.024
-342.377	-163.285	-0.125	-0.006
-341.362	10.691	0.162	-0.122
-340.348	-66.463	-0.410	-0.160
-339.333	4.380	0.437	-0.315
-338.318	493.238	0.060	-0.136
-337.304	-40.999	-0.214	-0.109
-336.289	-200.000	-0.020	0.105
-335.275	-94.039	0.106	-0.029
-334.260	-129.619	0.297	0.040
-333.245	176.529	-0.225	0.322
-332.231	167.415	-0.110	-0.154
-331.216	482.524	0.103	-0.231
-330.202	-87.758	0.101	0.030
-329.187	27.665	0.210	0.174
-328.172	-156.151	0.175	0.011
-327.158	-200.000	-0.039	-0.357
-326.143	-200.000	-0.031	-0.203
-325.129	185.645	0.151	-0.221
-324.114	-67.038	0.179	-0.070
-323.099	-106.660	0.244	0.053
-322.085	799.962	0.035	0.094
-321.070	264.115	0.092	0.158
-320.056	572.058	0.056	0.135
-319.041	-150.673	0.180	-0.014
-318.026	17.000	-0.041	0.032
-317.012	800.000	0.043	0.151
-315.997	22.526	0.263	-0.212
-314.983	-154.511	-0.056	0.004
-313.968	664.166	0.049	-0.125
-312.953	243.556	0.079	-0.130
-311.939	-26.568	-0.155	-0.090
-310.924	-102.444	0.227	0.053
-309.910	-200.000	-0.008	-0.112
-308.895	19.600	-0.260	0.205
-307.880	-30.361	-0.108	-0.060
-306.866	800.000	0.024	-0.088
-305.851	800.000	-0.005	-0.016
-304.837	-67.521	-0.175	-0.067
-303.822	203.238	-0.089	0.135
-302.807	-200.000	-0.015	-0.369
-301.793	-200.000	0.003	0.033
-300.778	-181.437	-0.124	-0.002
-299.764	275.344	-0.099	0.173
-298.749	126.948	-0.092	-0.114
-297.735	-174.888	0.246	-0.007
-296.720	-200.000	-0.054	-0.289
-295.705	-21.344	0.242	-0.145
-294.691	800.000	-0.043	-0.175
-293.676	800.000	-0.054	-0.148
-292.662	642.411	0.076	-0.191
-291.647	176.583	-0.057	-0.082
-290.632	-42.358	-0.198	0.099
-289.618	-200.000	-0.018	-0.113
-288.603	463.442	-0.016	0.035
-287.589	-200.000	0.010	0.058
-286.574	99.365	-0.097	0.110
-285.559	800.000	0.091	0.341
-284.545	171.349	-0.031	0.043
-283.530	-39.477	0.366	-0.189
-282.516	23.510	-0.244	0.197
-281.501	131.185	-0.164	0.207
-280.486	121.471	-0.274	0.336
-279.472	190.059	-0.016	-0.023
-278.457	268.814	0.078	0.134
-277.443	222.140	0.213	-0.337
-276.428	-51.373	-0.134	-0.062
-275.413	-30.414	-0.207	0.115
-274.399	800.000	0.018	0.059
-273.384	-32.403	-0.399	0.218
-272.370	154.119	-0.047	-0.063
-271.355	800.000	0.082	0.292
-270.340	-174.323	-0.146	0.004
-269.326	-27.614	-0.225	0.128
-268.311	-200.000	0.051	0.344
-267.297	285.960	-0.117	-0.207
-266.282	267.499	-0.069	-0.119
-265.267	61.161	0.070	-0.069
-264.253	40.813	-0.107	-0.095
-263.238	800.000	0.070	-0.230
-262.224	57.796	-0.427	-0.410
-261.209	725.566	-0.027	-0.070
-260.195	800.000	0.133	-0.366
-259.180	800.000	0.048	-0.191
-258.165	62.668	-0.119	0.116
-257.151	61.498	0.052	0.050
-256.136	-26.817	0.095	-0.055
-255.122	135.277	0.275	-0.351
-254.107	800.000	0.024	-0.082
-253.092	673.926	0.126	-0.320
-252.078	114.866	-0.251	-0.301
-251.063	21.502	-0.156	-0.124
-250.049	-200.000	0.011	-0.240
-249.034	431.319	-0.069	0.146
-248.019	-80.286	-0.160	0.052
-247.005	88.675	0.053	0.058
-245.990	800.000	-0.034	-0.098
-244.976	321.136	0.090	-0.169
-243.961	-25.195	0.243	-0.141
-242.946	-200.000	-0.001	-0.023
-241.932	-200.000	-0.014	0.194
-240.917	-200.000	0.017	-0.196
-239.903	350.278	-0.073	0.141
-238.888	265.898	0.067	0.115
-237.873	59.549	-0.259	0.251
-236.859	800.000	0.072	-0.204
-235.844	-25.506	-0.277	-0.161
-234.830	58.880	-0.094	0.091
-233.815	-200.000	-0.021	-0.241
-232.800	-81.591	0.210	0.068
-231.786	-200.000	-0.010	-0.208
-230.771	671.884	-0.101	-0.257
-229.757	90.194	-0.134	-0.147
-228.742	436.042	-0.049	0.104
-227.727	146.441	-0.213	0.281
-226.713	163.874	-0.254	0.351
-225.698	-35.893	0.159	0.084
-224.684	-78.186	0.201	-0.068
-223.669	-0.900	0.294	-0.204
-222.655	-125.208	0.182	0.027
-221.640	-46.545	0.126	0.060
-220.625	-200.000	-0.064	0.287
-219.611	-47.641	-0.148	-0.070
-218.596	-101.790	-0.156	0.037
-217.582	-123.414	-0.325	0.051
-216.567	635.299	0.214	-0.531
-215.552	634.021	0.151	-0.375
-214.538	-200.000	0.037	-0.256
-213.523	304.857	-0.162	0.294
-212.509	-35.648	0.105	0.056
-211.494	-31.825	0.173	-0.095
-210.479	50.644	-0.267	-0.247
-209.465	8.503	0.328	0.242
-208.450	-80.980	0.264	-0.086
-207.436	121.898	-0.240	-0.293
-206.421	4.083	0.246	0.176
-205.406	-200.000	-0.007	0.336
-204.392	23.518	0.107	-0.086
-203.377	51.977	0.364	0.340
-202.363	94.075	0.084	0.093
-201.348	800.000	-0.078	-0.324
-200.333	-130.579	0.188	0.025
-199.319	-18.507	0.324	-0.198
-198.304	24.676	-0.085	0.069
-197.290	-4.953	-0.078	-0.053
-196.275	800.000	0.141	-0.419
-195.260	-30.476	-0.171	-0.095
-194.246	26.077	-0.155	0.126
-193.231	-114.672	0.280	-0.053
-192.217	-39.545	0.199	-0.102
-191.202	-119.441	-0.285	-0.048
-190.187	-71.184	-0.111	-0.041
-189.173	184.965	0.008	-0.012
-188.158	-103.214	-0.400	-0.092
-187.144	114.382	0.165	0.197
-186.129	-100.555	-0.378	0.091
-185.114	-62.919	-0.302	-0.122
-184.100	-19.245	-0.604	0.367
-183.085	-51.182	0.178	-0.081
-182.071	-42.354	-0.300	-0.150
-181.056	729.026	-0.117	0.305
-180.042	800.000	0.179	-0.540
-179.027	29.532	0.149	-0.124
-178.012	800.000	0.059	0.226
-176.998	71.473	-0.151	0.154
-175.983	-20.087	0.308	-0.186
-174.969	-200.000	-0.016	0.223
-173.954	441.905	-0.076	0.162
-172.939	415.300	0.117	0.243
-171.925	-186.768	-0.354	-0.005
-170.910	148.076	0.096	0.127
-169.896	272.791	-0.018	-0.031
-168.881	-200.000	0.037	-0.299
-167.866	239.844	0.074	-0.121
-166.852	-98.478	-0.080	-0.020
-165.837	409.341	0.117	-0.241
-164.823	-123.441	-0.268	-0.042
-163.808	52.179	0.110	0.102
-162.793	-200.000	0.083	0.452
-161.779	70.282	-0.227	0.229
-160.764	207.753	0.078	-0.119
-159.750	32.220	0.168	-0.141
-158.735	330.056	-0.046	-0.087
-157.720	-200.000	-0.025	0.191
-156.706	-70.976	0.183	0.067
-155.691	800.000	-0.069	0.201
-154.677	184.576	0.113	0.163
-153.662	696.929	-0.181	0.465
-152.647	-123.054	-0.116	0.018
-151.633	356.499	0.100	0.196
-150.618	-200.000	-0.022	-0.235
-149.604	3.373	0.203	0.145
-148.589	229.784	0.142	0.226
-147.574	-55.118	0.283	-0.124
-146.560	201.660	0.191	-0.288
-145.545	188.586	-0.037	-0.055
-144.531	174.616	0.122	0.172
-143.516	-108.313	-0.077	0.016
-142.502	47.681	0.325	0.296
-141.487	-39.245	-0.191	0.098
-140.472	168.972	-0.096	-0.133
-139.458	-200.000	0.017	0.314
-138.443	-200.000	0.051	-0.296
-137.429	161.829	0.086	0.117
-136.414	236.922	0.148	-0.239
-135.399	-200.000	-0.042	0.381
-134.385	248.871	0.172	-0.284
-133.370	800.000	-0.015	0.058
-132.356	-57.506	0.332	-0.142
-131.341	-12.261	-0.354	0.226
-130.326	91.357	0.226	0.248
-129.312	800.000	-0.061	-0.185
-128.297	298.282	-0.015	0.028
-127.283	-35.912	-0.088	0.046
-126.268	292.193	0.167	-0.297
-125.253	-107.270	-0.350	-0.075
-124.239	-47.531	-0.070	0.033
-123.224	75.147	0.286	0.294
-122.210	285.464	-0.040	0.070
-121.195	-95.273	-0.160	0.042
-120.180	-89.683	0.186	0.053
