DTS Sentinel unit serial number:	SN413079Multiplexer serial number:	ORYXHardware model number:	OX4-SRSoftware version number:	ORYX F/W v4.00 Oryx Data Collector v3.7.2.0data status	okinstallation	princeton_trtdifferential loss correction	single-endedforward channel	channel 2reverse channel	N/Adate	2019/09/14time	08:19:35forward acquisition time	60.00reverse acquisition time	0.00gamma	496.2192k internal	0.2332k external	0.2332temperature offset calibration	1.0127default loss term (dB/km)	0.3790temperature slope calibration	1.0000multiplexer offset coefficient	1.0000multiplexer slope coefficient	1.0000fibre end	0.00T internal ref (°C)	27.89T ext. ref 1 (°C)	3.61T ext. ref 2 (°C)	26.09length (m)	temperature (°C)	Stokes	anti-Stokes-747.200	314.000	-0.136	-0.258
-746.185	800.000	-0.050	-0.166
-745.171	-190.468	-0.132	0.001
-744.156	-67.054	-0.481	0.191
-743.142	437.043	-0.066	-0.144
-742.127	-200.000	-0.011	-0.171
-741.112	-200.000	0.040	-0.177
-740.098	260.981	0.061	0.107
-739.083	14.289	0.157	0.123
-738.069	262.367	-0.150	0.262
-737.054	-16.554	0.064	0.041
-736.039	-108.728	-0.199	0.043
-735.025	241.385	0.278	0.466
-734.010	-142.705	-0.307	-0.030
-732.996	-26.772	-0.214	-0.126
-731.981	188.111	-0.193	-0.290
-730.966	-12.499	-0.383	-0.251
-729.952	193.389	-0.159	-0.241
-728.937	-78.419	-0.066	0.023
-727.923	-2.635	-0.191	-0.134
-726.908	-17.137	-0.219	0.139
-725.894	703.261	0.063	-0.168
-724.879	228.070	0.105	-0.171
-723.864	-113.127	0.227	-0.045
-722.850	66.778	-0.304	-0.311
-721.835	-158.995	-0.026	-0.001
-720.821	67.004	-0.215	0.220
-719.806	73.213	-0.093	0.098
-718.791	199.440	0.031	-0.048
-717.777	800.000	0.073	0.286
-716.762	800.000	-0.049	0.142
-715.748	-90.701	-0.205	-0.060
-714.733	-174.121	-0.443	0.013
-713.718	181.858	-0.143	-0.211
-712.704	-127.365	0.389	0.057
-711.689	-200.000	-0.011	0.236
-710.675	800.000	0.074	0.219
-709.660	461.854	0.050	0.113
-708.645	-34.033	-0.159	-0.088
-707.631	48.789	0.090	-0.085
-706.616	-5.732	-0.382	0.263
-705.602	63.142	-0.190	0.191
-704.587	-200.000	-0.016	0.318
-703.572	-69.919	0.272	0.104
-702.558	-151.913	0.318	-0.023
-701.543	-99.205	-0.170	0.043
-700.529	1.214	-0.034	-0.025
-699.514	39.225	0.115	0.103
-698.499	-200.000	0.037	-0.455
-697.485	83.336	-0.124	0.135
-696.470	-31.580	-0.108	0.061
-695.456	-96.676	-0.318	-0.084
-694.441	-200.000	-0.054	-0.360
-693.426	-146.187	0.133	0.012
-692.412	-4.660	0.296	0.205
-691.397	148.241	-0.149	-0.202
-690.383	-19.346	-0.413	-0.257
-689.368	270.971	-0.051	-0.089
-688.354	-132.906	-0.264	-0.034
-687.339	-48.119	-0.277	0.134
-686.324	26.540	-0.176	0.148
-685.310	-200.000	-0.055	-0.426
-684.295	-200.000	0.000	-0.181
-683.281	568.598	-0.061	-0.148
-682.266	-45.184	-0.145	-0.072
-681.251	-27.350	-0.121	0.071
-680.237	-77.535	-0.128	-0.045
-679.222	46.874	0.191	-0.178
-678.208	-48.737	-0.193	-0.093
-677.193	-200.000	-0.001	0.192
-676.178	-200.000	0.044	0.276
-675.164	-91.001	-0.368	-0.106
-674.149	-200.000	0.040	0.267
-673.135	-79.152	-0.195	-0.066
-672.120	-143.849	-0.272	-0.026
-671.105	-163.291	0.220	0.011
-670.091	-45.939	0.260	-0.129
-669.076	-63.737	0.171	0.070
-668.062	17.707	-0.106	-0.085
-667.047	-200.000	0.003	0.103
-666.032	-69.829	-0.258	0.099
-665.018	63.124	-0.053	-0.053
-664.003	-80.752	-0.146	-0.049
-662.989	-200.000	-0.009	-0.058
-661.974	-108.207	-0.367	-0.080
-660.959	-76.622	0.099	0.035
-659.945	-200.000	0.009	-0.073
-658.930	-200.000	0.000	-0.058
-657.916	70.155	0.182	0.188
-656.901	-73.187	-0.187	0.069
-655.886	-82.612	-0.072	-0.023
-654.872	257.209	-0.077	-0.133
-653.857	-200.000	-0.038	-0.203
-652.843	-71.167	0.494	0.186
-651.828	-48.331	-0.196	-0.095
-650.814	122.728	-0.145	0.182
-649.799	-5.160	0.092	-0.064
-648.784	-200.000	0.024	-0.160
-647.770	-184.194	-0.333	-0.006
-646.755	145.182	0.147	-0.197
-645.741	-147.898	-0.302	-0.025
-644.726	99.750	0.002	0.003
-643.711	-6.366	-0.288	0.197
-642.697	-47.506	0.070	0.034
-641.682	-45.184	-0.195	-0.097
-640.668	-4.430	-0.031	0.021
-639.653	160.575	-0.282	-0.394
-638.638	437.689	0.031	-0.067
-637.624	161.744	-0.116	0.163
-636.609	-103.802	-0.112	0.026
-635.595	145.910	-0.184	-0.247
-634.580	-103.706	-0.169	-0.040
-633.565	10.875	-0.103	0.079
-632.551	800.000	-0.037	-0.126
-631.536	-200.000	0.066	-0.395
-630.522	-75.579	-0.033	-0.012
-629.507	97.543	0.161	-0.185
-628.492	-2.001	-0.125	-0.088
-627.478	-110.608	0.193	-0.040
-626.463	-200.000	0.008	-0.184
-625.449	-121.340	-0.216	-0.036
-624.434	-138.903	-0.291	-0.032
-623.419	-200.000	-0.072	-0.412
-622.405	55.916	0.105	0.102
-621.390	-200.000	0.023	-0.571
-620.376	-27.923	0.199	-0.115
-619.361	-39.251	0.167	0.088
-618.346	800.000	0.061	-0.186
-617.332	446.235	0.174	-0.383
-616.317	-129.279	-0.130	-0.018
-615.303	316.722	0.082	-0.155
-614.288	-136.405	0.124	0.014
-613.273	-200.000	0.396	0.001
-612.259	-103.453	-0.468	-0.110
-611.244	-64.257	0.334	0.136
-610.230	-103.093	-0.201	-0.048
-609.215	-36.373	-0.300	0.162
-608.201	-40.294	0.130	-0.068
-607.186	-188.743	-0.088	-0.001
-606.171	186.500	-0.064	0.095
-605.157	-20.493	0.335	0.206
-604.142	123.777	0.057	0.072
-603.128	800.000	0.090	-0.257
-602.113	139.761	-0.116	-0.152
-601.098	-16.028	-0.255	0.163
-600.084	-109.427	-0.312	0.066
-599.069	-57.060	-0.431	0.190
-598.055	-66.341	-0.194	0.077
-597.040	-62.210	-0.326	-0.136
-596.025	11.418	0.146	-0.112
-595.011	-189.287	-0.059	0.001
-593.996	-60.955	0.242	0.102
-592.982	800.000	-0.002	-0.008
-591.967	-120.878	0.347	0.058
-590.952	352.481	0.093	-0.184
-589.938	800.000	-0.033	0.102
-588.923	-70.351	0.171	-0.065
-587.909	-200.000	0.001	0.035
-586.894	46.049	-0.181	-0.168
-585.879	-200.000	-0.012	0.212
-584.865	-20.316	-0.025	-0.015
-583.850	-122.639	-0.113	0.018
-582.836	175.941	-0.083	0.121
-581.821	-106.351	0.046	-0.010
-580.806	-58.786	-0.370	-0.160
-579.792	275.128	-0.161	-0.285
-578.777	-90.873	0.117	0.034
-577.763	-164.179	0.023	0.001
-576.748	718.142	0.099	0.264
-575.733	-31.676	0.172	0.097
-574.719	90.658	0.210	-0.235
-573.704	218.878	0.178	-0.285
-572.690	43.198	-0.035	-0.032
-571.675	-6.271	-0.285	-0.194
-570.661	287.919	0.202	0.365
-569.646	800.000	0.021	-0.082
-568.631	-200.000	-0.040	-0.270
-567.617	-200.000	-0.043	-0.216
-566.602	79.223	0.141	0.151
-565.588	-173.133	-0.088	0.003
-564.573	38.091	-0.397	-0.353
-563.558	109.037	-0.277	-0.331
-562.544	800.000	0.098	0.291
-561.529	25.500	-0.222	-0.185
-560.515	225.433	0.253	0.409
-559.500	460.303	-0.096	0.213
-558.485	19.226	-0.370	0.297
-557.471	-166.870	0.344	0.014
-556.456	-7.623	0.125	-0.084
-555.442	311.228	0.041	0.077
-554.427	-91.777	-0.076	-0.022
-553.412	314.680	-0.086	0.162
-552.398	-67.387	-0.031	-0.012
-551.383	-64.901	-0.229	0.092
-550.369	-200.000	-0.002	-0.047
-549.354	-200.000	0.015	0.304
-548.339	800.000	0.052	-0.179
-547.325	-48.312	-0.219	-0.106
-546.310	-37.404	-0.435	-0.232
-545.296	15.635	-0.178	-0.140
-544.281	-79.357	-0.195	0.066
-543.266	800.000	-0.047	-0.157
-542.252	-143.451	0.139	-0.013
-541.237	276.866	0.202	0.359
-540.223	274.780	0.014	-0.025
-539.208	10.762	-0.250	0.190
-538.193	153.400	0.192	-0.262
-537.179	71.329	0.122	-0.126
-536.164	87.700	-0.202	-0.223
-535.150	-118.314	0.297	-0.053
-534.135	103.867	-0.106	0.124
-533.121	-200.000	0.004	0.046
-532.106	-200.000	-0.009	-0.090
-531.091	-93.294	-0.491	-0.136
-530.077	-60.924	-0.243	0.102
-529.062	-133.114	0.405	0.051
-528.048	62.122	-0.283	-0.281
-527.033	-49.519	0.236	-0.112
-526.018	53.475	-0.252	-0.241
-525.004	-39.937	-0.131	0.068
-523.989	-1.492	-0.209	0.147
-522.975	-112.826	-0.166	0.033
-521.960	-21.004	-0.084	0.051
-520.945	334.479	0.033	0.064
-519.931	134.667	-0.146	0.188
-518.916	-57.472	-0.239	0.105
-517.902	-29.038	-0.088	0.050
-516.887	-152.836	0.181	0.013
-515.872	-49.569	0.212	0.101
-514.858	263.227	0.129	-0.224
-513.843	276.381	0.168	-0.297
-512.829	-110.213	-0.083	-0.017
-511.814	-200.000	0.070	-0.344
-510.799	-44.480	-0.193	-0.096
-509.785	-65.926	0.373	-0.149
-508.770	-49.376	0.158	-0.075
-507.756	-84.789	0.220	0.069
-506.741	13.916	0.370	-0.287
-505.726	115.992	0.243	-0.296
-504.712	76.668	0.181	0.191
-503.697	180.664	-0.099	0.144
-502.683	46.709	0.074	-0.068
-501.668	-200.000	-0.001	0.148
-500.653	-10.000	0.208	0.138
-499.639	-200.000	0.032	0.143
-498.624	-36.251	0.176	-0.095
-497.610	-200.000	0.013	-0.099
-496.595	-126.666	0.290	0.043
-495.581	289.482	0.093	-0.168
-494.566	141.818	-0.132	0.174
-493.551	800.000	0.043	0.137
-492.537	16.038	0.128	-0.101
-491.522	182.467	0.219	0.322
-490.508	147.394	-0.244	0.327
-489.493	83.570	0.214	0.233
-488.478	-46.653	0.173	-0.085
-487.464	-42.928	-0.110	0.056
-486.449	219.753	-0.187	0.298
-485.435	-200.000	-0.020	0.215
-484.420	-200.000	0.032	0.374
-483.405	800.000	-0.085	0.290
-482.391	-194.642	-0.174	0.001
-481.376	-96.596	-0.157	-0.041
-480.362	-18.275	0.155	0.096
-479.347	-169.424	-0.511	0.019
-478.332	-200.000	0.041	0.279
-477.318	5.988	0.114	-0.084
-476.303	-19.124	0.080	-0.050
-475.289	-40.338	0.371	0.192
-474.274	-180.223	-0.148	-0.003
-473.259	164.984	-0.069	-0.097
-472.245	46.408	0.192	0.177
-471.230	-18.818	0.352	0.218
-470.216	105.878	0.060	0.071
-469.201	28.718	-0.099	0.084
-468.186	-200.000	-0.018	-0.240
-467.172	-200.000	0.001	-0.098
-466.157	800.000	0.020	0.068
-465.143	22.503	-0.158	0.129
-464.128	169.872	0.160	0.228
-463.113	43.419	0.170	0.155
-462.099	254.341	-0.181	0.308
-461.084	-42.390	-0.257	0.131
-460.070	-30.528	-0.053	-0.030
-459.055	-43.588	0.154	-0.077
-458.040	23.323	-0.062	-0.051
-457.026	-200.000	-0.012	0.078
-456.011	-60.639	0.132	-0.056
-454.997	800.000	-0.050	0.164
-453.982	288.868	0.117	0.211
-452.968	-200.000	0.024	0.480
-451.953	617.788	-0.118	0.294
-450.938	-48.904	0.039	-0.018
-449.924	-67.933	0.212	-0.082
-448.909	-130.900	0.052	-0.007
-447.895	259.271	0.101	0.173
-446.880	-133.669	0.298	0.037
-445.865	-66.221	0.402	-0.159
-444.851	114.622	-0.170	-0.206
-443.836	800.000	-0.089	-0.302
-442.822	187.685	0.040	-0.060
-441.807	214.462	0.070	0.110
-440.792	-200.000	0.048	-0.310
-439.778	-188.782	0.034	-0.000
-438.763	0.704	-0.115	-0.081
-437.749	-130.916	-0.119	-0.016
-436.734	-96.062	-0.124	0.033
-435.719	611.306	-0.061	0.152
-434.705	-101.672	-0.139	0.033
-433.690	-200.000	-0.021	-0.096
-432.676	800.000	0.034	0.130
-431.661	31.463	0.085	-0.073
-430.646	-88.336	-0.147	0.044
-429.632	4.736	-0.295	-0.216
-428.617	760.644	0.118	-0.318
-427.603	616.131	0.023	0.058
-426.588	-124.623	-0.273	-0.042
-425.573	-37.718	-0.085	0.045
-424.559	-151.335	-0.248	0.018
-423.544	317.927	-0.086	-0.162
-422.530	-200.000	0.003	-0.175
-421.515	213.852	0.113	-0.178
-420.500	135.157	-0.078	-0.101
-419.486	139.225	0.124	0.162
-418.471	-140.188	0.387	0.040
-417.457	392.770	0.062	-0.127
-416.442	800.000	0.025	-0.082
-415.428	-96.892	0.186	0.048
-414.413	-1.280	-0.083	-0.058
-413.398	2.415	0.113	0.081
-412.384	-200.000	-0.028	0.273
-411.369	92.386	0.091	0.102
-410.355	-10.414	-0.049	-0.033
-409.340	-48.212	0.107	-0.051
-408.325	105.517	-0.136	0.159
-407.311	8.568	-0.318	-0.238
-406.296	162.533	0.091	-0.127
-405.282	-172.832	0.316	-0.010
-404.267	15.048	-0.342	0.265
-403.252	-200.000	0.030	0.311
-402.238	-65.292	-0.194	0.078
-401.223	-60.495	-0.119	-0.050
-400.209	-88.969	0.097	-0.028
-399.194	-152.098	-0.251	0.018
-398.179	-87.455	0.352	-0.106
-397.165	800.000	-0.050	-0.170
-396.150	56.361	0.185	-0.179
-395.136	90.483	-0.148	-0.165
-394.121	44.361	0.372	-0.339
-393.106	-152.618	0.222	-0.016
-392.092	87.126	0.066	0.072
-391.077	87.229	-0.151	0.166
-390.063	99.011	0.116	-0.132
-389.048	79.629	-0.242	-0.257
-388.033	800.000	0.055	0.183
-387.019	522.793	0.061	0.142
-386.004	-93.554	-0.040	-0.011
-384.990	228.925	-0.116	-0.188
-383.975	-149.479	0.155	-0.012
-382.960	-200.000	-0.047	0.241
-381.946	513.377	-0.063	-0.145
-380.931	413.250	0.123	-0.259
-379.917	435.418	0.077	-0.167
-378.902	-200.000	0.039	-0.405
-377.888	125.555	0.153	-0.192
-376.873	-147.433	-0.212	-0.018
-375.858	-200.000	0.018	0.122
-374.844	-200.000	-0.002	0.340
-373.829	162.211	-0.168	0.234
-372.815	97.581	0.114	0.130
-371.800	-15.577	-0.220	-0.139
-370.785	-200.000	-0.021	0.381
-369.771	-136.581	-0.177	-0.020
-368.756	-112.685	-0.282	-0.056
-367.742	-14.537	-0.247	-0.157
-366.727	558.876	-0.023	-0.055
-365.712	74.076	0.336	0.349
-364.698	-82.324	-0.089	0.029
-363.683	558.293	-0.064	0.154
-362.669	258.753	-0.063	0.107
-361.654	800.000	0.023	0.077
-360.639	-83.880	0.257	-0.081
-359.625	-164.839	0.321	-0.014
-358.610	-19.272	0.153	0.094
-357.596	-165.939	0.160	0.007
-356.581	-112.451	-0.365	0.072
-355.566	12.452	-0.114	-0.087
-354.552	94.211	0.213	-0.240
-353.537	-61.422	0.045	0.019
-352.523	-96.471	-0.224	0.059
-351.508	118.444	-0.225	-0.275
-350.493	189.368	0.056	-0.083
-349.479	-96.486	-0.325	0.085
-348.464	191.653	-0.056	-0.083
-347.450	152.975	0.253	0.342
-346.435	146.176	0.152	0.202
-345.420	379.394	-0.163	0.331
-344.406	-128.941	0.094	-0.013
-343.391	-63.974	0.133	0.054
-342.377	34.794	0.143	-0.124
-341.362	-200.000	-0.001	-0.242
-340.348	489.153	-0.054	-0.123
-339.333	-200.000	0.222	0.000
-338.318	800.000	0.061	0.230
-337.304	800.000	-0.043	-0.170
-336.289	106.730	-0.096	-0.113
-335.275	-145.258	0.299	-0.027
-334.260	-200.000	-0.010	-0.058
-333.245	49.258	-0.290	0.270
-332.231	719.203	-0.089	-0.233
-331.216	-162.595	-0.194	0.009
-330.202	684.974	0.039	-0.100
-329.187	-68.068	-0.137	-0.053
-328.172	-172.171	0.176	-0.006
-327.158	-200.000	-0.021	0.109
-326.143	-64.851	0.176	0.070
-325.129	-200.000	0.008	-0.149
-324.114	258.621	0.126	-0.215
-323.099	-172.157	0.292	0.009
-322.085	86.749	0.296	0.323
-321.070	-37.861	0.119	-0.062
-320.056	530.468	-0.047	0.110
-319.041	-34.168	-0.333	0.181
-318.026	-200.000	0.002	0.176
-317.012	-81.479	0.543	-0.177
-315.997	109.718	-0.122	0.145
-314.983	-21.628	-0.187	0.113
-313.968	-117.866	0.159	0.028
-312.953	391.472	-0.118	-0.242
-311.939	378.100	-0.258	-0.522
-310.924	-200.000	0.012	-0.247
-309.910	-200.000	0.001	-0.148
-308.895	-200.000	-0.004	0.399
-307.880	-98.399	0.268	-0.068
-306.866	99.088	0.176	-0.201
-305.851	-200.000	-0.016	0.181
-304.837	38.056	-0.102	-0.090
-303.822	82.370	-0.081	-0.087
-302.807	-130.373	0.084	0.011
-301.793	510.778	-0.043	0.099
-300.778	744.661	-0.013	0.035
-299.764	-73.318	0.080	-0.029
-298.749	716.472	-0.049	-0.129
-297.735	800.000	0.025	-0.100
-296.720	-200.000	-0.033	0.329
-295.705	-6.653	0.087	-0.059
-294.691	800.000	0.034	-0.114
-293.676	-200.000	-0.006	0.118
-292.662	182.789	-0.141	0.206
-291.647	100.720	-0.173	0.199
-290.632	-121.178	-0.244	0.040
-289.618	45.312	0.158	-0.144
-288.603	-200.000	-0.049	-0.235
-287.589	288.145	-0.251	-0.448
-286.574	563.984	-0.010	-0.024
-285.559	-200.000	0.001	0.110
-284.545	-53.608	-0.066	0.030
-283.530	800.000	0.140	0.455
-282.516	86.522	0.069	-0.075
-281.501	128.672	0.117	-0.148
-280.486	273.499	0.186	0.324
-279.472	-200.000	-0.053	0.249
-278.457	-200.000	0.001	0.090
-277.443	-121.460	0.226	-0.037
-276.428	-200.000	0.035	0.241
-275.413	800.000	0.060	0.256
-274.399	334.835	-0.055	-0.105
-273.384	-26.786	0.124	-0.071
-272.370	415.203	0.148	0.312
-271.355	800.000	-0.140	-0.394
-270.340	-200.000	-0.006	0.218
-269.326	-63.940	-0.070	-0.028
-268.311	-172.881	0.032	0.001
-267.297	139.772	0.101	-0.132
-266.282	-82.658	0.147	0.047
-265.267	243.193	0.153	0.253
-264.253	-123.930	0.422	-0.066
-263.238	-94.296	-0.124	-0.033
-262.224	-4.799	-0.307	0.209
-261.209	362.856	0.053	0.106
-260.195	551.188	0.171	-0.405
-259.180	771.583	0.030	-0.082
-258.165	-139.525	0.291	0.031
-257.151	-83.355	0.110	-0.035
-256.136	-24.845	-0.084	-0.049
-255.122	-200.000	0.001	-0.117
-254.107	800.000	0.105	0.421
-253.092	518.036	-0.094	-0.217
-252.078	344.523	0.142	-0.275
-251.063	-73.635	-0.180	-0.065
-250.049	-168.958	-0.164	0.006
-249.034	-54.067	-0.246	-0.110
-248.019	290.938	-0.057	0.103
-247.005	-79.700	0.187	-0.062
-245.990	237.528	-0.072	0.118
-244.976	45.355	0.013	0.011
-243.961	-200.000	-0.048	0.226
-242.946	154.361	0.141	0.190
-241.932	-121.510	0.300	-0.049
-240.917	-200.000	-0.007	-0.116
-239.903	-200.000	0.062	0.296
-238.888	800.000	-0.124	-0.368
-237.873	-0.784	-0.276	-0.193
-236.859	508.347	0.129	-0.294
-235.844	185.089	-0.207	0.303
-234.830	-57.019	0.301	-0.131
-233.815	22.564	-0.112	-0.090
-232.800	800.000	-0.048	-0.133
-231.786	392.513	-0.126	0.258
-230.771	668.133	0.057	0.146
-229.757	-200.000	0.070	0.302
-228.742	312.597	0.182	0.337
-227.727	-140.792	0.074	0.008
-226.713	-106.151	0.434	0.096
-225.698	-79.808	-0.395	0.131
-224.684	800.000	0.072	-0.257
-223.669	-200.000	-0.015	-0.219
-222.655	-21.809	-0.139	0.083
-221.640	-9.212	0.421	0.277
-220.625	800.000	-0.022	0.089
-219.611	53.648	0.426	-0.403
-218.596	-81.043	0.388	0.127
-217.582	-121.037	-0.125	-0.021
-216.567	362.499	0.063	0.125
-215.552	-200.000	0.007	0.133
-214.538	-200.000	-0.023	0.262
-213.523	2.009	-0.062	-0.044
-212.509	205.124	-0.251	-0.385
-211.494	-64.658	-0.170	-0.068
-210.479	399.621	0.061	0.126
-209.465	-52.204	-0.238	0.109
-208.450	625.418	0.018	0.044
-207.436	152.059	0.059	0.079
-206.421	-109.729	0.220	-0.046
-205.406	-74.745	0.410	-0.145
-204.392	49.253	-0.447	0.413
-203.377	-200.000	0.008	-0.133
-202.363	-110.266	0.177	-0.036
-201.348	-63.798	0.202	0.081
-200.333	214.267	-0.060	0.094
-199.319	279.562	0.100	0.175
-198.304	-200.000	-0.001	0.089
-197.290	202.281	0.093	0.142
-196.275	-104.350	0.182	0.041
-195.260	59.569	-0.096	-0.093
-194.246	800.000	-0.076	0.280
-193.231	118.859	-0.031	-0.038
-192.217	-55.818	0.175	-0.077
-191.202	126.556	-0.183	0.229
-190.187	-93.872	0.166	-0.045
-189.173	-200.000	-0.002	-0.102
-188.158	77.267	-0.174	-0.182
-187.144	800.000	0.042	-0.124
-186.129	-200.000	0.024	0.157
-185.114	-87.929	0.267	-0.079
-184.100	-113.520	-0.373	-0.072
-183.085	217.740	0.137	-0.215
-182.071	-200.000	-0.453	0.000
-181.056	6.438	0.194	-0.142
-180.042	-65.958	-0.476	-0.187
-179.027	-8.928	-0.292	-0.192
-178.012	-40.214	-0.099	0.051
-176.998	-200.000	0.044	-0.234
-175.983	76.569	-0.034	0.036
-174.969	393.390	0.073	0.149
-173.954	570.873	0.039	-0.093
-172.939	642.733	-0.109	-0.273
-171.925	-92.240	-0.155	0.043
-170.910	-66.503	0.308	0.120
-169.896	-117.305	0.383	-0.068
-168.881	-153.378	-0.267	-0.018
-167.866	76.762	-0.033	-0.034
-166.852	557.183	-0.039	0.093
-165.837	427.160	-0.040	-0.084
-164.823	800.000	-0.131	0.428
-163.808	237.215	-0.209	0.341
-162.793	17.930	0.174	-0.136
-161.779	-200.000	-0.022	0.163
-160.764	136.498	-0.053	-0.068
-159.750	-94.044	0.227	0.061
-158.735	218.051	0.114	0.178
-157.720	-91.307	-0.233	0.066
-156.706	-170.402	0.326	0.011
-155.691	-34.816	0.070	-0.038
-154.677	200.795	0.154	-0.233
-153.662	-66.306	-0.221	0.087
-152.647	-200.000	-0.025	0.145
-151.633	-96.836	-0.418	0.108
-150.618	-107.922	-0.085	0.018
-149.604	-200.000	-0.006	-0.145
-148.589	800.000	-0.080	-0.334
-147.574	-19.043	0.250	-0.153
-146.560	800.000	-0.063	-0.189
-145.545	-157.399	0.268	-0.016
-144.531	-200.000	0.013	-0.057
-143.516	-200.000	0.016	0.150
-142.502	800.000	-0.028	-0.121
-141.487	-200.000	0.037	0.200
-140.472	1.250	-0.108	0.076
-139.458	0.435	-0.226	-0.158
-138.443	-130.052	-0.119	-0.016
-137.429	272.531	0.100	-0.174
-136.414	6.503	0.205	-0.149
-135.399	-200.000	-0.006	0.036
-134.385	-27.632	-0.177	-0.101
-133.370	-28.816	0.153	0.087
-132.356	-149.828	0.288	-0.022
-131.341	158.839	-0.134	0.183
-130.326	84.204	-0.211	-0.226
-129.312	800.000	-0.120	-0.386
-128.297	-119.523	0.196	-0.033
-127.283	-78.193	-0.251	-0.085
-126.268	-28.339	0.086	0.049
-125.253	-9.018	0.222	-0.146
-124.239	-200.000	0.019	-0.139
-123.224	-123.726	-0.248	-0.039
-122.210	700.418	0.079	0.205
