DTS Sentinel unit serial number:	SN413079Multiplexer serial number:	ORYXHardware model number:	OX4-SRSoftware version number:	ORYX F/W v4.00 Oryx Data Collector v3.7.2.0data status	okinstallation	princeton_trtdifferential loss correction	single-endedforward channel	channel 2reverse channel	N/Adate	2019/09/13time	05:47:34forward acquisition time	60.00reverse acquisition time	0.00gamma	496.2192k internal	0.2337k external	0.2337temperature offset calibration	1.0190default loss term (dB/km)	0.3790temperature slope calibration	1.0000multiplexer offset coefficient	1.0000multiplexer slope coefficient	1.0000fibre end	0.00T internal ref (°C)	26.19T ext. ref 1 (°C)	4.06T ext. ref 2 (°C)	20.93length (m)	temperature (°C)	Stokes	anti-Stokes-747.200	-70.026	0.218	-0.083
-746.185	7.600	0.258	0.194
-745.171	-83.975	-0.336	-0.107
-744.156	-200.000	-0.029	0.307
-743.142	-159.550	-0.233	0.013
-742.127	-105.447	-0.106	0.024
-741.112	-200.000	-0.001	-0.105
-740.098	800.000	-0.037	-0.145
-739.083	800.000	-0.039	0.136
-738.069	800.000	-0.106	-0.459
-737.054	-200.000	-0.005	0.254
-736.039	-36.679	-0.188	-0.102
-735.025	-111.401	0.309	0.063
-734.010	123.729	0.015	-0.019
-732.996	275.385	0.104	-0.186
-731.981	-91.561	0.335	-0.096
-730.966	272.265	-0.070	0.124
-729.952	-68.098	-0.335	0.131
-728.937	39.929	-0.126	0.113
-727.923	45.304	-0.118	0.109
-726.908	-54.505	-0.214	-0.097
-725.894	-200.000	-0.037	-0.265
-724.879	494.602	0.128	-0.295
-723.864	-200.000	0.026	-0.164
-722.850	405.747	0.104	0.220
-721.835	800.000	-0.076	-0.249
-720.821	-24.723	-0.081	0.048
-719.806	-200.000	-0.007	-0.051
-718.791	-200.000	-0.007	-0.155
-717.777	-200.000	-0.023	-0.514
-716.762	209.005	0.085	-0.133
-715.748	-98.587	-0.262	0.067
-714.733	547.274	0.067	-0.161
-713.718	67.178	-0.274	-0.280
-712.704	800.000	-0.070	-0.213
-711.689	-121.763	0.167	-0.028
-710.675	-97.944	-0.402	-0.104
-709.660	-73.534	0.336	0.123
-708.645	-200.000	0.028	0.383
-707.631	34.157	-0.059	0.052
-706.616	12.615	-0.082	-0.064
-705.602	800.000	-0.037	-0.130
-704.587	137.219	0.155	-0.203
-703.572	-51.076	-0.119	0.056
-702.558	73.990	-0.164	-0.172
-701.543	-91.122	-0.268	0.077
-700.529	-173.099	-0.326	0.010
-699.514	75.091	0.058	0.062
-698.499	-99.640	-0.134	0.034
-697.485	800.000	0.049	-0.170
-696.470	800.000	0.051	-0.220
-695.456	341.257	0.208	-0.407
-694.441	-200.000	0.002	0.118
-693.426	-159.181	0.110	-0.006
-692.412	681.226	-0.102	-0.265
-691.397	288.679	-0.062	0.112
-690.383	73.172	-0.127	-0.133
-689.368	-113.164	0.347	-0.068
-688.354	-104.472	-0.287	0.067
-687.339	-166.466	0.174	0.007
-686.324	-200.000	-0.023	-0.146
-685.310	-200.000	-0.000	0.224
-684.295	-36.064	-0.077	0.042
-683.281	337.193	-0.129	-0.250
-682.266	-75.354	0.269	0.096
-681.251	-200.000	0.045	0.199
-680.237	96.896	-0.052	0.060
-679.222	-187.017	0.255	-0.004
-678.208	377.152	-0.108	-0.221
-677.193	-200.000	-0.045	-0.220
-676.178	724.861	-0.022	-0.059
-675.164	291.373	-0.079	-0.145
-674.149	32.602	-0.361	-0.312
-673.135	-200.000	-0.023	-0.227
-672.120	640.154	-0.110	-0.281
-671.105	35.936	-0.138	0.122
-670.091	800.000	-0.097	-0.378
-669.076	-118.736	-0.083	-0.015
-668.062	96.843	-0.147	-0.169
-667.047	-4.398	0.054	-0.037
-666.032	113.254	-0.040	0.048
-665.018	-145.704	-0.472	0.042
-664.003	-53.794	-0.198	-0.090
-662.989	800.000	0.058	0.216
-661.974	480.051	0.072	0.163
-660.959	24.480	0.228	-0.189
-659.945	-112.048	0.295	0.059
-658.930	262.264	0.097	0.169
-657.916	-35.515	0.071	0.038
-656.901	-75.078	0.139	-0.050
-655.886	-123.979	0.385	0.061
-654.872	-200.000	0.031	0.186
-653.857	173.069	-0.265	0.382
-652.843	-21.424	-0.126	0.077
-651.828	226.781	-0.143	0.232
-650.814	800.000	0.019	0.072
-649.799	156.018	0.076	-0.104
-648.784	800.000	-0.030	0.124
-647.770	-200.000	0.004	-0.073
-646.755	124.807	-0.074	0.093
-645.741	-45.362	0.222	0.110
-644.726	-84.101	-0.167	0.053
-643.711	59.245	-0.095	0.094
-642.697	-200.000	0.041	-0.295
-641.682	229.925	-0.125	-0.204
-640.668	25.635	-0.295	-0.246
-639.653	206.385	-0.152	-0.237
-638.638	-62.230	0.111	-0.046
-637.624	257.460	-0.049	-0.084
-636.609	800.000	0.098	-0.286
-635.595	-69.378	-0.029	-0.011
-634.580	-39.107	-0.043	0.023
-633.565	67.132	0.134	-0.137
-632.551	800.000	-0.052	0.198
-631.536	-200.000	0.012	0.218
-630.522	359.954	-0.270	-0.540
-629.507	-200.000	-0.041	-0.390
-628.492	-83.701	-0.306	0.098
-627.478	-200.000	-0.014	0.139
-626.463	9.938	-0.224	0.170
-625.449	-200.000	-0.050	0.222
-624.434	141.914	0.077	0.102
-623.419	15.277	0.240	0.188
-622.405	-200.000	0.030	0.298
-621.390	-200.000	0.002	-0.248
-620.376	-99.296	0.334	0.084
-619.361	101.245	0.059	0.068
-618.346	678.602	-0.081	0.211
-617.332	-149.383	-0.205	0.016
-616.317	-36.966	-0.169	-0.091
-615.303	-200.000	0.010	0.067
-614.288	153.992	0.131	-0.179
-613.273	-152.012	-0.284	-0.021
-612.259	-13.703	-0.016	-0.010
-611.244	49.266	0.351	0.329
-610.230	83.527	-0.128	0.140
-609.215	-106.275	0.266	-0.060
-608.201	-111.379	0.266	-0.054
-607.186	69.177	-0.207	0.212
-606.171	-146.392	-0.176	0.015
-605.157	437.123	-0.267	-0.580
-604.142	-5.201	0.217	-0.149
-603.128	-4.992	-0.345	-0.237
-602.113	-9.087	0.185	-0.123
-601.098	24.407	-0.113	0.093
-600.084	29.504	-0.117	0.099
-599.069	-200.000	0.022	-0.097
-598.055	-200.000	-0.004	-0.057
-597.040	-0.936	-0.090	-0.064
-596.025	191.476	-0.211	-0.317
-595.011	-43.847	-0.297	-0.149
-593.996	71.343	-0.217	-0.225
-592.982	-36.295	-0.064	0.034
-591.967	800.000	-0.155	0.432
-590.952	121.742	-0.178	0.221
-589.938	-177.516	0.187	-0.005
-588.923	86.764	0.053	-0.058
-587.909	98.348	-0.252	-0.290
-586.894	-103.100	0.226	-0.053
-585.879	-136.374	0.182	0.021
-584.865	250.863	0.193	-0.326
-583.850	-90.465	-0.165	-0.048
-582.836	72.961	0.138	-0.143
-581.821	364.713	-0.223	-0.447
-580.806	210.429	0.127	-0.199
-579.792	-61.023	-0.250	0.105
-578.777	-11.367	-0.103	0.067
-577.763	327.564	-0.124	-0.237
-576.748	-36.729	-0.158	-0.085
-575.733	147.818	0.024	-0.032
-574.719	104.003	0.154	0.180
-573.704	113.494	0.135	0.164
-572.690	406.874	-0.139	-0.292
-571.675	-75.267	0.419	0.149
-570.661	-200.000	-0.034	-0.262
-569.646	-161.768	-0.063	-0.003
-568.631	25.281	-0.048	0.040
-567.617	245.060	0.115	0.193
-566.602	21.797	0.200	0.162
-565.588	354.470	0.052	-0.103
-564.573	-69.730	0.379	-0.144
-563.558	-49.494	0.342	-0.163
-562.544	510.041	0.151	-0.349
-561.529	-200.000	0.026	0.237
-560.515	-200.000	-0.018	-0.342
-559.500	454.078	-0.086	-0.190
-558.485	-88.433	0.118	-0.035
-557.471	71.714	-0.136	0.140
-556.456	-130.221	-0.373	-0.051
-555.442	-200.000	-0.035	-0.523
-554.427	6.719	-0.192	-0.142
-553.412	-83.107	0.224	0.072
-552.398	-15.977	-0.228	0.145
-551.383	41.820	0.098	0.088
-550.369	800.000	0.011	-0.033
-549.354	-113.412	-0.385	-0.075
-548.339	-200.000	0.146	0.000
-547.325	118.182	0.156	-0.191
-546.310	-67.196	-0.262	0.103
-545.296	45.081	0.214	0.197
-544.281	-200.000	-0.008	-0.464
-543.266	800.000	0.089	-0.380
-542.252	423.608	0.101	0.217
-541.237	-133.461	-0.242	0.030
-540.223	-200.000	-0.010	-0.217
-539.208	-200.000	-0.048	-0.372
-538.193	-200.000	0.012	0.084
-537.179	-58.306	0.167	-0.072
-536.164	124.919	-0.106	-0.133
-535.150	-7.246	0.123	0.083
-534.135	-200.000	0.027	0.246
-533.121	65.833	-0.139	0.140
-532.106	1.749	-0.145	0.104
-531.091	268.983	-0.194	0.338
-530.077	-200.000	0.033	0.170
-529.062	-200.000	-0.034	-0.237
-528.048	354.924	0.081	-0.160
-527.033	-200.000	-0.044	0.278
-526.018	156.116	-0.049	0.067
-525.004	408.097	0.267	-0.561
-523.989	-96.656	-0.409	-0.107
-522.975	228.796	-0.176	0.286
-521.960	-200.000	0.043	-0.211
-520.945	-200.000	0.055	-0.445
-519.931	-59.091	0.289	-0.124
-518.916	-200.000	-0.008	-0.238
-517.902	99.601	0.109	-0.125
-516.887	-142.718	-0.055	0.005
-515.872	-157.906	-0.158	0.009
-514.858	-114.454	-0.229	0.044
-513.843	-200.000	0.026	0.116
-512.829	119.575	0.193	0.237
-511.814	208.548	0.243	0.378
-510.799	15.940	0.034	0.027
-509.785	61.089	-0.153	0.151
-508.770	800.000	-0.080	-0.264
-507.756	800.000	0.065	-0.216
-506.741	213.880	-0.154	0.242
-505.726	-168.657	0.119	-0.004
-504.712	800.000	0.031	0.118
-503.697	-71.521	0.057	-0.021
-502.683	-61.636	-0.095	-0.040
-501.668	680.173	-0.053	-0.137
-500.653	-41.855	-0.203	0.104
-499.639	-37.292	0.300	0.160
-498.624	73.734	-0.127	-0.133
-497.610	354.806	0.028	-0.055
-496.595	-84.002	-0.028	0.009
-495.581	160.972	0.165	0.229
-494.566	-57.681	-0.267	0.116
-493.551	-200.000	0.025	0.121
-492.537	-49.828	-0.197	-0.093
-491.522	-200.000	-0.048	-0.210
-490.508	334.936	0.138	0.265
-489.493	255.314	0.075	0.127
-488.478	-80.922	-0.047	-0.015
-487.464	4.019	-0.180	0.131
-486.449	-66.134	-0.209	0.083
-485.435	119.731	-0.123	0.152
-484.420	406.161	0.121	-0.254
-483.405	-200.000	0.024	-0.177
-482.391	-54.630	0.196	-0.088
-481.376	-124.515	0.178	-0.027
-480.362	191.299	-0.177	-0.265
-479.347	18.701	0.069	0.055
-478.332	-125.171	0.154	-0.023
-477.318	-61.525	-0.050	0.021
-476.303	12.679	0.232	0.178
-475.289	558.590	0.074	-0.177
-474.274	-60.967	0.129	-0.054
-473.259	-200.000	-0.011	-0.152
-472.245	210.048	-0.207	0.322
-471.230	-200.000	-0.050	0.391
-470.216	-29.385	-0.047	-0.027
-469.201	138.466	-0.117	0.153
-468.186	-200.000	0.025	-0.204
-467.172	-200.000	-0.008	-0.190
-466.157	-108.989	-0.100	0.021
-465.143	-200.000	-0.055	0.252
-464.128	-84.926	0.144	0.045
-463.113	15.254	0.334	0.260
-462.099	-90.330	0.253	-0.073
-461.084	-91.106	0.316	-0.090
-460.070	-200.000	0.003	0.133
-459.055	-26.480	-0.316	0.184
-458.040	-200.000	0.000	-0.034
-457.026	131.322	0.145	0.184
-456.011	-51.177	-0.243	-0.113
-454.997	-200.000	0.039	0.183
-453.982	-74.285	0.447	-0.160
-452.968	105.588	0.074	0.087
-451.953	-200.000	-0.000	0.177
-450.938	-200.000	-0.021	0.294
-449.924	85.839	0.147	-0.160
-448.909	800.000	0.079	-0.284
-447.895	-187.856	-0.187	0.002
-446.880	-88.739	0.170	-0.050
-445.865	303.568	-0.153	0.281
-444.851	800.000	0.056	-0.209
-443.836	-200.000	-0.024	-0.140
-442.822	-200.000	0.008	0.101
-441.807	-26.221	0.222	0.129
-440.792	-25.580	-0.150	-0.088
-439.778	176.060	-0.097	-0.140
-438.763	145.467	0.117	0.156
-437.749	-99.902	-0.305	-0.076
-436.734	-83.348	-0.109	0.035
-435.719	31.377	-0.130	0.110
-434.705	-103.263	0.276	-0.065
-433.690	41.968	-0.136	-0.122
-432.676	81.817	0.038	-0.041
-431.661	-200.000	0.036	0.199
-430.646	119.450	-0.177	0.217
-429.632	-9.073	0.212	0.140
-428.617	800.000	-0.097	0.291
-427.603	800.000	-0.060	-0.215
-426.588	-92.953	0.258	0.071
-425.573	47.129	-0.012	0.011
-424.559	-50.106	0.031	-0.015
-423.544	800.000	-0.023	0.066
-422.530	547.219	-0.026	-0.061
-421.515	-17.992	-0.122	0.076
-420.500	655.422	-0.113	0.286
-419.486	-115.283	-0.343	-0.064
-418.471	187.133	-0.057	-0.085
-417.457	-156.535	0.303	-0.019
-416.442	-72.615	-0.287	0.105
-415.428	-29.261	-0.233	0.132
-414.413	286.335	0.081	-0.145
-413.398	800.000	-0.097	0.346
-412.384	-123.868	0.096	0.015
-411.369	800.000	-0.063	0.214
-410.355	-200.000	-0.030	-0.242
-409.340	800.000	0.150	-0.438
-408.325	234.227	-0.169	-0.276
-407.311	-175.818	0.237	0.006
-406.296	-126.634	-0.105	0.015
-405.282	173.064	-0.118	-0.169
-404.267	-169.209	0.256	-0.009
-403.252	66.513	-0.149	-0.150
-402.238	76.937	0.215	-0.226
-401.223	800.000	-0.028	-0.102
-400.209	-158.377	-0.229	0.013
-399.194	105.832	0.141	-0.166
-398.179	-200.000	0.003	0.189
-397.165	-71.502	0.108	-0.040
-396.150	365.310	0.063	-0.125
-395.136	123.549	0.036	0.045
-394.121	-125.688	0.461	0.069
-393.106	57.150	-0.171	0.165
-392.092	800.000	0.110	0.462
-391.077	-200.000	-0.029	0.133
-390.063	-200.000	0.008	0.184
-389.048	137.229	0.029	0.038
-388.033	800.000	0.078	-0.224
-387.019	380.062	-0.170	-0.345
-386.004	64.934	-0.337	-0.336
-384.990	59.463	-0.188	-0.184
-383.975	-52.196	0.211	-0.097
-382.960	75.500	0.173	0.180
-381.946	-177.901	-0.615	-0.015
-380.931	-106.584	-0.277	-0.061
-379.917	-7.828	0.123	0.082
-378.902	-178.036	-0.506	0.012
-377.888	75.942	0.224	-0.234
-376.873	-20.242	-0.105	-0.064
-375.858	-55.485	-0.289	0.128
-374.844	69.716	-0.064	0.066
-373.829	-200.000	0.017	0.174
-372.815	113.468	-0.115	0.139
-371.800	800.000	0.049	0.185
-370.785	208.384	-0.043	-0.067
-369.771	-101.796	-0.153	-0.037
-368.756	62.966	0.219	-0.217
-367.742	141.979	-0.177	0.232
-366.727	-185.280	-0.220	-0.003
-365.712	74.193	-0.172	-0.179
-364.698	350.119	-0.043	0.085
-363.683	113.430	-0.109	-0.131
-362.669	-154.552	0.365	0.024
-361.654	-200.000	-0.005	-0.171
-360.639	-200.000	0.023	-0.213
-359.625	-181.134	0.085	-0.002
-358.610	114.784	-0.117	0.140
-357.596	567.621	-0.057	0.138
-356.581	57.727	0.246	0.237
-355.566	89.750	-0.143	-0.157
-354.552	470.584	-0.147	-0.326
-353.537	8.138	0.241	0.179
-352.523	-6.571	-0.160	0.107
-351.508	-18.716	-0.043	-0.027
-350.493	-200.000	0.008	-0.113
-349.479	-92.360	0.425	0.118
-348.464	-200.000	0.047	-0.431
-347.450	155.581	0.112	-0.152
-346.435	-200.000	-0.102	0.589
-345.420	194.543	-0.245	0.368
-344.406	70.451	0.100	-0.102
-343.391	313.421	-0.160	0.298
-342.377	212.382	0.144	0.225
-341.362	-139.879	-0.229	0.024
-340.348	-77.225	-0.254	-0.087
-339.333	24.151	-0.165	0.134
-338.318	-84.152	-0.210	-0.066
-337.304	48.255	-0.052	-0.048
-336.289	-200.000	0.001	0.114
-335.275	509.089	0.096	0.220
-334.260	78.300	-0.262	0.276
-333.245	-6.510	0.228	0.154
-332.231	-38.723	0.264	0.138
-331.216	52.562	0.122	0.115
-330.202	-127.796	-0.236	-0.034
-329.187	-27.343	0.125	-0.072
-328.172	-126.568	-0.386	0.057
-327.158	-200.000	-0.293	-0.001
-326.143	-88.423	-0.129	-0.038
-325.129	161.808	0.073	-0.101
-324.114	-18.498	0.087	-0.053
-323.099	-8.040	0.116	0.077
-322.085	93.652	0.118	0.132
-321.070	-200.000	-0.028	-0.224
-320.056	-166.618	-0.144	-0.006
-319.041	-95.011	0.154	-0.041
-318.026	-65.978	-0.130	0.051
-317.012	-17.975	-0.161	-0.100
-315.997	-99.267	0.148	0.037
-314.983	-200.000	-0.005	0.059
-313.968	800.000	-0.060	-0.205
-312.953	-92.250	-0.229	0.064
-311.939	-17.060	0.214	0.133
-310.924	-22.472	-0.148	0.088
-309.910	800.000	0.021	0.083
-308.895	-53.231	-0.010	-0.004
-307.880	797.203	0.136	-0.370
-306.866	-87.884	0.209	0.062
-305.851	706.640	0.082	0.214
-304.837	-105.466	0.192	0.043
-303.822	-69.789	-0.142	-0.053
-302.807	270.041	-0.162	0.282
-301.793	163.193	-0.078	-0.107
-300.778	212.639	-0.092	-0.143
-299.764	594.343	0.034	-0.083
-298.749	-75.256	-0.178	0.063
-297.735	-107.179	-0.143	0.031
-296.720	529.429	-0.216	-0.503
-295.705	800.000	0.086	0.341
-294.691	-17.996	-0.190	0.118
-293.676	147.073	0.057	-0.076
-292.662	4.337	-0.274	0.198
-291.647	800.000	-0.024	-0.100
-290.632	300.120	-0.037	-0.067
-289.618	124.687	-0.070	0.087
-288.603	505.255	0.081	0.185
-287.589	-200.000	0.019	0.163
-286.574	107.581	-0.168	0.197
-285.559	29.908	0.300	0.252
-284.545	-200.000	0.027	0.179
-283.530	-139.516	0.264	0.028
-282.516	360.583	0.111	-0.218
-281.501	62.486	-0.030	-0.029
-280.486	-158.006	0.264	-0.015
-279.472	-117.010	0.365	-0.066
-278.457	-200.000	0.011	0.189
-277.443	-42.147	-0.164	0.083
-276.428	-118.059	0.195	-0.034
-275.413	-149.983	-0.073	-0.006
-274.399	-169.007	0.211	-0.008
-273.384	-200.000	-0.016	-0.071
-272.370	-102.844	-0.498	-0.117
-271.355	800.000	0.082	0.326
-270.340	-111.817	-0.130	-0.026
-269.326	-78.172	0.051	0.017
-268.311	288.760	0.130	-0.232
-267.297	29.512	-0.307	0.257
-266.282	40.720	0.180	0.160
-265.267	-200.000	-0.014	-0.446
-264.253	-57.377	-0.104	-0.045
-263.238	-125.779	-0.068	0.010
-262.224	-66.233	0.154	-0.060
-261.209	-154.493	0.241	0.016
-260.195	800.000	-0.077	0.218
-259.180	104.737	0.252	0.292
-258.165	-76.832	0.215	0.074
-257.151	-200.000	-0.029	0.253
-256.136	800.000	0.052	-0.146
-255.122	186.896	0.032	-0.047
-254.107	-30.749	-0.047	0.026
-253.092	42.062	0.050	0.045
-252.078	5.275	0.084	-0.061
-251.063	181.036	0.164	0.238
-250.049	800.000	-0.088	0.327
-249.034	800.000	-0.059	0.190
-248.019	546.633	-0.153	-0.360
-247.005	-184.312	0.511	-0.008
-245.990	-18.963	-0.192	0.118
-244.976	17.797	-0.194	-0.152
-243.961	-71.552	-0.239	0.088
-242.946	55.018	-0.078	-0.075
-241.932	-200.000	0.060	-0.277
-240.917	238.798	-0.088	-0.144
-239.903	-101.483	-0.239	-0.057
-238.888	145.883	0.180	-0.237
-237.873	-62.475	0.158	0.065
-236.859	26.432	-0.127	0.104
-235.844	93.483	0.037	0.041
-234.830	53.256	0.183	0.173
-233.815	291.753	-0.140	-0.250
-232.800	-93.809	0.243	-0.066
-231.786	-68.712	0.084	-0.032
-230.771	214.151	0.015	-0.024
-229.757	22.930	-0.260	-0.210
-228.742	-200.000	0.021	-0.115
-227.727	-96.379	0.176	0.046
-226.713	1.787	-0.075	0.053
-225.698	-145.314	0.139	-0.012
-224.684	37.007	0.449	0.391
-223.669	-107.187	0.165	-0.036
-222.655	374.250	0.085	-0.170
-221.640	16.111	-0.136	0.105
-220.625	-139.872	0.272	-0.028
-219.611	-200.000	-0.037	-0.587
-218.596	800.000	0.031	-0.098
-217.582	800.000	-0.010	-0.042
-216.567	305.138	-0.101	0.185
-215.552	-126.015	0.128	-0.019
-214.538	250.949	0.167	0.280
-213.523	-80.120	0.206	0.068
-212.509	-90.458	0.157	-0.045
-211.494	-200.000	-0.005	-0.127
-210.479	216.846	-0.051	-0.079
-209.465	293.941	-0.079	0.141
-208.450	-146.557	0.407	0.035
-207.436	-200.000	0.034	-0.212
-206.421	354.517	-0.076	-0.148
-205.406	-36.219	0.387	-0.205
-204.392	105.868	-0.195	0.226
-203.377	27.898	0.086	0.071
-202.363	-200.000	-0.019	0.139
-201.348	297.884	-0.129	0.234
-200.333	50.122	0.143	0.133
-199.319	-200.000	0.025	0.207
-198.304	-200.000	0.030	-0.221
-197.290	-143.973	0.349	0.032
-196.275	418.297	0.281	-0.591
-195.260	-172.323	0.176	-0.006
-194.246	113.197	-0.158	0.189
-193.231	142.766	0.100	-0.131
-192.217	-18.543	0.230	-0.141
-191.202	-200.000	0.009	-0.096
-190.187	-128.180	-0.365	-0.051
-189.173	-23.629	-0.201	0.119
-188.158	-74.347	0.204	-0.072
-187.144	-105.953	0.037	0.008
-186.129	313.552	-0.131	0.242
-185.114	-114.876	0.115	-0.022
-184.100	363.634	0.074	0.147
-183.085	-91.319	0.227	-0.064
-182.071	-27.328	-0.210	-0.120
-181.056	265.332	0.194	0.332
-180.042	291.525	0.043	-0.077
-179.027	206.998	0.072	0.110
-178.012	602.129	-0.175	0.427
-176.998	-194.603	0.216	-0.002
-175.983	-139.356	0.164	0.017
-174.969	-86.628	-0.016	-0.005
-173.954	-70.789	0.231	-0.086
-172.939	4.505	-0.006	-0.004
-171.925	261.504	0.157	0.267
-170.910	-167.635	-0.159	0.006
-169.896	40.177	0.129	0.113
-168.881	-81.510	-0.276	-0.089
-167.866	42.397	0.150	0.134
-166.852	-71.391	-0.284	0.104
-165.837	618.279	0.105	-0.258
-164.823	-62.810	0.135	-0.055
-163.808	800.000	-0.018	-0.053
-162.793	-200.000	-0.025	0.110
-161.779	80.808	0.046	0.049
-160.764	-200.000	0.044	0.241
-159.750	-28.773	0.221	-0.125
-158.735	587.314	-0.107	0.258
-157.720	-200.000	-0.004	0.200
-156.706	55.751	0.163	-0.155
-155.691	747.584	0.067	0.177
-154.677	-200.000	-0.022	-0.125
-153.662	100.517	0.127	0.145
-152.647	94.819	-0.205	0.229
-151.633	156.229	0.038	-0.052
-150.618	-200.000	-0.023	0.154
-149.604	291.432	0.052	0.092
-148.589	46.336	0.218	0.198
-147.574	97.389	-0.152	-0.171
-146.560	800.000	-0.048	0.168
-145.545	15.270	0.188	-0.145
-144.531	564.901	0.060	0.141
-143.516	-102.494	-0.179	0.042
-142.502	-200.000	0.025	0.123
-141.487	-119.918	0.316	0.053
-140.472	132.824	-0.240	0.304
-139.458	-200.000	-0.016	-0.217
-138.443	93.527	-0.088	0.098
-137.429	-27.829	0.058	-0.033
-136.414	800.000	-0.055	0.214
-135.399	158.066	0.070	-0.096
-134.385	-200.000	-0.012	0.329
-133.370	63.553	-0.118	-0.116
-132.356	-79.421	-0.048	-0.016
-131.341	-21.860	-0.162	0.097
-130.326	107.618	0.276	0.322
-129.312	-200.000	0.010	-0.118
-128.297	-66.810	0.237	0.092
-127.283	-112.426	-0.117	0.023
-126.268	-108.051	0.310	-0.066
-125.253	800.000	0.020	0.075
-124.239	-159.400	0.250	-0.014
-123.224	66.213	-0.057	-0.057
-122.210	-67.529	0.042	0.016
-121.195	240.815	-0.020	0.033
