DTS Sentinel unit serial number:	SN413079Multiplexer serial number:	ORYXHardware model number:	OX4-SRSoftware version number:	ORYX F/W v4.00 Oryx Data Collector v3.7.2.0data status	okinstallation	princeton_trtdifferential loss correction	single-endedforward channel	channel 2reverse channel	N/Adate	2019/09/17time	06:35:35forward acquisition time	60.00reverse acquisition time	0.00gamma	496.2192k internal	0.2332k external	0.2332temperature offset calibration	0.9979default loss term (dB/km)	0.3790temperature slope calibration	1.0000multiplexer offset coefficient	1.0000multiplexer slope coefficient	1.0000fibre end	0.00T internal ref (°C)	28.06T ext. ref 1 (°C)	0.14T ext. ref 2 (°C)	21.38length (m)	temperature (°C)	Stokes	anti-Stokes-747.200	-144.707	0.358	-0.033
-746.185	-126.190	-0.464	0.070
-745.171	434.407	0.155	0.340
-744.156	58.534	-0.134	0.132
-743.142	-200.000	-0.011	-0.140
-742.127	-19.288	-0.255	0.159
-741.112	31.034	0.142	0.122
-740.098	-84.269	-0.216	0.069
-739.083	-85.324	0.221	-0.069
-738.069	800.000	-0.107	-0.366
-737.054	112.875	0.095	-0.115
-736.039	-141.881	0.168	0.017
-735.025	264.608	0.236	0.414
-734.010	-99.902	-0.256	-0.064
-732.996	-39.664	0.509	-0.268
-731.981	-71.066	-0.211	-0.080
-730.966	115.266	0.240	0.295
-729.952	-26.445	-0.225	0.133
-728.937	1.141	0.078	-0.056
-727.923	-137.553	0.134	-0.015
-726.908	382.108	0.039	-0.082
-725.894	-7.625	-0.115	0.078
-724.879	-92.357	0.019	0.005
-723.864	13.189	-0.075	0.059
-722.850	22.888	-0.240	0.198
-721.835	112.263	-0.318	-0.387
-720.821	268.521	0.178	-0.314
-719.806	231.636	0.112	-0.185
-718.791	-63.552	-0.346	-0.143
-717.777	129.462	-0.215	0.276
-716.762	-75.434	-0.050	-0.018
-715.748	779.636	-0.059	-0.162
-714.733	800.000	0.024	-0.095
-713.718	428.504	0.130	-0.283
-712.704	68.653	-0.194	-0.200
-711.689	159.743	-0.204	-0.285
-710.675	800.000	0.064	0.257
-709.660	104.259	0.057	0.068
-708.645	800.000	-0.033	0.104
-707.631	388.282	0.166	-0.345
-706.616	800.000	0.127	0.420
-705.602	154.039	0.017	-0.024
-704.587	-200.000	-0.019	0.109
-703.572	-83.166	-0.136	0.044
-702.558	35.910	0.155	-0.137
-701.543	-58.513	-0.324	0.141
-700.529	78.690	-0.192	0.206
-699.514	-140.871	-0.375	0.039
-698.499	5.504	0.195	0.145
-697.485	357.393	0.041	-0.082
-696.470	-200.000	-0.002	-0.098
-695.456	-200.000	0.015	-0.389
-694.441	-123.258	0.166	0.027
-693.426	86.322	0.182	-0.202
-692.412	-16.963	-0.211	0.134
-691.397	-3.590	0.185	-0.129
-690.383	252.136	-0.057	-0.097
-689.368	-90.832	-0.105	-0.030
-688.354	-199.105	0.064	-0.000
-687.339	-200.000	-0.002	0.070
-686.324	-200.000	-0.038	-0.220
-685.310	-35.519	-0.343	-0.187
-684.295	-17.920	-0.111	-0.070
-683.281	259.994	0.017	0.029
-682.266	310.926	0.066	-0.125
-681.251	-170.520	-0.204	-0.007
-680.237	100.542	-0.239	0.278
-679.222	-136.164	0.139	-0.016
-678.208	-109.139	0.112	0.024
-677.193	-73.656	0.175	0.064
-676.178	-90.018	-0.162	0.047
-675.164	-200.000	0.029	0.203
-674.149	800.000	-0.009	-0.028
-673.135	-56.887	-0.230	0.102
-672.120	-38.474	0.166	0.088
-671.105	-200.000	-0.034	-0.229
-670.091	-91.161	0.199	0.057
-669.076	-60.585	-0.105	0.045
-668.062	111.698	0.128	-0.155
-667.047	176.720	-0.143	-0.208
-666.032	-200.000	-0.008	0.159
-665.018	-56.768	-0.113	-0.050
-664.003	-104.633	0.351	-0.081
-662.989	-142.128	0.145	-0.014
-661.974	800.000	0.040	0.119
-660.959	-78.399	-0.189	-0.065
-659.945	-137.258	-0.092	-0.010
-658.930	-32.903	-0.396	-0.221
-657.916	103.844	0.080	0.094
-656.901	-200.000	-0.043	0.204
-655.886	-200.000	0.094	-0.412
-654.872	-49.859	-0.504	-0.240
-653.857	-140.159	0.279	0.029
-652.843	70.288	-0.103	0.106
-651.828	-26.326	0.135	0.079
-650.814	-200.000	-0.010	-0.072
-649.799	800.000	0.053	0.206
-648.784	-110.436	-0.050	0.010
-647.770	103.385	0.177	0.207
-646.755	57.788	0.095	-0.093
-645.741	-200.000	0.055	-0.265
-644.726	91.433	-0.146	0.164
-643.711	-200.000	-0.001	-0.240
-642.697	-132.222	0.240	0.031
-641.682	-94.083	0.239	0.066
-640.668	571.176	-0.080	0.196
-639.653	47.952	-0.057	-0.054
-638.638	-18.524	-0.239	-0.149
-637.624	-200.000	0.017	-0.256
-636.609	-144.521	-0.167	-0.015
-635.595	-169.058	-0.308	-0.011
-634.580	-200.000	0.020	0.094
-633.565	-71.691	0.297	0.111
-632.551	-146.810	0.149	0.013
-631.536	505.544	0.136	0.315
-630.522	-122.151	-0.264	0.043
-629.507	-133.519	0.009	0.001
-628.492	322.603	-0.175	0.334
-627.478	-200.000	-0.027	0.504
-626.463	694.783	0.139	0.367
-625.449	5.840	-0.205	0.152
-624.434	326.458	-0.174	-0.334
-623.419	-42.381	0.125	0.064
-622.405	92.116	-0.183	0.207
-621.390	-200.000	-0.027	0.153
-620.376	-41.524	0.086	0.045
-619.361	-151.533	0.212	0.016
-618.346	-200.000	-0.021	0.128
-617.332	-80.294	0.151	-0.051
-616.317	160.178	-0.160	-0.223
-615.303	-65.473	-0.094	-0.038
-614.288	-110.501	-0.272	-0.056
-613.273	-13.287	-0.245	0.159
-612.259	-200.000	0.020	-0.222
-611.244	81.919	-0.252	-0.273
-610.230	800.000	0.058	-0.184
-609.215	369.284	0.110	0.224
-608.201	245.852	0.079	0.134
-607.186	-22.723	-0.355	-0.214
-606.171	16.333	0.170	-0.134
-605.157	28.200	-0.071	-0.060
-604.142	-61.871	-0.185	-0.078
-603.128	7.143	-0.110	-0.082
-602.113	800.000	0.092	0.324
-601.098	-74.540	0.170	0.061
-600.084	-200.000	0.000	0.231
-599.069	-200.000	0.042	0.193
-598.055	-101.874	-0.587	0.142
-597.040	-151.913	0.210	-0.015
-596.025	-34.335	0.177	0.097
-595.011	-9.522	0.110	0.074
-593.996	64.373	0.110	-0.110
-592.982	300.482	-0.141	0.260
-591.967	742.235	0.113	-0.304
-590.952	517.367	-0.070	-0.164
-589.938	234.499	-0.146	0.241
-588.923	-4.793	0.282	0.195
-587.909	-200.000	0.002	0.046
-586.894	-77.888	0.156	0.054
-585.879	281.289	-0.069	0.124
-584.865	-109.331	-0.199	0.042
-583.850	272.557	-0.022	-0.039
-582.836	624.454	0.082	-0.206
-581.821	5.196	-0.106	0.078
-580.806	530.584	0.028	-0.066
-579.792	800.000	0.032	0.125
-578.777	-200.000	0.012	0.198
-577.763	-42.757	-0.288	-0.146
-576.748	250.964	0.097	0.164
-575.733	-6.598	0.152	0.104
-574.719	800.000	-0.054	0.198
-573.704	-200.000	-0.021	0.319
-572.690	800.000	-0.088	0.312
-571.675	-200.000	0.039	-0.258
-570.661	-25.477	-0.185	0.109
-569.646	-104.676	0.179	0.041
-568.631	236.386	-0.139	0.229
-567.617	344.896	-0.079	0.156
-566.602	14.736	0.101	-0.079
-565.588	65.552	0.267	-0.270
-564.573	-200.000	-0.034	-0.162
-563.558	-86.052	-0.286	0.088
-562.544	-200.000	-0.052	-0.314
-561.529	203.921	0.113	-0.175
-560.515	306.240	0.084	-0.157
-559.500	-119.422	-0.129	0.022
-558.485	161.162	-0.134	-0.188
-557.471	74.396	-0.311	0.326
-556.456	-200.000	-0.051	0.263
-555.442	117.683	0.086	0.105
-554.427	51.804	-0.145	-0.138
-553.412	800.000	0.048	-0.157
-552.398	174.570	-0.256	0.370
-551.383	284.568	-0.197	0.354
-550.369	-200.000	0.067	0.311
-549.354	-112.406	-0.102	-0.020
-548.339	576.337	0.021	-0.051
-547.325	125.030	0.023	0.029
-546.310	-157.235	-0.141	-0.009
-545.296	89.185	-0.043	0.048
-544.281	-200.000	-0.042	0.214
-543.266	163.116	0.087	0.122
-542.252	-169.833	0.292	0.010
-541.237	800.000	0.055	-0.164
-540.223	128.566	-0.170	-0.216
-539.208	-68.021	0.327	0.127
-538.193	-200.000	-0.034	0.476
-537.179	-80.099	-0.244	-0.082
-536.164	-59.269	0.177	0.076
-535.150	569.698	-0.055	0.134
-534.135	-145.570	-0.290	0.026
-533.121	187.441	0.154	0.229
-532.106	-149.813	0.269	0.021
-531.091	-200.000	-0.003	0.027
-530.077	800.000	-0.054	0.187
-529.062	279.498	-0.187	0.334
-528.048	15.921	-0.138	-0.108
-527.033	37.786	0.178	0.158
-526.018	800.000	-0.041	-0.162
-525.004	238.187	-0.169	-0.280
-523.989	-123.465	-0.210	0.033
-522.975	51.118	-0.122	-0.115
-521.960	298.035	0.092	0.168
-520.945	264.324	-0.071	-0.124
-519.931	-45.678	-0.280	0.138
-518.916	93.816	0.110	0.124
-517.902	-173.691	-0.426	-0.013
-516.887	-127.869	-0.139	0.020
-515.872	-54.261	-0.248	-0.112
-514.858	80.969	0.067	-0.072
-513.843	-90.326	-0.190	-0.055
-512.829	397.733	0.161	0.335
-511.814	188.661	-0.099	-0.148
-510.799	-18.730	0.213	0.133
-509.785	-90.188	0.122	-0.035
-508.770	-15.379	0.067	0.043
-507.756	27.462	-0.268	-0.225
-506.741	18.377	0.214	-0.170
-505.726	200.996	-0.090	-0.138
-504.712	-200.000	0.001	0.099
-503.697	347.233	-0.117	-0.229
-502.683	116.091	-0.117	-0.143
-501.668	800.000	-0.092	-0.332
-500.653	-115.965	-0.212	-0.039
-499.639	123.109	-0.125	-0.156
-498.624	-200.000	0.032	-0.185
-497.610	-99.048	-0.114	0.029
-496.595	95.338	0.257	-0.292
-495.581	245.059	-0.112	-0.188
-494.566	-200.000	-0.029	0.141
-493.551	42.330	0.087	-0.079
-492.537	48.648	-0.144	0.135
-491.522	174.341	0.103	-0.148
-490.508	89.787	0.083	0.092
-489.493	67.735	0.247	0.251
-488.478	-46.289	-0.305	0.149
-487.464	-200.000	-0.005	-0.099
-486.449	-65.484	-0.230	0.092
-485.435	499.084	0.070	-0.161
-484.420	-23.559	-0.183	0.109
-483.405	-147.466	-0.300	-0.025
-482.391	-5.344	-0.120	0.082
-481.376	3.822	-0.135	-0.098
-480.362	162.902	-0.130	0.181
-479.347	800.000	0.049	0.195
-478.332	-31.908	0.130	0.073
-477.318	-173.496	-0.290	0.009
-476.303	233.654	-0.061	-0.100
-475.289	366.673	-0.167	-0.335
-474.274	-104.029	0.264	0.061
-473.259	45.982	-0.298	0.275
-472.245	70.600	0.173	-0.178
-471.230	-200.000	-0.031	0.159
-470.216	-105.968	0.212	0.048
-469.201	-87.677	-0.145	-0.044
-468.186	-52.628	0.214	-0.098
-467.172	-38.712	0.144	-0.076
-466.157	18.664	0.303	0.242
-465.143	-122.028	0.316	-0.052
-464.128	284.666	0.075	-0.134
-463.113	-200.000	-0.002	-0.057
-462.099	-37.468	-0.162	-0.086
-461.084	5.671	0.097	-0.072
-460.070	-26.584	0.214	-0.125
-459.055	-40.169	0.174	0.090
-458.040	551.252	0.072	-0.172
-457.026	118.665	-0.047	0.058
-456.011	6.785	0.282	0.209
-454.997	-27.201	-0.283	-0.164
-453.982	32.556	0.163	-0.140
-452.968	138.722	0.086	-0.112
-451.953	282.314	0.244	-0.434
-450.938	186.167	0.147	-0.218
-449.924	-82.266	-0.137	0.044
-448.909	189.314	-0.100	-0.149
-447.895	553.043	-0.145	-0.345
-446.880	-70.110	0.203	0.077
-445.865	800.000	-0.030	-0.127
-444.851	-69.860	0.217	-0.082
-443.836	-56.500	0.116	0.051
-442.822	184.993	0.052	0.076
-441.807	65.416	-0.192	0.193
-440.792	-84.156	0.058	0.018
-439.778	-23.851	0.096	-0.057
-438.763	69.338	-0.056	0.057
-437.749	-200.000	-0.025	0.542
-436.734	56.418	0.287	0.277
-435.719	-50.586	0.274	-0.129
-434.705	-128.432	-0.350	0.049
-433.690	-29.546	-0.105	-0.059
-432.676	207.590	-0.135	0.210
-431.661	-103.630	-0.406	0.095
-430.646	-68.051	-0.187	-0.072
-429.632	11.143	-0.111	-0.084
-428.617	235.100	-0.039	0.065
-427.603	12.573	-0.239	-0.183
-426.588	-200.000	0.004	0.214
-425.573	-200.000	0.043	0.209
-424.559	121.501	0.068	0.085
-423.544	-58.676	0.412	0.177
-422.530	-6.977	0.229	0.154
-421.515	-121.121	-0.249	0.041
-420.500	509.383	-0.068	0.157
-419.486	800.000	0.003	-0.010
-418.471	135.859	-0.071	0.092
-417.457	83.673	0.067	-0.072
-416.442	-66.073	0.249	0.099
-415.428	34.485	-0.148	-0.128
-414.413	521.986	-0.120	-0.280
-413.398	-200.000	0.072	-0.337
-412.384	340.453	0.104	-0.202
-411.369	98.969	-0.055	0.063
-410.355	304.599	0.129	0.237
-409.340	459.310	-0.133	0.295
-408.325	-39.901	0.066	0.034
-407.311	-87.696	-0.282	-0.084
-406.296	-121.293	0.100	-0.017
-405.282	-72.161	0.214	0.079
-404.267	800.000	-0.028	0.117
-403.252	-61.993	0.150	-0.062
-402.238	347.369	0.231	0.451
-401.223	226.415	0.045	-0.073
-400.209	800.000	0.049	0.195
-399.194	800.000	-0.032	0.126
-398.179	-165.252	0.140	-0.006
-397.165	-84.846	-0.476	-0.148
-396.150	-23.993	-0.162	0.096
-395.136	235.079	0.123	0.202
-394.121	48.713	-0.275	-0.256
-393.106	6.853	-0.198	-0.146
-392.092	68.773	0.132	-0.134
-391.077	-19.570	-0.197	0.121
-390.063	-91.567	-0.190	-0.054
-389.048	800.000	0.081	0.274
-388.033	-2.112	-0.175	-0.122
-387.019	-43.712	-0.259	0.130
-386.004	-75.542	0.348	-0.123
-384.990	-169.319	0.130	0.005
-383.975	100.145	0.129	-0.148
-382.960	-200.000	0.021	0.097
-381.946	-26.706	-0.129	0.075
-380.931	81.075	-0.060	-0.064
-379.917	-200.000	0.042	0.311
-378.902	-100.725	-0.376	0.092
-377.888	136.922	0.116	0.151
-376.873	-200.000	0.008	-0.056
-375.858	-14.083	-0.211	0.135
-374.844	77.554	-0.125	0.132
-373.829	-154.619	0.043	-0.003
-372.815	800.000	-0.037	0.146
-371.800	213.179	-0.065	-0.102
-370.785	-52.097	0.176	-0.081
-369.771	-33.878	-0.412	0.225
-368.756	100.113	0.036	-0.042
-367.742	-200.000	-0.015	0.096
-366.727	141.378	0.237	0.311
-365.712	28.006	0.218	0.183
-364.698	232.353	-0.109	0.177
-363.683	274.248	-0.073	-0.129
-362.669	-200.000	0.022	-0.393
-361.654	64.292	-0.186	-0.185
-360.639	-111.304	-0.194	0.039
-359.625	-9.639	0.023	-0.015
-358.610	800.000	-0.125	0.366
-357.596	-200.000	0.070	-0.342
-356.581	5.725	0.081	0.059
-355.566	643.227	0.085	-0.216
-354.552	-107.163	0.117	-0.026
-353.537	-98.998	-0.158	-0.040
-352.523	-18.468	0.165	0.102
-351.508	31.618	0.029	0.025
-350.493	541.280	0.072	0.169
-349.479	-200.000	-0.050	-0.244
-348.464	192.439	-0.045	-0.068
-347.450	170.427	-0.182	-0.258
-346.435	137.328	-0.171	-0.221
-345.420	692.075	-0.075	0.195
-344.406	441.455	0.104	-0.225
-343.391	-107.590	-0.283	-0.061
-342.377	119.502	-0.275	-0.337
-341.362	-200.000	-0.010	0.252
-340.348	-191.481	0.029	0.000
-339.333	216.709	0.084	-0.133
-338.318	759.028	0.126	0.337
-337.304	-117.875	-0.031	0.006
-336.289	800.000	-0.059	-0.257
-335.275	-7.049	0.065	0.044
-334.260	175.971	0.082	-0.118
-333.245	-200.000	0.001	0.016
-332.231	42.547	0.221	0.199
-331.216	-11.967	0.306	-0.199
-330.202	103.255	0.193	-0.224
-329.187	800.000	0.114	-0.334
-328.172	574.003	0.147	-0.355
-327.158	42.972	-0.302	-0.273
-326.143	-58.924	0.073	0.031
-325.129	65.494	0.154	0.154
-324.114	137.723	0.069	0.090
-323.099	-12.185	0.183	0.119
-322.085	62.520	0.412	0.407
-321.070	-200.000	0.040	0.361
-320.056	28.473	0.203	0.170
-319.041	800.000	0.139	-0.545
-318.026	-66.215	0.305	-0.120
-317.012	-77.259	-0.177	0.061
-315.997	800.000	-0.039	-0.120
-314.983	-200.000	0.038	-0.283
-313.968	800.000	-0.090	-0.278
-312.953	48.344	0.163	0.151
-311.939	491.749	0.147	-0.333
-310.924	800.000	-0.069	0.193
-309.910	-84.861	-0.293	0.091
-308.895	-200.000	-0.001	-0.184
-307.880	130.273	-0.137	0.174
-306.866	-200.000	-0.059	0.342
-305.851	800.000	0.124	0.365
-304.837	-117.402	-0.169	-0.030
-303.822	104.140	0.034	-0.040
-302.807	-200.000	0.063	-0.364
-301.793	161.479	0.071	0.098
-300.778	-184.736	-0.081	0.001
-299.764	-38.111	-0.102	-0.053
-298.749	-200.000	-0.015	0.101
-297.735	-200.000	0.041	-0.314
-296.720	216.644	0.053	-0.083
-295.705	76.046	0.192	0.201
-294.691	129.293	0.187	-0.236
-293.676	-46.914	-0.256	0.124
-292.662	-137.261	-0.379	0.043
-291.647	50.854	-0.113	-0.105
-290.632	41.258	0.222	-0.199
-289.618	-200.000	0.015	0.119
-288.603	-98.002	0.090	-0.023
-287.589	-77.051	0.101	0.035
-286.574	-200.000	-0.032	-0.251
-285.559	-200.000	0.024	-0.153
-284.545	593.661	-0.139	0.338
-283.530	-200.000	0.021	-0.217
-282.516	-200.000	-0.017	-0.211
-281.501	691.394	-0.102	0.263
-280.486	-31.322	-0.227	-0.126
-279.472	82.197	0.111	-0.119
-278.457	196.868	0.099	-0.149
-277.443	-91.528	0.058	-0.016
-276.428	-159.934	0.428	0.023
-275.413	-200.000	0.024	0.125
-274.399	-118.730	0.212	-0.037
-273.384	-200.000	0.029	-0.229
-272.370	-121.059	-0.148	-0.025
-271.355	-200.000	-0.024	0.363
-270.340	230.873	-0.096	-0.155
-269.326	136.503	-0.191	-0.246
-268.311	242.311	0.142	-0.234
-267.297	-91.337	0.253	-0.071
-266.282	13.784	0.132	0.101
-265.267	-59.416	-0.139	0.059
-264.253	-200.000	-0.083	0.000
-263.238	128.947	0.198	-0.250
-262.224	385.242	0.056	-0.114
-261.209	-18.788	-0.058	-0.036
-260.195	405.703	-0.065	-0.136
-259.180	343.727	0.110	-0.212
-258.165	-200.000	0.046	-0.208
-257.151	26.051	0.091	-0.075
-256.136	-200.000	-0.030	0.285
-255.122	142.149	0.205	-0.269
-254.107	58.568	0.106	0.103
-253.092	9.818	-0.165	-0.124
-252.078	-130.054	-0.211	-0.028
-251.063	174.991	0.107	0.153
-250.049	34.893	0.172	0.149
-249.034	-171.391	-0.302	-0.010
-248.019	621.448	0.115	-0.284
-247.005	-200.000	-0.059	-0.261
-245.990	433.203	-0.052	-0.111
-244.976	-97.448	-0.037	0.009
-243.961	-105.858	0.178	0.040
-242.946	-200.000	0.011	-0.062
-241.932	-46.456	0.186	0.090
-240.917	-21.685	0.086	0.052
-239.903	-166.338	-0.248	-0.010
-238.888	800.000	0.046	-0.134
-237.873	-106.016	0.217	0.048
-236.859	50.952	0.294	-0.275
-235.844	-200.000	0.023	0.126
-234.830	800.000	-0.023	0.079
-233.815	-200.000	0.015	0.406
-232.800	-9.816	-0.350	0.230
-231.786	-200.000	0.027	0.154
-230.771	120.630	0.138	0.169
-229.757	-200.000	0.022	-0.233
-228.742	80.640	0.229	0.243
-227.727	-47.383	0.252	-0.121
-226.713	-200.000	0.021	0.217
-225.698	239.304	0.122	-0.201
-224.684	-200.000	0.021	0.125
-223.669	-175.463	0.147	0.004
-222.655	-200.000	-0.001	0.392
-221.640	144.848	-0.091	0.120
-220.625	199.005	-0.022	-0.034
-219.611	-35.338	-0.218	-0.117
-218.596	539.191	-0.153	-0.358
-217.582	-195.708	0.257	-0.002
-216.567	800.000	0.086	0.322
-215.552	800.000	0.102	0.391
-214.538	-29.436	-0.123	0.069
-213.523	408.689	0.041	0.086
-212.509	800.000	0.109	-0.370
-211.494	800.000	-0.072	0.294
-210.479	-60.073	-0.237	0.099
-209.465	-151.585	-0.069	0.005
-208.450	-31.430	-0.023	0.013
-207.436	-52.712	0.220	-0.100
-206.421	-200.000	0.050	-0.519
-205.406	386.927	-0.133	-0.270
-204.392	87.373	0.070	0.076
-203.377	-200.000	-0.003	0.328
-202.363	-61.588	0.150	-0.062
-201.348	-114.950	-0.141	0.026
-200.333	800.000	-0.049	-0.135
-199.319	-200.000	0.076	0.329
-198.304	-174.203	-0.249	0.007
-197.290	547.447	-0.025	0.058
-196.275	-56.574	-0.253	-0.111
-195.260	-129.457	0.292	-0.040
-194.246	-200.000	0.036	-0.315
-193.231	-168.289	0.413	0.016
-192.217	-200.000	-0.001	-0.066
-191.202	659.780	0.067	-0.171
-190.187	562.353	0.149	-0.354
-189.173	613.609	-0.056	0.139
-188.158	-108.665	0.166	0.035
-187.144	800.000	-0.058	-0.227
-186.129	-68.405	-0.120	-0.046
-185.114	-200.000	-0.019	-0.275
-184.100	26.902	-0.149	0.123
-183.085	111.540	-0.270	0.321
-182.071	-200.000	0.063	-0.300
-181.056	-30.790	0.168	-0.093
-180.042	-200.000	-0.064	-0.373
-179.027	-200.000	0.018	-0.570
-178.012	800.000	0.040	-0.133
-176.998	-97.029	-0.144	0.037
-175.983	-124.205	0.304	0.047
-174.969	-96.454	-0.262	-0.068
-173.954	-119.196	0.101	-0.017
-172.939	48.795	0.174	-0.161
-171.925	-164.082	0.052	-0.002
-170.910	800.000	0.016	-0.054
-169.896	800.000	-0.050	-0.211
-168.881	-58.395	0.184	0.079
-167.866	110.381	0.258	-0.304
-166.852	-82.071	0.197	0.063
-165.837	-21.745	0.281	-0.168
-164.823	800.000	0.046	0.170
-163.808	-200.000	0.031	0.162
-162.793	-200.000	-0.017	-0.302
-161.779	103.592	-0.158	0.183
-160.764	-81.137	0.143	0.047
-159.750	-135.061	0.193	0.023
-158.735	-36.269	0.096	0.051
-157.720	3.102	-0.206	-0.147
-156.706	320.880	0.080	0.150
-155.691	151.890	-0.182	0.244
-154.677	18.328	0.160	-0.125
-153.662	800.000	0.023	0.086
-152.647	-200.000	0.010	0.080
-151.633	186.019	0.171	-0.250
-150.618	-200.000	0.035	-0.210
-149.604	-200.000	0.001	0.089
-148.589	-200.000	-0.023	-0.117
-147.574	-200.000	0.058	0.409
-146.560	51.069	-0.223	0.208
-145.545	-66.275	-0.069	-0.027
-144.531	-135.205	-0.166	0.020
-143.516	-92.749	0.223	-0.061
-142.502	-147.834	0.227	-0.019
-141.487	317.850	-0.076	-0.141
-140.472	-172.837	-0.099	-0.003
-139.458	-200.000	0.006	-0.114
-138.443	798.617	-0.088	0.239
-137.429	153.503	-0.215	-0.289
-136.414	72.815	0.161	0.165
-135.399	187.607	0.067	-0.099
-134.385	78.723	-0.140	0.147
-133.370	-107.032	0.281	0.061
-132.356	-200.000	0.048	0.385
-131.341	-69.018	0.296	0.112
-130.326	294.906	-0.104	-0.187
-129.312	795.053	0.118	0.319
-128.297	229.572	-0.020	-0.033
-127.283	-79.810	0.095	-0.031
-126.268	-12.800	-0.147	0.094
-125.253	29.024	0.134	0.111
-124.239	-100.588	0.131	0.032
-123.224	800.000	-0.039	-0.165
-122.210	380.657	0.029	0.059
-121.195	15.036	0.205	0.158
-120.180	749.879	-0.041	0.109
