DTS Sentinel unit serial number:	SN413079Multiplexer serial number:	ORYXHardware model number:	OX4-SRSoftware version number:	ORYX F/W v4.00 Oryx Data Collector v3.7.2.0data status	okinstallation	princeton_trtdifferential loss correction	single-endedforward channel	channel 2reverse channel	N/Adate	2019/09/17time	00:15:34forward acquisition time	60.00reverse acquisition time	0.00gamma	496.2192k internal	0.2329k external	0.2329temperature offset calibration	0.9971default loss term (dB/km)	0.3790temperature slope calibration	1.0000multiplexer offset coefficient	1.0000multiplexer slope coefficient	1.0000fibre end	0.00T internal ref (°C)	29.53T ext. ref 1 (°C)	0.09T ext. ref 2 (°C)	23.70length (m)	temperature (°C)	Stokes	anti-Stokes-747.200	722.245	-0.007	0.018
-746.185	-200.000	0.059	0.391
-745.171	-91.266	0.340	-0.098
-744.156	-200.000	0.007	0.031
-743.142	274.564	-0.063	0.112
-742.127	800.000	0.137	0.410
-741.112	83.954	-0.264	-0.290
-740.098	243.321	-0.211	0.357
-739.083	465.059	0.012	-0.027
-738.069	-87.397	-0.255	-0.078
-737.054	5.373	-0.112	0.083
-736.039	-148.947	-0.277	0.023
-735.025	-103.827	0.253	0.060
-734.010	261.677	-0.150	-0.261
-732.996	-28.895	-0.276	-0.159
-731.981	45.660	0.089	-0.083
-730.966	-37.178	-0.184	0.099
-729.952	-3.274	-0.124	-0.087
-728.937	-200.000	0.002	-0.276
-727.923	-200.000	-0.008	-0.167
-726.908	-64.915	0.077	-0.031
-725.894	-1.474	0.410	0.291
-724.879	294.691	-0.066	0.122
-723.864	-19.860	-0.318	-0.198
-722.850	-200.000	0.050	0.263
-721.835	-194.398	-0.383	0.003
-720.821	800.000	-0.029	-0.102
-719.806	-200.000	0.005	-0.253
-718.791	298.109	0.141	0.260
-717.777	800.000	0.079	-0.314
-716.762	326.732	0.092	0.177
-715.748	47.539	-0.188	-0.177
-714.733	45.692	-0.196	0.182
-713.718	69.809	-0.104	0.108
-712.704	-200.000	-0.044	-0.313
-711.689	234.288	-0.133	0.221
-710.675	-200.000	0.028	-0.162
-709.660	800.000	0.054	-0.186
-708.645	-103.854	-0.120	0.028
-707.631	-23.644	-0.290	-0.175
-706.616	-200.000	0.001	0.046
-705.602	-43.836	0.241	-0.122
-704.587	11.480	-0.238	0.183
-703.572	-119.153	0.121	0.021
-702.558	189.456	-0.145	0.219
-701.543	-117.090	-0.257	-0.047
-700.529	-57.431	0.204	0.090
-699.514	289.986	-0.004	-0.007
-698.499	-85.776	-0.364	-0.114
-697.485	202.503	0.232	0.360
-696.470	-50.290	0.071	0.034
-695.456	-166.766	-0.185	0.008
-694.441	-158.462	-0.223	0.013
-693.426	-142.369	-0.146	0.015
-692.412	-200.000	-0.001	-0.328
-691.397	-200.000	0.012	0.079
-690.383	318.015	-0.099	0.188
-689.368	257.278	0.144	0.248
-688.354	-45.302	0.038	0.019
-687.339	-200.000	0.001	-0.309
-686.324	-166.686	-0.137	0.006
-685.310	533.800	-0.049	0.117
-684.295	52.157	-0.171	0.164
-683.281	505.393	-0.093	0.217
-682.266	-65.068	0.334	-0.135
-681.251	-200.000	0.002	0.077
-680.237	20.507	-0.077	0.063
-679.222	47.804	-0.296	-0.277
-678.208	80.632	0.082	-0.089
-677.193	-23.599	-0.082	-0.049
-676.178	61.931	-0.171	-0.172
-675.164	-36.736	0.233	-0.126
-674.149	-147.321	-0.319	-0.027
-673.135	44.601	0.299	-0.276
-672.120	17.874	-0.111	0.089
-671.105	245.534	0.088	-0.149
-670.091	-17.139	-0.174	-0.110
-669.076	-108.876	0.477	-0.102
-668.062	-161.259	-0.294	-0.015
-667.047	-2.382	-0.131	-0.092
-666.032	-79.631	0.138	0.047
-665.018	-200.000	0.010	0.404
-664.003	34.879	-0.302	0.266
-662.989	68.294	-0.250	0.258
-661.974	22.770	-0.180	-0.148
-660.959	800.000	0.064	0.219
-659.945	57.574	-0.038	-0.037
-658.930	-15.129	0.118	-0.076
-657.916	800.000	0.051	-0.181
-656.901	-141.097	-0.237	0.024
-655.886	2.535	0.066	0.048
-654.872	-70.712	-0.270	-0.102
-653.857	-100.575	0.102	0.025
-652.843	506.269	-0.128	0.298
-651.828	800.000	0.021	0.077
-650.814	-120.626	-0.187	0.032
-649.799	54.187	-0.176	-0.170
-648.784	497.550	-0.085	-0.197
-647.770	-24.409	-0.287	0.172
-646.755	175.828	-0.025	-0.037
-645.741	406.579	0.059	0.125
-644.726	148.509	-0.106	0.143
-643.711	-159.333	0.316	0.018
-642.697	-125.573	0.155	0.024
-641.682	800.000	-0.065	0.191
-640.668	-24.268	-0.176	-0.106
-639.653	20.336	-0.046	-0.037
-638.638	3.813	-0.134	0.098
-637.624	-51.318	-0.365	0.171
-636.609	40.546	-0.130	0.118
-635.595	-200.000	-0.004	0.080
-634.580	-200.000	0.019	0.095
-633.565	-45.120	0.409	0.204
-632.551	-132.661	0.127	0.016
-631.536	-200.000	0.059	-0.283
-630.522	-200.000	-0.024	-0.160
-629.507	-76.017	-0.131	-0.046
-628.492	-36.075	-0.283	0.153
-627.478	39.765	0.095	0.085
-626.463	-200.000	-0.033	0.242
-625.449	-78.873	-0.169	-0.058
-624.434	69.227	-0.107	-0.110
-623.419	-200.000	0.017	-0.432
-622.405	-81.179	0.219	0.072
-621.390	-123.308	-0.212	0.034
-620.376	81.608	0.332	-0.360
-619.361	-200.000	-0.003	0.164
-618.346	392.030	-0.115	0.240
-617.332	800.000	-0.032	-0.094
-616.317	-200.000	0.010	-0.173
-615.303	40.394	-0.027	-0.024
-614.288	-35.677	0.216	-0.117
-613.273	-200.000	0.005	-0.196
-612.259	-6.824	-0.091	-0.062
-611.244	-97.008	-0.122	0.032
-610.230	14.897	0.074	-0.058
-609.215	-90.647	0.389	-0.113
-608.201	-200.000	0.039	0.213
-607.186	601.806	-0.123	0.306
-606.171	-200.000	-0.018	-0.185
-605.157	-200.000	0.002	0.130
-604.142	-103.799	0.267	-0.062
-603.128	-96.076	0.183	-0.049
-602.113	-80.680	-0.118	-0.039
-601.098	407.039	-0.110	-0.233
-600.084	169.581	-0.105	0.151
-599.069	-9.173	0.262	-0.175
-598.055	-108.380	-0.314	0.068
-597.040	-107.314	-0.198	0.044
-596.025	397.819	-0.079	-0.166
-595.011	-4.708	-0.182	0.126
-593.996	42.381	0.156	0.142
-592.982	233.085	0.142	-0.233
-591.967	113.860	-0.069	-0.084
-590.952	230.788	0.084	-0.138
-589.938	288.660	0.081	-0.147
-588.923	-41.240	0.294	-0.152
-587.909	-62.465	0.350	0.146
-586.894	-144.068	0.307	-0.029
-585.879	-200.000	-0.073	0.348
-584.865	800.000	-0.061	-0.222
-583.850	16.786	0.112	0.089
-582.836	245.808	-0.070	-0.119
-581.821	71.207	0.253	0.263
-580.806	93.468	0.088	-0.100
-579.792	-8.165	-0.281	-0.190
-578.777	68.047	0.166	0.170
-577.763	100.760	0.059	0.068
-576.748	-66.211	0.116	0.046
-575.733	-88.297	0.314	0.094
-574.719	477.033	0.083	-0.188
-573.704	-158.581	-0.185	0.011
-572.690	-26.405	0.094	0.055
-571.675	-124.260	-0.096	0.015
-570.661	-23.608	-0.329	-0.197
-569.646	-18.296	0.048	-0.030
-568.631	117.763	-0.170	-0.210
-567.617	-105.567	0.123	0.028
-566.602	0.683	0.098	0.070
-565.588	91.036	-0.162	0.182
-564.573	-96.108	-0.232	-0.062
-563.558	800.000	-0.094	-0.388
-562.544	-18.439	0.185	-0.116
-561.529	-117.028	-0.133	-0.024
-560.515	-180.448	0.247	0.005
-559.500	58.051	0.231	0.226
-558.485	-68.954	-0.337	-0.130
-557.471	25.776	0.209	-0.174
-556.456	338.678	0.102	0.199
-555.442	133.991	-0.064	-0.083
-554.427	-142.981	-0.326	0.032
-553.412	7.519	-0.107	-0.080
-552.398	282.098	0.109	0.195
-551.383	-70.493	0.103	-0.039
-550.369	-200.000	0.026	0.175
-549.354	-77.330	-0.149	-0.052
-548.339	-120.312	0.184	0.031
-547.325	30.762	-0.084	-0.072
-546.310	31.646	-0.121	-0.104
-545.296	-150.063	-0.298	-0.023
-544.281	-200.000	-0.013	0.249
-543.266	210.021	-0.036	-0.056
-542.252	-70.436	-0.104	0.039
-541.237	-187.318	-0.372	0.005
-540.223	-200.000	-0.049	-0.317
-539.208	39.743	-0.197	-0.177
-538.193	-79.689	-0.383	0.129
-537.179	-97.481	-0.275	0.071
-536.164	800.000	-0.100	-0.310
-535.150	-104.686	-0.138	0.032
-534.135	-73.538	-0.089	-0.033
-533.121	354.468	0.064	0.128
-532.106	-200.000	-0.015	-0.165
-531.091	800.000	0.065	-0.200
-530.077	290.086	-0.211	-0.382
-529.062	-200.000	0.029	-0.201
-528.048	254.415	0.206	0.352
-527.033	-123.829	-0.383	-0.060
-526.018	-79.633	0.113	0.038
-525.004	-200.000	-0.007	-0.325
-523.989	-137.715	0.241	0.027
-522.975	-32.798	0.099	0.055
-521.960	-98.518	0.058	-0.015
-520.945	-82.452	0.227	-0.074
-519.931	-200.000	-0.031	-0.298
-518.916	179.140	-0.122	-0.178
-517.902	-8.378	-0.082	-0.055
-516.887	-11.696	-0.609	0.399
-515.872	-85.530	0.181	0.056
-514.858	1.598	0.213	-0.153
-513.843	451.970	0.095	0.210
-512.829	29.300	0.097	-0.083
-511.814	127.641	-0.202	0.256
-510.799	-36.722	0.115	-0.062
-509.785	-200.000	0.027	-0.200
-508.770	457.910	0.044	-0.098
-507.756	544.037	0.096	0.228
-506.741	-27.971	-0.056	-0.032
-505.726	-3.049	-0.390	0.272
-504.712	800.000	0.045	0.131
-503.697	800.000	-0.044	0.130
-502.683	52.880	0.237	0.226
-501.668	-200.000	-0.030	-0.166
-500.653	-136.375	0.291	0.034
-499.639	800.000	0.029	0.117
-498.624	-90.755	0.185	0.053
-497.610	-63.203	-0.347	0.143
-496.595	131.725	-0.210	-0.270
-495.581	73.742	0.003	-0.003
-494.566	800.000	0.039	-0.149
-493.551	-77.905	-0.290	0.100
-492.537	-163.272	-0.223	0.011
-491.522	800.000	0.096	-0.399
-490.508	655.715	0.161	-0.412
-489.493	-20.197	-0.111	0.068
-488.478	-31.719	0.135	0.076
-487.464	28.578	0.054	-0.046
-486.449	-200.000	0.028	-0.478
-485.435	-200.000	-0.086	0.000
-484.420	-73.515	-0.220	-0.080
-483.405	-126.791	-0.152	-0.022
-482.391	-200.000	0.041	-0.242
-481.376	-143.904	-0.266	-0.025
-480.362	-72.400	-0.141	0.052
-479.347	-143.524	-0.286	-0.027
-478.332	75.269	-0.082	-0.086
-477.318	155.570	0.243	-0.334
-476.303	-200.000	-0.022	-0.194
-475.289	538.011	-0.078	0.184
-474.274	-113.727	-0.238	-0.046
-473.259	-65.313	0.055	-0.022
-472.245	164.811	0.083	-0.117
-471.230	800.000	0.161	-0.488
-470.216	-200.000	-0.000	0.091
-469.201	-10.977	-0.190	-0.125
-468.186	-200.000	-0.030	0.297
-467.172	-200.000	-0.015	0.144
-466.157	382.892	0.126	0.258
-465.143	167.940	-0.133	-0.189
-464.128	125.295	0.015	-0.019
-463.113	446.216	0.079	0.173
-462.099	213.483	-0.016	0.026
-461.084	-38.554	0.069	0.036
-460.070	44.225	0.229	0.210
-459.055	91.411	-0.106	0.119
-458.040	-132.023	0.579	-0.075
-457.026	202.346	0.044	0.068
-456.011	-27.919	-0.124	-0.071
-454.997	142.958	-0.101	-0.133
-453.982	-200.000	0.095	0.000
-452.968	245.105	0.056	-0.093
-451.953	-200.000	0.023	-0.250
-450.938	-83.610	0.249	0.079
-449.924	157.713	0.234	-0.322
-448.909	171.915	-0.134	0.192
-447.895	-200.000	0.131	-0.701
-446.880	15.104	0.204	-0.159
-445.865	84.285	0.386	-0.420
-444.851	-132.173	-0.126	0.016
-443.836	-63.687	0.253	-0.103
-442.822	697.666	0.119	0.313
-441.807	-24.121	0.214	0.127
-440.792	-87.399	0.290	-0.087
-439.778	-44.907	0.322	-0.159
-438.763	-200.000	0.028	-0.306
-437.749	302.642	0.128	-0.235
-436.734	-61.928	-0.297	-0.124
-435.719	-49.700	0.213	-0.101
-434.705	800.000	0.080	0.238
-433.690	-94.128	0.355	-0.097
-432.676	15.255	0.247	0.193
-431.661	800.000	0.052	0.204
-430.646	800.000	-0.014	0.046
-429.632	107.766	-0.123	-0.146
-428.617	43.026	-0.217	0.197
-427.603	151.150	-0.217	0.294
-426.588	-200.000	0.031	0.261
-425.573	25.530	0.254	0.210
-424.559	304.103	0.140	-0.259
-423.544	-99.484	0.207	0.052
-422.530	-167.414	0.162	0.006
-421.515	72.800	0.220	0.228
-420.500	37.130	-0.186	0.164
-419.486	800.000	-0.099	-0.285
-418.471	-119.128	-0.370	-0.064
-417.457	200.412	-0.257	-0.393
-416.442	-115.307	-0.217	-0.041
-415.428	-3.508	0.113	0.078
-414.413	800.000	-0.049	0.190
-413.398	-80.269	-0.509	-0.169
-412.384	-115.894	-0.132	-0.025
-411.369	6.475	0.369	0.272
-410.355	-92.144	-0.234	0.066
-409.340	231.985	0.050	0.082
-408.325	408.866	0.133	0.280
-407.311	-129.296	0.240	-0.033
-406.296	-200.000	-0.003	-0.264
-405.282	800.000	-0.063	-0.236
-404.267	-125.496	-0.101	0.015
-403.252	-62.852	-0.301	-0.124
-402.238	800.000	0.071	-0.244
-401.223	-168.237	0.514	-0.020
-400.209	291.854	-0.122	-0.221
-399.194	-91.795	-0.063	0.018
-398.179	-124.168	-0.222	-0.035
-397.165	629.348	0.088	-0.220
-396.150	-102.210	-0.144	-0.034
-395.136	-146.710	-0.424	0.036
-394.121	-45.343	0.112	-0.055
-393.106	-200.000	0.002	-0.061
-392.092	-200.000	0.085	0.461
-391.077	352.022	0.140	-0.275
-390.063	93.200	-0.188	-0.211
-389.048	-116.945	-0.350	-0.063
-388.033	110.485	-0.188	0.224
-387.019	208.722	-0.095	-0.147
-386.004	-200.000	-0.030	0.329
-384.990	342.410	-0.179	-0.348
-383.975	-141.804	0.241	-0.024
-382.960	800.000	-0.048	-0.166
-381.946	260.934	-0.026	0.044
-380.931	-97.176	0.156	-0.040
-379.917	-56.928	-0.213	0.094
-378.902	-200.000	-0.047	-0.396
-377.888	-80.285	0.337	-0.112
-376.873	-32.282	0.109	0.060
-375.858	-200.000	-0.007	-0.311
-374.844	800.000	0.144	-0.396
-373.829	-16.873	0.109	0.068
-372.815	-43.398	0.159	0.080
-371.800	800.000	0.063	-0.190
-370.785	80.185	0.199	0.212
-369.771	-61.937	0.066	0.027
-368.756	239.224	0.169	-0.279
-367.742	-122.470	0.209	-0.034
-366.727	212.317	0.123	0.193
-365.712	-200.000	-0.049	0.289
-364.698	800.000	-0.029	0.097
-363.683	106.596	0.177	0.208
-362.669	-152.247	0.521	-0.037
-361.654	-117.434	0.146	-0.026
-360.639	-61.653	-0.281	-0.117
-359.625	-120.100	0.086	-0.015
-358.610	321.751	0.042	0.078
-357.596	-177.259	0.244	-0.006
-356.581	256.401	-0.083	0.141
-355.566	-118.871	0.251	0.044
-354.552	57.689	-0.133	0.129
-353.537	164.985	0.105	0.147
-352.523	-200.000	0.016	0.284
-351.508	-88.432	-0.163	-0.048
-350.493	35.605	-0.253	0.220
-349.479	-13.196	0.222	-0.143
-348.464	-95.443	-0.227	-0.061
-347.450	16.404	0.079	-0.062
-346.435	-39.470	-0.068	0.035
-345.420	-200.000	0.025	-0.205
-344.406	-87.680	-0.403	-0.121
-343.391	-200.000	-0.013	-0.076
-342.377	-60.940	-0.251	-0.105
-341.362	106.269	-0.105	0.124
-340.348	61.282	-0.057	-0.056
-339.333	-200.000	-0.043	0.281
-338.318	-182.399	-0.104	0.002
-337.304	121.378	-0.154	0.190
-336.289	-200.000	-0.047	0.208
-335.275	800.000	-0.053	-0.205
-334.260	14.022	-0.190	0.147
-333.245	103.965	0.067	-0.078
-332.231	-200.000	-0.008	-0.083
-331.216	292.730	-0.216	-0.390
-330.202	-200.000	0.025	0.152
-329.187	-101.426	0.394	0.095
-328.172	105.367	-0.208	-0.244
-327.158	-200.000	0.082	0.381
-326.143	49.651	0.054	0.050
-325.129	459.506	-0.105	-0.232
-324.114	454.749	-0.101	0.222
-323.099	705.922	-0.152	0.397
-322.085	-67.924	-0.198	-0.076
-321.070	232.944	0.139	-0.226
-320.056	-55.674	-0.381	0.169
-319.041	204.178	0.034	0.053
-318.026	800.000	0.097	0.324
-317.012	-152.683	-0.218	0.015
-315.997	240.895	0.073	-0.121
-314.983	-31.457	0.176	0.098
-313.968	-93.070	-0.392	0.108
-312.953	-86.635	0.118	-0.036
-311.939	166.798	0.126	-0.177
-310.924	84.561	-0.045	-0.048
-309.910	508.362	-0.100	0.230
-308.895	-200.000	-0.039	-0.489
-307.880	4.946	0.187	-0.136
-306.866	62.780	0.109	0.108
-305.851	-200.000	0.001	0.184
-304.837	-66.770	-0.214	-0.084
-303.822	-7.762	0.131	0.088
-302.807	67.503	-0.086	0.087
-301.793	90.452	-0.084	0.093
-300.778	361.462	0.065	-0.128
-299.764	107.582	0.134	-0.158
-298.749	-173.227	-0.302	-0.009
-297.735	800.000	0.066	0.228
-296.720	-94.525	-0.166	0.045
-295.705	800.000	0.094	-0.299
-294.691	-200.000	0.056	-0.322
-293.676	40.893	0.187	0.167
-292.662	-131.876	-0.252	-0.033
-291.647	2.884	0.279	-0.200
-290.632	54.274	0.138	0.131
-289.618	-76.143	-0.230	0.080
-288.603	654.015	0.154	-0.391
-287.589	800.000	-0.085	0.256
-286.574	-200.000	0.015	0.194
-285.559	-32.771	-0.231	0.127
-284.545	-117.973	-0.278	0.049
-283.530	-92.126	-0.283	-0.079
-282.516	291.630	0.078	-0.140
-281.501	-200.000	0.003	-0.111
-280.486	-200.000	0.303	0.000
-279.472	85.501	-0.217	0.235
-278.457	72.986	-0.018	-0.019
-277.443	271.422	0.069	0.120
-276.428	800.000	0.027	-0.104
-275.413	81.046	0.266	0.284
-274.399	-103.344	0.322	0.075
-273.384	613.130	-0.011	-0.028
-272.370	-200.000	0.025	0.294
-271.355	1.658	0.183	0.131
-270.340	84.761	0.025	-0.027
-269.326	-108.518	-0.410	-0.087
-268.311	326.491	-0.119	-0.224
-267.297	-14.281	-0.077	-0.049
-266.282	88.188	-0.029	-0.032
-265.267	-57.840	-0.174	0.075
-264.253	-200.000	0.086	-0.431
-263.238	800.000	-0.009	-0.026
-262.224	-13.673	-0.079	-0.051
-261.209	-120.519	0.120	0.020
-260.195	-131.948	-0.381	-0.049
-259.180	-114.842	-0.253	0.048
-258.165	-174.396	0.493	0.014
-257.151	-18.256	-0.219	0.136
-256.136	-111.946	0.192	-0.038
-255.122	-200.000	0.008	0.062
-254.107	-200.000	-0.002	-0.200
-253.092	-26.068	-0.403	0.234
-252.078	-200.000	-0.067	0.421
-251.063	-200.000	-0.032	0.245
-250.049	-200.000	-0.013	-0.182
-249.034	213.756	0.102	0.159
-248.019	-17.109	-0.085	0.053
-247.005	474.642	-0.133	-0.297
-245.990	321.516	-0.116	0.219
-244.976	800.000	0.086	0.332
-243.961	129.633	0.173	0.219
-242.946	-200.000	0.004	0.201
-241.932	-98.564	0.302	-0.076
-240.917	800.000	0.041	-0.121
-239.903	-91.384	0.184	0.052
-238.888	159.593	0.038	-0.052
-237.873	-22.944	0.060	0.036
-236.859	26.083	0.368	0.304
-235.844	554.548	-0.153	-0.364
-234.830	32.866	-0.201	0.172
-233.815	-108.678	-0.213	-0.045
-232.800	-17.187	0.165	0.103
-231.786	-27.933	-0.069	-0.039
-230.771	138.830	-0.142	0.184
-229.757	-105.289	0.304	-0.068
-228.742	-37.945	-0.167	0.087
-227.727	105.517	0.274	0.319
-226.713	800.000	0.009	0.039
-225.698	-142.025	-0.194	-0.019
-224.684	-108.585	-0.232	-0.049
-223.669	-200.000	-0.002	0.181
-222.655	118.801	-0.215	0.262
-221.640	26.705	0.159	0.131
-220.625	415.189	0.116	0.245
-219.611	249.334	0.123	0.205
-218.596	-153.952	0.295	0.020
-217.582	220.802	0.129	0.204
-216.567	62.264	-0.124	0.122
-215.552	-156.143	0.237	-0.015
-214.538	-69.041	0.246	0.093
-213.523	279.444	-0.036	-0.064
-212.509	351.416	0.127	0.248
-211.494	-16.039	0.099	-0.062
-210.479	-200.000	0.021	-0.529
-209.465	-200.000	-0.011	-0.054
-208.450	-42.512	0.130	0.065
-207.436	-70.720	-0.087	-0.033
-206.421	-200.000	-0.000	-0.049
-205.406	90.242	-0.245	0.271
-204.392	142.518	-0.171	0.224
-203.377	800.000	-0.042	0.143
-202.363	248.032	0.129	0.215
-201.348	-81.102	0.091	-0.030
-200.333	-165.832	-0.129	0.005
-199.319	-2.801	0.251	0.173
-198.304	72.083	0.367	0.376
-197.290	180.158	-0.192	0.277
-196.275	-72.517	-0.105	-0.038
-195.260	-200.000	0.022	-0.177
-194.246	-90.010	0.041	-0.012
-193.231	560.484	-0.015	-0.037
-192.217	143.864	0.133	-0.175
-191.202	-8.376	0.164	0.109
-190.187	800.000	-0.039	0.136
-189.173	7.819	-0.073	0.054
-188.158	39.656	0.207	0.183
-187.144	-81.530	-0.105	0.034
-186.129	66.716	0.276	-0.277
-185.114	-200.000	0.061	-0.278
-184.100	-164.137	0.121	-0.006
-183.085	164.797	0.087	-0.120
-182.071	124.923	-0.152	-0.189
-181.056	800.000	-0.072	0.221
-180.042	-200.000	0.010	-0.205
-179.027	-161.253	-0.164	0.008
-178.012	8.796	0.346	-0.257
-176.998	379.555	-0.115	0.231
-175.983	632.950	-0.133	0.331
-174.969	800.000	0.079	-0.245
-173.954	283.658	0.058	-0.102
-172.939	138.625	-0.180	-0.232
-171.925	109.354	0.014	0.016
-170.910	-90.886	0.355	0.101
-169.896	-151.427	-0.338	0.025
-168.881	1.788	0.218	0.155
-167.866	84.322	0.162	0.174
-166.852	411.258	-0.045	0.093
-165.837	-200.000	0.041	0.254
-164.823	-141.855	-0.136	-0.013
-163.808	-200.000	0.056	0.433
-162.793	-10.680	0.321	0.209
-161.779	5.021	-0.123	-0.089
-160.764	98.849	-0.158	0.180
-159.750	-6.348	-0.184	0.123
-158.735	-104.405	0.149	-0.034
-157.720	36.981	-0.262	-0.228
-156.706	-14.688	-0.085	0.054
-155.691	432.074	-0.054	0.114
-154.677	61.559	-0.276	0.270
-153.662	-53.968	0.291	0.130
-152.647	-200.000	-0.024	-0.134
-151.633	-74.038	0.162	0.058
-150.618	347.351	-0.029	0.056
-149.604	-200.000	0.019	0.124
-148.589	-161.923	-0.135	-0.007
-147.574	-200.000	-0.004	-0.023
-146.560	502.603	-0.065	0.149
-145.545	93.844	0.176	0.196
-144.531	355.559	0.091	0.177
-143.516	-112.038	0.106	0.021
-142.502	-51.522	0.154	-0.071
-141.487	800.000	0.058	0.212
-140.472	-105.639	-0.059	0.013
-139.458	800.000	0.098	-0.311
-138.443	386.836	0.057	0.115
-137.429	-200.000	0.025	0.152
-136.414	-200.000	0.059	-0.334
-135.399	-19.722	0.298	-0.181
-134.385	-43.176	-0.086	0.043
-133.370	311.721	0.088	-0.162
-132.356	-154.642	0.183	0.012
-131.341	149.493	0.155	0.206
-130.326	-200.000	0.034	0.302
-129.312	300.441	-0.159	-0.288
-128.297	57.846	0.130	-0.125
-127.283	-200.000	-0.039	-0.248
-126.268	-176.096	0.055	0.001
-125.253	259.333	0.123	0.209
-124.239	314.792	0.076	-0.141
-123.224	800.000	0.004	0.015
-122.210	195.971	-0.099	-0.148
-121.195	-200.000	-0.007	-0.086
