DTS Sentinel unit serial number:	SN413079Multiplexer serial number:	ORYXHardware model number:	OX4-SRSoftware version number:	ORYX F/W v4.00 Oryx Data Collector v3.7.2.0data status	okinstallation	princeton_trtdifferential loss correction	single-endedforward channel	channel 2reverse channel	N/Adate	2019/09/14time	19:19:35forward acquisition time	60.00reverse acquisition time	0.00gamma	496.2192k internal	0.2321k external	0.2321temperature offset calibration	1.0097default loss term (dB/km)	0.3790temperature slope calibration	1.0000multiplexer offset coefficient	1.0000multiplexer slope coefficient	1.0000fibre end	0.00T internal ref (°C)	35.06T ext. ref 1 (°C)	4.89T ext. ref 2 (°C)	29.09length (m)	temperature (°C)	Stokes	anti-Stokes-747.200	-67.331	-0.254	-0.101
-746.185	-200.000	-0.019	0.177
-745.171	-186.326	-0.132	0.002
-744.156	707.119	0.165	0.440
-743.142	140.098	-0.096	0.128
-742.127	294.485	-0.061	0.112
-741.112	-116.499	0.138	0.026
-740.098	8.799	0.304	0.232
-739.083	234.482	-0.137	0.228
-738.069	800.000	-0.070	0.212
-737.054	-20.134	0.253	0.157
-736.039	80.559	-0.261	0.284
-735.025	173.543	-0.174	-0.253
-734.010	9.121	0.116	-0.088
-732.996	220.888	0.116	-0.187
-731.981	540.752	-0.133	0.321
-730.966	-109.874	-0.264	0.056
-729.952	-42.996	-0.146	0.075
-728.937	30.029	-0.195	0.168
-727.923	606.336	0.097	0.245
-726.908	678.625	-0.085	0.223
-725.894	-99.513	-0.039	-0.010
-724.879	31.136	-0.360	-0.312
-723.864	-200.000	0.057	-0.333
-722.850	-188.583	0.130	0.002
-721.835	-52.894	-0.184	-0.086
-720.821	105.202	-0.272	0.324
-719.806	-171.816	0.234	-0.008
-718.791	-200.000	0.000	-0.266
-717.777	2.463	-0.203	0.148
-716.762	-200.000	-0.033	0.161
-715.748	20.343	0.149	-0.121
-714.733	172.396	-0.020	-0.030
-713.718	-72.017	0.047	-0.018
-712.704	-57.173	-0.444	-0.197
-711.689	-68.539	-0.268	-0.105
-710.675	-137.793	-0.261	-0.030
-709.660	450.459	0.106	0.235
-708.645	365.023	0.166	0.337
-707.631	293.050	0.033	-0.061
-706.616	-131.362	-0.495	0.066
-705.602	35.221	-0.193	0.171
-704.587	82.250	-0.152	-0.167
-703.572	249.475	0.158	0.271
-702.558	800.000	-0.058	0.200
-701.543	100.519	0.107	0.126
-700.529	800.000	-0.017	-0.055
-699.514	-78.381	0.031	0.011
-698.499	-121.771	0.062	0.010
-697.485	117.436	-0.100	-0.124
-696.470	8.988	0.175	0.133
-695.456	-139.754	-0.208	-0.022
-694.441	-113.940	0.170	0.033
-693.426	800.000	-0.087	-0.309
-692.412	-200.000	-0.072	-0.391
-691.397	77.716	0.074	0.079
-690.383	201.287	0.192	0.299
-689.368	247.666	0.037	-0.064
-688.354	800.000	0.046	0.140
-687.339	324.838	0.164	0.317
-686.324	-93.242	-0.103	0.029
-685.310	314.042	0.018	-0.034
-684.295	672.922	0.095	0.250
-683.281	276.809	0.089	-0.159
-682.266	308.280	0.074	-0.139
-681.251	32.733	0.127	-0.111
-680.237	800.000	-0.063	0.224
-679.222	-121.622	0.148	0.025
-678.208	-93.013	0.173	0.049
-677.193	-200.000	0.021	-0.247
-676.178	241.959	-0.089	-0.149
-675.164	150.893	0.122	0.167
-674.149	-172.333	-0.065	-0.002
-673.135	-42.748	-0.053	-0.027
-672.120	-53.837	-0.252	0.116
-671.105	-200.000	-0.030	-0.330
-670.091	-174.023	0.160	0.005
-669.076	800.000	0.102	-0.425
-668.062	800.000	-0.125	-0.375
-667.047	-200.000	-0.004	0.079
-666.032	-13.477	-0.095	0.062
-665.018	370.119	0.077	-0.158
-664.003	800.000	0.016	-0.055
-662.989	-45.478	0.102	0.051
-661.974	-108.991	-0.234	0.050
-660.959	-114.554	-0.139	0.027
-659.945	-200.000	0.083	-0.541
-658.930	-200.000	0.007	0.170
-657.916	-68.951	0.238	-0.093
-656.901	-200.000	0.014	0.090
-655.886	-169.813	0.196	-0.007
-654.872	537.066	0.041	0.097
-653.857	-13.068	-0.355	-0.233
-652.843	47.298	-0.197	0.185
-651.828	-58.641	0.148	0.065
-650.814	-200.000	0.021	-0.095
-649.799	-200.000	0.014	0.085
-648.784	-73.834	-0.423	0.155
-647.770	800.000	0.094	0.301
-646.755	-29.454	0.029	0.017
-645.741	-23.131	-0.190	-0.115
-644.726	-163.300	-0.413	-0.020
-643.711	315.623	-0.115	0.218
-642.697	148.957	-0.124	-0.169
-641.682	-43.521	-0.117	-0.060
-640.668	800.000	0.039	0.128
-639.653	71.442	0.175	0.183
-638.638	85.478	-0.327	-0.362
-637.624	-200.000	-0.006	0.070
-636.609	-54.465	0.250	-0.114
-635.595	148.152	-0.216	0.294
-634.580	-77.878	0.234	-0.081
-633.565	-57.754	-0.095	0.042
-632.551	-17.629	0.209	0.132
-631.536	56.404	-0.197	-0.193
-630.522	-2.373	0.325	0.229
-629.507	-200.000	-0.004	-0.442
-628.492	-90.195	-0.031	-0.009
-627.478	-86.290	-0.084	0.026
-626.463	175.927	0.026	-0.038
-625.449	-85.154	-0.029	0.009
-624.434	200.066	-0.153	0.236
-623.419	800.000	0.071	-0.264
-622.405	-88.510	-0.383	-0.115
-621.390	-200.000	-0.003	0.219
-620.376	-200.000	0.010	-0.050
-619.361	-134.371	-0.070	-0.009
-618.346	33.475	-0.098	0.085
-617.332	285.297	-0.051	-0.092
-616.317	395.942	0.021	0.045
-615.303	-19.424	0.088	0.055
-614.288	800.000	0.058	-0.242
-613.273	-125.535	-0.164	0.025
-612.259	55.811	0.175	-0.170
-611.244	-4.008	-0.123	0.086
-610.230	-156.817	0.192	-0.012
-609.215	24.411	-0.240	-0.199
-608.201	800.000	-0.124	-0.351
-607.186	197.446	-0.188	-0.289
-606.171	-200.000	-0.020	0.138
-605.157	230.038	-0.155	-0.254
-604.142	-99.142	-0.293	0.075
-603.128	-200.000	-0.008	-0.317
-602.113	-60.814	0.196	0.083
-601.098	62.801	-0.109	0.109
-600.084	-200.000	0.028	0.161
-599.069	239.990	-0.058	-0.097
-598.055	370.120	0.051	0.103
-597.040	-127.561	-0.066	-0.010
-596.025	149.023	0.163	-0.221
-595.011	-200.000	-0.004	0.047
-593.996	-71.173	0.117	0.044
-592.982	-200.000	-0.038	-0.247
-591.967	-97.256	0.177	-0.046
-590.952	-200.000	0.051	0.487
-589.938	23.566	-0.137	0.113
-588.923	493.016	0.046	0.106
-587.909	-45.691	0.115	0.057
-586.894	105.108	-0.161	-0.191
-585.879	-101.680	-0.080	-0.020
-584.865	-200.000	0.010	0.122
-583.850	-155.095	-0.144	0.009
-582.836	-30.746	-0.164	-0.093
-581.821	484.381	-0.119	-0.271
-580.806	800.000	-0.073	-0.210
-579.792	-200.000	0.048	-0.287
-578.777	-200.000	0.063	-0.313
-577.763	504.052	0.102	-0.237
-576.748	774.573	0.128	-0.351
-575.733	94.145	0.174	-0.198
-574.719	-6.796	0.077	0.052
-573.704	-118.052	-0.416	0.075
-572.690	413.027	-0.144	0.308
-571.675	342.174	-0.080	0.158
-570.661	266.747	0.058	0.102
-569.646	-134.982	0.082	0.010
-568.631	800.000	-0.064	0.204
-567.617	800.000	-0.050	0.215
-566.602	155.662	0.167	0.230
-565.588	-33.271	-0.204	0.114
-564.573	239.771	0.085	0.142
-563.558	-114.215	-0.160	-0.031
-562.544	-200.000	0.028	-0.530
-561.529	-193.329	-0.252	0.002
-560.515	-79.287	0.317	-0.108
-559.500	-139.092	0.318	-0.035
-558.485	367.408	-0.164	0.332
-557.471	181.490	0.091	0.135
-556.456	645.408	-0.101	-0.260
-555.442	136.339	0.179	-0.234
-554.427	73.858	0.237	0.249
-553.412	-79.187	-0.066	0.023
-552.398	-80.762	-0.068	-0.023
-551.383	-77.430	-0.260	0.090
-550.369	182.541	0.200	0.297
-549.354	123.525	0.063	0.080
-548.339	72.307	-0.152	0.158
-547.325	-200.000	0.058	0.330
-546.310	86.028	0.066	-0.073
-545.296	-116.419	0.047	0.009
-544.281	55.971	-0.137	0.133
-543.266	49.629	-0.038	-0.036
-542.252	-49.844	-0.034	0.016
-541.237	3.572	-0.073	-0.054
-540.223	-57.056	0.070	-0.031
-539.208	-200.000	-0.031	-0.146
-538.193	-166.003	-0.294	0.013
-537.179	-0.784	0.143	-0.102
-536.164	47.768	-0.317	0.296
-535.150	-69.042	0.170	-0.066
-534.135	-168.872	-0.291	-0.011
-533.121	-91.397	0.099	-0.028
-532.106	-200.000	0.026	0.369
-531.091	800.000	0.043	0.129
-530.077	-90.417	0.091	0.027
-529.062	-122.892	-0.238	0.038
-528.048	-200.000	-0.004	0.239
-527.033	-200.000	-0.020	-0.560
-526.018	13.028	-0.104	0.080
-525.004	-200.000	-0.032	-0.276
-523.989	-42.893	-0.335	0.170
-522.975	114.116	-0.013	-0.016
-521.960	-94.228	0.084	0.023
-520.945	-164.617	-0.156	0.007
-519.931	408.940	0.026	0.055
-518.916	-108.950	-0.151	-0.032
-517.902	57.896	-0.076	0.075
-516.887	800.000	-0.046	-0.136
-515.872	-110.820	0.055	0.011
-514.858	2.339	0.079	0.057
-513.843	85.132	0.174	0.192
-512.829	10.882	0.135	0.103
-511.814	-73.411	-0.153	0.056
-510.799	188.067	-0.133	-0.199
-509.785	-97.027	-0.252	0.066
-508.770	290.536	-0.124	0.225
-507.756	281.342	0.059	0.107
-506.741	15.878	-0.039	0.031
-505.726	800.000	0.061	-0.244
-504.712	249.292	-0.151	-0.257
-503.697	19.369	-0.162	0.130
-502.683	349.620	0.044	0.087
-501.668	-200.000	0.009	-0.136
-500.653	-200.000	-0.003	-0.184
-499.639	260.391	0.134	-0.231
-498.624	-12.832	0.155	0.101
-497.610	-78.136	0.171	0.059
-496.595	-112.029	-0.132	0.027
-495.581	54.724	-0.198	-0.191
-494.566	-5.376	0.179	0.123
-493.551	798.998	-0.038	-0.104
-492.537	-53.852	-0.087	0.040
-491.522	68.206	0.197	0.202
-490.508	765.077	-0.138	0.375
-489.493	143.142	0.118	0.157
-488.478	47.850	-0.372	0.348
-487.464	130.342	-0.156	-0.200
-486.449	331.001	0.340	-0.656
-485.435	-78.249	0.353	-0.121
-484.420	800.000	-0.055	-0.177
-483.405	610.398	-0.099	-0.247
-482.391	-200.000	-0.088	0.000
-481.376	8.623	0.323	0.244
-480.362	66.184	-0.247	-0.251
-479.347	-38.308	0.251	0.133
-478.332	-200.000	-0.026	0.113
-477.318	80.063	0.198	-0.213
-476.303	-122.671	-0.211	-0.034
-475.289	339.732	-0.137	-0.267
-474.274	-200.000	0.008	-0.293
-473.259	800.000	-0.027	-0.101
-472.245	-11.237	0.363	0.239
-471.230	-77.265	0.536	0.186
-470.216	-58.945	0.169	0.073
-469.201	-186.155	-0.284	0.004
-468.186	-200.000	-0.002	-0.222
-467.172	-200.000	0.042	-0.284
-466.157	-200.000	-0.026	0.317
-465.143	-160.233	-0.217	0.012
-464.128	-56.345	0.268	0.119
-463.113	-200.000	0.057	0.279
-462.099	81.488	0.178	0.192
-461.084	-10.680	-0.239	-0.158
-460.070	-33.762	-0.140	0.077
-459.055	800.000	0.027	0.119
-458.040	-139.881	-0.115	0.012
-457.026	251.498	-0.183	-0.311
-456.011	158.233	0.094	-0.130
-454.997	-100.119	-0.158	-0.039
-453.982	-112.385	0.119	0.024
-452.968	190.992	0.094	0.141
-451.953	618.788	0.083	-0.209
-450.938	-199.699	-0.116	-0.001
-449.924	-200.000	0.041	0.359
-448.909	-4.970	0.210	0.144
-447.895	36.023	0.136	-0.120
-446.880	-70.316	0.208	0.079
-445.865	-38.140	-0.319	0.169
-444.851	-200.000	0.002	-0.178
-443.836	-1.638	-0.349	0.246
-442.822	800.000	-0.006	0.023
-441.807	-163.213	0.204	0.010
-440.792	-121.169	0.101	0.017
-439.778	-14.087	-0.119	-0.076
-438.763	-84.482	-0.212	-0.067
-437.749	45.902	0.292	0.270
-436.734	800.000	-0.109	0.352
-435.719	-200.000	-0.038	0.341
-434.705	26.080	-0.078	0.065
-433.690	-16.239	0.338	0.215
-432.676	-90.001	-0.019	-0.005
-431.661	436.856	-0.057	-0.123
-430.646	583.351	0.107	-0.263
-429.632	-19.299	0.258	0.160
-428.617	-7.954	0.022	0.015
-427.603	203.799	-0.031	0.048
-426.588	-200.000	-0.045	0.415
-425.573	-200.000	-0.037	-0.460
-424.559	-122.746	0.401	0.065
-423.544	-200.000	-0.040	-0.207
-422.530	-178.001	-0.312	-0.007
-421.515	390.838	0.097	-0.201
-420.500	473.060	0.097	0.218
-419.486	610.821	0.080	0.201
-418.471	633.385	0.078	0.198
-417.457	249.930	0.123	-0.209
-416.442	-77.866	-0.302	0.104
-415.428	-200.000	0.004	0.290
-414.413	-163.567	-0.173	0.008
-413.398	-7.111	0.080	-0.054
-412.384	-198.590	-0.211	-0.001
-411.369	320.330	0.058	-0.110
-410.355	-37.434	0.317	0.169
-409.340	-117.907	-0.221	-0.039
-408.325	371.678	-0.156	-0.316
-407.311	-113.250	-0.140	0.028
-406.296	-9.840	0.123	0.082
-405.282	800.000	-0.082	-0.239
-404.267	365.765	-0.044	0.089
-403.252	-120.990	0.302	-0.051
-402.238	-200.000	0.011	-0.186
-401.223	800.000	0.051	-0.157
-400.209	-167.399	0.241	-0.010
-399.194	-69.483	-0.380	0.145
-398.179	66.402	0.078	-0.079
-397.165	15.270	0.243	0.190
-396.150	-1.320	0.242	0.171
-395.136	271.776	0.061	0.107
-394.121	86.756	-0.072	-0.080
-393.106	-112.723	0.035	-0.007
-392.092	-134.964	0.284	-0.034
-391.077	-70.972	-0.163	0.061
-390.063	86.801	0.157	-0.172
-389.048	266.569	-0.075	-0.131
-388.033	147.179	-0.174	-0.234
-387.019	-83.698	0.073	-0.023
-386.004	141.654	0.241	-0.318
-384.990	33.539	-0.151	-0.130
-383.975	-96.389	0.055	0.014
-382.960	-200.000	0.004	-0.045
-381.946	-116.982	0.371	-0.068
-380.931	22.848	0.116	0.095
-379.917	-165.346	0.305	0.013
-378.902	-120.469	-0.115	0.019
-377.888	-96.774	-0.115	0.030
-376.873	-88.251	-0.261	0.078
-375.858	65.102	-0.022	-0.022
-374.844	323.394	0.198	0.376
-373.829	100.221	-0.254	0.293
-372.815	8.771	-0.173	0.130
-371.800	0.198	-0.095	0.067
-370.785	-2.734	0.142	0.099
-369.771	-9.929	-0.142	0.094
-368.756	98.092	0.141	-0.162
-367.742	-180.223	0.120	-0.003
-366.727	-21.006	0.071	-0.043
-365.712	447.467	-0.129	0.283
-364.698	127.580	0.131	-0.166
-363.683	25.556	0.042	-0.034
-362.669	-94.979	-0.108	-0.029
-361.654	-5.447	0.147	-0.100
-360.639	-200.000	-0.010	-0.176
-359.625	-189.901	0.198	0.002
-358.610	-106.278	0.203	0.045
-357.596	259.593	0.045	0.077
-356.581	-180.061	-0.210	0.004
-355.566	211.637	0.095	0.149
-354.552	426.562	-0.125	-0.269
-353.537	-93.829	-0.293	-0.080
-352.523	-71.261	0.361	0.135
-351.508	-86.663	0.177	-0.054
-350.493	365.348	0.111	-0.223
-349.479	800.000	-0.077	-0.223
-348.464	587.690	-0.063	0.154
-347.450	-114.702	0.196	-0.037
-346.435	68.380	0.070	-0.071
-345.420	75.877	0.179	0.189
-344.406	-15.235	-0.143	0.091
-343.391	-11.181	-0.266	-0.174
-342.377	-58.869	0.270	-0.116
-341.362	187.084	-0.285	0.423
-340.348	142.926	-0.094	0.124
-339.333	-127.854	0.151	-0.022
-338.318	800.000	0.075	0.287
-337.304	14.426	-0.198	0.154
-336.289	-10.595	-0.095	0.063
-335.275	-200.000	0.016	-0.131
-334.260	-61.637	-0.250	0.105
-333.245	-11.987	-0.193	-0.126
-332.231	-200.000	-0.036	0.393
-331.216	800.000	-0.015	0.046
-330.202	800.000	-0.046	-0.149
-329.187	-148.094	-0.146	0.012
-328.172	-200.000	0.003	-0.339
-327.158	115.859	-0.193	-0.235
-326.143	-117.616	0.162	-0.029
-325.129	-18.205	0.140	-0.087
-324.114	-200.000	-0.042	0.196
-323.099	100.822	0.147	-0.169
-322.085	-106.508	-0.123	0.027
-321.070	800.000	-0.140	0.496
-320.056	-200.000	0.053	0.000
-319.041	9.686	-0.147	0.111
-318.026	603.259	-0.067	-0.166
-317.012	23.144	0.182	0.149
-315.997	-89.983	0.057	0.017
-314.983	-94.320	0.093	0.025
-313.968	-70.376	0.086	-0.032
-312.953	-119.934	0.145	0.025
-311.939	-200.000	-0.046	-0.448
-310.924	-91.892	0.059	0.017
-309.910	-6.469	0.358	0.242
-308.895	228.052	0.050	-0.082
-307.880	259.963	0.055	-0.095
-306.866	-100.036	0.178	0.044
-305.851	64.719	0.138	0.138
-304.837	-88.203	0.438	-0.130
-303.822	31.958	-0.137	-0.117
-302.807	-44.711	-0.091	-0.045
-301.793	-123.832	-0.478	0.075
-300.778	-77.606	-0.156	0.054
-299.764	-79.209	-0.070	-0.024
-298.749	-0.145	-0.173	0.123
-297.735	-103.976	0.199	-0.046
-296.720	-75.065	-0.159	-0.056
-295.705	332.899	0.047	-0.089
-294.691	23.996	0.243	-0.199
-293.676	-76.045	0.091	-0.032
-292.662	438.438	-0.231	0.500
-291.647	242.137	-0.134	0.222
-290.632	26.375	-0.074	0.062
-289.618	39.040	-0.170	-0.151
-288.603	110.922	0.103	0.124
-287.589	96.108	0.078	0.089
-286.574	-200.000	-0.022	-0.342
-285.559	247.084	-0.088	-0.147
-284.545	800.000	-0.075	-0.221
-283.530	148.015	-0.075	-0.100
-282.516	800.000	-0.034	-0.111
-281.501	166.478	0.164	-0.230
-280.486	800.000	0.131	-0.455
-279.472	-151.190	0.121	0.009
-278.457	-200.000	0.002	-0.070
-277.443	265.143	0.189	0.326
-276.428	101.968	0.100	-0.116
-275.413	-45.510	0.287	-0.141
-274.399	36.506	0.113	-0.099
-273.384	-14.571	-0.126	-0.081
-272.370	69.142	0.361	-0.368
-271.355	115.579	-0.195	-0.236
-270.340	800.000	-0.028	0.112
-269.326	-162.116	0.157	0.008
-268.311	-50.075	-0.079	-0.037
-267.297	135.718	0.060	0.077
-266.282	34.186	-0.181	0.157
-265.267	-52.096	0.145	0.067
-264.253	-200.000	-0.229	0.000
-263.238	47.304	-0.265	-0.245
-262.224	133.634	-0.222	-0.285
-261.209	239.096	-0.010	0.016
-260.195	-200.000	0.045	-0.565
-259.180	671.118	-0.137	-0.352
-258.165	800.000	-0.042	0.131
-257.151	686.277	0.113	-0.294
-256.136	160.177	0.078	0.107
-255.122	-200.000	-0.044	-0.362
-254.107	-83.264	0.189	0.060
-253.092	130.219	0.297	0.376
-252.078	-200.000	0.055	0.320
-251.063	-200.000	0.005	0.028
-250.049	-13.062	0.166	0.107
-249.034	-60.473	0.096	0.040
-248.019	800.000	-0.091	0.276
-247.005	549.470	0.117	0.279
-245.990	-136.230	0.150	-0.017
-244.976	-182.094	-0.364	0.007
-243.961	19.509	-0.296	-0.236
-242.946	-50.123	0.216	-0.102
-241.932	-12.336	-0.192	-0.124
-240.917	151.525	-0.152	-0.205
-239.903	12.919	-0.169	-0.129
-238.888	424.589	0.132	0.281
-237.873	800.000	0.088	0.326
-236.859	584.523	0.147	0.358
-235.844	-67.442	0.103	-0.040
-234.830	14.792	-0.163	0.126
-233.815	172.447	-0.152	-0.217
-232.800	-134.466	-0.218	0.026
-231.786	-200.000	0.038	0.177
-230.771	144.281	-0.019	0.025
-229.757	-200.000	-0.018	-0.446
-228.742	-11.878	0.123	-0.080
-227.727	-93.773	0.005	0.001
-226.713	-152.952	-0.123	-0.009
-225.698	800.000	0.080	-0.242
-224.684	-161.263	0.346	-0.018
-223.669	-96.868	0.264	0.069
-222.655	-134.679	-0.332	0.040
-221.640	-55.030	0.135	0.060
-220.625	-78.140	0.221	-0.075
-219.611	-200.000	0.068	-0.303
-218.596	28.499	0.180	0.151
-217.582	-200.000	-0.077	-0.425
-216.567	-200.000	-0.021	-0.202
-215.552	-127.347	-0.104	0.015
-214.538	800.000	0.058	0.243
-213.523	-200.000	-0.058	0.297
-212.509	-200.000	-0.006	-0.127
-211.494	-179.835	0.091	-0.002
-210.479	-200.000	-0.012	0.103
-209.465	-6.271	-0.066	-0.045
-208.450	-32.320	0.241	-0.133
-207.436	-200.000	-0.021	0.513
-206.421	-65.435	0.079	-0.032
-205.406	800.000	0.013	0.045
-204.392	348.523	0.174	-0.339
-203.377	180.271	-0.108	0.157
-202.363	2.718	-0.081	-0.058
-201.348	-85.148	0.085	-0.026
-200.333	385.257	0.023	0.047
-199.319	800.000	-0.097	0.280
-198.304	-200.000	-0.072	0.448
-197.290	184.868	-0.133	0.195
-196.275	-200.000	-0.030	-0.237
-195.260	-138.212	0.220	-0.024
-194.246	-200.000	-0.019	0.146
-193.231	-200.000	0.028	0.160
-192.217	-57.349	-0.436	0.189
-191.202	296.243	-0.094	0.170
-190.187	-45.617	-0.179	0.088
-189.173	-200.000	-0.016	-0.084
-188.158	258.605	-0.069	0.118
-187.144	178.668	-0.184	-0.266
-186.129	-50.397	0.346	0.162
-185.114	12.323	0.182	0.138
-184.100	-21.271	-0.034	0.020
-183.085	595.215	-0.051	-0.126
-182.071	-200.000	-0.004	0.137
-181.056	-200.000	-0.020	0.101
-180.042	13.062	-0.368	0.281
-179.027	-154.627	0.176	0.012
-178.012	66.537	-0.141	-0.142
-176.998	439.007	0.106	-0.229
-175.983	-200.000	-0.025	0.121
-174.969	-7.976	-0.072	0.048
-173.954	-200.000	-0.087	0.386
-172.939	-200.000	-0.023	-0.281
-171.925	50.786	0.196	-0.184
-170.910	18.103	0.232	0.183
-169.896	800.000	0.060	-0.239
-168.881	-134.531	-0.039	-0.005
-167.866	91.567	0.147	0.164
-166.852	-130.845	0.316	-0.042
-165.837	-100.835	-0.112	-0.027
-164.823	318.862	0.121	-0.226
-163.808	-123.603	0.308	-0.048
-162.793	144.439	-0.042	-0.056
-161.779	800.000	0.035	-0.099
-160.764	800.000	0.032	0.117
-159.750	-200.000	-0.025	0.179
-158.735	-115.590	0.121	-0.023
-157.720	-32.048	-0.189	0.105
-156.706	-200.000	-0.044	-0.244
-155.691	-200.000	0.014	0.192
-154.677	234.969	0.024	0.039
-153.662	-136.865	0.043	0.005
-152.647	12.628	0.169	-0.129
-151.633	-66.536	-0.128	-0.050
-150.618	93.922	-0.296	-0.332
-149.604	109.298	-0.053	-0.062
-148.589	15.033	0.209	0.161
-147.574	-142.583	0.103	-0.010
-146.560	47.264	-0.110	0.102
-145.545	293.999	0.105	0.190
-144.531	68.650	0.184	0.186
-143.516	139.695	-0.052	-0.067
-142.502	800.000	-0.022	0.091
-141.487	328.854	0.028	0.054
-140.472	28.403	-0.093	-0.078
-139.458	-130.581	0.173	-0.023
-138.443	-150.227	0.058	0.004
-137.429	176.846	0.312	0.448
-136.414	-82.900	-0.422	-0.134
-135.399	-38.673	0.441	0.230
-134.385	-112.524	-0.249	-0.049
-133.370	273.850	-0.049	0.086
-132.356	800.000	0.038	0.138
-131.341	302.362	-0.120	-0.219
-130.326	-200.000	-0.030	-0.302
-129.312	-121.034	-0.303	0.050
-128.297	123.955	-0.116	0.144
-127.283	-200.000	-0.026	0.172
-126.268	800.000	-0.078	0.294
-125.253	-111.934	0.202	0.040
-124.239	208.467	-0.257	0.397
-123.224	-200.000	0.050	0.257
-122.210	133.548	-0.196	0.250
-121.195	-10.573	0.131	-0.086
-120.180	-79.402	-0.259	-0.086
