DTS Sentinel unit serial number:	SN413079Multiplexer serial number:	ORYXHardware model number:	OX4-SRSoftware version number:	ORYX F/W v4.00 Oryx Data Collector v3.7.2.0data status	okinstallation	princeton_trtdifferential loss correction	single-endedforward channel	channel 2reverse channel	N/Adate	2019/09/13time	19:35:35forward acquisition time	60.00reverse acquisition time	0.00gamma	496.2192k internal	0.2330k external	0.2330temperature offset calibration	1.0146default loss term (dB/km)	0.3790temperature slope calibration	1.0000multiplexer offset coefficient	1.0000multiplexer slope coefficient	1.0000fibre end	0.00T internal ref (°C)	30.55T ext. ref 1 (°C)	3.39T ext. ref 2 (°C)	24.41length (m)	temperature (°C)	Stokes	anti-Stokes-747.200	800.000	0.047	0.142
-746.185	59.273	0.175	0.174
-745.171	14.839	-0.176	0.138
-744.156	-195.426	-0.182	-0.001
-743.142	65.577	0.320	-0.326
-742.127	-200.000	0.084	-0.383
-741.112	-122.223	0.325	0.054
-740.098	800.000	-0.035	0.110
-739.083	4.894	0.135	0.100
-738.069	226.120	-0.117	0.191
-737.054	800.000	0.116	0.337
-736.039	-18.268	-0.173	-0.109
-735.025	239.478	0.066	-0.110
-734.010	-200.000	-0.024	-0.156
-732.996	538.639	-0.069	-0.165
-731.981	-56.517	0.229	0.102
-730.966	61.832	-0.259	0.259
-729.952	-73.087	0.040	-0.015
-728.937	-12.955	-0.468	-0.307
-727.923	-34.400	0.148	0.082
-726.908	157.458	0.019	0.026
-725.894	-10.047	-0.154	0.103
-724.879	-70.277	-0.211	0.081
-723.864	-46.178	0.272	-0.135
-722.850	-32.969	-0.263	0.147
-721.835	-72.812	0.154	0.057
-720.821	556.488	0.078	-0.189
-719.806	800.000	0.119	-0.413
-718.791	158.370	0.069	0.096
-717.777	-133.519	0.236	-0.030
-716.762	-200.000	0.116	0.000
-715.748	-44.155	-0.228	-0.115
-714.733	669.182	0.056	-0.146
-713.718	-97.520	-0.289	-0.076
-712.704	800.000	0.086	-0.334
-711.689	-200.000	-0.012	-0.073
-710.675	264.034	0.183	0.319
-709.660	-200.000	-0.010	-0.464
-708.645	-162.762	0.423	0.021
-707.631	-200.000	-0.032	-0.363
-706.616	155.516	-0.117	0.162
-705.602	-81.465	-0.335	-0.111
-704.587	44.224	-0.219	0.202
-703.572	-14.665	-0.186	-0.120
-702.558	4.699	-0.381	0.282
-701.543	-200.000	-0.008	0.089
-700.529	-99.147	0.237	0.060
-699.514	-116.733	0.134	-0.025
-698.499	-68.964	-0.253	0.098
-697.485	-46.468	-0.335	0.165
-696.470	-22.115	0.210	-0.128
-695.456	-142.532	0.066	-0.007
-694.441	40.883	-0.115	0.105
-693.426	800.000	0.059	0.211
-692.412	446.716	-0.088	0.195
-691.397	117.955	0.150	-0.186
-690.383	-66.396	-0.159	0.064
-689.368	-190.317	-0.308	0.003
-688.354	277.907	0.063	-0.113
-687.339	113.389	0.085	0.104
-686.324	800.000	-0.029	0.088
-685.310	125.932	0.192	0.244
-684.295	-42.218	0.133	-0.068
-683.281	-179.027	-0.401	-0.009
-682.266	-200.000	-0.013	-0.180
-681.251	-83.063	0.120	0.039
-680.237	357.575	0.006	-0.011
-679.222	-200.000	0.030	0.222
-678.208	257.149	0.048	-0.082
-677.193	-200.000	0.020	0.198
-676.178	-0.232	-0.147	-0.105
-675.164	-101.472	-0.302	0.074
-674.149	-76.553	-0.582	0.205
-673.135	800.000	0.084	-0.322
-672.120	-200.000	-0.017	0.120
-671.105	-76.994	0.470	0.165
-670.091	-153.919	0.571	-0.039
-669.076	800.000	-0.054	-0.196
-668.062	-111.098	-0.034	0.007
-667.047	62.559	0.206	-0.207
-666.032	102.406	0.122	-0.143
-665.018	55.640	-0.175	-0.170
-664.003	-12.929	-0.307	0.201
-662.989	388.398	0.054	-0.112
-661.974	21.274	0.136	-0.111
-660.959	800.000	0.059	-0.180
-659.945	800.000	-0.054	-0.211
-658.930	-84.002	-0.094	-0.030
-657.916	26.046	0.135	0.113
-656.901	29.348	-0.409	-0.349
-655.886	800.000	0.090	-0.375
-654.872	-124.694	-0.221	-0.034
-653.857	52.379	-0.199	-0.191
-652.843	-89.537	0.364	0.107
-651.828	480.103	0.005	-0.011
-650.814	-200.000	0.005	-0.094
-649.799	-121.327	0.143	-0.024
-648.784	81.084	0.083	-0.090
-647.770	123.417	0.259	0.326
-646.755	-60.385	0.192	-0.082
-645.741	-200.000	-0.003	-0.145
-644.726	-200.000	0.029	0.186
-643.711	-77.162	-0.212	0.074
-642.697	-52.831	0.153	-0.071
-641.682	58.276	0.160	0.158
-640.668	-129.644	-0.299	-0.041
-639.653	49.882	-0.105	0.099
-638.638	-93.875	0.470	-0.130
-637.624	-83.632	-0.106	-0.034
-636.609	-116.589	-0.178	0.033
-635.595	9.677	0.231	-0.176
-634.580	226.790	-0.069	-0.112
-633.565	-87.243	-0.286	-0.087
-632.551	-24.363	-0.152	0.091
-631.536	122.748	-0.089	0.112
-630.522	-200.000	-0.002	-0.211
-629.507	-47.085	-0.145	0.071
-628.492	-30.093	-0.275	-0.157
-627.478	-84.249	0.129	-0.041
-626.463	-56.951	-0.203	0.090
-625.449	-95.995	0.302	0.081
-624.434	800.000	0.086	-0.316
-623.419	-79.332	0.104	-0.035
-622.405	-200.000	0.082	0.471
-621.390	-131.068	0.182	-0.024
-620.376	-166.670	-0.274	0.011
-619.361	357.467	-0.121	-0.242
-618.346	-169.750	0.090	0.003
-617.332	231.085	0.033	-0.055
-616.317	-22.425	0.295	0.179
-615.303	132.016	-0.124	-0.160
-614.288	-47.588	0.207	0.101
-613.273	-194.948	0.121	0.001
-612.259	330.857	-0.189	-0.366
-611.244	449.064	0.081	0.179
-610.230	705.137	-0.085	-0.226
-609.215	-111.400	-0.097	0.020
-608.201	120.373	-0.167	0.208
-607.186	800.000	0.061	-0.192
-606.171	7.863	-0.165	-0.124
-605.157	-93.973	-0.205	0.057
-604.142	102.736	-0.134	0.157
-603.128	395.309	-0.068	0.142
-602.113	-17.746	-0.135	0.085
-601.098	-200.000	0.040	-0.231
-600.084	-84.511	-0.063	0.020
-599.069	-112.707	-0.139	0.028
-598.055	152.132	-0.194	-0.265
-597.040	197.097	-0.104	-0.159
-596.025	-12.363	-0.115	-0.075
-595.011	-19.192	-0.106	-0.066
-593.996	-200.000	-0.005	-0.044
-592.982	-15.990	0.182	-0.116
-591.967	-200.000	0.011	0.063
-590.952	-123.630	0.060	-0.009
-589.938	-33.815	0.196	0.108
-588.923	85.493	0.209	0.230
-587.909	157.473	-0.165	-0.228
-586.894	-200.000	-0.006	0.261
-585.879	-77.186	-0.438	-0.153
-584.865	16.569	-0.355	-0.281
-583.850	-200.000	-0.010	0.053
-582.836	153.763	-0.166	0.228
-581.821	800.000	0.069	0.300
-580.806	-109.856	0.381	-0.080
-579.792	-104.504	-0.130	-0.030
-578.777	-78.291	0.024	-0.008
-577.763	202.112	0.067	-0.103
-576.748	129.354	0.078	-0.100
-575.733	177.235	0.180	-0.262
-574.719	-77.939	0.228	-0.079
-573.704	105.426	0.084	-0.099
-572.690	800.000	0.042	0.172
-571.675	36.911	-0.149	0.131
-570.661	-200.000	-0.013	0.261
-569.646	-36.710	-0.194	-0.104
-568.631	-26.650	-0.212	-0.124
-567.617	409.735	0.139	-0.294
-566.602	10.212	-0.265	-0.202
-565.588	438.565	-0.109	0.238
-564.573	-21.733	0.151	-0.092
-563.558	-200.000	0.002	-0.106
-562.544	59.005	-0.090	-0.089
-561.529	273.778	0.099	-0.175
-560.515	-34.697	-0.223	0.122
-559.500	-174.350	0.309	-0.009
-558.485	-200.000	-0.008	0.077
-557.471	-67.058	0.296	0.117
-556.456	166.659	0.108	0.153
-555.442	-144.539	0.335	0.031
-554.427	-87.533	-0.359	-0.109
-553.412	-200.000	0.003	0.096
-552.398	-166.612	0.297	0.012
-551.383	-171.931	-0.250	0.008
-550.369	-179.385	-0.238	0.005
-549.354	-200.000	-0.018	0.433
-548.339	-31.980	-0.083	-0.047
-547.325	-17.107	-0.117	0.074
-546.310	800.000	-0.067	-0.193
-545.296	-178.928	0.406	0.009
-544.281	-85.917	-0.065	0.020
-543.266	-51.714	-0.121	-0.057
-542.252	27.002	-0.270	-0.226
-541.237	24.531	0.267	-0.221
-540.223	48.443	0.093	-0.087
-539.208	-100.513	-0.321	-0.079
-538.193	11.895	0.118	-0.090
-537.179	91.938	0.178	-0.201
-536.164	800.000	-0.031	-0.129
-535.150	90.959	-0.173	0.194
-534.135	646.662	-0.047	0.121
-533.121	-200.000	-0.026	-0.164
-532.106	738.489	-0.090	-0.240
-531.091	250.673	-0.116	-0.197
-530.077	42.230	0.140	-0.127
-529.062	-200.000	-0.022	-0.185
-528.048	186.116	0.026	0.039
-527.033	156.208	-0.140	0.192
-526.018	-200.000	-0.010	-0.098
-525.004	-109.862	-0.224	0.047
-523.989	-200.000	-0.009	-0.244
-522.975	-200.000	-0.001	-0.032
-521.960	-35.301	0.116	0.063
-520.945	6.480	0.067	-0.050
-519.931	-47.817	0.185	-0.089
-518.916	18.431	-0.179	0.143
-517.902	318.509	-0.163	0.308
-516.887	-93.098	0.060	0.017
-515.872	317.051	-0.026	0.050
-514.858	-87.906	0.283	0.085
-513.843	105.205	0.012	0.015
-512.829	-3.523	0.443	0.307
-511.814	-75.457	-0.086	0.030
-510.799	-200.000	-0.023	0.301
-509.785	-113.285	0.108	0.021
-508.770	420.052	-0.030	0.064
-507.756	-95.559	-0.275	-0.074
-506.741	284.006	0.042	0.075
-505.726	800.000	-0.071	0.295
-504.712	-200.000	-0.014	-0.348
-503.697	-188.748	-0.404	0.005
-502.683	119.760	0.116	-0.143
-501.668	800.000	-0.090	-0.304
-500.653	-45.365	0.097	0.048
-499.639	-156.099	0.278	0.018
-498.624	800.000	-0.068	-0.202
-497.610	-163.696	-0.208	-0.010
-496.595	380.011	-0.157	0.321
-495.581	-118.551	-0.165	0.029
-494.566	-52.973	0.044	-0.020
-493.551	208.589	-0.082	0.128
-492.537	84.268	-0.223	0.243
-491.522	-200.000	-0.031	-0.327
-490.508	346.902	-0.036	0.071
-489.493	-55.357	0.476	0.213
-488.478	-153.833	0.232	0.016
-487.464	2.372	-0.142	-0.102
-486.449	-150.705	-0.025	0.002
-485.435	-113.979	-0.318	0.062
-484.420	-200.000	-0.030	-0.189
-483.405	-160.584	0.441	0.023
-482.391	-164.130	0.157	0.007
-481.376	737.938	-0.073	0.194
-480.362	-200.000	-0.016	0.253
-479.347	-86.772	0.177	-0.054
-478.332	-106.333	-0.207	0.046
-477.318	145.428	-0.098	-0.131
-476.303	-5.442	0.115	0.079
-475.289	-31.062	-0.401	0.226
-474.274	-200.000	-0.033	0.371
-473.259	-200.000	-0.002	0.174
-472.245	-117.589	0.525	-0.094
-471.230	-40.714	-0.099	0.051
-470.216	145.803	0.081	0.108
-469.201	29.904	0.137	-0.116
-468.186	-200.000	-0.010	-0.120
-467.172	-200.000	-0.015	0.207
-466.157	-200.000	0.014	-0.076
-465.143	-200.000	-0.007	0.067
-464.128	144.144	-0.127	0.169
-463.113	-80.701	0.190	-0.063
-462.099	-162.802	0.186	0.009
-461.084	299.489	0.168	0.308
-460.070	-99.974	0.128	-0.032
-459.055	800.000	0.079	0.276
-458.040	-138.540	0.412	0.045
-457.026	-103.881	-0.304	0.071
-456.011	-200.000	0.009	-0.167
-454.997	-20.591	0.012	-0.007
-453.982	-140.696	-0.223	-0.023
-452.968	410.088	0.034	-0.071
-451.953	-200.000	-0.018	-0.241
-450.938	-80.397	-0.419	0.139
-449.924	-100.788	-0.022	-0.006
-448.909	-200.000	-0.005	0.051
-447.895	-3.419	0.131	-0.090
-446.880	110.312	-0.244	0.291
-445.865	-169.545	-0.279	-0.010
-444.851	19.416	-0.082	0.065
-443.836	-200.000	0.024	0.128
-442.822	-5.198	-0.177	0.121
-441.807	192.811	0.105	-0.158
-440.792	175.612	0.041	-0.059
-439.778	-109.762	-0.143	-0.030
-438.763	410.621	-0.059	0.124
-437.749	-143.109	-0.471	-0.045
-436.734	126.374	0.079	-0.100
-435.719	-122.558	0.250	0.040
-434.705	730.345	0.200	-0.533
-433.690	-101.404	-0.422	-0.102
-432.676	-200.000	0.054	0.275
-431.661	243.779	0.143	0.238
-430.646	121.592	0.187	-0.232
-429.632	102.463	0.142	-0.166
-428.617	-200.000	0.008	0.035
-427.603	262.091	-0.114	0.196
-426.588	48.090	0.058	-0.054
-425.573	-109.041	0.244	0.052
-424.559	-150.467	-0.133	0.010
-423.544	7.366	-0.132	-0.098
-422.530	453.856	-0.101	0.223
-421.515	309.782	0.091	-0.169
-420.500	-200.000	-0.077	0.540
-419.486	-81.316	0.275	-0.090
-418.471	-99.184	-0.090	0.023
-417.457	-200.000	0.059	-0.647
-416.442	-60.089	-0.183	0.078
-415.428	-65.896	0.066	0.026
-414.413	159.943	-0.027	-0.037
-413.398	-200.000	-0.015	0.185
-412.384	-200.000	-0.071	0.369
-411.369	800.000	-0.024	0.096
-410.355	-22.618	-0.325	0.195
-409.340	-48.346	0.347	-0.166
-408.325	362.613	0.122	-0.243
-407.311	-50.037	-0.349	-0.164
-406.296	24.518	0.299	0.245
-405.282	-200.000	-0.006	0.204
-404.267	-200.000	0.018	-0.088
-403.252	378.009	0.059	0.121
-402.238	405.142	-0.100	0.209
-401.223	-200.000	0.010	-0.199
-400.209	14.015	-0.293	0.227
-399.194	-16.580	0.416	0.262
-398.179	800.000	-0.067	0.277
-397.165	-200.000	0.029	-0.245
-396.150	-200.000	-0.013	-0.113
-395.136	377.737	-0.078	-0.158
-394.121	800.000	0.028	0.080
-393.106	-200.000	0.087	-0.395
-392.092	370.014	0.088	-0.177
-391.077	-82.458	0.275	-0.089
-390.063	-200.000	-0.016	-0.228
-389.048	-121.230	-0.248	-0.041
-388.033	-117.076	-0.210	-0.038
-387.019	-200.000	0.055	-0.398
-386.004	54.393	-0.048	-0.046
-384.990	-68.637	-0.221	0.085
-383.975	-124.916	-0.286	0.044
-382.960	2.450	-0.144	0.103
-381.946	88.364	0.200	-0.221
-380.931	800.000	0.174	0.526
-379.917	627.064	0.011	-0.029
-378.902	-8.205	0.207	0.138
-377.888	372.981	0.203	0.410
-376.873	-129.726	-0.137	-0.019
-375.858	-42.760	0.115	0.058
-374.844	800.000	0.096	-0.279
-373.829	-62.094	0.172	0.071
-372.815	3.259	-0.104	-0.075
-371.800	544.358	0.162	-0.384
-370.785	26.772	0.099	-0.082
-369.771	-25.359	0.117	0.069
-368.756	800.000	0.080	0.299
-367.742	-51.774	0.268	0.124
-366.727	-110.092	-0.244	-0.051
-365.712	-171.308	0.148	0.005
-364.698	577.467	-0.102	-0.248
-363.683	-200.000	-0.006	0.141
-362.669	-101.932	-0.118	0.028
-361.654	357.118	0.128	-0.253
-360.639	-166.190	-0.293	0.012
-359.625	-200.000	0.033	-0.328
-358.610	131.522	-0.126	0.161
-357.596	127.460	-0.048	-0.060
-356.581	-109.599	0.104	-0.022
-355.566	-200.000	-0.019	-0.402
-354.552	790.918	0.157	0.428
-353.537	192.150	0.061	-0.092
-352.523	163.091	-0.034	-0.048
-351.508	-200.000	0.003	-0.200
-350.493	-22.116	-0.205	-0.123
-349.479	800.000	0.052	-0.173
-348.464	681.069	0.084	0.217
-347.450	-12.907	0.232	-0.149
-346.435	-120.193	0.279	-0.047
-345.420	2.654	0.330	0.237
-344.406	-153.723	-0.030	0.002
-343.391	143.866	0.021	-0.028
-342.377	427.377	0.133	-0.285
-341.362	-43.683	-0.263	0.131
-340.348	-61.559	0.195	-0.081
-339.333	-152.177	-0.085	0.006
-338.318	800.000	-0.039	0.160
-337.304	2.744	0.132	0.095
-336.289	-123.621	0.223	0.035
-335.275	179.266	-0.126	0.182
-334.260	-200.000	0.001	-0.240
-333.245	-125.548	-0.376	0.057
-332.231	95.391	-0.135	-0.152
-331.216	-95.924	-0.542	0.143
-330.202	-36.535	-0.186	0.099
-329.187	-64.780	0.166	0.066
-328.172	-200.000	-0.081	-0.391
-327.158	-121.266	0.218	0.036
-326.143	-33.206	-0.138	-0.076
-325.129	-174.795	0.147	-0.004
-324.114	-200.000	0.037	0.173
-323.099	800.000	-0.091	0.286
-322.085	-125.921	-0.336	0.050
-321.070	758.058	0.066	-0.177
-320.056	538.412	0.039	-0.092
-319.041	-60.459	0.214	0.090
-318.026	-79.097	0.288	0.097
-317.012	-74.845	0.201	0.071
-315.997	93.880	-0.139	-0.156
-314.983	-54.525	-0.161	0.072
-313.968	800.000	-0.053	0.160
-312.953	-30.189	-0.083	-0.047
-311.939	-200.000	0.040	-0.218
-310.924	60.817	0.147	0.144
-309.910	209.181	0.145	0.225
-308.895	60.632	-0.097	0.095
-307.880	60.122	0.156	-0.152
-306.866	-105.737	0.079	-0.018
-305.851	-117.780	-0.153	0.027
-304.837	-21.618	0.089	0.054
-303.822	-103.694	-0.134	-0.031
-302.807	800.000	-0.073	0.202
-301.793	-12.282	0.131	-0.085
-300.778	-132.702	-0.087	-0.011
-299.764	800.000	0.077	-0.292
-298.749	-114.660	0.414	0.078
-297.735	-125.401	-0.405	0.061
-296.720	187.426	-0.128	-0.188
-295.705	800.000	-0.014	0.052
-294.691	136.077	-0.080	0.103
-293.676	169.583	0.168	-0.238
-292.662	-200.000	-0.021	-0.277
-291.647	-32.874	0.325	-0.179
-290.632	800.000	0.022	0.091
-289.618	108.589	0.044	0.052
-288.603	677.766	0.074	-0.190
-287.589	43.311	0.045	-0.041
-286.574	-180.918	-0.109	-0.002
-285.559	-162.620	0.342	-0.017
-284.545	194.425	-0.115	0.172
-283.530	-121.980	-0.427	0.070
-282.516	318.714	0.061	0.115
-281.501	-200.000	-0.049	0.361
-280.486	-145.887	0.320	0.028
-279.472	-200.000	0.017	0.165
-278.457	283.668	0.185	-0.329
-277.443	76.991	0.209	-0.219
-276.428	800.000	0.079	-0.331
-275.413	108.102	-0.096	-0.113
-274.399	21.936	-0.154	-0.124
-273.384	800.000	0.043	-0.174
-272.370	-90.162	-0.111	-0.032
-271.355	40.509	0.067	-0.059
-270.340	-200.000	-0.013	0.081
-269.326	120.190	-0.049	0.060
-268.311	78.128	-0.153	0.162
-267.297	-49.192	-0.135	-0.064
-266.282	-70.452	-0.082	-0.031
-265.267	-21.818	0.335	0.201
-264.253	-102.017	0.121	0.029
-263.238	-60.875	0.188	-0.078
-262.224	-173.771	0.299	0.009
-261.209	-152.234	-0.444	-0.032
-260.195	37.099	-0.212	0.186
-259.180	-21.203	0.139	-0.084
-258.165	-106.129	0.158	-0.035
-257.151	-200.000	0.014	0.116
-256.136	-200.000	0.010	0.098
-255.122	-50.817	-0.315	-0.146
-254.107	351.944	0.132	0.259
-253.092	102.800	0.067	-0.077
-252.078	-200.000	0.011	0.105
-251.063	-46.234	-0.352	0.171
-250.049	-129.630	-0.169	0.023
-249.034	-200.000	-0.050	0.229
-248.019	-17.809	-0.168	-0.104
-247.005	-17.810	-0.286	-0.178
-245.990	-69.981	0.274	-0.103
-244.976	567.787	-0.110	0.264
-243.961	-200.000	-0.010	-0.211
-242.946	297.049	0.123	0.222
-241.932	65.851	-0.081	0.081
-240.917	3.010	-0.173	0.124
-239.903	241.626	-0.133	0.219
-238.888	-76.773	-0.351	-0.121
-237.873	-3.111	-0.151	0.104
-236.859	138.272	0.122	-0.158
-235.844	-119.324	-0.446	0.077
-234.830	-120.843	-0.400	-0.067
-233.815	-89.090	0.095	0.028
-232.800	-67.260	0.122	0.047
-231.786	257.138	-0.125	-0.211
-230.771	-200.000	-0.044	-0.198
-229.757	-77.900	0.197	-0.067
-228.742	-200.000	0.038	0.257
-227.727	391.483	0.101	0.207
-226.713	-109.887	-0.148	0.031
-225.698	36.334	0.065	-0.056
-224.684	400.384	-0.019	0.039
-223.669	69.130	0.271	-0.275
-222.655	-93.420	-0.368	0.101
-221.640	-200.000	0.028	-0.242
-220.625	-163.003	0.245	0.012
-219.611	267.247	0.245	0.422
-218.596	-200.000	-0.033	-0.318
-217.582	-200.000	0.003	0.052
-216.567	243.887	-0.083	0.138
-215.552	-200.000	-0.003	0.064
-214.538	-133.081	0.172	-0.022
-213.523	-13.053	0.089	0.057
-212.509	-32.958	-0.061	0.033
-211.494	-200.000	0.021	-0.191
-210.479	173.539	0.160	0.228
-209.465	619.325	-0.079	-0.195
-208.450	137.408	-0.227	0.292
-207.436	-200.000	0.007	0.184
-206.421	-142.470	0.352	0.034
-205.406	-111.111	0.200	0.040
-204.392	800.000	0.074	0.258
-203.377	14.753	-0.135	-0.104
-202.363	194.899	0.140	0.210
-201.348	100.921	-0.148	0.170
-200.333	-200.000	0.021	-0.241
-199.319	-98.280	0.170	-0.043
-198.304	-200.000	0.017	-0.283
-197.290	-200.000	0.026	0.153
-196.275	410.562	0.075	0.158
-195.260	-129.697	-0.114	-0.016
-194.246	-115.745	-0.158	-0.029
-193.231	-200.000	0.026	0.128
-192.217	-142.350	0.346	-0.034
-191.202	-200.000	-0.034	-0.355
-190.187	-200.000	-0.007	0.160
-189.173	-130.418	0.150	-0.020
-188.158	43.618	0.330	0.298
-187.144	39.511	0.201	-0.177
-186.129	391.349	-0.052	-0.107
-185.114	244.720	-0.109	-0.180
-184.100	-200.000	0.017	-0.194
-183.085	34.370	-0.135	-0.116
-182.071	-81.648	0.305	-0.099
-181.056	-200.000	-0.005	-0.279
-180.042	800.000	-0.030	-0.110
-179.027	-200.000	-0.015	-0.102
-178.012	463.164	-0.182	0.401
-176.998	61.344	0.233	0.228
-175.983	-74.662	0.487	0.173
-174.969	-200.000	0.051	-0.518
-173.954	335.482	0.093	-0.178
-172.939	458.806	0.159	0.349
-171.925	198.776	-0.301	0.454
-170.910	-95.391	0.253	0.067
-169.896	167.722	0.164	0.230
-168.881	800.000	0.050	-0.176
-167.866	22.260	-0.117	-0.094
-166.852	-200.000	0.038	-0.371
-165.837	800.000	0.055	0.224
-164.823	-200.000	0.033	-0.232
-163.808	-200.000	-0.039	0.236
-162.793	76.783	0.227	-0.238
-161.779	-200.000	-0.006	-0.054
-160.764	-104.149	0.106	-0.024
-159.750	-200.000	0.040	0.273
-158.735	-5.953	-0.251	-0.169
-157.720	-53.462	-0.302	-0.136
-156.706	169.644	-0.240	0.338
-155.691	425.070	-0.102	-0.215
-154.677	800.000	0.054	-0.157
-153.662	-200.000	-0.041	0.247
-152.647	-55.354	-0.161	-0.071
-151.633	-146.162	-0.113	0.010
-150.618	-193.997	0.423	0.003
-149.604	800.000	-0.039	0.118
-148.589	-200.000	0.013	-0.176
-147.574	-16.797	0.186	0.116
-146.560	-107.615	-0.280	0.060
-145.545	-20.161	-0.147	-0.089
-144.531	38.734	0.132	-0.116
-143.516	-20.266	0.138	0.084
-142.502	-65.485	0.231	0.091
-141.487	-200.000	0.002	-0.260
-140.472	64.529	0.275	0.272
-139.458	-106.413	0.275	0.060
-138.443	-117.442	0.029	0.005
-137.429	-200.000	-0.006	0.115
-136.414	373.481	-0.147	-0.294
-135.399	-200.000	-0.038	0.174
-134.385	-58.055	0.331	-0.142
-133.370	-200.000	0.009	-0.212
-132.356	-94.865	-0.202	0.054
-131.341	61.013	0.094	-0.092
-130.326	-200.000	-0.028	-0.199
-129.312	100.373	-0.021	0.024
-128.297	85.774	0.099	0.107
-127.283	31.316	0.080	0.067
-126.268	76.272	-0.118	0.123
-125.253	204.861	0.124	0.189
-124.239	29.190	0.197	0.164
-123.224	800.000	-0.043	0.176
-122.210	25.870	-0.198	0.162
