DTS Sentinel unit serial number:	SN413079Multiplexer serial number:	ORYXHardware model number:	OX4-SRSoftware version number:	ORYX F/W v4.00 Oryx Data Collector v3.7.2.0data status	okinstallation	princeton_trtdifferential loss correction	single-endedforward channel	channel 2reverse channel	N/Adate	2019/09/13time	05:15:35forward acquisition time	60.00reverse acquisition time	0.00gamma	496.2192k internal	0.2337k external	0.2337temperature offset calibration	1.0190default loss term (dB/km)	0.3790temperature slope calibration	1.0000multiplexer offset coefficient	1.0000multiplexer slope coefficient	1.0000fibre end	0.00T internal ref (°C)	26.37T ext. ref 1 (°C)	4.07T ext. ref 2 (°C)	20.85length (m)	temperature (°C)	Stokes	anti-Stokes-747.200	150.699	-0.037	0.051
-746.185	82.284	-0.096	-0.105
-745.171	108.936	0.181	0.217
-744.156	348.218	-0.134	-0.265
-743.142	76.404	0.020	-0.022
-742.127	-200.000	0.029	0.385
-741.112	800.000	-0.101	0.337
-740.098	-26.594	-0.171	0.100
-739.083	167.636	-0.065	0.092
-738.069	155.946	-0.354	0.490
-737.054	-200.000	0.026	0.273
-736.039	-60.435	-0.381	-0.163
-735.025	-118.054	0.324	0.058
-734.010	33.695	-0.080	0.070
-732.996	262.837	-0.146	-0.255
-731.981	-200.000	-0.001	0.164
-730.966	-79.589	0.363	-0.123
-729.952	-141.548	0.068	-0.007
-728.937	172.301	-0.055	0.079
-727.923	43.803	0.044	-0.041
-726.908	-200.000	-0.002	-0.178
-725.894	13.374	-0.107	0.083
-724.879	-200.000	-0.048	0.351
-723.864	160.009	-0.197	-0.275
-722.850	469.820	-0.050	-0.114
-721.835	-200.000	-0.031	0.254
-720.821	-41.367	-0.151	-0.078
-719.806	327.639	0.195	-0.376
-718.791	-110.370	-0.405	-0.085
-717.777	-21.356	-0.238	-0.146
-716.762	204.591	-0.044	0.069
-715.748	628.890	0.064	-0.161
-714.733	800.000	0.022	0.086
-713.718	-194.819	-0.260	0.002
-712.704	346.460	0.082	0.162
-711.689	9.037	0.306	0.232
-710.675	104.648	0.064	-0.075
-709.660	225.497	0.152	0.247
-708.645	-21.160	0.083	-0.051
-707.631	-17.924	-0.183	-0.115
-706.616	-58.460	-0.170	0.074
-705.602	212.510	-0.042	-0.067
-704.587	-200.000	0.001	-0.107
-703.572	794.361	0.110	0.305
-702.558	56.036	0.078	-0.076
-701.543	-158.296	-0.505	0.029
-700.529	180.991	0.176	-0.260
-699.514	800.000	0.056	-0.241
-698.499	5.576	0.183	-0.135
-697.485	-36.590	-0.095	0.051
-696.470	-200.000	-0.078	-0.482
-695.456	99.167	0.171	-0.198
-694.441	69.109	0.293	0.302
-693.426	800.000	-0.094	0.262
-692.412	-66.865	0.304	0.120
-691.397	-112.399	0.171	-0.034
-690.383	-39.269	-0.080	0.042
-689.368	318.267	-0.044	0.083
-688.354	147.551	0.118	-0.160
-687.339	262.623	0.201	-0.349
-686.324	-191.007	-0.117	-0.001
-685.310	711.314	-0.034	0.091
-684.295	-149.717	-0.321	-0.025
-683.281	800.000	-0.005	-0.020
-682.266	-136.107	-0.297	0.035
-681.251	358.646	-0.085	-0.171
-680.237	226.004	-0.064	0.103
-679.222	96.978	0.236	0.270
-678.208	-142.702	0.483	0.047
-677.193	800.000	-0.081	0.229
-676.178	800.000	0.067	-0.193
-675.164	-200.000	-0.034	-0.267
-674.149	-100.123	-0.187	-0.047
-673.135	-127.400	-0.081	-0.012
-672.120	-82.530	-0.429	0.139
-671.105	800.000	0.042	-0.127
-670.091	-200.000	0.022	0.204
-669.076	-195.567	0.230	-0.002
-668.062	252.400	0.064	-0.109
-667.047	-7.862	0.209	0.141
-666.032	561.388	-0.076	-0.184
-665.018	-68.154	-0.159	-0.062
-664.003	-51.598	-0.405	-0.189
-662.989	-200.000	-0.003	-0.373
-661.974	23.687	0.153	-0.126
-660.959	-200.000	0.012	0.158
-659.945	-30.219	0.109	0.062
-658.930	-200.000	-0.007	0.058
-657.916	-55.720	0.258	0.116
-656.901	-48.554	-0.189	-0.091
-655.886	522.451	0.192	-0.451
-654.872	149.949	0.188	0.255
-653.857	-39.412	-0.287	0.151
-652.843	346.638	-0.031	-0.061
-651.828	-61.479	0.260	-0.109
-650.814	-79.921	-0.187	0.063
-649.799	-16.476	-0.233	-0.148
-648.784	-93.009	-0.238	-0.066
-647.770	79.269	-0.273	-0.293
-646.755	214.777	0.094	-0.150
-645.741	-200.000	-0.019	0.266
-644.726	518.910	0.064	-0.150
-643.711	-188.217	-0.119	-0.002
-642.697	-200.000	0.021	-0.140
-641.682	-200.000	0.007	0.242
-640.668	-106.300	0.200	-0.045
-639.653	-200.000	0.009	-0.242
-638.638	-21.528	0.088	0.054
-637.624	-64.583	-0.088	-0.036
-636.609	146.847	0.124	-0.166
-635.595	91.778	0.128	0.144
-634.580	-200.000	0.017	-0.156
-633.565	-169.338	0.189	0.007
-632.551	-53.291	-0.019	-0.009
-631.536	-51.117	-0.092	0.043
-630.522	-67.761	-0.279	0.109
-629.507	-200.000	-0.006	-0.051
-628.492	-116.908	-0.273	-0.050
-627.478	-72.134	0.092	0.034
-626.463	-200.000	0.008	0.353
-625.449	382.767	-0.233	-0.479
-624.434	459.620	-0.181	-0.404
-623.419	-95.464	0.341	-0.091
-622.405	32.419	-0.207	-0.179
-621.390	-200.000	-0.015	-0.129
-620.376	-21.171	-0.093	-0.057
-619.361	719.237	-0.117	-0.311
-618.346	36.829	-0.254	-0.224
-617.332	-135.089	0.189	-0.023
-616.317	331.292	0.113	0.218
-615.303	448.717	0.096	-0.212
-614.288	-74.268	-0.458	0.165
-613.273	-102.606	-0.151	-0.036
-612.259	-200.000	0.000	-0.284
-611.244	489.572	0.082	0.188
-610.230	-200.000	0.007	-0.153
-609.215	-200.000	-0.342	-0.002
-608.201	-96.769	-0.298	-0.078
-607.186	-25.467	0.218	-0.129
-606.171	-47.355	-0.223	0.108
-605.157	103.005	-0.083	0.098
-604.142	134.439	-0.180	0.233
-603.128	-47.763	0.149	-0.072
-602.113	42.451	-0.069	0.063
-601.098	61.612	-0.085	0.084
-600.084	282.343	0.176	0.315
-599.069	-38.458	-0.313	0.165
-598.055	5.045	0.020	-0.015
-597.040	2.512	0.140	0.101
-596.025	-27.352	-0.152	-0.088
-595.011	800.000	0.065	-0.194
-593.996	240.851	0.196	-0.327
-592.982	28.539	-0.058	-0.049
-591.967	-114.076	-0.156	-0.030
-590.952	338.540	0.111	-0.216
-589.938	342.495	-0.086	0.168
-588.923	666.935	-0.089	0.230
-587.909	335.011	-0.130	0.252
-586.894	153.380	-0.121	-0.165
-585.879	-122.899	-0.320	-0.051
-584.865	-9.640	-0.101	-0.067
-583.850	-18.237	0.328	0.205
-582.836	-85.186	-0.192	-0.060
-581.821	290.064	-0.077	0.140
-580.806	343.247	0.059	0.115
-579.792	-53.017	-0.124	0.057
-578.777	-78.486	0.083	0.028
-577.763	-137.360	0.598	0.068
-576.748	-80.638	0.112	0.037
-575.733	17.954	-0.115	0.091
-574.719	-110.392	0.117	0.024
-573.704	493.148	-0.115	-0.263
-572.690	-171.633	0.312	-0.010
-571.675	-200.000	0.048	0.307
-570.661	-200.000	-0.034	0.166
-569.646	-66.931	0.201	-0.079
-568.631	-200.000	-0.059	0.261
-567.617	800.000	0.033	-0.132
-566.602	92.824	-0.040	0.046
-565.588	-44.904	-0.187	0.093
-564.573	37.018	-0.129	-0.114
-563.558	800.000	-0.093	0.300
-562.544	-200.000	-0.004	-0.096
-561.529	800.000	-0.025	-0.080
-560.515	800.000	-0.173	0.497
-559.500	-100.332	0.191	0.047
-558.485	80.439	-0.144	0.155
-557.471	800.000	0.047	-0.137
-556.456	-34.861	0.153	-0.083
-555.442	247.760	-0.245	-0.412
-554.427	-31.995	-0.128	0.072
-553.412	-200.000	-0.111	-0.000
-552.398	109.055	0.037	-0.044
-551.383	221.585	-0.123	0.197
-550.369	-200.000	0.021	-0.189
-549.354	-104.029	0.089	0.021
-548.339	1.650	-0.087	0.062
-547.325	-48.669	0.173	-0.083
-546.310	-15.066	0.178	-0.114
-545.296	104.818	-0.130	0.153
-544.281	41.930	0.169	0.153
-543.266	800.000	-0.022	0.076
-542.252	-200.000	0.025	0.391
-541.237	800.000	0.052	-0.155
-540.223	-200.000	-0.013	0.110
-539.208	-200.000	0.020	0.147
-538.193	800.000	-0.099	-0.290
-537.179	-1.292	0.396	-0.278
-536.164	69.413	-0.182	-0.187
-535.150	-46.261	0.255	0.125
-534.135	60.373	0.085	-0.084
-533.121	287.045	-0.051	-0.091
-532.106	64.737	-0.207	0.208
-531.091	107.168	0.119	0.141
-530.077	-118.403	-0.157	0.028
-529.062	625.785	0.069	-0.174
-528.048	125.898	0.078	0.099
-527.033	220.652	0.117	-0.187
-526.018	76.732	0.154	0.163
-525.004	299.837	-0.123	-0.226
-523.989	780.228	0.105	-0.286
-522.975	-127.333	0.283	0.041
-521.960	-142.546	-0.315	0.031
-520.945	-137.439	0.544	-0.061
-519.931	31.552	0.078	-0.067
-518.916	-22.395	0.176	-0.106
-517.902	-193.074	0.264	0.002
-516.887	20.844	0.169	-0.136
-515.872	-174.892	-0.132	0.004
-514.858	-7.669	0.126	0.084
-513.843	800.000	-0.077	0.234
-512.829	-74.522	0.009	-0.003
-511.814	-88.701	0.465	0.137
-510.799	136.798	0.032	0.042
-509.785	-132.335	-0.090	-0.012
-508.770	-85.112	0.109	-0.034
-507.756	-46.661	-0.147	-0.072
-506.741	11.301	0.198	-0.151
-505.726	-200.000	0.015	-0.263
-504.712	800.000	0.073	-0.258
-503.697	215.699	0.123	-0.194
-502.683	224.168	-0.056	0.091
-501.668	-200.000	0.016	-0.242
-500.653	32.256	-0.218	0.187
-499.639	-200.000	-0.019	-0.129
-498.624	-33.141	0.228	-0.126
-497.610	-106.519	-0.145	-0.032
-496.595	800.000	0.098	-0.357
-495.581	127.115	-0.193	-0.243
-494.566	-73.175	-0.109	0.040
-493.551	61.084	0.187	-0.184
-492.537	30.883	0.192	0.164
-491.522	-129.414	-0.334	-0.046
-490.508	-10.746	0.202	-0.132
-489.493	-127.538	0.355	-0.051
-488.478	-114.143	-0.054	0.010
-487.464	-200.000	-0.003	0.099
-486.449	363.149	0.033	-0.065
-485.435	188.311	0.048	-0.071
-484.420	-200.000	-0.015	0.299
-483.405	-83.467	-0.374	-0.119
-482.391	-200.000	-0.019	-0.101
-481.376	-200.000	-0.039	-0.185
-480.362	-92.806	0.124	0.034
-479.347	122.916	-0.085	0.106
-478.332	800.000	0.110	0.336
-477.318	37.432	0.194	-0.171
-476.303	-25.201	0.263	-0.155
-475.289	-137.776	-0.329	0.037
-474.274	-120.512	0.106	0.018
-473.259	114.121	0.162	-0.196
-472.245	-88.362	-0.304	-0.090
-471.230	-86.108	0.285	0.087
-470.216	800.000	-0.017	-0.064
-469.201	800.000	0.084	-0.318
-468.186	-124.872	-0.492	-0.075
-467.172	284.135	-0.146	0.261
-466.157	-48.883	0.147	0.070
-465.143	-76.088	0.224	0.079
-464.128	-200.000	0.056	0.340
-463.113	-154.653	0.269	0.018
-462.099	-112.181	-0.265	0.053
-461.084	55.733	-0.402	-0.387
-460.070	111.322	0.257	0.308
-459.055	-137.895	0.263	0.029
-458.040	-15.441	-0.207	-0.132
-457.026	166.107	0.171	0.241
-456.011	146.353	-0.152	-0.202
-454.997	38.301	0.089	0.079
-453.982	1.210	0.172	-0.122
-452.968	-51.433	0.059	0.028
-451.953	-137.822	0.128	0.014
-450.938	192.078	-0.185	-0.278
-449.924	6.076	0.177	-0.130
-448.909	-95.766	-0.166	0.044
-447.895	-156.322	0.266	-0.017
-446.880	800.000	0.091	-0.256
-445.865	63.808	-0.158	-0.158
-444.851	-122.723	-0.253	-0.041
-443.836	174.572	-0.057	-0.082
-442.822	63.860	0.090	0.090
-441.807	-200.000	-0.009	0.099
-440.792	-134.508	-0.265	0.032
-439.778	-14.544	-0.157	-0.100
-438.763	115.969	-0.073	-0.088
-437.749	-200.000	0.048	0.243
-436.734	-200.000	-0.003	-0.112
-435.719	-151.328	0.159	-0.012
-434.705	-86.944	0.144	-0.044
-433.690	236.143	0.082	0.135
-432.676	272.270	-0.174	-0.304
-431.661	-100.941	-0.093	-0.023
-430.646	-200.000	0.028	0.225
-429.632	-60.416	0.321	0.135
-428.617	73.074	-0.052	-0.054
-427.603	258.151	0.050	0.085
-426.588	-79.730	-0.207	0.069
-425.573	800.000	0.031	0.107
-424.559	-200.000	0.031	0.307
-423.544	800.000	-0.029	0.103
-422.530	-167.242	0.092	0.004
-421.515	124.187	0.222	0.276
-420.500	95.718	0.164	0.186
-419.486	800.000	-0.043	-0.144
-418.471	-13.908	-0.056	0.036
-417.457	-138.261	0.112	0.012
-416.442	-200.000	-0.006	0.206
-415.428	800.000	0.093	0.272
-414.413	-200.000	-0.010	0.396
-413.398	-112.819	0.121	-0.024
-412.384	-200.000	0.056	0.346
-411.369	-134.662	0.194	0.023
-410.355	-97.874	0.295	-0.075
-409.340	366.821	-0.181	-0.361
-408.325	-106.068	-0.128	0.029
-407.311	-81.485	-0.410	0.134
-406.296	-200.000	0.010	-0.273
-405.282	156.723	0.184	-0.251
-404.267	537.248	0.043	-0.100
-403.252	-200.000	0.090	-0.471
-402.238	277.844	-0.128	-0.226
-401.223	-5.638	-0.235	-0.160
-400.209	48.452	0.291	0.270
-399.194	350.465	-0.226	0.443
-398.179	-200.000	0.006	0.070
-397.165	-80.702	-0.229	-0.075
-396.150	-138.640	0.229	-0.025
-395.136	-137.894	-0.179	0.020
-394.121	117.101	0.046	0.056
-393.106	12.228	-0.173	0.132
-392.092	-106.416	0.233	0.051
-391.077	-93.215	0.185	-0.051
-390.063	-92.577	-0.254	0.070
-389.048	-97.470	-0.140	-0.036
-388.033	-66.015	0.201	0.080
-387.019	-200.000	0.015	0.276
-386.004	-86.816	0.074	0.022
-384.990	781.549	-0.070	0.191
-383.975	70.306	-0.187	-0.191
-382.960	-200.000	0.026	-0.166
-381.946	-200.000	-0.044	0.228
-380.931	-116.292	0.278	-0.051
-379.917	719.986	0.035	0.091
-378.902	272.824	-0.120	-0.209
-377.888	246.716	-0.085	0.141
-376.873	800.000	0.048	-0.155
-375.858	-180.008	-0.157	-0.003
-374.844	-169.329	0.231	0.008
-373.829	-109.782	-0.238	0.049
-372.815	100.780	0.159	0.183
-371.800	199.249	0.185	0.280
-370.785	42.864	0.196	0.177
-369.771	-87.977	-0.118	0.035
-368.756	668.351	-0.123	0.315
-367.742	108.330	0.175	0.206
-366.727	-94.453	-0.161	-0.044
-365.712	-106.258	-0.287	-0.064
-364.698	-116.706	-0.407	-0.074
-363.683	-82.875	0.295	0.094
-362.669	-46.578	0.169	0.082
-361.654	16.826	-0.119	0.093
-360.639	800.000	-0.017	-0.056
-359.625	-200.000	-0.018	-0.141
-358.610	466.744	-0.094	0.208
-357.596	-200.000	0.011	0.276
-356.581	32.089	0.181	0.154
-355.566	-200.000	0.016	-0.158
-354.552	18.618	-0.080	0.063
-353.537	237.155	-0.122	-0.200
-352.523	-158.585	-0.364	0.021
-351.508	-153.833	0.121	-0.008
-350.493	-200.000	0.101	0.509
-349.479	-200.000	0.024	0.375
-348.464	308.097	0.024	0.045
-347.450	126.086	0.107	-0.133
-346.435	50.683	-0.295	0.276
-345.420	-155.910	0.220	-0.014
-344.406	-200.000	0.011	-0.275
-343.391	800.000	-0.089	-0.372
-342.377	-200.000	-0.043	0.294
-341.362	-200.000	-0.007	0.169
-340.348	-200.000	-0.015	0.142
-339.333	-122.189	0.247	0.040
-338.318	-21.149	-0.088	0.053
-337.304	-125.816	-0.281	0.042
-336.289	-86.729	-0.260	-0.079
-335.275	-31.547	-0.448	0.249
-334.260	-54.314	-0.217	-0.097
-333.245	-74.135	0.102	-0.036
-332.231	269.787	-0.033	-0.057
-331.216	1.258	0.126	-0.090
-330.202	662.847	0.180	0.458
-329.187	202.469	0.236	-0.360
-328.172	-200.000	0.035	0.228
-327.158	-118.057	0.293	0.052
-326.143	800.000	0.035	-0.116
-325.129	132.026	-0.131	-0.167
-324.114	78.553	0.276	0.291
-323.099	-200.000	-0.033	-0.340
-322.085	-39.746	-0.261	-0.135
-321.070	-77.128	0.447	0.154
-320.056	-58.209	0.170	0.073
-319.041	131.171	0.176	0.224
-318.026	-100.814	-0.144	-0.035
-317.012	-144.998	-0.199	0.018
-315.997	-200.000	-0.027	0.239
-314.983	42.937	-0.107	0.096
-313.968	111.383	-0.165	0.196
-312.953	402.955	-0.037	0.076
-311.939	370.370	0.082	-0.164
-310.924	-105.770	-0.251	0.056
-309.910	36.572	0.081	-0.071
-308.895	-83.890	0.112	0.035
-307.880	-42.866	0.154	0.077
-306.866	800.000	0.026	-0.083
-305.851	559.803	-0.096	-0.228
-304.837	800.000	-0.027	0.084
-303.822	800.000	-0.028	0.116
-302.807	-37.581	-0.094	-0.049
-301.793	-200.000	0.017	0.273
-300.778	261.226	-0.128	-0.218
-299.764	-34.185	0.223	-0.121
-298.749	-85.757	-0.259	0.079
-297.735	139.876	-0.052	0.068
-296.720	-111.621	-0.168	0.034
-295.705	-126.173	-0.122	0.018
-294.691	-66.083	0.408	-0.161
-293.676	77.635	-0.233	0.245
-292.662	93.128	0.128	0.143
-291.647	800.000	0.033	-0.108
-290.632	-200.000	-0.112	-0.526
-289.618	48.155	-0.050	-0.046
-288.603	-58.113	-0.241	-0.104
-287.589	226.061	-0.151	-0.241
-286.574	-42.451	-0.050	-0.025
-285.559	11.529	-0.228	0.172
-284.545	-50.991	0.154	-0.071
-283.530	800.000	0.046	-0.145
-282.516	-7.556	-0.100	-0.067
-281.501	800.000	-0.062	-0.182
-280.486	8.997	-0.225	0.167
-279.472	104.604	-0.221	0.257
-278.457	362.269	0.152	0.301
-277.443	800.000	0.095	0.289
-276.428	-74.983	-0.380	0.134
-275.413	659.560	-0.030	0.076
-274.399	-37.604	-0.015	0.008
-273.384	70.527	0.047	0.048
-272.370	-93.403	0.040	0.011
-271.355	-69.433	-0.065	-0.025
-270.340	800.000	0.030	0.104
-269.326	114.730	0.324	-0.389
-268.311	33.014	0.211	-0.180
-267.297	-60.352	-0.126	-0.053
-266.282	-189.065	-0.141	-0.002
-265.267	-138.131	0.298	-0.033
-264.253	-24.669	0.152	0.089
-263.238	-93.886	0.070	-0.019
-262.224	-200.000	-0.018	-0.189
-261.209	-40.663	-0.043	-0.022
-260.195	-200.000	-0.049	-0.269
-259.180	-92.347	-0.178	-0.049
-258.165	-200.000	0.005	0.199
-257.151	-1.483	0.243	-0.169
-256.136	-6.064	-0.364	-0.245
-255.122	-137.850	-0.099	-0.011
-254.107	111.825	-0.247	0.293
-253.092	-74.707	0.152	0.054
-252.078	-75.009	0.361	0.127
-251.063	740.994	0.098	0.260
-250.049	-40.537	-0.146	-0.075
-249.034	14.027	-0.156	0.119
-248.019	538.094	-0.133	0.312
-247.005	89.923	-0.069	0.076
-245.990	-82.246	0.074	-0.024
-244.976	-109.285	-0.111	0.023
-243.961	-200.000	-0.006	-0.194
-242.946	-56.403	0.211	0.092
-241.932	-86.473	-0.173	-0.052
-240.917	-200.000	-0.046	0.227
-239.903	35.017	0.179	0.155
-238.888	-167.814	-0.108	-0.004
-237.873	18.758	-0.140	-0.110
-236.859	800.000	-0.223	-0.660
-235.844	49.765	-0.208	-0.193
-234.830	613.535	-0.080	-0.197
-233.815	108.902	0.224	-0.264
-232.800	193.398	-0.108	-0.161
-231.786	648.762	-0.095	-0.240
-230.771	800.000	0.109	0.307
-229.757	186.044	-0.054	0.079
-228.742	-200.000	0.015	-0.167
-227.727	316.115	-0.032	0.060
-226.713	293.082	0.009	0.016
-225.698	800.000	0.099	0.349
-224.684	800.000	0.052	-0.171
-223.669	-200.000	0.048	-0.390
-222.655	573.809	-0.059	-0.140
-221.640	-67.807	0.439	0.169
-220.625	0.438	0.103	-0.072
-219.611	-88.884	0.229	0.067
-218.596	-75.022	-0.207	-0.073
-217.582	-54.313	-0.391	0.175
-216.567	-23.869	-0.217	-0.128
-215.552	13.912	0.253	-0.194
-214.538	-97.404	0.287	-0.073
-213.523	334.611	-0.039	0.074
-212.509	-200.000	-0.033	-0.181
-211.494	-15.480	-0.086	0.054
-210.479	528.779	0.061	0.140
-209.465	-136.487	-0.073	-0.008
-208.450	40.339	0.351	0.311
-207.436	517.697	0.088	0.202
-206.421	800.000	0.020	-0.069
-205.406	800.000	0.010	-0.032
-204.392	-200.000	0.031	-0.145
-203.377	-64.753	0.356	0.142
-202.363	800.000	-0.022	-0.059
-201.348	224.926	0.100	0.160
-200.333	-128.899	0.222	0.031
-199.319	-53.731	-0.357	-0.160
-198.304	-16.486	-0.041	-0.025
-197.290	-108.933	0.157	-0.033
-196.275	79.332	0.108	-0.113
-195.260	-33.957	0.213	-0.115
-194.246	785.113	-0.166	-0.448
-193.231	-95.861	-0.199	0.052
-192.217	-200.000	-0.081	-0.000
-191.202	113.143	0.097	-0.116
-190.187	-200.000	0.066	-0.500
-189.173	696.240	0.078	0.201
-188.158	150.070	-0.060	0.080
-187.144	-63.759	-0.440	-0.177
-186.129	-200.000	0.018	0.536
-185.114	56.969	0.399	0.382
-184.100	124.509	0.060	0.074
-183.085	-200.000	-0.004	0.076
-182.071	127.098	0.229	0.285
-181.056	20.454	0.093	-0.074
-180.042	265.199	-0.114	-0.195
-179.027	-93.068	-0.142	-0.039
-178.012	430.250	-0.027	-0.057
-176.998	-200.000	0.023	0.325
-175.983	-125.921	-0.164	-0.024
-174.969	25.631	0.199	-0.162
-173.954	-74.924	-0.498	0.175
-172.939	800.000	0.045	0.155
-171.925	254.824	0.118	-0.199
-170.910	-35.966	0.391	-0.208
-169.896	765.993	-0.013	-0.035
-168.881	-200.000	-0.022	0.132
-167.866	800.000	0.141	-0.413
-166.852	-116.989	-0.355	-0.064
-165.837	33.578	0.182	0.155
-164.823	-91.056	0.206	0.058
-163.808	-93.453	0.327	-0.089
-162.793	476.570	0.099	-0.220
-161.779	43.731	-0.105	-0.094
-160.764	-17.408	-0.303	0.187
-159.750	48.499	-0.110	0.101
-158.735	-84.395	0.353	-0.110
-157.720	-135.932	0.342	-0.040
-156.706	-200.000	-0.028	0.259
-155.691	-15.244	-0.307	0.193
-154.677	-35.479	0.061	-0.032
-153.662	-200.000	-0.000	0.009
-152.647	210.577	-0.102	0.157
-151.633	619.851	0.083	-0.204
-150.618	563.857	0.093	0.221
-149.604	90.571	0.161	-0.177
-148.589	574.850	0.054	0.129
-147.574	67.003	0.232	-0.232
-146.560	-71.642	0.226	-0.083
-145.545	19.348	-0.225	0.177
-144.531	-160.691	0.291	-0.015
-143.516	-112.686	0.251	-0.049
-142.502	-47.072	0.128	-0.061
-141.487	509.379	-0.120	0.274
-140.472	-36.282	0.085	0.045
-139.458	-132.523	-0.178	-0.022
-138.443	-200.000	0.005	-0.221
-137.429	14.083	-0.067	0.051
-136.414	800.000	0.130	0.411
-135.399	-36.565	-0.162	0.086
-134.385	-31.141	-0.393	0.217
-133.370	-53.158	0.265	-0.119
-132.356	2.797	0.276	-0.196
-131.341	-45.417	-0.208	0.101
-130.326	69.744	0.308	0.311
-129.312	-54.048	-0.193	0.086
-128.297	-200.000	0.041	0.284
-127.283	-117.560	0.139	-0.025
-126.268	800.000	0.046	-0.132
-125.253	-200.000	-0.012	0.146
-124.239	134.000	0.100	0.127
-123.224	-102.252	-0.210	0.050
-122.210	-106.539	0.296	0.065
