DTS Sentinel unit serial number:	SN413079Multiplexer serial number:	ORYXHardware model number:	OX4-SRSoftware version number:	ORYX F/W v4.00 Oryx Data Collector v3.7.2.0data status	okinstallation	princeton_trtdifferential loss correction	single-endedforward channel	channel 2reverse channel	N/Adate	2019/09/12time	13:01:11forward acquisition time	60.00reverse acquisition time	0.00gamma	496.2192k internal	0.2297k external	0.2297temperature offset calibration	1.0079default loss term (dB/km)	0.3790temperature slope calibration	1.0000multiplexer offset coefficient	1.0000multiplexer slope coefficient	1.0000fibre end	0.00T internal ref (°C)	40.92T ext. ref 1 (°C)	2.09T ext. ref 2 (°C)	37.63length (m)	temperature (°C)	Stokes	anti-Stokes-747.200	82.929	0.141	-0.157
-746.185	84.980	0.148	-0.165
-745.171	63.618	-0.265	-0.272
-744.156	-200.000	0.021	0.236
-743.142	-40.431	-0.035	-0.019
-742.127	800.000	0.056	0.243
-741.112	47.378	-0.329	-0.313
-740.098	557.926	0.112	0.275
-739.083	-117.600	-0.497	0.092
-738.069	-123.274	-0.113	0.018
-737.054	-58.989	0.055	0.024
-736.039	-29.942	0.185	0.108
-735.025	-82.957	0.345	-0.114
-734.010	800.000	0.078	-0.280
-732.996	-69.830	0.154	0.060
-731.981	-62.597	-0.251	0.107
-730.966	-8.302	-0.263	-0.181
-729.952	100.260	-0.220	-0.260
-728.937	-67.357	0.079	-0.032
-727.923	312.677	-0.064	0.122
-726.908	-97.795	0.081	-0.021
-725.894	-50.845	0.218	0.104
-724.879	800.000	0.131	-0.542
-723.864	-200.000	-0.000	0.152
-722.850	398.963	-0.043	0.091
-721.835	13.228	0.323	-0.255
-720.821	0.786	-0.158	-0.116
-719.806	-200.000	-0.072	-0.395
-718.791	-113.647	-0.318	0.063
-717.777	800.000	-0.062	-0.267
-716.762	709.630	0.042	-0.112
-715.748	8.195	-0.110	0.084
-714.733	-200.000	0.018	-0.209
-713.718	-52.386	-0.342	-0.162
-712.704	-88.968	0.121	-0.036
-711.689	-114.191	-0.317	0.062
-710.675	-14.642	0.063	0.041
-709.660	800.000	-0.012	0.039
-708.645	-138.962	-0.079	-0.009
-707.631	181.251	0.141	0.211
-706.616	-21.574	-0.269	0.167
-705.602	127.944	-0.199	-0.258
-704.587	800.000	-0.112	-0.410
-703.572	93.403	-0.085	0.099
-702.558	800.000	0.074	-0.265
-701.543	360.061	0.128	-0.262
-700.529	344.528	-0.065	0.130
-699.514	800.000	0.024	0.103
-698.499	613.879	-0.128	-0.328
-697.485	-24.023	-0.077	-0.047
-696.470	800.000	0.028	-0.119
-695.456	800.000	-0.026	-0.093
-694.441	800.000	-0.033	0.136
-693.426	-200.000	0.007	0.058
-692.412	-200.000	-0.000	-0.231
-691.397	449.496	0.017	0.038
-690.383	-111.889	-0.321	-0.066
-689.368	319.218	-0.203	-0.392
-688.354	181.526	0.108	-0.162
-687.339	255.211	-0.088	-0.154
-686.324	-200.000	-0.003	-0.425
-685.310	-3.139	-0.170	-0.121
-684.295	-2.967	-0.153	0.109
-683.281	-52.310	0.048	0.023
-682.266	-200.000	0.011	0.496
-681.251	-77.067	-0.127	0.045
-680.237	19.832	0.079	-0.065
-679.222	-53.196	-0.122	0.057
-678.208	44.979	0.111	-0.105
-677.193	800.000	-0.061	0.259
-676.178	35.473	-0.075	0.067
-675.164	800.000	-0.091	-0.310
-674.149	233.674	0.092	-0.155
-673.135	-38.077	0.320	-0.173
-672.120	-200.000	0.037	-0.206
-671.105	-14.509	0.466	-0.305
-670.091	800.000	0.038	0.166
-669.076	-200.000	-0.026	0.229
-668.062	50.872	0.344	-0.332
-667.047	-28.919	-0.101	-0.059
-666.032	-26.959	-0.193	-0.115
-665.018	169.629	-0.222	-0.323
-664.003	-200.000	0.045	-0.215
-662.989	-200.000	0.029	-0.290
-661.974	262.699	0.143	-0.253
-660.959	-75.660	-0.383	-0.139
-659.945	800.000	-0.024	-0.069
-658.930	266.417	-0.041	-0.073
-657.916	-200.000	-0.041	-0.221
-656.901	-46.208	0.261	-0.131
-655.886	232.296	-0.126	-0.211
-654.872	521.482	-0.144	-0.345
-653.857	-27.168	-0.230	-0.137
-652.843	166.905	0.072	-0.104
-651.828	-39.743	0.133	0.071
-650.814	47.752	-0.214	-0.203
-649.799	357.940	0.012	-0.025
-648.784	800.000	-0.048	-0.172
-647.770	-57.404	-0.288	-0.129
-646.755	471.432	0.078	0.180
-645.741	-200.000	-0.022	0.163
-644.726	792.719	-0.088	0.247
-643.711	-47.511	0.336	0.166
-642.697	-76.151	-0.286	0.103
-641.682	-105.456	0.226	-0.052
-640.668	-200.000	-0.001	-0.124
-639.653	-200.000	0.031	-0.216
-638.638	195.754	0.135	-0.209
-637.624	52.017	0.107	-0.104
-636.609	-84.700	-0.113	-0.036
-635.595	-200.000	-0.013	0.138
-634.580	23.453	0.145	-0.121
-633.565	-168.831	-0.041	-0.002
-632.551	20.972	0.150	-0.124
-631.536	-167.935	0.053	0.002
-630.522	-11.272	0.405	-0.271
-629.507	-90.049	0.189	-0.056
-628.492	-56.440	-0.209	0.094
-627.478	-68.166	-0.081	0.032
-626.463	164.335	-0.053	0.076
-625.449	-33.525	0.131	0.073
-624.434	579.725	0.146	-0.362
-623.419	-141.855	-0.042	-0.004
-622.405	-200.000	-0.018	0.255
-621.390	800.000	0.094	-0.283
-620.376	-149.129	-0.479	-0.039
-619.361	-121.788	0.100	0.017
-618.346	-200.000	-0.002	-0.109
-617.332	-65.709	0.179	0.073
-616.317	-151.206	-0.341	-0.026
-615.303	800.000	0.115	-0.324
-614.288	127.403	0.229	0.295
-613.273	180.014	-0.154	-0.230
-612.259	-72.836	-0.241	0.090
-611.244	-48.044	0.172	0.084
-610.230	-200.000	0.023	-0.154
-609.215	-79.891	-0.145	-0.050
-608.201	-156.586	-0.165	-0.010
-607.186	-177.604	0.418	-0.010
-606.171	-200.000	-0.025	0.176
-605.157	800.000	0.061	-0.211
-604.142	-3.568	0.135	-0.095
-603.128	-31.702	-0.195	0.111
-602.113	-130.670	-0.353	0.048
-601.098	235.084	-0.062	-0.103
-600.084	-4.585	-0.183	-0.129
-599.069	-90.258	0.102	-0.030
-598.055	-146.262	-0.343	-0.031
-597.040	-200.000	0.016	0.091
-596.025	-28.820	0.118	0.069
-595.011	282.397	0.028	-0.051
-593.996	24.476	0.046	0.039
-592.982	140.005	-0.065	0.088
-591.967	-16.923	-0.365	0.234
-590.952	359.713	-0.045	0.091
-589.938	-86.555	0.128	-0.040
-588.923	-200.000	0.056	-0.256
-587.909	188.992	-0.112	0.170
-586.894	139.171	0.024	-0.032
-585.879	-200.000	0.027	-0.143
-584.865	-40.513	-0.343	0.181
-583.850	-40.853	-0.052	0.027
-582.836	-200.000	0.002	0.187
-581.821	-84.174	-0.425	0.137
-580.806	168.259	0.158	0.229
-579.792	800.000	0.066	-0.209
-578.777	800.000	0.147	-0.449
-577.763	28.374	-0.070	0.060
-576.748	-200.000	-0.032	0.143
-575.733	-200.000	0.052	0.244
-574.719	-126.194	0.291	0.044
-573.704	65.178	0.082	-0.084
-572.690	737.536	0.074	0.202
-571.675	93.670	-0.267	-0.307
-570.661	800.000	0.073	-0.272
-569.646	101.855	0.030	0.035
-568.631	800.000	0.065	-0.220
-567.617	-200.000	-0.025	-0.142
-566.602	197.451	0.137	-0.211
-565.588	679.065	-0.078	-0.206
-564.573	-85.333	0.288	0.091
-563.558	-18.089	0.037	-0.023
-562.544	800.000	0.015	-0.054
-561.529	-28.726	-0.222	-0.130
-560.515	167.030	0.031	0.045
-559.500	56.785	-0.050	0.049
-558.485	800.000	-0.057	0.246
-557.471	-169.543	0.141	-0.005
-556.456	315.481	0.094	0.180
-555.442	-82.064	-0.170	-0.056
-554.427	324.707	-0.187	-0.363
-553.412	-106.694	0.165	-0.037
-552.398	-59.747	-0.160	-0.069
-551.383	-87.793	0.384	-0.117
-550.369	-200.000	0.092	0.483
-549.354	800.000	-0.015	0.044
-548.339	92.430	-0.157	-0.180
-547.325	-84.258	0.214	0.069
-546.310	206.698	0.172	0.272
-545.296	-75.627	0.337	-0.121
-544.281	-175.108	-0.118	0.003
-543.266	800.000	0.081	-0.342
-542.252	179.224	0.179	-0.265
-541.237	-130.695	0.004	0.001
-540.223	-98.317	0.181	0.047
-539.208	-139.154	-0.163	0.018
-538.193	105.664	0.010	0.012
-537.179	-133.899	0.060	-0.008
-536.164	-200.000	-0.013	-0.195
-535.150	-82.342	-0.043	0.014
-534.135	110.757	0.065	-0.079
-533.121	-87.046	0.197	-0.061
-532.106	-200.000	0.015	0.286
-531.091	304.426	-0.074	-0.140
-530.077	-37.193	-0.231	-0.125
-529.062	148.984	-0.194	0.265
-528.048	0.333	-0.104	-0.075
-527.033	-128.833	-0.108	-0.015
-526.018	192.243	0.142	-0.216
-525.004	67.996	-0.127	-0.131
-523.989	-49.885	-0.022	-0.010
-522.975	111.603	0.145	-0.177
-521.960	800.000	0.161	0.461
-520.945	151.950	0.174	-0.240
-519.931	77.686	0.042	0.045
-518.916	-200.000	-0.021	-0.241
-517.902	-110.748	0.214	-0.045
-516.887	-200.000	0.002	-0.030
-515.872	-141.753	-0.390	-0.040
-514.858	-64.162	-0.139	-0.057
-513.843	800.000	0.019	0.069
-512.829	342.181	0.148	0.294
-511.814	-200.000	-0.060	0.420
-510.799	-200.000	0.009	-0.151
-509.785	-192.722	-0.261	0.002
-508.770	106.056	-0.181	-0.217
-507.756	194.589	0.079	-0.121
-506.741	-32.377	-0.328	0.185
-505.726	141.913	0.144	-0.193
-504.712	800.000	-0.118	0.442
-503.697	466.037	-0.060	0.136
-502.683	183.854	-0.037	0.056
-501.668	21.017	0.105	-0.086
-500.653	-74.197	0.327	-0.120
-499.639	102.983	-0.094	-0.112
-498.624	-112.253	0.127	-0.026
-497.610	102.924	-0.242	-0.287
-496.595	-104.048	0.270	-0.064
-495.581	-164.255	-0.216	-0.010
-494.566	-55.074	-0.225	0.103
-493.551	38.208	-0.305	-0.274
-492.537	130.034	-0.112	-0.145
-491.522	-136.079	0.122	0.014
-490.508	-200.000	-0.003	0.019
-489.493	135.123	0.109	-0.144
-488.478	-93.166	0.145	-0.041
-487.464	-40.933	-0.202	-0.105
-486.449	185.026	0.159	0.238
-485.435	800.000	0.092	0.298
-484.420	-25.262	-0.244	-0.146
-483.405	800.000	-0.127	-0.468
-482.391	-60.829	0.076	-0.033
-481.376	-161.440	-0.065	-0.003
-480.362	78.813	0.227	0.246
-479.347	293.903	0.047	-0.086
-478.332	584.464	-0.121	0.299
-477.318	-156.785	-0.340	-0.021
-476.303	-86.085	-0.557	0.174
-475.289	800.000	-0.104	-0.303
-474.274	-3.272	-0.119	0.084
-473.259	218.362	0.216	-0.348
-472.245	800.000	-0.136	0.467
-471.230	321.583	-0.043	-0.082
-470.216	800.000	0.082	-0.246
-469.201	-200.000	-0.017	0.265
-468.186	-68.505	-0.185	-0.073
-467.172	86.103	0.274	0.304
-466.157	-176.342	0.141	-0.004
-465.143	603.181	0.127	0.320
-464.128	-154.138	-0.462	-0.032
-463.113	128.239	0.139	0.178
-462.099	-95.817	0.256	0.069
-461.084	-200.000	-0.026	-0.163
-460.070	-200.000	-0.027	-0.154
-459.055	270.473	0.207	-0.368
-458.040	-79.624	0.280	0.095
-457.026	39.148	-0.036	0.033
-456.011	-68.915	-0.040	-0.016
-454.997	-0.585	-0.018	-0.013
-453.982	87.834	0.186	-0.208
-452.968	-200.000	0.028	0.212
-451.953	-6.646	0.210	-0.145
-450.938	-150.951	-0.210	-0.016
-449.924	355.849	-0.185	-0.373
-448.909	401.517	0.070	-0.148
-447.895	-200.000	0.005	0.046
-446.880	800.000	0.072	0.315
-445.865	192.965	0.169	-0.259
-444.851	-74.174	-0.218	-0.080
-443.836	-200.000	-0.103	-0.461
-442.822	328.575	-0.043	0.083
-441.807	-3.463	0.088	-0.062
-440.792	495.092	-0.032	-0.074
-439.778	260.965	0.131	-0.229
-438.763	470.217	0.032	0.072
-437.749	-200.000	0.039	0.401
-436.734	800.000	0.075	-0.223
-435.719	126.087	0.137	-0.175
-434.705	-32.331	0.164	0.092
-433.690	-200.000	0.010	-0.079
-432.676	-200.000	-0.054	0.468
-431.661	-20.904	0.132	-0.082
-430.646	573.259	-0.092	-0.225
-429.632	253.478	-0.123	0.212
-428.617	153.681	-0.086	-0.119
-427.603	-55.313	0.223	0.101
-426.588	311.825	-0.017	-0.032
-425.573	-154.286	-0.022	0.001
-424.559	-60.201	-0.563	-0.242
-423.544	60.047	0.138	0.138
-422.530	53.292	0.086	-0.083
-421.515	91.982	-0.008	-0.009
-420.500	-200.000	0.006	-0.078
-419.486	-200.000	0.011	-0.185
-418.471	-11.427	-0.258	-0.171
-417.457	-14.895	-0.096	0.062
-416.442	111.031	-0.183	-0.223
-415.428	-143.729	-0.228	0.022
-414.413	0.459	-0.207	0.149
-413.398	-141.467	0.253	0.026
-412.384	46.638	-0.156	-0.146
-411.369	75.677	0.278	0.296
-410.355	78.613	0.172	0.186
-409.340	800.000	0.038	0.120
-408.325	16.607	-0.022	0.017
-407.311	193.778	0.141	-0.214
-406.296	155.172	0.056	-0.077
-405.282	236.344	0.088	-0.146
-404.267	-93.933	0.420	0.116
-403.252	-92.316	0.165	0.047
-402.238	-26.262	0.103	0.061
-401.223	50.581	0.303	-0.289
-400.209	194.533	-0.104	0.159
-399.194	183.372	-0.106	0.158
-398.179	800.000	0.101	-0.311
-397.165	110.505	0.035	-0.042
-396.150	0.591	-0.148	-0.107
-395.136	-120.710	-0.308	-0.052
-394.121	-119.678	-0.244	-0.043
-393.106	-53.845	0.208	-0.096
-392.092	-200.000	-0.009	0.095
-391.077	195.012	-0.187	0.287
-390.063	-29.567	-0.129	0.074
-389.048	281.796	-0.079	0.142
-388.033	18.505	-0.215	0.173
-387.019	-23.902	0.181	0.109
-386.004	323.615	0.069	-0.132
-384.990	-52.433	-0.014	0.006
-383.975	-89.355	0.151	-0.045
-382.960	-40.245	0.065	-0.034
-381.946	-103.004	0.033	0.008
-380.931	-200.000	0.012	0.076
-379.917	-61.117	-0.398	0.169
-378.902	138.773	0.087	0.116
-377.888	11.723	-0.183	0.142
-376.873	-114.178	-0.470	0.091
-375.858	185.218	-0.059	-0.088
-374.844	149.740	0.131	-0.179
-373.829	104.043	-0.153	-0.181
-372.815	247.527	0.108	-0.184
-371.800	216.586	0.179	0.287
-370.785	-76.888	-0.148	0.052
-369.771	-65.418	-0.157	0.064
-368.756	-38.596	0.346	0.184
-367.742	-107.772	0.101	-0.022
-366.727	-186.495	-0.350	0.005
-365.712	800.000	-0.145	0.507
-364.698	347.873	-0.137	0.271
-363.683	-10.088	-0.127	0.085
-362.669	-191.677	0.566	-0.006
-361.654	800.000	-0.072	-0.257
-360.639	-195.970	0.291	0.002
-359.625	22.795	0.202	-0.167
-358.610	-22.818	0.189	-0.115
-357.596	198.750	0.075	0.115
-356.581	-79.884	0.242	0.082
-355.566	800.000	0.111	-0.429
-354.552	-200.000	-0.018	0.187
-353.537	-53.681	-0.233	0.107
-352.523	-200.000	0.005	-0.048
-351.508	-7.436	0.079	-0.054
-350.493	-54.038	0.149	-0.068
-349.479	-46.369	-0.058	-0.029
-348.464	-168.475	0.370	-0.014
-347.450	-200.000	0.020	-0.090
-346.435	11.290	0.262	-0.202
-345.420	767.043	0.099	-0.270
-344.406	-113.522	-0.199	0.039
-343.391	-71.652	-0.364	-0.137
-342.377	-200.000	-0.004	0.235
-341.362	379.856	-0.097	-0.201
-340.348	800.000	-0.076	-0.219
-339.333	800.000	0.015	-0.060
-338.318	-160.067	0.230	0.013
-337.304	453.188	-0.033	0.073
-336.289	-200.000	-0.011	0.103
-335.275	-6.862	-0.039	0.026
-334.260	81.675	0.102	-0.111
-333.245	289.212	0.115	-0.209
-332.231	-0.176	-0.071	0.051
-331.216	-136.635	-0.256	-0.030
-330.202	274.620	0.273	-0.486
-329.187	-56.335	0.134	-0.060
-328.172	117.070	-0.140	0.172
-327.158	-200.000	-0.025	0.140
-326.143	-200.000	0.019	-0.134
-325.129	-22.777	0.103	0.063
-324.114	-111.473	-0.180	0.037
-323.099	88.702	-0.103	0.115
-322.085	-123.761	0.278	-0.044
-321.070	800.000	-0.079	0.269
-320.056	-137.045	-0.163	0.019
-319.041	-121.516	0.211	0.035
-318.026	-32.480	-0.200	-0.112
-317.012	117.422	0.129	-0.159
-315.997	17.684	-0.171	-0.136
-314.983	-131.766	0.380	-0.050
-313.968	800.000	0.122	0.352
-312.953	800.000	0.083	-0.278
-311.939	-141.211	0.036	-0.004
-310.924	451.806	0.081	0.180
-309.910	129.586	-0.251	-0.322
-308.895	152.459	0.154	-0.211
-307.880	76.288	-0.243	0.258
-306.866	-200.000	0.007	0.111
-305.851	90.992	0.205	0.231
-304.837	-22.343	-0.390	0.237
-303.822	-63.270	0.085	0.035
-302.807	8.429	-0.137	-0.103
-301.793	-92.082	0.130	0.037
-300.778	115.563	0.246	0.302
-299.764	-86.299	-0.396	-0.122
-298.749	-132.686	-0.186	0.024
-297.735	-53.311	0.382	-0.176
-296.720	73.948	0.097	-0.102
-295.705	800.000	0.024	0.084
-294.691	-36.583	-0.104	0.056
-293.676	-6.411	0.193	0.132
-292.662	51.993	0.317	-0.303
-291.647	668.856	0.103	-0.267
-290.632	-200.000	0.006	-0.161
-289.618	497.341	0.011	0.025
-288.603	66.573	0.077	-0.079
-287.589	-200.000	-0.003	-0.310
-286.574	800.000	-0.058	0.233
-285.559	49.851	0.132	0.124
-284.545	-103.888	0.291	0.068
-283.530	-200.000	-0.030	0.340
-282.516	-200.000	-0.097	0.446
-281.501	39.109	0.239	0.215
-280.486	800.000	-0.032	-0.095
-279.472	207.600	-0.081	0.126
-278.457	-200.000	-0.037	0.453
-277.443	87.992	0.070	0.078
-276.428	17.065	0.139	0.110
-275.413	-181.674	-0.222	0.004
-274.399	655.086	-0.079	0.204
-273.384	14.057	-0.080	0.062
-272.370	-55.908	0.248	0.111
-271.355	246.783	0.038	0.065
-270.340	73.568	-0.057	0.060
-269.326	-100.761	0.248	0.061
-268.311	15.094	-0.085	-0.066
-267.297	-44.287	0.090	0.045
-266.282	800.000	0.047	-0.171
-265.267	-63.725	0.259	-0.106
-264.253	199.145	0.118	0.182
-263.238	151.611	-0.218	0.298
-262.224	-79.828	0.051	-0.017
-261.209	800.000	-0.069	0.211
-260.195	81.173	0.215	0.232
-259.180	-115.141	-0.322	0.061
-258.165	28.194	-0.255	-0.216
-257.151	-18.606	0.038	-0.023
-256.136	180.166	0.118	0.173
-255.122	7.978	-0.312	0.234
-254.107	-89.241	0.282	-0.083
-253.092	107.849	-0.190	-0.227
-252.078	32.283	-0.288	0.249
-251.063	5.798	0.199	-0.147
-250.049	800.000	-0.092	-0.255
-249.034	195.451	0.028	-0.043
-248.019	-53.097	-0.125	-0.057
-247.005	58.662	0.127	-0.125
-245.990	36.833	-0.254	-0.225
-244.976	82.545	-0.174	0.189
-243.961	-200.000	0.025	-0.242
-242.946	-39.548	-0.118	-0.062
-241.932	-142.378	-0.013	-0.001
-240.917	-178.140	-0.263	0.006
-239.903	-150.802	-0.098	0.007
-238.888	-121.036	0.305	-0.051
-237.873	598.351	-0.015	-0.037
-236.859	-200.000	-0.016	-0.523
-235.844	20.257	-0.168	-0.136
-234.830	409.648	-0.078	0.165
-233.815	151.905	-0.266	0.363
-232.800	386.523	-0.131	-0.271
-231.786	18.782	0.117	-0.094
-230.771	-104.283	-0.137	0.032
-229.757	-200.000	-0.014	0.291
-228.742	137.247	0.072	-0.094
-227.727	-115.741	-0.217	-0.041
-226.713	41.889	-0.169	-0.154
-225.698	80.744	0.119	0.128
-224.684	-20.494	-0.436	0.268
-223.669	-141.226	0.195	-0.020
-222.655	-54.608	0.346	0.157
-221.640	-11.768	-0.349	0.229
-220.625	142.463	0.078	-0.104
-219.611	-1.074	-0.183	0.130
-218.596	-91.506	-0.367	0.105
-217.582	39.395	-0.182	-0.163
-216.567	800.000	-0.090	0.274
-215.552	-104.367	0.171	0.040
-214.538	-40.217	-0.238	0.124
-213.523	-200.000	0.037	0.214
-212.509	800.000	-0.052	0.178
-211.494	29.566	0.161	0.137
-210.479	-67.023	0.152	0.060
-209.465	-200.000	0.017	0.198
-208.450	800.000	0.022	0.098
-207.436	-120.903	0.144	0.024
-206.421	-200.000	0.015	-0.282
-205.406	761.166	0.040	0.107
-204.392	-25.387	-0.282	0.167
-203.377	800.000	0.032	-0.120
-202.363	-65.559	0.130	0.052
-201.348	-117.386	0.075	-0.014
-200.333	-197.394	0.357	-0.002
-199.319	-112.096	0.273	0.055
-198.304	-11.838	0.282	0.185
-197.290	-13.263	0.175	0.114
-196.275	-63.041	0.248	0.102
-195.260	262.107	0.130	0.226
-194.246	798.515	-0.084	-0.233
-193.231	-200.000	-0.054	-0.264
-192.217	15.282	0.207	0.163
-191.202	-75.014	-0.010	-0.004
-190.187	240.694	-0.007	0.012
-189.173	154.349	0.161	0.221
-188.158	800.000	-0.085	0.296
-187.144	55.280	0.215	-0.207
-186.129	-161.859	-0.369	0.019
-185.114	-66.903	-0.119	-0.047
-184.100	-55.371	0.206	0.092
-183.085	-200.000	-0.011	-0.083
-182.071	-103.775	-0.095	0.022
-181.056	-32.345	0.155	0.087
-180.042	-134.875	0.154	0.019
-179.027	800.000	-0.009	-0.033
-178.012	2.015	0.065	-0.047
-176.998	174.168	0.167	-0.241
-175.983	-200.000	0.002	-0.124
-174.969	-200.000	0.028	0.252
-173.954	-200.000	0.020	-0.178
-172.939	15.261	-0.239	-0.187
-171.925	-162.621	-0.444	-0.022
-170.910	-200.000	-0.038	0.317
-169.896	-200.000	-0.013	0.173
-168.881	-200.000	0.001	0.120
-167.866	-50.626	-0.270	-0.127
-166.852	-200.000	-0.006	-0.407
-165.837	-200.000	0.026	-0.221
-164.823	800.000	-0.066	0.261
-163.808	-74.253	-0.246	0.089
-162.793	146.848	0.207	0.278
-161.779	-3.568	0.142	-0.099
-160.764	-200.000	-0.027	0.212
-159.750	-200.000	0.068	0.342
-158.735	-200.000	-0.026	0.169
-157.720	-88.294	-0.083	-0.025
-156.706	485.218	0.056	-0.127
-155.691	-93.340	0.376	0.104
-154.677	-74.775	-0.295	-0.106
-153.662	-189.758	-0.157	-0.002
-152.647	-13.153	-0.207	-0.134
-151.633	36.785	0.070	-0.062
-150.618	-61.945	-0.288	0.120
-149.604	-67.548	0.358	0.140
-148.589	180.954	-0.042	0.062
-147.574	-20.938	0.097	0.059
-146.560	-76.797	0.220	-0.077
-145.545	-102.224	0.243	-0.058
-144.531	-107.571	-0.260	0.057
-143.516	-136.163	0.173	-0.020
-142.502	-200.000	0.054	-0.260
-141.487	78.922	-0.140	0.149
-140.472	-3.757	-0.053	0.037
-139.458	-66.917	0.199	-0.078
-138.443	-108.069	-0.143	0.031
-137.429	-200.000	0.008	-0.346
-136.414	-51.876	-0.309	-0.143
-135.399	-94.369	-0.244	0.066
-134.385	-200.000	-0.007	-0.609
-133.370	141.144	-0.110	-0.145
-132.356	742.392	-0.068	0.181
-131.341	800.000	0.097	-0.290
-130.326	-153.330	-0.448	-0.031
-129.312	-162.082	-0.290	-0.015
-128.297	37.172	0.329	0.291
-127.283	-20.631	0.151	-0.093
-126.268	99.862	0.377	-0.435
-125.253	-86.091	-0.132	-0.041
-124.239	257.141	-0.210	-0.359
-123.224	-200.000	0.021	0.178
-122.210	334.586	-0.056	-0.108
