DTS Sentinel unit serial number:	SN413079Multiplexer serial number:	ORYXHardware model number:	OX4-SRSoftware version number:	ORYX F/W v4.00 Oryx Data Collector v3.7.2.0data status	okinstallation	princeton_trtdifferential loss correction	single-endedforward channel	channel 2reverse channel	N/Adate	2019/09/19time	08:59:35forward acquisition time	60.00reverse acquisition time	0.00gamma	496.2192k internal	0.2352k external	0.2352temperature offset calibration	1.0002default loss term (dB/km)	0.3790temperature slope calibration	1.0000multiplexer offset coefficient	1.0000multiplexer slope coefficient	1.0000fibre end	0.00T internal ref (°C)	21.44T ext. ref 1 (°C)	0.60T ext. ref 2 (°C)	17.78length (m)	temperature (°C)	Stokes	anti-Stokes-747.200	-162.987	0.330	0.016
-746.185	-149.482	-0.188	0.015
-745.171	791.707	-0.087	0.237
-744.156	-200.000	-0.041	0.313
-743.142	-113.408	-0.180	0.035
-742.127	-31.591	0.160	-0.090
-741.112	11.567	-0.076	0.058
-740.098	-114.619	-0.274	-0.052
-739.083	-200.000	0.014	0.106
-738.069	-94.095	-0.281	0.077
-737.054	85.702	-0.170	-0.186
-736.039	410.618	-0.122	0.257
-735.025	1.435	0.340	0.244
-734.010	-94.213	-0.026	-0.007
-732.996	-200.000	0.004	0.415
-731.981	-61.654	0.348	0.145
-730.966	-200.000	-0.032	-0.436
-729.952	184.600	0.045	0.067
-728.937	-18.623	-0.225	0.140
-727.923	246.816	-0.030	0.051
-726.908	-200.000	-0.053	-0.318
-725.894	76.775	-0.222	0.234
-724.879	69.340	-0.143	0.147
-723.864	323.516	0.128	0.243
-722.850	23.332	-0.306	-0.251
-721.835	-44.396	-0.061	0.030
-720.821	242.234	-0.027	-0.046
-719.806	-27.284	-0.132	0.076
-718.791	639.000	-0.111	-0.281
-717.777	117.539	-0.131	0.161
-716.762	390.273	0.106	-0.219
-715.748	-139.247	-0.384	0.041
-714.733	800.000	-0.155	0.478
-713.718	800.000	0.065	-0.227
-712.704	43.899	-0.084	-0.076
-711.689	-200.000	0.011	0.069
-710.675	-48.676	-0.200	0.096
-709.660	-200.000	0.011	0.085
-708.645	-200.000	-0.010	-0.138
-707.631	-154.921	0.052	-0.003
-706.616	-145.963	-0.045	-0.004
-705.602	9.639	-0.167	0.126
-704.587	-89.240	-0.141	0.041
-703.572	8.350	-0.065	-0.048
-702.558	800.000	-0.072	-0.274
-701.543	-74.814	-0.372	0.133
-700.529	380.281	-0.085	0.173
-699.514	588.597	0.074	0.182
-698.499	-65.700	-0.203	0.081
-697.485	-200.000	-0.006	0.285
-696.470	196.873	0.028	0.042
-695.456	445.689	-0.149	0.326
-694.441	167.562	0.132	-0.186
-693.426	381.645	-0.083	0.170
-692.412	-179.774	-0.142	-0.003
-691.397	-60.199	0.107	0.045
-690.383	-7.734	-0.284	-0.191
-689.368	29.922	0.196	-0.166
-688.354	372.474	-0.093	0.189
-687.339	91.254	0.212	0.237
-686.324	-10.733	-0.168	-0.110
-685.310	-200.000	-0.032	-0.374
-684.295	-200.000	0.003	0.157
-683.281	-121.510	0.179	-0.030
-682.266	167.900	0.080	-0.113
-681.251	57.726	0.175	-0.171
-680.237	-121.040	0.258	-0.043
-679.222	-77.330	-0.251	0.087
-678.208	800.000	-0.053	-0.165
-677.193	-92.838	-0.069	-0.019
-676.178	-37.916	-0.109	0.058
-675.164	37.390	-0.184	-0.162
-674.149	-55.104	0.182	-0.081
-673.135	125.429	-0.092	-0.115
-672.120	-200.000	0.059	-0.312
-671.105	56.285	0.066	-0.063
-670.091	48.445	-0.211	-0.196
-669.076	-160.652	0.190	-0.010
-668.062	-97.868	0.238	-0.061
-667.047	-200.000	0.049	0.230
-666.032	-128.944	0.051	0.007
-665.018	-44.494	0.142	-0.071
-664.003	-47.666	-0.349	-0.168
-662.989	-200.000	0.051	0.369
-661.974	800.000	0.040	-0.139
-660.959	-150.682	0.166	-0.013
-659.945	291.763	-0.079	0.143
-658.930	-83.422	0.071	-0.023
-657.916	51.766	-0.061	0.058
-656.901	-115.681	-0.143	0.027
-655.886	-114.240	-0.384	-0.074
-654.872	40.247	0.145	0.130
-653.857	42.526	-0.213	-0.193
-652.843	-176.926	-0.279	0.007
-651.828	800.000	-0.082	-0.233
-650.814	-49.910	-0.062	0.029
-649.799	-102.337	-0.249	0.059
-648.784	67.002	-0.055	-0.056
-647.770	229.485	0.156	0.253
-646.755	-50.715	-0.122	0.057
-645.741	-200.000	-0.056	-0.318
-644.726	35.193	0.150	-0.131
-643.711	20.113	0.371	-0.297
-642.697	-187.419	-0.254	-0.003
-641.682	-19.779	-0.246	-0.151
-640.668	-78.950	0.488	0.165
-639.653	-200.000	0.014	-0.170
-638.638	17.724	0.132	0.104
-637.624	0.295	-0.374	-0.265
-636.609	-75.316	0.215	0.076
-635.595	-200.000	-0.091	0.440
-634.580	-25.207	-0.284	0.167
-633.565	281.274	0.150	-0.266
-632.551	29.476	-0.111	0.093
-631.536	-200.000	0.022	-0.157
-630.522	800.000	-0.040	-0.151
-629.507	800.000	-0.070	-0.224
-628.492	-121.409	-0.243	-0.040
-627.478	187.563	-0.249	0.369
-626.463	-121.705	0.232	0.038
-625.449	42.222	0.117	0.106
-624.434	370.462	-0.158	0.317
-623.419	-200.000	-0.020	0.126
-622.405	15.681	-0.218	0.170
-621.390	79.761	0.113	0.121
-620.376	149.931	0.136	0.183
-619.361	-98.336	-0.211	-0.054
-618.346	-200.000	0.027	-0.248
-617.332	34.187	0.196	0.169
-616.317	38.764	-0.154	-0.137
-615.303	-44.466	0.131	0.065
-614.288	-200.000	0.008	-0.261
-613.273	-200.000	-0.023	-0.163
-612.259	51.652	0.109	0.103
-611.244	-92.516	0.253	-0.071
-610.230	-182.261	-0.347	0.006
-609.215	164.944	-0.135	0.189
-608.201	-156.049	-0.127	-0.008
-607.186	-91.734	-0.286	-0.081
-606.171	89.015	-0.065	0.072
-605.157	110.593	0.090	-0.107
-604.142	-103.816	-0.426	-0.099
-603.128	-110.279	0.211	0.044
-602.113	-148.647	-0.356	-0.029
-601.098	16.689	-0.174	-0.137
-600.084	-46.260	-0.078	0.038
-599.069	-110.388	-0.174	0.036
-598.055	-167.807	-0.311	-0.012
-597.040	-100.238	-0.276	-0.068
-596.025	199.198	-0.173	0.263
-595.011	72.726	-0.071	-0.073
-593.996	-68.978	-0.263	0.101
-592.982	-54.718	-0.173	0.077
-591.967	-200.000	-0.129	-0.592
-590.952	-200.000	0.044	-0.204
-589.938	82.920	-0.073	-0.079
-588.923	-83.033	0.215	-0.069
-587.909	-66.360	0.181	0.071
-586.894	-68.194	0.357	0.138
-585.879	-200.000	-0.007	-0.136
-584.865	24.901	-0.209	-0.172
-583.850	-91.019	0.256	0.073
-582.836	76.698	0.198	0.208
-581.821	36.495	-0.257	-0.225
-580.806	789.709	-0.062	0.168
-579.792	329.702	0.153	-0.292
-578.777	374.844	-0.148	-0.299
-577.763	-84.123	-0.136	-0.043
-576.748	28.329	-0.134	-0.113
-575.733	-36.384	0.458	0.244
-574.719	-105.350	-0.182	-0.041
-573.704	64.399	0.145	-0.145
-572.690	126.871	-0.112	-0.141
-571.675	26.396	0.147	0.121
-570.661	43.004	-0.150	-0.135
-569.646	-89.669	0.128	-0.037
-568.631	8.579	0.131	-0.098
-567.617	440.580	0.113	-0.246
-566.602	2.822	-0.185	0.133
-565.588	20.275	-0.165	-0.132
-564.573	800.000	0.096	-0.296
-563.558	433.903	-0.045	-0.096
-562.544	-20.106	0.167	-0.102
-561.529	24.577	-0.419	-0.343
-560.515	-170.673	0.176	0.006
-559.500	-34.287	-0.136	-0.074
-558.485	-200.000	0.012	0.073
-557.471	-200.000	-0.015	0.335
-556.456	13.907	0.323	-0.249
-555.442	800.000	0.039	0.158
-554.427	373.479	-0.063	-0.126
-553.412	-37.361	-0.085	0.045
-552.398	-127.509	-0.119	-0.017
-551.383	-200.000	0.012	-0.158
-550.369	380.844	-0.109	0.222
-549.354	-100.297	0.242	0.060
-548.339	-52.529	0.156	0.071
-547.325	-200.000	0.023	0.315
-546.310	-117.629	-0.244	0.044
-545.296	150.775	-0.162	-0.218
-544.281	329.970	-0.045	-0.087
-543.266	432.761	-0.095	0.203
-542.252	800.000	-0.051	0.196
-541.237	173.798	0.117	-0.167
-540.223	-44.497	0.061	0.030
-539.208	-100.268	0.296	0.073
-538.193	-35.503	0.082	-0.044
-537.179	-178.249	-0.152	-0.004
-536.164	-155.136	0.392	-0.025
-535.150	38.184	0.143	-0.126
-534.135	-161.130	-0.208	0.011
-533.121	72.575	0.157	0.162
-532.106	460.323	0.049	-0.108
-531.091	65.326	-0.215	-0.215
-530.077	-200.000	-0.005	-0.073
-529.062	91.315	-0.092	-0.102
-528.048	-87.242	0.400	-0.120
-527.033	-0.396	-0.174	0.122
-526.018	-65.067	0.133	0.053
-525.004	-200.000	0.035	-0.213
-523.989	0.550	-0.396	-0.280
-522.975	-63.855	-0.150	0.061
-521.960	-152.170	-0.113	-0.008
-520.945	-133.457	0.316	0.039
-519.931	-53.763	0.116	-0.052
-518.916	645.050	0.031	0.078
-517.902	495.039	0.064	-0.145
-516.887	262.730	-0.023	-0.040
-515.872	-200.000	-0.028	-0.160
-514.858	-200.000	-0.006	-0.262
-513.843	800.000	0.064	0.275
-512.829	179.603	-0.243	0.352
-511.814	-73.841	0.296	-0.106
-510.799	-65.022	0.143	-0.057
-509.785	-81.984	0.157	0.051
-508.770	-200.000	0.005	-0.052
-507.756	600.573	0.092	0.227
-506.741	246.322	0.161	0.268
-505.726	212.607	0.218	0.340
-504.712	-200.000	-0.030	0.153
-503.697	550.221	0.091	-0.216
-502.683	-159.678	0.229	0.013
-501.668	227.755	0.070	0.112
-500.653	-15.044	0.137	-0.087
-499.639	433.976	0.090	-0.193
-498.624	800.000	0.055	0.190
-497.610	768.949	-0.038	-0.101
-496.595	376.336	0.119	0.239
-495.581	369.826	0.162	-0.324
-494.566	386.737	0.023	-0.048
-493.551	74.851	0.147	0.153
-492.537	-21.035	0.255	-0.154
-491.522	118.913	-0.042	0.051
-490.508	-120.461	0.315	0.053
-489.493	-200.000	0.058	0.349
-488.478	157.875	-0.048	0.065
-487.464	341.148	-0.161	0.311
-486.449	328.466	-0.209	0.397
-485.435	-128.518	-0.410	0.057
-484.420	109.158	-0.122	0.144
-483.405	141.668	0.134	0.175
-482.391	800.000	-0.005	-0.016
-481.376	34.620	0.195	-0.168
-480.362	90.318	-0.121	0.134
-479.347	-29.396	0.104	-0.059
-478.332	59.258	-0.297	0.289
-477.318	-200.000	0.027	0.171
-476.303	552.716	-0.082	-0.194
-475.289	-97.376	0.068	0.017
-474.274	-200.000	-0.036	0.167
-473.259	76.209	0.300	0.313
-472.245	-65.546	-0.285	-0.113
-471.230	-99.370	0.087	-0.022
-470.216	103.786	-0.129	-0.150
-469.201	191.166	0.095	0.141
-468.186	-71.060	0.228	0.085
-467.172	-200.000	-0.016	-0.072
-466.157	-33.546	0.165	0.090
-465.143	-133.410	-0.331	0.041
-464.128	-200.000	-0.004	0.100
-463.113	-33.018	-0.206	0.112
-462.099	-118.908	0.290	0.050
-461.084	-96.892	0.093	-0.024
-460.070	-145.956	-0.417	0.036
-459.055	37.905	0.187	-0.164
-458.040	140.197	0.041	-0.053
-457.026	-129.713	0.190	-0.026
-456.011	792.507	-0.110	0.298
-454.997	-32.754	0.110	-0.061
-453.982	800.000	0.069	-0.278
-452.968	-187.886	0.017	0.000
-451.953	-200.000	0.016	-0.214
-450.938	302.724	-0.134	0.245
-449.924	-200.000	-0.004	0.406
-448.909	-24.383	-0.114	-0.067
-447.895	-49.345	0.290	0.137
-446.880	-128.616	-0.193	-0.027
-445.865	-168.019	0.244	0.009
-444.851	365.504	-0.097	-0.193
-443.836	110.541	-0.067	0.079
-442.822	222.723	-0.031	0.049
-441.807	800.000	-0.075	0.270
-440.792	166.830	0.023	0.032
-439.778	-200.000	0.039	0.184
-438.763	-61.357	0.339	0.141
-437.749	-90.332	-0.280	0.080
-436.734	-200.000	0.047	-0.289
-435.719	271.110	0.033	0.058
-434.705	-62.905	0.276	-0.113
-433.690	437.289	0.114	0.244
-432.676	-200.000	0.063	0.313
-431.661	-134.190	0.225	0.027
-430.646	-164.912	0.430	-0.019
-429.632	-200.000	0.027	-0.293
-428.617	800.000	-0.083	-0.235
-427.603	104.100	-0.146	-0.169
-426.588	-119.089	0.377	0.065
-425.573	800.000	-0.081	-0.240
-424.559	-180.878	-0.384	-0.008
-423.544	49.724	-0.183	-0.169
-422.530	293.750	0.185	-0.332
-421.515	-103.829	0.273	0.063
-420.500	67.216	0.050	-0.050
-419.486	151.875	-0.185	-0.249
-418.471	-200.000	-0.004	-0.066
-417.457	-38.520	0.191	-0.100
-416.442	-16.913	-0.159	0.099
-415.428	-121.401	0.374	-0.061
-414.413	-200.000	0.010	0.123
-413.398	213.725	-0.064	-0.099
-412.384	158.655	0.263	0.360
-411.369	-200.000	0.008	0.041
-410.355	45.521	-0.187	0.170
-409.340	-58.794	0.154	-0.065
-408.325	477.041	0.102	0.227
-407.311	800.000	0.035	0.139
-406.296	556.823	-0.127	-0.300
-405.282	-101.157	0.106	0.025
-404.267	-2.442	-0.094	0.065
-403.252	-87.724	-0.214	0.063
-402.238	-109.714	-0.170	0.035
-401.223	-146.859	0.211	0.018
-400.209	-52.399	-0.431	-0.196
-399.194	-42.459	-0.279	-0.140
-398.179	-78.575	0.112	0.038
-397.165	-76.354	0.105	-0.037
-396.150	5.877	-0.170	0.123
-395.136	-200.000	0.051	-0.225
-394.121	419.842	-0.032	-0.067
-393.106	173.494	-0.175	-0.248
-392.092	64.101	-0.179	0.177
-391.077	105.663	-0.059	0.069
-390.063	1.842	-0.483	0.343
-389.048	-143.451	0.313	-0.029
-388.033	800.000	0.015	-0.065
-387.019	-1.271	0.120	0.084
-386.004	800.000	0.042	0.144
-384.990	-38.581	0.143	0.074
-383.975	298.036	-0.105	0.190
-382.960	95.873	0.092	0.104
-381.946	800.000	0.106	-0.349
-380.931	129.554	0.106	-0.133
-379.917	-139.599	-0.176	0.018
-378.902	-113.861	-0.199	0.038
-377.888	-200.000	-0.026	0.189
-376.873	-1.955	-0.162	0.112
-375.858	-132.255	0.359	0.046
-374.844	-75.169	-0.265	0.093
-373.829	-104.558	-0.232	0.053
-372.815	-200.000	0.022	0.137
-371.800	-125.534	-0.379	0.057
-370.785	-45.070	-0.219	-0.107
-369.771	-140.871	-0.200	-0.020
-368.756	-76.544	0.179	-0.062
-367.742	-200.000	-0.011	0.122
-366.727	-22.554	-0.047	0.028
-365.712	87.721	-0.197	-0.215
-364.698	-115.941	-0.310	-0.057
-363.683	40.511	-0.308	-0.272
-362.669	-4.599	0.101	0.068
-361.654	12.560	-0.071	-0.054
-360.639	800.000	-0.078	-0.261
-359.625	-200.000	0.006	-0.039
-358.610	298.604	0.068	-0.122
-357.596	-42.515	0.096	0.048
-356.581	-86.621	-0.465	0.140
-355.566	800.000	0.085	-0.280
-354.552	-90.849	-0.244	-0.069
-353.537	194.005	0.075	0.112
-352.523	593.278	0.141	0.342
-351.508	-113.376	0.290	0.056
-350.493	246.206	0.087	-0.144
-349.479	-200.000	0.060	0.409
-348.464	-200.000	-0.201	0.001
-347.450	271.341	0.080	0.138
-346.435	-25.144	-0.354	-0.206
-345.420	462.684	-0.089	-0.195
-344.406	-200.000	-0.055	0.348
-343.391	800.000	0.066	-0.207
-342.377	-124.058	-0.062	-0.010
-341.362	152.759	-0.042	-0.056
-340.348	-200.000	-0.004	0.138
-339.333	1.641	0.189	-0.133
-338.318	131.198	-0.054	0.067
-337.304	90.362	-0.238	0.261
-336.289	89.647	0.193	-0.212
-335.275	-76.511	-0.226	0.078
-334.260	322.730	-0.050	-0.093
-333.245	176.204	-0.062	0.089
-332.231	-127.771	-0.342	0.048
-331.216	-200.000	0.022	0.192
-330.202	641.718	0.090	0.225
-329.187	101.615	-0.197	-0.225
-328.172	67.935	-0.185	-0.186
-327.158	-88.081	-0.077	0.023
-326.143	212.285	0.073	0.113
-325.129	-125.037	0.303	0.046
-324.114	-200.000	0.017	0.124
-323.099	273.172	0.013	0.023
-322.085	84.984	-0.133	-0.143
-321.070	-138.326	-0.180	-0.020
-320.056	-137.997	0.309	-0.034
-319.041	138.722	0.238	0.306
-318.026	-41.544	-0.290	0.146
-317.012	-78.728	0.212	0.071
-315.997	-200.000	-0.063	0.292
-314.983	-200.000	-0.021	0.403
-313.968	41.152	0.129	0.114
-312.953	800.000	0.053	-0.167
-311.939	-200.000	0.040	-0.249
-310.924	386.044	0.070	-0.142
-309.910	-76.021	0.218	-0.076
-308.895	30.170	-0.187	-0.156
-307.880	-142.288	0.317	-0.031
-306.866	-54.944	-0.124	0.055
-305.851	238.427	0.117	0.190
-304.837	-3.371	-0.111	-0.076
-303.822	-200.000	-0.069	-0.317
-302.807	286.540	0.097	0.172
-301.793	-124.516	0.307	0.047
-300.778	-200.000	-0.091	0.477
-299.764	178.349	-0.092	-0.131
-298.749	481.585	0.129	-0.287
-297.735	378.488	-0.120	-0.242
-296.720	-112.541	0.095	-0.018
-295.705	-48.352	-0.217	0.102
-294.691	-79.348	-0.271	0.090
-293.676	800.000	0.157	-0.466
-292.662	-8.903	-0.178	0.117
-291.647	10.336	0.048	0.036
-290.632	800.000	0.065	-0.235
-289.618	-200.000	-0.038	-0.292
-288.603	85.251	0.147	-0.158
-287.589	593.581	0.076	0.184
-286.574	611.644	0.053	-0.129
-285.559	-17.016	0.378	-0.234
-284.545	285.811	-0.108	-0.190
-283.530	-200.000	-0.032	0.150
-282.516	331.487	0.069	0.131
-281.501	141.192	-0.294	-0.381
-280.486	213.678	0.152	0.236
-279.472	-200.000	0.019	0.138
-278.457	-99.908	-0.245	0.060
-277.443	143.406	-0.262	0.342
-276.428	446.963	0.074	-0.158
-275.413	231.569	-0.040	-0.064
-274.399	800.000	0.083	0.280
-273.384	800.000	0.020	0.086
-272.370	161.876	-0.144	0.197
-271.355	-71.344	0.144	0.053
-270.340	88.972	0.173	0.188
-269.326	86.654	0.095	-0.102
-268.311	800.000	-0.025	0.096
-267.297	-200.000	0.006	0.344
-266.282	-78.874	0.084	0.028
-265.267	-47.122	-0.059	0.028
-264.253	67.771	-0.188	0.188
-263.238	-71.893	0.324	0.118
-262.224	-200.000	-0.011	0.093
-261.209	-23.553	-0.371	-0.218
-260.195	460.581	-0.040	0.087
-259.180	8.024	-0.233	-0.171
-258.165	-24.646	0.390	0.227
-257.151	800.000	-0.083	-0.227
-256.136	-200.000	-0.006	-0.362
-255.122	251.731	0.109	0.182
-254.107	800.000	0.072	0.210
-253.092	800.000	0.045	-0.175
-252.078	-200.000	0.083	0.476
-251.063	-85.965	0.448	-0.135
-250.049	23.343	0.254	0.204
-249.034	-154.447	0.213	0.014
-248.019	8.945	-0.182	-0.134
-247.005	-18.098	-0.382	-0.234
-245.990	-149.983	-0.605	0.046
-244.976	71.466	-0.038	0.038
-243.961	-88.394	0.250	-0.073
-242.946	187.452	0.074	0.108
-241.932	-200.000	0.005	0.199
-240.917	-90.660	-0.147	0.041
-239.903	800.000	-0.068	-0.286
-238.888	25.149	0.350	-0.284
-237.873	-96.930	-0.077	-0.020
-236.859	64.739	0.214	0.211
-235.844	-200.000	0.045	-0.300
-234.830	319.130	0.096	-0.178
-233.815	-9.503	-0.292	-0.191
-232.800	-81.148	0.278	-0.090
-231.786	-200.000	0.018	-0.088
-230.771	10.141	-0.153	-0.114
-229.757	-136.399	-0.432	0.049
-228.742	-200.000	0.096	0.413
-227.727	800.000	-0.063	0.181
-226.713	-14.995	-0.204	0.128
-225.698	-15.447	0.370	-0.231
-224.684	40.561	0.261	-0.230
-223.669	-200.000	-0.067	-0.388
-222.655	800.000	0.080	0.302
-221.640	222.482	0.111	-0.175
-220.625	230.177	0.082	0.130
-219.611	160.979	0.097	0.132
-218.596	-65.983	0.359	-0.140
-217.582	340.001	-0.062	0.118
-216.567	-69.714	-0.318	-0.119
-215.552	170.532	-0.039	-0.055
-214.538	-78.883	0.204	-0.068
-213.523	800.000	-0.053	0.196
-212.509	-66.758	0.106	0.041
-211.494	100.835	-0.151	-0.171
-210.479	-34.903	0.261	0.139
-209.465	800.000	0.065	-0.203
-208.450	-200.000	-0.002	0.103
-207.436	-81.158	0.063	-0.020
-206.421	-100.442	0.273	0.066
-205.406	800.000	0.032	-0.096
-204.392	92.781	0.077	-0.085
-203.377	-200.000	0.004	0.190
-202.363	391.948	-0.166	-0.337
-201.348	-162.518	-0.202	-0.010
-200.333	20.953	-0.152	0.120
-199.319	800.000	0.093	-0.282
-198.304	515.130	-0.078	-0.178
-197.290	0.012	-0.113	-0.079
-196.275	-34.484	0.168	-0.090
-195.260	153.578	0.362	0.485
-194.246	471.597	-0.096	-0.211
-193.231	96.566	-0.121	0.135
-192.217	733.185	-0.099	0.258
-191.202	30.609	-0.125	-0.105
-190.187	800.000	0.051	0.200
-189.173	-103.475	-0.074	-0.017
-188.158	321.909	-0.071	-0.133
-187.144	800.000	0.032	-0.098
-186.129	266.978	0.241	0.411
-185.114	420.950	-0.079	-0.165
-184.100	-200.000	0.056	-0.323
-183.085	-200.000	0.081	-0.352
-182.071	-200.000	-0.003	-0.181
-181.056	153.265	0.274	0.365
-180.042	11.207	-0.191	0.143
-179.027	-55.606	0.119	0.052
-178.012	-30.202	0.374	-0.207
-176.998	104.884	-0.198	-0.228
-175.983	-200.000	0.021	0.129
-174.969	163.013	-0.101	-0.139
-173.954	-200.000	0.002	-0.095
-172.939	-78.314	0.223	0.075
-171.925	-67.821	-0.490	0.187
-170.910	265.794	-0.111	-0.188
-169.896	228.601	-0.064	-0.102
-168.881	-189.100	0.274	-0.003
-167.866	800.000	-0.100	0.271
-166.852	-85.252	-0.061	0.019
-165.837	800.000	0.107	-0.313
-164.823	3.370	-0.181	0.129
-163.808	-43.885	-0.046	0.023
-162.793	-134.992	0.167	-0.020
-161.779	654.245	-0.114	-0.285
-160.764	-200.000	-0.045	0.194
-159.750	-200.000	-0.017	0.115
-158.735	-57.205	0.370	-0.159
-157.720	800.000	0.065	0.202
-156.706	40.381	0.190	-0.166
-155.691	97.707	0.208	0.233
-154.677	126.153	-0.269	-0.331
-153.662	-200.000	0.008	0.091
-152.647	64.178	0.090	0.088
-151.633	-78.161	0.298	-0.100
-150.618	800.000	-0.030	-0.097
-149.604	-24.802	-0.148	0.086
-148.589	719.065	-0.131	-0.340
-147.574	-140.838	-0.062	0.006
-146.560	-110.789	-0.177	0.036
-145.545	-81.971	0.068	-0.022
-144.531	413.492	-0.119	0.246
-143.516	-80.734	-0.149	0.048
-142.502	-200.000	-0.013	0.073
-141.487	-200.000	-0.056	-0.248
-140.472	-200.000	-0.000	-0.075
-139.458	375.005	0.062	0.122
-138.443	-13.428	-0.257	0.163
-137.429	731.616	-0.073	0.191
-136.414	-85.096	0.154	-0.047
-135.399	-64.556	0.363	0.143
-134.385	51.374	-0.293	-0.271
-133.370	122.241	-0.057	-0.070
-132.356	-77.612	-0.085	-0.029
-131.341	-31.198	-0.228	-0.125
-130.326	-14.538	0.282	-0.177
-129.312	800.000	-0.037	0.130
-128.297	-78.950	-0.107	-0.036
-127.283	335.224	-0.138	-0.260
-126.268	-200.000	-0.009	-0.054
-125.253	111.467	-0.032	0.037
-124.239	369.143	0.122	0.240
-123.224	-200.000	-0.036	0.197
-122.210	566.690	0.029	-0.068
-121.195	-32.964	-0.122	-0.066
