DTS Sentinel unit serial number:	SN413079Multiplexer serial number:	ORYXHardware model number:	OX4-SRSoftware version number:	ORYX F/W v4.00 Oryx Data Collector v3.7.2.0data status	okinstallation	princeton_trtdifferential loss correction	single-endedforward channel	channel 2reverse channel	N/Adate	2019/09/12time	15:29:11forward acquisition time	60.00reverse acquisition time	0.00gamma	496.2192k internal	0.2299k external	0.2299temperature offset calibration	1.0100default loss term (dB/km)	0.3790temperature slope calibration	1.0000multiplexer offset coefficient	1.0000multiplexer slope coefficient	1.0000fibre end	0.00T internal ref (°C)	40.62T ext. ref 1 (°C)	2.43T ext. ref 2 (°C)	33.96length (m)	temperature (°C)	Stokes	anti-Stokes-747.200	-40.139	0.282	0.150
-746.185	278.937	-0.078	0.142
-745.171	-14.580	-0.229	-0.150
-744.156	-142.636	0.325	0.032
-743.142	-83.795	-0.208	0.068
-742.127	24.263	-0.233	0.196
-741.112	-200.000	0.000	-0.048
-740.098	-98.027	-0.168	-0.044
-739.083	-200.000	-0.068	0.308
-738.069	128.079	-0.285	0.370
-737.054	-100.822	-0.229	0.057
-736.039	679.916	0.030	0.081
-735.025	-96.613	0.354	0.095
-734.010	107.475	-0.225	-0.273
-732.996	-34.805	-0.499	-0.278
-731.981	-79.334	-0.301	-0.104
-730.966	92.895	-0.112	-0.129
-729.952	-200.000	-0.000	0.336
-728.937	-176.362	0.189	-0.005
-727.923	6.057	-0.106	-0.080
-726.908	-117.624	-0.255	-0.047
-725.894	357.345	-0.108	0.220
-724.879	-200.000	-0.106	0.582
-723.864	-121.695	0.167	0.028
-722.850	-98.830	-0.493	0.128
-721.835	99.469	0.083	-0.097
-720.821	-45.638	0.071	0.036
-719.806	66.238	-0.162	-0.167
-718.791	18.385	0.142	0.116
-717.777	68.532	-0.162	-0.169
-716.762	261.662	-0.300	0.530
-715.748	-110.209	-0.036	-0.008
-714.733	107.226	0.140	-0.169
-713.718	257.021	0.091	-0.159
-712.704	-200.000	0.010	-0.059
-711.689	800.000	0.013	-0.040
-710.675	-200.000	0.020	0.303
-709.660	308.438	-0.119	-0.226
-708.645	-200.000	-0.024	0.312
-707.631	-21.456	-0.350	-0.217
-706.616	-25.169	-0.085	0.051
-705.602	110.943	-0.180	0.221
-704.587	-88.856	0.063	0.019
-703.572	800.000	0.049	-0.161
-702.558	-145.122	-0.393	0.036
-701.543	800.000	-0.030	0.111
-700.529	-200.000	-0.124	-0.001
-699.514	685.210	-0.065	0.174
-698.499	621.221	0.054	-0.137
-697.485	-123.715	-0.281	-0.045
-696.470	-162.085	-0.321	-0.016
-695.456	221.567	0.119	0.194
-694.441	206.050	0.135	0.214
-693.426	-26.144	-0.216	0.129
-692.412	118.131	-0.181	0.227
-691.397	-94.230	0.446	0.124
-690.383	-200.000	-0.034	-0.206
-689.368	-173.750	0.137	0.004
-688.354	427.269	-0.135	-0.297
-687.339	-200.000	-0.017	-0.323
-686.324	-43.123	-0.294	0.152
-685.310	-4.679	-0.217	-0.153
-684.295	-0.014	-0.071	0.052
-683.281	12.888	-0.034	0.027
-682.266	-14.752	0.277	-0.181
-681.251	-125.398	0.312	-0.048
-680.237	-30.862	-0.230	0.132
-679.222	800.000	-0.028	0.099
-678.208	536.913	-0.029	-0.071
-677.193	28.549	-0.152	-0.131
-676.178	-200.000	-0.124	-0.000
-675.164	-200.000	-0.015	-0.326
-674.149	263.976	-0.065	0.115
-673.135	-117.802	0.092	-0.017
-672.120	-76.376	-0.114	0.041
-671.105	759.965	-0.023	-0.065
-670.091	800.000	-0.029	-0.103
-669.076	-53.364	-0.256	-0.119
-668.062	-200.000	-0.383	0.002
-667.047	35.736	-0.124	0.111
-666.032	473.805	0.178	-0.408
-665.018	-34.013	0.139	0.078
-664.003	-77.938	-0.261	0.091
-662.989	-112.034	0.078	-0.016
-661.974	-200.000	0.012	0.126
-660.959	3.261	-0.173	0.128
-659.945	-0.702	0.123	-0.088
-658.930	214.219	0.144	-0.232
-657.916	452.994	-0.039	0.088
-656.901	-71.600	0.138	0.052
-655.886	-101.163	-0.115	0.029
-654.872	-46.401	0.030	-0.015
-653.857	130.033	-0.165	-0.215
-652.843	-40.138	-0.294	-0.156
-651.828	-200.000	-0.052	-0.314
-650.814	545.987	0.097	0.237
-649.799	7.496	-0.224	-0.170
-648.784	-69.654	-0.023	-0.009
-647.770	-125.917	-0.177	0.027
-646.755	-200.000	0.005	-0.193
-645.741	16.568	0.353	-0.284
-644.726	61.309	0.174	-0.175
-643.711	-200.000	-0.038	-0.329
-642.697	24.679	-0.322	-0.271
-641.682	-25.949	0.034	-0.020
-640.668	-200.000	-0.035	0.272
-639.653	-117.716	-0.207	-0.038
-638.638	800.000	0.085	0.252
-637.624	-25.322	0.215	0.129
-636.609	-106.651	-0.192	-0.043
-635.595	-39.573	-0.139	0.074
-634.580	30.294	-0.223	0.193
-633.565	-69.886	0.093	0.036
-632.551	800.000	0.045	-0.135
-631.536	0.204	0.538	-0.390
-630.522	508.459	-0.056	0.131
-629.507	-71.032	-0.089	-0.034
-628.492	387.420	0.114	0.239
-627.478	-68.420	0.198	0.078
-626.463	337.986	0.089	0.175
-625.449	280.981	-0.039	0.071
-624.434	-33.752	0.044	-0.025
-623.419	28.052	0.118	-0.101
-622.405	-200.000	-0.034	0.228
-621.390	307.606	-0.271	0.513
-620.376	-200.000	0.009	0.050
-619.361	800.000	-0.048	0.162
-618.346	-145.990	0.419	0.038
-617.332	-112.085	-0.121	0.025
-616.317	97.751	0.140	-0.163
-615.303	-84.749	0.225	0.072
-614.288	-37.608	0.130	-0.070
-613.273	75.491	0.070	0.075
-612.259	-84.157	-0.173	-0.056
-611.244	-200.000	0.016	0.312
-610.230	411.383	0.128	0.277
-609.215	-30.958	0.043	0.025
-608.201	-49.087	-0.220	0.107
-607.186	-50.102	0.268	-0.129
-606.171	29.787	0.237	0.205
-605.157	19.528	-0.293	-0.239
-604.142	-200.000	0.094	-0.438
-603.128	39.726	0.175	0.160
-602.113	43.358	-0.316	0.293
-601.098	800.000	-0.008	-0.034
-600.084	-113.431	-0.345	0.069
-599.069	-200.000	0.038	-0.297
-598.055	800.000	0.048	0.206
-597.040	451.013	-0.046	-0.103
-596.025	427.875	-0.216	-0.473
-595.011	-200.000	0.049	-0.286
-593.996	-19.046	0.233	-0.147
-592.982	-15.781	0.052	-0.033
-591.967	-119.956	-0.093	0.016
-590.952	-105.910	-0.264	0.060
-589.938	47.033	-0.156	-0.148
-588.923	-126.457	-0.371	-0.056
-587.909	650.460	0.077	-0.201
-586.894	62.314	0.060	0.061
-585.879	-106.094	-0.165	0.038
-584.865	28.958	0.115	-0.099
-583.850	-34.240	-0.151	0.084
-582.836	-200.000	0.024	0.189
-581.821	-200.000	-0.024	-0.213
-580.806	96.016	-0.190	-0.220
-579.792	117.583	0.209	-0.261
-578.777	158.328	0.041	-0.057
-577.763	474.011	-0.051	0.116
-576.748	-49.120	-0.230	-0.112
-575.733	-27.342	-0.139	-0.082
-574.719	-30.024	-0.054	0.031
-573.704	-120.776	0.179	-0.031
-572.690	-200.000	0.015	-0.079
-571.675	313.564	0.102	-0.194
-570.661	101.149	-0.158	0.187
-569.646	-93.026	0.193	0.054
-568.631	27.885	-0.110	-0.094
-567.617	-40.195	0.355	0.187
-566.602	-200.000	0.024	-0.328
-565.588	-140.854	-0.227	-0.024
-564.573	-200.000	0.017	0.215
-563.558	-127.460	-0.347	-0.051
-562.544	-84.365	0.146	-0.047
-561.529	-200.000	-0.016	-0.168
-560.515	-33.296	0.128	-0.072
-559.500	230.441	0.087	0.144
-558.485	346.159	-0.029	-0.058
-557.471	-200.000	0.022	-0.252
-556.456	33.210	0.218	-0.191
-555.442	-72.531	0.235	-0.088
-554.427	361.775	0.072	-0.147
-553.412	564.633	-0.064	0.158
-552.398	800.000	0.021	-0.064
-551.383	-172.589	-0.237	-0.008
-550.369	800.000	-0.024	0.093
-549.354	-120.652	0.083	0.014
-548.339	30.894	-0.108	0.094
-547.325	-28.499	0.049	-0.028
-546.310	-77.565	-0.304	0.107
-545.296	-200.000	-0.020	-0.442
-544.281	-200.000	0.015	0.343
-543.266	178.567	0.135	0.199
-542.252	-136.098	-0.373	-0.044
-541.237	305.719	0.030	0.056
-540.223	53.179	0.136	0.132
-539.208	0.315	-0.200	-0.144
-538.193	-84.473	-0.160	-0.051
-537.179	279.677	0.146	-0.264
-536.164	1.401	-0.075	-0.054
-535.150	311.945	-0.015	0.029
-534.135	13.530	-0.131	0.103
-533.121	-200.000	0.046	-0.242
-532.106	-89.814	-0.224	-0.066
-531.091	-123.603	-0.267	-0.043
-530.077	-200.000	-0.006	0.144
-529.062	8.194	-0.082	0.062
-528.048	-189.624	-0.061	-0.001
-527.033	170.105	-0.077	0.112
-526.018	13.965	-0.146	-0.115
-525.004	53.433	0.080	0.078
-523.989	-200.000	0.001	0.088
-522.975	-69.869	0.327	-0.126
-521.960	434.132	0.083	-0.182
-520.945	800.000	-0.066	-0.238
-519.931	-200.000	-0.021	-0.151
-518.916	-31.696	-0.164	-0.093
-517.902	-131.544	0.245	-0.033
-516.887	-49.952	-0.215	0.103
-515.872	-200.000	-0.020	0.193
-514.858	310.654	-0.153	0.290
-513.843	0.284	-0.248	-0.179
-512.829	279.361	0.191	0.345
-511.814	800.000	-0.047	0.154
-510.799	-24.972	0.157	-0.094
-509.785	540.817	0.135	0.325
-508.770	-30.275	-0.092	-0.053
-507.756	800.000	0.058	-0.214
-506.741	48.606	-0.061	0.058
-505.726	47.628	-0.117	-0.110
-504.712	43.254	0.212	-0.196
-503.697	800.000	0.087	0.335
-502.683	-35.238	-0.132	-0.073
-501.668	3.362	-0.103	-0.076
-500.653	-107.194	0.240	0.054
-499.639	-32.637	0.231	0.130
-498.624	-4.590	-0.253	0.177
-497.610	76.675	0.219	0.234
-496.595	391.974	0.187	0.392
-495.581	314.963	-0.153	0.292
-494.566	-48.368	-0.106	-0.051
-493.551	54.495	-0.218	-0.213
-492.537	-200.000	0.019	0.232
-491.522	124.904	0.060	-0.076
-490.508	-83.197	0.116	0.038
-489.493	60.840	-0.005	-0.005
-488.478	800.000	0.096	0.268
-487.464	3.630	0.121	0.089
-486.449	211.081	0.020	-0.032
-485.435	728.083	0.032	-0.086
-484.420	-200.000	0.011	0.076
-483.405	24.966	-0.034	0.029
-482.391	450.975	-0.025	-0.057
-481.376	-46.171	-0.159	0.079
-480.362	-9.404	-0.167	-0.113
-479.347	-200.000	0.007	0.055
-478.332	-89.761	0.256	0.076
-477.318	-35.831	0.454	0.248
-476.303	238.810	-0.082	-0.137
-475.289	800.000	0.054	0.218
-474.274	516.176	-0.028	-0.067
-473.259	19.389	0.234	-0.190
-472.245	-200.000	-0.057	0.277
-471.230	-170.656	-0.141	0.005
-470.216	55.075	-0.208	0.203
-469.201	-200.000	0.063	-0.293
-468.186	-200.000	0.010	-0.129
-467.172	604.099	-0.112	0.282
-466.157	106.481	-0.093	-0.111
-465.143	504.476	0.129	-0.301
-464.128	29.236	-0.205	0.176
-463.113	800.000	0.046	0.147
-462.099	-96.394	0.129	-0.034
-461.084	65.660	-0.111	0.113
-460.070	-200.000	0.009	0.071
-459.055	-200.000	0.061	0.329
-458.040	460.825	0.031	-0.069
-457.026	-200.000	0.002	0.360
-456.011	-44.154	0.151	-0.076
-454.997	155.644	-0.187	-0.260
-453.982	484.426	-0.023	-0.052
-452.968	632.663	0.036	0.092
-451.953	-48.384	0.065	0.031
-450.938	140.302	0.141	-0.187
-449.924	-77.106	0.251	-0.088
-448.909	800.000	-0.062	0.213
-447.895	800.000	0.010	0.031
-446.880	-200.000	-0.031	0.179
-445.865	-113.775	-0.301	0.059
-444.851	-200.000	-0.064	0.293
-443.836	34.523	0.072	0.064
-442.822	-111.060	-0.199	-0.041
-441.807	800.000	0.082	-0.267
-440.792	137.158	0.207	0.273
-439.778	553.598	0.111	-0.270
-438.763	156.610	0.108	-0.151
-437.749	-128.490	-0.278	-0.040
-436.734	-2.124	-0.271	-0.192
-435.719	-16.418	-0.440	0.281
-434.705	-124.685	-0.142	0.022
-433.690	274.424	0.110	0.196
-432.676	22.782	0.058	-0.048
-431.661	-178.211	0.169	0.004
-430.646	52.387	0.161	-0.155
-429.632	-200.000	0.048	-0.243
-428.617	-101.095	0.158	0.039
-427.603	-77.281	0.183	0.064
-426.588	-144.741	0.231	0.021
-425.573	-22.148	0.241	-0.148
-424.559	-184.738	-0.108	-0.002
-423.544	-102.890	0.222	-0.053
-422.530	11.679	0.231	-0.178
-421.515	-54.051	-0.160	-0.073
-420.500	-200.000	-0.016	-0.334
-419.486	-43.702	0.113	-0.057
-418.471	133.429	0.128	-0.167
-417.457	17.752	0.053	0.043
-416.442	262.345	0.041	-0.072
-415.428	-67.831	-0.200	-0.079
-414.413	174.104	-0.051	0.074
-413.398	70.245	-0.137	0.143
-412.384	-200.000	0.009	-0.144
-411.369	-60.597	-0.129	0.055
-410.355	112.236	0.068	0.083
-409.340	37.380	0.416	-0.372
-408.325	-200.000	0.013	-0.121
-407.311	-200.000	0.009	0.094
-406.296	56.470	0.270	0.264
-405.282	-153.648	0.301	-0.021
-404.267	-21.221	0.217	-0.134
-403.252	436.177	0.094	-0.206
-402.238	302.369	0.007	0.013
-401.223	-200.000	0.011	0.146
-400.209	800.000	-0.094	0.289
-399.194	91.865	-0.187	0.212
-398.179	-26.110	0.197	0.116
-397.165	-200.000	0.042	0.358
-396.150	-86.169	-0.124	-0.038
-395.136	-200.000	-0.010	-0.063
-394.121	-43.338	0.259	-0.132
-393.106	204.078	-0.126	0.196
-392.092	54.819	0.062	0.060
-391.077	-23.217	0.309	-0.187
-390.063	39.343	-0.219	-0.197
-389.048	677.568	0.121	-0.317
-388.033	460.693	-0.136	-0.305
-387.019	100.039	-0.168	-0.196
-386.004	-59.349	-0.163	0.070
-384.990	-200.000	0.022	0.433
-383.975	-173.941	0.326	0.010
-382.960	71.087	-0.153	-0.160
-381.946	800.000	0.048	0.150
-380.931	-80.231	-0.064	0.022
-379.917	120.186	0.071	-0.088
-378.902	-24.324	-0.325	0.195
-377.888	-181.469	-0.360	-0.007
-376.873	-200.000	-0.028	-0.146
-375.858	17.726	0.121	0.097
-374.844	800.000	-0.066	-0.236
-373.829	248.192	0.033	0.057
-372.815	800.000	0.043	-0.156
-371.800	-200.000	-0.018	0.359
-370.785	-6.039	-0.132	0.091
-369.771	-200.000	-0.031	0.147
-368.756	70.294	0.221	-0.230
-367.742	-112.349	-0.191	-0.038
-366.727	-200.000	0.022	-0.131
-365.712	143.107	0.064	-0.086
-364.698	256.993	-0.055	-0.094
-363.683	800.000	0.064	-0.258
-362.669	11.407	-0.258	0.199
-361.654	576.394	-0.062	0.153
-360.639	0.084	0.069	-0.050
-359.625	280.485	0.149	0.267
-358.610	54.672	-0.124	-0.120
-357.596	174.133	-0.074	0.107
-356.581	202.139	0.182	-0.283
-355.566	176.439	0.180	0.263
-354.552	800.000	0.031	0.091
-353.537	-85.805	0.416	-0.130
-352.523	281.451	-0.087	0.156
-351.508	73.950	-0.176	-0.186
-350.493	102.758	0.177	-0.208
-349.479	-98.465	0.088	0.023
-348.464	-99.886	-0.211	0.053
-347.450	-200.000	-0.010	0.489
-346.435	50.541	0.233	0.222
-345.420	-200.000	0.029	0.347
-344.406	-200.000	0.049	0.225
-343.391	-96.935	0.246	0.065
-342.377	-23.536	0.171	0.103
-341.362	238.100	-0.200	0.334
-340.348	27.947	-0.254	0.215
-339.333	800.000	0.037	0.152
-338.318	-70.305	0.089	0.034
-337.304	8.022	0.211	0.159
-336.289	800.000	-0.064	-0.192
-335.275	-50.924	-0.351	-0.166
-334.260	113.903	0.183	0.223
-333.245	77.516	0.238	0.254
-332.231	-97.139	0.409	0.107
-331.216	148.844	0.188	-0.256
-330.202	-94.669	-0.242	0.066
-329.187	-200.000	-0.001	-0.168
-328.172	-24.715	0.147	-0.088
-327.158	-71.093	0.049	-0.019
-326.143	-200.000	-0.031	0.149
-325.129	-115.193	-0.065	-0.012
-324.114	349.567	0.071	-0.141
-323.099	-200.000	0.005	-0.046
-322.085	-108.862	0.302	0.065
-321.070	24.773	0.166	-0.138
-320.056	-200.000	-0.003	-0.132
-319.041	-59.424	0.126	-0.054
-318.026	-200.000	-0.013	0.069
-317.012	-200.000	-0.064	-0.381
-315.997	227.742	-0.140	0.228
-314.983	64.769	-0.145	-0.147
-313.968	181.433	-0.168	-0.248
-312.953	-68.902	-0.322	0.125
-311.939	-200.000	0.052	0.512
-310.924	123.199	0.112	-0.140
-309.910	-33.821	0.189	0.105
-308.895	364.152	-0.109	0.220
-307.880	-43.161	0.283	0.144
-306.866	215.992	-0.154	-0.246
-305.851	-153.161	-0.118	-0.008
-304.837	-150.122	-0.226	-0.018
-303.822	77.611	-0.044	-0.047
-302.807	16.349	-0.192	-0.152
-301.793	800.000	0.098	-0.328
-300.778	-157.827	-0.074	-0.004
-299.764	-120.710	-0.222	0.038
-298.749	88.172	-0.194	0.216
-297.735	800.000	-0.041	0.115
-296.720	-32.378	0.161	-0.090
-295.705	800.000	0.059	-0.177
-294.691	-200.000	-0.013	-0.175
-293.676	437.560	0.137	-0.300
-292.662	-44.779	0.199	0.099
-291.647	-200.000	-0.041	-0.247
-290.632	0.968	-0.157	-0.113
-289.618	-33.182	0.109	-0.061
-288.603	-170.547	-0.375	0.013
-287.589	248.309	0.194	0.329
-286.574	-200.000	-0.031	0.228
-285.559	-200.000	0.025	-0.135
-284.545	317.472	-0.106	-0.200
-283.530	-200.000	-0.033	0.381
-282.516	168.032	-0.160	0.229
-281.501	-17.456	-0.085	0.054
-280.486	161.134	-0.069	-0.097
-279.472	-193.785	0.140	0.001
-278.457	199.528	0.144	-0.221
-277.443	226.095	0.074	-0.121
-276.428	-34.358	-0.204	0.112
-275.413	-65.670	0.320	0.129
-274.399	-177.110	-0.215	0.005
-273.384	-166.259	-0.102	0.004
-272.370	2.207	0.162	-0.117
-271.355	-200.000	-0.011	0.220
-270.340	35.573	-0.107	-0.094
-269.326	-129.800	-0.200	0.028
-268.311	-130.948	0.155	0.021
-267.297	-50.117	-0.140	-0.067
-266.282	-41.638	-0.286	-0.147
-265.267	61.234	-0.136	0.135
-264.253	-84.783	-0.185	0.058
-263.238	-161.844	0.070	-0.004
-262.224	-79.000	-0.045	-0.015
-261.209	-200.000	-0.002	-0.183
-260.195	-68.228	-0.170	0.066
-259.180	-49.641	-0.197	-0.094
-258.165	86.107	-0.136	0.150
-257.151	-82.306	-0.259	-0.084
-256.136	88.957	0.258	-0.287
-255.122	-48.172	-0.331	-0.160
-254.107	492.450	-0.080	0.184
-253.092	-87.867	0.159	0.048
-252.078	-154.168	-0.353	0.024
-251.063	-39.362	0.088	0.046
-250.049	-200.000	-0.009	-0.154
-249.034	326.945	0.071	-0.137
-248.019	156.347	0.180	0.249
-247.005	115.073	0.098	-0.120
-245.990	-200.000	-0.029	-0.137
-244.976	463.532	0.079	-0.177
-243.961	-200.000	-0.006	-0.189
-242.946	-200.000	0.069	-0.370
-241.932	-132.492	0.177	0.023
-240.917	-10.769	-0.183	-0.121
-239.903	253.849	0.054	-0.092
-238.888	-184.009	0.266	0.004
-237.873	61.333	0.282	0.280
-236.859	800.000	-0.088	0.341
-235.844	5.290	-0.107	-0.079
-234.830	-176.190	-0.559	0.015
-233.815	10.707	0.290	0.221
-232.800	-200.000	0.026	-0.339
-231.786	202.110	0.106	-0.163
-230.771	-45.491	0.119	-0.059
-229.757	30.575	0.115	-0.099
-228.742	21.237	-0.143	-0.116
-227.727	10.696	-0.222	-0.169
-226.713	-10.129	-0.086	-0.057
-225.698	93.945	0.150	0.170
-224.684	800.000	0.109	-0.394
-223.669	44.374	0.083	0.076
-222.655	92.600	-0.084	-0.094
-221.640	-200.000	0.036	-0.342
-220.625	-128.805	0.336	0.047
-219.611	416.541	-0.126	0.268
-218.596	760.745	0.019	-0.052
-217.582	-200.000	-0.007	0.267
-216.567	5.334	0.256	-0.189
-215.552	-103.530	0.133	-0.031
-214.538	-59.781	-0.072	0.031
-213.523	800.000	-0.037	0.158
-212.509	-120.849	0.254	-0.043
-211.494	-50.330	0.277	-0.131
-210.479	-200.000	-0.028	0.314
-209.465	-71.532	0.300	-0.112
-208.450	-74.031	-0.113	-0.041
-207.436	160.851	-0.075	0.104
-206.421	34.826	-0.177	0.155
-205.406	-200.000	0.022	-0.287
-204.392	30.599	0.251	-0.214
-203.377	-161.054	0.419	-0.022
-202.363	543.983	0.135	0.322
-201.348	552.966	0.108	-0.259
-200.333	-58.631	-0.308	0.133
-199.319	-1.447	0.173	-0.122
-198.304	63.094	-0.098	-0.098
-197.290	-200.000	0.018	0.232
-196.275	83.448	0.070	0.076
-195.260	-30.835	-0.198	-0.111
-194.246	78.272	-0.144	0.154
-193.231	-18.170	-0.076	-0.047
-192.217	254.454	-0.052	0.088
-191.202	-200.000	-0.021	0.299
-190.187	-49.674	-0.428	-0.203
-189.173	73.927	-0.286	-0.300
-188.158	-167.355	-0.148	0.006
-187.144	62.343	0.068	-0.068
-186.129	-183.869	-0.149	-0.003
-185.114	35.957	-0.132	0.116
-184.100	-200.000	-0.004	0.174
-183.085	-79.214	-0.114	0.039
-182.071	308.833	-0.096	0.178
-181.056	445.686	-0.049	-0.107
-180.042	258.335	0.154	0.265
-179.027	164.643	-0.217	0.306
-178.012	-200.000	-0.007	-0.121
-176.998	-200.000	-0.035	-0.234
-175.983	130.351	-0.187	0.239
-174.969	-118.421	0.159	-0.028
-173.954	-200.000	0.032	0.422
-172.939	-167.990	-0.174	-0.007
-171.925	800.000	0.040	-0.115
-170.910	-200.000	0.007	-0.149
-169.896	-152.573	-0.322	0.023
-168.881	15.848	-0.207	0.163
-167.866	-50.025	-0.221	-0.104
-166.852	-121.348	0.323	-0.054
-165.837	54.327	0.173	0.166
-164.823	-200.000	0.002	-0.046
-163.808	-200.000	0.050	0.274
-162.793	-200.000	-0.010	0.144
-161.779	-200.000	-0.027	-0.218
-160.764	-200.000	0.072	-0.391
-159.750	81.843	-0.045	-0.049
-158.735	-25.551	-0.148	-0.087
-157.720	800.000	0.016	0.063
-156.706	-200.000	0.013	-0.093
-155.691	-122.500	0.170	-0.028
-154.677	-92.217	0.117	0.033
-153.662	-25.280	0.074	-0.044
-152.647	223.319	-0.097	0.156
-151.633	-111.127	0.394	0.081
-150.618	-51.442	0.239	0.111
-149.604	-97.509	0.205	-0.053
-148.589	15.327	0.152	-0.119
-147.574	-1.117	0.431	-0.303
-146.560	63.680	-0.171	-0.171
-145.545	-200.000	0.061	-0.289
-144.531	130.476	-0.099	-0.126
-143.516	-6.258	0.118	0.080
-142.502	81.623	-0.029	-0.031
-141.487	221.258	-0.071	0.114
-140.472	-51.095	0.208	-0.097
-139.458	291.248	0.117	-0.211
-138.443	71.755	-0.293	0.303
-137.429	-200.000	0.014	0.103
-136.414	-166.019	0.428	-0.018
-135.399	-122.135	-0.328	0.054
-134.385	-200.000	-0.043	-0.382
-133.370	-36.551	0.195	-0.105
-132.356	-86.595	-0.212	0.065
-131.341	-107.701	0.140	0.031
-130.326	-153.547	0.206	-0.014
-129.312	194.569	0.148	-0.224
-128.297	-68.792	-0.144	0.055
-127.283	-150.240	0.243	-0.019
-126.268	-132.920	-0.358	-0.045
-125.253	-90.186	-0.151	-0.044
-124.239	-27.688	0.250	0.144
-123.224	-28.622	-0.147	0.084
-122.210	-168.254	-0.038	-0.001
-121.195	156.401	-0.161	-0.221
