DTS Sentinel unit serial number:	SN413079Multiplexer serial number:	ORYXHardware model number:	OX4-SRSoftware version number:	ORYX F/W v4.00 Oryx Data Collector v3.7.2.0data status	okinstallation	princeton_trtdifferential loss correction	single-endedforward channel	channel 2reverse channel	N/Adate	2019/09/16time	23:31:34forward acquisition time	60.00reverse acquisition time	0.00gamma	496.2192k internal	0.2330k external	0.2330temperature offset calibration	0.9972default loss term (dB/km)	0.3790temperature slope calibration	1.0000multiplexer offset coefficient	1.0000multiplexer slope coefficient	1.0000fibre end	0.00T internal ref (°C)	29.87T ext. ref 1 (°C)	0.09T ext. ref 2 (°C)	23.58length (m)	temperature (°C)	Stokes	anti-Stokes-747.200	-200.000	0.041	0.200
-746.185	-91.035	0.366	-0.106
-745.171	-122.334	-0.160	-0.026
-744.156	800.000	-0.059	0.182
-743.142	63.423	0.138	0.140
-742.127	-36.264	-0.028	-0.015
-741.112	-137.497	-0.167	0.019
-740.098	244.947	0.118	0.201
-739.083	20.300	-0.174	0.141
-738.069	103.836	-0.298	0.352
-737.054	417.075	0.146	0.313
-736.039	-56.567	-0.201	-0.090
-735.025	-11.535	0.070	-0.046
-734.010	-45.513	-0.037	-0.019
-732.996	172.908	-0.073	-0.105
-731.981	5.112	-0.149	0.111
-730.966	-132.068	-0.376	0.049
-729.952	38.655	-0.100	-0.089
-728.937	-200.000	0.062	0.381
-727.923	800.000	-0.035	0.144
-726.908	-155.331	-0.493	0.032
-725.894	-87.747	0.258	0.078
-724.879	-117.453	-0.120	-0.022
-723.864	-110.914	-0.156	0.032
-722.850	0.747	-0.083	0.060
-721.835	-189.401	0.274	-0.003
-720.821	-143.483	-0.276	-0.027
-719.806	800.000	-0.033	-0.115
-718.791	-82.579	-0.075	0.024
-717.777	-172.477	-0.148	-0.005
-716.762	270.612	0.092	-0.162
-715.748	197.596	0.064	0.099
-714.733	25.911	-0.245	0.205
-713.718	-31.356	0.227	0.129
-712.704	-82.341	0.303	-0.099
-711.689	403.713	-0.089	-0.188
-710.675	-47.526	0.156	-0.076
-709.660	251.563	0.152	-0.260
-708.645	-2.437	-0.208	-0.147
-707.631	800.000	0.110	0.362
-706.616	10.594	0.268	0.205
-705.602	-121.982	0.225	-0.037
-704.587	36.798	-0.177	0.158
-703.572	358.376	0.052	0.104
-702.558	-200.000	-0.054	-0.405
-701.543	96.651	-0.091	0.105
-700.529	-127.672	-0.282	-0.041
-699.514	-200.000	-0.036	0.214
-698.499	7.388	-0.219	0.165
-697.485	-80.115	0.222	0.075
-696.470	800.000	-0.050	-0.207
-695.456	-75.789	-0.228	0.081
-694.441	-200.000	0.000	0.082
-693.426	-56.979	-0.189	-0.084
-692.412	-200.000	0.014	0.277
-691.397	195.104	0.132	0.202
-690.383	-200.000	0.010	0.085
-689.368	-114.956	-0.166	-0.032
-688.354	213.311	-0.092	-0.146
-687.339	-130.945	0.073	-0.010
-686.324	302.203	-0.126	0.234
-685.310	121.090	0.229	0.286
-684.295	-46.593	-0.144	-0.071
-683.281	8.153	-0.271	-0.205
-682.266	519.864	-0.112	-0.264
-681.251	800.000	0.060	-0.199
-680.237	256.910	0.227	0.392
-679.222	38.246	-0.206	-0.184
-678.208	249.609	-0.097	-0.166
-677.193	-200.000	-0.003	0.385
-676.178	-200.000	0.001	0.064
-675.164	800.000	0.091	-0.322
-674.149	-74.391	-0.077	0.028
-673.135	800.000	-0.099	-0.370
-672.120	800.000	0.049	-0.209
-671.105	-16.723	0.177	-0.112
-670.091	-200.000	-0.107	-0.531
-669.076	-200.000	-0.008	-0.129
-668.062	31.652	0.296	-0.255
-667.047	-200.000	0.017	-0.161
-666.032	103.706	0.208	-0.245
-665.018	-11.996	-0.247	-0.163
-664.003	2.840	-0.099	-0.072
-662.989	30.121	-0.240	0.205
-661.974	47.365	0.215	-0.201
-660.959	800.000	0.054	0.170
-659.945	-76.094	-0.372	0.132
-658.930	220.476	-0.139	0.224
-657.916	41.406	0.048	0.043
-656.901	-36.689	0.158	-0.085
-655.886	189.599	0.064	0.097
-654.872	-183.234	-0.116	-0.002
-653.857	641.316	0.057	0.146
-652.843	-138.964	-0.106	-0.012
-651.828	114.556	0.014	0.017
-650.814	603.239	-0.030	-0.075
-649.799	250.443	-0.044	-0.075
-648.784	158.868	0.053	-0.075
-647.770	-50.099	0.291	0.138
-646.755	171.273	-0.136	0.195
-645.741	-38.074	-0.027	0.015
-644.726	-112.915	0.125	-0.025
-643.711	276.172	0.264	0.471
-642.697	-38.525	-0.325	0.172
-641.682	81.758	0.064	-0.070
-640.668	-99.319	-0.268	-0.068
-639.653	576.280	0.033	0.081
-638.638	-148.452	-0.177	0.015
-637.624	-200.000	0.059	-0.608
-636.609	91.156	0.056	0.063
-635.595	-200.000	-0.028	0.145
-634.580	42.008	-0.114	-0.104
-633.565	800.000	-0.093	-0.258
-632.551	-120.150	-0.374	0.064
-631.536	-52.232	0.306	0.142
-630.522	-42.020	0.307	-0.157
-629.507	-132.516	-0.201	0.026
-628.492	114.851	-0.222	0.272
-627.478	-72.889	-0.115	-0.043
-626.463	-30.532	-0.182	0.103
-625.449	-62.852	-0.272	0.113
-624.434	29.126	-0.020	0.017
-623.419	277.550	0.110	-0.196
-622.405	-200.000	-0.018	0.099
-621.390	227.393	0.158	-0.257
-620.376	-200.000	-0.003	-0.360
-619.361	-111.667	-0.157	-0.032
-618.346	-22.533	-0.092	0.055
-617.332	-84.603	-0.436	0.138
-616.317	-82.468	-0.141	-0.046
-615.303	376.883	-0.049	-0.101
-614.288	459.495	0.070	0.156
-613.273	-200.000	-0.037	-0.260
-612.259	40.381	-0.124	-0.112
-611.244	57.688	0.274	-0.268
-610.230	-83.782	0.257	-0.082
-609.215	322.383	0.073	0.139
-608.201	-110.866	-0.198	0.041
-607.186	-25.883	-0.301	-0.178
-606.171	-67.297	0.198	0.078
-605.157	-88.549	0.290	0.086
-604.142	120.430	-0.031	-0.038
-603.128	92.174	-0.155	0.175
-602.113	2.955	0.091	0.066
-601.098	-52.886	0.167	0.077
-600.084	-8.355	-0.044	0.029
-599.069	800.000	0.031	0.094
-598.055	-200.000	-0.088	0.460
-597.040	800.000	0.066	0.184
-596.025	272.011	0.034	-0.060
-595.011	-200.000	0.024	-0.209
-593.996	251.463	-0.165	-0.282
-592.982	150.812	-0.047	0.064
-591.967	-102.853	0.130	0.031
-590.952	251.655	0.049	-0.084
-589.938	-141.413	-0.225	0.023
-588.923	800.000	-0.080	-0.272
-587.909	-2.775	0.070	-0.049
-586.894	295.709	0.078	0.142
-585.879	800.000	-0.093	-0.321
-584.865	-63.949	0.252	0.103
-583.850	-118.814	-0.229	0.040
-582.836	-200.000	-0.018	-0.223
-581.821	-168.793	0.349	-0.013
-580.806	196.821	0.043	-0.066
-579.792	-47.993	-0.238	-0.115
-578.777	313.516	0.074	0.140
-577.763	800.000	-0.071	-0.215
-576.748	-119.851	-0.094	-0.016
-575.733	224.426	-0.124	0.201
-574.719	48.178	0.103	-0.097
-573.704	174.837	-0.006	0.009
-572.690	192.965	-0.051	-0.077
-571.675	-72.638	0.146	0.054
-570.661	-200.000	0.020	-0.122
-569.646	-116.610	0.106	0.019
-568.631	140.153	-0.147	-0.194
-567.617	-200.000	-0.060	-0.269
-566.602	-31.124	-0.294	-0.166
-565.588	65.565	-0.106	0.107
-564.573	-126.905	-0.377	-0.055
-563.558	18.459	-0.065	0.052
-562.544	-155.589	-0.553	0.036
-561.529	-0.102	0.043	0.031
-560.515	-4.062	-0.226	-0.157
-559.500	764.377	-0.050	-0.136
-558.485	-200.000	0.057	0.437
-557.471	96.161	0.106	0.122
-556.456	149.593	-0.136	-0.184
-555.442	-200.000	0.107	-0.477
-554.427	-200.000	-0.039	-0.188
-553.412	-29.720	0.205	0.117
-552.398	-127.514	-0.548	-0.079
-551.383	-136.827	-0.182	0.021
-550.369	334.385	-0.031	-0.060
-549.354	-1.823	0.129	0.090
-548.339	-69.682	-0.358	-0.137
-547.325	-31.074	-0.289	0.163
-546.310	335.966	-0.065	-0.125
-545.296	313.710	-0.042	0.080
-544.281	-79.453	0.330	-0.112
-543.266	-47.758	0.341	-0.165
-542.252	17.926	-0.127	0.101
-541.237	110.574	0.117	-0.141
-540.223	137.984	0.126	0.165
-539.208	207.312	-0.085	0.132
-538.193	154.652	0.198	0.271
-537.179	497.199	-0.130	-0.300
-536.164	-94.940	-0.276	0.075
-535.150	-74.521	0.076	-0.027
-534.135	800.000	0.055	0.230
-533.121	54.167	-0.266	0.255
-532.106	378.363	0.019	-0.038
-531.091	162.079	-0.192	-0.269
-530.077	-200.000	0.005	-0.215
-529.062	-200.000	-0.016	0.227
-528.048	800.000	0.158	0.476
-527.033	148.338	-0.100	0.134
-526.018	800.000	-0.063	0.214
-525.004	-126.624	-0.112	0.017
-523.989	800.000	-0.119	0.390
-522.975	1.264	-0.272	0.195
-521.960	271.035	-0.077	-0.136
-520.945	-114.088	0.305	-0.059
-519.931	104.486	0.231	0.272
-518.916	-200.000	-0.008	-0.375
-517.902	-114.438	-0.170	0.033
-516.887	292.583	0.112	-0.204
-515.872	433.130	-0.092	-0.200
-514.858	-20.530	0.349	0.214
-513.843	72.557	-0.213	-0.222
-512.829	800.000	0.013	0.041
-511.814	-200.000	-0.023	-0.102
-510.799	-84.838	0.063	-0.020
-509.785	-123.772	-0.096	0.015
-508.770	56.828	0.289	-0.281
-507.756	291.001	-0.122	0.222
-506.741	449.945	-0.133	0.292
-505.726	-200.000	-0.025	-0.424
-504.712	25.355	0.166	-0.137
-503.697	-29.675	0.104	-0.059
-502.683	81.852	-0.071	-0.077
-501.668	800.000	0.047	-0.191
-500.653	56.805	0.088	-0.085
-499.639	246.990	0.234	-0.393
-498.624	125.182	0.063	-0.079
-497.610	-200.000	0.014	0.207
-496.595	-30.578	0.107	0.060
-495.581	527.982	0.118	-0.278
-494.566	117.156	-0.180	0.221
-493.551	-36.899	-0.115	0.061
-492.537	-200.000	0.031	0.181
-491.522	-117.859	0.082	-0.015
-490.508	382.131	0.154	0.316
-489.493	-44.185	0.217	0.109
-488.478	-54.109	-0.192	-0.087
-487.464	182.396	0.279	0.410
-486.449	-90.236	0.073	-0.021
-485.435	800.000	-0.040	0.114
-484.420	-112.664	-0.149	-0.029
-483.405	83.813	-0.250	0.272
-482.391	168.790	-0.106	-0.151
-481.376	800.000	-0.097	0.393
-480.362	-102.300	-0.221	-0.053
-479.347	-136.505	-0.123	0.014
-478.332	-57.801	-0.137	-0.060
-477.318	-175.083	-0.208	-0.006
-476.303	52.731	-0.235	-0.224
-475.289	-143.132	0.153	0.015
-474.274	800.000	-0.080	-0.277
-473.259	-73.771	-0.345	0.125
-472.245	-83.300	-0.142	-0.045
-471.230	178.290	0.227	0.330
-470.216	683.504	0.074	0.191
-469.201	800.000	0.089	0.336
-468.186	-200.000	0.008	-0.214
-467.172	-31.984	-0.098	-0.055
-466.157	-88.874	0.092	-0.027
-465.143	-48.879	0.148	-0.071
-464.128	604.797	0.022	-0.055
-463.113	105.830	0.154	-0.181
-462.099	-200.000	0.001	0.112
-461.084	51.462	-0.163	0.154
-460.070	16.828	0.133	0.105
-459.055	-65.374	0.171	-0.068
-458.040	-45.778	0.327	-0.161
-457.026	-99.868	0.077	-0.019
-456.011	203.565	-0.067	-0.103
-454.997	-62.529	0.048	-0.020
-453.982	-1.657	0.320	-0.225
-452.968	800.000	-0.022	-0.075
-451.953	17.564	-0.204	0.162
-450.938	404.422	0.156	-0.328
-449.924	322.203	0.203	0.385
-448.909	-128.995	0.561	0.078
-447.895	174.621	0.252	0.362
-446.880	285.632	0.108	-0.194
-445.865	-150.584	0.319	-0.024
-444.851	-200.000	0.065	-0.284
-443.836	-200.000	0.014	0.072
-442.822	95.982	-0.075	-0.086
-441.807	-200.000	0.023	-0.118
-440.792	-200.000	-0.056	0.266
-439.778	-16.810	-0.066	-0.042
-438.763	-121.449	-0.230	0.038
-437.749	-71.866	0.123	-0.046
-436.734	-35.874	0.130	0.070
-435.719	-164.225	0.205	0.009
-434.705	800.000	-0.120	-0.348
-433.690	-11.607	0.309	0.202
-432.676	-120.221	0.333	-0.057
-431.661	-30.210	-0.227	0.128
-430.646	77.512	-0.221	-0.234
-429.632	-200.000	-0.041	0.251
-428.617	42.574	-0.262	-0.237
-427.603	-46.727	0.160	-0.078
-426.588	800.000	0.125	0.366
-425.573	4.253	-0.082	0.060
-424.559	428.933	0.145	-0.311
-423.544	-56.830	0.163	-0.072
-422.530	133.571	0.089	0.114
-421.515	362.287	0.073	0.146
-420.500	278.842	0.073	0.129
-419.486	-16.705	-0.516	-0.325
-418.471	0.347	-0.054	-0.038
-417.457	79.029	-0.156	0.166
-416.442	-91.450	-0.199	0.056
-415.428	416.858	0.013	-0.027
-414.413	-117.971	0.111	-0.020
-413.398	222.446	0.205	-0.328
-412.384	800.000	0.049	0.161
-411.369	-200.000	-0.021	-0.187
-410.355	3.803	0.362	0.263
-409.340	55.920	-0.060	-0.058
-408.325	-200.000	-0.036	0.240
-407.311	-200.000	-0.020	0.140
-406.296	177.902	-0.108	0.156
-405.282	-128.987	0.235	-0.033
-404.267	-200.000	-0.046	-0.297
-403.252	-59.037	-0.231	-0.099
-402.238	450.366	0.030	0.065
-401.223	-75.323	0.272	0.096
-400.209	615.628	0.132	0.329
-399.194	800.000	0.023	-0.064
-398.179	-200.000	-0.019	-0.523
-397.165	9.378	-0.215	-0.162
-396.150	382.578	-0.068	-0.138
-395.136	126.714	-0.225	0.283
-394.121	34.563	0.148	0.128
-393.106	690.764	-0.046	-0.121
-392.092	21.465	0.068	-0.055
-391.077	-7.600	-0.061	0.041
-390.063	-22.060	0.130	0.078
-389.048	128.436	0.203	-0.257
-388.033	53.674	0.088	-0.084
-387.019	-200.000	0.037	-0.304
-386.004	-105.337	0.317	-0.072
-384.990	-14.942	-0.051	0.033
-383.975	-10.840	0.347	0.228
-382.960	143.070	0.114	-0.151
-381.946	576.975	-0.057	0.138
-380.931	-27.081	-0.110	-0.064
-379.917	766.057	0.028	0.074
-378.902	800.000	0.017	-0.068
-377.888	-76.685	0.321	-0.112
-376.873	-117.933	-0.292	0.052
-375.858	-50.642	0.172	-0.080
-374.844	-171.424	0.252	0.008
-373.829	-23.066	-0.092	-0.055
-372.815	-200.000	0.027	-0.608
-371.800	-56.299	-0.203	0.089
-370.785	800.000	-0.086	0.250
-369.771	-11.781	0.208	-0.136
-368.756	-80.343	-0.130	0.043
-367.742	-43.035	-0.183	0.092
-366.727	152.748	-0.147	0.200
-365.712	455.458	-0.069	0.152
-364.698	-80.597	0.441	-0.146
-363.683	-123.478	-0.127	-0.020
-362.669	120.215	-0.163	0.201
-361.654	-165.092	0.300	0.013
-360.639	-103.020	0.224	-0.053
-359.625	-200.000	0.068	-0.394
-358.610	145.638	-0.201	-0.267
-357.596	-200.000	-0.062	-0.310
-356.581	-48.582	-0.108	-0.052
-355.566	-14.806	0.275	0.175
-354.552	800.000	0.009	0.034
-353.537	28.766	0.134	-0.113
-352.523	-118.144	0.380	-0.067
-351.508	-130.481	-0.492	-0.066
-350.493	5.888	-0.212	-0.155
-349.479	-125.067	0.131	0.020
-348.464	-148.680	0.024	0.002
-347.450	-130.439	0.302	0.041
-346.435	112.747	-0.094	0.113
-345.420	-53.911	-0.130	-0.059
-344.406	313.661	0.070	-0.130
-343.391	12.289	0.189	0.144
-342.377	173.849	-0.124	-0.178
-341.362	-47.145	0.314	0.152
-340.348	-200.000	0.074	0.481
-339.333	-117.337	-0.274	-0.049
-338.318	-200.000	0.027	0.397
-337.304	-85.989	-0.318	0.097
-336.289	67.175	0.158	-0.159
-335.275	-200.000	-0.010	-0.116
-334.260	141.126	0.137	-0.179
-333.245	-200.000	-0.030	0.220
-332.231	-1.174	0.181	-0.126
-331.216	-70.506	0.274	-0.103
-330.202	111.601	0.009	0.010
-329.187	745.253	-0.080	-0.214
-328.172	461.860	0.145	-0.320
-327.158	-200.000	-0.001	-0.212
-326.143	-0.304	-0.137	0.096
-325.129	10.861	-0.230	-0.174
-324.114	800.000	0.043	-0.154
-323.099	-73.843	0.037	-0.013
-322.085	721.583	-0.037	0.098
-321.070	-147.782	0.254	-0.021
-320.056	61.924	-0.404	-0.398
-319.041	-16.131	-0.452	0.284
-318.026	-20.493	-0.105	-0.064
-317.012	800.000	0.074	0.290
-315.997	-103.662	0.304	0.071
-314.983	150.111	0.042	0.056
-313.968	-30.648	-0.096	0.054
-312.953	-145.569	-0.372	-0.033
-311.939	-127.423	0.229	-0.033
-310.924	-77.511	-0.114	0.039
-309.910	314.537	-0.184	0.344
-308.895	135.945	-0.119	0.153
-307.880	-200.000	-0.023	0.103
-306.866	128.264	-0.045	-0.056
-305.851	-200.000	-0.037	-0.233
-304.837	800.000	0.035	0.117
-303.822	-200.000	-0.017	0.104
-302.807	-89.940	0.255	0.074
-301.793	90.231	0.164	0.182
-300.778	195.365	0.113	-0.171
-299.764	-22.687	0.238	-0.142
-298.749	-125.959	-0.218	0.032
-297.735	-200.000	-0.007	0.108
-296.720	9.573	0.144	0.108
-295.705	106.056	-0.068	0.080
-294.691	159.799	0.110	0.152
-293.676	506.768	-0.150	-0.343
-292.662	192.499	-0.114	-0.170
-291.647	-200.000	-0.020	-0.258
-290.632	-200.000	0.003	-0.119
-289.618	39.465	-0.224	0.199
-288.603	-5.482	0.161	0.110
-287.589	-86.467	-0.218	0.066
-286.574	-8.512	-0.141	-0.094
-285.559	132.753	-0.273	-0.349
-284.545	432.032	-0.091	0.195
-283.530	-175.351	0.163	-0.004
-282.516	-22.644	-0.380	-0.227
-281.501	186.772	-0.141	-0.208
-280.486	-200.000	-0.059	0.371
-279.472	-45.669	-0.074	0.036
-278.457	388.822	0.095	-0.195
-277.443	-96.825	0.236	0.061
-276.428	68.973	0.182	0.185
-275.413	16.181	-0.140	-0.109
-274.399	189.054	-0.056	0.083
-273.384	-109.271	0.300	0.063
-272.370	-186.517	0.167	-0.002
-271.355	159.578	0.162	0.223
-270.340	120.752	-0.170	-0.209
-269.326	79.010	-0.147	0.156
-268.311	-200.000	-0.057	-0.262
-267.297	-94.536	-0.106	-0.029
-266.282	322.409	0.143	-0.269
-265.267	-200.000	-0.012	0.133
-264.253	5.547	0.093	-0.068
-263.238	162.492	-0.160	-0.222
-262.224	800.000	0.048	-0.133
-261.209	-53.180	-0.190	0.086
-260.195	-43.920	0.133	0.066
-259.180	800.000	-0.031	-0.100
-258.165	-96.190	-0.354	-0.093
-257.151	268.791	-0.120	-0.207
-256.136	-200.000	-0.032	-0.196
-255.122	-113.671	-0.354	0.068
-254.107	0.291	-0.305	-0.215
-253.092	517.364	0.137	0.318
-252.078	2.675	-0.181	-0.130
-251.063	-24.016	0.293	0.173
-250.049	502.851	0.157	-0.359
-249.034	-71.374	-0.154	-0.057
-248.019	-200.000	0.044	0.234
-247.005	101.398	0.103	0.119
-245.990	65.934	-0.158	-0.159
-244.976	99.190	0.087	0.099
-243.961	-172.262	0.221	0.007
-242.946	800.000	0.133	0.431
-241.932	-122.207	0.484	-0.078
-240.917	-176.922	-0.102	0.003
-239.903	412.151	0.201	0.422
-238.888	-97.576	0.116	-0.030
-237.873	-115.379	-0.058	-0.011
-236.859	49.736	0.104	-0.097
-235.844	-200.000	-0.008	0.048
-234.830	-55.361	-0.052	0.023
-233.815	-61.557	-0.157	-0.065
-232.800	-17.923	0.052	0.032
-231.786	-39.949	0.210	0.108
-230.771	-15.411	-0.199	-0.126
-229.757	-200.000	-0.047	0.313
-228.742	-86.391	0.276	0.084
-227.727	-84.153	0.072	0.022
-226.713	-6.002	0.147	0.099
-225.698	-68.207	0.074	-0.028
-224.684	-200.000	0.013	0.104
-223.669	-38.458	-0.174	-0.091
-222.655	222.228	-0.148	0.234
-221.640	-200.000	0.018	-0.237
-220.625	172.073	-0.114	-0.162
-219.611	800.000	0.021	0.056
-218.596	-200.000	-0.043	-0.243
-217.582	-200.000	-0.020	-0.203
-216.567	-161.669	0.270	-0.014
-215.552	-114.873	0.173	-0.033
-214.538	800.000	0.054	-0.217
-213.523	-128.766	0.334	-0.046
-212.509	504.633	0.026	-0.060
-211.494	-118.378	-0.092	0.016
-210.479	-200.000	-0.070	0.413
-209.465	681.563	-0.126	0.323
-208.450	192.761	-0.031	0.046
-207.436	36.494	0.287	0.250
-206.421	-200.000	0.014	0.341
-205.406	-31.273	-0.095	0.053
-204.392	-44.672	-0.144	0.071
-203.377	-121.173	-0.207	-0.034
-202.363	727.178	0.083	0.220
-201.348	551.606	0.004	0.008
-200.333	-200.000	-0.017	-0.077
-199.319	246.234	0.106	0.176
-198.304	-130.211	0.111	0.015
-197.290	105.395	0.134	-0.156
-196.275	252.281	-0.196	0.329
-195.260	-93.483	-0.218	0.059
-194.246	304.623	0.123	-0.225
-193.231	197.570	-0.029	-0.044
-192.217	800.000	0.085	-0.250
-191.202	-200.000	-0.007	-0.118
-190.187	-200.000	0.002	-0.132
-189.173	-19.329	-0.256	0.156
-188.158	-167.310	0.104	-0.004
-187.144	148.214	-0.088	-0.118
-186.129	94.416	-0.079	-0.089
-185.114	-200.000	0.013	0.162
-184.100	-200.000	0.012	0.106
-183.085	800.000	0.059	0.177
-182.071	800.000	-0.087	0.294
-181.056	-200.000	-0.010	0.286
-180.042	800.000	-0.032	-0.136
-179.027	514.395	0.120	0.275
-178.012	60.769	0.107	-0.104
-176.998	-140.676	-0.228	-0.023
-175.983	-161.696	0.451	-0.023
-174.969	443.237	-0.044	-0.095
-173.954	46.554	0.091	-0.083
-172.939	1.509	0.072	0.051
-171.925	185.360	0.196	0.287
-170.910	33.958	-0.107	-0.091
-169.896	800.000	0.003	-0.015
-168.881	24.167	-0.132	0.107
-167.866	92.283	0.085	-0.095
-166.852	-70.475	-0.364	0.136
-165.837	-200.000	-0.067	0.309
-164.823	77.131	0.062	0.065
-163.808	95.078	-0.139	-0.156
-162.793	-187.833	-0.128	0.002
-161.779	752.975	0.135	-0.359
-160.764	-87.290	0.390	0.117
-159.750	10.903	0.108	-0.081
-158.735	166.613	0.110	0.153
-157.720	99.261	-0.192	0.218
-156.706	27.056	0.273	-0.225
-155.691	800.000	0.218	0.601
-154.677	-123.803	-0.070	0.011
-153.662	208.967	0.054	0.083
-152.647	-106.542	-0.399	-0.087
-151.633	-200.000	-0.024	0.260
-150.618	154.960	0.234	0.316
-149.604	7.779	-0.224	-0.165
-148.589	-0.045	-0.213	0.149
-147.574	800.000	-0.021	0.086
-146.560	407.362	0.090	0.186
-145.545	-200.000	-0.062	0.269
-144.531	800.000	0.074	-0.277
-143.516	179.525	-0.235	-0.339
-142.502	-58.152	-0.118	-0.051
-141.487	393.583	-0.099	0.203
-140.472	47.834	0.303	0.278
-139.458	233.899	-0.207	0.335
-138.443	89.016	-0.278	0.305
-137.429	162.630	0.194	0.268
-136.414	24.654	-0.099	-0.081
-135.399	9.058	-0.251	0.186
-134.385	3.936	0.185	-0.133
-133.370	-200.000	-0.007	-0.140
-132.356	-159.901	-0.085	-0.005
-131.341	-57.374	-0.097	-0.042
-130.326	-200.000	0.009	0.185
-129.312	-194.740	-0.197	0.002
-128.297	-22.139	-0.080	0.048
-127.283	-98.635	-0.120	0.030
-126.268	-96.259	0.284	0.074
-125.253	-200.000	-0.020	-0.226
-124.239	-105.379	0.019	0.004
-123.224	800.000	-0.074	-0.309
-122.210	-12.993	-0.328	0.210
-121.195	-200.000	0.044	0.415
