DTS Sentinel unit serial number:	SN413079Multiplexer serial number:	ORYXHardware model number:	OX4-SRSoftware version number:	ORYX F/W v4.00 Oryx Data Collector v3.7.2.0data status	okinstallation	princeton_trtdifferential loss correction	single-endedforward channel	channel 2reverse channel	N/Adate	2019/09/11time	01:25:11forward acquisition time	60.00reverse acquisition time	0.00gamma	496.2192k internal	0.2332k external	0.2332temperature offset calibration	0.9941default loss term (dB/km)	0.3790temperature slope calibration	1.0000multiplexer offset coefficient	1.0000multiplexer slope coefficient	1.0000fibre end	0.00T internal ref (°C)	29.12T ext. ref 1 (°C)	-0.30T ext. ref 2 (°C)	23.38length (m)	temperature (°C)	Stokes	anti-Stokes-747.200	-181.263	0.060	0.001
-746.185	-52.919	-0.296	0.137
-745.171	-128.545	0.235	-0.034
-744.156	-200.000	-0.057	0.322
-743.142	-100.492	0.232	0.058
-742.127	29.759	0.234	0.200
-741.112	162.330	0.257	-0.363
-740.098	-200.000	0.011	0.187
-739.083	464.300	-0.076	-0.171
-738.069	296.163	0.072	0.133
-737.054	-200.000	-0.018	-0.205
-736.039	-200.000	0.036	0.248
-735.025	-200.000	-0.004	0.067
-734.010	-200.000	-0.042	0.232
-732.996	259.851	0.147	0.255
-731.981	-200.000	-0.023	-0.418
-730.966	-63.415	0.247	-0.102
-729.952	-200.000	-0.011	-0.189
-728.937	-164.348	-0.284	0.013
-727.923	183.756	-0.182	-0.271
-726.908	140.611	-0.021	-0.028
-725.894	-171.145	0.307	0.010
-724.879	800.000	-0.082	-0.295
-723.864	108.633	0.250	-0.300
-722.850	-6.249	-0.362	0.248
-721.835	5.621	-0.232	-0.172
-720.821	93.320	-0.124	-0.141
-719.806	-133.027	-0.368	-0.047
-718.791	-172.679	-0.160	-0.005
-717.777	83.111	-0.079	-0.086
-716.762	588.811	0.112	-0.276
-715.748	167.089	-0.286	-0.408
-714.733	-49.678	0.155	-0.074
-713.718	63.170	0.291	-0.293
-712.704	800.000	0.045	-0.198
-711.689	80.734	-0.176	0.190
-710.675	-146.061	-0.064	0.006
-709.660	800.000	-0.055	-0.160
-708.645	-121.477	0.503	0.084
-707.631	46.959	0.098	-0.092
-706.616	-137.089	0.093	-0.011
-705.602	120.007	-0.081	-0.101
-704.587	122.346	-0.265	-0.333
-703.572	175.833	-0.214	-0.312
-702.558	-66.985	0.073	0.029
-701.543	800.000	-0.073	0.276
-700.529	-131.355	-0.132	0.018
-699.514	-94.518	0.330	0.090
-698.499	-36.898	0.100	-0.054
-697.485	-24.225	-0.242	-0.145
-696.470	800.000	-0.032	0.094
-695.456	-200.000	0.008	-0.182
-694.441	-200.000	0.044	-0.335
-693.426	0.366	0.204	-0.146
-692.412	-200.000	0.027	0.278
-691.397	262.442	-0.142	-0.248
-690.383	158.316	-0.055	-0.077
-689.368	494.730	0.047	0.107
-688.354	9.371	0.344	-0.261
-687.339	-165.898	-0.061	-0.003
-686.324	-12.281	-0.163	0.107
-685.310	117.772	-0.229	-0.283
-684.295	61.886	-0.201	0.201
-683.281	-58.155	-0.240	-0.105
-682.266	215.559	-0.217	-0.345
-681.251	-200.000	-0.025	0.198
-680.237	-61.878	0.213	-0.089
-679.222	-88.420	-0.093	-0.028
-678.208	800.000	0.069	0.278
-677.193	-49.376	-0.294	-0.141
-676.178	-200.000	-0.009	-0.064
-675.164	-147.552	-0.299	0.025
-674.149	369.688	-0.056	-0.113
-673.135	-200.000	0.008	-0.162
-672.120	-82.646	0.213	-0.069
-671.105	169.567	-0.097	-0.139
-670.091	-84.329	0.270	0.086
-669.076	-200.000	-0.028	-0.122
-668.062	-129.864	-0.187	0.026
-667.047	800.000	0.070	0.203
-666.032	436.632	-0.076	0.165
-665.018	-25.548	-0.384	0.227
-664.003	-161.329	-0.026	-0.001
-662.989	-200.000	-0.014	-0.237
-661.974	-200.000	-0.015	0.115
-660.959	800.000	0.097	-0.279
-659.945	97.471	-0.134	0.154
-658.930	-43.291	-0.077	-0.039
-657.916	138.939	0.140	-0.184
-656.901	178.947	-0.123	0.180
-655.886	-131.247	-0.261	-0.035
-654.872	-200.000	0.023	-0.309
-653.857	-40.227	0.232	0.121
-652.843	-200.000	0.018	0.086
-651.828	491.990	-0.070	0.160
-650.814	-93.136	-0.198	0.055
-649.799	-55.024	-0.078	0.035
-648.784	-13.098	0.197	-0.129
-647.770	-15.931	0.116	-0.074
-646.755	-124.685	-0.181	-0.028
-645.741	-200.000	0.035	0.181
-644.726	106.495	0.116	0.138
-643.711	-139.086	0.246	0.027
-642.697	-195.233	-0.164	0.001
-641.682	800.000	-0.074	0.259
-640.668	-52.171	0.185	0.086
-639.653	-87.732	-0.230	-0.070
-638.638	23.346	0.228	0.187
-637.624	-200.000	-0.051	-0.268
-636.609	2.398	-0.239	-0.174
-635.595	688.988	0.038	-0.098
-634.580	800.000	-0.077	-0.261
-633.565	-132.573	0.145	0.019
-632.551	120.889	-0.181	0.225
-631.536	-200.000	-0.044	0.230
-630.522	77.494	0.106	0.113
-629.507	202.495	0.068	-0.105
-628.492	-200.000	-0.272	0.001
-627.478	-60.198	-0.192	-0.082
-626.463	63.105	-0.121	0.122
-625.449	264.081	-0.169	-0.294
-624.434	-50.722	-0.418	-0.197
-623.419	407.552	0.099	-0.210
-622.405	140.025	0.224	0.295
-621.390	-50.569	0.082	0.039
-620.376	-130.484	0.040	0.005
-619.361	97.120	0.178	-0.204
-618.346	-200.000	-0.017	-0.364
-617.332	800.000	0.074	0.208
-616.317	560.825	-0.149	0.360
-615.303	-111.104	0.162	0.033
-614.288	-172.994	0.160	0.005
-613.273	414.887	-0.075	-0.160
-612.259	-158.638	-0.097	-0.006
-611.244	304.448	0.126	-0.234
-610.230	77.268	-0.104	-0.111
-609.215	-131.532	-0.125	0.016
-608.201	218.808	-0.266	-0.425
-607.186	-128.387	-0.253	-0.036
-606.171	-200.000	-0.002	-0.229
-605.157	354.295	-0.138	-0.275
-604.142	107.102	-0.126	-0.149
-603.128	800.000	0.060	-0.199
-602.113	-52.351	0.230	-0.106
-601.098	-67.126	-0.258	0.102
-600.084	44.755	-0.394	-0.363
-599.069	123.818	0.170	0.213
-598.055	177.177	0.137	0.200
-597.040	-52.889	-0.200	-0.092
-596.025	-126.388	-0.239	-0.036
-595.011	-74.701	-0.294	-0.106
-593.996	800.000	-0.053	0.200
-592.982	-109.821	-0.359	0.075
-591.967	800.000	-0.008	-0.026
-590.952	-64.794	-0.216	-0.087
-589.938	-200.000	-0.005	0.204
-588.923	242.886	0.110	0.184
-587.909	22.146	0.052	-0.043
-586.894	-200.000	-0.001	-0.228
-585.879	-90.152	0.306	0.089
-584.865	-114.146	-0.224	0.043
-583.850	-200.000	-0.039	-0.254
-582.836	445.434	0.153	0.336
-581.821	3.634	0.085	0.062
-580.806	-164.793	0.135	-0.006
-579.792	-87.866	0.334	-0.100
-578.777	-105.522	0.062	0.014
-577.763	-31.410	-0.363	0.204
-576.748	84.045	0.180	-0.196
-575.733	167.179	-0.092	-0.131
-574.719	-200.000	-0.005	-0.034
-573.704	33.093	-0.212	-0.184
-572.690	-84.523	-0.137	0.043
-571.675	-64.452	0.159	0.065
-570.661	-200.000	-0.021	0.397
-569.646	362.762	-0.145	-0.291
-568.631	140.511	0.065	0.086
-567.617	800.000	-0.041	0.129
-566.602	183.039	0.081	-0.119
-565.588	-120.905	0.231	-0.039
-564.573	-13.634	-0.281	0.182
-563.558	-43.962	0.239	-0.120
-562.544	-99.868	0.175	-0.044
-561.529	93.445	0.135	-0.152
-560.515	63.185	0.163	-0.163
-559.500	-200.000	0.004	0.054
-558.485	-43.060	0.304	0.154
-557.471	800.000	0.070	0.229
-556.456	-127.224	-0.248	0.036
-555.442	-87.368	0.013	0.004
-554.427	-200.000	-0.009	-0.227
-553.412	-200.000	0.167	0.000
-552.398	800.000	-0.028	-0.079
-551.383	-81.685	-0.111	-0.036
-550.369	-40.026	0.046	-0.024
-549.354	-200.000	0.057	-0.353
-548.339	24.877	-0.157	-0.130
-547.325	24.310	-0.191	-0.157
-546.310	428.708	0.018	0.039
-545.296	260.151	-0.157	0.271
-544.281	-200.000	-0.007	0.034
-543.266	-200.000	0.020	0.297
-542.252	71.054	-0.098	-0.102
-541.237	-200.000	-0.004	0.264
-540.223	-97.309	-0.337	0.088
-539.208	800.000	-0.006	0.023
-538.193	-50.149	-0.218	0.103
-537.179	85.891	0.164	-0.181
-536.164	37.035	-0.128	-0.113
-535.150	29.051	-0.242	-0.205
-534.135	207.721	0.008	0.012
-533.121	-69.156	0.262	0.100
-532.106	54.817	-0.032	-0.031
-531.091	800.000	-0.014	-0.053
-530.077	-126.643	0.131	-0.019
-529.062	-200.000	-0.038	-0.178
-528.048	-200.000	0.005	0.191
-527.033	-58.408	0.306	0.133
-526.018	-119.840	0.197	0.034
-525.004	491.754	0.086	-0.196
-523.989	136.892	0.154	0.201
-522.975	-66.074	0.311	0.124
-521.960	254.330	-0.171	-0.292
-520.945	1.520	-0.190	0.136
-519.931	154.474	0.084	-0.115
-518.916	358.929	0.066	0.131
-517.902	285.097	0.095	-0.170
-516.887	436.612	0.056	-0.122
-515.872	-144.524	0.341	0.031
-514.858	-200.000	-0.007	0.036
-513.843	-3.674	-0.041	-0.028
-512.829	178.751	0.135	-0.196
-511.814	191.996	0.095	-0.142
-510.799	800.000	0.015	-0.050
-509.785	-200.000	-0.008	0.043
-508.770	258.536	0.177	-0.305
-507.756	-127.395	0.194	-0.028
-506.741	369.262	0.208	-0.420
-505.726	-200.000	-0.010	-0.129
-504.712	-35.948	0.078	-0.042
-503.697	800.000	0.048	0.188
-502.683	242.344	-0.117	-0.196
-501.668	800.000	0.038	0.128
-500.653	-38.938	-0.131	0.069
-499.639	800.000	-0.011	-0.033
-498.624	-200.000	0.006	0.033
-497.610	530.964	-0.091	-0.214
-496.595	-80.761	-0.212	0.070
-495.581	-43.835	0.159	0.080
-494.566	211.337	0.125	0.196
-493.551	73.176	0.352	-0.367
-492.537	60.591	0.063	-0.062
-491.522	42.928	0.126	0.114
-490.508	-200.000	0.016	-0.454
-489.493	-200.000	0.010	-0.198
-488.478	-20.990	0.227	0.138
-487.464	-87.500	-0.146	-0.044
-486.449	40.348	-0.401	-0.359
-485.435	-158.001	0.101	0.006
-484.420	-84.595	-0.214	0.067
-483.405	-200.000	0.010	-0.075
-482.391	-200.000	-0.117	-0.001
-481.376	422.029	-0.107	-0.229
-480.362	57.021	0.075	0.073
-479.347	321.751	0.156	0.295
-478.332	-143.221	-0.223	-0.021
-477.318	-6.380	-0.092	0.063
-476.303	-100.601	0.506	0.124
-475.289	93.538	-0.235	-0.265
-474.274	39.081	0.132	0.118
-473.259	-147.921	-0.166	0.014
-472.245	273.692	0.191	-0.336
-471.230	-12.876	0.030	-0.019
-470.216	326.843	0.153	-0.292
-469.201	-200.000	-0.044	-0.532
-468.186	-40.319	0.208	0.108
-467.172	128.898	-0.134	-0.171
-466.157	509.353	0.057	0.131
-465.143	-200.000	0.025	-0.377
-464.128	701.962	0.045	-0.119
-463.113	27.518	0.323	-0.270
-462.099	160.681	-0.132	-0.184
-461.084	-144.799	-0.117	-0.011
-460.070	-200.000	-0.019	0.126
-459.055	-90.302	-0.115	-0.033
-458.040	-63.153	0.175	0.072
-457.026	14.233	-0.308	0.238
-456.011	-69.149	0.071	-0.027
-454.997	26.673	-0.079	-0.066
-453.982	-124.043	-0.215	0.034
-452.968	-3.377	-0.191	0.132
-451.953	800.000	0.165	-0.629
-450.938	-32.572	-0.153	0.085
-449.924	-66.429	-0.062	-0.024
-448.909	800.000	-0.039	0.139
-447.895	-147.525	0.065	-0.005
-446.880	65.899	-0.195	-0.197
-445.865	-163.471	0.271	0.013
-444.851	302.993	-0.134	0.246
-443.836	521.300	0.070	0.164
-442.822	53.271	-0.153	0.146
-441.807	-110.340	0.163	-0.034
-440.792	-200.000	-0.097	0.576
-439.778	-200.000	0.032	-0.196
-438.763	-87.868	0.333	0.100
-437.749	-200.000	-0.061	0.332
-436.734	95.137	0.097	0.109
-435.719	-200.000	-0.023	0.165
-434.705	-41.342	-0.116	-0.059
-433.690	-126.268	-0.213	-0.032
-432.676	-164.580	0.138	0.006
-431.661	800.000	0.064	0.191
-430.646	800.000	0.069	0.252
-429.632	283.448	-0.045	-0.081
-428.617	800.000	-0.042	-0.185
-427.603	-78.940	0.008	-0.003
-426.588	-84.658	0.430	0.135
-425.573	-150.724	-0.337	-0.025
-424.559	800.000	0.110	-0.467
-423.544	105.781	0.215	-0.252
-422.530	-15.162	-0.243	0.155
-421.515	23.014	-0.245	-0.200
-420.500	101.383	0.083	0.096
-419.486	-200.000	-0.011	-0.345
-418.471	142.220	0.143	0.189
-417.457	-200.000	-0.040	0.510
-416.442	405.455	0.096	0.201
-415.428	574.005	0.042	0.101
-414.413	452.854	-0.065	-0.142
-413.398	-200.000	-0.047	0.230
-412.384	-139.450	-0.036	0.004
-411.369	311.350	0.083	-0.155
-410.355	-200.000	0.040	-0.180
-409.340	-89.538	0.097	-0.028
-408.325	7.042	-0.218	0.161
-407.311	800.000	-0.030	-0.096
-406.296	-25.210	-0.184	0.108
-405.282	-200.000	0.034	0.391
-404.267	-153.882	0.201	-0.014
-403.252	35.929	0.151	0.132
-402.238	800.000	-0.070	-0.196
-401.223	-134.751	-0.320	0.039
-400.209	-36.217	-0.208	-0.111
-399.194	-200.000	0.013	0.068
-398.179	-59.286	-0.060	0.026
-397.165	464.873	0.154	0.342
-396.150	-200.000	-0.008	-0.321
-395.136	34.079	-0.247	-0.213
-394.121	-200.000	0.026	-0.301
-393.106	393.109	-0.156	0.321
-392.092	326.999	-0.218	-0.414
-391.077	-121.967	-0.207	0.034
-390.063	-76.544	0.399	-0.139
-389.048	-125.538	-0.315	0.048
-388.033	-3.879	0.161	-0.111
-387.019	10.122	-0.040	-0.031
-386.004	-131.738	0.301	0.039
-384.990	-52.365	-0.259	-0.119
-383.975	-167.538	0.296	0.012
-382.960	-90.472	-0.197	-0.057
-381.946	109.042	-0.309	-0.366
-380.931	-100.127	-0.294	0.073
-379.917	-200.000	-0.044	0.268
-378.902	289.883	0.141	-0.253
-377.888	-200.000	-0.006	-0.136
-376.873	151.043	0.051	-0.069
-375.858	-200.000	0.012	0.135
-374.844	300.062	-0.175	0.319
-373.829	-88.197	-0.156	0.046
-372.815	62.125	0.053	0.052
-371.800	77.103	-0.092	0.096
-370.785	-47.899	-0.249	-0.119
-369.771	-27.388	-0.306	0.177
-368.756	78.325	0.209	-0.221
-367.742	-42.153	0.131	0.066
-366.727	-20.136	-0.185	-0.113
-365.712	146.168	-0.030	0.040
-364.698	692.963	-0.138	-0.359
-363.683	52.496	0.080	-0.076
-362.669	800.000	0.071	-0.308
-361.654	14.905	-0.176	-0.137
-360.639	322.555	0.226	0.427
-359.625	-200.000	-0.010	-0.237
-358.610	290.331	-0.080	0.144
-357.596	300.931	-0.093	0.170
-356.581	377.643	-0.222	-0.450
-355.566	305.683	0.098	-0.180
-354.552	-200.000	0.003	-0.196
-353.537	165.447	0.109	0.152
-352.523	191.920	-0.202	0.302
-351.508	70.679	0.107	0.109
-350.493	-52.385	-0.201	-0.092
-349.479	76.560	-0.168	0.177
-348.464	-102.629	0.331	0.078
-347.450	-178.710	0.085	0.002
-346.435	524.037	0.052	-0.121
-345.420	-176.774	0.195	0.005
-344.406	-22.672	-0.175	0.105
-343.391	29.086	0.156	0.131
-342.377	-72.645	-0.268	-0.098
-341.362	-124.625	0.135	-0.021
-340.348	-58.823	0.311	-0.133
-339.333	285.138	-0.184	0.328
-338.318	-16.199	0.163	-0.103
-337.304	-56.551	0.132	0.058
-336.289	-200.000	-0.006	-0.096
-335.275	63.916	-0.094	0.093
-334.260	20.013	-0.171	-0.137
-333.245	-55.415	0.171	0.076
-332.231	800.000	0.020	0.057
-331.216	293.268	0.089	0.162
-330.202	46.224	0.268	-0.246
-329.187	-101.959	-0.114	0.027
-328.172	56.880	0.289	-0.278
-327.158	10.844	-0.164	0.124
-326.143	-200.000	-0.005	0.023
-325.129	167.236	-0.064	-0.089
-324.114	-41.111	0.118	0.060
-323.099	-200.000	0.017	-0.137
-322.085	23.080	-0.146	-0.119
-321.070	178.178	0.111	0.160
-320.056	-31.569	0.287	0.160
-319.041	-99.465	-0.087	-0.022
-318.026	450.003	0.188	-0.410
-317.012	-170.482	-0.138	0.005
-315.997	698.005	0.078	0.204
-314.983	-57.831	0.202	0.088
-313.968	34.017	-0.241	0.207
-312.953	800.000	-0.025	-0.096
-311.939	-85.062	0.070	0.022
-310.924	-1.621	-0.253	0.176
-309.910	-163.426	-0.188	-0.009
-308.895	-200.000	0.004	-0.140
-307.880	62.998	0.242	0.239
-306.866	-200.000	-0.005	-0.077
-305.851	393.872	-0.049	0.102
-304.837	-126.315	0.247	0.036
-303.822	78.238	-0.083	-0.087
-302.807	-108.513	0.287	-0.061
-301.793	-62.930	-0.124	0.051
-300.778	-29.607	-0.240	0.135
-299.764	301.948	-0.099	0.182
-298.749	800.000	-0.118	0.345
-297.735	800.000	0.055	0.206
-296.720	-150.477	0.033	0.003
-295.705	22.119	0.269	0.217
-294.691	800.000	-0.037	-0.141
-293.676	296.957	0.102	0.185
-292.662	27.219	-0.261	-0.217
-291.647	800.000	-0.008	0.027
-290.632	-144.182	-0.263	0.024
-289.618	800.000	-0.012	-0.038
-288.603	-14.955	-0.164	-0.104
-287.589	-200.000	0.015	0.230
-286.574	15.681	0.347	0.269
-285.559	158.920	0.228	0.313
-284.545	467.836	0.045	0.101
-283.530	-200.000	-0.002	0.098
-282.516	-200.000	-0.010	0.275
-281.501	-51.202	-0.304	-0.141
-280.486	800.000	-0.041	0.177
-279.472	-200.000	-0.045	-0.301
-278.457	172.848	0.096	0.136
-277.443	-200.000	-0.052	0.673
-276.428	-200.000	0.043	-0.277
-275.413	-78.479	0.328	0.111
-274.399	-112.608	-0.308	0.061
-273.384	800.000	0.053	-0.156
-272.370	-0.945	-0.272	0.190
-271.355	355.925	-0.093	0.183
-270.340	-200.000	-0.062	0.393
-269.326	-103.930	-0.465	0.107
-268.311	-200.000	0.034	0.264
-267.297	69.944	0.123	-0.125
-266.282	800.000	-0.055	-0.217
-265.267	28.832	0.316	0.264
-264.253	15.669	0.032	0.025
-263.238	-200.000	0.020	-0.119
-262.224	-200.000	0.078	-0.409
-261.209	-113.654	0.133	0.026
-260.195	800.000	0.018	-0.055
-259.180	85.781	-0.117	0.127
-258.165	46.526	0.071	-0.065
-257.151	-55.422	-0.127	-0.056
-256.136	5.719	-0.468	-0.341
-255.122	81.154	0.084	0.089
-254.107	-200.000	0.011	0.238
-253.092	-122.338	-0.153	0.025
-252.078	-115.191	0.074	0.014
-251.063	800.000	0.087	-0.273
-250.049	173.819	-0.102	-0.145
-249.034	394.093	-0.088	0.181
-248.019	-3.572	-0.084	0.058
-247.005	-54.358	0.070	-0.032
-245.990	304.598	-0.114	0.209
-244.976	319.622	-0.125	0.234
-243.961	223.702	0.046	-0.073
-242.946	-200.000	0.042	0.397
-241.932	-200.000	-0.006	0.252
-240.917	28.077	-0.116	0.097
-239.903	30.791	0.144	0.122
-238.888	-144.858	0.065	0.006
-237.873	-53.930	-0.065	-0.029
-236.859	55.261	-0.207	0.197
-235.844	-200.000	-0.030	0.196
-234.830	-46.168	0.356	-0.173
-233.815	95.122	-0.084	0.095
-232.800	40.513	0.257	0.228
-231.786	163.697	-0.104	0.144
-230.771	137.685	0.057	-0.074
-229.757	-123.588	0.367	-0.057
-228.742	7.760	0.274	0.203
-227.727	26.951	0.173	-0.143
-226.713	-200.000	0.002	-0.009
-225.698	-200.000	0.012	-0.228
-224.684	604.040	-0.097	0.238
-223.669	82.555	0.055	-0.059
-222.655	-25.364	-0.152	-0.088
-221.640	143.386	-0.055	-0.072
-220.625	-200.000	0.007	-0.343
-219.611	29.453	0.222	0.186
-218.596	255.063	0.126	-0.212
-217.582	-200.000	0.035	0.227
-216.567	-200.000	-0.010	-0.206
-215.552	-200.000	0.005	-0.049
-214.538	-61.651	-0.162	-0.067
-213.523	-133.590	-0.061	-0.008
-212.509	48.666	0.166	-0.154
-211.494	-109.300	0.139	-0.029
-210.479	289.225	-0.023	-0.041
-209.465	44.344	-0.219	-0.198
-208.450	8.584	-0.163	-0.121
-207.436	-200.000	0.009	-0.100
-206.421	-107.898	-0.304	-0.065
-205.406	-200.000	-0.007	0.133
-204.392	36.781	-0.342	0.297
-203.377	97.119	0.147	-0.166
-202.363	-10.207	0.133	0.087
-201.348	39.918	0.255	0.226
-200.333	-200.000	0.005	-0.056
-199.319	-200.000	0.043	-0.267
-198.304	227.598	0.108	-0.172
-197.290	-158.845	0.317	0.018
-196.275	46.453	-0.110	-0.100
-195.260	128.651	0.131	-0.164
-194.246	-101.113	-0.203	0.049
-193.231	111.531	-0.114	-0.135
-192.217	-90.993	0.166	0.047
-191.202	-117.528	0.026	-0.005
-190.187	276.703	-0.043	-0.074
-189.173	-200.000	0.027	0.191
-188.158	87.519	-0.125	0.136
-187.144	800.000	-0.021	-0.084
-186.129	-40.018	0.218	-0.112
-185.114	-200.000	-0.002	-0.253
-184.100	-69.320	0.249	0.094
-183.085	79.855	0.067	0.071
-182.071	1.551	-0.107	0.076
-181.056	-175.465	0.204	-0.005
-180.042	-200.000	0.031	0.173
-179.027	-177.986	-0.083	0.002
-178.012	-92.184	0.021	-0.006
-176.998	-200.000	-0.036	0.390
-175.983	4.260	-0.157	0.113
-174.969	-39.476	-0.214	0.110
-173.954	135.673	-0.146	-0.187
-172.939	70.861	0.080	0.081
-171.925	-32.695	0.267	0.146
-170.910	798.231	-0.073	0.199
-169.896	284.571	-0.196	-0.348
-168.881	-24.963	0.230	0.134
-167.866	-200.000	0.044	0.534
-166.852	-169.869	0.281	-0.010
-165.837	-71.879	-0.267	0.098
-164.823	64.563	0.276	0.274
-163.808	-53.663	0.081	0.037
-162.793	-25.413	0.233	-0.136
-161.779	-169.676	0.293	0.010
-160.764	-102.954	0.207	0.048
-159.750	-200.000	-0.011	-0.166
-158.735	105.480	0.088	0.102
-157.720	380.119	0.208	0.419
-156.706	-152.597	-0.306	0.022
-155.691	-100.656	-0.035	-0.009
-154.677	127.513	-0.164	0.204
-153.662	-200.000	0.045	0.459
-152.647	-200.000	-0.008	-0.214
-151.633	35.930	0.166	-0.144
-150.618	66.635	0.017	-0.017
-149.604	-48.442	-0.219	0.104
-148.589	19.329	0.167	0.132
-147.574	800.000	-0.026	0.102
-146.560	800.000	-0.073	-0.310
-145.545	219.881	-0.106	-0.168
-144.531	-50.419	-0.317	-0.147
-143.516	-113.967	0.240	0.046
-142.502	-200.000	0.299	0.000
-141.487	-159.353	-0.449	0.025
-140.472	-200.000	-0.015	0.295
-139.458	-164.719	-0.116	-0.005
-138.443	78.361	-0.156	-0.164
-137.429	84.964	0.286	-0.308
-136.414	16.559	-0.158	0.123
-135.399	-200.000	0.002	0.231
-134.385	31.516	0.037	0.031
-133.370	294.601	-0.134	0.240
-132.356	-32.046	-0.230	0.127
-131.341	315.438	-0.074	-0.137
-130.326	800.000	0.025	-0.082
-129.312	114.461	0.079	-0.094
-128.297	-200.000	-0.010	-0.214
-127.283	318.554	0.068	-0.126
-126.268	-128.836	0.102	0.014
-125.253	-72.790	-0.074	0.027
-124.239	-33.800	0.303	0.164
-123.224	-200.000	0.019	-0.135
-122.210	81.858	0.155	0.165
