DTS Sentinel unit serial number:	SN413079Multiplexer serial number:	ORYXHardware model number:	OX4-SRSoftware version number:	ORYX F/W v4.00 Oryx Data Collector v3.7.2.0data status	okinstallation	princeton_trtdifferential loss correction	single-endedforward channel	channel 2reverse channel	N/Adate	2019/09/14time	21:39:35forward acquisition time	60.00reverse acquisition time	0.00gamma	496.2192k internal	0.2323k external	0.2323temperature offset calibration	1.0070default loss term (dB/km)	0.3790temperature slope calibration	1.0000multiplexer offset coefficient	1.0000multiplexer slope coefficient	1.0000fibre end	0.00T internal ref (°C)	32.81T ext. ref 1 (°C)	4.76T ext. ref 2 (°C)	27.75length (m)	temperature (°C)	Stokes	anti-Stokes-747.200	-102.278	0.025	0.006
-746.185	800.000	0.035	-0.102
-745.171	800.000	0.094	-0.315
-744.156	-116.487	0.305	0.057
-743.142	117.275	-0.110	-0.136
-742.127	-150.532	-0.294	-0.023
-741.112	5.245	0.048	-0.035
-740.098	41.928	0.216	0.198
-739.083	800.000	0.105	0.353
-738.069	-83.156	0.357	-0.116
-737.054	-107.633	0.082	-0.018
-736.039	-200.000	-0.016	0.261
-735.025	-143.767	0.339	-0.032
-734.010	-94.522	-0.170	-0.047
-732.996	127.180	0.041	-0.052
-731.981	4.793	0.138	-0.102
-730.966	-1.363	-0.202	-0.144
-729.952	-126.738	-0.388	0.058
-728.937	-200.000	0.027	-0.126
-727.923	-66.867	-0.143	0.057
-726.908	-66.660	-0.191	-0.076
-725.894	75.709	-0.110	0.117
-724.879	27.051	0.085	-0.072
-723.864	34.242	0.136	-0.119
-722.850	181.222	-0.018	-0.026
-721.835	-200.000	-0.002	0.129
-720.821	-24.060	-0.236	0.142
-719.806	623.429	-0.086	0.219
-718.791	-10.914	-0.076	0.051
-717.777	-61.191	0.245	0.104
-716.762	-200.000	0.070	0.321
-715.748	-52.469	-0.253	0.118
-714.733	-56.067	-0.235	0.106
-713.718	800.000	-0.095	-0.287
-712.704	-96.883	-0.063	-0.017
-711.689	-103.215	-0.176	-0.042
-710.675	183.601	-0.083	-0.123
-709.660	-200.000	-0.023	0.341
-708.645	63.469	-0.316	0.320
-707.631	800.000	-0.054	0.180
-706.616	-146.005	-0.397	-0.035
-705.602	183.298	-0.172	0.257
-704.587	39.220	0.221	-0.200
-703.572	-95.260	-0.290	0.079
-702.558	-128.191	0.172	-0.025
-701.543	-28.429	-0.130	0.075
-700.529	-111.640	0.308	0.063
-699.514	-200.000	0.005	0.037
-698.499	-56.655	0.141	0.063
-697.485	-200.000	0.026	0.224
-696.470	-49.904	0.111	-0.053
-695.456	-200.000	-0.110	0.642
-694.441	-116.604	0.335	0.062
-693.426	-145.695	-0.326	0.029
-692.412	-64.592	-0.103	0.042
-691.397	-200.000	0.007	0.066
-690.383	-83.235	-0.450	0.146
-689.368	-200.000	0.009	0.141
-688.354	96.371	-0.146	-0.168
-687.339	239.123	-0.113	-0.190
-686.324	-200.000	0.069	-0.332
-685.310	800.000	-0.039	-0.109
-684.295	129.332	-0.186	0.240
-683.281	490.060	-0.211	0.487
-682.266	800.000	-0.121	-0.461
-681.251	146.053	0.142	-0.191
-680.237	-192.656	-0.390	0.004
-679.222	-200.000	-0.017	0.315
-678.208	-164.714	-0.197	0.009
-677.193	-200.000	0.029	0.166
-676.178	-127.101	0.336	-0.050
-675.164	800.000	-0.073	0.278
-674.149	-200.000	-0.028	-0.256
-673.135	-49.595	-0.321	-0.154
-672.120	800.000	-0.070	0.273
-671.105	644.488	0.071	0.183
-670.091	191.914	-0.054	-0.082
-669.076	87.617	-0.051	-0.057
-668.062	145.764	-0.127	-0.171
-667.047	800.000	0.087	0.277
-666.032	305.428	0.026	0.049
-665.018	-200.000	-0.013	-0.070
-664.003	-200.000	0.019	0.402
-662.989	-4.573	-0.281	-0.196
-661.974	-122.127	-0.221	-0.036
-660.959	32.919	0.228	-0.198
-659.945	62.332	-0.248	0.249
-658.930	-50.125	0.256	0.122
-657.916	62.029	-0.309	0.310
-656.901	20.810	0.280	0.228
-655.886	108.734	-0.265	0.318
-654.872	-111.509	0.261	-0.053
-653.857	150.654	0.142	-0.194
-652.843	-200.000	0.126	-0.557
-651.828	800.000	0.014	-0.055
-650.814	-151.743	0.290	0.021
-649.799	-144.130	0.272	0.026
-648.784	-55.957	-0.384	0.172
-647.770	-158.364	0.136	0.008
-646.755	163.313	-0.179	-0.254
-645.741	-100.684	-0.095	0.023
-644.726	-200.000	-0.007	0.394
-643.711	800.000	-0.055	-0.219
-642.697	364.473	0.186	-0.377
-641.682	51.772	0.124	-0.119
-640.668	-37.312	-0.073	-0.039
-639.653	72.881	0.171	0.179
-638.638	-116.639	0.128	0.024
-637.624	-68.937	-0.219	-0.085
-636.609	156.074	0.204	0.283
-635.595	-200.000	0.148	-0.001
-634.580	-109.714	-0.317	0.067
-633.565	-129.867	-0.108	0.015
-632.551	-105.427	-0.197	-0.045
-631.536	-174.919	-0.482	-0.014
-630.522	120.322	0.091	-0.114
-629.507	-92.126	-0.286	0.081
-628.492	73.277	-0.123	0.130
-627.478	11.491	-0.167	-0.128
-626.463	79.867	-0.093	0.100
-625.449	3.510	-0.096	-0.070
-624.434	-150.042	0.244	0.019
-623.419	-35.379	-0.108	-0.059
-622.405	-106.494	-0.314	-0.071
-621.390	20.272	0.263	-0.213
-620.376	800.000	-0.036	0.154
-619.361	-95.525	0.476	0.128
-618.346	800.000	0.036	-0.150
-617.332	-200.000	-0.018	0.122
-616.317	-200.000	-0.048	-0.219
-615.303	-200.000	0.018	0.100
-614.288	-85.626	-0.260	-0.081
-613.273	296.834	-0.023	-0.042
-612.259	378.860	0.092	-0.189
-611.244	800.000	-0.095	0.310
-610.230	23.257	0.142	-0.118
-609.215	18.157	-0.260	-0.208
-608.201	124.637	-0.277	0.350
-607.186	124.503	-0.253	0.319
-606.171	-200.000	-0.035	-0.161
-605.157	23.721	0.286	-0.236
-604.142	-78.204	-0.398	0.137
-603.128	-44.481	-0.198	0.099
-602.113	-136.375	-0.321	-0.038
-601.098	22.569	-0.084	0.069
-600.084	166.680	-0.097	-0.138
-599.069	34.371	0.278	-0.244
-598.055	103.055	-0.079	-0.093
-597.040	800.000	-0.046	0.169
-596.025	72.680	0.204	0.214
-595.011	-100.687	0.078	0.019
-593.996	645.598	0.098	0.251
-592.982	381.886	-0.021	-0.043
-591.967	800.000	0.052	0.158
-590.952	-200.000	0.045	0.261
-589.938	-59.503	0.623	-0.268
-588.923	-41.081	0.213	-0.110
-587.909	-200.000	0.006	0.076
-586.894	-10.555	0.242	-0.161
-585.879	-60.929	-0.301	-0.128
-584.865	583.442	0.128	-0.316
-583.850	-35.669	-0.093	0.051
-582.836	-200.000	-0.003	0.156
-581.821	-94.778	-0.052	-0.014
-580.806	-60.351	-0.315	-0.134
-579.792	58.807	0.221	-0.218
-578.777	800.000	-0.040	-0.138
-577.763	-92.191	0.368	-0.104
-576.748	800.000	0.090	0.339
-575.733	97.069	-0.156	-0.180
-574.719	66.231	0.158	0.161
-573.704	-76.193	-0.201	-0.071
-572.690	-200.000	-0.014	-0.157
-571.675	-200.000	-0.019	0.093
-570.661	388.391	0.053	0.111
-569.646	-200.000	-0.050	-0.337
-568.631	-200.000	0.006	-0.422
-567.617	-138.519	-0.377	-0.042
-566.602	-10.200	0.103	0.069
-565.588	-10.341	0.160	0.106
-564.573	45.821	-0.222	0.206
-563.558	160.467	-0.117	-0.164
-562.544	95.498	-0.057	0.065
-561.529	-11.042	0.197	0.130
-560.515	50.172	0.084	0.080
-559.500	800.000	-0.104	0.305
-558.485	-25.741	0.086	-0.051
-557.471	-200.000	-0.004	0.110
-556.456	800.000	-0.044	0.140
-555.442	-200.000	0.065	0.293
-554.427	-200.000	0.002	-0.077
-553.412	448.571	0.107	-0.236
-552.398	-27.112	0.036	-0.021
-551.383	-200.000	-0.010	0.088
-550.369	9.059	-0.414	-0.313
-549.354	-87.278	0.302	0.092
-548.339	-97.484	-0.042	-0.011
-547.325	-109.073	-0.226	-0.048
-546.310	18.421	0.139	0.111
-545.296	-200.000	-0.032	0.148
-544.281	16.282	-0.255	-0.201
-543.266	200.072	-0.118	-0.182
-542.252	-170.403	-0.121	-0.004
-541.237	-54.021	-0.292	-0.133
-540.223	169.836	0.228	-0.327
-539.208	283.284	-0.107	-0.192
-538.193	48.414	0.187	-0.175
-537.179	-200.000	-0.046	-0.279
-536.164	-146.248	-0.181	0.016
-535.150	-20.119	-0.236	0.146
-534.135	800.000	0.010	-0.035
-533.121	-26.075	0.145	-0.085
-532.106	77.376	-0.104	0.111
-531.091	-105.655	-0.291	0.066
-530.077	-200.000	-0.024	0.414
-529.062	29.980	0.146	-0.124
-528.048	-200.000	-0.005	-0.125
-527.033	-66.415	0.166	-0.066
-526.018	-200.000	0.041	0.197
-525.004	325.474	-0.082	-0.158
-523.989	-42.710	-0.147	0.075
-522.975	79.599	-0.163	0.175
-521.960	317.761	0.091	0.172
-520.945	17.723	-0.236	0.188
-519.931	-51.740	-0.095	-0.044
-518.916	-200.000	-0.003	-0.094
-517.902	314.667	-0.135	0.255
-516.887	-52.952	0.028	0.013
-515.872	-2.983	-0.259	-0.181
-514.858	-200.000	0.028	-0.380
-513.843	800.000	0.036	0.105
-512.829	-91.097	0.176	0.051
-511.814	-200.000	0.021	0.196
-510.799	-1.846	0.031	0.022
-509.785	-2.839	-0.341	-0.239
-508.770	-200.000	0.064	0.330
-507.756	377.349	-0.046	-0.094
-506.741	-200.000	-0.082	0.449
-505.726	652.934	0.130	-0.334
-504.712	-121.277	-0.283	0.047
-503.697	541.923	0.075	0.178
-502.683	125.581	0.059	-0.075
-501.668	-178.643	-0.197	-0.005
-500.653	231.996	-0.098	0.161
-499.639	329.510	-0.077	0.147
-498.624	-32.455	0.175	0.098
-497.610	359.840	0.069	-0.137
-496.595	-93.522	0.127	-0.035
-495.581	148.762	0.179	-0.242
-494.566	800.000	0.035	-0.137
-493.551	38.445	-0.128	0.114
-492.537	-97.881	0.302	-0.078
-491.522	-156.648	-0.111	0.007
-490.508	194.472	-0.139	0.210
-489.493	800.000	-0.038	-0.116
-488.478	800.000	0.029	-0.113
-487.464	262.578	0.148	0.256
-486.449	164.010	-0.157	-0.220
-485.435	-169.285	-0.436	0.016
-484.420	-91.417	0.123	-0.035
-483.405	-200.000	0.004	-0.154
-482.391	0.237	-0.431	0.307
-481.376	40.596	-0.182	-0.164
-480.362	-40.426	0.155	0.080
-479.347	-200.000	-0.401	-0.001
-478.332	-40.961	0.116	0.060
-477.318	309.073	-0.026	0.049
-476.303	800.000	0.098	-0.309
-475.289	-200.000	-0.006	0.138
-474.274	255.102	0.221	-0.379
-473.259	31.911	0.118	-0.102
-472.245	800.000	0.059	0.198
-471.230	679.759	-0.215	0.559
-470.216	-29.706	-0.165	-0.094
-469.201	-50.507	-0.207	-0.098
-468.186	800.000	0.039	0.132
-467.172	248.892	0.113	0.190
-466.157	-68.278	-0.350	-0.136
-465.143	-29.934	0.402	-0.229
-464.128	-31.518	0.137	0.077
-463.113	159.163	0.229	0.317
-462.099	61.555	-0.374	0.372
-461.084	77.941	0.059	0.063
-460.070	-200.000	0.006	0.354
-459.055	365.248	-0.061	0.122
-458.040	-153.185	-0.156	0.011
-457.026	800.000	-0.025	-0.090
-456.011	4.450	0.054	0.040
-454.997	177.820	0.202	-0.294
-453.982	-67.128	0.086	0.034
-452.968	661.456	-0.039	-0.101
-451.953	-200.000	-0.003	0.034
-450.938	-200.000	-0.007	0.131
-449.924	-63.328	0.128	-0.053
-448.909	-46.639	0.201	-0.098
-447.895	116.433	-0.248	-0.303
-446.880	-87.891	-0.283	0.085
-445.865	200.993	0.035	-0.054
-444.851	-181.974	-0.301	0.006
-443.836	-81.066	0.068	-0.022
-442.822	9.130	0.056	0.042
-441.807	7.876	0.362	0.271
-440.792	-200.000	-0.038	-0.223
-439.778	-136.036	0.261	-0.031
-438.763	282.192	-0.026	0.047
-437.749	185.887	0.119	-0.176
-436.734	-200.000	-0.004	-0.134
-435.719	-56.685	-0.106	0.047
-434.705	101.718	0.150	0.174
-433.690	-47.058	0.191	0.093
-432.676	-200.000	0.040	-0.349
-431.661	71.226	0.233	0.242
-430.646	-200.000	0.013	0.116
-429.632	-6.351	-0.141	-0.096
-428.617	37.609	-0.243	0.215
-427.603	147.293	-0.090	-0.121
-426.588	-184.877	0.240	-0.004
-425.573	-160.833	-0.029	-0.002
-424.559	-63.533	-0.189	0.077
-423.544	-108.569	-0.035	-0.007
-422.530	-200.000	-0.009	0.052
-421.515	-32.135	0.016	-0.009
-420.500	101.130	-0.053	0.061
-419.486	-69.453	0.048	-0.018
-418.471	651.743	0.076	-0.195
-417.457	-200.000	0.027	-0.137
-416.442	-85.572	0.031	-0.010
-415.428	221.028	-0.015	-0.024
-414.413	-27.905	0.297	-0.172
-413.398	-62.491	-0.152	0.063
-412.384	232.676	-0.185	0.303
-411.369	800.000	0.060	-0.184
-410.355	68.257	0.263	-0.268
-409.340	-200.000	-0.025	-0.140
-408.325	-3.393	0.400	0.277
-407.311	-200.000	-0.004	0.026
-406.296	75.484	0.083	-0.087
-405.282	8.409	0.206	-0.154
-404.267	97.059	-0.046	-0.052
-403.252	18.326	0.282	0.224
-402.238	800.000	-0.057	0.210
-401.223	662.509	-0.018	-0.046
-400.209	633.825	-0.042	0.107
-399.194	120.645	-0.194	0.241
-398.179	79.071	0.325	0.347
-397.165	7.644	0.304	-0.227
-396.150	266.964	-0.273	-0.475
-395.136	4.965	0.157	-0.115
-394.121	381.651	0.092	0.188
-393.106	-200.000	0.024	-0.233
-392.092	-200.000	0.017	0.304
-391.077	800.000	-0.060	-0.196
-390.063	800.000	-0.041	0.177
-389.048	-9.429	0.115	-0.077
-388.033	91.118	-0.321	0.359
-387.019	-200.000	-0.056	0.278
-386.004	392.460	0.074	0.154
-384.990	165.996	0.199	0.281
-383.975	248.614	-0.157	-0.265
-382.960	66.527	0.074	-0.075
-381.946	-45.096	-0.126	-0.062
-380.931	365.412	0.134	-0.268
-379.917	15.087	0.170	0.133
-378.902	106.280	-0.226	-0.267
-377.888	-121.323	0.328	0.054
-376.873	463.120	0.182	0.406
-375.858	-60.081	0.054	-0.023
-374.844	88.368	0.145	-0.161
-373.829	74.991	0.247	0.259
-372.815	799.097	-0.117	0.322
-371.800	-54.255	-0.080	0.036
-370.785	-60.372	-0.178	0.075
-369.771	48.165	0.084	0.078
-368.756	-200.000	-0.002	0.053
-367.742	-15.119	0.167	-0.106
-366.727	-20.613	-0.147	0.090
-365.712	180.230	-0.058	-0.085
-364.698	-101.666	0.204	0.049
-363.683	-200.000	0.002	0.081
-362.669	161.796	0.112	0.156
-361.654	-60.008	0.075	0.032
-360.639	294.671	-0.093	0.168
-359.625	305.544	-0.144	-0.266
-358.610	-200.000	-0.029	0.145
-357.596	800.000	0.073	-0.219
-356.581	-200.000	-0.177	-0.000
-355.566	118.447	-0.094	-0.115
-354.552	800.000	-0.034	-0.147
-353.537	132.487	-0.169	0.216
-352.523	-110.288	0.095	-0.020
-351.508	-32.152	-0.181	0.101
-350.493	-147.662	-0.024	0.002
-349.479	-116.618	-0.353	0.065
-348.464	-149.788	-0.229	0.018
-347.450	606.284	-0.125	0.310
-346.435	16.498	-0.215	-0.169
-345.420	-200.000	-0.092	-0.562
-344.406	375.033	-0.153	-0.311
-343.391	-116.762	0.193	-0.035
-342.377	-128.004	0.211	-0.030
-341.362	24.914	0.165	-0.136
-340.348	-200.000	0.276	0.001
-339.333	-200.000	-0.033	-0.235
-338.318	800.000	0.055	0.209
-337.304	-23.220	-0.077	0.046
-336.289	3.486	0.205	0.148
-335.275	351.751	-0.049	0.096
-334.260	-119.292	0.154	0.027
-333.245	-200.000	-0.024	0.168
-332.231	-137.935	0.193	0.021
-331.216	140.959	-0.360	-0.472
-330.202	-60.051	0.014	0.006
-329.187	25.283	0.076	-0.063
-328.172	83.190	0.093	-0.101
-327.158	218.841	0.033	0.052
-326.143	800.000	0.096	0.379
-325.129	-43.358	0.599	0.301
-324.114	-200.000	-0.006	-0.032
-323.099	503.732	0.038	-0.087
-322.085	87.371	-0.125	-0.138
-321.070	-158.147	0.228	0.013
-320.056	-68.158	-0.230	-0.089
-319.041	132.445	-0.092	-0.118
-318.026	800.000	0.086	-0.256
-317.012	-69.410	0.231	-0.088
-315.997	-66.178	0.138	0.055
-314.983	2.480	0.281	-0.202
-313.968	-200.000	-0.008	-0.135
-312.953	286.110	0.112	-0.201
-311.939	-78.004	0.425	-0.146
-310.924	-144.170	0.160	0.015
-309.910	-11.150	0.047	-0.031
-308.895	-8.287	0.267	-0.179
-307.880	-200.000	0.040	0.236
-306.866	800.000	0.058	-0.169
-305.851	178.168	-0.218	0.315
-304.837	-6.305	0.172	0.116
-303.822	-200.000	-0.027	-0.188
-302.807	800.000	-0.057	-0.195
-301.793	388.197	-0.014	0.029
-300.778	-200.000	-0.032	-0.324
-299.764	-59.933	0.231	-0.098
-298.749	51.162	0.144	-0.136
-297.735	-70.136	-0.118	0.045
-296.720	-75.547	0.109	-0.039
-295.705	-85.439	0.205	-0.063
-294.691	-62.296	0.401	0.166
-293.676	797.111	0.035	-0.097
-292.662	-200.000	-0.021	0.187
-291.647	69.827	0.137	-0.140
-290.632	-46.001	-0.418	-0.204
-289.618	295.506	0.149	-0.271
-288.603	-200.000	-0.027	-0.296
-287.589	800.000	0.074	0.218
-286.574	-114.320	0.229	-0.044
-285.559	756.399	-0.045	-0.120
-284.545	-32.903	0.363	0.200
-283.530	800.000	0.087	0.324
-282.516	36.945	0.184	0.161
-281.501	-200.000	0.003	0.185
-280.486	-115.220	-0.158	0.030
-279.472	-200.000	0.062	0.315
-278.457	-123.501	0.009	0.001
-277.443	-142.085	-0.417	-0.041
-276.428	-200.000	-0.040	0.337
-275.413	800.000	-0.062	0.191
-274.399	800.000	-0.023	-0.093
-273.384	34.887	0.232	-0.201
-272.370	-200.000	0.000	0.013
-271.355	-79.980	-0.277	-0.092
-270.340	-200.000	-0.034	-0.397
-269.326	574.429	-0.119	-0.287
-268.311	8.365	-0.213	0.159
-267.297	-47.096	-0.208	-0.101
-266.282	-200.000	0.043	0.280
-265.267	-200.000	0.018	-0.142
-264.253	268.607	-0.010	-0.018
-263.238	23.301	-0.067	-0.055
-262.224	41.057	-0.117	0.105
-261.209	-87.746	0.291	-0.087
-260.195	33.927	0.064	-0.055
-259.180	54.227	-0.234	0.223
-258.165	40.451	0.219	-0.195
-257.151	-200.000	-0.038	-0.454
-256.136	151.888	0.022	0.030
-255.122	-14.375	-0.214	-0.137
-254.107	454.102	-0.129	0.283
-253.092	-166.174	-0.436	-0.018
-252.078	-49.512	-0.130	-0.061
-251.063	-27.431	0.108	-0.062
-250.049	441.685	0.046	-0.101
-249.034	-200.000	-0.043	-0.330
-248.019	17.827	0.275	-0.217
-247.005	-200.000	0.062	-0.376
-245.990	-9.143	-0.204	0.135
-244.976	-31.632	-0.109	0.061
-243.961	-20.762	0.124	0.076
-242.946	-75.276	0.219	-0.077
-241.932	28.456	-0.391	-0.327
-240.917	141.892	0.231	0.304
-239.903	-108.648	0.285	-0.060
-238.888	800.000	0.068	0.234
-237.873	-200.000	0.033	0.210
-236.859	166.408	-0.152	-0.213
-235.844	188.329	-0.130	-0.192
-234.830	-133.168	0.437	-0.055
-233.815	127.117	0.182	0.228
-232.800	-200.000	-0.015	-0.355
-231.786	-120.251	-0.253	-0.043
-230.771	-200.000	-0.006	0.434
-229.757	-181.868	0.036	-0.001
-228.742	-200.000	0.031	0.328
-227.727	415.957	0.088	-0.185
-226.713	235.224	0.126	-0.206
-225.698	140.917	0.071	-0.093
-224.684	447.599	-0.100	-0.217
-223.669	120.266	0.240	0.294
-222.655	-37.556	-0.056	-0.030
-221.640	405.614	0.087	0.183
-220.625	2.298	0.121	0.087
-219.611	60.183	-0.087	-0.085
-218.596	310.052	0.050	-0.092
-217.582	135.753	-0.407	-0.524
-216.567	398.244	0.059	-0.123
-215.552	241.530	-0.066	0.110
-214.538	329.995	-0.064	0.123
-213.523	0.394	-0.096	-0.068
-212.509	9.483	-0.291	0.218
-211.494	231.571	0.095	0.155
-210.479	-106.181	-0.070	0.016
-209.465	800.000	-0.043	0.173
-208.450	129.732	0.129	0.163
-207.436	-64.119	0.223	0.090
-206.421	119.677	0.089	0.109
-205.406	-85.240	0.336	-0.104
-204.392	-43.779	-0.087	0.043
-203.377	63.808	-0.202	0.201
-202.363	-8.558	0.062	0.041
-201.348	800.000	-0.042	0.170
-200.333	-36.253	-0.137	0.073
-199.319	186.525	0.154	0.227
-198.304	-200.000	0.003	-0.040
-197.290	-94.079	0.102	0.028
-196.275	-200.000	-0.028	-0.301
-195.260	-15.995	-0.172	0.108
-194.246	83.904	0.084	0.090
-193.231	-200.000	-0.007	0.200
-192.217	-25.238	-0.217	0.127
-191.202	25.603	-0.125	0.102
-190.187	-200.000	-0.002	0.122
-189.173	341.726	0.108	-0.208
-188.158	-11.796	-0.205	0.133
-187.144	-17.264	-0.115	0.072
-186.129	-128.186	0.309	0.044
-185.114	-120.507	-0.147	-0.025
-184.100	58.843	0.306	-0.298
-183.085	-14.756	-0.296	0.188
-182.071	-101.441	0.161	-0.039
-181.056	-18.846	-0.247	-0.152
-180.042	301.834	0.060	0.110
-179.027	-138.163	0.262	-0.029
-178.012	800.000	-0.035	0.104
-176.998	115.564	0.091	-0.110
-175.983	25.859	-0.304	-0.250
-174.969	-46.019	0.464	-0.226
-173.954	95.169	0.217	0.244
-172.939	-137.959	-0.176	-0.019
-171.925	65.376	0.216	0.216
-170.910	800.000	-0.018	0.058
-169.896	-75.979	0.294	-0.103
-168.881	800.000	-0.116	0.461
-167.866	281.715	-0.075	0.133
-166.852	65.425	-0.147	0.146
-165.837	92.428	-0.058	0.064
-164.823	-165.595	-0.299	0.013
-163.808	-76.158	0.134	0.047
-162.793	141.207	0.188	-0.246
-161.779	662.062	-0.133	0.339
-160.764	-200.000	0.023	-0.113
-159.750	-8.601	0.054	0.036
-158.735	-200.000	0.013	0.089
-157.720	-200.000	-0.396	-0.000
-156.706	-134.436	-0.074	-0.009
-155.691	200.017	0.010	-0.015
-154.677	146.882	-0.126	-0.168
-153.662	-105.367	-0.240	0.054
-152.647	136.266	-0.107	-0.137
-151.633	-16.433	0.157	-0.098
-150.618	800.000	0.027	0.099
-149.604	76.200	0.194	-0.203
-148.589	-92.051	-0.337	0.094
-147.574	-126.864	0.372	0.054
-146.560	418.315	0.080	-0.168
-145.545	-134.063	-0.302	-0.037
-144.531	205.557	-0.071	0.109
-143.516	263.254	-0.134	-0.229
-142.502	-62.050	-0.312	-0.129
-141.487	-200.000	-0.013	0.128
-140.472	31.798	-0.393	0.334
-139.458	51.515	-0.340	0.319
-138.443	-155.716	0.196	-0.012
-137.429	74.441	0.140	0.145
-136.414	250.817	0.199	0.334
-135.399	-130.161	0.101	0.014
-134.385	700.737	-0.122	0.316
-133.370	-80.464	-0.310	0.102
-132.356	-6.538	0.144	-0.097
-131.341	-200.000	-0.005	0.029
-130.326	-200.000	0.000	-0.200
-129.312	-200.000	-0.000	-0.173
-128.297	-94.108	-0.297	0.080
-127.283	3.149	-0.364	0.261
-126.268	-63.870	0.223	-0.090
-125.253	-94.264	0.068	-0.018
-124.239	800.000	-0.031	-0.106
-123.224	800.000	-0.113	0.352
-122.210	-109.731	-0.145	0.030
-121.195	-41.300	-0.055	-0.028
