DTS Sentinel unit serial number:	SN413079Multiplexer serial number:	ORYXHardware model number:	OX4-SRSoftware version number:	ORYX F/W v4.00 Oryx Data Collector v3.7.2.0data status	okinstallation	princeton_trtdifferential loss correction	single-endedforward channel	channel 2reverse channel	N/Adate	2019/09/12time	11:05:11forward acquisition time	60.00reverse acquisition time	0.00gamma	496.2192k internal	0.2305k external	0.2305temperature offset calibration	1.0070default loss term (dB/km)	0.3790temperature slope calibration	1.0000multiplexer offset coefficient	1.0000multiplexer slope coefficient	1.0000fibre end	0.00T internal ref (°C)	38.58T ext. ref 1 (°C)	1.93T ext. ref 2 (°C)	35.81length (m)	temperature (°C)	Stokes	anti-Stokes-747.200	-35.979	0.234	-0.129
-746.185	265.758	-0.178	0.317
-745.171	13.176	-0.236	0.186
-744.156	-46.102	-0.181	0.091
-743.142	-140.866	0.312	0.033
-742.127	557.146	-0.150	0.369
-741.112	216.492	-0.165	0.267
-740.098	-28.652	-0.281	0.165
-739.083	-200.000	-0.049	-0.232
-738.069	667.749	0.169	0.444
-737.054	-3.230	-0.223	0.158
-736.039	51.648	-0.344	0.333
-735.025	-200.000	-0.003	0.221
-734.010	513.756	0.034	0.081
-732.996	-156.979	0.173	0.011
-731.981	800.000	0.037	0.149
-730.966	81.261	0.103	0.113
-729.952	-51.423	-0.273	-0.130
-728.937	-62.426	-0.316	-0.134
-727.923	51.847	0.239	-0.232
-726.908	800.000	0.026	-0.076
-725.894	-85.498	0.369	0.117
-724.879	-34.183	-0.194	0.108
-723.864	77.440	0.039	-0.042
-722.850	-200.000	-0.007	-0.065
-721.835	-200.000	0.022	-0.145
-720.821	394.602	0.094	-0.199
-719.806	-97.367	-0.473	0.125
-718.791	1.636	-0.140	-0.103
-717.777	-48.353	-0.109	0.054
-716.762	-200.000	0.030	-0.229
-715.748	12.735	-0.050	-0.040
-714.733	800.000	0.006	-0.027
-713.718	321.702	0.167	-0.324
-712.704	-34.054	-0.063	0.035
-711.689	67.609	-0.087	0.091
-710.675	85.783	-0.143	0.160
-709.660	243.883	0.058	-0.099
-708.645	-200.000	-0.079	-0.516
-707.631	-102.319	-0.175	-0.043
-706.616	43.685	0.067	0.062
-705.602	276.395	0.125	0.226
-704.587	307.738	0.158	-0.299
-703.572	372.727	-0.146	-0.301
-702.558	500.169	0.075	-0.176
-701.543	-164.353	-0.505	-0.023
-700.529	-158.208	-0.216	0.013
-699.514	133.763	-0.177	-0.232
-698.499	800.000	-0.067	0.259
-697.485	3.664	0.204	-0.152
-696.470	-77.004	0.507	-0.180
-695.456	800.000	-0.081	-0.230
-694.441	800.000	0.085	0.247
-693.426	-73.180	-0.234	0.087
-692.412	101.802	-0.064	0.076
-691.397	-91.261	-0.276	-0.080
-690.383	800.000	-0.042	0.151
-689.368	134.894	0.124	-0.164
-688.354	86.248	-0.102	0.114
-687.339	-99.880	-0.039	-0.010
-686.324	-200.000	0.035	-0.441
-685.310	-157.140	-0.100	0.006
-684.295	109.437	-0.076	0.092
-683.281	102.062	0.180	-0.214
-682.266	-163.167	-0.248	0.012
-681.251	106.178	-0.102	-0.123
-680.237	42.091	-0.050	-0.046
-679.222	-200.000	0.029	-0.245
-678.208	5.685	-0.132	-0.099
-677.193	121.967	-0.292	-0.370
-676.178	-167.616	-0.358	-0.014
-675.164	495.234	0.024	-0.057
-674.149	-84.332	0.185	0.060
-673.135	800.000	-0.124	-0.420
-672.120	-38.991	-0.130	0.070
-671.105	226.407	-0.096	0.159
-670.091	800.000	0.028	0.111
-669.076	224.425	-0.091	0.149
-668.062	36.989	0.153	-0.137
-667.047	-147.706	-0.225	-0.019
-666.032	-79.538	0.013	0.004
-665.018	800.000	0.052	-0.205
-664.003	225.018	-0.153	-0.251
-662.989	-20.804	0.050	0.031
-661.974	-68.724	-0.090	0.035
-660.959	-77.155	-0.118	0.042
-659.945	85.537	0.134	0.149
-658.930	136.231	0.066	-0.087
-657.916	-200.000	-0.008	-0.143
-656.901	47.875	-0.126	-0.120
-655.886	-54.338	0.082	0.038
-654.872	800.000	-0.112	-0.351
-653.857	143.205	-0.095	0.129
-652.843	-24.823	0.074	-0.045
-651.828	36.507	-0.396	-0.354
-650.814	-65.769	-0.234	-0.095
-649.799	305.650	0.059	-0.111
-648.784	204.703	-0.178	-0.281
-647.770	401.419	0.122	-0.260
-646.755	198.540	-0.199	-0.309
-645.741	30.025	-0.064	0.055
-644.726	-121.195	-0.153	0.026
-643.711	-12.159	0.153	-0.101
-642.697	279.002	0.108	0.196
-641.682	-98.817	0.169	-0.044
-640.668	35.226	0.068	0.060
-639.653	27.377	0.139	0.118
-638.638	-200.000	-0.016	-0.300
-637.624	103.512	0.093	-0.110
-636.609	56.063	0.010	0.010
-635.595	26.457	-0.263	0.223
-634.580	-158.962	-0.100	0.006
-633.565	320.087	0.011	-0.021
-632.551	2.819	0.152	-0.112
-631.536	-200.000	0.023	0.263
-630.522	-65.141	0.120	-0.049
-629.507	-91.028	-0.164	-0.048
-628.492	-81.882	-0.228	0.076
-627.478	-11.289	0.178	-0.119
-626.463	-49.284	-0.122	0.059
-625.449	-41.957	-0.051	-0.027
-624.434	-31.696	0.044	-0.025
-623.419	-25.612	-0.199	0.119
-622.405	-128.486	0.099	0.014
-621.390	128.468	-0.057	0.074
-620.376	225.312	-0.118	-0.194
-619.361	-200.000	0.016	0.269
-618.346	800.000	0.038	0.150
-617.332	-64.354	0.290	-0.120
-616.317	-4.928	0.138	-0.096
-615.303	-156.993	-0.143	-0.009
-614.288	-121.051	0.194	0.033
-613.273	220.391	0.126	-0.204
-612.259	108.224	-0.052	-0.063
-611.244	-83.198	-0.015	0.005
-610.230	92.925	0.218	-0.250
-609.215	61.017	-0.174	0.175
-608.201	34.799	-0.134	0.119
-607.186	-28.851	0.122	0.071
-606.171	-70.331	0.263	0.101
-605.157	609.216	0.123	0.311
-604.142	-200.000	-0.029	-0.179
-603.128	-103.294	0.270	-0.064
-602.113	-75.846	0.251	0.090
-601.098	800.000	-0.064	-0.232
-600.084	59.193	-0.099	0.098
-599.069	503.149	0.111	0.259
-598.055	800.000	-0.127	0.409
-597.040	370.747	-0.123	0.252
-596.025	800.000	-0.079	0.294
-595.011	69.451	-0.198	-0.206
-593.996	-17.431	0.026	0.016
-592.982	800.000	0.058	-0.219
-591.967	-200.000	0.059	0.353
-590.952	-62.845	0.187	-0.078
-589.938	-141.529	0.022	-0.002
-588.923	-200.000	0.009	-0.229
-587.909	592.740	0.097	-0.243
-586.894	102.842	-0.178	-0.211
-585.879	-181.171	-0.231	-0.005
-584.865	-200.000	0.050	-0.247
-583.850	-68.482	-0.280	0.110
-582.836	800.000	-0.074	0.214
-581.821	-39.656	-0.098	-0.052
-580.806	-28.047	-0.156	-0.091
-579.792	2.753	0.097	-0.071
-578.777	-200.000	0.032	-0.198
-577.763	64.107	-0.176	0.179
-576.748	-1.500	-0.234	0.167
-575.733	-160.432	0.244	-0.013
-574.719	-82.521	-0.487	0.160
-573.704	480.034	0.137	-0.314
-572.690	800.000	-0.055	-0.174
-571.675	-20.094	0.086	-0.054
-570.661	-7.773	-0.261	-0.178
-569.646	-200.000	0.019	-0.098
-568.631	800.000	0.083	0.267
-567.617	-0.135	0.202	-0.145
-566.602	-57.834	-0.218	0.097
-565.588	-115.969	0.329	-0.062
-564.573	800.000	-0.043	0.146
-563.558	-83.424	-0.537	0.174
-562.544	-117.992	0.251	0.045
-561.529	1.332	0.198	-0.144
-560.515	37.258	0.289	0.259
-559.500	-139.556	0.093	-0.010
-558.485	-49.603	0.191	0.092
-557.471	800.000	0.064	-0.280
-556.456	-53.908	0.122	-0.056
-555.442	37.385	-0.042	0.037
-554.427	-200.000	0.029	0.143
-553.412	13.012	0.090	0.070
-552.398	428.719	0.190	-0.415
-551.383	292.589	-0.045	-0.083
-550.369	202.060	-0.200	-0.311
-549.354	-10.099	-0.077	0.052
-548.339	-107.452	-0.233	-0.052
-547.325	-130.195	0.056	0.008
-546.310	324.261	-0.210	-0.404
-545.296	168.691	-0.212	-0.306
-544.281	800.000	-0.051	-0.153
-543.266	-176.140	0.283	0.008
-542.252	-125.693	0.081	-0.012
-541.237	14.815	0.129	-0.102
-540.223	376.833	-0.098	0.202
-539.208	136.725	0.116	-0.153
-538.193	750.351	-0.164	-0.447
-537.179	112.698	0.188	-0.230
-536.164	-200.000	-0.006	-0.162
-535.150	-200.000	-0.018	-0.382
-534.135	132.866	0.337	0.439
-533.121	-96.364	-0.177	0.047
-532.106	482.665	-0.091	-0.208
-531.091	-147.632	-0.223	-0.019
-530.077	399.294	0.234	0.495
-529.062	-84.940	0.109	0.035
-528.048	-200.000	-0.003	-0.360
-527.033	55.585	0.141	-0.137
-526.018	267.045	-0.089	0.157
-525.004	-4.008	0.272	-0.191
-523.989	-31.875	-0.088	0.049
-522.975	800.000	0.179	0.540
-521.960	-173.244	0.200	0.006
-520.945	800.000	0.042	-0.170
-519.931	800.000	-0.071	-0.237
-518.916	499.511	-0.141	0.328
-517.902	-200.000	-0.039	0.256
-516.887	289.700	-0.112	0.206
-515.872	-13.452	0.081	-0.053
-514.858	-78.285	0.096	0.033
-513.843	442.875	0.033	-0.074
-512.829	-67.666	-0.206	0.081
-511.814	-200.000	-0.015	-0.140
-510.799	-138.744	0.153	-0.017
-509.785	-112.212	0.104	0.021
-508.770	-118.303	-0.116	0.021
-507.756	563.590	0.067	0.163
-506.741	-134.628	-0.357	-0.044
-505.726	-143.737	-0.164	0.016
-504.712	147.824	0.082	0.111
-503.697	-200.000	-0.012	-0.072
-502.683	136.461	-0.186	0.245
-501.668	-190.097	-0.271	-0.003
-500.653	43.744	-0.340	-0.313
-499.639	-200.000	0.023	0.266
-498.624	-56.864	0.178	0.079
-497.610	800.000	-0.050	-0.142
-496.595	328.858	-0.070	-0.137
-495.581	258.238	-0.027	0.046
-494.566	800.000	-0.019	0.060
-493.551	-62.148	-0.408	-0.172
-492.537	113.224	-0.137	-0.167
-491.522	23.700	0.154	-0.128
-490.508	-113.702	-0.269	-0.053
-489.493	-200.000	-0.003	-0.063
-488.478	3.496	-0.072	-0.053
-487.464	19.428	0.168	0.136
-486.449	51.584	-0.263	-0.252
-485.435	34.232	-0.175	-0.154
-484.420	246.633	0.136	-0.232
-483.405	-200.000	0.015	0.093
-482.391	251.392	0.095	-0.163
-481.376	-200.000	-0.248	-0.000
-480.362	-52.426	0.407	0.190
-479.347	13.144	0.201	-0.156
-478.332	488.858	0.075	0.172
-477.318	27.847	-0.168	0.143
-476.303	39.840	-0.113	-0.102
-475.289	-151.534	-0.085	0.006
-474.274	-11.872	-0.308	-0.203
-473.259	-200.000	-0.014	0.163
-472.245	-3.556	0.204	0.143
-471.230	34.611	0.132	0.116
-470.216	-200.000	-0.038	0.291
-469.201	691.995	-0.043	0.113
-468.186	-200.000	-0.043	0.300
-467.172	-149.689	0.270	-0.021
-466.157	-132.270	-0.054	-0.007
-465.143	692.686	0.040	-0.105
-464.128	-33.891	-0.133	0.074
-463.113	158.398	0.158	-0.221
-462.099	-15.984	0.297	0.190
-461.084	-28.801	-0.104	-0.060
-460.070	681.480	0.035	0.093
-459.055	140.681	0.101	-0.135
-458.040	-130.504	-0.137	-0.019
-457.026	2.722	-0.240	-0.175
-456.011	273.787	0.050	0.089
-454.997	-112.409	-0.211	0.043
-453.982	-200.000	0.121	0.000
-452.968	43.849	0.099	0.092
-451.953	800.000	-0.024	0.094
-450.938	-200.000	-0.014	-0.106
-449.924	100.712	0.134	-0.156
-448.909	35.640	-0.158	-0.139
-447.895	-28.543	-0.208	0.120
-446.880	-200.000	0.033	-0.185
-445.865	8.030	-0.298	-0.225
-444.851	246.154	-0.228	-0.386
-443.836	137.051	0.276	-0.363
-442.822	800.000	0.026	-0.116
-441.807	-86.771	-0.165	-0.051
-440.792	760.907	-0.110	0.300
-439.778	-186.578	0.225	0.003
-438.763	180.740	0.055	-0.082
-437.749	-108.002	0.350	0.077
-436.734	-200.000	-0.026	0.244
-435.719	800.000	0.031	-0.088
-434.705	-30.577	0.261	-0.149
-433.690	282.351	-0.222	-0.400
-432.676	-18.579	-0.244	-0.153
-431.661	-55.698	-0.184	0.083
-430.646	41.177	0.136	-0.123
-429.632	-129.466	0.163	0.023
-428.617	-60.884	0.050	0.021
-427.603	88.649	-0.079	0.088
-426.588	4.132	0.130	0.096
-425.573	-200.000	0.036	-0.214
-424.559	-143.887	0.448	-0.043
-423.544	-200.000	0.021	-0.234
-422.530	538.196	-0.091	-0.218
-421.515	-200.000	0.039	-0.211
-420.500	-73.349	-0.327	0.120
-419.486	-37.281	0.119	-0.064
-418.471	265.718	-0.128	0.225
-417.457	218.054	-0.039	-0.062
-416.442	-50.991	-0.249	-0.117
-415.428	-200.000	-0.030	-0.311
-414.413	247.071	0.116	0.198
-413.398	481.729	0.120	0.274
-412.384	-114.854	-0.337	0.065
-411.369	29.073	0.250	0.213
-410.355	188.876	-0.147	0.221
-409.340	-200.000	0.005	-0.054
-408.325	-90.787	0.083	0.024
-407.311	-39.195	-0.185	0.098
-406.296	41.602	0.114	-0.104
-405.282	51.127	0.094	0.090
-404.267	800.000	0.043	0.134
-403.252	128.864	0.138	-0.177
-402.238	-41.844	-0.030	0.016
-401.223	-6.365	-0.029	-0.020
-400.209	86.762	0.155	0.172
-399.194	800.000	-0.071	0.232
-398.179	424.642	-0.070	0.151
-397.165	301.339	-0.050	-0.093
-396.150	-169.314	0.343	-0.013
-395.136	-200.000	-0.013	0.330
-394.121	-59.002	-0.128	-0.056
-393.106	799.301	-0.074	-0.205
-392.092	747.346	0.118	0.319
-391.077	231.068	-0.173	-0.285
-390.063	-200.000	0.047	-0.234
-389.048	130.011	-0.139	0.179
-388.033	-52.318	-0.198	-0.092
-387.019	800.000	-0.066	0.185
-386.004	-102.557	-0.131	0.031
-384.990	27.627	-0.211	0.178
-383.975	-67.776	-0.254	-0.100
-382.960	553.728	0.146	-0.352
-381.946	800.000	0.067	0.194
-380.931	-96.511	0.399	-0.106
-379.917	12.644	0.239	-0.185
-378.902	-141.372	-0.140	-0.014
-377.888	800.000	0.022	-0.064
-376.873	680.369	-0.047	0.122
-375.858	313.417	-0.067	0.126
-374.844	-32.306	0.436	0.244
-373.829	144.146	0.170	-0.228
-372.815	800.000	-0.020	-0.085
-371.800	-200.000	-0.002	0.204
-370.785	-107.782	-0.268	0.059
-369.771	307.836	-0.161	0.301
-368.756	-91.919	0.162	0.046
-367.742	269.286	0.130	-0.230
-366.727	-200.000	0.011	0.407
-365.712	623.536	-0.086	0.217
-364.698	-146.787	-0.142	0.012
-363.683	-70.381	-0.283	-0.108
-362.669	97.796	0.087	-0.100
-361.654	800.000	0.105	0.443
-360.639	-24.927	0.294	-0.175
-359.625	30.981	0.137	0.117
-358.610	-100.604	0.140	0.035
-357.596	-102.606	0.032	-0.008
-356.581	161.869	-0.105	0.147
-355.566	149.611	0.056	-0.076
-354.552	-200.000	-0.055	0.377
-353.537	162.721	-0.164	-0.231
-352.523	-56.515	-0.122	-0.054
-351.508	-17.415	-0.238	0.150
-350.493	-113.152	0.101	0.020
-349.479	693.252	0.040	0.105
-348.464	-157.228	-0.344	0.021
-347.450	341.475	-0.151	0.295
-346.435	-200.000	0.028	0.290
-345.420	-92.967	0.198	0.055
-344.406	-152.782	-0.537	-0.038
-343.391	-65.378	-0.047	-0.019
-342.377	66.597	-0.033	-0.033
-341.362	625.836	-0.179	0.453
-340.348	-174.038	0.312	0.009
-339.333	-109.089	-0.293	0.063
-338.318	-200.000	0.044	0.205
-337.304	324.511	-0.048	0.092
-336.289	-121.638	-0.381	0.063
-335.275	-111.920	-0.380	0.077
-334.260	800.000	0.017	-0.060
-333.245	31.440	-0.240	0.206
-332.231	710.532	-0.044	0.118
-331.216	63.184	0.144	-0.145
-330.202	-160.675	-0.219	0.012
-329.187	-14.438	-0.077	-0.049
-328.172	8.345	-0.147	-0.111
-327.158	-39.759	-0.089	-0.047
-326.143	-71.257	-0.270	-0.101
-325.129	-142.026	0.236	0.024
-324.114	1.515	0.109	-0.079
-323.099	-47.251	0.253	0.124
-322.085	-200.000	0.011	0.158
-321.070	-32.714	0.405	-0.226
-320.056	-200.000	-0.020	-0.219
-319.041	372.032	0.047	-0.095
-318.026	627.117	-0.042	0.107
-317.012	44.719	0.117	-0.108
-315.997	-118.823	0.289	0.051
-314.983	2.105	-0.057	-0.041
-313.968	-149.573	-0.274	-0.022
-312.953	800.000	0.026	-0.105
-311.939	-200.000	-0.009	0.044
-310.924	102.347	-0.121	-0.142
-309.910	-157.270	0.133	-0.008
-308.895	800.000	-0.082	-0.325
-307.880	-69.168	-0.236	-0.091
-306.866	-200.000	-0.012	-0.373
-305.851	-79.655	-0.097	0.033
-304.837	-111.028	-0.286	0.059
-303.822	471.432	-0.011	0.024
-302.807	-200.000	0.018	-0.363
-301.793	397.590	0.101	0.210
-300.778	351.211	-0.067	0.133
-299.764	-200.000	-0.019	0.128
-298.749	283.927	-0.127	0.228
-297.735	251.453	0.032	0.055
-296.720	-21.306	0.219	0.134
-295.705	218.530	-0.112	-0.179
-294.691	800.000	0.018	0.050
-293.676	-138.742	-0.354	0.039
-292.662	-200.000	0.035	0.474
-291.647	-92.356	-0.197	0.055
-290.632	-200.000	-0.016	0.232
-289.618	-200.000	0.004	0.041
-288.603	-56.696	-0.077	-0.034
-287.589	-200.000	0.050	0.271
-286.574	800.000	0.016	-0.064
-285.559	-200.000	0.033	0.322
-284.545	-88.667	0.137	0.041
-283.530	-46.884	0.258	0.126
-282.516	-97.754	0.145	-0.037
-281.501	-38.887	0.077	0.040
-280.486	-200.000	-0.022	0.177
-279.472	-86.157	0.323	-0.100
-278.457	144.144	-0.067	-0.089
-277.443	-200.000	-0.039	-0.284
-276.428	434.761	-0.105	-0.228
-275.413	-6.040	0.214	0.147
-274.399	665.956	0.031	-0.081
-273.384	-24.807	-0.223	0.132
-272.370	161.509	-0.024	-0.033
-271.355	-124.856	0.290	0.045
-270.340	197.422	0.255	0.388
-269.326	-19.786	-0.297	0.183
-268.311	452.016	-0.095	0.211
-267.297	132.456	-0.149	-0.191
-266.282	-55.403	-0.013	-0.006
-265.267	69.732	0.078	-0.080
-264.253	-200.000	-0.004	-0.282
-263.238	-34.415	0.335	-0.184
-262.224	-77.137	0.257	0.089
-261.209	81.361	-0.283	0.306
-260.195	-200.000	-0.016	-0.292
-259.180	3.018	0.122	-0.088
-258.165	625.376	0.022	-0.054
-257.151	118.758	-0.036	0.044
-256.136	800.000	-0.090	-0.275
-255.122	278.281	0.087	0.155
-254.107	-77.167	-0.187	-0.065
-253.092	179.515	-0.182	0.266
-252.078	-79.935	0.298	-0.100
-251.063	241.694	-0.087	-0.145
-250.049	-159.169	-0.215	0.012
-249.034	-67.901	-0.236	0.092
-248.019	-188.453	-0.576	-0.007
-247.005	-85.366	0.314	-0.098
-245.990	-126.396	0.408	0.061
-244.976	148.443	0.238	-0.321
-243.961	98.726	-0.097	-0.111
-242.946	-200.000	-0.013	0.092
-241.932	237.952	-0.136	-0.225
-240.917	-200.000	-0.021	0.183
-239.903	-65.616	0.320	0.128
-238.888	59.438	0.198	0.194
-237.873	-67.860	0.131	0.051
-236.859	-16.784	0.189	0.120
-235.844	-157.173	-0.273	-0.017
-234.830	-119.998	-0.381	-0.065
-233.815	0.815	0.116	0.083
-232.800	800.000	0.054	-0.219
-231.786	-200.000	0.035	-0.427
-230.771	110.426	-0.217	-0.261
-229.757	800.000	-0.044	0.159
-228.742	-83.212	0.135	0.043
-227.727	190.115	0.065	-0.097
-226.713	-30.072	-0.195	0.111
-225.698	-2.180	-0.131	-0.092
-224.684	-132.846	-0.231	-0.029
-223.669	-161.358	0.211	-0.011
-222.655	-16.940	0.145	0.091
-221.640	88.229	0.112	0.124
-220.625	-200.000	0.049	-0.278
-219.611	4.418	-0.166	0.121
-218.596	-160.778	0.162	0.009
-217.582	67.988	0.099	-0.101
-216.567	-87.473	-0.115	-0.035
-215.552	-66.390	-0.081	0.032
-214.538	84.453	-0.152	0.165
-213.523	-19.047	-0.068	-0.042
-212.509	-200.000	0.032	0.227
-211.494	-115.791	0.274	0.051
-210.479	39.595	0.201	-0.180
-209.465	98.335	-0.130	0.149
-208.450	-119.293	-0.204	0.035
-207.436	-51.712	0.278	0.129
-206.421	25.946	0.185	-0.154
-205.406	-158.126	0.032	0.002
-204.392	-106.279	-0.205	0.046
-203.377	-141.243	-0.113	0.011
-202.363	-200.000	-0.025	0.144
-201.348	90.325	0.127	0.142
-200.333	109.993	0.236	-0.282
-199.319	443.911	-0.104	0.227
-198.304	111.892	-0.005	-0.006
-197.290	76.701	0.087	0.092
-196.275	-181.567	-0.133	-0.003
-195.260	-200.000	-0.002	-0.190
-194.246	800.000	0.047	-0.134
-193.231	589.661	-0.036	-0.088
-192.217	-39.775	-0.077	0.040
-191.202	-118.661	0.315	0.055
-190.187	236.828	0.089	-0.146
-189.173	189.791	-0.105	0.157
-188.158	-48.765	0.220	-0.105
-187.144	-24.186	0.163	-0.097
-186.129	272.761	0.270	-0.475
-185.114	110.722	0.069	-0.083
-184.100	-200.000	-0.035	0.162
-183.085	-3.088	-0.081	-0.056
-182.071	307.767	-0.098	-0.183
-181.056	-26.041	0.385	0.225
-180.042	800.000	0.059	-0.193
-179.027	39.109	-0.114	0.102
-178.012	408.407	-0.125	0.263
-176.998	531.532	0.102	0.240
-175.983	-82.884	-0.248	0.080
-174.969	800.000	0.028	0.107
-173.954	-200.000	-0.065	0.457
-172.939	-200.000	0.015	-0.194
-171.925	323.808	0.155	-0.294
-170.910	-200.000	-0.016	-0.192
-169.896	-127.110	0.565	-0.082
-168.881	69.538	0.146	-0.150
-167.866	-26.140	-0.309	0.181
-166.852	-44.315	-0.352	0.175
-165.837	-101.819	0.354	0.085
-164.823	-133.129	0.243	0.031
-163.808	800.000	0.059	0.251
-162.793	58.252	0.339	0.331
-161.779	198.516	0.097	-0.148
-160.764	-57.739	0.201	-0.088
-159.750	-76.641	0.020	0.007
-158.735	-106.423	-0.241	0.054
-157.720	-200.000	-0.017	0.140
-156.706	-53.693	0.370	-0.168
-155.691	574.935	0.120	-0.292
-154.677	116.523	-0.076	0.093
-153.662	296.946	-0.092	0.168
-152.647	54.249	0.099	-0.095
-151.633	620.423	0.031	0.079
-150.618	-148.436	0.197	-0.016
-149.604	426.515	0.098	-0.210
-148.589	42.974	0.169	-0.154
-147.574	-40.533	-0.067	-0.034
-146.560	-200.000	0.039	-0.218
-145.545	-32.771	-0.196	0.108
-144.531	-74.549	-0.421	0.151
-143.516	-116.555	0.166	-0.030
-142.502	800.000	-0.019	-0.060
-141.487	457.905	-0.108	0.239
-140.472	-65.638	-0.417	0.166
-139.458	-57.137	0.204	-0.090
-138.443	-200.000	-0.005	-0.171
-137.429	-183.193	0.096	-0.002
-136.414	-100.272	-0.290	-0.072
-135.399	-79.212	-0.078	0.026
-134.385	234.446	0.049	-0.080
-133.370	-200.000	-0.012	0.321
-132.356	439.748	0.104	-0.225
-131.341	-200.000	0.017	-0.204
-130.326	60.248	0.091	-0.090
-129.312	-200.000	0.033	0.271
-128.297	67.628	-0.096	-0.097
-127.283	424.354	0.010	0.021
-126.268	-186.822	-0.080	0.001
-125.253	-126.428	0.080	0.012
-124.239	688.632	-0.098	-0.254
-123.224	-75.342	0.230	-0.081
-122.210	-167.582	-0.377	-0.015
-121.195	39.368	0.079	0.071
