DTS Sentinel unit serial number:	SN413079Multiplexer serial number:	ORYXHardware model number:	OX4-SRSoftware version number:	ORYX F/W v4.00 Oryx Data Collector v3.7.2.0data status	okinstallation	princeton_trtdifferential loss correction	single-endedforward channel	channel 2reverse channel	N/Adate	2019/09/13time	10:07:34forward acquisition time	60.00reverse acquisition time	0.00gamma	496.2192k internal	0.2324k external	0.2324temperature offset calibration	1.0189default loss term (dB/km)	0.3790temperature slope calibration	1.0000multiplexer offset coefficient	1.0000multiplexer slope coefficient	1.0000fibre end	0.00T internal ref (°C)	30.44T ext. ref 1 (°C)	4.51T ext. ref 2 (°C)	27.70length (m)	temperature (°C)	Stokes	anti-Stokes-747.200	-200.000	-0.018	-0.119
-746.185	-200.000	-0.053	0.381
-745.171	800.000	-0.114	0.448
-744.156	353.262	-0.206	0.413
-743.142	67.672	-0.076	-0.079
-742.127	-200.000	-0.038	0.293
-741.112	-132.456	-0.115	0.015
-740.098	120.118	0.060	0.076
-739.083	-104.648	0.220	-0.051
-738.069	-64.593	-0.289	0.118
-737.054	246.090	-0.089	0.151
-736.039	20.437	-0.264	0.215
-735.025	35.140	0.292	0.258
-734.010	-110.676	0.231	0.048
-732.996	-87.600	-0.231	-0.070
-731.981	-21.763	-0.323	0.199
-730.966	262.235	-0.268	0.468
-729.952	-14.052	0.163	-0.106
-728.937	-80.074	-0.261	-0.088
-727.923	-181.001	0.083	0.002
-726.908	154.631	-0.277	-0.383
-725.894	-185.991	0.355	-0.005
-724.879	-109.252	-0.080	0.017
-723.864	-13.845	-0.135	0.088
-722.850	800.000	0.051	0.197
-721.835	800.000	0.055	-0.200
-720.821	-9.757	-0.202	-0.136
-719.806	55.474	-0.190	-0.185
-718.791	194.438	0.028	-0.042
-717.777	501.458	0.197	-0.458
-716.762	800.000	-0.055	-0.164
-715.748	-24.101	-0.250	-0.151
-714.733	-176.623	0.224	0.006
-713.718	2.744	0.006	-0.005
-712.704	-200.000	0.017	-0.178
-711.689	800.000	-0.054	-0.238
-710.675	370.448	-0.093	-0.191
-709.660	800.000	0.100	-0.283
-708.645	-89.610	-0.167	-0.049
-707.631	258.262	-0.145	-0.251
-706.616	-74.407	-0.067	0.024
-705.602	433.670	0.075	0.165
-704.587	-58.802	-0.188	0.082
-703.572	333.194	0.126	-0.245
-702.558	-20.143	0.273	-0.170
-701.543	-16.605	0.360	0.230
-700.529	15.741	0.222	0.176
-699.514	686.714	-0.088	-0.233
-698.499	-117.034	-0.257	0.047
-697.485	-80.623	0.382	-0.128
-696.470	109.247	0.123	-0.148
-695.456	322.632	0.206	0.396
-694.441	769.404	-0.041	-0.112
-693.426	-33.501	0.108	-0.060
-692.412	-200.000	0.014	-0.216
-691.397	-59.487	-0.300	0.130
-690.383	150.352	-0.193	0.264
-689.368	69.297	-0.263	0.272
-688.354	6.435	-0.227	-0.170
-687.339	-48.204	-0.444	0.216
-686.324	129.965	-0.225	0.290
-685.310	-27.153	0.218	0.128
-684.295	580.370	0.014	-0.035
-683.281	4.844	0.158	-0.117
-682.266	334.368	-0.132	0.257
-681.251	800.000	0.055	0.162
-680.237	509.732	-0.104	0.244
-679.222	-25.813	-0.056	-0.033
-678.208	-86.857	0.153	0.047
-677.193	33.877	0.092	0.080
-676.178	-200.000	0.013	0.140
-675.164	800.000	0.047	0.198
-674.149	-122.073	-0.101	-0.017
-673.135	-200.000	-0.000	-0.039
-672.120	-200.000	-0.023	-0.101
-671.105	-110.512	-0.432	-0.090
-670.091	297.241	-0.165	-0.305
-669.076	11.109	-0.194	-0.149
-668.062	800.000	-0.049	-0.210
-667.047	471.553	0.121	-0.274
-666.032	-17.370	-0.072	0.045
-665.018	-103.489	-0.160	0.038
-664.003	-142.498	0.267	0.026
-662.989	-154.437	0.485	0.033
-661.974	573.322	-0.075	0.185
-660.959	242.181	0.017	-0.028
-659.945	-200.000	-0.031	-0.167
-658.930	86.193	0.221	-0.245
-657.916	-122.691	-0.334	0.054
-656.901	-200.000	-0.043	-0.403
-655.886	70.946	0.151	0.158
-654.872	-200.000	0.001	-0.099
-653.857	-70.910	0.192	0.073
-652.843	290.323	0.116	-0.211
-651.828	-175.272	-0.337	0.009
-650.814	-86.019	-0.209	-0.065
-649.799	262.601	0.158	-0.275
-648.784	41.383	-0.123	-0.111
-647.770	-81.337	0.140	0.047
-646.755	32.856	-0.337	0.293
-645.741	-1.246	0.178	0.126
-644.726	88.006	0.121	-0.135
-643.711	-200.000	-0.016	-0.189
-642.697	250.363	-0.128	-0.218
-641.682	-119.969	0.195	-0.034
-640.668	-114.027	-0.218	-0.043
-639.653	482.866	0.132	0.302
-638.638	-200.000	0.003	-0.073
-637.624	153.997	0.150	0.207
-636.609	-200.000	-0.055	-0.331
-635.595	-159.108	-0.204	-0.012
-634.580	782.337	-0.105	0.288
-633.565	-42.318	-0.170	0.087
-632.551	4.309	-0.252	0.186
-631.536	-163.948	-0.488	0.023
-630.522	-51.830	-0.150	-0.070
-629.507	669.788	-0.084	-0.218
-628.492	166.222	0.057	0.081
-627.478	733.464	-0.021	-0.056
-626.463	104.162	0.138	-0.164
-625.449	-64.002	-0.340	-0.140
-624.434	160.437	-0.180	0.252
-623.419	-200.000	0.018	-0.123
-622.405	-159.008	0.243	0.014
-621.390	291.189	-0.161	-0.294
-620.376	-172.277	0.279	0.009
-619.361	284.553	0.107	0.194
-618.346	-200.000	0.004	-0.407
-617.332	206.862	-0.272	-0.425
-616.317	29.801	0.230	-0.197
-615.303	-84.936	0.090	0.028
-614.288	-63.328	-0.209	-0.086
-613.273	-4.573	-0.355	0.246
-612.259	22.635	-0.184	0.151
-611.244	-200.000	0.091	-0.416
-610.230	-200.000	0.023	0.183
-609.215	-17.153	-0.102	-0.065
-608.201	152.532	0.192	-0.263
-607.186	-121.774	-0.182	0.030
-606.171	205.090	0.096	-0.149
-605.157	558.480	-0.122	0.295
-604.142	86.543	0.052	0.058
-603.128	-115.102	-0.133	-0.025
-602.113	-147.859	0.272	-0.023
-601.098	-200.000	-0.057	-0.336
-600.084	0.381	0.184	0.132
-599.069	-200.000	-0.024	-0.252
-598.055	-28.956	-0.041	-0.024
-597.040	-180.977	0.220	-0.004
-596.025	123.971	-0.112	-0.142
-595.011	3.126	-0.071	-0.052
-593.996	-48.355	-0.117	-0.057
-592.982	-8.510	0.307	-0.207
-591.967	-200.000	-0.060	-0.338
-590.952	-135.167	-0.146	-0.018
-589.938	135.751	-0.082	-0.107
-588.923	-82.158	0.168	0.055
-587.909	-200.000	-0.066	-0.383
-586.894	-200.000	-0.034	0.151
-585.879	-200.000	-0.008	-0.073
-584.865	-27.104	0.249	0.145
-583.850	39.913	0.193	0.174
-582.836	-48.754	-0.108	-0.052
-581.821	-38.240	-0.113	-0.060
-580.806	770.800	-0.079	-0.216
-579.792	68.586	-0.193	0.198
-578.777	7.284	0.239	-0.179
-577.763	-200.000	0.052	-0.284
-576.748	800.000	-0.028	-0.116
-575.733	-45.552	-0.201	0.100
-574.719	240.602	-0.063	0.105
-573.704	94.752	-0.239	0.273
-572.690	-55.367	0.120	-0.054
-571.675	-200.000	0.092	-0.451
-570.661	-200.000	-0.028	0.177
-569.646	-200.000	-0.002	-0.064
-568.631	-63.552	0.188	-0.077
-567.617	-86.010	-0.112	-0.035
-566.602	23.028	-0.193	-0.159
-565.588	-90.256	0.262	0.076
-564.573	39.758	-0.214	-0.192
-563.558	731.300	0.116	0.311
-562.544	800.000	-0.046	0.153
-561.529	-87.305	0.495	-0.151
-560.515	-100.277	0.263	-0.065
-559.500	652.159	0.022	0.057
-558.485	54.689	0.071	-0.069
-557.471	-106.022	0.153	0.034
-556.456	-23.498	-0.098	0.059
-555.442	-129.799	0.175	0.024
-554.427	-57.232	-0.446	-0.196
-553.412	-187.065	-0.230	0.003
-552.398	-150.527	0.307	0.024
-551.383	800.000	-0.044	0.151
-550.369	-200.000	0.024	0.179
-549.354	-101.122	-0.232	0.057
-548.339	192.313	0.194	-0.293
-547.325	328.372	-0.077	-0.148
-546.310	-200.000	0.018	-0.618
-545.296	-93.618	-0.141	-0.039
-544.281	-160.361	0.105	-0.006
-543.266	-200.000	-0.007	0.124
-542.252	35.814	0.112	0.098
-541.237	5.780	0.283	-0.210
-540.223	-200.000	-0.011	-0.070
-539.208	-157.980	0.398	0.023
-538.193	-200.000	0.055	-0.392
-537.179	2.887	-0.167	-0.121
-536.164	215.242	-0.094	0.150
-535.150	35.586	0.191	-0.168
-534.135	-27.421	0.320	0.186
-533.121	-123.931	0.170	0.027
-532.106	293.657	-0.070	0.129
-531.091	462.463	0.131	0.293
-530.077	7.522	-0.257	0.192
-529.062	-89.619	-0.069	-0.020
-528.048	-120.862	-0.292	-0.049
-527.033	-30.508	-0.293	-0.166
-526.018	50.571	0.092	0.087
-525.004	107.870	-0.073	-0.087
-523.989	-67.401	0.100	0.039
-522.975	128.579	-0.080	0.102
-521.960	800.000	0.048	-0.198
-520.945	-36.794	-0.102	-0.055
-519.931	114.969	-0.149	-0.182
-518.916	161.910	0.049	-0.069
-517.902	-120.638	0.183	-0.031
-516.887	800.000	0.027	-0.109
-515.872	-200.000	-0.064	-0.397
-514.858	-56.136	0.160	0.071
-513.843	-87.153	-0.142	0.043
-512.829	614.702	0.148	0.371
-511.814	-200.000	-0.041	0.253
-510.799	16.878	0.130	-0.103
-509.785	18.295	-0.093	-0.075
-508.770	40.804	0.176	-0.159
-507.756	119.954	-0.141	0.175
-506.741	-110.837	0.290	-0.060
-505.726	-47.113	-0.194	-0.095
-504.712	-56.518	-0.119	-0.053
-503.697	22.711	-0.172	-0.141
-502.683	-200.000	0.020	0.284
-501.668	69.148	0.296	-0.305
-500.653	-71.126	0.262	0.098
-499.639	316.902	-0.005	-0.010
-498.624	15.743	-0.152	-0.120
-497.610	-20.684	-0.172	0.106
-496.595	12.664	-0.300	0.232
-495.581	195.990	-0.125	-0.190
-494.566	-96.603	0.070	-0.018
-493.551	225.388	0.120	-0.194
-492.537	-54.460	0.483	0.219
-491.522	-200.000	-0.010	-0.205
-490.508	800.000	0.055	-0.222
-489.493	-200.000	-0.021	0.201
-488.478	168.246	0.055	-0.078
-487.464	-110.269	-0.400	0.083
-486.449	-59.252	-0.016	0.007
-485.435	53.026	0.228	0.218
-484.420	-88.126	0.207	-0.062
-483.405	54.104	0.111	0.106
-482.391	-45.939	-0.272	-0.134
-481.376	-103.548	0.146	0.034
-480.362	-72.987	-0.139	-0.051
-479.347	-63.081	-0.184	0.076
-478.332	-141.076	0.344	0.035
-477.318	800.000	0.126	-0.439
-476.303	-51.147	-0.587	-0.275
-475.289	30.928	0.174	0.149
-474.274	8.392	0.173	-0.130
-473.259	-33.014	0.029	0.016
-472.245	260.482	-0.093	0.161
-471.230	-123.371	0.370	-0.059
-470.216	-19.986	-0.187	0.115
-469.201	135.585	0.199	-0.259
-468.186	113.349	0.131	-0.158
-467.172	6.550	0.295	0.219
-466.157	17.916	0.188	0.150
-465.143	-32.858	-0.367	-0.204
-464.128	-155.040	-0.189	0.012
-463.113	-90.960	0.300	0.086
-462.099	78.384	-0.108	0.115
-461.084	261.892	0.104	-0.180
-460.070	47.195	-0.039	0.037
-459.055	-196.320	-0.389	0.003
-458.040	-200.000	0.010	0.048
-457.026	-14.079	-0.344	-0.222
-456.011	800.000	0.058	0.200
-454.997	800.000	0.097	-0.305
-453.982	44.693	-0.136	-0.125
-452.968	9.159	-0.343	0.259
-451.953	-71.209	0.401	-0.150
-450.938	-152.539	-0.125	-0.009
-449.924	-119.684	0.332	0.057
-448.909	187.440	0.099	0.148
-447.895	-123.423	-0.311	0.049
-446.880	461.676	-0.029	0.065
-445.865	237.398	-0.082	-0.135
-444.851	-162.528	0.172	0.008
-443.836	-200.000	-0.017	0.149
-442.822	234.749	-0.153	0.251
-441.807	-21.408	-0.196	-0.119
-440.792	800.000	-0.059	0.175
-439.778	8.381	0.199	-0.149
-438.763	16.908	-0.265	-0.209
-437.749	-7.187	0.072	-0.048
-436.734	800.000	-0.065	-0.180
-435.719	34.558	-0.321	-0.279
-434.705	800.000	0.076	0.249
-433.690	-143.833	-0.258	-0.024
-432.676	-93.406	-0.239	0.066
-431.661	49.488	-0.230	-0.216
-430.646	-22.502	-0.311	0.187
-429.632	451.196	-0.089	0.196
-428.617	-36.841	-0.261	0.139
-427.603	126.304	-0.131	0.165
-426.588	-200.000	-0.003	0.152
-425.573	10.588	-0.319	0.242
-424.559	-174.335	0.108	0.003
-423.544	-140.234	-0.120	0.013
-422.530	-98.351	-0.210	0.054
-421.515	-6.748	0.128	0.087
-420.500	257.562	0.150	-0.257
-419.486	289.359	0.018	0.032
-418.471	800.000	-0.054	-0.219
-417.457	12.538	-0.100	-0.077
-416.442	-169.242	-0.278	-0.010
-415.428	362.035	-0.118	-0.236
-414.413	677.419	-0.035	-0.090
-413.398	208.066	0.112	-0.174
-412.384	-124.260	0.057	-0.009
-411.369	-139.758	-0.330	0.035
-410.355	-134.986	-0.208	-0.025
-409.340	86.435	0.119	-0.131
-408.325	579.657	-0.051	-0.124
-407.311	194.479	0.195	-0.295
-406.296	681.535	-0.086	-0.224
-405.282	-111.950	0.291	0.058
-404.267	-36.185	-0.022	0.012
-403.252	157.458	-0.165	-0.228
-402.238	127.662	0.221	0.280
-401.223	-110.157	0.236	0.049
-400.209	-137.172	-0.221	0.025
-399.194	-149.361	0.162	-0.013
-398.179	786.788	0.086	0.236
-397.165	590.860	-0.077	0.190
-396.150	65.234	0.285	0.287
-395.136	159.614	0.211	0.292
-394.121	800.000	0.034	-0.128
-393.106	347.661	0.086	0.168
-392.092	183.792	-0.046	0.067
-391.077	65.502	-0.043	0.044
-390.063	-200.000	0.008	-0.155
-389.048	202.452	-0.035	0.054
-388.033	-76.859	-0.074	-0.026
-387.019	800.000	-0.125	-0.467
-386.004	-1.983	0.103	0.072
-384.990	800.000	-0.099	-0.317
-383.975	88.210	-0.299	0.331
-382.960	-18.812	0.545	-0.338
-381.946	93.436	-0.035	0.040
-380.931	438.810	0.041	-0.090
-379.917	65.491	0.060	0.061
-378.902	134.536	-0.158	0.204
-377.888	77.074	-0.208	0.220
-376.873	-136.844	0.150	0.017
-375.858	317.888	0.123	-0.231
-374.844	94.580	-0.115	0.130
-373.829	90.474	-0.161	0.179
-372.815	-16.138	0.397	0.251
-371.800	800.000	0.038	-0.128
-370.785	99.101	0.180	-0.206
-369.771	-115.922	0.405	-0.075
-368.756	-107.892	0.134	-0.029
-367.742	-102.555	0.187	-0.044
-366.727	32.867	-0.165	0.142
-365.712	-200.000	0.019	0.095
-364.698	-173.497	-0.294	0.009
-363.683	79.856	-0.197	-0.211
-362.669	-38.456	0.050	-0.026
-361.654	-103.472	0.093	0.022
-360.639	800.000	-0.073	-0.270
-359.625	532.806	0.064	0.151
-358.610	-200.000	-0.048	0.504
-357.596	-11.994	-0.248	0.161
-356.581	134.253	-0.255	0.329
-355.566	800.000	0.071	0.209
-354.552	-147.866	0.162	-0.013
-353.537	-81.465	0.266	-0.087
-352.523	513.336	0.028	-0.066
-351.508	-38.484	0.310	-0.163
-350.493	100.788	0.092	0.107
-349.479	-162.586	0.115	0.006
-348.464	316.350	-0.057	-0.108
-347.450	-200.000	-0.010	-0.051
-346.435	-133.675	0.086	-0.011
-345.420	-24.115	-0.366	0.217
-344.406	551.937	-0.047	-0.113
-343.391	29.275	0.338	-0.285
-342.377	102.438	-0.291	0.338
-341.362	-200.000	0.052	-0.303
-340.348	99.100	0.044	-0.050
-339.333	91.127	-0.121	0.135
-338.318	-200.000	-0.047	0.215
-337.304	-23.988	0.197	-0.117
-336.289	-200.000	0.013	-0.171
-335.275	69.117	-0.245	-0.251
-334.260	800.000	-0.115	0.391
-333.245	104.747	0.361	0.422
-332.231	175.350	0.063	0.091
-331.216	800.000	-0.040	0.171
-330.202	-123.873	-0.242	0.038
-329.187	-122.203	-0.209	-0.034
-328.172	-97.932	0.070	0.018
-327.158	241.754	0.140	-0.233
-326.143	800.000	-0.074	0.252
-325.129	-116.689	-0.125	0.023
-324.114	93.076	0.043	0.048
-323.099	-200.000	-0.023	-0.364
-322.085	-129.864	0.154	-0.021
-321.070	-51.482	0.238	0.110
-320.056	-162.648	-0.038	-0.002
-319.041	-78.999	0.056	0.019
-318.026	-115.196	-0.254	0.048
-317.012	-5.863	0.146	0.099
-315.997	-200.000	0.019	-0.150
-314.983	-24.691	0.110	-0.065
-313.968	51.242	-0.101	-0.095
-312.953	78.236	0.057	-0.061
-311.939	-59.449	0.190	0.081
-310.924	-87.843	0.236	0.071
-309.910	271.618	0.066	0.115
-308.895	-110.147	-0.296	-0.061
-307.880	27.609	0.254	0.212
-306.866	289.083	-0.033	0.059
-305.851	651.019	0.032	-0.082
-304.837	187.321	0.225	0.333
-303.822	800.000	0.083	-0.236
-302.807	-186.555	0.294	0.004
-301.793	-3.544	-0.326	0.225
-300.778	-28.096	-0.020	0.012
-299.764	399.127	-0.063	-0.132
-298.749	-2.665	0.133	0.093
-297.735	61.583	-0.154	-0.152
-296.720	800.000	0.070	0.202
-295.705	-147.522	0.256	-0.021
-294.691	152.819	0.106	-0.144
-293.676	-42.548	-0.283	-0.143
-292.662	45.108	-0.239	-0.219
-291.647	171.263	-0.102	0.145
-290.632	166.465	-0.081	0.113
-289.618	-59.561	-0.124	-0.053
-288.603	675.675	0.032	-0.083
-287.589	221.800	-0.032	0.051
-286.574	-24.320	0.138	0.082
-285.559	231.247	-0.142	0.230
-284.545	-200.000	-0.026	0.267
-283.530	-131.498	0.287	0.038
-282.516	230.211	0.065	0.105
-281.501	613.245	0.033	0.083
-280.486	800.000	0.077	0.227
-279.472	-200.000	-0.020	-0.105
-278.457	596.222	-0.069	-0.169
-277.443	23.116	0.098	-0.080
-276.428	800.000	0.066	0.279
-275.413	-200.000	0.054	0.416
-274.399	156.198	0.183	0.250
-273.384	106.602	-0.046	0.054
-272.370	-1.631	-0.094	-0.066
-271.355	-70.189	-0.250	-0.094
-270.340	691.607	0.041	-0.106
-269.326	-48.013	-0.298	-0.143
-268.311	-147.480	-0.034	0.003
-267.297	-115.221	-0.022	0.004
-266.282	350.853	0.130	-0.254
-265.267	170.389	0.027	-0.038
-264.253	-103.771	-0.192	-0.044
-263.238	800.000	0.079	-0.252
-262.224	-72.539	0.376	0.137
-261.209	174.173	-0.088	0.126
-260.195	200.310	-0.083	0.126
-259.180	800.000	0.059	-0.246
-258.165	189.581	0.075	0.111
-257.151	-200.000	0.025	-0.230
-256.136	213.841	0.206	-0.322
-255.122	-65.771	-0.086	0.034
-254.107	-200.000	-0.040	-0.179
-253.092	127.329	-0.314	0.395
-252.078	-200.000	-0.034	0.207
-251.063	-191.009	0.336	0.003
-250.049	102.295	-0.171	0.198
-249.034	-77.779	-0.110	-0.038
-248.019	-200.000	0.016	-0.153
-247.005	457.342	0.036	0.080
-245.990	-123.281	0.211	-0.033
-244.976	800.000	-0.044	0.181
-243.961	38.183	-0.054	0.047
-242.946	128.698	-0.169	-0.213
-241.932	-104.066	0.124	0.028
-240.917	-200.000	0.009	0.204
-239.903	103.070	-0.107	0.124
-238.888	28.939	-0.096	0.080
-237.873	800.000	0.034	-0.139
-236.859	504.511	0.046	-0.106
-235.844	124.234	-0.153	0.191
-234.830	500.401	0.093	-0.212
-233.815	-136.301	-0.215	0.025
-232.800	145.598	0.164	0.217
-231.786	800.000	-0.111	-0.360
-230.771	-145.570	0.093	0.008
-229.757	-74.356	-0.108	-0.039
-228.742	-57.882	-0.125	0.054
-227.727	-200.000	0.003	0.041
-226.713	33.502	0.048	0.041
-225.698	800.000	0.050	0.140
-224.684	-64.977	0.128	0.051
-223.669	-200.000	0.049	0.294
-222.655	428.516	0.208	0.445
-221.640	-124.529	0.115	-0.018
-220.625	-92.081	0.164	0.046
-219.611	22.547	0.150	-0.121
-218.596	-168.344	0.033	0.001
-217.582	-84.555	0.134	-0.042
-216.567	-87.822	-0.217	0.065
-215.552	-149.197	-0.122	-0.010
-214.538	-200.000	0.020	0.137
-213.523	146.822	-0.101	0.134
-212.509	-60.882	0.150	-0.063
-211.494	383.075	-0.253	0.514
-210.479	51.583	0.114	-0.107
-209.465	121.636	-0.161	-0.198
-208.450	84.532	-0.095	-0.103
-207.436	-68.961	0.011	0.004
-206.421	-91.306	-0.068	0.019
-205.406	-14.101	-0.143	0.091
-204.392	-67.317	-0.418	-0.162
-203.377	800.000	0.020	-0.080
-202.363	-64.080	0.232	0.093
-201.348	-200.000	-0.081	0.414
-200.333	-18.719	0.378	-0.233
-199.319	-200.000	-0.027	0.135
-198.304	-99.439	0.189	0.047
-197.290	233.741	-0.073	-0.119
-196.275	-200.000	0.031	0.253
-195.260	-67.808	0.130	0.050
-194.246	-127.387	-0.473	-0.068
-193.231	46.394	0.113	-0.104
-192.217	55.994	0.104	-0.100
-191.202	377.974	-0.061	0.122
-190.187	-145.845	-0.357	-0.031
-189.173	115.137	0.050	0.060
-188.158	52.577	0.178	-0.168
-187.144	32.995	-0.164	-0.141
-186.129	176.197	-0.088	-0.127
-185.114	-112.635	0.263	0.052
-184.100	-40.922	0.145	0.074
-183.085	-130.440	0.194	0.026
-182.071	-200.000	0.030	0.135
-181.056	243.252	0.146	0.241
-180.042	13.786	-0.051	-0.039
-179.027	-11.396	-0.155	0.101
-178.012	444.376	0.182	-0.394
-176.998	5.404	-0.120	0.087
-175.983	-168.462	0.167	-0.006
-174.969	35.785	-0.173	0.150
-173.954	6.858	0.296	0.218
-172.939	96.725	0.031	0.035
-171.925	-5.677	-0.266	0.180
-170.910	230.656	0.135	0.217
-169.896	800.000	0.063	0.198
-168.881	-123.600	0.523	0.082
-167.866	-200.000	-0.015	0.194
-166.852	800.000	-0.040	-0.151
-165.837	25.488	-0.170	-0.140
-164.823	-200.000	-0.027	0.273
-163.808	-177.196	-0.323	0.008
-162.793	-163.515	0.095	0.004
-161.779	-117.287	-0.124	-0.022
-160.764	159.861	-0.009	0.012
-159.750	-29.834	0.121	0.068
-158.735	-77.025	0.112	0.039
-157.720	-200.000	0.000	0.028
-156.706	-86.846	0.207	-0.062
-155.691	-60.219	-0.205	0.086
-154.677	226.247	-0.153	0.246
-153.662	-60.858	0.315	-0.131
-152.647	-200.000	0.017	-0.133
-151.633	111.433	0.336	0.399
-150.618	-82.386	-0.387	-0.124
-149.604	41.017	0.068	-0.061
-148.589	191.012	-0.174	-0.258
-147.574	-200.000	0.000	-0.466
-146.560	-77.959	0.081	0.028
-145.545	-25.072	0.368	-0.215
-144.531	-200.000	0.012	-0.229
-143.516	-1.894	-0.188	0.130
-142.502	-200.000	-0.050	0.221
-141.487	-102.310	-0.237	0.056
-140.472	245.708	-0.122	0.203
-139.458	665.685	0.086	0.220
-138.443	800.000	-0.034	-0.127
-137.429	773.206	0.009	-0.025
-136.414	125.737	0.067	0.083
-135.399	51.773	0.065	-0.061
-134.385	22.469	0.197	-0.158
-133.370	-132.562	-0.163	0.021
-132.356	26.818	0.047	-0.039
-131.341	180.966	-0.187	0.271
-130.326	800.000	0.060	0.185
-129.312	-72.620	0.138	0.050
-128.297	26.040	0.128	-0.106
-127.283	83.277	-0.172	-0.184
-126.268	-200.000	0.093	0.503
-125.253	-164.620	-0.267	0.012
-124.239	-151.869	0.321	0.023
-123.224	-155.748	0.312	0.020
-122.210	111.513	-0.210	-0.249
-121.195	-200.000	-0.099	0.440
-120.180	108.941	-0.289	-0.341
