DTS Sentinel unit serial number:	SN413079Multiplexer serial number:	ORYXHardware model number:	OX4-SRSoftware version number:	ORYX F/W v4.00 Oryx Data Collector v3.7.2.0data status	okinstallation	princeton_trtdifferential loss correction	single-endedforward channel	channel 2reverse channel	N/Adate	2019/09/19time	04:35:35forward acquisition time	60.00reverse acquisition time	0.00gamma	496.2192k internal	0.2351k external	0.2351temperature offset calibration	1.0012default loss term (dB/km)	0.3790temperature slope calibration	1.0000multiplexer offset coefficient	1.0000multiplexer slope coefficient	1.0000fibre end	0.00T internal ref (°C)	20.06T ext. ref 1 (°C)	0.63T ext. ref 2 (°C)	13.07length (m)	temperature (°C)	Stokes	anti-Stokes-747.200	-28.732	0.212	-0.122
-746.185	-94.646	0.059	0.016
-745.171	-200.000	0.002	0.067
-744.156	-200.000	-0.021	0.382
-743.142	-88.957	0.168	0.050
-742.127	272.889	-0.211	0.373
-741.112	-25.507	0.206	0.121
-740.098	-43.528	0.037	0.019
-739.083	146.527	0.070	-0.094
-738.069	95.368	-0.099	0.113
-737.054	80.031	0.005	0.005
-736.039	-200.000	0.013	0.110
-735.025	-200.000	-0.023	0.173
-734.010	-142.564	-0.141	-0.014
-732.996	-149.132	-0.236	0.019
-731.981	-200.000	-0.002	-0.216
-730.966	800.000	-0.092	0.335
-729.952	186.892	0.032	-0.047
-728.937	193.950	0.160	-0.241
-727.923	-138.239	-0.311	0.034
-726.908	-158.862	0.219	0.012
-725.894	-90.207	-0.344	-0.100
-724.879	65.426	0.139	-0.140
-723.864	-53.409	0.381	-0.174
-722.850	-46.677	-0.080	-0.039
-721.835	247.652	0.086	-0.146
-720.821	800.000	-0.149	-0.414
-719.806	-196.238	-0.195	0.001
-718.791	-200.000	0.074	-0.393
-717.777	-66.057	0.385	0.153
-716.762	224.127	0.196	0.316
-715.748	-122.468	-0.228	0.037
-714.733	37.630	-0.261	0.231
-713.718	28.739	0.131	0.110
-712.704	-200.000	-0.035	-0.293
-711.689	148.354	-0.170	0.229
-710.675	-200.000	0.038	-0.315
-709.660	-21.008	-0.148	0.090
-708.645	141.590	0.203	0.268
-707.631	152.634	0.158	0.215
-706.616	-200.000	0.014	-0.320
-705.602	0.764	0.454	-0.324
-704.587	-91.414	-0.172	0.049
-703.572	-99.585	0.146	0.037
-702.558	252.529	0.017	0.029
-701.543	75.764	0.129	-0.135
-700.529	134.578	0.140	0.181
-699.514	467.346	-0.113	0.253
-698.499	173.903	0.058	-0.083
-697.485	800.000	-0.098	-0.321
-696.470	-141.745	0.104	-0.010
-695.456	800.000	-0.105	0.302
-694.441	674.917	0.106	-0.274
-693.426	-153.994	0.241	0.016
-692.412	800.000	-0.048	0.153
-691.397	684.733	-0.046	0.120
-690.383	-110.429	-0.028	-0.006
-689.368	-200.000	0.000	0.061
-688.354	800.000	-0.065	-0.199
-687.339	437.471	0.117	0.255
-686.324	-168.852	0.107	0.004
-685.310	121.142	0.169	-0.210
-684.295	293.144	0.078	-0.142
-683.281	-50.932	0.339	0.159
-682.266	-200.000	0.100	0.509
-681.251	-162.905	-0.438	-0.021
-680.237	198.319	-0.067	0.102
-679.222	32.074	0.113	-0.097
-678.208	-73.786	0.153	0.056
-677.193	-3.552	-0.160	-0.111
-676.178	-200.000	0.078	-0.384
-675.164	-200.000	0.001	0.097
-674.149	-58.297	0.264	0.114
-673.135	-177.125	0.359	0.009
-672.120	599.389	0.095	0.234
-671.105	-35.648	-0.143	0.077
-670.091	266.387	0.040	0.069
-669.076	-28.858	0.250	0.143
-668.062	-113.814	-0.142	-0.027
-667.047	800.000	0.108	-0.363
-666.032	261.073	-0.162	-0.279
-665.018	-106.038	0.141	-0.031
-664.003	34.256	-0.025	0.022
-662.989	-22.521	0.081	-0.049
-661.974	-107.549	0.197	0.043
-660.959	-200.000	0.060	-0.381
-659.945	486.301	-0.119	0.270
-658.930	-33.288	0.317	0.175
-657.916	148.390	0.230	-0.308
-656.901	-127.032	-0.094	-0.014
-655.886	259.258	0.053	-0.092
-654.872	-156.706	0.222	0.014
-653.857	368.335	0.102	0.204
-652.843	155.239	-0.149	0.204
-651.828	-82.362	0.297	0.096
-650.814	4.311	0.357	0.260
-649.799	-17.112	-0.066	0.041
-648.784	-86.652	0.206	0.063
-647.770	-200.000	0.002	0.016
-646.755	-170.033	0.239	0.008
-645.741	-200.000	-0.049	0.246
-644.726	-68.114	0.161	0.062
-643.711	145.308	0.226	-0.300
-642.697	307.952	0.081	-0.150
-641.682	-32.231	-0.464	-0.257
-640.668	-167.873	-0.034	0.001
-639.653	20.946	-0.243	0.196
-638.638	364.050	0.139	0.277
-637.624	65.779	-0.225	-0.227
-636.609	-38.899	-0.122	0.064
-635.595	178.056	-0.134	-0.194
-634.580	800.000	-0.068	0.258
-633.565	93.506	0.065	-0.073
-632.551	-200.000	-0.015	-0.163
-631.536	40.391	0.179	-0.160
-630.522	81.729	0.181	-0.195
-629.507	-137.161	-0.047	-0.005
-628.492	49.590	0.102	0.095
-627.478	-131.887	-0.480	-0.062
-626.463	-17.795	-0.101	0.063
-625.449	-200.000	-0.007	-0.172
-624.434	-125.364	-0.054	-0.008
-623.419	800.000	0.039	-0.137
-622.405	76.481	0.064	-0.067
-621.390	29.388	-0.226	-0.190
-620.376	15.675	-0.080	0.063
-619.361	-200.000	0.003	0.082
-618.346	-200.000	-0.031	0.267
-617.332	150.160	-0.323	-0.436
-616.317	204.006	0.106	-0.164
-615.303	-43.740	0.272	0.136
-614.288	-49.816	-0.190	-0.089
-613.273	109.521	0.131	0.156
-612.259	-113.511	0.120	0.023
-611.244	-99.250	-0.258	0.065
-610.230	57.550	-0.161	-0.157
-609.215	262.138	-0.136	0.234
-608.201	-126.451	-0.086	0.013
-607.186	-92.608	0.432	0.120
-606.171	-200.000	-0.017	0.470
-605.157	-37.742	-0.018	0.009
-604.142	-200.000	0.032	-0.233
-603.128	-19.766	0.121	-0.074
-602.113	118.977	-0.184	-0.226
-601.098	378.351	0.079	0.160
-600.084	204.350	0.179	0.275
-599.069	135.504	-0.144	-0.186
-598.055	-151.056	-0.131	0.010
-597.040	-107.976	-0.114	-0.024
-596.025	-146.309	-0.109	-0.009
-595.011	-3.834	-0.238	-0.164
-593.996	-200.000	0.061	-0.282
-592.982	190.832	-0.133	-0.199
-591.967	422.179	-0.062	-0.131
-590.952	85.168	0.112	-0.122
-589.938	232.452	-0.152	0.248
-588.923	-96.312	0.427	0.112
-587.909	-25.048	0.206	-0.121
-586.894	800.000	-0.086	-0.274
-585.879	800.000	-0.063	0.197
-584.865	-130.707	-0.400	0.053
-583.850	97.401	-0.110	0.125
-582.836	693.185	-0.093	-0.242
-581.821	352.104	-0.190	-0.373
-580.806	233.671	-0.162	0.264
-579.792	-79.187	0.254	-0.085
-578.777	-200.000	0.026	0.292
-577.763	800.000	0.038	-0.139
-576.748	-128.832	0.096	0.013
-575.733	-200.000	-0.014	-0.314
-574.719	245.621	0.165	-0.275
-573.704	-103.247	0.087	-0.020
-572.690	648.622	-0.094	0.239
-571.675	-109.253	-0.493	-0.104
-570.661	21.079	0.138	0.111
-569.646	-25.064	-0.232	-0.136
-568.631	312.832	0.089	0.166
-567.617	-95.145	-0.195	-0.052
-566.602	324.126	0.180	-0.340
-565.588	-107.663	0.510	0.110
-564.573	-155.482	0.120	-0.008
-563.558	17.973	0.320	-0.253
-562.544	4.882	0.159	-0.116
-561.529	-51.854	-0.131	-0.060
-560.515	-200.000	0.012	-0.199
-559.500	-100.599	-0.341	-0.083
-558.485	-148.611	0.042	0.003
-557.471	800.000	-0.133	0.378
-556.456	-200.000	0.007	-0.207
-555.442	112.310	0.088	0.105
-554.427	-200.000	-0.001	0.035
-553.412	190.846	0.180	-0.268
-552.398	-46.262	0.245	-0.119
-551.383	412.458	0.095	0.199
-550.369	93.166	-0.337	-0.377
-549.354	-70.527	-0.055	0.021
-548.339	169.274	0.210	0.296
-547.325	-4.552	0.025	0.017
-546.310	105.983	0.314	-0.368
-545.296	240.828	-0.203	0.335
-544.281	-200.000	-0.038	0.304
-543.266	-200.000	-0.006	0.078
-542.252	721.891	0.075	-0.198
-541.237	800.000	-0.097	0.301
-540.223	-140.584	0.263	-0.027
-539.208	-89.905	-0.205	-0.059
-538.193	-36.541	-0.202	0.108
-537.179	109.189	-0.164	-0.195
-536.164	332.801	0.169	-0.323
-535.150	341.754	0.068	-0.131
-534.135	-116.605	-0.101	-0.018
-533.121	56.324	0.295	0.283
-532.106	-58.082	0.069	-0.030
-531.091	800.000	-0.074	-0.211
-530.077	52.174	0.305	-0.287
-529.062	121.592	-0.199	-0.246
-528.048	320.211	-0.199	0.373
-527.033	37.886	0.075	0.066
-526.018	620.319	-0.136	-0.339
-525.004	192.789	-0.077	0.115
-523.989	-172.812	-0.423	-0.013
-522.975	-119.747	0.274	0.047
-521.960	800.000	0.053	0.180
-520.945	291.600	-0.062	0.111
-519.931	197.486	-0.165	0.249
-518.916	-111.986	-0.233	-0.046
-517.902	37.905	-0.308	0.271
-516.887	-9.779	0.107	-0.071
-515.872	-129.417	0.053	-0.007
-514.858	-139.091	0.333	-0.036
-513.843	-126.611	-0.478	-0.070
-512.829	-200.000	-0.058	-0.444
-511.814	-200.000	0.011	0.356
-510.799	36.171	0.242	0.211
-509.785	-140.474	0.024	-0.003
-508.770	191.086	0.077	-0.115
-507.756	166.236	-0.124	0.174
-506.741	-200.000	-0.004	-0.175
-505.726	26.359	-0.075	0.062
-504.712	-200.000	-0.075	-0.371
-503.697	68.886	0.357	-0.362
-502.683	34.883	-0.061	0.053
-501.668	-200.000	0.009	0.286
-500.653	116.075	-0.065	0.078
-499.639	122.189	-0.072	0.089
-498.624	10.073	0.093	0.070
-497.610	268.953	0.121	-0.210
-496.595	206.965	0.098	0.151
-495.581	-139.513	-0.169	-0.018
-494.566	-200.000	-0.040	-0.260
-493.551	-115.874	0.031	0.006
-492.537	123.001	-0.240	-0.297
-491.522	800.000	0.055	0.165
-490.508	-160.612	-0.133	0.007
-489.493	655.197	-0.090	-0.228
-488.478	121.240	-0.096	-0.118
-487.464	-122.467	0.379	-0.061
-486.449	-180.316	-0.488	-0.010
-485.435	-86.307	-0.113	0.034
-484.420	482.624	0.126	-0.284
-483.405	31.030	-0.136	-0.115
-482.391	-87.414	-0.084	-0.025
-481.376	800.000	-0.037	0.118
-480.362	180.234	-0.174	0.251
-479.347	-200.000	0.059	0.274
-478.332	-200.000	0.064	0.300
-477.318	135.876	0.060	-0.078
-476.303	-200.000	-0.032	0.224
-475.289	-200.000	0.010	0.180
-474.274	48.060	-0.277	-0.255
-473.259	-200.000	-0.078	-0.424
-472.245	46.062	0.178	-0.163
-471.230	237.881	-0.054	-0.088
-470.216	-51.053	-0.243	0.112
-469.201	59.722	-0.133	0.130
-468.186	-85.490	0.121	-0.037
-467.172	-58.863	-0.181	0.077
-466.157	-64.583	0.373	-0.150
-465.143	25.257	-0.008	-0.006
-464.128	101.806	-0.092	-0.105
-463.113	-115.510	0.144	0.027
-462.099	-175.939	-0.142	0.004
-461.084	800.000	-0.017	-0.051
-460.070	377.152	0.125	-0.253
-459.055	-15.122	-0.094	-0.059
-458.040	-0.483	0.116	-0.081
-457.026	-99.919	0.245	0.060
-456.011	-200.000	-0.008	0.301
-454.997	757.358	0.071	-0.190
-453.982	-200.000	0.000	-0.210
-452.968	-49.889	-0.059	0.028
-451.953	92.449	0.179	-0.199
-450.938	-200.000	-0.021	-0.194
-449.924	800.000	0.025	0.073
-448.909	-8.921	-0.189	0.125
-447.895	-126.556	-0.124	0.018
-446.880	800.000	-0.020	0.063
-445.865	102.613	-0.174	0.201
-444.851	-81.003	0.175	-0.057
-443.836	-96.665	-0.461	0.120
-442.822	800.000	-0.063	0.215
-441.807	10.287	-0.334	0.251
-440.792	-146.148	0.179	-0.016
-439.778	-10.837	0.175	0.114
-438.763	-5.845	-0.092	0.062
-437.749	526.006	0.148	0.343
-436.734	-59.002	-0.160	0.068
-435.719	147.225	-0.134	-0.177
-434.705	389.519	0.048	0.098
-433.690	-2.278	-0.261	0.180
-432.676	-72.545	-0.183	-0.067
-431.661	-123.454	0.335	-0.053
-430.646	114.453	-0.071	0.085
-429.632	-200.000	-0.021	0.209
-428.617	370.758	-0.054	0.108
-427.603	-49.622	-0.035	-0.017
-426.588	205.033	0.025	-0.038
-425.573	19.890	0.211	-0.168
-424.559	-200.000	0.009	-0.211
-423.544	53.948	-0.111	0.105
-422.530	-200.000	0.016	-0.184
-421.515	186.086	0.070	0.103
-420.500	294.879	0.110	0.198
-419.486	-18.579	-0.286	-0.176
-418.471	555.795	-0.144	-0.342
-417.457	-83.200	0.330	0.104
-416.442	-150.242	0.304	-0.023
-415.428	-36.342	0.110	0.058
-414.413	-149.389	-0.120	0.009
-413.398	19.019	-0.195	-0.154
-412.384	659.241	0.043	0.109
-411.369	-200.000	-0.016	-0.234
-410.355	364.802	-0.023	0.045
-409.340	1.679	-0.290	0.206
-408.325	-200.000	0.027	0.319
-407.311	-200.000	-0.219	-0.001
-406.296	-38.214	-0.249	-0.130
-405.282	-200.000	0.003	0.151
-404.267	-98.572	-0.444	-0.112
-403.252	680.798	-0.213	0.547
-402.238	-87.624	0.113	0.034
-401.223	-123.045	-0.109	0.017
-400.209	800.000	-0.156	-0.434
-399.194	736.383	0.011	0.029
-398.179	-29.471	0.086	-0.049
-397.165	-190.922	-0.130	0.001
-396.150	800.000	0.130	0.431
-395.136	-47.222	-0.181	-0.087
-394.121	-200.000	0.002	0.114
-393.106	-145.623	-0.191	0.017
-392.092	53.168	0.074	-0.070
-391.077	766.000	-0.170	0.454
-390.063	-200.000	0.033	0.298
-389.048	129.263	0.160	-0.201
-388.033	-25.898	-0.106	-0.061
-387.019	-21.516	-0.192	0.115
-386.004	217.763	0.070	0.110
-384.990	248.228	0.179	-0.298
-383.975	-69.744	-0.217	-0.081
-382.960	-9.553	-0.101	-0.066
-381.946	-97.285	0.166	-0.043
-380.931	139.951	-0.121	0.157
-379.917	47.542	0.241	0.221
-378.902	-200.000	0.003	0.059
-377.888	-17.339	-0.151	0.094
-376.873	-97.906	0.090	-0.023
-375.858	75.061	-0.113	0.117
-374.844	-98.544	0.172	0.043
-373.829	19.423	-0.245	0.194
-372.815	800.000	-0.037	0.119
-371.800	-90.577	0.093	-0.026
-370.785	179.709	-0.077	0.111
-369.771	-33.990	-0.146	-0.079
-368.756	-200.000	-0.015	-0.407
-367.742	91.645	0.137	0.152
-366.727	-200.000	0.026	0.162
-365.712	-81.960	0.234	0.075
-364.698	-93.003	0.161	0.044
-363.683	-17.409	0.264	-0.163
-362.669	-97.095	-0.309	-0.079
-361.654	800.000	0.097	0.290
-360.639	-120.683	-0.056	-0.009
-359.625	-32.200	0.196	-0.108
-358.610	447.682	0.067	0.144
-357.596	126.696	0.245	0.305
-356.581	800.000	0.022	-0.068
-355.566	-53.881	0.231	-0.103
-354.552	-64.025	0.298	0.120
-353.537	458.449	-0.015	0.034
-352.523	137.706	0.119	0.153
-351.508	78.997	-0.190	0.200
-350.493	30.818	-0.056	-0.047
-349.479	-200.000	0.056	-0.281
-348.464	358.360	-0.204	-0.401
-347.450	119.607	0.078	-0.094
-346.435	219.070	-0.200	0.313
-345.420	51.485	0.126	-0.118
-344.406	-157.364	-0.025	0.001
-343.391	507.966	0.127	-0.290
-342.377	-200.000	-0.302	0.000
-341.362	800.000	0.045	0.149
-340.348	-37.984	0.290	0.151
-339.333	-112.234	0.230	-0.045
-338.318	22.245	-0.342	-0.274
-337.304	57.315	0.160	0.153
-336.289	800.000	0.043	0.175
-335.275	-94.583	0.319	-0.085
-334.260	-200.000	-0.025	-0.187
-333.245	-14.253	-0.129	0.082
-332.231	-136.510	0.215	-0.024
-331.216	205.170	0.098	0.149
-330.202	-22.994	-0.189	-0.112
-329.187	-200.000	0.013	0.113
-328.172	93.295	-0.133	-0.148
-327.158	-200.000	0.014	-0.096
-326.143	-75.552	0.165	-0.058
-325.129	800.000	-0.028	-0.081
-324.114	800.000	0.137	-0.381
-323.099	-200.000	0.001	-0.064
-322.085	756.976	-0.099	-0.264
-321.070	-200.000	-0.011	0.082
-320.056	800.000	0.044	0.147
-319.041	784.206	0.098	-0.264
-318.026	-200.000	-0.054	0.232
-317.012	-200.000	-0.000	0.014
-315.997	133.631	0.073	-0.093
-314.983	-125.313	0.446	-0.067
-313.968	-66.091	0.217	0.085
-312.953	800.000	0.098	0.330
-311.939	-43.091	0.195	0.097
-310.924	-150.166	-0.418	0.032
-309.910	698.264	0.037	-0.095
-308.895	-200.000	0.074	0.329
-307.880	-85.282	-0.336	0.103
-306.866	-52.964	0.048	0.022
-305.851	-99.036	0.409	-0.102
-304.837	448.579	-0.123	0.266
-303.822	169.608	0.132	-0.185
-302.807	120.284	0.227	0.276
-301.793	-46.121	0.189	-0.091
-300.778	-200.000	0.065	-0.279
-299.764	-200.000	-0.057	-0.440
-298.749	-200.000	0.037	0.184
-297.735	-122.686	-0.351	-0.056
-296.720	-33.873	0.190	-0.102
-295.705	72.000	0.263	-0.268
-294.691	-200.000	0.011	0.117
-293.676	-93.286	0.208	-0.057
-292.662	2.795	0.227	-0.161
-291.647	-77.447	-0.268	0.091
-290.632	240.915	-0.052	0.086
-289.618	20.752	0.114	0.090
-288.603	-143.091	0.254	-0.024
-287.589	-82.168	0.109	-0.035
-286.574	-44.741	0.051	0.025
-285.559	295.785	0.063	0.114
-284.545	17.301	-0.299	0.232
-283.530	22.435	-0.036	0.029
-282.516	-200.000	-0.010	-0.529
-281.501	-70.612	-0.212	-0.079
-280.486	-101.690	-0.342	0.081
-279.472	-200.000	0.007	-0.090
-278.457	800.000	-0.075	-0.310
-277.443	100.878	-0.118	-0.134
-276.428	47.566	-0.062	0.057
-275.413	48.348	-0.241	0.221
-274.399	800.000	0.059	0.195
-273.384	-88.397	-0.149	0.043
-272.370	-44.784	-0.243	0.119
-271.355	5.849	-0.032	0.023
-270.340	-77.849	0.108	0.036
-269.326	-200.000	-0.012	0.332
-268.311	44.264	0.225	0.202
-267.297	-19.089	-0.051	-0.031
-266.282	502.272	0.164	-0.372
-265.267	-181.584	0.117	-0.002
-264.253	-191.351	0.148	-0.001
-263.238	-85.847	-0.220	0.067
-262.224	-143.138	-0.351	0.033
-261.209	178.162	0.216	-0.308
-260.195	-164.645	-0.479	-0.021
-259.180	-146.667	0.257	0.022
-258.165	-200.000	0.010	-0.102
-257.151	186.062	0.161	0.234
-256.136	-64.726	0.123	0.049
-255.122	-104.806	0.041	-0.009
-254.107	-200.000	-0.055	0.259
-253.092	48.214	-0.156	0.143
-252.078	-200.000	-0.032	-0.159
-251.063	-200.000	-0.072	-0.334
-250.049	-200.000	0.018	0.350
-249.034	-200.000	-0.081	0.377
-248.019	-71.539	0.462	0.169
-247.005	312.585	0.066	0.122
-245.990	7.858	-0.043	-0.032
-244.976	54.116	0.077	-0.072
-243.961	-152.658	0.151	0.011
-242.946	-70.321	0.258	-0.096
-241.932	120.819	-0.207	0.252
-240.917	76.181	-0.093	-0.096
-239.903	10.945	0.030	-0.022
-238.888	-103.554	0.473	-0.109
-237.873	167.465	-0.015	0.022
-236.859	521.622	-0.048	0.110
-235.844	-185.694	0.091	0.001
-234.830	800.000	0.049	0.149
-233.815	-101.817	0.203	-0.048
-232.800	64.098	0.123	-0.121
-231.786	-111.495	-0.344	-0.068
-230.771	-200.000	0.054	-0.287
-229.757	-89.474	-0.200	-0.058
-228.742	800.000	0.083	-0.275
-227.727	-200.000	-0.033	-0.252
-226.713	-123.547	0.136	0.021
-225.698	5.466	-0.176	0.127
-224.684	-165.913	0.184	0.008
-223.669	-87.418	-0.292	-0.087
-222.655	164.651	0.029	-0.040
-221.640	281.328	0.042	-0.073
-220.625	237.613	-0.159	0.258
-219.611	-194.026	0.201	-0.002
-218.596	-124.331	0.124	-0.019
-217.582	-200.000	0.003	-0.337
-216.567	800.000	0.059	0.212
-215.552	383.133	-0.131	0.264
-214.538	800.000	0.076	0.228
-213.523	376.438	0.119	0.236
-212.509	800.000	-0.088	0.287
-211.494	800.000	-0.089	0.358
-210.479	-114.395	0.418	0.079
-209.465	119.613	-0.056	-0.068
-208.450	800.000	-0.030	0.092
-207.436	256.031	-0.110	-0.184
-206.421	-200.000	0.007	-0.129
-205.406	-76.804	-0.033	0.011
-204.392	-200.000	0.002	-0.382
-203.377	92.295	-0.164	0.181
-202.363	375.812	-0.067	-0.134
-201.348	-107.684	0.194	-0.041
-200.333	341.442	0.053	0.101
-199.319	-91.385	-0.094	0.026
-198.304	83.841	-0.037	-0.039
-197.290	549.585	-0.041	0.097
-196.275	-200.000	0.015	0.113
-195.260	800.000	-0.020	0.077
-194.246	-200.000	0.017	-0.139
-193.231	-67.574	-0.074	-0.028
-192.217	89.601	0.212	-0.231
-191.202	-70.716	-0.093	0.034
-190.187	800.000	0.028	0.107
-189.173	-53.973	0.577	0.256
-188.158	-200.000	0.108	0.515
-187.144	159.464	-0.024	-0.033
-186.129	-116.825	0.453	0.081
-185.114	-48.865	-0.017	-0.008
-184.100	-200.000	-0.024	-0.169
-183.085	29.866	0.123	-0.102
-182.071	-107.924	0.297	-0.063
-181.056	141.261	-0.075	-0.097
-180.042	-120.591	-0.211	-0.035
-179.027	203.406	0.157	0.238
-178.012	-151.395	0.280	0.020
-176.998	-57.824	-0.300	-0.128
-175.983	241.964	0.084	0.137
-174.969	206.193	-0.189	0.287
-173.954	-200.000	-0.011	-0.343
-172.939	-200.000	-0.060	-0.519
-171.925	375.359	0.156	0.310
-170.910	131.020	0.042	-0.053
-169.896	-124.208	-0.164	0.025
-168.881	-98.673	0.363	0.090
-167.866	800.000	0.066	0.232
-166.852	-30.097	0.304	0.168
-165.837	-200.000	0.086	0.543
-164.823	-138.440	0.076	0.008
-163.808	-24.399	0.179	0.104
-162.793	-200.000	-0.008	-0.111
-161.779	180.599	-0.066	0.095
-160.764	193.258	0.131	0.193
-159.750	6.441	-0.175	-0.127
-158.735	-69.216	-0.224	-0.084
-157.720	68.812	-0.033	-0.033
-156.706	-200.000	-0.022	-0.275
-155.691	78.395	0.231	-0.241
-154.677	18.272	0.190	-0.148
-153.662	-34.225	-0.255	0.136
-152.647	32.315	-0.223	-0.188
-151.633	45.168	-0.095	-0.085
-150.618	-72.956	0.244	0.087
-149.604	347.453	-0.105	-0.201
-148.589	48.086	-0.270	0.246
-147.574	-97.051	-0.127	0.032
-146.560	-103.591	-0.124	-0.028
-145.545	-156.249	-0.342	-0.021
-144.531	-200.000	-0.047	0.305
-143.516	-200.000	-0.010	0.136
-142.502	-200.000	-0.026	0.205
-141.487	137.856	-0.105	-0.134
-140.472	-200.000	-0.005	0.181
-139.458	8.415	-0.145	-0.107
-138.443	-72.839	0.177	-0.064
-137.429	-94.998	0.152	0.040
-136.414	-24.326	0.556	-0.323
-135.399	33.068	0.105	-0.089
-134.385	-101.693	0.013	-0.003
-133.370	-116.212	-0.163	0.029
-132.356	800.000	-0.058	-0.183
-131.341	-93.648	-0.045	-0.012
-130.326	26.123	0.078	-0.063
-129.312	-96.562	0.288	0.074
-128.297	52.042	0.078	-0.072
-127.283	-88.178	0.253	0.074
-126.268	-31.011	-0.123	-0.068
-125.253	310.458	0.032	-0.058
-124.239	5.269	0.199	-0.143
-123.224	90.775	-0.181	-0.197
-122.210	73.156	0.233	0.237
-121.195	164.363	0.146	-0.201
