DTS Sentinel unit serial number:	SN413079Multiplexer serial number:	ORYXHardware model number:	OX4-SRSoftware version number:	ORYX F/W v4.00 Oryx Data Collector v3.7.2.0data status	okinstallation	princeton_trtdifferential loss correction	single-endedforward channel	channel 2reverse channel	N/Adate	2019/09/12time	10:01:10forward acquisition time	60.00reverse acquisition time	0.00gamma	496.2192k internal	0.2314k external	0.2314temperature offset calibration	1.0065default loss term (dB/km)	0.3790temperature slope calibration	1.0000multiplexer offset coefficient	1.0000multiplexer slope coefficient	1.0000fibre end	0.00T internal ref (°C)	36.20T ext. ref 1 (°C)	1.85T ext. ref 2 (°C)	32.89length (m)	temperature (°C)	Stokes	anti-Stokes-747.200	33.201	-0.178	-0.156
-746.185	87.819	0.109	0.123
-745.171	-200.000	0.011	0.177
-744.156	143.762	-0.040	0.054
-743.142	-200.000	0.016	-0.205
-742.127	-4.451	-0.335	-0.235
-741.112	-200.000	-0.004	-0.069
-740.098	620.304	0.179	0.457
-739.083	229.971	-0.210	-0.347
-738.069	-200.000	-0.032	0.244
-737.054	800.000	-0.105	-0.300
-736.039	-47.827	0.057	0.028
-735.025	-200.000	-0.006	0.344
-734.010	-152.750	-0.318	-0.023
-732.996	-105.682	-0.188	-0.043
-731.981	-200.000	0.031	0.209
-730.966	-19.226	-0.139	0.088
-729.952	47.633	-0.188	-0.178
-728.937	-200.000	-0.044	0.226
-727.923	392.276	0.048	0.100
-726.908	-200.000	0.009	0.149
-725.894	-40.060	-0.231	-0.122
-724.879	-62.288	0.251	0.106
-723.864	-124.948	-0.361	0.056
-722.850	44.958	-0.335	-0.313
-721.835	-65.092	-0.233	-0.095
-720.821	-1.250	0.170	-0.122
-719.806	-56.488	0.111	0.050
-718.791	41.592	-0.156	0.143
-717.777	800.000	0.105	0.385
-716.762	234.280	0.106	0.176
-715.748	460.417	-0.081	0.182
-714.733	430.405	0.239	-0.523
-713.718	49.343	0.203	-0.194
-712.704	-93.100	0.122	0.035
-711.689	-113.161	0.271	-0.054
-710.675	-200.000	0.026	-0.162
-709.660	295.765	-0.033	-0.061
-708.645	-18.619	-0.129	-0.081
-707.631	-200.000	-0.206	0.001
-706.616	-108.615	-0.275	0.060
-705.602	237.538	-0.214	0.359
-704.587	107.581	-0.069	-0.083
-703.572	800.000	-0.040	0.140
-702.558	-167.313	0.268	0.011
-701.543	-169.215	0.118	0.004
-700.529	-200.000	-0.042	-0.200
-699.514	800.000	-0.078	-0.237
-698.499	-75.467	0.119	-0.043
-697.485	-32.425	0.384	0.217
-696.470	138.685	0.077	-0.103
-695.456	-200.000	-0.015	-0.262
-694.441	-105.992	-0.210	-0.048
-693.426	780.647	-0.045	-0.124
-692.412	-5.254	0.136	-0.095
-691.397	-200.000	0.024	-0.178
-690.383	115.056	-0.078	0.096
-689.368	73.860	-0.229	0.243
-688.354	80.681	-0.029	-0.031
-687.339	487.965	-0.100	-0.231
-686.324	15.265	0.140	0.111
-685.310	-40.955	-0.208	0.109
-684.295	800.000	-0.059	-0.233
-683.281	-128.665	-0.118	-0.017
-682.266	-75.458	-0.197	-0.071
-681.251	76.971	0.278	-0.298
-680.237	-95.646	-0.168	0.045
-679.222	800.000	0.109	-0.408
-678.208	-26.502	-0.413	0.245
-677.193	11.221	-0.175	-0.136
-676.178	-35.904	-0.109	0.060
-675.164	-65.688	-0.215	-0.087
-674.149	-75.193	-0.183	0.066
-673.135	-200.000	-0.047	-0.248
-672.120	-54.666	0.453	-0.207
-671.105	-69.275	-0.092	-0.036
-670.091	13.071	0.084	-0.066
-669.076	226.228	-0.183	-0.299
-668.062	-113.298	-0.326	-0.065
-667.047	-174.268	0.143	-0.004
-666.032	-99.993	-0.142	-0.036
-665.018	226.707	0.151	-0.249
-664.003	313.617	0.026	0.050
-662.989	800.000	0.029	-0.084
-661.974	-200.000	-0.178	-0.000
-660.959	295.690	-0.136	-0.252
-659.945	54.657	-0.036	0.035
-658.930	220.959	-0.063	0.103
-657.916	-115.712	-0.454	-0.086
-656.901	26.618	-0.122	-0.103
-655.886	39.029	-0.061	-0.055
-654.872	-20.204	-0.234	-0.145
-653.857	-101.675	0.307	0.075
-652.843	212.755	0.218	-0.348
-651.828	-105.722	0.381	0.087
-650.814	800.000	0.053	-0.159
-649.799	-2.029	-0.390	-0.277
-648.784	-71.627	-0.344	-0.130
-647.770	124.896	-0.134	-0.171
-646.755	60.834	-0.089	0.089
-645.741	-200.000	0.002	-0.194
-644.726	-77.963	-0.078	0.027
-643.711	2.809	0.095	0.069
-642.697	-63.312	0.062	0.026
-641.682	-200.000	0.018	0.228
-640.668	-200.000	-0.000	0.008
-639.653	508.021	-0.063	0.147
-638.638	-140.041	0.062	-0.007
-637.624	-200.000	0.003	-0.310
-636.609	-51.014	0.167	-0.079
-635.595	-200.000	0.016	-0.101
-634.580	-151.243	0.069	-0.005
-633.565	-130.858	-0.027	-0.004
-632.551	66.524	-0.071	-0.073
-631.536	800.000	-0.042	-0.163
-630.522	-8.266	0.098	-0.066
-629.507	-66.687	0.212	0.085
-628.492	-70.962	-0.120	0.046
-627.478	-166.297	-0.149	0.006
-626.463	200.348	0.065	0.101
-625.449	217.640	-0.031	0.050
-624.434	-6.919	-0.100	0.069
-623.419	800.000	-0.096	-0.364
-622.405	-131.467	0.196	-0.026
-621.390	800.000	-0.117	0.349
-620.376	56.676	0.125	-0.123
-619.361	800.000	-0.066	0.267
-618.346	232.422	0.044	-0.073
-617.332	-200.000	-0.010	0.056
-616.317	-111.116	0.176	0.036
-615.303	387.151	-0.071	-0.148
-614.288	-157.679	0.165	0.010
-613.273	117.200	-0.166	0.206
-612.259	-4.076	-0.184	-0.129
-611.244	422.999	-0.083	-0.180
-610.230	-200.000	-0.006	-0.168
-609.215	15.024	-0.177	-0.140
-608.201	568.876	-0.172	-0.422
-607.186	-167.094	-0.089	0.004
-606.171	-108.169	0.148	-0.032
-605.157	-200.000	-0.002	-0.135
-604.142	6.774	-0.296	0.222
-603.128	-9.669	-0.198	-0.133
-602.113	-111.991	-0.236	0.048
-601.098	-50.204	0.176	-0.084
-600.084	36.225	-0.074	0.066
-599.069	487.116	0.079	-0.181
-598.055	607.520	-0.021	-0.054
-597.040	133.802	-0.140	-0.183
-596.025	800.000	0.076	0.303
-595.011	800.000	0.160	-0.524
-593.996	-31.920	0.038	-0.022
-592.982	-81.024	-0.261	-0.087
-591.967	150.106	0.105	0.144
-590.952	-200.000	0.034	0.457
-589.938	-99.416	0.334	-0.085
-588.923	800.000	0.051	-0.181
-587.909	3.065	-0.125	0.092
-586.894	496.341	-0.033	-0.078
-585.879	224.992	-0.069	0.112
-584.865	147.535	-0.110	0.150
-583.850	73.016	0.057	0.060
-582.836	-38.256	-0.175	-0.093
-581.821	-42.360	-0.099	-0.051
-580.806	-200.000	0.014	0.133
-579.792	-49.041	0.233	0.113
-578.777	-45.670	-0.111	0.055
-577.763	80.708	-0.266	0.289
-576.748	-167.301	-0.136	-0.006
-575.733	619.046	0.096	0.243
-574.719	456.313	0.022	0.048
-573.704	-197.426	-0.313	-0.002
-572.690	-200.000	0.016	-0.203
-571.675	-42.106	0.074	-0.038
-570.661	800.000	0.043	-0.161
-569.646	-200.000	-0.059	0.602
-568.631	800.000	-0.068	-0.239
-567.617	-200.000	-0.123	0.000
-566.602	-30.365	-0.302	-0.172
-565.588	796.099	-0.093	-0.258
-564.573	29.772	-0.246	-0.211
-563.558	-200.000	-0.068	-0.353
-562.544	339.345	-0.092	-0.180
-561.529	-125.708	-0.172	0.026
-560.515	127.159	-0.117	0.150
-559.500	-100.793	0.283	0.070
-558.485	127.194	-0.101	0.128
-557.471	73.290	-0.287	-0.302
-556.456	-4.894	-0.270	0.187
-555.442	-16.498	0.108	0.069
-554.427	131.118	-0.227	-0.293
-553.412	-200.000	0.009	0.187
-552.398	7.410	0.075	0.056
-551.383	-200.000	0.000	0.108
-550.369	-103.060	-0.078	0.018
-549.354	28.667	0.126	-0.107
-548.339	-8.278	-0.147	-0.099
-547.325	-95.696	-0.162	-0.044
-546.310	-197.236	0.147	-0.001
-545.296	4.237	0.051	0.038
-544.281	-200.000	0.014	0.080
-543.266	-106.894	-0.189	-0.042
-542.252	-200.000	0.039	-0.179
-541.237	247.137	-0.201	0.342
-540.223	-200.000	0.053	0.238
-539.208	-150.927	-0.190	-0.014
-538.193	187.670	-0.142	0.213
-537.179	-142.666	-0.188	0.018
-536.164	800.000	0.058	0.203
-535.150	-2.070	0.195	0.138
-534.135	-131.881	0.175	-0.023
-533.121	-157.278	-0.248	0.015
-532.106	30.257	-0.121	-0.104
-531.091	-17.855	-0.087	0.055
-530.077	-200.000	0.017	-0.203
-529.062	800.000	-0.083	-0.366
-528.048	-156.618	0.096	-0.006
-527.033	-200.000	0.048	0.331
-526.018	47.343	-0.171	0.160
-525.004	-200.000	0.001	-0.252
-523.989	-200.000	-0.026	0.212
-522.975	126.480	-0.209	-0.266
-521.960	119.416	0.136	0.170
-520.945	-165.977	-0.141	0.006
-519.931	35.487	0.147	-0.130
-518.916	4.800	0.393	0.290
-517.902	800.000	-0.092	0.263
-516.887	-200.000	-0.034	-0.165
-515.872	-93.249	0.238	0.067
-514.858	-200.000	-0.024	0.173
-513.843	-67.001	-0.333	-0.132
-512.829	276.720	0.165	-0.295
-511.814	627.757	-0.086	0.217
-510.799	-115.568	0.366	0.069
-509.785	-73.493	0.093	-0.034
-508.770	-79.811	-0.273	-0.092
-507.756	36.956	0.230	0.204
-506.741	-25.731	0.353	-0.209
-505.726	26.558	0.203	-0.171
-504.712	19.275	0.222	-0.179
-503.697	800.000	0.018	0.071
-502.683	-105.504	0.160	0.036
-501.668	26.888	-0.056	0.048
-500.653	-185.439	0.186	-0.003
-499.639	-85.074	-0.134	0.042
-498.624	-56.200	0.181	-0.081
-497.610	67.522	0.208	0.213
-496.595	80.313	-0.086	-0.092
-495.581	-125.746	0.149	-0.023
-494.566	800.000	0.043	-0.178
-493.551	-149.522	0.372	-0.030
-492.537	-200.000	-0.040	-0.228
-491.522	201.101	-0.230	-0.356
-490.508	-200.000	-0.035	0.229
-489.493	-147.679	-0.131	0.011
-488.478	31.708	0.226	0.195
-487.464	-81.687	-0.162	-0.053
-486.449	-200.000	-0.005	0.031
-485.435	-69.659	0.359	-0.138
-484.420	-173.172	0.074	-0.002
-483.405	800.000	0.044	-0.132
-482.391	800.000	-0.007	-0.031
-481.376	800.000	0.113	0.394
-480.362	-129.121	-0.103	0.014
-479.347	82.717	-0.045	-0.049
-478.332	680.595	-0.028	-0.074
-477.318	213.683	-0.082	-0.131
-476.303	800.000	0.119	0.353
-475.289	-99.169	-0.156	0.040
-474.274	353.759	0.055	0.110
-473.259	-19.301	-0.167	0.104
-472.245	519.172	0.077	0.181
-471.230	419.276	0.036	0.077
-470.216	-161.594	0.342	0.018
-469.201	-200.000	-0.022	0.478
-468.186	800.000	-0.049	-0.141
-467.172	396.544	-0.060	-0.126
-466.157	236.488	0.144	-0.239
-465.143	-20.544	0.107	0.066
-464.128	-41.780	-0.172	-0.089
-463.113	437.354	0.079	0.172
-462.099	-200.000	0.017	-0.167
-461.084	-33.502	-0.106	0.059
-460.070	33.686	-0.097	0.085
-459.055	175.445	-0.123	0.179
-458.040	24.925	-0.321	0.267
-457.026	-200.000	0.183	-0.000
-456.011	-42.563	-0.393	0.201
-454.997	-200.000	-0.034	-0.256
-453.982	79.911	-0.173	0.186
-452.968	-200.000	0.020	-0.261
-451.953	800.000	0.069	-0.194
-450.938	198.714	-0.068	0.105
-449.924	800.000	-0.065	0.240
-448.909	-200.000	0.068	0.315
-447.895	-47.133	0.350	0.171
-446.880	347.282	-0.132	-0.260
-445.865	180.239	-0.129	-0.190
-444.851	-20.971	-0.138	-0.085
-443.836	-200.000	-0.015	0.152
-442.822	-200.000	-0.001	0.236
-441.807	-158.029	-0.081	-0.005
-440.792	-200.000	-0.003	-0.264
-439.778	-90.497	-0.060	-0.018
-438.763	19.656	-0.407	0.328
-437.749	15.710	0.162	-0.128
-436.734	-102.272	-0.095	0.023
-435.719	40.095	-0.109	0.098
-434.705	461.060	0.082	0.182
-433.690	-200.000	-0.007	-0.135
-432.676	800.000	-0.052	0.180
-431.661	-103.515	0.077	-0.018
-430.646	199.092	-0.017	0.025
-429.632	-134.742	0.150	0.018
-428.617	800.000	-0.094	-0.273
-427.603	90.449	-0.040	-0.045
-426.588	-200.000	-0.023	0.263
-425.573	201.198	0.083	0.128
-424.559	-159.492	0.129	0.007
-423.544	-75.652	0.304	-0.108
-422.530	-200.000	-0.028	-0.341
-421.515	30.032	-0.122	0.104
-420.500	456.638	-0.200	-0.444
-419.486	-102.204	-0.251	0.060
-418.471	198.065	0.159	0.243
-417.457	75.154	0.253	0.267
-416.442	-23.969	-0.218	0.131
-415.428	-200.000	0.046	-0.263
-414.413	-200.000	0.013	-0.199
-413.398	113.746	-0.099	-0.121
-412.384	-1.239	0.424	-0.300
-411.369	92.890	0.035	-0.040
-410.355	-200.000	0.072	0.354
-409.340	800.000	0.068	0.191
-408.325	-200.000	-0.027	-0.168
-407.311	-200.000	0.020	-0.129
-406.296	209.147	0.155	0.242
-405.282	193.111	0.097	0.147
-404.267	-200.000	0.025	0.166
-403.252	-155.922	0.336	-0.021
-402.238	-34.749	0.185	0.101
-401.223	-14.472	0.163	0.105
-400.209	-200.000	0.029	0.287
-399.194	-106.660	-0.330	-0.073
-398.179	71.376	0.243	0.252
-397.165	655.841	-0.094	-0.240
-396.150	-200.000	-0.061	-0.486
-395.136	149.711	-0.190	-0.258
-394.121	-30.763	-0.383	0.217
-393.106	-200.000	-0.061	0.372
-392.092	-200.000	0.006	-0.068
-391.077	284.759	-0.092	0.165
-390.063	-162.373	-0.147	-0.007
-389.048	206.815	0.092	0.144
-388.033	19.079	-0.285	0.228
-387.019	-185.219	-0.150	0.002
-386.004	136.764	-0.126	0.165
-384.990	-200.000	-0.012	0.138
-383.975	16.450	0.025	-0.020
-382.960	-73.049	-0.180	-0.066
-381.946	66.823	-0.172	-0.175
-380.931	-200.000	-0.038	-0.299
-379.917	107.671	-0.224	0.266
-378.902	-147.930	-0.197	0.016
-377.888	-24.110	0.095	0.057
-376.873	11.342	-0.108	-0.083
-375.858	-67.233	0.299	-0.118
-374.844	-200.000	-0.051	-0.279
-373.829	800.000	0.066	0.269
-372.815	-82.413	-0.079	-0.026
-371.800	-200.000	-0.007	-0.103
-370.785	-22.304	-0.350	-0.212
-369.771	-200.000	-0.043	0.458
-368.756	297.023	0.053	0.098
-367.742	466.483	0.128	-0.287
-366.727	-127.112	0.171	0.025
-365.712	-136.272	-0.189	-0.022
-364.698	-51.261	0.239	0.112
-363.683	800.000	0.020	-0.068
-362.669	-170.371	-0.251	-0.009
-361.654	575.677	0.152	0.371
-360.639	800.000	-0.048	-0.135
-359.625	270.502	-0.170	-0.299
-358.610	-21.979	0.174	-0.106
-357.596	398.747	-0.138	-0.288
-356.581	124.871	0.157	0.197
-355.566	-163.252	0.246	-0.012
-354.552	64.491	0.208	-0.209
-353.537	-169.944	0.184	-0.007
-352.523	-96.598	0.072	-0.019
-351.508	68.380	0.141	-0.145
-350.493	-132.393	-0.330	-0.042
-349.479	193.189	-0.149	-0.225
-348.464	-4.314	-0.166	0.115
-347.450	74.188	0.099	-0.104
-346.435	-146.149	-0.361	-0.032
-345.420	39.967	0.244	-0.218
-344.406	38.128	0.053	-0.047
-343.391	-7.888	-0.144	0.097
-342.377	321.167	-0.083	-0.157
-341.362	90.992	-0.185	0.207
-340.348	-126.933	-0.255	0.037
-339.333	158.083	0.273	-0.378
-338.318	800.000	-0.071	-0.302
-337.304	-15.078	-0.308	-0.197
-336.289	-144.658	-0.158	0.014
-335.275	105.529	0.075	-0.088
-334.260	800.000	0.051	-0.186
-333.245	374.405	-0.105	-0.214
-332.231	53.963	0.198	0.190
-331.216	-185.705	-0.165	0.002
-330.202	800.000	-0.054	0.201
-329.187	105.249	0.307	0.362
-328.172	-138.365	-0.177	-0.019
-327.158	-155.811	0.341	-0.022
-326.143	-59.731	0.052	0.022
-325.129	-30.233	-0.085	0.048
-324.114	-94.492	0.487	-0.132
-323.099	-71.537	-0.215	0.080
-322.085	-200.000	0.069	0.408
-321.070	-23.609	-0.222	0.133
-320.056	-42.268	0.143	0.073
-319.041	78.146	-0.172	-0.183
-318.026	33.866	-0.296	0.257
-317.012	-55.490	0.197	0.088
-315.997	190.676	0.155	-0.233
-314.983	174.440	0.029	-0.042
-313.968	-200.000	0.005	-0.352
-312.953	297.223	-0.226	-0.413
-311.939	-132.622	0.067	0.009
-310.924	171.530	-0.106	-0.152
-309.910	48.776	0.240	-0.224
-308.895	125.620	0.183	-0.230
-307.880	-74.848	-0.309	-0.111
-306.866	754.469	0.042	0.114
-305.851	-200.000	-0.012	-0.092
-304.837	605.870	-0.084	0.209
-303.822	-89.559	0.111	-0.033
-302.807	89.175	0.124	-0.138
-301.793	703.873	-0.066	0.174
-300.778	-118.763	0.184	-0.032
-299.764	-10.476	0.197	-0.130
-298.749	-200.000	0.086	0.383
-297.735	490.667	-0.092	-0.209
-296.720	86.956	-0.049	-0.054
-295.705	-110.297	0.214	-0.044
-294.691	-127.858	-0.154	-0.022
-293.676	37.636	-0.132	0.117
-292.662	800.000	-0.046	-0.136
-291.647	-200.000	0.051	-0.242
-290.632	800.000	0.013	-0.053
-289.618	-200.000	-0.035	-0.289
-288.603	13.931	0.268	-0.208
-287.589	-200.000	-0.050	-0.370
-286.574	75.025	-0.230	-0.241
-285.559	-142.215	-0.127	-0.012
-284.545	145.064	-0.268	0.357
-283.530	800.000	-0.057	0.238
-282.516	145.529	0.050	0.066
-281.501	-200.000	0.007	0.217
-280.486	800.000	0.146	-0.407
-279.472	-6.275	-0.244	0.166
-278.457	12.880	0.059	0.045
-277.443	-37.670	-0.271	-0.144
-276.428	21.180	-0.138	-0.112
-275.413	93.722	0.214	0.241
-274.399	17.466	0.236	0.187
-273.384	-88.335	0.129	-0.038
-272.370	25.480	-0.359	0.297
-271.355	-64.799	-0.170	-0.068
-270.340	800.000	-0.029	0.110
-269.326	6.331	0.118	-0.087
-268.311	-200.000	0.000	-0.483
-267.297	501.730	0.053	0.121
-266.282	52.667	0.173	0.165
-265.267	410.638	0.151	0.318
-264.253	-3.509	-0.035	0.024
-263.238	-59.736	0.064	-0.027
-262.224	793.560	-0.055	0.152
-261.209	-116.068	-0.192	0.036
-260.195	81.528	-0.036	-0.039
-259.180	-31.972	0.280	0.156
-258.165	583.005	0.065	0.159
-257.151	-200.000	-0.054	-0.308
-256.136	133.861	0.207	0.267
-255.122	-96.275	0.121	0.032
-254.107	-78.370	0.158	-0.054
-253.092	229.366	-0.064	0.105
-252.078	-106.602	-0.262	-0.058
-251.063	-200.000	-0.038	0.174
-250.049	-68.461	0.228	-0.088
-249.034	800.000	0.047	-0.197
-248.019	-200.000	0.045	0.279
-247.005	-13.675	0.169	-0.109
-245.990	-103.012	-0.358	0.084
-244.976	262.854	-0.051	-0.088
-243.961	-200.000	0.001	0.064
-242.946	-90.060	0.137	-0.040
-241.932	-89.608	0.107	0.031
-240.917	186.933	0.046	0.069
-239.903	800.000	0.053	0.201
-238.888	131.894	-0.200	0.255
-237.873	-111.323	0.123	0.025
-236.859	86.751	-0.002	0.002
-235.844	-56.514	0.310	-0.137
-234.830	-34.252	-0.203	-0.111
-233.815	-200.000	0.019	-0.179
-232.800	-200.000	0.011	0.338
-231.786	98.899	0.053	-0.060
-230.771	-82.826	-0.282	-0.091
-229.757	246.700	0.124	-0.208
-228.742	6.571	0.109	0.080
-227.727	-37.624	-0.288	-0.153
-226.713	94.523	0.169	-0.191
-225.698	71.357	-0.126	-0.130
-224.684	-200.000	-0.023	-0.135
-223.669	55.355	-0.020	0.019
-222.655	-200.000	-0.052	0.339
-221.640	79.926	0.071	0.076
-220.625	-178.420	0.117	-0.003
-219.611	800.000	-0.044	0.144
-218.596	800.000	-0.065	-0.185
-217.582	-32.654	0.256	-0.142
-216.567	696.183	0.167	0.437
-215.552	-114.920	0.075	-0.014
-214.538	-12.767	-0.212	-0.137
-213.523	-200.000	-0.042	-0.314
-212.509	243.847	0.154	-0.256
-211.494	-23.148	0.112	0.067
-210.479	-111.533	-0.245	-0.049
-209.465	770.401	0.062	0.166
-208.450	52.430	-0.068	0.064
-207.436	-7.632	-0.228	0.153
-206.421	359.242	-0.046	0.091
-205.406	-127.704	-0.250	-0.036
-204.392	44.738	0.249	0.227
-203.377	-88.066	-0.071	0.021
-202.363	-45.284	-0.084	-0.041
-201.348	511.001	-0.076	-0.176
-200.333	800.000	0.023	-0.092
-199.319	-69.524	0.220	-0.084
-198.304	800.000	-0.087	0.379
-197.290	-200.000	-0.022	0.165
-196.275	-3.883	-0.191	0.131
-195.260	-24.678	0.266	-0.157
-194.246	-53.948	0.306	0.138
-193.231	-114.893	0.248	0.047
-192.217	64.649	-0.127	-0.127
-191.202	-92.268	0.278	0.078
-190.187	221.726	0.144	0.230
-189.173	-1.667	0.180	0.126
-188.158	362.316	-0.200	-0.398
-187.144	-143.912	0.213	-0.020
-186.129	-200.000	-0.019	0.218
-185.114	-91.578	0.034	-0.010
-184.100	800.000	0.079	-0.266
-183.085	-82.161	0.225	0.073
-182.071	-80.344	0.038	-0.012
-181.056	460.599	-0.099	-0.218
-180.042	-36.497	0.307	-0.164
-179.027	-200.000	0.020	0.131
-178.012	-200.000	0.006	0.071
-176.998	-28.926	0.062	-0.035
-175.983	11.246	0.289	-0.220
-174.969	-119.790	-0.216	-0.037
-173.954	-200.000	-0.070	0.304
-172.939	-200.000	0.335	0.000
-171.925	24.313	0.062	-0.050
-170.910	-73.194	0.101	0.037
-169.896	-132.444	0.115	-0.015
-168.881	14.851	0.456	-0.353
-167.866	246.919	0.035	0.059
-166.852	-15.215	0.092	0.059
-165.837	31.847	-0.078	0.067
-164.823	-200.000	-0.040	0.525
-163.808	-77.670	0.115	-0.039
-162.793	701.504	0.136	0.354
-161.779	-200.000	0.026	0.251
-160.764	597.594	-0.034	0.083
-159.750	555.700	-0.053	-0.127
-158.735	210.646	0.268	0.418
-157.720	-36.032	0.188	0.101
-156.706	109.795	0.104	-0.124
-155.691	-143.152	0.214	0.020
-154.677	-58.284	0.359	0.155
-153.662	166.280	0.044	-0.062
-152.647	-148.675	0.104	0.008
-151.633	800.000	0.126	-0.372
-150.618	-200.000	-0.024	-0.242
-149.604	-119.653	-0.047	0.008
-148.589	-200.000	0.050	0.330
-147.574	-99.755	-0.070	-0.017
-146.560	-53.876	0.136	0.061
-145.545	-3.904	0.037	0.026
-144.531	193.333	0.134	-0.200
-143.516	-200.000	0.021	-0.156
-142.502	-42.011	-0.448	-0.227
-141.487	575.670	0.022	0.053
-140.472	-78.628	0.316	0.107
-139.458	800.000	-0.144	-0.543
-138.443	-41.969	0.105	0.053
-137.429	-48.788	-0.146	-0.070
-136.414	130.595	0.219	0.278
-135.399	-160.490	0.426	-0.023
-134.385	609.738	0.086	0.212
-133.370	800.000	0.083	-0.263
-132.356	46.929	-0.161	0.148
-131.341	-138.995	-0.094	0.010
-130.326	-88.254	-0.159	0.047
-129.312	-84.047	-0.319	-0.100
-128.297	-143.667	0.219	0.021
-127.283	-200.000	-0.030	0.221
-126.268	223.687	0.106	-0.169
-125.253	-43.781	-0.098	-0.049
-124.239	-96.786	-0.164	0.043
-123.224	-94.061	0.144	0.039
-122.210	-110.797	0.195	-0.040
