DTS Sentinel unit serial number:	SN413079Multiplexer serial number:	ORYXHardware model number:	OX4-SRSoftware version number:	ORYX F/W v4.00 Oryx Data Collector v3.7.2.0data status	okinstallation	princeton_trtdifferential loss correction	single-endedforward channel	channel 2reverse channel	N/Adate	2019/09/12time	18:32:49forward acquisition time	15.00reverse acquisition time	0.00gamma	496.2192k internal	0.2323k external	0.2323temperature offset calibration	1.0130default loss term (dB/km)	0.3790temperature slope calibration	1.0000multiplexer offset coefficient	1.0000multiplexer slope coefficient	1.0000fibre end	0.00T internal ref (°C)	33.19T ext. ref 1 (°C)	2.95T ext. ref 2 (°C)	27.78length (m)	temperature (°C)	Stokes	anti-Stokes-747.200	-167.544	-0.625	-0.025
-746.185	540.521	0.141	-0.338
-745.171	-90.254	-0.512	0.150
-744.156	-176.430	-0.414	-0.011
-743.142	-200.000	0.042	-0.350
-742.127	-121.452	0.385	-0.065
-741.112	-8.217	0.480	0.326
-740.098	-24.182	-0.291	0.175
-739.083	94.969	0.444	-0.510
-738.069	-87.150	-0.734	-0.225
-737.054	-100.976	0.571	-0.141
-736.039	-69.543	0.310	-0.120
-735.025	-31.889	-0.379	-0.214
-734.010	102.439	0.305	0.360
-732.996	104.970	0.479	-0.570
-731.981	391.823	-0.089	-0.186
-730.966	-200.000	-0.057	0.290
-729.952	-200.000	-0.097	-0.663
-728.937	-0.043	-0.532	-0.382
-727.923	-31.402	0.585	-0.332
-726.908	141.955	-0.393	0.525
-725.894	229.333	-0.315	-0.518
-724.879	73.204	-0.548	-0.578
-723.864	-144.498	0.580	0.054
-722.850	146.296	-0.324	0.439
-721.835	-200.000	0.025	-0.178
-720.821	-127.494	0.299	0.044
-719.806	402.511	-0.277	-0.588
-718.791	-200.000	0.022	-0.230
-717.777	-200.000	0.053	-0.484
-716.762	-94.358	-0.638	-0.176
-715.748	62.883	-0.215	0.217
-714.733	328.627	-0.408	0.791
-713.718	80.838	0.468	-0.509
-712.704	695.069	0.185	-0.489
-711.689	-200.000	-0.015	1.155
-710.675	-200.000	-0.096	-0.457
-709.660	-200.000	0.028	0.549
-708.645	-75.332	-0.466	-0.167
-707.631	-141.978	0.626	0.063
-706.616	-9.647	0.430	0.289
-705.602	-8.961	-0.431	0.291
-704.587	-79.107	-0.584	0.200
-703.572	800.000	-0.050	-0.217
-702.558	16.429	-0.509	-0.405
-701.543	13.870	-0.026	0.020
-700.529	338.662	0.230	-0.452
-699.514	-141.553	0.387	0.039
-698.499	-200.000	0.053	0.878
-697.485	243.080	0.414	0.699
-696.470	-48.019	0.796	-0.388
-695.456	800.000	-0.101	0.353
-694.441	71.409	-0.723	0.756
-693.426	147.403	-0.067	0.091
-692.412	800.000	0.056	0.172
-691.397	-152.004	0.578	-0.042
-690.383	565.292	-0.222	0.543
-689.368	44.620	0.398	-0.368
-688.354	-109.071	0.819	-0.176
-687.339	363.750	-0.249	-0.504
-686.324	85.011	-0.379	0.418
-685.310	484.995	-0.100	-0.229
-684.295	-11.681	0.116	-0.077
-683.281	-54.065	-0.287	-0.132
-682.266	-86.856	-0.364	-0.112
-681.251	30.764	0.293	0.253
-680.237	-85.500	-0.625	0.196
-679.222	-200.000	-0.063	0.327
-678.208	206.881	0.071	0.111
-677.193	-83.919	0.380	-0.122
-676.178	346.171	0.424	-0.840
-675.164	-180.464	-0.443	0.009
-674.149	-59.897	0.421	-0.181
-673.135	-52.319	-0.507	-0.237
-672.120	-200.000	-0.098	-0.881
-671.105	-15.932	-1.051	0.674
-670.091	-29.098	-0.521	0.301
-669.076	-129.200	0.624	-0.088
-668.062	-96.500	0.218	-0.058
-667.047	37.067	-0.275	-0.245
-666.032	-108.294	0.773	0.168
-665.018	-104.914	-0.532	0.123
-664.003	-200.000	-0.014	0.429
-662.989	88.290	-0.344	0.384
-661.974	73.440	0.222	-0.234
-660.959	5.708	-0.450	-0.335
-659.945	-102.658	-0.361	0.087
-658.930	-200.000	-0.991	-0.002
-657.916	-200.000	-0.050	0.280
-656.901	-103.463	-0.507	-0.120
-655.886	294.026	0.267	0.491
-654.872	-26.570	-1.150	0.678
-653.857	-137.344	0.393	-0.045
-652.843	31.252	0.066	0.057
-651.828	87.844	-0.351	-0.391
-650.814	591.517	0.189	0.470
-649.799	800.000	0.136	0.436
-648.784	89.393	0.452	-0.507
-647.770	213.834	0.264	-0.419
-646.755	-113.887	0.873	0.171
-645.741	364.657	-0.036	-0.072
-644.726	-200.000	-0.082	0.971
-643.711	800.000	0.137	-0.464
-642.697	-118.934	-1.038	0.183
-641.682	-32.396	0.966	-0.542
-640.668	-132.296	0.631	0.082
-639.653	-90.542	0.284	0.083
-638.638	37.504	-0.442	-0.394
-637.624	-54.788	0.579	-0.263
-636.609	-200.000	0.018	-0.730
-635.595	-55.875	-0.618	0.277
-634.580	-200.000	-0.004	0.611
-633.565	-112.670	-0.468	-0.094
-632.551	-200.000	-0.101	0.904
-631.536	800.000	0.241	0.741
-630.522	-125.163	-0.599	-0.092
-629.507	49.517	-0.248	-0.234
-628.492	-8.849	0.066	-0.044
-627.478	466.009	0.362	-0.815
-626.463	-47.231	0.479	-0.234
-625.449	-38.568	-0.154	0.082
-624.434	290.558	0.099	-0.180
-623.419	-129.709	1.275	-0.177
-622.405	-200.000	0.039	0.411
-621.390	800.000	0.100	-0.429
-620.376	-200.000	-0.009	-0.078
-619.361	-28.502	-0.518	-0.300
-618.346	800.000	0.096	0.379
-617.332	-93.710	-0.224	-0.062
-616.317	-177.454	-0.490	0.012
-615.303	76.806	-0.719	-0.767
-614.288	166.964	0.452	-0.644
-613.273	-200.000	0.005	-0.780
-612.259	214.712	-0.292	0.466
-611.244	15.693	-0.455	0.359
-610.230	280.072	0.176	0.316
-609.215	-18.064	0.263	-0.165
-608.201	89.925	-0.585	0.656
-607.186	-81.477	-0.465	-0.154
-606.171	-146.176	0.950	0.084
-605.157	337.819	0.036	-0.071
-604.142	525.982	-0.165	-0.390
-603.128	-200.000	0.125	0.962
-602.113	-200.000	-0.015	0.139
-601.098	800.000	-0.156	-0.534
-600.084	-110.400	0.118	-0.025
-599.069	-100.860	-0.349	0.086
-598.055	-85.217	0.410	-0.129
-597.040	110.086	-0.456	0.549
-596.025	14.300	-0.702	-0.549
-595.011	-200.000	0.090	0.743
-593.996	208.948	-0.079	0.124
-592.982	20.745	0.161	0.131
-591.967	268.523	0.211	0.372
-590.952	800.000	-0.150	0.627
-589.938	-56.456	-0.556	-0.248
-588.923	228.349	0.129	-0.211
-587.909	78.905	-0.527	-0.566
-586.894	-93.683	0.077	-0.021
-585.879	-81.280	-0.405	-0.134
-584.865	-59.692	-0.438	-0.188
-583.850	-4.842	-0.495	-0.342
-582.836	800.000	-0.217	-0.691
-581.821	-144.891	0.799	-0.073
-580.806	351.841	-0.047	-0.093
-579.792	-200.000	-0.033	0.223
-578.777	353.066	0.187	-0.372
-577.763	800.000	-0.043	-0.177
-576.748	120.903	0.269	0.336
-575.733	-200.000	-0.024	-0.343
-574.719	201.437	-0.185	0.286
-573.704	-67.772	-0.597	0.234
-572.690	-0.777	-0.106	0.076
-571.675	-128.414	0.443	0.063
-570.661	250.126	0.445	0.757
-569.646	-200.000	0.024	0.187
-568.631	342.611	0.258	-0.506
-567.617	-68.889	0.765	0.296
-566.602	-56.707	0.656	0.291
-565.588	-200.000	0.131	-0.779
-564.573	-66.583	-0.440	0.175
-563.558	95.874	-0.211	0.241
-562.544	-49.835	-0.679	-0.323
-561.529	800.000	0.187	-0.523
-560.515	42.098	0.355	-0.323
-559.500	289.335	-0.232	0.421
-558.485	-56.139	0.484	0.216
-557.471	800.000	-0.110	0.338
-556.456	-52.994	-0.445	0.205
-555.442	-200.000	-0.007	0.460
-554.427	-44.897	0.472	-0.236
-553.412	-36.540	-0.606	0.327
-552.398	-114.427	-0.228	-0.044
-551.383	-200.000	0.159	-1.182
-550.369	266.780	-0.261	0.458
-549.354	138.466	-0.215	-0.283
-548.339	-62.334	0.450	-0.188
-547.325	-7.638	0.516	-0.350
-546.310	24.623	-0.361	-0.299
-545.296	5.256	-0.157	0.116
-544.281	122.286	0.443	0.555
-543.266	-3.289	-0.360	-0.251
-542.252	-200.000	0.028	0.870
-541.237	-157.655	-0.298	-0.018
-540.223	164.992	0.384	0.543
-539.208	-107.852	-0.490	-0.107
-538.193	-95.132	-0.526	-0.142
-537.179	-200.000	-0.019	-0.737
-536.164	-200.000	0.016	0.419
-535.150	8.859	-0.150	0.113
-534.135	246.382	0.406	-0.686
-533.121	301.177	-0.327	0.605
-532.106	677.896	-0.130	0.339
-531.091	44.648	-0.818	-0.754
-530.077	92.335	0.343	0.387
-529.062	-83.866	-0.725	0.231
-528.048	75.564	-0.828	0.876
-527.033	-200.000	0.071	-1.074
-526.018	103.207	-0.222	-0.261
-525.004	-200.000	-0.464	0.000
-523.989	800.000	0.132	-0.397
-522.975	-110.791	-0.792	0.164
-521.960	-75.893	-0.576	0.204
-520.945	-119.932	-0.588	-0.101
-519.931	29.140	0.534	-0.454
-518.916	-176.753	0.856	0.022
-517.902	208.617	-0.109	0.170
-516.887	4.037	0.371	-0.272
-515.872	-62.037	-0.465	-0.194
-514.858	-20.450	-0.387	0.238
-513.843	675.897	0.272	0.706
-512.829	152.673	0.188	-0.257
-511.814	321.787	-0.346	0.660
-510.799	800.000	-0.300	1.265
-509.785	-32.673	-0.583	0.325
-508.770	56.783	0.599	0.583
-507.756	382.893	0.219	0.450
-506.741	4.372	0.198	-0.145
-505.726	-110.433	-0.788	-0.164
-504.712	-40.520	0.522	0.271
-503.697	146.541	-0.285	-0.383
-502.683	-200.000	0.131	-0.656
-501.668	-200.000	-0.113	0.608
-500.653	-116.272	0.737	0.137
-499.639	-23.210	-0.291	0.175
-498.624	-57.557	0.190	-0.083
-497.610	135.955	0.131	0.171
-496.595	479.560	-0.242	0.549
-495.581	58.067	0.136	-0.134
-494.566	-135.858	0.449	-0.053
-493.551	55.297	-0.439	-0.424
-492.537	800.000	-0.224	-0.824
-491.522	62.302	0.280	-0.280
-490.508	385.666	0.060	0.123
-489.493	-122.416	-1.064	-0.173
-488.478	245.408	-0.226	-0.380
-487.464	-4.004	0.245	-0.170
-486.449	-38.291	-0.810	0.429
-485.435	345.846	-0.060	0.118
-484.420	-200.000	-0.115	-0.667
-483.405	-31.812	-0.380	-0.213
-482.391	104.674	0.425	0.501
-481.376	-59.786	0.085	-0.037
-480.362	-85.525	0.438	-0.136
-479.347	198.937	-0.154	-0.236
-478.332	-130.551	-0.292	-0.039
-477.318	21.630	-0.413	-0.336
-476.303	800.000	-0.211	0.589
-475.289	-5.940	0.697	-0.477
-474.274	-13.974	-1.020	0.658
-473.259	-200.000	-0.085	-0.670
-472.245	-145.562	-0.187	-0.017
-471.230	381.194	-0.152	-0.313
-470.216	-15.329	-0.504	0.322
-469.201	-87.284	0.261	-0.079
-468.186	10.662	-0.372	-0.283
-467.172	-200.000	0.106	0.573
-466.157	800.000	0.168	0.667
-465.143	-44.947	-0.871	-0.433
-464.128	252.374	-0.203	-0.346
-463.113	-3.808	0.653	-0.453
-462.099	-71.155	0.397	0.149
-461.084	59.217	0.507	0.498
-460.070	-117.801	-0.535	-0.096
-459.055	-142.851	-0.140	-0.014
-458.040	-200.000	0.979	0.004
-457.026	800.000	0.051	-0.215
-456.011	96.852	-0.339	-0.388
-454.997	490.434	-0.191	-0.436
-453.982	16.763	0.403	-0.318
-452.968	69.082	-0.514	0.528
-451.953	-200.000	-0.059	0.264
-450.938	-20.394	-0.226	0.138
-449.924	18.252	0.613	-0.488
-448.909	-158.447	0.018	-0.001
-447.895	-132.143	0.561	-0.073
-446.880	-11.167	-0.460	0.303
-445.865	11.632	-0.517	0.396
-444.851	761.427	-0.028	-0.075
-443.836	-162.552	0.548	0.027
-442.822	253.095	0.120	0.205
-441.807	254.999	0.228	-0.390
-440.792	48.215	0.226	-0.211
-439.778	-122.198	0.520	0.085
-438.763	-200.000	0.064	0.314
-437.749	-171.077	-0.334	-0.011
-436.734	-112.382	-0.696	-0.139
-435.719	53.937	-0.038	0.037
-434.705	-200.000	-0.002	-0.643
-433.690	800.000	-0.164	0.600
-432.676	-133.908	0.810	-0.100
-431.661	637.162	0.470	-1.190
-430.646	-54.929	0.324	0.146
-429.632	-200.000	-0.136	0.653
-428.617	800.000	-0.255	-0.752
-427.603	46.471	0.204	0.189
-426.588	73.080	0.613	0.639
-425.573	-200.000	-0.091	-0.900
-424.559	-110.158	0.531	-0.111
-423.544	-124.450	0.446	-0.069
-422.530	-200.000	-0.043	-0.523
-421.515	-108.242	-0.008	-0.002
-420.500	800.000	0.157	-0.494
-419.486	-135.142	0.228	0.027
-418.471	800.000	-0.169	0.677
-417.457	438.792	0.397	-0.865
-416.442	-189.960	-0.437	0.005
-415.428	-200.000	-0.040	-0.383
-414.413	-134.440	-0.462	0.056
-413.398	-200.000	0.055	0.351
-412.384	-200.000	-0.049	0.396
-411.369	323.179	0.268	-0.509
-410.355	-118.702	0.346	0.061
-409.340	389.598	-0.135	-0.279
-408.325	405.956	-0.108	0.227
-407.311	78.568	-0.117	-0.125
-406.296	47.108	-0.541	0.501
-405.282	11.632	-0.309	-0.236
-404.267	172.716	0.476	0.683
-403.252	-116.136	0.219	-0.041
-402.238	-44.266	-0.260	0.130
-401.223	541.910	0.076	0.181
-400.209	52.502	0.050	0.047
-399.194	-59.180	-0.655	0.281
-398.179	54.223	0.509	-0.488
-397.165	-200.000	0.035	0.978
-396.150	233.154	0.153	-0.250
-395.136	-200.000	0.033	0.247
-394.121	-169.011	0.491	0.018
-393.106	78.566	0.344	-0.366
-392.092	706.826	0.133	0.350
-391.077	-200.000	0.230	1.272
-390.063	323.308	0.290	0.551
-389.048	306.374	0.296	0.549
-388.033	419.221	-0.429	-0.913
-387.019	-82.081	0.508	-0.165
-386.004	-200.000	0.065	-0.454
-384.990	-73.031	0.263	0.096
-383.975	-90.029	0.910	0.264
-382.960	-200.000	0.093	-0.419
-381.946	-123.176	-0.370	-0.059
-380.931	105.383	-0.593	0.697
-379.917	800.000	-0.265	0.737
-378.902	150.012	-0.277	0.374
-377.888	5.813	-0.236	-0.174
-376.873	-127.774	-0.111	-0.016
-375.858	76.918	0.520	0.550
-374.844	-131.394	0.482	-0.063
-373.829	-200.000	0.052	0.341
-372.815	405.567	0.143	0.300
-371.800	573.696	0.371	0.901
-370.785	244.867	0.309	0.517
-369.771	-200.000	-0.052	0.878
-368.756	121.289	-0.507	0.628
-367.742	450.567	-0.350	-0.768
-366.727	2.815	-0.242	-0.175
-365.712	-200.000	0.064	-0.520
-364.698	-100.496	-0.195	0.048
-363.683	-118.660	-0.316	0.055
-362.669	800.000	0.104	-0.436
-361.654	-6.106	-0.438	0.298
-360.639	800.000	0.131	0.440
-359.625	-30.760	0.037	0.021
-358.610	-200.000	-0.004	-0.607
-357.596	181.551	0.061	-0.090
-356.581	800.000	-0.140	0.393
-355.566	33.732	-0.328	0.284
-354.552	-91.691	0.514	-0.145
-353.537	159.314	0.073	0.101
-352.523	-99.548	0.183	-0.046
-351.508	-86.891	-0.792	-0.240
-350.493	326.204	-0.286	-0.545
-349.479	-59.417	0.855	-0.366
-348.464	172.778	-0.314	0.449
-347.450	800.000	0.231	0.737
-346.435	93.335	0.394	0.443
-345.420	-26.455	0.925	-0.539
-344.406	-200.000	0.138	0.905
-343.391	-128.504	-0.618	0.087
-342.377	800.000	0.171	-0.718
-341.362	-137.913	-0.346	-0.038
-340.348	-89.416	-0.653	0.191
-339.333	65.892	0.454	0.458
-338.318	63.094	0.352	-0.351
-337.304	98.393	0.285	0.327
-336.289	173.185	0.223	-0.320
-335.275	-91.650	0.340	0.096
-334.260	800.000	0.190	-0.617
-333.245	-150.335	0.609	0.047
-332.231	69.587	-0.067	0.068
-331.216	-47.853	0.405	0.195
-330.202	-67.829	-0.799	-0.310
-329.187	-74.279	-0.232	0.083
-328.172	32.751	-0.190	0.164
-327.158	-200.000	-0.112	-1.256
-326.143	527.911	0.208	-0.487
-325.129	59.349	0.430	-0.421
-324.114	175.245	0.179	-0.257
-323.099	31.137	-0.127	0.108
-322.085	57.236	0.142	-0.138
-321.070	787.349	0.449	1.225
-320.056	-150.953	-0.402	-0.030
-319.041	-33.287	0.264	-0.145
-318.026	364.881	0.093	0.186
-317.012	35.297	0.654	-0.569
-315.997	446.145	0.154	0.336
-314.983	-17.615	-0.082	0.051
-313.968	-177.290	0.651	0.016
-312.953	-200.000	-0.030	0.153
-311.939	320.923	0.278	-0.524
-310.924	55.086	0.662	-0.635
-309.910	-84.644	-0.567	0.177
-308.895	320.088	-0.532	-1.003
-307.880	33.952	0.216	0.187
-306.866	800.000	0.091	-0.254
-305.851	-70.297	-0.315	0.119
-304.837	-64.090	0.471	-0.191
-303.822	34.934	-0.251	-0.218
-302.807	369.462	0.109	-0.219
-301.793	-33.343	-0.663	-0.364
-300.778	-200.000	0.061	-0.628
-299.764	-200.000	-0.035	0.238
-298.749	219.218	-0.170	-0.270
-297.735	162.991	0.247	0.345
-296.720	-104.473	-0.786	-0.180
-295.705	-47.495	1.049	-0.506
-294.691	49.615	-0.416	0.389
-293.676	-200.000	0.083	-0.409
-292.662	121.906	0.294	0.364
-291.647	237.269	0.172	-0.283
-290.632	-165.555	0.737	-0.032
-289.618	154.840	0.614	0.837
-288.603	177.328	-0.200	0.290
-287.589	257.797	-0.512	-0.874
-286.574	800.000	-0.102	0.399
-285.559	499.208	-0.134	-0.306
-284.545	-143.025	-0.189	-0.018
-283.530	-200.000	-0.004	0.794
-282.516	-200.000	-0.078	0.362
-281.501	95.288	0.455	-0.514
-280.486	-102.052	0.790	-0.189
-279.472	800.000	-0.152	-0.430
-278.457	-146.588	-0.925	0.080
-277.443	-18.297	0.277	-0.172
-276.428	-200.000	-0.116	0.549
-275.413	-200.000	0.090	1.015
-274.399	800.000	0.181	-0.567
-273.384	286.808	-0.206	0.369
-272.370	-200.000	0.002	-0.755
-271.355	-200.000	0.023	-0.218
-270.340	-181.064	0.598	0.012
-269.326	670.374	-0.403	-1.034
-268.311	-100.964	0.343	0.083
-267.297	-200.000	-0.029	0.237
-266.282	358.058	0.056	0.111
-265.267	366.093	0.036	0.073
-264.253	-14.510	-0.886	0.565
-263.238	-68.554	0.811	-0.311
-262.224	-200.000	0.088	0.531
-261.209	-200.000	-0.084	-0.450
-260.195	800.000	-0.168	-0.510
-259.180	-200.000	0.079	0.412
-258.165	-130.788	-0.512	0.068
-257.151	307.100	0.366	0.676
-256.136	-87.845	0.744	0.222
-255.122	-147.208	-0.546	0.046
-254.107	75.220	0.890	0.930
-253.092	572.641	0.547	1.319
-252.078	800.000	-0.236	0.680
-251.063	134.373	-0.368	0.473
-250.049	104.803	0.259	0.302
-249.034	-36.416	0.257	0.137
-248.019	-93.178	0.984	-0.271
-247.005	800.000	-0.152	-0.556
-245.990	51.091	-0.315	-0.296
-244.976	-154.325	0.131	-0.009
-243.961	-200.000	-0.013	-0.092
-242.946	-200.000	-0.114	0.508
-241.932	489.180	0.102	-0.230
-240.917	800.000	0.097	-0.371
-239.903	-17.945	-0.351	-0.218
-238.888	168.788	0.718	1.014
-237.873	252.578	-0.268	0.452
-236.859	-176.022	-0.812	-0.021
-235.844	-143.696	-0.568	-0.053
-234.830	-20.112	-0.137	0.084
-233.815	-126.256	-0.608	0.090
-232.800	505.794	-0.239	-0.548
-231.786	-74.992	-0.278	0.099
-230.771	460.183	0.118	-0.260
-229.757	697.811	-0.299	-0.778
-228.742	-107.801	-0.491	-0.106
-227.727	-110.959	-0.898	0.183
-226.713	63.785	0.774	-0.770
-225.698	-197.640	-0.198	0.001
-224.684	121.454	-0.123	-0.152
-223.669	800.000	-0.303	-1.207
-222.655	486.614	0.128	0.289
-221.640	-200.000	-0.103	0.459
-220.625	-145.232	-1.049	-0.094
-219.611	-183.130	-0.663	-0.012
-218.596	-102.627	-0.489	0.115
-217.582	241.736	0.550	0.909
-216.567	294.078	-0.181	0.328
-215.552	75.578	-0.481	-0.502
-214.538	313.840	0.176	-0.327
-213.523	437.752	0.070	-0.152
-212.509	-104.849	-0.748	0.170
-211.494	589.764	0.183	-0.447
-210.479	-118.803	-0.931	0.162
-209.465	54.225	-0.364	-0.346
-208.450	241.481	0.376	0.621
-207.436	-200.000	0.054	-0.456
-206.421	-200.000	0.040	-0.549
-205.406	800.000	-0.273	-0.755
-204.392	355.128	0.400	-0.787
-203.377	-27.017	-0.329	0.190
-202.363	-42.481	-0.530	0.267
-201.348	137.196	-0.340	-0.440
-200.333	33.786	0.237	-0.203
-199.319	-200.000	-0.105	0.906
-198.304	-84.466	0.472	0.147
-197.290	-190.827	0.513	0.005
-196.275	137.985	-0.134	-0.174
-195.260	-200.000	0.137	-0.937
-194.246	27.971	-0.307	-0.256
-193.231	151.326	0.489	-0.658
-192.217	260.687	-0.101	-0.172
-191.202	-55.934	0.603	0.266
-190.187	-68.127	0.521	-0.200
-189.173	658.814	0.228	0.580
-188.158	-127.607	0.753	0.108
-187.144	188.543	-0.149	-0.220
-186.129	-86.725	-0.534	-0.161
-185.114	800.000	0.137	0.377
-184.100	411.474	0.255	0.535
-183.085	305.490	0.030	-0.055
-182.071	800.000	-0.088	-0.327
-181.056	-48.124	-0.114	0.054
-180.042	-130.391	-0.604	0.081
-179.027	-175.023	-0.747	-0.021
-178.012	51.955	0.448	0.421
-176.998	-64.066	0.268	-0.108
-175.983	-71.777	0.552	-0.203
-174.969	-200.000	-0.110	0.495
-173.954	-96.653	0.115	0.030
-172.939	69.641	-0.432	0.439
-171.925	69.126	0.556	-0.565
-170.910	-200.000	-0.091	-0.695
-169.896	-200.000	-0.092	-0.484
-168.881	-81.975	0.438	0.141
-167.866	194.464	-0.042	-0.064
-166.852	-200.000	0.008	0.561
-165.837	-13.785	0.464	0.296
-164.823	-145.476	0.539	0.048
-163.808	118.173	0.717	0.873
-162.793	578.247	-0.306	-0.740
-161.779	190.185	-0.548	0.812
-160.764	295.003	0.325	-0.586
-159.750	321.635	-0.214	-0.402
-158.735	-36.510	0.644	-0.342
-157.720	-88.818	-0.222	0.065
-156.706	355.976	-0.422	0.829
-155.691	-160.851	0.148	-0.008
-154.677	294.674	0.239	0.430
-153.662	800.000	-0.146	-0.419
-152.647	-121.659	0.431	0.070
-151.633	-200.000	0.033	0.396
-150.618	-200.000	-0.009	-0.261
-149.604	-93.550	-1.003	-0.274
-148.589	-160.130	-0.491	-0.026
-147.574	-200.000	0.159	-0.842
-146.560	800.000	-0.086	-0.262
-145.545	-200.000	0.035	0.276
-144.531	-200.000	-0.020	-0.603
-143.516	729.388	-0.309	-0.813
-142.502	486.361	-0.326	-0.734
-141.487	-13.567	-0.342	0.218
-140.472	142.867	-0.360	0.472
-139.458	195.996	-0.189	-0.284
-138.443	-151.230	0.725	-0.053
-137.429	45.467	0.522	0.475
-136.414	-140.380	-1.022	-0.105
-135.399	132.002	0.307	-0.389
-134.385	-184.599	0.823	0.013
-133.370	-104.324	0.561	0.128
-132.356	74.440	0.509	0.527
-131.341	184.282	-0.389	-0.567
-130.326	800.000	-0.106	0.387
-129.312	125.434	-0.562	0.699
-128.297	800.000	0.150	-0.490
-127.283	9.816	-0.401	-0.300
-126.268	-200.000	-0.123	-0.578
-125.253	-39.157	0.929	-0.481
-124.239	2.234	-0.241	0.172
-123.224	26.002	-0.259	0.213
-122.210	-178.666	-0.597	-0.014
