DTS Sentinel unit serial number:	SN413079Multiplexer serial number:	ORYXHardware model number:	OX4-SRSoftware version number:	ORYX F/W v4.00 Oryx Data Collector v3.7.2.0data status	okinstallation	princeton_trtdifferential loss correction	single-endedforward channel	channel 2reverse channel	N/Adate	2019/09/12time	19:23:49forward acquisition time	15.00reverse acquisition time	0.00gamma	496.2192k internal	0.2326k external	0.2326temperature offset calibration	1.0149default loss term (dB/km)	0.3790temperature slope calibration	1.0000multiplexer offset coefficient	1.0000multiplexer slope coefficient	1.0000fibre end	0.00T internal ref (°C)	32.37T ext. ref 1 (°C)	3.21T ext. ref 2 (°C)	26.92length (m)	temperature (°C)	Stokes	anti-Stokes-747.200	57.539	0.554	0.546
-746.185	-14.943	0.444	-0.287
-745.171	51.100	-0.647	-0.619
-744.156	-200.000	-0.093	0.917
-743.142	-4.936	-0.885	-0.615
-742.127	21.984	0.293	-0.241
-741.112	-35.016	-0.428	0.236
-740.098	-9.635	0.866	0.582
-739.083	-67.403	-0.368	-0.146
-738.069	-78.885	-0.632	-0.217
-737.054	123.350	0.464	0.587
-736.039	-29.338	-0.400	-0.231
-735.025	-93.442	0.508	0.142
-734.010	112.844	-0.190	0.232
-732.996	-132.261	-0.703	-0.092
-731.981	92.630	-0.376	-0.428
-730.966	56.249	-0.354	-0.347
-729.952	800.000	-0.046	-0.200
-728.937	110.787	-0.205	0.248
-727.923	758.389	-0.134	-0.367
-726.908	294.679	-0.160	0.294
-725.894	-26.944	0.729	-0.429
-724.879	24.855	0.303	0.253
-723.864	-137.688	-0.502	-0.057
-722.850	87.805	-0.191	0.214
-721.835	321.209	0.370	-0.709
-720.821	-200.000	0.041	0.230
-719.806	-150.726	0.198	0.015
-718.791	258.427	-0.054	0.094
-717.777	421.758	-0.447	-0.967
-716.762	135.673	-0.403	0.528
-715.748	-174.728	-0.492	0.014
-714.733	-200.000	0.058	0.432
-713.718	-29.760	0.657	-0.377
-712.704	-200.000	0.035	-0.734
-711.689	111.109	-0.328	0.398
-710.675	-44.756	0.703	-0.353
-709.660	-62.165	-0.143	0.060
-708.645	156.964	0.274	-0.382
-707.631	-200.000	-0.123	0.937
-706.616	-114.074	0.298	0.058
-705.602	-82.194	0.252	-0.083
-704.587	800.000	0.151	0.473
-703.572	-158.806	-0.191	-0.011
-702.558	-79.354	-0.629	-0.214
-701.543	-200.000	0.059	-1.156
-700.529	237.224	0.384	-0.640
-699.514	-97.874	0.933	0.243
-698.499	-50.094	-0.705	-0.336
-697.485	775.098	-0.116	-0.319
-696.470	-200.000	-0.085	-0.586
-695.456	-200.000	0.109	-0.909
-694.441	42.277	0.414	-0.378
-693.426	-20.277	-1.003	-0.622
-692.412	-135.319	0.223	-0.027
-691.397	-13.732	-0.547	-0.356
-690.383	-105.452	0.253	-0.058
-689.368	4.113	0.240	0.177
-688.354	-200.000	-0.031	-0.239
-687.339	-30.319	0.407	0.232
-686.324	-146.620	-0.198	0.017
-685.310	800.000	-0.051	-0.151
-684.295	28.549	-0.526	0.448
-683.281	120.266	-0.344	0.430
-682.266	22.423	0.854	0.702
-681.251	-19.494	-0.466	0.290
-680.237	800.000	0.114	-0.399
-679.222	-5.390	0.401	0.277
-678.208	-32.942	0.455	-0.254
-677.193	151.583	-0.367	0.503
-676.178	-190.566	0.275	-0.003
-675.164	-200.000	0.006	0.298
-674.149	93.338	0.343	-0.390
-673.135	289.685	-0.197	-0.360
-672.120	294.747	0.148	-0.273
-671.105	161.735	-0.209	0.294
-670.091	19.448	-0.479	0.387
-669.076	33.151	-0.328	-0.286
-668.062	-134.193	0.241	-0.030
-667.047	-126.860	-0.435	0.064
-666.032	-89.108	-0.263	0.078
-665.018	147.122	0.539	-0.729
-664.003	325.598	-0.596	-1.146
-662.989	-25.332	-0.408	-0.242
-661.974	549.875	0.135	0.326
-660.959	-11.571	-0.295	-0.195
-659.945	675.494	0.431	1.126
-658.930	-200.000	-0.102	0.497
-657.916	267.316	0.018	-0.031
-656.901	-141.084	-0.189	0.019
-655.886	-95.713	-0.445	0.119
-654.872	179.309	-0.118	-0.173
-653.857	-8.730	-0.671	0.452
-652.843	51.030	0.524	0.499
-651.828	-200.000	0.006	-0.944
-650.814	-139.314	-0.306	-0.033
-649.799	-97.638	-0.322	-0.084
-648.784	-100.039	0.563	0.141
-647.770	43.314	0.367	0.337
-646.755	-173.205	0.163	0.005
-645.741	800.000	0.105	0.364
-644.726	-121.742	-1.070	0.178
-643.711	-69.604	0.589	0.226
-642.697	-60.305	0.597	0.255
-641.682	800.000	0.276	-0.945
-640.668	800.000	0.093	0.387
-639.653	800.000	0.347	-0.995
-638.638	-200.000	-0.008	-0.219
-637.624	500.962	-0.130	0.302
-636.609	-46.303	-0.470	0.232
-635.595	234.268	0.153	-0.253
-634.580	-200.000	0.071	0.644
-633.565	-63.109	-0.897	-0.372
-632.551	29.525	-0.552	0.472
-631.536	20.150	0.312	0.253
-630.522	48.890	0.216	0.203
-629.507	246.903	0.422	-0.715
-628.492	-69.191	-0.639	-0.247
-627.478	-200.000	-0.100	0.649
-626.463	-200.000	-0.085	-0.623
-625.449	-97.578	-0.852	-0.222
-624.434	-200.000	0.223	1.140
-623.419	-81.870	-1.365	0.449
-622.405	-167.413	1.014	0.041
-621.390	138.862	-0.211	0.279
-620.376	465.675	0.138	0.310
-619.361	-50.556	-0.552	-0.261
-618.346	-178.698	0.721	-0.017
-617.332	8.929	0.196	-0.148
-616.317	25.078	0.382	0.318
-615.303	-44.107	-0.650	0.327
-614.288	-200.000	-0.006	0.078
-613.273	2.260	0.433	-0.314
-612.259	-200.000	0.065	-0.304
-611.244	-57.183	0.749	0.331
-610.230	366.920	-0.250	-0.505
-609.215	-100.045	-0.323	-0.081
-608.201	125.231	-0.673	0.852
-607.186	-62.203	0.508	-0.213
-606.171	505.056	0.154	-0.358
-605.157	47.158	0.500	-0.467
-604.142	33.666	0.829	-0.723
-603.128	60.170	-0.360	0.357
-602.113	713.869	-0.262	-0.697
-601.098	-5.080	0.483	-0.333
-600.084	-155.464	0.301	0.019
-599.069	-200.000	-0.011	0.529
-598.055	-121.778	0.298	0.049
-597.040	-200.000	-0.098	-0.734
-596.025	47.529	-0.649	0.606
-595.011	-200.000	-0.014	0.426
-593.996	-200.000	0.115	-0.001
-592.982	-29.387	0.370	0.212
-591.967	800.000	0.087	-0.264
-590.952	308.409	-0.210	-0.393
-589.938	129.620	0.338	-0.434
-588.923	-83.378	0.532	-0.171
-587.909	-101.294	-0.755	0.185
-586.894	-39.924	0.511	0.267
-585.879	-104.808	-0.253	-0.058
-584.865	80.781	-0.312	0.337
-583.850	-200.000	0.017	0.169
-582.836	-183.576	0.269	-0.005
-581.821	-96.694	-0.441	-0.116
-580.806	-136.307	-0.862	0.101
-579.792	-133.713	-0.718	0.090
-578.777	-81.949	-0.308	0.101
-577.763	-106.542	0.482	0.108
-576.748	312.885	-0.309	0.581
-575.733	800.000	0.099	-0.370
-574.719	-52.377	0.700	-0.325
-573.704	-99.530	0.668	0.168
-572.690	-200.000	0.048	-0.250
-571.675	278.921	0.159	-0.284
-570.661	-127.550	0.200	-0.029
-569.646	-108.310	0.487	0.105
-568.631	39.194	0.505	0.453
-567.617	7.409	0.284	0.212
-566.602	210.141	0.432	-0.679
-565.588	-19.739	0.847	0.525
-564.573	415.368	0.186	0.396
-563.558	-11.372	-0.493	-0.325
-562.544	-108.015	0.659	0.143
-561.529	167.012	-0.305	-0.434
-560.515	-140.421	-0.689	-0.072
-559.500	-200.000	-0.019	-0.239
-558.485	-149.395	-0.939	-0.075
-557.471	54.636	-0.573	-0.553
-556.456	2.379	0.402	0.291
-555.442	187.086	-0.206	-0.307
-554.427	-87.419	0.307	0.093
-553.412	599.891	0.123	-0.306
-552.398	-200.000	-0.049	-0.617
-551.383	-161.542	1.047	-0.054
-550.369	174.895	0.315	0.457
-549.354	244.107	0.176	0.296
-548.339	-200.000	0.054	0.401
-547.325	-38.698	-0.503	-0.266
-546.310	800.000	-0.215	-0.596
-545.296	272.538	0.069	-0.121
-544.281	-128.933	-0.501	-0.070
-543.266	294.931	-0.036	0.066
-542.252	-59.089	-0.646	0.279
-541.237	-200.000	0.124	0.793
-540.223	-200.000	-0.085	0.468
-539.208	800.000	-0.161	0.581
-538.193	95.382	0.077	0.088
-537.179	-87.640	0.379	0.115
-536.164	800.000	-0.094	0.266
-535.150	-76.248	0.089	-0.031
-534.135	-46.851	-0.517	-0.253
-533.121	800.000	-0.211	-0.634
-532.106	460.680	0.205	0.458
-531.091	453.202	-0.107	0.238
-530.077	-1.897	0.472	0.332
-529.062	-200.000	-0.011	0.127
-528.048	-200.000	0.004	-0.030
-527.033	214.227	-0.303	0.480
-526.018	-111.535	-0.207	-0.042
-525.004	-52.774	0.352	-0.162
-523.989	-53.492	0.248	-0.114
-522.975	614.049	-0.244	0.612
-521.960	526.747	0.422	0.993
-520.945	800.000	0.039	-0.168
-519.931	178.239	-0.309	-0.452
-518.916	-27.448	0.268	0.156
-517.902	-27.516	0.776	-0.451
-516.887	97.424	-0.126	0.145
-515.872	-200.000	0.033	-0.342
-514.858	52.428	0.449	0.428
-513.843	184.301	0.424	-0.627
-512.829	-200.000	-0.048	0.297
-511.814	1.440	0.125	-0.090
-510.799	-16.784	0.460	-0.291
-509.785	50.644	-0.575	0.543
-508.770	456.218	-0.206	0.456
-507.756	-200.000	0.034	-0.203
-506.741	14.859	0.454	0.355
-505.726	-6.234	-0.563	0.384
-504.712	-37.406	0.479	0.256
-503.697	163.973	0.299	0.421
-502.683	641.120	0.038	-0.097
-501.668	623.074	0.329	-0.829
-500.653	117.157	-0.243	-0.299
-499.639	-63.822	0.593	0.243
-498.624	-130.170	-0.951	0.129
-497.610	800.000	-0.110	-0.453
-496.595	-40.424	-1.146	-0.595
-495.581	-48.286	0.328	0.158
-494.566	5.330	0.273	-0.201
-493.551	-150.739	1.029	0.078
-492.537	-109.083	0.433	-0.092
-491.522	-50.855	-0.974	-0.457
-490.508	647.821	0.212	-0.541
-489.493	-76.371	-0.472	-0.166
-488.478	356.139	0.188	-0.374
-487.464	4.563	0.419	0.307
-486.449	-200.000	0.093	-0.610
-485.435	-36.370	0.436	0.235
-484.420	-9.229	-0.200	0.133
-483.405	146.028	0.021	0.028
-482.391	800.000	0.036	-0.113
-481.376	-80.459	0.215	0.071
-480.362	-131.698	0.934	0.122
-479.347	-200.000	0.067	-0.771
-478.332	800.000	-0.168	0.672
-477.318	141.956	0.178	0.235
-476.303	-107.914	-0.409	0.089
-475.289	48.389	0.634	0.592
-474.274	521.950	0.336	-0.786
-473.259	-104.666	-0.535	-0.123
-472.245	357.463	-0.181	-0.361
-471.230	-114.576	-0.712	0.136
-470.216	68.942	0.801	-0.821
-469.201	-32.868	-0.933	-0.517
-468.186	-200.000	-0.071	-0.415
-467.172	-148.014	0.446	0.037
-466.157	324.240	-0.605	1.152
-465.143	-62.122	-0.925	0.385
-464.128	17.688	-0.498	0.395
-463.113	56.464	-0.466	0.452
-462.099	76.177	-0.235	-0.249
-461.084	-75.523	0.546	0.194
-460.070	-89.304	-0.475	0.140
-459.055	241.611	-0.466	0.777
-458.040	149.354	-0.268	-0.361
-457.026	728.179	0.080	0.214
-456.011	-37.131	0.514	0.275
-454.997	-32.107	-1.274	0.710
-453.982	-125.412	0.370	0.056
-452.968	-39.738	-0.755	-0.394
-451.953	355.421	0.203	-0.403
-450.938	294.439	-0.133	0.243
-449.924	204.212	0.084	0.129
-448.909	800.000	-0.055	0.174
-447.895	-42.315	0.396	-0.202
-446.880	472.452	0.376	-0.843
-445.865	-3.646	-0.405	0.280
-444.851	800.000	-0.081	0.296
-443.836	-40.097	0.533	0.277
-442.822	-22.892	0.632	0.380
-441.807	-35.494	-0.470	0.254
-440.792	13.149	0.448	0.346
-439.778	24.182	0.434	0.357
-438.763	48.354	-0.713	-0.665
-437.749	26.245	0.467	-0.389
-436.734	-122.887	0.734	-0.118
-435.719	-180.784	-0.296	-0.006
-434.705	11.825	-0.369	-0.282
-433.690	157.675	-0.222	-0.306
-432.676	-200.000	0.097	-0.829
-431.661	-63.040	1.069	0.440
-430.646	-2.687	-0.595	0.414
-429.632	158.497	-0.234	-0.324
-428.617	-58.867	-0.789	-0.340
-427.603	12.526	-0.416	-0.320
-426.588	-200.000	-0.003	0.162
-425.573	14.501	-0.429	-0.334
-424.559	-112.818	-0.700	-0.138
-423.544	285.300	-0.354	-0.636
-422.530	-200.000	0.094	-0.525
-421.515	339.041	-0.248	0.481
-420.500	51.619	0.141	0.133
-419.486	-177.595	-0.386	0.009
-418.471	34.433	-0.744	0.647
-417.457	-200.000	-0.012	-0.217
-416.442	48.018	-0.565	-0.526
-415.428	-200.000	0.098	1.483
-414.413	-28.325	-0.866	-0.498
-413.398	330.212	0.404	-0.775
-412.384	22.631	0.392	0.320
-411.369	36.021	0.092	0.081
-410.355	95.517	0.406	0.461
-409.340	-115.783	0.642	-0.120
-408.325	-200.000	0.011	-0.476
-407.311	-93.755	-0.336	0.092
-406.296	-200.000	-0.010	-0.598
-405.282	119.455	-0.556	0.685
-404.267	138.064	-0.108	-0.141
-403.252	-170.920	0.488	0.017
-402.238	800.000	-0.158	0.493
-401.223	120.114	0.200	0.247
-400.209	-200.000	0.013	-0.113
-399.194	1.185	0.338	-0.241
-398.179	-70.671	0.269	-0.101
-397.165	-41.754	0.273	-0.139
-396.150	800.000	-0.109	0.329
-395.136	-200.000	-0.068	0.520
-394.121	-128.283	0.522	-0.074
-393.106	-30.333	0.214	-0.121
-392.092	-119.402	0.344	-0.060
-391.077	189.042	-0.134	-0.199
-390.063	36.544	0.461	0.405
-389.048	534.309	-0.105	-0.247
-388.033	304.621	0.253	-0.467
-387.019	3.019	0.217	-0.157
-386.004	-77.080	0.222	-0.077
-384.990	-56.513	0.495	0.218
-383.975	-200.000	-0.108	-0.678
-382.960	-131.399	-0.466	0.061
-381.946	-110.280	-0.437	-0.090
-380.931	146.459	-0.180	0.241
-379.917	58.633	0.322	0.314
-378.902	309.434	0.236	-0.439
-377.888	-31.301	-0.780	-0.437
-376.873	-200.000	-0.026	-0.199
-375.858	-90.327	-0.381	-0.110
-374.844	-103.785	0.952	0.221
-373.829	-88.146	-0.531	0.158
-372.815	-99.733	0.885	-0.220
-371.800	-200.000	-0.025	0.181
-370.785	122.420	0.324	0.402
-369.771	22.274	-0.720	-0.585
-368.756	-153.739	-0.621	-0.042
-367.742	73.458	-0.427	-0.444
-366.727	392.576	0.159	-0.328
-365.712	-61.936	-0.310	0.129
-364.698	-6.281	0.596	0.404
-363.683	143.056	-0.039	-0.052
-362.669	-200.000	0.024	0.459
-361.654	-111.178	0.551	-0.112
-360.639	49.721	-0.455	-0.426
-359.625	226.039	0.244	-0.392
-358.610	-141.785	-0.551	-0.055
-357.596	-119.026	0.608	-0.106
-356.581	-200.000	-0.102	0.459
-355.566	259.808	0.228	-0.391
-354.552	-39.809	-0.253	-0.131
-353.537	217.674	0.210	0.332
-352.523	-28.479	0.457	0.262
-351.508	55.146	0.686	-0.659
-350.493	-87.009	-0.639	-0.193
-349.479	-200.000	-0.048	-0.472
-348.464	-47.434	-0.588	0.284
-347.450	-135.246	-0.254	-0.030
-346.435	16.536	0.586	-0.460
-345.420	53.432	0.148	-0.141
-344.406	284.154	-0.662	1.183
-343.391	800.000	-0.126	-0.505
-342.377	205.048	-0.166	-0.256
-341.362	-156.709	-0.527	0.032
-340.348	342.503	0.377	0.732
-339.333	-200.000	-0.028	1.450
-338.318	210.244	-0.388	0.604
-337.304	-106.989	-0.513	-0.113
-336.289	-200.000	-0.112	-0.593
-335.275	800.000	-0.137	-0.502
-334.260	99.251	0.235	0.270
-333.245	20.660	0.237	0.191
-332.231	800.000	-0.039	0.167
-331.216	-45.572	-0.394	0.194
-330.202	216.258	-0.347	-0.547
-329.187	-93.729	0.991	-0.271
-328.172	-100.446	0.240	-0.059
-327.158	-200.000	0.012	-0.119
-326.143	148.294	0.358	-0.479
-325.129	268.905	-0.543	-0.945
-324.114	-142.302	-0.703	0.069
-323.099	-200.000	-0.076	-0.373
-322.085	-90.931	-0.145	-0.042
-321.070	254.120	-0.332	0.562
-320.056	-60.126	-0.811	0.343
-319.041	397.898	-0.345	0.715
-318.026	-177.886	0.848	0.020
-317.012	-200.000	0.141	0.659
-315.997	800.000	-0.208	0.633
-314.983	-66.985	0.256	0.100
-313.968	209.623	0.370	-0.575
-312.953	592.276	-0.274	0.671
-311.939	286.451	-0.212	0.379
-310.924	86.420	-0.260	0.284
-309.910	-87.263	0.625	-0.188
-308.895	313.509	-0.233	0.435
-307.880	-6.776	0.171	-0.116
-306.866	-41.389	-0.073	-0.037
-305.851	71.962	0.521	0.537
-304.837	-200.000	0.012	-0.722
-303.822	800.000	-0.269	0.987
-302.807	354.181	0.241	-0.474
-301.793	200.108	0.296	0.451
-300.778	-94.653	0.447	-0.120
-299.764	-17.767	0.416	-0.259
-298.749	-50.924	-0.243	0.113
-297.735	-119.262	0.250	0.043
-296.720	188.826	-0.173	-0.257
-295.705	67.701	0.196	-0.199
-294.691	-137.418	-0.313	0.035
-293.676	217.300	-0.563	-0.889
-292.662	182.869	-0.184	-0.269
-291.647	-43.482	-0.455	0.228
-290.632	-200.000	0.017	0.489
-289.618	-200.000	-0.152	-0.758
-288.603	694.868	-0.103	0.269
-287.589	345.116	-0.280	0.545
-286.574	523.302	-0.243	0.566
-285.559	-159.309	-0.902	0.050
-284.545	82.737	-0.395	0.425
-283.530	-78.857	-1.047	0.353
-282.516	106.343	0.310	-0.364
-281.501	474.046	0.282	0.629
-280.486	43.064	-0.311	0.281
-279.472	-200.000	1.103	0.002
-278.457	-188.956	0.179	0.002
-277.443	-62.186	-0.106	-0.044
-276.428	-200.000	-0.010	0.642
-275.413	-133.645	0.726	-0.090
-274.399	-128.850	0.661	-0.092
-273.384	-71.480	0.305	0.113
-272.370	23.329	0.268	-0.218
-271.355	-70.773	0.176	0.066
-270.340	800.000	0.209	-0.609
-269.326	349.724	0.103	-0.202
-268.311	-5.031	-0.336	-0.229
-267.297	99.973	0.683	-0.784
-266.282	140.599	-0.415	-0.542
-265.267	-74.140	0.529	-0.190
-264.253	800.000	0.058	0.183
-263.238	19.182	-0.462	-0.367
-262.224	800.000	-0.167	0.587
-261.209	141.922	0.413	-0.542
-260.195	-116.887	0.648	0.117
-259.180	-17.054	0.233	-0.146
-258.165	124.386	-0.518	-0.644
-257.151	-200.000	0.048	-0.477
-256.136	-117.308	0.592	-0.106
-255.122	800.000	-0.075	0.296
-254.107	-200.000	-0.043	0.426
-253.092	80.273	0.114	-0.122
-252.078	17.899	-0.351	-0.276
-251.063	-156.695	0.501	0.031
-250.049	-14.723	0.220	-0.140
-249.034	-148.633	-0.304	-0.024
-248.019	53.964	-0.467	-0.444
-247.005	-69.595	0.827	-0.313
-245.990	800.000	0.113	0.462
-244.976	-87.611	-0.157	0.047
-243.961	-200.000	0.071	0.569
-242.946	61.505	-0.545	0.536
-241.932	-84.025	0.520	0.163
-240.917	387.284	-0.176	-0.360
-239.903	-126.228	0.217	-0.032
-238.888	565.170	0.137	0.329
-237.873	10.269	0.095	-0.072
-236.859	-9.500	0.108	-0.071
-235.844	203.944	0.152	0.233
-234.830	163.590	0.204	-0.283
-233.815	536.208	0.248	-0.583
-232.800	-42.598	0.362	-0.182
-231.786	127.770	0.376	-0.473
-230.771	-132.107	-0.501	0.064
-229.757	-200.000	-0.069	-0.595
-228.742	800.000	-0.290	-0.908
-227.727	70.705	-0.076	0.077
-226.713	-171.348	-0.407	0.013
-225.698	-113.773	0.187	0.036
-224.684	800.000	-0.175	-0.576
-223.669	800.000	-0.194	-0.792
-222.655	128.081	-0.507	-0.638
-221.640	-139.621	0.672	-0.071
-220.625	-200.000	-0.070	0.423
-219.611	-2.676	-0.257	-0.178
-218.596	800.000	-0.098	-0.283
-217.582	-64.919	-0.900	0.359
-216.567	30.809	-0.169	-0.143
-215.552	1.444	0.245	0.174
-214.538	-125.849	-0.638	0.095
-213.523	306.448	0.042	-0.077
-212.509	-78.176	-0.237	-0.080
-211.494	321.872	0.218	0.410
-210.479	-119.136	-0.368	0.064
-209.465	800.000	0.153	-0.428
-208.450	416.716	-0.452	-0.953
-207.436	121.734	-0.064	0.079
-206.421	-200.000	0.019	-0.780
-205.406	-200.000	-0.024	0.233
-204.392	283.701	-0.486	0.863
-203.377	182.758	0.529	0.771
-202.363	15.902	-0.478	-0.371
-201.348	308.631	0.135	-0.248
-200.333	-17.797	0.820	0.508
-199.319	-200.000	0.148	0.758
-198.304	-100.520	0.322	0.079
-197.290	800.000	0.168	0.519
-196.275	-200.000	0.104	0.454
-195.260	22.950	0.539	0.436
-194.246	41.164	-0.404	0.360
-193.231	330.580	-0.129	-0.246
-192.217	-162.397	0.470	-0.023
-191.202	-200.000	-0.020	0.827
-190.187	180.662	-0.104	-0.151
-189.173	-35.286	0.247	0.133
-188.158	64.218	0.279	0.277
-187.144	-14.980	-0.514	-0.325
-186.129	-200.000	-0.016	0.258
-185.114	-164.499	-0.603	0.027
-184.100	-200.000	0.057	0.532
-183.085	800.000	-0.159	0.519
-182.071	109.380	-0.241	-0.284
-181.056	34.442	0.330	0.284
-180.042	-72.181	-1.416	-0.518
-179.027	486.708	-0.170	-0.383
-178.012	-106.709	-0.428	0.094
-176.998	334.272	-0.257	-0.490
-175.983	-65.490	0.705	0.279
-174.969	-76.989	0.577	0.199
-173.954	34.284	-0.440	0.378
-172.939	9.797	0.421	0.315
-171.925	232.609	0.245	-0.397
-170.910	-84.365	0.461	0.144
-169.896	800.000	0.252	-0.832
-168.881	117.900	0.312	-0.379
-167.866	129.794	0.077	0.097
-166.852	-147.388	-0.852	0.071
-165.837	-168.964	-0.531	-0.020
-164.823	-57.626	0.452	-0.195
-163.808	-81.748	0.153	0.049
-162.793	-108.514	1.352	-0.287
-161.779	86.554	-0.281	0.306
-160.764	-128.000	0.236	-0.033
-159.750	275.205	-0.437	-0.765
-158.735	-200.000	-0.021	-0.127
-157.720	-138.436	0.510	0.055
-156.706	-148.005	0.636	-0.052
-155.691	-94.205	-1.139	-0.307
-154.677	-86.380	0.283	-0.086
-153.662	800.000	0.285	1.067
-152.647	-200.000	-0.018	0.929
-151.633	-43.076	-1.082	-0.540
-150.618	2.950	-0.192	0.138
-149.604	-200.000	-0.055	0.370
-148.589	111.286	-0.270	-0.321
-147.574	310.305	-0.185	-0.341
-146.560	800.000	-0.085	-0.236
-145.545	52.795	0.168	-0.158
-144.531	-137.091	-0.949	-0.107
-143.516	-200.000	0.073	-0.720
-142.502	-183.988	0.308	-0.005
-141.487	-26.294	0.900	-0.521
-140.472	-200.000	0.072	0.343
-139.458	381.935	-0.122	-0.247
-138.443	11.317	0.223	-0.168
-137.429	-87.236	0.263	0.079
-136.414	91.457	-0.437	-0.483
-135.399	322.627	0.575	1.079
-134.385	-62.773	-0.600	0.245
-133.370	-17.404	-0.080	-0.049
-132.356	103.690	0.361	-0.418
-131.341	16.923	-0.182	0.142
-130.326	50.096	-0.572	0.532
-129.312	-160.854	0.617	-0.032
-128.297	-104.444	0.809	0.184
-127.283	-200.000	0.421	0.000
-126.268	-200.000	-0.113	0.496
-125.253	141.562	0.379	0.494
-124.239	142.819	-0.066	-0.086
-123.224	77.011	0.631	0.659
-122.210	-40.591	-0.615	-0.314
-121.195	-140.336	-0.811	0.083
