DTS Sentinel unit serial number:	SN413079Multiplexer serial number:	ORYXHardware model number:	OX4-SRSoftware version number:	ORYX F/W v4.00 Oryx Data Collector v3.7.2.0data status	okinstallation	princeton_trtdifferential loss correction	single-endedforward channel	channel 2reverse channel	N/Adate	2019/09/18time	03:27:35forward acquisition time	60.00reverse acquisition time	0.00gamma	496.2192k internal	0.2350k external	0.2350temperature offset calibration	0.9979default loss term (dB/km)	0.3790temperature slope calibration	1.0000multiplexer offset coefficient	1.0000multiplexer slope coefficient	1.0000fibre end	0.00T internal ref (°C)	22.80T ext. ref 1 (°C)	0.17T ext. ref 2 (°C)	17.37length (m)	temperature (°C)	Stokes	anti-Stokes-747.200	-200.000	0.069	0.430
-746.185	588.404	0.175	0.430
-745.171	351.252	-0.172	-0.340
-744.156	-200.000	0.007	0.184
-743.142	-96.133	-0.310	0.082
-742.127	-200.000	0.042	0.316
-741.112	-106.723	-0.218	-0.048
-740.098	513.153	0.045	0.105
-739.083	9.256	0.293	0.221
-738.069	-65.842	-0.297	-0.119
-737.054	-200.000	-0.060	-0.262
-736.039	75.875	-0.229	-0.241
-735.025	-117.187	0.208	0.038
-734.010	594.229	0.133	-0.329
-732.996	-20.287	-0.082	-0.051
-731.981	800.000	0.036	0.115
-730.966	-200.000	-0.037	-0.231
-729.952	800.000	0.069	-0.232
-728.937	184.678	-0.032	-0.048
-727.923	800.000	0.046	-0.155
-726.908	-200.000	-0.039	0.302
-725.894	-200.000	0.067	0.429
-724.879	-55.490	-0.521	0.233
-723.864	599.061	-0.167	-0.413
-722.850	-62.767	0.375	-0.155
-721.835	-11.552	-0.267	0.175
-720.821	465.483	-0.105	-0.235
-719.806	130.774	-0.201	-0.257
-718.791	-116.141	-0.150	-0.028
-717.777	-200.000	-0.013	-0.231
-716.762	197.699	0.132	-0.201
-715.748	32.099	-0.283	-0.243
-714.733	5.238	0.142	-0.104
-713.718	127.074	0.250	-0.316
-712.704	7.570	0.067	0.050
-711.689	112.225	0.208	0.251
-710.675	-200.000	-0.010	0.309
-709.660	-31.254	0.192	0.108
-708.645	800.000	0.047	-0.130
-707.631	-16.276	-0.229	-0.145
-706.616	800.000	0.062	0.190
-705.602	64.106	-0.156	-0.156
-704.587	-200.000	-0.041	-0.523
-703.572	-200.000	0.013	0.227
-702.558	-47.967	-0.223	-0.108
-701.543	-60.604	-0.372	-0.157
-700.529	-200.000	-0.026	-0.212
-699.514	-125.527	0.471	-0.071
-698.499	161.772	-0.074	-0.103
-697.485	-164.146	-0.204	-0.009
-696.470	270.076	-0.054	0.094
-695.456	-200.000	0.040	0.363
-694.441	86.307	0.094	-0.103
-693.426	-107.249	0.214	0.047
-692.412	800.000	-0.091	0.266
-691.397	-200.000	0.043	-0.390
-690.383	-47.471	0.128	-0.062
-689.368	100.136	-0.150	0.173
-688.354	-98.674	-0.212	-0.054
-687.339	-62.607	0.102	-0.042
-686.324	210.059	0.032	0.050
-685.310	171.577	0.197	0.282
-684.295	74.018	0.123	0.129
-683.281	48.662	-0.107	-0.100
-682.266	-15.537	-0.297	-0.189
-681.251	-11.559	-0.349	-0.229
-680.237	-13.187	0.276	-0.179
-679.222	-200.000	-0.030	0.253
-678.208	359.635	-0.023	0.046
-677.193	-90.993	0.275	-0.079
-676.178	-200.000	-0.045	0.309
-675.164	800.000	-0.034	-0.096
-674.149	301.119	-0.112	0.206
-673.135	-200.000	0.024	-0.147
-672.120	-126.808	0.233	0.034
-671.105	-55.961	-0.101	0.045
-670.091	332.692	-0.134	-0.258
-669.076	49.611	-0.128	-0.120
-668.062	57.976	-0.300	-0.292
-667.047	-84.866	-0.121	-0.038
-666.032	45.069	0.216	-0.198
-665.018	-200.000	-0.038	-0.307
-664.003	20.185	0.142	-0.114
-662.989	27.749	0.134	0.112
-661.974	-28.367	0.269	-0.155
-660.959	800.000	-0.034	-0.134
-659.945	489.361	0.014	-0.032
-658.930	96.956	-0.137	0.156
-657.916	566.064	0.087	-0.210
-656.901	414.769	-0.075	-0.158
-655.886	4.806	-0.442	-0.323
-654.872	-77.974	0.307	-0.105
-653.857	800.000	0.056	0.211
-652.843	49.812	-0.088	-0.082
-651.828	53.926	-0.126	-0.121
-650.814	90.059	-0.097	-0.108
-649.799	800.000	0.040	-0.142
-648.784	508.919	0.037	0.085
-647.770	644.995	0.069	0.175
-646.755	-148.870	-0.255	-0.020
-645.741	-64.555	0.326	-0.132
-644.726	-148.712	-0.178	-0.014
-643.711	-102.957	-0.256	0.060
-642.697	162.839	0.153	0.214
-641.682	-200.000	-0.086	0.425
-640.668	-10.165	-0.043	-0.029
-639.653	27.583	-0.193	0.162
-638.638	-74.761	-0.279	-0.100
-637.624	12.579	-0.167	-0.128
-636.609	800.000	0.077	-0.252
-635.595	430.045	-0.042	-0.089
-634.580	-52.910	0.263	0.121
-633.565	17.992	-0.232	0.184
-632.551	342.062	-0.104	-0.202
-631.536	415.104	0.029	0.061
-630.522	156.458	0.162	-0.223
-629.507	-6.877	0.155	-0.105
-628.492	800.000	-0.046	-0.169
-627.478	-27.547	-0.115	0.066
-626.463	355.922	-0.141	0.280
-625.449	207.871	0.086	-0.133
-624.434	-122.648	-0.206	-0.033
-623.419	419.969	0.079	-0.168
-622.405	91.773	-0.131	0.146
-621.390	-2.622	0.100	0.070
-620.376	49.074	0.127	0.118
-619.361	-137.029	-0.399	-0.045
-618.346	-55.623	-0.281	0.125
-617.332	800.000	0.047	0.142
-616.317	693.922	0.050	0.130
-615.303	-200.000	-0.014	0.138
-614.288	282.999	0.158	0.282
-613.273	171.533	-0.249	0.355
-612.259	721.593	-0.077	-0.203
-611.244	-17.634	-0.217	0.135
-610.230	-64.387	-0.379	-0.153
-609.215	-28.039	0.108	0.062
-608.201	-72.784	0.254	-0.093
-607.186	22.894	0.046	-0.038
-606.171	-200.000	0.075	0.371
-605.157	-100.736	-0.057	-0.014
-604.142	-7.698	0.122	0.082
-603.128	-172.647	-0.243	0.008
-602.113	-161.945	0.153	0.008
-601.098	3.461	0.090	-0.065
-600.084	-200.000	-0.191	-0.001
-599.069	59.382	0.254	0.249
-598.055	-200.000	0.000	-0.171
-597.040	512.574	0.092	-0.212
-596.025	-12.128	-0.131	-0.085
-595.011	-200.000	-0.053	-0.382
-593.996	507.319	-0.017	0.039
-592.982	-200.000	-0.008	-0.121
-591.967	141.996	0.108	-0.142
-590.952	-200.000	0.037	0.180
-589.938	800.000	0.029	0.106
-588.923	-117.163	0.600	0.108
-587.909	-122.025	-0.162	-0.026
-586.894	-200.000	0.015	-0.125
-585.879	533.558	0.015	0.036
-584.865	262.075	-0.120	-0.207
-583.850	-141.638	0.376	-0.038
-582.836	506.737	-0.067	-0.155
-581.821	257.544	-0.064	0.110
-580.806	-200.000	0.016	0.280
-579.792	29.165	-0.042	-0.035
-578.777	-200.000	-0.029	-0.235
-577.763	-75.945	0.332	0.116
-576.748	800.000	-0.075	0.215
-575.733	-129.869	0.153	-0.021
-574.719	84.237	0.150	-0.163
-573.704	800.000	0.119	0.355
-572.690	-91.741	0.083	-0.023
-571.675	800.000	0.049	-0.135
-570.661	43.794	-0.090	0.082
-569.646	-119.262	-0.254	-0.044
-568.631	49.160	0.172	-0.160
-567.617	-72.485	-0.210	0.077
-566.602	390.471	0.154	0.316
-565.588	222.846	0.101	-0.162
-564.573	394.678	-0.045	-0.094
-563.558	221.387	-0.147	0.234
-562.544	133.773	-0.213	-0.273
-561.529	-7.531	-0.229	-0.153
-560.515	-61.263	-0.074	0.031
-559.500	-200.000	0.031	0.383
-558.485	117.147	-0.201	0.245
-557.471	-77.610	0.098	-0.034
-556.456	227.660	-0.148	-0.238
-555.442	-59.233	-0.160	0.068
-554.427	-73.111	-0.196	-0.071
-553.412	-41.172	0.299	0.153
-552.398	-45.105	0.270	0.133
-551.383	-49.403	-0.329	-0.156
-550.369	58.940	0.153	0.149
-549.354	322.813	-0.117	-0.220
-548.339	-52.742	0.243	-0.111
-547.325	-96.093	-0.145	0.038
-546.310	-192.147	-0.200	-0.002
-545.296	-141.811	0.216	0.021
-544.281	-120.980	0.294	0.049
-543.266	256.179	-0.065	0.111
-542.252	-33.426	0.309	0.169
-541.237	-200.000	0.135	0.000
-540.223	84.715	0.176	0.191
-539.208	800.000	-0.024	-0.096
-538.193	-200.000	0.016	-0.156
-537.179	-200.000	-0.008	0.059
-536.164	-26.235	0.055	-0.032
-535.150	59.816	-0.214	0.209
-534.135	-139.147	0.133	0.014
-533.121	183.175	0.095	0.139
-532.106	582.730	-0.111	-0.270
-531.091	274.267	-0.036	0.063
-530.077	300.853	-0.258	0.472
-529.062	18.272	-0.041	0.033
-528.048	50.684	0.301	0.282
-527.033	-118.309	-0.383	-0.067
-526.018	-114.683	-0.223	0.042
-525.004	-200.000	-0.074	-0.475
-523.989	3.012	0.142	-0.102
-522.975	-184.297	0.262	0.004
-521.960	800.000	0.028	0.111
-520.945	-200.000	0.051	0.247
-519.931	800.000	-0.082	-0.231
-518.916	147.382	-0.099	-0.132
-517.902	199.671	-0.089	-0.136
-516.887	-200.000	0.060	-0.290
-515.872	-118.006	0.115	-0.020
-514.858	-200.000	-0.024	-0.249
-513.843	800.000	0.118	-0.409
-512.829	800.000	-0.053	-0.230
-511.814	-76.010	-0.189	-0.066
-510.799	800.000	0.110	-0.361
-509.785	140.868	-0.062	0.081
-508.770	-117.248	0.233	0.042
-507.756	-27.481	-0.262	0.151
-506.741	-65.214	0.243	0.097
-505.726	50.618	-0.200	-0.187
-504.712	-37.561	-0.186	0.098
-503.697	259.671	-0.219	0.374
-502.683	-28.921	0.402	-0.229
-501.668	-200.000	0.088	-0.399
-500.653	-175.950	0.328	-0.009
-499.639	-124.023	0.262	0.041
-498.624	74.378	-0.274	-0.284
-497.610	-118.733	0.181	0.032
-496.595	-23.684	0.133	0.079
-495.581	800.000	-0.031	0.113
-494.566	800.000	0.034	0.104
-493.551	-200.000	-0.014	-0.415
-492.537	-17.119	0.097	0.060
-491.522	31.307	-0.249	-0.211
-490.508	2.500	0.207	-0.148
-489.493	-170.907	0.203	0.007
-488.478	-98.676	0.147	-0.037
-487.464	-116.435	-0.179	0.033
-486.449	165.332	-0.173	0.241
-485.435	35.662	0.093	0.081
-484.420	-200.000	-0.003	0.187
-483.405	-29.495	0.336	-0.190
-482.391	-200.000	0.060	0.302
-481.376	293.068	-0.133	0.240
-480.362	-133.221	0.179	0.022
-479.347	-84.509	-0.074	-0.023
-478.332	1.834	0.165	0.118
-477.318	800.000	-0.047	-0.139
-476.303	-123.311	-0.387	-0.061
-475.289	78.718	0.129	-0.136
-474.274	800.000	0.088	-0.355
-473.259	-200.000	-0.008	0.096
-472.245	-200.000	0.040	-0.218
-471.230	-200.000	0.017	0.134
-470.216	-62.043	-0.149	-0.061
-469.201	364.830	0.192	0.382
-468.186	77.552	-0.068	0.072
-467.172	691.550	-0.077	0.198
-466.157	-200.000	-0.049	-0.227
-465.143	-124.810	-0.453	0.069
-464.128	-200.000	0.013	-0.131
-463.113	81.221	0.105	-0.112
-462.099	-49.876	0.530	-0.248
-461.084	-132.242	0.325	0.042
-460.070	800.000	-0.101	-0.372
-459.055	48.730	-0.021	-0.019
-458.040	185.480	0.086	0.125
-457.026	32.030	-0.027	-0.023
-456.011	-116.164	0.253	-0.046
-454.997	-156.616	0.357	0.022
-453.982	-44.534	-0.214	0.105
-452.968	-76.001	0.144	-0.050
-451.953	88.736	-0.434	0.476
-450.938	-150.854	0.253	-0.019
-449.924	135.786	0.083	0.107
-448.909	-110.784	-0.142	0.029
-447.895	-110.896	0.566	0.115
-446.880	46.630	0.130	0.119
-445.865	-200.000	0.031	0.142
-444.851	-200.000	-0.006	-0.210
-443.836	-125.836	0.135	0.020
-442.822	-97.503	-0.108	0.028
-441.807	-32.979	-0.053	-0.029
-440.792	-62.693	0.195	0.080
-439.778	161.513	0.131	-0.181
-438.763	361.912	0.149	0.294
-437.749	314.009	-0.128	-0.238
-436.734	-83.584	-0.256	-0.081
-435.719	174.491	0.264	0.377
-434.705	-38.654	-0.361	0.188
-433.690	-171.973	-0.186	-0.006
-432.676	-200.000	-0.003	0.037
-431.661	233.031	-0.051	0.083
-430.646	1.437	0.043	-0.030
-429.632	800.000	-0.069	0.282
-428.617	-200.000	0.021	-0.186
-427.603	-34.269	-0.126	-0.068
-426.588	117.410	-0.186	-0.225
-425.573	221.182	0.080	0.127
-424.559	-200.000	-0.045	0.283
-423.544	95.385	-0.055	-0.062
-422.530	567.790	-0.032	-0.077
-421.515	8.547	0.069	-0.051
-420.500	279.788	0.152	-0.268
-419.486	-200.000	0.009	0.173
-418.471	-200.000	0.006	-0.157
-417.457	-200.000	0.032	-0.435
-416.442	-200.000	0.055	0.267
-415.428	-124.992	0.224	0.034
-414.413	-120.295	-0.286	0.048
-413.398	261.576	0.204	0.348
-412.384	-0.691	0.243	-0.170
-411.369	-200.000	0.014	0.093
-410.355	3.051	-0.060	0.043
-409.340	433.402	0.032	0.068
-408.325	-200.000	-0.002	0.270
-407.311	467.460	-0.005	0.012
-406.296	-27.897	0.152	-0.087
-405.282	176.612	0.131	0.188
-404.267	96.448	-0.117	-0.132
-403.252	640.400	0.070	-0.175
-402.238	800.000	-0.100	-0.286
-401.223	549.635	0.118	0.279
-400.209	397.716	-0.170	0.350
-399.194	200.578	0.199	-0.301
-398.179	123.702	-0.096	0.119
-397.165	125.904	-0.166	-0.207
-396.150	135.048	-0.106	-0.136
-395.136	-13.366	-0.153	0.098
-394.121	-200.000	0.086	-0.429
-393.106	-13.640	0.158	-0.101
-392.092	-123.340	0.456	-0.072
-391.077	-200.000	0.004	0.083
-390.063	-165.938	0.096	0.004
-389.048	-47.318	0.327	0.157
-388.033	33.715	-0.305	-0.261
-387.019	-97.808	-0.274	-0.070
-386.004	83.056	0.212	0.227
-384.990	-66.279	-0.323	-0.127
-383.975	67.285	0.146	-0.146
-382.960	33.190	0.134	0.114
-381.946	-149.633	-0.128	-0.010
-380.931	11.912	0.171	0.129
-379.917	-110.944	-0.286	0.058
-378.902	75.825	-0.245	0.255
-377.888	-200.000	-0.021	-0.119
-376.873	228.032	-0.042	0.068
-375.858	92.999	-0.277	0.308
-374.844	-200.000	-0.017	-0.373
-373.829	169.077	-0.127	0.178
-372.815	-40.078	0.327	0.168
-371.800	88.303	0.103	0.113
-370.785	-84.223	-0.125	-0.039
-369.771	-200.000	0.003	-0.228
-368.756	-41.214	-0.244	0.124
-367.742	-56.650	-0.155	0.068
-366.727	-174.234	0.181	0.005
-365.712	-30.615	0.351	0.196
-364.698	800.000	0.062	0.177
-363.683	24.567	0.202	0.164
-362.669	-200.000	-0.031	-0.169
-361.654	-9.737	0.154	-0.101
-360.639	-200.000	-0.014	0.072
-359.625	594.538	0.077	-0.187
-358.610	284.166	0.194	-0.343
-357.596	191.070	0.158	-0.234
-356.581	671.571	-0.037	0.094
-355.566	-47.286	0.120	-0.057
-354.552	-200.000	0.006	-0.046
-353.537	-60.534	-0.214	-0.089
-352.523	-200.000	0.041	-0.303
-351.508	-200.000	-0.006	-0.275
-350.493	800.000	0.030	0.119
-349.479	-200.000	-0.040	0.233
-348.464	-50.089	-0.079	0.037
-347.450	2.554	-0.237	0.169
-346.435	376.483	0.092	0.185
-345.420	-102.715	0.282	0.066
-344.406	33.578	-0.300	-0.256
-343.391	-16.775	-0.181	-0.113
-342.377	64.269	0.114	0.113
-341.362	-65.962	0.146	-0.058
-340.348	-75.025	0.210	-0.074
-339.333	461.673	-0.042	-0.092
-338.318	-200.000	-0.004	-0.099
-337.304	-2.365	0.147	0.101
-336.289	-61.138	0.085	-0.035
-335.275	211.186	0.159	-0.246
-334.260	-156.187	-0.256	0.016
-333.245	-15.532	-0.105	0.066
-332.231	-150.000	0.176	0.013
-331.216	166.272	-0.177	-0.246
-330.202	-200.000	0.030	0.132
-329.187	-9.469	-0.014	-0.009
-328.172	-129.150	-0.140	0.019
-327.158	538.760	-0.034	-0.080
-326.143	-76.806	-0.249	-0.086
-325.129	-36.775	-0.139	-0.073
-324.114	85.424	0.030	0.032
-323.099	-11.920	-0.060	0.039
-322.085	-200.000	0.023	0.168
-321.070	-79.933	0.251	-0.083
-320.056	258.197	0.116	-0.197
-319.041	800.000	0.081	-0.282
-318.026	25.100	-0.206	-0.168
-317.012	192.841	0.070	0.104
-315.997	-125.931	0.296	0.044
-314.983	513.826	0.133	-0.304
-313.968	-51.554	-0.308	-0.141
-312.953	31.502	-0.264	-0.223
-311.939	-33.233	0.246	0.134
-310.924	800.000	-0.007	0.027
-309.910	-49.020	0.126	0.059
-308.895	46.007	0.102	-0.093
-307.880	-200.000	-0.359	-0.001
-306.866	-21.360	-0.111	-0.066
-305.851	152.472	-0.154	-0.206
-304.837	-200.000	0.011	-0.147
-303.822	-51.767	0.230	0.105
-302.807	-171.323	-0.220	-0.007
-301.793	22.518	0.017	-0.014
-300.778	608.073	0.073	-0.179
-299.764	578.167	0.132	-0.317
-298.749	-20.042	0.077	-0.047
-297.735	-200.000	-0.043	0.239
-296.720	-200.000	-0.041	-0.248
-295.705	-67.505	-0.181	0.070
-294.691	270.149	0.165	-0.285
-293.676	-82.127	-0.294	-0.094
-292.662	-60.783	0.197	0.082
-291.647	-70.139	-0.236	-0.088
-290.632	-9.492	0.166	-0.109
-289.618	-66.896	-0.275	-0.107
-288.603	800.000	-0.058	0.246
-287.589	-200.000	-0.018	-0.110
-286.574	101.518	-0.111	0.127
-285.559	35.589	0.198	-0.171
-284.545	-200.000	-0.041	-0.246
-283.530	-200.000	0.092	-0.431
-282.516	-45.199	-0.051	0.025
-281.501	-200.000	-0.006	0.473
-280.486	-200.000	-0.026	0.151
-279.472	800.000	-0.077	-0.285
-278.457	-127.325	-0.282	-0.040
-277.443	800.000	-0.089	0.275
-276.428	-200.000	0.034	0.180
-275.413	71.354	0.175	-0.178
-274.399	38.140	0.287	0.251
-273.384	-200.000	0.003	0.361
-272.370	800.000	0.053	0.199
-271.355	79.702	0.085	0.089
-270.340	-104.570	-0.365	0.083
-269.326	-42.313	0.147	0.074
-268.311	-200.000	0.067	0.425
-267.297	54.582	-0.276	-0.260
-266.282	-200.000	0.023	0.176
-265.267	-160.227	0.064	0.003
-264.253	183.185	-0.101	0.147
-263.238	-142.301	-0.198	-0.019
-262.224	193.031	-0.208	-0.308
-261.209	800.000	0.055	-0.220
-260.195	162.239	-0.107	-0.147
-259.180	-72.231	0.089	-0.032
-258.165	-94.638	-0.249	-0.066
-257.151	-189.526	-0.284	0.003
-256.136	-0.157	-0.068	-0.048
-255.122	-200.000	0.046	-0.267
-254.107	-200.000	-0.037	-0.338
-253.092	162.377	-0.072	-0.099
-252.078	-45.617	0.084	0.041
-251.063	-115.238	0.167	0.031
-250.049	800.000	-0.064	0.180
-249.034	-151.490	-0.280	-0.020
-248.019	-98.097	0.303	-0.076
-247.005	440.599	-0.079	0.168
-245.990	-200.000	0.023	-0.116
-244.976	-200.000	-0.007	-0.178
-243.961	234.057	0.082	-0.132
-242.946	25.303	0.303	0.246
-241.932	-95.543	-0.300	0.079
-240.917	-154.239	0.079	-0.005
-239.903	800.000	0.077	0.276
-238.888	311.714	-0.037	-0.068
-237.873	10.872	0.145	-0.108
-236.859	121.899	0.078	-0.095
-235.844	-200.000	-0.038	-0.183
-234.830	-199.248	-0.434	-0.002
-233.815	175.070	0.163	0.231
-232.800	-200.000	-0.034	-0.269
-231.786	-125.535	0.119	0.018
-230.771	20.980	-0.174	-0.138
-229.757	-126.564	-0.101	0.015
-228.742	-31.019	-0.216	0.119
-227.727	-200.000	0.041	-0.269
-226.713	-137.778	-0.258	-0.028
-225.698	371.922	0.089	0.178
-224.684	-200.000	-0.019	0.205
-223.669	800.000	-0.043	-0.149
-222.655	218.634	-0.036	-0.056
-221.640	-7.980	0.190	0.125
-220.625	572.482	-0.136	0.324
-219.611	-76.554	0.230	0.079
-218.596	-55.808	-0.111	-0.049
-217.582	-200.000	-0.009	-0.283
-216.567	-154.099	-0.059	-0.004
-215.552	522.468	0.134	0.307
-214.538	-75.200	0.193	0.067
-213.523	216.366	-0.094	0.147
-212.509	-158.425	-0.125	0.007
-211.494	40.716	-0.200	0.177
-210.479	16.963	0.208	-0.161
-209.465	-21.103	-0.159	-0.095
-208.450	-200.000	-0.001	-0.133
-207.436	-114.415	0.484	0.091
-206.421	800.000	0.221	0.711
-205.406	800.000	-0.093	0.332
-204.392	30.639	-0.072	-0.061
-203.377	246.815	0.060	0.099
-202.363	5.711	0.170	-0.123
-201.348	71.018	0.070	-0.071
-200.333	172.050	-0.254	-0.357
-199.319	-200.000	-0.040	-0.322
-198.304	52.811	0.072	0.068
-197.290	351.076	-0.202	0.391
-196.275	-121.469	0.107	0.017
-195.260	-200.000	-0.008	-0.075
-194.246	304.660	0.207	0.376
-193.231	361.502	-0.192	0.376
-192.217	-74.994	-0.073	-0.026
-191.202	-97.665	0.293	-0.074
-190.187	-200.000	0.005	0.404
-189.173	27.246	-0.215	-0.177
-188.158	418.579	-0.065	-0.136
-187.144	43.637	-0.393	0.351
-186.129	320.626	-0.101	0.188
-185.114	-11.262	0.207	-0.133
-184.100	172.056	0.103	0.145
-183.085	-200.000	-0.015	0.182
-182.071	-200.000	-0.005	0.029
-181.056	-200.000	-0.002	0.222
-180.042	354.922	-0.125	-0.243
-179.027	-104.034	-0.328	-0.075
-178.012	-89.195	-0.243	-0.070
-176.998	-200.000	0.066	-0.347
-175.983	36.930	0.120	-0.104
-174.969	-200.000	-0.039	0.412
-173.954	53.817	0.091	0.085
-172.939	-200.000	-0.020	0.649
-171.925	-134.068	0.216	-0.026
-170.910	-200.000	0.026	-0.184
-169.896	-200.000	-0.034	0.262
-168.881	39.127	0.224	0.195
-167.866	-191.285	0.182	-0.002
-166.852	292.849	-0.050	-0.090
-165.837	22.930	-0.162	0.130
-164.823	213.045	-0.027	-0.041
-163.808	-111.045	0.111	0.022
-162.793	351.375	-0.117	-0.226
-161.779	581.838	-0.197	0.472
-160.764	0.480	-0.291	0.203
-159.750	-94.520	0.191	0.051
-158.735	-122.975	0.375	0.059
-157.720	800.000	0.051	-0.178
-156.706	-200.000	-0.024	-0.178
-155.691	-200.000	-0.046	-0.201
-154.677	84.940	-0.132	-0.141
-153.662	-200.000	-0.054	-0.338
-152.647	386.447	-0.137	-0.275
-151.633	-49.540	-0.024	0.011
-150.618	-113.931	-0.196	-0.037
-149.604	-200.000	0.069	0.324
-148.589	-200.000	-0.010	-0.119
-147.574	112.591	-0.133	0.157
-146.560	-200.000	-0.006	-0.147
-145.545	-39.353	0.226	-0.116
-144.531	17.664	-0.093	-0.072
-143.516	201.955	-0.067	0.101
-142.502	800.000	0.068	0.268
-141.487	-13.377	0.141	-0.089
-140.472	-77.033	0.319	-0.108
-139.458	309.736	-0.105	0.192
-138.443	-55.660	-0.228	0.099
-137.429	-73.825	0.317	-0.112
-136.414	-179.606	0.323	0.007
-135.399	165.238	0.169	-0.233
-134.385	87.303	-0.088	-0.095
-133.370	-81.387	0.161	0.052
-132.356	-52.124	-0.166	-0.075
-131.341	650.387	-0.152	-0.379
-130.326	14.068	0.153	0.116
-129.312	-9.470	-0.042	0.027
-128.297	7.345	-0.344	-0.250
-127.283	-123.957	-0.043	-0.007
-126.268	-171.061	-0.127	0.004
-125.253	15.436	0.070	-0.053
-124.239	231.741	-0.155	0.248
-123.224	-200.000	0.032	0.402
-122.210	236.477	-0.091	0.146
