DTS Sentinel unit serial number:	SN413079Multiplexer serial number:	ORYXHardware model number:	OX4-SRSoftware version number:	ORYX F/W v4.00 Oryx Data Collector v3.7.2.0data status	okinstallation	princeton_trtdifferential loss correction	single-endedforward channel	channel 2reverse channel	N/Adate	2019/09/14time	21:23:35forward acquisition time	60.00reverse acquisition time	0.00gamma	496.2192k internal	0.2323k external	0.2323temperature offset calibration	1.0075default loss term (dB/km)	0.3790temperature slope calibration	1.0000multiplexer offset coefficient	1.0000multiplexer slope coefficient	1.0000fibre end	0.00T internal ref (°C)	32.94T ext. ref 1 (°C)	4.77T ext. ref 2 (°C)	27.73length (m)	temperature (°C)	Stokes	anti-Stokes-747.200	-127.864	-0.270	0.039
-746.185	-200.000	-0.018	0.097
-745.171	800.000	-0.026	-0.108
-744.156	274.300	-0.088	-0.157
-743.142	14.866	0.154	0.121
-742.127	82.233	0.173	0.190
-741.112	-40.075	0.211	0.111
-740.098	519.272	0.055	0.129
-739.083	-92.004	0.498	0.142
-738.069	800.000	-0.072	0.241
-737.054	128.857	-0.159	-0.205
-736.039	205.387	0.036	-0.057
-735.025	-94.730	0.167	0.046
-734.010	-158.367	-0.651	0.038
-732.996	-67.425	-0.161	-0.064
-731.981	-200.000	0.030	-0.195
-730.966	-129.506	-0.230	-0.032
-729.952	-45.814	-0.151	0.075
-728.937	800.000	-0.046	-0.195
-727.923	-91.017	-0.113	0.033
-726.908	19.227	0.220	0.178
-725.894	581.470	0.034	0.085
-724.879	23.806	-0.090	0.075
-723.864	90.018	-0.163	-0.184
-722.850	615.089	-0.097	-0.244
-721.835	-200.000	-0.004	0.112
-720.821	465.310	-0.074	-0.167
-719.806	295.276	-0.066	-0.121
-718.791	800.000	-0.057	0.168
-717.777	-99.582	-0.529	-0.134
-716.762	-200.000	0.003	-0.175
-715.748	-119.547	-0.065	-0.011
-714.733	81.090	-0.203	0.221
-713.718	140.958	-0.100	0.133
-712.704	-139.754	-0.108	-0.012
-711.689	-56.516	0.302	-0.135
-710.675	508.377	0.084	0.196
-709.660	3.241	-0.247	0.181
-708.645	-103.306	0.138	0.033
-707.631	-75.529	-0.121	-0.044
-706.616	80.213	-0.141	-0.153
-705.602	-144.417	-0.033	-0.003
-704.587	70.906	-0.149	-0.156
-703.572	336.651	-0.116	-0.227
-702.558	336.554	-0.203	-0.397
-701.543	800.000	0.081	0.236
-700.529	-200.000	0.007	-0.276
-699.514	-200.000	0.022	-0.276
-698.499	-6.167	0.322	-0.222
-697.485	-141.224	-0.064	-0.007
-696.470	-200.000	-0.054	-0.307
-695.456	-1.974	-0.235	-0.166
-694.441	-137.633	-0.218	-0.025
-693.426	57.153	0.227	0.223
-692.412	115.879	0.205	0.253
-691.397	619.421	-0.104	0.262
-690.383	-200.000	-0.053	0.262
-689.368	-84.648	0.156	0.050
-688.354	-200.000	-0.061	0.559
-687.339	58.503	0.212	0.210
-686.324	93.365	-0.189	0.216
-685.310	761.771	-0.123	0.337
-684.295	593.981	0.091	-0.226
-683.281	408.903	-0.065	-0.139
-682.266	40.867	-0.118	-0.107
-681.251	-83.145	-0.102	0.033
-680.237	-161.793	-0.467	-0.024
-679.222	-200.000	0.007	-0.052
-678.208	-77.429	-0.115	0.040
-677.193	86.499	-0.085	-0.094
-676.178	116.766	-0.054	-0.067
-675.164	-1.410	-0.084	-0.059
-674.149	81.834	0.119	0.130
-673.135	-63.237	-0.326	-0.135
-672.120	-10.551	-0.096	-0.064
-671.105	-200.000	-0.018	-0.116
-670.091	-200.000	-0.015	-0.141
-669.076	315.060	0.083	-0.157
-668.062	-111.574	-0.024	0.005
-667.047	-11.589	0.205	-0.136
-666.032	466.348	-0.123	0.277
-665.018	78.398	0.245	-0.263
-664.003	-110.070	0.204	-0.043
-662.989	-10.898	0.294	-0.196
-661.974	-200.000	-0.014	-0.169
-660.959	-2.269	0.121	-0.085
-659.945	-200.000	-0.008	0.056
-658.930	-32.928	-0.244	-0.136
-657.916	-200.000	-0.084	-0.448
-656.901	-200.000	0.005	-0.203
-655.886	550.379	0.048	0.116
-654.872	-8.976	-0.137	0.092
-653.857	128.101	-0.115	0.147
-652.843	800.000	0.155	0.434
-651.828	-200.000	0.033	-0.425
-650.814	-82.738	0.294	-0.096
-649.799	-81.255	0.339	0.112
-648.784	-87.125	0.107	0.033
-647.770	-107.784	-0.393	-0.086
-646.755	-200.000	0.039	0.174
-645.741	236.877	-0.098	0.164
-644.726	295.456	-0.141	0.259
-643.711	-86.385	-0.351	0.109
-642.697	-200.000	-0.017	-0.205
-641.682	-200.000	0.026	0.533
-640.668	-200.000	0.000	-0.040
-639.653	-52.081	-0.066	-0.031
-638.638	-81.401	-0.194	0.064
-637.624	37.439	-0.216	0.193
-636.609	169.370	-0.129	-0.185
-635.595	-19.721	-0.232	-0.144
-634.580	36.054	0.135	0.119
-633.565	800.000	-0.067	0.245
-632.551	-12.861	0.112	0.073
-631.536	43.563	-0.162	0.149
-630.522	166.790	-0.058	-0.083
-629.507	800.000	0.083	0.261
-628.492	233.705	0.091	0.151
-627.478	-200.000	-0.005	-0.075
-626.463	800.000	0.029	0.112
-625.449	228.567	-0.173	0.284
-624.434	-81.459	0.154	-0.051
-623.419	105.592	-0.089	-0.106
-622.405	58.801	-0.120	0.119
-621.390	-170.533	0.322	0.011
-620.376	-164.596	-0.427	-0.019
-619.361	-69.332	-0.301	-0.116
-618.346	235.084	0.089	-0.147
-617.332	208.254	-0.266	-0.418
-616.317	-0.785	0.192	0.137
-615.303	-63.628	-0.146	0.060
-614.288	157.759	0.166	-0.231
-613.273	175.919	0.072	-0.105
-612.259	143.953	0.128	0.171
-611.244	-5.915	0.115	0.079
-610.230	162.796	-0.125	-0.177
-609.215	22.479	-0.065	-0.054
-608.201	661.408	-0.126	-0.326
-607.186	-18.685	0.163	-0.102
-606.171	-65.534	0.264	-0.106
-605.157	-11.830	0.134	0.089
-604.142	-200.000	0.020	-0.261
-603.128	-64.462	-0.172	0.070
-602.113	-197.694	-0.386	0.002
-601.098	45.318	0.089	-0.082
-600.084	-200.000	-0.014	0.265
-599.069	-26.754	-0.136	0.080
-598.055	-200.000	0.011	0.192
-597.040	-34.445	-0.246	0.135
-596.025	8.252	-0.042	0.032
-595.011	209.622	0.057	0.090
-593.996	58.652	0.179	0.176
-592.982	800.000	-0.018	0.078
-591.967	249.329	-0.051	0.087
-590.952	-131.958	-0.301	-0.039
-589.938	573.910	-0.185	-0.454
-588.923	-37.250	0.169	0.091
-587.909	-200.000	0.014	-0.196
-586.894	239.375	-0.034	-0.056
-585.879	-200.000	0.021	0.092
-584.865	98.225	-0.112	-0.130
-583.850	-49.212	0.120	0.057
-582.836	117.569	0.119	0.147
-581.821	-0.514	0.171	0.122
-580.806	-127.332	-0.108	-0.016
-579.792	90.998	0.119	0.133
-578.777	-74.728	-0.053	0.019
-577.763	-87.470	-0.452	0.137
-576.748	800.000	-0.061	-0.183
-575.733	-107.251	-0.086	-0.019
-574.719	-148.431	-0.139	0.011
-573.704	-109.534	-0.251	-0.053
-572.690	135.138	0.030	0.039
-571.675	800.000	-0.017	-0.058
-570.661	-130.615	0.283	0.038
-569.646	90.875	-0.115	-0.129
-568.631	6.324	0.102	0.076
-567.617	-200.000	0.032	0.162
-566.602	-40.278	0.106	-0.055
-565.588	-68.355	-0.337	0.131
-564.573	539.556	0.042	0.099
-563.558	53.192	0.049	0.047
-562.544	-36.324	-0.224	0.121
-561.529	800.000	0.073	-0.274
-560.515	-29.582	0.076	-0.043
-559.500	121.488	-0.123	-0.153
-558.485	-36.841	0.143	-0.077
-557.471	-66.861	0.269	-0.107
-556.456	-99.446	0.285	0.072
-555.442	-132.994	0.121	-0.015
-554.427	-49.810	-0.109	0.052
-553.412	-200.000	0.030	0.193
-552.398	-175.282	-0.306	0.008
-551.383	124.745	0.028	0.035
-550.369	-175.686	0.109	0.003
-549.354	-166.784	-0.122	0.005
-548.339	23.759	-0.340	-0.281
-547.325	106.669	0.169	-0.201
-546.310	-200.000	0.020	-0.143
-545.296	41.901	0.202	-0.183
-544.281	-113.112	-0.513	-0.101
-543.266	-200.000	0.027	0.122
-542.252	-200.000	0.020	-0.187
-541.237	-45.192	0.037	0.018
-540.223	800.000	0.033	-0.124
-539.208	-115.104	0.246	-0.047
-538.193	-200.000	-0.008	-0.152
-537.179	-200.000	0.018	0.204
-536.164	-111.182	0.198	-0.041
-535.150	800.000	-0.058	-0.242
-534.135	800.000	0.093	-0.321
-533.121	-74.162	0.098	0.036
-532.106	-95.432	0.250	-0.067
-531.091	-113.861	0.088	-0.017
-530.077	-200.000	-0.025	-0.517
-529.062	-108.832	-0.083	-0.018
-528.048	267.234	-0.081	0.143
-527.033	-119.893	0.254	0.044
-526.018	391.904	0.160	-0.333
-525.004	-200.000	0.049	0.224
-523.989	-156.275	0.468	-0.029
-522.975	-200.000	-0.298	0.001
-521.960	327.013	0.136	-0.261
-520.945	-200.000	0.045	0.260
-519.931	-18.689	-0.087	-0.054
-518.916	54.242	-0.219	0.211
-517.902	180.828	0.110	0.161
-516.887	25.429	-0.227	-0.188
-515.872	-153.510	0.384	-0.027
-514.858	-66.321	0.255	0.102
-513.843	338.498	-0.023	-0.045
-512.829	45.609	0.128	0.118
-511.814	800.000	0.056	-0.206
-510.799	-161.286	-0.255	-0.013
-509.785	-200.000	0.031	-0.140
-508.770	-200.000	0.048	-0.332
-507.756	-200.000	0.024	0.411
-506.741	20.852	0.151	0.122
-505.726	21.440	-0.145	0.118
-504.712	27.974	0.196	0.165
-503.697	800.000	0.120	-0.381
-502.683	276.117	0.087	0.155
-501.668	800.000	0.020	0.084
-500.653	196.254	0.190	-0.290
-499.639	-200.000	0.014	0.094
-498.624	10.994	-0.152	-0.116
-497.610	-101.186	-0.118	0.029
-496.595	800.000	-0.057	-0.214
-495.581	786.996	0.038	-0.103
-494.566	769.066	0.045	0.122
-493.551	800.000	0.043	0.152
-492.537	46.816	-0.107	-0.099
-491.522	800.000	0.063	-0.180
-490.508	-132.500	-0.054	0.007
-489.493	-44.879	0.280	0.140
-488.478	-36.428	0.114	-0.061
-487.464	25.105	0.155	0.128
-486.449	-69.183	0.269	0.103
-485.435	-50.236	0.227	-0.107
-484.420	-145.006	-0.145	0.013
-483.405	-200.000	0.004	0.031
-482.391	-200.000	-0.005	-0.109
-481.376	-34.529	-0.206	0.113
-480.362	-190.015	-0.186	-0.002
-479.347	-115.592	-0.146	0.027
-478.332	-10.395	-0.080	-0.053
-477.318	800.000	0.067	-0.231
-476.303	177.670	-0.156	-0.228
-475.289	647.543	-0.081	0.206
-474.274	-16.042	0.197	0.125
-473.259	-200.000	0.018	-0.090
-472.245	-19.435	-0.199	0.123
-471.230	50.871	0.062	0.059
-470.216	606.169	0.050	0.125
-469.201	208.049	0.115	0.179
-468.186	-94.947	0.203	0.055
-467.172	-111.459	0.284	-0.058
-466.157	800.000	-0.077	0.296
-465.143	164.429	-0.107	0.150
-464.128	6.379	0.065	-0.048
-463.113	0.920	0.106	0.076
-462.099	-200.000	0.026	-0.233
-461.084	121.410	0.140	0.174
-460.070	443.123	0.055	0.121
-459.055	90.709	0.192	-0.215
-458.040	-61.806	-0.220	-0.092
-457.026	36.759	-0.156	-0.137
-456.011	-43.810	0.339	-0.170
-454.997	-200.000	0.022	-0.103
-453.982	800.000	-0.045	0.135
-452.968	91.337	-0.085	0.095
-451.953	37.536	-0.348	-0.308
-450.938	25.701	-0.085	0.071
-449.924	-35.395	0.262	0.142
-448.909	191.815	0.090	-0.135
-447.895	-117.930	0.052	0.009
-446.880	591.216	0.121	0.297
-445.865	-200.000	0.011	0.253
-444.851	-158.567	0.142	0.008
-443.836	-47.120	0.247	0.120
-442.822	259.315	-0.178	0.307
-441.807	-65.386	-0.146	-0.059
-440.792	-200.000	-0.014	0.193
-439.778	284.245	0.063	-0.113
-438.763	-48.897	0.207	0.099
-437.749	-200.000	0.015	-0.098
-436.734	-68.240	0.213	0.083
-435.719	99.373	-0.222	0.256
-434.705	535.972	0.061	-0.145
-433.690	-127.171	-0.247	-0.036
-432.676	-12.079	0.288	0.188
-431.661	-82.299	0.330	0.107
-430.646	29.469	-0.125	-0.106
-429.632	-69.540	-0.308	-0.118
-428.617	23.381	-0.152	0.125
-427.603	169.376	-0.142	0.202
-426.588	-92.356	-0.071	0.020
-425.573	389.719	0.067	-0.138
-424.559	-182.224	0.190	0.004
-423.544	126.726	-0.095	0.120
-422.530	-127.656	-0.020	0.003
-421.515	-200.000	0.003	-0.157
-420.500	-200.000	0.036	0.273
-419.486	-6.078	-0.181	0.123
-418.471	26.547	-0.061	0.051
-417.457	-200.000	-0.036	-0.197
-416.442	2.386	-0.102	-0.073
-415.428	-119.056	-0.113	0.020
-414.413	-140.072	-0.443	-0.047
-413.398	-79.248	0.045	-0.015
-412.384	-74.517	-0.036	-0.013
-411.369	371.281	0.162	-0.329
-410.355	484.559	0.076	0.173
-409.340	133.699	-0.182	-0.235
-408.325	87.798	0.286	-0.316
-407.311	-16.212	-0.216	0.137
-406.296	800.000	-0.025	0.081
-405.282	-118.793	-0.267	0.047
-404.267	116.444	0.066	-0.080
-403.252	39.501	-0.204	-0.182
-402.238	25.648	0.210	-0.174
-401.223	-200.000	-0.056	0.256
-400.209	439.096	0.062	0.135
-399.194	-86.640	0.186	-0.057
-398.179	-200.000	0.009	-0.058
-397.165	-17.370	0.248	-0.156
-396.150	800.000	0.042	0.135
-395.136	-200.000	0.014	-0.176
-394.121	-200.000	-0.017	0.154
-393.106	-200.000	-0.040	-0.249
-392.092	-113.697	-0.324	-0.063
-391.077	-67.499	0.149	0.058
-390.063	800.000	-0.043	0.166
-389.048	-57.664	0.353	-0.154
-388.033	800.000	0.028	-0.113
-387.019	-99.648	0.055	0.014
-386.004	-110.344	-0.253	-0.052
-384.990	-82.007	-0.449	-0.146
-383.975	792.501	-0.053	-0.144
-382.960	-24.751	-0.035	-0.021
-381.946	-85.047	-0.192	0.060
-380.931	-120.685	0.305	0.051
-379.917	-92.701	0.135	0.038
-378.902	-200.000	0.059	0.322
-377.888	800.000	0.054	0.173
-376.873	-32.813	0.125	0.069
-375.858	-19.498	-0.214	0.132
-374.844	-146.415	0.043	0.004
-373.829	-65.112	0.242	-0.097
-372.815	-58.092	-0.100	-0.043
-371.800	-9.769	-0.243	0.161
-370.785	-200.000	-0.042	0.247
-369.771	-82.242	0.048	-0.015
-368.756	-110.643	-0.314	0.065
-367.742	201.091	0.115	-0.176
-366.727	-200.000	0.002	-0.268
-365.712	283.848	-0.096	-0.172
-364.698	-200.000	0.005	0.097
-363.683	-200.000	-0.008	0.169
-362.669	-200.000	-0.001	-0.062
-361.654	191.162	-0.258	-0.386
-360.639	800.000	0.082	-0.244
-359.625	-132.200	0.182	0.023
-358.610	-150.679	-0.270	0.020
-357.596	-200.000	-0.002	0.148
-356.581	-55.677	0.414	0.184
-355.566	-34.362	-0.186	-0.101
-354.552	-200.000	-0.009	-0.498
-353.537	-82.617	0.298	-0.096
-352.523	-183.826	0.097	-0.002
-351.508	-73.633	-0.169	0.061
-350.493	41.270	-0.093	-0.083
-349.479	333.867	-0.205	0.394
-348.464	282.755	0.075	-0.134
-347.450	-57.382	0.115	-0.050
-346.435	167.542	-0.223	0.315
-345.420	75.991	0.304	0.320
-344.406	46.015	0.071	-0.065
-343.391	308.133	-0.075	-0.139
-342.377	-200.000	-0.003	-0.019
-341.362	-0.608	-0.156	-0.110
-340.348	489.348	-0.070	0.159
-339.333	344.881	0.188	0.366
-338.318	354.153	0.237	0.468
-337.304	-70.471	0.293	-0.110
-336.289	112.910	-0.112	0.135
-335.275	-8.543	0.276	-0.184
-334.260	314.609	-0.172	0.323
-333.245	-13.424	-0.073	-0.047
-332.231	800.000	0.029	-0.092
-331.216	-82.598	0.126	0.041
-330.202	-200.000	0.010	0.239
-329.187	120.225	0.267	0.329
-328.172	-200.000	0.067	-0.359
-327.158	579.679	-0.016	-0.040
-326.143	-17.113	-0.083	-0.052
-325.129	-12.391	0.158	0.102
-324.114	66.666	0.198	0.200
-323.099	-21.972	0.047	-0.029
-322.085	142.488	-0.336	-0.444
-321.070	557.173	-0.166	-0.397
-320.056	186.016	-0.195	0.288
-319.041	451.932	-0.025	-0.055
-318.026	-100.689	0.425	0.104
-317.012	-87.521	0.145	0.044
-315.997	-200.000	-0.051	0.223
-314.983	-200.000	-0.018	0.258
-313.968	28.619	0.087	-0.073
-312.953	-159.424	0.209	-0.012
-311.939	-25.585	-0.299	-0.175
-310.924	-85.468	-0.154	-0.048
-309.910	32.050	0.026	-0.022
-308.895	-124.669	-0.099	0.015
-307.880	-66.639	0.114	0.045
-306.866	-145.171	0.312	-0.028
-305.851	800.000	-0.192	-0.548
-304.837	190.845	-0.091	0.136
-303.822	-29.141	0.132	-0.075
-302.807	800.000	-0.064	0.251
-301.793	-141.174	0.291	-0.029
-300.778	-139.864	-0.216	-0.023
-299.764	-135.903	-0.193	0.023
-298.749	-200.000	-0.266	-0.001
-297.735	-107.408	-0.198	0.043
-296.720	-94.478	0.467	0.126
-295.705	800.000	0.041	0.138
-294.691	-200.000	0.023	-0.207
-293.676	14.880	0.048	0.037
-292.662	-15.747	0.084	0.053
-291.647	444.846	-0.120	-0.260
-290.632	43.527	-0.169	0.153
-289.618	-52.890	0.093	0.042
-288.603	192.516	0.104	-0.156
-287.589	25.516	-0.088	0.073
-286.574	-23.047	0.207	0.123
-285.559	-84.455	-0.056	-0.018
-284.545	19.814	-0.435	-0.348
-283.530	-91.439	-0.288	-0.082
-282.516	-200.000	0.023	0.179
-281.501	-108.961	-0.235	-0.050
-280.486	-140.621	-0.053	0.005
-279.472	481.713	-0.034	-0.076
-278.457	-200.000	0.026	-0.143
-277.443	-106.768	-0.082	0.018
-276.428	263.220	0.052	-0.090
-275.413	179.943	0.190	0.275
-274.399	-17.070	0.124	0.078
-273.384	-31.183	-0.143	-0.080
-272.370	-47.403	-0.093	-0.045
-271.355	-10.647	0.093	0.061
-270.340	800.000	-0.054	-0.222
-269.326	-134.709	0.118	0.014
-268.311	168.377	-0.132	0.186
-267.297	138.984	0.052	0.068
-266.282	-75.879	0.208	0.073
-265.267	-158.212	0.056	0.003
-264.253	131.003	-0.126	0.160
-263.238	800.000	0.023	0.096
-262.224	12.720	0.281	0.215
-261.209	-92.145	-0.185	-0.052
-260.195	800.000	0.082	0.229
-259.180	800.000	-0.046	0.160
-258.165	-7.691	-0.075	0.050
-257.151	204.852	-0.124	-0.191
-256.136	800.000	-0.070	-0.202
-255.122	-200.000	0.023	0.321
-254.107	-24.603	-0.137	0.081
-253.092	323.197	0.206	-0.390
-252.078	-152.341	-0.170	0.012
-251.063	-200.000	0.010	0.093
-250.049	-200.000	0.032	-0.210
-249.034	800.000	0.113	-0.451
-248.019	7.057	0.163	0.120
-247.005	9.243	-0.405	0.303
-245.990	-65.366	-0.325	-0.130
-244.976	-200.000	-0.016	-0.271
-243.961	-151.100	-0.272	-0.020
-242.946	47.662	-0.300	-0.277
-241.932	-72.531	-0.203	0.074
-240.917	-137.490	-0.098	0.011
-239.903	-179.417	-0.137	-0.003
-238.888	166.998	0.077	0.109
-237.873	77.272	0.180	-0.190
-236.859	78.911	0.105	0.111
-235.844	-71.937	0.064	0.024
-234.830	-195.631	0.267	0.002
-233.815	-175.364	-0.154	-0.004
-232.800	-98.772	-0.233	-0.059
-231.786	343.095	-0.088	0.170
-230.771	-174.112	-0.319	-0.009
-229.757	-200.000	-0.043	-0.269
-228.742	-200.000	0.013	0.321
-227.727	8.244	0.093	0.069
-226.713	632.437	0.103	-0.258
-225.698	-200.000	0.002	0.167
-224.684	266.573	-0.089	0.154
-223.669	-23.084	0.076	-0.045
-222.655	-122.343	0.494	-0.080
-221.640	367.565	-0.165	-0.329
-220.625	-200.000	0.001	0.233
-219.611	-38.502	0.193	-0.101
-218.596	-16.636	-0.210	0.131
-217.582	78.137	-0.197	-0.208
-216.567	-200.000	-0.004	0.024
-215.552	535.054	-0.021	0.049
-214.538	-200.000	0.014	-0.082
-213.523	150.777	-0.099	-0.134
-212.509	363.959	0.092	0.183
-211.494	7.174	0.088	0.065
-210.479	559.608	-0.084	-0.200
-209.465	-200.000	0.017	-0.121
-208.450	20.734	0.218	0.175
-207.436	-200.000	-0.021	0.322
-206.421	32.078	0.165	-0.141
-205.406	-105.121	-0.135	-0.030
-204.392	-200.000	0.003	0.014
-203.377	-200.000	-0.022	0.170
-202.363	4.770	0.210	0.153
-201.348	-158.765	-0.365	0.021
-200.333	-45.666	-0.160	-0.078
-199.319	-150.533	0.181	-0.014
-198.304	-174.302	0.156	0.004
-197.290	145.927	-0.055	0.073
-196.275	246.969	-0.083	-0.138
-195.260	324.376	0.019	-0.036
-194.246	211.378	0.074	-0.116
-193.231	-30.432	-0.061	0.034
-192.217	-55.000	-0.137	-0.061
-191.202	-56.368	-0.171	0.075
-190.187	-141.592	0.443	-0.044
-189.173	-132.244	0.087	-0.011
-188.158	-28.338	0.088	-0.050
-187.144	-200.000	-0.126	-0.674
-186.129	-37.330	0.246	-0.130
-185.114	-200.000	0.033	0.281
-184.100	450.272	0.108	0.236
-183.085	-200.000	-0.006	-0.132
-182.071	-83.699	0.390	-0.123
-181.056	303.087	0.042	0.076
-180.042	490.548	-0.094	0.213
-179.027	26.051	-0.215	-0.177
-178.012	-155.820	-0.146	0.009
-176.998	120.930	-0.264	-0.325
-175.983	683.159	-0.129	0.332
-174.969	800.000	-0.055	0.233
-173.954	-114.317	0.258	-0.049
-172.939	-200.000	-0.027	-0.250
-171.925	-143.495	-0.200	-0.019
-170.910	-152.947	0.218	-0.015
-169.896	800.000	0.064	0.237
-168.881	-19.012	0.058	0.036
-167.866	-78.431	-0.168	0.057
-166.852	-138.969	0.175	-0.019
-165.837	800.000	0.014	-0.039
-164.823	300.523	-0.114	-0.207
-163.808	-61.421	0.231	-0.096
-162.793	-88.996	0.245	0.072
-161.779	800.000	-0.037	-0.115
-160.764	338.977	0.155	0.298
-159.750	143.781	0.115	-0.151
-158.735	368.190	0.127	-0.254
-157.720	-200.000	0.010	0.183
-156.706	31.381	0.227	-0.193
-155.691	168.036	-0.132	0.185
-154.677	217.628	-0.139	-0.218
-153.662	-3.891	0.115	0.079
-152.647	-17.502	0.147	0.091
-151.633	-15.680	0.123	0.077
-150.618	-200.000	-0.007	0.058
-149.604	-13.833	-0.278	-0.177
-148.589	760.657	-0.039	-0.105
-147.574	-200.000	0.090	-0.460
-146.560	-105.419	-0.106	0.024
-145.545	-34.458	0.037	-0.020
-144.531	273.406	0.071	-0.124
-143.516	315.593	0.062	-0.115
-142.502	104.754	-0.293	-0.341
-141.487	7.131	0.209	0.153
-140.472	-200.000	0.010	0.201
-139.458	380.108	0.041	0.083
-138.443	-200.000	-0.022	0.187
-137.429	-21.172	-0.235	-0.142
-136.414	46.673	0.208	0.191
-135.399	603.073	0.071	-0.175
-134.385	27.419	-0.118	-0.098
-133.370	181.231	0.142	-0.206
-132.356	2.150	-0.065	-0.047
-131.341	429.907	0.153	0.327
-130.326	786.348	-0.075	-0.202
-129.312	181.105	0.087	0.126
-128.297	159.285	-0.061	0.083
-127.283	-10.388	0.011	-0.007
-126.268	-19.082	0.343	-0.210
-125.253	485.285	-0.048	-0.108
-124.239	319.711	0.077	0.145
-123.224	-46.033	-0.229	-0.111
-122.210	146.659	0.231	-0.306
-121.195	800.000	0.020	-0.060
