DTS Sentinel unit serial number:	SN413079Multiplexer serial number:	ORYXHardware model number:	OX4-SRSoftware version number:	ORYX F/W v4.00 Oryx Data Collector v3.7.2.0data status	okinstallation	princeton_trtdifferential loss correction	single-endedforward channel	channel 2reverse channel	N/Adate	2019/09/12time	18:30:49forward acquisition time	15.00reverse acquisition time	0.00gamma	496.2192k internal	0.2324k external	0.2324temperature offset calibration	1.0129default loss term (dB/km)	0.3790temperature slope calibration	1.0000multiplexer offset coefficient	1.0000multiplexer slope coefficient	1.0000fibre end	0.00T internal ref (°C)	33.25T ext. ref 1 (°C)	2.96T ext. ref 2 (°C)	27.86length (m)	temperature (°C)	Stokes	anti-Stokes-747.200	-200.000	0.014	0.305
-746.185	94.995	-0.843	0.969
-745.171	-156.119	0.752	0.048
-744.156	-143.574	-0.421	0.040
-743.142	34.595	0.370	0.327
-742.127	23.089	0.372	0.308
-741.112	-200.000	0.032	0.188
-740.098	129.163	0.269	-0.346
-739.083	-56.115	0.540	-0.243
-738.069	-49.113	-0.602	0.291
-737.054	800.000	0.027	-0.113
-736.039	-70.901	0.611	-0.232
-735.025	-65.384	-0.334	-0.135
-734.010	800.000	-0.096	-0.392
-732.996	-190.697	-0.650	-0.007
-731.981	800.000	-0.139	0.415
-730.966	-200.000	0.127	0.811
-729.952	-81.740	-1.465	0.485
-728.937	724.542	0.098	0.263
-727.923	106.612	0.196	-0.234
-726.908	657.077	-0.456	1.181
-725.894	-181.406	0.879	-0.017
-724.879	15.727	-0.622	-0.494
-723.864	-200.000	0.003	0.175
-722.850	267.115	0.414	-0.731
-721.835	422.680	-0.313	-0.677
-720.821	-161.873	0.148	-0.008
-719.806	59.729	-0.416	-0.414
-718.791	600.835	-0.035	-0.088
-717.777	108.712	-0.409	-0.493
-716.762	-35.039	0.135	-0.074
-715.748	-69.592	-0.332	-0.128
-714.733	800.000	0.246	-0.880
-713.718	-200.000	0.055	-0.547
-712.704	-150.277	0.572	-0.045
-711.689	22.615	0.138	-0.114
-710.675	-117.067	-0.550	-0.101
-709.660	-72.858	0.633	0.235
-708.645	44.912	-1.035	0.961
-707.631	-28.217	-0.109	-0.063
-706.616	-200.000	-0.068	-0.327
-705.602	182.195	-0.258	-0.383
-704.587	-55.798	1.172	-0.528
-703.572	-15.649	-0.758	0.487
-702.558	-110.855	-0.567	-0.118
-701.543	800.000	-0.092	-0.359
-700.529	234.265	-0.321	-0.533
-699.514	629.670	0.128	-0.326
-698.499	154.951	0.590	-0.817
-697.485	107.653	-0.825	-0.990
-696.470	232.227	0.332	0.549
-695.456	2.077	0.620	-0.451
-694.441	-6.673	0.625	-0.428
-693.426	38.710	0.270	0.243
-692.412	-94.066	-0.465	-0.128
-691.397	28.102	0.155	0.132
-690.383	-154.059	0.394	-0.027
-689.368	-17.671	0.704	-0.446
-688.354	-200.000	-0.006	0.035
-687.339	188.450	-0.114	0.172
-686.324	-119.915	-0.694	-0.120
-685.310	183.894	-0.103	-0.153
-684.295	-200.000	0.251	-1.165
-683.281	-96.211	-1.060	0.283
-682.266	4.162	0.343	-0.253
-681.251	-200.000	0.002	-0.440
-680.237	-200.000	-0.001	-0.460
-679.222	62.473	-0.487	-0.490
-678.208	99.021	0.428	0.498
-677.193	-200.000	-0.004	-0.483
-676.178	12.901	-0.333	-0.259
-675.164	-81.426	-0.132	-0.044
-674.149	-11.372	-0.891	0.590
-673.135	-166.473	-0.248	-0.010
-672.120	-101.324	0.309	-0.076
-671.105	-62.844	0.556	-0.232
-670.091	25.465	-0.364	-0.304
-669.076	-97.847	-0.247	-0.064
-668.062	-48.536	0.286	-0.139
-667.047	-122.413	-0.060	-0.010
-666.032	-46.967	-0.878	-0.431
-665.018	403.997	0.126	-0.268
-664.003	7.732	-0.316	-0.238
-662.989	-31.766	-0.375	-0.212
-661.974	203.914	0.262	-0.408
-660.959	48.626	-0.436	0.411
-659.945	800.000	-0.102	-0.433
-658.930	465.431	-0.293	-0.659
-657.916	-23.627	0.127	0.077
-656.901	719.334	0.036	0.098
-655.886	-200.000	-0.073	0.561
-654.872	-88.163	-0.590	-0.178
-653.857	-51.558	0.393	0.184
-652.843	-72.741	0.175	-0.065
-651.828	87.826	-0.366	0.408
-650.814	-103.298	0.439	0.104
-649.799	-12.386	-0.665	-0.437
-648.784	-53.470	0.221	-0.102
-647.770	565.754	0.051	-0.125
-646.755	-123.311	0.393	0.063
-645.741	-56.232	-0.721	-0.323
-644.726	-36.386	0.264	-0.143
-643.711	270.529	-0.525	-0.928
-642.697	-38.405	-0.501	0.266
-641.682	276.151	-0.180	0.320
-640.668	-200.000	-0.013	0.740
-639.653	-189.088	-0.302	-0.004
-638.638	800.000	0.305	-0.852
-637.624	414.638	-0.167	0.357
-636.609	-80.214	-0.494	0.166
-635.595	800.000	-0.372	-1.053
-634.580	158.470	0.361	0.503
-633.565	-24.734	-0.099	0.059
-632.551	-200.000	0.015	-1.240
-631.536	2.562	0.430	-0.313
-630.522	-109.820	0.781	0.165
-629.507	424.979	-0.087	0.188
-628.492	94.899	-0.463	0.529
-627.478	72.510	0.215	-0.225
-626.463	-102.912	-0.638	-0.152
-625.449	-200.000	-0.016	0.103
-624.434	-162.495	0.707	-0.035
-623.419	133.396	-0.659	-0.856
-622.405	162.755	-0.230	0.325
-621.390	-81.978	0.768	-0.252
-620.376	-200.000	0.010	0.255
-619.361	-79.141	0.352	-0.120
-618.346	-22.406	-0.484	0.295
-617.332	20.851	0.503	-0.409
-616.317	302.796	-0.217	0.403
-615.303	-117.985	-0.625	0.112
-614.288	294.978	-0.211	0.387
-613.273	800.000	0.032	-0.112
-612.259	347.799	0.154	-0.304
-611.244	185.095	-0.460	0.685
-610.230	-200.000	0.068	-0.725
-609.215	-54.462	0.627	0.285
-608.201	296.109	0.173	0.319
-607.186	328.304	0.083	-0.160
-606.171	694.514	-0.074	-0.196
-605.157	130.873	-0.442	0.569
-604.142	133.233	0.350	0.454
-603.128	-0.224	0.474	0.339
-602.113	-36.720	-0.641	0.346
-601.098	-104.582	-0.637	-0.148
-600.084	-200.000	0.125	-0.837
-599.069	-200.000	0.028	-0.940
-598.055	800.000	0.146	0.432
-597.040	54.709	-0.367	-0.355
-596.025	4.336	-0.237	0.174
-595.011	226.441	-0.400	0.652
-593.996	115.241	0.238	-0.292
-592.982	-112.909	-1.083	-0.215
-591.967	-86.541	-0.451	0.139
-590.952	-102.882	-0.803	0.191
-589.938	591.157	0.270	0.668
-588.923	27.925	-0.599	0.507
-587.909	800.000	0.210	0.777
-586.894	800.000	-0.286	-1.132
-585.879	-200.000	-0.001	0.908
-584.865	-56.059	0.387	-0.173
-583.850	-118.469	-0.482	-0.086
-582.836	-50.330	0.368	0.175
-581.821	-200.000	0.041	-0.615
-580.806	-55.472	-0.080	-0.036
-579.792	94.768	0.502	-0.573
-578.777	158.517	0.191	0.266
-577.763	-58.836	-0.506	-0.220
-576.748	-66.425	-0.056	-0.022
-575.733	264.509	-0.490	0.856
-574.719	210.603	-0.071	0.112
-573.704	-67.011	0.677	-0.268
-572.690	-104.148	0.227	0.053
-571.675	-50.388	-0.144	0.068
-570.661	118.707	0.266	-0.329
-569.646	3.589	-0.247	0.180
-568.631	-65.757	-0.217	0.087
-567.617	-9.185	0.465	-0.312
-566.602	233.791	0.186	-0.308
-565.588	-27.933	-0.523	-0.304
-564.573	78.629	0.668	0.716
-563.558	132.807	0.421	0.544
-562.544	409.468	0.227	0.482
-561.529	-132.187	-0.052	0.007
-560.515	-200.000	0.046	-0.390
-559.500	-103.220	-1.275	-0.302
-558.485	191.666	-0.351	0.530
-557.471	800.000	0.144	0.562
-556.456	-115.641	0.614	0.115
-555.442	-65.220	-0.746	0.301
-554.427	-200.000	0.086	-0.448
-553.412	800.000	-0.290	-0.859
-552.398	-29.058	-0.430	-0.247
-551.383	57.245	-0.605	-0.592
-550.369	703.995	-0.340	-0.899
-549.354	41.946	-0.065	0.059
-548.339	-138.649	-1.362	0.149
-547.325	0.141	-0.438	0.313
-546.310	143.472	0.233	-0.310
-545.296	-200.000	0.059	-0.777
-544.281	78.460	0.297	-0.318
-543.266	698.747	0.197	-0.519
-542.252	66.682	0.247	0.252
-541.237	-12.593	-0.409	-0.267
-540.223	178.118	0.223	-0.326
-539.208	-164.180	0.909	0.042
-538.193	-200.000	-0.002	-0.629
-537.179	326.309	-0.548	-1.050
-536.164	226.642	0.412	0.669
-535.150	-200.000	0.037	-0.369
-534.135	98.904	0.749	0.866
-533.121	-200.000	-0.102	0.670
-532.106	119.993	0.135	-0.167
-531.091	800.000	-0.254	-0.870
-530.077	800.000	0.068	0.211
-529.062	-114.092	-0.348	0.067
-528.048	-200.000	0.022	0.466
-527.033	800.000	0.231	0.805
-526.018	163.576	-0.307	0.433
-525.004	153.419	-0.270	0.370
-523.989	35.469	-0.387	-0.339
-522.975	-57.031	-0.497	0.219
-521.960	176.249	-0.125	0.182
-520.945	344.985	0.287	0.563
-519.931	236.024	-0.155	-0.256
-518.916	4.732	-0.398	0.293
-517.902	-80.754	0.370	-0.123
-516.887	279.513	-0.392	0.701
-515.872	-200.000	-0.246	1.164
-514.858	-67.615	0.272	-0.107
-513.843	800.000	-0.263	1.051
-512.829	800.000	-0.282	1.112
-511.814	-161.456	0.475	0.024
-510.799	329.387	-0.078	-0.150
-509.785	-18.331	0.569	-0.355
-508.770	-3.429	-0.203	0.142
-507.756	7.622	0.353	-0.264
-506.741	-200.000	0.002	-0.462
-505.726	2.557	-0.244	0.177
-504.712	295.494	0.136	0.248
-503.697	-55.225	1.189	-0.534
-502.683	-200.000	-0.079	0.454
-501.668	195.134	0.372	-0.565
-500.653	-200.000	-0.134	-0.903
-499.639	153.888	-0.498	-0.683
-498.624	53.972	-0.253	-0.243
-497.610	-200.000	-0.072	-0.404
-496.595	-86.168	-0.344	-0.106
-495.581	16.631	-0.749	0.592
-494.566	-140.904	-0.802	-0.082
-493.551	588.352	0.090	-0.221
-492.537	87.803	0.748	0.828
-491.522	-78.163	0.747	-0.257
-490.508	-5.432	0.156	-0.107
-489.493	-88.919	0.473	-0.140
-488.478	58.447	-0.604	-0.592
-487.464	541.434	0.396	-0.944
-486.449	800.000	0.125	0.419
-485.435	-186.139	-0.457	0.007
-484.420	42.821	0.316	-0.287
-483.405	-107.064	0.586	0.129
-482.391	336.190	0.421	-0.816
-481.376	131.372	-0.226	0.290
-480.362	179.133	-0.359	0.525
-479.347	-84.171	0.582	0.185
-478.332	-200.000	-0.077	-0.454
-477.318	-9.575	-0.680	0.453
-476.303	319.515	0.312	0.592
-475.289	-74.202	-0.870	-0.315
-474.274	51.562	-0.064	-0.061
-473.259	281.200	0.325	-0.580
-472.245	407.705	0.080	-0.170
-471.230	-95.986	-0.677	0.180
-470.216	-200.000	0.031	-0.595
-469.201	-93.143	0.744	0.207
-468.186	116.546	-0.251	-0.307
-467.172	-84.216	-0.431	0.136
-466.157	-200.000	-0.038	-0.928
-465.143	-37.298	0.155	0.083
-464.128	15.794	0.469	0.368
-463.113	114.540	0.297	0.361
-462.099	-83.848	-0.751	-0.239
-461.084	800.000	-0.131	0.420
-460.070	-84.268	0.942	-0.298
-459.055	-200.000	0.090	-0.440
-458.040	-125.920	0.392	-0.059
-457.026	17.548	0.019	-0.015
-456.011	-69.329	-0.646	0.248
-454.997	-39.357	0.356	0.187
-453.982	-200.000	-0.020	1.028
-452.968	326.327	0.262	0.501
-451.953	-200.000	0.094	0.744
-450.938	645.531	0.179	-0.456
-449.924	66.635	-0.322	-0.326
-448.909	-71.090	0.710	-0.266
-447.895	-119.274	0.585	0.102
-446.880	60.537	-0.543	0.536
-445.865	-200.000	-0.010	0.053
-444.851	-94.720	0.239	0.065
-443.836	-87.337	0.379	0.115
-442.822	-141.521	0.270	0.027
-441.807	800.000	-0.132	0.416
-440.792	-200.000	0.090	1.096
-439.778	-117.813	0.605	-0.108
-438.763	251.954	-0.158	-0.268
-437.749	-154.558	-0.425	0.028
-436.734	-116.495	0.193	0.036
-435.719	-3.124	-0.433	0.301
-434.705	77.386	0.603	0.640
-433.690	-200.000	-0.014	0.201
-432.676	68.683	-0.746	0.764
-431.661	10.602	-0.985	0.749
-430.646	-31.393	-0.330	0.185
-429.632	399.441	0.133	-0.279
-428.617	233.813	0.085	0.139
-427.603	-200.000	-0.028	-0.153
-426.588	197.592	-0.339	-0.516
-425.573	-52.256	0.836	0.386
-424.559	357.533	-0.282	0.561
-423.544	-200.000	0.001	-0.273
-422.530	-110.836	0.664	0.136
-421.515	-152.843	-1.177	0.083
-420.500	800.000	0.237	0.947
-419.486	153.747	-0.227	0.310
-418.471	-166.286	0.215	0.009
-417.457	-60.195	0.832	0.354
-416.442	800.000	-0.343	-0.996
-415.428	101.844	-0.727	-0.845
-414.413	27.035	-0.336	0.281
-413.398	159.157	0.156	-0.216
-412.384	345.542	-0.290	0.567
-411.369	-45.793	-0.186	-0.091
-410.355	-2.903	0.844	0.587
-409.340	800.000	-0.069	0.200
-408.325	55.784	-0.380	0.367
-407.311	-200.000	-0.070	0.391
-406.296	175.810	0.437	-0.632
-405.282	-66.820	0.294	-0.116
-404.267	302.983	-0.066	-0.122
-403.252	-200.000	0.019	0.501
-402.238	-96.245	0.572	-0.151
-401.223	399.432	0.132	-0.275
-400.209	-114.950	-0.199	0.038
-399.194	-77.001	0.956	0.332
-398.179	-200.000	-0.077	-0.740
-397.165	-126.785	-0.715	-0.105
-396.150	800.000	0.211	-0.912
-395.136	60.971	0.112	0.111
-394.121	-16.817	-0.609	0.383
-393.106	199.728	-0.229	-0.350
-392.092	-18.401	0.232	-0.144
-391.077	-107.947	-0.656	0.142
-390.063	409.802	0.309	0.653
-389.048	206.473	0.482	-0.747
-388.033	-200.000	-0.006	-0.297
-387.019	800.000	0.092	0.381
-386.004	73.369	0.360	0.375
-384.990	-158.906	0.609	0.034
-383.975	66.872	-0.539	-0.546
-382.960	800.000	0.150	-0.482
-381.946	-25.300	-0.659	0.388
-380.931	466.103	-0.103	0.229
-379.917	-200.000	-0.006	0.259
-378.902	-10.021	0.600	0.397
-377.888	60.974	-0.210	-0.207
-376.873	-200.000	-0.028	0.438
-375.858	110.422	0.168	-0.200
-374.844	-200.000	0.008	0.510
-373.829	-200.000	0.031	0.304
-372.815	-200.000	0.123	-0.560
-371.800	-1.532	-0.085	0.059
-370.785	334.086	-0.165	-0.318
-369.771	-28.271	0.450	0.258
-368.756	-138.209	-0.729	0.080
-367.742	233.734	0.319	0.522
-366.727	157.579	-0.200	0.275
-365.712	-13.753	0.321	0.207
-364.698	106.930	-0.247	0.291
-363.683	181.047	0.623	-0.911
-362.669	-200.000	-0.046	-0.353
-361.654	-119.487	0.275	-0.047
-360.639	-29.619	0.139	-0.079
-359.625	-36.553	-1.211	-0.648
-358.610	-20.854	0.175	-0.107
-357.596	-49.729	-1.025	0.484
-356.581	83.345	-0.211	0.229
-355.566	-200.000	-0.147	-1.337
-354.552	800.000	0.071	-0.231
-353.537	-119.054	0.411	0.072
-352.523	800.000	0.091	0.312
-351.508	252.222	-0.299	-0.507
-350.493	180.911	0.179	-0.262
-349.479	-150.502	1.082	-0.082
-348.464	-23.135	-0.064	-0.039
-347.450	-157.471	0.896	0.054
-346.435	-200.000	-0.070	-0.331
-345.420	270.476	-0.398	0.696
-344.406	-76.450	0.553	0.193
-343.391	800.000	-0.050	0.197
-342.377	800.000	0.195	0.597
-341.362	-70.202	0.497	0.188
-340.348	176.458	-0.172	-0.248
-339.333	-200.000	-0.045	-1.050
-338.318	-175.665	-1.047	-0.028
-337.304	-81.958	-0.522	0.170
-336.289	800.000	-0.114	0.394
-335.275	3.148	-0.359	0.259
-334.260	-200.000	0.001	0.084
-333.245	-99.857	0.861	0.214
-332.231	-69.474	-0.184	-0.070
-331.216	-94.260	-0.725	-0.197
-330.202	-33.763	0.466	-0.255
-329.187	800.000	-0.289	1.170
-328.172	400.156	0.225	0.469
-327.158	-133.047	0.561	0.071
-326.143	800.000	0.207	-0.618
-325.129	800.000	-0.223	-0.667
-324.114	800.000	-0.203	-0.798
-323.099	-200.000	0.002	0.432
-322.085	-43.042	0.383	0.193
-321.070	503.904	-0.186	0.427
-320.056	144.788	-0.213	-0.282
-319.041	-79.092	0.828	0.279
-318.026	48.549	0.319	0.297
-317.012	800.000	-0.173	-0.529
-315.997	114.232	0.054	0.065
-314.983	-200.000	-0.034	-0.346
-313.968	-4.789	0.717	-0.491
-312.953	-128.172	0.536	-0.076
-311.939	800.000	0.204	0.563
-310.924	-190.149	-0.372	0.004
-309.910	-80.571	-0.408	0.135
-308.895	-200.000	-0.003	0.107
-307.880	-200.000	-0.073	-0.660
-306.866	-200.000	0.203	1.206
-305.851	-54.840	0.380	-0.170
-304.837	63.799	0.195	0.194
-303.822	368.371	0.336	0.675
-302.807	-144.523	-0.556	-0.051
-301.793	800.000	0.089	-0.305
-300.778	-103.843	-0.701	-0.163
-299.764	-74.791	-0.775	-0.276
-298.749	-44.125	0.433	-0.216
-297.735	113.115	0.584	0.702
-296.720	-4.326	0.398	0.273
-295.705	184.208	-0.077	0.114
-294.691	-200.000	-0.891	-0.001
-293.676	162.046	0.180	-0.250
-292.662	-32.363	-0.126	0.070
-291.647	171.129	0.504	-0.717
-290.632	-52.319	-0.533	0.245
-289.618	-44.856	0.680	-0.336
-288.603	-22.330	-0.327	-0.196
-287.589	-56.214	0.514	-0.227
-286.574	-57.018	-0.615	-0.269
-285.559	108.215	-0.330	-0.391
-284.545	-116.209	0.085	-0.016
-283.530	60.914	0.407	0.400
-282.516	98.343	-0.323	-0.369
-281.501	800.000	0.243	-0.798
-280.486	17.036	0.764	-0.600
-279.472	-200.000	0.049	-0.273
-278.457	-62.982	-0.556	0.228
-277.443	315.604	-0.327	-0.612
-276.428	-140.896	-0.130	-0.013
-275.413	266.003	-0.156	0.270
-274.399	-200.000	0.006	-0.381
-273.384	-200.000	-0.054	-0.346
-272.370	74.603	0.487	-0.507
-271.355	81.715	-0.259	0.278
-270.340	-200.000	-0.158	0.771
-269.326	85.249	0.561	0.610
-268.311	-61.353	-0.251	-0.105
-267.297	799.670	-0.199	-0.543
-266.282	-200.000	-0.251	-1.436
-265.267	212.234	0.169	-0.263
-264.253	-121.034	-0.540	-0.090
-263.238	800.000	-0.169	-0.550
-262.224	-124.319	-0.382	0.059
-261.209	-70.971	-0.424	0.158
-260.195	285.636	0.058	0.103
-259.180	33.824	0.761	-0.656
-258.165	76.037	-0.271	-0.284
-257.151	81.229	0.191	0.204
-256.136	614.105	0.267	0.662
-255.122	89.678	0.131	-0.144
-254.107	-64.230	0.402	0.162
-253.092	-38.735	-0.525	0.274
-252.078	408.793	-0.195	0.409
-251.063	800.000	0.120	-0.404
-250.049	-72.427	0.469	0.172
-249.034	800.000	-0.069	-0.248
-248.019	361.904	-0.107	-0.212
-247.005	-200.000	0.029	-0.449
-245.990	-81.904	-0.708	0.229
-244.976	62.560	-0.238	-0.236
-243.961	-84.337	0.261	-0.082
-242.946	-10.425	0.384	-0.252
-241.932	-200.000	0.013	-0.405
-240.917	276.221	0.122	0.214
-239.903	-107.397	0.629	-0.137
-238.888	221.983	-0.332	0.528
-237.873	800.000	0.167	-0.691
-236.859	121.508	0.544	-0.671
-235.844	-17.056	0.565	-0.353
-234.830	-200.000	-0.014	0.735
-233.815	-200.000	-0.041	0.266
-232.800	-19.791	-0.312	-0.191
-231.786	-54.481	0.643	0.288
-230.771	237.113	0.305	-0.501
-229.757	-106.031	1.145	-0.255
-228.742	-11.549	-0.171	-0.111
-227.727	263.020	-0.138	0.236
-226.713	-200.000	0.006	0.666
-225.698	-72.317	-0.252	-0.092
-224.684	800.000	-0.086	0.363
-223.669	81.042	-0.473	0.505
-222.655	194.155	0.020	-0.030
-221.640	-25.152	-0.977	-0.572
-220.625	39.031	0.257	0.227
-219.611	-100.283	0.287	0.071
-218.596	524.491	-0.390	0.907
-217.582	311.837	-0.178	-0.329
-216.567	800.000	-0.096	-0.334
-215.552	-3.335	0.730	0.503
-214.538	241.133	0.127	-0.210
-213.523	800.000	0.126	0.352
-212.509	4.718	0.327	0.238
-211.494	233.500	0.068	0.111
-210.479	28.983	-0.307	0.257
-209.465	136.641	-0.273	0.353
-208.450	-156.911	-0.376	-0.023
-207.436	800.000	-0.097	0.341
-206.421	215.549	0.429	0.673
-205.406	-149.748	-0.467	-0.036
-204.392	404.390	0.225	0.468
-203.377	179.320	0.227	-0.328
-202.363	130.008	-0.135	0.171
-201.348	-177.501	0.257	-0.006
-200.333	800.000	0.136	-0.384
-199.319	22.450	-0.788	-0.637
-198.304	-79.829	-0.045	0.015
-197.290	-135.893	0.375	0.044
-196.275	-45.499	0.443	0.217
-195.260	-113.889	-1.118	0.215
-194.246	26.220	1.036	0.855
-193.231	531.130	0.238	0.556
-192.217	60.274	-0.420	0.411
-191.202	63.041	-0.648	-0.641
-190.187	-74.477	-0.506	-0.180
-189.173	-56.082	0.305	0.134
-188.158	509.494	0.189	0.433
-187.144	450.320	0.191	0.416
-186.129	-140.380	0.156	0.016
-185.114	706.576	0.054	0.142
-184.100	-62.311	0.269	0.111
-183.085	800.000	0.265	-0.832
-182.071	-28.932	-0.703	0.399
-181.056	75.268	-0.216	0.224
-180.042	-136.284	0.560	-0.064
-179.027	99.451	0.638	-0.729
-178.012	52.866	-0.161	-0.152
-176.998	-200.000	0.035	0.639
-175.983	221.618	-0.084	-0.133
-174.969	-149.704	-0.222	0.017
-173.954	-46.779	-0.350	-0.169
-172.939	407.815	-0.172	0.359
-171.925	128.860	-0.099	0.124
-170.910	-88.464	0.376	-0.111
-169.896	135.953	0.625	-0.804
-168.881	-159.112	0.689	0.038
-167.866	-58.383	-0.664	-0.285
-166.852	-135.801	0.415	0.048
-165.837	-174.631	0.334	0.009
-164.823	800.000	-0.123	0.506
-163.808	-4.048	0.761	-0.521
-162.793	45.445	0.342	-0.312
-161.779	-93.342	0.704	-0.193
-160.764	142.975	-0.481	0.631
-159.750	199.366	-0.443	0.671
-158.735	635.090	0.079	0.198
-157.720	-109.035	0.528	0.111
-156.706	49.159	-0.231	-0.214
-155.691	-200.000	-0.020	-0.687
-154.677	-35.753	0.407	0.218
-153.662	298.313	0.420	-0.761
-152.647	-170.910	0.434	-0.015
-151.633	-2.848	-0.456	-0.314
-150.618	-200.000	-0.191	-0.911
-149.604	398.618	0.163	-0.337
-148.589	-44.702	-0.132	-0.065
-147.574	800.000	0.040	0.152
-146.560	60.382	0.472	-0.461
-145.545	67.022	0.596	-0.599
-144.531	-200.000	0.169	-0.844
-143.516	-182.598	-0.823	-0.015
-142.502	459.548	0.367	-0.806
-141.487	-17.629	-0.160	0.099
-140.472	-117.628	-0.344	-0.061
-139.458	117.305	-0.373	0.452
-138.443	116.276	0.295	0.356
-137.429	-136.596	0.813	0.093
-136.414	-1.560	-0.376	-0.261
-135.399	-183.785	-0.520	0.009
-134.385	-200.000	-0.032	0.685
-133.370	-200.000	0.113	-0.692
-132.356	-50.733	0.440	-0.204
-131.341	429.733	-0.084	0.178
-130.326	800.000	0.087	-0.294
-129.312	62.681	-0.182	-0.180
-128.297	-114.510	-0.475	0.090
-127.283	219.844	-0.316	-0.499
-126.268	522.150	-0.208	-0.481
-125.253	-14.658	-0.810	0.513
-124.239	-200.000	-0.103	-0.450
-123.224	97.548	-0.638	-0.722
-122.210	620.504	0.463	1.146
-121.195	647.510	0.047	-0.119
