DTS Sentinel unit serial number:	SN413079Multiplexer serial number:	ORYXHardware model number:	OX4-SRSoftware version number:	ORYX F/W v4.00 Oryx Data Collector v3.7.2.0data status	okinstallation	princeton_trtdifferential loss correction	single-endedforward channel	channel 2reverse channel	N/Adate	2019/09/14time	07:11:34forward acquisition time	60.00reverse acquisition time	0.00gamma	496.2192k internal	0.2338k external	0.2338temperature offset calibration	1.0136default loss term (dB/km)	0.3790temperature slope calibration	1.0000multiplexer offset coefficient	1.0000multiplexer slope coefficient	1.0000fibre end	0.00T internal ref (°C)	26.19T ext. ref 1 (°C)	3.45T ext. ref 2 (°C)	20.93length (m)	temperature (°C)	Stokes	anti-Stokes-747.200	302.046	-0.167	0.311
-746.185	367.419	-0.051	0.104
-745.171	727.381	-0.067	0.179
-744.156	800.000	0.098	0.316
-743.142	-42.231	0.196	-0.100
-742.127	336.037	0.087	0.169
-741.112	164.174	0.192	0.272
-740.098	-140.572	-0.520	0.054
-739.083	800.000	-0.032	-0.097
-738.069	-72.278	0.285	0.106
-737.054	-200.000	-0.029	-0.387
-736.039	-200.000	0.017	-0.166
-735.025	-88.150	0.177	0.053
-734.010	-200.000	0.018	-0.215
-732.996	-200.000	-0.011	-0.216
-731.981	147.041	-0.213	-0.287
-730.966	356.854	-0.053	-0.105
-729.952	-46.472	-0.308	-0.151
-728.937	-176.692	0.099	0.003
-727.923	63.386	0.086	-0.087
-726.908	1.196	-0.181	-0.131
-725.894	-47.588	-0.078	0.038
-724.879	-32.079	0.257	0.144
-723.864	800.000	0.088	-0.301
-722.850	-23.395	-0.220	-0.133
-721.835	-200.000	-0.010	0.054
-720.821	-28.700	0.177	0.102
-719.806	435.024	-0.060	0.130
-718.791	8.865	-0.305	0.231
-717.777	-137.351	0.162	0.018
-716.762	-200.000	-0.024	-0.117
-715.748	149.144	0.018	-0.025
-714.733	-101.074	0.291	0.072
-713.718	39.541	-0.169	0.152
-712.704	77.440	-0.062	0.066
-711.689	-74.044	-0.283	-0.103
-710.675	163.470	0.004	0.006
-709.660	-120.908	-0.123	0.021
-708.645	-200.000	0.066	0.544
-707.631	-86.814	0.242	0.074
-706.616	-24.004	0.241	-0.145
-705.602	800.000	-0.079	-0.271
-704.587	-72.572	-0.207	-0.077
-703.572	8.508	-0.231	0.174
-702.558	309.328	0.039	-0.074
-701.543	35.219	0.086	0.076
-700.529	-13.650	-0.124	-0.080
-699.514	-200.000	-0.008	0.240
-698.499	800.000	0.111	-0.412
-697.485	92.602	-0.279	-0.316
-696.470	-121.301	0.190	0.032
-695.456	-200.000	-0.085	-0.422
-694.441	-53.293	-0.117	0.054
-693.426	390.619	0.088	0.182
-692.412	398.352	-0.076	0.159
-691.397	-44.438	-0.309	-0.155
-690.383	278.190	0.145	0.259
-689.368	-200.000	-0.013	-0.458
-688.354	130.892	0.183	0.236
-687.339	-143.150	-0.301	-0.029
-686.324	-119.063	0.234	-0.041
-685.310	663.855	-0.145	-0.375
-684.295	-34.573	-0.149	0.082
-683.281	560.485	0.150	-0.363
-682.266	317.020	-0.069	-0.131
-681.251	-89.944	-0.234	-0.068
-680.237	-22.571	-0.283	-0.171
-679.222	800.000	-0.045	0.195
-678.208	90.203	0.173	-0.193
-677.193	-163.011	-0.366	-0.018
-676.178	109.842	-0.367	-0.440
-675.164	-117.238	-0.266	-0.048
-674.149	800.000	-0.030	-0.106
-673.135	-200.000	-0.011	-0.230
-672.120	103.005	-0.170	-0.199
-671.105	281.744	0.114	-0.205
-670.091	-162.611	-0.295	-0.015
-669.076	421.081	-0.208	-0.447
-668.062	-77.177	-0.491	0.171
-667.047	166.681	-0.099	0.141
-666.032	-54.329	-0.123	0.056
-665.018	800.000	0.049	-0.205
-664.003	-200.000	-0.003	0.248
-662.989	607.170	0.023	0.057
-661.974	-79.633	-0.146	0.049
-660.959	466.761	-0.107	-0.239
-659.945	-200.000	0.005	-0.072
-658.930	143.243	-0.127	-0.169
-657.916	-109.545	-0.548	0.116
-656.901	-116.110	-0.073	0.014
-655.886	-100.363	0.373	0.092
-654.872	-128.217	-0.191	0.027
-653.857	-134.422	0.164	0.020
-652.843	23.251	-0.222	0.182
-651.828	152.588	-0.218	-0.298
-650.814	-110.911	-0.159	0.033
-649.799	794.855	0.091	-0.249
-648.784	-200.000	0.007	0.123
-647.770	-74.227	-0.304	0.110
-646.755	90.808	0.136	-0.152
-645.741	-195.621	-0.085	0.001
-644.726	-200.000	0.026	-0.252
-643.711	-93.279	0.360	-0.100
-642.697	156.777	-0.064	-0.088
-641.682	-200.000	0.014	-0.569
-640.668	746.446	-0.052	0.140
-639.653	18.031	-0.150	0.120
-638.638	14.105	-0.326	0.254
-637.624	-200.000	0.006	0.324
-636.609	-200.000	-0.022	0.211
-635.595	-145.000	-0.407	0.037
-634.580	-98.865	-0.255	0.065
-633.565	-200.000	-0.022	-0.173
-632.551	29.803	-0.156	-0.133
-631.536	49.319	0.180	-0.169
-630.522	1.595	0.326	0.235
-629.507	800.000	0.056	-0.239
-628.492	454.563	-0.094	-0.207
-627.478	-37.971	0.236	-0.125
-626.463	-200.000	-0.084	-0.455
-625.449	-200.000	-0.010	-0.759
-624.434	-30.853	-0.113	-0.064
-623.419	-162.443	0.146	-0.007
-622.405	-148.390	-0.357	-0.029
-621.390	766.046	-0.072	-0.194
-620.376	-200.000	-0.019	-0.130
-619.361	-200.000	0.013	-0.118
-618.346	-15.300	0.052	-0.033
-617.332	109.210	-0.123	-0.147
-616.317	-20.250	0.184	-0.113
-615.303	-0.049	0.141	-0.100
-614.288	-200.000	0.009	0.121
-613.273	-200.000	0.010	0.178
-612.259	-62.504	0.075	0.031
-611.244	-200.000	-0.003	0.111
-610.230	800.000	0.039	-0.158
-609.215	788.104	0.103	-0.283
-608.201	-17.011	0.174	0.109
-607.186	-26.245	0.213	0.125
-606.171	-2.788	-0.404	0.282
-605.157	800.000	0.031	0.101
-604.142	-97.373	-0.453	0.118
-603.128	-136.225	-0.346	0.040
-602.113	369.597	-0.037	0.076
-601.098	143.026	0.174	-0.231
-600.084	56.986	-0.077	0.075
-599.069	-59.080	0.296	-0.127
-598.055	-141.330	-0.271	0.027
-597.040	-86.233	-0.211	-0.065
-596.025	242.361	-0.134	0.224
-595.011	718.486	0.045	0.120
-593.996	12.207	-0.187	-0.144
-592.982	-1.296	-0.281	-0.198
-591.967	800.000	-0.074	0.258
-590.952	-51.675	0.173	-0.080
-589.938	-72.956	-0.252	0.092
-588.923	386.831	0.018	-0.036
-587.909	-200.000	0.013	-0.077
-586.894	181.493	-0.157	-0.230
-585.879	616.604	0.086	-0.215
-584.865	39.666	-0.236	0.211
-583.850	33.075	-0.058	-0.050
-582.836	174.914	-0.138	-0.199
-581.821	14.667	-0.106	0.082
-580.806	800.000	0.043	-0.145
-579.792	-183.654	-0.318	-0.005
-578.777	183.595	-0.142	-0.209
-577.763	-3.065	0.260	-0.181
-576.748	335.220	-0.123	-0.237
-575.733	390.893	-0.106	0.220
-574.719	-103.721	0.139	-0.032
-573.704	110.325	-0.098	-0.117
-572.690	-160.828	0.116	0.006
-571.675	349.644	-0.130	-0.256
-570.661	-22.807	0.117	-0.070
-569.646	-33.786	-0.193	-0.106
-568.631	274.836	0.129	0.227
-567.617	291.989	0.097	-0.176
-566.602	253.915	-0.020	0.033
-565.588	-44.786	0.175	-0.087
-564.573	58.266	-0.079	0.078
-563.558	-183.974	-0.307	-0.005
-562.544	11.503	-0.081	0.062
-561.529	-87.258	0.266	0.080
-560.515	-36.936	-0.126	-0.067
-559.500	-131.891	-0.066	-0.009
-558.485	-119.546	0.246	0.042
-557.471	-200.000	0.002	0.144
-556.456	-18.963	0.215	0.133
-555.442	800.000	-0.033	-0.099
-554.427	-200.000	0.008	-0.065
-553.412	-134.531	-0.149	-0.018
-552.398	26.734	-0.141	-0.118
-551.383	-130.972	-0.229	0.030
-550.369	-120.854	-0.211	-0.035
-549.354	-90.401	-0.335	-0.097
-548.339	-61.457	-0.282	0.118
-547.325	81.562	-0.185	-0.199
-546.310	-167.392	0.107	-0.004
-545.296	-118.821	-0.158	-0.028
-544.281	-66.002	-0.236	-0.094
-543.266	6.924	0.197	0.146
-542.252	-23.935	-0.292	0.174
-541.237	245.087	-0.023	-0.039
-540.223	-200.000	0.005	-0.126
-539.208	-16.502	-0.223	0.141
-538.193	-200.000	0.038	-0.176
-537.179	-42.841	0.104	-0.052
-536.164	498.284	-0.076	-0.174
-535.150	-73.436	0.129	-0.047
-534.135	-137.065	-0.182	-0.021
-533.121	-200.000	-0.005	0.160
-532.106	161.162	-0.149	-0.207
-531.091	-75.578	0.317	0.112
-530.077	3.026	0.294	0.213
-529.062	57.987	-0.162	0.158
-528.048	68.212	-0.351	0.358
-527.033	82.759	-0.203	-0.219
-526.018	446.630	-0.060	0.131
-525.004	268.368	0.061	-0.106
-523.989	135.552	-0.124	-0.161
-522.975	-51.548	-0.083	0.038
-521.960	-115.010	-0.155	-0.029
-520.945	-200.000	0.023	-0.101
-519.931	386.724	0.026	0.053
-518.916	-200.000	0.052	-0.357
-517.902	-51.088	-0.168	-0.078
-516.887	-200.000	-0.005	0.036
-515.872	545.246	-0.072	0.170
-514.858	-161.455	0.157	0.008
-513.843	132.557	0.100	-0.128
-512.829	63.416	0.316	-0.315
-511.814	258.663	-0.071	0.122
-510.799	190.418	-0.078	-0.117
-509.785	-141.814	-0.113	0.011
-508.770	196.687	-0.074	0.112
-507.756	138.288	0.040	-0.052
-506.741	10.228	-0.070	-0.053
-505.726	-173.271	0.192	0.006
-504.712	-200.000	0.009	-0.125
-503.697	207.354	0.121	0.187
-502.683	800.000	-0.124	0.390
-501.668	192.396	0.314	0.470
-500.653	370.294	0.032	-0.064
-499.639	-48.985	0.148	0.070
-498.624	-200.000	-0.031	-0.256
-497.610	479.784	0.095	0.215
-496.595	-54.793	0.211	-0.095
-495.581	724.285	0.085	0.225
-494.566	-127.975	0.063	0.009
-493.551	520.274	-0.081	-0.188
-492.537	-31.015	0.161	-0.090
-491.522	800.000	0.077	-0.216
-490.508	52.428	-0.164	0.155
-489.493	96.561	-0.023	-0.026
-488.478	-200.000	-0.023	-0.418
-487.464	17.924	-0.162	0.128
-486.449	152.178	-0.110	0.149
-485.435	37.905	0.147	0.130
-484.420	-15.382	-0.019	0.012
-483.405	137.644	0.218	-0.284
-482.391	26.732	-0.308	0.256
-481.376	-110.159	-0.124	0.026
-480.362	132.580	0.150	-0.192
-479.347	477.623	-0.066	0.148
-478.332	-92.298	0.137	0.038
-477.318	611.181	0.065	0.161
-476.303	303.055	-0.071	-0.130
-475.289	43.176	0.202	-0.183
-474.274	-163.841	0.343	0.016
-473.259	-200.000	-0.033	-0.196
-472.245	-200.000	0.005	0.085
-471.230	-102.499	-0.210	0.050
-470.216	-78.119	0.252	0.086
-469.201	-91.467	0.242	0.069
-468.186	-200.000	0.080	-0.508
-467.172	800.000	-0.040	0.145
-466.157	-119.697	-0.182	0.031
-465.143	15.631	-0.123	-0.096
-464.128	-33.118	0.202	-0.111
-463.113	-200.000	0.019	-0.205
-462.099	-131.595	-0.127	-0.017
-461.084	-175.135	-0.394	0.011
-460.070	144.773	0.151	0.201
-459.055	-171.207	-0.182	0.006
-458.040	184.582	0.266	-0.391
-457.026	98.481	-0.238	0.272
-456.011	-70.624	0.324	-0.122
-454.997	163.851	0.228	0.319
-453.982	171.474	-0.210	-0.299
-452.968	145.750	0.239	-0.317
-451.953	671.762	0.179	0.459
-450.938	10.777	-0.121	0.092
-449.924	75.126	-0.029	-0.030
-448.909	-200.000	0.002	-0.244
-447.895	-86.045	0.096	0.029
-446.880	79.510	0.108	0.115
-445.865	238.859	0.110	0.182
-444.851	-42.843	-0.373	-0.188
-443.836	3.930	-0.170	-0.123
-442.822	47.416	-0.138	0.127
-441.807	-200.000	-0.013	-0.119
-440.792	180.389	-0.043	-0.062
-439.778	18.392	0.304	0.240
-438.763	-191.544	-0.192	-0.002
-437.749	229.993	-0.154	-0.250
-436.734	61.783	0.192	-0.189
-435.719	16.745	0.106	0.083
-434.705	800.000	-0.088	0.244
-433.690	210.689	-0.169	0.263
-432.676	-104.553	0.250	0.057
-431.661	196.789	0.029	-0.044
-430.646	182.457	-0.175	0.256
-429.632	800.000	0.136	0.532
-428.617	9.808	0.069	-0.052
-427.603	-2.331	0.263	0.183
-426.588	206.757	-0.138	0.212
-425.573	800.000	0.024	0.068
-424.559	-200.000	-0.005	0.141
-423.544	-200.000	-0.000	0.239
-422.530	228.979	0.181	0.292
-421.515	-200.000	0.010	0.128
-420.500	204.954	0.169	-0.260
-419.486	-110.122	-0.261	0.054
-418.471	-45.957	0.259	-0.126
-417.457	11.399	0.363	0.275
-416.442	-141.620	0.194	-0.019
-415.428	60.710	0.128	-0.125
-414.413	371.123	0.068	-0.137
-413.398	164.735	0.170	-0.237
-412.384	-126.926	0.290	0.042
-411.369	-200.000	0.017	0.150
-410.355	-144.295	-0.212	0.020
-409.340	763.111	0.077	-0.207
-408.325	372.176	-0.197	-0.396
-407.311	-0.102	-0.109	0.077
-406.296	-200.000	-0.006	0.069
-405.282	56.380	-0.134	-0.129
-404.267	5.200	0.108	-0.079
-403.252	23.803	0.080	0.066
-402.238	-98.188	-0.109	0.028
-401.223	800.000	0.061	-0.191
-400.209	-200.000	-0.011	0.383
-399.194	56.771	0.217	0.209
-398.179	58.679	0.097	0.094
-397.165	89.495	-0.180	-0.199
-396.150	660.215	0.039	0.100
-395.136	800.000	-0.035	0.124
-394.121	-49.813	0.307	-0.144
-393.106	220.325	-0.031	-0.049
-392.092	-98.921	-0.051	-0.013
-391.077	474.359	0.043	-0.097
-390.063	707.162	0.026	0.069
-389.048	176.558	-0.083	-0.119
-388.033	158.543	0.221	0.303
-387.019	-84.105	-0.166	-0.052
-386.004	35.459	-0.097	0.085
-384.990	-33.715	-0.191	-0.104
-383.975	217.459	0.172	-0.272
-382.960	-21.533	-0.177	-0.107
-381.946	160.361	-0.101	-0.140
-380.931	-93.806	0.164	0.045
-379.917	-200.000	0.018	-0.093
-378.902	-64.392	-0.333	0.134
-377.888	-48.326	-0.032	-0.015
-376.873	147.387	0.015	-0.020
-375.858	-32.809	0.133	-0.073
-374.844	-110.656	0.252	0.052
-373.829	106.469	-0.059	-0.069
-372.815	-175.229	-0.127	0.003
-371.800	-200.000	0.054	-0.298
-370.785	-75.708	0.219	0.077
-369.771	332.414	-0.102	-0.194
-368.756	250.968	-0.023	-0.038
-367.742	232.642	-0.066	-0.107
-366.727	-200.000	-0.007	0.073
-365.712	87.800	0.028	0.030
-364.698	41.575	-0.191	-0.171
-363.683	502.126	-0.123	0.282
-362.669	210.879	0.061	0.094
-361.654	21.908	0.025	-0.020
-360.639	32.454	-0.261	-0.223
-359.625	64.736	0.229	-0.228
-358.610	-200.000	0.007	0.080
-357.596	-200.000	-0.024	-0.363
-356.581	800.000	0.056	0.175
-355.566	-111.524	-0.128	0.026
-354.552	-59.531	0.298	-0.126
-353.537	-157.557	-0.401	-0.024
-352.523	-200.000	-0.017	0.074
-351.508	530.587	-0.065	0.151
-350.493	45.705	0.072	0.065
-349.479	-200.000	0.019	0.104
-348.464	-131.558	-0.256	0.033
-347.450	391.850	-0.047	-0.096
-346.435	198.977	0.175	0.265
-345.420	-30.529	-0.371	0.208
-344.406	353.184	0.163	0.319
-343.391	-200.000	-0.021	-0.214
-342.377	-200.000	-0.032	-0.426
-341.362	-97.697	-0.221	-0.057
-340.348	-128.371	-0.161	0.023
-339.333	75.144	0.130	0.135
-338.318	-200.000	0.007	-0.146
-337.304	-200.000	-0.001	0.218
-336.289	199.113	-0.099	-0.150
-335.275	-146.643	-0.057	-0.005
-334.260	-92.057	0.300	0.084
-333.245	108.581	0.132	0.156
-332.231	524.229	-0.116	0.270
-331.216	118.240	0.228	0.277
-330.202	-156.541	0.113	-0.007
-329.187	800.000	0.079	0.254
-328.172	-102.107	0.280	0.066
-327.158	-200.000	-0.007	-0.055
-326.143	301.056	-0.054	0.099
-325.129	-96.804	-0.162	0.042
-324.114	-67.252	-0.113	-0.044
-323.099	-118.099	0.282	-0.050
-322.085	-136.195	0.165	0.019
-321.070	37.631	0.140	0.123
-320.056	-200.000	-0.005	-0.312
-319.041	-200.000	-0.029	-0.186
-318.026	142.468	0.133	-0.174
-317.012	65.189	-0.140	0.139
-315.997	-32.601	0.060	-0.033
-314.983	632.013	0.027	0.067
-313.968	-55.586	0.247	0.109
-312.953	49.225	0.103	-0.096
-311.939	316.319	0.057	-0.107
-310.924	-18.477	-0.134	0.083
-309.910	149.039	0.079	-0.105
-308.895	288.227	0.085	0.153
-307.880	-79.912	-0.380	0.126
-306.866	228.636	-0.220	0.353
-305.851	-140.981	0.084	0.009
-304.837	183.857	0.207	0.303
-303.822	-200.000	0.044	0.212
-302.807	132.961	-0.074	0.094
-301.793	21.838	0.149	0.120
-300.778	-200.000	-0.018	-0.204
-299.764	-0.201	-0.257	0.181
-298.749	-200.000	-0.004	-0.103
-297.735	193.952	0.172	-0.256
-296.720	-200.000	-0.005	-0.269
-295.705	800.000	0.033	0.135
-294.691	800.000	0.108	-0.339
-293.676	-27.051	0.353	-0.203
-292.662	-109.244	0.182	0.038
-291.647	-116.300	0.356	0.065
-290.632	800.000	0.053	0.164
-289.618	502.557	0.082	0.187
-288.603	-200.000	-0.007	0.068
-287.589	800.000	-0.171	0.466
-286.574	-86.197	-0.159	0.048
-285.559	-200.000	-0.022	0.128
-284.545	-96.231	-0.203	-0.053
-283.530	-106.407	-0.168	0.037
-282.516	150.301	0.119	0.159
-281.501	84.613	-0.081	-0.087
-280.486	52.696	-0.121	-0.114
-279.472	800.000	0.073	0.231
-278.457	800.000	-0.030	0.083
-277.443	52.478	0.116	-0.109
-276.428	186.028	0.128	0.188
-275.413	-184.712	0.163	0.003
-274.399	-161.625	-0.092	0.005
-273.384	-61.125	-0.081	-0.034
-272.370	-127.135	0.282	-0.041
-271.355	-121.341	-0.074	0.012
-270.340	247.361	0.050	0.084
-269.326	-200.000	-0.088	-0.390
-268.311	-54.034	-0.146	-0.065
-267.297	-191.588	-0.066	0.001
-266.282	396.107	-0.056	0.115
-265.267	-8.487	0.094	0.062
-264.253	-28.089	-0.107	-0.061
-263.238	-200.000	0.024	-0.295
-262.224	-175.216	-0.099	0.003
-261.209	-0.996	0.147	-0.102
-260.195	-17.190	-0.216	0.134
-259.180	22.436	-0.189	-0.152
-258.165	80.535	-0.091	-0.097
-257.151	-175.351	0.025	-0.001
-256.136	63.688	-0.174	0.172
-255.122	204.295	-0.059	-0.090
-254.107	800.000	0.080	0.221
-253.092	20.718	-0.204	-0.163
-252.078	-103.722	0.057	0.013
-251.063	-200.000	-0.025	0.207
-250.049	-200.000	-0.005	-0.101
-249.034	-200.000	0.034	-0.207
-248.019	-17.868	-0.055	0.034
-247.005	104.898	0.353	0.409
-245.990	129.671	-0.215	-0.271
-244.976	-200.000	-0.020	0.132
-243.961	-200.000	0.059	0.325
-242.946	-108.263	0.249	-0.053
-241.932	117.310	-0.139	-0.168
-240.917	800.000	0.051	-0.141
-239.903	-7.987	0.169	-0.112
-238.888	-36.880	-0.236	0.125
-237.873	478.362	-0.066	0.147
-236.859	546.468	0.135	0.317
-235.844	103.599	0.219	-0.253
-234.830	236.727	-0.039	-0.064
-233.815	-200.000	-0.009	0.345
-232.800	-200.000	0.014	-0.143
-231.786	-200.000	0.025	0.222
-230.771	348.172	0.126	0.245
-229.757	800.000	-0.049	0.137
-228.742	8.331	-0.080	-0.059
-227.727	-172.087	-0.183	0.006
-226.713	-190.783	0.134	0.001
-225.698	800.000	0.100	0.317
-224.684	-200.000	-0.032	-0.150
-223.669	281.118	0.089	0.157
-222.655	-200.000	-0.032	0.352
-221.640	-43.854	0.442	-0.218
-220.625	-200.000	-0.061	-0.341
-219.611	465.377	-0.055	-0.122
-218.596	-200.000	0.031	0.298
-217.582	-8.473	0.180	0.119
-216.567	-140.057	0.292	-0.030
-215.552	-200.000	0.023	-0.221
-214.538	180.566	0.096	-0.139
-213.523	-119.358	-0.176	0.030
-212.509	721.019	-0.061	-0.160
-211.494	-60.400	-0.182	-0.076
-210.479	-200.000	-0.019	0.133
-209.465	-87.605	0.237	-0.070
-208.450	284.344	-0.088	0.156
-207.436	178.801	0.117	-0.168
-206.421	-41.876	-0.154	-0.077
-205.406	800.000	-0.037	-0.130
-204.392	-105.219	0.208	-0.047
-203.377	395.412	0.071	0.145
-202.363	-53.903	-0.325	0.146
-201.348	-130.921	0.332	0.044
-200.333	-200.000	-0.081	0.385
-199.319	323.228	-0.049	0.092
-198.304	157.710	0.144	-0.196
-197.290	574.043	-0.052	0.124
-196.275	-53.095	0.288	0.130
-195.260	-152.358	-0.191	0.014
-194.246	-2.144	-0.208	0.143
-193.231	-200.000	-0.015	0.314
-192.217	-13.179	-0.160	0.102
-191.202	92.465	-0.102	0.113
-190.187	494.373	0.056	-0.126
-189.173	78.535	0.107	-0.112
-188.158	-124.075	0.196	0.030
-187.144	-200.000	-0.025	-0.156
-186.129	-110.341	0.299	-0.061
-185.114	-63.450	0.210	0.085
-184.100	16.659	0.107	0.083
-183.085	451.318	-0.107	-0.233
-182.071	-158.706	-0.057	-0.003
-181.056	11.265	0.396	-0.298
-180.042	20.076	0.196	0.155
-179.027	100.935	0.142	0.162
-178.012	-116.400	0.128	-0.023
-176.998	-72.085	-0.065	-0.024
-175.983	-135.106	-0.301	-0.036
-174.969	-86.640	0.090	-0.027
-173.954	800.000	-0.099	0.279
-172.939	364.818	0.151	0.299
-171.925	24.495	0.151	-0.122
-170.910	-181.661	-0.134	0.003
-169.896	19.478	-0.140	-0.110
-168.881	537.526	0.053	-0.124
-167.866	72.967	-0.077	-0.079
-166.852	-42.425	0.243	0.122
-165.837	800.000	-0.097	-0.341
-164.823	800.000	-0.017	-0.063
-163.808	-200.000	-0.043	-0.266
-162.793	-98.944	-0.291	-0.072
-161.779	-104.512	0.383	-0.087
-160.764	-129.347	0.357	0.049
-159.750	800.000	-0.100	-0.334
-158.735	16.739	-0.185	0.144
-157.720	-0.162	0.047	0.033
-156.706	490.998	0.068	0.153
-155.691	-200.000	-0.072	0.386
-154.677	-97.570	0.118	0.030
-153.662	-89.433	-0.248	0.072
-152.647	17.410	-0.097	0.075
-151.633	-200.000	-0.047	0.305
-150.618	-200.000	0.023	0.342
-149.604	110.393	0.104	0.123
-148.589	-160.809	-0.260	-0.013
-147.574	800.000	0.022	0.071
-146.560	-200.000	-0.009	0.326
-145.545	331.598	0.126	0.238
-144.531	256.693	0.020	-0.034
-143.516	800.000	0.127	0.379
-142.502	140.758	0.206	0.267
-141.487	-16.395	-0.197	-0.122
-140.472	-97.902	-0.049	0.012
-139.458	-67.592	-0.257	-0.099
-138.443	36.033	0.078	-0.067
-137.429	-0.330	-0.178	0.124
-136.414	-200.000	0.020	0.227
-135.399	33.047	0.219	0.186
-134.385	408.920	0.091	0.190
-133.370	-102.121	0.170	-0.040
-132.356	-21.007	-0.139	0.083
-131.341	-33.751	-0.106	-0.057
-130.326	99.850	-0.088	-0.100
-129.312	-20.173	0.381	-0.230
-128.297	-100.569	0.242	-0.059
-127.283	-200.000	-0.034	0.162
-126.268	-143.853	0.029	0.003
-125.253	424.570	0.113	-0.239
-124.239	-58.292	0.130	-0.055
-123.224	226.251	0.247	-0.392
-122.210	-119.211	0.313	-0.054
