DTS Sentinel unit serial number:	SN413079Multiplexer serial number:	ORYXHardware model number:	OX4-SRSoftware version number:	ORYX F/W v4.00 Oryx Data Collector v3.7.2.0data status	okinstallation	princeton_trtdifferential loss correction	single-endedforward channel	channel 2reverse channel	N/Adate	2019/09/19time	14:47:35forward acquisition time	60.00reverse acquisition time	0.00gamma	496.2192k internal	0.2322k external	0.2322temperature offset calibration	1.0020default loss term (dB/km)	0.3790temperature slope calibration	1.0000multiplexer offset coefficient	1.0000multiplexer slope coefficient	1.0000fibre end	0.00T internal ref (°C)	32.73T ext. ref 1 (°C)	1.10T ext. ref 2 (°C)	29.68length (m)	temperature (°C)	Stokes	anti-Stokes-747.200	-200.000	0.029	-0.373
-746.185	279.599	0.007	0.012
-745.171	-81.839	0.200	0.066
-744.156	800.000	0.090	0.287
-743.142	-85.886	0.207	0.065
-742.127	-200.000	0.002	0.234
-741.112	-88.984	0.099	0.029
-740.098	-71.117	-0.109	-0.041
-739.083	-72.943	0.230	0.086
-738.069	800.000	0.046	-0.134
-737.054	800.000	0.035	0.151
-736.039	-200.000	-0.020	-0.094
-735.025	111.162	-0.123	-0.150
-734.010	-172.262	-0.120	-0.004
-732.996	447.298	-0.041	-0.092
-731.981	-50.650	-0.461	0.219
-730.966	209.805	0.206	-0.326
-729.952	-99.040	-0.217	-0.056
-728.937	-200.000	-0.038	-0.339
-727.923	800.000	-0.074	0.305
-726.908	-29.560	0.186	-0.107
-725.894	-190.470	0.052	0.001
-724.879	-45.810	-0.338	-0.168
-723.864	35.367	-0.163	-0.145
-722.850	93.470	-0.038	0.043
-721.835	-15.967	-0.272	-0.174
-720.821	491.353	0.069	-0.161
-719.806	-200.000	-0.159	0.001
-718.791	800.000	0.058	-0.187
-717.777	147.999	-0.187	-0.255
-716.762	-58.465	0.380	0.167
-715.748	-200.000	0.000	-0.065
-714.733	328.932	0.090	-0.174
-713.718	-200.000	0.039	0.181
-712.704	449.466	0.211	0.468
-711.689	21.479	0.170	0.140
-710.675	300.370	-0.091	-0.169
-709.660	473.490	-0.142	-0.323
-708.645	309.647	0.134	-0.254
-707.631	800.000	-0.039	-0.148
-706.616	607.656	-0.051	-0.130
-705.602	713.077	-0.091	-0.244
-704.587	-155.540	-0.216	0.014
-703.572	353.876	0.183	-0.367
-702.558	353.660	-0.051	-0.102
-701.543	-58.625	0.302	0.132
-700.529	-200.000	0.044	-0.266
-699.514	114.590	0.179	-0.221
-698.499	800.000	0.044	0.149
-697.485	-124.873	0.292	-0.045
-696.470	-73.057	0.407	-0.150
-695.456	-200.000	0.028	-0.127
-694.441	74.017	-0.088	0.093
-693.426	800.000	0.060	0.212
-692.412	-200.000	0.071	0.576
-691.397	-96.276	0.314	0.084
-690.383	57.467	-0.057	0.056
-689.368	-200.000	0.136	0.000
-688.354	510.257	0.111	-0.259
-687.339	311.476	-0.063	0.119
-686.324	-99.831	0.372	-0.094
-685.310	-200.000	-0.024	0.112
-684.295	-114.178	-0.213	0.042
-683.281	-25.366	-0.283	-0.168
-682.266	-98.445	-0.280	0.072
-681.251	800.000	0.072	0.280
-680.237	129.467	-0.110	-0.141
-679.222	800.000	-0.144	0.449
-678.208	-200.000	-0.000	0.006
-677.193	-86.155	-0.105	-0.033
-676.178	-200.000	0.053	0.391
-675.164	493.722	-0.223	0.515
-674.149	0.264	0.062	0.045
-673.135	-119.845	-0.323	0.056
-672.120	556.067	-0.087	0.212
-671.105	109.920	-0.126	-0.152
-670.091	-200.000	-0.012	0.200
-669.076	-81.544	-0.307	0.102
-668.062	414.250	-0.239	-0.513
-667.047	-16.776	-0.247	0.157
-666.032	49.130	0.136	-0.128
-665.018	-72.852	-0.134	0.050
-664.003	-57.217	-0.260	-0.115
-662.989	800.000	0.105	-0.304
-661.974	-71.064	0.205	-0.078
-660.959	-113.692	-0.309	-0.061
-659.945	-200.000	-0.243	-0.000
-658.930	-105.002	-0.329	-0.076
-657.916	-28.066	-0.145	-0.084
-656.901	83.012	0.216	-0.237
-655.886	92.116	0.225	-0.256
-654.872	-41.736	0.240	0.124
-653.857	234.507	-0.030	-0.050
-652.843	184.927	-0.081	0.121
-651.828	3.101	-0.068	0.049
-650.814	-200.000	-0.052	-0.232
-649.799	243.865	-0.142	-0.240
-648.784	-36.823	-0.279	0.151
-647.770	-173.090	-0.075	-0.002
-646.755	202.486	-0.032	-0.049
-645.741	-200.000	-0.005	0.235
-644.726	499.720	-0.059	-0.137
-643.711	-200.000	-0.019	-0.204
-642.697	-80.434	0.096	0.032
-641.682	-70.469	-0.238	0.091
-640.668	69.666	0.158	0.164
-639.653	-59.712	0.226	-0.097
-638.638	-43.520	0.326	-0.165
-637.624	-176.629	0.164	-0.004
-636.609	740.333	0.052	0.139
-635.595	-174.553	0.339	0.010
-634.580	583.122	0.108	0.267
-633.565	89.282	0.150	0.168
-632.551	197.161	0.040	0.061
-631.536	-77.942	-0.133	-0.046
-630.522	-132.650	0.200	0.026
-629.507	-74.814	-0.211	0.076
-628.492	-75.683	-0.092	-0.033
-627.478	-200.000	0.004	0.102
-626.463	92.869	0.329	0.373
-625.449	-200.000	0.031	-0.141
-624.434	-70.256	0.255	0.097
-623.419	-130.161	-0.375	-0.051
-622.405	152.033	0.089	0.122
-621.390	-111.367	0.100	-0.020
-620.376	-4.851	0.243	-0.168
-619.361	226.820	-0.123	0.200
-618.346	496.098	-0.041	-0.095
-617.332	14.662	-0.228	0.179
-616.317	-113.583	-0.234	0.046
-615.303	208.826	-0.205	-0.322
-614.288	83.220	-0.150	-0.164
-613.273	190.092	-0.145	-0.219
-612.259	-99.486	0.243	0.062
-611.244	-105.761	-0.183	0.042
-610.230	114.707	0.089	0.108
-609.215	-72.384	0.057	-0.021
-608.201	-191.520	-0.046	-0.000
-607.186	215.525	0.082	-0.130
-606.171	800.000	-0.036	0.106
-605.157	201.723	-0.095	0.147
-604.142	287.143	0.047	0.086
-603.128	800.000	-0.139	0.433
-602.113	49.198	-0.115	-0.108
-601.098	800.000	0.091	0.316
-600.084	800.000	-0.072	0.201
-599.069	-137.039	0.174	0.020
-598.055	143.688	-0.150	0.200
-597.040	339.744	0.110	0.215
-596.025	800.000	0.017	0.055
-595.011	-51.831	0.171	0.080
-593.996	800.000	-0.048	-0.172
-592.982	800.000	0.078	0.266
-591.967	-30.306	-0.217	-0.124
-590.952	-153.883	0.187	-0.013
-589.938	219.611	0.156	0.251
-588.923	432.422	0.103	-0.225
-587.909	417.085	0.042	-0.090
-586.894	800.000	0.024	0.081
-585.879	36.079	-0.132	0.117
-584.865	-127.792	0.417	-0.060
-583.850	251.487	-0.139	-0.238
-582.836	-143.616	0.192	-0.018
-581.821	-150.320	-0.428	0.033
-580.806	-23.954	-0.250	-0.150
-579.792	597.751	0.089	-0.222
-578.777	29.189	-0.056	-0.048
-577.763	-114.315	0.189	-0.037
-576.748	59.360	0.212	-0.209
-575.733	-122.582	-0.105	0.017
-574.719	-159.019	0.132	0.008
-573.704	800.000	-0.045	-0.193
-572.690	58.122	0.089	0.087
-571.675	53.772	0.322	0.311
-570.661	4.636	-0.107	0.079
-569.646	32.267	0.071	-0.061
-568.631	105.431	-0.157	0.186
-567.617	58.820	0.251	-0.247
-566.602	121.398	0.121	-0.151
-565.588	401.286	0.013	0.027
-564.573	800.000	0.024	0.096
-563.558	-98.502	-0.232	0.059
-562.544	29.734	-0.177	-0.151
-561.529	262.676	-0.207	0.361
-560.515	-49.022	-0.219	0.105
-559.500	-200.000	-0.005	-0.076
-558.485	-166.508	0.229	0.010
-557.471	800.000	-0.018	0.074
-556.456	56.863	-0.050	-0.049
-555.442	125.857	-0.055	-0.069
-554.427	283.804	-0.133	0.239
-553.412	-22.902	-0.230	-0.139
-552.398	-37.771	0.094	0.050
-551.383	-72.816	-0.166	0.061
-550.369	-200.000	-0.024	0.296
-549.354	-66.828	-0.392	-0.156
-548.339	-55.645	0.143	-0.064
-547.325	-75.099	0.188	0.067
-546.310	-97.345	0.259	-0.068
-545.296	71.414	-0.221	-0.229
-544.281	-176.638	-0.298	0.008
-543.266	38.594	0.168	-0.150
-542.252	216.871	-0.095	-0.152
-541.237	-54.981	0.156	-0.070
-540.223	5.582	0.172	0.127
-539.208	390.139	0.031	0.064
-538.193	800.000	-0.045	0.143
-537.179	-58.394	0.212	0.092
-536.164	-15.598	-0.084	0.054
-535.150	-200.000	0.005	-0.462
-534.135	61.550	0.050	-0.050
-533.121	-54.975	-0.207	-0.093
-532.106	-49.742	-0.136	0.065
-531.091	174.826	-0.138	0.200
-530.077	-200.000	-0.002	-0.472
-529.062	8.807	0.136	0.103
-528.048	-200.000	-0.057	-0.310
-527.033	-184.936	-0.337	0.005
-526.018	800.000	0.036	0.130
-525.004	91.584	-0.308	-0.347
-523.989	-199.421	-0.213	-0.001
-522.975	120.495	-0.107	0.133
-521.960	56.119	0.033	0.032
-520.945	-74.292	-0.310	0.112
-519.931	-67.910	0.032	0.013
-518.916	-113.579	-0.108	-0.021
-517.902	-200.000	0.015	0.290
-516.887	800.000	0.121	0.346
-515.872	221.825	-0.114	-0.184
-514.858	113.192	0.067	0.082
-513.843	495.687	0.089	0.204
-512.829	-200.000	0.008	0.245
-511.814	59.115	-0.159	0.156
-510.799	31.558	-0.110	-0.095
-509.785	142.176	-0.100	-0.132
-508.770	71.334	0.267	-0.277
-507.756	142.713	0.168	-0.224
-506.741	-200.000	0.031	-0.138
-505.726	800.000	-0.022	0.083
-504.712	-200.000	-0.047	0.300
-503.697	-42.490	-0.144	0.074
-502.683	-200.000	-0.027	0.198
-501.668	-186.274	-0.098	-0.001
-500.653	47.238	-0.307	0.286
-499.639	-38.680	0.347	0.183
-498.624	178.385	0.111	0.163
-497.610	800.000	-0.087	-0.342
-496.595	242.680	0.096	-0.161
-495.581	511.666	0.129	-0.301
-494.566	-110.855	-0.377	-0.078
-493.551	-74.034	-0.083	0.030
-492.537	-75.059	-0.234	-0.084
-491.522	-200.000	-0.033	-0.308
-490.508	28.758	0.130	0.110
-489.493	-37.545	-0.164	0.087
-488.478	109.714	0.292	-0.350
-487.464	-99.012	-0.423	-0.107
-486.449	-164.160	0.532	-0.025
-485.435	-200.000	-0.013	0.094
-484.420	-200.000	-0.002	-0.076
-483.405	-51.332	-0.326	-0.153
-482.391	-50.306	0.147	0.069
-481.376	-200.000	0.017	-0.118
-480.362	-113.737	0.107	0.021
-479.347	-56.588	-0.208	0.092
-478.332	-200.000	0.015	0.099
-477.318	-142.585	-0.198	0.019
-476.303	186.262	0.182	-0.270
-475.289	20.801	0.150	0.121
-474.274	68.563	0.255	0.261
-473.259	49.618	-0.261	-0.245
-472.245	-109.550	-0.248	0.052
-471.230	471.589	0.065	-0.145
-470.216	-71.384	0.096	-0.036
-469.201	-200.000	0.034	-0.165
-468.186	-24.605	-0.196	0.116
-467.172	-137.236	0.274	0.031
-466.157	800.000	0.075	-0.236
-465.143	83.515	-0.157	0.171
-464.128	-200.000	-0.006	0.300
-463.113	-200.000	-0.018	-0.132
-462.099	-51.472	-0.224	0.105
-461.084	-200.000	0.007	-0.399
-460.070	157.866	-0.150	-0.207
-459.055	102.838	-0.245	0.286
-458.040	69.332	-0.064	-0.066
-457.026	-200.000	-0.008	-0.083
-456.011	-200.000	-0.015	-0.068
-454.997	311.334	0.273	-0.512
-453.982	-3.418	0.017	-0.012
-452.968	800.000	0.061	-0.174
-451.953	116.414	0.059	-0.072
-450.938	283.360	0.045	0.080
-449.924	-185.942	-0.142	-0.002
-448.909	-12.750	-0.063	-0.041
-447.895	800.000	-0.059	0.212
-446.880	-86.131	-0.155	-0.048
-445.865	-200.000	-0.113	-0.519
-444.851	163.846	0.100	0.141
-443.836	800.000	0.053	0.150
-442.822	-15.335	-0.131	0.084
-441.807	800.000	0.031	0.088
-440.792	-105.155	0.235	0.054
-439.778	800.000	0.102	0.344
-438.763	-142.632	-0.250	0.024
-437.749	800.000	-0.072	0.312
-436.734	-37.314	-0.204	0.109
-435.719	-55.309	-0.288	0.129
-434.705	800.000	0.160	0.532
-433.690	800.000	0.025	-0.075
-432.676	-85.769	0.206	-0.064
-431.661	720.673	0.089	-0.237
-430.646	62.899	0.228	-0.228
-429.632	-124.820	0.276	-0.043
-428.617	-118.896	0.140	-0.025
-427.603	138.818	0.121	-0.158
-426.588	480.786	0.191	-0.432
-425.573	165.431	-0.143	-0.202
-424.559	1.764	0.299	-0.215
-423.544	11.733	0.080	0.061
-422.530	258.147	0.207	0.356
-421.515	800.000	0.037	0.126
-420.500	-118.131	0.146	-0.026
-419.486	-200.000	-0.007	0.173
-418.471	-57.446	0.190	-0.083
-417.457	-200.000	-0.006	-0.309
-416.442	-121.343	-0.084	-0.014
-415.428	-138.952	-0.300	0.033
-414.413	-154.724	-0.053	-0.003
-413.398	147.501	0.179	-0.240
-412.384	800.000	0.094	-0.298
-411.369	-47.779	-0.462	0.223
-410.355	-153.574	0.202	-0.014
-409.340	-133.356	-0.244	-0.031
-408.325	-100.316	-0.177	-0.044
-407.311	210.324	-0.098	-0.153
-406.296	405.677	0.089	-0.186
-405.282	-118.494	-0.122	-0.022
-404.267	-88.605	0.255	-0.076
-403.252	-50.304	0.395	0.186
-402.238	-200.000	0.050	-0.464
-401.223	151.894	-0.133	-0.181
-400.209	-126.841	-0.171	-0.025
-399.194	47.638	-0.125	0.117
-398.179	-200.000	0.034	0.346
-397.165	-200.000	0.004	-0.138
-396.150	-64.808	-0.235	-0.095
-395.136	-96.064	0.310	-0.082
-394.121	800.000	0.098	-0.293
-393.106	-40.339	-0.218	-0.113
-392.092	465.298	0.082	-0.184
-391.077	-26.466	-0.211	-0.124
-390.063	-95.367	-0.093	0.025
-389.048	762.260	-0.044	0.119
-388.033	323.359	-0.140	0.265
-387.019	-15.750	-0.081	-0.051
-386.004	-56.035	-0.065	-0.029
-384.990	-200.000	0.000	0.004
-383.975	237.232	0.110	-0.182
-382.960	557.927	0.152	0.365
-381.946	-0.290	0.285	0.202
-380.931	56.903	-0.177	0.171
-379.917	800.000	-0.060	-0.249
-378.902	206.733	0.138	-0.215
-377.888	82.134	-0.088	0.095
-376.873	800.000	-0.077	0.252
-375.858	116.761	-0.103	-0.126
-374.844	-200.000	-0.032	0.248
-373.829	-88.910	-0.272	-0.080
-372.815	-3.314	0.308	0.214
-371.800	-200.000	-0.076	0.351
-370.785	37.550	-0.099	-0.088
-369.771	351.587	-0.042	-0.084
-368.756	-200.000	-0.013	0.160
-367.742	99.475	0.197	-0.227
-366.727	494.958	-0.044	-0.100
-365.712	-200.000	0.003	0.058
-364.698	179.148	-0.167	-0.243
-363.683	98.151	0.086	0.099
-362.669	41.204	0.139	0.125
-361.654	-200.000	0.060	0.308
-360.639	614.402	-0.022	0.055
-359.625	-27.371	-0.219	0.127
-358.610	384.370	-0.140	-0.286
-357.596	443.921	-0.094	-0.204
-356.581	122.339	0.107	-0.132
-355.566	294.740	0.165	-0.301
-354.552	800.000	0.048	0.144
-353.537	-200.000	-0.006	-0.276
-352.523	-153.332	-0.116	-0.008
-351.508	-55.648	-0.109	0.049
-350.493	-97.901	-0.166	-0.043
-349.479	800.000	0.059	0.219
-348.464	-15.113	0.059	0.037
-347.450	181.513	-0.162	0.237
-346.435	350.800	-0.106	-0.208
-345.420	-200.000	-0.028	-0.136
-344.406	32.692	-0.097	-0.083
-343.391	31.409	0.062	0.053
-342.377	-200.000	-0.012	-0.185
-341.362	-118.526	0.046	0.008
-340.348	-200.000	0.016	0.193
-339.333	-134.117	0.508	0.062
-338.318	101.120	0.127	0.147
-337.304	-22.952	0.138	0.083
-336.289	-18.593	0.211	-0.131
-335.275	-100.966	0.197	-0.048
-334.260	168.893	0.064	-0.091
-333.245	26.648	0.063	-0.052
-332.231	-43.954	0.032	0.016
-331.216	-63.520	0.205	0.084
-330.202	-183.019	-0.083	0.001
-329.187	668.351	-0.055	0.140
-328.172	120.345	0.115	-0.141
-327.158	-106.911	0.207	0.046
-326.143	632.013	-0.064	-0.161
-325.129	-85.520	-0.092	0.029
-324.114	-133.233	0.335	0.042
-323.099	-78.307	-0.046	-0.016
-322.085	800.000	-0.039	0.131
-321.070	84.873	-0.081	0.088
-320.056	260.522	0.094	0.162
-319.041	-75.028	-0.095	0.034
-318.026	800.000	0.025	0.090
-317.012	-154.660	-0.491	-0.032
-315.997	231.288	-0.100	0.163
-314.983	-77.368	-0.185	-0.064
-313.968	267.198	0.051	-0.088
-312.953	507.869	0.085	0.197
-311.939	546.411	0.073	-0.173
-310.924	616.783	-0.098	-0.244
-309.910	-200.000	0.003	0.111
-308.895	-200.000	0.016	-0.200
-307.880	-150.461	-0.458	0.035
-306.866	-176.277	0.312	-0.008
-305.851	11.717	0.046	0.035
-304.837	319.221	0.036	-0.068
-303.822	800.000	-0.099	0.350
-302.807	-200.000	0.098	0.470
-301.793	-41.677	-0.158	-0.081
-300.778	800.000	-0.083	0.285
-299.764	736.878	-0.063	0.169
-298.749	-43.817	-0.122	0.061
-297.735	-200.000	-0.014	-0.163
-296.720	161.440	0.182	-0.253
-295.705	-200.000	-0.029	-0.128
-294.691	-89.544	-0.501	0.146
-293.676	800.000	0.059	-0.190
-292.662	11.997	-0.170	-0.130
-291.647	-159.733	0.133	-0.007
-290.632	-200.000	-0.023	-0.276
-289.618	-200.000	0.014	0.070
-288.603	414.993	0.150	0.317
-287.589	269.703	-0.172	0.300
-286.574	-130.435	0.315	0.042
-285.559	76.569	-0.057	-0.060
-284.545	396.669	-0.174	-0.360
-283.530	0.587	-0.140	-0.099
-282.516	198.123	0.103	-0.157
-281.501	15.243	0.092	-0.072
-280.486	170.652	-0.266	0.378
-279.472	-163.610	0.285	0.013
-278.457	126.049	-0.143	0.179
-277.443	-77.464	0.240	-0.082
-276.428	-81.637	0.182	-0.059
-275.413	75.298	-0.171	-0.178
-274.399	-43.841	0.052	-0.026
-273.384	-104.545	-0.226	-0.052
-272.370	-200.000	-0.009	0.228
-271.355	-80.909	0.324	-0.106
-270.340	-45.074	-0.159	0.079
-269.326	198.991	0.133	-0.202
-268.311	-102.977	-0.202	-0.048
-267.297	-102.814	0.162	0.038
-266.282	-121.471	0.215	0.035
-265.267	-110.754	-0.163	0.033
-264.253	-200.000	-0.010	0.394
-263.238	-200.000	0.068	0.351
-262.224	434.792	-0.033	-0.072
-261.209	49.189	0.173	-0.161
-260.195	53.951	0.135	-0.129
-259.180	486.730	0.151	-0.341
-258.165	45.836	-0.057	0.052
-257.151	800.000	0.130	0.455
-256.136	-92.900	-0.278	-0.077
-255.122	-50.279	0.216	-0.101
-254.107	-132.749	-0.161	-0.020
-253.092	-0.396	0.318	-0.224
-252.078	800.000	0.037	0.109
-251.063	306.527	-0.123	0.226
-250.049	800.000	0.184	0.510
-249.034	-109.201	0.198	0.042
-248.019	-151.325	0.160	0.012
-247.005	93.158	0.130	-0.146
-245.990	411.447	-0.130	-0.273
-244.976	800.000	0.086	-0.319
-243.961	97.159	-0.119	0.135
-242.946	-35.159	-0.298	0.161
-241.932	9.763	0.127	0.096
-240.917	-142.603	0.204	-0.020
-239.903	144.459	-0.188	-0.249
-238.888	-107.606	-0.016	0.004
-237.873	138.225	0.189	-0.246
-236.859	-154.351	-0.147	0.010
-235.844	93.867	0.210	0.235
-234.830	-200.000	0.012	0.149
-233.815	-200.000	-0.019	-0.306
-232.800	800.000	0.163	-0.494
-231.786	228.347	0.226	-0.364
-230.771	85.293	0.146	0.159
-229.757	-51.097	0.155	-0.072
-228.742	-171.205	-0.382	0.013
-227.727	175.455	0.103	0.147
-226.713	-96.236	-0.290	-0.076
-225.698	-200.000	-0.463	-0.002
-224.684	-121.783	0.086	-0.014
-223.669	62.195	-0.034	-0.034
-222.655	-200.000	0.007	0.225
-221.640	113.866	0.102	0.123
-220.625	-200.000	-0.018	-0.233
-219.611	-123.100	0.289	-0.046
-218.596	176.346	0.191	-0.274
-217.582	-92.246	0.105	-0.029
-216.567	144.702	0.133	0.176
-215.552	323.905	0.341	0.643
-214.538	800.000	0.020	0.062
-213.523	-200.000	0.006	0.155
-212.509	-119.682	0.397	-0.068
-211.494	106.471	-0.158	0.186
-210.479	-200.000	0.002	-0.055
-209.465	-66.343	-0.268	-0.105
-208.450	-55.590	0.162	0.072
-207.436	-151.700	0.436	-0.032
-206.421	2.357	0.095	0.068
-205.406	-200.000	0.011	-0.047
-204.392	20.579	-0.225	-0.180
-203.377	20.005	-0.081	-0.065
-202.363	-200.000	-0.044	0.359
-201.348	800.000	-0.043	0.123
-200.333	-84.697	-0.224	0.070
-199.319	-200.000	-0.046	0.249
-198.304	800.000	-0.081	-0.233
-197.290	208.653	-0.166	0.257
-196.275	27.798	0.132	0.110
-195.260	177.434	-0.175	-0.252
-194.246	-41.342	0.147	-0.075
-193.231	94.580	-0.058	-0.065
-192.217	-184.577	0.055	0.001
-191.202	-3.550	-0.128	-0.088
-190.187	-200.000	0.043	0.198
-189.173	59.639	0.066	-0.064
-188.158	-132.812	-0.332	-0.042
-187.144	87.235	0.139	-0.152
-186.129	-50.417	-0.159	0.074
-185.114	-27.277	-0.152	-0.088
-184.100	206.053	-0.061	-0.094
-183.085	-131.206	-0.291	-0.038
-182.071	296.791	-0.068	-0.123
-181.056	-52.875	0.209	-0.095
-180.042	-200.000	0.057	-0.298
-179.027	800.000	0.076	-0.268
-178.012	477.387	-0.079	-0.176
-176.998	0.368	0.091	0.064
-175.983	800.000	0.033	0.120
-174.969	116.929	0.168	-0.204
-173.954	-200.000	-0.016	-0.150
-172.939	-88.313	-0.116	-0.034
-171.925	98.989	0.088	0.100
-170.910	-37.624	-0.227	0.120
-169.896	-200.000	0.031	0.281
-168.881	-67.713	0.106	0.041
-167.866	800.000	0.109	-0.382
-166.852	800.000	-0.062	0.266
-165.837	-59.719	-0.162	0.068
-164.823	-200.000	-0.039	0.400
-163.808	78.686	0.203	-0.214
-162.793	-111.507	0.163	0.033
-161.779	245.259	-0.104	-0.172
-160.764	43.497	-0.175	0.158
-159.750	-200.000	0.047	0.318
-158.735	216.529	-0.086	-0.134
-157.720	23.717	0.198	0.161
-156.706	324.333	0.085	0.160
-155.691	-200.000	0.018	0.114
-154.677	-66.150	0.049	-0.019
-153.662	-67.364	-0.084	0.033
-152.647	-200.000	0.008	0.096
-151.633	-43.864	0.091	0.045
-150.618	-200.000	-0.001	-0.191
-149.604	84.384	0.193	-0.209
-148.589	-94.861	0.071	-0.019
-147.574	-200.000	0.038	-0.241
-146.560	-112.255	-0.226	0.045
-145.545	51.252	0.066	0.061
-144.531	-200.000	0.010	-0.097
-143.516	-54.243	-0.393	-0.176
-142.502	800.000	-0.035	0.116
-141.487	800.000	-0.072	-0.234
-140.472	41.219	-0.353	0.315
-139.458	-26.923	0.229	0.132
-138.443	33.239	-0.107	0.092
-137.429	-111.449	0.393	-0.079
-136.414	126.928	-0.207	0.259
-135.399	-200.000	-0.022	0.361
-134.385	-200.000	0.018	0.171
-133.370	-61.634	-0.078	-0.032
-132.356	-200.000	-0.030	-0.232
-131.341	-200.000	0.056	-0.266
-130.326	-75.172	0.233	-0.082
-129.312	29.545	0.051	0.042
-128.297	228.415	-0.129	0.207
-127.283	-29.313	0.348	0.197
-126.268	800.000	-0.070	0.259
-125.253	234.319	-0.106	0.172
-124.239	-200.000	-0.018	0.227
-123.224	690.461	-0.021	-0.055
-122.210	420.801	0.040	0.084
-121.195	74.338	0.154	0.159
