DTS Sentinel unit serial number:	SN413079Multiplexer serial number:	ORYXHardware model number:	OX4-SRSoftware version number:	ORYX F/W v4.00 Oryx Data Collector v3.7.2.0data status	okinstallation	princeton_trtdifferential loss correction	single-endedforward channel	channel 2reverse channel	N/Adate	2019/09/18time	19:03:35forward acquisition time	60.00reverse acquisition time	0.00gamma	496.2192k internal	0.2322k external	0.2322temperature offset calibration	1.0019default loss term (dB/km)	0.3790temperature slope calibration	1.0000multiplexer offset coefficient	1.0000multiplexer slope coefficient	1.0000fibre end	0.00T internal ref (°C)	35.70T ext. ref 1 (°C)	0.93T ext. ref 2 (°C)	24.84length (m)	temperature (°C)	Stokes	anti-Stokes-747.200	-22.303	0.096	-0.059
-746.185	-144.180	0.077	-0.007
-745.171	-60.402	0.177	-0.076
-744.156	-41.829	-0.341	0.177
-743.142	-119.551	-0.229	-0.040
-742.127	-200.000	-0.010	0.510
-741.112	349.083	0.028	-0.056
-740.098	-200.000	-0.038	0.251
-739.083	-101.887	-0.261	-0.064
-738.069	-118.709	-0.048	0.009
-737.054	-200.000	-0.008	-0.251
-736.039	504.242	-0.171	-0.400
-735.025	203.259	0.005	-0.008
-734.010	-40.164	-0.224	-0.118
-732.996	-200.000	-0.037	-0.165
-731.981	100.266	-0.156	-0.183
-730.966	-77.501	-0.258	-0.090
-729.952	-130.449	-0.192	-0.026
-728.937	148.150	-0.163	-0.222
-727.923	-21.798	0.277	0.170
-726.908	94.528	-0.144	0.165
-725.894	-16.522	0.401	-0.256
-724.879	-200.000	0.035	0.160
-723.864	2.369	-0.258	0.188
-722.850	-200.000	-0.031	0.150
-721.835	-125.569	0.421	0.065
-720.821	-200.000	0.073	0.343
-719.806	-15.478	0.195	0.126
-718.791	205.810	-0.173	-0.272
-717.777	125.047	-0.188	0.239
-716.762	548.694	0.181	-0.438
-715.748	26.444	-0.351	0.296
-714.733	-200.000	-0.031	0.261
-713.718	-118.773	-0.147	0.026
-712.704	800.000	-0.008	-0.030
-711.689	-109.342	0.252	0.054
-710.675	-43.444	0.213	-0.109
-709.660	-9.936	-0.388	0.260
-708.645	367.732	-0.173	0.353
-707.631	-90.964	-0.275	0.080
-706.616	-200.000	0.026	0.215
-705.602	-53.013	-0.063	-0.029
-704.587	333.995	-0.137	-0.268
-703.572	304.994	-0.089	-0.167
-702.558	284.448	-0.057	-0.103
-701.543	320.053	-0.082	-0.157
-700.529	-121.380	0.205	0.034
-699.514	-103.648	0.330	0.078
-698.499	139.349	0.182	-0.241
-697.485	-200.000	0.026	0.219
-696.470	-200.000	0.050	-0.479
-695.456	-65.186	0.117	0.047
-694.441	-200.000	0.002	0.058
-693.426	-105.517	-0.122	0.028
-692.412	-200.000	0.015	0.157
-691.397	-4.127	0.179	0.125
-690.383	32.104	-0.311	0.270
-689.368	299.031	0.130	-0.241
-688.354	800.000	-0.057	0.179
-687.339	-36.602	0.349	-0.189
-686.324	-11.264	-0.396	-0.263
-685.310	-10.048	0.321	-0.215
-684.295	-200.000	-0.057	0.317
-683.281	356.402	0.063	0.126
-682.266	-200.000	0.003	-0.450
-681.251	-120.675	0.292	0.050
-680.237	577.482	0.037	0.091
-679.222	499.228	0.083	-0.192
-678.208	-200.000	-0.008	0.124
-677.193	320.216	0.007	-0.014
-676.178	800.000	-0.031	0.134
-675.164	43.957	-0.118	-0.109
-674.149	800.000	0.097	-0.284
-673.135	-105.585	-0.181	-0.041
-672.120	-200.000	0.005	-0.120
-671.105	-200.000	-0.064	-0.366
-670.091	-200.000	-0.026	-0.322
-669.076	-9.616	-0.076	-0.051
-668.062	-4.920	-0.193	0.134
-667.047	-32.279	0.040	-0.023
-666.032	-15.841	0.232	-0.149
-665.018	-200.000	-0.045	-0.200
-664.003	164.785	0.191	-0.272
-662.989	-200.000	-0.006	-0.050
-661.974	-118.675	-0.132	-0.024
-660.959	-96.710	-0.281	0.075
-659.945	-200.000	-0.029	-0.474
-658.930	-200.000	-0.049	0.289
-657.916	-89.271	0.221	-0.066
-656.901	387.139	0.108	-0.225
-655.886	53.184	-0.108	0.105
-654.872	1.501	0.159	0.115
-653.857	-200.000	0.052	-0.264
-652.843	149.596	0.292	-0.398
-651.828	-35.142	0.059	0.032
-650.814	33.418	0.197	-0.172
-649.799	4.843	-0.104	0.077
-648.784	445.590	-0.108	0.240
-647.770	-171.069	0.058	0.002
-646.755	-200.000	-0.006	0.187
-645.741	-167.097	-0.234	-0.010
-644.726	-200.000	0.031	0.262
-643.711	-40.696	0.113	-0.059
-642.697	800.000	-0.045	0.158
-641.682	1.737	0.221	-0.160
-640.668	-1.161	0.192	0.137
-639.653	-48.548	-0.437	0.211
-638.638	61.705	-0.099	-0.100
-637.624	104.455	-0.051	0.060
-636.609	-144.794	0.147	0.014
-635.595	540.102	-0.134	0.320
-634.580	-99.667	0.147	0.037
-633.565	-200.000	-0.053	-0.355
-632.551	34.469	-0.188	0.165
-631.536	97.704	-0.230	0.266
-630.522	-67.470	0.243	0.096
-629.507	-108.433	-0.328	-0.071
-628.492	150.491	0.113	-0.154
-627.478	-8.929	-0.231	-0.155
-626.463	14.253	-0.123	0.097
-625.449	-4.931	-0.310	-0.215
-624.434	800.000	-0.042	0.120
-623.419	-156.910	-0.307	0.019
-622.405	-163.069	0.351	0.017
-621.390	-54.594	-0.144	0.066
-620.376	800.000	0.047	-0.140
-619.361	141.881	0.073	0.097
-618.346	-76.425	0.220	-0.078
-617.332	-184.634	-0.106	-0.002
-616.317	-52.823	-0.265	0.123
-615.303	-44.457	0.214	0.108
-614.288	-34.446	0.189	-0.104
-613.273	-200.000	-0.036	-0.414
-612.259	168.135	0.040	-0.057
-611.244	253.338	0.079	0.136
-610.230	-24.188	-0.156	0.094
-609.215	-45.659	0.159	-0.079
-608.201	200.482	-0.169	0.261
-607.186	-111.054	-0.401	-0.083
-606.171	-71.241	0.119	-0.045
-605.157	5.588	0.202	0.150
-604.142	-88.034	0.163	0.049
-603.128	129.419	-0.073	0.094
-602.113	-72.037	0.165	-0.061
-601.098	239.927	-0.121	0.202
-600.084	-200.000	0.012	-0.571
-599.069	-104.893	-0.215	0.050
-598.055	-132.306	0.149	0.019
-597.040	-47.597	0.145	-0.071
-596.025	218.983	-0.050	-0.081
-595.011	196.361	0.137	-0.209
-593.996	-117.803	0.261	0.047
-592.982	800.000	-0.108	-0.331
-591.967	800.000	0.077	-0.226
-590.952	-200.000	0.053	0.605
-589.938	150.417	-0.153	0.209
-588.923	585.310	-0.153	-0.378
-587.909	-4.639	0.099	0.068
-586.894	141.692	-0.163	-0.216
-585.879	-93.911	0.346	-0.096
-584.865	-200.000	-0.012	0.189
-583.850	110.870	0.237	0.286
-582.836	265.577	-0.040	-0.070
-581.821	-84.111	0.089	0.028
-580.806	-83.433	0.076	0.025
-579.792	186.891	-0.285	-0.426
-578.777	-162.632	0.182	-0.009
-577.763	-200.000	0.015	0.233
-576.748	122.628	-0.085	0.106
-575.733	-24.213	0.281	-0.168
-574.719	-10.655	0.223	-0.148
-573.704	-200.000	-0.023	-0.376
-572.690	-200.000	-0.013	-0.157
-571.675	-44.463	0.316	0.159
-570.661	-200.000	-0.003	0.244
-569.646	62.258	-0.174	0.174
-568.631	-73.448	-0.142	-0.052
-567.617	-60.769	0.119	-0.050
-566.602	35.392	0.385	0.339
-565.588	-142.731	-0.221	0.022
-564.573	502.246	0.175	0.406
-563.558	-200.000	0.007	0.235
-562.544	800.000	0.090	0.329
-561.529	-80.694	-0.126	-0.042
-560.515	-25.573	0.114	0.067
-559.500	-173.268	0.057	0.002
-558.485	58.320	0.160	0.158
-557.471	662.671	0.088	-0.228
-556.456	-76.352	0.133	0.047
-555.442	-153.395	0.046	0.003
-554.427	139.055	0.227	0.299
-553.412	97.720	0.146	-0.169
-552.398	-200.000	-0.021	0.151
-551.383	-200.000	-0.002	-0.131
-550.369	143.507	-0.051	0.068
-549.354	-200.000	0.014	0.151
-548.339	124.690	0.210	-0.265
-547.325	209.374	-0.202	-0.317
-546.310	-103.782	0.178	-0.042
-545.296	-62.962	0.380	-0.158
-544.281	-126.073	-0.146	0.022
-543.266	-70.263	0.116	-0.044
-542.252	-200.000	-0.013	0.088
-541.237	132.240	0.149	0.192
-540.223	76.602	-0.087	-0.093
-539.208	800.000	0.082	0.238
-538.193	-129.456	-0.273	0.038
-537.179	60.787	0.206	0.205
-536.164	10.754	-0.178	0.136
-535.150	800.000	0.077	0.333
-534.135	-109.110	-0.398	0.085
-533.121	-145.297	-0.308	-0.028
-532.106	-80.302	0.246	0.083
-531.091	-200.000	0.073	-0.374
-530.077	-200.000	0.016	-0.213
-529.062	-46.675	-0.349	0.171
-528.048	9.710	-0.218	-0.166
-527.033	-200.000	0.043	-0.279
-526.018	52.907	0.095	0.091
-525.004	800.000	0.055	0.156
-523.989	106.926	-0.292	0.348
-522.975	-155.361	0.214	0.014
-521.960	421.219	-0.094	-0.202
-520.945	8.252	-0.209	0.158
-519.931	168.519	-0.054	-0.077
-518.916	65.687	-0.073	-0.074
-517.902	-200.000	0.014	-0.138
-516.887	42.302	-0.137	-0.124
-515.872	-200.000	-0.014	-0.115
-514.858	800.000	-0.040	0.171
-513.843	-110.015	0.068	0.014
-512.829	397.125	0.153	-0.319
-511.814	-200.000	0.056	-0.325
-510.799	83.607	0.098	-0.107
-509.785	-200.000	0.047	-0.254
-508.770	168.801	0.137	0.195
-507.756	-66.248	0.237	-0.094
-506.741	-73.672	-0.067	0.024
-505.726	408.679	0.105	0.223
-504.712	-200.000	-0.021	0.126
-503.697	-200.000	-0.026	-0.202
-502.683	698.281	0.029	0.076
-501.668	-128.426	-0.269	0.038
-500.653	-129.444	0.174	0.024
-499.639	39.481	0.050	-0.045
-498.624	343.996	-0.067	-0.131
-497.610	800.000	-0.065	-0.222
-496.595	-122.528	-0.344	0.056
-495.581	163.756	0.084	-0.118
-494.566	185.376	-0.187	0.278
-493.551	473.429	-0.139	0.314
-492.537	800.000	0.079	-0.219
-491.522	25.692	0.141	0.118
-490.508	-200.000	-0.008	0.155
-489.493	271.411	-0.072	-0.127
-488.478	-92.806	0.189	0.053
-487.464	59.875	0.130	0.129
-486.449	-36.053	0.453	0.245
-485.435	661.724	0.133	0.342
-484.420	-34.466	0.171	0.094
-483.405	-200.000	-0.029	-0.283
-482.391	-200.000	0.003	0.027
-481.376	-58.335	0.171	-0.074
-480.362	-74.086	0.142	-0.052
-479.347	37.548	-0.163	-0.144
-478.332	241.386	-0.139	0.232
-477.318	239.821	-0.094	-0.156
-476.303	-73.900	0.190	-0.069
-475.289	800.000	0.057	-0.200
-474.274	307.175	0.036	-0.067
-473.259	-57.417	-0.248	0.109
-472.245	422.686	-0.063	0.135
-471.230	-182.921	-0.028	0.001
-470.216	800.000	-0.080	-0.243
-469.201	800.000	0.100	0.278
-468.186	800.000	-0.024	-0.071
-467.172	143.019	-0.114	0.151
-466.157	-107.894	-0.229	-0.050
-465.143	-200.000	0.051	-0.248
-464.128	-200.000	-0.012	-0.485
-463.113	-100.072	-0.245	0.061
-462.099	60.472	-0.076	0.075
-461.084	60.599	-0.246	-0.243
-460.070	236.386	0.086	-0.143
-459.055	-200.000	0.044	-0.456
-458.040	-8.863	0.099	0.066
-457.026	-200.000	-0.064	-0.293
-456.011	-44.649	-0.250	-0.125
-454.997	-132.425	0.248	-0.032
-453.982	91.921	0.271	-0.304
-452.968	-140.388	0.387	-0.040
-451.953	200.730	0.134	-0.205
-450.938	725.326	0.068	-0.182
-449.924	800.000	-0.079	-0.238
-448.909	-200.000	0.037	0.177
-447.895	-200.000	0.020	0.341
-446.880	-90.296	0.228	-0.066
-445.865	81.056	-0.141	-0.152
-444.851	581.997	-0.130	-0.318
-443.836	216.944	0.098	0.156
-442.822	293.183	0.080	-0.145
-441.807	-200.000	-0.043	-0.287
-440.792	800.000	0.047	-0.146
-439.778	-200.000	0.005	-0.200
-438.763	276.561	-0.094	0.167
-437.749	-200.000	0.013	0.194
-436.734	44.160	0.239	0.218
-435.719	369.142	-0.203	-0.409
-434.705	-200.000	0.004	0.130
-433.690	-74.665	0.166	-0.060
-432.676	506.185	0.037	-0.085
-431.661	-63.393	-0.070	-0.029
-430.646	56.503	-0.111	0.108
-429.632	-64.252	0.124	0.050
-428.617	-65.163	-0.191	-0.077
-427.603	102.341	0.079	0.092
-426.588	800.000	0.046	-0.172
-425.573	90.767	0.182	0.204
-424.559	-200.000	-0.014	-0.183
-423.544	-200.000	-0.015	0.190
-422.530	672.609	-0.055	-0.142
-421.515	800.000	-0.102	-0.389
-420.500	-17.672	-0.271	-0.170
-419.486	-171.538	-0.064	-0.002
-418.471	667.943	-0.016	-0.041
-417.457	-147.918	-0.165	-0.014
-416.442	133.055	-0.086	0.111
-415.428	-28.860	0.120	-0.069
-414.413	-200.000	0.046	-0.373
-413.398	143.547	-0.172	-0.229
-412.384	233.822	-0.128	-0.210
-411.369	-51.913	0.093	-0.043
-410.355	-59.690	0.176	-0.075
-409.340	777.097	0.065	0.178
-408.325	-2.636	-0.108	-0.075
-407.311	-68.905	0.146	-0.056
-406.296	234.509	0.155	0.255
-405.282	-140.804	-0.130	-0.013
-404.267	-31.042	-0.206	0.116
-403.252	-187.418	0.208	0.003
-402.238	-200.000	-0.285	-0.001
-401.223	76.582	0.074	-0.079
-400.209	579.954	0.084	-0.205
-399.194	-200.000	-0.014	0.198
-398.179	-200.000	-0.032	0.328
-397.165	-63.791	-0.043	-0.018
-396.150	-200.000	0.023	0.321
-395.136	-94.442	-0.206	0.056
-394.121	800.000	0.083	-0.248
-393.106	800.000	0.065	0.210
-392.092	255.565	-0.120	-0.204
-391.077	232.586	-0.066	-0.108
-390.063	-87.619	0.163	0.049
-389.048	-62.262	-0.138	-0.057
-388.033	415.178	0.115	-0.243
-387.019	-200.000	-0.006	-0.293
-386.004	-200.000	-0.001	0.040
-384.990	20.702	-0.331	-0.267
-383.975	-47.838	0.140	-0.068
-382.960	50.465	0.103	-0.097
-381.946	-200.000	-0.019	0.249
-380.931	-117.374	-0.287	0.052
-379.917	498.022	0.094	0.214
-378.902	64.023	0.145	-0.145
-377.888	-174.824	-0.204	-0.006
-376.873	-63.514	-0.350	-0.143
-375.858	158.428	0.130	-0.179
-374.844	-66.672	0.367	-0.145
-373.829	-31.814	0.220	0.123
-372.815	-200.000	0.054	0.237
-371.800	69.743	0.035	-0.036
-370.785	-200.000	-0.011	-0.255
-369.771	-200.000	-0.014	-0.104
-368.756	-11.196	0.195	-0.128
-367.742	73.874	-0.135	0.141
-366.727	-63.430	0.077	0.032
-365.712	48.543	-0.134	-0.125
-364.698	168.039	0.246	-0.348
-363.683	7.328	-0.127	-0.094
-362.669	-57.336	0.158	-0.069
-361.654	-34.555	-0.153	-0.083
-360.639	72.663	0.017	-0.018
-359.625	-106.689	0.385	0.085
-358.610	-200.000	-0.005	0.139
-357.596	-82.998	0.259	0.083
-356.581	-87.883	-0.267	-0.080
-355.566	151.188	-0.002	0.003
-354.552	200.096	0.148	0.226
-353.537	165.081	0.125	0.176
-352.523	-104.801	0.280	0.064
-351.508	337.180	-0.166	-0.320
-350.493	180.698	0.043	-0.062
-349.479	-200.000	0.005	-0.047
-348.464	37.221	0.068	-0.060
-347.450	-154.116	0.340	-0.023
-346.435	-200.000	-0.024	-0.111
-345.420	-200.000	-0.001	-0.025
-344.406	-11.222	0.182	-0.119
-343.391	-10.349	0.309	-0.204
-342.377	-36.325	-0.245	0.131
-341.362	86.288	-0.118	0.129
-340.348	-200.000	0.024	-0.192
-339.333	-138.465	0.382	-0.042
-338.318	-200.000	0.018	-0.095
-337.304	301.599	0.212	0.389
-336.289	-27.214	0.256	0.148
-335.275	182.465	-0.249	-0.365
-334.260	800.000	0.055	-0.165
-333.245	800.000	-0.028	-0.094
-332.231	151.568	-0.381	0.516
-331.216	-200.000	-0.001	-0.011
-330.202	-200.000	-0.006	0.093
-329.187	-66.482	-0.124	-0.049
-328.172	-149.042	-0.239	0.019
-327.158	-115.773	0.153	0.029
-326.143	-37.373	-0.285	-0.151
-325.129	118.971	0.220	0.270
-324.114	-58.364	-0.269	0.116
-323.099	314.968	-0.114	0.213
-322.085	-16.432	-0.171	-0.108
-321.070	21.417	0.295	-0.238
-320.056	-75.155	-0.092	-0.033
-319.041	197.751	-0.101	0.153
-318.026	-149.306	-0.283	-0.022
-317.012	800.000	-0.093	0.259
-315.997	-200.000	-0.034	-0.173
-314.983	-122.441	-0.381	0.062
-313.968	-128.343	-0.163	0.023
-312.953	457.085	0.155	0.343
-311.939	-158.095	-0.242	-0.014
-310.924	-41.746	0.178	0.091
-309.910	-82.883	0.162	0.052
-308.895	19.516	0.267	0.213
-307.880	-10.674	0.365	0.240
-306.866	188.760	0.075	-0.111
-305.851	-200.000	0.028	0.204
-304.837	107.602	0.074	-0.088
-303.822	-200.000	-0.035	-0.286
-302.807	88.949	0.317	-0.350
-301.793	-2.378	0.297	-0.207
-300.778	-47.181	-0.085	-0.041
-299.764	52.489	-0.138	0.131
-298.749	232.480	-0.069	0.112
-297.735	800.000	-0.112	-0.316
-296.720	25.250	0.111	-0.092
-295.705	34.628	-0.230	-0.200
-294.691	800.000	0.117	0.477
-293.676	-51.796	-0.092	0.042
-292.662	666.612	0.022	-0.056
-291.647	579.876	0.086	-0.208
-290.632	27.414	0.068	0.057
-289.618	-200.000	-0.034	0.262
-288.603	-11.133	0.134	0.088
-287.589	800.000	0.069	-0.189
-286.574	-144.656	0.113	0.010
-285.559	-161.543	-0.133	0.007
-284.545	98.872	-0.196	-0.224
-283.530	-142.305	0.202	0.020
-282.516	800.000	-0.070	-0.233
-281.501	263.538	0.025	-0.043
-280.486	-75.565	-0.130	-0.046
-279.472	800.000	0.073	-0.272
-278.457	147.674	0.092	-0.123
-277.443	-37.084	0.085	-0.045
-276.428	-82.275	0.060	-0.019
-275.413	-114.195	0.128	-0.025
-274.399	-200.000	0.113	-0.498
-273.384	-200.000	-0.087	0.514
-272.370	66.682	-0.116	-0.117
-271.355	416.409	-0.081	0.171
-270.340	-97.552	0.220	0.057
-269.326	30.886	-0.244	0.207
-268.311	-200.000	-0.021	0.226
-267.297	356.846	0.061	0.121
-266.282	800.000	0.058	0.208
-265.267	496.750	0.155	0.353
-264.253	-200.000	-0.068	0.395
-263.238	-200.000	0.018	0.264
-262.224	288.079	-0.078	0.139
-261.209	-79.977	0.190	-0.063
-260.195	-77.259	0.215	-0.074
-259.180	-76.209	-0.241	0.084
-258.165	318.875	-0.296	0.556
-257.151	-120.290	-0.046	-0.008
-256.136	800.000	0.035	-0.101
-255.122	44.513	-0.207	0.188
-254.107	11.536	0.251	0.191
-253.092	800.000	0.118	0.432
-252.078	160.744	0.218	-0.301
-251.063	136.475	-0.067	-0.087
-250.049	97.914	0.136	-0.155
-249.034	297.512	-0.200	-0.364
-248.019	75.961	0.335	-0.351
-247.005	154.288	-0.168	0.229
-245.990	-200.000	-0.031	-0.152
-244.976	-161.846	-0.064	0.003
-243.961	429.831	0.157	0.336
-242.946	9.151	0.165	-0.124
-241.932	-200.000	-0.005	-0.131
-240.917	-200.000	0.010	0.064
-239.903	266.299	0.102	0.177
-238.888	204.689	0.234	0.360
-237.873	206.303	0.037	0.057
-236.859	19.997	-0.267	-0.213
-235.844	-80.700	-0.109	-0.036
-234.830	-128.595	-0.057	-0.008
-233.815	-67.968	0.030	0.011
-232.800	-200.000	0.035	0.299
-231.786	-200.000	0.049	0.254
-230.771	800.000	0.036	-0.123
-229.757	42.992	0.131	-0.118
-228.742	-55.130	-0.495	-0.220
-227.727	23.907	-0.056	-0.045
-226.713	732.614	-0.046	-0.122
-225.698	-200.000	0.003	-0.236
-224.684	-14.497	0.256	0.163
-223.669	189.528	-0.014	0.020
-222.655	21.849	-0.319	0.258
-221.640	378.689	-0.100	0.202
-220.625	800.000	-0.005	0.021
-219.611	-44.803	-0.479	-0.236
-218.596	-104.356	0.397	-0.091
-217.582	611.139	-0.079	-0.196
-216.567	-200.000	-0.036	-0.434
-215.552	191.912	-0.068	-0.102
-214.538	15.508	-0.095	0.074
-213.523	-200.000	0.031	0.270
-212.509	31.846	-0.325	-0.277
-211.494	-79.647	-0.341	-0.114
-210.479	160.106	0.037	-0.050
-209.465	576.139	-0.181	0.437
-208.450	-95.657	0.167	0.044
-207.436	-200.000	0.004	-0.144
-206.421	600.424	0.047	-0.117
-205.406	100.357	-0.097	-0.112
-204.392	-9.964	-0.184	0.121
-203.377	-186.567	0.057	0.001
-202.363	65.733	-0.179	0.179
-201.348	148.425	-0.139	0.185
-200.333	41.269	-0.088	0.078
-199.319	56.067	0.221	-0.212
-198.304	51.943	-0.127	-0.119
-197.290	-56.894	-0.182	-0.080
-196.275	-48.722	-0.302	0.143
-195.260	146.730	0.100	0.133
-194.246	-18.261	-0.033	-0.021
-193.231	-97.912	0.145	0.037
-192.217	282.103	0.068	-0.120
-191.202	800.000	-0.031	-0.127
-190.187	-135.999	-0.394	-0.046
-189.173	-67.496	-0.233	0.090
-188.158	-0.292	0.243	-0.171
-187.144	800.000	0.036	0.144
-186.129	-147.427	0.161	0.013
-185.114	647.924	0.050	0.126
-184.100	-20.740	-0.205	0.124
-183.085	94.950	-0.137	0.154
-182.071	499.720	0.026	0.060
-181.056	800.000	0.034	0.114
-180.042	-136.191	0.047	0.005
-179.027	-107.948	-0.254	-0.055
-178.012	-200.000	-0.070	0.310
-176.998	-165.927	0.268	-0.011
-175.983	-78.143	-0.202	-0.069
-174.969	175.214	-0.333	0.477
-173.954	-76.373	-0.086	0.030
-172.939	-135.518	0.045	-0.005
-171.925	-200.000	-0.010	0.160
-170.910	313.448	0.079	0.148
-169.896	20.413	0.100	-0.080
-168.881	-92.056	-0.115	0.032
-167.866	73.095	-0.277	0.286
-166.852	-200.000	0.019	0.118
-165.837	-200.000	-0.011	0.066
-164.823	37.981	-0.459	-0.403
-163.808	800.000	-0.096	0.386
-162.793	800.000	0.111	0.343
-161.779	800.000	0.045	0.126
-160.764	314.280	-0.061	0.113
-159.750	-44.835	-0.199	0.098
-158.735	-200.000	-0.029	-0.193
-157.720	25.597	0.024	-0.019
-156.706	-28.184	0.236	0.135
-155.691	-58.383	0.173	-0.074
-154.677	-200.000	0.040	-0.299
-153.662	373.794	-0.056	0.113
-152.647	35.403	0.168	0.146
-151.633	-33.389	0.215	-0.117
-150.618	800.000	-0.019	-0.069
-149.604	113.077	-0.234	0.280
-148.589	638.769	0.233	0.586
-147.574	-88.039	0.083	0.025
-146.560	76.843	0.107	-0.112
-145.545	3.416	-0.083	0.060
-144.531	-71.237	0.301	0.111
-143.516	-200.000	0.010	0.277
-142.502	-122.524	0.156	0.025
-141.487	-16.828	-0.187	0.117
-140.472	800.000	0.084	-0.231
-139.458	-143.683	-0.367	0.034
-138.443	-152.904	0.325	-0.023
-137.429	-13.249	0.446	-0.286
-136.414	629.224	0.037	0.093
-135.399	-97.572	-0.276	-0.071
-134.385	-75.361	-0.127	-0.045
-133.370	32.360	-0.125	0.106
-132.356	800.000	0.060	0.240
-131.341	-15.303	0.172	0.109
-130.326	36.217	0.166	-0.144
-129.312	109.777	-0.098	0.116
-128.297	800.000	-0.017	0.053
-127.283	800.000	0.089	0.362
-126.268	284.306	-0.063	-0.113
-125.253	96.469	0.078	-0.088
-124.239	-75.864	0.103	-0.036
-123.224	6.222	0.040	0.029
-122.210	-95.921	-0.235	-0.062
-121.195	-86.885	-0.063	-0.019
