DTS Sentinel unit serial number:	SN413079Multiplexer serial number:	ORYXHardware model number:	OX4-SRSoftware version number:	ORYX F/W v4.00 Oryx Data Collector v3.7.2.0data status	okinstallation	princeton_trtdifferential loss correction	single-endedforward channel	channel 2reverse channel	N/Adate	2019/09/16time	06:43:35forward acquisition time	60.00reverse acquisition time	0.00gamma	496.2192k internal	0.2334k external	0.2334temperature offset calibration	0.9981default loss term (dB/km)	0.3790temperature slope calibration	1.0000multiplexer offset coefficient	1.0000multiplexer slope coefficient	1.0000fibre end	0.00T internal ref (°C)	27.37T ext. ref 1 (°C)	11.43T ext. ref 2 (°C)	21.89length (m)	temperature (°C)	Stokes	anti-Stokes-747.200	98.964	-0.238	0.276
-746.185	316.683	-0.114	0.216
-745.171	114.359	-0.066	-0.081
-744.156	-200.000	0.014	0.088
-743.142	457.256	-0.081	-0.180
-742.127	273.184	-0.102	0.182
-741.112	800.000	-0.088	-0.316
-740.098	-95.944	0.155	-0.041
-739.083	-200.000	-0.002	-0.060
-738.069	-200.000	-0.052	0.402
-737.054	97.369	-0.061	0.070
-736.039	-26.988	-0.130	-0.076
-735.025	282.645	-0.080	0.144
-734.010	800.000	0.008	0.028
-732.996	-157.456	-0.393	-0.024
-731.981	-113.902	0.125	0.024
-730.966	23.474	0.150	0.124
-729.952	-50.491	-0.231	0.110
-728.937	217.710	-0.111	-0.177
-727.923	198.564	-0.202	-0.310
-726.908	628.707	-0.198	-0.502
-725.894	31.014	-0.172	-0.149
-724.879	26.034	0.028	0.024
-723.864	138.835	0.101	0.133
-722.850	-61.736	-0.159	-0.067
-721.835	-200.000	0.011	-0.192
-720.821	-11.712	-0.256	-0.169
-719.806	539.751	0.052	0.125
-718.791	77.003	-0.036	-0.038
-717.777	-200.000	0.011	0.169
-716.762	-97.059	-0.217	-0.057
-715.748	800.000	-0.038	0.112
-714.733	-41.127	0.274	0.142
-713.718	-96.098	-0.516	0.138
-712.704	-133.237	0.123	0.016
-711.689	-200.000	-0.004	-0.256
-710.675	-16.903	-0.135	-0.086
-709.660	594.848	-0.028	-0.068
-708.645	-159.615	-0.322	-0.018
-707.631	-200.000	0.021	0.112
-706.616	137.492	-0.066	-0.087
-705.602	576.263	0.085	-0.209
-704.587	57.576	0.161	-0.158
-703.572	-88.033	0.132	-0.040
-702.558	-200.000	0.016	0.142
-701.543	-82.423	0.055	-0.018
-700.529	-133.323	-0.253	0.032
-699.514	800.000	0.080	-0.287
-698.499	322.207	0.027	0.052
-697.485	-82.430	0.148	-0.048
-696.470	-79.661	-0.297	0.100
-695.456	-14.032	-0.509	0.330
-694.441	-200.000	-0.028	0.128
-693.426	-70.452	-0.168	-0.064
-692.412	94.490	-0.101	0.115
-691.397	90.234	-0.168	-0.188
-690.383	148.289	-0.271	0.367
-689.368	-200.000	0.013	0.204
-688.354	-22.106	0.033	-0.020
-687.339	-40.092	0.190	-0.099
-686.324	-17.090	0.347	0.220
-685.310	-200.000	-0.027	-0.148
-684.295	800.000	-0.014	-0.047
-683.281	-72.315	-0.152	0.057
-682.266	264.398	0.104	-0.182
-681.251	-164.717	-0.125	-0.006
-680.237	-55.198	-0.202	-0.091
-679.222	179.119	0.043	-0.064
-678.208	-107.392	0.165	0.036
-677.193	-200.000	-0.042	0.278
-676.178	426.475	0.090	-0.195
-675.164	6.210	0.067	-0.050
-674.149	-200.000	0.028	0.318
-673.135	-90.630	0.254	-0.074
-672.120	264.886	-0.153	0.268
-671.105	118.765	0.270	0.335
-670.091	126.330	0.144	-0.183
-669.076	-110.867	-0.300	-0.062
-668.062	9.647	-0.289	0.219
-667.047	-25.827	-0.254	0.150
-666.032	-200.000	-0.003	-0.529
-665.018	-200.000	0.038	-0.355
-664.003	-200.000	-0.021	0.222
-662.989	-27.718	0.251	0.146
-661.974	800.000	-0.053	-0.190
-660.959	13.109	-0.193	0.149
-659.945	5.808	0.141	0.105
-658.930	-200.000	-0.042	-0.252
-657.916	800.000	-0.036	0.123
-656.901	165.224	-0.051	0.072
-655.886	-123.344	-0.322	0.051
-654.872	800.000	0.051	0.194
-653.857	15.821	0.121	0.096
-652.843	-200.000	-0.000	-0.031
-651.828	344.861	-0.094	-0.186
-650.814	-200.000	-0.009	-0.189
-649.799	-119.204	0.123	0.021
-648.784	73.543	-0.081	-0.085
-647.770	-51.700	0.233	-0.109
-646.755	-23.618	-0.045	-0.027
-645.741	203.312	-0.066	0.102
-644.726	63.320	-0.185	0.186
-643.711	-74.581	0.206	0.074
-642.697	-200.000	0.046	0.240
-641.682	800.000	-0.014	-0.040
-640.668	76.918	0.106	-0.113
-639.653	227.052	-0.063	-0.103
-638.638	-152.828	0.170	0.012
-637.624	-37.568	0.466	0.249
-636.609	234.987	-0.044	-0.073
-635.595	-73.527	0.141	0.052
-634.580	408.891	-0.115	0.243
-633.565	444.652	0.095	0.208
-632.551	-181.308	-0.264	0.005
-631.536	-145.179	-0.202	-0.018
-630.522	-152.794	-0.153	0.011
-629.507	128.731	0.085	0.109
-628.492	340.090	-0.116	0.226
-627.478	26.023	0.234	-0.196
-626.463	-107.124	-0.102	-0.023
-625.449	-200.000	-0.012	-0.179
-624.434	-128.459	0.134	0.019
-623.419	-72.127	0.264	0.098
-622.405	14.375	0.092	0.072
-621.390	-169.739	-0.063	0.002
-620.376	-81.679	0.109	-0.036
-619.361	-200.000	-0.025	0.172
-618.346	-128.594	0.117	0.017
-617.332	133.150	-0.025	0.033
-616.317	-200.000	0.015	-0.365
-615.303	-184.405	0.113	0.002
-614.288	-200.000	-0.000	-0.411
-613.273	36.368	-0.181	-0.160
-612.259	-117.510	0.191	-0.035
-611.244	-74.034	0.074	-0.027
-610.230	124.980	-0.274	0.345
-609.215	-58.238	0.306	0.133
-608.201	36.272	-0.105	0.093
-607.186	-133.377	-0.130	0.016
-606.171	-200.000	-0.036	-0.213
-605.157	144.666	0.155	0.207
-604.142	-175.868	0.051	0.001
-603.128	800.000	0.091	-0.325
-602.113	-127.803	0.330	0.048
-601.098	800.000	0.063	0.232
-600.084	153.696	-0.236	0.324
-599.069	-69.211	0.070	0.027
-598.055	-144.800	0.209	-0.019
-597.040	-93.399	-0.066	-0.018
-596.025	-129.415	0.377	0.052
-595.011	102.192	-0.097	-0.113
-593.996	-92.705	0.202	-0.057
-592.982	223.364	0.264	0.426
-591.967	-81.599	-0.249	-0.082
-590.952	-200.000	0.017	0.146
-589.938	342.493	0.075	0.146
-588.923	800.000	0.063	0.176
-587.909	-107.575	-0.143	-0.031
-586.894	-153.747	-0.058	-0.004
-585.879	-37.307	0.235	-0.125
-584.865	55.919	0.067	0.065
-583.850	702.998	0.068	-0.178
-582.836	-200.000	0.026	-0.506
-581.821	-11.827	0.062	0.041
-580.806	132.585	0.029	-0.038
-579.792	11.867	-0.148	0.113
-578.777	262.346	-0.162	0.281
-577.763	400.526	-0.076	0.160
-576.748	-200.000	0.006	0.084
-575.733	-200.000	0.005	-0.062
-574.719	800.000	0.034	-0.117
-573.704	-19.888	-0.146	0.090
-572.690	155.646	-0.257	-0.353
-571.675	-69.653	0.277	-0.106
-570.661	-130.855	-0.230	-0.031
-569.646	27.034	-0.115	-0.096
-568.631	-160.070	0.365	-0.020
-567.617	-157.076	-0.347	0.021
-566.602	-200.000	0.067	-0.295
-565.588	169.595	0.178	0.253
-564.573	121.785	-0.185	0.231
-563.558	-105.977	-0.251	0.056
-562.544	-67.719	-0.438	-0.171
-561.529	613.852	0.079	0.197
-560.515	-200.000	0.013	-0.254
-559.500	-193.940	0.394	0.003
-558.485	-200.000	0.012	0.136
-557.471	17.349	-0.009	-0.007
-556.456	800.000	0.058	-0.199
-555.442	-124.371	0.196	-0.031
-554.427	-193.649	0.290	-0.002
-553.412	158.895	0.104	-0.143
-552.398	162.410	-0.195	-0.272
-551.383	76.426	0.107	-0.113
-550.369	592.871	-0.096	-0.236
-549.354	-162.399	-0.324	0.016
-548.339	-189.860	0.205	-0.002
-547.325	-195.807	0.064	0.000
-546.310	-200.000	-0.052	0.300
-545.296	75.140	-0.181	-0.191
-544.281	-28.954	-0.313	0.179
-543.266	800.000	0.124	-0.352
-542.252	-200.000	0.007	-0.094
-541.237	74.843	-0.234	-0.246
-540.223	-10.791	-0.231	0.152
-539.208	-14.693	0.088	0.056
-538.193	-30.367	0.377	-0.214
-537.179	-172.943	0.418	-0.013
-536.164	-11.971	-0.196	-0.128
-535.150	-164.232	-0.152	0.007
-534.135	174.865	0.117	0.168
-533.121	126.134	0.118	0.148
-532.106	21.143	-0.310	-0.251
-531.091	527.772	0.019	0.045
-530.077	-200.000	0.024	0.292
-529.062	-77.840	0.186	-0.064
-528.048	-55.332	-0.284	-0.127
-527.033	-200.000	-0.021	0.192
-526.018	415.299	-0.105	-0.223
-525.004	35.742	0.219	0.192
-523.989	-200.000	-0.027	-0.165
-522.975	14.678	0.409	-0.318
-521.960	-79.534	-0.018	-0.006
-520.945	-60.876	-0.079	0.033
-519.931	339.717	0.182	-0.355
-518.916	172.161	-0.019	0.027
-517.902	-200.000	-0.054	-0.305
-516.887	800.000	0.139	-0.413
-515.872	-105.038	-0.405	0.092
-514.858	800.000	0.035	0.103
-513.843	48.970	-0.126	-0.118
-512.829	-200.000	0.019	-0.274
-511.814	-200.000	-0.017	0.164
-510.799	-12.048	-0.114	-0.074
-509.785	-69.151	0.099	0.038
-508.770	432.364	0.101	-0.217
-507.756	560.753	0.044	0.106
-506.741	-93.517	0.134	-0.037
-505.726	34.541	0.105	-0.091
-504.712	18.912	0.079	-0.063
-503.697	349.137	-0.120	0.235
-502.683	-200.000	-0.008	0.121
-501.668	-41.898	-0.112	-0.057
-500.653	-5.022	-0.169	-0.116
-499.639	-200.000	0.000	0.023
-498.624	-200.000	-0.010	0.062
-497.610	-103.699	0.147	-0.034
-496.595	24.002	0.180	-0.148
-495.581	-200.000	0.030	0.151
-494.566	45.168	-0.242	0.222
-493.551	-200.000	0.034	-0.267
-492.537	-104.087	0.304	-0.071
-491.522	-200.000	-0.071	0.314
-490.508	-200.000	0.011	-0.078
-489.493	26.280	-0.240	-0.199
-488.478	-11.049	-0.176	-0.115
-487.464	-177.030	-0.134	-0.003
-486.449	-154.223	-0.407	0.027
-485.435	208.156	-0.215	0.334
-484.420	-200.000	-0.010	0.071
-483.405	-120.638	0.184	0.031
-482.391	-23.321	0.112	0.067
-481.376	-200.000	-0.046	-0.265
-480.362	-23.063	0.220	0.132
-479.347	-200.000	0.003	0.159
-478.332	120.282	-0.014	0.017
-477.318	800.000	-0.051	-0.193
-476.303	155.210	0.042	0.058
-475.289	-67.623	-0.162	0.063
-474.274	27.670	0.307	0.257
-473.259	55.341	0.180	0.174
-472.245	-200.000	0.002	-0.033
-471.230	39.421	-0.061	0.055
-470.216	518.920	0.086	-0.201
-469.201	-200.000	-0.038	-0.202
-468.186	-74.741	-0.121	-0.043
-467.172	-180.373	-0.248	-0.005
-466.157	-14.316	0.273	-0.175
-465.143	-17.683	-0.226	0.141
-464.128	106.763	-0.332	0.391
-463.113	-39.486	-0.440	0.229
-462.099	-36.095	0.121	0.065
-461.084	-200.000	-0.029	-0.151
-460.070	-133.702	0.050	-0.006
-459.055	241.305	0.052	0.086
-458.040	175.420	0.087	0.125
-457.026	-200.000	0.028	0.329
-456.011	332.446	0.115	-0.221
-454.997	800.000	-0.153	-0.491
-453.982	-200.000	0.043	0.390
-452.968	-9.312	0.119	0.079
-451.953	-125.414	0.091	0.014
-450.938	-200.000	-0.028	0.259
-449.924	800.000	0.093	0.275
-448.909	-77.952	0.439	-0.150
-447.895	35.424	0.079	-0.069
-446.880	800.000	-0.039	0.146
-445.865	34.686	0.052	-0.045
-444.851	194.781	0.185	0.279
-443.836	540.890	0.046	-0.108
-442.822	-170.116	-0.297	-0.010
-441.807	-62.166	0.120	-0.050
-440.792	-167.093	0.299	0.012
-439.778	-131.300	0.308	-0.041
-438.763	-36.032	0.326	0.175
-437.749	-200.000	0.017	-0.433
-436.734	-34.326	0.138	0.075
-435.719	800.000	0.014	-0.045
-434.705	-65.448	0.057	0.023
-433.690	100.101	-0.151	-0.174
-432.676	-200.000	0.011	-0.131
-431.661	-60.100	-0.087	0.037
-430.646	-200.000	0.001	0.110
-429.632	166.293	0.124	0.174
-428.617	-45.877	-0.148	0.073
-427.603	-200.000	0.008	0.480
-426.588	-200.000	-0.036	-0.264
-425.573	684.381	0.085	0.219
-424.559	215.884	0.149	-0.235
-423.544	-91.397	0.466	-0.132
-422.530	-81.445	0.111	-0.036
-421.515	169.745	0.208	0.295
-420.500	-55.984	-0.279	-0.123
-419.486	-74.747	-0.101	-0.036
-418.471	705.144	0.073	0.192
-417.457	798.132	-0.027	0.073
-416.442	92.714	0.017	0.019
-415.428	800.000	0.087	-0.243
-414.413	154.333	-0.141	-0.192
-413.398	-40.359	0.190	0.098
-412.384	-200.000	-0.001	0.013
-411.369	-26.660	0.220	0.127
-410.355	47.127	0.192	0.177
-409.340	-64.790	0.314	0.126
-408.325	46.506	0.334	-0.307
-407.311	701.068	0.076	0.198
-406.296	800.000	0.030	0.120
-405.282	48.462	-0.045	-0.041
-404.267	-200.000	0.016	0.288
-403.252	-69.446	0.115	-0.044
-402.238	-200.000	0.008	0.039
-401.223	43.052	-0.102	-0.092
-400.209	-200.000	0.002	-0.165
-399.194	265.163	-0.193	-0.334
-398.179	-149.783	0.205	-0.016
-397.165	4.207	0.341	0.248
-396.150	148.206	-0.087	-0.116
-395.136	-89.480	-0.108	0.031
-394.121	-119.000	-0.255	-0.044
-393.106	-200.000	0.016	-0.216
-392.092	93.770	-0.227	0.255
-391.077	-88.522	-0.082	0.024
-390.063	71.254	-0.294	-0.302
-389.048	130.676	0.059	0.075
-388.033	-191.354	-0.316	0.003
-387.019	-200.000	-0.009	-0.062
-386.004	71.484	-0.020	0.020
-384.990	159.772	-0.199	-0.275
-383.975	-98.581	0.172	0.043
-382.960	800.000	-0.031	0.097
-381.946	405.633	0.086	0.181
-380.931	-85.078	-0.135	0.042
-379.917	800.000	-0.043	0.154
-378.902	-145.928	0.127	0.011
-377.888	32.562	0.272	-0.233
-376.873	-38.236	-0.373	0.196
-375.858	289.678	-0.028	0.050
-374.844	-22.999	-0.128	0.076
-373.829	707.789	0.050	-0.131
-372.815	375.993	0.186	-0.375
-371.800	-70.997	0.042	0.016
-370.785	70.558	-0.175	0.179
-369.771	-69.308	-0.322	0.123
-368.756	-200.000	-0.031	0.230
-367.742	-47.360	-0.184	0.089
-366.727	-200.000	-0.004	-0.217
-365.712	-119.991	0.105	0.018
-364.698	278.629	0.055	0.097
-363.683	-33.488	-0.097	-0.053
-362.669	-200.000	0.015	0.068
-361.654	-129.199	0.209	0.029
-360.639	-200.000	-0.096	-0.000
-359.625	353.462	-0.092	-0.181
-358.610	-114.419	-0.234	0.045
-357.596	296.112	0.104	0.188
-356.581	45.604	-0.181	0.165
-355.566	-200.000	0.045	-0.201
-354.552	-151.445	0.115	-0.008
-353.537	260.892	0.097	-0.167
-352.523	-163.181	0.196	-0.009
-351.508	-200.000	-0.039	0.397
-350.493	213.447	-0.280	-0.438
-349.479	-200.000	-0.003	0.094
-348.464	-200.000	-0.034	-0.239
-347.450	-200.000	0.004	0.284
-346.435	-14.057	-0.188	-0.120
-345.420	50.147	-0.443	-0.414
-344.406	53.836	0.348	0.331
-343.391	-200.000	-0.039	-0.223
-342.377	800.000	-0.110	0.336
-341.362	-20.765	0.187	0.114
-340.348	82.055	-0.078	0.083
-339.333	800.000	0.047	-0.165
-338.318	-78.085	0.164	-0.056
-337.304	-6.326	0.160	-0.108
-336.289	800.000	0.106	0.311
-335.275	-8.650	-0.184	0.122
-334.260	-200.000	-0.024	0.271
-333.245	-150.552	0.119	-0.009
-332.231	277.556	0.073	-0.129
-331.216	800.000	0.040	0.119
-330.202	-200.000	0.003	-0.104
-329.187	63.773	0.111	-0.111
-328.172	-94.215	-0.148	0.040
-327.158	-34.674	-0.370	-0.200
-326.143	-200.000	-0.002	0.075
-325.129	-200.000	-0.002	-0.112
-324.114	-141.224	0.146	-0.015
-323.099	60.965	0.212	0.208
-322.085	716.899	-0.050	0.130
-321.070	-2.727	-0.195	-0.135
-320.056	800.000	-0.075	0.251
-319.041	-186.166	0.323	0.005
-318.026	225.815	-0.051	0.081
-317.012	295.870	0.123	-0.224
-315.997	-200.000	0.005	0.295
-314.983	800.000	0.147	0.505
-313.968	70.620	-0.190	0.195
-312.953	-200.000	-0.027	0.118
-311.939	137.549	-0.190	-0.245
-310.924	-130.295	0.043	-0.006
-309.910	-200.000	-0.001	-0.077
-308.895	800.000	0.024	-0.067
-307.880	-7.188	0.194	0.130
-306.866	800.000	-0.113	0.382
-305.851	-4.035	-0.293	0.201
-304.837	-114.201	0.250	-0.048
-303.822	-200.000	0.007	-0.067
-302.807	71.220	-0.228	0.234
-301.793	195.354	-0.169	-0.254
-300.778	348.190	0.188	-0.366
-299.764	-45.657	-0.203	0.099
-298.749	76.131	0.301	0.314
-297.735	-42.293	-0.364	-0.183
-296.720	10.742	0.259	0.195
-295.705	-6.377	-0.165	-0.111
-294.691	800.000	-0.141	0.440
-293.676	-200.000	-0.044	-0.233
-292.662	-11.937	0.377	0.244
-291.647	545.573	0.099	0.233
-290.632	-55.904	-0.096	0.042
-289.618	566.134	0.110	0.263
-288.603	-200.000	0.037	0.296
-287.589	-108.589	-0.310	-0.066
-286.574	800.000	-0.078	0.229
-285.559	-112.351	-0.474	0.094
-284.545	-18.207	0.031	-0.019
-283.530	35.992	-0.269	-0.233
-282.516	-16.201	-0.066	0.042
-281.501	217.809	0.050	-0.079
-280.486	4.101	-0.176	-0.127
-279.472	29.797	-0.113	-0.095
-278.457	145.401	0.100	-0.133
-277.443	123.836	-0.138	0.171
-276.428	22.813	-0.447	-0.362
-275.413	800.000	0.097	-0.328
-274.399	70.657	0.121	-0.123
-273.384	-15.848	0.213	-0.134
-272.370	30.052	0.185	-0.155
-271.355	397.440	-0.167	-0.344
-270.340	22.601	-0.110	0.089
-269.326	-86.608	-0.102	0.031
-268.311	-68.406	0.049	0.019
-267.297	-35.052	-0.105	-0.057
-266.282	-145.728	0.245	0.022
-265.267	641.060	-0.111	-0.278
-264.253	278.024	0.100	-0.176
-263.238	175.598	0.234	-0.335
-262.224	-160.127	-0.395	-0.021
-261.209	-200.000	0.006	0.198
-260.195	-200.000	-0.035	-0.396
-259.180	181.431	0.154	-0.224
-258.165	100.861	-0.364	0.417
-257.151	46.708	-0.322	0.295
-256.136	800.000	-0.053	0.164
-255.122	698.411	-0.123	0.318
-254.107	-200.000	-0.001	-0.083
-253.092	-162.207	0.109	0.005
-252.078	-91.871	0.343	0.096
-251.063	98.818	0.085	0.097
-250.049	-55.998	0.303	0.133
-249.034	800.000	0.134	-0.388
-248.019	-52.909	0.257	0.117
-247.005	423.301	0.144	0.305
-245.990	-200.000	0.020	-0.105
-244.976	800.000	-0.121	-0.360
-243.961	83.612	0.205	0.220
-242.946	79.747	0.267	0.283
-241.932	283.469	-0.146	0.258
-240.917	721.846	0.080	-0.211
-239.903	162.264	-0.032	-0.045
-238.888	-41.568	0.246	-0.125
-237.873	86.453	0.205	0.222
-236.859	70.183	0.112	0.114
-235.844	30.275	-0.011	-0.009
-234.830	47.268	-0.130	-0.120
-233.815	-95.752	-0.170	-0.045
-232.800	-152.359	-0.151	-0.011
-231.786	737.014	-0.072	-0.191
-230.771	-88.248	-0.283	0.083
-229.757	-54.781	0.226	0.100
-228.742	76.275	-0.116	0.122
-227.727	-70.203	0.226	-0.085
-226.713	-200.000	0.030	0.311
-225.698	11.075	-0.188	-0.142
-224.684	-52.349	0.231	0.105
-223.669	84.406	0.100	-0.108
-222.655	182.814	-0.095	-0.138
-221.640	-35.839	0.285	0.152
-220.625	-153.773	-0.332	0.022
-219.611	333.814	0.018	0.034
-218.596	-38.483	0.209	0.109
-217.582	155.219	-0.133	-0.180
-216.567	-51.966	0.205	-0.094
-215.552	-200.000	-0.033	-0.159
-214.538	16.972	0.241	-0.188
-213.523	-66.706	-0.124	0.048
-212.509	403.829	0.079	0.163
-211.494	-121.792	-0.453	0.074
-210.479	-130.703	0.397	-0.053
-209.465	-200.000	-0.062	0.283
-208.450	79.636	-0.196	-0.207
-207.436	70.150	-0.110	-0.111
-206.421	296.203	0.108	-0.195
-205.406	293.840	-0.081	-0.146
-204.392	85.438	-0.136	0.147
-203.377	528.676	0.019	-0.044
-202.363	-22.231	0.146	0.087
-201.348	562.033	-0.069	0.164
-200.333	380.209	0.081	0.164
-199.319	-125.576	-0.275	-0.041
-198.304	-47.082	-0.151	-0.072
-197.290	-200.000	0.023	0.252
-196.275	189.611	0.065	-0.095
-195.260	-103.544	-0.104	0.024
-194.246	-98.233	-0.059	0.015
-193.231	-200.000	0.009	0.038
-192.217	385.224	-0.138	-0.281
-191.202	-200.000	0.009	-0.139
-190.187	169.317	-0.079	0.111
-189.173	-53.811	-0.152	-0.068
-188.158	-26.450	0.306	0.176
-187.144	384.087	-0.201	-0.408
-186.129	-54.244	-0.400	-0.179
-185.114	800.000	-0.040	0.144
-184.100	14.619	0.118	0.091
-183.085	13.105	-0.387	-0.294
-182.071	31.730	-0.153	-0.129
-181.056	-200.000	0.071	-0.363
-180.042	88.366	-0.119	-0.130
-179.027	218.754	0.069	-0.108
-178.012	-74.918	-0.122	0.043
-176.998	598.864	-0.042	-0.102
-175.983	203.380	-0.022	-0.034
-174.969	-104.708	0.015	0.003
-173.954	-200.000	-0.009	-0.136
-172.939	800.000	-0.002	-0.008
-171.925	-80.730	-0.052	0.017
-170.910	-200.000	0.026	0.181
-169.896	270.967	-0.045	0.077
-168.881	-19.770	-0.316	0.192
-167.866	-100.801	-0.266	0.064
-166.852	-67.682	0.248	-0.095
-165.837	103.868	-0.025	-0.029
-164.823	-200.000	0.016	-0.171
-163.808	-200.000	0.023	-0.175
-162.793	-200.000	0.077	-0.362
-161.779	-57.535	-0.468	-0.202
-160.764	276.475	-0.045	-0.078
-159.750	-174.562	-0.493	0.014
-158.735	250.250	0.043	0.072
-157.720	-131.769	-0.238	0.031
-156.706	410.198	-0.059	-0.122
-155.691	326.427	0.116	0.218
-154.677	-147.667	0.586	0.048
-153.662	55.958	0.003	-0.003
-152.647	-89.648	-0.034	0.010
-151.633	-122.261	0.235	0.038
-150.618	491.561	-0.053	0.120
-149.604	-200.000	0.038	-0.242
-148.589	800.000	0.091	-0.291
-147.574	-81.891	0.392	-0.126
-146.560	-10.610	0.381	0.247
-145.545	288.064	-0.103	0.183
-144.531	218.520	0.188	-0.294
-143.516	-39.281	-0.142	-0.073
-142.502	-131.662	-0.227	0.029
-141.487	84.328	-0.022	0.024
-140.472	135.513	-0.163	-0.208
-139.458	184.043	0.160	-0.233
-138.443	800.000	-0.066	0.185
-137.429	-121.534	-0.315	-0.051
-136.414	-47.060	0.344	-0.165
-135.399	180.252	-0.241	0.347
-134.385	-200.000	-0.032	0.158
-133.370	-52.820	-0.148	0.067
-132.356	121.474	-0.088	0.107
-131.341	-73.329	-0.353	0.127
-130.326	-200.000	0.014	-0.075
-129.312	-154.281	-0.034	0.002
-128.297	149.885	-0.102	0.136
-127.283	159.314	0.164	0.224
-126.268	-105.864	-0.223	0.049
-125.253	181.347	-0.093	-0.134
-124.239	-132.719	-0.216	-0.027
-123.224	471.909	0.091	-0.202
-122.210	2.514	0.266	-0.189
