DTS Sentinel unit serial number:	SN413079Multiplexer serial number:	ORYXHardware model number:	OX4-SRSoftware version number:	ORYX F/W v4.00 Oryx Data Collector v3.7.2.0data status	okinstallation	princeton_trtdifferential loss correction	single-endedforward channel	channel 2reverse channel	N/Adate	2019/09/16time	06:03:35forward acquisition time	60.00reverse acquisition time	0.00gamma	496.2192k internal	0.2334k external	0.2334temperature offset calibration	0.9977default loss term (dB/km)	0.3790temperature slope calibration	1.0000multiplexer offset coefficient	1.0000multiplexer slope coefficient	1.0000fibre end	0.00T internal ref (°C)	27.44T ext. ref 1 (°C)	11.27T ext. ref 2 (°C)	22.02length (m)	temperature (°C)	Stokes	anti-Stokes-747.200	800.000	-0.092	0.319
-746.185	309.904	-0.111	0.209
-745.171	-29.107	0.262	0.151
-744.156	-200.000	-0.002	0.179
-743.142	-200.000	0.003	-0.136
-742.127	-200.000	-0.032	0.160
-741.112	-128.745	0.175	-0.025
-740.098	-87.529	-0.207	0.063
-739.083	-63.829	0.212	-0.087
-738.069	-48.737	-0.184	0.089
-737.054	-47.071	-0.072	-0.035
-736.039	-112.143	-0.166	-0.033
-735.025	188.950	0.200	0.301
-734.010	101.149	-0.294	-0.344
-732.996	335.445	-0.120	-0.234
-731.981	182.918	-0.090	0.133
-730.966	800.000	0.076	-0.315
-729.952	-98.924	-0.171	-0.044
-728.937	800.000	0.066	0.259
-727.923	497.096	-0.181	-0.419
-726.908	-106.299	-0.254	-0.057
-725.894	-123.424	-0.277	0.044
-724.879	169.115	0.040	-0.057
-723.864	-36.096	0.122	0.066
-722.850	109.212	0.105	-0.126
-721.835	800.000	0.103	-0.421
-720.821	55.810	0.083	-0.081
-719.806	-76.363	0.425	-0.150
-718.791	10.013	-0.157	-0.120
-717.777	223.154	-0.103	-0.166
-716.762	-84.718	-0.357	-0.113
-715.748	-200.000	0.039	-0.293
-714.733	-63.192	0.231	-0.096
-713.718	114.521	0.231	0.282
-712.704	-15.158	-0.092	-0.059
-711.689	-31.648	-0.155	0.087
-710.675	800.000	0.116	0.349
-709.660	127.695	0.120	0.153
-708.645	800.000	-0.016	0.068
-707.631	-81.540	-0.209	-0.069
-706.616	-200.000	0.061	0.421
-705.602	22.325	-0.191	0.156
-704.587	800.000	-0.057	0.220
-703.572	-46.193	-0.043	0.021
-702.558	241.438	0.181	0.304
-701.543	800.000	-0.098	-0.294
-700.529	-200.000	-0.007	-0.142
-699.514	-200.000	0.036	-0.160
-698.499	-200.000	-0.022	0.383
-697.485	91.564	-0.107	0.121
-696.470	290.107	0.071	-0.129
-695.456	496.580	-0.032	0.073
-694.441	-100.158	0.195	-0.049
-693.426	-161.540	-0.324	-0.017
-692.412	-142.902	0.122	-0.012
-691.397	-13.257	-0.351	-0.228
-690.383	-32.627	-0.124	-0.069
-689.368	164.395	0.131	0.186
-688.354	42.385	-0.176	-0.160
-687.339	-69.162	-0.171	-0.066
-686.324	322.462	-0.096	-0.184
-685.310	147.395	-0.121	-0.163
-684.295	12.120	0.153	0.118
-683.281	-200.000	0.038	0.219
-682.266	-34.056	0.155	0.086
-681.251	-71.829	0.186	-0.070
-680.237	63.121	0.247	-0.248
-679.222	623.962	-0.025	0.063
-678.208	9.904	-0.125	0.095
-677.193	-98.968	-0.278	0.071
-676.178	72.789	-0.187	-0.196
-675.164	239.715	-0.183	-0.306
-674.149	208.648	0.215	-0.338
-673.135	-200.000	0.011	-0.070
-672.120	800.000	-0.024	-0.070
-671.105	-74.518	0.355	-0.128
-670.091	92.856	-0.325	-0.368
-669.076	615.678	-0.199	-0.499
-668.062	36.564	0.143	0.127
-667.047	-79.676	0.092	0.031
-666.032	106.437	-0.283	-0.337
-665.018	-200.000	-0.001	-0.101
-664.003	-200.000	-0.046	-0.365
-662.989	-3.674	0.089	0.062
-661.974	-3.590	-0.083	-0.058
-660.959	-117.741	-0.168	0.030
-659.945	-96.472	0.111	-0.029
-658.930	-200.000	-0.004	-0.028
-657.916	46.267	0.156	0.145
-656.901	-75.717	-0.185	-0.066
-655.886	-154.890	-0.269	0.018
-654.872	800.000	-0.090	-0.258
-653.857	800.000	0.044	0.146
-652.843	-82.150	0.145	-0.047
-651.828	94.457	-0.057	-0.064
-650.814	-156.621	-0.257	-0.016
-649.799	-53.526	-0.314	0.144
-648.784	-100.296	0.243	-0.060
-647.770	-38.159	0.058	-0.031
-646.755	798.100	0.083	-0.228
-645.741	167.778	-0.180	-0.256
-644.726	514.459	0.091	-0.212
-643.711	-116.918	0.265	-0.049
-642.697	-112.223	0.351	0.070
-641.682	61.986	0.091	0.091
-640.668	800.000	0.105	-0.326
-639.653	11.075	0.131	0.100
-638.638	-150.607	-0.110	-0.008
-637.624	-112.248	-0.175	-0.035
-636.609	-99.609	-0.130	0.033
-635.595	800.000	-0.027	-0.100
-634.580	-6.561	-0.377	-0.257
-633.565	-21.481	-0.038	0.023
-632.551	7.955	-0.126	0.094
-631.536	800.000	0.100	-0.276
-630.522	130.901	-0.062	-0.080
-629.507	310.285	-0.013	-0.025
-628.492	-104.217	0.152	-0.035
-627.478	-99.306	-0.323	0.081
-626.463	-200.000	-0.017	-0.205
-625.449	-24.996	-0.223	0.132
-624.434	-200.000	0.014	-0.204
-623.419	7.788	0.022	0.017
-622.405	800.000	-0.060	0.251
-621.390	-200.000	-0.008	-0.187
-620.376	15.309	0.153	0.120
-619.361	161.360	0.064	-0.090
-618.346	-105.005	0.223	-0.051
-617.332	-82.356	0.294	-0.096
-616.317	-126.577	0.229	0.034
-615.303	-200.000	0.079	-0.376
-614.288	289.187	-0.043	0.079
-613.273	-104.528	0.153	-0.035
-612.259	-16.989	0.070	-0.044
-611.244	127.832	-0.144	0.183
-610.230	-110.352	0.121	-0.025
-609.215	16.641	-0.137	0.109
-608.201	-26.711	0.093	0.054
-607.186	8.536	-0.169	0.127
-606.171	-36.206	-0.206	0.111
-605.157	-109.832	0.241	-0.051
-604.142	426.732	-0.070	0.151
-603.128	-31.524	0.129	0.073
-602.113	118.744	-0.039	0.048
-601.098	-200.000	0.001	0.122
-600.084	86.994	-0.095	-0.105
-599.069	-38.310	0.397	-0.210
-598.055	-126.548	-0.201	0.030
-597.040	-72.460	-0.332	-0.123
-596.025	67.749	0.064	0.066
-595.011	773.110	0.161	0.439
-593.996	93.468	0.198	-0.223
-592.982	800.000	-0.071	0.228
-591.967	456.655	-0.049	0.109
-590.952	57.475	0.095	0.092
-589.938	800.000	0.070	-0.216
-588.923	-152.695	-0.234	-0.017
-587.909	800.000	0.015	0.059
-586.894	204.512	0.163	0.253
-585.879	580.941	-0.111	-0.273
-584.865	-75.039	0.404	0.144
-583.850	800.000	0.070	-0.263
-582.836	592.342	-0.070	0.172
-581.821	-200.000	-0.031	-0.255
-580.806	-119.645	-0.156	-0.027
-579.792	303.774	-0.082	0.151
-578.777	-200.000	-0.062	-0.408
-577.763	196.146	0.101	-0.154
-576.748	132.835	-0.285	-0.368
-575.733	104.825	-0.167	0.196
-574.719	17.296	-0.250	-0.198
-573.704	442.808	-0.048	0.104
-572.690	11.969	0.263	-0.202
-571.675	186.556	-0.215	-0.319
-570.661	-86.887	0.067	0.020
-569.646	68.715	0.086	-0.088
-568.631	-87.622	-0.151	-0.045
-567.617	-200.000	-0.006	-0.261
-566.602	-32.375	-0.257	-0.143
-565.588	-109.893	0.352	-0.074
-564.573	-200.000	-0.006	0.186
-563.558	-77.464	0.172	-0.060
-562.544	724.386	-0.039	0.105
-561.529	-108.158	-0.420	0.091
-560.515	139.124	0.077	-0.101
-559.500	-200.000	-0.084	-0.000
-558.485	-154.894	0.065	0.004
-557.471	-200.000	-0.019	-0.181
-556.456	-14.649	0.141	-0.090
-555.442	-2.798	0.029	0.020
-554.427	-25.203	-0.120	-0.071
-553.412	260.833	0.125	-0.215
-552.398	169.876	-0.141	-0.202
-551.383	800.000	-0.013	-0.047
-550.369	-88.988	0.225	0.066
-549.354	-122.038	-0.198	-0.032
-548.339	800.000	0.026	-0.098
-547.325	186.983	-0.162	-0.241
-546.310	13.309	0.129	-0.100
-545.296	227.393	-0.223	0.362
-544.281	42.657	0.203	-0.184
-543.266	-120.033	-0.208	-0.036
-542.252	-200.000	-0.045	0.292
-541.237	-200.000	-0.024	0.164
-540.223	-22.442	0.367	0.222
-539.208	16.999	0.294	-0.232
-538.193	180.123	-0.013	0.020
-537.179	-164.849	-0.111	-0.005
-536.164	134.094	-0.093	-0.120
-535.150	-192.711	0.301	0.003
-534.135	328.338	-0.172	-0.328
-533.121	4.980	-0.065	0.047
-532.106	-19.194	0.465	0.288
-531.091	119.757	0.148	0.183
-530.077	179.568	-0.104	0.151
-529.062	57.241	0.285	0.277
-528.048	-200.000	0.034	0.167
-527.033	366.070	-0.020	0.041
-526.018	440.955	-0.153	0.334
-525.004	-149.324	-0.119	-0.009
-523.989	-82.388	-0.164	0.053
-522.975	561.516	-0.114	-0.274
-521.960	800.000	-0.066	-0.283
-520.945	-79.544	0.052	0.017
-519.931	800.000	-0.035	0.111
-518.916	-11.185	0.085	-0.056
-517.902	-200.000	-0.025	0.219
-516.887	302.626	-0.214	0.395
-515.872	-66.008	-0.404	-0.161
-514.858	257.618	-0.014	-0.024
-513.843	78.199	0.163	-0.173
-512.829	-122.348	-0.271	-0.044
-511.814	-200.000	-0.000	0.019
-510.799	-156.383	-0.356	-0.022
-509.785	69.386	0.090	-0.092
-508.770	-34.339	0.157	-0.086
-507.756	-200.000	-0.008	0.113
-506.741	-73.789	0.438	-0.158
-505.726	-200.000	0.037	-0.194
-504.712	150.037	0.035	-0.047
-503.697	-200.000	0.024	0.122
-502.683	-200.000	0.011	-0.189
-501.668	101.131	0.023	-0.027
-500.653	-82.100	-0.221	0.072
-499.639	-124.930	-0.199	0.031
-498.624	770.548	0.064	0.175
-497.610	235.547	-0.192	0.315
-496.595	-200.000	-0.013	0.140
-495.581	-200.000	-0.049	-0.249
-494.566	-11.479	-0.126	0.082
-493.551	79.401	0.121	0.129
-492.537	133.836	0.197	0.254
-491.522	-180.847	-0.377	-0.008
-490.508	-19.584	0.155	-0.095
-489.493	800.000	0.055	-0.230
-488.478	-140.534	-0.229	-0.024
-487.464	800.000	0.050	-0.157
-486.449	67.610	-0.108	-0.110
-485.435	-99.920	-0.144	0.036
-484.420	-182.530	-0.257	0.005
-483.405	460.183	-0.069	-0.152
-482.391	-14.279	0.049	-0.031
-481.376	175.949	0.065	-0.093
-480.362	-200.000	-0.012	-0.089
-479.347	-200.000	0.047	-0.272
-478.332	18.418	-0.093	0.074
-477.318	4.671	-0.043	-0.031
-476.303	-109.978	-0.209	-0.043
-475.289	224.771	0.209	0.336
-474.274	-200.000	0.029	-0.135
-473.259	63.446	-0.219	-0.219
-472.245	240.389	-0.065	0.108
-471.230	165.336	-0.119	0.167
-470.216	-37.755	-0.436	0.231
-469.201	-77.785	0.228	0.078
-468.186	90.479	-0.049	0.054
-467.172	-33.101	-0.237	0.131
-466.157	-5.025	0.254	0.174
-465.143	-111.226	-0.362	-0.074
-464.128	363.858	0.017	0.034
-463.113	-168.704	0.141	0.005
-462.099	-15.200	0.208	0.132
-461.084	800.000	0.118	0.346
-460.070	152.091	-0.280	-0.380
-459.055	-52.149	0.082	-0.038
-458.040	605.189	0.118	-0.292
-457.026	31.791	-0.260	0.222
-456.011	-200.000	-0.013	-0.133
-454.997	-84.072	0.208	-0.066
-453.982	-49.333	-0.284	0.135
-452.968	-75.892	0.236	0.083
-451.953	201.496	0.056	-0.086
-450.938	800.000	-0.112	-0.467
-449.924	515.272	-0.088	0.204
-448.909	377.079	-0.153	0.310
-447.895	537.907	0.125	-0.294
-446.880	-133.003	-0.176	0.022
-445.865	-13.909	0.112	0.072
-444.851	2.391	0.235	0.169
-443.836	61.119	0.203	0.200
-442.822	-42.684	-0.301	-0.152
-441.807	-8.881	0.049	0.032
-440.792	-57.637	0.286	-0.124
-439.778	119.632	-0.174	0.214
-438.763	670.644	-0.180	0.463
-437.749	-136.094	0.353	0.041
-436.734	-165.666	0.494	-0.021
-435.719	-62.460	0.172	0.071
-434.705	258.904	-0.085	-0.145
-433.690	-180.450	0.155	0.003
-432.676	-59.954	-0.154	0.065
-431.661	38.677	-0.134	0.119
-430.646	6.728	0.097	-0.072
-429.632	8.515	0.189	-0.141
-428.617	-18.014	0.152	-0.095
-427.603	442.886	0.038	0.083
-426.588	-168.262	-0.251	0.010
-425.573	-133.292	-0.234	-0.029
-424.559	800.000	-0.013	0.054
-423.544	-200.000	-0.047	0.247
-422.530	-200.000	0.050	-0.379
-421.515	-65.773	0.220	0.087
-420.500	174.173	0.024	-0.034
-419.486	-5.253	-0.344	0.235
-418.471	233.285	0.172	0.281
-417.457	653.576	-0.113	0.289
-416.442	-200.000	-0.021	0.162
-415.428	800.000	0.127	-0.477
-414.413	-200.000	-0.005	-0.078
-413.398	-200.000	0.006	-0.061
-412.384	-200.000	0.017	-0.261
-411.369	-200.000	-0.028	0.245
-410.355	559.069	0.133	-0.318
-409.340	-56.673	-0.176	0.077
-408.325	-200.000	-0.000	0.011
-407.311	-118.866	0.216	-0.038
-406.296	-200.000	0.081	-0.388
-405.282	-58.509	-0.306	-0.132
-404.267	-200.000	-0.088	0.494
-403.252	36.261	0.184	0.160
-402.238	-50.883	0.224	-0.105
-401.223	-200.000	0.028	0.217
-400.209	106.948	-0.291	-0.342
-399.194	-112.984	0.189	-0.037
-398.179	-19.179	0.097	0.060
-397.165	-59.847	0.142	0.060
-396.150	-49.060	-0.134	0.064
-395.136	800.000	0.109	-0.460
-394.121	211.579	0.100	0.155
-393.106	800.000	-0.072	-0.213
-392.092	550.548	0.093	0.220
-391.077	-64.020	-0.446	-0.181
-390.063	-122.987	-0.316	0.050
-389.048	-18.051	0.297	-0.184
-388.033	-8.772	-0.280	0.186
-387.019	-45.484	0.369	-0.181
-386.004	-20.909	-0.390	-0.237
-384.990	-200.000	-0.129	-0.654
-383.975	-88.347	-0.349	-0.103
-382.960	-133.952	-0.130	-0.016
-381.946	129.772	-0.078	0.099
-380.931	334.831	0.035	-0.068
-379.917	304.035	-0.049	-0.090
-378.902	-37.064	-0.246	-0.130
-377.888	800.000	0.104	0.346
-376.873	441.058	0.102	-0.221
-375.858	-28.769	0.191	-0.109
-374.844	-200.000	-0.039	-0.269
-373.829	-70.296	-0.339	-0.127
-372.815	-107.240	0.387	0.084
-371.800	-200.000	-0.001	0.055
-370.785	574.208	0.084	0.202
-369.771	800.000	-0.083	0.360
-368.756	-59.368	-0.070	-0.030
-367.742	-200.000	-0.022	-0.106
-366.727	195.466	-0.199	0.300
-365.712	150.033	0.106	-0.143
-364.698	-16.897	-0.122	-0.076
-363.683	252.647	0.031	0.052
-362.669	68.205	0.044	-0.045
-361.654	-183.958	-0.341	-0.006
-360.639	-113.621	-0.390	0.075
-359.625	-200.000	-0.010	-0.091
-358.610	-101.695	0.177	-0.043
-357.596	-5.812	-0.349	0.237
-356.581	800.000	-0.023	0.095
-355.566	-29.700	-0.051	-0.029
-354.552	-9.185	0.157	-0.104
-353.537	-11.345	0.121	-0.079
-352.523	614.477	-0.152	0.377
-351.508	-101.772	0.274	0.066
-350.493	-67.521	-0.038	-0.015
-349.479	-75.861	0.124	0.043
-348.464	75.448	0.191	0.200
-347.450	-53.385	0.230	0.104
-346.435	103.759	0.403	-0.468
-345.420	158.858	-0.101	-0.139
-344.406	-169.159	0.245	0.009
-343.391	-200.000	0.081	-0.473
-342.377	103.810	0.300	-0.349
-341.362	-47.703	0.157	0.075
-340.348	407.190	-0.154	0.321
-339.333	507.828	0.105	-0.242
-338.318	-200.000	-0.044	0.221
-337.304	-127.602	0.108	0.015
-336.289	800.000	-0.043	0.141
-335.275	-200.000	0.037	-0.266
-334.260	800.000	-0.020	-0.079
-333.245	-200.000	-0.017	0.091
-332.231	603.009	0.085	0.210
-331.216	-65.817	0.183	0.072
-330.202	-178.434	-0.210	-0.005
-329.187	408.556	0.128	0.268
-328.172	-176.987	-0.272	0.007
-327.158	44.369	-0.154	-0.140
-326.143	-200.000	0.034	-0.234
-325.129	800.000	0.091	-0.296
-324.114	32.592	0.066	-0.057
-323.099	350.112	0.143	0.279
-322.085	-23.194	0.429	-0.255
-321.070	-7.490	-0.304	-0.204
-320.056	114.136	-0.121	0.145
-319.041	800.000	0.121	0.363
-318.026	383.803	0.102	-0.207
-317.012	16.328	0.128	-0.100
-315.997	-32.788	0.124	0.068
-314.983	-200.000	0.009	0.141
-313.968	284.508	-0.033	0.059
-312.953	800.000	0.086	-0.274
-311.939	-56.675	0.505	-0.221
-310.924	56.706	-0.222	0.213
-309.910	159.116	-0.066	0.091
-308.895	271.094	0.180	0.314
-307.880	-200.000	-0.026	0.389
-306.866	468.315	-0.146	-0.323
-305.851	-78.162	-0.363	-0.123
-304.837	-42.873	0.230	0.115
-303.822	-149.428	0.150	-0.012
-302.807	800.000	0.098	0.274
-301.793	-106.692	0.273	-0.060
-300.778	-200.000	0.017	0.104
-299.764	34.078	0.097	0.083
-298.749	-200.000	0.007	-0.093
-297.735	11.445	0.317	-0.240
-296.720	-80.935	-0.291	-0.095
-295.705	-200.000	-0.017	-0.115
-294.691	-93.155	0.007	-0.002
-293.676	170.654	-0.134	-0.190
-292.662	-150.444	0.138	-0.010
-291.647	-200.000	-0.055	0.396
-290.632	-200.000	-0.071	-0.308
-289.618	430.675	-0.089	0.190
-288.603	97.338	0.246	0.278
-287.589	195.157	0.098	-0.147
-286.574	-80.348	0.372	-0.123
-285.559	-72.874	0.354	0.128
-284.545	178.823	-0.158	0.228
-283.530	-200.000	-0.049	0.237
-282.516	146.180	0.083	-0.110
-281.501	800.000	-0.085	-0.232
-280.486	-200.000	0.045	0.253
-279.472	76.331	0.168	0.175
-278.457	-200.000	0.003	0.072
-277.443	86.633	-0.127	-0.138
-276.428	681.250	-0.096	0.247
-275.413	575.333	-0.088	-0.211
-274.399	48.519	-0.379	0.350
-273.384	-129.170	0.343	-0.047
-272.370	6.776	0.200	0.147
-271.355	138.316	-0.147	0.190
-270.340	138.247	-0.090	0.117
-269.326	23.728	0.024	0.020
-268.311	-122.349	0.141	-0.023
-267.297	-158.974	-0.163	-0.009
-266.282	-158.718	0.089	0.005
-265.267	-84.433	0.126	-0.039
-264.253	223.902	0.096	0.153
-263.238	636.616	0.070	0.175
-262.224	800.000	0.044	0.155
-261.209	-200.000	-0.050	-0.242
-260.195	-200.000	-0.013	-0.295
-259.180	-77.722	0.135	-0.046
-258.165	-160.084	0.164	-0.009
-257.151	-200.000	0.094	0.446
-256.136	-136.915	-0.335	-0.038
-255.122	800.000	0.066	-0.229
-254.107	79.299	0.058	-0.061
-253.092	127.397	0.264	0.330
-252.078	-200.000	-0.068	0.351
-251.063	47.860	-0.148	0.136
-250.049	633.830	0.114	-0.285
-249.034	-151.778	-0.356	-0.026
-248.019	521.640	0.021	-0.048
-247.005	-156.873	-0.340	-0.021
-245.990	246.768	0.103	-0.171
-244.976	157.589	-0.293	0.400
-243.961	-1.731	0.104	-0.072
-242.946	13.959	-0.082	0.063
-241.932	-200.000	-0.034	-0.217
-240.917	-91.512	0.214	0.060
-239.903	188.347	0.064	-0.094
-238.888	-200.000	-0.020	0.092
-237.873	6.303	-0.305	-0.223
-236.859	256.561	-0.131	0.221
-235.844	153.213	-0.087	0.118
-234.830	176.322	-0.236	0.338
-233.815	800.000	0.116	-0.323
-232.800	800.000	-0.009	-0.026
-231.786	-200.000	0.426	0.000
-230.771	515.338	0.165	0.380
-229.757	33.050	0.194	0.166
-228.742	800.000	0.100	-0.328
-227.727	-77.590	0.412	-0.140
-226.713	692.680	-0.031	-0.079
-225.698	800.000	-0.083	-0.307
-224.684	-200.000	0.062	0.376
-223.669	37.887	0.118	0.103
-222.655	-117.825	0.106	-0.019
-221.640	-119.961	-0.069	0.012
-220.625	800.000	-0.119	-0.390
-219.611	-24.061	-0.368	-0.217
-218.596	-29.318	0.476	-0.269
-217.582	355.941	0.073	0.143
-216.567	-114.271	0.219	0.042
-215.552	-200.000	0.045	-0.283
-214.538	447.700	-0.043	-0.093
-213.523	-94.544	-0.198	-0.053
-212.509	-55.899	-0.248	0.109
-211.494	153.876	0.191	-0.257
-210.479	-200.000	0.000	0.257
-209.465	800.000	-0.065	0.278
-208.450	69.579	-0.162	0.164
-207.436	-18.314	-0.152	-0.093
-206.421	-102.697	0.298	-0.070
-205.406	123.800	0.034	0.043
-204.392	-143.480	-0.066	-0.006
-203.377	336.829	0.059	-0.112
-202.363	-20.542	-0.100	-0.060
-201.348	162.499	0.107	-0.148
-200.333	-125.631	-0.084	0.013
-199.319	800.000	0.132	0.404
-198.304	-65.873	0.316	-0.124
-197.290	800.000	-0.029	0.083
-196.275	700.268	-0.056	-0.144
-195.260	-200.000	-0.064	0.325
-194.246	98.153	-0.134	0.152
-193.231	52.510	0.145	0.136
-192.217	489.905	-0.036	-0.082
-191.202	684.700	-0.044	-0.112
-190.187	-137.067	-0.265	-0.030
-189.173	47.038	-0.106	-0.097
-188.158	-200.000	0.034	0.195
-187.144	0.380	0.031	0.021
-186.129	-1.579	-0.051	-0.035
-185.114	-113.693	-0.195	0.037
-184.100	-200.000	0.051	0.367
-183.085	-17.671	-0.196	0.121
-182.071	-118.174	-0.165	-0.029
-181.056	-42.329	0.135	0.068
-180.042	-63.892	-0.356	0.143
-179.027	800.000	0.022	0.072
-178.012	114.878	-0.177	-0.212
-176.998	111.278	-0.199	0.235
-175.983	134.520	-0.099	0.127
-174.969	-200.000	-0.038	0.331
-173.954	134.633	-0.206	0.263
-172.939	275.761	0.077	0.135
-171.925	-200.000	-0.005	-0.065
-170.910	-200.000	-0.003	-0.224
-169.896	-31.143	-0.228	-0.127
-168.881	108.192	0.148	-0.173
-167.866	33.714	-0.182	-0.155
-166.852	-134.451	-0.306	0.037
-165.837	800.000	0.169	0.460
-164.823	-122.043	0.278	-0.045
-163.808	385.731	0.109	0.221
-162.793	34.563	0.328	-0.281
-161.779	30.308	-0.078	-0.065
-160.764	-133.472	0.132	0.016
-159.750	-200.000	0.020	0.088
-158.735	-200.000	0.044	0.226
-157.720	246.659	-0.068	0.112
-156.706	-42.799	-0.305	-0.152
-155.691	12.211	0.249	0.189
-154.677	99.436	-0.170	0.193
-153.662	50.192	0.124	-0.115
-152.647	-91.402	0.073	-0.020
-151.633	-121.064	-0.302	-0.050
-150.618	-14.462	-0.407	-0.257
-149.604	-200.000	-0.016	-0.370
-148.589	282.311	0.110	-0.194
-147.574	800.000	-0.096	-0.328
-146.560	19.147	-0.184	-0.145
-145.545	-100.155	-0.205	0.050
-144.531	800.000	0.101	0.385
-143.516	-89.611	0.209	-0.060
-142.502	-200.000	0.014	-0.429
-141.487	-95.275	-0.194	-0.051
-140.472	-5.792	0.444	-0.299
-139.458	24.113	0.062	0.051
-138.443	800.000	-0.044	0.158
-137.429	72.283	-0.205	-0.209
-136.414	-59.278	0.136	-0.057
-135.399	61.608	-0.102	0.100
-134.385	-84.963	-0.190	-0.059
-133.370	34.146	0.119	0.102
-132.356	-200.000	0.025	0.128
-131.341	800.000	0.042	-0.175
-130.326	126.819	0.108	0.135
-129.312	6.836	0.240	0.175
-128.297	162.317	-0.127	0.175
-127.283	21.856	0.203	0.163
-126.268	800.000	0.022	0.077
-125.253	143.703	-0.123	-0.160
-124.239	164.872	0.251	-0.348
-123.224	67.767	0.241	-0.242
-122.210	-78.133	0.164	-0.055
