DTS Sentinel unit serial number:	SN413079Multiplexer serial number:	ORYXHardware model number:	OX4-SRSoftware version number:	ORYX F/W v4.00 Oryx Data Collector v3.7.2.0data status	okinstallation	princeton_trtdifferential loss correction	single-endedforward channel	channel 2reverse channel	N/Adate	2019/09/12time	18:28:49forward acquisition time	15.00reverse acquisition time	0.00gamma	496.2192k internal	0.2324k external	0.2324temperature offset calibration	1.0126default loss term (dB/km)	0.3790temperature slope calibration	1.0000multiplexer offset coefficient	1.0000multiplexer slope coefficient	1.0000fibre end	0.00T internal ref (°C)	33.25T ext. ref 1 (°C)	2.94T ext. ref 2 (°C)	27.89length (m)	temperature (°C)	Stokes	anti-Stokes-747.200	-200.000	-0.019	-0.438
-746.185	-44.444	-0.599	-0.303
-745.171	-3.356	0.129	0.090
-744.156	-17.833	-0.796	-0.505
-743.142	-68.669	-0.599	-0.234
-742.127	221.679	0.415	0.673
-741.112	298.182	0.093	-0.172
-740.098	17.513	-0.635	-0.510
-739.083	285.193	-0.329	0.599
-738.069	88.947	-0.347	0.390
-737.054	-143.356	-0.649	-0.063
-736.039	-200.000	-0.030	0.539
-735.025	-38.292	0.109	0.059
-734.010	352.866	-0.016	-0.033
-732.996	21.886	-0.457	0.376
-731.981	-10.443	0.380	-0.254
-730.966	-200.000	0.114	0.551
-729.952	-75.327	-0.417	-0.150
-728.937	162.654	-0.514	-0.728
-727.923	-200.000	0.020	-0.165
-726.908	-200.000	0.091	0.530
-725.894	211.859	-0.643	-1.022
-724.879	-200.000	0.037	0.269
-723.864	3.810	0.464	0.342
-722.850	-56.359	0.821	-0.368
-721.835	-127.602	-0.667	0.097
-720.821	632.673	-0.054	-0.138
-719.806	35.393	-0.150	0.132
-718.791	-63.915	-0.111	-0.046
-717.777	800.000	-0.141	-0.533
-716.762	-40.683	-0.575	-0.301
-715.748	-77.503	-0.464	-0.162
-714.733	13.098	0.825	0.644
-713.718	-12.083	0.759	0.501
-712.704	19.356	-0.243	0.197
-711.689	-134.702	-0.564	0.069
-710.675	96.174	-0.182	0.210
-709.660	800.000	-0.101	-0.317
-708.645	198.426	0.327	0.504
-707.631	-41.127	0.132	-0.069
-706.616	-84.673	0.490	0.155
-705.602	-140.084	-1.186	-0.126
-704.587	-160.626	0.416	0.022
-703.572	-10.008	-0.184	-0.123
-702.558	26.065	-0.201	0.169
-701.543	800.000	-0.047	0.199
-700.529	313.771	-0.143	-0.271
-699.514	-82.921	-0.389	0.127
-698.499	25.206	-0.540	0.452
-697.485	-81.897	0.297	0.098
-696.470	-95.187	-0.649	0.176
-695.456	22.567	0.320	0.264
-694.441	-200.000	0.072	-0.337
-693.426	-184.545	0.333	-0.005
-692.412	27.604	-0.188	0.160
-691.397	289.987	-0.269	-0.492
-690.383	76.622	0.332	0.355
-689.368	-85.210	0.732	-0.231
-688.354	-29.275	0.637	0.368
-687.339	800.000	-0.092	-0.285
-686.324	-115.041	0.298	-0.057
-685.310	-120.383	0.894	-0.153
-684.295	-25.736	0.197	0.117
-683.281	99.240	0.117	-0.136
-682.266	13.623	-0.450	0.352
-681.251	196.182	0.297	-0.455
-680.237	223.515	-0.100	-0.163
-679.222	-53.437	-0.270	0.124
-678.208	-200.000	0.069	1.294
-677.193	190.083	0.466	0.704
-676.178	-41.609	-0.605	-0.313
-675.164	800.000	-0.345	-1.052
-674.149	-43.227	1.250	-0.637
-673.135	-169.065	-0.946	-0.035
-672.120	-34.574	-0.196	0.108
-671.105	800.000	0.177	-0.643
-670.091	-89.695	0.519	0.153
-669.076	-166.916	0.316	0.013
-668.062	-200.000	0.098	-0.914
-667.047	459.274	0.142	-0.318
-666.032	114.833	0.470	-0.577
-665.018	187.363	-0.167	0.251
-664.003	122.823	-0.454	-0.572
-662.989	-114.317	0.297	0.058
-661.974	188.820	0.446	-0.672
-660.959	-16.769	-0.465	-0.296
-659.945	800.000	-0.101	-0.301
-658.930	82.495	-0.359	-0.392
-657.916	-200.000	0.007	0.532
-656.901	-200.000	-0.101	0.865
-655.886	-113.392	-1.022	-0.202
-654.872	-160.462	0.382	0.021
-653.857	-77.501	-0.052	-0.018
-652.843	-94.448	-0.575	0.158
-651.828	800.000	0.208	0.708
-650.814	-185.965	0.750	0.011
-649.799	661.831	-0.174	-0.450
-648.784	-159.219	0.934	-0.053
-647.770	-85.631	-0.861	0.269
-646.755	-126.653	-0.123	0.018
-645.741	-190.314	0.718	-0.008
-644.726	-50.055	-0.852	-0.406
-643.711	-30.779	-0.485	0.276
-642.697	-200.000	-0.049	-0.389
-641.682	-200.000	0.053	-0.680
-640.668	-95.491	0.710	-0.191
-639.653	9.235	-0.453	0.345
-638.638	-32.989	1.141	0.636
-637.624	626.486	0.352	0.894
-636.609	-200.000	0.088	-0.769
-635.595	640.181	-0.262	-0.669
-634.580	587.393	0.311	0.771
-633.565	62.478	-1.112	1.116
-632.551	415.028	0.144	0.309
-631.536	249.235	-0.277	0.472
-630.522	-19.255	-0.687	0.428
-629.507	356.225	0.151	0.302
-628.492	800.000	0.186	-0.521
-627.478	-200.000	-0.380	0.002
-626.463	-81.060	-0.598	-0.199
-625.449	80.013	0.140	0.151
-624.434	-4.408	0.199	0.139
-623.419	-52.539	-0.371	0.172
-622.405	-144.059	0.274	0.026
-621.390	-69.621	-0.976	0.375
-620.376	-200.000	0.080	0.604
-619.361	800.000	-0.282	1.018
-618.346	203.338	0.366	-0.569
-617.332	-12.121	0.427	-0.281
-616.317	153.437	-0.320	-0.440
-615.303	-179.017	0.541	0.012
-614.288	-54.673	0.428	-0.194
-613.273	-105.651	-0.157	0.036
-612.259	-104.597	0.253	-0.059
-611.244	800.000	0.268	1.058
-610.230	800.000	0.069	-0.267
-609.215	360.276	0.069	0.140
-608.201	88.952	0.238	-0.266
-607.186	54.232	-0.362	-0.350
-606.171	-183.889	0.435	0.007
-605.157	247.335	0.292	0.495
-604.142	783.005	-0.097	-0.268
-603.128	291.371	0.213	0.389
-602.113	-200.000	0.074	0.513
-601.098	-173.541	0.612	0.018
-600.084	-67.723	0.142	-0.056
-599.069	159.520	0.577	-0.806
-598.055	-146.490	0.338	-0.030
-597.040	800.000	-0.120	-0.400
-596.025	-164.367	0.717	-0.033
-595.011	-200.000	-0.027	-0.467
-593.996	800.000	-0.115	-0.444
-592.982	-137.631	-0.640	-0.072
-591.967	42.311	0.506	-0.461
-590.952	415.738	0.298	0.637
-589.938	800.000	0.312	0.975
-588.923	617.829	0.235	0.592
-587.909	99.211	0.125	0.145
-586.894	-105.784	-0.345	-0.078
-585.879	46.822	0.393	0.367
-584.865	200.088	0.476	-0.733
-583.850	248.652	-0.327	-0.556
-582.836	-52.879	0.075	0.034
-581.821	-81.582	-0.821	-0.271
-580.806	-65.931	0.328	-0.132
-579.792	329.864	0.353	-0.682
-578.777	-133.997	-0.248	-0.031
-577.763	-118.759	-0.985	-0.174
-576.748	135.265	0.278	-0.362
-575.733	541.867	0.383	-0.915
-574.719	-85.401	0.528	0.165
-573.704	-86.850	0.709	-0.217
-572.690	122.475	-0.526	0.659
-571.675	800.000	-0.055	-0.190
-570.661	349.046	-0.131	0.260
-569.646	318.777	-0.123	0.233
-568.631	247.121	-0.083	0.141
-567.617	-180.360	-0.228	-0.005
-566.602	354.336	0.461	0.919
-565.588	360.398	0.229	0.459
-564.573	229.258	0.370	0.606
-563.558	-187.249	-0.296	0.004
-562.544	-42.021	0.447	0.229
-561.529	-10.661	0.497	-0.330
-560.515	-116.018	-0.460	-0.086
-559.500	800.000	0.180	0.552
-558.485	-92.630	0.738	0.207
-557.471	788.803	0.169	-0.466
-556.456	100.990	0.226	0.264
-555.442	-2.734	0.377	0.264
-554.427	-41.228	-0.736	0.380
-553.412	800.000	0.243	-0.867
-552.398	87.442	0.856	-0.949
-551.383	-63.562	-0.180	0.074
-550.369	526.353	-0.269	-0.635
-549.354	800.000	0.152	-0.541
-548.339	51.585	-0.169	0.161
-547.325	-19.681	-0.775	0.480
-546.310	800.000	0.092	-0.325
-545.296	-160.754	0.746	-0.040
-544.281	-82.355	-1.038	0.338
-543.266	800.000	0.259	0.786
-542.252	303.775	-0.316	0.588
-541.237	-190.983	0.651	0.007
-540.223	-110.431	-0.638	-0.133
-539.208	-200.000	-0.019	-0.575
-538.193	24.952	0.821	-0.682
-537.179	-200.000	-0.065	-0.365
-536.164	361.467	-0.245	-0.491
-535.150	-108.603	0.146	-0.031
-534.135	511.482	0.105	0.244
-533.121	800.000	0.043	-0.150
-532.106	-119.408	-0.571	-0.099
-531.091	68.386	-0.728	0.747
-530.077	53.276	0.478	0.458
-529.062	-200.000	0.009	0.655
-528.048	-200.000	-0.119	0.790
-527.033	29.588	0.181	0.154
-526.018	77.680	0.440	0.469
-525.004	800.000	-0.182	0.618
-523.989	-200.000	0.045	0.342
-522.975	-10.380	-0.482	0.320
-521.960	-75.054	0.738	-0.264
-520.945	800.000	-0.235	-0.895
-519.931	147.325	0.353	-0.476
-518.916	-137.101	1.012	0.116
-517.902	-165.102	0.474	-0.021
-516.887	569.999	0.174	-0.423
-515.872	-200.000	-0.058	-0.837
-514.858	-21.293	0.478	-0.292
-513.843	-200.000	0.097	0.996
-512.829	-200.000	-0.177	0.916
-511.814	259.213	0.262	-0.452
-510.799	2.850	0.058	0.042
-509.785	1.125	-0.395	0.283
-508.770	-26.237	-0.768	0.451
-507.756	-146.264	-0.787	0.069
-506.741	43.855	1.328	1.216
-505.726	-200.000	0.120	-0.592
-504.712	-100.925	-0.402	0.099
-503.697	-32.945	-0.536	-0.298
-502.683	-200.000	-0.140	-0.798
-501.668	-158.654	0.263	0.015
-500.653	69.388	-0.573	0.590
-499.639	-200.000	0.094	-0.734
-498.624	-27.480	-1.341	-0.780
-497.610	-124.132	1.003	0.157
-496.595	-140.469	-0.445	0.046
-495.581	-137.399	-0.547	0.062
-494.566	768.390	-0.252	-0.686
-493.551	129.571	0.209	0.266
-492.537	-56.202	0.775	-0.345
-491.522	123.016	0.302	-0.378
-490.508	2.596	0.290	-0.210
-489.493	-43.621	0.396	-0.200
-488.478	2.440	0.139	-0.101
-487.464	173.228	0.175	0.253
-486.449	708.944	-0.026	-0.068
-485.435	43.390	-0.473	-0.432
-484.420	-153.624	-0.255	0.018
-483.405	52.759	0.238	-0.227
-482.391	0.206	-0.619	-0.441
-481.376	149.198	-0.273	-0.369
-480.362	42.450	0.255	0.232
-479.347	-98.727	0.913	0.233
-478.332	-79.914	0.112	-0.038
-477.318	220.497	-0.312	0.500
-476.303	432.345	-0.421	-0.911
-475.289	-12.442	-0.696	-0.454
-474.274	199.538	0.177	0.270
-473.259	-200.000	-0.001	0.267
-472.245	800.000	0.123	-0.393
-471.230	-200.000	-0.002	0.224
-470.216	413.345	-0.190	0.403
-469.201	56.847	-0.367	0.357
-468.186	-155.172	0.628	-0.041
-467.172	69.123	0.139	-0.143
-466.157	-100.666	0.336	0.083
-465.143	100.607	0.276	-0.320
-464.128	-108.575	-0.368	0.079
-463.113	-104.615	0.424	-0.098
-462.099	800.000	0.214	-0.625
-461.084	-18.529	0.315	-0.196
-460.070	418.994	-0.245	-0.523
-459.055	411.064	0.228	-0.484
-458.040	155.567	0.109	-0.150
-457.026	-58.136	-0.148	-0.064
-456.011	38.757	0.702	-0.626
-454.997	-142.350	0.599	-0.059
-453.982	492.396	-0.209	0.479
-452.968	67.161	-0.276	0.281
-451.953	-200.000	-0.027	-0.489
-450.938	84.049	-0.234	-0.256
-449.924	800.000	0.171	0.581
-448.909	-140.357	-0.624	0.065
-447.895	141.998	0.277	0.366
-446.880	323.676	-0.309	-0.587
-445.865	-200.000	0.013	-0.782
-444.851	535.810	0.185	-0.437
-443.836	-98.333	-0.349	0.089
-442.822	-200.000	-0.073	-0.740
-441.807	439.382	0.214	-0.466
-440.792	800.000	-0.095	-0.386
-439.778	800.000	0.114	0.335
-438.763	389.395	-0.498	-1.030
-437.749	-200.000	-0.013	-0.222
-436.734	-200.000	0.123	0.808
-435.719	-200.000	-0.041	0.405
-434.705	-200.000	-0.120	-0.655
-433.690	-200.000	-0.121	1.025
-432.676	307.528	-0.483	0.898
-431.661	-118.081	-0.390	-0.070
-430.646	-200.000	0.137	-0.690
-429.632	737.480	-0.453	-1.210
-428.617	33.340	-0.466	0.404
-427.603	-200.000	0.043	0.475
-426.588	-200.000	-0.115	-0.000
-425.573	46.836	0.314	-0.291
-424.559	800.000	-0.060	-0.177
-423.544	800.000	0.196	-0.585
-422.530	-79.086	0.866	-0.293
-421.515	-185.365	-0.645	-0.010
-420.500	-139.870	0.605	0.064
-419.486	-200.000	0.146	1.026
-418.471	37.349	0.407	0.359
-417.457	181.026	-0.220	0.323
-416.442	800.000	0.246	-0.898
-415.428	307.440	-0.242	0.449
-414.413	267.687	0.445	0.777
-413.398	-200.000	-0.074	0.600
-412.384	-74.084	-0.742	-0.268
-411.369	800.000	0.008	0.023
-410.355	179.848	-0.374	-0.547
-409.340	282.012	0.347	-0.620
-408.325	185.115	0.218	0.322
-407.311	800.000	-0.188	0.596
-406.296	23.662	0.136	0.111
-405.282	800.000	0.154	0.561
-404.267	-107.390	-0.550	0.120
-403.252	-109.771	0.465	-0.097
-402.238	243.939	-0.263	-0.440
-401.223	584.944	-0.090	-0.221
-400.209	104.785	0.379	0.444
-399.194	121.717	0.293	0.364
-398.179	181.208	0.332	-0.487
-397.165	287.824	-0.179	-0.323
-396.150	267.913	0.364	0.635
-395.136	113.383	-0.139	-0.168
-394.121	100.239	-0.442	0.511
-393.106	438.204	0.300	-0.651
-392.092	-19.019	-0.089	-0.055
-391.077	10.677	-0.498	-0.378
-390.063	-200.000	-0.026	-0.257
-389.048	180.364	-0.061	0.089
-388.033	-52.457	0.564	-0.260
-387.019	94.709	0.346	-0.392
-386.004	-200.000	-0.038	-0.611
-384.990	-200.000	0.058	-0.493
-383.975	-200.000	-0.078	0.424
-382.960	-26.467	-1.180	0.689
-381.946	-78.838	0.287	0.097
-380.931	-80.910	-0.354	-0.117
-379.917	-119.001	0.942	-0.164
-378.902	230.925	0.131	-0.214
-377.888	-125.129	0.076	0.012
-376.873	-200.000	-0.109	-0.708
-375.858	800.000	-0.057	0.220
-374.844	-5.762	-0.308	0.210
-373.829	800.000	-0.143	-0.430
-372.815	52.508	0.332	-0.316
-371.800	800.000	-0.083	-0.307
-370.785	-200.000	-0.020	0.160
-369.771	-62.440	-0.395	0.164
-368.756	-155.550	-0.473	0.030
-367.742	39.318	-0.706	0.628
-366.727	-200.000	-0.081	0.642
-365.712	-200.000	-0.277	-0.001
-364.698	-52.581	0.304	-0.140
-363.683	62.318	0.280	0.278
-362.669	-28.886	0.344	-0.197
-361.654	-4.406	-0.506	-0.348
-360.639	-160.101	-0.649	0.035
-359.625	14.972	-0.442	0.344
-358.610	-200.000	-0.019	0.508
-357.596	-200.000	-0.125	0.990
-356.581	800.000	0.126	0.463
-355.566	-200.000	0.105	-0.691
-354.552	26.541	-0.696	-0.579
-353.537	109.760	-0.298	-0.356
-352.523	-200.000	0.000	0.266
-351.508	246.735	0.404	-0.678
-350.493	245.703	-0.497	0.832
-349.479	125.824	-0.115	-0.145
-348.464	-200.000	0.047	-0.526
-347.450	-53.863	-0.271	-0.123
-346.435	-83.799	0.108	0.034
-345.420	-106.250	0.332	0.074
-344.406	-77.446	-0.206	0.071
-343.391	-59.986	-0.478	-0.203
-342.377	-82.713	0.552	0.178
-341.362	-99.963	0.335	0.083
-340.348	-35.005	-0.215	-0.116
-339.333	31.030	-0.121	0.103
-338.318	83.568	-0.127	-0.138
-337.304	-200.000	-0.034	-0.287
-336.289	800.000	-0.186	-0.578
-335.275	-114.342	-0.640	0.122
-334.260	486.950	-0.057	-0.129
-333.245	-25.288	-0.499	-0.294
-332.231	402.138	-0.189	0.394
-331.216	22.356	-0.365	-0.296
-330.202	309.386	0.366	0.679
-329.187	-64.235	-0.380	0.154
-328.172	800.000	0.131	0.372
-327.158	1.619	0.400	-0.286
-326.143	-200.000	-0.019	-0.311
-325.129	-200.000	0.035	0.960
-324.114	-139.005	0.528	0.057
-323.099	-36.473	0.250	-0.133
-322.085	46.576	0.360	0.331
-321.070	-93.437	-0.674	-0.185
-320.056	800.000	-0.299	-1.299
-319.041	-57.943	0.360	-0.156
-318.026	371.046	0.160	0.323
-317.012	-64.400	-0.552	0.223
-315.997	-166.951	0.687	0.028
-314.983	-73.186	0.374	0.136
-313.968	-168.223	0.339	0.013
-312.953	169.250	-0.317	0.449
-311.939	289.161	0.425	0.764
-310.924	547.858	-0.366	0.871
-309.910	342.088	-0.168	0.326
-308.895	50.069	-0.062	-0.058
-307.880	-151.311	0.303	-0.022
-306.866	253.389	0.348	-0.589
-305.851	800.000	0.229	0.965
-304.837	-200.000	0.098	-0.716
-303.822	-15.373	-0.425	-0.270
-302.807	-94.992	-0.245	0.066
-301.793	-76.260	-0.778	-0.272
-300.778	-26.396	0.223	0.130
-299.764	364.491	-0.180	-0.360
-298.749	-200.000	0.086	-0.510
-297.735	-31.402	-0.862	-0.481
-296.720	280.396	-0.054	0.096
-295.705	-200.000	0.021	-0.222
-294.691	-200.000	-0.033	0.542
-293.676	-28.732	0.324	0.185
-292.662	-200.000	-0.037	-0.515
-291.647	53.814	0.252	0.240
-290.632	16.138	-0.277	-0.216
-289.618	800.000	0.071	0.199
-288.603	-169.854	1.137	0.041
-287.589	-145.270	-0.059	0.005
-286.574	-29.143	-0.672	-0.382
-285.559	73.393	0.405	-0.421
-284.545	190.919	-0.172	-0.256
-283.530	-71.114	0.282	-0.105
-282.516	353.778	0.147	-0.290
-281.501	-80.749	-0.504	0.166
-280.486	800.000	0.143	0.545
-279.472	13.963	-0.129	-0.099
-278.457	800.000	-0.187	0.565
-277.443	-37.363	0.538	0.285
-276.428	31.446	0.299	0.254
-275.413	-193.870	-0.672	0.006
-274.399	-72.967	0.453	0.165
-273.384	195.954	0.251	0.378
-272.370	283.510	-0.420	-0.748
-271.355	124.779	0.246	-0.307
-270.340	130.551	-0.443	0.563
-269.326	-200.000	0.095	0.600
-268.311	800.000	-0.075	-0.268
-267.297	4.995	-0.259	-0.189
-266.282	-147.895	0.183	0.015
-265.267	179.783	-0.463	-0.672
-264.253	104.607	-0.275	0.321
-263.238	-104.763	-0.746	0.170
-262.224	51.010	0.370	0.347
-261.209	661.834	0.187	-0.477
-260.195	31.863	0.406	-0.346
-259.180	104.894	-0.583	0.681
-258.165	800.000	0.123	0.443
-257.151	59.272	-0.262	0.255
-256.136	-200.000	-0.069	-0.344
-255.122	16.754	-0.526	-0.412
-254.107	-159.799	0.356	-0.019
-253.092	108.313	-0.321	-0.379
-252.078	800.000	0.301	-0.962
-251.063	215.457	0.301	0.474
-250.049	173.739	-0.406	0.580
-249.034	-200.000	-0.154	1.046
-248.019	-65.565	0.194	-0.077
-247.005	-95.135	0.506	0.135
-245.990	96.707	-0.200	-0.227
-244.976	293.543	-0.601	-1.087
-243.961	-26.220	-0.385	-0.224
-242.946	-106.196	-1.033	0.229
-241.932	-66.155	-0.312	-0.123
-240.917	674.184	-0.188	0.482
-239.903	248.576	0.126	0.211
-238.888	-71.235	0.149	0.055
-237.873	364.295	0.280	-0.558
-236.859	227.243	-0.582	0.936
-235.844	-200.000	-0.007	0.551
-234.830	-92.174	0.271	-0.076
-233.815	-25.594	-0.663	-0.388
-232.800	541.151	-0.255	-0.602
-231.786	-92.575	0.212	0.059
-230.771	261.280	0.215	-0.368
-229.757	-151.471	0.339	0.025
-228.742	149.945	0.286	0.384
-227.727	7.260	-0.316	-0.234
-226.713	323.599	-0.187	-0.352
-225.698	17.125	0.467	-0.366
-224.684	-51.402	-0.718	-0.332
-223.669	-127.513	-1.105	-0.159
-222.655	302.456	-0.109	-0.199
-221.640	-200.000	0.026	-0.166
-220.625	120.956	-0.331	0.407
-219.611	442.343	-0.263	-0.570
-218.596	-61.383	0.992	0.413
-217.582	-19.941	0.355	-0.216
-216.567	92.414	-0.380	-0.424
-215.552	-30.615	0.650	0.364
-214.538	-52.940	-0.338	0.154
-213.523	-44.089	0.970	-0.482
-212.509	-33.438	-0.761	-0.416
-211.494	-124.585	0.367	-0.056
-210.479	-61.776	0.743	0.308
-209.465	322.013	0.157	-0.295
-208.450	-200.000	0.126	-0.651
-207.436	-155.538	1.015	-0.065
-206.421	25.948	-0.596	0.491
-205.406	121.450	-0.218	0.268
-204.392	132.480	0.338	-0.431
-203.377	-200.000	0.025	0.428
-202.363	537.278	0.152	0.357
-201.348	800.000	-0.264	0.769
-200.333	59.309	-0.632	0.615
-199.319	800.000	-0.078	0.267
-198.304	157.531	0.795	1.087
-197.290	-9.473	0.204	0.135
-196.275	800.000	-0.083	0.338
-195.260	104.961	0.285	-0.333
-194.246	217.487	0.282	0.444
-193.231	252.059	-0.188	-0.316
-192.217	800.000	-0.255	0.757
-191.202	72.145	0.642	0.660
-190.187	111.206	0.055	-0.066
-189.173	18.686	-0.538	-0.425
-188.158	63.822	0.515	0.511
-187.144	28.019	-0.391	-0.326
-186.129	778.090	-0.165	-0.445
-185.114	711.707	0.309	-0.807
-184.100	-15.851	0.107	0.068
-183.085	-122.990	0.065	0.010
-182.071	-200.000	-0.179	-0.826
-181.056	-13.423	0.514	0.329
-180.042	-99.367	0.622	0.155
-179.027	-27.636	0.400	-0.230
-178.012	103.878	-0.194	0.225
-176.998	-200.000	-0.112	1.211
-175.983	189.922	0.264	0.392
-174.969	22.536	-0.157	0.126
-173.954	429.706	-0.264	-0.564
-172.939	-31.394	0.373	-0.207
-171.925	-154.721	0.669	-0.044
-170.910	635.774	-0.150	0.375
-169.896	-44.116	-0.343	0.170
-168.881	168.092	-0.219	-0.307
-167.866	56.259	-0.400	0.383
-166.852	343.731	0.315	0.609
-165.837	-87.184	0.360	-0.108
-164.823	-119.828	0.860	-0.146
-163.808	18.297	-0.280	-0.221
-162.793	-200.000	0.125	0.838
-161.779	-4.586	0.584	0.398
-160.764	289.873	-0.099	0.177
-159.750	83.625	-0.271	-0.292
-158.735	-133.807	0.812	0.100
-157.720	126.026	-0.106	-0.133
-156.706	-106.607	-1.159	-0.255
-155.691	239.881	0.186	-0.306
-154.677	-107.948	-1.087	-0.233
-153.662	131.381	-0.586	0.743
-152.647	-103.455	-0.706	0.164
-151.633	303.175	0.295	-0.540
-150.618	21.674	-0.467	0.375
-149.604	-77.853	1.002	-0.341
-148.589	99.042	-0.277	0.316
-147.574	-117.932	0.303	-0.054
-146.560	91.508	-0.459	-0.509
-145.545	-67.065	-0.036	0.014
-144.531	19.912	0.205	-0.163
-143.516	-200.000	-0.103	-0.603
-142.502	-49.161	-0.895	-0.422
-141.487	64.235	0.171	-0.170
-140.472	417.802	0.189	-0.399
-139.458	24.098	-0.131	-0.106
-138.443	529.090	-0.352	0.820
-137.429	-200.000	-0.025	0.372
-136.414	-200.000	-0.104	0.587
-135.399	-200.000	0.306	0.000
-134.385	-200.000	0.014	-0.077
-133.370	-52.029	-0.500	-0.229
-132.356	-178.776	-0.504	0.011
-131.341	65.196	-0.338	-0.337
-130.326	219.459	0.310	0.489
-129.312	800.000	-0.314	0.857
-128.297	-44.663	-0.606	-0.298
-127.283	-187.923	0.451	-0.006
-126.268	800.000	0.081	0.321
-125.253	-10.023	0.658	0.431
-124.239	-200.000	-0.113	0.924
-123.224	8.794	-0.259	-0.193
-122.210	-137.832	-0.673	-0.074
-121.195	-53.484	-0.154	-0.070
