DTS Sentinel unit serial number:	SN413079Multiplexer serial number:	ORYXHardware model number:	OX4-SRSoftware version number:	ORYX F/W v4.00 Oryx Data Collector v3.7.2.0data status	okinstallation	princeton_trtdifferential loss correction	single-endedforward channel	channel 2reverse channel	N/Adate	2019/09/16time	10:27:34forward acquisition time	60.00reverse acquisition time	0.00gamma	496.2192k internal	0.2318k external	0.2318temperature offset calibration	0.9959default loss term (dB/km)	0.3790temperature slope calibration	1.0000multiplexer offset coefficient	1.0000multiplexer slope coefficient	1.0000fibre end	0.00T internal ref (°C)	35.12T ext. ref 1 (°C)	12.55T ext. ref 2 (°C)	33.51length (m)	temperature (°C)	Stokes	anti-Stokes-747.200	60.536	0.122	0.122
-746.185	-102.830	0.154	0.037
-745.171	213.652	-0.164	-0.263
-744.156	291.821	-0.197	-0.363
-743.142	0.820	0.077	0.056
-742.127	-80.753	-0.067	0.023
-741.112	603.751	-0.083	0.208
-740.098	134.941	0.133	0.174
-739.083	67.798	0.193	-0.200
-738.069	-104.925	0.260	0.060
-737.054	-200.000	0.010	0.285
-736.039	472.449	0.094	0.214
-735.025	144.412	-0.170	0.230
-734.010	-200.000	-0.003	0.118
-732.996	695.853	0.049	0.130
-731.981	800.000	-0.041	-0.158
-730.966	-200.000	0.003	-0.163
-729.952	12.642	-0.348	-0.272
-728.937	-99.355	0.235	-0.060
-727.923	-100.982	0.140	-0.035
-726.908	37.183	0.212	-0.190
-725.894	800.000	-0.113	-0.339
-724.879	17.276	-0.218	-0.175
-723.864	-146.356	-0.287	-0.025
-722.850	92.564	-0.078	0.089
-721.835	-80.964	-0.173	0.058
-720.821	336.544	0.089	-0.174
-719.806	-78.951	-0.181	-0.062
-718.791	-10.334	0.059	0.040
-717.777	249.220	0.146	-0.250
-716.762	-49.491	0.276	-0.133
-715.748	-85.395	-0.268	-0.085
-714.733	-200.000	-0.035	-0.225
-713.718	374.099	0.192	0.395
-712.704	6.560	0.214	0.160
-711.689	346.518	-0.164	0.325
-710.675	213.437	0.176	-0.281
-709.660	746.886	0.062	-0.170
-708.645	-47.088	0.128	-0.063
-707.631	-200.000	-0.011	0.118
-706.616	-67.253	0.407	0.162
-705.602	-200.000	-0.014	-0.347
-704.587	172.336	-0.179	-0.260
-703.572	57.388	-0.250	0.246
-702.558	5.654	-0.073	-0.055
-701.543	-200.000	-0.045	0.253
-700.529	-104.501	0.200	0.047
-699.514	169.599	-0.194	-0.280
-698.499	-77.080	0.220	-0.077
-697.485	452.470	-0.161	0.360
-696.470	800.000	0.086	0.251
-695.456	800.000	0.055	-0.155
-694.441	482.223	0.123	0.282
-693.426	33.238	-0.186	-0.163
-692.412	197.442	-0.026	-0.041
-691.397	-200.000	-0.011	-0.511
-690.383	-101.502	0.467	-0.115
-689.368	800.000	0.028	-0.091
-688.354	800.000	0.082	-0.262
-687.339	-29.325	0.137	-0.079
-686.324	-102.990	-0.658	-0.158
-685.310	-99.366	-0.031	0.008
-684.295	244.113	0.265	-0.448
-683.281	-2.555	-0.313	-0.221
-682.266	-11.089	-0.173	0.115
-681.251	800.000	-0.021	0.066
-680.237	-13.387	0.147	-0.096
-679.222	-128.955	0.143	0.020
-678.208	800.000	0.105	-0.325
-677.193	148.063	0.089	0.121
-676.178	-89.100	0.132	-0.039
-675.164	-2.847	0.042	0.030
-674.149	21.592	-0.095	0.078
-673.135	154.033	0.122	0.168
-672.120	167.391	0.203	-0.292
-671.105	-200.000	-0.051	0.258
-670.091	724.001	0.034	-0.090
-669.076	-11.805	-0.351	0.233
-668.062	401.564	0.035	0.075
-667.047	800.000	-0.102	-0.295
-666.032	-85.462	0.271	-0.085
-665.018	8.495	-0.268	-0.204
-664.003	-30.515	0.198	-0.113
-662.989	-135.103	0.366	0.044
-661.974	366.603	0.158	0.322
-660.959	57.207	-0.113	-0.111
-659.945	-117.825	-0.072	-0.013
-658.930	-200.000	-0.070	-0.329
-657.916	-200.000	-0.035	0.204
-656.901	134.778	-0.074	0.097
-655.886	122.319	-0.189	0.238
-654.872	800.000	-0.110	0.307
-653.857	156.640	-0.130	0.181
-652.843	-103.218	0.176	-0.042
-651.828	800.000	0.042	0.121
-650.814	-139.669	-0.215	0.023
-649.799	700.346	0.130	-0.346
-648.784	-200.000	0.015	0.305
-647.770	-132.292	0.269	-0.035
-646.755	-137.391	0.107	0.012
-645.741	60.977	-0.138	0.138
-644.726	59.483	-0.107	0.106
-643.711	800.000	0.046	-0.181
-642.697	349.552	0.073	0.145
-641.682	-70.859	-0.474	-0.180
-640.668	726.640	-0.129	-0.348
-639.653	800.000	-0.060	-0.217
-638.638	-131.050	-0.273	0.037
-637.624	-200.000	0.232	0.001
-636.609	-59.334	-0.280	0.121
-635.595	-136.114	-0.206	-0.024
-634.580	12.035	-0.043	0.033
-633.565	26.046	-0.122	0.102
-632.551	550.135	0.124	-0.299
-631.536	111.566	-0.255	-0.310
-630.522	-78.409	0.282	0.098
-629.507	-24.607	-0.277	0.166
-628.492	800.000	-0.060	-0.215
-627.478	-142.752	-0.073	-0.007
-626.463	-149.306	-0.114	0.009
-625.449	800.000	-0.049	-0.211
-624.434	-200.000	-0.021	0.114
-623.419	161.793	-0.041	0.058
-622.405	-78.773	-0.011	-0.004
-621.390	0.622	-0.261	-0.188
-620.376	-90.927	-0.193	-0.056
-619.361	-108.815	0.183	-0.039
-618.346	-200.000	0.016	0.250
-617.332	647.202	-0.142	0.366
-616.317	15.027	0.299	0.236
-615.303	317.768	0.226	0.431
-614.288	-74.185	-0.163	0.059
-613.273	-56.327	-0.090	-0.040
-612.259	800.000	0.075	0.322
-611.244	-33.606	-0.238	0.132
-610.230	-12.290	-0.182	-0.120
-609.215	613.437	0.096	-0.242
-608.201	-81.746	0.135	-0.045
-607.186	-200.000	-0.049	-0.279
-606.171	-124.868	-0.114	0.018
-605.157	56.817	-0.157	-0.154
-604.142	-200.000	0.027	0.174
-603.128	-27.440	-0.023	0.014
-602.113	-179.356	-0.168	-0.004
-601.098	-150.880	-0.167	0.013
-600.084	9.974	0.257	0.196
-599.069	800.000	-0.076	0.240
-598.055	24.921	-0.244	-0.204
-597.040	-132.276	-0.075	0.010
-596.025	800.000	0.074	-0.304
-595.011	800.000	-0.050	0.158
-593.996	102.331	-0.299	-0.352
-592.982	-137.546	-0.315	-0.036
-591.967	800.000	0.096	0.405
-590.952	37.898	0.367	0.328
-589.938	-87.994	-0.154	0.047
-588.923	374.096	-0.119	0.243
-587.909	-146.086	-0.396	-0.035
-586.894	-141.185	0.286	0.029
-585.879	-104.862	-0.176	0.041
-584.865	53.378	-0.066	-0.064
-583.850	-36.518	-0.202	0.109
-582.836	800.000	0.017	0.056
-581.821	-146.620	-0.229	0.020
-580.806	-132.085	0.227	-0.030
-579.792	800.000	0.040	-0.119
-578.777	-200.000	-0.077	-0.418
-577.763	6.505	0.167	-0.125
-576.748	34.266	-0.202	-0.177
-575.733	174.985	0.170	0.247
-574.719	336.123	0.106	-0.206
-573.704	75.888	0.286	0.304
-572.690	78.557	0.117	-0.126
-571.675	-200.000	0.058	-0.379
-570.661	148.924	0.186	-0.253
-569.646	-92.840	-0.420	-0.118
-568.631	-67.647	-0.319	-0.126
-567.617	-200.000	-0.050	-0.229
-566.602	-10.243	0.117	-0.078
-565.588	25.096	0.237	-0.198
-564.573	-78.749	-0.164	-0.056
-563.558	505.655	-0.035	-0.083
-562.544	173.056	-0.079	0.115
-561.529	48.700	0.437	-0.412
-560.515	138.787	0.117	-0.154
-559.500	17.041	-0.135	-0.108
-558.485	288.401	0.052	-0.094
-557.471	256.497	-0.077	-0.133
-556.456	-63.773	0.242	0.100
-555.442	800.000	-0.082	0.259
-554.427	99.092	-0.073	0.085
-553.412	-84.635	-0.082	0.026
-552.398	-84.077	0.247	-0.079
-551.383	2.215	-0.002	-0.001
-550.369	-200.000	0.035	-0.399
-549.354	-5.999	-0.130	-0.089
-548.339	156.094	0.226	-0.314
-547.325	-43.249	-0.181	-0.092
-546.310	247.053	0.072	0.123
-545.296	-189.840	-0.036	0.000
-544.281	90.118	0.132	0.148
-543.266	-200.000	0.010	-0.072
-542.252	-200.000	0.028	-0.143
-541.237	-200.000	0.040	-0.243
-540.223	-51.697	0.164	-0.077
-539.208	-109.564	-0.360	0.076
-538.193	382.384	-0.039	-0.081
-537.179	41.452	0.103	0.094
-536.164	-200.000	0.021	0.095
-535.150	100.948	0.026	-0.031
-534.135	182.111	-0.084	-0.125
-533.121	-200.000	-0.004	0.156
-532.106	-46.674	-0.192	-0.094
-531.091	-200.000	0.041	-0.184
-530.077	-13.601	0.202	0.131
-529.062	-7.104	-0.111	-0.075
-528.048	-200.000	-0.024	0.156
-527.033	-72.055	-0.077	-0.029
-526.018	-200.000	-0.080	0.000
-525.004	35.479	-0.090	-0.079
-523.989	800.000	-0.056	0.186
-522.975	192.147	-0.166	0.251
-521.960	-70.770	-0.174	-0.066
-520.945	-145.006	-0.197	-0.018
-519.931	-89.322	0.062	-0.018
-518.916	313.334	0.035	-0.066
-517.902	174.055	-0.082	0.119
-516.887	-200.000	-0.039	0.281
-515.872	-200.000	0.009	0.153
-514.858	220.552	0.227	0.365
-513.843	-200.000	0.011	0.472
-512.829	708.307	0.109	0.289
-511.814	47.062	-0.141	0.131
-510.799	48.403	-0.060	0.056
-509.785	800.000	-0.130	-0.394
-508.770	-59.248	0.081	0.035
-507.756	-103.051	0.288	-0.068
-506.741	-36.125	0.275	0.149
-505.726	58.774	-0.169	-0.167
-504.712	25.692	0.283	0.236
-503.697	252.896	-0.169	-0.288
-502.683	463.864	-0.103	-0.232
-501.668	-98.461	0.164	-0.042
-500.653	-200.000	-0.046	-0.290
-499.639	-25.038	0.145	-0.086
-498.624	-200.000	-0.020	0.157
-497.610	-200.000	0.019	-0.129
-496.595	-200.000	-0.027	0.322
-495.581	-56.601	0.064	-0.028
-494.566	750.796	-0.133	-0.360
-493.551	-134.307	-0.280	0.035
-492.537	-27.764	0.091	-0.053
-491.522	-200.000	0.023	0.204
-490.508	-88.314	0.302	-0.090
-489.493	-153.047	-0.138	0.010
-488.478	-112.482	0.239	-0.048
-487.464	-165.951	-0.330	-0.014
-486.449	-127.275	0.136	0.020
-485.435	41.923	0.147	-0.133
-484.420	-200.000	-0.076	0.445
-483.405	-37.085	0.369	-0.198
-482.391	-200.000	0.005	-0.025
-481.376	-87.962	0.048	-0.015
-480.362	-200.000	-0.026	0.116
-479.347	-175.525	-0.271	0.007
-478.332	-42.392	0.114	-0.058
-477.318	-200.000	-0.003	-0.096
-476.303	-14.701	-0.278	0.179
-475.289	1.035	0.102	-0.073
-474.274	-138.051	-0.135	-0.015
-473.259	186.159	0.166	0.248
-472.245	110.168	0.106	0.127
-471.230	-113.427	0.172	0.034
-470.216	-131.572	-0.191	-0.025
-469.201	-200.000	-0.016	-0.073
-468.186	-141.339	-0.111	0.011
-467.172	800.000	-0.028	0.092
-466.157	159.274	-0.048	0.067
-465.143	130.815	-0.289	0.372
-464.128	-78.814	-0.151	-0.052
-463.113	-200.000	-0.038	-0.195
-462.099	103.529	0.356	-0.419
-461.084	-200.000	-0.067	0.347
-460.070	-52.680	-0.184	0.085
-459.055	-141.122	0.413	0.042
-458.040	-43.381	0.263	-0.133
-457.026	-53.432	-0.154	-0.070
-456.011	-123.778	0.152	0.024
-454.997	-65.122	0.085	-0.034
-453.982	172.143	0.094	-0.135
-452.968	198.488	-0.212	0.325
-451.953	329.915	-0.081	0.156
-450.938	73.319	0.107	-0.112
-449.924	97.977	0.072	-0.083
-448.909	-102.582	0.309	0.074
-447.895	95.957	-0.233	-0.266
-446.880	308.955	0.276	-0.515
-445.865	-85.212	0.265	-0.083
-444.851	96.185	0.136	0.156
-443.836	-77.339	0.280	-0.097
-442.822	317.419	-0.090	0.170
-441.807	-139.078	-0.115	-0.012
-440.792	-27.938	0.208	0.120
-439.778	109.827	-0.247	-0.296
-438.763	26.542	-0.072	-0.060
-437.749	3.705	0.167	0.122
-436.734	800.000	0.104	-0.292
-435.719	-28.129	0.179	0.104
-434.705	659.640	-0.135	0.347
-433.690	-46.730	0.050	0.025
-432.676	-15.851	-0.364	-0.232
-431.661	9.964	0.199	-0.151
-430.646	95.067	-0.249	0.284
-429.632	800.000	0.028	-0.115
-428.617	-200.000	0.026	-0.126
-427.603	-139.541	-0.655	0.070
-426.588	526.214	0.127	-0.299
-425.573	-81.860	0.403	-0.132
-424.559	451.054	-0.050	0.111
-423.544	-151.996	0.213	0.016
-422.530	-119.608	0.537	-0.093
-421.515	3.955	0.251	0.183
-420.500	-86.097	0.130	-0.040
-419.486	-80.668	-0.108	0.036
-418.471	-200.000	0.021	0.202
-417.457	16.776	-0.108	-0.085
-416.442	-109.368	0.331	-0.070
-415.428	134.989	0.127	0.165
-414.413	73.012	-0.025	0.026
-413.398	-81.245	-0.078	-0.026
-412.384	-88.365	-0.073	-0.022
-411.369	-200.000	0.099	-0.462
-410.355	150.322	-0.105	-0.142
-409.340	-76.177	-0.223	0.079
-408.325	-91.843	0.271	-0.077
-407.311	-200.000	0.004	-0.192
-406.296	576.595	0.041	-0.099
-405.282	-176.538	0.140	-0.004
-404.267	226.655	0.267	0.433
-403.252	-108.298	-0.257	-0.055
-402.238	63.458	0.138	-0.138
-401.223	587.431	0.082	0.203
-400.209	-58.214	-0.127	0.055
-399.194	62.421	0.046	0.046
-398.179	142.437	-0.127	-0.169
-397.165	49.115	0.007	0.006
-396.150	-147.920	-0.040	0.003
-395.136	-170.054	0.205	-0.007
-394.121	38.829	-0.056	-0.050
-393.106	158.574	-0.083	-0.116
-392.092	14.814	-0.090	0.071
-391.077	800.000	0.095	0.370
-390.063	403.604	-0.161	0.337
-389.048	-200.000	0.060	-0.284
-388.033	-132.683	0.179	-0.023
-387.019	79.013	0.273	0.292
-386.004	-26.167	-0.212	-0.124
-384.990	327.966	0.117	-0.225
-383.975	800.000	-0.098	0.425
-382.960	-79.757	-0.155	-0.052
-381.946	-89.144	-0.168	-0.050
-380.931	8.559	-0.113	0.085
-379.917	261.519	0.173	0.298
-378.902	-200.000	0.020	-0.163
-377.888	-200.000	0.001	0.079
-376.873	232.128	-0.010	-0.016
-375.858	-76.345	-0.500	0.176
-374.844	104.060	-0.288	0.338
-373.829	186.418	0.143	0.212
-372.815	-9.837	-0.146	0.097
-371.800	-51.943	-0.186	0.086
-370.785	-183.481	0.182	-0.003
-369.771	-200.000	-0.027	-0.441
-368.756	2.782	0.227	-0.164
-367.742	-200.000	0.022	-0.182
-366.727	37.109	0.086	0.076
-365.712	166.019	0.075	-0.106
-364.698	-200.000	0.051	-0.366
-363.683	59.548	0.141	0.138
-362.669	800.000	-0.043	0.142
-361.654	-165.980	0.263	0.011
-360.639	-111.292	0.192	-0.039
-359.625	-3.434	0.158	-0.109
-358.610	-103.170	-0.227	-0.054
-357.596	-109.665	0.094	0.020
-356.581	-97.986	0.358	0.092
-355.566	-34.985	-0.191	-0.104
-354.552	35.837	-0.133	-0.117
-353.537	-16.190	0.042	-0.026
-352.523	-200.000	-0.023	0.212
-351.508	64.171	-0.170	0.170
-350.493	88.991	0.078	0.086
-349.479	-140.434	0.065	0.007
-348.464	92.364	0.193	0.216
-347.450	34.850	0.252	0.220
-346.435	260.281	0.089	-0.153
-345.420	194.964	-0.112	-0.170
-344.406	214.104	0.127	-0.201
-343.391	55.211	0.074	-0.071
-342.377	-192.326	-0.256	-0.002
-341.362	485.359	-0.040	-0.091
-340.348	800.000	0.054	0.175
-339.333	201.399	-0.145	0.223
-338.318	-86.036	-0.165	-0.051
-337.304	-37.827	-0.142	0.075
-336.289	66.282	0.207	0.210
-335.275	-200.000	-0.031	-0.566
-334.260	-106.605	0.115	-0.026
-333.245	360.536	0.119	0.237
-332.231	-63.439	0.119	-0.049
-331.216	-74.546	0.635	-0.228
-330.202	800.000	0.120	0.398
-329.187	-34.031	0.129	0.070
-328.172	143.828	-0.167	0.222
-327.158	32.159	0.149	-0.128
-326.143	-66.662	-0.058	0.023
-325.129	-87.487	0.379	-0.114
-324.114	392.085	0.018	0.038
-323.099	178.393	0.082	0.120
-322.085	-80.042	0.168	-0.056
-321.070	-156.232	-0.157	-0.010
-320.056	184.890	0.054	-0.080
-319.041	-83.313	-0.225	-0.072
-318.026	-200.000	0.018	0.120
-317.012	-83.803	-0.115	0.036
-315.997	-35.619	-0.337	-0.182
-314.983	-108.398	0.131	-0.028
-313.968	-200.000	-0.023	0.117
-312.953	-71.653	0.070	-0.026
-311.939	6.472	0.083	-0.061
-310.924	-138.840	0.232	-0.025
-309.910	78.892	0.128	0.137
-308.895	800.000	0.033	0.137
-307.880	-20.127	0.210	-0.129
-306.866	70.230	-0.218	0.224
-305.851	365.767	-0.173	-0.347
-304.837	-200.000	-0.072	0.405
-303.822	23.835	0.176	0.144
-302.807	287.286	-0.174	-0.313
-301.793	111.439	-0.127	-0.152
-300.778	71.710	-0.194	-0.201
-299.764	192.565	-0.073	-0.110
-298.749	618.934	-0.058	0.146
-297.735	411.851	-0.148	0.312
-296.720	398.793	-0.018	0.038
-295.705	-200.000	0.024	0.108
-294.691	-200.000	0.018	0.095
-293.676	800.000	-0.095	0.326
-292.662	-87.752	0.204	0.061
-291.647	-200.000	0.006	-0.062
-290.632	70.844	-0.017	0.017
-289.618	54.481	0.109	0.104
-288.603	-51.475	0.184	0.086
-287.589	383.550	-0.029	0.060
-286.574	-91.836	-0.350	0.099
-285.559	-27.578	0.374	0.216
-284.545	61.072	-0.067	-0.066
-283.530	532.247	0.147	-0.346
-282.516	70.248	-0.337	0.345
-281.501	1.122	0.170	-0.121
-280.486	-158.946	-0.101	0.006
-279.472	800.000	-0.045	0.169
-278.457	-86.387	0.271	0.083
-277.443	-111.625	-0.277	-0.056
-276.428	-86.704	-0.426	-0.130
-275.413	-135.180	-0.133	-0.016
-274.399	263.648	0.071	0.122
-273.384	-132.840	0.241	0.031
-272.370	-52.393	-0.200	-0.092
-271.355	13.784	0.293	0.226
-270.340	-113.700	0.182	0.035
-269.326	-200.000	-0.073	-0.321
-268.311	-200.000	0.009	0.174
-267.297	15.784	-0.211	0.165
-266.282	166.881	0.295	0.416
-265.267	800.000	0.022	-0.077
-264.253	-176.581	-0.159	-0.004
-263.238	-20.628	-0.379	0.231
-262.224	293.672	0.068	0.123
-261.209	134.157	0.267	0.343
-260.195	-71.424	0.226	-0.084
-259.180	800.000	-0.065	0.254
-258.165	386.132	0.064	0.130
-257.151	396.080	-0.129	0.267
-256.136	-200.000	-0.060	0.278
-255.122	-200.000	0.003	0.144
-254.107	-51.866	0.120	0.055
-253.092	-148.063	0.167	0.014
-252.078	800.000	0.124	0.345
-251.063	-132.411	0.044	-0.006
-250.049	23.548	0.067	-0.055
-249.034	-182.290	0.267	-0.005
-248.019	-123.008	0.030	-0.005
-247.005	43.617	-0.099	0.090
-245.990	2.264	-0.245	0.176
-244.976	155.356	0.125	-0.170
-243.961	-137.282	-0.008	-0.001
-242.946	-151.528	-0.152	-0.011
-241.932	-200.000	0.018	-0.175
-240.917	-81.597	-0.229	0.075
-239.903	299.484	0.028	-0.052
-238.888	-4.916	0.106	-0.073
-237.873	-200.000	0.022	-0.169
-236.859	370.393	0.133	0.267
-235.844	800.000	-0.025	0.071
-234.830	-156.918	0.420	-0.026
-233.815	-200.000	-0.126	-0.000
-232.800	240.216	0.080	-0.132
-231.786	-143.395	0.308	-0.029
-230.771	-125.465	-0.074	-0.011
-229.757	-200.000	-0.029	-0.418
-228.742	-25.305	-0.185	0.109
-227.727	662.203	-0.147	0.375
-226.713	-12.036	-0.235	-0.153
-225.698	26.454	-0.120	0.099
-224.684	-86.786	0.141	0.043
-223.669	-161.266	0.347	0.018
-222.655	-200.000	0.049	-0.288
-221.640	-200.000	0.011	-0.072
-220.625	-84.032	0.357	-0.112
-219.611	-57.926	-0.288	0.125
-218.596	-125.415	0.255	-0.039
-217.582	22.135	-0.138	-0.111
-216.567	-183.186	0.134	0.002
-215.552	-200.000	-0.020	-0.139
-214.538	132.058	-0.107	-0.137
-213.523	800.000	-0.015	-0.055
-212.509	-200.000	-0.013	-0.284
-211.494	800.000	0.049	0.197
-210.479	-61.026	0.175	-0.073
-209.465	800.000	0.138	-0.393
-208.450	-40.294	0.243	-0.125
-207.436	81.350	-0.199	-0.213
-206.421	-69.377	-0.228	-0.087
-205.406	-71.747	-0.151	0.056
-204.392	26.599	-0.303	0.251
-203.377	-99.306	-0.173	-0.043
-202.363	0.323	-0.325	-0.230
-201.348	-30.067	0.105	-0.059
-200.333	-6.023	-0.077	0.052
-199.319	-200.000	0.014	0.089
-198.304	-35.856	0.075	-0.040
-197.290	-93.586	-0.170	-0.047
-196.275	-200.000	-0.011	-0.186
-195.260	-200.000	0.040	-0.265
-194.246	59.085	0.102	-0.099
-193.231	-18.564	0.396	-0.245
-192.217	626.144	-0.018	-0.046
-191.202	-103.035	-0.163	-0.038
-190.187	-200.000	-0.003	0.067
-189.173	-12.528	0.266	-0.172
-188.158	527.335	-0.075	-0.176
-187.144	-11.554	-0.040	0.026
-186.129	498.450	-0.080	-0.183
-185.114	40.221	0.416	0.370
-184.100	-51.556	-0.497	0.230
-183.085	154.707	0.183	0.249
-182.071	172.009	-0.158	0.225
-181.056	709.886	0.107	-0.279
-180.042	53.225	0.047	-0.045
-179.027	-200.000	-0.023	-0.173
-178.012	383.196	-0.127	0.259
-176.998	180.365	-0.123	0.179
-175.983	602.788	0.034	-0.084
-174.969	-170.575	-0.111	0.004
-173.954	101.316	-0.082	-0.094
-172.939	800.000	-0.122	-0.440
-171.925	-40.606	-0.152	0.078
-170.910	-200.000	0.044	0.207
-169.896	219.402	-0.139	0.220
-168.881	-76.620	-0.443	0.154
-167.866	-94.407	0.184	0.050
-166.852	1.430	0.045	-0.032
-165.837	-200.000	-0.026	-0.140
-164.823	-62.048	-0.257	-0.106
-163.808	-32.508	0.079	0.044
-162.793	188.677	-0.271	0.401
-161.779	475.332	-0.313	-0.699
-160.764	-135.953	0.221	-0.026
-159.750	391.343	-0.101	-0.207
-158.735	800.000	-0.037	0.105
-157.720	93.092	-0.221	-0.247
-156.706	-200.000	0.049	0.272
-155.691	-22.553	-0.101	0.060
-154.677	-118.309	0.168	0.030
-153.662	-11.709	0.377	0.245
-152.647	-34.425	-0.228	-0.124
-151.633	45.757	0.103	-0.094
-150.618	262.186	0.086	0.148
-149.604	34.450	-0.138	0.119
-148.589	102.441	0.141	-0.163
-147.574	-106.834	0.096	0.021
-146.560	-200.000	-0.007	0.050
-145.545	-40.626	0.081	-0.041
-144.531	73.170	0.216	0.223
-143.516	-54.410	-0.214	-0.096
-142.502	-28.597	-0.088	0.050
-141.487	96.104	0.354	-0.400
-140.472	-66.110	0.181	-0.071
-139.458	298.542	-0.058	0.105
-138.443	17.869	0.259	-0.204
-137.429	12.870	-0.200	-0.153
-136.414	-200.000	0.009	-0.227
-135.399	161.969	-0.098	0.136
-134.385	-146.173	0.236	0.021
-133.370	-80.540	-0.061	0.020
-132.356	25.856	-0.273	-0.225
-131.341	-121.754	-0.087	-0.014
-130.326	-16.114	-0.190	0.119
-129.312	-200.000	-0.090	0.467
-128.297	-94.371	0.385	0.104
-127.283	445.645	-0.099	0.214
-126.268	800.000	-0.066	0.250
-125.253	-178.008	0.153	-0.004
-124.239	-200.000	0.000	0.153
-123.224	-69.385	-0.237	0.090
-122.210	632.575	0.080	-0.200
-121.195	116.805	-0.197	-0.239
