DTS Sentinel unit serial number:	SN413079Multiplexer serial number:	ORYXHardware model number:	OX4-SRSoftware version number:	ORYX F/W v4.00 Oryx Data Collector v3.7.2.0data status	okinstallation	princeton_trtdifferential loss correction	single-endedforward channel	channel 2reverse channel	N/Adate	2019/09/13time	22:27:35forward acquisition time	60.00reverse acquisition time	0.00gamma	496.2192k internal	0.2335k external	0.2335temperature offset calibration	1.0130default loss term (dB/km)	0.3790temperature slope calibration	1.0000multiplexer offset coefficient	1.0000multiplexer slope coefficient	1.0000fibre end	0.00T internal ref (°C)	27.78T ext. ref 1 (°C)	3.24T ext. ref 2 (°C)	22.30length (m)	temperature (°C)	Stokes	anti-Stokes-747.200	800.000	-0.044	-0.169
-746.185	138.960	-0.048	-0.063
-745.171	-70.074	0.098	0.038
-744.156	-200.000	-0.007	0.221
-743.142	42.528	-0.314	0.287
-742.127	800.000	0.010	0.028
-741.112	234.413	0.117	0.193
-740.098	-147.396	0.326	-0.028
-739.083	517.726	0.044	-0.102
-738.069	800.000	0.100	0.360
-737.054	165.184	-0.050	-0.071
-736.039	800.000	-0.088	-0.255
-735.025	-200.000	-0.003	0.425
-734.010	-49.892	-0.189	-0.090
-732.996	-16.283	-0.346	-0.221
-731.981	5.062	0.401	0.297
-730.966	-200.000	0.029	0.205
-729.952	-10.107	-0.227	-0.152
-728.937	-49.009	0.142	0.068
-727.923	408.613	-0.111	0.236
-726.908	-37.731	0.160	-0.085
-725.894	-79.175	-0.359	-0.122
-724.879	-200.000	0.005	-0.219
-723.864	426.774	0.059	0.129
-722.850	61.980	0.476	-0.477
-721.835	140.864	0.098	-0.131
-720.821	800.000	-0.013	0.039
-719.806	197.716	-0.090	-0.138
-718.791	498.847	-0.051	0.119
-717.777	-200.000	-0.018	0.214
-716.762	383.762	0.042	-0.087
-715.748	-200.000	0.001	0.095
-714.733	-99.345	0.232	-0.059
-713.718	425.378	0.116	-0.252
-712.704	-200.000	0.082	0.000
-711.689	-158.006	-0.165	0.010
-710.675	285.495	-0.090	0.163
-709.660	394.375	-0.032	-0.068
-708.645	-149.332	-0.418	-0.033
-707.631	-200.000	-0.017	0.165
-706.616	75.868	-0.065	0.069
-705.602	-82.390	0.156	-0.051
-704.587	328.277	-0.177	-0.341
-703.572	-159.659	-0.112	0.006
-702.558	-86.463	0.256	0.079
-701.543	549.863	-0.050	-0.121
-700.529	554.485	-0.171	-0.412
-699.514	-200.000	0.057	-0.494
-698.499	38.420	0.163	-0.146
-697.485	131.216	0.031	0.039
-696.470	-200.000	-0.002	0.174
-695.456	-200.000	-0.012	-0.196
-694.441	-157.989	0.206	0.012
-693.426	34.153	0.155	0.136
-692.412	-88.259	-0.215	-0.065
-691.397	-200.000	0.037	0.278
-690.383	-158.173	-0.149	0.009
-689.368	-51.751	0.332	-0.155
-688.354	7.126	-0.172	0.129
-687.339	-200.000	-0.003	0.161
-686.324	-200.000	-0.002	-0.099
-685.310	-95.619	-0.255	0.068
-684.295	-200.000	-0.049	0.380
-683.281	800.000	0.051	0.148
-682.266	-85.741	-0.138	-0.043
-681.251	537.425	-0.174	-0.415
-680.237	-21.159	0.035	0.022
-679.222	-161.526	0.133	-0.007
-678.208	6.508	-0.081	0.060
-677.193	-200.000	0.006	-0.202
-676.178	-151.399	0.133	-0.010
-675.164	83.187	-0.100	-0.110
-674.149	255.145	0.093	0.159
-673.135	-15.411	0.312	0.200
-672.120	-23.364	-0.249	-0.150
-671.105	-200.000	0.021	-0.454
-670.091	-39.814	-0.128	-0.067
-669.076	-172.573	0.309	0.010
-668.062	30.472	-0.188	-0.161
-667.047	235.811	0.284	0.470
-666.032	407.015	0.082	0.173
-665.018	463.451	-0.088	0.196
-664.003	283.153	-0.027	0.049
-662.989	-200.000	-0.001	-0.104
-661.974	29.212	0.173	-0.147
-660.959	-108.423	0.157	-0.034
-659.945	-200.000	0.018	-0.114
-658.930	25.392	0.222	-0.185
-657.916	335.586	0.131	0.254
-656.901	44.285	0.507	0.466
-655.886	-200.000	-0.004	0.081
-654.872	800.000	-0.085	-0.241
-653.857	-200.000	-0.035	-0.216
-652.843	19.558	0.167	0.135
-651.828	110.968	0.070	0.084
-650.814	-10.680	-0.136	0.090
-649.799	-140.782	0.381	0.039
-648.784	-200.000	-0.010	-0.143
-647.770	-57.992	-0.230	0.101
-646.755	800.000	-0.059	-0.245
-645.741	-200.000	-0.053	0.344
-644.726	11.554	0.116	-0.089
-643.711	324.771	-0.115	-0.220
-642.697	-135.812	-0.149	0.018
-641.682	-200.000	-0.014	-0.152
-640.668	213.687	0.152	-0.240
-639.653	443.499	-0.090	-0.198
-638.638	111.094	-0.022	-0.027
-637.624	148.490	-0.180	-0.243
-636.609	-200.000	-0.055	-0.252
-635.595	247.598	-0.175	-0.295
-634.580	-126.455	-0.147	-0.022
-633.565	-149.267	-0.353	0.028
-632.551	-18.908	-0.277	-0.172
-631.536	-200.000	-0.015	0.175
-630.522	-200.000	-0.002	-0.186
-629.507	306.963	-0.160	-0.297
-628.492	-155.004	-0.219	-0.014
-627.478	788.064	0.136	-0.375
-626.463	-110.981	0.079	0.016
-625.449	320.516	0.042	0.079
-624.434	-104.810	0.057	0.013
-623.419	800.000	0.040	-0.159
-622.405	5.785	0.059	-0.044
-621.390	164.351	0.274	-0.387
-620.376	-200.000	0.380	-0.001
-619.361	302.328	0.196	0.362
-618.346	8.211	-0.133	-0.100
-617.332	-119.711	0.081	0.014
-616.317	-45.476	-0.279	0.138
-615.303	89.600	0.111	-0.124
-614.288	800.000	-0.164	0.597
-613.273	-29.105	0.062	0.036
-612.259	-200.000	-0.023	-0.241
-611.244	-76.617	-0.332	0.116
-610.230	-200.000	-0.040	0.394
-609.215	610.111	0.236	0.589
-608.201	106.335	0.048	0.057
-607.186	-200.000	-0.029	-0.148
-606.171	-200.000	0.031	-0.287
-605.157	-161.084	0.258	-0.014
-604.142	141.598	-0.113	0.149
-603.128	-200.000	0.021	0.264
-602.113	-200.000	0.003	0.056
-601.098	-89.261	0.108	0.032
-600.084	800.000	-0.099	0.299
-599.069	232.016	-0.116	-0.191
-598.055	-145.962	-0.293	0.026
-597.040	-148.945	-0.324	0.026
-596.025	14.976	-0.350	-0.274
-595.011	138.692	0.142	-0.186
-593.996	-114.658	0.304	0.058
-592.982	-34.994	0.097	0.053
-591.967	130.335	0.104	0.133
-590.952	49.560	-0.248	-0.233
-589.938	-100.812	0.188	0.046
-588.923	186.512	-0.087	0.129
-587.909	369.456	0.090	0.181
-586.894	-200.000	0.005	-0.375
-585.879	800.000	-0.085	0.253
-584.865	89.922	-0.215	0.240
-583.850	-200.000	0.041	0.241
-582.836	8.285	-0.069	0.051
-581.821	-37.041	-0.093	-0.050
-580.806	-50.525	-0.221	-0.104
-579.792	-200.000	-0.020	0.248
-578.777	78.624	-0.213	-0.227
-577.763	800.000	0.028	-0.083
-576.748	-7.376	0.088	-0.060
-575.733	-158.454	0.166	0.010
-574.719	217.526	0.080	-0.128
-573.704	70.528	-0.125	0.129
-572.690	-90.296	0.080	0.023
-571.675	-200.000	0.217	0.000
-570.661	-200.000	-0.014	0.169
-569.646	60.623	0.161	-0.159
-568.631	800.000	0.061	-0.252
-567.617	-117.031	-0.393	-0.072
-566.602	-144.288	0.081	-0.008
-565.588	406.286	0.176	0.371
-564.573	-69.148	0.174	-0.067
-563.558	140.398	-0.275	-0.362
-562.544	186.170	-0.076	-0.114
-561.529	81.491	-0.249	0.268
-560.515	532.995	-0.050	0.117
-559.500	757.335	0.087	0.235
-558.485	-69.777	-0.178	-0.068
-557.471	-85.470	0.111	-0.034
-556.456	-61.156	0.102	-0.043
-555.442	117.537	-0.201	-0.247
-554.427	-200.000	0.077	0.373
-553.412	-186.787	-0.030	0.000
-552.398	-110.866	-0.324	0.066
-551.383	-49.083	-0.131	-0.063
-550.369	-200.000	-0.003	-0.081
-549.354	800.000	0.035	-0.147
-548.339	800.000	-0.045	0.182
-547.325	-200.000	-0.039	0.189
-546.310	-200.000	0.028	0.298
-545.296	44.653	0.147	0.135
-544.281	151.199	-0.015	0.021
-543.266	-121.182	-0.209	0.035
-542.252	-52.365	-0.167	0.077
-541.237	-200.000	-0.051	0.364
-540.223	-84.306	0.333	0.105
-539.208	-111.927	-0.234	-0.047
-538.193	-164.021	-0.231	-0.011
-537.179	354.858	-0.206	-0.407
-536.164	655.542	-0.094	0.242
-535.150	800.000	-0.074	-0.285
-534.135	-147.070	-0.124	0.011
-533.121	-43.491	-0.342	0.172
-532.106	-200.000	0.002	0.172
-531.091	-158.295	0.307	-0.018
-530.077	89.796	0.117	0.130
-529.062	6.293	0.111	0.082
-528.048	116.739	-0.096	-0.117
-527.033	-200.000	-0.002	0.279
-526.018	-200.000	-0.014	-0.195
-525.004	89.851	0.287	0.319
-523.989	103.880	0.233	0.272
-522.975	-46.963	-0.267	0.130
-521.960	243.978	-0.165	-0.276
-520.945	-17.111	0.118	0.074
-519.931	-200.000	-0.008	-0.061
-518.916	-150.702	-0.587	-0.045
-517.902	800.000	-0.099	-0.322
-516.887	493.153	0.122	-0.278
-515.872	-200.000	-0.037	-0.180
-514.858	-200.000	0.040	-0.390
-513.843	-33.341	0.331	-0.182
-512.829	800.000	-0.050	-0.162
-511.814	800.000	-0.065	-0.197
-510.799	129.078	0.161	-0.204
-509.785	-62.273	-0.060	0.025
-508.770	-200.000	-0.009	-0.236
-507.756	142.325	0.038	0.050
-506.741	-46.305	-0.169	0.083
-505.726	389.947	0.130	0.268
-504.712	-57.016	-0.133	-0.059
-503.697	55.512	0.215	-0.207
-502.683	-77.625	-0.308	-0.106
-501.668	739.652	-0.013	0.034
-500.653	-76.685	-0.314	-0.110
-499.639	-73.611	-0.159	0.058
-498.624	157.298	0.132	0.181
-497.610	800.000	-0.081	0.247
-496.595	-88.214	0.171	0.051
-495.581	109.182	0.212	-0.252
-494.566	-89.619	-0.225	-0.066
-493.551	216.064	0.059	0.093
-492.537	6.969	0.084	-0.063
-491.522	49.365	-0.135	-0.127
-490.508	32.203	0.212	-0.182
-489.493	-200.000	0.020	-0.099
-488.478	-88.247	0.175	-0.052
-487.464	800.000	0.154	-0.426
-486.449	800.000	-0.060	-0.179
-485.435	107.651	0.108	0.127
-484.420	800.000	0.078	-0.236
-483.405	-118.497	-0.394	0.069
-482.391	-165.208	-0.172	0.008
-481.376	76.353	0.203	0.214
-480.362	205.875	0.109	0.169
-479.347	-167.088	-0.055	-0.002
-478.332	174.146	-0.241	-0.346
-477.318	800.000	0.010	-0.034
-476.303	55.130	-0.098	0.095
-475.289	800.000	0.079	-0.253
-474.274	-59.676	-0.391	0.167
-473.259	-1.890	-0.246	0.172
-472.245	-70.915	-0.348	-0.130
-471.230	22.949	-0.065	-0.053
-470.216	38.156	-0.040	0.035
-469.201	-200.000	-0.006	0.097
-468.186	-200.000	-0.059	0.263
-467.172	152.675	0.069	0.094
-466.157	-51.244	-0.233	-0.108
-465.143	-189.266	0.152	-0.002
-464.128	-75.620	0.110	0.039
-463.113	-82.363	0.139	-0.045
-462.099	68.041	0.112	-0.114
-461.084	127.842	-0.256	0.324
-460.070	574.667	0.043	0.103
-459.055	-182.596	0.172	0.003
-458.040	386.841	0.054	0.110
-457.026	-73.874	0.116	0.042
-456.011	-165.843	0.178	-0.008
-454.997	-175.728	-0.250	0.007
-453.982	-200.000	-0.022	0.175
-452.968	-119.894	0.251	0.043
-451.953	-200.000	0.092	-0.537
-450.938	-148.150	-0.069	0.006
-449.924	-5.566	-0.098	-0.067
-448.909	22.613	-0.213	0.173
-447.895	233.365	-0.056	-0.091
-446.880	97.469	-0.193	0.221
-445.865	-104.241	0.330	-0.076
-444.851	-200.000	-0.023	-0.227
-443.836	-200.000	0.060	-0.269
-442.822	-92.102	-0.191	0.054
-441.807	-5.200	-0.312	0.213
-440.792	-82.059	0.301	-0.098
-439.778	36.192	-0.203	0.177
-438.763	-98.205	0.294	-0.075
-437.749	-93.508	-0.108	-0.030
-436.734	-200.000	-0.047	0.232
-435.719	-200.000	0.021	-0.238
-434.705	-200.000	0.049	0.222
-433.690	254.812	-0.185	0.314
-432.676	-111.097	0.341	0.069
-431.661	-77.775	0.427	0.146
-430.646	98.802	-0.143	-0.164
-429.632	-88.107	0.182	-0.054
-428.617	210.495	0.042	0.066
-427.603	-74.817	-0.215	-0.077
-426.588	292.407	-0.102	-0.185
-425.573	-152.581	0.393	0.028
-424.559	273.508	-0.191	0.336
-423.544	-46.251	-0.127	-0.062
-422.530	-85.464	-0.209	0.065
-421.515	-160.653	0.103	0.005
-420.500	-200.000	0.013	0.234
-419.486	12.800	0.131	-0.101
-418.471	-92.616	0.246	-0.068
-417.457	-39.112	0.127	-0.066
-416.442	-24.646	0.349	-0.206
-415.428	-138.459	0.263	-0.029
-414.413	-23.596	-0.075	0.044
-413.398	800.000	-0.132	-0.452
-412.384	-6.624	-0.154	-0.104
-411.369	-72.281	0.294	-0.108
-410.355	800.000	0.075	-0.224
-409.340	-62.745	-0.108	0.044
-408.325	-200.000	-0.049	-0.245
-407.311	-33.585	-0.273	0.149
-406.296	-49.573	-0.151	-0.071
-405.282	-138.903	0.336	0.036
-404.267	800.000	-0.017	-0.070
-403.252	-155.611	-0.337	0.021
-402.238	-143.868	-0.095	-0.009
-401.223	-112.297	0.118	0.023
-400.209	24.101	-0.127	-0.104
-399.194	33.573	-0.259	0.223
-398.179	22.718	0.363	0.294
-397.165	89.853	0.089	-0.098
-396.150	-200.000	0.046	0.402
-395.136	-7.868	0.058	0.039
-394.121	245.841	0.169	0.282
-393.106	-200.000	0.119	0.536
-392.092	358.396	-0.114	-0.226
-391.077	90.589	0.089	-0.099
-390.063	800.000	0.025	-0.103
-389.048	71.120	0.194	-0.200
-388.033	42.346	-0.168	0.152
-387.019	-200.000	0.020	-0.215
-386.004	-68.781	-0.404	0.155
-384.990	6.586	-0.178	-0.131
-383.975	-118.867	-0.075	0.013
-382.960	265.410	0.059	-0.102
-381.946	-105.204	-0.327	-0.074
-380.931	-200.000	-0.024	0.228
-379.917	-200.000	-0.041	0.274
-378.902	800.000	0.048	-0.134
-377.888	-118.491	-0.129	-0.023
-376.873	216.513	0.019	-0.030
-375.858	215.370	-0.123	-0.193
-374.844	93.613	0.059	0.066
-373.829	-200.000	-0.019	0.223
-372.815	51.256	-0.123	0.116
-371.800	-200.000	-0.245	-0.001
-370.785	-200.000	-0.014	-0.135
-369.771	-115.293	-0.486	0.091
-368.756	800.000	0.069	-0.247
-367.742	-103.342	0.006	-0.001
-366.727	800.000	0.062	0.212
-365.712	111.147	-0.316	-0.377
-364.698	-161.754	0.177	-0.009
-363.683	-90.995	0.483	-0.138
-362.669	-63.133	-0.350	-0.143
-361.654	-87.717	0.143	0.043
-360.639	417.153	-0.186	0.393
-359.625	-200.000	0.017	-0.181
-358.610	271.893	-0.010	0.018
-357.596	-99.208	0.333	0.083
-356.581	800.000	0.057	0.157
-355.566	-200.000	-0.004	-0.029
-354.552	-200.000	-0.013	0.181
-353.537	94.812	-0.256	0.288
-352.523	-23.858	0.183	0.109
-351.508	-200.000	-0.023	-0.191
-350.493	108.583	-0.186	0.220
-349.479	-141.043	-0.419	0.042
-348.464	-179.424	-0.104	-0.002
-347.450	800.000	-0.064	-0.194
-346.435	800.000	0.048	-0.181
-345.420	800.000	0.158	-0.473
-344.406	247.148	0.111	0.185
-343.391	-161.387	0.357	-0.018
-342.377	-115.729	0.247	0.046
-341.362	71.337	0.031	0.031
-340.348	17.060	0.110	-0.086
-339.333	-56.711	-0.132	-0.058
-338.318	34.728	-0.096	-0.083
-337.304	-200.000	-0.003	0.079
-336.289	-12.524	0.132	-0.085
-335.275	17.990	-0.147	0.116
-334.260	-134.378	-0.191	0.023
-333.245	-200.000	-0.029	0.225
-332.231	-77.077	0.194	-0.067
-331.216	-53.406	-0.143	-0.065
-330.202	287.694	-0.176	0.314
-329.187	-3.653	0.099	0.068
-328.172	122.071	-0.017	0.020
-327.158	-200.000	-0.032	-0.148
-326.143	3.555	0.316	0.228
-325.129	-58.379	-0.194	-0.083
-324.114	-200.000	0.043	-0.228
-323.099	-29.767	-0.063	0.036
-322.085	-19.972	-0.207	0.126
-321.070	-115.485	0.063	-0.012
-320.056	800.000	0.025	0.080
-319.041	-122.899	0.307	0.049
-318.026	-200.000	0.050	0.248
-317.012	-33.729	-0.075	0.041
-315.997	800.000	-0.060	-0.211
-314.983	-200.000	-0.031	0.213
-313.968	-97.600	-0.094	-0.024
-312.953	17.900	0.124	0.097
-311.939	-200.000	0.012	-0.076
-310.924	-184.717	0.188	0.003
-309.910	109.251	-0.027	0.032
-308.895	59.784	0.289	-0.282
-307.880	-200.000	-0.029	0.425
-306.866	-110.459	0.290	-0.059
-305.851	-200.000	0.005	-0.067
-304.837	-200.000	0.003	-0.068
-303.822	161.636	-0.067	-0.092
-302.807	-60.677	0.220	0.092
-301.793	-147.795	0.381	-0.031
-300.778	103.991	0.115	-0.133
-299.764	64.877	-0.310	-0.309
-298.749	26.974	0.104	-0.086
-297.735	165.353	0.113	-0.157
-296.720	157.674	-0.106	-0.145
-295.705	-200.000	0.031	-0.291
-294.691	34.899	0.295	-0.255
-293.676	21.639	-0.119	0.096
-292.662	-129.989	-0.089	0.012
-291.647	-159.977	0.242	0.013
-290.632	800.000	0.063	0.243
-289.618	-121.314	-0.133	-0.022
-288.603	4.738	0.283	0.205
-287.589	-149.238	0.239	0.019
-286.574	800.000	0.035	-0.102
-285.559	12.020	0.366	-0.278
-284.545	64.381	-0.139	0.138
-283.530	-160.274	0.084	-0.004
-282.516	-133.596	-0.067	0.008
-281.501	-21.382	-0.184	0.111
-280.486	-173.862	-0.315	-0.009
-279.472	-120.351	0.063	0.011
-278.457	-19.580	-0.032	-0.019
-277.443	-114.487	-0.324	-0.061
-276.428	-44.122	0.416	0.206
-275.413	-65.568	0.390	0.154
-274.399	-119.975	-0.133	0.023
-273.384	750.535	-0.105	-0.280
-272.370	186.101	-0.107	-0.157
-271.355	-145.874	0.197	-0.017
-270.340	-84.034	0.310	-0.097
-269.326	-200.000	-0.073	-0.382
-268.311	-87.708	0.167	0.050
-267.297	800.000	0.108	-0.311
-266.282	360.954	-0.123	-0.242
-265.267	-121.180	0.303	-0.050
-264.253	119.099	-0.217	-0.264
-263.238	-97.642	-0.259	0.066
-262.224	-4.877	-0.096	0.065
-261.209	-53.079	-0.143	0.065
-260.195	68.714	-0.157	-0.159
-259.180	-200.000	0.036	0.272
-258.165	282.174	-0.086	0.151
-257.151	268.645	-0.054	-0.093
-256.136	62.199	-0.031	0.031
-255.122	-8.177	-0.231	-0.153
-254.107	-19.493	0.098	0.060
-253.092	-47.236	-0.133	-0.064
-252.078	-16.346	-0.233	-0.146
-251.063	14.631	0.270	-0.208
-250.049	-103.328	0.185	0.043
-249.034	419.544	-0.014	0.030
-248.019	23.098	-0.202	0.164
-247.005	758.724	0.133	-0.355
-245.990	-89.930	0.153	-0.044
-244.976	-8.024	0.068	-0.045
-243.961	139.574	0.157	0.204
-242.946	117.097	0.227	-0.275
-241.932	168.196	0.142	0.199
-240.917	141.965	0.058	0.076
-239.903	14.004	-0.233	-0.179
-238.888	-200.000	0.007	0.086
-237.873	5.587	0.210	0.153
-236.859	-200.000	-0.003	0.058
-235.844	-59.233	0.098	0.041
-234.830	-140.436	-0.154	-0.016
-233.815	-200.000	-0.011	-0.119
-232.800	-102.483	0.084	-0.020
-231.786	145.930	0.102	0.135
-230.771	385.717	-0.141	0.287
-229.757	800.000	-0.024	0.097
-228.742	3.526	0.199	0.143
-227.727	112.609	0.249	0.297
-226.713	13.717	0.217	0.166
-225.698	213.887	0.011	0.017
-224.684	295.421	-0.058	-0.105
-223.669	-136.316	-0.141	-0.016
-222.655	-51.027	0.262	-0.121
-221.640	-200.000	-0.006	0.225
-220.625	-180.446	-0.052	-0.001
-219.611	241.990	-0.119	0.196
-218.596	3.230	-0.226	-0.162
-217.582	-125.421	0.410	-0.061
-216.567	51.963	0.143	0.134
-215.552	131.408	0.088	0.111
-214.538	96.785	-0.025	0.028
-213.523	-200.000	0.060	-0.266
-212.509	161.732	0.033	-0.045
-211.494	220.270	0.150	-0.237
-210.479	-128.788	-0.333	-0.046
-209.465	-119.833	0.360	-0.061
-208.450	-154.162	0.090	-0.006
-207.436	105.457	-0.158	0.183
-206.421	-140.317	0.046	0.005
-205.406	-200.000	0.057	-0.317
-204.392	-88.730	0.452	0.132
-203.377	-64.991	-0.241	-0.096
-202.363	50.816	0.236	0.220
-201.348	-5.574	-0.093	-0.063
-200.333	-8.805	0.238	-0.157
-199.319	100.791	-0.151	-0.172
-198.304	-133.932	0.331	0.040
-197.290	13.013	-0.182	0.138
-196.275	-200.000	0.033	0.458
-195.260	-200.000	0.052	0.273
-194.246	220.369	0.176	0.277
-193.231	131.325	-0.208	0.263
-192.217	-200.000	0.010	0.164
-191.202	-121.746	0.177	0.029
-190.187	-34.489	0.190	-0.102
-189.173	13.652	-0.425	-0.325
-188.158	-6.494	0.419	0.281
-187.144	-163.085	0.197	0.009
-186.129	249.955	-0.300	0.500
-185.114	224.532	0.040	-0.064
-184.100	-94.216	0.132	0.036
-183.085	-55.920	0.238	-0.104
-182.071	38.233	-0.084	-0.073
-181.056	-121.492	-0.326	0.053
-180.042	800.000	0.044	-0.152
-179.027	434.523	0.144	0.307
-178.012	-124.877	-0.319	-0.048
-176.998	419.458	-0.128	0.269
-175.983	-200.000	-0.015	0.138
-174.969	-114.798	0.495	-0.093
-173.954	12.946	-0.137	-0.104
-172.939	-200.000	0.030	0.243
-171.925	52.051	0.082	-0.076
-170.910	-200.000	-0.025	-0.189
-169.896	110.401	0.118	0.139
-168.881	256.838	0.127	-0.214
-167.866	243.935	-0.071	-0.118
-166.852	-200.000	-0.004	-0.145
-165.837	-110.551	-0.155	-0.032
-164.823	315.336	0.143	0.264
-163.808	-200.000	-0.059	0.329
-162.793	-200.000	0.039	-0.228
-161.779	800.000	0.069	-0.191
-160.764	-200.000	0.039	0.393
-159.750	29.226	-0.217	-0.181
-158.735	-63.170	-0.113	-0.046
-157.720	800.000	-0.023	-0.099
-156.706	104.936	-0.152	-0.176
-155.691	59.632	0.263	0.254
-154.677	108.534	-0.195	0.229
-153.662	-153.084	-0.179	-0.012
-152.647	-105.282	0.379	-0.085
-151.633	800.000	0.082	0.270
-150.618	800.000	0.090	-0.361
-149.604	-114.886	0.266	0.050
-148.589	-200.000	-0.108	0.512
-147.574	187.604	-0.203	0.297
-146.560	-101.153	-0.085	-0.020
-145.545	-200.000	0.019	-0.181
-144.531	-200.000	0.015	-0.286
-143.516	420.360	0.112	-0.235
-142.502	800.000	-0.110	-0.308
-141.487	-5.067	-0.242	-0.164
-140.472	121.496	0.067	0.082
-139.458	19.279	0.144	0.113
-138.443	396.728	0.053	0.109
-137.429	800.000	0.020	-0.079
-136.414	89.289	0.148	-0.162
-135.399	622.988	-0.126	-0.312
-134.385	18.763	-0.083	-0.065
-133.370	210.600	0.060	-0.092
-132.356	-200.000	-0.144	-0.799
-131.341	800.000	0.055	-0.229
-130.326	306.425	0.103	-0.188
-129.312	350.335	-0.069	-0.133
-128.297	-168.931	0.460	0.017
-127.283	284.199	-0.112	0.198
-126.268	-27.327	0.090	0.052
-125.253	239.734	-0.149	-0.243
-124.239	65.906	0.096	-0.095
-123.224	-200.000	0.002	-0.343
-122.210	48.574	0.247	0.227
