DTS Sentinel unit serial number:	SN413079Multiplexer serial number:	ORYXHardware model number:	OX4-SRSoftware version number:	ORYX F/W v4.00 Oryx Data Collector v3.7.2.0data status	okinstallation	princeton_trtdifferential loss correction	single-endedforward channel	channel 2reverse channel	N/Adate	2019/09/13time	15:23:35forward acquisition time	60.00reverse acquisition time	0.00gamma	496.2192k internal	0.2316k external	0.2316temperature offset calibration	1.0210default loss term (dB/km)	0.3790temperature slope calibration	1.0000multiplexer offset coefficient	1.0000multiplexer slope coefficient	1.0000fibre end	0.00T internal ref (°C)	35.31T ext. ref 1 (°C)	4.73T ext. ref 2 (°C)	29.31length (m)	temperature (°C)	Stokes	anti-Stokes-747.200	-76.319	0.200	-0.071
-746.185	36.268	-0.169	-0.151
-745.171	-65.256	0.296	-0.121
-744.156	-29.457	0.245	-0.142
-743.142	-121.415	-0.076	0.013
-742.127	-74.116	-0.262	-0.096
-741.112	171.085	-0.030	-0.043
-740.098	183.755	-0.173	0.259
-739.083	153.021	0.102	0.141
-738.069	-17.685	0.136	0.086
-737.054	-128.612	-0.236	0.034
-736.039	-200.000	0.009	-0.286
-735.025	-42.891	-0.031	0.016
-734.010	155.226	-0.313	-0.436
-732.996	535.222	-0.135	-0.324
-731.981	39.692	-0.161	-0.146
-730.966	-200.000	0.008	-0.441
-729.952	-33.387	-0.055	-0.031
-728.937	-76.580	-0.229	-0.081
-727.923	-122.732	-0.294	-0.048
-726.908	93.243	0.076	-0.087
-725.894	53.403	-0.235	-0.228
-724.879	-91.729	0.072	0.021
-723.864	-200.000	-0.001	-0.367
-722.850	-200.000	0.009	-0.243
-721.835	-21.739	0.095	-0.059
-720.821	129.052	0.139	-0.179
-719.806	-200.000	-0.091	-0.607
-718.791	-200.000	0.019	-0.172
-717.777	5.521	0.091	0.068
-716.762	-200.000	0.011	-0.091
-715.748	401.653	-0.046	-0.098
-714.733	42.983	0.186	0.172
-713.718	-17.297	-0.163	-0.104
-712.704	5.663	-0.307	-0.230
-711.689	123.987	0.152	-0.193
-710.675	349.180	0.163	0.326
-709.660	-68.858	-0.113	-0.044
-708.645	531.738	0.036	0.085
-707.631	402.810	-0.127	0.271
-706.616	447.884	0.089	-0.198
-705.602	-200.000	-0.011	0.127
-704.587	800.000	0.095	0.402
-703.572	255.237	-0.136	-0.236
-702.558	220.580	-0.085	0.137
-701.543	17.457	-0.091	-0.073
-700.529	-0.056	0.146	-0.105
-699.514	800.000	-0.019	0.062
-698.499	62.764	-0.235	0.237
-697.485	-200.000	0.011	0.223
-696.470	-169.953	0.081	-0.003
-695.456	-200.000	-0.029	-0.157
-694.441	-57.403	0.195	0.087
-693.426	-28.095	-0.026	0.015
-692.412	133.492	-0.163	0.213
-691.397	-200.000	-0.029	0.143
-690.383	-200.000	0.034	-0.267
-689.368	800.000	-0.080	0.238
-688.354	-4.808	-0.178	0.124
-687.339	343.620	-0.077	-0.152
-686.324	-96.354	-0.161	0.043
-685.310	162.832	-0.107	-0.151
-684.295	-61.354	-0.152	0.065
-683.281	800.000	-0.017	0.051
-682.266	240.706	-0.080	-0.135
-681.251	91.005	0.127	0.144
-680.237	436.033	0.047	0.104
-679.222	-144.991	0.150	-0.014
-678.208	-1.304	0.013	0.009
-677.193	800.000	-0.185	-0.537
-676.178	-200.000	-0.005	0.036
-675.164	271.802	0.051	0.091
-674.149	800.000	-0.093	-0.334
-673.135	-200.000	-0.063	-0.299
-672.120	10.966	-0.112	0.086
-671.105	180.555	-0.092	-0.137
-670.091	269.180	-0.024	-0.042
-669.076	800.000	-0.057	-0.164
-668.062	67.349	-0.173	-0.178
-667.047	248.670	-0.173	-0.296
-666.032	-134.775	0.380	-0.047
-665.018	156.362	-0.135	-0.188
-664.003	-99.782	-0.219	0.055
-662.989	58.887	-0.198	-0.197
-661.974	225.612	0.073	-0.120
-660.959	112.278	-0.077	-0.094
-659.945	-92.328	0.380	-0.108
-658.930	-5.255	0.085	0.059
-657.916	-200.000	0.018	-0.159
-656.901	115.522	0.031	-0.038
-655.886	35.837	-0.114	0.101
-654.872	-4.972	-0.186	0.129
-653.857	800.000	-0.038	0.149
-652.843	-200.000	0.008	-0.088
-651.828	-52.275	0.149	0.070
-650.814	41.823	0.288	0.263
-649.799	-87.791	0.236	0.072
-648.784	76.219	-0.426	-0.455
-647.770	-79.631	-0.379	-0.129
-646.755	800.000	-0.058	0.211
-645.741	-57.405	0.074	0.033
-644.726	-69.428	-0.131	-0.051
-643.711	295.378	0.099	-0.183
-642.697	44.429	-0.164	-0.152
-641.682	698.574	0.081	-0.216
-640.668	800.000	0.098	0.289
-639.653	421.988	-0.018	-0.038
-638.638	388.848	-0.023	0.048
-637.624	-200.000	-0.003	0.407
-636.609	800.000	0.066	0.187
-635.595	-200.000	0.002	0.407
-634.580	-200.000	-0.013	0.528
-633.565	637.695	-0.065	0.166
-632.551	162.868	0.143	0.202
-631.536	800.000	-0.072	0.213
-630.522	-105.893	-0.129	0.029
-629.507	-99.105	-0.172	0.044
-628.492	-117.842	0.089	0.016
-627.478	-125.508	0.148	-0.023
-626.463	23.099	0.180	-0.149
-625.449	-132.004	-0.169	0.022
-624.434	-8.297	-0.280	-0.190
-623.419	-131.932	-0.135	0.018
-622.405	692.929	-0.040	0.107
-621.390	-63.164	0.249	-0.104
-620.376	66.024	-0.283	-0.290
-619.361	34.230	-0.187	0.164
-618.346	53.086	-0.194	-0.187
-617.332	-200.000	0.044	-0.286
-616.317	205.821	-0.091	-0.142
-615.303	-112.396	0.466	-0.094
-614.288	-200.000	-0.010	0.222
-613.273	8.492	-0.247	-0.187
-612.259	-35.150	0.209	-0.114
-611.244	-24.907	-0.076	-0.046
-610.230	-8.249	-0.073	-0.050
-609.215	-62.235	-0.230	-0.096
-608.201	378.023	-0.076	0.157
-607.186	-200.000	0.020	0.102
-606.171	104.950	0.207	0.246
-605.157	95.556	0.177	0.204
-604.142	-110.405	0.140	-0.029
-603.128	800.000	-0.118	0.347
-602.113	-5.981	-0.305	0.210
-601.098	800.000	0.037	-0.154
-600.084	-17.755	0.069	-0.043
-599.069	79.473	0.131	0.141
-598.055	91.726	-0.150	0.170
-597.040	-51.032	0.240	0.114
-596.025	75.889	0.025	0.027
-595.011	-63.223	0.196	-0.081
-593.996	-36.911	-0.133	0.072
-592.982	60.820	-0.214	0.214
-591.967	45.269	-0.106	-0.098
-590.952	103.655	-0.264	-0.311
-589.938	800.000	-0.056	-0.187
-588.923	-200.000	-0.034	-0.198
-587.909	-200.000	0.001	-0.008
-586.894	81.848	0.250	0.273
-585.879	255.789	-0.068	-0.118
-584.865	20.608	-0.083	0.067
-583.850	125.296	0.232	-0.294
-582.836	303.496	-0.155	-0.290
-581.821	686.249	0.051	0.133
-580.806	100.135	-0.213	-0.249
-579.792	-21.058	0.100	-0.062
-578.777	-114.093	-0.366	-0.071
-577.763	-200.000	-0.017	-0.200
-576.748	-200.000	0.010	-0.234
-575.733	-200.000	-0.090	-0.442
-574.719	326.395	0.041	-0.079
-573.704	-200.000	-0.007	-0.065
-572.690	118.238	0.096	-0.119
-571.675	-140.526	0.234	-0.024
-570.661	42.570	0.051	0.047
-569.646	230.550	0.188	-0.309
-568.631	-42.121	-0.246	-0.126
-567.617	-200.000	-0.007	0.104
-566.602	-128.976	0.209	0.029
-565.588	-43.739	-0.120	0.061
-564.573	-78.234	-0.202	-0.070
-563.558	-147.721	0.224	-0.019
-562.544	-200.000	0.053	-0.358
-561.529	-127.246	0.202	-0.030
-560.515	-200.000	-0.007	-0.068
-559.500	436.645	0.221	0.483
-558.485	285.374	-0.086	-0.156
-557.471	-194.280	0.199	0.002
-556.456	800.000	-0.014	-0.043
-555.442	800.000	-0.091	0.260
-554.427	800.000	-0.150	-0.571
-553.412	-133.221	0.320	-0.041
-552.398	228.762	0.219	-0.358
-551.383	-200.000	0.042	0.235
-550.369	-34.550	0.293	0.161
-549.354	-30.532	0.382	0.218
-548.339	229.755	0.246	0.403
-547.325	508.003	-0.141	0.329
-546.310	800.000	0.130	0.504
-545.296	-200.000	-0.021	0.206
-544.281	31.190	0.238	0.206
-543.266	269.545	0.159	-0.281
-542.252	-58.575	0.199	-0.087
-541.237	-42.767	-0.416	0.213
-540.223	-200.000	0.031	0.158
-539.208	-58.475	-0.091	0.040
-538.193	-128.481	-0.204	0.029
-537.179	283.516	-0.005	-0.008
-536.164	92.592	-0.139	0.157
-535.150	-81.766	0.100	0.033
-534.135	-134.153	-0.319	-0.040
-533.121	34.432	0.258	0.226
-532.106	-173.515	-0.099	0.003
-531.091	800.000	-0.048	0.158
-530.077	-95.098	0.372	-0.101
-529.062	-69.300	-0.383	0.148
-528.048	800.000	-0.074	-0.269
-527.033	-200.000	0.004	-0.021
-526.018	8.290	0.037	0.028
-525.004	-1.751	-0.308	-0.218
-523.989	-193.130	-0.470	0.004
-522.975	800.000	-0.036	-0.119
-521.960	-172.350	0.298	0.010
-520.945	-96.831	-0.185	-0.049
-519.931	88.671	-0.141	-0.157
-518.916	-200.000	-0.041	0.230
-517.902	-13.826	0.175	0.113
-516.887	7.650	-0.350	0.263
-515.872	8.718	-0.166	0.125
-514.858	800.000	0.097	0.398
-513.843	2.205	0.140	0.101
-512.829	-57.644	-0.303	0.133
-511.814	88.025	0.155	0.172
-510.799	-54.534	-0.511	0.232
-509.785	324.758	0.118	0.227
-508.770	-200.000	-0.015	-0.124
-507.756	176.163	-0.111	-0.162
-506.741	800.000	-0.046	-0.132
-505.726	278.221	0.203	-0.364
-504.712	125.022	0.167	-0.212
-503.697	369.070	0.051	0.103
-502.683	-18.941	-0.039	-0.025
-501.668	-75.508	-0.224	0.080
-500.653	-100.132	0.294	0.073
-499.639	-92.119	0.233	0.066
-498.624	-112.847	0.205	-0.041
-497.610	138.967	-0.144	0.190
-496.595	-133.769	0.268	0.034
-495.581	-200.000	-0.003	-0.361
-494.566	800.000	0.117	-0.450
-493.551	356.851	-0.215	-0.430
-492.537	-94.826	-0.373	-0.102
-491.522	29.702	0.161	-0.137
-490.508	-50.286	-0.203	-0.096
-489.493	-69.718	0.143	0.055
-488.478	457.758	-0.137	-0.306
-487.464	-19.305	0.210	-0.131
-486.449	-200.000	0.022	-0.198
-485.435	800.000	-0.105	0.336
-484.420	-20.564	-0.088	-0.054
-483.405	-144.457	-0.405	-0.038
-482.391	800.000	-0.030	-0.106
-481.376	-46.691	-0.255	-0.125
-480.362	-200.000	0.062	-0.283
-479.347	284.269	0.107	-0.193
-478.332	-36.429	0.376	0.203
-477.318	-10.969	0.275	-0.182
-476.303	-68.368	-0.051	0.020
-475.289	-91.686	-0.461	0.132
-474.274	800.000	-0.082	-0.269
-473.259	-25.325	-0.302	0.179
-472.245	800.000	0.048	0.185
-471.230	154.306	0.179	0.247
-470.216	-200.000	-0.011	-0.268
-469.201	285.825	-0.174	-0.314
-468.186	800.000	-0.046	0.140
-467.172	-188.428	0.127	-0.002
-466.157	652.222	-0.015	0.038
-465.143	-56.984	-0.430	-0.190
-464.128	696.407	0.079	0.207
-463.113	282.153	-0.133	-0.239
-462.099	-58.234	0.153	-0.067
-461.084	2.351	0.268	-0.194
-460.070	-76.586	-0.144	-0.051
-459.055	-113.823	-0.172	-0.034
-458.040	-156.614	0.160	0.010
-457.026	176.017	0.053	-0.077
-456.011	-184.131	0.418	0.007
-454.997	800.000	0.020	-0.085
-453.982	800.000	0.019	0.078
-452.968	800.000	-0.084	0.297
-451.953	87.074	0.167	0.185
-450.938	-75.056	-0.266	0.095
-449.924	309.693	-0.091	0.170
-448.909	101.470	-0.177	0.207
-447.895	-200.000	0.012	-0.420
-446.880	265.215	-0.164	0.286
-445.865	155.773	0.260	-0.358
-444.851	-78.163	0.126	-0.043
-443.836	-54.579	0.125	0.057
-442.822	28.986	0.174	0.148
-441.807	-6.502	0.151	0.103
-440.792	97.320	-0.164	-0.188
-439.778	-200.000	0.058	0.320
-438.763	73.340	-0.265	-0.278
-437.749	-200.000	-0.031	-0.247
-436.734	-163.358	-0.061	-0.003
-435.719	194.543	-0.168	0.255
-434.705	-71.743	-0.209	0.078
-433.690	152.843	0.063	0.087
-432.676	800.000	-0.015	0.053
-431.661	-101.450	0.231	-0.056
-430.646	42.996	0.276	0.252
-429.632	-200.000	-0.054	0.265
-428.617	-135.357	0.350	0.042
-427.603	75.121	0.147	0.155
-426.588	-87.590	-0.425	0.128
-425.573	330.260	-0.074	-0.143
-424.559	-29.205	0.291	-0.167
-423.544	-62.314	0.282	-0.118
-422.530	-112.821	-0.349	-0.069
-421.515	-200.000	0.014	-0.135
-420.500	-89.637	0.217	0.064
-419.486	-178.848	-0.399	-0.009
-418.471	800.000	-0.044	-0.127
-417.457	-200.000	0.052	0.345
-416.442	-107.652	-0.227	-0.050
-415.428	800.000	-0.064	0.223
-414.413	671.879	0.130	-0.337
-413.398	193.158	-0.052	-0.078
-412.384	-29.563	0.163	-0.093
-411.369	-184.841	-0.038	-0.001
-410.355	-137.435	-0.382	0.043
-409.340	-200.000	-0.019	0.279
-408.325	55.401	0.277	0.268
-407.311	79.908	-0.148	0.159
-406.296	75.711	-0.208	0.220
-405.282	-200.000	0.016	-0.129
-404.267	800.000	0.039	0.161
-403.252	-177.491	0.243	-0.006
-402.238	617.422	0.110	0.276
-401.223	-138.216	0.149	0.016
-400.209	-4.896	0.026	-0.018
-399.194	-40.120	-0.267	-0.139
-398.179	441.828	0.025	0.054
-397.165	53.345	0.319	0.305
-396.150	115.568	-0.158	-0.193
-395.136	-200.000	-0.278	0.000
-394.121	47.051	0.238	0.221
-393.106	-200.000	-0.041	-0.181
-392.092	67.399	-0.143	0.146
-391.077	119.131	-0.065	0.080
-390.063	27.505	-0.017	-0.015
-389.048	800.000	-0.042	0.135
-388.033	-85.838	0.126	0.039
-387.019	346.602	0.055	0.108
-386.004	201.990	-0.124	0.191
-384.990	-76.282	-0.182	-0.064
-383.975	-143.007	0.273	-0.026
-382.960	-200.000	-0.012	0.266
-381.946	-76.350	-0.370	0.130
-380.931	488.369	0.033	0.076
-379.917	798.945	0.018	0.050
-378.902	-123.164	-0.373	0.060
-377.888	-23.745	-0.031	-0.019
-376.873	35.357	0.072	0.063
-375.858	301.753	0.095	0.175
-374.844	-167.869	0.518	0.020
-373.829	96.474	-0.029	0.033
-372.815	-18.995	0.158	-0.098
-371.800	258.958	-0.226	-0.390
-370.785	-0.823	0.092	0.065
-369.771	232.080	-0.058	0.095
-368.756	-113.271	-0.181	-0.035
-367.742	152.903	0.084	0.115
-366.727	231.721	0.082	0.134
-365.712	186.007	0.036	0.054
-364.698	191.268	-0.181	-0.272
-363.683	325.354	-0.069	0.132
-362.669	-47.752	-0.414	-0.200
-361.654	141.391	0.147	-0.194
-360.639	-200.000	0.010	0.290
-359.625	-152.958	0.124	-0.009
-358.610	-156.817	0.242	-0.015
-357.596	-78.938	0.161	0.055
-356.581	-200.000	-0.003	-0.393
-355.566	-45.812	-0.021	0.010
-354.552	-77.004	-0.170	-0.059
-353.537	-200.000	-0.017	-0.082
-352.523	800.000	-0.024	-0.079
-351.508	81.436	-0.370	-0.399
-350.493	-112.665	-0.236	0.047
-349.479	-200.000	0.017	0.199
-348.464	-10.651	0.175	0.116
-347.450	-5.826	-0.184	0.125
-346.435	-130.836	-0.161	0.022
-345.420	100.026	0.310	-0.358
-344.406	-65.651	-0.207	-0.083
-343.391	800.000	-0.021	0.059
-342.377	-200.000	0.038	-0.345
-341.362	-90.852	-0.263	-0.076
-340.348	184.392	-0.176	0.260
-339.333	-126.092	-0.114	0.017
-338.318	-106.305	-0.146	0.032
-337.304	800.000	0.088	-0.354
-336.289	-138.383	-0.286	-0.031
-335.275	-32.536	0.198	-0.110
-334.260	-131.111	-0.215	-0.029
-333.245	-102.758	-0.266	0.063
-332.231	234.344	0.248	0.407
-331.216	-160.234	0.264	-0.014
-330.202	256.079	-0.158	0.270
-329.187	140.743	0.236	0.310
-328.172	-94.791	-0.221	0.060
-327.158	199.350	0.060	-0.091
-326.143	582.433	0.165	0.404
-325.129	-113.536	0.127	-0.025
-324.114	765.366	-0.038	-0.102
-323.099	-112.731	0.392	-0.078
-322.085	-200.000	-0.015	-0.167
-321.070	-200.000	0.047	0.264
-320.056	-200.000	0.002	0.167
-319.041	-77.376	-0.081	-0.028
-318.026	-97.225	0.233	0.061
-317.012	-152.396	0.141	0.010
-315.997	141.103	-0.261	-0.344
-314.983	-200.000	0.064	-0.400
-313.968	4.463	-0.080	0.059
-312.953	231.266	-0.074	-0.120
-311.939	-73.527	0.059	0.022
-310.924	-158.164	-0.259	-0.015
-309.910	-102.324	-0.036	-0.009
-308.895	-200.000	0.016	0.357
-307.880	-200.000	-0.075	0.469
-306.866	646.509	-0.015	0.038
-305.851	35.469	0.144	0.125
-304.837	-116.068	-0.126	-0.023
-303.822	5.494	-0.165	-0.121
-302.807	-77.726	0.284	-0.098
-301.793	415.036	-0.182	-0.386
-300.778	346.827	-0.157	-0.307
-299.764	-114.388	0.250	-0.048
-298.749	-22.465	0.180	0.108
-297.735	96.249	0.062	-0.071
-296.720	800.000	0.104	-0.287
-295.705	364.188	-0.081	-0.163
-294.691	-155.185	0.111	-0.007
-293.676	-69.916	0.259	-0.098
-292.662	157.652	0.229	0.316
-291.647	-163.320	0.187	0.009
-290.632	216.083	-0.106	-0.168
-289.618	-94.101	0.214	-0.058
-288.603	788.173	-0.103	0.281
-287.589	29.003	-0.077	-0.065
-286.574	-39.053	0.283	0.148
-285.559	41.736	0.236	-0.213
-284.545	32.256	0.211	0.181
-283.530	-85.830	0.131	-0.041
-282.516	-37.682	-0.117	-0.062
-281.501	198.844	0.172	-0.262
-280.486	115.568	0.289	0.352
-279.472	800.000	0.084	-0.258
-278.457	16.709	-0.136	-0.107
-277.443	-132.133	-0.191	0.025
-276.428	-90.425	0.375	-0.108
-275.413	800.000	-0.121	-0.387
-274.399	-200.000	0.039	0.000
-273.384	73.656	-0.096	-0.100
-272.370	-95.492	0.289	-0.077
-271.355	71.557	0.050	0.052
-270.340	44.291	0.184	0.167
-269.326	-200.000	-0.034	-0.255
-268.311	71.894	0.178	0.184
-267.297	-76.080	0.230	0.081
-266.282	393.557	-0.063	0.129
-265.267	271.814	-0.101	-0.176
-264.253	-119.058	-0.196	0.034
-263.238	75.105	0.103	0.108
-262.224	-200.000	0.030	0.234
-261.209	64.933	0.084	0.085
-260.195	-87.788	0.157	0.047
-259.180	-200.000	0.015	-0.117
-258.165	-200.000	0.035	-0.279
-257.151	138.255	-0.275	-0.359
-256.136	-109.779	-0.275	0.057
-255.122	86.268	0.123	-0.134
-254.107	138.037	-0.250	0.325
-253.092	-200.000	-0.071	0.395
-252.078	-130.788	-0.088	-0.012
-251.063	-200.000	0.039	-0.482
-250.049	226.686	0.156	-0.252
-249.034	-157.348	-0.149	-0.009
-248.019	-75.143	0.222	-0.079
-247.005	56.276	-0.076	-0.074
-245.990	-200.000	0.063	-0.337
-244.976	-103.049	0.122	0.029
-243.961	675.053	-0.104	0.267
-242.946	-89.493	0.136	-0.040
-241.932	800.000	0.051	-0.174
-240.917	129.816	0.136	-0.173
-239.903	-200.000	-0.010	-0.081
-238.888	194.222	0.207	-0.311
-237.873	349.920	0.079	-0.154
-236.859	-146.143	-0.099	-0.009
-235.844	204.930	0.015	0.023
-234.830	180.065	0.092	0.133
-233.815	443.254	-0.091	-0.197
-232.800	55.925	-0.165	0.158
-231.786	313.382	-0.088	0.164
-230.771	224.504	0.096	0.154
-229.757	76.367	0.077	0.081
-228.742	508.343	0.128	0.295
-227.727	15.427	0.025	0.019
-226.713	97.158	0.142	0.162
-225.698	-20.999	0.030	0.018
-224.684	-62.148	-0.162	0.067
-223.669	14.691	0.149	0.116
-222.655	205.418	-0.182	-0.280
-221.640	-58.636	-0.205	-0.088
-220.625	40.830	0.202	0.181
-219.611	-200.000	0.020	-0.143
-218.596	-41.740	0.161	-0.082
-217.582	85.770	-0.249	-0.271
-216.567	-136.201	0.162	0.019
-215.552	800.000	0.091	0.325
-214.538	320.730	-0.093	0.175
-213.523	777.508	0.089	-0.241
-212.509	106.387	0.128	-0.150
-211.494	-49.551	0.102	-0.048
-210.479	303.240	-0.079	0.145
-209.465	311.385	0.048	-0.089
-208.450	456.512	-0.035	-0.076
-207.436	-22.254	0.077	-0.046
-206.421	12.260	-0.163	0.125
-205.406	-96.643	-0.143	0.037
-204.392	-158.817	-0.383	-0.022
-203.377	-200.000	-0.000	0.194
-202.363	301.726	-0.154	-0.283
-201.348	310.327	-0.150	-0.278
-200.333	294.356	0.069	-0.124
-199.319	303.056	0.085	0.156
-198.304	-200.000	-0.037	0.202
-197.290	-42.812	0.176	-0.089
-196.275	73.396	-0.079	0.082
-195.260	47.850	-0.150	0.139
-194.246	-200.000	-0.000	-0.140
-193.231	-200.000	0.006	0.118
-192.217	-131.157	-0.226	-0.030
-191.202	-200.000	0.003	-0.037
-190.187	300.253	0.047	0.087
-189.173	800.000	-0.059	-0.232
-188.158	-200.000	-0.007	-0.093
-187.144	800.000	0.022	0.083
-186.129	537.297	-0.070	-0.164
-185.114	-48.439	-0.097	0.046
-184.100	-20.219	0.070	-0.043
-183.085	-200.000	-0.027	0.143
-182.071	184.415	-0.106	0.156
-181.056	-22.793	0.153	-0.091
-180.042	357.973	0.144	-0.284
-179.027	-200.000	0.001	-0.025
-178.012	-90.365	0.156	-0.045
-176.998	49.965	-0.098	0.092
-175.983	428.758	0.096	-0.206
-174.969	10.909	-0.366	-0.277
-173.954	-30.957	-0.141	-0.079
-172.939	-200.000	0.017	0.140
-171.925	-6.583	0.145	0.097
-170.910	49.817	-0.069	-0.064
-169.896	-200.000	0.000	0.002
-168.881	-122.401	0.243	-0.039
-167.866	800.000	-0.054	-0.208
-166.852	16.907	0.149	0.117
-165.837	-189.967	0.174	-0.002
-164.823	-200.000	-0.060	0.429
-163.808	6.949	0.273	0.201
-162.793	193.679	-0.150	-0.224
-161.779	94.450	0.206	0.232
-160.764	-189.121	0.047	-0.001
-159.750	664.795	0.030	0.076
-158.735	177.704	0.192	0.277
-157.720	-200.000	-0.005	0.085
-156.706	70.618	0.246	0.252
-155.691	-116.535	-0.099	-0.018
-154.677	-124.523	-0.282	-0.043
-153.662	14.059	0.184	0.142
-152.647	471.235	-0.053	0.118
-151.633	-137.545	0.112	-0.012
-150.618	-71.905	0.065	-0.024
-149.604	-12.638	-0.300	-0.193
-148.589	800.000	0.058	0.170
-147.574	148.636	-0.168	-0.224
-146.560	-200.000	-0.032	-0.255
-145.545	174.222	0.158	-0.226
-144.531	206.112	-0.210	0.323
-143.516	7.351	0.296	-0.219
-142.502	-17.344	0.168	-0.105
-141.487	-200.000	0.031	0.325
-140.472	-100.272	-0.081	-0.020
-139.458	800.000	-0.120	-0.371
-138.443	340.634	0.065	-0.125
-137.429	800.000	-0.087	0.240
-136.414	-15.116	-0.036	0.023
-135.399	-106.288	0.157	-0.035
-134.385	-141.097	-0.304	0.031
-133.370	-162.166	0.120	0.006
-132.356	321.030	-0.080	0.150
-131.341	-200.000	-0.069	-0.386
-130.326	44.428	-0.188	0.171
-129.312	43.072	-0.164	-0.148
-128.297	-200.000	0.032	0.204
-127.283	277.903	0.191	0.336
-126.268	-26.049	0.094	-0.055
-125.253	-200.000	0.033	0.376
-124.239	-13.164	0.296	0.190
-123.224	-46.862	0.235	-0.114
-122.210	5.711	-0.163	0.119
-121.195	-200.000	0.004	0.023
