DTS Sentinel unit serial number:	SN413079Multiplexer serial number:	ORYXHardware model number:	OX4-SRSoftware version number:	ORYX F/W v4.00 Oryx Data Collector v3.7.2.0data status	okinstallation	princeton_trtdifferential loss correction	single-endedforward channel	channel 2reverse channel	N/Adate	2019/09/14time	03:23:35forward acquisition time	60.00reverse acquisition time	0.00gamma	496.2192k internal	0.2337k external	0.2337temperature offset calibration	1.0123default loss term (dB/km)	0.3790temperature slope calibration	1.0000multiplexer offset coefficient	1.0000multiplexer slope coefficient	1.0000fibre end	0.00T internal ref (°C)	26.62T ext. ref 1 (°C)	3.26T ext. ref 2 (°C)	21.64length (m)	temperature (°C)	Stokes	anti-Stokes-747.200	45.636	-0.123	-0.114
-746.185	-200.000	0.008	0.063
-745.171	56.242	0.253	0.247
-744.156	-200.000	0.042	0.238
-743.142	-200.000	-0.036	0.209
-742.127	396.838	0.080	0.168
-741.112	35.808	0.103	-0.091
-740.098	-21.014	-0.185	0.114
-739.083	-200.000	-0.035	0.268
-738.069	-200.000	-0.020	0.267
-737.054	355.313	-0.157	0.314
-736.039	-92.404	-0.376	-0.106
-735.025	-21.046	-0.122	-0.075
-734.010	361.870	-0.119	-0.240
-732.996	61.668	-0.408	0.407
-731.981	-200.000	0.013	-0.193
-730.966	-69.128	-0.340	-0.131
-729.952	289.606	0.057	-0.104
-728.937	123.778	0.083	0.104
-727.923	-29.578	0.145	-0.083
-726.908	314.466	-0.077	0.145
-725.894	-76.823	-0.228	-0.080
-724.879	9.045	-0.057	-0.044
-723.864	629.978	-0.134	-0.341
-722.850	-200.000	-0.059	-0.308
-721.835	-27.663	-0.203	-0.118
-720.821	154.189	-0.153	-0.211
-719.806	-187.160	-0.046	-0.001
-718.791	-105.133	0.292	0.067
-717.777	499.403	0.050	0.115
-716.762	368.997	-0.064	-0.130
-715.748	-200.000	0.025	-0.117
-714.733	-90.378	-0.118	0.034
-713.718	-160.871	-0.291	0.015
-712.704	800.000	-0.025	0.072
-711.689	-200.000	-0.010	0.053
-710.675	-14.205	-0.089	-0.058
-709.660	-121.393	0.326	-0.054
-708.645	114.096	0.096	-0.117
-707.631	-55.757	-0.164	0.073
-706.616	190.958	-0.184	0.277
-705.602	102.306	-0.251	-0.294
-704.587	331.027	0.032	-0.062
-703.572	36.622	-0.094	0.084
-702.558	-100.736	-0.319	-0.079
-701.543	800.000	-0.038	-0.142
-700.529	-200.000	0.012	-0.272
-699.514	524.650	0.091	-0.215
-698.499	-200.000	-0.042	0.215
-697.485	209.651	0.109	-0.171
-696.470	-200.000	0.029	0.129
-695.456	268.521	0.101	-0.178
-694.441	160.816	-0.060	0.084
-693.426	2.667	-0.429	0.312
-692.412	-200.000	0.001	0.075
-691.397	200.831	-0.148	0.228
-690.383	91.628	0.313	-0.353
-689.368	54.968	0.063	-0.061
-688.354	368.543	0.100	0.202
-687.339	-60.276	-0.218	-0.093
-686.324	429.574	0.152	-0.329
-685.310	-200.000	-0.006	-0.035
-684.295	14.519	0.078	-0.061
-683.281	383.230	-0.067	-0.138
-682.266	155.724	-0.107	-0.148
-681.251	32.503	0.143	-0.124
-680.237	800.000	0.088	-0.337
-679.222	21.160	-0.190	-0.154
-678.208	-200.000	0.016	0.419
-677.193	-26.409	-0.240	0.141
-676.178	110.032	-0.165	-0.199
-675.164	-200.000	0.010	-0.054
-674.149	-48.549	-0.320	0.154
-673.135	-167.263	0.373	0.015
-672.120	-40.606	-0.225	0.117
-671.105	800.000	-0.145	0.430
-670.091	-111.394	-0.115	-0.023
-669.076	464.701	0.060	0.134
-668.062	173.177	-0.050	0.072
-667.047	-56.052	-0.159	-0.071
-666.032	278.187	0.083	-0.147
-665.018	800.000	0.053	-0.206
-664.003	126.913	0.083	-0.106
-662.989	327.873	-0.117	-0.224
-661.974	-134.247	-0.119	-0.015
-660.959	-56.516	0.102	-0.045
-659.945	-100.902	0.478	0.118
-658.930	-200.000	-0.012	-0.213
-657.916	-52.475	0.240	-0.111
-656.901	-28.769	0.216	0.125
-655.886	-105.713	-0.073	-0.017
-654.872	-79.810	0.084	-0.028
-653.857	-159.198	0.141	0.008
-652.843	-200.000	0.007	-0.083
-651.828	-17.692	0.167	0.105
-650.814	-75.987	-0.274	0.097
-649.799	-132.971	-0.368	-0.047
-648.784	800.000	-0.068	0.230
-647.770	800.000	-0.033	0.112
-646.755	-106.870	0.251	0.056
-645.741	800.000	0.144	-0.418
-644.726	-115.075	0.166	-0.031
-643.711	-89.662	-0.144	0.042
-642.697	-160.125	-0.084	0.005
-641.682	473.560	-0.127	-0.286
-640.668	56.139	-0.146	-0.142
-639.653	-51.318	-0.197	-0.092
-638.638	-68.540	0.081	-0.031
-637.624	166.745	0.144	0.205
-636.609	-134.100	0.127	0.016
-635.595	116.325	0.091	-0.112
-634.580	-123.173	0.105	-0.017
-633.565	-131.856	-0.243	0.032
-632.551	-19.931	0.175	0.108
-631.536	-200.000	0.008	-0.218
-630.522	719.717	-0.085	-0.225
-629.507	37.507	0.277	-0.246
-628.492	-88.283	0.223	0.067
-627.478	-0.974	-0.176	-0.124
-626.463	340.399	-0.187	-0.365
-625.449	-22.080	-0.167	-0.101
-624.434	619.500	-0.058	0.146
-623.419	195.480	0.041	0.062
-622.405	-7.578	-0.196	0.133
-621.390	108.660	-0.153	0.182
-620.376	-200.000	-0.003	0.023
-619.361	229.521	0.047	-0.077
-618.346	800.000	-0.065	-0.242
-617.332	82.817	-0.155	-0.169
-616.317	-107.784	0.143	0.031
-615.303	-200.000	0.042	-0.332
-614.288	-139.104	-0.210	-0.023
-613.273	-200.000	-0.019	0.153
-612.259	800.000	0.044	-0.150
-611.244	-95.903	0.290	-0.077
-610.230	800.000	0.110	0.317
-609.215	-200.000	0.030	0.220
-608.201	2.707	-0.242	-0.175
-607.186	-68.557	-0.086	-0.033
-606.171	690.883	0.088	-0.231
-605.157	322.610	-0.125	-0.238
-604.142	-200.000	0.124	0.583
-603.128	119.909	0.148	-0.184
-602.113	-55.342	-0.365	-0.163
-601.098	47.642	0.117	0.109
-600.084	-44.021	-0.162	0.081
-599.069	24.624	0.286	-0.237
-598.055	6.887	0.309	0.230
-597.040	-109.708	-0.343	0.072
-596.025	62.853	0.105	-0.105
-595.011	86.551	0.173	0.191
-593.996	-200.000	-0.010	-0.260
-592.982	40.337	-0.099	-0.089
-591.967	5.894	-0.177	-0.131
-590.952	237.454	-0.135	-0.223
-589.938	190.214	-0.115	0.172
-588.923	-20.084	0.090	0.056
-587.909	-200.000	-0.048	0.276
-586.894	-200.000	-0.007	0.219
-585.879	47.715	0.283	0.264
-584.865	84.785	0.033	-0.036
-583.850	-108.765	0.207	-0.044
-582.836	-22.271	0.122	0.074
-581.821	39.573	-0.162	0.145
-580.806	531.795	0.079	-0.186
-579.792	334.007	0.246	0.475
-578.777	-200.000	-0.045	-0.199
-577.763	45.949	-0.356	-0.328
-576.748	-104.344	0.156	0.036
-575.733	642.339	0.071	-0.181
-574.719	800.000	0.054	0.150
-573.704	404.137	0.129	0.272
-572.690	407.283	0.134	-0.283
-571.675	165.600	0.104	-0.146
-570.661	800.000	0.095	0.331
-569.646	-200.000	0.007	0.036
-568.631	-97.435	-0.278	-0.072
-567.617	27.900	-0.207	0.174
-566.602	-200.000	0.021	-0.217
-565.588	-99.233	-0.276	-0.070
-564.573	33.962	-0.037	0.032
-563.558	-157.753	-0.250	0.015
-562.544	176.877	-0.148	0.214
-561.529	17.083	-0.250	-0.198
-560.515	736.134	-0.024	0.065
-559.500	276.322	0.110	-0.195
-558.485	156.276	-0.014	-0.019
-557.471	182.869	-0.019	0.027
-556.456	434.495	-0.113	0.245
-555.442	56.936	-0.289	0.281
-554.427	11.464	-0.158	-0.120
-553.412	183.872	0.109	0.161
-552.398	449.889	-0.087	-0.190
-551.383	62.929	-0.209	-0.208
-550.369	-98.764	-0.380	0.096
-549.354	-200.000	-0.034	0.164
-548.339	-200.000	-0.048	0.258
-547.325	800.000	-0.035	-0.154
-546.310	-132.856	-0.221	-0.028
-545.296	-165.891	0.079	0.003
-544.281	-62.496	-0.414	0.171
-543.266	13.254	0.174	0.135
-542.252	800.000	-0.099	-0.276
-541.237	-124.387	-0.302	-0.047
-540.223	800.000	-0.006	-0.027
-539.208	-45.786	-0.211	0.104
-538.193	79.922	-0.025	-0.027
-537.179	800.000	-0.049	-0.138
-536.164	-87.545	0.195	-0.059
-535.150	-31.734	0.291	0.163
-534.135	-13.582	0.207	-0.134
-533.121	-159.448	-0.051	-0.003
-532.106	-200.000	0.043	-0.203
-531.091	-55.763	0.052	-0.023
-530.077	28.909	-0.114	-0.096
-529.062	164.592	0.076	-0.106
-528.048	800.000	-0.106	-0.412
-527.033	46.627	-0.079	0.073
-526.018	-130.384	0.322	-0.044
-525.004	-35.566	0.089	0.048
-523.989	800.000	0.051	-0.219
-522.975	183.865	-0.176	0.260
-521.960	45.966	-0.101	-0.093
-520.945	20.928	-0.073	-0.059
-519.931	-132.961	0.037	-0.005
-518.916	800.000	0.020	-0.059
-517.902	29.625	0.301	-0.255
-516.887	263.610	-0.091	0.158
-515.872	16.450	-0.128	0.101
-514.858	104.791	-0.229	-0.269
-513.843	-72.511	0.203	-0.075
-512.829	-87.237	0.205	-0.062
-511.814	-12.351	0.117	-0.076
-510.799	800.000	-0.048	-0.147
-509.785	12.725	-0.323	0.248
-508.770	-57.233	-0.229	-0.100
-507.756	-200.000	-0.027	0.434
-506.741	-10.305	-0.106	0.070
-505.726	-200.000	-0.012	0.142
-504.712	-44.637	0.298	-0.148
-503.697	-133.508	0.167	0.021
-502.683	31.819	0.045	-0.039
-501.668	-50.611	0.157	0.074
-500.653	-99.161	0.261	-0.066
-499.639	638.946	0.056	-0.142
-498.624	187.848	0.093	-0.138
-497.610	13.771	0.255	0.197
-496.595	-92.527	-0.366	-0.102
-495.581	-200.000	0.004	0.172
-494.566	-100.824	0.196	0.048
-493.551	-200.000	-0.028	-0.159
-492.537	-102.152	0.149	0.036
-491.522	-200.000	-0.183	0.000
-490.508	-36.581	-0.294	-0.157
-489.493	-136.515	-0.145	-0.017
-488.478	-80.801	-0.424	0.140
-487.464	-200.000	-0.001	-0.030
-486.449	-4.889	-0.150	0.103
-485.435	-92.998	0.171	-0.047
-484.420	71.889	-0.125	-0.129
-483.405	579.622	-0.133	-0.324
-482.391	702.070	0.036	-0.096
-481.376	11.797	-0.217	0.165
-480.362	-35.203	0.498	-0.269
-479.347	-69.961	-0.202	0.076
-478.332	64.149	-0.216	0.216
-477.318	800.000	-0.015	-0.045
-476.303	-200.000	0.031	0.236
-475.289	-93.072	-0.163	0.045
-474.274	-79.654	0.063	0.021
-473.259	4.526	0.250	-0.182
-472.245	34.338	0.242	-0.210
-471.230	191.858	-0.036	-0.053
-470.216	81.001	0.054	-0.058
-469.201	-34.666	0.054	-0.029
-468.186	54.796	-0.102	-0.098
-467.172	699.279	0.056	-0.146
-466.157	800.000	-0.100	0.298
-465.143	-200.000	0.006	0.158
-464.128	-7.303	0.047	0.032
-463.113	-10.793	0.347	-0.228
-462.099	133.560	0.129	0.165
-461.084	-200.000	0.012	-0.348
-460.070	84.939	0.209	0.228
-459.055	34.925	-0.156	0.136
-458.040	-57.535	-0.187	0.081
-457.026	29.191	0.228	0.192
-456.011	-200.000	0.028	-0.170
-454.997	141.303	0.171	-0.225
-453.982	232.173	0.113	-0.184
-452.968	-37.722	-0.105	-0.056
-451.953	-42.208	-0.280	0.142
-450.938	800.000	0.085	0.295
-449.924	-200.000	-0.003	0.070
-448.909	-200.000	-0.481	0.001
-447.895	531.708	0.086	0.202
-446.880	-200.000	-0.072	0.345
-445.865	800.000	-0.081	0.237
-444.851	-108.605	-0.356	0.076
-443.836	800.000	0.116	-0.383
-442.822	-100.569	-0.353	-0.087
-441.807	33.707	0.146	0.126
-440.792	-200.000	0.026	-0.204
-439.778	314.599	0.049	-0.091
-438.763	-200.000	-0.015	0.084
-437.749	-6.562	0.234	0.158
-436.734	62.609	0.018	0.018
-435.719	100.534	0.272	-0.314
-434.705	-55.552	-0.103	-0.046
-433.690	-14.872	0.195	-0.124
-432.676	297.870	0.240	0.437
-431.661	-200.000	0.003	0.119
-430.646	-101.556	0.043	0.010
-429.632	-200.000	0.050	0.337
-428.617	-200.000	-0.009	0.079
-427.603	-41.898	-0.185	-0.094
-426.588	-51.265	0.065	0.030
-425.573	-62.198	0.036	0.015
-424.559	144.014	0.090	-0.119
-423.544	-200.000	-0.015	-0.143
-422.530	-114.043	-0.261	0.050
-421.515	800.000	0.103	0.285
-420.500	7.866	0.211	0.157
-419.486	-102.413	-0.272	-0.065
-418.471	-89.568	0.181	0.053
-417.457	-200.000	-0.009	0.095
-416.442	-200.000	-0.020	-0.222
-415.428	105.221	0.298	-0.349
-414.413	13.036	-0.159	-0.122
-413.398	-140.510	-0.256	0.026
-412.384	-138.462	-0.263	0.029
-411.369	242.185	0.074	0.123
-410.355	-98.939	-0.111	0.028
-409.340	38.480	-0.202	0.179
-408.325	800.000	-0.025	0.075
-407.311	504.943	0.059	0.136
-406.296	29.098	-0.251	-0.211
-405.282	-44.596	0.374	-0.185
-404.267	-200.000	-0.067	-0.461
-403.252	-35.937	0.032	0.017
-402.238	505.677	0.104	-0.239
-401.223	103.751	-0.218	-0.254
-400.209	152.555	-0.045	-0.060
-399.194	287.617	-0.075	0.134
-398.179	46.319	-0.138	0.126
-397.165	-200.000	0.070	-0.341
-396.150	-148.705	-0.082	-0.007
-395.136	99.052	-0.081	-0.092
-394.121	-119.412	0.063	0.011
-393.106	-200.000	-0.002	0.124
-392.092	-158.059	-0.172	0.010
-391.077	-200.000	0.039	0.171
-390.063	-200.000	-0.007	-0.280
-389.048	312.917	-0.063	-0.118
-388.033	-200.000	-0.043	0.313
-387.019	344.402	-0.053	-0.103
-386.004	424.100	-0.144	-0.307
-384.990	-119.696	-0.474	0.081
-383.975	-104.730	-0.430	-0.098
-382.960	800.000	0.044	-0.153
-381.946	-142.989	-0.146	0.014
-380.931	125.960	-0.094	0.117
-379.917	74.773	0.149	-0.155
-378.902	-55.576	-0.288	-0.128
-377.888	800.000	-0.119	-0.377
-376.873	-109.153	-0.233	0.049
-375.858	246.055	0.151	-0.253
-374.844	95.529	0.076	0.085
-373.829	-140.673	0.361	0.037
-372.815	74.422	-0.012	-0.013
-371.800	800.000	0.052	0.165
-370.785	148.992	0.170	0.227
-369.771	800.000	-0.100	0.310
-368.756	757.588	-0.064	-0.171
-367.742	-83.014	0.174	0.055
-366.727	263.699	-0.071	0.122
-365.712	202.386	-0.185	0.283
-364.698	-39.638	-0.145	0.075
-363.683	-43.948	-0.235	0.117
-362.669	-69.026	0.167	-0.064
-361.654	-167.669	0.134	-0.005
-360.639	481.502	-0.017	0.039
-359.625	-52.125	0.115	-0.053
-358.610	333.422	-0.072	-0.138
-357.596	-200.000	-0.016	-0.325
-356.581	321.255	0.082	-0.154
-355.566	800.000	0.044	0.127
-354.552	-21.227	0.306	0.185
-353.537	659.910	0.069	0.175
-352.523	340.490	-0.018	-0.035
-351.508	800.000	-0.027	-0.117
-350.493	-89.592	-0.124	-0.036
-349.479	-200.000	-0.031	-0.195
-348.464	673.090	0.065	-0.167
-347.450	-45.923	-0.032	0.016
-346.435	-135.536	0.220	-0.026
-345.420	49.221	-0.412	-0.383
-344.406	796.118	0.129	-0.351
-343.391	195.183	-0.111	-0.167
-342.377	-137.044	-0.184	-0.021
-341.362	450.293	-0.139	-0.303
-340.348	265.285	0.059	0.101
-339.333	-23.940	0.220	0.130
-338.318	143.343	0.127	0.167
-337.304	-60.539	0.103	-0.043
-336.289	-148.175	-0.333	-0.027
-335.275	-77.181	0.078	0.027
-334.260	681.749	0.052	-0.133
-333.245	-65.785	0.352	0.139
-332.231	-186.791	0.179	0.002
-331.216	-200.000	-0.209	-0.000
-330.202	194.519	0.227	0.340
-329.187	800.000	0.093	0.400
-328.172	350.684	0.077	-0.150
-327.158	408.409	0.138	-0.287
-326.143	121.403	0.242	0.298
-325.129	111.872	0.105	0.126
-324.114	-80.764	0.295	0.097
-323.099	-9.475	-0.222	0.146
-322.085	97.673	0.289	-0.328
-321.070	-104.699	0.078	0.018
-320.056	-121.457	0.232	0.038
-319.041	-200.000	0.049	-0.472
-318.026	48.049	0.082	0.075
-317.012	208.772	-0.207	0.320
-315.997	-87.062	0.126	-0.038
-314.983	-22.440	-0.195	-0.117
-313.968	322.274	-0.058	0.109
-312.953	800.000	0.110	0.377
-311.939	-40.591	-0.028	0.014
-310.924	55.320	0.214	0.204
-309.910	-116.545	-0.511	-0.093
-308.895	-17.016	-0.079	0.049
-307.880	69.477	-0.282	0.286
-306.866	-166.064	-0.167	-0.007
-305.851	-158.253	-0.059	0.003
-304.837	185.599	-0.162	-0.238
-303.822	-40.256	-0.382	-0.196
-302.807	-200.000	0.024	-0.112
-301.793	602.713	0.038	0.094
-300.778	267.558	0.095	-0.165
-299.764	73.585	-0.529	-0.546
-298.749	-117.515	0.299	0.053
-297.735	-125.912	-0.194	-0.029
-296.720	16.397	-0.091	-0.071
-295.705	-7.622	0.210	-0.140
-294.691	-88.147	-0.223	-0.066
-293.676	-141.682	0.268	-0.027
-292.662	119.217	0.048	0.059
-291.647	-25.247	-0.270	0.158
-290.632	746.183	-0.070	-0.186
-289.618	7.540	-0.165	0.122
-288.603	84.622	0.395	0.426
-287.589	64.079	0.271	0.269
-286.574	369.589	0.119	0.238
-285.559	-200.000	-0.008	0.158
-284.545	-94.281	-0.236	0.064
-283.530	65.155	0.148	0.148
-282.516	14.484	-0.049	0.038
-281.501	650.263	0.092	0.231
-280.486	-24.567	0.406	0.238
-279.472	-200.000	-0.016	0.137
-278.457	-200.000	0.009	0.247
-277.443	341.563	-0.149	-0.288
-276.428	292.328	0.129	-0.232
-275.413	800.000	0.067	-0.204
-274.399	124.514	0.090	0.111
-273.384	675.004	0.005	-0.013
-272.370	-94.601	0.223	-0.060
-271.355	-96.329	-0.186	0.049
-270.340	43.568	-0.141	-0.127
-269.326	800.000	0.089	0.245
-268.311	452.737	0.160	0.348
-267.297	52.660	0.199	0.187
-266.282	-100.394	-0.130	0.032
-265.267	-41.948	0.160	0.081
-264.253	-55.195	-0.069	0.031
-263.238	300.785	0.223	-0.406
-262.224	-200.000	0.001	0.019
-261.209	495.944	0.052	-0.117
-260.195	-5.192	-0.108	-0.073
-259.180	8.765	-0.142	-0.105
-258.165	80.043	-0.098	0.104
-257.151	800.000	-0.022	0.071
-256.136	185.449	-0.068	0.099
-255.122	-26.959	-0.172	0.099
-254.107	-40.775	-0.298	-0.152
-253.092	800.000	-0.077	-0.211
-252.078	60.157	0.181	0.176
-251.063	544.415	0.123	-0.290
-250.049	-47.970	0.165	0.079
-249.034	-173.575	0.089	0.003
-248.019	660.584	-0.068	-0.172
-247.005	564.511	0.081	0.194
-245.990	-55.170	0.054	-0.024
-244.976	270.127	0.055	-0.095
-243.961	-176.206	0.554	-0.014
-242.946	274.420	-0.118	-0.206
-241.932	-15.055	-0.163	-0.103
-240.917	26.505	0.138	0.114
-239.903	-107.303	0.023	-0.005
-238.888	-133.851	0.299	0.037
-237.873	471.626	0.046	-0.103
-236.859	239.985	0.091	-0.150
-235.844	-9.272	-0.184	0.121
-234.830	36.060	-0.238	-0.207
-233.815	-40.174	0.347	0.178
-232.800	800.000	0.080	0.341
-231.786	16.981	0.193	0.151
-230.771	122.496	0.175	-0.215
-229.757	284.019	0.097	0.172
-228.742	-160.333	-0.287	0.015
-227.727	224.430	-0.221	0.351
-226.713	800.000	0.057	-0.202
-225.698	192.633	-0.052	0.078
-224.684	-129.704	-0.194	0.026
-223.669	47.588	0.139	0.127
-222.655	-39.417	0.105	0.054
-221.640	279.911	0.102	0.179
-220.625	-127.402	-0.392	-0.056
-219.611	-83.332	0.157	-0.049
-218.596	126.402	0.180	0.224
-217.582	443.219	-0.080	0.172
-216.567	650.334	0.070	0.176
-215.552	221.939	-0.054	0.086
-214.538	-145.555	0.041	-0.004
-213.523	34.958	-0.177	-0.152
-212.509	-126.646	-0.203	-0.030
-211.494	72.300	-0.292	0.299
-210.479	12.930	-0.145	-0.110
-209.465	-9.024	-0.095	0.063
-208.450	-16.622	0.018	-0.011
-207.436	800.000	0.042	0.162
-206.421	-46.273	-0.230	-0.111
-205.406	574.421	-0.027	0.065
-204.392	-200.000	-0.007	0.291
-203.377	-200.000	0.049	0.384
-202.363	-63.203	0.383	0.155
-201.348	-139.797	0.181	-0.019
-200.333	800.000	-0.052	0.208
-199.319	-69.803	-0.177	-0.066
-198.304	7.376	-0.132	0.097
-197.290	-86.666	0.333	-0.100
-196.275	223.053	0.218	-0.346
-195.260	-192.566	0.302	0.003
-194.246	54.702	0.244	-0.231
-193.231	800.000	0.035	-0.106
-192.217	-11.386	0.175	-0.113
-191.202	800.000	0.040	-0.146
-190.187	-200.000	0.034	-0.215
-189.173	-86.210	-0.330	0.100
-188.158	800.000	0.053	0.205
-187.144	-50.461	0.160	0.074
-186.129	-138.602	-0.312	-0.034
-185.114	-200.000	-0.031	0.260
-184.100	243.628	-0.055	0.091
-183.085	-200.000	-0.005	0.384
-182.071	-92.516	0.420	-0.116
-181.056	680.654	0.106	-0.272
-180.042	-153.225	0.207	0.014
-179.027	68.991	-0.181	-0.183
-178.012	-124.772	-0.274	-0.042
-176.998	-86.558	0.316	0.095
-175.983	614.167	-0.116	0.284
-174.969	-13.782	0.128	0.081
-173.954	-161.716	-0.187	-0.009
-172.939	-109.309	0.211	-0.044
-171.925	116.095	-0.245	-0.295
-170.910	-72.675	-0.135	0.049
-169.896	-159.169	0.275	0.015
-168.881	-200.000	0.142	0.642
-167.866	90.199	0.223	0.244
-166.852	-107.621	0.154	-0.033
-165.837	-200.000	-0.012	0.215
-164.823	-136.769	0.189	-0.021
-163.808	-129.708	-0.248	-0.034
-162.793	-81.352	0.091	0.029
-161.779	-81.252	-0.140	0.045
-160.764	-200.000	0.068	0.000
-159.750	-126.095	0.222	-0.033
-158.735	40.775	0.195	0.172
-157.720	-89.994	0.410	0.117
-156.706	291.252	-0.125	-0.223
-155.691	-200.000	-0.062	-0.440
-154.677	-169.914	0.293	0.010
-153.662	-53.726	0.129	0.058
-152.647	-75.207	0.208	-0.073
-151.633	800.000	0.043	-0.136
-150.618	-14.517	0.296	0.187
-149.604	800.000	-0.043	0.117
-148.589	159.106	0.098	0.134
-147.574	41.600	-0.191	-0.169
-146.560	-76.796	-0.262	-0.090
-145.545	722.892	0.046	0.120
-144.531	581.698	0.058	0.140
-143.516	175.843	0.083	0.118
-142.502	374.385	0.078	0.155
-141.487	-168.284	-0.250	0.009
-140.472	80.334	0.152	-0.160
-139.458	5.065	-0.132	0.095
-138.443	800.000	-0.097	0.280
-137.429	-91.759	-0.255	0.071
-136.414	-88.723	0.139	0.041
-135.399	4.803	-0.222	-0.160
-134.385	-157.091	-0.123	0.007
-133.370	725.885	-0.062	0.162
-132.356	58.917	-0.037	-0.035
-131.341	800.000	-0.111	0.458
-130.326	61.537	0.132	-0.128
-129.312	-160.362	-0.136	-0.007
-128.297	2.126	0.261	0.185
-127.283	-13.329	-0.206	-0.131
-126.268	41.168	0.003	-0.002
-125.253	-119.439	0.195	-0.033
-124.239	48.867	-0.297	-0.273
-123.224	-62.421	0.128	0.052
-122.210	141.826	0.245	0.318
-121.195	64.637	-0.039	0.039
-120.180	149.300	-0.211	0.280
