DTS Sentinel unit serial number:	SN413079Multiplexer serial number:	ORYXHardware model number:	OX4-SRSoftware version number:	ORYX F/W v4.00 Oryx Data Collector v3.7.2.0data status	okinstallation	princeton_trtdifferential loss correction	single-endedforward channel	channel 2reverse channel	N/Adate	2019/09/18time	16:11:35forward acquisition time	60.00reverse acquisition time	0.00gamma	496.2192k internal	0.2303k external	0.2303temperature offset calibration	1.0006default loss term (dB/km)	0.3790temperature slope calibration	1.0000multiplexer offset coefficient	1.0000multiplexer slope coefficient	1.0000fibre end	0.00T internal ref (°C)	38.14T ext. ref 1 (°C)	0.80T ext. ref 2 (°C)	36.87length (m)	temperature (°C)	Stokes	anti-Stokes-747.200	230.571	-0.044	0.073
-746.185	-200.000	-0.023	0.224
-745.171	524.719	-0.044	0.106
-744.156	-51.338	0.439	0.209
-743.142	800.000	0.119	0.354
-742.127	-123.040	0.223	-0.037
-741.112	800.000	-0.063	0.208
-740.098	112.020	0.225	0.277
-739.083	-41.962	0.123	0.064
-738.069	48.224	-0.165	0.157
-737.054	800.000	-0.050	0.145
-736.039	-200.000	-0.041	0.257
-735.025	-200.000	-0.046	0.299
-734.010	40.911	0.271	-0.249
-732.996	106.806	-0.108	-0.130
-731.981	-94.918	-0.066	-0.018
-730.966	706.151	-0.100	0.270
-729.952	45.579	-0.136	0.128
-728.937	-37.140	-0.298	0.162
-727.923	66.921	-0.269	-0.279
-726.908	368.339	-0.093	0.191
-725.894	138.845	-0.189	0.253
-724.879	-200.000	0.046	-0.260
-723.864	31.473	-0.140	0.123
-722.850	-65.466	-0.179	-0.073
-721.835	-200.000	-0.008	0.061
-720.821	27.639	0.218	0.186
-719.806	800.000	0.044	0.189
-718.791	0.764	-0.511	-0.372
-717.777	-75.313	0.172	0.063
-716.762	99.104	-0.083	-0.098
-715.748	421.559	0.133	-0.290
-714.733	29.622	0.209	-0.181
-713.718	-200.000	-0.013	0.071
-712.704	-28.645	-0.023	-0.014
-711.689	-75.009	0.105	-0.038
-710.675	69.630	-0.089	-0.093
-709.660	-26.907	0.137	-0.082
-708.645	327.301	0.047	0.092
-707.631	-84.663	0.101	0.032
-706.616	165.251	0.059	-0.085
-705.602	-200.000	-0.006	-0.157
-704.587	6.836	-0.058	0.044
-703.572	800.000	0.005	-0.019
-702.558	149.403	-0.171	-0.236
-701.543	-99.499	-0.317	0.081
-700.529	-32.893	0.361	0.204
-699.514	184.030	0.215	0.324
-698.499	800.000	-0.011	-0.039
-697.485	131.127	-0.135	-0.177
-696.470	-109.538	-0.197	-0.042
-695.456	-124.748	0.317	0.050
-694.441	-200.000	-0.076	0.389
-693.426	81.104	-0.044	-0.048
-692.412	-81.169	0.049	-0.016
-691.397	-200.000	0.001	0.084
-690.383	202.223	-0.086	-0.135
-689.368	7.025	-0.225	-0.171
-688.354	-34.253	0.183	-0.102
-687.339	800.000	0.024	0.078
-686.324	-134.407	-0.330	0.041
-685.310	-92.251	-0.177	0.051
-684.295	-200.000	-0.019	0.115
-683.281	-200.000	-0.089	0.475
-682.266	89.589	-0.049	0.056
-681.251	349.807	0.154	0.310
-680.237	156.906	-0.179	0.251
-679.222	-78.283	0.119	0.042
-678.208	5.923	0.163	-0.122
-677.193	358.362	0.089	-0.180
-676.178	800.000	-0.051	-0.175
-675.164	-27.905	0.134	-0.079
-674.149	-200.000	-0.016	0.409
-673.135	-115.835	-0.107	-0.020
-672.120	-23.079	-0.271	0.166
-671.105	-44.141	0.134	0.068
-670.091	56.409	0.103	-0.102
-669.076	296.352	-0.168	0.312
-668.062	158.071	0.162	-0.228
-667.047	-74.676	0.376	0.137
-666.032	-80.317	-0.202	-0.068
-665.018	-18.258	-0.146	-0.093
-664.003	-31.352	-0.116	0.066
-662.989	7.236	0.226	0.172
-661.974	-109.550	0.122	-0.026
-660.959	-200.000	-0.022	0.307
-659.945	-200.000	0.043	-0.232
-658.930	-102.988	0.404	-0.097
-657.916	32.372	-0.186	0.163
-656.901	-200.000	0.028	0.227
-655.886	-200.000	-0.037	0.206
-654.872	-200.000	-0.015	0.107
-653.857	-131.089	-0.186	-0.025
-652.843	-200.000	0.015	-0.070
-651.828	-149.330	0.301	0.024
-650.814	471.604	-0.061	0.139
-649.799	-162.731	-0.173	0.009
-648.784	-131.027	-0.079	0.011
-647.770	54.606	-0.084	-0.082
-646.755	663.822	0.075	-0.197
-645.741	-48.704	-0.209	0.102
-644.726	800.000	0.053	-0.206
-643.711	-87.131	-0.110	-0.034
-642.697	-155.036	-0.136	0.009
-641.682	278.614	-0.184	-0.332
-640.668	-200.000	0.012	0.122
-639.653	-88.338	-0.123	-0.037
-638.638	-130.531	-0.384	-0.053
-637.624	29.404	-0.159	-0.137
-636.609	-12.553	0.088	-0.058
-635.595	63.702	0.126	0.129
-634.580	-110.460	-0.070	0.015
-633.565	-103.484	-0.084	0.020
-632.551	125.775	-0.124	0.159
-631.536	-64.268	0.153	0.063
-630.522	-68.976	0.257	-0.100
-629.507	800.000	-0.089	-0.251
-628.492	-53.080	-0.278	-0.130
-627.478	800.000	-0.092	-0.269
-626.463	-76.501	0.374	-0.133
-625.449	-131.620	-0.179	0.024
-624.434	31.220	0.321	-0.279
-623.419	-0.761	-0.198	0.142
-622.405	800.000	-0.085	-0.282
-621.390	789.440	-0.078	0.217
-620.376	-108.361	-0.155	0.034
-619.361	-21.431	-0.166	0.103
-618.346	-39.209	-0.128	0.068
-617.332	-200.000	-0.007	-0.252
-616.317	-200.000	0.039	-0.407
-615.303	-33.874	0.174	-0.097
-614.288	305.355	-0.025	-0.046
-613.273	-10.149	0.214	0.144
-612.259	800.000	0.089	-0.285
-611.244	450.953	-0.114	-0.255
-610.230	-141.942	0.052	-0.005
-609.215	-57.267	-0.150	0.067
-608.201	-200.000	0.024	-0.335
-607.186	400.068	-0.078	-0.166
-606.171	-136.344	0.196	-0.023
-605.157	-200.000	0.022	-0.124
-604.142	-85.604	0.168	-0.053
-603.128	-31.026	0.238	-0.136
-602.113	-196.940	0.063	0.000
-601.098	-200.000	0.019	0.112
-600.084	-96.312	-0.066	-0.018
-599.069	-27.713	0.219	0.129
-598.055	-2.478	0.112	0.080
-597.040	792.579	-0.015	0.042
-596.025	-200.000	0.007	0.042
-595.011	16.745	-0.191	-0.153
-593.996	-137.293	-0.059	0.007
-592.982	-200.000	-0.004	-0.030
-591.967	48.048	-0.084	-0.079
-590.952	800.000	-0.074	-0.245
-589.938	-22.080	-0.244	-0.150
-588.923	205.070	-0.151	0.238
-587.909	-68.484	-0.186	0.073
-586.894	-59.703	-0.265	-0.115
-585.879	-48.451	-0.545	-0.266
-584.865	-200.000	-0.026	-0.118
-583.850	-78.372	0.195	-0.068
-582.836	524.381	-0.122	-0.290
-581.821	620.196	-0.098	0.248
-580.806	164.875	0.196	-0.280
-579.792	-64.244	-0.319	-0.131
-578.777	270.178	0.067	-0.119
-577.763	39.488	-0.090	0.082
-576.748	44.465	0.055	0.051
-575.733	-81.140	0.264	-0.088
-574.719	-159.037	-0.072	0.004
-573.704	-200.000	-0.027	0.170
-572.690	-49.964	0.046	-0.022
-571.675	35.868	-0.154	-0.137
-570.661	-200.000	-0.056	-0.385
-569.646	800.000	-0.049	-0.170
-568.631	-139.732	0.142	0.015
-567.617	-65.103	0.391	0.160
-566.602	-167.557	0.313	-0.013
-565.588	132.062	-0.086	-0.112
-564.573	-29.462	0.295	0.171
-563.558	114.162	0.080	0.098
-562.544	-6.493	0.167	-0.115
-561.529	-200.000	-0.240	-0.001
-560.515	-140.319	-0.250	0.026
-559.500	-65.982	0.115	0.047
-558.485	53.108	0.153	-0.148
-557.471	-200.000	-0.301	0.001
-556.456	8.603	-0.009	0.007
-555.442	-31.206	-0.204	-0.116
-554.427	487.616	-0.075	-0.173
-553.412	-200.000	-0.018	-0.144
-552.398	-200.000	0.033	-0.155
-551.383	602.482	-0.098	-0.246
-550.369	13.668	0.151	-0.119
-549.354	115.967	-0.132	0.163
-548.339	800.000	-0.078	-0.299
-547.325	-160.551	-0.392	0.021
-546.310	-47.344	0.070	-0.034
-545.296	-200.000	0.032	-0.168
-544.281	62.047	-0.124	0.125
-543.266	-200.000	-0.031	0.472
-542.252	203.727	0.132	-0.207
-541.237	188.531	-0.261	-0.395
-540.223	-75.312	-0.102	0.037
-539.208	3.855	-0.090	0.067
-538.193	141.443	0.113	0.151
-537.179	278.044	0.051	0.092
-536.164	800.000	0.061	0.179
-535.150	800.000	0.037	-0.107
-534.135	-200.000	-0.004	0.085
-533.121	52.900	-0.152	0.147
-532.106	68.981	-0.089	-0.092
-531.091	57.212	0.111	-0.110
-530.077	40.708	-0.200	-0.182
-529.062	370.952	0.111	-0.228
-528.048	27.992	-0.344	0.293
-527.033	-200.000	0.068	-0.364
-526.018	-200.000	-0.002	-0.113
-525.004	-149.932	0.318	0.025
-523.989	-200.000	0.018	-0.225
-522.975	-118.333	0.095	-0.017
-521.960	212.849	-0.049	0.078
-520.945	-12.309	0.048	0.032
-519.931	-35.470	0.082	0.045
-518.916	-86.412	-0.338	0.105
-517.902	-71.981	0.346	0.130
-516.887	100.652	0.130	0.153
-515.872	111.273	-0.156	0.190
-514.858	-120.809	0.137	0.023
-513.843	75.907	0.068	0.073
-512.829	-200.000	-0.017	0.280
-511.814	-200.000	0.017	-0.166
-510.799	345.728	-0.114	-0.226
-509.785	-200.000	0.007	-0.169
-508.770	-182.525	0.143	0.003
-507.756	135.995	-0.020	0.026
-506.741	-80.060	-0.277	0.094
-505.726	363.136	-0.046	-0.094
-504.712	1.284	0.146	0.106
-503.697	-200.000	0.068	-0.000
-502.683	182.886	-0.250	0.373
-501.668	-200.000	0.010	0.154
-500.653	-169.022	-0.241	-0.009
-499.639	800.000	-0.060	0.259
-498.624	-141.185	-0.287	-0.030
-497.610	672.428	-0.274	0.717
-496.595	426.954	0.047	0.103
-495.581	-200.000	-0.063	0.480
-494.566	673.042	0.121	0.316
-493.551	-63.053	-0.206	-0.086
-492.537	368.144	-0.197	-0.402
-491.522	-15.964	-0.377	-0.242
-490.508	800.000	0.102	-0.326
-489.493	-57.639	-0.191	0.085
-488.478	-65.312	0.274	-0.111
-487.464	-81.004	0.128	0.043
-486.449	-200.000	-0.109	0.540
-485.435	-44.866	0.232	-0.117
-484.420	477.158	0.082	-0.187
-483.405	-7.143	0.099	-0.067
-482.391	-105.525	-0.124	-0.028
-481.376	-113.554	0.175	0.035
-480.362	-67.993	0.249	0.098
-479.347	-200.000	0.006	0.165
-478.332	-36.144	0.236	-0.129
-477.318	93.351	-0.193	0.220
-476.303	67.406	0.166	-0.171
-475.289	-34.758	0.116	-0.064
-474.274	-46.256	0.330	-0.164
-473.259	178.745	-0.184	-0.271
-472.245	155.278	0.243	0.337
-471.230	-143.499	-0.187	0.018
-470.216	-177.391	-0.306	-0.008
-469.201	-19.121	0.216	0.135
-468.186	-200.000	-0.001	-0.026
-467.172	496.186	0.106	-0.245
-466.157	-200.000	0.056	-0.527
-465.143	-22.796	0.036	0.022
-464.128	-14.328	0.209	-0.136
-463.113	207.210	-0.171	-0.268
-462.099	-108.350	-0.288	0.063
-461.084	169.983	0.032	0.046
-460.070	-117.869	-0.017	-0.003
-459.055	800.000	0.021	0.057
-458.040	-8.727	0.155	-0.105
-457.026	-180.573	0.101	-0.002
-456.011	-65.767	-0.235	-0.095
-454.997	44.267	0.108	0.100
-453.982	219.589	-0.059	-0.095
-452.968	-111.770	-0.216	-0.044
-451.953	17.857	-0.228	-0.183
-450.938	75.640	0.260	0.277
-449.924	-87.211	0.296	0.091
-448.909	-15.188	-0.409	-0.264
-447.895	-116.012	-0.120	0.023
-446.880	-46.449	0.073	-0.036
-445.865	12.198	-0.213	-0.165
-444.851	-99.045	0.255	0.065
-443.836	-118.300	0.124	0.022
-442.822	75.338	-0.185	0.197
-441.807	-140.952	0.084	-0.009
-440.792	-109.675	-0.152	-0.032
-439.778	169.302	0.122	-0.175
-438.763	544.766	0.200	0.482
-437.749	800.000	0.023	0.086
-436.734	174.103	0.046	0.068
-435.719	-145.753	-0.059	0.005
-434.705	-157.608	-0.267	-0.016
-433.690	206.640	0.036	0.057
-432.676	800.000	-0.017	-0.069
-431.661	28.076	-0.181	-0.154
-430.646	544.482	-0.046	0.112
-429.632	-146.255	0.109	0.010
-428.617	-11.593	0.186	0.123
-427.603	-13.400	0.390	0.254
-426.588	-153.161	-0.145	-0.010
-425.573	-16.948	-0.355	0.226
-424.559	68.988	-0.126	0.130
-423.544	-123.736	-0.106	-0.017
-422.530	173.053	0.089	0.130
-421.515	-19.768	0.288	0.179
-420.500	-82.095	-0.173	0.057
-419.486	800.000	0.074	0.205
-418.471	-67.046	0.064	-0.026
-417.457	24.748	-0.308	0.257
-416.442	-35.806	0.079	-0.043
-415.428	60.191	-0.038	0.038
-414.413	-11.961	-0.034	-0.022
-413.398	-118.374	0.209	-0.037
-412.384	30.048	-0.286	-0.245
-411.369	-200.000	-0.010	0.350
-410.355	63.761	-0.216	-0.218
-409.340	800.000	-0.020	0.069
-408.325	-89.800	-0.154	0.045
-407.311	-200.000	-0.007	0.051
-406.296	6.525	-0.083	0.062
-405.282	108.887	0.183	-0.219
-404.267	-8.702	-0.069	0.047
-403.252	321.346	0.167	-0.320
-402.238	559.651	0.102	-0.247
-401.223	634.408	0.054	-0.139
-400.209	-76.023	-0.178	0.063
-399.194	149.272	0.066	-0.090
-398.179	86.449	-0.192	-0.213
-397.165	-92.592	-0.191	-0.054
-396.150	274.219	0.111	0.198
-395.136	-184.544	-0.454	0.007
-394.121	-200.000	-0.043	0.268
-393.106	-79.328	-0.164	0.056
-392.092	-170.202	-0.126	-0.004
-391.077	172.351	0.116	-0.167
-390.063	-200.000	-0.018	0.265
-389.048	-95.820	-0.055	0.015
-388.033	-200.000	0.003	-0.119
-387.019	208.542	0.075	0.118
-386.004	-119.372	-0.066	-0.012
-384.990	-187.705	-0.271	-0.004
-383.975	26.051	0.086	-0.072
-382.960	197.317	0.036	0.056
-381.946	106.344	-0.146	-0.173
-380.931	141.392	0.088	-0.116
-379.917	-17.644	-0.042	-0.026
-378.902	-97.864	0.037	0.010
-377.888	-106.515	0.152	0.034
-376.873	-20.524	0.223	-0.138
-375.858	-200.000	0.091	0.402
-374.844	-200.000	0.033	0.191
-373.829	-200.000	0.007	0.215
-372.815	-200.000	0.014	-0.186
-371.800	-35.021	0.160	-0.088
-370.785	-159.210	-0.176	-0.010
-369.771	-66.500	-0.150	0.060
-368.756	98.277	0.265	-0.306
-367.742	800.000	0.065	0.189
-366.727	-94.441	0.298	-0.082
-365.712	-61.397	0.079	-0.033
-364.698	43.299	0.153	0.141
-363.683	-200.000	0.038	0.275
-362.669	800.000	-0.027	-0.080
-361.654	-45.661	0.223	-0.111
-360.639	-103.411	-0.132	-0.031
-359.625	-25.389	-0.260	-0.154
-358.610	800.000	-0.053	0.170
-357.596	2.649	0.197	-0.143
-356.581	87.854	-0.069	-0.076
-355.566	-132.271	0.146	-0.019
-354.552	-13.661	-0.072	0.047
-353.537	800.000	-0.038	-0.141
-352.523	-4.243	0.209	0.145
-351.508	-140.078	-0.124	0.013
-350.493	-200.000	0.008	-0.153
-349.479	356.293	0.145	0.289
-348.464	11.720	-0.192	0.148
-347.450	-39.424	0.157	0.083
-346.435	-134.521	0.202	-0.025
-345.420	200.721	0.094	0.144
-344.406	50.125	-0.218	-0.207
-343.391	310.731	0.039	0.073
-342.377	800.000	-0.066	-0.215
-341.362	4.691	-0.226	0.166
-340.348	800.000	-0.113	0.361
-339.333	381.032	0.158	-0.325
-338.318	-149.653	-0.325	-0.026
-337.304	-132.943	-0.250	0.032
-336.289	76.240	0.080	-0.085
-335.275	251.513	0.019	0.032
-334.260	-200.000	-0.001	0.529
-333.245	-77.218	0.182	0.064
-332.231	800.000	-0.113	0.493
-331.216	203.047	-0.117	0.181
-330.202	800.000	-0.063	-0.212
-329.187	-74.782	0.068	0.025
-328.172	69.033	0.187	0.193
-327.158	51.791	0.185	-0.176
-326.143	-200.000	-0.049	0.386
-325.129	-200.000	-0.037	-0.256
-324.114	-115.067	0.250	-0.048
-323.099	-136.213	0.284	-0.033
-322.085	-110.339	-0.130	0.027
-321.070	195.310	0.055	0.083
-320.056	-136.819	-0.171	-0.020
-319.041	669.327	-0.035	0.090
-318.026	-87.190	-0.163	0.050
-317.012	-69.472	0.073	0.028
-315.997	96.438	0.086	-0.099
-314.983	-200.000	-0.034	0.214
-313.968	-57.285	-0.292	-0.129
-312.953	-118.268	0.354	0.063
-311.939	-110.921	-0.230	0.047
-310.924	800.000	0.098	0.282
-309.910	712.835	0.204	0.543
-308.895	-63.005	0.208	0.086
-307.880	-59.040	-0.168	-0.072
-306.866	786.499	-0.136	-0.374
-305.851	-146.970	-0.337	-0.029
-304.837	-138.867	0.186	0.020
-303.822	-60.733	0.114	0.048
-302.807	-200.000	0.015	0.316
-301.793	-200.000	0.058	0.255
-300.778	337.030	-0.126	-0.245
-299.764	99.121	-0.236	-0.274
-298.749	-104.291	0.226	0.053
-297.735	-200.000	0.008	0.074
-296.720	74.498	-0.335	0.353
-295.705	158.619	0.081	0.113
-294.691	-6.844	-0.160	-0.109
-293.676	102.421	-0.176	0.206
-292.662	-200.000	0.001	0.268
-291.647	-127.334	0.107	-0.016
-290.632	-35.459	0.373	0.203
-289.618	-90.098	-0.058	-0.017
-288.603	100.453	-0.218	-0.253
-287.589	17.554	0.181	0.144
-286.574	-29.011	-0.085	0.049
-285.559	331.251	-0.018	0.035
-284.545	343.916	-0.073	0.142
-283.530	7.368	-0.029	-0.022
-282.516	-158.722	-0.062	0.004
-281.501	-66.819	-0.143	-0.057
-280.486	109.354	-0.075	0.090
-279.472	-2.695	0.180	0.126
-278.457	37.859	-0.163	-0.145
-277.443	-19.773	0.261	0.161
-276.428	396.508	0.142	0.297
-275.413	-107.577	0.326	-0.071
-274.399	313.539	-0.052	0.098
-273.384	800.000	0.082	0.269
-272.370	24.397	0.433	0.358
-271.355	800.000	-0.083	0.261
-270.340	-200.000	0.042	-0.379
-269.326	-66.612	0.261	-0.104
-268.311	55.812	0.082	0.080
-267.297	-73.602	-0.275	0.100
-266.282	-157.356	-0.398	0.024
-265.267	192.503	0.055	-0.083
-264.253	-151.417	-0.238	-0.018
-263.238	800.000	-0.057	0.159
-262.224	-37.746	-0.212	-0.113
-261.209	-46.039	0.197	0.097
-260.195	91.220	0.139	0.156
-259.180	-44.404	0.242	-0.121
-258.165	800.000	-0.148	-0.411
-257.151	-85.362	0.171	0.053
-256.136	53.098	0.210	0.201
-255.122	179.194	0.134	-0.195
-254.107	12.002	0.277	-0.213
-253.092	48.326	-0.115	-0.108
-252.078	-43.182	-0.036	-0.018
-251.063	269.434	-0.148	-0.259
-250.049	35.973	0.150	-0.132
-249.034	-38.046	0.172	0.091
-248.019	-132.199	-0.306	-0.040
-247.005	51.096	-0.302	0.286
-245.990	800.000	-0.082	0.239
-244.976	-109.222	0.069	0.015
-243.961	287.153	0.105	-0.189
-242.946	-38.170	-0.026	0.014
-241.932	800.000	-0.028	0.093
-240.917	347.622	-0.054	0.106
-239.903	71.436	0.277	0.288
-238.888	136.510	0.170	0.222
-237.873	-200.000	0.010	0.153
-236.859	-34.884	0.183	-0.100
-235.844	182.426	0.197	-0.291
-234.830	-200.000	-0.033	-0.214
-233.815	-200.000	0.105	-0.000
-232.800	41.177	0.225	0.203
-231.786	-146.031	-0.237	0.021
-230.771	-33.839	0.152	0.084
-229.757	-21.113	0.381	-0.232
-228.742	14.946	-0.180	0.140
-227.727	-126.421	-0.153	0.023
-226.713	-21.389	-0.396	0.241
-225.698	179.690	0.269	0.393
-224.684	-152.156	0.266	0.019
-223.669	-154.104	0.296	-0.020
-222.655	27.029	-0.241	-0.202
-221.640	116.228	-0.266	-0.325
-220.625	-49.553	0.089	-0.042
-219.611	1.054	-0.247	-0.177
-218.596	-200.000	0.002	0.292
-217.582	-42.498	0.337	-0.171
-216.567	-200.000	0.024	-0.175
-215.552	-97.626	0.264	0.068
-214.538	-200.000	-0.008	0.313
-213.523	232.180	-0.124	0.204
-212.509	-200.000	-0.060	-0.391
-211.494	112.423	0.203	-0.245
-210.479	-200.000	-0.038	0.347
-209.465	-100.407	-0.131	0.032
-208.450	-125.150	-0.350	0.054
-207.436	55.235	0.225	-0.217
-206.421	12.984	0.142	0.109
-205.406	-67.678	-0.048	0.019
-204.392	800.000	0.098	0.313
-203.377	800.000	0.083	-0.254
-202.363	800.000	0.099	0.330
-201.348	44.555	-0.084	0.077
-200.333	-124.930	0.059	0.009
-199.319	-87.344	0.188	-0.057
-198.304	-179.143	0.487	-0.011
-197.290	-48.781	-0.029	0.014
-196.275	32.211	-0.105	-0.091
-195.260	-134.974	0.223	0.027
-194.246	536.362	0.087	0.205
-193.231	-71.155	0.132	0.049
-192.217	-200.000	-0.006	-0.041
-191.202	-165.491	0.222	-0.010
-190.187	-9.330	0.295	-0.196
-189.173	-142.494	0.186	0.018
-188.158	113.750	-0.106	0.129
-187.144	-200.000	0.056	0.246
-186.129	-27.128	0.185	-0.108
-185.114	229.879	0.067	0.108
-184.100	-3.226	-0.180	-0.125
-183.085	558.142	-0.098	-0.235
-182.071	-90.542	0.399	0.115
-181.056	-200.000	-0.027	0.165
-180.042	52.633	0.189	0.180
-179.027	116.589	-0.069	-0.085
-178.012	-200.000	0.009	-0.144
-176.998	-200.000	-0.005	-0.168
-175.983	112.563	0.030	-0.036
-174.969	-5.101	-0.073	-0.050
-173.954	800.000	0.068	-0.285
-172.939	-200.000	-0.032	-0.177
-171.925	216.669	-0.015	0.024
-170.910	-200.000	0.031	-0.287
-169.896	-200.000	-0.007	-0.381
-168.881	-103.654	0.116	0.027
-167.866	800.000	-0.031	-0.108
-166.852	-200.000	0.002	0.164
-165.837	22.234	0.187	-0.152
-164.823	38.096	0.139	0.123
-163.808	383.570	0.099	0.203
-162.793	-200.000	0.009	-0.076
-161.779	-200.000	-0.028	-0.211
-160.764	800.000	-0.032	0.113
-159.750	800.000	0.060	0.231
-158.735	357.672	-0.027	-0.053
-157.720	357.386	-0.120	-0.237
-156.706	-137.986	-0.179	-0.020
-155.691	-200.000	-0.013	-0.077
-154.677	7.685	-0.185	-0.138
-153.662	138.366	0.118	0.154
-152.647	135.444	-0.037	0.047
-151.633	-141.199	-0.056	-0.006
-150.618	-104.394	-0.161	-0.037
-149.604	-199.350	-0.203	-0.001
-148.589	163.669	0.084	-0.118
-147.574	-200.000	-0.010	-0.174
-146.560	-200.000	0.042	0.190
-145.545	-200.000	0.026	0.184
-144.531	98.121	0.165	-0.189
-143.516	-84.487	0.042	-0.013
-142.502	494.212	-0.117	-0.268
-141.487	61.849	-0.109	0.108
-140.472	367.056	-0.046	-0.093
-139.458	379.671	-0.176	-0.358
-138.443	-87.656	-0.282	0.085
-137.429	-46.692	0.141	0.069
-136.414	-128.368	0.227	-0.032
-135.399	-200.000	0.126	-0.752
-134.385	-158.749	0.286	0.016
-133.370	800.000	0.051	0.144
-132.356	549.844	0.051	0.122
-131.341	207.706	-0.174	0.270
-130.326	-42.921	-0.105	-0.053
-129.312	-38.875	0.372	0.195
-128.297	-200.000	-0.004	0.163
-127.283	597.707	-0.144	0.356
-126.268	-22.233	0.167	-0.101
-125.253	266.889	0.014	0.024
-124.239	-74.462	0.145	0.052
-123.224	27.880	-0.146	-0.122
-122.210	494.351	-0.019	-0.043
-121.195	-157.561	-0.132	0.008
