DTS Sentinel unit serial number:	SN413079Multiplexer serial number:	ORYXHardware model number:	OX4-SRSoftware version number:	ORYX F/W v4.00 Oryx Data Collector v3.7.2.0data status	okinstallation	princeton_trtdifferential loss correction	single-endedforward channel	channel 2reverse channel	N/Adate	2019/09/10time	21:05:11forward acquisition time	60.00reverse acquisition time	0.00gamma	496.2192k internal	0.2330k external	0.2330temperature offset calibration	0.9946default loss term (dB/km)	0.3790temperature slope calibration	1.0000multiplexer offset coefficient	1.0000multiplexer slope coefficient	1.0000fibre end	0.00T internal ref (°C)	31.52T ext. ref 1 (°C)	-0.30T ext. ref 2 (°C)	24.63length (m)	temperature (°C)	Stokes	anti-Stokes-747.200	-27.387	0.112	-0.065
-746.185	800.000	0.026	0.090
-745.171	-21.425	0.371	0.228
-744.156	-200.000	0.012	0.253
-743.142	-200.000	0.029	0.210
-742.127	-200.000	0.000	-0.013
-741.112	-42.130	-0.241	-0.124
-740.098	-200.000	0.045	0.410
-739.083	-67.911	-0.064	0.025
-738.069	131.171	0.085	0.109
-737.054	566.805	-0.033	0.081
-736.039	566.710	0.049	0.119
-735.025	800.000	-0.080	-0.321
-734.010	-121.540	-0.065	-0.011
-732.996	-200.000	0.010	-0.366
-731.981	-58.211	-0.113	0.049
-730.966	249.154	0.067	-0.114
-729.952	120.405	-0.173	0.216
-728.937	-147.190	-0.262	-0.022
-727.923	-200.000	0.051	0.276
-726.908	-20.424	-0.191	-0.118
-725.894	-200.000	-0.028	-0.178
-724.879	-61.896	-0.047	-0.020
-723.864	-96.985	0.152	0.040
-722.850	800.000	-0.076	-0.332
-721.835	-200.000	0.052	0.255
-720.821	800.000	-0.021	0.070
-719.806	-25.608	0.244	-0.145
-718.791	463.720	-0.136	-0.305
-717.777	-116.700	0.267	0.049
-716.762	6.982	-0.186	-0.139
-715.748	188.333	-0.052	-0.078
-714.733	61.411	0.085	-0.085
-713.718	-111.497	-0.162	-0.033
-712.704	800.000	-0.099	-0.388
-711.689	-142.307	0.323	0.032
-710.675	185.679	-0.114	0.170
-709.660	-200.000	0.010	0.136
-708.645	-84.727	-0.452	0.143
-707.631	-143.615	-0.340	0.032
-706.616	-42.805	0.175	0.089
-705.602	-9.689	0.231	-0.155
-704.587	34.543	0.181	-0.159
-703.572	156.975	0.187	0.260
-702.558	156.798	-0.309	-0.430
-701.543	-78.141	0.143	0.049
-700.529	358.753	-0.028	0.056
-699.514	-55.877	-0.095	-0.043
-698.499	-200.000	0.024	-0.218
-697.485	-200.000	-0.017	-0.147
-696.470	661.901	-0.065	0.168
-695.456	128.955	0.040	0.051
-694.441	-35.678	-0.168	-0.091
-693.426	-200.000	-0.045	0.373
-692.412	109.596	-0.107	-0.128
-691.397	166.873	-0.273	-0.389
-690.383	271.650	-0.075	-0.134
-689.368	-200.000	0.027	-0.294
-688.354	84.179	-0.042	-0.046
-687.339	11.411	0.178	0.137
-686.324	106.990	0.119	0.142
-685.310	474.647	0.090	-0.204
-684.295	590.247	0.065	0.161
-683.281	76.262	-0.269	0.286
-682.266	-40.226	-0.263	0.137
-681.251	171.296	0.199	0.286
-680.237	317.006	-0.095	0.181
-679.222	-22.419	0.193	0.117
-678.208	114.694	-0.255	0.312
-677.193	641.196	0.109	0.280
-676.178	526.764	-0.023	-0.055
-675.164	-33.579	0.370	-0.205
-674.149	-69.981	-0.299	0.114
-673.135	-200.000	-0.015	-0.259
-672.120	97.229	-0.208	-0.240
-671.105	339.024	-0.133	-0.260
-670.091	-8.014	-0.431	-0.292
-669.076	-122.090	0.153	-0.025
-668.062	-92.840	-0.264	0.074
-667.047	-200.000	-0.014	0.587
-666.032	800.000	0.059	-0.219
-665.018	-200.000	0.017	0.098
-664.003	43.701	-0.188	-0.172
-662.989	800.000	-0.031	-0.094
-661.974	-115.125	0.243	-0.046
-660.959	-30.190	-0.188	0.107
-659.945	623.683	0.117	0.296
-658.930	-200.000	0.006	-0.176
-657.916	57.082	-0.233	0.228
-656.901	-156.749	-0.216	-0.013
-655.886	-200.000	0.089	0.407
-654.872	-148.412	-0.105	0.009
-653.857	10.666	0.155	-0.118
-652.843	-104.213	-0.292	-0.068
-651.828	-7.686	-0.473	-0.321
-650.814	-200.000	-0.019	0.288
-649.799	272.539	0.205	0.363
-648.784	755.836	0.108	-0.294
-647.770	160.745	-0.207	-0.290
-646.755	620.929	-0.038	-0.097
-645.741	162.101	-0.067	-0.095
-644.726	800.000	0.018	0.056
-643.711	-200.000	0.024	0.105
-642.697	-80.025	0.170	0.057
-641.682	-200.000	-0.002	0.254
-640.668	511.298	-0.011	-0.025
-639.653	-70.254	-0.207	-0.079
-638.638	-119.530	-0.265	-0.046
-637.624	-122.130	0.194	-0.032
-636.609	-200.000	-0.006	0.204
-635.595	-67.595	-0.223	0.087
-634.580	-89.615	0.110	-0.032
-633.565	-51.161	0.307	0.144
-632.551	800.000	0.079	0.250
-631.536	-138.462	-0.267	0.029
-630.522	-14.830	-0.166	-0.107
-629.507	152.122	-0.104	0.142
-628.492	351.079	-0.086	0.170
-627.478	-200.000	0.044	0.262
-626.463	81.570	-0.231	-0.251
-625.449	-200.000	0.009	0.386
-624.434	-107.364	-0.193	-0.043
-623.419	-200.000	-0.017	-0.079
-622.405	-96.421	-0.217	-0.057
-621.390	-106.874	0.314	-0.070
-620.376	-200.000	-0.041	-0.277
-619.361	-39.887	-0.118	0.062
-618.346	-46.999	-0.061	-0.030
-617.332	41.877	0.131	-0.119
-616.317	-200.000	0.039	-0.252
-615.303	-100.025	-0.194	-0.049
-614.288	-111.165	0.296	0.061
-613.273	377.830	-0.094	-0.192
-612.259	597.490	-0.009	-0.022
-611.244	-31.280	-0.221	0.125
-610.230	92.993	-0.280	0.316
-609.215	-200.000	-0.001	-0.272
-608.201	800.000	0.111	-0.329
-607.186	-200.000	-0.024	-0.241
-606.171	112.762	-0.185	-0.224
-605.157	800.000	-0.050	-0.164
-604.142	-200.000	-0.023	-0.247
-603.128	-14.676	0.108	0.069
-602.113	215.139	0.130	0.207
-601.098	800.000	-0.102	-0.392
-600.084	-122.244	-0.449	-0.074
-599.069	-200.000	-0.030	-0.204
-598.055	189.411	-0.102	0.153
-597.040	-200.000	-0.016	-0.225
-596.025	-56.274	-0.332	-0.148
-595.011	-35.850	0.160	-0.087
-593.996	-135.487	0.341	0.041
-592.982	-200.000	-0.028	-0.196
-591.967	-200.000	0.006	-0.118
-590.952	99.520	-0.110	-0.127
-589.938	122.551	0.123	-0.154
-588.923	-200.000	-0.003	0.017
-587.909	-60.280	-0.247	0.105
-586.894	-70.760	0.192	0.073
-585.879	-200.000	-0.010	-0.075
-584.865	-91.488	0.208	-0.059
-583.850	328.655	0.067	-0.129
-582.836	70.030	0.118	-0.122
-581.821	16.187	-0.310	-0.244
-580.806	-158.196	0.364	0.021
-579.792	53.401	-0.057	-0.055
-578.777	-137.785	0.143	-0.016
-577.763	-200.000	0.035	-0.168
-576.748	-158.866	0.238	-0.014
-575.733	-102.988	0.129	-0.031
-574.719	134.219	-0.082	0.106
-573.704	163.423	-0.182	0.256
-572.690	255.884	-0.027	-0.046
-571.675	-80.915	0.147	-0.049
-570.661	-200.000	0.014	-0.268
-569.646	-200.000	0.001	-0.113
-568.631	800.000	-0.044	0.163
-567.617	-121.336	-0.378	-0.063
-566.602	267.042	0.214	-0.373
-565.588	800.000	0.121	-0.356
-564.573	-128.964	0.025	0.004
-563.558	800.000	0.104	-0.312
-562.544	321.610	-0.034	0.064
-561.529	-132.046	-0.245	-0.032
-560.515	-14.097	-0.251	0.162
-559.500	-137.915	-0.154	-0.017
-558.485	55.586	-0.227	0.219
-557.471	-80.432	-0.256	-0.085
-556.456	51.477	-0.283	-0.269
-555.442	-200.000	0.007	-0.216
-554.427	-200.000	0.001	-0.050
-553.412	-129.162	-0.107	-0.015
-552.398	-200.000	-0.022	0.228
-551.383	381.446	0.143	-0.293
-550.369	-43.699	0.151	-0.076
-549.354	67.990	-0.061	0.063
-548.339	146.484	-0.080	0.107
-547.325	800.000	0.006	-0.026
-546.310	-7.439	0.062	-0.042
-545.296	-200.000	0.003	-0.146
-544.281	112.457	0.159	0.192
-543.266	213.555	0.026	0.041
-542.252	-102.652	0.178	0.042
-541.237	-140.042	-0.094	0.010
-540.223	-18.130	-0.093	0.058
-539.208	-37.204	-0.126	0.067
-538.193	34.938	-0.191	0.167
-537.179	-71.666	-0.173	-0.065
-536.164	16.089	0.018	-0.014
-535.150	-182.378	-0.200	-0.004
-534.135	800.000	-0.071	-0.288
-533.121	207.185	-0.066	0.102
-532.106	-200.000	0.088	-0.532
-531.091	198.393	-0.137	0.209
-530.077	-200.000	0.018	0.300
-529.062	-65.842	-0.176	-0.070
-528.048	-200.000	-0.028	0.144
-527.033	-32.585	-0.186	-0.103
-526.018	131.474	0.379	-0.486
-525.004	734.214	-0.129	0.346
-523.989	-53.611	-0.184	-0.084
-522.975	-200.000	-0.008	-0.145
-521.960	395.915	0.137	0.285
-520.945	4.225	0.036	-0.026
-519.931	-1.954	0.248	-0.174
-518.916	-1.046	0.202	-0.143
-517.902	-146.988	-0.302	0.026
-516.887	-200.000	-0.001	-0.067
-515.872	-141.943	0.316	-0.031
-514.858	90.623	-0.163	-0.182
-513.843	75.202	-0.059	-0.062
-512.829	-138.296	0.226	0.025
-511.814	800.000	0.057	-0.193
-510.799	3.712	-0.082	0.060
-509.785	-32.239	0.334	0.186
-508.770	800.000	0.044	0.189
-507.756	-39.633	-0.159	-0.083
-506.741	-12.071	-0.213	0.139
-505.726	-200.000	-0.002	0.162
-504.712	-200.000	0.017	-0.293
-503.697	-12.510	0.063	-0.041
-502.683	-100.560	0.319	0.079
-501.668	-65.140	-0.123	0.049
-500.653	800.000	-0.117	0.488
-499.639	800.000	-0.085	-0.271
-498.624	194.194	-0.064	0.097
-497.610	-73.645	-0.313	0.114
-496.595	75.342	-0.149	-0.157
-495.581	158.767	-0.117	0.162
-494.566	-115.555	-0.274	-0.051
-493.551	-57.743	0.093	-0.041
-492.537	524.702	-0.141	0.332
-491.522	-200.000	-0.019	0.124
-490.508	561.639	0.098	-0.237
-489.493	372.785	-0.175	0.354
-488.478	130.102	0.096	-0.123
-487.464	55.964	-0.257	-0.248
-486.449	21.659	0.072	0.058
-485.435	167.260	0.112	0.159
-484.420	-200.000	-0.025	0.171
-483.405	-78.071	-0.124	-0.043
-482.391	237.910	-0.080	0.133
-481.376	-200.000	-0.096	0.450
-480.362	-200.000	-0.039	0.363
-479.347	-123.564	-0.239	-0.038
-478.332	60.390	0.216	-0.213
-477.318	328.327	-0.095	0.181
-476.303	800.000	0.041	-0.121
-475.289	800.000	0.057	-0.163
-474.274	-86.693	0.420	0.128
-473.259	-139.446	-0.276	0.029
-472.245	-17.250	-0.245	-0.154
-471.230	-27.487	0.197	-0.114
-470.216	-69.738	-0.078	-0.030
-469.201	149.881	0.036	-0.048
-468.186	273.557	0.144	-0.254
-467.172	-68.542	-0.134	0.052
-466.157	213.111	0.225	0.353
-465.143	175.211	-0.122	-0.175
-464.128	82.479	-0.143	0.155
-463.113	3.761	0.089	-0.064
-462.099	-200.000	0.021	0.123
-461.084	-127.745	0.259	-0.037
-460.070	78.775	0.175	-0.186
-459.055	-48.773	0.156	-0.075
-458.040	-49.319	0.162	-0.077
-457.026	500.527	0.106	-0.244
-456.011	-21.707	0.156	-0.094
-454.997	-200.000	-0.017	-0.273
-453.982	-66.056	-0.188	0.075
-452.968	-50.078	-0.207	0.098
-451.953	-4.690	0.114	-0.078
-450.938	-101.190	-0.028	0.007
-449.924	19.032	0.248	-0.198
-448.909	-55.994	-0.093	-0.041
-447.895	-0.716	-0.027	-0.019
-446.880	179.092	-0.107	0.156
-445.865	-96.088	-0.024	0.006
-444.851	-0.842	-0.159	-0.112
-443.836	-200.000	0.015	0.285
-442.822	84.979	-0.038	0.041
-441.807	-200.000	0.038	-0.334
-440.792	-53.611	-0.260	-0.118
-439.778	169.766	0.238	-0.338
-438.763	-111.424	-0.322	-0.065
-437.749	-200.000	-0.024	-0.139
-436.734	27.170	0.325	-0.271
-435.719	-200.000	-0.017	-0.160
-434.705	389.173	-0.042	-0.088
-433.690	-20.572	-0.184	-0.112
-432.676	212.814	-0.007	0.011
-431.661	141.253	-0.140	0.184
-430.646	38.253	0.147	0.131
-429.632	-65.326	-0.197	-0.079
-428.617	-99.040	-0.418	0.105
-427.603	-144.926	0.046	0.004
-426.588	310.952	0.067	-0.124
-425.573	-94.788	0.047	0.013
-424.559	-107.778	0.113	0.024
-423.544	112.282	0.262	0.315
-422.530	720.776	-0.042	-0.112
-421.515	12.912	0.114	0.088
-420.500	-77.405	0.210	-0.073
-419.486	-14.918	-0.229	0.146
-418.471	-81.903	0.173	-0.056
-417.457	-137.995	0.266	0.030
-416.442	499.932	-0.065	0.148
-415.428	226.376	-0.103	-0.166
-414.413	46.422	-0.178	-0.165
-413.398	800.000	0.075	0.233
-412.384	-9.014	-0.195	0.130
-411.369	-200.000	-0.027	-0.145
-410.355	-48.905	0.373	0.178
-409.340	652.186	0.103	-0.263
-408.325	-144.193	0.241	0.022
-407.311	5.151	-0.311	0.228
-406.296	-61.670	0.207	0.086
-405.282	261.640	0.146	0.251
-404.267	-107.134	0.071	0.016
-403.252	89.284	-0.209	0.232
-402.238	-63.005	-0.136	-0.056
-401.223	261.910	-0.071	0.122
-400.209	35.025	0.076	0.066
-399.194	-29.179	0.141	-0.080
-398.179	40.739	0.107	-0.096
-397.165	-72.875	0.076	-0.028
-396.150	733.082	-0.068	0.181
-395.136	468.565	-0.075	0.167
-394.121	486.031	-0.027	-0.060
-393.106	37.233	-0.161	-0.142
-392.092	56.044	-0.066	-0.064
-391.077	800.000	0.020	-0.069
-390.063	-80.767	-0.225	0.074
-389.048	-200.000	-0.021	0.135
-388.033	-200.000	0.005	-0.092
-387.019	78.058	0.140	-0.149
-386.004	89.496	-0.051	-0.056
-384.990	560.196	0.015	0.036
-383.975	-200.000	-0.074	-0.498
-382.960	-109.902	0.441	0.092
-381.946	-171.412	0.209	0.007
-380.931	19.271	-0.082	-0.065
-379.917	617.586	-0.103	-0.257
-378.902	-70.776	0.293	0.110
-377.888	321.866	0.119	0.225
-376.873	-27.942	0.092	0.053
-375.858	-37.203	0.075	-0.040
-374.844	-200.000	0.023	-0.229
-373.829	800.000	-0.094	-0.269
-372.815	47.816	-0.117	-0.108
-371.800	592.041	0.042	-0.104
-370.785	-21.671	0.277	0.167
-369.771	-200.000	-0.007	0.162
-368.756	-32.988	0.070	-0.039
-367.742	187.733	0.052	0.076
-366.727	404.401	0.094	-0.196
-365.712	-189.183	-0.234	0.003
-364.698	-1.883	0.079	0.055
-363.683	-5.984	-0.223	0.151
-362.669	450.013	0.030	0.065
-361.654	800.000	-0.046	0.130
-360.639	-200.000	-0.037	-0.278
-359.625	-200.000	-0.074	-0.322
-358.610	-21.749	0.238	0.144
-357.596	-100.614	0.224	0.055
-356.581	63.281	-0.122	-0.121
-355.566	54.481	0.136	0.130
-354.552	-42.555	0.186	0.094
-353.537	563.423	0.059	-0.143
-352.523	-108.912	-0.114	-0.024
-351.508	34.872	0.213	-0.185
-350.493	269.713	0.334	0.582
-349.479	800.000	0.101	-0.361
-348.464	-122.843	-0.495	0.079
-347.450	-200.000	0.064	-0.335
-346.435	47.672	0.127	0.117
-345.420	-177.514	-0.235	-0.006
-344.406	-10.739	-0.170	-0.112
-343.391	-133.332	-0.211	-0.026
-342.377	-24.284	-0.219	0.130
-341.362	-97.165	0.229	-0.059
-340.348	-33.497	0.143	-0.078
-339.333	-40.851	0.028	0.014
-338.318	-63.844	0.222	0.090
-337.304	-27.429	0.295	0.170
-336.289	-97.102	0.312	-0.081
-335.275	-92.843	-0.170	-0.047
-334.260	-200.000	-0.033	0.257
-333.245	491.887	0.154	0.349
-332.231	54.374	0.343	-0.327
-331.216	-19.475	-0.327	-0.201
-330.202	-200.000	-0.053	-0.264
-329.187	-99.138	-0.281	-0.070
-328.172	-200.000	0.005	0.095
-327.158	671.833	-0.099	0.254
-326.143	203.432	0.285	-0.437
-325.129	-200.000	0.034	0.187
-324.114	-24.253	0.236	-0.140
-323.099	800.000	0.049	-0.160
-322.085	40.972	-0.338	0.303
-321.070	116.549	-0.160	0.194
-320.056	-45.412	-0.172	-0.084
-319.041	-56.063	0.225	0.099
-318.026	379.624	0.055	0.112
-317.012	215.625	0.080	-0.126
-315.997	310.400	-0.087	0.161
-314.983	489.840	0.117	-0.264
-313.968	-52.713	-0.049	0.023
-312.953	12.075	-0.221	-0.169
-311.939	-200.000	0.015	0.307
-310.924	8.082	0.124	0.092
-309.910	-200.000	-0.009	-0.181
-308.895	80.333	-0.127	-0.135
-307.880	28.699	0.087	0.073
-306.866	582.444	0.110	0.268
-305.851	0.046	0.209	0.147
-304.837	-109.595	-0.076	-0.016
-303.822	276.381	0.067	-0.118
-302.807	-131.125	-0.188	-0.025
-301.793	108.452	0.114	-0.134
-300.778	-200.000	-0.059	0.643
-299.764	-124.940	-0.518	-0.079
-298.749	-148.108	0.062	-0.005
-297.735	133.774	0.125	-0.160
-296.720	-200.000	0.001	-0.381
-295.705	-174.554	0.315	0.009
-294.691	121.409	0.048	0.059
-293.676	-24.162	0.040	0.024
-292.662	800.000	0.027	0.082
-291.647	800.000	0.034	0.126
-290.632	-87.854	-0.245	0.073
-289.618	-200.000	0.033	0.217
-288.603	11.001	-0.018	-0.014
-287.589	101.234	0.142	-0.163
-286.574	-200.000	-0.052	0.275
-285.559	521.298	0.147	-0.341
-284.545	-165.071	-0.227	-0.010
-283.530	-131.160	-0.168	-0.022
-282.516	-200.000	0.037	0.226
-281.501	-9.320	0.203	0.134
-280.486	32.426	-0.287	-0.245
-279.472	800.000	-0.067	0.232
-278.457	800.000	-0.045	0.144
-277.443	-193.881	0.233	-0.002
-276.428	-126.723	0.434	0.063
-275.413	-36.500	0.268	-0.143
-274.399	800.000	0.053	0.182
-273.384	-200.000	-0.061	0.303
-272.370	52.330	0.057	-0.054
-271.355	185.450	-0.159	0.234
-270.340	800.000	-0.006	-0.026
-269.326	27.600	0.131	-0.109
-268.311	194.564	0.125	0.188
-267.297	-81.688	-0.293	0.095
-266.282	-108.102	0.228	0.049
-265.267	-39.511	0.176	0.091
-264.253	155.446	0.204	0.278
-263.238	-94.141	-0.097	0.026
-262.224	-200.000	0.053	0.252
-261.209	-85.316	0.093	0.029
-260.195	254.809	0.133	-0.225
-259.180	-22.665	0.203	0.121
-258.165	108.091	0.073	0.086
-257.151	-61.309	-0.099	0.041
-256.136	-118.497	0.050	-0.009
-255.122	-98.406	-0.242	-0.061
-254.107	-33.196	-0.191	0.105
-253.092	576.353	-0.037	0.089
-252.078	696.824	-0.100	0.260
-251.063	162.645	-0.091	0.126
-250.049	-200.000	0.014	0.290
-249.034	76.991	-0.070	-0.074
-248.019	-104.936	-0.518	0.117
-247.005	-200.000	-0.008	0.087
-245.990	117.720	0.184	-0.223
-244.976	-200.000	-0.020	-0.194
-243.961	216.585	0.032	-0.050
-242.946	445.851	-0.093	-0.202
-241.932	48.083	0.113	0.104
-240.917	303.683	0.034	0.063
-239.903	368.671	0.144	-0.287
-238.888	-200.000	-0.040	0.467
-237.873	-200.000	-0.042	0.223
-236.859	-12.101	0.100	-0.065
-235.844	537.796	0.053	-0.125
-234.830	-155.566	0.299	0.019
-233.815	382.129	-0.008	0.017
-232.800	-139.425	-0.206	-0.022
-231.786	-200.000	0.007	0.219
-230.771	555.465	-0.069	0.164
-229.757	48.787	-0.281	0.260
-228.742	-12.669	0.105	-0.067
-227.727	57.013	0.065	0.063
-226.713	-106.869	0.066	-0.015
-225.698	377.983	-0.079	-0.160
-224.684	800.000	-0.040	-0.162
-223.669	199.603	0.028	0.042
-222.655	-200.000	-0.007	0.248
-221.640	-1.812	0.074	0.051
-220.625	-73.366	0.060	0.022
-219.611	211.808	-0.063	-0.097
-218.596	35.090	-0.109	0.094
-217.582	-200.000	-0.032	0.411
-216.567	-200.000	-0.006	0.205
-215.552	-200.000	-0.033	-0.311
-214.538	-108.234	0.056	-0.012
-213.523	800.000	-0.039	0.109
-212.509	-104.696	0.204	-0.046
-211.494	151.698	-0.072	-0.097
-210.479	-200.000	0.102	0.460
-209.465	-200.000	0.042	0.255
-208.450	-200.000	-0.068	0.393
-207.436	171.172	0.065	-0.092
-206.421	141.299	-0.073	0.095
-205.406	97.588	-0.132	0.149
-204.392	800.000	-0.034	-0.140
-203.377	800.000	-0.030	0.128
-202.363	789.451	0.164	0.445
-201.348	-32.367	0.105	0.058
-200.333	-115.165	-0.201	0.038
-199.319	800.000	0.089	0.312
-198.304	-151.815	-0.269	0.019
-197.290	101.996	0.107	-0.124
-196.275	-200.000	-0.011	0.087
-195.260	-143.812	0.120	-0.011
-194.246	39.925	-0.192	-0.170
-193.231	-36.572	-0.098	0.052
-192.217	8.462	-0.230	0.170
-191.202	88.139	0.194	-0.212
-190.187	291.747	0.132	0.236
-189.173	338.878	-0.070	0.135
-188.158	800.000	0.031	-0.098
-187.144	-129.843	-0.082	0.011
-186.129	137.703	0.259	-0.334
-185.114	-200.000	0.009	0.174
-184.100	-200.000	-0.056	0.287
-183.085	-200.000	-0.010	0.073
-182.071	-16.111	0.513	-0.321
-181.056	800.000	0.016	-0.064
-180.042	-200.000	0.002	-0.191
-179.027	18.363	0.440	-0.346
-178.012	-155.897	-0.059	-0.004
-176.998	-75.695	-0.392	-0.137
-175.983	-55.533	-0.259	0.114
-174.969	-91.187	-0.262	-0.074
-173.954	88.195	0.176	-0.192
-172.939	-152.127	-0.485	0.035
-171.925	-200.000	0.005	-0.096
-170.910	-172.757	0.258	0.008
-169.896	135.676	-0.095	0.122
-168.881	-153.699	0.321	0.022
-167.866	-97.165	0.139	0.036
-166.852	-200.000	0.012	-0.500
-165.837	326.106	0.136	0.257
-164.823	139.011	0.119	0.154
-163.808	-89.703	0.267	-0.077
-162.793	-58.050	0.408	0.175
-161.779	-200.000	-0.033	-0.309
-160.764	70.530	0.119	0.121
-159.750	-44.972	-0.102	0.050
-158.735	-39.552	0.154	0.079
-157.720	54.181	-0.270	-0.255
-156.706	480.787	0.177	0.396
-155.691	-15.556	-0.264	0.166
-154.677	-200.000	0.001	-0.132
-153.662	179.464	0.116	-0.167
-152.647	5.959	-0.179	-0.131
-151.633	800.000	0.056	0.204
-150.618	-74.333	-0.129	0.046
-149.604	230.046	0.057	0.091
-148.589	79.973	-0.051	-0.054
-147.574	-200.000	0.070	0.448
-146.560	-180.577	-0.237	-0.005
-145.545	176.639	-0.130	-0.187
-144.531	-102.205	-0.194	0.046
-143.516	-123.323	-0.015	-0.002
-142.502	112.562	0.038	0.046
-141.487	-83.030	-0.173	-0.055
-140.472	380.032	0.045	0.091
-139.458	130.759	-0.140	0.176
-138.443	-200.000	-0.027	0.203
-137.429	-14.025	0.219	-0.139
-136.414	-184.950	0.252	-0.004
-135.399	-8.111	0.154	0.102
-134.385	196.181	0.105	0.157
-133.370	-138.688	0.152	0.016
-132.356	800.000	-0.065	0.181
-131.341	192.734	-0.141	-0.210
-130.326	-130.682	-0.098	-0.013
-129.312	121.390	0.101	-0.124
-128.297	-76.018	0.195	-0.068
-127.283	185.908	0.242	0.354
-126.268	800.000	-0.055	0.195
-125.253	-25.093	-0.202	-0.118
-124.239	-200.000	-0.007	-0.054
-123.224	340.996	0.133	0.255
-122.210	-14.009	-0.222	-0.141
