DTS Sentinel unit serial number:	SN413079Multiplexer serial number:	ORYXHardware model number:	OX4-SRSoftware version number:	ORYX F/W v4.00 Oryx Data Collector v3.7.2.0data status	okinstallation	princeton_trtdifferential loss correction	single-endedforward channel	channel 2reverse channel	N/Adate	2019/09/14time	12:23:34forward acquisition time	60.00reverse acquisition time	0.00gamma	496.2192k internal	0.2307k external	0.2307temperature offset calibration	1.0154default loss term (dB/km)	0.3790temperature slope calibration	1.0000multiplexer offset coefficient	1.0000multiplexer slope coefficient	1.0000fibre end	0.00T internal ref (°C)	37.80T ext. ref 1 (°C)	4.76T ext. ref 2 (°C)	34.92length (m)	temperature (°C)	Stokes	anti-Stokes-747.200	-47.623	0.447	-0.221
-746.185	-70.411	-0.189	-0.073
-745.171	-135.002	-0.107	-0.013
-744.156	561.755	-0.139	0.342
-743.142	-17.777	-0.038	-0.024
-742.127	800.000	-0.106	0.426
-741.112	133.368	-0.132	-0.173
-740.098	26.798	-0.214	0.182
-739.083	-103.504	0.146	0.035
-738.069	-137.016	-0.201	-0.023
-737.054	-109.818	0.261	-0.056
-736.039	131.169	-0.250	0.327
-735.025	152.696	0.122	-0.170
-734.010	-57.198	0.241	-0.108
-732.996	-200.000	-0.035	-0.203
-731.981	524.046	-0.104	-0.249
-730.966	-23.174	-0.160	-0.098
-729.952	-200.000	0.001	0.193
-728.937	-200.000	0.003	0.112
-727.923	800.000	-0.043	0.143
-726.908	121.108	-0.050	-0.063
-725.894	70.147	-0.131	0.137
-724.879	69.652	0.202	0.211
-723.864	480.409	-0.023	0.054
-722.850	333.858	0.086	0.169
-721.835	-107.087	0.123	0.028
-720.821	800.000	-0.089	-0.277
-719.806	-200.000	-0.014	0.246
-718.791	-151.318	0.102	-0.008
-717.777	-150.593	0.063	0.005
-716.762	-108.124	-0.154	-0.034
-715.748	-23.149	0.084	-0.051
-714.733	297.576	-0.116	-0.217
-713.718	-138.023	0.146	0.016
-712.704	-32.814	0.158	-0.089
-711.689	800.000	-0.030	-0.128
-710.675	84.431	-0.312	0.347
-709.660	466.104	0.122	-0.277
-708.645	-29.717	-0.071	0.041
-707.631	67.702	0.172	-0.178
-706.616	-104.286	0.220	-0.052
-705.602	800.000	-0.055	0.180
-704.587	-100.009	0.321	-0.081
-703.572	-125.272	0.188	0.029
-702.558	-200.000	0.007	-0.258
-701.543	-86.873	-0.141	-0.044
-700.529	-99.662	-0.329	0.084
-699.514	33.055	-0.220	-0.194
-698.499	-112.747	-0.220	0.044
-697.485	-48.556	-0.156	-0.076
-696.470	800.000	-0.050	-0.197
-695.456	114.137	-0.275	0.339
-694.441	-1.006	-0.103	0.074
-693.426	-118.421	0.018	0.003
-692.412	800.000	-0.110	-0.323
-691.397	-5.760	-0.249	0.173
-690.383	437.873	0.098	0.216
-689.368	416.730	0.045	0.097
-688.354	371.259	-0.048	-0.098
-687.339	-58.669	0.128	-0.056
-686.324	-96.319	0.145	0.039
-685.310	-53.081	0.166	-0.077
-684.295	103.331	0.197	-0.235
-683.281	319.247	0.050	0.096
-682.266	-180.957	-0.245	0.005
-681.251	39.423	-0.280	0.255
-680.237	800.000	-0.061	-0.197
-679.222	-200.000	-0.018	0.246
-678.208	124.377	-0.065	0.083
-677.193	-200.000	0.070	-0.315
-676.178	158.952	-0.131	-0.185
-675.164	-38.276	0.192	0.103
-674.149	-68.916	-0.202	-0.079
-673.135	-67.166	-0.128	0.051
-672.120	800.000	0.020	-0.074
-671.105	800.000	0.065	0.201
-670.091	71.758	0.130	-0.137
-669.076	467.104	0.107	-0.244
-668.062	145.108	0.195	0.264
-667.047	-97.195	0.144	-0.038
-666.032	-200.000	0.024	-0.147
-665.018	-103.396	-0.099	-0.024
-664.003	118.827	-0.190	-0.238
-662.989	26.219	0.229	-0.194
-661.974	582.479	-0.198	-0.491
-660.959	511.074	-0.064	-0.152
-659.945	-200.000	-0.007	0.032
-658.930	-47.912	-0.131	0.064
-657.916	800.000	-0.069	-0.222
-656.901	37.503	-0.317	-0.285
-655.886	16.477	-0.146	-0.117
-654.872	-137.683	-0.285	0.032
-653.857	-128.146	-0.251	-0.036
-652.843	-200.000	0.001	0.196
-651.828	-103.984	0.313	-0.074
-650.814	-46.951	-0.173	0.086
-649.799	-53.999	-0.139	0.064
-648.784	-90.740	-0.156	0.046
-647.770	-43.799	0.057	-0.029
-646.755	0.810	0.283	0.206
-645.741	-200.000	0.007	0.122
-644.726	800.000	-0.066	0.210
-643.711	-165.970	-0.104	-0.004
-642.697	-200.000	0.006	-0.227
-641.682	-45.516	-0.269	-0.135
-640.668	92.694	0.084	0.096
-639.653	319.242	-0.018	0.035
-638.638	-76.545	-0.098	0.035
-637.624	279.324	0.150	-0.270
-636.609	-200.000	-0.029	-0.221
-635.595	343.940	0.080	0.159
-634.580	22.557	-0.289	-0.240
-633.565	-106.484	-0.212	0.048
-632.551	-200.000	0.017	-0.130
-631.536	30.756	-0.151	0.131
-630.522	468.789	-0.093	0.212
-629.507	281.495	-0.232	-0.421
-628.492	-162.471	0.083	0.004
-627.478	332.383	-0.071	0.139
-626.463	124.639	0.024	0.030
-625.449	72.815	-0.194	0.205
-624.434	-55.307	0.105	0.048
-623.419	800.000	0.093	-0.334
-622.405	112.643	0.036	-0.044
-621.390	-200.000	-0.012	0.128
-620.376	-200.000	-0.029	0.170
-619.361	24.795	0.194	-0.163
-618.346	-200.000	-0.016	-0.099
-617.332	-27.429	0.265	0.156
-616.317	178.716	0.166	0.246
-615.303	-200.000	-0.054	-0.424
-614.288	-200.000	-0.028	0.161
-613.273	339.749	-0.110	-0.218
-612.259	783.044	0.035	-0.097
-611.244	19.962	0.256	-0.209
-610.230	-114.196	-0.011	-0.002
-609.215	399.238	0.012	-0.026
-608.201	-200.000	0.004	0.072
-607.186	188.589	0.046	-0.070
-606.171	-200.000	0.041	0.319
-605.157	203.681	0.125	0.195
-604.142	800.000	0.121	0.368
-603.128	322.112	-0.139	-0.268
-602.113	-62.037	-0.048	-0.020
-601.098	-4.697	0.110	0.077
-600.084	800.000	-0.044	0.185
-599.069	-59.690	0.161	-0.070
-598.055	187.109	-0.050	-0.075
-597.040	-120.827	-0.308	-0.053
-596.025	242.448	-0.063	-0.107
-595.011	-8.864	0.132	-0.090
-593.996	-76.788	-0.051	-0.018
-592.982	97.296	0.098	-0.114
-591.967	61.226	-0.150	-0.150
-590.952	330.638	-0.159	0.310
-589.938	9.393	-0.108	0.082
-588.923	398.421	0.139	0.294
-587.909	-117.261	0.167	-0.031
-586.894	-200.000	-0.041	0.232
-585.879	280.383	-0.035	-0.063
-584.865	27.014	-0.227	-0.192
-583.850	-27.256	0.200	0.118
-582.836	-55.224	0.707	-0.321
-581.821	335.084	0.113	-0.221
-580.806	393.546	0.133	-0.280
-579.792	319.980	-0.187	-0.358
-578.777	-200.000	-0.003	0.065
-577.763	-200.000	0.065	-0.291
-576.748	13.054	-0.360	0.281
-575.733	141.529	-0.126	-0.168
-574.719	-169.061	0.160	0.006
-573.704	-96.608	-0.238	0.063
-572.690	17.149	-0.157	0.126
-571.675	42.065	-0.199	0.183
-570.661	-68.419	-0.288	-0.113
-569.646	800.000	0.044	0.187
-568.631	139.964	-0.077	-0.103
-567.617	-110.776	-0.251	0.052
-566.602	-200.000	0.017	-0.318
-565.588	-162.278	0.203	-0.010
-564.573	-51.976	-0.234	0.110
-563.558	689.867	0.052	-0.137
-562.544	166.890	-0.009	-0.013
-561.529	-11.223	0.338	-0.225
-560.515	460.385	-0.283	-0.635
-559.500	449.585	-0.099	-0.221
-558.485	740.372	0.168	-0.457
-557.471	260.013	-0.160	0.278
-556.456	800.000	0.099	0.435
-555.442	-191.468	0.364	-0.004
-554.427	24.520	-0.147	-0.122
-553.412	800.000	-0.016	-0.072
-552.398	-84.600	0.273	0.087
-551.383	-68.082	-0.122	-0.048
-550.369	-186.391	0.222	0.003
-549.354	-200.000	-0.085	-0.399
-548.339	-165.045	-0.120	-0.005
-547.325	800.000	-0.090	0.357
-546.310	97.025	-0.076	-0.087
-545.296	-123.633	-0.319	0.051
-544.281	102.859	-0.169	-0.200
-543.266	-200.000	-0.061	-0.276
-542.252	775.208	0.070	0.193
-541.237	-55.987	0.143	-0.064
-540.223	112.949	0.069	0.085
-539.208	607.237	-0.046	-0.115
-538.193	11.430	-0.265	0.205
-537.179	-200.000	-0.033	-0.167
-536.164	-200.000	0.058	0.278
-535.150	-200.000	-0.021	0.286
-534.135	-75.240	-0.211	-0.076
-533.121	-103.607	-0.477	0.113
-532.106	-49.928	0.336	0.161
-531.091	-146.686	0.246	0.022
-530.077	-41.250	-0.171	0.089
-529.062	-200.000	-0.025	0.291
-528.048	800.000	-0.044	-0.166
-527.033	79.359	0.228	0.246
-526.018	-200.000	0.002	-0.054
-525.004	-99.501	-0.630	0.160
-523.989	32.517	-0.368	-0.320
-522.975	800.000	-0.042	-0.150
-521.960	122.416	0.116	-0.146
-520.945	276.051	0.251	-0.450
-519.931	-32.072	0.116	0.065
-518.916	-200.000	0.014	-0.210
-517.902	74.773	0.069	-0.074
-516.887	-31.930	-0.242	-0.136
-515.872	-200.000	0.023	0.207
-514.858	-200.000	0.004	0.399
-513.843	-12.733	-0.089	-0.058
-512.829	500.658	-0.123	-0.287
-511.814	-150.675	-0.287	0.022
-510.799	-141.525	0.012	-0.001
-509.785	-200.000	-0.007	-0.062
-508.770	-200.000	0.037	0.259
-507.756	481.476	-0.128	-0.292
-506.741	51.225	0.191	0.182
-505.726	-64.755	-0.275	0.112
-504.712	-200.000	-0.077	-0.473
-503.697	694.511	0.080	0.213
-502.683	-200.000	-0.010	0.113
-501.668	-200.000	-0.010	-0.061
-500.653	-101.426	0.235	0.058
-499.639	158.358	-0.147	-0.205
-498.624	-200.000	0.006	0.072
-497.610	465.587	0.100	0.226
-496.595	-52.899	-0.312	0.145
-495.581	-137.408	0.223	-0.025
-494.566	800.000	-0.051	-0.206
-493.551	634.019	0.056	-0.144
-492.537	-200.000	-0.023	-0.192
-491.522	150.871	0.122	-0.166
-490.508	55.388	-0.159	0.155
-489.493	-50.759	-0.426	-0.202
-488.478	-8.743	0.240	0.162
-487.464	589.896	-0.083	-0.205
-486.449	800.000	0.097	-0.358
-485.435	45.776	-0.089	0.083
-484.420	-102.549	0.168	-0.040
-483.405	62.227	0.183	-0.184
-482.391	800.000	-0.056	0.209
-481.376	-140.645	0.246	0.026
-480.362	-48.779	-0.099	-0.048
-479.347	-54.878	-0.114	-0.052
-478.332	800.000	-0.033	-0.135
-477.318	-200.000	0.052	0.464
-476.303	620.159	0.087	-0.219
-475.289	-51.062	0.176	0.083
-474.274	-83.436	0.522	0.168
-473.259	-91.639	-0.158	-0.045
-472.245	800.000	0.051	0.168
-471.230	552.743	0.102	-0.246
-470.216	-200.000	0.007	-0.050
-469.201	-183.130	-0.361	-0.006
-468.186	-200.000	0.048	0.227
-467.172	134.250	-0.132	0.173
-466.157	55.129	-0.195	0.190
-465.143	-155.296	0.146	-0.010
-464.128	4.169	-0.057	0.042
-463.113	-200.000	0.001	-0.096
-462.099	81.747	0.160	0.174
-461.084	-105.086	0.302	-0.070
-460.070	800.000	-0.017	0.074
-459.055	-132.683	-0.032	0.004
-458.040	-100.933	0.202	0.050
-457.026	-200.000	0.024	-0.180
-456.011	800.000	0.054	-0.222
-454.997	28.161	0.189	0.161
-453.982	-58.645	-0.306	0.133
-452.968	800.000	0.054	0.162
-451.953	162.866	-0.055	-0.077
-450.938	2.898	-0.336	0.245
-449.924	19.269	-0.311	-0.251
-448.909	-39.177	0.143	0.076
-447.895	37.763	-0.195	-0.174
-446.880	171.724	-0.075	0.109
-445.865	17.339	0.052	-0.042
-444.851	-52.199	-0.234	0.109
-443.836	146.669	0.269	0.363
-442.822	-116.071	0.300	0.056
-441.807	-200.000	-0.027	0.183
-440.792	-200.000	-0.006	0.040
-439.778	800.000	0.043	0.134
-438.763	37.908	-0.252	0.225
-437.749	-200.000	-0.058	0.451
-436.734	267.791	0.159	-0.280
-435.719	105.465	0.171	0.203
-434.705	506.350	0.104	-0.242
-433.690	371.836	0.125	-0.254
-432.676	174.260	0.034	-0.049
-431.661	-200.000	0.062	0.275
-430.646	180.090	-0.052	-0.077
-429.632	-51.804	-0.123	-0.058
-428.617	82.711	-0.058	0.063
-427.603	-18.775	0.318	-0.199
-426.588	560.140	-0.115	-0.279
-425.573	-200.000	-0.019	-0.291
-424.559	2.329	0.223	0.162
-423.544	184.261	-0.156	-0.231
-422.530	-82.233	-0.471	-0.154
-421.515	-200.000	-0.009	0.067
-420.500	-200.000	0.024	0.273
-419.486	-114.443	0.115	0.022
-418.471	800.000	-0.094	-0.348
-417.457	-127.490	0.290	0.042
-416.442	-90.121	-0.177	-0.052
-415.428	-132.058	0.131	-0.017
-414.413	-177.568	0.253	0.006
-413.398	558.306	0.069	-0.167
-412.384	-160.433	0.244	0.013
-411.369	279.108	-0.070	0.126
-410.355	-100.282	-0.115	0.029
-409.340	-200.000	-0.068	-0.415
-408.325	29.827	0.132	-0.113
-407.311	-187.103	0.280	-0.004
-406.296	146.610	-0.217	-0.293
-405.282	-83.268	-0.012	0.004
-404.267	50.290	0.309	0.293
-403.252	0.633	0.219	0.157
-402.238	171.436	-0.040	-0.057
-401.223	47.568	-0.168	0.157
-400.209	126.640	0.100	0.127
-399.194	148.628	0.077	-0.104
-398.179	-28.936	-0.246	0.142
-397.165	-83.543	0.158	-0.051
-396.150	177.874	0.098	0.143
-395.136	800.000	-0.007	0.026
-394.121	800.000	0.077	-0.272
-393.106	-105.138	-0.199	0.046
-392.092	-86.088	-0.123	0.038
-391.077	-112.175	0.132	-0.027
-390.063	71.314	-0.195	0.203
-389.048	-23.055	0.035	0.021
-388.033	-200.000	-0.014	0.216
-387.019	85.779	0.046	0.050
-386.004	200.736	0.147	0.226
-384.990	16.747	-0.145	-0.115
-383.975	37.868	-0.065	-0.058
-382.960	-50.829	-0.267	0.126
-381.946	469.278	-0.109	-0.245
-380.931	-54.893	-0.385	-0.174
-379.917	-35.296	0.161	0.088
-378.902	800.000	0.137	0.437
-377.888	800.000	-0.067	-0.219
-376.873	7.516	-0.335	-0.251
-375.858	40.597	0.218	-0.197
-374.844	387.982	-0.046	-0.095
-373.829	75.617	0.073	0.078
-372.815	-4.536	-0.134	-0.093
-371.800	294.790	-0.089	0.164
-370.785	255.171	-0.101	0.173
-369.771	-52.904	-0.103	0.048
-368.756	-134.744	-0.346	0.042
-367.742	800.000	-0.067	0.281
-366.727	800.000	-0.138	0.452
-365.712	-200.000	0.006	0.188
-364.698	800.000	0.042	0.184
-363.683	-200.000	0.075	0.424
-362.669	291.936	-0.120	0.219
-361.654	-35.598	0.226	0.123
-360.639	-200.000	0.012	0.143
-359.625	800.000	0.051	0.156
-358.610	127.112	-0.093	-0.119
-357.596	-200.000	-0.086	0.000
-356.581	-47.025	-0.099	-0.048
-355.566	-78.676	0.362	0.124
-354.552	147.224	0.148	0.199
-353.537	800.000	0.104	0.326
-352.523	-100.533	0.401	-0.099
-351.508	800.000	0.115	0.439
-350.493	-42.680	0.409	-0.208
-349.479	-200.000	-0.077	-0.000
-348.464	49.000	-0.272	0.256
-347.450	25.329	0.052	0.043
-346.435	553.844	-0.102	0.246
-345.420	222.154	0.172	-0.277
-344.406	-104.704	0.254	0.059
-343.391	-200.000	-0.029	-0.280
-342.377	154.428	0.136	0.187
-341.362	767.326	-0.097	0.263
-340.348	-200.000	0.021	-0.107
-339.333	800.000	-0.012	-0.034
-338.318	-200.000	-0.093	-0.520
-337.304	25.429	-0.103	-0.085
-336.289	121.645	0.331	0.413
-335.275	-200.000	-0.041	0.212
-334.260	-200.000	-0.007	-0.231
-333.245	-5.392	-0.355	0.244
-332.231	226.797	-0.062	-0.101
-331.216	28.325	0.224	-0.189
-330.202	-77.349	0.112	0.039
-329.187	-185.162	0.098	-0.002
-328.172	12.347	-0.204	0.157
-327.158	310.743	0.044	-0.082
-326.143	104.403	-0.144	-0.169
-325.129	-109.920	-0.271	0.057
-324.114	-2.276	-0.538	-0.378
-323.099	800.000	0.015	-0.054
-322.085	-200.000	0.021	0.178
-321.070	408.496	-0.038	-0.080
-320.056	-22.654	0.097	-0.059
-319.041	-14.217	0.141	0.091
-318.026	-200.000	-0.025	-0.305
-317.012	118.835	-0.171	0.212
-315.997	185.025	0.235	0.348
-314.983	301.843	0.120	-0.221
-313.968	143.699	0.183	0.244
-312.953	-102.505	-0.234	0.056
-311.939	549.500	-0.006	0.014
-310.924	31.527	0.334	0.287
-309.910	-115.248	-0.042	0.008
-308.895	288.601	-0.098	-0.178
-307.880	0.992	-0.271	-0.194
-306.866	800.000	-0.099	0.369
-305.851	63.412	0.252	-0.253
-304.837	62.785	0.104	0.104
-303.822	800.000	0.020	0.085
-302.807	-5.807	-0.185	0.127
-301.793	-200.000	0.000	-0.050
-300.778	108.259	0.278	-0.331
-299.764	-91.307	-0.239	-0.068
-298.749	-119.814	0.216	-0.037
-297.735	35.394	0.221	-0.194
-296.720	-38.693	-0.065	0.035
-295.705	-59.015	-0.172	0.074
-294.691	392.997	-0.054	-0.113
-293.676	-53.129	-0.077	-0.035
-292.662	800.000	-0.032	0.100
-291.647	51.132	0.148	0.141
-290.632	-144.656	0.133	-0.012
-289.618	64.975	-0.106	0.107
-288.603	-8.816	-0.059	0.040
-287.589	160.744	-0.072	-0.100
-286.574	-62.897	0.220	0.091
-285.559	-1.506	0.459	0.323
-284.545	208.134	-0.029	-0.045
-283.530	-60.905	0.066	-0.028
-282.516	-200.000	-0.034	-0.271
-281.501	-11.315	0.362	-0.238
-280.486	-28.710	0.363	-0.209
-279.472	143.216	0.102	0.135
-278.457	5.367	-0.385	-0.284
-277.443	-142.219	0.159	0.016
-276.428	-102.718	-0.299	-0.071
-275.413	800.000	-0.027	0.114
-274.399	70.696	-0.167	0.173
-273.384	-200.000	0.039	-0.337
-272.370	-200.000	0.037	-0.165
-271.355	124.107	0.181	0.227
-270.340	800.000	-0.122	0.338
-269.326	6.955	0.290	0.216
-268.311	-200.000	0.008	0.058
-267.297	-29.061	-0.086	-0.049
-266.282	-161.963	-0.271	-0.014
-265.267	-48.375	0.176	0.085
-264.253	29.414	0.321	0.272
-263.238	562.804	-0.128	-0.309
-262.224	207.749	0.073	0.113
-261.209	197.960	-0.160	0.244
-260.195	-184.449	-0.061	0.001
-259.180	-200.000	-0.004	-0.333
-258.165	-200.000	0.021	0.297
-257.151	-200.000	0.047	-0.258
-256.136	16.495	0.192	-0.151
-255.122	-200.000	-0.017	0.164
-254.107	-76.473	0.228	-0.080
-253.092	-63.702	-0.068	-0.028
-252.078	-200.000	-0.023	0.205
-251.063	-200.000	0.011	-0.097
-250.049	-200.000	0.059	-0.290
-249.034	-180.685	-0.218	-0.004
-248.019	-101.181	-0.304	0.074
-247.005	-82.955	-0.062	0.020
-245.990	-200.000	-0.022	0.095
-244.976	-132.065	-0.245	-0.032
-243.961	800.000	0.089	0.282
-242.946	-170.965	0.144	0.005
-241.932	89.548	-0.084	0.093
-240.917	288.986	0.106	0.191
-239.903	-81.486	-0.038	0.013
-238.888	59.403	-0.056	-0.055
-237.873	-160.055	0.130	0.007
-236.859	60.818	0.343	0.339
-235.844	255.296	-0.131	-0.224
-234.830	103.623	0.045	0.053
-233.815	-200.000	-0.048	0.000
-232.800	-55.679	-0.166	-0.074
-231.786	-133.529	-0.166	0.021
-230.771	800.000	0.023	-0.065
-229.757	800.000	0.033	-0.109
-228.742	63.731	0.220	-0.220
-227.727	-76.841	0.295	0.103
-226.713	147.342	-0.122	0.163
-225.698	151.494	0.147	0.200
-224.684	800.000	0.051	0.177
-223.669	-200.000	-0.019	0.145
-222.655	800.000	0.070	-0.293
-221.640	-200.000	-0.003	-0.203
-220.625	-200.000	-0.078	-0.000
-219.611	-51.290	0.141	-0.066
-218.596	43.156	-0.213	0.194
-217.582	-66.705	0.523	-0.206
-216.567	-70.658	0.035	-0.013
-215.552	-200.000	0.085	0.648
-214.538	-200.000	0.000	0.113
-213.523	-64.869	0.304	0.122
-212.509	-145.746	-0.411	0.036
-211.494	188.139	-0.198	-0.295
-210.479	687.510	-0.117	-0.306
-209.465	-126.163	0.189	0.028
-208.450	800.000	0.031	-0.108
-207.436	800.000	0.107	-0.341
-206.421	-55.662	0.026	0.012
-205.406	-92.984	-0.235	-0.065
-204.392	44.876	0.240	-0.220
-203.377	800.000	0.093	-0.401
-202.363	-119.667	0.145	-0.025
-201.348	-55.421	-0.096	0.043
-200.333	-126.313	-0.317	-0.047
-199.319	-120.131	-0.048	0.008
-198.304	-34.496	0.202	0.110
-197.290	-37.956	-0.219	-0.116
-196.275	800.000	0.092	-0.398
-195.260	164.912	0.067	0.094
-194.246	91.068	-0.176	0.196
-193.231	600.752	0.063	-0.157
-192.217	-11.811	-0.073	0.048
-191.202	544.263	0.101	0.240
-190.187	-31.165	-0.302	-0.169
-189.173	337.930	0.081	-0.158
-188.158	-70.179	-0.293	-0.111
-187.144	-143.327	-0.273	0.026
-186.129	30.741	0.228	-0.195
-185.114	-200.000	-0.026	-0.184
-184.100	-75.897	-0.231	0.081
-183.085	-18.481	0.216	0.134
-182.071	386.543	0.208	0.426
-181.056	111.076	0.221	-0.265
-180.042	-134.479	0.180	0.022
-179.027	-200.000	0.034	-0.222
-178.012	-31.044	-0.204	0.114
-176.998	46.836	0.139	0.129
-175.983	-109.624	-0.069	0.015
-174.969	18.516	-0.044	0.035
-173.954	14.747	0.042	-0.032
-172.939	209.598	0.245	-0.381
-171.925	324.325	-0.037	-0.071
-170.910	65.314	0.117	-0.117
-169.896	-200.000	0.043	0.187
-168.881	-11.998	-0.178	0.116
-167.866	-50.598	0.362	-0.170
-166.852	-136.647	-0.175	-0.020
-165.837	202.440	-0.079	-0.122
-164.823	80.244	-0.084	0.090
-163.808	27.660	0.300	-0.251
-162.793	-2.524	-0.299	0.208
-161.779	-41.200	0.149	0.076
-160.764	175.241	0.048	-0.069
-159.750	353.657	-0.118	-0.234
-158.735	321.854	0.130	0.245
-157.720	-200.000	0.003	0.084
-156.706	-47.559	0.138	0.067
-155.691	82.902	-0.124	0.134
-154.677	-15.292	-0.357	0.227
-153.662	-200.000	-0.042	-0.244
-152.647	2.947	0.078	0.056
-151.633	-35.410	0.209	-0.113
-150.618	5.007	0.191	-0.139
-149.604	-184.218	0.081	-0.001
-148.589	-98.700	-0.181	0.046
-147.574	19.917	-0.100	-0.080
-146.560	800.000	0.031	-0.126
-145.545	-91.162	0.182	0.052
-144.531	11.305	-0.428	0.326
-143.516	800.000	-0.101	0.301
-142.502	-200.000	0.021	0.150
-141.487	-32.073	-0.166	-0.092
-140.472	-65.454	0.170	-0.068
-139.458	-200.000	-0.042	-0.443
-138.443	-24.966	0.235	-0.138
-137.429	191.289	0.102	0.153
-136.414	390.705	-0.077	0.158
-135.399	-167.902	-0.125	-0.005
-134.385	-137.099	-0.197	0.022
-133.370	569.624	-0.033	0.080
-132.356	16.173	0.094	0.074
-131.341	-44.070	-0.141	0.070
-130.326	-34.798	-0.289	-0.157
-129.312	-200.000	0.016	-0.181
-128.297	468.706	0.019	0.042
-127.283	411.895	0.066	0.140
-126.268	13.009	-0.160	-0.123
-125.253	-29.836	-0.051	0.029
-124.239	-191.444	-0.063	-0.001
-123.224	-117.040	0.319	-0.058
-122.210	-64.604	-0.198	0.080
-121.195	-35.218	0.178	-0.096
