DTS Sentinel unit serial number:	SN413079Multiplexer serial number:	ORYXHardware model number:	OX4-SRSoftware version number:	ORYX F/W v4.00 Oryx Data Collector v3.7.2.0data status	okinstallation	princeton_trtdifferential loss correction	single-endedforward channel	channel 2reverse channel	N/Adate	2019/09/16time	22:31:35forward acquisition time	60.00reverse acquisition time	0.00gamma	496.2192k internal	0.2327k external	0.2327temperature offset calibration	0.9971default loss term (dB/km)	0.3790temperature slope calibration	1.0000multiplexer offset coefficient	1.0000multiplexer slope coefficient	1.0000fibre end	0.00T internal ref (°C)	30.75T ext. ref 1 (°C)	0.08T ext. ref 2 (°C)	24.45length (m)	temperature (°C)	Stokes	anti-Stokes-747.200	372.241	0.073	-0.150
-746.185	149.179	0.118	0.161
-745.171	-200.000	-0.028	0.274
-744.156	194.851	0.166	0.253
-743.142	635.963	-0.050	0.128
-742.127	-64.398	0.182	0.075
-741.112	-177.246	0.384	-0.010
-740.098	-100.242	-0.057	-0.014
-739.083	-200.000	-0.052	-0.369
-738.069	292.308	0.102	0.187
-737.054	26.397	0.368	-0.310
-736.039	800.000	-0.095	-0.313
-735.025	113.542	0.080	0.098
-734.010	80.753	-0.303	-0.329
-732.996	-182.672	-0.256	-0.005
-731.981	-55.311	-0.181	0.082
-730.966	185.081	-0.210	0.313
-729.952	2.607	0.103	0.075
-728.937	-50.863	-0.207	-0.098
-727.923	-116.457	-0.097	-0.018
-726.908	47.939	-0.066	-0.062
-725.894	215.476	0.089	-0.142
-724.879	-79.459	-0.226	-0.077
-723.864	-119.699	-0.186	-0.032
-722.850	281.637	-0.133	0.240
-721.835	-200.000	0.008	-0.227
-720.821	131.928	0.101	0.131
-719.806	221.462	0.035	0.057
-718.791	-37.413	0.186	-0.100
-717.777	-115.901	0.254	-0.048
-716.762	-127.192	-0.106	0.016
-715.748	563.548	0.108	-0.262
-714.733	2.563	-0.078	-0.057
-713.718	515.934	0.070	0.164
-712.704	415.114	-0.159	0.340
-711.689	8.457	-0.332	-0.251
-710.675	-153.721	-0.307	0.021
-709.660	3.469	0.110	0.080
-708.645	-200.000	-0.026	0.144
-707.631	36.184	-0.236	-0.209
-706.616	782.374	-0.099	-0.274
-705.602	800.000	-0.073	-0.292
-704.587	-140.264	-0.273	0.029
-703.572	-200.000	-0.003	0.099
-702.558	410.881	-0.036	0.076
-701.543	-200.000	0.004	-0.038
-700.529	-99.162	-0.173	0.044
-699.514	421.181	-0.110	0.237
-698.499	746.024	0.036	-0.099
-697.485	-200.000	0.073	-0.324
-696.470	74.462	0.161	-0.170
-695.456	800.000	0.074	0.254
-694.441	800.000	-0.106	-0.297
-693.426	62.712	-0.241	-0.243
-692.412	-67.639	-0.254	0.100
-691.397	147.546	-0.068	-0.092
-690.383	-200.000	0.016	-0.221
-689.368	-200.000	0.011	-0.199
-688.354	-139.123	0.262	0.029
-687.339	-1.918	-0.069	0.049
-686.324	-119.049	-0.299	0.053
-685.310	125.705	-0.052	-0.065
-684.295	800.000	-0.050	-0.190
-683.281	800.000	-0.026	-0.106
-682.266	-105.734	0.072	0.016
-681.251	800.000	-0.076	-0.280
-680.237	-29.713	0.053	0.030
-679.222	151.302	-0.223	0.305
-678.208	793.977	0.066	0.181
-677.193	66.535	0.221	-0.226
-676.178	-198.490	-0.147	-0.001
-675.164	43.592	-0.201	-0.185
-674.149	-200.000	-0.049	0.502
-673.135	464.102	-0.020	0.045
-672.120	-23.915	-0.243	-0.146
-671.105	4.759	0.025	-0.018
-670.091	111.348	-0.227	-0.275
-669.076	418.791	0.048	0.104
-668.062	-80.577	-0.270	0.091
-667.047	-124.828	-0.253	0.039
-666.032	175.725	-0.097	0.142
-665.018	-73.306	-0.254	0.093
-664.003	-97.422	0.298	0.078
-662.989	97.969	0.143	-0.165
-661.974	-13.519	0.182	-0.119
-660.959	238.091	0.096	0.160
-659.945	5.841	0.446	-0.332
-658.930	800.000	0.041	-0.178
-657.916	-92.983	0.158	0.044
-656.901	2.227	-0.144	0.105
-655.886	-69.434	-0.365	0.141
-654.872	180.589	-0.043	-0.064
-653.857	800.000	-0.090	-0.286
-652.843	-200.000	0.054	-0.360
-651.828	-123.953	0.161	0.025
-650.814	800.000	-0.044	0.136
-649.799	-113.011	0.070	0.014
-648.784	-200.000	0.030	0.137
-647.770	-24.817	-0.083	-0.050
-646.755	-22.528	-0.355	-0.216
-645.741	704.869	0.094	-0.250
-644.726	-108.805	-0.306	0.066
-643.711	-115.451	-0.182	-0.035
-642.697	-200.000	-0.002	0.224
-641.682	36.871	-0.290	-0.257
-640.668	83.096	-0.139	-0.152
-639.653	-200.000	0.010	-0.192
-638.638	-128.979	0.258	-0.036
-637.624	800.000	-0.034	-0.128
-636.609	77.139	0.216	-0.230
-635.595	-37.326	-0.168	-0.090
-634.580	-41.372	0.209	-0.108
-633.565	-75.808	0.141	-0.050
-632.551	-13.442	0.227	-0.148
-631.536	-200.000	0.042	0.188
-630.522	222.395	0.058	-0.094
-629.507	691.413	-0.053	-0.140
-628.492	-57.156	0.095	-0.042
-627.478	75.055	0.211	-0.223
-626.463	384.494	-0.165	-0.341
-625.449	-164.770	-0.451	0.020
-624.434	34.472	-0.157	0.138
-623.419	-18.555	-0.336	0.210
-622.405	695.970	-0.070	0.184
-621.390	225.122	-0.084	-0.137
-620.376	106.678	0.119	0.142
-619.361	-110.181	0.421	-0.088
-618.346	-200.000	-0.041	0.475
-617.332	-83.488	0.338	0.108
-616.317	57.704	-0.212	0.208
-615.303	-13.324	-0.232	-0.151
-614.288	66.904	-0.144	0.147
-613.273	-200.000	0.023	-0.157
-612.259	-34.021	-0.187	0.103
-611.244	-200.000	0.024	-0.151
-610.230	267.060	0.042	-0.074
-609.215	157.560	-0.151	0.210
-608.201	-77.930	0.090	0.031
-607.186	191.308	0.143	-0.216
-606.171	-73.945	-0.144	-0.052
-605.157	-132.712	0.255	0.033
-604.142	334.445	0.066	-0.128
-603.128	-8.837	0.090	0.061
-602.113	800.000	-0.045	0.158
-601.098	153.870	0.111	-0.153
-600.084	-70.133	-0.228	-0.087
-599.069	150.165	-0.120	-0.163
-598.055	-6.557	0.255	-0.174
-597.040	800.000	0.022	-0.066
-596.025	-91.247	-0.317	0.091
-595.011	-89.799	0.160	0.047
-593.996	580.198	0.110	0.270
-592.982	104.845	-0.105	0.124
-591.967	-59.649	0.315	0.135
-590.952	800.000	0.061	0.239
-589.938	-41.718	-0.264	-0.136
-588.923	-131.122	-0.054	-0.007
-587.909	-200.000	0.001	-0.117
-586.894	146.091	0.265	-0.357
-585.879	-180.357	-0.501	-0.010
-584.865	-16.740	-0.335	-0.213
-583.850	111.117	-0.194	0.234
-582.836	-5.737	0.065	0.045
-581.821	-148.955	0.135	-0.011
-580.806	-104.047	-0.121	-0.028
-579.792	-200.000	0.006	0.045
-578.777	-12.530	0.204	-0.133
-577.763	414.064	0.026	-0.055
-576.748	800.000	-0.060	0.183
-575.733	1.203	0.064	-0.046
-574.719	-200.000	-0.020	-0.377
-573.704	83.480	-0.217	-0.237
-572.690	-39.035	-0.220	0.116
-571.675	291.615	-0.032	0.058
-570.661	34.122	0.181	-0.158
-569.646	0.679	-0.073	0.053
-568.631	-200.000	-0.027	-0.290
-567.617	231.138	0.108	0.176
-566.602	464.637	-0.108	0.242
-565.588	191.493	-0.030	-0.046
-564.573	-141.708	-0.375	-0.038
-563.558	-142.673	0.572	0.056
-562.544	-75.853	0.002	-0.001
-561.529	800.000	-0.043	0.147
-560.515	-200.000	-0.020	-0.175
-559.500	-171.592	-0.553	0.018
-558.485	-52.357	-0.057	0.027
-557.471	-200.000	0.015	0.112
-556.456	-200.000	0.023	-0.179
-555.442	-123.009	0.227	0.037
-554.427	242.488	-0.164	-0.274
-553.412	256.385	0.057	0.098
-552.398	-110.239	0.236	-0.049
-551.383	-163.148	0.041	0.002
-550.369	-11.233	0.154	0.102
-549.354	-200.000	-0.020	0.196
-548.339	-200.000	-0.030	0.276
-547.325	-60.647	-0.297	-0.126
-546.310	-60.943	-0.115	0.049
-545.296	800.000	0.088	0.266
-544.281	-26.027	0.132	0.078
-543.266	800.000	0.050	-0.156
-542.252	-200.000	0.012	0.089
-541.237	73.568	-0.172	-0.180
-540.223	-164.698	0.278	-0.013
-539.208	-114.311	-0.397	0.077
-538.193	535.468	0.079	0.186
-537.179	-16.555	-0.072	-0.046
-536.164	197.057	0.102	0.156
-535.150	98.916	-0.110	0.127
-534.135	4.030	0.488	-0.357
-533.121	-37.140	-0.287	0.154
-532.106	418.321	0.069	-0.147
-531.091	63.852	0.097	0.097
-530.077	-12.885	-0.303	-0.197
-529.062	123.514	0.118	-0.147
-528.048	-163.704	-0.248	-0.012
-527.033	-200.000	0.003	-0.044
-526.018	800.000	-0.049	0.183
-525.004	88.486	0.098	-0.109
-523.989	-118.615	0.245	0.043
-522.975	29.063	0.463	-0.392
-521.960	2.488	0.197	0.142
-520.945	-153.138	-0.509	-0.036
-519.931	-73.108	-0.307	0.113
-518.916	-69.792	-0.168	-0.064
-517.902	526.189	-0.069	0.163
-516.887	371.014	0.088	0.179
-515.872	21.657	-0.061	-0.050
-514.858	135.439	0.313	-0.407
-513.843	384.180	0.115	-0.236
-512.829	-13.337	0.133	0.086
-511.814	-200.000	0.017	0.110
-510.799	-56.051	-0.151	-0.067
-509.785	-83.576	-0.502	0.160
-508.770	794.160	-0.067	-0.185
-507.756	31.608	-0.175	0.151
-506.741	8.789	-0.017	-0.013
-505.726	105.759	0.118	-0.140
-504.712	-109.967	0.203	-0.043
-503.697	-164.317	-0.344	0.016
-502.683	-10.146	-0.130	0.087
-501.668	311.776	-0.127	-0.237
-500.653	-116.322	0.234	-0.043
-499.639	-75.682	0.338	-0.120
-498.624	-200.000	0.011	-0.247
-497.610	642.493	-0.061	-0.155
-496.595	260.332	0.041	0.070
-495.581	43.070	-0.079	-0.072
-494.566	-200.000	-0.050	-0.512
-493.551	266.876	-0.213	-0.371
-492.537	-200.000	-0.087	0.385
-491.522	-200.000	0.023	0.143
-490.508	-129.491	-0.205	-0.028
-489.493	-82.125	-0.025	-0.008
-488.478	308.912	0.104	-0.194
-487.464	95.319	-0.165	0.188
-486.449	23.177	-0.306	0.251
-485.435	-101.425	0.330	-0.080
-484.420	-176.232	-0.066	-0.002
-483.405	111.285	0.137	-0.164
-482.391	85.098	0.200	-0.219
-481.376	-200.000	-0.023	-0.170
-480.362	130.426	-0.343	-0.438
-479.347	101.358	-0.106	0.123
-478.332	-200.000	0.033	0.212
-477.318	-93.294	0.088	-0.024
-476.303	-110.520	0.178	-0.037
-475.289	-200.000	0.011	-0.093
-474.274	554.114	0.064	-0.154
-473.259	230.012	-0.135	-0.220
-472.245	-22.935	0.158	0.095
-471.230	800.000	-0.078	-0.245
-470.216	44.070	-0.182	-0.166
-469.201	-43.916	0.350	0.175
-468.186	67.851	-0.075	-0.076
-467.172	-53.841	0.078	0.035
-466.157	-200.000	0.003	-0.022
-465.143	303.253	0.043	0.080
-464.128	397.435	0.031	-0.066
-463.113	-8.524	0.136	0.091
-462.099	-200.000	-0.030	0.258
-461.084	-8.706	-0.194	0.130
-460.070	-39.070	-0.211	-0.111
-459.055	-172.141	0.165	-0.005
-458.040	800.000	-0.055	-0.187
-457.026	-155.255	-0.319	-0.021
-456.011	-8.422	0.369	-0.247
-454.997	171.571	0.073	-0.104
-453.982	-57.862	0.155	-0.067
-452.968	650.711	-0.040	-0.103
-451.953	-197.775	0.280	0.002
-450.938	-5.545	0.186	0.127
-449.924	-45.662	-0.283	0.140
-448.909	800.000	0.111	0.378
-447.895	53.384	0.103	0.098
-446.880	-103.199	-0.395	-0.093
-445.865	-144.705	0.231	-0.021
-444.851	7.622	0.088	-0.065
-443.836	-99.203	-0.175	-0.044
-442.822	-42.537	-0.160	-0.081
-441.807	41.788	-0.158	0.143
-440.792	-74.325	-0.030	0.011
-439.778	-200.000	0.005	-0.250
-438.763	-53.885	0.346	0.157
-437.749	-200.000	0.050	-0.312
-436.734	-200.000	-0.008	0.091
-435.719	-200.000	0.035	0.183
-434.705	21.044	-0.130	0.105
-433.690	660.909	0.114	-0.293
-432.676	78.579	-0.146	0.155
-431.661	150.419	-0.208	0.281
-430.646	-12.909	-0.091	-0.059
-429.632	283.252	0.074	-0.133
-428.617	225.416	-0.096	0.155
-427.603	34.608	0.091	-0.079
-426.588	800.000	-0.016	0.058
-425.573	-200.000	-0.008	-0.157
-424.559	-116.841	0.153	-0.028
-423.544	494.286	-0.032	0.074
-422.530	-153.685	0.339	-0.023
-421.515	-200.000	-0.008	0.367
-420.500	-57.982	-0.314	0.137
-419.486	77.687	0.035	-0.037
-418.471	88.823	0.255	0.282
-417.457	-82.385	0.174	-0.056
-416.442	-200.000	-0.106	0.532
-415.428	-146.895	-0.233	-0.020
-414.413	658.350	0.051	0.132
-413.398	-100.527	0.111	0.027
-412.384	800.000	-0.093	-0.338
-411.369	-13.127	0.250	-0.161
-410.355	105.183	0.175	0.206
-409.340	-140.357	0.182	0.019
-408.325	-200.000	0.013	0.128
-407.311	274.777	-0.190	-0.334
-406.296	-98.010	0.181	0.046
-405.282	-171.521	-0.267	0.009
-404.267	-80.037	0.226	0.076
-403.252	142.677	0.095	-0.125
-402.238	-132.085	-0.557	-0.072
-401.223	-71.970	0.262	0.097
-400.209	800.000	-0.089	0.259
-399.194	-189.769	-0.348	-0.004
-398.179	63.097	-0.026	0.025
-397.165	207.837	0.079	0.123
-396.150	2.452	-0.184	-0.132
-395.136	6.657	0.037	0.027
-394.121	800.000	-0.093	-0.291
-393.106	-200.000	0.055	0.420
-392.092	-121.289	-0.211	-0.035
-391.077	-200.000	-0.025	-0.488
-390.063	48.896	-0.155	0.144
-389.048	800.000	0.039	-0.168
-388.033	261.212	0.155	0.267
-387.019	77.148	-0.110	-0.116
-386.004	-45.508	0.066	-0.032
-384.990	302.324	0.084	0.154
-383.975	-22.481	0.191	-0.115
-382.960	24.547	-0.163	-0.134
-381.946	-84.190	0.378	-0.119
-380.931	1.427	-0.201	-0.144
-379.917	395.167	0.132	-0.274
-378.902	-200.000	-0.004	-0.035
-377.888	29.183	0.024	-0.020
-376.873	115.163	0.045	0.055
-375.858	234.170	-0.199	0.326
-374.844	-64.141	0.287	0.116
-373.829	418.813	-0.079	0.167
-372.815	-12.862	0.164	0.106
-371.800	800.000	-0.096	0.406
-370.785	490.569	0.086	0.196
-369.771	-32.434	-0.107	0.059
-368.756	-117.039	-0.191	0.035
-367.742	-39.635	0.574	0.298
-366.727	290.005	0.011	0.019
-365.712	-200.000	-0.011	0.119
-364.698	299.594	-0.130	-0.237
-363.683	-105.076	-0.132	-0.030
-362.669	1.689	-0.128	-0.092
-361.654	-77.062	0.234	-0.081
-360.639	-33.461	0.060	-0.033
-359.625	-117.563	-0.224	-0.040
-358.610	137.496	0.105	0.137
-357.596	264.500	-0.089	-0.154
-356.581	-107.577	0.216	0.047
-355.566	610.860	0.075	0.187
-354.552	-21.558	-0.168	-0.102
-353.537	800.000	-0.067	0.268
-352.523	159.397	-0.192	0.266
-351.508	-200.000	-0.046	0.199
-350.493	94.889	-0.206	-0.233
-349.479	182.381	0.082	-0.121
-348.464	-65.445	-0.172	0.068
-347.450	46.448	-0.088	-0.081
-346.435	800.000	-0.024	0.079
-345.420	800.000	-0.082	0.284
-344.406	-80.850	0.343	-0.113
-343.391	-103.768	0.179	-0.041
-342.377	-69.704	-0.261	0.099
-341.362	-137.001	-0.271	-0.031
-340.348	59.355	-0.121	0.118
-339.333	42.567	0.333	0.300
-338.318	310.853	0.127	-0.236
-337.304	-46.721	0.091	0.044
-336.289	-29.915	0.281	0.159
-335.275	135.315	-0.096	0.124
-334.260	104.531	-0.068	0.079
-333.245	-82.096	-0.175	0.057
-332.231	-59.232	0.146	-0.062
-331.216	18.641	0.247	-0.196
-330.202	540.376	0.085	-0.200
-329.187	-39.191	-0.227	0.118
-328.172	-129.223	-0.207	0.029
-327.158	-23.231	-0.103	-0.061
-326.143	-103.901	0.107	-0.025
-325.129	-200.000	0.003	0.263
-324.114	463.855	0.073	0.161
-323.099	-168.459	0.249	-0.009
-322.085	287.382	-0.086	0.154
-321.070	373.924	-0.155	-0.313
-320.056	-118.886	0.139	-0.024
-319.041	-129.419	0.105	-0.014
-318.026	800.000	0.056	-0.215
-317.012	10.941	-0.075	-0.057
-315.997	-200.000	-0.005	-0.027
-314.983	148.570	-0.043	0.058
-313.968	-83.355	-0.362	0.115
-312.953	-119.027	0.185	0.032
-311.939	-47.276	-0.247	-0.119
-310.924	270.845	-0.118	-0.206
-309.910	800.000	0.114	0.407
-308.895	-77.189	-0.067	-0.023
-307.880	800.000	0.035	-0.151
-306.866	286.126	0.079	-0.142
-305.851	-167.023	0.237	-0.010
-304.837	-165.227	0.145	-0.006
-303.822	-133.241	0.065	-0.008
-302.807	-106.030	-0.319	-0.071
-301.793	-150.054	0.147	0.011
-300.778	-200.000	-0.042	0.338
-299.764	198.770	0.085	-0.129
-298.749	69.226	0.280	-0.285
-297.735	-14.531	0.218	-0.139
-296.720	-195.728	-0.380	0.003
-295.705	800.000	-0.122	0.380
-294.691	66.248	-0.261	0.263
-293.676	-61.398	-0.333	0.139
-292.662	152.103	0.066	0.089
-291.647	-146.637	0.172	-0.015
-290.632	-200.000	-0.000	-0.022
-289.618	-200.000	-0.012	-0.201
-288.603	-87.780	0.320	0.096
-287.589	-173.082	-0.164	-0.005
-286.574	51.647	-0.187	0.176
-285.559	-200.000	-0.018	-0.092
-284.545	-79.107	-0.116	0.039
-283.530	-25.059	0.126	0.074
-282.516	-200.000	-0.009	-0.413
-281.501	-106.153	-0.385	0.085
-280.486	15.039	-0.140	0.108
-279.472	800.000	0.007	-0.021
-278.457	114.729	0.010	0.012
-277.443	8.361	0.219	0.163
-276.428	-200.000	0.025	-0.119
-275.413	-93.690	0.126	0.034
-274.399	-200.000	-0.029	0.327
-273.384	-39.146	-0.101	-0.052
-272.370	-87.628	0.307	0.092
-271.355	-99.601	0.192	0.048
-270.340	90.280	-0.027	0.030
-269.326	-122.788	0.368	-0.059
-268.311	-106.679	-0.281	0.062
-267.297	-170.494	0.204	0.007
-266.282	197.759	0.263	0.397
-265.267	-62.273	0.086	-0.036
-264.253	324.727	0.086	-0.162
-263.238	-200.000	0.048	-0.266
-262.224	1.921	-0.244	-0.174
-261.209	70.548	0.194	-0.199
-260.195	-56.132	0.288	-0.127
-259.180	-199.468	0.103	-0.001
-258.165	-200.000	-0.015	-0.152
-257.151	-110.963	-0.300	0.061
-256.136	50.559	0.018	0.017
-255.122	-68.606	0.159	-0.061
-254.107	800.000	-0.087	0.298
-253.092	-200.000	0.000	0.160
-252.078	338.149	0.084	0.161
-251.063	36.764	-0.181	-0.158
-250.049	800.000	0.047	-0.157
-249.034	800.000	0.103	0.332
-248.019	-200.000	0.047	0.298
-247.005	638.206	0.104	-0.262
-245.990	-78.991	0.331	0.111
-244.976	256.715	0.109	-0.185
-243.961	478.328	-0.155	-0.347
-242.946	-101.535	0.335	-0.080
-241.932	800.000	0.099	0.331
-240.917	-67.161	0.340	0.132
-239.903	309.904	-0.157	-0.291
-238.888	-200.000	-0.004	0.019
-237.873	-200.000	-0.037	0.161
-236.859	17.503	-0.129	-0.102
-235.844	-189.762	0.298	-0.003
-234.830	245.253	0.082	-0.137
-233.815	135.612	0.092	-0.118
-232.800	-132.038	0.167	-0.021
-231.786	-200.000	0.047	0.279
-230.771	202.847	0.074	-0.112
-229.757	-171.131	-0.081	0.003
-228.742	800.000	-0.098	0.300
-227.727	800.000	-0.089	0.321
-226.713	-200.000	0.006	-0.065
-225.698	44.628	-0.314	0.286
-224.684	-168.648	0.440	0.017
-223.669	223.640	-0.116	-0.185
-222.655	571.949	-0.034	0.083
-221.640	17.963	-0.227	-0.179
-220.625	800.000	-0.009	0.031
-219.611	-200.000	0.004	0.105
-218.596	-200.000	0.008	0.210
-217.582	571.425	-0.090	-0.218
-216.567	800.000	0.156	0.491
-215.552	-1.579	0.320	0.223
-214.538	22.704	-0.077	-0.062
-213.523	36.788	-0.110	-0.096
-212.509	128.958	-0.123	0.155
-211.494	-47.757	0.047	-0.023
-210.479	-65.610	0.175	-0.069
-209.465	-200.000	0.107	0.466
-208.450	-96.728	-0.312	-0.081
-207.436	-151.589	-0.249	0.018
-206.421	12.904	0.139	-0.106
-205.406	-103.828	0.343	0.079
-204.392	-153.649	-0.317	-0.022
-203.377	311.926	0.177	-0.327
-202.363	169.589	0.137	-0.193
-201.348	312.420	-0.051	-0.094
-200.333	800.000	-0.139	0.453
-199.319	25.774	0.195	-0.160
-198.304	-200.000	0.000	0.089
-197.290	-124.238	-0.082	-0.013
-196.275	-200.000	-0.022	0.165
-195.260	800.000	-0.037	-0.151
-194.246	177.167	0.112	0.161
-193.231	179.988	0.126	-0.183
-192.217	-40.286	0.098	0.050
-191.202	9.101	0.086	-0.064
-190.187	-127.896	0.103	0.015
-189.173	800.000	0.083	-0.265
-188.158	-61.757	-0.100	-0.041
-187.144	-71.468	0.228	-0.084
-186.129	-17.439	-0.379	-0.235
-185.114	13.047	0.317	0.242
-184.100	-149.986	-0.149	0.011
-183.085	57.522	-0.250	-0.240
-182.071	336.091	-0.086	0.164
-181.056	146.371	-0.115	-0.153
-180.042	800.000	-0.038	0.157
-179.027	-56.431	-0.184	-0.080
-178.012	121.799	0.196	0.240
-176.998	-118.261	-0.113	-0.020
-175.983	50.781	-0.229	0.214
-174.969	245.766	-0.145	-0.240
-173.954	-146.175	0.181	-0.016
-172.939	-126.311	0.060	0.009
-171.925	-120.301	-0.347	0.058
-170.910	227.168	0.077	0.124
-169.896	-40.228	0.062	-0.032
-168.881	65.191	-0.093	-0.093
-167.866	266.101	0.141	0.243
-166.852	138.409	0.099	-0.128
-165.837	359.934	0.170	-0.335
-164.823	637.150	0.009	0.023
-163.808	98.075	-0.146	0.166
-162.793	790.333	0.243	-0.659
-161.779	61.168	-0.266	0.260
-160.764	241.637	0.144	0.237
-159.750	75.704	0.171	-0.178
-158.735	48.555	-0.099	-0.091
-157.720	-200.000	0.006	0.042
-156.706	-110.026	0.115	0.024
-155.691	-200.000	-0.025	0.302
-154.677	-200.000	-0.043	0.216
-153.662	-129.161	0.309	0.042
-152.647	800.000	-0.065	0.201
-151.633	-200.000	-0.071	-0.320
-150.618	-18.204	-0.069	-0.042
-149.604	-99.626	-0.406	-0.100
-148.589	217.052	0.080	0.125
-147.574	-200.000	0.021	0.117
-146.560	127.800	-0.096	0.120
-145.545	120.587	-0.034	-0.041
-144.531	-70.158	0.288	-0.108
-143.516	-108.466	0.298	0.063
-142.502	84.316	-0.089	-0.095
-141.487	212.685	-0.200	-0.310
-140.472	-46.214	-0.194	-0.094
-139.458	102.437	0.134	-0.154
-138.443	120.347	0.068	0.083
-137.429	-200.000	-0.031	-0.161
-136.414	30.672	-0.222	0.187
-135.399	32.606	-0.084	-0.071
-134.385	568.664	-0.113	0.270
-133.370	-141.238	-0.083	0.008
-132.356	124.769	-0.033	0.041
-131.341	-64.569	0.471	-0.188
-130.326	64.540	-0.050	0.049
-129.312	-57.659	-0.187	0.081
-128.297	-200.000	0.003	-0.246
-127.283	-67.895	0.123	-0.047
-126.268	381.794	0.116	-0.235
-125.253	776.118	0.030	-0.081
-124.239	440.466	0.051	-0.109
-123.224	5.525	-0.379	0.275
-122.210	82.841	-0.119	-0.127
-121.195	34.497	0.222	0.191
