DTS Sentinel unit serial number:	SN413079Multiplexer serial number:	ORYXHardware model number:	OX4-SRSoftware version number:	ORYX F/W v4.00 Oryx Data Collector v3.7.2.0data status	okinstallation	princeton_trtdifferential loss correction	single-endedforward channel	channel 2reverse channel	N/Adate	2019/09/14time	21:11:35forward acquisition time	60.00reverse acquisition time	0.00gamma	496.2192k internal	0.2323k external	0.2323temperature offset calibration	1.0076default loss term (dB/km)	0.3790temperature slope calibration	1.0000multiplexer offset coefficient	1.0000multiplexer slope coefficient	1.0000fibre end	0.00T internal ref (°C)	33.06T ext. ref 1 (°C)	4.74T ext. ref 2 (°C)	27.82length (m)	temperature (°C)	Stokes	anti-Stokes-747.200	-200.000	-0.003	0.013
-746.185	-47.548	-0.164	-0.081
-745.171	-111.847	-0.224	-0.046
-744.156	397.056	-0.091	0.192
-743.142	-82.922	0.309	0.101
-742.127	-6.282	0.246	0.170
-741.112	-28.677	-0.243	0.141
-740.098	-99.431	-0.163	0.042
-739.083	-200.000	-0.003	0.028
-738.069	375.832	0.210	-0.433
-737.054	-24.507	0.153	-0.092
-736.039	64.543	-0.243	0.247
-735.025	-200.000	-0.051	0.238
-734.010	310.957	-0.124	-0.235
-732.996	800.000	-0.100	-0.425
-731.981	213.503	-0.103	0.164
-730.966	-147.838	-0.395	0.033
-729.952	17.554	0.171	0.137
-728.937	-196.472	-0.201	-0.001
-727.923	-125.523	0.215	-0.033
-726.908	338.731	0.073	0.143
-725.894	561.107	-0.171	-0.418
-724.879	-63.111	0.078	-0.033
-723.864	800.000	-0.059	-0.221
-722.850	-125.676	-0.235	0.036
-721.835	-141.640	0.087	-0.009
-720.821	8.639	-0.089	0.067
-719.806	434.179	0.087	-0.190
-718.791	-200.000	-0.087	-0.446
-717.777	-200.000	-0.020	0.153
-716.762	-128.939	-0.224	-0.032
-715.748	701.210	-0.077	0.206
-714.733	337.013	0.037	0.073
-713.718	-184.262	0.012	0.000
-712.704	800.000	0.089	-0.284
-711.689	-200.000	0.008	0.385
-710.675	-29.985	0.401	0.230
-709.660	143.712	0.210	0.282
-708.645	-167.042	-0.080	-0.003
-707.631	-200.000	-0.042	-0.270
-706.616	106.931	0.081	0.097
-705.602	-116.174	0.091	0.017
-704.587	40.020	0.126	-0.114
-703.572	-179.948	-0.119	0.003
-702.558	151.774	0.215	0.295
-701.543	800.000	-0.046	0.175
-700.529	-34.785	-0.231	0.127
-699.514	119.673	0.127	0.159
-698.499	-200.000	-0.016	0.075
-697.485	-200.000	0.004	-0.047
-696.470	44.145	-0.042	0.039
-695.456	-200.000	-0.006	0.505
-694.441	90.235	-0.067	-0.075
-693.426	-108.376	-0.132	0.029
-692.412	800.000	0.089	0.277
-691.397	73.449	0.183	-0.193
-690.383	249.326	0.080	-0.137
-689.368	94.269	-0.186	-0.212
-688.354	55.249	0.183	-0.179
-687.339	501.952	0.078	-0.182
-686.324	796.166	-0.117	-0.325
-685.310	-141.012	-0.193	0.020
-684.295	583.622	-0.051	-0.126
-683.281	-200.000	-0.025	-0.348
-682.266	25.941	0.241	-0.202
-681.251	479.089	0.016	0.036
-680.237	-161.185	0.269	-0.014
-679.222	800.000	0.127	0.466
-678.208	-0.699	-0.392	-0.280
-677.193	-137.587	-0.132	0.015
-676.178	-200.000	-0.021	0.142
-675.164	136.134	-0.133	0.175
-674.149	-200.000	0.047	-0.312
-673.135	662.162	0.066	-0.172
-672.120	132.034	-0.239	-0.311
-671.105	297.018	-0.109	0.201
-670.091	31.773	0.028	0.024
-669.076	800.000	-0.122	0.374
-668.062	184.644	-0.145	0.216
-667.047	-11.818	0.142	-0.094
-666.032	-200.000	0.008	0.164
-665.018	21.753	-0.165	-0.135
-664.003	-54.823	0.354	0.161
-662.989	59.205	0.201	-0.199
-661.974	-200.000	-0.020	-0.129
-660.959	-165.552	-0.172	-0.008
-659.945	-102.849	-0.234	-0.056
-658.930	800.000	-0.069	0.257
-657.916	-191.398	-0.331	0.003
-656.901	-200.000	0.016	0.091
-655.886	-147.788	0.103	-0.009
-654.872	-200.000	0.032	-0.316
-653.857	190.642	-0.172	-0.260
-652.843	-109.173	0.425	0.091
-651.828	270.112	0.079	-0.139
-650.814	404.265	0.065	-0.138
-649.799	-16.540	-0.094	-0.060
-648.784	172.971	0.067	-0.098
-647.770	800.000	0.070	0.224
-646.755	197.207	-0.279	0.429
-645.741	23.713	0.231	-0.192
-644.726	-26.619	-0.183	-0.108
-643.711	-60.476	-0.009	-0.004
-642.697	-24.826	-0.112	-0.067
-641.682	-200.000	-0.021	-0.167
-640.668	-159.328	-0.141	-0.008
-639.653	-96.625	-0.278	0.074
-638.638	-200.000	-0.009	0.094
-637.624	-35.048	-0.371	-0.203
-636.609	-152.634	-0.120	0.009
-635.595	307.849	-0.070	-0.132
-634.580	-16.669	-0.140	-0.089
-633.565	332.055	0.059	-0.114
-632.551	-26.026	-0.141	-0.083
-631.536	-200.000	-0.012	-0.161
-630.522	-145.608	-0.076	0.007
-629.507	-83.727	-0.288	0.092
-628.492	-200.000	-0.068	-0.396
-627.478	-107.112	-0.066	0.015
-626.463	-35.192	0.119	0.065
-625.449	-200.000	0.034	-0.245
-624.434	47.905	-0.041	0.039
-623.419	35.119	-0.117	-0.103
-622.405	-200.000	0.005	-0.246
-621.390	47.429	0.177	-0.166
-620.376	38.221	0.109	0.098
-619.361	-177.544	0.367	0.009
-618.346	62.115	-0.259	0.260
-617.332	-174.929	0.230	0.006
-616.317	-80.085	-0.063	0.021
-615.303	-68.397	-0.339	0.132
-614.288	-200.000	0.049	-0.441
-613.273	-200.000	-0.038	-0.426
-612.259	266.395	-0.217	-0.380
-611.244	-63.560	0.106	0.044
-610.230	226.847	-0.136	-0.222
-609.215	-5.071	-0.045	-0.031
-608.201	-200.000	0.002	-0.261
-607.186	-33.741	-0.039	0.022
-606.171	-200.000	-0.041	-0.224
-605.157	-39.300	0.143	0.075
-604.142	32.778	0.133	0.116
-603.128	-87.403	0.041	-0.012
-602.113	55.761	0.086	0.084
-601.098	-200.000	0.071	-0.350
-600.084	-200.000	-0.008	-0.176
-599.069	-57.141	0.271	0.120
-598.055	61.544	0.062	0.062
-597.040	102.477	0.163	0.192
-596.025	38.359	-0.357	0.319
-595.011	260.273	0.076	-0.133
-593.996	139.899	0.078	0.104
-592.982	751.727	-0.077	-0.210
-591.967	-200.000	-0.034	-0.200
-590.952	-62.985	-0.154	-0.064
-589.938	800.000	-0.042	0.183
-588.923	574.859	0.044	0.109
-587.909	438.307	-0.087	-0.190
-586.894	-200.000	0.000	-0.002
-585.879	-110.514	0.121	-0.025
-584.865	-65.373	0.201	0.081
-583.850	368.044	0.073	0.148
-582.836	-200.000	-0.043	0.456
-581.821	101.959	0.036	0.042
-580.806	-200.000	-0.008	-0.137
-579.792	7.842	0.076	0.057
-578.777	-63.147	-0.246	0.102
-577.763	-159.936	-0.139	0.008
-576.748	-200.000	-0.068	-0.347
-575.733	800.000	0.020	0.069
-574.719	175.739	0.130	-0.189
-573.704	-125.318	0.240	0.037
-572.690	425.879	0.089	0.193
-571.675	-17.278	-0.313	-0.198
-570.661	-99.645	-0.256	0.064
-569.646	135.867	0.101	0.132
-568.631	83.746	0.057	-0.063
-567.617	14.909	-0.062	0.049
-566.602	-26.818	0.110	0.064
-565.588	-14.360	-0.096	-0.062
-564.573	166.076	-0.029	-0.042
-563.558	-42.464	-0.047	-0.024
-562.544	-182.694	-0.206	-0.004
-561.529	30.099	-0.130	-0.111
-560.515	241.847	0.027	-0.046
-559.500	-200.000	0.012	-0.224
-558.485	-40.014	0.303	-0.159
-557.471	800.000	0.081	-0.287
-556.456	-176.951	-0.160	-0.004
-555.442	800.000	-0.031	-0.094
-554.427	800.000	0.075	-0.213
-553.412	800.000	0.018	0.056
-552.398	102.579	-0.173	0.203
-551.383	3.372	-0.143	-0.104
-550.369	679.823	-0.062	-0.161
-549.354	360.588	0.110	-0.222
-548.339	-92.820	0.104	-0.029
-547.325	-137.669	-0.105	-0.012
-546.310	369.693	0.063	-0.128
-545.296	611.657	0.061	0.153
-544.281	-200.000	0.016	-0.410
-543.266	-200.000	-0.029	-0.232
-542.252	307.804	-0.155	-0.289
-541.237	761.638	0.128	-0.348
-540.223	-101.676	0.223	-0.054
-539.208	-109.054	0.144	-0.031
-538.193	140.339	-0.068	-0.090
-537.179	800.000	0.137	0.403
-536.164	-79.882	0.099	-0.033
-535.150	-132.437	-0.188	-0.024
-534.135	434.602	0.114	0.248
-533.121	111.871	-0.062	-0.075
-532.106	133.322	0.031	0.040
-531.091	-53.888	-0.037	-0.017
-530.077	478.279	-0.117	-0.264
-529.062	-47.012	-0.066	-0.032
-528.048	-54.818	-0.078	0.035
-527.033	-115.773	-0.087	-0.016
-526.018	-10.453	0.072	0.048
-525.004	-74.622	-0.078	-0.028
-523.989	312.139	0.020	-0.038
-522.975	33.044	0.322	-0.279
-521.960	37.081	-0.204	-0.181
-520.945	432.907	0.092	-0.201
-519.931	63.608	-0.064	-0.064
-518.916	-19.405	-0.072	0.044
-517.902	-71.366	-0.247	0.092
-516.887	242.542	0.125	-0.209
-515.872	229.880	0.073	0.120
-514.858	-200.000	0.019	-0.141
-513.843	235.584	0.123	-0.203
-512.829	-20.812	0.126	-0.077
-511.814	-82.586	-0.345	-0.112
-510.799	149.811	-0.246	0.334
-509.785	138.493	-0.136	-0.178
-508.770	-182.376	-0.138	0.003
-507.756	749.425	-0.051	0.139
-506.741	-123.976	0.239	0.038
-505.726	148.399	-0.102	-0.138
-504.712	-200.000	0.032	-0.149
-503.697	730.390	-0.043	-0.114
-502.683	-105.076	-0.230	0.053
-501.668	-176.968	-0.166	-0.004
-500.653	-200.000	-0.014	0.070
-499.639	-89.734	-0.212	-0.062
-498.624	128.547	0.053	0.067
-497.610	-92.931	-0.176	0.049
-496.595	252.974	0.084	-0.143
-495.581	800.000	0.021	-0.066
-494.566	90.753	-0.138	0.154
-493.551	800.000	0.034	0.119
-492.537	-200.000	-0.179	-0.001
-491.522	-7.297	-0.306	0.207
-490.508	-200.000	0.010	0.128
-489.493	-200.000	0.016	0.322
-488.478	427.639	0.087	-0.187
-487.464	85.011	-0.340	0.373
-486.449	165.684	0.018	-0.025
-485.435	800.000	0.154	0.466
-484.420	-44.226	0.205	-0.103
-483.405	-109.479	-0.157	0.033
-482.391	231.833	0.063	-0.103
-481.376	-3.683	-0.206	0.143
-480.362	88.446	-0.116	-0.129
-479.347	295.147	0.043	0.078
-478.332	-166.959	-0.244	0.010
-477.318	-125.066	0.175	-0.027
-476.303	47.026	0.216	0.200
-475.289	-85.849	-0.115	-0.036
-474.274	86.495	-0.215	0.237
-473.259	-5.219	-0.131	0.090
-472.245	-68.252	0.185	0.072
-471.230	-99.205	0.117	0.029
-470.216	-200.000	0.206	0.001
-469.201	-200.000	0.019	0.384
-468.186	-200.000	0.001	-0.265
-467.172	800.000	0.095	-0.278
-466.157	-15.250	0.101	-0.065
-465.143	-14.406	0.225	-0.144
-464.128	-80.317	-0.076	-0.025
-463.113	800.000	-0.015	-0.066
-462.099	-107.698	0.119	-0.026
-461.084	-200.000	0.008	-0.259
-460.070	-100.234	0.341	0.085
-459.055	213.517	-0.042	0.066
-458.040	-0.663	-0.177	-0.125
-457.026	109.673	0.081	-0.097
-456.011	-88.594	0.171	-0.051
-454.997	593.196	-0.062	0.152
-453.982	12.227	0.214	0.165
-452.968	-52.580	-0.082	0.038
-451.953	-153.136	-0.388	0.027
-450.938	-200.000	-0.048	-0.313
-449.924	-3.513	0.195	-0.135
-448.909	33.484	0.129	0.111
-447.895	-92.334	-0.299	0.084
-446.880	-13.965	0.165	-0.106
-445.865	37.175	-0.303	0.268
-444.851	-82.397	0.242	0.078
-443.836	44.227	-0.093	0.085
-442.822	800.000	-0.060	-0.208
-441.807	396.525	-0.042	0.087
-440.792	-58.233	-0.244	0.106
-439.778	-40.176	0.203	0.105
-438.763	-161.169	0.142	0.007
-437.749	-11.622	0.228	0.149
-436.734	26.960	-0.236	0.197
-435.719	-29.244	0.309	0.177
-434.705	-200.000	0.012	0.096
-433.690	-27.046	-0.221	0.128
-432.676	-123.684	-0.283	0.045
-431.661	-142.933	0.410	0.040
-430.646	-172.765	0.520	-0.016
-429.632	76.798	-0.278	0.294
-428.617	151.676	-0.156	0.212
-427.603	-48.711	-0.113	-0.054
-426.588	267.673	0.152	-0.265
-425.573	-27.987	0.053	-0.031
-424.559	181.766	-0.079	-0.115
-423.544	800.000	0.064	0.217
-422.530	-45.665	0.126	-0.062
-421.515	-181.720	-0.110	0.002
-420.500	6.409	0.058	0.043
-419.486	322.690	-0.037	0.071
-418.471	-129.372	0.122	-0.017
-417.457	-200.000	0.027	-0.195
-416.442	800.000	-0.113	-0.432
-415.428	114.876	0.041	0.050
-414.413	-0.379	-0.092	-0.065
-413.398	800.000	0.101	0.286
-412.384	201.162	0.032	0.049
-411.369	128.153	-0.195	0.247
-410.355	-12.284	0.083	-0.054
-409.340	257.272	0.063	0.108
-408.325	-200.000	0.003	0.253
-407.311	-200.000	-0.034	-0.169
-406.296	800.000	0.056	0.236
-405.282	-160.597	-0.169	-0.009
-404.267	-112.555	0.198	-0.039
-403.252	-112.894	0.232	0.046
-402.238	-36.447	0.105	-0.056
-401.223	14.358	0.278	-0.216
-400.209	78.632	0.255	-0.272
-399.194	800.000	-0.081	0.251
-398.179	-107.043	-0.091	0.020
-397.165	-109.430	-0.443	0.093
-396.150	46.866	0.129	-0.120
-395.136	-9.272	-0.090	0.060
-394.121	1.692	0.337	-0.242
-393.106	-146.164	0.079	-0.007
-392.092	-200.000	0.018	-0.410
-391.077	-200.000	-0.008	0.219
-390.063	61.618	0.188	0.186
-389.048	-107.154	0.225	0.049
-388.033	800.000	-0.057	0.208
-387.019	61.369	-0.207	0.205
-386.004	-55.411	-0.339	0.152
-384.990	32.897	-0.075	0.065
-383.975	-200.000	-0.006	-0.268
-382.960	122.484	-0.142	0.177
-381.946	-5.365	0.043	-0.029
-380.931	84.807	0.099	0.108
-379.917	142.267	-0.160	0.211
-378.902	31.946	-0.113	-0.097
-377.888	323.259	0.032	0.061
-376.873	276.409	-0.036	-0.064
-375.858	301.444	0.012	-0.021
-374.844	243.099	-0.054	0.090
-373.829	8.449	-0.130	0.097
-372.815	-200.000	0.016	-0.207
-371.800	22.367	0.227	0.184
-370.785	-102.900	-0.417	-0.099
-369.771	800.000	0.048	0.205
-368.756	257.491	-0.084	-0.144
-367.742	800.000	0.079	0.222
-366.727	-143.548	0.096	0.009
-365.712	275.579	-0.087	0.153
-364.698	-132.664	0.124	0.016
-363.683	-99.721	-0.296	-0.074
-362.669	800.000	-0.127	0.378
-361.654	-64.438	0.143	-0.058
-360.639	755.791	-0.055	0.149
-359.625	51.860	-0.156	-0.148
-358.610	-200.000	0.004	0.035
-357.596	189.507	0.044	-0.065
-356.581	-74.533	0.065	0.023
-355.566	-29.903	0.152	-0.086
-354.552	116.875	0.306	0.374
-353.537	201.888	-0.094	0.144
-352.523	13.262	0.197	-0.152
-351.508	77.862	-0.095	0.101
-350.493	-49.833	0.180	-0.085
-349.479	321.412	0.051	0.096
-348.464	227.324	-0.095	0.154
-347.450	-64.562	0.290	0.117
-346.435	158.470	0.165	0.228
-345.420	800.000	0.082	-0.235
-344.406	659.250	0.076	0.194
-343.391	-143.498	0.348	-0.033
-342.377	662.128	0.072	-0.185
-341.362	414.674	0.058	-0.122
-340.348	-136.743	-0.082	0.009
-339.333	-200.000	0.025	0.227
-338.318	-137.827	-0.031	0.003
-337.304	-70.291	-0.151	0.057
-336.289	128.253	-0.110	0.139
-335.275	54.629	-0.154	0.148
-334.260	195.609	-0.038	-0.058
-333.245	-107.223	-0.317	-0.069
-332.231	68.076	0.277	-0.282
-331.216	537.221	-0.133	0.313
-330.202	-113.673	-0.130	0.025
-329.187	-23.320	0.239	0.143
-328.172	800.000	-0.065	-0.218
-327.158	-144.945	-0.474	-0.043
-326.143	112.913	0.182	-0.219
-325.129	42.233	0.282	0.254
-324.114	133.712	-0.090	0.116
-323.099	-140.776	-0.256	0.026
-322.085	105.741	0.235	0.277
-321.070	800.000	0.130	0.376
-320.056	18.869	-0.100	-0.079
-319.041	800.000	0.042	0.148
-318.026	350.639	0.057	-0.112
-317.012	-134.393	0.270	0.033
-315.997	68.128	0.121	0.123
-314.983	92.523	0.070	0.079
-313.968	507.433	0.078	-0.180
-312.953	10.614	0.253	-0.192
-311.939	-129.044	-0.262	-0.036
-310.924	729.826	-0.031	0.081
-309.910	-200.000	0.010	0.293
-308.895	-78.473	0.164	0.056
-307.880	12.501	0.270	-0.207
-306.866	-62.714	-0.233	0.096
-305.851	201.325	-0.163	-0.248
-304.837	-67.088	-0.181	0.071
-303.822	-200.000	-0.065	0.376
-302.807	-200.000	0.090	0.421
-301.793	-20.933	-0.164	-0.100
-300.778	-62.919	-0.077	-0.031
-299.764	304.842	0.020	0.037
-298.749	800.000	-0.039	0.155
-297.735	-186.282	-0.203	-0.003
-296.720	79.372	-0.256	0.272
-295.705	90.000	-0.117	0.130
-294.691	-48.567	0.115	-0.055
-293.676	-200.000	-0.004	-0.216
-292.662	-94.952	0.408	-0.109
-291.647	-156.965	-0.141	-0.009
-290.632	22.288	-0.152	-0.123
-289.618	151.174	-0.112	0.152
-288.603	607.942	-0.089	-0.221
-287.589	275.041	0.251	-0.440
-286.574	-200.000	-0.013	-0.318
-285.559	-142.516	0.229	-0.022
-284.545	30.390	0.039	-0.033
-283.530	-11.635	0.170	0.111
-282.516	-1.547	-0.181	0.126
-281.501	470.146	0.111	0.246
-280.486	-111.412	0.313	-0.063
-279.472	246.469	0.299	-0.500
-278.457	258.225	0.082	-0.140
-277.443	100.679	0.173	-0.200
-276.428	14.636	0.155	-0.120
-275.413	800.000	0.093	-0.323
-274.399	-58.549	-0.221	-0.095
-273.384	-93.681	0.382	0.105
-272.370	8.018	-0.192	-0.143
-271.355	-200.000	0.048	-0.214
-270.340	220.945	-0.149	-0.237
-269.326	-177.589	-0.119	0.003
-268.311	-142.376	0.191	0.019
-267.297	18.265	-0.134	-0.106
-266.282	-78.866	-0.248	0.084
-265.267	195.982	0.122	-0.184
-264.253	-89.726	0.126	0.037
-263.238	87.993	-0.156	-0.172
-262.224	437.959	0.095	0.205
-261.209	-99.768	0.100	-0.025
-260.195	-200.000	0.027	0.306
-259.180	-76.922	-0.254	0.088
-258.165	-41.833	0.322	0.164
-257.151	-200.000	0.022	0.220
-256.136	-89.521	-0.211	-0.061
-255.122	-102.408	-0.163	-0.039
-254.107	-198.852	-0.183	0.001
-253.092	-80.912	-0.127	0.042
-252.078	-200.000	-0.069	0.419
-251.063	-43.968	0.122	-0.061
-250.049	-200.000	0.009	0.138
-249.034	183.515	-0.067	0.098
-248.019	800.000	-0.042	0.150
-247.005	691.640	-0.138	0.358
-245.990	-140.577	0.388	-0.040
-244.976	44.791	0.133	0.121
-243.961	800.000	-0.079	-0.234
-242.946	-120.578	0.094	-0.016
-241.932	-36.157	0.250	0.133
-240.917	800.000	-0.092	0.265
-239.903	800.000	-0.078	-0.260
-238.888	497.506	0.148	0.337
-237.873	-109.779	0.253	0.053
-236.859	376.619	0.134	-0.271
-235.844	-200.000	-0.028	-0.188
-234.830	26.362	0.115	-0.095
-233.815	40.909	0.121	-0.108
-232.800	-121.451	-0.106	0.017
-231.786	-12.591	-0.055	0.035
-230.771	196.637	0.092	-0.139
-229.757	32.697	0.100	-0.085
-228.742	-200.000	-0.024	-0.284
-227.727	-200.000	0.014	-0.143
-226.713	232.761	-0.165	-0.268
-225.698	70.704	-0.167	-0.171
-224.684	449.571	0.130	-0.283
-223.669	-200.000	0.025	-0.115
-222.655	45.277	0.138	0.126
-221.640	800.000	0.150	-0.416
-220.625	-38.547	0.277	-0.145
-219.611	800.000	0.048	0.183
-218.596	-153.188	0.353	-0.024
-217.582	-200.000	-0.015	0.170
-216.567	317.545	-0.017	-0.032
-215.552	-200.000	0.066	0.501
-214.538	353.681	-0.071	0.139
-213.523	-162.243	-0.092	0.005
-212.509	-35.371	-0.266	0.143
-211.494	800.000	-0.013	0.052
-210.479	-157.531	-0.242	-0.014
-209.465	-67.343	-0.322	-0.125
-208.450	-200.000	-0.045	0.372
-207.436	-105.432	0.156	0.035
-206.421	-117.338	-0.116	0.021
-205.406	-59.959	-0.093	0.039
-204.392	698.619	0.055	-0.144
-203.377	529.091	-0.036	0.083
-202.363	562.409	-0.068	0.163
-201.348	-5.482	-0.250	0.169
-200.333	-106.298	0.319	0.071
-199.319	-36.976	-0.326	-0.173
-198.304	275.957	-0.203	0.355
-197.290	800.000	-0.038	-0.106
-196.275	-200.000	-0.002	-0.267
-195.260	126.734	0.125	0.157
-194.246	800.000	-0.032	0.104
-193.231	-200.000	0.005	-0.342
-192.217	800.000	0.114	0.415
-191.202	-200.000	0.056	0.298
-190.187	-64.291	-0.159	-0.064
-189.173	82.551	-0.172	0.184
-188.158	-200.000	0.016	-0.075
-187.144	800.000	-0.080	0.278
-186.129	-200.000	0.001	-0.052
-185.114	48.154	-0.175	-0.162
-184.100	261.722	0.016	-0.027
-183.085	-5.239	0.317	0.215
-182.071	130.438	-0.111	-0.140
-181.056	500.600	-0.047	-0.106
-180.042	65.451	0.229	0.229
-179.027	-47.671	0.159	0.076
-178.012	-200.000	-0.022	0.121
-176.998	-76.886	-0.126	-0.044
-175.983	375.151	0.048	-0.098
-174.969	-200.000	0.028	-0.158
-173.954	-200.000	0.026	-0.195
-172.939	-33.176	0.313	-0.171
-171.925	-49.379	-0.208	-0.098
-170.910	-123.654	-0.158	0.025
-169.896	-42.351	0.254	-0.128
-168.881	78.803	0.212	0.224
-167.866	-200.000	0.062	0.279
-166.852	148.173	0.190	-0.253
-165.837	800.000	0.059	-0.202
-164.823	-132.743	0.327	0.041
-163.808	472.017	-0.098	0.217
-162.793	32.269	0.130	-0.111
-161.779	68.407	-0.240	0.243
-160.764	-96.187	-0.422	0.110
-159.750	251.203	0.088	-0.147
-158.735	181.645	0.175	0.255
-157.720	-63.334	0.391	0.159
-156.706	278.194	-0.078	-0.138
-155.691	-163.058	0.240	0.011
-154.677	-133.909	-0.194	-0.024
-153.662	49.881	-0.145	0.135
-152.647	178.993	0.065	0.094
-151.633	-2.857	-0.120	-0.083
-150.618	781.405	0.105	0.282
-149.604	21.885	0.145	-0.116
-148.589	800.000	-0.031	0.088
-147.574	-200.000	0.005	-0.056
-146.560	-200.000	0.000	-0.201
-145.545	-139.015	-0.145	0.015
-144.531	-200.000	-0.074	0.327
-143.516	-129.037	-0.325	-0.045
-142.502	467.448	-0.126	0.280
-141.487	-45.261	-0.384	-0.188
-140.472	-69.761	-0.473	0.178
-139.458	-112.883	0.241	-0.047
-138.443	261.845	-0.114	0.196
-137.429	-62.481	-0.324	0.133
-136.414	-200.000	0.044	0.209
-135.399	-123.021	-0.181	0.029
-134.385	800.000	-0.115	0.442
-133.370	-35.661	-0.276	0.148
-132.356	-200.000	0.020	-0.314
-131.341	80.765	-0.188	0.200
-130.326	-200.000	0.248	-0.000
-129.312	-53.166	-0.134	0.061
-128.297	402.879	0.089	0.184
-127.283	58.680	-0.133	-0.129
-126.268	-111.173	0.072	-0.015
-125.253	-200.000	0.057	-0.250
-124.239	147.853	0.076	-0.101
-123.224	-128.081	0.175	0.025
-122.210	43.048	0.044	0.040
-121.195	166.280	0.180	0.251
