DTS Sentinel unit serial number:	SN413079Multiplexer serial number:	ORYXHardware model number:	OX4-SRSoftware version number:	ORYX F/W v4.00 Oryx Data Collector v3.7.2.0data status	okinstallation	princeton_trtdifferential loss correction	single-endedforward channel	channel 2reverse channel	N/Adate	2019/09/12time	15:13:10forward acquisition time	60.00reverse acquisition time	0.00gamma	496.2192k internal	0.2299k external	0.2299temperature offset calibration	1.0088default loss term (dB/km)	0.3790temperature slope calibration	1.0000multiplexer offset coefficient	1.0000multiplexer slope coefficient	1.0000fibre end	0.00T internal ref (°C)	40.69T ext. ref 1 (°C)	2.38T ext. ref 2 (°C)	37.94length (m)	temperature (°C)	Stokes	anti-Stokes-747.200	-139.143	0.222	-0.024
-746.185	-154.985	-0.277	-0.019
-745.171	800.000	0.061	0.187
-744.156	128.161	-0.149	0.193
-743.142	-83.211	-0.109	-0.036
-742.127	-200.000	0.023	0.109
-741.112	-20.805	0.242	0.151
-740.098	20.293	-0.041	-0.034
-739.083	132.629	-0.056	0.074
-738.069	141.280	0.382	0.515
-737.054	239.353	-0.089	-0.151
-736.039	-1.580	-0.145	0.104
-735.025	4.274	0.248	-0.185
-734.010	-120.884	0.132	-0.023
-732.996	-14.195	-0.219	-0.144
-731.981	800.000	0.037	-0.122
-730.966	-200.000	0.007	0.140
-729.952	-200.000	0.015	-0.111
-728.937	-71.848	0.058	0.022
-727.923	-85.209	-0.319	-0.102
-726.908	125.353	-0.192	-0.247
-725.894	-145.261	-0.344	0.032
-724.879	15.178	-0.353	-0.282
-723.864	55.360	-0.055	0.054
-722.850	-200.000	-0.008	-0.166
-721.835	81.339	0.146	-0.160
-720.821	-117.953	-0.436	0.080
-719.806	36.882	-0.168	-0.151
-718.791	-81.847	-0.122	-0.041
-717.777	-200.000	-0.020	0.426
-716.762	-19.133	0.178	0.113
-715.748	800.000	0.083	-0.261
-714.733	142.356	-0.218	-0.295
-713.718	176.997	0.093	0.138
-712.704	77.014	-0.204	-0.221
-711.689	204.010	0.171	0.270
-710.675	-72.699	-0.108	0.040
-709.660	12.250	-0.224	-0.175
-708.645	-96.538	-0.330	0.089
-707.631	-93.513	-0.220	0.062
-706.616	106.470	-0.047	0.057
-705.602	-200.000	0.038	-0.227
-704.587	-2.107	0.205	-0.147
-703.572	167.869	-0.074	0.107
-702.558	283.604	0.064	-0.118
-701.543	-5.552	-0.227	0.159
-700.529	800.000	-0.041	-0.135
-699.514	-149.813	-0.039	0.003
-698.499	215.464	0.102	-0.165
-697.485	-25.072	0.216	0.130
-696.470	-27.420	-0.192	0.114
-695.456	129.608	0.081	0.105
-694.441	800.000	0.052	0.174
-693.426	-200.000	-0.000	-0.147
-692.412	-99.629	0.133	0.034
-691.397	-200.000	-0.264	0.000
-690.383	79.166	-0.182	-0.199
-689.368	-200.000	0.009	0.144
-688.354	306.109	-0.082	0.156
-687.339	-24.896	0.216	-0.131
-686.324	-163.533	-0.287	0.014
-685.310	299.098	0.112	-0.210
-684.295	800.000	0.071	-0.257
-683.281	171.934	-0.070	0.102
-682.266	-200.000	-0.022	0.135
-681.251	-25.577	-0.086	-0.051
-680.237	-91.151	0.136	-0.040
-679.222	-200.000	-0.093	-0.578
-678.208	-26.198	-0.261	0.156
-677.193	-200.000	0.033	-0.203
-676.178	-151.671	-0.223	-0.017
-675.164	-23.085	-0.109	-0.067
-674.149	800.000	-0.047	0.139
-673.135	800.000	0.049	0.190
-672.120	167.910	0.226	0.328
-671.105	-157.914	0.064	0.004
-670.091	77.570	-0.067	-0.073
-669.076	-102.616	0.116	-0.028
-668.062	134.113	-0.123	-0.162
-667.047	138.919	0.126	0.168
-666.032	-90.216	0.069	-0.020
-665.018	800.000	0.064	0.216
-664.003	-21.280	0.042	0.026
-662.989	89.420	-0.075	0.085
-661.974	634.025	0.084	-0.218
-660.959	-51.673	0.304	-0.144
-659.945	31.611	-0.064	-0.056
-658.930	-200.000	-0.003	-0.139
-657.916	-81.775	-0.167	0.056
-656.901	-200.000	0.006	-0.059
-655.886	-200.000	-0.032	0.293
-654.872	-97.669	-0.261	0.069
-653.857	-200.000	0.001	-0.055
-652.843	110.956	-0.107	0.131
-651.828	-91.757	0.235	-0.068
-650.814	-200.000	-0.040	0.215
-649.799	800.000	0.075	-0.257
-648.784	-200.000	-0.009	0.068
-647.770	-18.296	0.156	-0.099
-646.755	800.000	-0.090	0.398
-645.741	-200.000	0.004	0.363
-644.726	-128.314	0.092	-0.013
-643.711	-200.000	0.022	-0.154
-642.697	-16.166	0.209	0.135
-641.682	-57.707	0.125	0.056
-640.668	-149.909	0.191	-0.015
-639.653	210.260	0.076	-0.122
-638.638	-32.349	-0.218	-0.124
-637.624	-200.000	-0.030	-0.200
-636.609	-200.000	0.021	0.201
-635.595	2.829	0.393	-0.290
-634.580	399.583	-0.105	0.223
-633.565	-200.000	-0.017	-0.474
-632.551	252.064	-0.066	0.114
-631.536	230.101	-0.087	-0.145
-630.522	800.000	0.046	-0.152
-629.507	412.345	0.058	-0.125
-628.492	62.254	0.146	0.148
-627.478	121.359	0.082	0.104
-626.463	-137.959	0.364	-0.041
-625.449	-200.000	-0.007	-0.189
-624.434	-71.030	0.192	0.073
-623.419	103.516	-0.081	-0.096
-622.405	-200.000	0.049	-0.337
-621.390	127.291	-0.198	-0.255
-620.376	397.940	-0.026	-0.055
-619.361	40.734	0.110	0.101
-618.346	-16.619	-0.112	-0.072
-617.332	-4.726	-0.184	-0.129
-616.317	-157.320	0.026	0.002
-615.303	-101.778	0.106	0.026
-614.288	51.351	-0.215	0.207
-613.273	-165.498	-0.143	-0.006
-612.259	-200.000	0.010	0.126
-611.244	-128.035	0.156	0.023
-610.230	-185.823	-0.081	-0.001
-609.215	800.000	0.045	0.160
-608.201	91.101	0.096	-0.109
-607.186	41.549	0.086	0.079
-606.171	81.087	-0.276	-0.303
-605.157	-134.131	0.165	-0.021
-604.142	177.993	-0.180	0.267
-603.128	73.412	-0.251	0.267
-602.113	800.000	-0.063	0.198
-601.098	-200.000	0.008	-0.258
-600.084	0.069	0.178	0.128
-599.069	59.627	0.111	-0.111
-598.055	103.201	0.052	0.062
-597.040	307.508	-0.048	-0.091
-596.025	74.986	0.139	0.149
-595.011	24.622	0.102	0.085
-593.996	-200.000	-0.009	-0.080
-592.982	24.683	-0.104	0.088
-591.967	-14.914	-0.187	-0.122
-590.952	-200.000	0.015	0.141
-589.938	-16.211	-0.147	-0.095
-588.923	-15.049	-0.385	0.250
-587.909	800.000	-0.073	0.262
-586.894	-200.000	0.072	-0.363
-585.879	376.410	0.147	0.304
-584.865	-22.860	0.150	-0.092
-583.850	800.000	0.066	0.192
-582.836	-83.954	0.148	0.048
-581.821	-43.721	-0.229	0.117
-580.806	126.322	0.070	0.090
-579.792	800.000	0.120	-0.353
-578.777	-200.000	0.027	-0.325
-577.763	-4.333	0.111	0.078
-576.748	-11.435	-0.141	0.094
-575.733	-94.853	0.096	-0.026
-574.719	152.361	0.061	-0.084
-573.704	-200.000	-0.009	0.049
-572.690	-97.464	-0.270	-0.071
-571.675	-84.393	-0.165	-0.053
-570.661	390.844	0.091	0.191
-569.646	-200.000	0.046	-0.389
-568.631	273.330	-0.023	-0.041
-567.617	-200.000	0.035	0.414
-566.602	800.000	0.049	-0.165
-565.588	61.278	-0.053	-0.054
-564.573	-64.808	0.202	0.083
-563.558	-200.000	0.006	0.103
-562.544	693.037	-0.104	0.276
-561.529	75.285	0.144	0.154
-560.515	-200.000	0.007	-0.103
-559.500	-139.014	-0.427	-0.047
-558.485	-138.734	0.140	-0.016
-557.471	17.193	0.112	-0.090
-556.456	800.000	0.019	0.069
-555.442	-200.000	-0.013	-0.124
-554.427	5.878	-0.109	-0.081
-553.412	-88.216	0.439	0.133
-552.398	174.226	-0.158	-0.232
-551.383	-200.000	-0.055	0.379
-550.369	-200.000	-0.003	-0.085
-549.354	232.352	0.035	0.059
-548.339	103.304	-0.086	0.102
-547.325	40.817	-0.094	0.086
-546.310	-12.952	-0.089	0.059
-545.296	-91.565	0.288	0.083
-544.281	-69.905	0.296	0.114
-543.266	-138.456	0.401	-0.045
-542.252	-5.016	-0.069	-0.048
-541.237	787.690	-0.085	0.236
-540.223	-21.143	-0.198	0.122
-539.208	-23.651	0.415	0.252
-538.193	-200.000	0.016	0.104
-537.179	27.033	0.169	-0.144
-536.164	68.184	-0.095	0.099
-535.150	-200.000	-0.016	-0.097
-534.135	191.119	0.147	0.224
-533.121	-200.000	-0.012	-0.171
-532.106	-200.000	-0.012	-0.278
-531.091	-67.056	0.060	0.024
-530.077	202.400	0.061	0.095
-529.062	47.355	0.049	-0.046
-528.048	791.774	-0.059	-0.165
-527.033	-76.835	-0.243	0.086
-526.018	-17.384	-0.131	-0.084
-525.004	-44.718	-0.129	0.065
-523.989	-200.000	0.017	-0.217
-522.975	800.000	-0.051	0.175
-521.960	-200.000	0.005	-0.137
-520.945	-200.000	0.005	0.187
-519.931	578.168	0.008	0.019
-518.916	-117.994	0.101	0.018
-517.902	-200.000	-0.003	-0.161
-516.887	-39.637	0.150	0.079
-515.872	60.671	0.042	-0.042
-514.858	-111.850	-0.047	0.010
-513.843	-11.609	-0.065	-0.043
-512.829	-0.045	0.237	0.170
-511.814	-63.323	-0.081	-0.034
-510.799	-200.000	-0.011	0.062
-509.785	-0.596	0.115	0.082
-508.770	-112.031	-0.085	-0.017
-507.756	-14.316	-0.148	-0.096
-506.741	254.687	-0.160	0.278
-505.726	-68.213	-0.310	0.122
-504.712	-50.580	-0.323	0.154
-503.697	296.531	0.116	0.216
-502.683	-200.000	-0.027	0.259
-501.668	-125.965	0.353	0.054
-500.653	-148.955	-0.199	-0.016
-499.639	-200.000	0.032	-0.185
-498.624	-70.940	-0.328	-0.125
-497.610	800.000	0.119	0.447
-496.595	-200.000	-0.013	-0.116
-495.581	-9.349	-0.234	-0.158
-494.566	600.382	-0.030	0.076
-493.551	-126.076	0.110	-0.017
-492.537	80.920	-0.083	-0.090
-491.522	-200.000	-0.061	0.321
-490.508	-101.869	-0.291	-0.071
-489.493	-200.000	0.076	-0.480
-488.478	-43.510	0.193	-0.099
-487.464	-200.000	0.019	0.145
-486.449	173.409	-0.115	0.168
-485.435	-2.785	-0.170	-0.120
-484.420	476.311	-0.156	-0.356
-483.405	-118.937	-0.218	-0.039
-482.391	-200.000	0.016	-0.249
-481.376	800.000	-0.020	0.067
-480.362	-136.383	0.108	-0.013
-479.347	-124.187	-0.110	-0.017
-478.332	39.493	-0.095	0.086
-477.318	713.532	-0.056	0.149
-476.303	71.982	-0.259	-0.272
-475.289	230.117	-0.052	0.085
-474.274	-111.686	0.101	-0.021
-473.259	145.610	-0.110	0.149
-472.245	-200.000	0.009	-0.049
-471.230	106.852	0.104	-0.124
-470.216	32.007	-0.205	-0.178
-469.201	-200.000	0.026	0.420
-468.186	-131.178	-0.188	0.025
-467.172	800.000	-0.040	-0.174
-466.157	-200.000	0.019	-0.255
-465.143	-135.955	-0.121	0.014
-464.128	-200.000	0.037	0.251
-463.113	46.393	0.006	0.006
-462.099	-200.000	0.058	0.361
-461.084	148.132	0.141	0.192
-460.070	-200.000	-0.021	-0.226
-459.055	-200.000	0.002	0.314
-458.040	-200.000	-0.055	-0.319
-457.026	-200.000	-0.003	0.213
-456.011	103.653	0.112	-0.133
-454.997	-130.618	-0.296	0.040
-453.982	800.000	0.085	-0.354
-452.968	119.453	-0.166	0.207
-451.953	-157.093	0.100	-0.006
-450.938	-86.198	0.208	0.065
-449.924	-200.000	-0.016	0.359
-448.909	-130.947	-0.408	0.055
-447.895	-200.000	0.049	-0.233
-446.880	-109.075	-0.160	-0.034
-445.865	800.000	0.068	-0.213
-444.851	-200.000	0.061	-0.281
-443.836	800.000	-0.022	0.069
-442.822	-200.000	0.017	-0.173
-441.807	111.443	-0.216	-0.263
-440.792	-42.164	-0.194	0.100
-439.778	310.808	-0.121	-0.228
-438.763	91.943	0.166	0.189
-437.749	-51.227	-0.094	0.044
-436.734	-200.000	-0.060	-0.386
-435.719	17.183	0.243	-0.194
-434.705	-200.000	-0.029	0.160
-433.690	-200.000	0.046	-0.328
-432.676	-149.387	-0.316	-0.025
-431.661	366.339	0.098	-0.200
-430.646	-200.000	0.017	-0.138
-429.632	27.405	0.253	0.214
-428.617	123.900	-0.133	-0.169
-427.603	65.888	-0.247	-0.252
-426.588	115.125	0.113	0.139
-425.573	-75.242	0.289	0.104
-424.559	315.933	0.081	0.155
-423.544	-200.000	-0.030	-0.332
-422.530	296.715	0.038	0.070
-421.515	-200.000	-0.010	-0.172
-420.500	257.487	0.128	-0.222
-419.486	380.439	0.090	0.186
-418.471	-139.599	-0.249	0.027
-417.457	-118.272	-0.169	0.030
-416.442	545.360	-0.144	0.346
-415.428	-74.662	0.182	0.066
-414.413	-200.000	0.029	0.283
-413.398	-116.682	0.105	0.019
-412.384	-50.565	-0.332	0.158
-411.369	282.238	0.105	0.190
-410.355	-145.426	0.139	-0.013
-409.340	-41.634	-0.296	-0.153
-408.325	477.591	0.072	-0.163
-407.311	-7.308	-0.460	0.314
-406.296	-196.157	0.430	0.003
-405.282	-114.164	0.236	-0.046
-404.267	39.571	0.052	-0.047
-403.252	-92.058	-0.140	-0.040
-402.238	144.200	0.023	0.030
-401.223	-142.016	-0.147	-0.015
-400.209	-167.725	0.185	-0.007
-399.194	-200.000	0.034	0.154
-398.179	615.924	0.040	-0.100
-397.165	273.084	-0.178	0.316
-396.150	381.933	0.073	-0.152
-395.136	-99.458	-0.211	-0.054
-394.121	-114.889	-0.048	-0.009
-393.106	-169.924	0.176	0.006
-392.092	-200.000	-0.000	0.426
-391.077	-116.812	-0.142	-0.026
-390.063	-117.251	-0.314	-0.057
-389.048	-187.492	0.102	-0.001
-388.033	54.502	0.190	0.184
-387.019	231.179	0.194	0.320
-386.004	-200.000	0.024	-0.176
-384.990	413.377	0.116	-0.249
-383.975	-200.000	-0.017	0.232
-382.960	-60.738	0.051	0.022
-381.946	-51.310	0.187	-0.088
-380.931	312.738	-0.054	-0.103
-379.917	-104.912	-0.034	0.008
-378.902	-95.316	-0.139	-0.038
-377.888	-200.000	-0.008	0.066
-376.873	-107.523	-0.326	0.072
-375.858	-28.388	-0.309	-0.179
-374.844	266.924	0.094	0.166
-373.829	800.000	-0.014	-0.047
-372.815	15.588	-0.245	-0.194
-371.800	-76.362	-0.144	-0.051
-370.785	-28.438	-0.105	-0.061
-369.771	563.196	-0.165	0.402
-368.756	-200.000	-0.059	0.328
-367.742	-73.462	-0.234	0.086
-366.727	800.000	-0.074	0.251
-365.712	32.764	-0.231	-0.201
-364.698	-122.028	0.128	0.021
-363.683	-200.000	0.035	0.293
-362.669	151.446	0.130	-0.178
-361.654	89.893	0.214	-0.241
-360.639	-114.556	0.246	-0.047
-359.625	-151.981	0.328	0.024
-358.610	124.660	0.095	-0.120
-357.596	-41.740	-0.314	-0.162
-356.581	605.142	-0.064	-0.161
-355.566	471.316	-0.113	-0.257
-354.552	-26.271	-0.106	0.063
-353.537	47.816	-0.230	0.216
-352.523	-200.000	0.031	0.218
-351.508	-56.372	0.053	-0.024
-350.493	800.000	0.015	0.041
-349.479	-23.250	0.256	-0.155
-348.464	800.000	0.094	-0.326
-347.450	50.371	-0.183	-0.174
-346.435	-50.998	-0.022	0.010
-345.420	445.292	-0.103	-0.226
-344.406	-200.000	0.087	-0.402
-343.391	-119.218	0.038	-0.007
-342.377	-200.000	0.003	0.102
-341.362	-59.935	-0.054	-0.023
-340.348	331.819	0.128	0.249
-339.333	246.840	-0.110	0.186
-338.318	194.087	0.072	0.109
-337.304	-162.748	0.191	0.009
-336.289	-124.254	0.381	0.060
-335.275	-131.886	0.202	0.026
-334.260	-90.531	-0.228	-0.066
-333.245	391.551	0.114	-0.237
-332.231	482.216	-0.043	-0.098
-331.216	788.807	-0.082	0.225
-330.202	-200.000	-0.024	-0.219
-329.187	10.112	0.187	0.143
-328.172	800.000	0.119	-0.347
-327.158	-81.025	-0.306	-0.102
-326.143	111.076	0.065	-0.079
-325.129	121.556	0.269	-0.337
-324.114	-87.768	-0.199	-0.060
-323.099	200.501	0.185	0.285
-322.085	-72.838	0.152	0.056
-321.070	90.186	0.090	0.101
-320.056	-85.758	-0.240	-0.075
-319.041	-89.808	-0.215	0.063
-318.026	113.323	-0.090	-0.109
-317.012	-34.537	0.207	0.114
-315.997	800.000	-0.099	-0.335
-314.983	-129.266	0.199	-0.028
-313.968	-73.036	-0.336	0.124
-312.953	-25.900	0.311	0.183
-311.939	-200.000	-0.055	-0.252
-310.924	-200.000	0.035	0.164
-309.910	385.715	-0.179	0.370
-308.895	-100.694	-0.139	0.034
-307.880	-138.295	-0.084	0.009
-306.866	-93.143	0.229	-0.064
-305.851	23.450	0.014	-0.011
-304.837	178.355	-0.065	0.095
-303.822	-26.667	-0.277	0.162
-302.807	-32.309	0.293	0.164
-301.793	-200.000	-0.006	-0.124
-300.778	-2.565	0.072	0.051
-299.764	179.731	0.046	-0.067
-298.749	-200.000	0.025	-0.240
-297.735	231.908	0.047	0.078
-296.720	142.299	-0.340	0.452
-295.705	-130.775	-0.233	0.031
-294.691	-200.000	-0.019	-0.229
-293.676	-200.000	0.007	-0.261
-292.662	-200.000	-0.443	-0.002
-291.647	726.646	-0.047	0.125
-290.632	-200.000	-0.023	-0.115
-289.618	800.000	0.027	0.097
-288.603	-168.821	0.179	-0.007
-287.589	-109.651	0.213	-0.045
-286.574	-107.498	0.146	-0.032
-285.559	527.211	-0.057	0.136
-284.545	43.936	0.244	-0.224
-283.530	-200.000	-0.056	-0.266
-282.516	543.789	-0.052	-0.124
-281.501	-90.915	0.306	0.088
-280.486	145.043	-0.150	-0.201
-279.472	135.934	0.137	0.179
-278.457	125.934	0.082	0.104
-277.443	-5.673	0.116	-0.080
-276.428	800.000	-0.012	-0.047
-275.413	800.000	0.112	0.418
-274.399	-88.210	0.350	-0.105
-273.384	-200.000	0.010	0.208
-272.370	-200.000	0.030	0.170
-271.355	42.774	0.276	-0.252
-270.340	16.463	-0.192	-0.152
-269.326	295.624	-0.160	-0.294
-268.311	112.626	-0.162	-0.197
-267.297	-16.532	-0.229	0.145
-266.282	-11.254	-0.129	-0.085
-265.267	298.521	-0.189	-0.348
-264.253	-200.000	-0.012	0.094
-263.238	124.972	0.149	0.188
-262.224	771.044	0.095	0.260
-261.209	88.845	-0.083	-0.092
-260.195	-200.000	-0.006	-0.104
-259.180	-112.747	0.313	0.062
-258.165	84.328	-0.060	0.066
-257.151	-118.561	-0.271	-0.048
-256.136	-68.173	0.167	-0.065
-255.122	-200.000	-0.009	-0.417
-254.107	-81.818	0.074	0.024
-253.092	800.000	-0.050	0.137
-252.078	24.319	-0.403	-0.334
-251.063	-16.867	-0.151	-0.095
-250.049	114.567	-0.098	-0.120
-249.034	-200.000	-0.030	0.219
-248.019	261.577	0.105	0.182
-247.005	114.208	-0.053	0.065
-245.990	800.000	0.060	-0.246
-244.976	155.707	-0.060	-0.082
-243.961	800.000	0.077	0.252
-242.946	-57.744	0.244	-0.107
-241.932	-200.000	0.021	-0.378
-240.917	-47.567	0.030	0.015
-239.903	9.939	-0.291	0.221
-238.888	-162.704	0.166	0.008
-237.873	-152.505	0.394	0.028
-236.859	800.000	0.048	0.140
-235.844	800.000	-0.082	0.313
-234.830	-76.389	0.212	0.075
-233.815	800.000	-0.077	-0.235
-232.800	-200.000	-0.022	-0.105
-231.786	-136.784	-0.384	0.044
-230.771	-200.000	0.020	0.094
-229.757	26.348	0.077	-0.064
-228.742	-200.000	-0.006	-0.365
-227.727	8.367	-0.380	-0.285
-226.713	15.783	0.233	0.183
-225.698	145.906	-0.148	0.198
-224.684	-73.434	0.179	-0.065
-223.669	-25.667	-0.189	-0.112
-222.655	-75.515	-0.291	-0.104
-221.640	-127.197	0.087	-0.013
-220.625	800.000	0.069	-0.238
-219.611	800.000	-0.065	0.280
-218.596	5.393	0.193	0.142
-217.582	72.400	0.264	-0.275
-216.567	-59.040	0.162	-0.070
-215.552	-200.000	-0.002	0.211
-214.538	-200.000	-0.029	-0.172
-213.523	-139.368	-0.210	-0.022
-212.509	-129.477	0.259	-0.036
-211.494	-126.720	0.400	0.059
-210.479	-146.976	0.151	-0.013
-209.465	3.799	0.489	-0.357
-208.450	-42.121	-0.379	0.193
-207.436	800.000	0.028	0.094
-206.421	-200.000	0.023	-0.201
-205.406	-56.360	-0.103	0.046
-204.392	-73.298	0.223	0.081
-203.377	-33.137	0.159	-0.088
-202.363	239.034	-0.140	-0.233
-201.348	33.344	0.082	-0.071
-200.333	800.000	0.050	-0.166
-199.319	37.302	0.348	0.308
-198.304	-19.738	0.177	0.109
-197.290	-2.118	-0.095	-0.067
-196.275	800.000	0.044	0.171
-195.260	457.378	-0.126	0.279
-194.246	-12.469	0.219	0.143
-193.231	697.896	0.166	0.435
-192.217	-123.470	0.111	-0.018
-191.202	800.000	-0.060	-0.216
-190.187	-123.279	0.318	-0.051
-189.173	237.078	0.121	-0.200
-188.158	44.316	-0.137	0.125
-187.144	-52.433	-0.248	-0.115
-186.129	114.525	-0.059	-0.072
-185.114	-93.863	-0.147	-0.040
-184.100	800.000	-0.150	0.481
-183.085	99.714	-0.095	-0.110
-182.071	684.248	-0.097	0.252
-181.056	211.274	0.054	-0.085
-180.042	117.839	0.181	-0.223
-179.027	41.037	0.102	0.092
-178.012	800.000	0.043	-0.168
-176.998	800.000	0.091	0.382
-175.983	318.567	0.062	0.117
-174.969	76.428	0.341	0.361
-173.954	3.528	0.177	-0.129
-172.939	121.178	0.065	-0.080
-171.925	-139.495	-0.262	-0.028
-170.910	112.133	0.184	-0.222
-169.896	227.508	0.078	-0.126
-168.881	6.844	0.116	0.086
-167.866	-200.000	0.027	0.186
-166.852	-200.000	-0.029	-0.150
-165.837	-157.604	-0.161	0.010
-164.823	-15.752	0.201	0.128
-163.808	-109.519	0.227	0.048
-162.793	-156.580	-0.141	-0.009
-161.779	-21.726	0.237	0.144
-160.764	-189.773	0.174	0.002
-159.750	29.817	-0.158	-0.134
-158.735	-24.820	-0.214	-0.127
-157.720	-94.940	-0.261	0.071
-156.706	-200.000	0.050	0.336
-155.691	5.326	-0.212	-0.156
-154.677	-157.891	-0.189	0.011
-153.662	-82.743	-0.259	0.083
-152.647	-200.000	0.012	0.151
-151.633	-60.791	-0.114	0.048
-150.618	126.875	0.083	-0.105
-149.604	-200.000	0.039	0.221
-148.589	-86.478	0.073	-0.022
-147.574	36.534	-0.044	0.039
-146.560	98.343	-0.154	0.177
-145.545	-29.267	0.123	0.070
-144.531	-77.559	0.073	0.025
-143.516	-65.940	-0.272	0.108
-142.502	-145.484	-0.106	0.010
-141.487	52.499	-0.154	-0.147
-140.472	800.000	0.119	-0.385
-139.458	-44.892	0.169	-0.084
-138.443	800.000	0.037	0.156
-137.429	-60.899	-0.247	-0.104
-136.414	-20.156	-0.421	0.258
-135.399	-200.000	0.037	-0.277
-134.385	-173.189	-0.123	0.004
-133.370	-63.691	0.085	0.035
-132.356	332.206	-0.132	-0.253
-131.341	-73.925	-0.060	0.022
-130.326	331.271	0.059	-0.113
-129.312	-124.653	0.094	-0.015
-128.297	-97.979	0.247	-0.063
-127.283	-129.581	0.321	-0.044
-126.268	232.523	-0.141	-0.230
-125.253	-165.560	0.343	-0.015
-124.239	-200.000	0.023	-0.348
-123.224	-200.000	0.011	-0.225
-122.210	410.386	-0.187	-0.396
