DTS Sentinel unit serial number:	SN413079Multiplexer serial number:	ORYXHardware model number:	OX4-SRSoftware version number:	ORYX F/W v4.00 Oryx Data Collector v3.7.2.0data status	okinstallation	princeton_trtdifferential loss correction	single-endedforward channel	channel 2reverse channel	N/Adate	2019/09/14time	22:31:35forward acquisition time	60.00reverse acquisition time	0.00gamma	496.2192k internal	0.2323k external	0.2323temperature offset calibration	1.0063default loss term (dB/km)	0.3790temperature slope calibration	1.0000multiplexer offset coefficient	1.0000multiplexer slope coefficient	1.0000fibre end	0.00T internal ref (°C)	32.55T ext. ref 1 (°C)	4.69T ext. ref 2 (°C)	27.56length (m)	temperature (°C)	Stokes	anti-Stokes-747.200	149.777	0.083	0.114
-746.185	127.567	0.312	0.400
-745.171	800.000	-0.095	-0.352
-744.156	-51.341	0.152	0.072
-743.142	17.376	0.056	0.045
-742.127	-139.079	0.286	0.031
-741.112	-69.034	-0.160	-0.062
-740.098	-82.707	-0.313	0.102
-739.083	59.034	-0.248	-0.246
-738.069	-200.000	0.043	0.248
-737.054	-131.453	-0.317	-0.042
-736.039	-154.132	0.248	0.017
-735.025	51.934	0.148	0.142
-734.010	-65.979	-0.235	-0.095
-732.996	800.000	-0.018	-0.071
-731.981	119.394	-0.208	0.259
-730.966	123.357	0.119	-0.151
-729.952	-81.987	-0.230	-0.076
-728.937	-89.572	0.241	-0.071
-727.923	-113.253	-0.128	0.025
-726.908	-200.000	-0.037	0.196
-725.894	-191.200	0.191	-0.002
-724.879	-60.606	-0.299	-0.128
-723.864	800.000	0.066	-0.214
-722.850	-200.000	0.022	-0.156
-721.835	800.000	-0.062	0.236
-720.821	402.156	-0.048	-0.102
-719.806	-166.410	0.125	0.005
-718.791	23.852	-0.232	0.193
-717.777	569.985	-0.037	0.090
-716.762	-132.879	-0.246	0.032
-715.748	800.000	-0.112	0.314
-714.733	-200.000	0.013	0.153
-713.718	-100.987	0.226	-0.056
-712.704	-200.000	0.037	0.174
-711.689	800.000	0.066	-0.276
-710.675	89.320	-0.177	-0.199
-709.660	92.176	0.210	-0.239
-708.645	12.773	0.254	-0.198
-707.631	-37.907	-0.382	-0.205
-706.616	-45.339	0.449	-0.224
-705.602	-200.000	-0.022	-0.250
-704.587	800.000	-0.118	-0.473
-703.572	800.000	0.050	-0.191
-702.558	-200.000	0.013	-0.141
-701.543	-95.390	-0.238	-0.064
-700.529	-91.324	0.089	-0.026
-699.514	-21.827	-0.163	0.100
-698.499	800.000	0.079	0.338
-697.485	800.000	-0.021	-0.073
-696.470	-1.604	0.063	0.045
-695.456	161.944	0.216	0.306
-694.441	31.504	0.138	-0.120
-693.426	7.258	0.040	0.030
-692.412	-99.222	0.059	-0.015
-691.397	-11.992	-0.305	-0.201
-690.383	800.000	-0.090	0.337
-689.368	-64.474	-0.189	0.077
-688.354	-86.622	-0.026	0.008
-687.339	-0.031	0.222	-0.159
-686.324	-200.000	-0.055	-0.255
-685.310	127.549	-0.072	-0.092
-684.295	240.934	0.119	-0.199
-683.281	48.397	-0.248	-0.234
-682.266	51.258	-0.039	0.037
-681.251	391.259	-0.169	-0.354
-680.237	800.000	0.068	-0.270
-679.222	219.718	-0.236	-0.381
-678.208	352.003	0.118	-0.235
-677.193	-200.000	0.032	-0.343
-676.178	51.209	0.093	0.089
-675.164	254.744	-0.265	-0.457
-674.149	-102.414	0.117	0.028
-673.135	92.364	0.095	-0.108
-672.120	80.862	-0.276	-0.300
-671.105	-3.477	-0.249	0.174
-670.091	76.049	0.085	-0.091
-669.076	-200.000	0.041	0.185
-668.062	-200.000	-0.039	-0.239
-667.047	-85.840	-0.410	0.128
-666.032	527.483	0.178	-0.423
-665.018	84.437	-0.327	-0.360
-664.003	-53.425	0.150	-0.069
-662.989	-52.831	-0.152	0.071
-661.974	-169.862	0.126	-0.005
-660.959	-200.000	-0.046	-0.333
-659.945	-125.741	-0.225	0.034
-658.930	-44.699	-0.145	0.073
-657.916	-40.655	-0.249	-0.130
-656.901	104.590	-0.174	0.207
-655.886	800.000	-0.052	-0.169
-654.872	-200.000	-0.007	0.062
-653.857	800.000	0.057	-0.197
-652.843	-200.000	-0.036	0.195
-651.828	-200.000	-0.001	0.145
-650.814	-200.000	0.001	0.093
-649.799	800.000	0.027	0.085
-648.784	23.589	-0.022	-0.018
-647.770	-70.476	-0.300	-0.114
-646.755	593.607	-0.106	-0.264
-645.741	800.000	-0.051	-0.148
-644.726	-51.830	0.228	-0.107
-643.711	800.000	-0.050	0.157
-642.697	426.265	-0.049	0.107
-641.682	-200.000	0.249	-0.000
-640.668	-12.010	0.304	-0.200
-639.653	-200.000	-0.004	-0.100
-638.638	-97.690	-0.261	-0.068
-637.624	-94.675	-0.149	-0.041
-636.609	180.900	0.150	-0.221
-635.595	-71.056	0.332	0.126
-634.580	-40.470	0.039	0.020
-633.565	247.857	-0.068	-0.115
-632.551	3.456	-0.166	-0.122
-631.536	800.000	-0.081	-0.326
-630.522	175.463	0.198	0.288
-629.507	-200.000	-0.064	-0.465
-628.492	-84.953	0.225	0.071
-627.478	-200.000	-0.003	0.046
-626.463	-200.000	-0.020	0.185
-625.449	-200.000	-0.010	-0.182
-624.434	800.000	0.030	0.115
-623.419	-186.127	0.097	-0.001
-622.405	-28.606	-0.351	-0.203
-621.390	75.602	-0.188	-0.199
-620.376	114.513	0.094	-0.116
-619.361	-5.529	-0.189	-0.130
-618.346	-66.939	-0.141	0.056
-617.332	-12.651	0.193	-0.127
-616.317	-37.269	0.204	-0.110
-615.303	75.619	0.222	-0.235
-614.288	-200.000	-0.057	-0.276
-613.273	599.575	-0.035	-0.088
-612.259	70.458	-0.042	-0.044
-611.244	127.392	-0.210	0.268
-610.230	-200.000	-0.052	-0.373
-609.215	-108.545	-0.398	-0.086
-608.201	-18.162	-0.076	-0.048
-607.186	388.943	-0.060	0.126
-606.171	-200.000	-0.038	-0.170
-605.157	-54.717	-0.155	-0.071
-604.142	238.828	0.153	0.256
-603.128	-57.495	0.137	-0.061
-602.113	147.165	-0.245	0.332
-601.098	-18.420	-0.143	-0.090
-600.084	567.648	0.022	-0.054
-599.069	-200.000	0.018	-0.403
-598.055	-84.896	-0.203	-0.064
-597.040	1.520	0.300	0.216
-596.025	536.315	0.067	0.160
-595.011	-23.075	0.264	0.160
-593.996	488.374	0.120	0.275
-592.982	49.362	-0.159	0.150
-591.967	42.666	-0.338	-0.309
-590.952	-110.627	-0.249	0.052
-589.938	37.256	0.035	0.031
-588.923	-118.787	-0.470	0.083
-587.909	18.652	-0.114	0.092
-586.894	432.184	0.185	0.403
-585.879	-200.000	-0.017	0.271
-584.865	-32.843	0.054	0.030
-583.850	800.000	0.091	0.295
-582.836	121.484	0.166	-0.207
-581.821	-200.000	-0.022	0.211
-580.806	5.841	0.427	-0.317
-579.792	-53.055	-0.015	-0.007
-578.777	-101.837	-0.109	0.026
-577.763	-154.530	-0.227	-0.015
-576.748	160.934	-0.171	0.239
-575.733	-176.895	0.277	-0.007
-574.719	402.853	-0.159	-0.336
-573.704	586.547	-0.067	-0.166
-572.690	342.213	-0.057	0.111
-571.675	39.807	0.108	0.098
-570.661	34.577	-0.156	-0.137
-569.646	800.000	0.078	-0.315
-568.631	-22.962	0.074	-0.045
-567.617	-65.498	0.137	0.055
-566.602	-89.172	-0.172	-0.051
-565.588	209.499	-0.228	-0.359
-564.573	-200.000	-0.027	0.154
-563.558	558.831	-0.099	0.239
-562.544	800.000	0.049	-0.198
-561.529	-120.168	-0.090	0.015
-560.515	71.700	0.073	-0.076
-559.500	-75.226	0.173	0.062
-558.485	-85.074	0.419	0.131
-557.471	800.000	-0.037	0.110
-556.456	-89.161	-0.151	0.045
-555.442	287.249	0.051	-0.093
-554.427	-65.190	-0.128	-0.052
-553.412	68.287	0.132	-0.135
-552.398	252.823	0.075	0.129
-551.383	115.680	-0.153	0.188
-550.369	19.449	-0.061	0.049
-549.354	670.766	-0.044	-0.114
-548.339	-165.811	0.214	0.009
-547.325	368.391	-0.318	-0.643
-546.310	-115.946	0.023	-0.004
-545.296	-72.083	-0.294	0.109
-544.281	215.198	-0.051	0.081
-543.266	44.531	0.206	-0.190
-542.252	-105.477	-0.158	0.036
-541.237	-124.422	-0.192	0.030
-540.223	-106.092	0.280	0.063
-539.208	11.167	-0.139	-0.107
-538.193	-79.370	-0.327	-0.111
-537.179	-133.065	-0.185	0.024
-536.164	-179.792	0.252	-0.005
-535.150	41.943	-0.177	-0.161
-534.135	309.695	0.156	0.293
-533.121	-151.954	0.316	0.023
-532.106	64.066	-0.453	-0.456
-531.091	268.561	-0.057	0.099
-530.077	-119.345	0.177	0.031
-529.062	-26.056	-0.261	0.154
-528.048	-42.618	-0.097	0.050
-527.033	99.296	-0.138	0.159
-526.018	112.717	0.152	0.185
-525.004	168.082	-0.144	0.205
-523.989	-102.337	0.142	0.034
-522.975	176.351	-0.010	-0.015
-521.960	-33.306	-0.149	0.083
-520.945	-200.000	-0.007	0.038
-519.931	-167.189	0.024	-0.001
-518.916	603.651	0.068	0.170
-517.902	65.885	0.103	0.104
-516.887	800.000	0.060	-0.255
-515.872	-34.465	0.278	0.153
-514.858	64.224	-0.159	-0.160
-513.843	-169.857	-0.423	-0.015
-512.829	246.994	0.142	-0.239
-511.814	184.917	0.113	-0.167
-510.799	210.510	0.247	0.388
-509.785	-200.000	-0.062	0.371
-508.770	57.100	0.063	-0.061
-507.756	192.329	0.045	-0.068
-506.741	230.843	0.068	-0.112
-505.726	-132.141	0.140	-0.018
-504.712	22.322	0.162	0.133
-503.697	-46.064	-0.170	0.084
-502.683	718.207	-0.098	-0.261
-501.668	18.578	0.130	-0.104
-500.653	176.968	-0.205	-0.299
-499.639	-200.000	0.012	0.073
-498.624	240.670	0.173	-0.289
-497.610	110.034	0.030	0.036
-496.595	187.163	0.147	0.219
-495.581	-131.211	-0.187	0.025
-494.566	119.158	-0.095	0.117
-493.551	-69.387	-0.145	-0.056
-492.537	8.927	-0.153	0.115
-491.522	103.214	0.058	-0.068
-490.508	800.000	0.064	0.215
-489.493	-200.000	0.019	0.284
-488.478	-87.085	0.069	-0.021
-487.464	-200.000	0.026	0.227
-486.449	154.586	-0.231	-0.317
-485.435	418.739	-0.067	-0.144
-484.420	800.000	-0.059	-0.200
-483.405	-53.353	0.119	0.055
-482.391	-55.615	0.310	0.139
-481.376	-18.798	0.333	0.207
-480.362	800.000	0.040	0.115
-479.347	800.000	-0.026	-0.074
-478.332	666.059	0.122	-0.315
-477.318	-200.000	-0.021	0.115
-476.303	-44.419	0.055	-0.028
-475.289	-95.397	-0.228	0.061
-474.274	-12.415	0.132	-0.086
-473.259	-171.757	0.116	-0.004
-472.245	-57.164	-0.042	-0.018
-471.230	183.317	0.047	-0.069
-470.216	-72.856	-0.196	-0.072
-469.201	-200.000	0.055	0.332
-468.186	9.064	0.125	-0.094
-467.172	-46.904	-0.181	-0.088
-466.157	70.731	0.210	0.217
-465.143	45.099	0.182	0.168
-464.128	768.262	0.163	-0.443
-463.113	-187.626	-0.276	-0.004
-462.099	800.000	-0.028	0.090
-461.084	208.064	0.091	0.143
-460.070	-200.000	0.012	-0.171
-459.055	-154.621	0.213	0.014
-458.040	187.779	-0.111	-0.165
-457.026	-117.996	0.104	-0.019
-456.011	-200.000	0.037	0.277
-454.997	-135.493	-0.175	-0.021
-453.982	-177.956	-0.152	-0.004
-452.968	-137.436	0.444	-0.050
-451.953	-85.927	0.180	0.056
-450.938	800.000	-0.035	-0.149
-449.924	-200.000	-0.018	0.300
-448.909	-74.245	0.157	-0.057
-447.895	-89.899	-0.121	-0.035
-446.880	111.815	0.117	0.141
-445.865	-37.516	0.076	-0.040
-444.851	-200.000	-0.043	0.269
-443.836	800.000	-0.031	0.095
-442.822	-200.000	-0.008	-0.169
-441.807	-99.525	0.194	0.049
-440.792	-19.402	-0.086	-0.053
-439.778	387.612	-0.088	-0.182
-438.763	-35.379	-0.381	0.206
-437.749	162.089	-0.139	-0.195
-436.734	774.837	-0.047	-0.128
-435.719	28.308	-0.089	-0.075
-434.705	-200.000	0.026	0.329
-433.690	19.245	0.119	0.095
-432.676	582.566	0.098	-0.240
-431.661	-200.000	0.023	0.343
-430.646	223.654	0.052	0.083
-429.632	23.260	0.279	0.229
-428.617	102.075	0.103	0.120
-427.603	122.400	-0.163	-0.203
-426.588	396.177	-0.112	-0.232
-425.573	100.455	0.387	-0.448
-424.559	28.636	-0.118	-0.100
-423.544	495.330	-0.115	-0.263
-422.530	79.518	-0.164	0.176
-421.515	317.804	0.047	0.088
-420.500	60.924	-0.156	-0.154
-419.486	-114.745	0.177	-0.034
-418.471	-100.322	-0.249	0.062
-417.457	-182.141	-0.154	-0.003
-416.442	800.000	-0.047	0.189
-415.428	168.529	0.092	0.130
-414.413	-147.699	-0.336	-0.028
-413.398	35.732	0.075	0.066
-412.384	315.544	0.049	-0.092
-411.369	-11.541	0.185	0.121
-410.355	53.225	-0.231	0.221
-409.340	344.825	0.189	0.371
-408.325	-139.424	-0.316	-0.034
-407.311	-200.000	0.020	-0.153
-406.296	18.563	0.374	-0.298
-405.282	800.000	0.086	-0.326
-404.267	-125.357	0.323	-0.049
-403.252	22.042	-0.155	-0.126
-402.238	-117.149	-0.457	-0.083
-401.223	-97.391	-0.278	-0.072
-400.209	52.541	0.072	-0.068
-399.194	-72.554	-0.078	-0.029
-398.179	-200.000	0.062	-0.366
-397.165	-129.291	0.184	0.025
-396.150	-93.815	-0.138	0.038
-395.136	-160.859	0.137	0.007
-394.121	-129.617	0.175	-0.024
-393.106	166.959	0.086	-0.121
-392.092	-170.767	0.075	0.003
-391.077	800.000	0.033	0.130
-390.063	-200.000	0.021	-0.135
-389.048	-200.000	-0.049	-0.276
-388.033	-143.314	-0.138	-0.013
-387.019	263.721	0.169	-0.293
-386.004	-200.000	0.023	-0.193
-384.990	730.213	-0.092	-0.245
-383.975	-20.142	0.217	0.133
-382.960	-200.000	-0.035	0.306
-381.946	-126.133	-0.091	-0.014
-380.931	800.000	0.050	-0.202
-379.917	146.903	-0.077	-0.103
-378.902	-87.245	0.166	-0.050
-377.888	-32.347	-0.280	0.156
-376.873	253.078	0.142	0.240
-375.858	-7.121	-0.076	0.051
-374.844	447.502	0.161	-0.353
-373.829	800.000	0.026	-0.109
-372.815	-16.764	-0.154	0.097
-371.800	-24.075	0.041	-0.024
-370.785	-123.422	0.021	0.003
-369.771	-75.995	0.242	0.085
-368.756	-134.555	-0.289	0.035
-367.742	181.385	0.133	0.194
-366.727	49.935	0.077	0.072
-365.712	-169.807	0.130	0.005
-364.698	-89.434	-0.241	0.071
-363.683	13.134	0.214	-0.165
-362.669	-52.851	-0.285	0.131
-361.654	407.140	-0.101	0.213
-360.639	800.000	0.074	0.220
-359.625	60.893	0.176	0.174
-358.610	-200.000	0.028	-0.243
-357.596	108.871	-0.083	0.098
-356.581	189.856	0.227	0.339
-355.566	-200.000	-0.010	0.227
-354.552	-200.000	-0.087	0.407
-353.537	-101.436	0.447	0.108
-352.523	-6.963	0.372	0.251
-351.508	261.961	0.063	-0.108
-350.493	-28.842	0.271	-0.155
-349.479	-200.000	0.026	-0.234
-348.464	-7.805	0.384	-0.258
-347.450	-93.824	-0.271	-0.074
-346.435	186.602	-0.108	-0.159
-345.420	-70.311	-0.367	-0.138
-344.406	-22.041	-0.156	0.094
-343.391	44.458	-0.228	0.208
-342.377	1.733	-0.104	-0.075
-341.362	162.195	0.213	-0.297
-340.348	2.590	-0.063	-0.045
-339.333	33.820	-0.339	0.293
-338.318	230.821	-0.056	-0.091
-337.304	242.278	0.114	-0.189
-336.289	800.000	0.027	0.112
-335.275	-107.005	0.307	0.067
-334.260	-101.501	-0.284	-0.069
-333.245	-33.332	-0.024	0.013
-332.231	-88.278	0.103	0.030
-331.216	405.560	-0.028	-0.058
-330.202	72.337	0.336	0.348
-329.187	-9.340	0.104	-0.069
-328.172	-200.000	0.018	0.192
-327.158	-107.119	-0.073	0.016
-326.143	-143.864	0.382	0.036
-325.129	56.926	0.169	-0.164
-324.114	-74.409	0.136	0.049
-323.099	194.660	-0.179	-0.270
-322.085	800.000	0.108	-0.318
-321.070	112.327	0.035	-0.042
-320.056	59.945	0.064	-0.063
-319.041	-200.000	0.178	0.000
-318.026	800.000	0.107	0.314
-317.012	-166.676	0.174	0.007
-315.997	23.740	-0.086	-0.071
-314.983	265.701	-0.025	-0.043
-313.968	-138.648	-0.241	0.026
-312.953	252.125	0.255	-0.431
-311.939	800.000	0.007	0.025
-310.924	207.195	0.048	0.075
-309.910	800.000	-0.059	0.199
-308.895	-13.592	0.100	0.065
-307.880	-200.000	0.032	0.322
-306.866	-130.336	-0.459	0.062
-305.851	42.278	-0.171	0.154
-304.837	-65.385	-0.353	-0.141
-303.822	800.000	0.071	-0.246
-302.807	61.550	0.053	-0.052
-301.793	-200.000	-0.003	-0.148
-300.778	10.094	0.098	0.074
-299.764	-200.000	0.012	0.052
-298.749	-77.783	0.457	0.157
-297.735	218.665	-0.067	0.106
-296.720	554.547	0.082	-0.197
-295.705	96.827	-0.186	0.212
-294.691	-144.508	-0.288	-0.026
-293.676	-200.000	0.001	0.351
-292.662	-106.703	0.585	0.129
-291.647	727.614	-0.099	-0.262
-290.632	11.839	-0.024	0.018
-289.618	-200.000	-0.016	0.206
-288.603	-46.427	0.456	0.222
-287.589	299.462	-0.132	-0.242
-286.574	-48.012	-0.006	-0.003
-285.559	626.561	0.106	0.265
-284.545	366.309	0.148	0.295
-283.530	-200.000	0.003	0.077
-282.516	-3.931	-0.260	-0.179
-281.501	-7.557	-0.135	-0.090
-280.486	-200.000	-0.009	0.099
-279.472	4.526	0.305	-0.222
-278.457	-102.528	0.025	-0.006
-277.443	-90.005	-0.011	-0.003
-276.428	-200.000	0.015	-0.069
-275.413	-49.470	0.090	0.043
-274.399	36.431	0.200	-0.175
-273.384	-200.000	0.056	-0.388
-272.370	-200.000	0.001	0.200
-271.355	800.000	0.149	0.473
-270.340	-136.505	-0.193	0.022
-269.326	131.732	-0.359	0.458
-268.311	-142.070	-0.104	0.010
-267.297	-17.879	-0.045	0.028
-266.282	616.648	-0.083	-0.208
-265.267	800.000	0.017	-0.069
-264.253	-200.000	-0.032	-0.190
-263.238	212.008	-0.154	-0.240
-262.224	-200.000	-0.046	-0.216
-261.209	109.510	0.181	0.215
-260.195	-200.000	-0.006	0.260
-259.180	105.496	-0.123	0.145
-258.165	186.176	-0.130	0.192
-257.151	800.000	-0.057	0.163
-256.136	95.782	0.025	0.029
-255.122	-27.933	0.075	-0.043
-254.107	429.935	0.138	-0.296
-253.092	-200.000	0.006	-0.076
-252.078	623.149	0.041	0.103
-251.063	-200.000	-0.039	-0.269
-250.049	154.360	0.094	0.127
-249.034	15.548	0.200	0.156
-248.019	-77.966	-0.123	0.042
-247.005	250.483	-0.112	-0.188
-245.990	800.000	-0.083	0.288
-244.976	-109.189	-0.318	-0.067
-243.961	-8.239	0.092	0.061
-242.946	-200.000	-0.023	-0.124
-241.932	-200.000	0.034	0.231
-240.917	-106.502	0.378	0.084
-239.903	-200.000	-0.029	-0.191
-238.888	800.000	0.020	0.082
-237.873	111.777	-0.235	-0.281
-236.859	800.000	0.026	0.109
-235.844	-119.497	0.169	0.029
-234.830	-24.107	0.086	0.051
-233.815	-0.041	-0.111	-0.078
-232.800	-200.000	-0.001	0.058
-231.786	69.730	0.070	-0.071
-230.771	800.000	-0.043	-0.185
-229.757	-98.059	0.429	0.109
-228.742	-20.545	0.285	-0.173
-227.727	114.402	0.117	0.140
-226.713	32.887	-0.086	0.073
-225.698	199.309	-0.227	-0.344
-224.684	42.385	-0.164	-0.148
-223.669	99.208	-0.067	0.076
-222.655	-19.291	-0.134	0.082
-221.640	19.285	-0.094	-0.075
-220.625	243.649	0.062	-0.103
-219.611	85.653	-0.040	0.043
-218.596	800.000	0.129	0.403
-217.582	187.004	0.039	0.058
-216.567	-55.390	0.088	-0.039
-215.552	89.442	0.215	-0.238
-214.538	-193.990	0.115	-0.001
-213.523	-200.000	-0.023	0.289
-212.509	490.521	-0.130	-0.293
-211.494	65.672	0.042	-0.042
-210.479	183.431	-0.110	0.161
-209.465	800.000	0.080	0.224
-208.450	60.068	-0.228	0.223
-207.436	136.030	-0.057	0.073
-206.421	66.516	-0.140	-0.141
-205.406	358.991	-0.133	0.263
-204.392	32.019	0.090	-0.076
-203.377	800.000	-0.029	0.086
-202.363	-200.000	-0.083	0.417
-201.348	-26.236	-0.307	-0.178
-200.333	-200.000	0.004	0.089
-199.319	-164.246	0.491	-0.022
-198.304	-105.543	-0.251	-0.056
-197.290	-150.464	-0.257	-0.020
-196.275	240.032	-0.160	0.263
-195.260	-187.173	0.205	-0.003
-194.246	107.051	0.142	-0.167
-193.231	-191.268	-0.303	-0.003
-192.217	800.000	0.033	0.115
-191.202	44.853	-0.212	-0.193
-190.187	-94.548	-0.200	0.054
-189.173	-52.574	-0.375	0.171
-188.158	436.081	0.220	-0.472
-187.144	-108.307	-0.027	0.006
-186.129	526.460	-0.085	0.197
-185.114	-200.000	-0.118	0.000
-184.100	-75.727	-0.199	0.070
-183.085	24.138	0.194	0.158
-182.071	800.000	0.138	-0.426
-181.056	800.000	-0.087	-0.370
-180.042	46.379	-0.245	-0.225
-179.027	437.968	-0.181	-0.390
-178.012	-200.000	0.051	0.301
-176.998	-54.981	-0.145	0.064
-175.983	-200.000	-0.031	0.343
-174.969	-73.535	-0.123	-0.044
-173.954	-6.413	0.169	-0.114
-172.939	-24.162	0.362	0.214
-171.925	118.676	-0.118	-0.144
-170.910	-117.805	0.361	0.064
-169.896	63.763	0.221	0.219
-168.881	245.017	-0.100	-0.166
-167.866	800.000	0.029	-0.093
-166.852	-170.566	0.370	-0.013
-165.837	-53.584	-0.121	0.055
-164.823	800.000	-0.041	0.167
-163.808	20.617	0.181	0.145
-162.793	-22.201	0.363	-0.218
-161.779	134.803	0.070	-0.090
-160.764	295.285	-0.193	0.348
-159.750	-200.000	-0.034	-0.342
-158.735	328.065	-0.138	0.262
-157.720	138.572	-0.248	0.321
-156.706	117.628	-0.103	0.125
-155.691	-118.127	-0.175	-0.031
-154.677	95.953	-0.124	0.140
-153.662	584.150	-0.163	0.395
-152.647	-139.071	0.181	-0.019
-151.633	-200.000	-0.006	-0.038
-150.618	141.691	0.073	-0.095
-149.604	-59.033	-0.218	-0.093
-148.589	-66.299	0.132	-0.052
-147.574	400.341	0.085	0.175
-146.560	75.328	-0.166	0.173
-145.545	-200.000	0.003	0.138
-144.531	368.090	-0.119	-0.238
-143.516	361.436	0.051	-0.101
-142.502	-200.000	-0.011	-0.097
-141.487	-116.067	-0.372	-0.068
-140.472	-183.626	0.310	0.005
-139.458	800.000	0.057	0.209
-138.443	351.273	0.085	-0.166
-137.429	265.902	0.155	-0.266
-136.414	89.040	-0.254	0.279
-135.399	273.461	-0.054	0.095
-134.385	379.220	-0.153	-0.308
-133.370	800.000	0.096	-0.266
-132.356	-187.343	0.051	-0.001
-131.341	-74.950	0.226	0.080
-130.326	127.669	-0.144	-0.181
-129.312	348.026	0.203	-0.395
-128.297	-68.852	-0.219	0.084
-127.283	-89.467	0.375	0.109
-126.268	-74.594	-0.226	0.080
-125.253	800.000	0.043	0.137
-124.239	122.032	-0.092	0.114
-123.224	146.948	0.147	0.195
-122.210	144.662	-0.088	0.116
-121.195	800.000	-0.079	-0.286
