DTS Sentinel unit serial number:	SN413079Multiplexer serial number:	ORYXHardware model number:	OX4-SRSoftware version number:	ORYX F/W v4.00 Oryx Data Collector v3.7.2.0data status	okinstallation	princeton_trtdifferential loss correction	single-endedforward channel	channel 2reverse channel	N/Adate	2019/09/17time	06:59:35forward acquisition time	60.00reverse acquisition time	0.00gamma	496.2192k internal	0.2334k external	0.2334temperature offset calibration	0.9976default loss term (dB/km)	0.3790temperature slope calibration	1.0000multiplexer offset coefficient	1.0000multiplexer slope coefficient	1.0000fibre end	0.00T internal ref (°C)	27.53T ext. ref 1 (°C)	0.12T ext. ref 2 (°C)	21.05length (m)	temperature (°C)	Stokes	anti-Stokes-747.200	800.000	0.143	0.408
-746.185	157.300	0.104	0.145
-745.171	9.040	-0.193	0.146
-744.156	-29.065	-0.301	0.174
-743.142	-73.151	0.396	0.146
-742.127	-29.296	-0.288	0.166
-741.112	68.949	0.017	-0.018
-740.098	-0.985	-0.265	0.188
-739.083	135.427	-0.165	0.216
-738.069	-17.640	-0.293	0.185
-737.054	205.455	-0.169	-0.263
-736.039	360.033	-0.090	-0.182
-735.025	-200.000	0.004	0.222
-734.010	192.994	-0.257	-0.391
-732.996	64.329	0.121	-0.122
-731.981	47.234	-0.218	-0.204
-730.966	3.342	-0.115	0.084
-729.952	607.241	0.088	-0.221
-728.937	186.957	0.104	-0.155
-727.923	168.048	-0.236	-0.337
-726.908	11.503	-0.088	-0.068
-725.894	300.117	-0.030	-0.056
-724.879	-31.756	-0.430	-0.242
-723.864	-21.742	0.315	-0.193
-722.850	-70.752	0.251	-0.095
-721.835	-15.296	-0.353	0.227
-720.821	800.000	-0.036	0.152
-719.806	-200.000	-0.004	0.038
-718.791	81.325	0.203	-0.221
-717.777	29.658	-0.107	-0.091
-716.762	142.033	-0.293	-0.390
-715.748	81.594	-0.297	-0.322
-714.733	207.999	-0.191	0.300
-713.718	-167.088	-0.446	0.018
-712.704	-67.304	-0.408	-0.161
-711.689	301.116	0.071	-0.132
-710.675	-200.000	-0.016	-0.267
-709.660	-119.754	0.199	0.034
-708.645	800.000	0.074	-0.318
-707.631	-107.526	0.159	-0.035
-706.616	399.580	-0.059	-0.124
-705.602	-29.043	-0.088	0.050
-704.587	-67.756	-0.157	0.062
-703.572	-57.621	0.207	-0.091
-702.558	-136.460	-0.213	-0.025
-701.543	-152.566	0.325	-0.023
-700.529	783.987	-0.038	-0.104
-699.514	800.000	-0.055	-0.175
-698.499	-200.000	0.003	0.108
-697.485	-110.823	0.251	0.052
-696.470	-98.163	0.182	0.047
-695.456	6.189	0.130	0.096
-694.441	-33.306	-0.134	-0.074
-693.426	-200.000	-0.055	-0.296
-692.412	-200.000	0.009	0.064
-691.397	-190.536	0.292	-0.003
-690.383	492.946	0.200	0.459
-689.368	-116.386	-0.054	-0.010
-688.354	-123.573	0.031	0.005
-687.339	372.757	0.009	0.018
-686.324	-39.417	-0.325	-0.171
-685.310	-54.794	-0.104	0.047
-684.295	-173.413	-0.138	-0.004
-683.281	-74.333	0.185	-0.067
-682.266	250.443	-0.090	0.154
-681.251	612.825	0.073	-0.184
-680.237	-134.121	0.053	0.007
-679.222	-122.222	-0.179	-0.029
-678.208	213.629	-0.109	0.173
-677.193	-200.000	0.097	0.000
-676.178	405.129	0.210	0.445
-675.164	-136.577	0.250	-0.029
-674.149	800.000	-0.068	0.270
-673.135	-200.000	0.018	0.082
-672.120	-102.939	0.195	0.046
-671.105	-4.813	0.341	-0.235
-670.091	-34.071	0.171	-0.094
-669.076	-87.543	0.239	0.072
-668.062	-59.606	0.014	0.006
-667.047	60.560	-0.123	0.122
-666.032	-67.170	-0.169	0.067
-665.018	-104.217	0.304	0.071
-664.003	-200.000	0.031	0.224
-662.989	357.240	0.155	0.310
-661.974	-200.000	-0.029	0.145
-660.959	-100.542	0.067	-0.017
-659.945	-26.773	-0.336	0.197
-658.930	-43.527	0.146	-0.074
-657.916	506.225	-0.189	-0.439
-656.901	21.019	0.236	-0.192
-655.886	-121.504	-0.276	0.046
-654.872	-156.560	0.164	0.010
-653.857	37.874	0.198	0.176
-652.843	-4.985	0.044	0.031
-651.828	-165.829	-0.111	-0.005
-650.814	800.000	-0.049	-0.137
-649.799	-145.144	-0.026	0.002
-648.784	402.729	-0.039	-0.082
-647.770	24.953	-0.244	0.203
-646.755	800.000	0.108	-0.437
-645.741	473.260	0.080	-0.180
-644.726	60.220	0.091	-0.090
-643.711	-29.841	-0.275	0.157
-642.697	58.244	0.144	-0.141
-641.682	81.318	-0.232	0.251
-640.668	746.536	0.086	-0.233
-639.653	50.283	0.072	-0.068
-638.638	-75.980	0.202	0.072
-637.624	-91.863	-0.105	-0.030
-636.609	-80.564	-0.350	-0.117
-635.595	-107.264	-0.094	-0.021
-634.580	0.894	0.309	-0.221
-633.565	-200.000	-0.018	-0.320
-632.551	-122.843	-0.127	0.021
-631.536	2.376	-0.357	0.258
-630.522	128.150	-0.120	0.153
-629.507	800.000	0.103	0.368
-628.492	343.230	0.053	-0.104
-627.478	800.000	0.161	-0.543
-626.463	-90.463	0.119	-0.034
-625.449	-200.000	-0.032	-0.272
-624.434	47.878	-0.062	-0.058
-623.419	-200.000	0.079	-0.506
-622.405	-87.490	-0.234	-0.071
-621.390	-130.459	-0.092	0.012
-620.376	-137.180	-0.130	0.015
-619.361	800.000	-0.083	0.264
-618.346	-114.044	0.328	-0.064
-617.332	-200.000	0.051	-0.249
-616.317	-200.000	-0.049	0.291
-615.303	104.581	-0.115	-0.136
-614.288	-107.104	0.404	-0.089
-613.273	-200.000	-0.004	-0.519
-612.259	-200.000	-0.027	-0.175
-611.244	-26.097	-0.161	0.095
-610.230	294.714	-0.097	0.177
-609.215	-83.432	0.605	-0.194
-608.201	64.824	0.154	0.155
-607.186	800.000	-0.036	0.121
-606.171	-200.000	-0.049	0.252
-605.157	-200.000	0.028	-0.222
-604.142	-44.318	0.259	0.130
-603.128	-8.053	0.189	-0.127
-602.113	326.217	0.248	0.475
-601.098	6.115	0.200	0.148
-600.084	-132.645	-0.210	-0.027
-599.069	-200.000	-0.030	0.281
-598.055	66.222	-0.159	0.161
-597.040	133.551	0.070	-0.090
-596.025	239.395	-0.152	0.252
-595.011	23.883	0.091	0.075
-593.996	-94.393	0.083	0.023
-592.982	608.235	0.055	-0.138
-591.967	800.000	0.124	0.357
-590.952	-200.000	0.287	0.000
-589.938	9.076	-0.266	-0.201
-588.923	365.784	0.069	-0.139
-587.909	90.353	0.169	-0.189
-586.894	131.838	-0.272	0.350
-585.879	-200.000	0.037	-0.186
-584.865	800.000	-0.072	-0.296
-583.850	-200.000	0.028	-0.139
-582.836	49.159	-0.248	-0.233
-581.821	-91.158	0.317	0.091
-580.806	97.011	0.124	-0.142
-579.792	40.897	-0.031	-0.028
-578.777	460.950	0.090	0.200
-577.763	-158.972	0.062	0.004
-576.748	74.027	0.157	-0.165
-575.733	-200.000	-0.049	0.243
-574.719	-56.945	-0.111	-0.049
-573.704	24.363	-0.141	-0.116
-572.690	-78.119	-0.145	0.050
-571.675	-21.807	0.279	-0.170
-570.661	-200.000	0.032	0.202
-569.646	176.087	0.261	0.378
-568.631	778.100	0.083	0.226
-567.617	277.659	0.183	-0.325
-566.602	55.147	0.036	0.035
-565.588	-92.849	-0.068	-0.019
-564.573	357.816	0.092	0.184
-563.558	-15.466	-0.150	0.096
-562.544	-92.829	-0.211	0.059
-561.529	-200.000	-0.015	-0.108
-560.515	800.000	0.063	0.193
-559.500	-111.505	-0.280	-0.057
-558.485	-200.000	0.008	-0.133
-557.471	-43.250	0.223	0.112
-556.456	44.631	-0.263	-0.242
-555.442	-115.065	-0.330	-0.063
-554.427	-59.532	-0.120	-0.051
-553.412	800.000	0.027	0.097
-552.398	-110.556	0.059	-0.012
-551.383	94.573	0.085	0.096
-550.369	-127.562	-0.097	-0.014
-549.354	96.901	-0.159	0.182
-548.339	60.372	-0.230	0.227
-547.325	-58.130	-0.311	0.135
-546.310	800.000	-0.030	-0.085
-545.296	183.559	0.287	0.423
-544.281	229.286	-0.148	-0.242
-543.266	-1.295	0.207	-0.146
-542.252	19.030	-0.069	-0.055
-541.237	-28.778	-0.048	-0.028
-540.223	-200.000	-0.000	0.153
-539.208	165.474	0.123	0.174
-538.193	800.000	0.081	0.258
-537.179	-121.617	0.374	0.062
-536.164	-47.058	0.340	-0.165
-535.150	-18.418	0.083	-0.052
-534.135	324.479	0.071	-0.135
-533.121	-7.621	0.096	-0.065
-532.106	235.873	0.192	-0.316
-531.091	-200.000	-0.003	-0.225
-530.077	-61.205	-0.266	-0.112
-529.062	45.748	0.171	0.158
-528.048	41.121	-0.280	0.252
-527.033	-7.183	0.110	0.074
-526.018	-111.214	-0.191	-0.039
-525.004	-122.932	-0.252	0.040
-523.989	-200.000	-0.005	-0.269
-522.975	-200.000	0.022	0.137
-521.960	-151.840	0.321	-0.023
-520.945	263.021	-0.121	-0.209
-519.931	800.000	-0.027	-0.117
-518.916	-200.000	-0.017	-0.111
-517.902	-200.000	-0.001	-0.076
-516.887	-171.570	-0.287	0.009
-515.872	610.679	-0.084	0.208
-514.858	70.559	-0.110	-0.113
-513.843	-187.627	0.089	0.001
-512.829	-51.800	-0.175	0.081
-511.814	747.268	-0.106	0.283
-510.799	154.819	0.085	0.116
-509.785	-130.978	0.378	0.050
-508.770	521.299	-0.184	-0.430
-507.756	-72.312	0.034	0.012
-506.741	-8.214	0.211	0.142
-505.726	800.000	0.075	-0.227
-504.712	-200.000	-0.004	-0.042
-503.697	234.890	0.093	0.152
-502.683	-8.207	-0.059	0.040
-501.668	-84.787	-0.213	-0.067
-500.653	-25.602	-0.145	0.085
-499.639	-200.000	0.028	0.248
-498.624	64.522	-0.063	-0.064
-497.610	14.468	-0.182	-0.141
-496.595	-101.543	-0.152	-0.037
-495.581	-105.206	-0.069	-0.016
-494.566	-56.908	-0.259	0.114
-493.551	-200.000	0.000	0.324
-492.537	-105.690	-0.139	0.031
-491.522	800.000	0.048	0.137
-490.508	-20.496	-0.129	0.079
-489.493	800.000	0.032	0.126
-488.478	596.517	-0.053	-0.131
-487.464	-200.000	-0.011	-0.121
-486.449	789.085	0.066	-0.181
-485.435	49.120	0.166	0.155
-484.420	-135.484	-0.180	0.021
-483.405	-109.225	-0.148	-0.031
-482.391	-78.945	-0.242	-0.082
-481.376	-6.967	-0.294	0.199
-480.362	-149.543	-0.190	0.015
-479.347	374.495	-0.237	0.480
-478.332	55.343	-0.048	0.046
-477.318	800.000	0.048	-0.184
-476.303	-1.622	-0.216	0.151
-475.289	208.029	0.117	-0.181
-474.274	-67.155	-0.194	0.076
-473.259	-16.032	0.049	-0.031
-472.245	-13.869	0.026	0.016
-471.230	-36.945	-0.176	-0.094
-470.216	-31.738	-0.221	-0.124
-469.201	-61.999	-0.039	-0.016
-468.186	-200.000	0.080	0.386
-467.172	-109.299	0.143	-0.030
-466.157	-46.010	0.211	0.104
-465.143	800.000	0.123	0.378
-464.128	-137.351	-0.295	-0.033
-463.113	-92.788	-0.528	-0.147
-462.099	174.517	0.161	-0.232
-461.084	-200.000	0.074	-0.346
-460.070	-62.828	-0.144	0.059
-459.055	-114.623	0.163	-0.031
-458.040	-3.673	0.412	0.285
-457.026	-78.975	0.061	-0.021
-456.011	-39.490	0.037	-0.019
-454.997	800.000	0.050	-0.178
-453.982	48.974	-0.106	-0.098
-452.968	-69.769	0.200	0.076
-451.953	68.939	0.167	0.171
-450.938	-200.000	-0.023	-0.101
-449.924	580.261	0.045	0.109
-448.909	800.000	-0.145	-0.431
-447.895	800.000	-0.077	-0.332
-446.880	-69.280	0.134	0.051
-445.865	115.833	0.048	0.058
-444.851	607.336	0.083	-0.205
-443.836	-87.166	0.219	-0.066
-442.822	-127.144	0.368	-0.054
-441.807	-53.332	0.298	0.135
-440.792	-95.320	-0.146	-0.039
-439.778	95.861	-0.137	0.155
-438.763	-42.371	0.177	0.089
-437.749	-200.000	0.013	0.102
-436.734	-100.345	0.112	-0.027
-435.719	-200.000	-0.020	0.130
-434.705	51.611	0.163	-0.154
-433.690	312.272	0.075	-0.139
-432.676	-186.449	0.134	0.002
-431.661	-200.000	-0.006	-0.055
-430.646	-56.315	0.049	-0.022
-429.632	151.491	-0.076	0.103
-428.617	-71.929	-0.110	0.041
-427.603	-11.336	0.075	-0.049
-426.588	39.361	-0.119	0.106
-425.573	102.576	-0.031	-0.036
-424.559	226.083	0.058	-0.094
-423.544	51.037	-0.155	-0.146
-422.530	-41.969	0.144	0.073
-421.515	124.676	0.065	-0.081
-420.500	-113.597	0.073	-0.014
-419.486	20.062	-0.124	0.099
-418.471	600.288	0.156	-0.385
-417.457	-137.055	0.170	0.019
-416.442	-49.389	-0.258	-0.122
-415.428	-31.208	0.069	-0.039
-414.413	29.588	0.322	-0.272
-413.398	-87.916	0.189	-0.056
-412.384	800.000	0.069	-0.218
-411.369	383.480	-0.036	0.073
-410.355	-50.121	-0.155	0.073
-409.340	-200.000	0.044	-0.412
-408.325	128.412	-0.182	0.229
-407.311	68.383	-0.129	-0.131
-406.296	-96.591	-0.237	0.062
-405.282	-85.588	-0.193	-0.059
-404.267	65.274	0.083	-0.083
-403.252	-200.000	0.030	0.311
-402.238	-75.556	-0.158	0.056
-401.223	-200.000	-0.007	0.066
-400.209	59.213	-0.142	-0.139
-399.194	-14.675	-0.337	0.215
-398.179	-45.522	0.505	0.248
-397.165	199.016	-0.024	-0.037
-396.150	240.433	-0.028	0.046
-395.136	-140.402	0.194	-0.020
-394.121	-200.000	-0.003	0.685
-393.106	-51.285	0.308	0.143
-392.092	54.595	-0.223	-0.214
-391.077	-93.688	-0.265	0.072
-390.063	-59.592	-0.157	0.067
-389.048	800.000	-0.150	-0.519
-388.033	137.760	0.237	-0.307
-387.019	-98.944	0.265	0.067
-386.004	-200.000	0.058	0.352
-384.990	-200.000	0.022	0.235
-383.975	800.000	-0.092	-0.275
-382.960	-200.000	-0.007	0.105
-381.946	17.568	-0.127	-0.100
-380.931	304.415	-0.148	0.273
-379.917	247.605	0.042	0.070
-378.902	-130.283	-0.176	-0.024
-377.888	40.736	-0.277	0.248
-376.873	-41.210	-0.286	-0.146
-375.858	625.965	-0.123	-0.307
-374.844	-1.278	-0.110	-0.077
-373.829	-107.925	-0.343	-0.074
-372.815	163.533	-0.049	0.069
-371.800	-200.000	-0.021	0.183
-370.785	-114.340	-0.020	0.004
-369.771	176.764	0.136	0.195
-368.756	1.269	-0.249	0.177
-367.742	-5.906	0.255	-0.173
-366.727	-122.449	-0.376	0.061
-365.712	22.548	-0.120	0.098
-364.698	49.250	-0.119	0.111
-363.683	171.744	-0.139	0.198
-362.669	107.911	0.073	-0.086
-361.654	-134.417	-0.389	-0.047
-360.639	51.863	-0.273	-0.257
-359.625	-68.966	0.040	0.015
-358.610	-200.000	-0.008	0.122
-357.596	7.748	0.363	-0.269
-356.581	23.648	0.062	0.051
-355.566	12.813	-0.201	0.154
-354.552	-122.885	-0.374	0.060
-353.537	-200.000	-0.024	0.128
-352.523	338.854	-0.172	-0.331
-351.508	-113.472	0.058	-0.011
-350.493	-55.861	-0.045	0.020
-349.479	246.752	-0.147	0.246
-348.464	-5.069	0.230	0.157
-347.450	-66.267	0.070	-0.028
-346.435	-190.698	0.207	0.002
-345.420	-69.844	0.406	-0.153
-344.406	55.825	0.152	0.146
-343.391	-51.114	-0.116	-0.054
-342.377	-200.000	0.023	-0.184
-341.362	-175.978	-0.293	0.008
-340.348	-200.000	0.014	0.119
-339.333	-43.820	0.162	-0.081
-338.318	-200.000	0.001	-0.312
-337.304	221.371	0.035	-0.056
-336.289	202.997	0.231	-0.353
-335.275	308.981	0.119	0.220
-334.260	150.875	-0.076	-0.102
-333.245	-122.453	-0.021	-0.003
-332.231	-75.160	-0.238	0.084
-331.216	-20.728	-0.319	0.194
-330.202	-163.780	0.370	0.017
-329.187	768.120	0.052	0.140
-328.172	800.000	-0.019	0.065
-327.158	79.903	0.219	-0.233
-326.143	420.455	0.086	-0.182
-325.129	12.079	-0.141	0.107
-324.114	231.826	0.024	0.039
-323.099	-115.145	-0.232	0.043
-322.085	-126.379	0.332	0.049
-321.070	-16.182	0.141	-0.088
-320.056	800.000	-0.083	0.312
-319.041	800.000	0.160	-0.455
-318.026	550.688	-0.079	-0.187
-317.012	-95.287	-0.173	0.046
-315.997	224.000	0.201	0.322
-314.983	-200.000	0.202	-0.001
-313.968	-52.484	0.273	-0.125
-312.953	-13.944	0.322	-0.206
-311.939	-104.793	0.351	-0.080
-310.924	-88.684	0.166	0.049
-309.910	-93.539	-0.236	0.064
-308.895	-155.202	0.069	0.004
-307.880	370.417	0.121	0.243
-306.866	140.090	0.128	0.166
-305.851	112.114	-0.104	-0.125
-304.837	-2.454	0.257	-0.178
-303.822	-45.980	-0.089	-0.043
-302.807	8.859	-0.223	-0.166
-301.793	-73.624	-0.226	-0.082
-300.778	-102.994	0.144	0.034
-299.764	240.622	-0.209	0.344
-298.749	800.000	-0.075	0.250
-297.735	-82.158	-0.249	0.080
-296.720	20.265	0.141	-0.113
-295.705	800.000	0.075	0.250
-294.691	-43.187	0.317	-0.159
-293.676	-31.844	0.113	-0.062
-292.662	166.595	-0.093	-0.130
-291.647	-200.000	0.069	-0.307
-290.632	-128.786	-0.180	-0.025
-289.618	-200.000	-0.025	-0.201
-288.603	-177.828	-0.218	0.005
-287.589	117.919	-0.148	-0.180
-286.574	-61.481	0.090	0.038
-285.559	-200.000	-0.037	-0.165
-284.545	9.700	0.239	0.179
-283.530	800.000	-0.052	-0.172
-282.516	769.125	0.155	0.417
-281.501	-8.848	0.336	-0.222
-280.486	792.715	0.078	-0.213
-279.472	-129.092	0.394	-0.054
-278.457	-12.915	-0.124	0.080
-277.443	368.037	0.088	-0.176
-276.428	109.106	-0.194	0.229
-275.413	316.208	-0.213	-0.397
-274.399	-98.248	0.133	0.034
-273.384	295.748	0.136	0.245
-272.370	93.979	0.106	0.119
-271.355	198.928	-0.060	-0.091
-270.340	-70.206	0.365	-0.137
-269.326	28.341	-0.196	0.163
-268.311	-26.381	0.033	0.019
-267.297	-93.309	-0.058	-0.016
-266.282	26.916	0.037	-0.031
-265.267	-95.292	0.170	-0.045
-264.253	-148.288	0.225	-0.018
-263.238	186.403	0.082	0.121
-262.224	800.000	0.013	0.049
-261.209	-9.374	-0.445	0.293
-260.195	-12.884	-0.050	0.032
-259.180	-39.411	0.256	-0.132
-258.165	5.417	-0.021	0.015
-257.151	-89.447	-0.036	0.010
-256.136	-200.000	0.002	-0.064
-255.122	308.135	-0.178	-0.327
-254.107	44.269	0.379	-0.343
-253.092	-96.053	0.072	0.019
-252.078	-101.954	-0.305	0.073
-251.063	-200.000	0.031	-0.197
-250.049	173.525	0.114	0.163
-249.034	800.000	0.015	-0.059
-248.019	-22.980	-0.160	0.095
-247.005	25.621	0.115	0.094
-245.990	-94.313	0.262	0.071
-244.976	800.000	-0.051	0.205
-243.961	-200.000	0.059	0.299
-242.946	223.237	-0.081	0.128
-241.932	800.000	-0.040	0.168
-240.917	695.751	0.074	0.191
-239.903	-40.541	-0.085	0.043
-238.888	-16.929	0.257	-0.160
-237.873	-123.871	-0.071	0.011
-236.859	800.000	-0.146	0.435
-235.844	-85.513	-0.141	0.043
-234.830	-13.663	0.188	0.120
-233.815	-164.367	0.306	0.014
-232.800	42.056	-0.106	-0.095
-231.786	-101.388	0.226	-0.054
-230.771	-29.373	-0.190	-0.107
-229.757	-177.667	-0.069	-0.002
-228.742	-194.563	0.223	0.002
-227.727	-180.719	-0.383	0.008
-226.713	109.488	0.177	0.209
-225.698	17.856	0.025	0.020
-224.684	749.295	-0.093	0.246
-223.669	-183.628	0.484	-0.008
-222.655	-200.000	-0.005	0.111
-221.640	-59.263	-0.132	-0.056
-220.625	-167.882	0.120	-0.005
-219.611	-141.927	0.091	-0.009
-218.596	71.419	0.167	-0.171
-217.582	-2.865	0.124	0.086
-216.567	-152.131	-0.248	-0.018
-215.552	-68.977	-0.135	-0.051
-214.538	-108.014	0.208	-0.044
-213.523	19.600	-0.272	0.216
-212.509	-84.751	0.166	-0.052
-211.494	185.071	-0.322	-0.470
-210.479	-177.042	0.537	-0.013
-209.465	-21.050	0.344	-0.208
-208.450	226.588	-0.171	0.272
-207.436	124.067	-0.104	0.129
-206.421	327.581	0.115	0.217
-205.406	-200.000	-0.076	-0.336
-204.392	408.481	0.113	-0.236
-203.377	-149.799	-0.164	-0.013
-202.363	-34.514	0.458	0.247
-201.348	103.173	0.054	0.062
-200.333	237.513	-0.053	-0.086
-199.319	-186.861	-0.304	-0.004
-198.304	-78.781	0.376	-0.126
-197.290	800.000	-0.038	0.161
-196.275	58.250	0.207	0.200
-195.260	223.426	-0.146	0.231
-194.246	40.335	-0.222	-0.197
-193.231	17.167	0.167	0.130
-192.217	706.779	-0.133	-0.344
-191.202	-78.570	0.254	0.086
-190.187	-182.723	-0.235	-0.004
-189.173	-2.519	0.115	-0.079
-188.158	800.000	0.039	-0.163
-187.144	-70.423	-0.525	0.196
-186.129	135.340	-0.126	-0.161
-185.114	800.000	0.058	-0.190
-184.100	800.000	0.046	-0.182
-183.085	328.470	0.062	-0.118
-182.071	-80.689	-0.141	-0.046
-181.056	237.496	0.125	0.204
-180.042	-151.671	-0.261	-0.019
-179.027	169.226	0.185	0.260
-178.012	400.567	0.022	0.045
-176.998	-156.033	-0.326	0.020
-175.983	-155.496	0.099	-0.006
-174.969	-5.041	-0.325	0.220
-173.954	-0.671	0.153	-0.107
-172.939	345.065	-0.103	0.198
-171.925	-200.000	-0.015	-0.105
-170.910	-115.108	-0.441	0.082
-169.896	362.576	0.106	-0.209
-168.881	129.251	-0.204	-0.255
-167.866	-50.866	0.064	-0.029
-166.852	100.026	0.152	0.173
-165.837	-128.747	0.150	0.021
-164.823	258.315	0.117	0.199
-163.808	72.412	-0.248	-0.254
-162.793	800.000	-0.022	-0.093
-161.779	-1.986	-0.193	0.133
-160.764	-200.000	0.013	0.296
-159.750	-76.437	-0.274	0.095
-158.735	800.000	-0.049	-0.180
-157.720	-200.000	0.007	0.309
-156.706	-104.778	0.294	-0.067
-155.691	-144.206	-0.070	-0.006
-154.677	-200.000	0.031	0.140
-153.662	-101.129	0.154	0.037
-152.647	800.000	-0.026	0.106
-151.633	-115.563	-0.430	-0.079
-150.618	-131.064	0.323	-0.042
-149.604	45.662	-0.107	-0.097
-148.589	-58.713	-0.145	0.062
-147.574	783.602	0.080	0.214
-146.560	-100.552	0.122	-0.030
-145.545	-27.117	-0.622	0.356
-144.531	81.563	0.186	-0.197
-143.516	73.626	0.153	0.157
-142.502	800.000	0.112	0.303
-141.487	275.720	0.232	-0.404
-140.472	101.308	0.259	-0.296
-139.458	28.751	-0.071	0.059
-138.443	-13.028	-0.176	0.113
-137.429	147.247	0.052	0.069
-136.414	722.504	0.142	0.372
-135.399	-167.669	-0.066	-0.003
-134.385	414.039	0.160	0.335
-133.370	-53.461	-0.254	0.114
-132.356	105.834	0.029	0.034
-131.341	247.209	0.057	0.094
-130.326	-66.161	0.229	-0.089
-129.312	231.620	-0.098	-0.157
-128.297	36.666	0.100	0.086
-127.283	-88.745	-0.023	0.007
-126.268	-200.000	0.018	0.180
-125.253	164.544	-0.127	0.176
-124.239	800.000	0.085	-0.261
-123.224	-101.430	-0.080	-0.019
-122.210	252.038	0.038	-0.063
-121.195	-26.632	-0.059	0.034
-120.180	-15.942	-0.118	-0.074
