DTS Sentinel unit serial number:	SN413079Multiplexer serial number:	ORYXHardware model number:	OX4-SRSoftware version number:	ORYX F/W v4.00 Oryx Data Collector v3.7.2.0data status	okinstallation	princeton_trtdifferential loss correction	single-endedforward channel	channel 2reverse channel	N/Adate	2019/09/16time	19:27:34forward acquisition time	60.00reverse acquisition time	0.00gamma	496.2192k internal	0.2322k external	0.2322temperature offset calibration	0.9964default loss term (dB/km)	0.3790temperature slope calibration	1.0000multiplexer offset coefficient	1.0000multiplexer slope coefficient	1.0000fibre end	0.00T internal ref (°C)	34.59T ext. ref 1 (°C)	0.05T ext. ref 2 (°C)	27.57length (m)	temperature (°C)	Stokes	anti-Stokes-747.200	129.298	-0.080	0.104
-746.185	800.000	-0.080	0.318
-745.171	-200.000	-0.044	-0.298
-744.156	800.000	0.108	0.321
-743.142	-156.648	0.251	0.016
-742.127	-164.311	0.222	0.010
-741.112	-67.110	0.057	-0.023
-740.098	-200.000	0.019	0.092
-739.083	-75.691	0.230	-0.082
-738.069	-61.218	-0.189	0.080
-737.054	61.197	0.177	-0.178
-736.039	-137.426	-0.130	0.015
-735.025	174.091	0.118	0.172
-734.010	203.950	-0.112	-0.175
-732.996	75.940	-0.180	0.192
-731.981	337.986	-0.103	-0.202
-730.966	-22.246	-0.169	0.103
-729.952	-98.896	-0.072	0.018
-728.937	-87.275	-0.150	-0.046
-727.923	-154.290	-0.294	-0.020
-726.908	274.476	-0.011	-0.021
-725.894	-145.113	-0.193	0.018
-724.879	-23.911	-0.151	-0.091
-723.864	104.676	0.022	-0.026
-722.850	61.440	0.234	-0.235
-721.835	79.600	-0.208	-0.226
-720.821	-200.000	0.081	-0.614
-719.806	134.506	0.261	0.341
-718.791	-37.065	0.152	0.082
-717.777	-200.000	-0.026	0.192
-716.762	-78.477	-0.087	0.030
-715.748	119.001	0.175	-0.219
-714.733	-200.000	-0.024	0.148
-713.718	102.233	-0.042	-0.050
-712.704	-6.273	-0.057	-0.039
-711.689	800.000	0.080	0.329
-710.675	313.799	-0.075	-0.142
-709.660	563.695	0.088	-0.215
-708.645	-57.080	0.110	-0.049
-707.631	-200.000	-0.002	0.027
-706.616	84.073	0.169	-0.186
-705.602	-38.070	-0.421	0.226
-704.587	247.467	-0.077	-0.132
-703.572	40.415	-0.227	-0.206
-702.558	-174.019	0.214	0.006
-701.543	164.266	0.048	0.068
-700.529	-175.710	0.188	-0.005
-699.514	-200.000	-0.027	0.236
-698.499	92.716	0.069	0.078
-697.485	-146.590	0.397	-0.035
-696.470	-19.999	-0.221	0.137
-695.456	-200.000	-0.022	0.204
-694.441	800.000	-0.094	-0.373
-693.426	-200.000	-0.011	0.182
-692.412	-65.038	-0.037	-0.015
-691.397	248.987	-0.091	-0.155
-690.383	-150.968	-0.166	-0.013
-689.368	46.767	0.074	-0.069
-688.354	-0.517	-0.170	0.122
-687.339	127.129	-0.161	0.206
-686.324	-109.214	0.302	0.065
-685.310	800.000	0.016	-0.064
-684.295	800.000	0.088	-0.378
-683.281	-78.337	0.039	-0.013
-682.266	-23.578	-0.241	-0.146
-681.251	-68.064	-0.275	0.108
-680.237	-5.289	-0.175	0.121
-679.222	128.764	-0.078	0.100
-678.208	-200.000	0.000	-0.380
-677.193	-200.000	-0.004	-0.237
-676.178	235.994	0.052	0.086
-675.164	-197.129	-0.268	-0.002
-674.149	44.315	-0.081	-0.075
-673.135	-142.917	-0.219	0.021
-672.120	274.763	0.137	0.244
-671.105	-152.466	-0.048	0.003
-670.091	107.850	-0.160	-0.192
-669.076	-200.000	0.036	-0.182
-668.062	800.000	-0.137	-0.544
-667.047	-200.000	-0.027	0.542
-666.032	-200.000	-0.002	0.278
-665.018	-60.894	0.060	0.025
-664.003	-39.673	0.179	0.094
-662.989	-200.000	-0.001	0.291
-661.974	-200.000	-0.033	-0.210
-660.959	103.203	0.166	-0.196
-659.945	14.947	-0.335	-0.264
-658.930	800.000	0.024	0.093
-657.916	-157.275	0.262	0.016
-656.901	-200.000	0.014	-0.110
-655.886	800.000	-0.014	-0.050
-654.872	-173.330	0.200	0.006
-653.857	-200.000	0.005	-0.067
-652.843	-39.861	-0.213	-0.112
-651.828	-200.000	-0.025	-0.358
-650.814	-39.073	-0.231	-0.122
-649.799	-200.000	0.001	-0.346
-648.784	-25.385	0.136	-0.081
-647.770	-85.829	-0.318	-0.099
-646.755	349.520	-0.143	0.284
-645.741	-30.814	-0.326	-0.186
-644.726	283.065	0.081	-0.147
-643.711	-61.032	0.100	0.043
-642.697	91.979	0.203	-0.230
-641.682	101.013	0.247	0.289
-640.668	385.576	-0.040	-0.082
-639.653	191.932	-0.175	0.265
-638.638	-29.460	0.244	0.140
-637.624	-14.215	-0.201	-0.131
-636.609	-29.623	0.220	0.126
-635.595	89.938	0.029	0.032
-634.580	9.985	0.152	-0.116
-633.565	800.000	-0.135	-0.578
-632.551	800.000	-0.075	0.319
-631.536	-98.147	0.282	-0.073
-630.522	744.726	0.074	0.200
-629.507	118.172	-0.143	0.177
-628.492	-90.499	-0.318	-0.092
-627.478	-200.000	-0.059	-0.289
-626.463	148.376	-0.163	0.221
-625.449	67.088	0.070	-0.072
-624.434	-40.333	-0.370	0.194
-623.419	23.975	0.126	0.104
-622.405	-200.000	-0.016	0.104
-621.390	-62.103	-0.106	-0.044
-620.376	-200.000	-0.048	0.472
-619.361	-200.000	-0.003	0.194
-618.346	-200.000	0.001	-0.056
-617.332	-200.000	0.004	-0.311
-616.317	523.262	-0.102	0.240
-615.303	-138.250	-0.175	-0.019
-614.288	-150.163	0.308	-0.024
-613.273	-57.511	0.177	0.078
-612.259	-72.935	0.333	0.123
-611.244	660.411	0.040	0.103
-610.230	-46.349	-0.061	0.030
-609.215	-19.840	0.087	-0.054
-608.201	435.667	-0.160	0.350
-607.186	-200.000	-0.016	0.217
-606.171	-200.000	-0.017	0.151
-605.157	800.000	-0.021	0.067
-604.142	-129.862	-0.363	0.050
-603.128	-200.000	0.038	-0.209
-602.113	107.096	0.268	-0.320
-601.098	800.000	0.004	-0.011
-600.084	235.954	0.156	-0.260
-599.069	-200.000	-0.036	-0.266
-598.055	6.508	-0.290	-0.216
-597.040	-47.610	0.198	0.096
-596.025	521.333	-0.031	-0.074
-595.011	-16.690	0.206	-0.131
-593.996	147.233	0.217	-0.294
-592.982	-162.682	0.124	-0.006
-591.967	22.031	0.150	0.123
-590.952	64.153	-0.255	-0.257
-589.938	-138.519	-0.333	-0.037
-588.923	-200.000	-0.006	0.198
-587.909	389.280	-0.026	-0.055
-586.894	-200.000	0.017	-0.373
-585.879	-125.897	-0.183	-0.028
-584.865	342.668	-0.099	-0.195
-583.850	423.978	-0.082	-0.178
-582.836	-129.275	-0.269	-0.038
-581.821	-200.000	0.047	-0.281
-580.806	-48.548	-0.065	0.031
-579.792	-200.000	0.020	-0.187
-578.777	-200.000	-0.044	0.219
-577.763	-58.555	0.436	-0.190
-576.748	-51.186	-0.256	-0.120
-575.733	421.803	-0.073	-0.157
-574.719	-200.000	-0.069	-0.401
-573.704	-200.000	-0.011	0.079
-572.690	-200.000	-0.021	-0.124
-571.675	-200.000	0.004	0.049
-570.661	-45.116	-0.253	-0.126
-569.646	-200.000	-0.020	-0.196
-568.631	-200.000	-0.016	-0.387
-567.617	295.804	-0.143	0.262
-566.602	117.075	-0.113	-0.139
-565.588	27.070	-0.059	0.050
-564.573	-2.468	0.260	0.183
-563.558	-200.000	0.040	-0.255
-562.544	-93.082	0.391	0.109
-561.529	-107.160	-0.112	0.025
-560.515	-101.652	0.349	-0.085
-559.500	-97.323	-0.041	0.011
-558.485	-47.375	-0.594	-0.290
-557.471	-100.686	0.133	-0.033
-556.456	672.579	-0.158	-0.410
-555.442	-200.000	-0.051	0.326
-554.427	-200.000	0.043	-0.220
-553.412	123.510	0.113	-0.142
-552.398	-200.000	0.051	-0.495
-551.383	2.111	-0.034	-0.025
-550.369	-30.537	-0.276	0.157
-549.354	17.315	-0.177	0.141
-548.339	-83.895	0.110	-0.035
-547.325	-78.408	-0.280	0.096
-546.310	96.265	0.306	-0.351
-545.296	-102.891	-0.196	0.047
-544.281	800.000	0.034	-0.096
-543.266	76.484	-0.111	0.118
-542.252	552.875	0.048	-0.116
-541.237	399.417	0.049	-0.104
-540.223	-124.641	0.115	0.018
-539.208	-104.622	0.034	-0.008
-538.193	357.440	-0.136	0.271
-537.179	800.000	-0.021	-0.077
-536.164	-87.441	-0.341	0.103
-535.150	-200.000	0.026	0.137
-534.135	295.392	-0.096	-0.176
-533.121	-200.000	-0.025	-0.269
-532.106	-200.000	-0.018	-0.182
-531.091	-153.355	-0.426	0.030
-530.077	-76.593	0.251	0.088
-529.062	-52.618	-0.248	-0.115
-528.048	96.516	0.124	-0.142
-527.033	-103.527	0.103	-0.024
-526.018	-200.000	-0.034	0.154
-525.004	9.788	-0.201	-0.152
-523.989	288.064	0.175	0.318
-522.975	-200.000	-0.009	-0.529
-521.960	149.776	0.051	0.069
-520.945	-190.127	0.155	-0.002
-519.931	360.268	0.138	-0.277
-518.916	-179.231	-0.098	-0.002
-517.902	176.516	0.057	0.083
-516.887	800.000	0.101	-0.286
-515.872	109.190	-0.168	-0.201
-514.858	-45.205	0.167	-0.083
-513.843	-200.000	0.066	0.296
-512.829	-200.000	0.033	-0.199
-511.814	-200.000	0.025	0.147
-510.799	174.473	0.104	-0.150
-509.785	160.591	0.094	-0.132
-508.770	-110.583	-0.103	0.021
-507.756	51.718	0.084	-0.080
-506.741	-31.260	-0.079	0.045
-505.726	800.000	0.014	0.054
-504.712	50.802	-0.192	0.182
-503.697	334.165	0.063	-0.122
-502.683	155.686	-0.221	-0.305
-501.668	-200.000	0.030	0.342
-500.653	800.000	0.070	0.200
-499.639	-200.000	-0.022	0.145
-498.624	158.957	-0.073	0.101
-497.610	-125.553	-0.478	0.073
-496.595	651.624	0.028	0.071
-495.581	754.173	-0.109	0.296
-494.566	285.145	0.247	-0.445
-493.551	-2.293	-0.274	-0.193
-492.537	380.396	-0.050	-0.102
-491.522	-99.405	0.218	-0.055
-490.508	-46.676	0.233	0.114
-489.493	-200.000	-0.060	0.421
-488.478	246.153	-0.032	0.054
-487.464	800.000	-0.139	0.496
-486.449	-54.292	-0.380	0.172
-485.435	-148.534	-0.504	0.041
-484.420	-200.000	0.058	-0.315
-483.405	-151.427	-0.238	-0.018
-482.391	250.199	0.101	0.171
-481.376	10.949	0.334	-0.255
-480.362	-127.500	0.337	0.049
-479.347	238.975	-0.023	-0.038
-478.332	-65.406	0.050	0.020
-477.318	320.563	0.060	-0.114
-476.303	115.872	0.258	-0.316
-475.289	-195.291	0.430	0.003
-474.274	346.264	0.068	-0.134
-473.259	725.857	-0.091	0.244
-472.245	-86.269	-0.179	0.055
-471.230	-200.000	0.039	-0.408
-470.216	800.000	-0.083	-0.279
-469.201	270.684	0.205	0.360
-468.186	-42.580	0.344	0.175
-467.172	284.212	-0.081	-0.145
-466.157	-66.174	0.046	0.018
-465.143	-56.912	-0.095	0.042
-464.128	-200.000	-0.010	0.266
-463.113	-179.829	-0.198	0.004
-462.099	-143.638	-0.073	-0.007
-461.084	-48.746	-0.210	-0.101
-460.070	101.957	0.054	-0.063
-459.055	394.064	-0.226	0.471
-458.040	103.184	-0.173	-0.203
-457.026	209.458	0.131	0.205
-456.011	-135.201	0.329	-0.039
-454.997	304.300	-0.060	0.111
-453.982	753.016	-0.055	0.147
-452.968	62.655	0.088	0.087
-451.953	-55.643	0.284	-0.127
-450.938	-11.546	0.167	0.109
-449.924	157.949	-0.131	0.181
-448.909	57.612	0.222	0.217
-447.895	-61.625	-0.173	-0.073
-446.880	40.402	-0.314	-0.282
-445.865	130.009	0.199	0.254
-444.851	59.230	0.125	-0.123
-443.836	-200.000	-0.003	0.116
-442.822	800.000	0.040	-0.132
-441.807	189.741	0.112	0.167
-440.792	-9.612	-0.278	0.185
-439.778	800.000	-0.042	-0.154
-438.763	-200.000	-0.023	-0.279
-437.749	800.000	-0.226	-0.650
-436.734	-200.000	0.034	0.166
-435.719	-168.955	-0.370	0.014
-434.705	800.000	-0.085	0.349
-433.690	54.055	0.161	0.155
-432.676	-200.000	0.053	0.321
-431.661	-106.330	-0.254	-0.057
-430.646	180.038	0.196	0.286
-429.632	800.000	-0.041	-0.141
-428.617	-11.458	0.034	0.023
-427.603	-25.660	-0.131	-0.077
-426.588	-38.560	-0.213	-0.112
-425.573	29.836	0.245	-0.209
-424.559	-200.000	0.028	0.226
-423.544	71.634	-0.023	0.023
-422.530	-200.000	-0.037	0.322
-421.515	-32.042	-0.175	0.097
-420.500	-181.750	0.242	-0.005
-419.486	318.615	-0.213	-0.403
-418.471	-39.208	0.347	-0.182
-417.457	-105.375	0.199	0.045
-416.442	-200.000	0.049	0.264
-415.428	-164.759	-0.062	-0.003
-414.413	18.334	0.087	-0.069
-413.398	57.625	0.128	0.125
-412.384	103.912	0.168	0.197
-411.369	-52.578	-0.221	-0.102
-410.355	-60.904	0.197	0.083
-409.340	-122.104	-0.320	0.052
-408.325	78.808	-0.221	0.236
-407.311	14.061	0.109	0.084
-406.296	101.954	0.173	-0.201
-405.282	340.846	-0.112	0.217
-404.267	40.209	-0.061	0.055
-403.252	-200.000	-0.078	0.442
-402.238	800.000	-0.069	-0.203
-401.223	186.833	-0.086	0.128
-400.209	-124.512	-0.439	0.068
-399.194	191.233	0.181	0.271
-398.179	139.005	0.191	0.251
-397.165	627.528	-0.037	-0.094
-396.150	128.768	0.112	0.143
-395.136	-37.526	0.385	0.205
-394.121	800.000	-0.064	-0.257
-393.106	16.587	-0.001	0.001
-392.092	-46.212	-0.167	0.082
-391.077	496.643	-0.104	0.238
-390.063	74.035	0.110	-0.115
-389.048	9.633	-0.176	-0.133
-388.033	-188.410	0.257	0.003
-387.019	-200.000	0.005	-0.070
-386.004	-34.897	-0.390	0.212
-384.990	62.227	-0.124	-0.123
-383.975	168.746	-0.208	-0.296
-382.960	800.000	0.016	-0.049
-381.946	-200.000	-0.008	-0.208
-380.931	47.353	-0.173	-0.160
-379.917	-140.708	-0.057	0.006
-378.902	70.020	-0.064	-0.066
-377.888	-1.644	-0.312	-0.219
-376.873	-71.068	0.127	0.048
-375.858	-132.043	0.093	-0.012
-374.844	188.980	0.083	-0.124
-373.829	-29.654	-0.055	0.031
-372.815	-129.530	0.190	-0.026
-371.800	328.611	0.032	-0.061
-370.785	800.000	-0.023	-0.085
-369.771	-63.036	-0.385	0.158
-368.756	-138.864	0.264	-0.029
-367.742	-138.962	0.094	0.010
-366.727	313.575	-0.129	0.241
-365.712	-200.000	0.002	-0.178
-364.698	587.580	-0.124	0.303
-363.683	-133.202	-0.702	0.088
-362.669	-66.949	0.356	0.140
-361.654	-200.000	-0.031	0.473
-360.639	127.266	-0.054	0.068
-359.625	-24.979	0.034	-0.020
-358.610	800.000	0.065	-0.184
-357.596	-200.000	0.036	-0.281
-356.581	-200.000	-0.037	0.213
-355.566	800.000	0.004	0.013
-354.552	-137.687	-0.214	-0.024
-353.537	525.116	-0.098	0.229
-352.523	3.675	0.083	-0.060
-351.508	-200.000	0.044	-0.214
-350.493	-181.668	0.098	-0.002
-349.479	-45.168	0.082	0.041
-348.464	-142.499	0.189	-0.018
-347.450	360.569	0.016	-0.032
-346.435	251.107	-0.085	-0.144
-345.420	-65.633	-0.250	-0.100
-344.406	-65.183	0.241	-0.097
-343.391	-140.428	0.158	-0.016
-342.377	161.481	-0.133	-0.186
-341.362	-200.000	0.002	-0.017
-340.348	55.260	-0.143	-0.137
-339.333	-118.535	0.148	0.026
-338.318	-35.079	-0.140	0.076
-337.304	116.939	0.139	-0.170
-336.289	-156.714	0.277	-0.017
-335.275	-26.640	0.244	-0.142
-334.260	800.000	0.146	-0.476
-333.245	-60.836	0.334	-0.140
-332.231	-92.478	-0.194	-0.054
-331.216	-148.140	-0.320	0.026
-330.202	393.935	-0.057	0.118
-329.187	-200.000	-0.008	-0.262
-328.172	139.660	0.093	-0.122
-327.158	-162.685	0.221	0.011
-326.143	-200.000	-0.029	-0.316
-325.129	800.000	-0.009	0.027
-324.114	-78.787	0.219	0.074
-323.099	102.345	0.038	-0.045
-322.085	-200.000	0.021	0.123
-321.070	0.729	-0.076	0.054
-320.056	-182.973	-0.095	0.002
-319.041	9.452	-0.224	-0.169
-318.026	-200.000	0.005	0.271
-317.012	795.064	-0.098	0.267
-315.997	-113.196	-0.313	0.061
-314.983	-200.000	-0.009	0.116
-313.968	-26.213	-0.191	0.111
-312.953	-200.000	0.018	-0.092
-311.939	75.348	0.100	0.104
-310.924	800.000	-0.130	0.436
-309.910	800.000	-0.097	0.295
-308.895	144.668	0.157	0.208
-307.880	-103.934	0.030	0.007
-306.866	104.541	0.197	-0.231
-305.851	305.434	0.179	0.330
-304.837	-0.626	-0.147	0.104
-303.822	188.172	-0.040	0.059
-302.807	-200.000	0.003	-0.184
-301.793	162.240	0.186	-0.258
-300.778	340.227	-0.130	0.251
-299.764	-69.992	-0.351	-0.133
-298.749	211.416	0.144	-0.225
-297.735	-140.727	0.037	-0.004
-296.720	17.629	0.164	-0.130
-295.705	120.743	0.273	-0.337
-294.691	263.125	0.049	0.085
-293.676	753.878	0.057	-0.153
-292.662	-28.090	0.132	0.076
-291.647	-66.183	-0.168	0.066
-290.632	-124.005	0.280	-0.044
-289.618	-80.033	-0.096	0.032
-288.603	178.203	0.036	0.053
-287.589	-106.366	-0.274	-0.061
-286.574	110.919	0.169	0.202
-285.559	-36.168	0.109	0.058
-284.545	566.770	0.046	0.110
-283.530	21.533	0.210	0.170
-282.516	-200.000	-0.035	-0.212
-281.501	-82.950	-0.106	-0.034
-280.486	800.000	-0.126	0.359
-279.472	-200.000	-0.041	0.187
-278.457	-122.152	0.421	-0.068
-277.443	552.630	0.154	-0.367
-276.428	25.009	0.290	0.239
-275.413	192.058	-0.212	0.317
-274.399	-200.000	-0.021	0.129
-273.384	-144.957	0.593	0.054
-272.370	800.000	-0.033	0.109
-271.355	-93.316	0.223	-0.061
-270.340	-200.000	-0.025	-0.350
-269.326	306.731	0.052	0.096
-268.311	80.728	-0.125	-0.133
-267.297	108.543	0.146	-0.172
-266.282	-200.000	0.015	0.325
-265.267	669.714	0.087	0.222
-264.253	128.482	0.172	0.217
-263.238	-200.000	0.078	0.474
-262.224	130.287	0.299	0.379
-261.209	-200.000	-0.048	-0.316
-260.195	-68.913	-0.182	-0.069
-259.180	3.479	0.080	-0.058
-258.165	800.000	-0.099	-0.278
-257.151	-69.516	-0.131	0.050
-256.136	622.822	-0.062	0.156
-255.122	298.640	0.091	0.165
-254.107	4.572	-0.175	-0.127
-253.092	-59.324	-0.065	-0.028
-252.078	800.000	0.086	0.240
-251.063	274.596	-0.102	0.179
-250.049	-120.479	0.144	0.024
-249.034	-119.991	0.233	0.040
-248.019	-92.958	0.466	-0.129
-247.005	1.400	-0.158	-0.112
-245.990	10.624	0.031	-0.023
-244.976	-200.000	0.003	0.029
-243.961	-93.708	0.387	-0.106
-242.946	-157.798	0.201	-0.012
-241.932	0.050	0.220	0.155
-240.917	800.000	-0.016	-0.069
-239.903	-29.696	0.200	-0.113
-238.888	-200.000	0.009	0.171
-237.873	-51.096	0.125	-0.058
-236.859	-68.119	-0.135	0.052
-235.844	82.852	0.191	-0.206
-234.830	-111.907	-0.145	-0.029
-233.815	-5.134	0.261	0.178
-232.800	43.085	-0.258	0.233
-231.786	-200.000	0.010	-0.046
-230.771	-15.290	0.095	-0.060
-229.757	800.000	-0.043	0.148
-228.742	46.323	0.066	0.061
-227.727	227.185	0.106	-0.171
-226.713	-127.936	0.282	-0.040
-225.698	196.735	0.136	-0.206
-224.684	-200.000	0.052	-0.389
-223.669	-14.232	-0.127	-0.081
-222.655	19.274	-0.019	0.015
-221.640	-33.768	0.333	0.182
-220.625	-109.369	-0.273	0.057
-219.611	34.254	-0.128	-0.110
-218.596	127.553	-0.173	-0.218
-217.582	-200.000	-0.030	0.212
-216.567	24.617	-0.206	-0.169
-215.552	800.000	-0.033	-0.124
-214.538	393.323	-0.220	0.454
-213.523	26.522	0.219	0.181
-212.509	628.841	-0.085	0.212
-211.494	-52.485	-0.211	0.096
-210.479	114.478	-0.042	0.050
-209.465	40.875	-0.039	-0.035
-208.450	91.507	-0.010	0.011
-207.436	392.653	0.064	0.131
-206.421	361.528	0.123	0.245
-205.406	-200.000	0.004	-0.083
-204.392	-108.807	0.345	-0.073
-203.377	-85.513	-0.220	-0.068
-202.363	578.395	0.062	-0.149
-201.348	800.000	-0.073	0.208
-200.333	127.288	-0.064	0.081
-199.319	800.000	0.068	-0.207
-198.304	126.582	-0.178	-0.223
-197.290	-16.112	0.072	-0.045
-196.275	99.324	-0.185	0.211
-195.260	52.623	0.101	0.096
-194.246	35.576	-0.096	-0.083
-193.231	5.532	-0.205	0.150
-192.217	218.163	0.098	0.155
-191.202	115.350	0.140	0.169
-190.187	-116.093	0.046	-0.008
-189.173	-61.185	-0.122	-0.051
-188.158	-200.000	0.000	0.183
-187.144	41.322	-0.179	-0.160
-186.129	-23.565	0.153	0.091
-185.114	-183.439	0.340	-0.006
-184.100	-200.000	-0.008	-0.062
-183.085	-22.592	-0.214	-0.128
-182.071	215.421	0.160	0.251
-181.056	115.669	-0.125	-0.151
-180.042	-78.193	-0.135	-0.046
-179.027	-51.641	0.225	-0.104
-178.012	-40.758	-0.283	0.145
-176.998	773.538	0.084	0.225
-175.983	577.651	-0.109	-0.263
-174.969	476.555	-0.055	-0.123
-173.954	13.417	0.198	-0.151
-172.939	-159.540	-0.398	-0.022
-171.925	237.489	0.173	0.284
-170.910	-58.772	-0.180	0.077
-169.896	800.000	0.092	-0.345
-168.881	150.310	0.192	-0.257
-167.866	-200.000	0.025	-0.196
-166.852	17.426	-0.206	-0.161
-165.837	-17.294	0.168	-0.105
-164.823	-158.080	-0.177	-0.010
-163.808	219.006	0.268	0.423
-162.793	-113.115	-0.261	0.051
-161.779	341.623	0.029	-0.056
-160.764	90.765	0.036	-0.040
-159.750	-37.069	0.238	0.126
-158.735	-137.335	-0.428	0.048
-157.720	-37.060	-0.125	-0.066
-156.706	800.000	0.122	0.511
-155.691	271.701	0.137	-0.239
-154.677	-142.949	0.279	-0.027
-153.662	93.802	0.235	0.263
-152.647	-73.534	-0.158	0.057
-151.633	50.386	-0.173	0.162
-150.618	-111.174	0.550	-0.111
-149.604	24.898	0.224	-0.183
-148.589	800.000	0.080	-0.248
-147.574	115.651	-0.288	0.348
-146.560	421.779	-0.114	0.241
-145.545	-69.675	0.087	0.033
-144.531	37.572	0.113	0.099
-143.516	-137.609	-0.157	-0.017
-142.502	-200.000	0.008	-0.177
-141.487	106.596	0.389	0.456
-140.472	-50.102	-0.308	-0.144
-139.458	132.704	-0.174	-0.221
-138.443	-129.283	0.314	0.043
-137.429	133.951	-0.291	0.372
-136.414	-40.320	-0.137	0.070
-135.399	-200.000	0.095	0.449
-134.385	-96.889	-0.169	0.044
-133.370	-200.000	-0.022	-0.104
-132.356	-200.000	-0.007	-0.356
-131.341	-200.000	0.044	0.274
-130.326	554.621	0.114	0.270
-129.312	434.619	-0.130	0.279
-128.297	361.794	-0.136	-0.268
-127.283	174.031	-0.162	0.231
-126.268	244.733	-0.115	0.191
-125.253	-200.000	-0.030	0.325
-124.239	-200.000	0.079	-0.673
-123.224	67.082	0.232	-0.233
-122.210	-200.000	0.009	0.084
