DTS Sentinel unit serial number:	SN413079Multiplexer serial number:	ORYXHardware model number:	OX4-SRSoftware version number:	ORYX F/W v4.00 Oryx Data Collector v3.7.2.0data status	okinstallation	princeton_trtdifferential loss correction	single-endedforward channel	channel 2reverse channel	N/Adate	2019/09/15time	09:23:34forward acquisition time	60.00reverse acquisition time	0.00gamma	496.2192k internal	0.2317k external	0.2317temperature offset calibration	1.0018default loss term (dB/km)	0.3790temperature slope calibration	1.0000multiplexer offset coefficient	1.0000multiplexer slope coefficient	1.0000fibre end	0.00T internal ref (°C)	33.56T ext. ref 1 (°C)	4.96T ext. ref 2 (°C)	30.34length (m)	temperature (°C)	Stokes	anti-Stokes-747.200	-4.663	-0.009	-0.006
-746.185	800.000	0.061	0.188
-745.171	-42.803	-0.301	0.155
-744.156	421.674	-0.139	-0.301
-743.142	800.000	-0.059	-0.208
-742.127	800.000	-0.090	0.390
-741.112	-200.000	0.005	0.142
-740.098	686.263	0.074	0.195
-739.083	-200.000	0.022	0.161
-738.069	-35.180	-0.295	0.163
-737.054	59.888	0.331	0.330
-736.039	800.000	-0.044	0.195
-735.025	-200.000	0.029	0.156
-734.010	-74.418	0.257	0.094
-732.996	-18.275	-0.129	0.081
-731.981	-48.585	0.342	0.166
-730.966	-200.000	0.059	-0.384
-729.952	-121.904	-0.451	0.075
-728.937	29.293	-0.165	-0.142
-727.923	334.723	0.052	0.102
-726.908	800.000	-0.056	0.217
-725.894	-167.607	-0.140	-0.006
-724.879	246.835	0.074	-0.127
-723.864	-152.327	-0.429	-0.031
-722.850	140.325	-0.159	0.212
-721.835	-142.808	-0.065	0.006
-720.821	-42.557	0.267	0.137
-719.806	-45.313	-0.256	0.129
-718.791	-9.136	-0.174	0.118
-717.777	372.579	-0.139	-0.286
-716.762	-7.691	0.230	0.157
-715.748	-82.114	-0.264	0.087
-714.733	480.400	-0.104	-0.239
-713.718	-200.000	0.002	0.126
-712.704	-200.000	0.013	0.229
-711.689	-84.849	0.254	-0.081
-710.675	394.156	-0.090	-0.189
-709.660	-61.669	-0.380	0.161
-708.645	187.503	-0.109	0.164
-707.631	-200.000	0.033	-0.158
-706.616	800.000	-0.072	0.252
-705.602	-13.568	-0.162	0.106
-704.587	52.871	-0.199	0.192
-703.572	146.264	0.205	0.279
-702.558	-110.682	0.383	-0.080
-701.543	604.244	0.120	-0.303
-700.529	236.542	0.135	0.226
-699.514	25.894	-0.245	0.206
-698.499	-175.243	0.175	0.005
-697.485	-200.000	-0.052	-0.486
-696.470	-51.742	-0.393	0.185
-695.456	538.730	-0.089	-0.213
-694.441	-31.813	-0.235	-0.133
-693.426	-200.000	-0.049	0.271
-692.412	-50.871	-0.534	-0.253
-691.397	-28.548	0.062	0.036
-690.383	-22.707	0.271	0.166
-689.368	-177.000	-0.373	0.009
-688.354	692.941	0.063	0.166
-687.339	-200.000	0.044	0.209
-686.324	68.716	0.155	-0.160
-685.310	524.024	0.095	-0.225
-684.295	-138.123	-0.511	0.057
-683.281	-31.676	0.329	-0.186
-682.266	800.000	-0.040	-0.116
-681.251	-95.081	-0.049	0.013
-680.237	184.782	-0.055	-0.082
-679.222	800.000	-0.035	0.124
-678.208	46.339	-0.075	-0.070
-677.193	-200.000	-0.043	0.267
-676.178	-79.479	0.152	-0.052
-675.164	491.915	0.068	-0.157
-674.149	123.711	0.183	-0.232
-673.135	-158.217	-0.286	0.017
-672.120	-48.045	0.122	-0.059
-671.105	-38.629	0.319	-0.170
-670.091	-200.000	0.016	-0.144
-669.076	-200.000	-0.016	-0.083
-668.062	-200.000	0.029	-0.245
-667.047	-142.402	-0.297	-0.030
-666.032	127.058	0.181	-0.231
-665.018	47.540	0.190	-0.179
-664.003	-200.000	0.014	-0.198
-662.989	33.982	0.326	0.286
-661.974	240.448	-0.058	0.098
-660.959	16.861	-0.173	-0.138
-659.945	-185.590	-0.195	-0.003
-658.930	650.705	-0.011	0.029
-657.916	59.273	-0.178	0.176
-656.901	-200.000	0.011	-0.093
-655.886	-200.000	-0.002	0.202
-654.872	800.000	-0.056	0.176
-653.857	-124.979	-0.060	0.009
-652.843	166.284	-0.201	-0.287
-651.828	68.208	-0.066	-0.068
-650.814	-200.000	-0.009	-0.244
-649.799	800.000	0.072	-0.265
-648.784	-59.914	-0.012	0.005
-647.770	-200.000	0.012	0.233
-646.755	105.173	0.048	0.057
-645.741	-104.540	-0.235	-0.055
-644.726	327.230	-0.144	0.279
-643.711	27.978	0.134	-0.114
-642.697	-151.455	-0.012	-0.001
-641.682	-56.117	0.239	0.107
-640.668	-59.068	0.223	-0.097
-639.653	602.123	0.108	0.270
-638.638	-109.582	0.290	-0.062
-637.624	-61.000	-0.279	-0.119
-636.609	-99.163	-0.427	0.109
-635.595	-56.378	0.191	0.086
-634.580	-165.971	0.358	-0.015
-633.565	-154.891	-0.145	-0.010
-632.551	-96.122	-0.325	-0.087
-631.536	-200.000	-0.027	0.128
-630.522	-196.480	0.215	0.001
-629.507	337.336	-0.039	0.077
-628.492	286.720	-0.056	0.101
-627.478	320.350	0.075	0.144
-626.463	670.478	-0.116	-0.303
-625.449	-116.385	-0.219	0.041
-624.434	-18.812	-0.126	-0.079
-623.419	157.977	0.060	-0.084
-622.405	7.064	-0.192	-0.145
-621.390	-86.894	0.318	0.098
-620.376	9.581	0.250	0.191
-619.361	-96.448	0.276	0.073
-618.346	-118.539	-0.083	-0.015
-617.332	602.630	0.082	-0.206
-616.317	-5.150	0.162	-0.112
-615.303	800.000	-0.024	0.068
-614.288	392.898	-0.160	-0.335
-613.273	-59.117	-0.221	-0.096
-612.259	11.236	-0.039	0.030
-611.244	-200.000	0.053	-0.495
-610.230	74.096	0.102	0.108
-609.215	-96.663	0.402	-0.107
-608.201	22.152	0.314	-0.258
-607.186	800.000	0.047	0.133
-606.171	-140.324	-0.401	0.042
-605.157	260.542	-0.030	-0.053
-604.142	-76.226	-0.140	-0.050
-603.128	-200.000	0.004	-0.114
-602.113	-117.434	0.426	0.078
-601.098	-31.103	-0.306	0.174
-600.084	-111.194	-0.058	0.012
-599.069	88.635	0.050	-0.056
-598.055	607.044	0.093	-0.234
-597.040	314.260	-0.181	0.343
-596.025	622.178	0.115	-0.291
-595.011	-156.842	-0.264	-0.016
-593.996	180.894	0.151	0.224
-592.982	-200.000	-0.058	-0.293
-591.967	-200.000	-0.025	-0.240
-590.952	-200.000	-0.023	-0.254
-589.938	-10.006	-0.175	0.117
-588.923	-200.000	0.001	-0.108
-587.909	50.284	0.104	0.099
-586.894	-200.000	0.024	0.147
-585.879	216.932	-0.168	0.269
-584.865	-41.829	-0.156	-0.080
-583.850	406.742	-0.051	-0.108
-582.836	-200.000	-0.017	-0.346
-581.821	-117.675	-0.164	0.030
-580.806	-137.676	-0.174	-0.020
-579.792	-84.342	0.259	0.083
-578.777	800.000	0.089	0.356
-577.763	-200.000	-0.029	-0.277
-576.748	302.265	0.155	-0.288
-575.733	-62.462	0.287	0.120
-574.719	800.000	0.113	0.430
-573.704	-117.146	-0.438	0.080
-572.690	-200.000	-0.063	-0.417
-571.675	-200.000	-0.019	-0.127
-570.661	-39.774	-0.282	0.148
-569.646	-134.264	-0.382	0.047
-568.631	-77.336	-0.227	0.079
-567.617	-9.559	0.354	-0.238
-566.602	-139.283	-0.337	-0.036
-565.588	-75.363	0.419	0.150
-564.573	800.000	-0.089	0.292
-563.558	-117.432	0.151	0.028
-562.544	35.517	-0.141	0.124
-561.529	245.190	-0.138	-0.233
-560.515	164.207	-0.174	0.246
-559.500	-49.554	0.168	-0.081
-558.485	-129.365	-0.158	0.022
-557.471	-32.187	0.223	-0.125
-556.456	-177.003	-0.188	-0.005
-555.442	296.226	0.160	-0.294
-554.427	-12.455	0.210	0.138
-553.412	306.903	-0.021	0.040
-552.398	172.691	0.072	-0.105
-551.383	-49.106	-0.236	-0.113
-550.369	-147.967	-0.355	0.030
-549.354	800.000	0.111	-0.330
-548.339	74.296	0.113	0.119
-547.325	61.583	0.215	-0.215
-546.310	-200.000	-0.005	-0.039
-545.296	458.765	0.062	-0.139
-544.281	-99.162	0.180	0.046
-543.266	800.000	0.098	-0.315
-542.252	319.473	-0.106	-0.202
-541.237	140.323	-0.083	-0.110
-540.223	-146.628	0.102	0.009
-539.208	18.906	-0.354	-0.285
-538.193	-144.940	-0.456	0.042
-537.179	147.450	-0.052	0.071
-536.164	76.677	0.112	-0.119
-535.150	207.087	-0.094	-0.147
-534.135	122.885	-0.146	-0.184
-533.121	-60.806	0.060	-0.025
-532.106	-104.799	-0.221	-0.051
-531.091	404.720	-0.167	0.354
-530.077	93.035	-0.079	-0.090
-529.062	-200.000	0.061	0.454
-528.048	270.062	0.159	0.281
-527.033	-68.988	-0.201	0.078
-526.018	-58.429	-0.262	0.114
-525.004	267.915	0.140	-0.245
-523.989	381.193	0.048	-0.100
-522.975	-184.430	0.171	0.003
-521.960	466.830	-0.092	-0.207
-520.945	-200.000	0.020	0.156
-519.931	-21.437	0.381	-0.233
-518.916	-200.000	0.014	-0.247
-517.902	163.952	0.062	-0.088
-516.887	38.690	-0.224	-0.200
-515.872	-200.000	-0.002	0.085
-514.858	-200.000	-0.028	0.274
-513.843	-88.054	0.349	0.105
-512.829	113.391	0.265	-0.323
-511.814	-25.755	0.256	-0.152
-510.799	631.740	0.091	-0.232
-509.785	168.049	0.078	-0.111
-508.770	-109.611	-0.069	0.015
-507.756	-40.235	-0.217	-0.113
-506.741	507.380	0.091	0.211
-505.726	199.203	-0.095	0.146
-504.712	-3.288	-0.123	0.086
-503.697	277.096	0.074	-0.132
-502.683	-200.000	0.045	0.319
-501.668	89.650	-0.166	-0.186
-500.653	40.264	0.075	-0.067
-499.639	-200.000	0.025	-0.150
-498.624	-87.453	-0.050	-0.015
-497.610	-200.000	0.008	-0.112
-496.595	-200.000	-0.004	-0.255
-495.581	620.405	0.109	-0.276
-494.566	-53.859	0.348	-0.159
-493.551	-47.504	-0.152	-0.074
-492.537	55.778	0.034	0.033
-491.522	8.279	0.052	0.039
-490.508	45.240	-0.088	0.081
-489.493	12.632	-0.232	-0.180
-488.478	800.000	0.015	0.067
-487.464	108.458	-0.171	0.204
-486.449	-104.285	0.079	-0.018
-485.435	-133.782	-0.100	0.012
-484.420	294.978	-0.074	0.136
-483.405	-25.070	-0.131	-0.078
-482.391	-25.566	-0.113	0.067
-481.376	800.000	0.023	0.085
-480.362	98.182	-0.172	0.198
-479.347	-107.173	-0.357	-0.079
-478.332	-200.000	-0.039	-0.284
-477.318	-54.185	0.220	0.100
-476.303	-200.000	-0.010	0.120
-475.289	-81.983	-0.263	-0.086
-474.274	355.500	0.118	0.235
-473.259	-200.000	0.271	0.000
-472.245	430.043	0.084	-0.183
-471.230	-199.939	-0.146	0.001
-470.216	112.338	-0.049	0.059
-469.201	-11.490	-0.211	-0.139
-468.186	-200.000	-0.029	-0.193
-467.172	-136.106	-0.245	0.029
-466.157	-200.000	0.029	0.210
-465.143	-29.035	0.288	0.165
-464.128	-28.492	-0.246	0.142
-463.113	96.305	0.204	0.234
-462.099	-200.000	-0.021	0.200
-461.084	3.582	0.129	0.094
-460.070	800.000	-0.031	-0.099
-459.055	75.399	-0.143	0.151
-458.040	550.150	-0.062	-0.149
-457.026	-21.549	0.144	0.088
-456.011	-110.790	-0.206	0.043
-454.997	-83.344	-0.216	-0.069
-453.982	-77.353	-0.437	-0.152
-452.968	-200.000	0.009	0.234
-451.953	-200.000	0.077	0.374
-450.938	69.224	0.041	0.043
-449.924	-33.026	-0.265	-0.147
-448.909	-67.780	-0.105	-0.041
-447.895	39.537	0.170	-0.153
-446.880	267.258	-0.049	-0.086
-445.865	-200.000	0.003	0.157
-444.851	-16.607	0.300	0.190
-443.836	800.000	-0.030	0.103
-442.822	-17.477	0.321	0.202
-441.807	-108.200	0.227	0.049
-440.792	-11.817	-0.234	0.153
-439.778	-200.000	0.003	-0.081
-438.763	800.000	0.052	0.189
-437.749	-200.000	-0.052	0.249
-436.734	-114.540	0.297	0.057
-435.719	20.902	0.240	-0.195
-434.705	-72.716	0.223	-0.082
-433.690	152.318	0.152	0.208
-432.676	-200.000	-0.041	-0.217
-431.661	171.092	-0.211	-0.302
-430.646	93.700	0.187	0.212
-429.632	231.336	0.133	-0.218
-428.617	-92.570	0.340	-0.095
-427.603	-200.000	-0.032	-0.162
-426.588	-200.000	-0.042	-0.236
-425.573	352.473	-0.042	-0.084
-424.559	114.617	-0.243	-0.296
-423.544	-166.186	0.126	0.005
-422.530	-19.518	-0.232	-0.144
-421.515	33.660	-0.222	-0.193
-420.500	208.712	0.036	-0.056
-419.486	-109.480	-0.187	-0.039
-418.471	-10.492	0.103	-0.069
-417.457	474.094	-0.080	0.181
-416.442	31.263	0.094	-0.080
-415.428	64.027	-0.147	0.147
-414.413	-200.000	-0.047	-0.237
-413.398	123.386	0.248	0.310
-412.384	122.617	0.153	-0.192
-411.369	102.704	-0.079	0.092
-410.355	-120.838	0.247	0.042
-409.340	4.804	-0.174	0.128
-408.325	38.993	0.050	0.044
-407.311	110.515	0.233	0.280
-406.296	-105.718	0.384	-0.087
-405.282	-200.000	-0.002	-0.153
-404.267	208.009	0.128	-0.199
-403.252	146.343	0.090	-0.121
-402.238	29.771	0.109	-0.093
-401.223	277.235	-0.065	-0.116
-400.209	-200.000	-0.032	-0.319
-399.194	69.112	0.069	0.070
-398.179	800.000	-0.052	-0.168
-397.165	449.959	-0.124	0.272
-396.150	-200.000	-0.019	0.091
-395.136	-54.239	0.245	-0.111
-394.121	800.000	-0.110	-0.475
-393.106	45.954	0.202	-0.187
-392.092	293.359	-0.076	-0.138
-391.077	-200.000	0.011	0.250
-390.063	800.000	0.156	0.625
-389.048	-28.725	-0.377	0.217
-388.033	45.793	-0.062	-0.058
-387.019	136.472	-0.172	-0.224
-386.004	251.941	-0.311	-0.529
-384.990	800.000	0.011	0.032
-383.975	-199.359	0.252	0.001
-382.960	-126.184	0.184	-0.027
-381.946	-77.968	-0.134	0.046
-380.931	71.012	-0.113	0.117
-379.917	-46.028	0.306	0.151
-378.902	14.501	-0.057	0.044
-377.888	340.966	-0.131	-0.255
-376.873	-84.122	0.352	0.111
-375.858	-200.000	0.008	0.281
-374.844	283.405	0.166	0.298
-373.829	206.752	-0.080	0.124
-372.815	800.000	0.031	-0.124
-371.800	112.760	-0.277	0.335
-370.785	-140.561	0.168	-0.017
-369.771	-54.223	0.069	-0.031
-368.756	-200.000	-0.022	-0.288
-367.742	36.268	-0.284	-0.250
-366.727	-177.019	0.279	-0.007
-365.712	-76.607	0.276	-0.097
-364.698	475.613	0.090	0.202
-363.683	185.505	0.093	0.138
-362.669	344.792	-0.184	-0.361
-361.654	-200.000	-0.017	0.123
-360.639	-180.105	-0.161	0.003
-359.625	3.746	0.227	-0.166
-358.610	-200.000	-0.007	-0.117
-357.596	364.627	0.053	0.106
-356.581	-59.987	0.298	0.127
-355.566	-179.827	-0.089	0.002
-354.552	19.746	0.304	-0.244
-353.537	-11.150	0.202	0.133
-352.523	-25.565	0.100	-0.059
-351.508	-110.000	0.072	0.015
-350.493	-118.215	-0.174	0.031
-349.479	159.221	-0.259	0.359
-348.464	-75.634	0.176	0.062
-347.450	-200.000	0.011	0.107
-346.435	-38.619	0.241	0.127
-345.420	800.000	-0.079	0.332
-344.406	-123.446	-0.129	0.020
-343.391	76.197	0.033	0.035
-342.377	57.142	-0.221	-0.215
-341.362	136.466	-0.203	-0.264
-340.348	-141.497	-0.182	0.018
-339.333	-113.665	-0.527	0.102
-338.318	71.328	0.199	-0.205
-337.304	-140.146	-0.092	0.010
-336.289	800.000	-0.116	0.391
-335.275	-200.000	0.004	-0.144
-334.260	43.776	-0.197	0.180
-333.245	24.284	0.235	0.193
-332.231	360.006	0.139	-0.277
-331.216	788.196	0.105	0.287
-330.202	-125.181	-0.182	0.028
-329.187	-156.816	0.215	-0.013
-328.172	-98.243	0.122	-0.031
-327.158	800.000	-0.049	-0.158
-326.143	-107.598	-0.061	-0.013
-325.129	23.190	-0.087	0.071
-324.114	71.253	0.181	0.187
-323.099	87.436	0.205	-0.226
-322.085	257.823	-0.181	-0.310
-321.070	-41.094	-0.377	0.194
-320.056	-147.213	-0.066	0.006
-319.041	18.111	-0.105	0.084
-318.026	-24.326	-0.045	0.027
-317.012	-200.000	-0.013	-0.085
-315.997	589.694	-0.078	-0.192
-314.983	14.059	0.376	0.291
-313.968	-107.201	-0.471	-0.103
-312.953	635.191	0.084	-0.212
-311.939	-200.000	0.001	-0.028
-310.924	800.000	-0.050	0.159
-309.910	-28.620	-0.101	0.058
-308.895	340.452	0.105	-0.203
-307.880	370.165	-0.051	0.102
-306.866	9.940	-0.167	0.126
-305.851	-200.000	0.007	-0.207
-304.837	-51.723	-0.226	-0.105
-303.822	-200.000	0.032	-0.168
-302.807	649.426	0.104	0.265
-301.793	-200.000	-0.010	0.165
-300.778	-200.000	-0.003	-0.066
-299.764	-37.435	0.128	-0.068
-298.749	-103.312	0.074	-0.017
-297.735	800.000	-0.111	0.378
-296.720	-200.000	-0.005	0.116
-295.705	800.000	-0.040	-0.129
-294.691	-200.000	-0.024	-0.115
-293.676	152.559	0.052	-0.070
-292.662	1.344	-0.273	-0.195
-291.647	-200.000	-0.020	0.148
-290.632	-121.195	-0.176	-0.029
-289.618	-102.631	-0.180	0.043
-288.603	684.759	0.122	-0.318
-287.589	-3.459	-0.144	0.100
-286.574	225.361	0.072	-0.117
-285.559	35.116	-0.147	-0.128
-284.545	164.876	-0.204	-0.286
-283.530	-125.629	0.266	0.040
-282.516	-33.460	0.255	0.140
-281.501	-54.387	-0.065	-0.030
-280.486	-200.000	-0.020	0.311
-279.472	436.647	-0.145	0.314
-278.457	-48.530	-0.197	0.094
-277.443	-200.000	0.045	-0.303
-276.428	51.950	-0.285	-0.269
-275.413	-85.742	0.133	-0.041
-274.399	-83.796	-0.231	0.073
-273.384	408.040	0.213	-0.449
-272.370	-42.025	-0.263	0.134
-271.355	-66.557	-0.229	-0.090
-270.340	431.615	0.029	0.063
-269.326	481.217	0.106	0.238
-268.311	283.214	-0.154	0.275
-267.297	800.000	-0.064	0.278
-266.282	124.602	-0.096	-0.120
-265.267	-74.561	-0.123	0.044
-264.253	-200.000	-0.036	-0.330
-263.238	315.442	-0.081	-0.152
-262.224	77.339	0.084	0.089
-261.209	182.753	-0.218	0.320
-260.195	-20.453	0.244	-0.149
-259.180	-0.330	0.150	-0.106
-258.165	-122.895	-0.167	-0.027
-257.151	-185.258	0.339	-0.005
-256.136	26.827	-0.198	0.165
-255.122	-114.830	0.437	0.083
-254.107	371.153	0.037	-0.074
-253.092	-82.801	-0.069	-0.022
-252.078	-42.040	0.143	0.073
-251.063	-200.000	0.002	-0.076
-250.049	-126.030	-0.347	0.052
-249.034	-200.000	0.012	-0.118
-248.019	159.047	-0.213	-0.294
-247.005	-117.976	-0.187	0.033
-245.990	-30.565	-0.279	0.157
-244.976	6.407	0.328	0.242
-243.961	-107.515	0.230	-0.050
-242.946	163.671	0.172	-0.240
-241.932	733.015	0.046	-0.122
-240.917	-200.000	0.024	0.240
-239.903	-162.807	-0.061	0.003
-238.888	-157.622	0.067	0.004
-237.873	-191.013	0.257	0.003
-236.859	-165.018	0.312	-0.014
-235.844	208.136	-0.127	0.198
-234.830	72.450	-0.164	0.169
-233.815	-87.395	0.128	-0.039
-232.800	-32.006	-0.308	0.171
-231.786	22.713	0.227	-0.184
-230.771	-200.000	0.043	-0.292
-229.757	-61.836	0.387	0.161
-228.742	90.778	0.114	0.127
-227.727	52.017	0.156	-0.147
-226.713	47.912	-0.070	0.065
-225.698	304.718	0.205	-0.378
-224.684	-34.761	0.118	0.064
-223.669	-78.570	0.230	0.078
-222.655	-200.000	-0.005	0.099
-221.640	444.848	-0.149	0.324
-220.625	212.735	-0.149	0.233
-219.611	-93.719	0.323	-0.088
-218.596	-200.000	0.095	0.477
-217.582	52.329	0.413	0.391
-216.567	99.825	-0.072	0.083
-215.552	-16.570	0.186	0.117
-214.538	16.081	0.192	-0.150
-213.523	174.097	-0.255	-0.365
-212.509	800.000	0.076	0.299
-211.494	-109.577	0.336	0.070
-210.479	-45.922	0.344	0.168
-209.465	595.114	0.067	-0.165
-208.450	240.936	-0.181	0.299
-207.436	-31.680	0.070	0.039
-206.421	499.864	-0.037	0.085
-205.406	5.291	-0.092	0.067
-204.392	191.725	-0.132	0.198
-203.377	83.959	-0.409	0.443
-202.363	-200.000	0.015	0.201
-201.348	-200.000	0.222	-0.000
-200.333	-33.532	-0.144	-0.079
-199.319	-114.030	0.258	0.050
-198.304	-200.000	0.013	0.319
-197.290	-157.480	-0.085	-0.005
-196.275	-79.459	-0.231	0.078
-195.260	-200.000	0.013	-0.168
-194.246	-58.194	0.047	0.020
-193.231	560.627	0.107	0.255
-192.217	800.000	-0.032	-0.092
-191.202	800.000	-0.046	0.153
-190.187	254.614	0.134	0.228
-189.173	-67.307	-0.198	0.077
-188.158	8.947	-0.268	-0.200
-187.144	-3.165	0.143	-0.099
-186.129	6.713	0.137	0.101
-185.114	193.028	0.024	-0.036
-184.100	6.531	-0.076	0.056
-183.085	467.455	0.117	-0.260
-182.071	-197.873	-0.147	0.001
-181.056	-45.109	0.165	-0.081
-180.042	229.635	0.115	0.186
-179.027	308.836	0.098	0.182
-178.012	120.863	-0.069	0.085
-176.998	26.856	-0.335	0.278
-175.983	-200.000	0.001	-0.058
-174.969	800.000	-0.031	-0.109
-173.954	-200.000	-0.020	-0.128
-172.939	300.805	0.124	0.227
-171.925	-200.000	-0.042	0.268
-170.910	-48.336	0.162	0.077
-169.896	-200.000	-0.033	-0.206
-168.881	-131.877	-0.209	0.027
-167.866	-200.000	0.005	-0.538
-166.852	-80.915	0.150	-0.049
-165.837	8.243	-0.078	-0.058
-164.823	-60.499	0.196	-0.083
-163.808	-130.077	0.291	0.039
-162.793	30.997	0.133	0.113
-161.779	-9.369	0.100	-0.066
-160.764	-200.000	-0.031	-0.192
-159.750	-100.892	-0.500	0.122
-158.735	-200.000	0.002	0.492
-157.720	-120.330	-0.263	0.044
-156.706	800.000	0.044	0.175
-155.691	-200.000	0.075	-0.333
-154.677	-200.000	0.010	0.045
-153.662	-108.491	-0.227	-0.048
-152.647	-200.000	-0.009	0.052
-151.633	-93.687	0.195	-0.053
-150.618	-59.796	0.259	0.110
-149.604	184.187	0.173	0.254
-148.589	8.034	0.099	-0.073
-147.574	402.940	0.076	-0.158
-146.560	131.801	-0.141	0.179
-145.545	-67.885	-0.154	-0.059
-144.531	800.000	0.053	0.177
-143.516	-12.407	0.028	-0.018
-142.502	260.882	0.276	-0.473
-141.487	800.000	0.018	0.066
-140.472	-134.154	0.094	-0.011
-139.458	800.000	0.108	0.366
-138.443	-126.205	0.239	0.035
-137.429	-89.143	0.535	-0.156
-136.414	-49.150	0.149	0.071
-135.399	-115.798	0.172	-0.032
-134.385	-136.685	-0.164	-0.019
-133.370	-200.000	-0.003	0.074
-132.356	-31.668	-0.136	0.075
-131.341	234.777	0.130	0.211
-130.326	-200.000	-0.027	-0.137
-129.312	-116.685	0.184	0.033
-128.297	-200.000	0.026	-0.152
-127.283	800.000	0.064	-0.242
-126.268	-200.000	0.009	-0.271
-125.253	-165.784	0.160	0.007
-124.239	-57.603	0.138	-0.060
-123.224	192.151	-0.157	0.234
-122.210	-115.017	-0.476	-0.089
-121.195	-6.819	0.193	-0.130
