DTS Sentinel unit serial number:	SN413079Multiplexer serial number:	ORYXHardware model number:	OX4-SRSoftware version number:	ORYX F/W v4.00 Oryx Data Collector v3.7.2.0data status	okinstallation	princeton_trtdifferential loss correction	single-endedforward channel	channel 2reverse channel	N/Adate	2019/09/12time	18:59:49forward acquisition time	15.00reverse acquisition time	0.00gamma	496.2192k internal	0.2325k external	0.2325temperature offset calibration	1.0136default loss term (dB/km)	0.3790temperature slope calibration	1.0000multiplexer offset coefficient	1.0000multiplexer slope coefficient	1.0000fibre end	0.00T internal ref (°C)	32.75T ext. ref 1 (°C)	3.00T ext. ref 2 (°C)	27.33length (m)	temperature (°C)	Stokes	anti-Stokes-747.200	318.052	0.213	0.407
-746.185	95.689	0.298	0.343
-745.171	378.128	-0.193	0.399
-744.156	88.249	0.110	0.123
-743.142	-24.437	-0.257	0.155
-742.127	748.115	-0.357	0.972
-741.112	-55.781	-0.768	-0.346
-740.098	-200.000	0.016	0.243
-739.083	800.000	-0.309	0.861
-738.069	-41.157	0.186	0.097
-737.054	93.197	0.051	-0.058
-736.039	39.553	0.345	-0.312
-735.025	-101.022	0.688	0.170
-734.010	-200.000	-0.090	0.985
-732.996	-65.801	0.551	-0.222
-731.981	460.324	-0.330	0.742
-730.966	309.437	0.198	-0.373
-729.952	-107.338	0.533	0.118
-728.937	-124.471	-0.429	-0.067
-727.923	-85.735	-1.009	-0.316
-726.908	599.636	0.229	-0.573
-725.894	-149.131	-0.645	-0.052
-724.879	-111.951	-0.718	0.146
-723.864	460.594	-0.102	-0.230
-722.850	96.008	-0.127	0.146
-721.835	-200.000	0.034	-1.126
-720.821	-149.290	-0.649	0.052
-719.806	13.574	-0.741	0.580
-718.791	-128.765	-1.091	-0.155
-717.777	618.546	-0.152	-0.384
-716.762	787.628	-0.356	0.984
-715.748	800.000	0.025	-0.108
-714.733	-83.930	-0.579	-0.186
-713.718	-200.000	0.086	-0.587
-712.704	85.615	-0.034	-0.038
-711.689	-134.920	-0.311	-0.038
-710.675	116.360	-0.266	0.329
-709.660	-70.185	-0.129	0.049
-708.645	73.886	-0.450	-0.475
-707.631	-76.137	0.316	0.112
-706.616	-161.795	0.191	0.010
-705.602	-31.113	-0.247	-0.140
-704.587	107.124	0.081	-0.097
-703.572	-78.987	0.270	0.093
-702.558	800.000	-0.090	-0.316
-701.543	-200.000	0.086	0.789
-700.529	-200.000	-0.055	0.616
-699.514	47.002	-0.267	0.250
-698.499	-91.150	-0.308	-0.089
-697.485	-58.609	-0.229	-0.100
-696.470	615.459	-0.217	0.549
-695.456	699.873	0.056	-0.147
-694.441	-94.986	-1.301	-0.354
-693.426	-149.516	0.415	-0.033
-692.412	7.024	-0.360	-0.270
-691.397	543.178	0.269	-0.647
-690.383	-76.049	-0.713	0.254
-689.368	274.491	-0.213	-0.379
-688.354	38.935	0.300	0.269
-687.339	-200.000	0.066	-0.513
-686.324	-45.412	-0.439	0.219
-685.310	-200.000	-0.004	-0.188
-684.295	-200.000	0.020	0.768
-683.281	-179.026	0.592	0.013
-682.266	800.000	0.108	-0.442
-681.251	-92.252	0.635	-0.180
-680.237	-86.522	-0.211	0.065
-679.222	176.279	-0.488	-0.713
-678.208	800.000	-0.022	-0.079
-677.193	647.175	-0.388	-0.999
-676.178	-124.812	-0.435	-0.068
-675.164	-142.534	-0.135	0.013
-674.149	-61.316	-0.610	-0.258
-673.135	-200.000	-0.090	-0.649
-672.120	143.404	-0.597	0.800
-671.105	477.038	0.226	0.514
-670.091	-21.758	0.365	-0.224
-669.076	-83.927	0.377	0.121
-668.062	98.211	-0.540	-0.626
-667.047	-200.000	-0.002	0.045
-666.032	-59.353	0.168	-0.073
-665.018	-8.797	-0.984	-0.664
-664.003	-85.389	0.615	-0.193
-662.989	234.423	0.595	0.987
-661.974	224.826	-0.297	0.483
-660.959	-200.000	0.087	-0.615
-659.945	-68.738	-0.591	0.230
-658.930	-200.000	0.007	0.311
-657.916	800.000	0.136	-0.433
-656.901	-60.702	-0.546	0.233
-655.886	-93.797	-0.624	-0.173
-654.872	-35.300	-0.282	0.154
-653.857	-115.309	0.265	0.050
-652.843	800.000	-0.101	-0.331
-651.828	-200.000	-0.027	-0.465
-650.814	-2.955	-0.516	-0.362
-649.799	800.000	-0.156	-0.494
-648.784	16.074	0.700	-0.554
-647.770	-73.450	0.404	-0.148
-646.755	102.862	-0.158	0.185
-645.741	333.801	-0.251	0.488
-644.726	25.554	-0.167	0.140
-643.711	-113.741	-0.213	0.042
-642.697	609.698	0.426	1.069
-641.682	-200.000	-0.154	1.088
-640.668	-65.655	0.410	0.165
-639.653	-200.000	-0.549	-0.001
-638.638	-108.141	-0.236	0.051
-637.624	-105.746	0.403	-0.092
-636.609	198.877	0.413	-0.636
-635.595	216.906	-0.329	-0.526
-634.580	-137.535	0.286	-0.032
-633.565	-78.324	0.725	-0.250
-632.551	-136.814	0.313	-0.036
-631.536	83.978	-0.079	0.087
-630.522	-117.838	1.132	-0.204
-629.507	118.168	0.256	-0.317
-628.492	142.391	-0.312	0.416
-627.478	56.457	0.220	0.215
-626.463	-200.000	-0.067	-0.361
-625.449	-23.314	-0.775	-0.468
-624.434	-200.000	0.183	-1.292
-623.419	-92.504	-0.239	-0.067
-622.405	69.841	-0.349	0.362
-621.390	500.731	-0.150	-0.348
-620.376	-18.737	0.392	-0.245
-619.361	-97.512	0.579	0.151
-618.346	-200.000	-0.099	0.922
-617.332	227.668	-0.219	0.358
-616.317	-200.000	-0.006	-0.856
-615.303	438.419	0.247	-0.541
-614.288	42.281	0.600	-0.547
-613.273	-107.998	0.551	-0.120
-612.259	-200.000	-0.059	-1.193
-611.244	-32.052	-0.473	0.266
-610.230	16.192	-0.255	0.202
-609.215	-56.289	0.258	0.115
-608.201	84.740	0.103	0.113
-607.186	-200.000	-0.032	0.460
-606.171	-122.585	-0.168	0.027
-605.157	-93.009	-0.865	0.242
-604.142	-200.000	0.121	-0.739
-603.128	167.177	-0.297	0.424
-602.113	800.000	-0.217	0.799
-601.098	100.531	0.338	0.394
-600.084	-88.874	-0.581	-0.173
-599.069	-200.000	-0.104	-0.614
-598.055	107.792	0.150	0.180
-597.040	-81.851	0.461	0.151
-596.025	-55.442	-0.501	0.226
-595.011	434.167	0.301	-0.656
-593.996	-200.000	-0.091	-0.515
-592.982	258.578	-0.251	-0.434
-591.967	-57.756	-0.508	0.223
-590.952	800.000	-0.090	0.335
-589.938	-200.000	-0.064	-0.716
-588.923	-200.000	-0.018	-0.148
-587.909	-122.924	-0.139	0.022
-586.894	-200.000	0.211	0.957
-585.879	-200.000	0.014	0.158
-584.865	-200.000	0.132	-0.649
-583.850	-99.083	-0.487	-0.124
-582.836	115.673	-0.302	0.370
-581.821	3.111	0.378	-0.276
-580.806	-75.104	-0.679	-0.243
-579.792	274.764	0.130	0.231
-578.777	19.719	0.423	-0.342
-577.763	-63.083	-0.292	0.121
-576.748	-37.658	-0.080	-0.043
-575.733	800.000	-0.112	-0.484
-574.719	-200.000	-0.076	-0.672
-573.704	-35.245	-0.081	-0.044
-572.690	-99.715	0.262	-0.066
-571.675	-144.690	-1.132	-0.104
-570.661	342.966	0.615	1.207
-569.646	567.641	-0.231	0.563
-568.631	-165.121	-0.315	0.014
-567.617	-46.039	0.311	-0.153
-566.602	265.116	-0.265	0.462
-565.588	-29.142	0.830	-0.477
-564.573	72.013	-0.358	-0.373
-563.558	-165.242	-0.681	0.030
-562.544	-127.450	-0.374	0.055
-561.529	240.698	-0.111	0.186
-560.515	115.052	-0.059	-0.072
-559.500	-200.000	0.008	-0.308
-558.485	-109.416	0.607	0.129
-557.471	571.955	-0.092	0.225
-556.456	-200.000	-0.009	-0.362
-555.442	15.597	0.215	0.169
-554.427	378.296	-0.177	0.363
-553.412	-22.433	-0.354	0.215
-552.398	-38.598	-0.291	0.154
-551.383	-169.391	0.646	0.024
-550.369	45.693	-0.098	-0.091
-549.354	-200.000	-0.022	-0.502
-548.339	-111.274	0.371	-0.076
-547.325	-94.017	-0.582	-0.160
-546.310	105.045	0.369	-0.436
-545.296	31.372	-0.297	0.255
-544.281	-200.000	0.015	-0.587
-543.266	-94.342	-0.939	0.257
-542.252	-200.000	0.052	-0.233
-541.237	-106.209	-0.357	0.080
-540.223	-20.182	-0.909	-0.561
-539.208	-200.000	-0.065	0.674
-538.193	100.358	0.149	0.173
-537.179	-114.586	0.102	-0.020
-536.164	-95.350	0.448	-0.120
-535.150	-103.336	0.720	0.170
-534.135	-32.186	-0.292	-0.163
-533.121	-165.997	0.530	0.023
-532.106	101.302	0.073	0.085
-531.091	-200.000	0.021	0.623
-530.077	25.385	0.093	0.078
-529.062	800.000	-0.081	0.250
-528.048	711.312	-0.260	-0.689
-527.033	-200.000	0.050	-0.524
-526.018	-131.857	-0.823	-0.108
-525.004	-146.248	-0.439	0.039
-523.989	56.721	0.280	-0.273
-522.975	7.018	0.943	0.703
-521.960	-131.360	-0.707	-0.094
-520.945	-125.366	0.782	0.119
-519.931	66.042	-0.307	0.312
-518.916	-137.919	0.405	-0.045
-517.902	-177.729	0.442	0.011
-516.887	-200.000	0.066	0.571
-515.872	-115.027	-0.369	0.070
-514.858	-200.000	-0.063	0.391
-513.843	-58.877	-0.503	-0.217
-512.829	120.114	0.179	0.222
-511.814	124.672	0.248	0.313
-510.799	13.115	-0.609	0.471
-509.785	-99.763	0.517	-0.129
-508.770	-104.259	-0.356	-0.083
-507.756	709.242	-0.125	0.331
-506.741	-118.546	0.718	-0.127
-505.726	75.122	-0.693	-0.730
-504.712	-200.000	0.048	0.819
-503.697	23.544	-0.283	-0.233
-502.683	2.654	-0.314	0.227
-501.668	-97.171	0.615	-0.161
-500.653	-16.097	-0.243	-0.155
-499.639	32.903	0.347	0.300
-498.624	453.099	0.572	-1.266
-497.610	117.080	-0.166	-0.203
-496.595	800.000	-0.122	-0.463
-495.581	-41.781	0.443	-0.227
-494.566	-52.527	0.372	-0.172
-493.551	-200.000	0.036	0.241
-492.537	-99.589	-0.928	0.233
-491.522	800.000	-0.386	1.078
-490.508	800.000	-0.073	0.246
-489.493	88.123	0.566	-0.627
-488.478	322.334	0.256	0.487
-487.464	227.289	-0.432	-0.702
-486.449	675.370	-0.422	1.096
-485.435	7.887	-0.451	-0.338
-484.420	-107.725	0.628	0.137
-483.405	-79.850	0.034	-0.012
-482.391	-71.808	-0.603	-0.225
-481.376	-119.327	0.675	0.117
-480.362	194.242	-0.067	-0.102
-479.347	-200.000	0.116	-0.566
-478.332	11.258	0.747	0.571
-477.318	-200.000	-0.016	0.125
-476.303	92.460	0.585	-0.659
-475.289	702.640	0.258	0.679
-474.274	-200.000	0.056	0.862
-473.259	10.230	-0.203	-0.154
-472.245	-20.749	-0.208	-0.128
-471.230	27.827	0.177	-0.149
-470.216	78.023	-0.653	-0.696
-469.201	181.789	0.428	-0.629
-468.186	88.390	0.315	0.349
-467.172	800.000	-0.103	0.405
-466.157	-65.890	-0.226	0.090
-465.143	-93.537	-0.483	-0.133
-464.128	139.655	-0.016	-0.021
-463.113	31.443	0.588	0.504
-462.099	109.927	-0.461	-0.552
-461.084	71.815	-0.432	0.448
-460.070	436.489	-0.071	0.155
-459.055	190.679	-0.371	0.556
-458.040	-74.080	0.350	-0.126
-457.026	185.851	0.462	-0.685
-456.011	784.076	-0.077	-0.210
-454.997	11.296	-0.413	-0.316
-453.982	105.617	-0.441	-0.520
-452.968	-200.000	0.012	0.105
-451.953	-110.658	0.095	-0.020
-450.938	38.366	-0.249	0.221
-449.924	157.279	-0.275	-0.380
-448.909	-3.450	0.741	-0.514
-447.895	-25.080	0.284	-0.168
-446.880	-51.392	-0.521	0.243
-445.865	12.742	-0.429	0.330
-444.851	-47.802	-0.019	-0.009
-443.836	286.053	-0.050	0.090
-442.822	-200.000	-0.061	0.608
-441.807	800.000	0.081	-0.257
-440.792	-162.026	0.197	-0.010
-439.778	218.221	0.248	0.395
-438.763	237.473	-0.235	0.388
-437.749	-14.889	0.392	-0.251
-436.734	-89.595	-0.689	-0.202
-435.719	800.000	-0.195	0.585
-434.705	-67.641	0.591	0.231
-433.690	111.832	0.235	-0.283
-432.676	771.695	0.200	0.543
-431.661	156.311	-0.388	-0.534
-430.646	-121.524	0.981	-0.162
-429.632	91.933	-0.292	0.328
-428.617	64.902	-0.087	0.087
-427.603	167.792	-0.394	0.558
-426.588	800.000	-0.204	-0.812
-425.573	-97.101	0.294	-0.077
-424.559	-200.000	0.031	0.216
-423.544	-98.583	0.795	0.202
-422.530	-58.165	-0.514	-0.223
-421.515	29.700	0.439	0.372
-420.500	24.907	-0.525	0.433
-419.486	-42.846	-0.280	0.142
-418.471	-200.000	0.077	-0.438
-417.457	287.972	0.399	-0.720
-416.442	-86.151	0.690	-0.212
-415.428	-65.599	-0.515	-0.206
-414.413	800.000	0.176	0.561
-413.398	-200.000	-0.004	-0.053
-412.384	-200.000	-0.079	0.355
-411.369	67.609	0.426	0.434
-410.355	800.000	-0.301	-0.994
-409.340	-200.000	0.093	0.616
-408.325	800.000	0.194	0.719
-407.311	-47.803	-0.295	-0.142
-406.296	-20.960	0.412	0.251
-405.282	-200.000	-0.010	0.262
-404.267	267.800	-0.237	0.414
-403.252	-141.894	0.080	0.008
-402.238	800.000	-0.088	-0.331
-401.223	469.818	0.126	0.281
-400.209	800.000	-0.050	-0.166
-399.194	-55.560	-0.821	-0.366
-398.179	471.479	-0.331	0.741
-397.165	800.000	-0.169	0.658
-396.150	-27.344	-0.038	0.022
-395.136	-125.277	0.202	-0.031
-394.121	-98.770	-0.491	0.124
-393.106	324.643	-0.261	0.497
-392.092	-99.544	-0.440	-0.110
-391.077	214.157	-0.074	0.117
-390.063	-200.000	-0.025	0.127
-389.048	-57.271	-0.296	-0.129
-388.033	667.185	-0.109	0.281
-387.019	-61.081	0.260	0.109
-386.004	-55.665	-0.392	-0.174
-384.990	23.150	-0.207	0.169
-383.975	-146.595	0.586	-0.051
-382.960	-200.000	0.024	-0.137
-381.946	-46.303	-0.335	-0.164
-380.931	-200.000	-0.056	-0.645
-379.917	-200.000	0.034	-0.185
-378.902	-200.000	0.013	-0.226
-377.888	179.139	0.497	-0.723
-376.873	-81.732	0.137	-0.045
-375.858	-70.687	-0.268	-0.101
-374.844	629.385	0.153	0.385
-373.829	417.587	0.182	-0.386
-372.815	-77.209	0.435	0.151
-371.800	-200.000	-0.262	0.000
-370.785	-200.000	-0.011	-0.081
-369.771	15.613	0.539	0.421
-368.756	-84.626	-1.104	0.346
-367.742	-92.036	0.295	0.083
-366.727	-121.851	-0.919	-0.151
-365.712	55.865	-0.155	-0.149
-364.698	-22.021	-0.270	-0.163
-363.683	800.000	-0.167	-0.551
-362.669	405.817	-0.160	-0.335
-361.654	474.475	0.229	-0.513
-360.639	-161.285	0.111	-0.006
-359.625	73.339	-0.342	-0.356
-358.610	383.280	-0.348	-0.712
-357.596	21.953	-0.353	0.286
-356.581	-43.333	-0.341	0.171
-355.566	-124.578	0.548	0.085
-354.552	-94.497	0.384	0.104
-353.537	1.474	0.579	0.414
-352.523	-142.153	-0.597	0.059
-351.508	-98.746	0.443	0.112
-350.493	115.644	-0.577	0.701
-349.479	121.578	-0.570	-0.706
-348.464	-1.324	-0.513	0.360
-347.450	800.000	0.045	-0.193
-346.435	-200.000	0.120	0.575
-345.420	-200.000	-0.034	0.842
-344.406	-200.000	0.002	-0.114
-343.391	490.850	0.355	0.808
-342.377	-26.723	-0.289	0.168
-341.362	-200.000	0.010	-0.174
-340.348	2.366	0.112	-0.080
-339.333	159.866	0.221	-0.306
-338.318	-200.000	-0.001	0.251
-337.304	95.412	0.385	-0.436
-336.289	143.394	0.367	-0.485
-335.275	-68.833	-0.177	0.068
-334.260	228.156	-0.104	0.168
-333.245	-200.000	0.180	-0.870
-332.231	-200.000	0.004	-0.277
-331.216	82.267	-0.683	-0.736
-330.202	-68.496	0.391	0.150
-329.187	-28.991	-0.272	0.155
-328.172	800.000	-0.154	0.507
-327.158	-144.773	-0.347	-0.032
-326.143	-200.000	-0.025	-0.862
-325.129	144.305	0.540	-0.715
-324.114	365.508	-0.121	-0.242
-323.099	-143.045	-0.267	0.026
-322.085	83.322	0.295	-0.319
-321.070	-128.682	-0.326	-0.046
-320.056	-45.791	-0.580	0.284
-319.041	-37.602	-0.308	-0.163
-318.026	-33.523	-0.268	0.147
-317.012	311.176	0.055	-0.102
-315.997	800.000	-0.146	0.472
-314.983	800.000	0.213	0.707
-313.968	588.234	-0.105	-0.257
-312.953	-200.000	0.094	-0.714
-311.939	-13.401	0.295	-0.190
-310.924	800.000	0.201	0.777
-309.910	11.383	0.824	0.626
-308.895	-200.000	0.018	-0.275
-307.880	63.452	-0.124	-0.123
-306.866	-163.741	-0.127	-0.006
-305.851	-19.119	0.332	0.204
-304.837	82.172	0.264	-0.284
-303.822	-83.910	-0.548	0.173
-302.807	-57.370	0.445	0.194
-301.793	239.820	0.621	-1.026
-300.778	-75.719	0.206	-0.073
-299.764	-182.377	-0.713	-0.013
-298.749	-126.910	-0.435	-0.064
-297.735	800.000	0.215	-0.745
-296.720	800.000	0.148	0.460
-295.705	115.291	-0.472	-0.572
-294.691	-200.000	-0.083	-0.404
-293.676	-200.000	0.014	0.060
-292.662	-44.358	-0.573	-0.285
-291.647	-200.000	-0.070	-0.458
-290.632	-17.014	0.515	0.322
-289.618	800.000	0.335	-1.027
-288.603	-200.000	-0.037	-0.303
-287.589	800.000	-0.222	-0.710
-286.574	800.000	-0.186	0.797
-285.559	-200.000	-0.028	0.802
-284.545	-200.000	0.020	-0.760
-283.530	61.067	1.090	-1.072
-282.516	800.000	-0.034	0.137
-281.501	663.880	0.243	-0.621
-280.486	209.374	-0.415	-0.645
-279.472	800.000	0.171	-0.483
-278.457	800.000	0.419	1.492
-277.443	16.100	0.696	0.544
-276.428	-147.507	0.702	-0.059
-275.413	-33.842	-0.558	0.304
-274.399	-100.360	0.517	0.127
-273.384	103.874	0.496	0.578
-272.370	392.197	-0.363	0.747
-271.355	-9.107	0.485	-0.321
-270.340	-200.000	0.053	-0.376
-269.326	120.316	0.221	-0.272
-268.311	-174.518	-0.849	-0.024
-267.297	-200.000	0.040	0.475
-266.282	40.425	-0.456	-0.406
-265.267	800.000	0.066	0.232
-264.253	-71.576	0.414	0.153
-263.238	-200.000	0.030	-0.321
-262.224	-170.550	0.753	0.026
-261.209	89.340	-0.496	0.547
-260.195	-200.000	0.095	1.078
-259.180	131.614	-0.532	-0.677
-258.165	-116.559	-0.771	-0.141
-257.151	-73.269	0.080	-0.029
-256.136	111.542	-0.158	0.189
-255.122	466.304	0.384	0.850
-254.107	61.803	-0.443	0.436
-253.092	-200.000	-0.126	0.707
-252.078	-200.000	0.061	-0.667
-251.063	-125.756	0.642	0.096
-250.049	278.432	0.058	0.102
-249.034	73.422	-0.293	0.304
-248.019	-107.643	-1.083	0.234
-247.005	48.809	0.217	-0.201
-245.990	-27.655	0.921	-0.529
-244.976	-42.910	-0.323	0.162
-243.961	-55.433	0.196	0.087
-242.946	229.300	-0.250	0.403
-241.932	387.496	-0.371	0.759
-240.917	-200.000	-0.042	-0.575
-239.903	-96.674	0.764	-0.199
-238.888	-122.720	0.614	-0.098
-237.873	-42.628	0.523	0.263
-236.859	-1.795	-0.575	0.400
-235.844	-146.356	0.605	-0.052
-234.830	467.597	0.316	0.701
-233.815	-200.000	0.058	0.388
-232.800	54.493	-0.383	0.365
-231.786	-200.000	0.069	0.366
-230.771	0.713	0.585	-0.414
-229.757	618.400	0.392	-0.974
-228.742	25.890	-0.388	-0.320
-227.727	-200.000	-0.027	-0.166
-226.713	478.154	0.266	-0.596
-225.698	800.000	-0.145	0.575
-224.684	314.339	-0.238	-0.442
-223.669	800.000	-0.229	0.661
-222.655	-51.627	-0.122	-0.056
-221.640	-49.193	0.525	0.248
-220.625	55.427	0.562	0.538
-219.611	-200.000	0.040	0.791
-218.596	0.410	-0.250	-0.177
-217.582	-173.104	-0.609	-0.018
-216.567	-53.007	-0.490	0.223
-215.552	-200.000	0.416	-0.001
-214.538	-200.000	0.054	-0.259
-213.523	-106.603	-0.655	-0.144
-212.509	26.495	-0.697	-0.576
-211.494	-200.000	-0.064	-0.343
-210.479	-57.985	-0.196	-0.085
-209.465	-124.311	0.470	0.073
-208.450	144.851	0.236	0.312
-207.436	-88.761	-0.477	-0.140
-206.421	-19.882	-0.304	-0.185
-205.406	89.677	0.215	-0.237
-204.392	800.000	-0.316	1.005
-203.377	-52.936	0.395	-0.180
-202.363	800.000	-0.071	-0.272
-201.348	31.970	0.226	-0.193
-200.333	800.000	-0.211	0.864
-199.319	43.397	-0.285	-0.258
-198.304	141.607	0.470	-0.615
-197.290	57.401	0.448	0.432
-196.275	216.507	-0.294	0.462
-195.260	29.837	0.623	0.525
-194.246	-200.000	-0.013	-0.559
-193.231	-200.000	0.031	-0.321
-192.217	-58.168	-0.396	-0.171
-191.202	458.343	-0.302	0.663
-190.187	17.511	1.080	0.848
-189.173	-145.206	0.579	-0.052
-188.158	533.481	-0.401	-0.937
-187.144	800.000	-0.165	-0.451
-186.129	-158.499	0.988	-0.056
-185.114	-200.000	-0.002	-0.587
-184.100	-136.769	0.789	-0.090
-183.085	402.905	-0.070	-0.146
-182.071	-50.845	-0.320	-0.149
-181.056	106.172	-0.216	0.253
-180.042	129.563	0.472	-0.595
-179.027	-5.997	-0.563	0.380
-178.012	471.269	-0.077	-0.171
-176.998	-52.023	0.495	0.227
-175.983	800.000	0.163	-0.643
-174.969	617.122	-0.243	0.601
-173.954	800.000	-0.118	0.359
-172.939	-200.000	-0.063	0.615
-171.925	-143.230	-0.021	-0.002
-170.910	-7.608	0.348	0.232
-169.896	-32.657	0.542	0.298
-168.881	-11.865	-1.096	-0.709
-167.866	-200.000	-0.002	-0.398
-166.852	-200.000	-0.017	0.381
-165.837	-200.000	-0.011	0.299
-164.823	10.983	-0.255	0.192
-163.808	-43.283	0.655	-0.327
-162.793	48.503	0.233	-0.215
-161.779	-200.000	-0.058	0.280
-160.764	645.991	-0.136	0.343
-159.750	-200.000	0.132	0.732
-158.735	-200.000	0.088	0.467
-157.720	127.526	0.469	0.587
-156.706	193.891	0.109	0.162
-155.691	800.000	-0.205	-0.583
-154.677	-200.000	0.319	0.001
-153.662	50.557	0.446	-0.416
-152.647	275.243	0.505	-0.883
-151.633	35.340	-0.660	0.570
-150.618	-129.242	-0.194	0.027
-149.604	-200.000	-0.003	-0.291
-148.589	800.000	-0.132	0.472
-147.574	733.459	-0.089	0.234
-146.560	-37.260	0.023	-0.012
-145.545	800.000	-0.146	-0.571
-144.531	80.216	0.506	0.537
-143.516	14.302	0.480	0.369
-142.502	-33.438	-0.171	-0.093
-141.487	-200.000	0.013	-0.342
-140.472	222.000	0.463	-0.733
-139.458	270.724	-0.157	0.272
-138.443	114.800	-0.370	0.445
-137.429	800.000	-0.188	0.700
-136.414	-200.000	0.068	-0.307
-135.399	333.935	0.198	-0.378
-134.385	-52.788	-0.530	0.241
-133.370	15.599	0.603	0.467
-132.356	1.563	0.233	-0.165
-131.341	-200.000	-0.063	0.460
-130.326	-155.644	0.294	-0.019
-129.312	53.647	-0.309	-0.292
-128.297	328.490	-0.356	0.674
-127.283	-71.125	-0.362	0.134
-126.268	-8.387	-0.519	0.344
-125.253	-106.323	0.248	-0.055
-124.239	275.695	0.569	-0.995
-123.224	-19.951	-0.596	0.362
