DTS Sentinel unit serial number:	SN413079Multiplexer serial number:	ORYXHardware model number:	OX4-SRSoftware version number:	ORYX F/W v4.00 Oryx Data Collector v3.7.2.0data status	okinstallation	princeton_trtdifferential loss correction	single-endedforward channel	channel 2reverse channel	N/Adate	2019/09/19time	07:55:34forward acquisition time	60.00reverse acquisition time	0.00gamma	496.2192k internal	0.2351k external	0.2351temperature offset calibration	1.0005default loss term (dB/km)	0.3790temperature slope calibration	1.0000multiplexer offset coefficient	1.0000multiplexer slope coefficient	1.0000fibre end	0.00T internal ref (°C)	19.72T ext. ref 1 (°C)	0.56T ext. ref 2 (°C)	15.17length (m)	temperature (°C)	Stokes	anti-Stokes-747.200	-1.464	0.460	-0.324
-746.185	198.713	0.036	0.055
-745.171	119.527	0.166	-0.205
-744.156	-96.815	-0.340	0.089
-743.142	800.000	-0.151	-0.427
-742.127	382.886	0.158	0.323
-741.112	-200.000	-0.048	0.220
-740.098	241.084	0.061	0.102
-739.083	24.525	0.093	0.077
-738.069	48.445	0.067	0.062
-737.054	-24.512	-0.281	0.167
-736.039	-38.235	-0.116	0.061
-735.025	-138.910	0.275	-0.030
-734.010	-26.717	-0.214	-0.125
-732.996	-200.000	0.033	-0.206
-731.981	7.324	-0.195	-0.145
-730.966	-49.003	0.214	-0.102
-729.952	118.685	-0.161	-0.198
-728.937	30.868	0.175	-0.149
-727.923	-54.914	0.132	-0.060
-726.908	-37.599	0.263	0.140
-725.894	-46.009	-0.484	-0.238
-724.879	-55.512	-0.244	-0.109
-723.864	-104.210	-0.434	-0.100
-722.850	-96.314	-0.013	-0.004
-721.835	-55.533	-0.110	-0.049
-720.821	151.575	0.196	-0.266
-719.806	58.688	-0.248	0.242
-718.791	89.769	-0.220	-0.245
-717.777	800.000	-0.080	-0.269
-716.762	-94.180	0.176	0.048
-715.748	33.951	-0.173	0.150
-714.733	172.377	-0.145	-0.208
-713.718	94.686	-0.264	-0.299
-712.704	-200.000	-0.019	-0.179
-711.689	149.282	-0.139	0.188
-710.675	77.766	-0.309	-0.328
-709.660	-194.666	-0.100	-0.001
-708.645	15.748	0.079	0.062
-707.631	42.343	-0.336	0.305
-706.616	11.254	0.282	-0.215
-705.602	-200.000	0.036	-0.239
-704.587	-118.492	-0.281	-0.050
-703.572	338.101	-0.045	0.086
-702.558	257.748	0.202	-0.346
-701.543	-29.448	-0.189	0.108
-700.529	310.892	-0.042	-0.078
-699.514	-45.167	0.103	0.051
-698.499	-6.816	0.035	-0.024
-697.485	-155.940	0.036	-0.002
-696.470	-44.854	0.132	0.066
-695.456	-13.085	0.169	-0.109
-694.441	389.495	-0.070	-0.145
-693.426	-200.000	0.022	0.184
-692.412	-99.711	0.192	0.048
-691.397	-120.865	0.284	-0.048
-690.383	18.703	-0.095	-0.076
-689.368	-200.000	0.003	-0.277
-688.354	-136.360	0.077	0.009
-687.339	74.255	0.081	-0.085
-686.324	8.383	-0.195	0.146
-685.310	-23.155	-0.228	-0.136
-684.295	-200.000	-0.005	-0.265
-683.281	1.259	-0.394	-0.281
-682.266	-109.398	-0.181	-0.038
-681.251	-141.456	-0.243	-0.025
-680.237	800.000	-0.035	0.104
-679.222	-200.000	0.008	-0.046
-678.208	-57.166	0.245	-0.107
-677.193	-200.000	0.028	-0.336
-676.178	232.927	0.156	-0.256
-675.164	-101.795	-0.260	0.063
-674.149	-130.822	-0.102	-0.014
-673.135	60.363	-0.149	-0.146
-672.120	-116.460	-0.365	0.067
-671.105	-200.000	0.003	0.059
-670.091	-200.000	-0.006	0.064
-669.076	-46.929	0.266	-0.130
-668.062	-54.372	-0.229	-0.103
-667.047	70.169	0.245	-0.252
-666.032	-200.000	-0.050	-0.331
-665.018	-98.052	-0.349	0.090
-664.003	-30.906	-0.142	-0.080
-662.989	753.041	0.126	-0.338
-661.974	-74.813	-0.307	0.109
-660.959	-14.809	0.275	0.176
-659.945	800.000	0.078	0.244
-658.930	-200.000	-0.007	-0.162
-657.916	-89.309	0.349	-0.102
-656.901	-200.000	0.079	0.523
-655.886	800.000	-0.129	0.447
-654.872	36.614	0.195	0.171
-653.857	-200.000	-0.029	0.222
-652.843	800.000	-0.060	-0.200
-651.828	237.274	0.108	-0.178
-650.814	116.227	0.017	-0.021
-649.799	-65.218	0.121	-0.048
-648.784	260.332	-0.071	-0.121
-647.770	-104.309	0.165	0.038
-646.755	-120.848	-0.257	0.043
-645.741	127.188	-0.018	-0.023
-644.726	30.608	0.101	-0.086
-643.711	17.977	0.221	0.175
-642.697	-113.591	-0.222	-0.043
-641.682	-19.165	-0.245	-0.151
-640.668	-200.000	0.171	-0.000
-639.653	254.850	0.222	-0.378
-638.638	100.239	0.125	-0.144
-637.624	-200.000	0.000	-0.126
-636.609	-200.000	-0.008	-0.073
-635.595	-200.000	-0.010	0.261
-634.580	244.273	0.097	0.161
-633.565	782.439	-0.119	0.323
-632.551	113.523	-0.131	-0.158
-631.536	-124.126	0.337	0.053
-630.522	-102.709	0.438	-0.104
-629.507	-200.000	-0.050	-0.250
-628.492	133.403	0.222	-0.285
-627.478	144.066	0.145	0.191
-626.463	-200.000	-0.036	0.292
-625.449	-2.058	0.095	-0.066
-624.434	-45.315	-0.367	0.181
-623.419	800.000	-0.057	0.188
-622.405	800.000	-0.057	0.239
-621.390	-200.000	0.009	0.191
-620.376	457.390	-0.109	-0.240
-619.361	-149.367	0.131	-0.010
-618.346	-53.774	-0.323	0.146
-617.332	413.139	0.186	0.392
-616.317	37.173	-0.062	-0.054
-615.303	-170.197	0.164	-0.006
-614.288	446.688	-0.026	-0.057
-613.273	-200.000	-0.033	0.188
-612.259	-124.084	-0.206	-0.032
-611.244	-200.000	-0.001	-0.129
-610.230	800.000	-0.056	-0.196
-609.215	-116.324	-0.230	-0.042
-608.201	452.052	-0.135	0.296
-607.186	-90.722	0.175	-0.050
-606.171	289.710	-0.119	0.214
-605.157	-51.963	-0.087	0.040
-604.142	674.990	-0.089	-0.229
-603.128	-200.000	0.079	-0.405
-602.113	-55.028	0.377	-0.169
-601.098	314.432	-0.020	0.037
-600.084	-99.422	0.413	-0.103
-599.069	-91.721	-0.302	-0.085
-598.055	-80.149	-0.041	-0.014
-597.040	-200.000	-0.030	0.155
-596.025	-65.126	0.243	0.097
-595.011	-200.000	0.017	0.265
-593.996	241.788	0.132	-0.219
-592.982	180.835	-0.161	0.235
-591.967	91.619	-0.043	0.048
-590.952	-147.098	0.168	0.014
-589.938	-200.000	-0.024	0.179
-588.923	266.669	0.141	-0.245
-587.909	-124.999	-0.276	-0.042
-586.894	362.248	0.162	0.322
-585.879	-27.916	0.097	-0.056
-584.865	-93.224	0.042	-0.012
-583.850	97.203	0.186	0.211
-582.836	69.066	-0.271	0.276
-581.821	480.300	-0.112	-0.251
-580.806	199.559	-0.081	-0.124
-579.792	100.801	0.119	0.137
-578.777	43.549	0.018	0.016
-577.763	-81.655	-0.347	0.113
-576.748	800.000	-0.073	-0.204
-575.733	800.000	0.021	0.074
-574.719	-104.974	-0.193	-0.044
-573.704	29.991	-0.225	0.190
-572.690	-200.000	0.035	0.268
-571.675	-200.000	0.026	0.319
-570.661	-9.697	0.035	-0.023
-569.646	-60.920	0.249	0.104
-568.631	800.000	-0.166	-0.650
-567.617	-17.201	0.061	0.038
-566.602	53.408	-0.084	0.080
-565.588	592.204	0.055	-0.134
-564.573	-45.897	-0.186	-0.091
-563.558	-131.872	0.322	-0.042
-562.544	26.703	-0.227	0.189
-561.529	-7.652	-0.130	0.087
-560.515	-7.294	-0.144	0.097
-559.500	-1.325	-0.030	0.021
-558.485	-115.444	0.387	-0.072
-557.471	389.111	0.062	-0.127
-556.456	-200.000	0.000	-0.087
-555.442	-175.632	0.035	-0.001
-554.427	-200.000	-0.010	-0.070
-553.412	-38.649	0.072	-0.038
-552.398	-66.851	-0.198	-0.078
-551.383	-38.038	-0.115	-0.060
-550.369	192.735	-0.099	0.148
-549.354	-2.519	0.204	0.141
-548.339	-131.776	0.202	-0.026
-547.325	378.805	-0.041	0.084
-546.310	-163.918	0.221	-0.010
-545.296	-182.041	0.525	-0.010
-544.281	477.845	-0.054	-0.122
-543.266	-76.709	-0.162	0.056
-542.252	-31.119	0.134	-0.075
-541.237	-200.000	0.001	-0.262
-540.223	133.096	-0.034	-0.044
-539.208	384.891	-0.005	0.011
-538.193	57.353	-0.143	-0.138
-537.179	-30.994	0.092	0.052
-536.164	-15.023	0.257	0.163
-535.150	119.086	-0.223	-0.273
-534.135	-159.106	-0.244	-0.014
-533.121	-49.597	-0.157	-0.074
-532.106	-200.000	-0.004	0.033
-531.091	91.039	-0.055	0.062
-530.077	-200.000	0.010	-0.202
-529.062	-89.688	-0.044	0.013
-528.048	-11.850	0.075	0.049
-527.033	800.000	-0.043	0.139
-526.018	-81.717	-0.185	0.060
-525.004	-126.837	-0.226	0.033
-523.989	-200.000	0.005	-0.104
-522.975	-162.889	0.138	0.007
-521.960	-200.000	-0.038	-0.165
-520.945	-79.213	0.288	-0.097
-519.931	-200.000	0.035	-0.193
-518.916	-200.000	-0.001	-0.089
-517.902	-200.000	0.000	0.307
-516.887	-200.000	0.069	0.331
-515.872	-13.786	-0.221	0.142
-514.858	-150.553	0.072	0.005
-513.843	-188.288	0.144	0.002
-512.829	-200.000	-0.006	0.170
-511.814	-88.128	0.268	-0.079
-510.799	195.735	-0.033	0.049
-509.785	-200.000	-0.001	-0.056
-508.770	-200.000	-0.031	-0.147
-507.756	800.000	-0.116	-0.402
-506.741	128.999	-0.257	-0.324
-505.726	-160.081	0.074	-0.004
-504.712	-149.696	-0.364	0.028
-503.697	-67.412	-0.109	0.042
-502.683	-200.000	-0.043	0.219
-501.668	338.344	0.034	-0.065
-500.653	228.634	0.122	-0.197
-499.639	336.391	-0.056	0.107
-498.624	21.549	-0.157	-0.126
-497.610	109.904	-0.236	-0.280
-496.595	800.000	0.003	-0.011
-495.581	106.499	0.127	0.149
-494.566	-96.228	-0.304	-0.080
-493.551	-41.624	0.325	0.165
-492.537	-200.000	0.018	-0.155
-491.522	-156.175	-0.264	-0.016
-490.508	-200.000	0.053	-0.284
-489.493	-110.762	-0.233	-0.047
-488.478	73.762	-0.172	0.178
-487.464	-200.000	-0.013	-0.092
-486.449	5.955	-0.215	0.157
-485.435	-16.073	0.074	-0.046
-484.420	800.000	0.061	-0.229
-483.405	616.036	0.185	-0.458
-482.391	529.587	-0.095	0.222
-481.376	-115.323	-0.202	0.038
-480.362	-47.889	0.236	0.113
-479.347	-59.466	0.298	-0.127
-478.332	200.123	0.070	0.106
-477.318	69.272	0.163	-0.166
-476.303	446.039	-0.106	-0.229
-475.289	-49.775	0.138	0.065
-474.274	-28.016	0.296	0.169
-473.259	-26.204	0.111	0.064
-472.245	-8.585	-0.121	0.080
-471.230	-156.770	-0.380	-0.023
-470.216	-200.000	0.002	0.034
-469.201	149.852	-0.109	0.146
-468.186	-200.000	0.023	-0.271
-467.172	-200.000	0.056	-0.297
-466.157	800.000	-0.037	-0.120
-465.143	318.964	0.065	0.122
-464.128	151.604	0.140	-0.188
-463.113	62.818	-0.216	-0.213
-462.099	-97.990	0.040	-0.010
-461.084	-200.000	0.003	-0.296
-460.070	159.383	0.116	0.160
-459.055	123.689	-0.180	-0.222
-458.040	3.567	-0.159	0.114
-457.026	29.011	0.336	0.281
-456.011	67.746	-0.251	0.254
-454.997	6.373	0.005	-0.004
-453.982	484.120	-0.055	0.123
-452.968	-200.000	-0.010	-0.139
-451.953	43.713	0.078	-0.070
-450.938	164.881	0.165	0.229
-449.924	800.000	0.098	0.273
-448.909	-18.571	-0.273	0.168
-447.895	800.000	-0.022	-0.074
-446.880	5.451	0.078	0.057
-445.865	-69.309	0.271	-0.103
-444.851	-200.000	0.065	-0.432
-443.836	-128.005	-0.151	0.021
-442.822	564.620	-0.023	0.056
-441.807	-33.870	-0.160	-0.087
-440.792	-18.091	0.250	-0.154
-439.778	2.503	-0.306	-0.218
-438.763	800.000	-0.062	-0.205
-437.749	-197.160	0.218	-0.001
-436.734	-86.281	-0.337	0.102
-435.719	36.365	0.363	-0.316
-434.705	707.862	0.090	-0.234
-433.690	138.806	0.050	-0.064
-432.676	-200.000	0.007	0.296
-431.661	-81.201	0.236	0.077
-430.646	-135.622	-0.101	-0.012
-429.632	481.586	0.054	-0.121
-428.617	-13.526	0.135	-0.086
-427.603	-78.906	-0.374	-0.125
-426.588	198.832	-0.087	-0.132
-425.573	-56.680	-0.028	0.012
-424.559	800.000	0.022	-0.066
-423.544	740.425	0.064	0.169
-422.530	-200.000	0.041	0.222
-421.515	190.002	-0.109	-0.162
-420.500	30.984	-0.093	0.078
-419.486	178.332	0.111	-0.160
-418.471	-200.000	-0.003	-0.024
-417.457	-200.000	-0.011	0.057
-416.442	-13.730	-0.311	0.198
-415.428	-101.786	0.237	0.056
-414.413	-121.360	0.301	-0.049
-413.398	-71.000	0.303	-0.112
-412.384	55.670	-0.141	-0.134
-411.369	-200.000	0.000	-0.187
-410.355	-49.460	-0.228	0.107
-409.340	-84.253	-0.045	0.014
-408.325	800.000	0.032	-0.098
-407.311	-3.022	0.120	-0.082
-406.296	-200.000	0.079	0.432
-405.282	287.605	-0.063	0.113
-404.267	66.040	0.099	-0.099
-403.252	63.431	-0.095	0.094
-402.238	-99.518	0.215	-0.053
-401.223	321.463	-0.049	0.093
-400.209	32.637	0.074	0.063
-399.194	-16.246	-0.194	-0.121
-398.179	125.916	0.207	0.257
-397.165	248.250	-0.193	0.321
-396.150	-138.671	0.273	0.029
-395.136	-200.000	-0.000	-0.289
-394.121	304.507	-0.034	-0.062
-393.106	-200.000	-0.020	0.176
-392.092	-200.000	-0.018	0.131
-391.077	800.000	-0.034	0.111
-390.063	-200.000	0.004	0.265
-389.048	-200.000	-0.035	0.297
-388.033	-83.008	0.299	0.095
-387.019	-6.646	0.023	0.016
-386.004	5.413	-0.371	-0.269
-384.990	-200.000	0.205	0.000
-383.975	-119.513	-0.241	-0.041
-382.960	106.045	0.368	-0.429
-381.946	-75.326	-0.074	-0.026
-380.931	-116.915	-0.167	0.030
-379.917	-200.000	0.001	-0.214
-378.902	785.507	-0.026	0.070
-377.888	-200.000	0.042	-0.246
-376.873	-48.367	0.230	0.109
-375.858	800.000	-0.084	0.230
-374.844	-98.960	-0.239	0.060
-373.829	-200.000	0.003	-0.137
-372.815	295.403	-0.107	-0.192
-371.800	-25.546	-0.276	0.160
-370.785	185.356	0.187	-0.273
-369.771	-23.934	0.142	0.083
-368.756	-194.040	0.169	-0.001
-367.742	800.000	-0.031	0.110
-366.727	-200.000	0.005	0.206
-365.712	186.558	-0.139	0.203
-364.698	1.080	0.167	-0.117
-363.683	26.198	-0.049	-0.040
-362.669	97.901	-0.090	0.101
-361.654	648.804	0.131	0.331
-360.639	-200.000	-0.054	-0.417
-359.625	-147.127	0.213	-0.018
-358.610	-200.000	-0.026	-0.151
-357.596	44.273	0.208	0.187
-356.581	-200.000	0.004	-0.020
-355.566	-93.372	-0.312	0.085
-354.552	800.000	0.139	-0.384
-353.537	-24.563	0.081	0.047
-352.523	-54.287	0.284	-0.127
-351.508	82.124	0.131	0.140
-350.493	-29.798	-0.256	-0.143
-349.479	-87.778	-0.315	-0.093
-348.464	320.604	0.105	-0.195
-347.450	-200.000	0.017	-0.114
-346.435	800.000	-0.085	-0.256
-345.420	18.646	0.134	-0.105
-344.406	165.370	0.182	0.253
-343.391	-47.591	0.158	0.076
-342.377	771.345	0.138	0.368
-341.362	-134.197	0.190	-0.023
-340.348	-112.637	-0.033	0.006
-339.333	-134.549	-0.122	-0.015
-338.318	-200.000	0.040	-0.248
-337.304	-30.252	-0.209	0.116
-336.289	-200.000	0.007	0.064
-335.275	-200.000	0.021	-0.212
-334.260	-143.357	-0.393	-0.037
-333.245	-200.000	-0.071	0.362
-332.231	161.720	-0.066	0.090
-331.216	371.423	-0.032	0.063
-330.202	130.349	-0.244	-0.307
-329.187	627.986	0.135	-0.334
-328.172	309.247	0.137	0.252
-327.158	135.254	-0.066	0.084
-326.143	27.224	-0.112	0.092
-325.129	-89.827	-0.176	-0.051
-324.114	633.052	-0.137	-0.341
-323.099	800.000	-0.179	-0.576
-322.085	257.017	0.128	0.215
-321.070	289.681	-0.176	0.314
-320.056	154.986	0.203	-0.274
-319.041	-5.374	-0.073	-0.049
-318.026	312.381	0.185	0.341
-317.012	109.480	0.298	-0.350
-315.997	522.108	-0.129	-0.297
-314.983	800.000	0.092	0.286
-313.968	46.770	-0.152	0.139
-312.953	-107.251	-0.332	0.072
-311.939	215.850	0.143	0.223
-310.924	180.313	0.216	0.310
-309.910	80.087	-0.346	0.365
-308.895	253.142	-0.148	0.248
-307.880	194.340	0.144	-0.214
-306.866	-200.000	0.062	0.271
-305.851	-200.000	0.014	0.360
-304.837	234.960	-0.031	0.051
-303.822	-91.953	0.296	-0.082
-302.807	137.980	0.062	0.079
-301.793	-88.953	-0.258	-0.075
-300.778	30.864	0.189	0.159
-299.764	-200.000	0.001	0.024
-298.749	800.000	0.121	0.456
-297.735	209.802	0.131	0.201
-296.720	118.052	0.049	-0.060
-295.705	-143.406	0.201	-0.019
-294.691	-200.000	-0.015	0.187
-293.676	525.410	-0.050	0.116
-292.662	-200.000	-0.017	0.251
-291.647	-200.000	-0.006	0.347
-290.632	-200.000	-0.003	-0.021
-289.618	800.000	-0.140	-0.379
-288.603	107.628	0.069	-0.080
-287.589	201.541	-0.080	-0.121
-286.574	156.208	-0.279	-0.377
-285.559	-119.361	-0.151	-0.026
-284.545	-158.163	-0.256	-0.015
-283.530	-31.860	-0.296	-0.162
-282.516	209.499	0.102	-0.156
-281.501	800.000	-0.080	0.264
-280.486	800.000	-0.032	0.135
-279.472	205.029	-0.173	0.262
-278.457	254.040	0.053	-0.088
-277.443	800.000	0.075	0.252
-276.428	-2.146	-0.218	0.150
-275.413	800.000	0.096	-0.302
-274.399	746.094	0.031	0.083
-273.384	800.000	-0.044	-0.152
-272.370	62.105	-0.183	-0.179
-271.355	-150.707	0.062	-0.005
-270.340	66.758	-0.059	0.059
-269.326	-187.820	-0.328	-0.004
-268.311	-200.000	0.021	-0.326
-267.297	-8.422	0.317	-0.208
-266.282	349.248	0.136	-0.263
-265.267	-69.885	-0.138	0.052
-264.253	74.532	0.198	0.204
-263.238	-66.382	-0.121	-0.047
-262.224	-200.000	-0.033	0.145
-261.209	182.602	0.055	-0.080
-260.195	324.732	-0.068	0.128
-259.180	-46.099	0.321	-0.155
-258.165	404.603	-0.131	0.270
-257.151	-97.688	-0.095	0.024
-256.136	-77.822	-0.343	-0.116
-255.122	-93.054	-0.230	0.063
-254.107	-200.000	-0.041	-0.251
-253.092	-79.924	0.267	0.088
-252.078	-200.000	-0.025	-0.288
-251.063	-38.221	0.202	0.105
-250.049	-66.336	-0.106	-0.041
-249.034	179.303	-0.269	-0.385
-248.019	-124.112	-0.213	-0.033
-247.005	9.565	0.241	0.179
-245.990	-26.491	0.227	-0.130
-244.976	-78.418	0.060	-0.020
-243.961	333.245	0.175	0.331
-242.946	-36.946	0.472	0.247
-241.932	61.853	-0.142	0.138
-240.917	-14.700	0.258	0.162
-239.903	-53.519	0.218	-0.097
-238.888	-200.000	0.009	0.120
-237.873	-108.913	-0.190	-0.040
-236.859	49.941	0.250	0.231
-235.844	-52.525	0.596	-0.269
-234.830	489.469	0.079	0.176
-233.815	104.001	-0.250	-0.288
-232.800	-130.196	-0.348	-0.046
-231.786	-41.645	0.189	-0.095
-230.771	800.000	-0.077	-0.216
-229.757	303.047	0.108	-0.196
-228.742	131.614	-0.139	-0.175
-227.727	51.159	0.153	-0.142
-226.713	-200.000	-0.007	-0.184
-225.698	28.742	0.253	0.209
-224.684	800.000	-0.029	0.110
-223.669	-123.416	0.433	-0.067
-222.655	-12.054	-0.341	-0.218
-221.640	-200.000	-0.007	0.068
-220.625	-81.771	0.350	-0.112
-219.611	504.682	-0.062	-0.140
-218.596	61.682	0.110	-0.107
-217.582	-60.735	0.179	0.074
-216.567	562.382	0.037	-0.087
-215.552	800.000	-0.079	-0.272
-214.538	376.712	0.163	0.325
-213.523	393.803	-0.047	-0.096
-212.509	-18.433	0.096	-0.058
-211.494	447.893	0.124	-0.267
-210.479	-108.884	-0.476	-0.099
-209.465	109.766	-0.178	-0.208
-208.450	-137.617	-0.473	0.052
-207.436	-83.279	0.259	-0.081
-206.421	-87.141	-0.218	-0.065
-205.406	587.738	-0.160	0.384
-204.392	-94.773	0.273	-0.072
-203.377	-200.000	0.024	-0.125
-202.363	626.832	0.018	0.045
-201.348	-200.000	0.045	-0.299
-200.333	203.817	0.167	0.253
-199.319	-36.302	-0.107	-0.056
-198.304	96.526	-0.058	0.065
-197.290	-25.172	0.109	0.063
-196.275	-51.864	-0.152	-0.069
-195.260	94.501	0.236	0.262
-194.246	-133.700	0.126	-0.015
-193.231	800.000	0.045	0.174
-192.217	-136.399	-0.224	0.025
-191.202	-110.561	-0.084	0.017
-190.187	-97.151	-0.341	0.087
-189.173	-47.513	-0.142	0.067
-188.158	6.424	0.146	-0.106
-187.144	-101.753	-0.255	0.060
-186.129	-102.278	0.236	0.055
-185.114	104.071	-0.235	0.269
-184.100	44.434	-0.191	0.171
-183.085	72.940	-0.208	-0.212
-182.071	-127.959	-0.295	-0.041
-181.056	37.807	0.180	0.156
-180.042	-90.904	0.250	0.070
-179.027	5.682	0.129	-0.093
-178.012	347.087	0.077	0.148
-176.998	-116.747	0.353	-0.063
-175.983	-200.000	0.000	0.003
-174.969	-25.625	0.131	0.075
-173.954	-51.397	-0.146	0.067
-172.939	51.266	-0.404	0.374
-171.925	-200.000	-0.021	-0.148
-170.910	-17.729	0.055	-0.034
-169.896	-200.000	-0.088	0.378
-168.881	-94.660	-0.220	0.058
-167.866	-29.716	-0.107	-0.060
-166.852	-171.196	-0.118	0.004
-165.837	-54.865	0.277	0.122
-164.823	-141.710	0.296	-0.029
-163.808	800.000	0.089	0.289
-162.793	800.000	0.061	-0.189
-161.779	444.824	-0.029	0.062
-160.764	-60.549	-0.113	-0.047
-159.750	72.646	0.139	0.142
-158.735	9.046	-0.059	0.043
-157.720	80.095	0.167	-0.176
-156.706	393.530	0.080	0.162
-155.691	800.000	0.052	-0.173
-154.677	-79.606	-0.100	-0.033
-153.662	800.000	0.022	0.063
-152.647	43.697	-0.255	0.227
-151.633	-200.000	-0.041	0.427
-150.618	278.737	0.265	-0.460
-149.604	800.000	0.049	0.157
-148.589	57.580	-0.248	0.237
-147.574	53.754	0.132	-0.124
-146.560	161.779	0.065	-0.089
-145.545	525.423	-0.079	-0.182
-144.531	-200.000	0.050	0.291
-143.516	61.085	0.197	-0.191
-142.502	546.681	-0.119	-0.278
-141.487	-200.000	0.012	0.331
-140.472	27.352	-0.177	-0.145
-139.458	139.886	-0.137	-0.175
-138.443	61.596	-0.120	-0.116
-137.429	-48.804	-0.265	-0.124
-136.414	-200.000	-0.010	-0.092
-135.399	46.704	0.344	-0.312
-134.385	160.659	0.275	-0.374
-133.370	-193.898	0.213	0.002
-132.356	-116.245	-0.093	-0.017
-131.341	-35.822	0.119	-0.063
-130.326	-92.425	-0.192	-0.052
-129.312	-200.000	0.035	-0.338
-128.297	201.153	-0.124	-0.185
-127.283	-52.124	0.399	0.180
-126.268	260.143	0.038	0.064
-125.253	-131.297	0.296	0.038
-124.239	17.857	-0.137	-0.106
-123.224	-63.250	-0.248	0.099
-122.210	14.482	-0.170	-0.129
