DTS Sentinel unit serial number:	SN413079Multiplexer serial number:	ORYXHardware model number:	OX4-SRSoftware version number:	ORYX F/W v4.00 Oryx Data Collector v3.7.2.0data status	okinstallation	princeton_trtdifferential loss correction	single-endedforward channel	channel 2reverse channel	N/Adate	2019/09/16time	23:23:35forward acquisition time	60.00reverse acquisition time	0.00gamma	496.2192k internal	0.2330k external	0.2330temperature offset calibration	0.9973default loss term (dB/km)	0.3790temperature slope calibration	1.0000multiplexer offset coefficient	1.0000multiplexer slope coefficient	1.0000fibre end	0.00T internal ref (°C)	29.98T ext. ref 1 (°C)	0.09T ext. ref 2 (°C)	23.64length (m)	temperature (°C)	Stokes	anti-Stokes-747.200	79.511	-0.150	-0.162
-746.185	82.685	-0.189	0.207
-745.171	161.917	0.077	-0.109
-744.156	309.863	0.120	0.226
-743.142	165.697	-0.067	0.096
-742.127	-200.000	0.015	0.367
-741.112	151.896	0.205	0.282
-740.098	-139.865	0.152	-0.016
-739.083	-94.728	-0.047	0.013
-738.069	-200.000	-0.032	0.163
-737.054	-200.000	-0.023	-0.144
-736.039	-110.777	-0.129	-0.027
-735.025	15.167	0.054	0.043
-734.010	-34.269	0.210	0.116
-732.996	-200.000	0.026	-0.309
-731.981	-200.000	-0.002	0.070
-730.966	-95.043	-0.236	-0.064
-729.952	-196.598	0.175	0.001
-728.937	-197.927	-0.211	0.001
-727.923	-72.871	0.117	0.043
-726.908	-0.663	-0.151	0.107
-725.894	272.510	0.115	0.205
-724.879	2.329	-0.204	-0.149
-723.864	125.130	-0.106	-0.135
-722.850	-200.000	0.027	-0.133
-721.835	-64.749	-0.205	-0.084
-720.821	48.122	-0.104	0.098
-719.806	-104.945	-0.235	0.054
-718.791	208.293	0.088	0.138
-717.777	-172.464	0.116	0.004
-716.762	448.707	0.076	-0.169
-715.748	13.088	0.043	-0.033
-714.733	-200.000	-0.018	-0.082
-713.718	-75.838	0.354	-0.126
-712.704	-200.000	-0.015	-0.222
-711.689	41.052	-0.275	0.250
-710.675	-53.679	0.196	0.090
-709.660	100.403	0.216	0.252
-708.645	189.541	0.018	0.028
-707.631	65.162	0.091	-0.092
-706.616	-134.813	-0.138	-0.017
-705.602	-52.130	-0.069	0.032
-704.587	800.000	-0.070	-0.199
-703.572	233.582	-0.085	0.141
-702.558	191.363	-0.131	-0.198
-701.543	-200.000	-0.012	0.222
-700.529	-68.130	-0.382	0.149
-699.514	-71.543	0.484	-0.182
-698.499	-125.226	0.170	0.026
-697.485	-64.341	0.223	-0.091
-696.470	-200.000	-0.005	-0.327
-695.456	-200.000	-0.024	-0.332
-694.441	106.949	0.142	0.169
-693.426	-115.359	-0.213	0.040
-692.412	800.000	-0.076	0.299
-691.397	-121.886	-0.248	-0.041
-690.383	-38.190	-0.088	0.047
-689.368	175.931	-0.126	0.184
-688.354	-178.572	0.189	0.004
-687.339	-113.823	0.238	0.047
-686.324	125.392	-0.293	-0.372
-685.310	461.626	-0.046	0.104
-684.295	-200.000	-0.007	0.058
-683.281	342.216	-0.047	0.092
-682.266	231.391	0.030	-0.049
-681.251	-154.636	0.160	0.011
-680.237	377.530	-0.076	0.155
-679.222	-77.329	0.309	-0.108
-678.208	-200.000	-0.001	0.021
-677.193	605.994	-0.118	0.295
-676.178	-200.000	0.020	0.163
-675.164	10.658	0.143	-0.109
-674.149	800.000	-0.103	-0.291
-673.135	800.000	0.080	0.233
-672.120	-45.339	-0.186	-0.093
-671.105	515.336	0.131	0.307
-670.091	483.060	0.166	-0.380
-669.076	800.000	-0.097	0.404
-668.062	800.000	-0.019	-0.059
-667.047	255.194	-0.202	-0.347
-666.032	800.000	-0.040	-0.164
-665.018	-200.000	-0.042	0.189
-664.003	800.000	-0.056	-0.207
-662.989	-131.178	-0.229	-0.031
-661.974	-83.774	0.322	0.103
-660.959	-4.680	0.239	0.165
-659.945	-71.690	-0.425	-0.159
-658.930	-123.965	0.054	-0.008
-657.916	800.000	-0.022	-0.082
-656.901	-50.042	-0.277	0.132
-655.886	45.747	-0.241	-0.224
-654.872	200.006	0.342	-0.526
-653.857	-95.847	-0.058	0.016
-652.843	63.746	-0.226	-0.228
-651.828	503.068	-0.067	0.155
-650.814	-65.321	-0.187	0.076
-649.799	800.000	-0.051	0.159
-648.784	434.065	-0.119	-0.260
-647.770	118.876	-0.088	-0.109
-646.755	-89.770	0.058	0.017
-645.741	-200.000	-0.045	-0.222
-644.726	-200.000	0.015	0.135
-643.711	-200.000	0.012	-0.147
-642.697	-74.501	-0.415	-0.150
-641.682	79.944	0.089	0.096
-640.668	-124.678	-0.255	0.040
-639.653	-84.765	0.247	-0.078
-638.638	69.763	0.127	0.131
-637.624	103.919	-0.298	0.351
-636.609	693.962	-0.097	0.256
-635.595	800.000	-0.033	-0.136
-634.580	44.559	0.168	0.155
-633.565	-200.000	0.064	-0.305
-632.551	100.098	0.089	-0.104
-631.536	-61.673	0.235	0.099
-630.522	336.835	-0.171	-0.334
-629.507	800.000	-0.052	0.203
-628.492	35.105	-0.134	0.118
-627.478	800.000	0.089	-0.263
-626.463	-200.000	-0.007	0.351
-625.449	800.000	-0.030	-0.101
-624.434	-200.000	-0.008	-0.138
-623.419	276.877	-0.120	0.214
-622.405	-31.134	0.228	-0.129
-621.390	488.784	0.030	-0.069
-620.376	23.411	-0.242	-0.200
-619.361	719.191	-0.024	-0.064
-618.346	49.399	-0.365	-0.344
-617.332	57.379	0.084	0.082
-616.317	-97.862	0.532	-0.138
-615.303	-200.000	0.018	0.100
-614.288	-136.756	-0.218	0.025
-613.273	32.953	-0.286	-0.248
-612.259	-200.000	0.005	0.072
-611.244	-200.000	0.041	-0.264
-610.230	-170.065	-0.212	0.008
-609.215	21.784	0.219	0.178
-608.201	54.514	0.090	-0.087
-607.186	402.849	-0.007	-0.014
-606.171	-200.000	0.001	0.093
-605.157	-200.000	-0.011	-0.312
-604.142	-122.408	-0.306	0.050
-603.128	-200.000	-0.011	0.104
-602.113	-124.230	-0.145	0.023
-601.098	-163.483	-0.079	-0.004
-600.084	170.396	0.061	-0.088
-599.069	65.968	0.045	-0.046
-598.055	800.000	-0.090	0.266
-597.040	800.000	0.090	-0.307
-596.025	18.707	-0.205	-0.164
-595.011	98.445	0.132	0.152
-593.996	16.865	-0.265	-0.210
-592.982	-155.301	-0.268	0.017
-591.967	-36.261	-0.054	-0.029
-590.952	800.000	0.073	-0.226
-589.938	148.028	0.031	0.042
-588.923	109.074	-0.280	-0.335
-587.909	-175.567	-0.082	0.002
-586.894	-81.758	0.029	0.010
-585.879	-64.500	-0.020	-0.008
-584.865	79.284	-0.180	0.193
-583.850	-110.324	0.202	0.042
-582.836	-200.000	0.021	-0.098
-581.821	151.307	-0.081	0.110
-580.806	-37.239	0.170	0.091
-579.792	-99.475	0.065	-0.016
-578.777	2.099	-0.287	-0.207
-577.763	-200.000	-0.030	0.157
-576.748	-73.627	0.431	0.157
-575.733	-200.000	-0.050	0.403
-574.719	66.117	0.125	0.126
-573.704	0.521	0.159	0.114
-572.690	-110.764	-0.189	0.039
-571.675	-161.106	0.244	0.013
-570.661	69.731	0.349	-0.360
-569.646	-83.149	-0.077	0.025
-568.631	800.000	0.096	-0.268
-567.617	-200.000	0.043	-0.225
-566.602	-123.877	-0.420	-0.066
-565.588	-69.323	-0.504	-0.193
-564.573	-200.000	0.032	-0.351
-563.558	-52.987	-0.076	0.035
-562.544	-21.930	-0.227	-0.138
-561.529	112.547	-0.047	0.057
-560.515	800.000	0.057	-0.216
-559.500	29.492	0.132	-0.112
-558.485	-200.000	-0.014	-0.075
-557.471	27.231	0.141	0.118
-556.456	-38.647	-0.108	-0.057
-555.442	-200.000	-0.034	-0.341
-554.427	-160.637	0.116	0.006
-553.412	-200.000	0.010	0.255
-552.398	7.350	-0.365	-0.273
-551.383	432.719	0.101	0.220
-550.369	-14.153	-0.484	-0.312
-549.354	-200.000	0.038	-0.179
-548.339	158.881	0.147	0.204
-547.325	232.966	0.171	0.281
-546.310	161.093	0.237	0.331
-545.296	-10.363	0.239	-0.158
-544.281	-121.300	0.164	0.027
-543.266	-200.000	0.019	-0.104
-542.252	-7.720	0.125	0.084
-541.237	-151.194	-0.396	-0.030
-540.223	146.769	-0.133	-0.178
-539.208	-200.000	-0.003	-0.214
-538.193	-200.000	0.114	0.580
-537.179	231.014	-0.127	0.208
-536.164	-75.498	0.135	-0.048
-535.150	-54.223	-0.205	0.093
-534.135	-200.000	-0.033	-0.194
-533.121	-94.037	-0.214	0.059
-532.106	-200.000	-0.012	-0.087
-531.091	800.000	-0.051	0.166
-530.077	-20.453	-0.162	0.100
-529.062	-87.997	-0.168	0.050
-528.048	-200.000	0.022	-0.149
-527.033	176.829	0.128	0.186
-526.018	800.000	0.141	0.411
-525.004	800.000	0.051	0.162
-523.989	190.429	0.158	-0.237
-522.975	-100.489	-0.335	-0.083
-521.960	328.687	-0.112	0.215
-520.945	-200.000	0.021	0.187
-519.931	263.341	0.041	-0.072
-518.916	23.140	-0.079	-0.065
-517.902	169.114	-0.050	-0.071
-516.887	-33.093	0.132	-0.073
-515.872	-126.981	0.102	-0.015
-514.858	319.654	0.113	0.214
-513.843	107.181	0.228	0.270
-512.829	800.000	0.050	-0.212
-511.814	-157.036	0.266	-0.016
-510.799	419.569	0.171	-0.366
-509.785	800.000	0.064	0.208
-508.770	-184.577	0.183	0.003
-507.756	800.000	0.012	-0.033
-506.741	800.000	-0.046	-0.185
-505.726	-200.000	-0.039	-0.343
-504.712	-82.178	0.165	0.054
-503.697	289.285	-0.175	0.316
-502.683	-154.952	-0.233	0.015
-501.668	-111.722	-0.156	-0.032
-500.653	-94.503	0.448	-0.122
-499.639	2.575	-0.029	0.021
-498.624	800.000	0.036	0.149
-497.610	10.598	0.605	0.460
-496.595	-200.000	0.007	0.178
-495.581	-16.874	0.193	-0.122
-494.566	-41.213	0.350	0.180
-493.551	800.000	0.040	-0.157
-492.537	-200.000	-0.056	-0.262
-491.522	313.860	-0.064	-0.119
-490.508	-142.193	0.351	0.035
-489.493	3.526	-0.123	0.089
-488.478	144.902	0.011	-0.015
-487.464	800.000	0.062	0.266
-486.449	-45.133	-0.303	-0.150
-485.435	380.562	-0.123	-0.251
-484.420	-75.901	0.219	0.077
-483.405	-200.000	0.006	0.048
-482.391	800.000	0.075	0.253
-481.376	800.000	-0.014	0.051
-480.362	-125.497	0.234	-0.035
-479.347	-135.004	-0.010	-0.001
-478.332	298.822	-0.151	0.277
-477.318	-200.000	-0.014	0.109
-476.303	-183.132	0.202	0.004
-475.289	-107.971	-0.260	0.056
-474.274	2.050	-0.175	-0.126
-473.259	11.562	-0.293	0.224
-472.245	-200.000	-0.034	-0.195
-471.230	46.003	-0.131	0.121
-470.216	800.000	-0.122	-0.381
-469.201	-200.000	0.009	0.099
-468.186	-200.000	0.293	0.001
-467.172	4.775	-0.169	0.123
-466.157	-200.000	-0.052	-0.428
-465.143	228.001	0.267	0.433
-464.128	142.747	-0.134	-0.178
-463.113	134.539	-0.056	-0.072
-462.099	19.281	0.197	-0.157
-461.084	-167.138	-0.471	0.019
-460.070	-15.874	-0.306	0.194
-459.055	-176.182	0.043	0.001
-458.040	193.013	0.044	-0.067
-457.026	-180.321	-0.367	0.008
-456.011	-200.000	0.040	-0.293
-454.997	-83.927	-0.309	-0.098
-453.982	-33.178	-0.082	-0.045
-452.968	616.644	0.085	-0.212
-451.953	-146.931	0.738	0.063
-450.938	-73.726	-0.149	0.054
-449.924	301.180	0.054	0.100
-448.909	-44.742	0.110	-0.055
-447.895	262.616	0.042	0.073
-446.880	-74.611	0.137	0.049
-445.865	-200.000	0.090	0.463
-444.851	-200.000	0.041	0.243
-443.836	-200.000	-0.005	-0.161
-442.822	-150.826	0.109	-0.008
-441.807	-82.006	0.464	-0.151
-440.792	-200.000	0.005	-0.136
-439.778	-200.000	-0.035	-0.290
-438.763	9.717	0.117	0.088
-437.749	-48.543	-0.121	0.058
-436.734	-69.951	0.256	0.097
-435.719	-200.000	0.009	0.099
-434.705	251.057	0.065	0.111
-433.690	177.189	-0.091	-0.132
-432.676	264.021	-0.111	-0.192
-431.661	-200.000	0.078	-0.469
-430.646	-111.148	0.206	0.042
-429.632	-54.714	-0.172	0.077
-428.617	-200.000	-0.010	0.045
-427.603	233.885	0.158	-0.258
-426.588	-18.674	-0.174	-0.108
-425.573	-200.000	-0.006	-0.265
-424.559	324.414	-0.096	0.182
-423.544	13.759	-0.237	0.183
-422.530	-78.209	-0.353	-0.121
-421.515	45.064	-0.021	0.019
-420.500	-106.389	-0.222	-0.049
-419.486	408.106	0.069	0.145
-418.471	-37.747	0.153	-0.081
-417.457	-1.284	0.237	0.166
-416.442	-54.481	-0.095	-0.043
-415.428	318.270	-0.072	-0.135
-414.413	-200.000	0.016	-0.071
-413.398	124.999	0.275	0.345
-412.384	-11.394	0.127	-0.083
-411.369	-38.810	0.151	-0.079
-410.355	-115.596	0.123	0.023
-409.340	124.771	0.093	0.117
-408.325	-55.175	0.267	0.119
-407.311	743.483	0.076	0.204
-406.296	25.974	0.121	-0.100
-405.282	-30.317	-0.118	0.066
-404.267	-84.894	0.308	0.096
-403.252	242.900	-0.107	0.179
-402.238	233.329	0.165	0.270
-401.223	-127.588	-0.238	0.034
-400.209	-31.676	0.058	-0.032
-399.194	772.539	-0.051	0.139
-398.179	-200.000	-0.060	0.283
-397.165	-73.300	-0.228	0.083
-396.150	800.000	0.020	-0.081
-395.136	-73.914	0.197	0.071
-394.121	-200.000	0.013	-0.435
-393.106	314.419	-0.095	-0.177
-392.092	-153.795	0.506	-0.034
-391.077	-109.539	0.127	-0.027
-390.063	27.554	-0.149	-0.124
-389.048	-200.000	-0.001	0.131
-388.033	234.535	0.172	0.281
-387.019	372.850	0.056	-0.113
-386.004	-0.728	0.386	-0.272
-384.990	104.918	-0.136	-0.160
-383.975	-69.915	0.234	-0.089
-382.960	-200.000	0.216	0.001
-381.946	176.136	-0.160	0.230
-380.931	485.331	0.143	-0.323
-379.917	19.215	0.352	-0.280
-378.902	-92.727	-0.130	-0.036
-377.888	-200.000	-0.022	0.199
-376.873	-200.000	-0.010	0.273
-375.858	800.000	0.076	-0.302
-374.844	800.000	-0.065	-0.275
-373.829	-12.855	0.349	0.226
-372.815	-100.996	0.119	-0.029
-371.800	-74.707	-0.106	-0.038
-370.785	-46.459	-0.104	0.051
-369.771	-36.596	-0.202	0.108
-368.756	13.604	-0.241	0.186
-367.742	10.885	-0.119	-0.090
-366.727	309.659	0.137	0.254
-365.712	-82.783	-0.270	0.087
-364.698	800.000	0.030	0.103
-363.683	-73.416	0.327	-0.119
-362.669	54.341	0.136	-0.130
-361.654	36.133	-0.050	0.044
-360.639	13.625	0.106	-0.082
-359.625	237.918	-0.189	0.311
-358.610	-200.000	-0.045	-0.241
-357.596	-200.000	0.011	0.183
-356.581	265.393	-0.065	0.112
-355.566	-200.000	-0.035	0.194
-354.552	-82.766	0.066	-0.021
-353.537	-89.267	0.037	-0.011
-352.523	212.409	0.128	0.199
-351.508	73.498	0.162	0.168
-350.493	245.970	-0.097	-0.162
-349.479	484.643	0.142	0.320
-348.464	-18.601	0.059	0.036
-347.450	157.506	-0.026	0.036
-346.435	287.739	-0.069	-0.123
-345.420	-127.761	-0.411	0.059
-344.406	68.059	-0.122	0.124
-343.391	800.000	0.078	0.283
-342.377	49.267	-0.129	0.120
-341.362	63.993	-0.265	0.264
-340.348	83.767	-0.313	0.339
-339.333	270.637	0.118	0.206
-338.318	410.952	-0.195	-0.411
-337.304	254.945	-0.199	-0.338
-336.289	-200.000	0.051	-0.231
-335.275	-143.779	0.282	0.026
-334.260	-200.000	0.044	-0.206
-333.245	-22.278	0.320	0.192
-332.231	-157.570	0.182	0.011
-331.216	-148.108	0.561	-0.046
-330.202	-15.779	-0.176	-0.111
-329.187	-154.409	-0.213	0.014
-328.172	-2.840	-0.366	-0.253
-327.158	117.523	0.128	0.156
-326.143	258.064	-0.075	-0.129
-325.129	101.013	-0.264	-0.304
-324.114	-200.000	0.017	-0.084
-323.099	-165.257	-0.144	-0.006
-322.085	59.093	-0.117	0.114
-321.070	228.610	0.159	-0.256
-320.056	76.987	-0.300	0.316
-319.041	-200.000	-0.010	-0.057
-318.026	-79.073	-0.076	0.026
-317.012	-66.865	0.298	0.117
-315.997	-200.000	-0.002	0.032
-314.983	800.000	-0.046	-0.150
-313.968	18.503	0.211	0.167
-312.953	-4.235	-0.124	0.085
-311.939	28.667	0.085	0.071
-310.924	-68.522	0.286	0.110
-309.910	385.452	0.144	0.294
-308.895	11.662	0.145	-0.110
-307.880	484.206	-0.120	-0.271
-306.866	79.157	-0.035	-0.037
-305.851	-145.843	-0.200	0.018
-304.837	-200.000	-0.060	-0.294
-303.822	-159.697	0.027	0.001
-302.807	366.010	-0.248	0.495
-301.793	-160.358	-0.209	0.011
-300.778	-200.000	-0.011	-0.337
-299.764	-200.000	-0.056	0.277
-298.749	474.073	0.046	0.103
-297.735	109.618	0.144	-0.170
-296.720	162.617	0.261	-0.362
-295.705	-112.368	-0.279	-0.055
-294.691	800.000	0.088	0.247
-293.676	409.814	0.092	-0.193
-292.662	-20.842	0.164	-0.099
-291.647	-71.100	0.441	-0.164
-290.632	-152.965	-0.175	-0.012
-289.618	43.385	-0.233	0.211
-288.603	-200.000	0.021	0.284
-287.589	-106.494	-0.198	0.044
-286.574	157.563	-0.035	0.048
-285.559	-120.040	0.329	0.056
-284.545	-44.131	-0.232	0.115
-283.530	800.000	-0.078	0.257
-282.516	800.000	-0.109	-0.394
-281.501	599.600	0.123	-0.301
-280.486	128.529	-0.135	-0.171
-279.472	-36.124	-0.103	-0.055
-278.457	-26.707	-0.207	0.120
-277.443	286.346	-0.099	-0.177
-276.428	9.278	0.263	0.196
-275.413	-164.897	0.050	-0.002
-274.399	-119.636	-0.347	0.059
-273.384	-79.248	0.049	0.016
-272.370	-115.298	0.358	0.067
-271.355	-56.360	-0.219	0.096
-270.340	-49.236	0.266	0.126
-269.326	800.000	-0.121	-0.392
-268.311	-169.907	-0.425	0.015
-267.297	-93.066	0.136	0.037
-266.282	-112.956	-0.187	-0.037
-265.267	-182.714	0.372	0.007
-264.253	-200.000	-0.009	-0.326
-263.238	-64.752	0.309	-0.124
-262.224	-200.000	0.027	0.203
-261.209	-26.999	0.414	-0.239
-260.195	1.625	-0.255	-0.181
-259.180	-63.284	0.220	0.090
-258.165	735.702	-0.024	0.064
-257.151	-200.000	0.017	0.185
-256.136	-173.693	0.058	0.002
-255.122	37.101	0.170	-0.149
-254.107	-17.590	-0.173	-0.108
-253.092	-44.327	0.119	0.059
-252.078	800.000	-0.075	-0.303
-251.063	132.177	0.285	0.362
-250.049	92.164	-0.232	0.258
-249.034	546.831	-0.050	-0.117
-248.019	-35.939	-0.116	-0.062
-247.005	-21.912	0.079	-0.047
-245.990	113.810	0.036	0.043
-244.976	-200.000	0.009	0.100
-243.961	-153.143	0.449	-0.031
-242.946	-72.109	-0.067	0.024
-241.932	-200.000	-0.015	0.094
-240.917	50.386	-0.211	0.197
-239.903	81.510	-0.246	0.263
-238.888	-200.000	-0.002	-0.118
-237.873	800.000	0.105	0.297
-236.859	-30.343	0.172	0.096
-235.844	-81.676	0.187	-0.061
-234.830	-178.398	-0.155	-0.004
-233.815	49.157	0.031	0.029
-232.800	126.366	0.149	-0.187
-231.786	-38.155	-0.489	0.256
-230.771	800.000	0.063	-0.246
-229.757	-90.993	-0.444	-0.126
-228.742	-153.426	-0.145	0.010
-227.727	102.514	0.048	-0.055
-226.713	197.682	-0.086	-0.129
-225.698	45.135	-0.293	-0.266
-224.684	30.846	0.317	0.268
-223.669	-200.000	0.003	0.072
-222.655	204.332	0.093	0.143
-221.640	-52.696	-0.406	-0.185
-220.625	60.637	-0.244	0.239
-219.611	-16.755	0.259	-0.162
-218.596	-200.000	0.023	0.246
-217.582	18.084	0.376	0.296
-216.567	-47.446	-0.330	-0.158
-215.552	-200.000	-0.032	0.168
-214.538	590.461	0.219	0.533
-213.523	23.318	0.067	0.055
-212.509	87.579	0.035	0.039
-211.494	328.227	-0.196	-0.372
-210.479	51.838	0.343	0.322
-209.465	367.682	-0.111	0.220
-208.450	-89.643	-0.407	0.118
-207.436	-116.884	0.248	0.045
-206.421	362.999	-0.106	0.209
-205.406	-200.000	0.013	-0.099
-204.392	-6.977	-0.348	0.233
-203.377	120.862	0.204	-0.251
-202.363	15.590	-0.278	-0.215
-201.348	-91.425	-0.312	-0.088
-200.333	241.872	0.182	0.300
-199.319	-200.000	0.046	-0.381
-198.304	59.497	0.111	0.108
-197.290	360.887	0.064	0.126
-196.275	233.321	-0.167	-0.271
-195.260	-200.000	0.033	0.239
-194.246	800.000	-0.058	0.248
-193.231	168.877	0.060	0.084
-192.217	800.000	-0.037	0.155
-191.202	-200.000	-0.002	-0.056
-190.187	-99.738	-0.085	0.021
-189.173	8.740	0.201	-0.149
-188.158	32.844	-0.137	0.117
-187.144	-61.627	-0.173	0.072
-186.129	-200.000	0.000	0.116
-185.114	-46.073	0.034	0.016
-184.100	-200.000	0.011	0.312
-183.085	-49.201	0.246	-0.116
-182.071	35.289	-0.129	-0.112
-181.056	-200.000	0.001	-0.081
-180.042	-90.427	0.461	-0.132
-179.027	0.739	0.086	-0.061
-178.012	-94.048	0.234	0.063
-176.998	-200.000	0.019	-0.244
-175.983	-200.000	-0.096	-0.441
-174.969	57.821	0.086	0.083
-173.954	-118.698	-0.321	0.056
-172.939	-77.960	-0.344	-0.117
-171.925	51.463	-0.142	-0.133
-170.910	-64.072	0.156	0.063
-169.896	197.081	-0.045	0.067
-168.881	-60.714	-0.219	-0.091
-167.866	800.000	-0.075	-0.305
-166.852	-76.309	0.147	0.051
-165.837	-200.000	0.020	0.289
-164.823	264.254	0.019	0.033
-163.808	800.000	0.045	-0.158
-162.793	511.406	-0.082	-0.188
-161.779	-141.825	0.214	-0.021
-160.764	-151.432	-0.056	-0.004
-159.750	-200.000	-0.059	-0.556
-158.735	-42.573	-0.397	0.199
-157.720	439.554	0.106	0.228
-156.706	-200.000	0.097	0.491
-155.691	89.951	0.291	0.320
-154.677	-59.553	-0.225	-0.095
-153.662	800.000	0.111	-0.423
-152.647	257.466	0.086	-0.146
-151.633	107.786	-0.156	-0.183
-150.618	800.000	0.090	0.284
-149.604	-200.000	-0.025	-0.325
-148.589	800.000	-0.076	0.258
-147.574	800.000	0.104	-0.363
-146.560	178.595	-0.116	0.167
-145.545	65.303	0.233	0.232
-144.531	-32.798	-0.112	-0.061
-143.516	-57.565	0.085	-0.037
-142.502	-178.324	-0.132	0.003
-141.487	77.345	-0.167	0.175
-140.472	-141.389	0.288	-0.029
-139.458	111.318	0.242	-0.286
-138.443	-200.000	-0.001	-0.081
-137.429	436.077	0.133	-0.285
-136.414	-184.654	-0.164	-0.003
-135.399	800.000	-0.075	0.283
-134.385	-73.777	0.252	-0.090
-133.370	-146.631	-0.097	0.008
-132.356	-119.903	-0.301	0.051
-131.341	-116.185	-0.224	0.041
-130.326	800.000	-0.065	-0.184
-129.312	-161.400	0.169	0.009
-128.297	-167.748	-0.189	-0.007
-127.283	-84.846	-0.109	-0.034
-126.268	243.792	-0.054	-0.089
-125.253	124.811	-0.159	-0.196
-124.239	800.000	0.087	-0.283
-123.224	59.284	-0.129	0.125
-122.210	-164.766	0.059	0.003
-121.195	236.355	0.091	-0.148
