DTS Sentinel unit serial number:	SN413079Multiplexer serial number:	ORYXHardware model number:	OX4-SRSoftware version number:	ORYX F/W v4.00 Oryx Data Collector v3.7.2.0data status	okinstallation	princeton_trtdifferential loss correction	single-endedforward channel	channel 2reverse channel	N/Adate	2019/09/12time	08:13:11forward acquisition time	60.00reverse acquisition time	0.00gamma	496.2192k internal	0.2319k external	0.2319temperature offset calibration	1.0062default loss term (dB/km)	0.3790temperature slope calibration	1.0000multiplexer offset coefficient	1.0000multiplexer slope coefficient	1.0000fibre end	0.00T internal ref (°C)	33.31T ext. ref 1 (°C)	1.69T ext. ref 2 (°C)	30.02length (m)	temperature (°C)	Stokes	anti-Stokes-747.200	588.200	-0.066	-0.165
-746.185	-200.000	-0.043	0.382
-745.171	-82.564	0.209	0.068
-744.156	40.541	-0.067	-0.061
-743.142	-200.000	-0.019	0.121
-742.127	112.677	0.200	0.245
-741.112	-113.355	0.212	-0.042
-740.098	258.794	0.200	0.349
-739.083	124.585	-0.183	0.233
-738.069	-65.854	-0.203	0.082
-737.054	-120.645	0.200	0.034
-736.039	30.715	0.202	-0.175
-735.025	-87.024	0.183	0.056
-734.010	-104.544	-0.058	-0.014
-732.996	192.818	-0.102	0.155
-731.981	2.880	-0.099	-0.073
-730.966	493.862	-0.223	0.518
-729.952	480.653	-0.093	-0.214
-728.937	13.777	-0.372	-0.292
-727.923	-163.620	-0.256	0.012
-726.908	-22.981	-0.213	-0.130
-725.894	41.658	-0.125	0.115
-724.879	-27.430	-0.177	0.104
-723.864	103.827	0.037	0.044
-722.850	71.668	0.267	0.280
-721.835	-68.926	-0.280	-0.109
-720.821	119.405	0.141	-0.176
-719.806	46.689	-0.123	0.116
-718.791	-39.350	-0.229	0.121
-717.777	-4.599	0.016	0.011
-716.762	800.000	0.111	-0.356
-715.748	-33.070	-0.343	-0.192
-714.733	495.229	0.080	-0.185
-713.718	167.321	-0.102	0.147
-712.704	800.000	0.026	-0.103
-711.689	800.000	-0.046	-0.145
-710.675	41.377	-0.140	-0.128
-709.660	-39.672	0.378	0.200
-708.645	334.603	0.125	-0.245
-707.631	457.270	0.033	-0.074
-706.616	9.876	0.322	-0.247
-705.602	800.000	-0.103	0.445
-704.587	-200.000	0.011	0.339
-703.572	-200.000	0.011	-0.060
-702.558	263.094	0.186	-0.326
-701.543	45.041	-0.268	0.250
-700.529	-111.649	0.157	-0.032
-699.514	-93.393	0.188	0.053
-698.499	-150.575	0.134	0.010
-697.485	224.664	0.204	0.334
-696.470	10.822	0.044	0.034
-695.456	-200.000	-0.014	0.150
-694.441	23.912	-0.426	-0.355
-693.426	136.747	0.152	0.201
-692.412	-97.908	0.371	0.097
-691.397	800.000	-0.032	-0.109
-690.383	-69.882	-0.216	0.083
-689.368	268.084	0.111	-0.196
-688.354	-11.355	-0.149	-0.099
-687.339	-200.000	0.013	-0.083
-686.324	800.000	-0.058	-0.212
-685.310	-162.292	-0.412	-0.021
-684.295	146.981	-0.375	-0.509
-683.281	-56.155	-0.117	-0.053
-682.266	-200.000	-0.013	-0.168
-681.251	-200.000	-0.020	0.408
-680.237	333.637	0.076	0.148
-679.222	135.282	-0.043	-0.057
-678.208	-96.755	-0.250	0.066
-677.193	-200.000	-0.008	0.271
-676.178	81.414	-0.081	-0.088
-675.164	57.288	0.135	-0.133
-674.149	494.932	-0.187	-0.432
-673.135	83.821	0.210	-0.232
-672.120	37.376	-0.075	-0.067
-671.105	-200.000	0.005	0.192
-670.091	-200.000	0.000	-0.071
-669.076	800.000	-0.067	0.284
-668.062	-126.152	-0.152	-0.023
-667.047	393.556	0.154	0.323
-666.032	-142.051	0.348	-0.035
-665.018	-22.566	-0.227	-0.138
-664.003	-117.121	-0.265	-0.049
-662.989	-66.987	-0.301	-0.120
-661.974	-31.944	-0.315	0.178
-660.959	112.406	0.213	-0.259
-659.945	-148.698	0.198	0.016
-658.930	332.218	0.156	-0.304
-657.916	-200.000	0.000	-0.062
-656.901	33.173	-0.196	-0.171
-655.886	-200.000	0.041	-0.424
-654.872	-200.000	-0.079	-0.359
-653.857	247.217	-0.196	-0.333
-652.843	23.152	-0.197	-0.163
-651.828	92.353	-0.226	-0.257
-650.814	-104.527	-0.328	-0.076
-649.799	316.435	0.194	0.370
-648.784	-200.000	-0.004	-0.087
-647.770	240.832	0.053	0.089
-646.755	344.130	-0.146	-0.288
-645.741	-200.000	0.013	-0.103
-644.726	-103.473	-0.140	0.033
-643.711	-25.064	-0.301	-0.180
-642.697	-200.000	0.022	0.357
-641.682	165.747	0.123	0.176
-640.668	475.168	0.087	0.197
-639.653	125.972	0.108	0.137
-638.638	-131.130	0.356	-0.048
-637.624	-200.000	0.065	-0.388
-636.609	-200.000	-0.061	0.370
-635.595	-51.174	0.201	0.095
-634.580	551.264	-0.096	0.231
-633.565	-161.105	-0.137	0.007
-632.551	-89.357	0.189	0.056
-631.536	502.609	-0.164	-0.382
-630.522	-200.000	-0.049	-0.246
-629.507	-101.087	0.202	0.050
-628.492	278.520	0.046	-0.082
-627.478	-69.148	-0.032	-0.013
-626.463	-49.479	-0.248	-0.119
-625.449	-12.611	0.106	-0.070
-624.434	498.999	0.049	-0.113
-623.419	-106.387	-0.288	0.065
-622.405	-18.747	0.269	-0.169
-621.390	33.435	-0.162	-0.142
-620.376	137.401	0.047	-0.062
-619.361	-200.000	-0.031	0.185
-618.346	-34.182	-0.173	-0.096
-617.332	344.679	-0.110	0.216
-616.317	-93.590	0.080	-0.022
-615.303	-7.379	0.210	-0.143
-614.288	114.841	0.115	-0.142
-613.273	-142.276	0.239	0.024
-612.259	-67.596	0.349	0.138
-611.244	-38.113	0.092	0.049
-610.230	2.986	-0.246	0.180
-609.215	12.771	0.192	0.149
-608.201	9.751	0.118	0.090
-607.186	800.000	0.153	-0.589
-606.171	251.432	-0.185	-0.317
-605.157	182.275	-0.071	0.105
-604.142	-69.989	-0.300	0.115
-603.128	5.575	0.150	-0.111
-602.113	-90.512	-0.244	0.071
-601.098	-76.284	0.252	0.089
-600.084	-25.842	-0.224	0.132
-599.069	116.625	0.076	-0.094
-598.055	78.740	-0.260	0.280
-597.040	195.540	-0.120	0.184
-596.025	-45.919	0.125	-0.062
-595.011	800.000	-0.092	0.279
-593.996	-32.497	-0.253	0.142
-592.982	-200.000	-0.017	-0.236
-591.967	-16.272	-0.163	-0.104
-590.952	-15.249	-0.106	0.068
-589.938	-113.233	-0.466	-0.092
-588.923	-29.876	-0.403	0.231
-587.909	37.465	-0.059	0.053
-586.894	254.285	0.129	0.222
-585.879	-96.771	-0.202	-0.053
-584.865	567.244	-0.058	0.140
-583.850	174.454	-0.175	0.255
-582.836	800.000	0.025	-0.087
-581.821	-42.686	-0.106	0.054
-580.806	-200.000	0.032	0.000
-579.792	-55.837	-0.262	-0.117
-578.777	86.086	-0.121	0.134
-577.763	182.129	-0.171	0.253
-576.748	19.183	0.220	0.178
-575.733	38.197	-0.053	-0.048
-574.719	800.000	0.071	-0.242
-573.704	627.734	0.071	-0.179
-572.690	201.370	-0.169	0.261
-571.675	-149.963	0.388	0.030
-570.661	-29.232	-0.153	0.088
-569.646	-125.751	0.234	0.035
-568.631	26.581	-0.101	-0.085
-567.617	-170.092	-0.272	0.010
-566.602	144.282	0.024	-0.032
-565.588	90.890	-0.046	0.052
-564.573	-65.305	0.155	0.063
-563.558	236.732	0.080	0.132
-562.544	204.480	-0.057	-0.089
-561.529	17.848	-0.069	-0.055
-560.515	-125.096	-0.149	0.023
-559.500	334.051	-0.067	0.130
-558.485	-43.086	0.262	0.133
-557.471	-69.621	0.263	0.101
-556.456	-84.386	-0.174	-0.055
-555.442	209.870	-0.196	0.309
-554.427	-200.000	-0.006	-0.311
-553.412	-37.845	-0.147	0.078
-552.398	366.471	-0.105	-0.212
-551.383	-25.564	-0.217	0.129
-550.369	358.529	-0.025	0.050
-549.354	234.435	0.259	0.428
-548.339	-61.304	-0.194	-0.082
-547.325	-40.940	0.067	0.035
-546.310	800.000	0.033	-0.144
-545.296	-200.000	-0.010	0.271
-544.281	-200.000	-0.034	-0.331
-543.266	-28.788	0.170	0.098
-542.252	800.000	-0.042	0.154
-541.237	195.048	-0.116	-0.176
-540.223	-20.694	0.208	-0.128
-539.208	189.516	0.135	0.202
-538.193	-41.319	-0.022	-0.011
-537.179	342.447	-0.164	-0.322
-536.164	-12.634	0.043	0.028
-535.150	-200.000	0.012	0.160
-534.135	-118.816	-0.206	0.036
-533.121	-200.000	0.010	-0.104
-532.106	800.000	-0.016	0.048
-531.091	738.604	-0.048	-0.130
-530.077	296.681	-0.060	0.111
-529.062	-145.005	0.252	0.023
-528.048	26.761	0.182	0.153
-527.033	-42.211	-0.152	-0.078
-526.018	143.830	0.222	0.296
-525.004	577.958	0.077	-0.188
-523.989	685.974	0.127	-0.332
-522.975	722.275	0.142	-0.378
-521.960	126.625	0.239	-0.304
-520.945	-123.896	-0.354	-0.056
-519.931	38.693	0.073	-0.065
-518.916	-107.257	0.105	0.023
-517.902	186.810	0.220	-0.328
-516.887	-200.000	0.119	-0.616
-515.872	-18.325	0.213	-0.133
-514.858	800.000	-0.039	0.117
-513.843	-10.397	0.060	0.040
-512.829	33.386	0.155	0.135
-511.814	-85.241	-0.372	-0.117
-510.799	800.000	-0.029	0.095
-509.785	-17.465	-0.209	-0.132
-508.770	-67.289	-0.236	-0.093
-507.756	62.438	-0.224	-0.224
-506.741	-53.614	-0.283	-0.130
-505.726	-20.427	-0.075	-0.046
-504.712	137.710	-0.140	0.184
-503.697	149.865	-0.079	0.107
-502.683	313.606	0.111	-0.210
-501.668	668.437	-0.004	0.010
-500.653	29.953	-0.139	0.119
-499.639	-200.000	-0.025	0.164
-498.624	-17.909	0.125	0.079
-497.610	-200.000	0.054	0.243
-496.595	-200.000	0.021	0.110
-495.581	446.969	0.107	-0.236
-494.566	-91.715	0.311	-0.088
-493.551	-69.683	0.479	0.184
-492.537	27.602	-0.136	0.115
-491.522	-166.632	-0.297	-0.012
-490.508	603.761	0.072	-0.178
-489.493	74.709	-0.161	-0.170
-488.478	-173.897	0.147	0.004
-487.464	-170.798	-0.290	-0.010
-486.449	-200.000	-0.002	-0.091
-485.435	245.969	0.190	0.320
-484.420	-200.000	-0.005	-0.041
-483.405	-200.000	0.004	0.345
-482.391	-44.657	-0.291	0.146
-481.376	-20.068	-0.126	-0.078
-480.362	-164.204	-0.282	-0.013
-479.347	579.193	0.084	-0.206
-478.332	369.187	-0.176	-0.357
-477.318	293.293	0.163	0.298
-476.303	417.506	-0.202	0.432
-475.289	724.264	-0.098	-0.263
-474.274	133.464	0.094	0.122
-473.259	-200.000	0.010	-0.448
-472.245	-0.957	0.084	0.060
-471.230	-200.000	0.039	-0.470
-470.216	800.000	0.036	0.157
-469.201	1.895	-0.226	-0.163
-468.186	392.963	-0.101	-0.211
-467.172	-17.114	0.159	0.100
-466.157	800.000	0.024	0.090
-465.143	-111.992	-0.125	0.025
-464.128	-68.084	-0.212	0.083
-463.113	-112.265	-0.251	-0.050
-462.099	37.306	-0.252	0.224
-461.084	143.817	-0.116	0.155
-460.070	-43.223	0.335	0.170
-459.055	-200.000	-0.002	-0.049
-458.040	-108.191	0.031	0.007
-457.026	339.731	0.110	0.214
-456.011	-200.000	-0.013	0.102
-454.997	-71.023	0.112	-0.042
-453.982	-136.407	-0.138	0.016
-452.968	-200.000	-0.001	0.157
-451.953	76.510	0.291	-0.309
-450.938	-200.000	0.050	-0.314
-449.924	14.719	0.351	-0.274
-448.909	588.871	0.070	-0.172
-447.895	-136.495	-0.125	-0.014
-446.880	19.023	0.097	-0.078
-445.865	686.750	-0.042	-0.109
-444.851	387.333	0.070	0.144
-443.836	-5.479	0.086	0.059
-442.822	-200.000	-0.064	-0.281
-441.807	-32.118	0.225	-0.126
-440.792	166.912	0.267	0.379
-439.778	685.157	-0.091	-0.237
-438.763	-79.062	-0.368	-0.125
-437.749	-12.061	0.207	-0.135
-436.734	-20.510	0.063	-0.039
-435.719	-15.204	-0.227	-0.145
-434.705	-8.233	0.333	0.224
-433.690	-84.463	-0.287	-0.091
-432.676	-200.000	-0.004	0.042
-431.661	-146.594	-0.296	0.026
-430.646	-33.021	0.362	0.201
-429.632	34.962	0.249	0.218
-428.617	-200.000	0.015	-0.116
-427.603	454.140	0.085	-0.189
-426.588	800.000	-0.032	0.102
-425.573	125.303	0.128	0.162
-424.559	-200.000	0.019	0.104
-423.544	-30.176	-0.126	0.072
-422.530	-44.829	-0.337	0.168
-421.515	-191.913	-0.071	-0.001
-420.500	149.437	0.070	0.094
-419.486	30.737	-0.090	-0.077
-418.471	800.000	0.039	0.139
-417.457	800.000	-0.182	-0.567
-416.442	-200.000	-0.005	0.080
-415.428	131.102	0.282	-0.361
-414.413	-93.016	-0.463	-0.129
-413.398	800.000	-0.051	-0.180
-412.384	-95.866	0.069	-0.018
-411.369	714.035	0.031	-0.082
-410.355	438.473	0.153	-0.333
-409.340	17.233	0.095	-0.075
-408.325	800.000	-0.024	-0.077
-407.311	-43.805	-0.220	-0.111
-406.296	-84.542	-0.116	0.037
-405.282	-200.000	-0.011	-0.176
-404.267	283.204	-0.039	-0.070
-403.252	81.598	0.126	-0.137
-402.238	-200.000	0.030	-0.275
-401.223	-200.000	0.022	-0.109
-400.209	-150.762	0.070	0.005
-399.194	276.254	-0.096	-0.170
-398.179	65.579	-0.121	-0.122
-397.165	-27.396	0.131	0.076
-396.150	-37.906	-0.198	0.105
-395.136	-8.023	-0.009	-0.006
-394.121	-124.025	-0.082	-0.013
-393.106	-55.823	0.421	-0.188
-392.092	-134.474	-0.194	-0.024
-391.077	-24.002	-0.230	0.137
-390.063	-123.339	0.379	-0.060
-389.048	-177.844	0.320	-0.008
-388.033	800.000	-0.040	0.161
-387.019	439.681	0.168	-0.366
-386.004	-200.000	0.007	-0.039
-384.990	-83.355	0.264	0.084
-383.975	49.465	-0.241	-0.226
-382.960	-49.802	0.099	0.047
-381.946	-140.170	0.332	-0.035
-380.931	273.661	-0.082	-0.144
-379.917	502.755	-0.044	0.102
-378.902	-110.827	0.109	0.022
-377.888	66.053	0.179	-0.182
-376.873	-147.304	-0.181	-0.015
-375.858	-43.150	0.241	-0.122
-374.844	456.906	0.020	0.045
-373.829	-2.935	0.219	0.153
-372.815	-135.471	-0.394	-0.047
-371.800	800.000	0.011	-0.044
-370.785	-200.000	0.004	-0.437
-369.771	800.000	-0.131	-0.440
-368.756	-187.569	-0.265	-0.004
-367.742	800.000	-0.177	0.509
-366.727	547.927	0.110	0.262
-365.712	10.937	0.040	-0.030
-364.698	-102.071	-0.196	0.047
-363.683	267.578	-0.115	0.200
-362.669	800.000	-0.025	0.083
-361.654	254.907	-0.176	0.300
-360.639	800.000	0.022	-0.087
-359.625	122.997	0.241	-0.301
-358.610	-200.000	-0.029	-0.207
-357.596	-177.467	0.210	0.005
-356.581	96.165	-0.082	0.093
-355.566	800.000	-0.018	-0.051
-354.552	-118.219	0.336	-0.060
-353.537	-176.481	0.061	0.002
-352.523	-106.418	-0.138	-0.031
-351.508	-59.056	0.102	-0.044
-350.493	461.427	0.155	0.344
-349.479	214.710	0.170	0.269
-348.464	82.851	-0.057	0.062
-347.450	234.193	-0.161	0.264
-346.435	54.850	-0.077	0.074
-345.420	-61.331	0.400	0.168
-344.406	-91.132	0.335	-0.096
-343.391	9.839	0.065	0.049
-342.377	-112.776	-0.263	-0.052
-341.362	144.131	0.125	-0.166
-340.348	-156.378	0.310	0.019
-339.333	-200.000	-0.045	-0.254
-338.318	448.665	0.040	0.088
-337.304	-200.000	-0.003	0.141
-336.289	-84.136	-0.225	0.071
-335.275	37.795	-0.180	0.159
-334.260	301.540	0.052	0.096
-333.245	-31.217	0.245	0.137
-332.231	-31.843	0.216	-0.121
-331.216	-172.118	-0.211	0.007
-330.202	-200.000	-0.049	0.341
-329.187	31.536	0.040	0.034
-328.172	89.003	0.121	0.134
-327.158	-200.000	0.025	0.109
-326.143	-87.220	-0.230	-0.070
-325.129	800.000	0.112	0.422
-324.114	263.918	-0.200	0.346
-323.099	252.711	0.106	0.180
-322.085	-200.000	-0.058	0.284
-321.070	595.468	-0.160	-0.395
-320.056	46.054	0.152	-0.140
-319.041	53.172	0.059	-0.056
-318.026	800.000	-0.017	-0.069
-317.012	-200.000	-0.041	-0.243
-315.997	-55.399	0.255	-0.114
-314.983	-200.000	0.081	-0.353
-313.968	198.654	-0.138	-0.211
-312.953	208.705	-0.209	0.326
-311.939	-164.218	0.180	-0.008
-310.924	-200.000	-0.041	0.274
-309.910	-56.617	-0.140	-0.062
-308.895	31.349	0.229	-0.196
-307.880	568.920	-0.133	-0.322
-306.866	141.665	-0.344	0.454
-305.851	-108.460	-0.074	0.016
-304.837	-108.755	-0.241	0.051
-303.822	341.434	0.104	0.202
-302.807	12.242	-0.057	-0.044
-301.793	800.000	-0.044	-0.157
-300.778	-52.641	0.184	0.085
-299.764	-66.922	0.271	0.106
-298.749	47.090	-0.251	0.233
-297.735	215.957	0.022	0.035
-296.720	800.000	-0.063	-0.217
-295.705	-77.934	0.106	-0.036
-294.691	-200.000	0.021	-0.097
-293.676	88.879	0.114	-0.126
-292.662	-200.000	-0.058	-0.380
-291.647	-11.127	0.442	0.290
-290.632	138.691	0.216	-0.282
-289.618	-99.349	0.376	-0.094
-288.603	-17.066	-0.332	-0.208
-287.589	243.820	0.094	0.157
-286.574	-200.000	-0.070	0.446
-285.559	-35.636	0.277	0.149
-284.545	-200.000	-0.004	0.144
-283.530	58.358	-0.051	-0.050
-282.516	34.961	0.147	0.128
-281.501	67.417	0.129	-0.131
-280.486	-200.000	0.043	0.245
-279.472	800.000	0.075	0.312
-278.457	601.258	-0.099	-0.245
-277.443	-191.509	-0.307	-0.003
-276.428	90.101	0.256	0.284
-275.413	-68.519	-0.412	-0.159
-274.399	75.547	0.120	-0.126
-273.384	-31.865	-0.377	0.210
-272.370	134.955	0.073	-0.095
-271.355	30.489	0.126	0.107
-270.340	800.000	-0.056	0.192
-269.326	-20.849	-0.265	-0.161
-268.311	160.605	0.107	-0.148
-267.297	510.566	0.126	-0.290
-266.282	-151.249	-0.181	-0.013
-265.267	-142.345	0.340	-0.033
-264.253	-200.000	-0.029	-0.149
-263.238	-79.189	0.161	-0.054
-262.224	22.904	0.228	0.186
-261.209	99.859	0.071	-0.082
-260.195	800.000	0.027	0.110
-259.180	-27.952	0.331	0.190
-258.165	53.898	-0.255	-0.243
-257.151	-125.268	-0.222	0.034
-256.136	228.540	0.056	0.091
-255.122	-19.482	0.190	0.117
-254.107	-24.643	-0.217	-0.128
-253.092	-162.345	-0.118	0.006
-252.078	-11.786	0.239	0.156
-251.063	79.091	0.323	0.343
-250.049	-200.000	0.027	-0.373
-249.034	-200.000	0.026	-0.331
-248.019	-94.702	-0.262	-0.071
-247.005	-25.844	0.057	0.033
-245.990	640.666	-0.116	0.294
-244.976	-86.180	0.404	0.124
-243.961	800.000	0.125	0.398
-242.946	-118.364	-0.038	-0.007
-241.932	244.295	-0.172	-0.286
-240.917	-128.929	0.159	0.022
-239.903	-200.000	0.008	-0.113
-238.888	-144.883	0.334	-0.030
-237.873	-89.993	-0.048	-0.014
-236.859	-95.737	0.357	0.095
-235.844	9.115	-0.192	-0.144
-234.830	-89.985	0.124	-0.036
-233.815	-18.846	-0.103	0.064
-232.800	545.739	-0.082	0.194
-231.786	-85.364	-0.328	-0.101
-230.771	-200.000	0.032	0.186
-229.757	16.859	0.187	-0.147
-228.742	20.834	-0.152	-0.122
-227.727	-25.724	0.096	0.056
-226.713	397.790	-0.097	-0.201
-225.698	130.821	0.168	-0.213
-224.684	-86.225	0.311	0.095
-223.669	15.857	0.237	-0.185
-222.655	7.251	-0.110	-0.081
-221.640	90.637	-0.144	-0.159
-220.625	-40.557	0.066	-0.034
-219.611	137.889	0.176	0.228
-218.596	-125.588	-0.163	0.025
-217.582	-200.000	0.067	0.362
-216.567	-124.520	0.179	0.028
-215.552	264.097	-0.096	0.166
-214.538	-32.464	0.362	-0.200
-213.523	-20.270	0.160	0.097
-212.509	-7.684	0.253	0.170
-211.494	101.162	0.025	0.028
-210.479	-43.938	-0.311	0.155
-209.465	-200.000	0.014	0.109
-208.450	-76.930	-0.122	-0.042
-207.436	-200.000	-0.124	-0.550
-206.421	470.286	-0.010	0.023
-205.406	620.396	0.131	0.326
-204.392	571.100	-0.090	0.218
-203.377	265.685	-0.223	0.386
-202.363	101.357	-0.162	0.187
-201.348	-200.000	0.006	0.226
-200.333	154.232	0.193	-0.263
-199.319	265.536	-0.135	-0.233
-198.304	391.637	-0.163	0.336
-197.290	-107.648	-0.310	-0.067
-196.275	-200.000	0.035	-0.275
-195.260	129.439	0.016	0.021
-194.246	-114.337	-0.097	0.019
-193.231	214.920	-0.067	-0.104
-192.217	-19.516	-0.242	0.148
-191.202	-140.233	0.265	0.028
-190.187	800.000	0.058	-0.195
-189.173	-143.041	0.125	0.012
-188.158	45.145	0.115	0.105
-187.144	34.451	-0.179	0.155
-186.129	-52.568	0.174	-0.080
-185.114	-63.754	0.198	0.080
-184.100	159.351	0.137	0.188
-183.085	800.000	0.088	0.284
-182.071	12.153	-0.055	0.042
-181.056	139.927	-0.135	0.177
-180.042	102.220	-0.070	-0.080
-179.027	-200.000	0.014	-0.082
-178.012	-50.975	-0.143	-0.066
-176.998	263.622	-0.134	-0.230
-175.983	-200.000	0.028	0.434
-174.969	51.790	-0.122	0.115
-173.954	-200.000	-0.073	0.388
-172.939	800.000	-0.066	0.282
-171.925	-200.000	0.015	-0.372
-170.910	787.166	-0.124	-0.337
-169.896	800.000	-0.120	-0.344
-168.881	-63.982	-0.060	-0.024
-167.866	-28.630	-0.036	-0.021
-166.852	262.914	-0.102	0.176
-165.837	-102.190	-0.435	-0.103
-164.823	-58.650	0.163	0.070
-163.808	138.221	-0.192	-0.250
-162.793	-200.000	-0.008	0.087
-161.779	-99.542	-0.201	-0.050
-160.764	-200.000	0.027	0.292
-159.750	-200.000	-0.079	0.343
-158.735	378.071	-0.127	-0.256
-157.720	127.403	0.137	0.172
-156.706	-123.556	-0.127	-0.020
-155.691	800.000	0.059	-0.193
-154.677	-29.816	-0.058	-0.033
-153.662	354.736	-0.048	-0.094
-152.647	253.944	0.286	-0.483
-151.633	-200.000	0.042	0.230
-150.618	-58.963	-0.310	0.133
-149.604	-200.000	-0.020	-0.136
-148.589	-99.963	0.245	0.060
-147.574	-200.000	0.024	-0.109
-146.560	-200.000	-0.002	-0.015
-145.545	115.852	0.100	-0.121
-144.531	208.721	0.067	-0.103
-143.516	469.931	0.127	-0.282
-142.502	-200.000	0.038	-0.245
-141.487	537.076	-0.038	0.089
-140.472	-92.840	0.192	-0.053
-139.458	330.754	0.128	-0.244
-138.443	-200.000	-0.037	0.296
-137.429	108.693	-0.095	0.113
-136.414	-37.464	0.171	-0.090
-135.399	-103.223	0.179	0.042
-134.385	800.000	0.070	0.247
-133.370	800.000	0.065	-0.270
-132.356	379.447	0.116	-0.235
-131.341	-200.000	-0.015	-0.155
-130.326	-65.548	-0.114	0.045
-129.312	-130.584	-0.125	0.017
-128.297	54.900	0.190	-0.181
-127.283	-200.000	0.028	-0.149
-126.268	413.514	-0.086	0.180
-125.253	-200.000	0.007	-0.132
-124.239	800.000	0.049	0.155
-123.224	196.940	0.055	0.083
-122.210	-4.247	0.183	-0.125
-121.195	-79.490	-0.288	0.096
