DTS Sentinel unit serial number:	SN413079Multiplexer serial number:	ORYXHardware model number:	OX4-SRSoftware version number:	ORYX F/W v4.00 Oryx Data Collector v3.7.2.0data status	okinstallation	princeton_trtdifferential loss correction	single-endedforward channel	channel 2reverse channel	N/Adate	2019/09/15time	17:43:35forward acquisition time	60.00reverse acquisition time	0.00gamma	496.2192k internal	0.2283k external	0.2283temperature offset calibration	0.9927default loss term (dB/km)	0.3790temperature slope calibration	1.0000multiplexer offset coefficient	1.0000multiplexer slope coefficient	1.0000fibre end	0.00T internal ref (°C)	44.87T ext. ref 1 (°C)	6.28T ext. ref 2 (°C)	39.59length (m)	temperature (°C)	Stokes	anti-Stokes-747.200	800.000	0.070	0.307
-746.185	157.147	-0.107	-0.152
-745.171	482.909	0.015	0.035
-744.156	-157.276	0.217	0.014
-743.142	186.634	-0.228	-0.349
-742.127	329.464	-0.178	0.352
-741.112	-81.674	0.299	0.101
-740.098	-96.495	-0.143	0.039
-739.083	163.643	-0.098	0.141
-738.069	800.000	0.087	0.288
-737.054	168.376	-0.112	0.164
-736.039	185.069	-0.124	-0.189
-735.025	530.414	-0.126	-0.306
-734.010	-90.128	-0.070	0.021
-732.996	1.829	-0.357	-0.264
-731.981	-200.000	-0.018	-0.192
-730.966	102.889	-0.117	0.141
-729.952	-53.389	0.285	-0.134
-728.937	-124.187	0.034	-0.005
-727.923	-68.636	-0.185	-0.074
-726.908	154.187	0.079	-0.112
-725.894	28.714	0.417	-0.362
-724.879	747.694	0.109	-0.302
-723.864	-79.530	-0.099	0.034
-722.850	298.797	0.133	0.252
-721.835	-200.000	0.004	-0.138
-720.821	-200.000	-0.254	-0.001
-719.806	-10.193	-0.196	-0.134
-718.791	12.329	-0.083	-0.066
-717.777	-106.759	-0.236	-0.054
-716.762	23.331	0.151	-0.127
-715.748	96.542	-0.128	-0.151
-714.733	-101.208	0.245	-0.061
-713.718	92.811	-0.088	0.102
-712.704	118.349	-0.034	-0.043
-711.689	-117.841	-0.191	0.035
-710.675	-198.313	-0.175	-0.001
-709.660	32.883	-0.110	-0.097
-708.645	241.612	-0.122	-0.209
-707.631	-200.000	-0.007	-0.227
-706.616	-195.605	-0.377	0.003
-705.602	-200.000	-0.087	-0.407
-704.587	800.000	0.037	-0.135
-703.572	571.030	-0.137	0.342
-702.558	-66.776	0.194	-0.079
-701.543	-200.000	0.047	0.246
-700.529	800.000	0.076	-0.257
-699.514	-75.243	0.331	-0.121
-698.499	-200.000	-0.008	-0.129
-697.485	69.560	-0.273	-0.289
-696.470	82.844	0.102	0.114
-695.456	-101.051	-0.130	0.033
-694.441	295.477	0.032	-0.061
-693.426	212.252	-0.110	0.178
-692.412	243.141	0.065	0.111
-691.397	757.342	-0.098	0.271
-690.383	-191.072	0.342	0.004
-689.368	-200.000	0.022	-0.276
-688.354	460.178	-0.107	-0.245
-687.339	-80.260	-0.394	0.135
-686.324	-200.000	0.064	0.363
-685.310	28.104	-0.115	0.100
-684.295	304.903	-0.092	0.176
-683.281	-38.922	-0.170	-0.092
-682.266	-86.908	0.209	0.065
-681.251	800.000	-0.136	0.445
-680.237	-6.958	0.286	0.199
-679.222	312.465	0.044	0.084
-678.208	-200.000	0.050	-0.424
-677.193	800.000	0.041	0.150
-676.178	319.464	-0.126	0.245
-675.164	175.369	-0.198	0.293
-674.149	-200.000	0.032	-0.226
-673.135	-200.000	0.024	0.153
-672.120	-200.000	-0.013	0.141
-671.105	-63.842	0.152	0.064
-670.091	21.034	0.306	-0.254
-669.076	800.000	-0.065	-0.267
-668.062	178.674	0.016	0.024
-667.047	219.518	0.162	-0.265
-666.032	-103.877	-0.080	0.019
-665.018	-48.399	0.218	0.108
-664.003	27.272	-0.312	0.268
-662.989	-39.309	-0.134	0.072
-661.974	-14.704	-0.172	-0.113
-660.959	-93.282	0.106	0.030
-659.945	517.415	-0.096	0.230
-658.930	-25.181	0.395	-0.240
-657.916	800.000	-0.093	-0.316
-656.901	-155.850	0.165	0.011
-655.886	180.217	0.156	-0.235
-654.872	-107.942	-0.193	0.043
-653.857	172.950	-0.060	0.088
-652.843	-139.721	-0.185	-0.020
-651.828	800.000	0.082	-0.346
-650.814	-138.880	0.340	-0.038
-649.799	-200.000	0.036	0.273
-648.784	800.000	0.040	0.176
-647.770	-40.109	0.051	0.027
-646.755	446.250	-0.136	-0.307
-645.741	-139.519	0.506	-0.055
-644.726	300.745	0.159	0.300
-643.711	-23.623	-0.206	-0.126
-642.697	217.833	-0.084	0.137
-641.682	422.521	0.103	0.227
-640.668	-200.000	-0.014	0.067
-639.653	-110.050	-0.153	0.033
-638.638	-94.945	0.157	0.043
-637.624	-200.000	-0.045	-0.336
-636.609	-43.758	-0.352	0.181
-635.595	-78.418	-0.347	0.122
-634.580	-200.000	0.025	0.157
-633.565	800.000	-0.118	-0.340
-632.551	-41.590	0.162	0.085
-631.536	-193.516	0.176	-0.002
-630.522	312.980	0.166	-0.320
-629.507	-200.000	0.017	0.129
-628.492	121.578	0.033	0.042
-627.478	247.232	-0.012	0.021
-626.463	-200.000	-0.012	-0.079
-625.449	-12.061	0.303	0.203
-624.434	800.000	-0.036	0.152
-623.419	-178.352	0.295	0.007
-622.405	299.112	-0.100	-0.188
-621.390	98.724	-0.147	0.173
-620.376	122.823	-0.116	-0.148
-619.361	67.304	-0.055	0.057
-618.346	-77.327	0.089	0.031
-617.332	-72.183	0.209	0.079
-616.317	-63.095	0.287	0.121
-615.303	800.000	0.018	-0.080
-614.288	236.454	0.092	-0.155
-613.273	87.228	-0.087	0.098
-612.259	-110.219	-0.347	-0.074
-611.244	543.619	-0.059	-0.144
-610.230	-113.744	-0.212	0.042
-609.215	44.863	-0.193	0.181
-608.201	800.000	-0.084	-0.269
-607.186	-122.338	0.270	-0.045
-606.171	-71.918	-0.146	-0.055
-605.157	-74.524	-0.264	-0.097
-604.142	20.356	0.078	-0.064
-603.128	-61.863	-0.396	0.170
-602.113	69.227	0.171	0.179
-601.098	9.592	0.172	0.133
-600.084	-200.000	-0.013	0.189
-599.069	-150.878	0.132	-0.010
-598.055	-121.209	-0.244	0.042
-597.040	75.006	-0.098	0.106
-596.025	-34.336	0.326	-0.183
-595.011	-49.261	0.140	0.068
-593.996	53.595	0.061	-0.060
-592.982	-115.805	0.193	-0.037
-591.967	-200.000	0.040	-0.297
-590.952	154.362	0.094	0.132
-589.938	-113.555	0.415	-0.083
-588.923	187.848	-0.166	0.253
-587.909	-35.562	-0.205	0.114
-586.894	-36.908	0.198	-0.108
-585.879	-92.287	-0.131	0.038
-584.865	-200.000	-0.006	-0.330
-583.850	-200.000	0.023	-0.159
-582.836	21.923	-0.177	0.148
-581.821	179.601	0.088	-0.132
-580.806	-13.287	-0.114	-0.076
-579.792	127.937	0.103	-0.134
-578.777	-200.000	0.006	-0.153
-577.763	55.670	0.175	0.173
-576.748	-14.518	0.151	0.099
-575.733	73.860	-0.046	-0.049
-574.719	47.441	-0.055	-0.052
-573.704	800.000	-0.090	-0.263
-572.690	-145.411	0.360	-0.033
-571.675	656.289	0.055	-0.143
-570.661	-115.605	-0.141	0.027
-569.646	-200.000	0.021	0.177
-568.631	-200.000	0.001	0.213
-567.617	-200.000	-0.055	0.286
-566.602	114.999	-0.143	-0.178
-565.588	-200.000	-0.012	-0.266
-564.573	-200.000	-0.001	-0.171
-563.558	-200.000	0.048	0.238
-562.544	-141.860	0.093	-0.009
-561.529	-200.000	-0.035	0.278
-560.515	-163.713	-0.223	0.011
-559.500	32.457	-0.129	-0.114
-558.485	-143.123	0.079	0.008
-557.471	-200.000	-0.046	0.501
-556.456	528.078	-0.086	0.207
-555.442	800.000	-0.070	-0.279
-554.427	19.139	-0.169	0.138
-553.412	20.963	-0.267	0.221
-552.398	5.058	-0.181	-0.136
-551.383	59.939	-0.074	-0.075
-550.369	57.192	0.097	-0.097
-549.354	-27.185	-0.210	-0.125
-548.339	800.000	-0.023	0.103
-547.325	-69.390	0.120	0.047
-546.310	217.133	0.153	-0.248
-545.296	800.000	-0.023	0.073
-544.281	800.000	-0.051	-0.166
-543.266	56.593	-0.177	0.175
-542.252	-3.328	-0.213	0.151
-541.237	25.767	-0.078	-0.066
-540.223	-27.082	0.140	0.083
-539.208	-5.744	-0.025	0.017
-538.193	245.348	0.147	-0.253
-537.179	304.485	-0.092	0.174
-536.164	-200.000	0.026	0.153
-535.150	-152.061	-0.048	0.004
-534.135	503.284	0.129	0.304
-533.121	-200.000	-0.032	-0.374
-532.106	117.198	0.304	-0.380
-531.091	-120.596	-0.354	-0.061
-530.077	-200.000	0.035	0.248
-529.062	800.000	-0.006	-0.028
-528.048	-77.653	0.332	0.117
-527.033	-200.000	-0.012	-0.088
-526.018	-62.674	0.304	-0.128
-525.004	100.256	0.111	0.132
-523.989	136.932	0.210	-0.280
-522.975	54.033	-0.142	0.140
-521.960	-177.944	-0.348	0.008
-520.945	-120.533	-0.118	-0.020
-519.931	459.981	-0.067	-0.152
-518.916	-102.079	0.259	0.064
-517.902	515.154	0.046	0.110
-516.887	-158.443	0.171	0.010
-515.872	128.368	-0.060	-0.078
-514.858	150.870	-0.033	0.045
-513.843	82.417	-0.118	-0.130
-512.829	292.990	0.055	-0.103
-511.814	419.219	-0.176	-0.384
-510.799	390.382	-0.062	0.131
-509.785	483.814	0.115	-0.267
-508.770	329.801	-0.073	-0.142
-507.756	800.000	0.035	-0.137
-506.741	130.017	-0.165	0.214
-505.726	19.555	-0.130	0.106
-504.712	-194.036	0.061	-0.001
-503.697	-200.000	-0.016	-0.253
-502.683	-13.850	-0.201	0.132
-501.668	150.024	-0.139	0.192
-500.653	542.697	0.180	0.437
-499.639	-200.000	-0.046	-0.438
-498.624	-64.330	-0.180	0.075
-497.610	375.975	0.089	-0.185
-496.595	-7.266	-0.068	0.047
-495.581	37.822	-0.087	-0.078
-494.566	314.263	-0.098	-0.187
-493.551	-200.000	-0.034	0.326
-492.537	-73.501	0.102	0.038
-491.522	-98.737	-0.395	0.102
-490.508	-158.710	0.366	-0.021
-489.493	-200.000	0.038	0.349
-488.478	18.266	-0.177	0.144
-487.464	-195.543	-0.219	-0.002
-486.449	776.733	0.040	0.111
-485.435	-4.200	-0.172	0.121
-484.420	-200.000	-0.000	-0.006
-483.405	48.581	0.085	0.081
-482.391	-108.149	0.285	-0.063
-481.376	800.000	-0.090	0.298
-480.362	156.864	0.213	0.300
-479.347	631.852	-0.079	0.203
-478.332	800.000	0.085	0.303
-477.318	36.379	-0.201	-0.180
-476.303	-29.718	-0.320	-0.186
-475.289	-140.422	-0.097	0.010
-474.274	-45.103	-0.050	0.025
-473.259	-103.920	0.201	0.048
-472.245	157.798	-0.033	0.047
-471.230	212.555	-0.081	-0.130
-470.216	-94.133	0.225	-0.063
-469.201	-97.145	0.142	-0.038
-468.186	-95.833	-0.335	0.091
-467.172	243.702	0.154	-0.262
-466.157	3.683	-0.298	-0.221
-465.143	-88.782	0.188	-0.057
-464.128	-200.000	-0.006	-0.223
-463.113	156.200	-0.043	0.061
-462.099	194.575	0.085	-0.131
-461.084	42.268	-0.196	-0.181
-460.070	105.544	-0.132	-0.158
-459.055	141.426	0.027	0.036
-458.040	392.599	0.066	0.140
-457.026	-112.837	-0.091	0.018
-456.011	-200.000	-0.022	0.333
-454.997	90.330	-0.189	-0.215
-453.982	-45.857	0.167	0.084
-452.968	-150.091	0.156	0.012
-451.953	-200.000	0.012	-0.055
-450.938	300.990	0.238	-0.445
-449.924	-200.000	-0.022	0.158
-448.909	-32.308	0.081	0.046
-447.895	-42.985	0.385	-0.198
-446.880	-90.122	0.293	0.087
-445.865	-11.876	0.161	0.107
-444.851	383.011	-0.094	0.197
-443.836	227.619	-0.107	-0.177
-442.822	-150.343	-0.149	-0.012
-441.807	38.798	0.133	0.120
-440.792	-168.010	-0.387	0.015
-439.778	-92.760	-0.048	-0.014
-438.763	-102.657	0.271	-0.066
-437.749	-106.075	-0.325	0.074
-436.734	800.000	-0.047	-0.139
-435.719	800.000	0.026	-0.080
-434.705	-86.719	-0.408	-0.127
-433.690	-200.000	0.026	0.120
-432.676	800.000	0.049	0.185
-431.661	144.496	0.202	0.274
-430.646	87.452	0.275	0.309
-429.632	272.354	-0.028	0.050
-428.617	-53.141	-0.103	-0.048
-427.603	-200.000	-0.005	0.233
-426.588	-200.000	-0.014	-0.082
-425.573	-139.094	0.231	0.025
-424.559	-200.000	0.008	0.198
-423.544	-75.253	-0.315	-0.114
-422.530	251.028	-0.034	-0.058
-421.515	68.254	0.128	-0.133
-420.500	54.823	-0.312	-0.305
-419.486	284.873	0.087	-0.158
-418.471	124.401	-0.018	0.023
-417.457	-200.000	0.001	-0.307
-416.442	-200.000	-0.021	0.191
-415.428	-162.483	0.231	-0.012
-414.413	269.345	0.100	0.177
-413.398	-200.000	-0.083	0.438
-412.384	-100.440	0.325	0.082
-411.369	44.501	-0.266	0.248
-410.355	-200.000	-0.015	-0.159
-409.340	-104.124	-0.201	-0.047
-408.325	-138.626	-0.223	-0.025
-407.311	-58.169	0.115	0.051
-406.296	-175.738	-0.174	0.005
-405.282	255.845	0.155	0.270
-404.267	-120.183	-0.138	0.024
-403.252	-200.000	-0.045	-0.235
-402.238	-22.994	-0.034	-0.021
-401.223	-76.548	-0.153	0.054
-400.209	-107.004	-0.285	0.064
-399.194	176.145	-0.140	-0.206
-398.179	-200.000	0.085	-0.475
-397.165	203.782	-0.097	0.152
-396.150	-45.057	-0.208	0.105
-395.136	230.538	0.120	0.199
-394.121	800.000	-0.006	0.023
-393.106	589.820	-0.096	-0.240
-392.092	284.111	-0.110	-0.200
-391.077	-173.649	0.069	0.002
-390.063	-40.734	0.330	0.173
-389.048	74.298	-0.163	0.173
-388.033	-200.000	-0.002	-0.106
-387.019	-150.199	-0.217	0.017
-386.004	-169.168	-0.156	-0.006
-384.990	27.925	0.158	0.135
-383.975	-11.838	0.351	0.233
-382.960	128.714	0.058	-0.075
-381.946	-96.214	-0.167	0.045
-380.931	114.134	-0.173	-0.213
-379.917	-113.517	0.350	0.069
-378.902	-98.604	0.179	-0.046
-377.888	-200.000	-0.021	-0.278
-376.873	-200.000	0.021	0.157
-375.858	387.850	-0.102	0.213
-374.844	529.546	0.083	0.197
-373.829	-200.000	-0.039	0.285
-372.815	117.320	0.125	0.155
-371.800	800.000	-0.078	-0.222
-370.785	-200.000	0.011	0.079
-369.771	44.386	0.223	0.208
-368.756	800.000	-0.055	0.169
-367.742	-48.709	-0.311	0.151
-366.727	692.347	-0.071	-0.189
-365.712	759.808	-0.057	0.155
-364.698	-25.595	0.155	0.092
-363.683	-95.617	0.469	-0.127
-362.669	190.335	0.158	0.240
-361.654	-75.857	-0.096	0.034
-360.639	-6.036	-0.292	0.202
-359.625	21.357	-0.089	-0.074
-358.610	-9.626	-0.126	-0.085
-357.596	-99.920	-0.051	-0.013
-356.581	92.036	-0.263	-0.299
-355.566	39.092	0.288	-0.261
-354.552	224.147	-0.153	0.250
-353.537	381.874	0.068	-0.142
-352.523	-121.445	0.233	0.039
-351.508	26.128	0.263	-0.222
-350.493	326.652	-0.167	-0.324
-349.479	26.798	0.325	-0.275
-348.464	-3.580	-0.052	-0.037
-347.450	-200.000	0.030	0.297
-346.435	61.686	-0.162	-0.163
-345.420	750.599	0.154	0.421
-344.406	-200.000	-0.025	-0.178
-343.391	-103.632	0.096	-0.023
-342.377	-200.000	0.027	-0.206
-341.362	800.000	-0.094	0.396
-340.348	-200.000	-0.002	-0.078
-339.333	-92.735	0.263	-0.074
-338.318	13.373	0.154	0.121
-337.304	-173.829	0.045	0.001
-336.289	-144.118	0.232	0.022
-335.275	-82.462	-0.300	0.099
-334.260	-200.000	0.055	0.429
-333.245	-93.678	0.134	-0.037
-332.231	-121.849	0.248	0.041
-331.216	-200.000	-0.003	-0.315
-330.202	42.585	0.098	-0.090
-329.187	-23.333	-0.111	-0.067
-328.172	23.124	0.099	-0.082
-327.158	18.019	-0.174	0.141
-326.143	-112.867	0.056	0.011
-325.129	-69.795	0.189	-0.073
-324.114	-84.161	-0.184	-0.059
-323.099	-90.679	0.439	0.128
-322.085	764.236	0.154	0.422
-321.070	291.129	-0.085	-0.157
-320.056	215.945	0.074	0.119
-319.041	-200.000	0.002	-0.413
-318.026	800.000	0.052	-0.148
-317.012	-34.463	0.176	-0.097
-315.997	-152.961	-0.241	-0.017
-314.983	111.173	-0.161	-0.196
-313.968	32.243	0.138	0.120
-312.953	-77.958	-0.110	-0.038
-311.939	10.534	0.175	0.135
-310.924	800.000	0.019	0.078
-309.910	-200.000	-0.077	0.456
-308.895	-134.390	0.255	0.032
-307.880	800.000	0.074	-0.308
-306.866	-97.831	-0.406	0.106
-305.851	308.767	-0.133	-0.250
-304.837	164.617	-0.068	-0.097
-303.822	-144.566	0.045	0.004
-302.807	-22.999	0.206	-0.126
-301.793	-84.598	0.531	-0.169
-300.778	-200.000	0.062	-0.365
-299.764	800.000	0.063	-0.221
-298.749	386.926	0.031	-0.065
-297.735	-129.447	0.225	0.031
-296.720	-77.703	-0.189	-0.066
-295.705	-91.081	0.165	-0.048
-294.691	-200.000	-0.011	0.217
-293.676	-124.917	-0.356	0.055
-292.662	156.102	-0.148	-0.206
-291.647	800.000	0.106	-0.354
-290.632	689.314	-0.087	0.229
-289.618	-161.472	0.295	-0.015
-288.603	-2.967	0.102	-0.072
-287.589	-200.000	-0.019	-0.121
-286.574	30.698	-0.236	0.204
-285.559	-182.612	0.278	0.005
-284.545	-200.000	-0.039	0.348
-283.530	-6.156	0.271	0.187
-282.516	-84.643	-0.229	0.073
-281.501	-174.436	-0.128	-0.004
-280.486	-200.000	-0.005	0.046
-279.472	-143.634	0.154	-0.015
-278.457	-200.000	-0.038	0.219
-277.443	800.000	-0.042	-0.183
-276.428	167.838	0.157	0.226
-275.413	606.700	0.075	-0.188
-274.399	-154.049	0.197	0.014
-273.384	-120.259	0.100	-0.017
-272.370	9.031	0.192	0.146
-271.355	84.947	0.307	-0.340
-270.340	-200.000	-0.034	-0.169
-269.326	413.030	0.132	-0.283
-268.311	-200.000	0.007	-0.124
-267.297	121.493	-0.205	0.257
-266.282	-80.544	-0.230	0.077
-265.267	52.819	-0.057	-0.055
-264.253	223.377	0.076	0.124
-263.238	195.661	-0.072	-0.110
-262.224	-57.697	0.286	0.126
-261.209	173.295	-0.130	-0.189
-260.195	-200.000	-0.025	-0.216
-259.180	85.773	0.015	0.017
-258.165	-92.758	0.132	0.037
-257.151	-200.000	0.070	-0.479
-256.136	269.006	-0.071	-0.126
-255.122	-200.000	0.057	-0.265
-254.107	-122.892	-0.326	-0.053
-253.092	220.118	0.060	0.097
-252.078	-200.000	-0.034	0.251
-251.063	-99.290	0.175	0.044
-250.049	-200.000	-0.029	-0.277
-249.034	-134.606	-0.181	-0.022
-248.019	380.828	-0.099	0.204
-247.005	-98.654	-0.135	-0.035
-245.990	-119.057	-0.247	-0.044
-244.976	800.000	-0.079	-0.246
-243.961	112.617	0.133	-0.162
-242.946	-200.000	-0.016	-0.085
-241.932	540.653	-0.069	0.166
-240.917	800.000	-0.013	-0.058
-239.903	-92.569	0.066	0.019
-238.888	-44.829	-0.084	-0.042
-237.873	20.713	-0.055	-0.045
-236.859	12.953	-0.083	0.065
-235.844	44.546	0.107	0.099
-234.830	-10.494	0.056	-0.038
-233.815	-35.083	-0.234	0.128
-232.800	-107.128	-0.240	-0.053
-231.786	-200.000	-0.003	0.076
-230.771	-86.494	0.322	0.100
-229.757	-70.789	0.206	0.078
-228.742	63.435	-0.171	-0.173
-227.727	-134.040	-0.128	0.016
-226.713	-181.477	-0.204	0.004
-225.698	163.576	0.127	0.180
-224.684	-200.000	-0.031	0.145
-223.669	-200.000	-0.018	-0.101
-222.655	562.121	-0.105	-0.256
-221.640	-67.484	0.061	0.024
-220.625	109.485	-0.042	0.050
-219.611	-200.000	-0.021	0.160
-218.596	605.874	0.122	-0.306
-217.582	800.000	-0.027	-0.116
-216.567	-84.267	0.040	-0.013
-215.552	-158.414	-0.071	0.004
-214.538	800.000	-0.062	-0.199
-213.523	-35.520	0.117	0.064
-212.509	-89.497	-0.228	-0.067
-211.494	-43.722	-0.053	0.027
-210.479	-19.014	-0.137	0.086
-209.465	-119.247	0.045	-0.008
-208.450	-149.969	0.166	-0.013
-207.436	-163.871	-0.118	0.006
-206.421	800.000	0.009	0.030
-205.406	-200.000	0.024	-0.291
-204.392	-77.390	0.245	-0.086
-203.377	-181.057	0.401	-0.008
-202.363	-26.073	-0.214	0.126
-201.348	61.597	-0.255	0.255
-200.333	89.898	0.142	0.160
-199.319	800.000	-0.028	-0.090
-198.304	32.559	0.244	0.212
-197.290	396.240	0.055	-0.116
-196.275	-39.235	-0.455	0.240
-195.260	800.000	0.046	-0.151
-194.246	116.493	0.181	0.223
-193.231	207.020	0.155	0.243
-192.217	33.654	-0.231	-0.202
-191.202	137.908	-0.122	-0.161
-190.187	665.746	0.046	0.119
-189.173	215.032	-0.250	-0.398
-188.158	148.484	-0.177	-0.241
-187.144	-200.000	0.037	0.174
-186.129	195.647	-0.123	0.189
-185.114	21.558	-0.285	0.233
-184.100	460.284	-0.135	-0.301
-183.085	230.019	0.140	0.230
-182.071	-200.000	0.034	0.299
-181.056	-57.060	-0.107	0.047
-180.042	-117.507	0.127	-0.023
-179.027	23.099	-0.119	0.098
-178.012	226.703	-0.072	0.118
-176.998	-141.135	0.080	0.008
-175.983	-87.248	-0.430	-0.131
-174.969	-73.681	-0.166	0.061
-173.954	800.000	0.078	-0.327
-172.939	449.921	-0.166	-0.368
-171.925	-92.327	0.300	0.085
-170.910	-138.327	0.321	0.036
-169.896	178.450	0.139	0.203
-168.881	-130.469	0.206	0.028
-167.866	59.391	-0.216	-0.214
-166.852	8.477	0.092	-0.070
-165.837	-200.000	-0.028	0.256
-164.823	-5.202	-0.354	-0.245
-163.808	-42.897	-0.063	-0.032
-162.793	107.274	-0.020	-0.024
-161.779	800.000	0.025	-0.104
-160.764	296.857	-0.087	-0.161
-159.750	-119.971	0.185	-0.032
-158.735	-200.000	0.011	-0.175
-157.720	278.622	0.081	-0.145
-156.706	-200.000	0.131	0.601
-155.691	-34.672	0.213	0.117
-154.677	-100.239	0.139	-0.035
-153.662	640.622	0.067	0.170
-152.647	24.459	0.195	0.162
-151.633	-68.372	-0.173	-0.067
-150.618	190.636	0.197	0.297
-149.604	800.000	0.008	-0.030
-148.589	-200.000	-0.093	0.586
-147.574	313.088	0.081	0.153
-146.560	1.665	0.132	-0.096
-145.545	178.131	-0.171	0.250
-144.531	241.017	-0.124	0.207
-143.516	127.496	0.099	-0.126
-142.502	-143.567	0.348	-0.033
-141.487	607.718	0.117	0.293
-140.472	-20.564	0.129	0.080
-139.458	96.389	0.060	-0.069
-138.443	5.136	0.047	-0.035
-137.429	-10.350	0.290	-0.193
-136.414	-75.660	-0.294	0.105
-135.399	202.346	0.228	0.354
-134.385	-84.248	-0.074	-0.023
-133.370	-200.000	0.018	0.083
-132.356	-33.104	0.153	-0.085
-131.341	-56.366	0.199	0.089
-130.326	127.838	0.044	0.056
-129.312	-50.806	-0.106	-0.050
-128.297	-200.000	-0.007	0.379
-127.283	-116.375	-0.605	0.112
-126.268	-200.000	0.013	-0.166
-125.253	668.837	0.009	0.022
-124.239	197.659	-0.190	-0.292
-123.224	-32.213	0.094	0.053
-122.210	68.661	0.116	-0.120
