DTS Sentinel unit serial number:	SN413079Multiplexer serial number:	ORYXHardware model number:	OX4-SRSoftware version number:	ORYX F/W v4.00 Oryx Data Collector v3.7.2.0data status	okinstallation	princeton_trtdifferential loss correction	single-endedforward channel	channel 2reverse channel	N/Adate	2019/09/15time	03:51:35forward acquisition time	60.00reverse acquisition time	0.00gamma	496.2192k internal	0.2325k external	0.2325temperature offset calibration	1.0031default loss term (dB/km)	0.3790temperature slope calibration	1.0000multiplexer offset coefficient	1.0000multiplexer slope coefficient	1.0000fibre end	0.00T internal ref (°C)	30.94T ext. ref 1 (°C)	4.61T ext. ref 2 (°C)	25.87length (m)	temperature (°C)	Stokes	anti-Stokes-747.200	50.831	0.398	-0.380
-746.185	-101.876	-0.185	-0.045
-745.171	-200.000	0.004	0.377
-744.156	-200.000	0.010	0.235
-743.142	-200.000	-0.017	-0.181
-742.127	-16.621	-0.091	0.058
-741.112	-82.178	-0.051	0.017
-740.098	-200.000	0.012	0.267
-739.083	7.125	0.185	-0.139
-738.069	-163.226	0.155	-0.008
-737.054	-123.831	-0.263	0.042
-736.039	-63.488	-0.292	-0.121
-735.025	-100.513	0.280	0.070
-734.010	-42.423	-0.157	-0.081
-732.996	-61.896	-0.287	0.121
-731.981	800.000	-0.055	0.189
-730.966	-74.376	0.318	0.116
-729.952	307.645	0.189	-0.356
-728.937	-84.632	0.398	-0.126
-727.923	-63.932	-0.119	0.049
-726.908	-200.000	-0.040	0.187
-725.894	128.448	-0.114	-0.147
-724.879	-16.985	-0.057	-0.036
-723.864	800.000	-0.042	-0.128
-722.850	-20.930	-0.427	0.264
-721.835	800.000	0.025	-0.071
-720.821	-30.734	-0.097	0.056
-719.806	-167.108	-0.198	-0.008
-718.791	-179.212	0.232	-0.005
-717.777	94.876	0.067	-0.077
-716.762	55.050	-0.221	-0.215
-715.748	-200.000	0.023	-0.178
-714.733	233.085	-0.133	0.220
-713.718	14.289	0.241	0.189
-712.704	800.000	-0.032	-0.134
-711.689	-200.000	-0.029	-0.233
-710.675	800.000	-0.039	-0.123
-709.660	-200.000	-0.041	-0.204
-708.645	255.352	-0.033	0.057
-707.631	-41.809	-0.170	-0.088
-706.616	-26.546	0.061	0.036
-705.602	800.000	-0.027	-0.096
-704.587	160.642	-0.143	-0.201
-703.572	-200.000	0.047	-0.282
-702.558	-102.458	0.122	-0.030
-701.543	-177.106	-0.322	-0.008
-700.529	67.065	0.171	-0.176
-699.514	-99.903	-0.238	0.060
-698.499	239.545	-0.153	-0.257
-697.485	800.000	0.066	-0.196
-696.470	46.653	0.065	0.061
-695.456	-83.882	-0.163	-0.052
-694.441	-68.765	-0.128	0.050
-693.426	104.627	-0.111	-0.131
-692.412	-106.374	-0.314	0.071
-691.397	142.038	0.211	0.282
-690.383	-147.840	-0.122	-0.010
-689.368	326.406	-0.043	-0.083
-688.354	109.863	0.189	0.228
-687.339	-200.000	-0.038	0.288
-686.324	419.534	0.009	0.020
-685.310	800.000	-0.059	-0.237
-684.295	-72.629	0.159	0.059
-683.281	656.194	-0.067	-0.174
-682.266	-10.967	0.204	-0.135
-681.251	-163.444	-0.333	0.016
-680.237	644.017	-0.051	-0.131
-679.222	-179.992	-0.362	0.008
-678.208	-200.000	-0.040	-0.248
-677.193	636.346	0.122	-0.313
-676.178	508.506	-0.090	-0.211
-675.164	-116.377	-0.141	0.026
-674.149	458.605	0.022	-0.049
-673.135	-200.000	-0.004	0.125
-672.120	37.473	-0.111	-0.099
-671.105	-20.336	-0.088	-0.055
-670.091	-81.914	-0.101	0.033
-669.076	464.542	0.137	-0.308
-668.062	-130.856	0.037	0.005
-667.047	-28.112	0.273	0.159
-666.032	-200.000	-0.022	-0.133
-665.018	-123.149	0.298	-0.048
-664.003	-71.326	-0.171	-0.064
-662.989	6.461	-0.242	0.181
-661.974	800.000	-0.028	-0.082
-660.959	-94.570	-0.161	-0.044
-659.945	104.711	0.080	0.094
-658.930	411.030	-0.118	0.251
-657.916	385.187	0.123	0.254
-656.901	-12.483	-0.213	-0.140
-655.886	-62.364	-0.064	-0.027
-654.872	272.766	0.082	-0.146
-653.857	-61.111	0.060	-0.026
-652.843	7.393	-0.131	-0.098
-651.828	58.160	0.075	-0.074
-650.814	-123.591	0.426	0.068
-649.799	262.447	-0.106	-0.185
-648.784	-200.000	-0.033	0.252
-647.770	57.243	0.089	-0.087
-646.755	800.000	-0.018	0.073
-645.741	41.141	-0.013	-0.012
-644.726	74.016	0.058	-0.061
-643.711	684.059	-0.082	0.216
-642.697	197.990	0.191	-0.293
-641.682	-200.000	0.010	-0.176
-640.668	79.229	0.078	-0.084
-639.653	-83.331	-0.204	-0.066
-638.638	146.229	0.101	0.137
-637.624	800.000	-0.040	-0.171
-636.609	-47.824	0.159	0.077
-635.595	-200.000	0.031	0.206
-634.580	76.772	-0.159	-0.170
-633.565	46.544	-0.086	0.080
-632.551	-68.967	0.206	0.080
-631.536	-200.000	-0.045	-0.316
-630.522	355.491	-0.099	-0.198
-629.507	-14.619	-0.228	0.147
-628.492	-175.513	-0.286	-0.008
-627.478	-6.356	-0.100	-0.069
-626.463	800.000	-0.017	-0.056
-625.449	-100.172	0.060	-0.015
-624.434	276.049	0.029	-0.052
-623.419	437.156	0.050	-0.110
-622.405	-27.382	-0.291	-0.170
-621.390	-133.595	-0.149	-0.019
-620.376	24.042	-0.190	0.157
-619.361	666.958	-0.105	-0.274
-618.346	103.360	0.125	0.148
-617.332	144.302	-0.153	-0.206
-616.317	325.189	0.105	-0.201
-615.303	800.000	-0.085	-0.316
-614.288	-11.562	0.112	0.074
-613.273	231.978	0.088	0.145
-612.259	591.006	-0.068	-0.169
-611.244	14.597	0.194	0.152
-610.230	250.605	-0.089	-0.152
-609.215	-57.065	0.508	-0.225
-608.201	710.260	-0.130	0.344
-607.186	800.000	-0.035	-0.108
-606.171	32.764	0.217	0.189
-605.157	-200.000	0.007	-0.252
-604.142	91.649	-0.109	-0.123
-603.128	185.092	0.059	0.088
-602.113	-128.102	-0.364	-0.052
-601.098	99.404	-0.096	0.111
-600.084	-200.000	0.014	-0.085
-599.069	217.671	-0.129	0.206
-598.055	-149.187	0.409	-0.033
-597.040	53.383	0.083	-0.080
-596.025	6.347	-0.197	-0.147
-595.011	-117.616	0.316	0.057
-593.996	-184.295	-0.282	0.005
-592.982	-31.272	0.175	0.099
-591.967	441.057	-0.096	0.210
-590.952	800.000	-0.085	0.243
-589.938	-3.162	-0.189	0.132
-588.923	208.145	-0.092	0.145
-587.909	68.737	0.325	0.335
-586.894	-180.291	-0.444	0.009
-585.879	3.335	0.202	0.147
-584.865	308.725	-0.046	-0.086
-583.850	-5.642	-0.319	0.219
-582.836	800.000	0.054	-0.161
-581.821	-200.000	0.024	-0.130
-580.806	800.000	0.122	-0.343
-579.792	408.797	-0.067	0.142
-578.777	-146.960	0.150	-0.013
-577.763	-200.000	-0.013	0.207
-576.748	-200.000	0.017	-0.306
-575.733	-66.227	-0.153	-0.061
-574.719	603.261	0.087	0.218
-573.704	-200.000	0.055	0.401
-572.690	-49.816	0.176	0.084
-571.675	229.599	0.143	-0.234
-570.661	-54.023	0.197	0.090
-569.646	-45.215	0.290	0.144
-568.631	-50.770	-0.115	-0.054
-567.617	-33.666	-0.237	0.131
-566.602	-200.000	0.019	0.161
-565.588	247.645	0.030	0.050
-564.573	36.260	0.077	0.068
-563.558	-61.272	-0.192	-0.081
-562.544	113.321	-0.139	0.169
-561.529	-22.357	-0.093	0.056
-560.515	257.638	0.115	0.198
-559.500	218.382	0.118	-0.189
-558.485	68.173	0.037	0.037
-557.471	800.000	-0.070	-0.244
-556.456	60.964	-0.299	0.297
-555.442	-82.157	0.330	-0.108
-554.427	800.000	-0.082	-0.228
-553.412	-36.218	0.291	0.157
-552.398	-200.000	0.026	0.217
-551.383	800.000	0.063	0.272
-550.369	-3.603	0.132	-0.092
-549.354	-163.204	0.168	-0.008
-548.339	-167.120	-0.022	-0.001
-547.325	305.001	0.116	-0.216
-546.310	-19.798	-0.277	-0.171
-545.296	-113.601	0.244	-0.048
-544.281	324.843	-0.092	-0.175
-543.266	-104.787	0.357	0.082
-542.252	-133.186	-0.094	0.012
-541.237	-78.731	0.034	0.012
-540.223	-47.321	0.084	-0.041
-539.208	51.216	0.108	-0.103
-538.193	-200.000	0.028	0.212
-537.179	717.722	-0.032	0.085
-536.164	10.071	-0.217	-0.165
-535.150	-61.395	0.232	-0.098
-534.135	502.274	0.035	-0.081
-533.121	-161.532	-0.142	0.007
-532.106	59.496	-0.308	-0.304
-531.091	134.065	0.243	-0.316
-530.077	59.870	0.117	-0.116
-529.062	800.000	-0.031	0.125
-528.048	27.915	0.072	-0.061
-527.033	177.697	0.062	0.091
-526.018	-121.982	-0.182	0.030
-525.004	27.039	0.348	0.292
-523.989	-37.313	-0.080	0.043
-522.975	282.434	0.112	-0.200
-521.960	800.000	0.058	-0.163
-520.945	51.217	-0.109	0.103
-519.931	119.431	-0.092	-0.114
-518.916	-59.060	-0.080	-0.034
-517.902	589.112	-0.100	-0.246
-516.887	800.000	0.075	-0.217
-515.872	-134.453	0.246	0.030
-514.858	524.992	0.041	-0.096
-513.843	64.359	0.282	-0.284
-512.829	69.268	0.125	0.129
-511.814	-45.103	-0.593	-0.295
-510.799	-71.830	-0.190	-0.071
-509.785	-9.560	0.018	-0.012
-508.770	35.604	-0.134	-0.118
-507.756	-99.028	-0.239	-0.061
-506.741	-200.000	-0.000	0.198
-505.726	788.537	-0.139	0.381
-504.712	-132.025	0.336	-0.044
-503.697	-9.993	-0.285	-0.189
-502.683	-200.000	0.008	-0.041
-501.668	99.764	0.095	0.110
-500.653	-175.476	0.198	0.005
-499.639	800.000	-0.091	0.321
-498.624	-196.810	-0.172	-0.001
-497.610	204.133	-0.086	0.133
-496.595	66.428	0.106	0.108
-495.581	-200.000	-0.006	0.039
-494.566	800.000	0.055	-0.213
-493.551	147.902	-0.294	0.396
-492.537	800.000	0.122	0.356
-491.522	291.235	0.073	0.133
-490.508	800.000	-0.047	-0.200
-489.493	30.361	0.046	0.039
-488.478	75.697	0.172	0.181
-487.464	-76.213	-0.085	0.030
-486.449	800.000	0.081	-0.228
-485.435	31.166	-0.071	-0.061
-484.420	-40.832	0.219	-0.113
-483.405	-21.254	-0.228	-0.139
-482.391	37.264	0.134	0.118
-481.376	554.698	-0.149	0.357
-480.362	800.000	-0.035	0.107
-479.347	-134.998	0.431	-0.052
-478.332	198.494	0.047	-0.071
-477.318	193.009	0.100	0.150
-476.303	34.758	-0.367	0.321
-475.289	-70.521	-0.386	-0.146
-474.274	70.194	0.184	-0.189
-473.259	755.924	0.136	0.368
-472.245	466.350	-0.121	-0.271
-471.230	-74.955	-0.208	0.074
-470.216	-185.235	-0.112	-0.002
-469.201	-157.146	0.364	-0.022
-468.186	158.867	-0.157	0.217
-467.172	717.004	0.131	-0.346
-466.157	-55.200	-0.338	0.152
-465.143	-196.454	0.133	-0.001
-464.128	-88.294	-0.027	0.008
-463.113	-81.287	0.233	-0.077
-462.099	800.000	-0.026	0.101
-461.084	-20.051	0.223	-0.137
-460.070	-93.724	-0.114	0.031
-459.055	-49.759	0.231	-0.110
-458.040	4.332	0.101	0.074
-457.026	280.483	-0.114	0.203
-456.011	379.745	0.084	-0.172
-454.997	-17.720	0.233	0.146
-453.982	-82.890	-0.165	-0.053
-452.968	107.615	-0.276	-0.328
-451.953	-15.291	0.147	-0.094
-450.938	-118.364	0.090	-0.016
-449.924	-13.860	-0.156	0.101
-448.909	-145.190	0.105	-0.010
-447.895	-200.000	0.042	-0.194
-446.880	-60.149	0.306	0.130
-445.865	163.637	-0.126	0.177
-444.851	-130.880	-0.473	-0.063
-443.836	-18.125	0.061	0.038
-442.822	-9.145	-0.177	0.118
-441.807	-200.000	0.044	-0.203
-440.792	23.121	0.307	-0.251
-439.778	74.602	0.104	0.109
-438.763	-153.277	0.407	0.028
-437.749	571.011	0.097	-0.235
-436.734	35.130	0.194	-0.169
-435.719	148.412	-0.090	-0.120
-434.705	-26.079	0.157	-0.092
-433.690	-120.190	-0.285	0.049
-432.676	-171.706	0.186	-0.006
-431.661	614.982	-0.064	0.160
-430.646	-92.102	-0.086	-0.024
-429.632	-1.300	-0.306	0.215
-428.617	59.052	0.095	-0.093
-427.603	-93.409	0.379	0.105
-426.588	-200.000	-0.084	-0.476
-425.573	800.000	0.055	-0.194
-424.559	-81.755	-0.279	0.091
-423.544	-200.000	-0.032	0.311
-422.530	-49.088	-0.274	-0.131
-421.515	-143.930	-0.308	-0.029
-420.500	637.449	-0.095	0.240
-419.486	-7.851	0.115	0.078
-418.471	534.287	0.120	-0.284
-417.457	-56.559	0.346	-0.153
-416.442	-200.000	-0.039	0.242
-415.428	43.709	0.254	-0.232
-414.413	335.809	0.103	0.199
-413.398	57.488	0.060	0.058
-412.384	-97.329	-0.339	-0.088
-411.369	-200.000	0.012	0.276
-410.355	-200.000	-0.001	-0.047
-409.340	32.291	0.116	-0.099
-408.325	-200.000	-0.046	0.331
-407.311	-78.341	-0.264	-0.090
-406.296	-77.572	0.222	-0.077
-405.282	-112.436	-0.436	0.087
-404.267	-108.449	-0.136	0.029
-403.252	800.000	-0.073	-0.287
-402.238	40.148	0.032	-0.028
-401.223	-23.764	0.128	-0.076
-400.209	-9.755	-0.338	-0.224
-399.194	221.767	-0.234	-0.374
-398.179	-200.000	-0.008	-0.136
-397.165	615.310	0.109	0.272
-396.150	-99.192	0.138	0.035
-395.136	33.400	-0.198	0.171
-394.121	10.630	0.130	0.098
-393.106	-68.316	0.337	0.131
-392.092	216.568	-0.185	0.293
-391.077	-200.000	0.000	0.203
-390.063	43.063	-0.110	-0.100
-389.048	-73.134	0.235	0.086
-388.033	-149.442	0.081	-0.006
-387.019	-144.475	0.062	-0.006
-386.004	800.000	-0.093	-0.375
-384.990	83.723	0.100	-0.108
-383.975	800.000	-0.119	0.353
-382.960	-200.000	0.035	-0.381
-381.946	282.629	0.037	-0.067
-380.931	800.000	0.076	-0.303
-379.917	106.845	0.068	-0.081
-378.902	-93.679	-0.337	-0.093
-377.888	112.146	0.250	0.300
-376.873	800.000	0.033	0.121
-375.858	20.243	-0.050	0.040
-374.844	800.000	0.059	0.209
-373.829	-153.344	0.308	-0.021
-372.815	260.310	-0.060	-0.103
-371.800	-119.919	0.069	0.012
-370.785	-130.284	-0.149	0.020
-369.771	192.260	-0.042	-0.063
-368.756	-119.898	-0.146	0.025
-367.742	-68.419	0.204	-0.079
-366.727	22.978	-0.013	0.011
-365.712	490.079	0.044	0.101
-364.698	338.369	-0.075	-0.145
-363.683	-176.269	-0.303	-0.008
-362.669	711.890	0.042	0.112
-361.654	6.738	-0.250	-0.185
-360.639	-200.000	0.022	-0.143
-359.625	-27.129	0.077	-0.045
-358.610	15.144	0.225	-0.175
-357.596	-38.913	0.307	0.161
-356.581	371.046	0.068	-0.138
-355.566	-200.000	-0.053	0.260
-354.552	501.645	-0.157	-0.359
-353.537	17.718	-0.274	0.217
-352.523	800.000	-0.023	-0.066
-351.508	-200.000	0.035	0.197
-350.493	-78.922	-0.062	-0.021
-349.479	246.734	-0.124	-0.208
-348.464	-200.000	-0.002	0.019
-347.450	344.213	0.102	0.198
-346.435	-200.000	-0.001	0.037
-345.420	246.081	0.022	-0.037
-344.406	-113.368	-0.288	0.056
-343.391	-200.000	-0.001	0.145
-342.377	60.255	-0.161	-0.158
-341.362	800.000	-0.064	-0.212
-340.348	-200.000	0.035	-0.197
-339.333	-200.000	0.019	-0.082
-338.318	-72.514	0.234	0.086
-337.304	169.853	-0.175	0.249
-336.289	-72.608	-0.361	0.132
-335.275	134.800	-0.051	-0.065
-334.260	-200.000	0.018	0.140
-333.245	-85.132	-0.238	-0.074
-332.231	442.000	-0.132	0.288
-331.216	20.600	-0.248	0.199
-330.202	96.008	0.239	0.271
-329.187	475.828	-0.072	0.162
-328.172	584.876	-0.085	-0.207
-327.158	6.933	-0.126	0.093
-326.143	670.544	-0.070	-0.180
-325.129	519.422	0.009	0.022
-324.114	-200.000	-0.043	-0.233
-323.099	84.572	0.186	0.202
-322.085	-152.116	0.077	0.006
-321.070	403.749	0.121	-0.254
-320.056	-139.313	-0.082	-0.009
-319.041	45.441	0.186	0.171
-318.026	-200.000	-0.043	0.274
-317.012	-132.491	-0.216	-0.028
-315.997	-138.175	-0.242	0.027
-314.983	692.013	0.037	0.096
-313.968	130.242	0.134	0.171
-312.953	-48.457	0.183	-0.088
-311.939	-200.000	-0.046	-0.205
-310.924	178.150	0.172	-0.249
-309.910	-105.302	0.206	0.046
-308.895	-28.222	0.088	0.051
-307.880	180.297	-0.168	0.245
-306.866	97.132	0.136	0.155
-305.851	-135.278	0.208	-0.025
-304.837	-128.932	-0.122	0.017
-303.822	-200.000	-0.028	-0.163
-302.807	800.000	-0.038	0.157
-301.793	322.268	-0.063	-0.120
-300.778	800.000	0.083	-0.265
-299.764	161.630	0.153	-0.212
-298.749	57.187	0.153	0.148
-297.735	-114.275	-0.242	0.046
-296.720	-190.868	0.072	-0.001
-295.705	-155.532	0.205	0.013
-294.691	-140.320	0.408	0.042
-293.676	-157.557	-0.102	-0.006
-292.662	14.336	-0.216	-0.167
-291.647	570.560	-0.119	-0.287
-290.632	554.640	0.054	0.129
-289.618	766.710	0.093	0.251
-288.603	99.954	-0.116	0.134
-287.589	-200.000	-0.051	0.268
-286.574	-93.915	0.043	0.012
-285.559	-147.973	0.089	-0.007
-284.545	-20.758	-0.264	0.161
-283.530	130.200	-0.250	0.317
-282.516	-160.213	0.185	0.010
-281.501	-39.946	0.124	0.064
-280.486	-18.902	0.030	-0.018
-279.472	315.375	0.086	-0.162
-278.457	-200.000	-0.024	-0.316
-277.443	-200.000	0.014	-0.217
-276.428	-68.125	0.054	0.021
-275.413	-200.000	0.029	-0.190
-274.399	57.895	0.139	0.135
-273.384	95.383	0.130	-0.147
-272.370	-51.103	-0.339	0.157
-271.355	800.000	-0.088	0.371
-270.340	42.890	0.281	0.254
-269.326	-20.847	0.146	0.088
-268.311	165.601	0.200	0.280
-267.297	-128.345	-0.149	-0.021
-266.282	-200.000	-0.087	0.410
-265.267	800.000	-0.071	0.217
-264.253	90.107	0.023	0.025
-263.238	221.788	-0.094	-0.149
-262.224	-26.745	0.058	0.034
-261.209	413.921	0.058	-0.123
-260.195	-7.650	-0.317	-0.212
-259.180	-200.000	0.044	0.337
-258.165	-200.000	-0.010	0.292
-257.151	365.313	-0.051	0.102
-256.136	367.583	0.060	0.119
-255.122	-110.392	0.105	-0.022
-254.107	133.140	0.195	0.249
-253.092	-142.361	-0.285	-0.028
-252.078	-200.000	0.009	-0.090
-251.063	144.284	0.135	-0.178
-250.049	-200.000	-0.000	0.087
-249.034	800.000	-0.044	0.171
-248.019	253.296	-0.081	-0.138
-247.005	33.402	-0.108	0.093
-245.990	290.898	0.026	-0.047
-244.976	764.767	-0.197	-0.530
-243.961	-200.000	-0.017	-0.087
-242.946	183.220	0.114	-0.167
-241.932	690.872	0.129	-0.335
-240.917	-200.000	0.036	-0.426
-239.903	800.000	-0.061	-0.187
-238.888	140.926	-0.088	0.115
-237.873	-31.175	-0.193	0.107
-236.859	644.956	0.037	-0.092
-235.844	65.013	-0.223	0.223
-234.830	-159.171	0.345	-0.019
-233.815	745.533	-0.068	-0.180
-232.800	48.533	-0.189	0.175
-231.786	-161.730	0.364	0.018
-230.771	57.610	-0.187	-0.180
-229.757	800.000	0.037	0.107
-228.742	-200.000	-0.021	0.399
-227.727	313.601	0.064	-0.118
-226.713	598.917	-0.012	-0.028
-225.698	-200.000	0.002	-0.473
-224.684	151.990	-0.202	-0.273
-223.669	800.000	0.055	0.156
-222.655	-56.060	-0.407	0.179
-221.640	-200.000	0.019	-0.226
-220.625	98.412	0.091	0.103
-219.611	98.976	0.296	-0.338
-218.596	70.911	0.206	0.211
-217.582	53.127	-0.064	-0.061
-216.567	-76.568	-0.215	-0.075
-215.552	38.143	0.221	-0.194
-214.538	464.060	0.188	-0.416
-213.523	-44.267	-0.308	-0.152
-212.509	800.000	0.031	-0.104
-211.494	800.000	0.078	0.313
-210.479	-126.388	-0.390	0.057
-209.465	628.583	-0.119	-0.296
-208.450	-81.002	-0.240	0.078
-207.436	-200.000	0.028	0.225
-206.421	104.158	0.089	-0.104
-205.406	-200.000	0.001	0.009
-204.392	2.804	0.087	-0.063
-203.377	-26.435	0.265	-0.154
-202.363	-200.000	0.037	-0.229
-201.348	214.464	0.158	0.247
-200.333	-200.000	0.041	0.210
-199.319	328.118	0.075	0.141
-198.304	-58.493	0.235	0.101
-197.290	800.000	0.042	-0.152
-196.275	168.852	-0.129	-0.182
-195.260	520.437	-0.125	-0.289
-194.246	-92.033	-0.351	0.098
-193.231	-168.515	0.295	-0.011
-192.217	-23.340	0.137	0.082
-191.202	-148.015	0.137	0.011
-190.187	-35.506	0.165	0.089
-189.173	638.410	0.136	-0.341
-188.158	-6.848	-0.261	-0.175
-187.144	-58.576	0.148	-0.063
-186.129	1.396	0.183	0.130
-185.114	-200.000	-0.009	-0.102
-184.100	-200.000	-0.014	-0.243
-183.085	287.116	-0.196	0.349
-182.071	-79.730	-0.154	0.051
-181.056	211.935	0.018	-0.028
-180.042	69.827	0.256	-0.261
-179.027	-200.000	0.026	0.154
-178.012	-200.000	0.015	-0.145
-176.998	-81.296	-0.232	0.075
-175.983	-200.000	-0.018	0.293
-174.969	-54.262	-0.082	0.037
-173.954	-108.986	-0.112	-0.024
-172.939	16.888	0.084	-0.065
-171.925	-200.000	-0.006	0.121
-170.910	337.399	-0.025	0.048
-169.896	800.000	0.067	-0.260
-168.881	-200.000	0.033	0.210
-167.866	-95.945	0.448	0.118
-166.852	-56.771	-0.275	-0.120
-165.837	-60.407	-0.545	-0.229
-164.823	37.593	-0.138	-0.121
-163.808	-200.000	-0.062	0.325
-162.793	-119.071	0.146	-0.025
-161.779	-41.932	0.146	0.074
-160.764	-60.164	-0.230	0.097
-159.750	86.262	0.210	0.228
-158.735	-200.000	-0.005	0.176
-157.720	78.024	0.061	-0.065
-156.706	15.047	0.103	-0.079
-155.691	496.036	-0.115	0.261
-154.677	-181.164	0.060	0.001
-153.662	-150.933	0.192	-0.014
-152.647	800.000	0.146	0.407
-151.633	-200.000	-0.001	0.391
-150.618	-165.238	-0.328	-0.014
-149.604	511.570	-0.089	0.204
-148.589	99.428	-0.207	-0.236
-147.574	-29.098	-0.225	-0.127
-146.560	-55.459	0.167	0.074
-145.545	-200.000	0.022	-0.214
-144.531	-83.104	0.229	0.073
-143.516	402.258	0.025	0.051
-142.502	-200.000	-0.004	0.040
-141.487	-2.610	0.102	-0.070
-140.472	-20.062	0.045	0.027
-139.458	-200.000	0.004	-0.174
-138.443	-89.033	-0.260	0.076
-137.429	-147.668	0.382	0.032
-136.414	-111.189	-0.257	0.052
-135.399	42.829	0.243	0.218
-134.385	478.728	0.087	-0.193
-133.370	-111.396	0.215	-0.043
-132.356	214.689	0.254	0.396
-131.341	800.000	0.032	-0.133
-130.326	-102.640	0.189	-0.044
-129.312	-183.918	0.137	0.002
-128.297	172.409	-0.059	-0.083
-127.283	132.863	-0.095	0.121
-126.268	4.752	0.293	0.212
-125.253	-200.000	-0.004	0.258
-124.239	12.714	-0.082	-0.062
-123.224	-142.779	-0.215	0.021
-122.210	171.947	0.113	0.160
-121.195	-70.080	0.178	0.067
