DTS Sentinel unit serial number:	SN413079Multiplexer serial number:	ORYXHardware model number:	OX4-SRSoftware version number:	ORYX F/W v4.00 Oryx Data Collector v3.7.2.0data status	okinstallation	princeton_trtdifferential loss correction	single-endedforward channel	channel 2reverse channel	N/Adate	2019/09/18time	21:47:35forward acquisition time	60.00reverse acquisition time	0.00gamma	496.2192k internal	0.2347k external	0.2347temperature offset calibration	1.0019default loss term (dB/km)	0.3790temperature slope calibration	1.0000multiplexer offset coefficient	1.0000multiplexer slope coefficient	1.0000fibre end	0.00T internal ref (°C)	24.81T ext. ref 1 (°C)	0.81T ext. ref 2 (°C)	18.29length (m)	temperature (°C)	Stokes	anti-Stokes-747.200	-93.118	-0.184	0.051
-746.185	8.787	0.114	0.086
-745.171	142.901	0.023	-0.031
-744.156	-59.665	-0.157	-0.067
-743.142	800.000	-0.015	0.046
-742.127	-200.000	-0.021	0.370
-741.112	-165.593	0.298	0.013
-740.098	-200.000	0.028	0.301
-739.083	169.717	-0.200	0.285
-738.069	-200.000	0.050	0.251
-737.054	-122.293	0.204	0.033
-736.039	800.000	-0.052	0.211
-735.025	-126.472	0.121	0.018
-734.010	800.000	-0.040	-0.138
-732.996	800.000	-0.113	0.427
-731.981	-154.310	-0.080	-0.005
-730.966	-200.000	-0.006	-0.200
-729.952	-111.146	-0.083	-0.017
-728.937	-200.000	0.014	0.069
-727.923	-200.000	-0.002	0.010
-726.908	-22.065	-0.180	-0.109
-725.894	728.344	0.081	-0.216
-724.879	-200.000	0.041	-0.464
-723.864	-200.000	0.004	-0.203
-722.850	-39.585	-0.054	-0.028
-721.835	-200.000	-0.033	-0.205
-720.821	-41.795	-0.222	0.114
-719.806	-200.000	0.025	0.133
-718.791	-125.861	0.218	0.033
-717.777	-78.804	-0.417	-0.142
-716.762	632.151	0.074	-0.187
-715.748	-21.900	-0.166	-0.101
-714.733	104.923	0.161	0.190
-713.718	29.140	-0.243	0.206
-712.704	157.245	-0.090	0.124
-711.689	676.824	-0.064	0.165
-710.675	271.110	-0.109	-0.191
-709.660	-79.703	0.285	-0.096
-708.645	-85.833	0.286	0.088
-707.631	-200.000	-0.057	-0.456
-706.616	-100.469	0.095	0.023
-705.602	-90.242	0.381	-0.110
-704.587	-46.293	-0.316	-0.155
-703.572	27.421	-0.098	-0.082
-702.558	93.973	0.249	-0.282
-701.543	-148.888	0.081	0.007
-700.529	358.915	0.184	-0.366
-699.514	-152.368	0.272	0.020
-698.499	199.716	0.103	-0.157
-697.485	463.170	0.088	-0.197
-696.470	-35.597	-0.355	0.192
-695.456	41.937	-0.381	0.345
-694.441	-200.000	-0.016	0.311
-693.426	800.000	-0.026	-0.082
-692.412	-200.000	-0.002	-0.348
-691.397	689.981	-0.073	-0.191
-690.383	-200.000	0.024	-0.313
-689.368	182.965	0.099	0.146
-688.354	142.901	0.096	-0.127
-687.339	781.810	-0.043	-0.117
-686.324	-57.138	0.221	0.097
-685.310	236.912	-0.111	0.183
-684.295	-49.337	0.389	0.185
-683.281	134.569	-0.175	0.226
-682.266	-200.000	0.002	-0.053
-681.251	-125.242	-0.412	-0.063
-680.237	-121.585	-0.173	-0.029
-679.222	-200.000	0.040	-0.182
-678.208	-67.746	-0.104	0.041
-677.193	-18.492	-0.137	-0.086
-676.178	-58.050	0.365	-0.159
-675.164	-121.144	-0.181	-0.030
-674.149	378.937	-0.087	0.177
-673.135	175.364	-0.018	0.027
-672.120	800.000	0.055	0.213
-671.105	-5.419	0.384	0.263
-670.091	800.000	-0.100	-0.278
-669.076	-144.754	-0.251	0.023
-668.062	-65.225	-0.274	0.110
-667.047	357.091	-0.165	0.327
-666.032	-129.771	0.225	-0.031
-665.018	27.243	-0.286	0.239
-664.003	-200.000	-0.031	0.347
-662.989	108.354	0.108	-0.128
-661.974	-146.876	0.159	-0.014
-660.959	501.543	-0.064	0.147
-659.945	94.921	-0.234	0.265
-658.930	-122.550	0.363	-0.059
-657.916	-117.396	0.092	-0.017
-656.901	76.739	0.110	0.117
-655.886	-49.266	-0.118	-0.056
-654.872	-154.893	-0.228	0.015
-653.857	40.818	0.140	0.126
-652.843	6.285	-0.127	-0.094
-651.828	-42.413	0.122	0.062
-650.814	-200.000	-0.003	0.085
-649.799	188.048	-0.100	0.148
-648.784	-108.368	-0.317	-0.068
-647.770	-102.464	-0.241	-0.058
-646.755	800.000	-0.044	0.167
-645.741	-176.756	0.023	-0.001
-644.726	290.715	-0.039	0.071
-643.711	-200.000	-0.021	-0.327
-642.697	-97.107	0.182	-0.047
-641.682	-200.000	-0.011	-0.298
-640.668	-108.613	-0.317	0.068
-639.653	32.200	0.110	0.095
-638.638	-79.408	0.097	-0.033
-637.624	-200.000	0.002	-0.331
-636.609	-111.443	-0.226	-0.046
-635.595	-200.000	-0.042	-0.246
-634.580	-115.279	-0.382	0.072
-633.565	-28.819	-0.271	-0.155
-632.551	360.798	-0.145	0.289
-631.536	-200.000	-0.001	-0.183
-630.522	-200.000	0.051	-0.350
-629.507	-34.538	0.318	-0.173
-628.492	-182.752	0.222	0.004
-627.478	232.948	-0.059	-0.096
-626.463	148.278	0.022	-0.029
-625.449	12.214	0.200	0.153
-624.434	240.923	0.046	0.077
-623.419	-55.371	-0.269	0.120
-622.405	-138.504	0.091	-0.010
-621.390	181.416	-0.058	-0.084
-620.376	-95.892	-0.080	-0.021
-619.361	611.895	0.078	0.193
-618.346	-200.000	0.022	0.203
-617.332	-107.369	0.215	0.047
-616.317	-122.038	0.308	-0.050
-615.303	-131.188	-0.185	-0.024
-614.288	-2.542	0.163	-0.114
-613.273	29.878	-0.058	-0.049
-612.259	800.000	-0.103	-0.393
-611.244	293.395	-0.051	0.093
-610.230	149.400	-0.186	0.251
-609.215	-29.645	0.073	-0.042
-608.201	-96.408	-0.278	0.073
-607.186	-28.773	0.233	0.133
-606.171	29.079	-0.063	-0.053
-605.157	-158.077	0.183	-0.011
-604.142	-106.580	-0.204	-0.045
-603.128	-200.000	0.032	0.276
-602.113	257.605	-0.057	0.097
-601.098	-200.000	0.029	-0.146
-600.084	-200.000	-0.045	-0.230
-599.069	-200.000	0.022	0.114
-598.055	-56.439	-0.170	0.075
-597.040	-200.000	0.023	-0.381
-596.025	-67.608	-0.055	-0.022
-595.011	52.164	0.231	0.218
-593.996	-200.000	-0.037	0.345
-592.982	-5.432	0.043	0.029
-591.967	82.403	-0.238	-0.256
-590.952	800.000	-0.011	0.039
-589.938	-200.000	0.011	-0.205
-588.923	65.599	-0.091	-0.091
-587.909	-200.000	-0.009	-0.084
-586.894	800.000	-0.114	-0.326
-585.879	-28.264	-0.102	-0.059
-584.865	228.581	0.063	0.101
-583.850	-160.955	0.224	0.012
-582.836	-31.319	0.210	-0.118
-581.821	-200.000	0.000	0.195
-580.806	800.000	0.087	-0.262
-579.792	-40.205	0.090	-0.046
-578.777	-200.000	0.013	-0.194
-577.763	-109.223	0.360	0.076
-576.748	190.687	-0.084	0.126
-575.733	121.537	-0.085	-0.106
-574.719	-82.334	-0.165	-0.053
-573.704	-200.000	0.005	0.082
-572.690	15.661	-0.108	-0.085
-571.675	-30.648	-0.135	0.076
-570.661	-21.720	-0.107	0.064
-569.646	-1.968	0.047	0.033
-568.631	607.110	0.105	0.260
-567.617	800.000	0.036	0.117
-566.602	-200.000	0.027	-0.310
-565.588	162.711	-0.137	-0.191
-564.573	229.722	-0.246	0.399
-563.558	392.043	-0.073	-0.151
-562.544	-25.214	-0.155	-0.091
-561.529	11.109	0.180	-0.137
-560.515	-200.000	0.035	0.172
-559.500	-200.000	-0.020	0.222
-558.485	475.174	0.204	-0.458
-557.471	28.817	0.091	-0.076
-556.456	-200.000	0.006	-0.179
-555.442	-105.636	-0.314	0.070
-554.427	-131.526	0.131	-0.017
-553.412	90.974	-0.039	0.043
-552.398	367.597	0.111	-0.223
-551.383	-115.791	-0.021	0.004
-550.369	373.404	0.127	0.256
-549.354	-153.793	-0.343	-0.023
-548.339	257.277	-0.015	0.026
-547.325	-153.585	0.323	0.022
-546.310	185.514	-0.158	0.233
-545.296	-24.609	0.244	0.144
-544.281	613.866	0.122	0.303
-543.266	358.842	-0.116	0.230
-542.252	-89.365	0.245	-0.072
-541.237	800.000	-0.020	0.062
-540.223	800.000	-0.122	0.381
-539.208	-61.487	-0.097	-0.040
-538.193	-145.027	0.228	-0.021
-537.179	-200.000	0.028	-0.141
-536.164	756.746	-0.035	-0.094
-535.150	-22.841	-0.224	-0.134
-534.135	800.000	0.088	-0.263
-533.121	581.754	-0.070	-0.169
-532.106	762.359	-0.046	0.123
-531.091	24.970	0.248	0.204
-530.077	-85.372	-0.286	0.088
-529.062	-77.565	0.228	0.079
-528.048	-96.617	0.391	0.102
-527.033	61.305	-0.173	-0.171
-526.018	84.097	-0.159	-0.172
-525.004	-200.000	0.002	-0.119
-523.989	-29.694	-0.149	0.084
-522.975	70.648	0.214	-0.219
-521.960	364.663	0.108	-0.215
-520.945	-200.000	0.025	0.191
-519.931	-192.366	-0.113	0.001
-518.916	-27.035	0.130	0.075
-517.902	800.000	-0.023	0.098
-516.887	-94.602	-0.224	0.060
-515.872	226.816	-0.048	-0.077
-514.858	175.050	0.138	0.199
-513.843	-119.298	0.176	0.030
-512.829	-40.099	0.212	0.109
-511.814	-93.404	-0.412	-0.113
-510.799	-22.562	0.279	0.167
-509.785	22.455	-0.220	0.178
-508.770	-164.723	-0.099	0.004
-507.756	-200.000	0.000	-0.060
-506.741	95.768	0.352	-0.398
-505.726	-181.158	-0.127	-0.003
-504.712	6.801	-0.219	-0.162
-503.697	-11.591	-0.106	0.069
-502.683	124.240	-0.173	-0.215
-501.668	452.664	0.131	-0.287
-500.653	63.357	-0.178	-0.177
-499.639	742.673	0.144	-0.382
-498.624	-84.373	-0.172	-0.054
-497.610	747.863	0.031	0.082
-496.595	53.565	-0.067	0.064
-495.581	-74.508	-0.060	-0.022
-494.566	-200.000	-0.151	0.000
-493.551	676.357	-0.055	-0.141
-492.537	169.058	-0.127	0.179
-491.522	-16.768	0.326	0.204
-490.508	41.741	0.017	0.015
-489.493	-10.810	0.176	0.115
-488.478	258.358	-0.316	0.539
-487.464	13.618	0.056	0.043
-486.449	-135.919	0.377	0.044
-485.435	-200.000	-0.005	-0.092
-484.420	-200.000	0.038	0.282
-483.405	78.416	0.094	0.100
-482.391	-49.669	-0.041	-0.019
-481.376	160.281	-0.096	-0.133
-480.362	800.000	0.019	-0.079
-479.347	-119.790	0.384	0.065
-478.332	-200.000	0.038	0.204
-477.318	-60.813	-0.068	0.029
-476.303	-155.626	0.227	-0.014
-475.289	-200.000	-0.055	-0.279
-474.274	82.742	-0.169	0.182
-473.259	800.000	-0.037	-0.130
-472.245	244.623	0.023	-0.039
-471.230	-47.237	0.222	-0.107
-470.216	14.132	0.261	0.201
-469.201	-200.000	-0.000	0.187
-468.186	-200.000	0.020	0.135
-467.172	-166.225	0.252	0.011
-466.157	119.620	-0.155	-0.190
-465.143	-82.677	0.373	0.119
-464.128	800.000	-0.037	0.135
-463.113	-200.000	-0.040	-0.218
-462.099	-200.000	0.043	-0.197
-461.084	-65.428	0.142	-0.056
-460.070	800.000	-0.093	-0.312
-459.055	-37.588	0.088	-0.046
-458.040	-134.811	-0.319	-0.038
-457.026	519.473	0.003	0.007
-456.011	58.941	-0.247	0.240
-454.997	-148.372	-0.465	0.038
-453.982	-61.188	0.145	-0.060
-452.968	-133.231	0.324	-0.041
-451.953	-103.044	-0.245	0.057
-450.938	-142.463	0.370	0.036
-449.924	62.106	-0.210	-0.207
-448.909	-64.186	-0.457	0.184
-447.895	28.259	0.180	-0.150
-446.880	-145.949	0.190	-0.017
-445.865	-62.105	0.188	-0.078
-444.851	342.288	0.175	-0.339
-443.836	44.905	-0.173	-0.157
-442.822	-200.000	-0.007	0.338
-441.807	14.259	0.072	-0.055
-440.792	-134.827	0.465	-0.056
-439.778	-136.996	-0.285	0.032
-438.763	-136.951	0.202	0.023
-437.749	-69.762	0.245	0.093
-436.734	-104.592	-0.446	-0.102
-435.719	-145.003	-0.170	0.015
-434.705	-167.145	-0.211	0.008
-433.690	118.397	-0.244	-0.298
-432.676	219.639	0.045	0.070
-431.661	-131.774	-0.251	-0.033
-430.646	-111.611	-0.258	-0.052
-429.632	75.107	-0.096	0.100
-428.617	-200.000	-0.044	-0.230
-427.603	800.000	0.023	-0.088
-426.588	37.560	-0.061	0.053
-425.573	104.052	0.287	0.334
-424.559	-165.021	0.429	0.019
-423.544	585.496	0.116	-0.282
-422.530	-200.000	0.000	0.057
-421.515	-111.205	-0.181	0.036
-420.500	50.905	-0.507	0.475
-419.486	583.833	-0.034	0.082
-418.471	58.541	0.396	-0.383
-417.457	800.000	-0.114	-0.417
-416.442	-111.991	-0.270	-0.054
-415.428	-200.000	0.060	-0.290
-414.413	-193.960	0.233	-0.002
-413.398	-168.536	-0.328	-0.012
-412.384	800.000	-0.124	0.488
-411.369	-200.000	0.057	0.298
-410.355	-61.256	-0.218	-0.091
-409.340	-123.771	0.105	0.016
-408.325	-200.000	-0.031	0.241
-407.311	-200.000	-0.030	0.182
-406.296	800.000	0.030	-0.100
-405.282	-9.933	0.154	-0.101
-404.267	106.589	-0.175	0.204
-403.252	126.799	-0.075	-0.094
-402.238	144.187	-0.066	0.087
-401.223	-133.206	-0.292	0.036
-400.209	217.357	-0.112	-0.175
-399.194	131.943	0.258	-0.328
-398.179	129.161	0.194	-0.244
-397.165	-82.721	-0.142	0.045
-396.150	-126.335	0.353	-0.052
-395.136	-200.000	0.036	0.197
-394.121	-200.000	0.006	-0.196
-393.106	-84.627	-0.208	0.065
-392.092	-76.476	0.137	-0.048
-391.077	-39.698	-0.183	-0.094
-390.063	-78.005	-0.342	0.116
-389.048	148.720	-0.306	-0.408
-388.033	635.582	0.149	-0.373
-387.019	-130.172	0.145	0.019
-386.004	504.285	0.047	-0.108
-384.990	319.434	0.132	0.247
-383.975	76.524	-0.181	-0.189
-382.960	233.682	-0.143	-0.233
-381.946	89.208	0.074	0.082
-380.931	176.650	-0.197	0.282
-379.917	800.000	-0.046	-0.147
-378.902	-62.051	0.194	-0.080
-377.888	-172.477	0.309	0.010
-376.873	176.372	0.105	0.150
-375.858	-200.000	0.022	0.205
-374.844	-2.656	0.381	0.263
-373.829	-155.577	-0.410	0.026
-372.815	-200.000	0.007	-0.058
-371.800	-137.848	0.170	0.019
-370.785	46.075	0.119	0.109
-369.771	-41.183	-0.194	-0.099
-368.756	133.191	-0.101	0.128
-367.742	-153.702	-0.256	-0.017
-366.727	-93.748	0.143	0.039
-365.712	131.704	0.122	-0.155
-364.698	-200.000	0.019	0.191
-363.683	-113.272	0.266	-0.051
-362.669	-200.000	-0.013	-0.222
-361.654	119.254	0.346	0.422
-360.639	-83.670	0.227	-0.071
-359.625	-19.208	0.077	-0.047
-358.610	-66.669	-0.454	-0.177
-357.596	-200.000	-0.055	0.240
-356.581	271.067	-0.117	-0.204
-355.566	34.758	-0.103	-0.088
-354.552	193.828	0.058	-0.086
-353.537	-200.000	-0.007	-0.070
-352.523	312.537	0.030	0.056
-351.508	56.656	0.098	0.094
-350.493	-42.746	-0.164	0.082
-349.479	164.383	0.078	0.109
-348.464	63.278	0.085	0.084
-347.450	-192.205	-0.144	0.001
-346.435	-46.612	-0.130	0.063
-345.420	-73.657	-0.233	0.083
-344.406	165.508	0.126	0.175
-343.391	447.147	0.054	0.117
-342.377	-14.880	-0.222	0.140
-341.362	576.192	0.063	-0.152
-340.348	-99.526	0.173	-0.043
-339.333	-200.000	0.001	0.264
-338.318	56.867	0.056	0.053
-337.304	-200.000	-0.064	0.317
-336.289	800.000	0.066	0.258
-335.275	396.712	0.116	-0.238
-334.260	192.755	0.287	0.427
-333.245	46.807	-0.197	0.180
-332.231	308.118	-0.033	-0.061
-331.216	-200.000	0.029	-0.142
-330.202	-154.211	0.288	0.019
-329.187	-184.653	-0.083	-0.001
-328.172	-71.710	0.187	0.069
-327.158	-79.070	-0.200	-0.067
-326.143	-130.440	-0.330	0.044
-325.129	-119.320	-0.190	0.033
-324.114	800.000	0.067	-0.283
-323.099	346.779	0.025	-0.049
-322.085	-4.877	0.071	0.048
-321.070	719.717	0.127	0.332
-320.056	-200.000	0.028	0.207
-319.041	39.669	-0.190	0.167
-318.026	-96.374	0.161	-0.042
-317.012	-55.537	0.207	-0.091
-315.997	123.770	-0.196	-0.242
-314.983	-102.426	-0.139	-0.033
-313.968	-9.172	0.291	-0.191
-312.953	800.000	0.142	0.573
-311.939	-26.352	0.283	0.163
-310.924	-84.576	-0.292	0.090
-309.910	9.963	0.059	0.044
-308.895	-200.000	-0.047	-0.210
-307.880	70.841	0.056	-0.057
-306.866	128.123	0.110	0.137
-305.851	-47.571	-0.249	-0.119
-304.837	19.529	-0.283	0.224
-303.822	800.000	0.074	0.297
-302.807	-52.231	0.154	-0.070
-301.793	800.000	-0.048	-0.182
-300.778	-54.671	-0.354	0.157
-299.764	98.602	0.338	-0.383
-298.749	-58.059	-0.169	-0.072
-297.735	-157.391	0.283	0.017
-296.720	-38.505	-0.242	0.126
-295.705	-40.422	0.327	-0.167
-294.691	392.183	0.086	-0.175
-293.676	-194.924	-0.218	-0.002
-292.662	225.054	-0.196	0.311
-291.647	34.733	0.300	0.258
-290.632	93.667	0.021	-0.023
-289.618	133.193	-0.279	0.354
-288.603	-200.000	-0.014	0.352
-287.589	-66.371	-0.169	0.066
-286.574	800.000	0.089	0.256
-285.559	-110.327	-0.252	-0.051
-284.545	-97.487	-0.088	0.023
-283.530	800.000	0.078	-0.221
-282.516	55.304	-0.168	0.159
-281.501	-48.034	0.066	0.031
-280.486	18.553	0.079	-0.062
-279.472	207.062	0.198	0.303
-278.457	402.890	-0.113	0.233
-277.443	-67.965	-0.337	0.129
-276.428	-142.767	-0.124	-0.012
-275.413	-200.000	0.043	0.192
-274.399	-78.931	0.291	-0.097
-273.384	-6.928	0.107	-0.071
-272.370	114.697	0.111	0.133
-271.355	-18.356	0.295	0.181
-270.340	223.420	0.121	0.192
-269.326	161.305	-0.058	-0.079
-268.311	-139.996	-0.499	-0.052
-267.297	-15.686	0.379	-0.237
-266.282	-200.000	-0.025	-0.176
-265.267	-133.982	-0.359	0.044
-264.253	383.970	-0.174	-0.352
-263.238	117.912	0.246	-0.297
-262.224	49.853	-0.228	-0.211
-261.209	-4.004	-0.124	0.084
-260.195	340.601	-0.088	-0.168
-259.180	-71.708	-0.098	-0.036
-258.165	-200.000	0.133	-0.001
-257.151	800.000	-0.035	0.106
-256.136	56.588	0.152	0.145
-255.122	-200.000	-0.028	-0.130
-254.107	-25.584	0.328	0.190
-253.092	336.588	0.070	-0.132
-252.078	691.091	-0.058	0.150
-251.063	319.374	0.143	-0.265
-250.049	-47.720	0.454	-0.216
-249.034	-200.000	-0.025	-0.295
-248.019	441.757	-0.135	-0.290
-247.005	53.791	-0.055	0.052
-245.990	800.000	-0.065	0.256
-244.976	-32.213	0.296	0.162
-243.961	-200.000	-0.048	-0.262
-242.946	-200.000	-0.020	-0.255
-241.932	135.193	-0.108	0.137
-240.917	-115.617	-0.283	0.052
-239.903	35.634	0.440	-0.379
-238.888	-200.000	-0.145	-0.653
-237.873	52.852	-0.078	0.073
-236.859	-48.992	0.189	-0.089
-235.844	538.029	-0.085	0.198
-234.830	12.993	0.235	0.178
-233.815	800.000	0.092	0.254
-232.800	-31.964	0.089	0.049
-231.786	160.801	-0.061	0.083
-230.771	185.307	-0.048	-0.070
-229.757	-200.000	-0.000	-0.168
-228.742	73.761	0.191	-0.196
-227.727	-148.162	-0.306	0.025
-226.713	-93.656	-0.140	0.038
-225.698	-145.532	0.118	-0.010
-224.684	35.238	0.204	0.176
-223.669	-9.769	0.228	-0.148
-222.655	100.180	-0.216	-0.245
-221.640	-109.545	-0.209	-0.043
-220.625	-69.819	-0.270	0.101
-219.611	-102.312	-0.009	0.002
-218.596	-200.000	0.004	-0.159
-217.582	-76.634	-0.167	0.057
-216.567	-31.154	-0.037	-0.020
-215.552	83.997	-0.096	-0.103
-214.538	-91.814	0.200	0.056
-213.523	-43.592	0.119	0.059
-212.509	800.000	0.076	-0.294
-211.494	-200.000	0.016	0.231
-210.479	-200.000	-0.011	-0.134
-209.465	-23.097	-0.071	0.042
-208.450	228.767	-0.131	0.209
-207.436	57.863	-0.183	0.176
-206.421	-115.431	0.500	0.092
-205.406	275.848	-0.129	-0.224
-204.392	-140.669	0.414	0.042
-203.377	-49.257	0.201	-0.094
-202.363	-6.741	-0.019	0.013
-201.348	-64.059	-0.336	-0.134
-200.333	46.289	0.058	0.053
-199.319	-104.073	0.091	-0.021
-198.304	140.528	0.088	-0.114
-197.290	195.398	-0.076	-0.113
-196.275	-103.692	0.418	0.096
-195.260	-17.153	-0.038	-0.024
-194.246	144.173	-0.099	-0.129
-193.231	-57.947	0.115	0.049
-192.217	-65.146	-0.268	0.106
-191.202	251.828	0.167	0.279
-190.187	-200.000	0.035	-0.224
-189.173	800.000	-0.112	0.306
-188.158	131.216	0.105	-0.132
-187.144	96.444	0.160	-0.180
-186.129	-54.187	-0.336	-0.149
-185.114	-200.000	-0.016	-0.185
-184.100	800.000	0.068	0.193
-183.085	236.534	0.061	-0.098
-182.071	-200.000	0.045	-0.197
-181.056	362.989	-0.113	-0.222
-180.042	-149.919	-0.017	0.001
-179.027	99.947	0.195	0.221
-178.012	246.426	-0.120	0.198
-176.998	-106.352	0.028	-0.006
-175.983	-154.883	-0.156	0.010
-174.969	-47.293	-0.127	0.060
-173.954	-115.279	-0.149	-0.027
-172.939	-200.000	0.039	0.283
-171.925	750.757	0.170	0.450
-170.910	-200.000	0.051	-0.226
-169.896	119.490	0.089	0.107
-168.881	46.022	-0.063	-0.057
-167.866	69.946	-0.078	0.079
-166.852	88.899	-0.200	0.218
-165.837	34.573	-0.053	-0.045
-164.823	18.549	0.140	0.110
-163.808	87.259	0.146	0.158
-162.793	602.668	-0.121	-0.294
-161.779	29.205	0.354	0.294
-160.764	258.021	-0.124	0.209
-159.750	-88.723	-0.212	0.062
-158.735	-200.000	-0.006	0.129
-157.720	800.000	0.075	0.225
-156.706	-141.669	0.027	-0.003
-155.691	-123.205	0.212	0.033
-154.677	-91.555	0.382	-0.106
-153.662	421.456	0.016	-0.033
-152.647	-200.000	0.026	-0.186
-151.633	-151.485	-0.172	-0.012
-150.618	128.163	0.114	-0.142
-149.604	38.518	0.157	0.137
-148.589	-200.000	0.005	0.223
-147.574	131.043	0.163	0.204
-146.560	800.000	0.016	0.045
-145.545	800.000	-0.086	-0.232
-144.531	-98.333	0.163	0.041
-143.516	113.685	0.137	0.163
-142.502	-200.000	-0.029	0.225
-141.487	800.000	-0.069	0.211
-140.472	30.861	0.097	-0.081
-139.458	-91.960	-0.127	0.035
-138.443	250.144	-0.083	-0.137
-137.429	800.000	-0.019	-0.067
-136.414	-148.221	0.127	-0.010
-135.399	-63.456	0.059	0.024
-134.385	-47.026	0.228	-0.109
-133.370	-65.170	0.253	-0.100
-132.356	-200.000	-0.018	0.286
-131.341	214.981	-0.184	-0.285
-130.326	155.175	-0.077	-0.103
-129.312	800.000	0.045	-0.144
-128.297	-101.773	0.153	0.036
-127.283	-72.648	0.300	0.108
-126.268	-66.775	0.177	-0.068
-125.253	800.000	-0.095	-0.369
-124.239	-34.092	-0.211	-0.113
-123.224	47.860	0.064	0.059
-122.210	-160.331	0.158	-0.008
