DTS Sentinel unit serial number:	SN413079Multiplexer serial number:	ORYXHardware model number:	OX4-SRSoftware version number:	ORYX F/W v4.00 Oryx Data Collector v3.7.2.0data status	okinstallation	princeton_trtdifferential loss correction	single-endedforward channel	channel 2reverse channel	N/Adate	2019/09/10time	19:53:11forward acquisition time	60.00reverse acquisition time	0.00gamma	496.2192k internal	0.2328k external	0.2328temperature offset calibration	0.9945default loss term (dB/km)	0.3790temperature slope calibration	1.0000multiplexer offset coefficient	1.0000multiplexer slope coefficient	1.0000fibre end	0.00T internal ref (°C)	32.81T ext. ref 1 (°C)	-0.31T ext. ref 2 (°C)	25.70length (m)	temperature (°C)	Stokes	anti-Stokes-747.200	72.316	-0.130	-0.137
-746.185	-69.093	-0.135	0.052
-745.171	39.779	-0.276	0.250
-744.156	50.891	-0.136	-0.130
-743.142	-34.358	0.152	0.084
-742.127	-122.677	-0.128	0.021
-741.112	-53.910	0.346	-0.159
-740.098	152.161	-0.127	-0.175
-739.083	-200.000	-0.013	0.096
-738.069	289.371	0.066	0.120
-737.054	800.000	-0.043	0.126
-736.039	-7.439	0.068	0.046
-735.025	-6.897	0.139	-0.095
-734.010	-200.000	0.032	-0.193
-732.996	-14.517	-0.223	0.144
-731.981	-155.298	-0.190	0.012
-730.966	-200.000	0.015	0.168
-729.952	-16.168	0.131	0.084
-728.937	121.642	-0.111	-0.139
-727.923	-200.000	-0.017	0.147
-726.908	-200.000	-0.012	-0.182
-725.894	-34.275	-0.241	0.133
-724.879	-176.407	0.023	-0.001
-723.864	19.990	0.117	-0.095
-722.850	-62.838	0.154	0.064
-721.835	-7.437	0.176	-0.120
-720.821	-200.000	0.116	-0.558
-719.806	-30.938	0.098	0.056
-718.791	28.918	0.084	0.072
-717.777	-155.776	-0.143	0.009
-716.762	-134.034	-0.361	-0.045
-715.748	-110.983	0.216	0.045
-714.733	12.954	-0.230	-0.179
-713.718	-6.201	-0.331	0.227
-712.704	-127.496	-0.197	0.029
-711.689	-4.134	0.181	0.126
-710.675	800.000	-0.094	-0.319
-709.660	-47.449	-0.401	0.196
-708.645	325.322	-0.043	0.083
-707.631	-200.000	-0.020	-0.092
-706.616	-32.381	-0.262	-0.147
-705.602	40.570	0.279	0.253
-704.587	280.074	0.030	0.053
-703.572	800.000	0.065	0.241
-702.558	414.032	0.127	-0.271
-701.543	134.641	0.116	-0.152
-700.529	800.000	0.081	-0.314
-699.514	-200.000	0.029	-0.185
-698.499	-83.032	-0.070	-0.023
-697.485	-133.787	-0.265	0.033
-696.470	163.855	-0.155	-0.220
-695.456	-91.120	-0.124	-0.036
-694.441	352.580	0.163	-0.325
-693.426	800.000	-0.046	0.137
-692.412	-118.809	0.189	-0.034
-691.397	-200.000	0.009	-0.102
-690.383	800.000	-0.056	0.184
-689.368	-200.000	0.023	-0.220
-688.354	-76.672	-0.334	-0.118
-687.339	256.017	-0.090	0.155
-686.324	72.395	0.101	-0.106
-685.310	548.900	-0.131	0.316
-684.295	-8.845	0.066	0.044
-683.281	-47.911	-0.303	0.147
-682.266	11.343	0.118	-0.091
-681.251	57.607	0.256	0.252
-680.237	-64.423	0.354	0.145
-679.222	-20.653	-0.238	-0.147
-678.208	800.000	-0.029	-0.091
-677.193	-200.000	0.019	-0.144
-676.178	-161.331	0.325	0.017
-675.164	-43.358	-0.116	-0.059
-674.149	-99.058	-0.191	-0.049
-673.135	-125.443	-0.468	-0.072
-672.120	-63.873	0.409	0.168
-671.105	-86.880	-0.182	0.056
-670.091	-27.359	-0.138	0.081
-669.076	25.408	-0.238	0.199
-668.062	170.278	0.296	-0.425
-667.047	182.887	0.138	0.205
-666.032	800.000	0.020	-0.068
-665.018	-200.000	0.004	0.279
-664.003	800.000	0.118	-0.413
-662.989	377.415	0.069	-0.141
-661.974	140.752	-0.155	0.206
-660.959	800.000	-0.128	0.369
-659.945	413.704	-0.125	0.268
-658.930	-159.344	0.108	0.006
-657.916	-131.826	-0.067	-0.009
-656.901	-200.000	0.034	0.154
-655.886	-200.000	0.015	-0.283
-654.872	-0.685	0.235	0.167
-653.857	217.430	-0.183	0.292
-652.843	-96.803	0.143	-0.038
-651.828	85.945	0.134	-0.148
-650.814	84.929	-0.081	0.089
-649.799	104.184	-0.246	0.290
-648.784	-70.900	-0.336	-0.127
-647.770	-25.872	-0.065	0.038
-646.755	-200.000	0.045	-0.370
-645.741	-66.777	-0.241	-0.096
-644.726	-100.243	0.141	0.035
-643.711	3.334	0.121	0.089
-642.697	-24.007	0.342	-0.205
-641.682	-200.000	0.045	-0.352
-640.668	-2.006	0.107	-0.075
-639.653	1.475	-0.171	-0.123
-638.638	-108.069	0.318	-0.069
-637.624	-130.926	-0.254	-0.034
-636.609	-200.000	0.270	0.001
-635.595	14.521	-0.252	-0.198
-634.580	-200.000	-0.006	-0.189
-633.565	-61.273	-0.227	0.096
-632.551	27.946	0.034	-0.029
-631.536	-33.798	-0.249	0.138
-630.522	-72.568	-0.384	-0.142
-629.507	333.530	0.065	-0.126
-628.492	-200.000	0.047	-0.279
-627.478	233.578	0.071	-0.118
-626.463	-61.064	-0.226	0.096
-625.449	-86.337	0.152	-0.047
-624.434	-69.412	0.228	0.088
-623.419	-50.614	0.079	-0.037
-622.405	70.090	-0.203	0.211
-621.390	34.995	0.077	-0.067
-620.376	110.821	-0.233	-0.281
-619.361	103.918	-0.065	0.076
-618.346	50.708	0.269	-0.256
-617.332	-200.000	-0.004	-0.440
-616.317	77.498	-0.121	-0.129
-615.303	-200.000	-0.015	-0.176
-614.288	-200.000	0.055	0.416
-613.273	462.403	-0.050	0.112
-612.259	800.000	0.045	-0.136
-611.244	23.941	-0.040	0.033
-610.230	418.122	0.040	0.085
-609.215	-200.000	0.040	-0.455
-608.201	-91.780	-0.187	0.053
-607.186	102.123	0.214	0.250
-606.171	800.000	-0.010	-0.034
-605.157	594.702	-0.024	-0.059
-604.142	-200.000	0.012	-0.108
-603.128	544.145	-0.070	-0.167
-602.113	-200.000	-0.053	-0.344
-601.098	-200.000	0.049	-0.462
-600.084	-106.173	-0.122	0.027
-599.069	-124.821	0.108	-0.017
-598.055	375.985	-0.029	-0.058
-597.040	12.213	-0.117	-0.091
-596.025	-29.721	0.418	0.239
-595.011	216.405	-0.270	0.430
-593.996	161.401	-0.174	-0.243
-592.982	800.000	0.011	-0.040
-591.967	-68.514	-0.304	-0.118
-590.952	-185.681	-0.069	-0.001
-589.938	18.631	-0.218	-0.175
-588.923	-148.476	0.421	0.035
-587.909	-7.546	0.178	-0.121
-586.894	800.000	-0.054	0.196
-585.879	800.000	0.088	0.279
-584.865	-159.249	0.045	-0.003
-583.850	-11.743	0.121	-0.079
-582.836	68.086	-0.172	-0.176
-581.821	-200.000	-0.008	0.330
-580.806	-200.000	-0.017	-0.202
-579.792	800.000	-0.046	-0.152
-578.777	800.000	-0.023	-0.097
-577.763	178.181	-0.100	0.145
-576.748	5.773	-0.125	-0.093
-575.733	-200.000	-0.012	-0.129
-574.719	800.000	0.079	-0.314
-573.704	137.345	-0.190	-0.249
-572.690	82.893	-0.111	0.120
-571.675	584.808	-0.064	0.157
-570.661	-141.404	-0.424	0.043
-569.646	-48.637	0.281	-0.135
-568.631	-9.716	0.250	-0.167
-567.617	-53.007	-0.115	0.053
-566.602	800.000	-0.060	-0.170
-565.588	-200.000	-0.033	0.183
-564.573	-12.422	-0.099	-0.065
-563.558	305.968	0.101	0.188
-562.544	-128.553	-0.194	0.027
-561.529	34.837	0.100	-0.087
-560.515	156.726	0.048	-0.066
-559.500	-22.758	0.125	-0.076
-558.485	-162.505	0.435	0.022
-557.471	-43.682	-0.231	0.117
-556.456	-147.479	-0.186	-0.016
-555.442	-134.832	-0.144	0.017
-554.427	161.649	-0.087	0.121
-553.412	63.987	-0.041	0.041
-552.398	178.101	0.213	-0.311
-551.383	-124.047	0.220	-0.035
-550.369	-177.117	-0.243	-0.006
-549.354	73.362	-0.018	0.019
-548.339	-73.674	-0.235	-0.086
-547.325	89.832	-0.310	0.347
-546.310	21.730	0.235	-0.191
-545.296	-200.000	-0.051	-0.393
-544.281	-1.874	0.207	0.145
-543.266	800.000	-0.085	-0.247
-542.252	399.155	-0.127	0.267
-541.237	-113.508	0.029	0.006
-540.223	800.000	0.085	0.313
-539.208	6.504	-0.213	-0.158
-538.193	419.018	0.089	-0.191
-537.179	25.398	0.094	0.078
-536.164	-190.535	0.302	0.003
-535.150	225.811	0.103	-0.167
-534.135	-200.000	0.013	-0.273
-533.121	72.284	-0.049	0.051
-532.106	-200.000	0.015	0.304
-531.091	-32.756	-0.284	-0.158
-530.077	204.261	0.116	-0.180
-529.062	31.549	0.110	-0.095
-528.048	35.181	-0.160	0.140
-527.033	-40.765	-0.053	0.027
-526.018	19.761	-0.396	-0.319
-525.004	800.000	-0.065	-0.227
-523.989	240.925	0.078	0.130
-522.975	-130.837	0.396	0.053
-521.960	191.936	0.232	-0.349
-520.945	58.749	-0.187	-0.184
-519.931	221.802	0.053	0.085
-518.916	-182.172	-0.047	0.001
-517.902	-55.680	-0.306	-0.137
-516.887	28.759	-0.181	0.153
-515.872	800.000	0.093	0.313
-514.858	800.000	-0.147	-0.438
-513.843	-200.000	0.027	-0.233
-512.829	-200.000	0.029	-0.241
-511.814	-147.185	-0.526	-0.045
-510.799	-138.713	-0.194	0.021
-509.785	-149.087	0.098	0.008
-508.770	658.851	-0.022	-0.057
-507.756	-58.763	-0.114	-0.049
-506.741	-9.979	-0.390	-0.259
-505.726	-151.787	-0.095	-0.007
-504.712	-101.408	0.124	-0.030
-503.697	291.925	0.140	-0.255
-502.683	110.893	-0.241	0.289
-501.668	-107.920	-0.057	0.012
-500.653	-151.376	-0.217	0.016
-499.639	123.407	-0.173	0.216
-498.624	-7.397	0.134	0.090
-497.610	-200.000	0.061	0.352
-496.595	533.177	-0.063	-0.148
-495.581	800.000	0.079	-0.342
-494.566	-61.634	0.304	-0.127
-493.551	-160.163	-0.364	0.020
-492.537	-200.000	-0.016	-0.076
-491.522	80.635	-0.039	-0.042
-490.508	-134.548	0.085	0.010
-489.493	-79.194	-0.143	-0.048
-488.478	60.206	0.246	0.242
-487.464	-21.615	0.161	0.098
-486.449	97.119	0.189	-0.216
-485.435	289.641	0.200	0.362
-484.420	2.793	0.134	0.097
-483.405	-200.000	0.046	-0.254
-482.391	132.813	0.045	-0.058
-481.376	158.755	0.197	0.272
-480.362	-138.933	0.153	0.017
-479.347	204.667	0.083	0.128
-478.332	-200.000	-0.016	-0.092
-477.318	-30.723	-0.092	0.052
-476.303	-200.000	0.016	-0.270
-475.289	-145.572	-0.265	-0.024
-474.274	639.330	0.167	0.424
-473.259	-18.571	-0.230	-0.143
-472.245	349.700	0.061	-0.120
-471.230	518.913	0.086	0.201
-470.216	-39.379	-0.272	0.142
-469.201	-15.663	0.221	0.140
-468.186	-200.000	-0.043	0.249
-467.172	-200.000	0.037	-0.219
-466.157	786.379	-0.040	0.108
-465.143	-7.367	-0.070	0.047
-464.128	-168.079	0.049	0.002
-463.113	-151.910	0.250	-0.018
-462.099	338.258	-0.006	0.012
-461.084	172.018	-0.185	0.265
-460.070	101.462	0.244	0.283
-459.055	19.973	0.181	0.146
-458.040	78.620	0.270	0.287
-457.026	800.000	-0.055	-0.163
-456.011	-200.000	0.001	0.275
-454.997	-27.515	-0.277	-0.161
-453.982	108.732	0.153	0.182
-452.968	207.770	0.073	0.113
-451.953	-116.720	0.187	-0.034
-450.938	61.910	-0.185	-0.184
-449.924	472.928	-0.086	0.192
-448.909	148.559	0.203	-0.273
-447.895	-65.481	0.127	-0.051
-446.880	-33.139	-0.180	0.100
-445.865	-200.000	-0.018	0.307
-444.851	51.203	0.125	0.118
-443.836	570.749	0.020	0.050
-442.822	-200.000	0.001	0.089
-441.807	-84.456	-0.090	-0.028
-440.792	-33.846	-0.163	-0.089
-439.778	-4.661	0.172	0.118
-438.763	-62.688	-0.165	0.068
-437.749	-36.145	-0.013	0.007
-436.734	800.000	-0.089	-0.369
-435.719	-116.501	0.175	-0.032
-434.705	-182.807	0.297	0.005
-433.690	-139.209	-0.101	0.011
-432.676	800.000	0.048	-0.165
-431.661	97.226	0.113	-0.129
-430.646	-90.593	-0.050	0.014
-429.632	-117.103	0.291	-0.053
-428.617	800.000	0.081	0.261
-427.603	800.000	-0.024	-0.068
-426.588	618.811	0.065	-0.163
-425.573	-200.000	-0.264	0.000
-424.559	-102.686	0.358	0.085
-423.544	231.283	-0.062	-0.101
-422.530	-200.000	-0.016	-0.123
-421.515	-25.925	-0.170	0.099
-420.500	167.409	-0.085	-0.120
-419.486	800.000	-0.110	-0.357
-418.471	-132.976	0.196	0.025
-417.457	-200.000	-0.067	0.331
-416.442	-200.000	-0.002	-0.022
-415.428	-99.476	-0.329	0.082
-414.413	204.075	0.062	0.096
-413.398	68.006	0.135	-0.137
-412.384	-200.000	-0.028	-0.174
-411.369	579.126	0.079	0.192
-410.355	298.575	0.140	0.256
-409.340	-200.000	-0.004	0.158
-408.325	408.969	0.067	-0.141
-407.311	102.247	-0.012	0.015
-406.296	-33.381	0.195	-0.107
-405.282	800.000	0.053	-0.177
-404.267	55.837	0.204	0.197
-403.252	398.702	-0.095	0.197
-402.238	-63.703	0.061	-0.025
-401.223	800.000	0.021	-0.091
-400.209	291.091	-0.046	-0.082
-399.194	342.353	0.072	0.141
-398.179	-71.564	0.057	0.021
-397.165	-22.943	-0.085	0.051
-396.150	-77.478	0.254	0.088
-395.136	53.039	0.174	0.166
-394.121	800.000	-0.040	0.127
-393.106	-55.351	-0.118	0.053
-392.092	484.876	0.152	0.344
-391.077	254.802	-0.125	0.213
-390.063	25.899	-0.132	0.109
-389.048	-200.000	-0.004	-0.075
-388.033	-55.132	-0.073	0.033
-387.019	-95.807	0.192	-0.051
-386.004	-200.000	0.060	-0.264
-384.990	211.915	-0.106	0.167
-383.975	-42.086	0.227	-0.115
-382.960	-72.038	0.158	0.058
-381.946	-200.000	-0.008	0.064
-380.931	800.000	0.028	0.080
-379.917	-85.252	0.162	0.050
-378.902	-57.194	-0.142	-0.062
-377.888	45.151	0.192	0.176
-376.873	29.104	0.271	0.228
-375.858	-106.080	0.211	-0.047
-374.844	-8.618	-0.194	0.129
-373.829	228.934	0.088	-0.142
-372.815	329.260	0.022	-0.042
-371.800	800.000	0.055	0.174
-370.785	135.543	0.119	-0.154
-369.771	454.254	0.052	0.114
-368.756	-192.008	0.277	0.003
-367.742	-200.000	-0.003	-0.233
-366.727	-200.000	-0.022	-0.138
-365.712	-200.000	-0.040	0.235
-364.698	103.390	0.065	-0.076
-363.683	-200.000	0.000	0.138
-362.669	-51.172	-0.159	0.074
-361.654	423.592	-0.163	0.347
-360.639	-3.779	-0.089	0.062
-359.625	-180.525	-0.188	0.004
-358.610	-200.000	0.015	-0.116
-357.596	-200.000	0.027	-0.136
-356.581	26.093	-0.071	-0.059
-355.566	-183.467	-0.293	-0.005
-354.552	-39.306	0.083	-0.043
-353.537	120.808	0.316	0.390
-352.523	-79.402	0.109	-0.037
-351.508	-48.054	0.282	0.135
-350.493	-200.000	0.013	-0.167
-349.479	320.047	-0.078	-0.146
-348.464	-200.000	0.030	0.164
-347.450	306.349	-0.226	0.418
-346.435	800.000	0.114	0.347
-345.420	27.593	-0.195	-0.163
-344.406	-200.000	-0.031	-0.274
-343.391	-24.945	-0.246	0.145
-342.377	-157.555	-0.265	-0.016
-341.362	800.000	0.041	-0.131
-340.348	109.450	0.248	0.295
-339.333	-52.130	-0.045	-0.021
-338.318	-89.031	0.208	-0.061
-337.304	409.044	0.152	0.320
-336.289	-148.858	-0.290	0.023
-335.275	315.426	-0.011	0.021
-334.260	-93.457	0.011	-0.003
-333.245	-124.582	-0.158	0.024
-332.231	50.035	0.337	0.316
-331.216	123.450	-0.233	-0.289
-330.202	234.261	0.034	-0.056
-329.187	484.174	0.069	0.156
-328.172	196.850	0.101	-0.153
-327.158	-147.359	0.145	-0.012
-326.143	-4.842	0.092	0.063
-325.129	50.960	0.182	-0.171
-324.114	-7.006	-0.058	-0.039
-323.099	792.692	0.065	-0.177
-322.085	177.005	0.089	-0.129
-321.070	185.109	0.141	0.207
-320.056	-184.957	-0.361	-0.006
-319.041	-35.684	-0.289	0.156
-318.026	-200.000	0.044	0.306
-317.012	69.803	0.263	0.269
-315.997	499.725	0.126	0.288
-314.983	-11.077	-0.099	0.065
-313.968	-200.000	-0.073	0.434
-312.953	-41.341	0.105	0.053
-311.939	-141.560	0.289	-0.029
-310.924	9.317	0.158	-0.118
-309.910	-200.000	-0.027	-0.162
-308.895	-82.226	0.380	0.123
-307.880	-127.257	0.089	-0.013
-306.866	144.208	0.068	0.089
-305.851	106.806	-0.176	0.207
-304.837	89.594	-0.086	0.095
-303.822	148.862	-0.152	0.204
-302.807	-40.742	0.033	-0.017
-301.793	-48.059	0.153	0.073
-300.778	104.194	-0.197	0.229
-299.764	75.800	0.114	0.120
-298.749	-5.612	-0.139	-0.094
-297.735	800.000	-0.078	0.226
-296.720	800.000	-0.093	0.258
-295.705	-120.503	0.098	0.016
-294.691	10.905	-0.268	-0.203
-293.676	-200.000	0.001	-0.016
-292.662	-20.729	0.217	0.132
-291.647	-101.773	-0.178	-0.043
-290.632	-66.651	0.270	0.106
-289.618	71.308	-0.189	-0.194
-288.603	-113.952	-0.298	-0.057
-287.589	-52.689	-0.401	-0.183
-286.574	-200.000	-0.008	0.035
-285.559	51.063	-0.272	-0.255
-284.545	-200.000	-0.052	-0.364
-283.530	-200.000	-0.001	0.055
-282.516	-150.708	0.161	-0.012
-281.501	-200.000	0.007	-0.424
-280.486	800.000	-0.072	-0.221
-279.472	-106.652	0.205	0.045
-278.457	317.642	0.124	-0.233
-277.443	546.646	-0.063	-0.150
-276.428	-94.698	0.136	-0.036
-275.413	-161.292	0.335	-0.017
-274.399	-109.202	0.259	0.054
-273.384	-73.607	-0.260	0.094
-272.370	-200.000	-0.042	0.330
-271.355	330.529	-0.098	0.187
-270.340	-35.352	-0.215	-0.116
-269.326	224.502	0.070	-0.112
-268.311	-200.000	0.022	0.180
-267.297	-87.923	-0.119	-0.035
-266.282	375.413	0.140	0.282
-265.267	101.474	-0.167	0.192
-264.253	-200.000	-0.031	0.167
-263.238	-73.178	-0.355	-0.129
-262.224	37.429	0.286	-0.251
-261.209	137.146	-0.160	0.207
-260.195	-6.702	0.240	0.161
-259.180	81.999	0.071	0.076
-258.165	800.000	-0.061	-0.237
-257.151	-200.000	0.044	0.299
-256.136	3.995	-0.139	-0.100
-255.122	149.202	-0.126	-0.168
-254.107	-60.694	-0.166	-0.070
-253.092	487.776	0.063	-0.143
-252.078	-91.491	-0.232	-0.066
-251.063	-135.310	-0.203	-0.024
-250.049	-32.149	-0.162	0.090
-249.034	-150.064	-0.307	-0.024
-248.019	-183.794	0.424	0.007
-247.005	190.728	0.108	0.161
-245.990	-10.373	-0.174	-0.114
-244.976	-49.331	0.212	-0.100
-243.961	260.996	-0.115	-0.196
-242.946	-200.000	0.002	-0.128
-241.932	800.000	-0.017	-0.053
-240.917	-90.482	-0.077	0.022
-239.903	99.020	0.155	-0.177
-238.888	-62.906	-0.058	0.024
-237.873	-69.687	0.071	-0.027
-236.859	-94.401	-0.070	-0.019
-235.844	-33.368	-0.042	0.023
-234.830	-200.000	0.014	0.249
-233.815	-200.000	-0.014	0.323
-232.800	-130.090	0.176	-0.024
-231.786	0.733	-0.105	0.074
-230.771	-35.422	-0.177	-0.095
-229.757	-131.542	-0.133	-0.017
-228.742	-113.504	0.162	0.031
-227.727	-42.309	0.204	0.103
-226.713	-52.138	-0.062	-0.029
-225.698	-119.964	0.303	0.051
-224.684	616.239	0.037	-0.092
-223.669	167.413	-0.115	-0.162
-222.655	-46.319	-0.235	-0.114
-221.640	-200.000	-0.022	-0.242
-220.625	-200.000	0.044	-0.285
-219.611	-200.000	-0.031	0.167
-218.596	31.402	-0.188	-0.159
-217.582	-18.048	0.252	0.156
-216.567	-131.742	0.478	0.062
-215.552	-79.367	0.112	0.038
-214.538	-149.724	-0.254	-0.020
-213.523	163.382	0.171	0.237
-212.509	800.000	0.088	-0.272
-211.494	-154.260	0.365	0.024
-210.479	-200.000	-0.039	0.254
-209.465	-200.000	0.043	0.243
-208.450	-16.408	-0.118	-0.074
-207.436	-200.000	0.020	-0.194
-206.421	-14.251	-0.189	0.120
-205.406	-197.723	0.518	-0.003
-204.392	-77.408	0.419	-0.144
-203.377	-39.905	-0.211	-0.109
-202.363	-147.271	0.134	0.011
-201.348	-200.000	0.014	0.237
-200.333	787.874	-0.084	0.227
-199.319	45.349	-0.135	-0.123
-198.304	800.000	-0.003	0.012
-197.290	146.871	-0.069	-0.092
-196.275	-98.737	-0.071	0.018
-195.260	-159.379	-0.140	0.008
-194.246	-135.985	0.157	-0.018
-193.231	-139.330	-0.183	-0.019
-192.217	-98.483	0.189	-0.048
-191.202	212.531	0.065	-0.101
-190.187	-200.000	0.017	0.197
-189.173	33.770	0.064	0.055
-188.158	611.743	-0.020	-0.050
-187.144	282.663	-0.071	-0.126
-186.129	-200.000	0.050	0.256
-185.114	800.000	0.060	-0.225
-184.100	175.152	0.071	-0.102
-183.085	80.419	-0.279	-0.296
-182.071	-38.102	-0.117	0.061
-181.056	-115.415	0.099	0.018
-180.042	-200.000	-0.018	0.091
-179.027	73.969	-0.087	-0.090
-178.012	-9.371	0.194	0.128
-176.998	-97.341	-0.251	-0.064
-175.983	-127.267	0.134	-0.019
-174.969	-113.533	0.150	-0.029
-173.954	350.148	0.053	0.103
-172.939	38.948	0.211	0.186
-171.925	173.191	0.126	-0.179
-170.910	800.000	0.079	0.241
-169.896	-49.081	0.393	0.185
-168.881	427.612	-0.091	-0.194
-167.866	-10.874	-0.045	-0.029
-166.852	-200.000	0.037	0.250
-165.837	-26.735	-0.028	0.016
-164.823	-200.000	-0.014	0.065
-163.808	248.537	0.129	-0.215
-162.793	-200.000	-0.034	0.369
-161.779	-95.702	-0.113	-0.030
-160.764	-90.467	-0.270	0.077
-159.750	71.177	0.126	-0.129
-158.735	2.320	-0.269	0.191
-157.720	12.523	-0.202	-0.153
-156.706	24.575	-0.334	0.272
-155.691	87.440	-0.061	-0.066
-154.677	-200.000	0.031	-0.215
-153.662	-200.000	0.002	0.169
-152.647	-142.383	-0.196	-0.019
-151.633	14.137	-0.190	-0.146
-150.618	-154.011	0.259	0.017
-149.604	-9.378	0.186	-0.122
-148.589	-26.969	-0.089	0.051
-147.574	413.805	-0.061	0.129
-146.560	-67.681	-0.305	0.118
-145.545	-200.000	0.044	0.536
-144.531	47.921	-0.044	0.041
-143.516	-143.997	0.263	0.024
-142.502	-127.474	0.102	0.015
-141.487	-26.297	-0.213	-0.123
-140.472	-18.922	0.372	0.228
-139.458	800.000	0.107	-0.409
-138.443	-200.000	-0.015	0.248
-137.429	-97.572	0.095	0.024
-136.414	-34.313	-0.135	-0.073
-135.399	-25.853	-0.351	0.203
-134.385	-54.712	0.195	-0.087
-133.370	-200.000	0.031	0.191
-132.356	-63.518	0.160	0.065
-131.341	166.835	-0.102	0.142
-130.326	-50.302	-0.170	0.079
-129.312	75.181	0.191	0.198
-128.297	125.392	0.340	0.423
-127.283	317.102	0.103	-0.192
-126.268	207.147	0.086	-0.132
-125.253	-86.292	0.195	-0.059
-124.239	506.961	0.104	-0.238
-123.224	-45.750	-0.205	-0.100
-122.210	-103.320	-0.111	0.026
-121.195	-147.538	-0.238	-0.020
