DTS Sentinel unit serial number:	SN413079Multiplexer serial number:	ORYXHardware model number:	OX4-SRSoftware version number:	ORYX F/W v4.00 Oryx Data Collector v3.7.2.0data status	okinstallation	princeton_trtdifferential loss correction	single-endedforward channel	channel 2reverse channel	N/Adate	2019/09/12time	19:58:49forward acquisition time	15.00reverse acquisition time	0.00gamma	496.2192k internal	0.2328k external	0.2328temperature offset calibration	1.0157default loss term (dB/km)	0.3790temperature slope calibration	1.0000multiplexer offset coefficient	1.0000multiplexer slope coefficient	1.0000fibre end	0.00T internal ref (°C)	31.81T ext. ref 1 (°C)	3.51T ext. ref 2 (°C)	26.39length (m)	temperature (°C)	Stokes	anti-Stokes-747.200	296.897	-0.035	-0.065
-746.185	388.433	0.224	-0.467
-745.171	-200.000	0.099	0.461
-744.156	-19.228	-0.409	0.256
-743.142	-88.898	0.746	0.223
-742.127	-52.718	-0.453	0.211
-741.112	636.684	0.265	-0.678
-740.098	-70.606	0.227	-0.086
-739.083	299.079	0.074	-0.137
-738.069	-117.781	0.861	0.156
-737.054	8.289	-0.813	-0.615
-736.039	-159.618	0.413	0.023
-735.025	-200.000	-0.059	0.957
-734.010	-18.449	-0.089	0.056
-732.996	-124.571	0.284	0.044
-731.981	627.598	-0.212	-0.539
-730.966	-36.164	-0.386	-0.210
-729.952	-102.217	-0.322	-0.078
-728.937	107.916	-0.615	0.738
-727.923	-200.000	0.072	0.325
-726.908	-21.387	0.140	0.086
-725.894	-92.585	0.642	-0.181
-724.879	92.329	0.473	-0.537
-723.864	-109.813	0.428	0.091
-722.850	166.016	0.215	0.306
-721.835	169.589	0.080	0.115
-720.821	771.267	0.084	-0.230
-719.806	229.679	-0.262	0.431
-718.791	19.511	0.549	-0.445
-717.777	-14.018	0.336	-0.219
-716.762	11.926	-0.429	-0.332
-715.748	-57.289	-0.191	-0.085
-714.733	-200.000	-0.059	0.993
-713.718	-159.082	0.690	-0.039
-712.704	-68.507	0.159	-0.062
-711.689	800.000	0.150	-0.497
-710.675	-114.659	0.346	-0.067
-709.660	117.518	-0.432	0.535
-708.645	7.712	0.392	0.295
-707.631	206.243	-0.365	0.571
-706.616	-121.057	-0.852	0.144
-705.602	-120.596	0.658	0.112
-704.587	238.617	-0.703	1.176
-703.572	-71.837	-0.785	0.294
-702.558	546.364	0.336	-0.807
-701.543	800.000	0.097	-0.278
-700.529	414.323	0.166	-0.355
-699.514	800.000	-0.079	0.327
-698.499	-200.000	0.052	-0.680
-697.485	-200.000	-0.041	0.318
-696.470	-3.136	-0.921	-0.646
-695.456	-67.679	-0.967	-0.381
-694.441	382.783	-0.191	-0.395
-693.426	132.198	-0.254	0.329
-692.412	437.344	-0.243	-0.533
-691.397	147.988	-0.342	-0.464
-690.383	800.000	0.145	0.417
-689.368	110.808	-0.473	-0.573
-688.354	-167.577	1.129	0.045
-687.339	-127.892	-0.906	-0.131
-686.324	-86.219	-0.693	0.215
-685.310	-106.321	0.311	-0.070
-684.295	-6.869	0.205	-0.140
-683.281	-113.179	-0.363	-0.072
-682.266	-75.911	0.172	0.061
-681.251	-200.000	0.063	-0.464
-680.237	77.640	0.313	0.336
-679.222	-200.000	0.068	-1.178
-678.208	-119.704	-0.151	0.026
-677.193	87.527	-0.236	-0.262
-676.178	-181.972	-1.052	-0.020
-675.164	236.312	-0.316	0.526
-674.149	111.716	0.454	-0.551
-673.135	-200.000	0.011	-0.252
-672.120	112.911	-0.342	0.416
-671.105	86.582	0.269	-0.298
-670.091	-13.311	-0.432	-0.282
-669.076	-122.282	0.503	-0.083
-668.062	549.545	0.097	-0.234
-667.047	-200.000	0.058	-0.262
-666.032	-140.604	-0.707	-0.074
-665.018	-59.005	-0.599	0.260
-664.003	684.134	0.293	-0.767
-662.989	92.294	0.433	-0.491
-661.974	-19.016	0.466	0.291
-660.959	201.064	-0.224	0.347
-659.945	-200.000	-0.074	-0.364
-658.930	-92.025	-0.528	0.150
-657.916	33.821	-0.077	-0.067
-656.901	800.000	0.168	-0.641
-655.886	800.000	-0.138	-0.448
-654.872	-8.151	-0.430	0.291
-653.857	-200.000	-0.010	0.458
-652.843	-49.874	0.290	-0.138
-651.828	-50.711	-1.019	-0.482
-650.814	800.000	-0.111	0.316
-649.799	-103.054	-0.721	-0.172
-648.784	800.000	0.047	0.144
-647.770	60.818	-0.236	0.235
-646.755	-200.000	0.074	-0.587
-645.741	-142.114	-0.798	0.080
-644.726	-114.105	0.235	-0.046
-643.711	-25.585	0.439	-0.260
-642.697	103.460	-0.281	-0.331
-641.682	-159.393	0.238	-0.013
-640.668	-200.000	-0.166	0.793
-639.653	88.867	-0.086	0.096
-638.638	752.139	0.119	0.321
-637.624	-80.381	-0.920	0.308
-636.609	-200.000	-0.042	0.299
-635.595	-77.728	-0.814	-0.282
-634.580	-35.433	0.419	-0.229
-633.565	-200.000	0.049	-1.037
-632.551	-121.627	-1.054	-0.175
-631.536	-72.933	0.442	-0.163
-630.522	195.238	-0.212	0.324
-629.507	-200.000	-0.001	0.602
-628.492	-95.968	0.197	0.053
-627.478	21.494	-0.073	-0.060
-626.463	-155.414	-0.153	0.010
-625.449	-63.925	-0.819	-0.336
-624.434	800.000	0.087	-0.316
-623.419	16.253	-0.732	0.580
-622.405	388.534	0.108	-0.225
-621.390	-77.359	-0.801	-0.279
-620.376	-156.841	-0.182	-0.011
-619.361	-200.000	0.090	-1.050
-618.346	51.489	-0.320	0.305
-617.332	279.376	-0.169	0.302
-616.317	-83.163	-0.032	-0.010
-615.303	800.000	0.034	-0.119
-614.288	86.796	0.491	0.543
-613.273	-27.087	-0.420	0.246
-612.259	371.077	-0.186	-0.378
-611.244	42.059	0.768	-0.699
-610.230	800.000	-0.161	-0.668
-609.215	800.000	-0.158	0.481
-608.201	-133.168	-0.232	0.029
-607.186	289.029	-0.093	-0.168
-606.171	-200.000	0.036	-0.508
-605.157	80.484	-0.433	0.467
-604.142	-200.000	-0.107	0.588
-603.128	-28.667	-0.616	0.355
-602.113	-161.113	0.236	-0.012
-601.098	-80.347	-0.748	-0.251
-600.084	800.000	-0.047	0.154
-599.069	-200.000	-0.014	0.386
-598.055	-200.000	-0.009	-0.040
-597.040	-3.563	-0.247	0.172
-596.025	98.878	0.666	0.771
-595.011	47.806	-0.405	-0.378
-593.996	-2.695	-0.682	-0.478
-592.982	-200.000	0.008	0.072
-591.967	-200.000	0.004	0.140
-590.952	257.964	0.235	-0.406
-589.938	-51.265	-0.090	-0.042
-588.923	-200.000	-0.119	0.562
-587.909	-200.000	0.039	-0.259
-586.894	116.100	-0.554	0.679
-585.879	96.024	-0.048	-0.055
-584.865	243.418	0.470	-0.790
-583.850	-138.521	0.738	0.081
-582.836	800.000	-0.145	0.445
-581.821	-200.000	-0.046	0.656
-580.806	-200.000	-0.040	-0.399
-579.792	404.076	0.415	-0.875
-578.777	96.038	-0.479	-0.548
-577.763	-96.487	0.364	0.096
-576.748	-200.000	0.000	-0.271
-575.733	-107.764	-0.951	-0.208
-574.719	-89.624	0.503	0.148
-573.704	-72.237	-0.876	0.325
-572.690	157.199	-0.386	-0.534
-571.675	800.000	0.337	1.029
-570.661	-25.560	-0.672	0.397
-569.646	-163.887	-0.543	0.025
-568.631	-98.101	-0.110	-0.028
-567.617	24.777	0.753	0.625
-566.602	800.000	0.223	-0.619
-565.588	-200.000	0.014	0.120
-564.573	-6.709	-0.191	-0.130
-563.558	-73.074	0.411	-0.151
-562.544	-90.663	0.386	-0.111
-561.529	-200.000	-0.122	0.600
-560.515	316.812	-0.032	-0.061
-559.500	-39.739	-0.524	0.274
-558.485	-150.933	0.536	-0.040
-557.471	800.000	-0.332	-0.995
-556.456	110.670	-0.334	-0.402
-555.442	32.009	-0.440	-0.379
-554.427	-200.000	-0.096	-0.993
-553.412	-10.315	0.287	0.190
-552.398	-51.949	-0.511	-0.238
-551.383	-190.117	-0.348	-0.004
-550.369	182.035	0.700	-1.031
-549.354	-49.176	0.446	-0.213
-548.339	-73.204	0.325	0.119
-547.325	-154.788	0.283	-0.019
-546.310	-200.000	0.037	0.360
-545.296	22.950	-0.104	0.085
-544.281	75.912	0.384	-0.406
-543.266	-200.000	-0.012	0.495
-542.252	-6.467	0.295	-0.201
-541.237	236.335	0.316	0.522
-540.223	219.548	-0.105	-0.168
-539.208	-200.000	-0.078	-0.416
-538.193	25.162	-0.496	0.412
-537.179	-200.000	-0.134	-0.731
-536.164	94.975	0.384	-0.437
-535.150	-165.758	-0.399	0.017
-534.135	10.836	0.412	0.315
-533.121	-200.000	0.167	0.857
-532.106	-200.000	0.096	-0.737
-531.091	-3.564	0.659	-0.458
-530.077	-135.301	-0.960	-0.115
-529.062	354.152	0.131	-0.260
-528.048	800.000	-0.166	0.644
-527.033	800.000	0.196	-0.557
-526.018	242.409	-0.081	0.136
-525.004	91.957	-0.613	0.690
-523.989	-85.899	1.376	0.426
-522.975	492.932	0.375	0.859
-521.960	-200.000	0.034	0.651
-520.945	77.451	-0.596	-0.634
-519.931	800.000	-0.150	-0.471
-518.916	-128.392	-0.610	0.087
-517.902	479.444	0.344	-0.778
-516.887	-123.721	-0.903	0.143
-515.872	-200.000	0.017	0.102
-514.858	-22.506	0.066	0.040
-513.843	37.095	0.635	0.561
-512.829	-58.376	0.374	-0.162
-511.814	-9.338	0.661	0.441
-510.799	60.529	0.684	0.677
-509.785	299.791	0.262	0.483
-508.770	31.857	0.653	0.561
-507.756	-115.039	0.554	-0.105
-506.741	261.363	-0.455	0.786
-505.726	800.000	0.129	-0.505
-504.712	-128.055	0.571	-0.082
-503.697	-120.099	0.328	-0.056
-502.683	-92.834	0.515	0.144
-501.668	-18.978	0.687	0.426
-500.653	79.588	-0.498	0.534
-499.639	-200.000	-0.022	-0.192
-498.624	629.818	0.104	-0.262
-497.610	-80.262	0.744	-0.248
-496.595	-129.850	-0.457	-0.063
-495.581	-97.585	0.298	-0.077
-494.566	-200.000	-0.051	-0.595
-493.551	18.379	-0.411	0.328
-492.537	160.774	0.287	-0.399
-491.522	-200.000	-0.051	0.493
-490.508	360.694	-0.066	-0.132
-489.493	-8.855	-0.303	-0.203
-488.478	296.347	0.549	-1.004
-487.464	120.276	-0.411	0.509
-486.449	-84.617	-0.384	0.121
-485.435	800.000	-0.272	0.902
-484.420	50.434	0.329	-0.311
-483.405	800.000	-0.049	0.144
-482.391	-200.000	-0.102	-0.499
-481.376	-200.000	0.196	0.938
-480.362	81.185	0.913	0.984
-479.347	108.839	-0.436	0.520
-478.332	-148.388	-0.407	-0.033
-477.318	214.150	0.323	0.510
-476.303	-97.206	0.411	0.107
-475.289	112.144	0.529	0.637
-474.274	-200.000	0.123	-0.742
-473.259	800.000	0.038	0.148
-472.245	-83.126	-0.165	0.053
-471.230	-200.000	0.052	-0.329
-470.216	800.000	-0.164	-0.519
-469.201	34.986	0.872	0.761
-468.186	-200.000	0.025	-0.179
-467.172	-88.285	-0.840	-0.251
-466.157	800.000	0.280	0.856
-465.143	232.292	-0.468	-0.767
-464.128	78.708	-0.384	-0.409
-463.113	-200.000	-0.104	-0.461
-462.099	800.000	0.062	0.184
-461.084	-63.168	-0.942	-0.387
-460.070	98.863	-0.351	0.403
-459.055	-134.376	0.139	0.017
-458.040	234.819	0.148	-0.243
-457.026	-116.189	-0.303	-0.056
-456.011	-173.917	0.286	0.008
-454.997	252.811	-0.116	-0.197
-453.982	-108.300	0.693	0.149
-452.968	74.009	-0.499	-0.521
-451.953	-81.930	0.155	0.050
-450.938	766.397	-0.155	0.421
-449.924	-98.315	0.809	0.207
-448.909	454.736	0.090	-0.198
-447.895	800.000	0.425	1.177
-446.880	59.761	0.548	-0.539
-445.865	80.582	-0.934	-1.003
-444.851	-35.843	-0.446	0.240
-443.836	187.188	-0.108	-0.160
-442.822	350.808	0.244	0.480
-441.807	-106.297	-0.769	-0.172
-440.792	66.282	-0.563	-0.569
-439.778	-200.000	0.047	-0.557
-438.763	800.000	0.155	-0.492
-437.749	-118.147	0.809	-0.144
-436.734	800.000	0.281	0.783
-435.719	-52.296	0.427	-0.197
-434.705	800.000	-0.086	-0.276
-433.690	56.846	-0.663	-0.643
-432.676	208.733	-0.379	-0.591
-431.661	24.309	0.299	0.246
-430.646	46.958	-0.199	-0.184
-429.632	-26.265	-0.512	0.299
-428.617	-200.000	-0.048	0.248
-427.603	123.512	-0.353	0.440
-426.588	330.748	-0.517	0.991
-425.573	37.939	-0.194	-0.171
-424.559	185.356	-0.214	-0.316
-423.544	70.088	-0.521	0.535
-422.530	-200.000	0.032	-0.411
-421.515	-4.605	-0.220	0.151
-420.500	-92.945	0.616	-0.171
-419.486	329.457	0.054	-0.104
-418.471	-103.439	-0.707	-0.166
-417.457	270.772	-0.578	-1.013
-416.442	80.114	-0.200	0.214
-415.428	-174.360	-0.884	0.025
-414.413	-97.727	-0.736	-0.190
-413.398	19.220	-1.015	-0.810
-412.384	-200.000	-0.004	-0.246
-411.369	800.000	0.200	-0.602
-410.355	-107.368	0.309	-0.068
-409.340	-71.163	0.399	0.149
-408.325	-112.798	-0.332	0.066
-407.311	-121.196	0.256	-0.043
-406.296	190.796	-0.178	-0.267
-405.282	207.705	-0.354	-0.550
-404.267	22.803	-0.349	0.284
-403.252	-16.899	0.551	-0.346
-402.238	-5.796	0.348	-0.237
-401.223	-200.000	-0.083	0.406
-400.209	-200.000	0.009	-0.110
-399.194	239.292	0.205	-0.339
-398.179	-17.402	0.123	0.077
-397.165	231.526	0.402	0.655
-396.150	46.287	0.595	-0.548
-395.136	388.275	-0.302	-0.621
-394.121	-200.000	-0.010	-0.110
-393.106	-200.000	-0.160	-0.869
-392.092	-120.661	0.543	-0.091
-391.077	2.656	-0.514	0.370
-390.063	800.000	-0.193	-0.650
-389.048	-146.399	-0.358	-0.031
-388.033	12.809	-0.851	0.654
-387.019	800.000	-0.071	0.277
-386.004	33.182	0.313	0.269
-384.990	800.000	0.054	0.218
-383.975	183.957	0.386	0.567
-382.960	-200.000	-0.018	-0.465
-381.946	187.336	-0.145	0.215
-380.931	-168.145	-0.334	0.013
-379.917	-62.199	-0.493	0.204
-378.902	-152.329	-0.845	-0.061
-377.888	-200.000	-0.023	-0.805
-376.873	800.000	0.184	-0.790
-375.858	68.517	0.666	-0.679
-374.844	-97.813	-0.517	0.133
-373.829	-200.000	-0.057	0.822
-372.815	652.289	-0.099	0.251
-371.800	130.731	-0.166	-0.211
-370.785	746.497	0.191	-0.511
-369.771	-130.530	-0.546	-0.073
-368.756	-200.000	0.050	-0.793
-367.742	-1.959	0.717	0.501
-366.727	-2.929	-0.241	-0.167
-365.712	-200.000	0.007	-0.488
-364.698	800.000	-0.191	0.748
-363.683	-200.000	0.014	-0.280
-362.669	800.000	0.165	-0.619
-361.654	-200.000	-0.086	-0.393
-360.639	-70.581	0.605	-0.227
-359.625	106.772	-0.147	0.173
-358.610	-84.086	0.590	-0.186
-357.596	-141.771	-0.402	-0.040
-356.581	800.000	-0.177	-0.691
-355.566	69.038	-0.213	-0.218
-354.552	-200.000	0.087	0.786
-353.537	-43.433	0.384	0.193
-352.523	-23.119	-0.304	0.181
-351.508	108.029	0.065	0.077
-350.493	800.000	0.100	-0.376
-349.479	1.993	-0.555	0.398
-348.464	339.820	0.180	-0.348
-347.450	-124.902	0.571	0.087
-346.435	78.420	0.182	-0.193
-345.420	800.000	0.073	0.307
-344.406	179.262	0.389	-0.564
-343.391	155.126	-0.253	-0.345
-342.377	-64.942	0.631	-0.253
-341.362	-200.000	-0.009	-0.200
-340.348	800.000	0.164	0.481
-339.333	-8.846	0.764	0.508
-338.318	-200.000	0.019	-0.102
-337.304	158.083	-0.745	1.025
-336.289	-19.334	0.565	-0.347
-335.275	-104.746	0.109	0.025
-334.260	163.569	-0.541	0.754
-333.245	800.000	-0.305	0.976
-332.231	-105.965	-0.380	-0.085
-331.216	-109.794	0.561	0.117
-330.202	-126.984	-0.209	0.031
-329.187	-48.912	-0.964	0.458
-328.172	-80.600	0.462	-0.153
-327.158	-200.000	0.011	-0.795
-326.143	-24.184	-0.312	0.185
-325.129	-76.249	0.493	-0.172
-324.114	53.325	0.138	0.131
-323.099	800.000	0.052	-0.196
-322.085	474.857	0.290	0.648
-321.070	37.805	0.060	0.053
-320.056	-105.951	-0.531	-0.119
-319.041	800.000	0.095	-0.395
-318.026	58.452	0.286	-0.278
-317.012	-124.771	0.582	0.089
-315.997	-200.000	0.053	-0.277
-314.983	-170.128	-0.585	0.021
-313.968	-200.000	-0.117	0.510
-312.953	-26.784	1.041	-0.603
-311.939	-200.000	0.030	0.309
-310.924	128.984	-0.303	0.383
-309.910	-83.730	0.780	0.247
-308.895	-200.000	-0.006	-0.233
-307.880	-116.573	-0.672	0.123
-306.866	40.120	-0.716	0.637
-305.851	-108.835	-0.906	-0.192
-304.837	-40.105	0.290	0.150
-303.822	28.433	-0.499	-0.418
-302.807	0.896	-0.084	-0.060
-301.793	-200.000	0.013	0.188
-300.778	77.435	-0.649	0.684
-299.764	-200.000	-0.085	0.437
-298.749	800.000	0.129	-0.534
-297.735	800.000	0.187	-0.672
-296.720	99.754	0.705	0.809
-295.705	-85.654	0.701	0.216
-294.691	46.284	-0.440	-0.403
-293.676	-64.283	-0.434	0.175
-292.662	-139.196	0.889	-0.095
-291.647	800.000	-0.057	-0.175
-290.632	-57.576	0.346	-0.150
-289.618	39.644	0.449	-0.399
-288.603	-73.338	0.811	0.294
-287.589	800.000	-0.288	-0.817
-286.574	-20.512	0.957	-0.583
-285.559	800.000	0.135	0.538
-284.545	800.000	0.249	0.685
-283.530	172.942	0.231	0.329
-282.516	800.000	-0.146	-0.497
-281.501	180.392	0.102	-0.148
-280.486	-31.808	-0.612	0.339
-279.472	-127.088	0.836	-0.121
-278.457	-200.000	0.082	-0.614
-277.443	122.579	-0.433	-0.536
-276.428	-11.978	0.805	0.522
-275.413	-28.000	0.554	0.317
-274.399	-47.794	-0.732	-0.351
-273.384	-57.578	0.090	0.039
-272.370	282.156	-0.171	0.303
-271.355	-83.230	0.550	-0.175
-270.340	-200.000	-0.098	-1.251
-269.326	127.359	0.270	0.339
-268.311	-5.417	0.223	-0.152
-267.297	132.506	-0.551	-0.703
-266.282	-44.978	0.490	-0.241
-265.267	-55.393	-0.217	0.096
-264.253	-60.056	0.613	-0.259
-263.238	351.478	-0.222	0.436
-262.224	800.000	0.416	1.269
-261.209	-36.900	-0.498	-0.264
-260.195	75.850	0.349	0.365
-259.180	-27.153	0.461	0.266
-258.165	69.896	0.178	-0.182
-257.151	212.562	0.423	0.660
-256.136	-200.000	0.119	-0.698
-255.122	544.390	-0.176	-0.416
-254.107	108.042	-0.387	0.456
-253.092	215.345	-0.562	0.882
-252.078	285.038	-0.315	-0.560
-251.063	-45.377	0.829	-0.406
-250.049	-27.949	-0.190	-0.109
-249.034	72.811	-0.540	-0.557
-248.019	-57.364	-0.431	-0.187
-247.005	-34.192	0.353	-0.191
-245.990	-80.702	-0.213	0.070
-244.976	116.015	-0.617	0.746
-243.961	800.000	0.261	-0.737
-242.946	-82.864	0.462	-0.147
-241.932	-200.000	-0.007	-0.047
-240.917	339.535	0.368	-0.709
-239.903	-173.186	0.433	0.013
-238.888	-22.070	0.811	0.486
-237.873	57.920	0.588	0.569
-236.859	-200.000	-0.745	0.003
-235.844	-200.000	0.102	0.464
-234.830	-44.166	-0.482	0.239
-233.815	479.975	0.132	-0.296
-232.800	-82.665	0.418	-0.134
-231.786	306.498	-0.124	-0.229
-230.771	-70.336	0.383	-0.143
-229.757	144.269	-0.137	0.181
-228.742	30.088	0.274	0.231
-227.727	-43.072	0.551	0.276
-226.713	121.997	-0.467	-0.575
-225.698	192.131	0.167	-0.249
-224.684	-200.000	0.013	0.606
-223.669	-66.332	-0.697	-0.274
-222.655	-134.776	0.847	0.102
-221.640	331.052	0.252	-0.479
-220.625	224.863	0.326	-0.521
-219.611	-85.375	-1.025	0.316
-218.596	-41.001	-0.712	0.363
-217.582	-28.818	0.383	0.217
-216.567	44.946	0.347	-0.315
-215.552	800.000	0.297	-0.952
-214.538	-118.607	-0.865	0.151
-213.523	60.444	-0.253	-0.247
-212.509	-200.000	0.033	-0.458
-211.494	-200.000	0.169	1.275
-210.479	-14.209	0.660	0.420
-209.465	173.227	0.033	-0.047
-208.450	-43.892	0.637	-0.317
-207.436	-178.965	0.555	-0.012
-206.421	-200.000	0.040	0.254
-205.406	-200.000	0.019	0.147
-204.392	-175.399	-1.065	-0.029
-203.377	-124.916	0.992	0.151
-202.363	91.604	0.795	0.882
-201.348	3.816	-0.575	0.414
-200.333	424.713	0.338	-0.717
-199.319	-42.047	-0.470	0.237
-198.304	14.003	0.282	-0.217
-197.290	-65.111	-0.172	0.069
-196.275	47.337	-0.416	0.382
-195.260	-11.464	-0.195	0.126
-194.246	54.506	-0.352	-0.334
-193.231	-12.187	0.405	-0.261
-192.217	10.859	-0.561	0.422
-191.202	800.000	-0.063	0.215
-190.187	245.371	-0.043	0.071
-189.173	86.080	0.394	0.427
-188.158	139.692	0.615	0.799
-187.144	-59.512	0.214	-0.091
-186.129	-105.732	0.406	0.091
-185.114	-110.700	-0.235	0.048
-184.100	113.240	0.517	0.618
-183.085	72.986	0.127	0.131
-182.071	162.394	-0.161	0.222
-181.056	800.000	-0.043	-0.163
-180.042	338.752	-0.139	-0.267
-179.027	-77.621	0.490	-0.167
-178.012	-190.157	-0.487	-0.005
-176.998	-73.275	0.257	-0.093
-175.983	-200.000	0.045	0.340
-174.969	5.938	-0.144	-0.105
-173.954	-87.043	-0.259	0.078
-172.939	126.807	-0.402	0.502
-171.925	-94.518	-0.209	-0.056
-170.910	-200.000	0.025	-0.521
-169.896	-200.000	-0.078	0.433
-168.881	9.500	0.152	0.113
-167.866	-158.722	-0.319	0.018
-166.852	-200.000	-0.005	0.220
-165.837	800.000	-0.224	0.664
-164.823	-38.041	0.243	0.127
-163.808	722.834	0.145	0.381
-162.793	-117.141	0.342	0.061
-161.779	-200.000	0.150	0.936
-160.764	-200.000	-0.071	1.032
-159.750	-200.000	0.019	-0.551
-158.735	-28.252	0.406	-0.231
-157.720	-64.712	-0.217	0.087
-156.706	52.157	0.356	0.334
-155.691	-62.863	-0.325	-0.132
-154.677	-5.748	-0.610	0.411
-153.662	-52.051	0.643	0.294
-152.647	-153.244	0.615	0.042
-151.633	-113.400	0.697	-0.135
-150.618	45.653	-0.857	0.780
-149.604	-94.099	0.144	0.039
-148.589	-80.773	0.794	0.260
-147.574	-200.000	-0.079	0.853
-146.560	-157.853	-0.333	0.019
-145.545	-93.147	-0.134	0.037
-144.531	-72.944	0.326	0.118
-143.516	-200.000	-0.101	0.463
-142.502	98.833	-0.423	0.481
-141.487	-149.723	-0.685	0.053
-140.472	296.233	-0.252	-0.456
-139.458	113.516	-0.318	-0.380
-138.443	-19.422	0.752	-0.459
-137.429	481.301	-0.323	-0.721
-136.414	292.378	-0.185	-0.331
-135.399	-57.104	-0.252	0.109
-134.385	-200.000	-0.020	1.060
-133.370	-64.064	-0.492	0.198
-132.356	418.532	-0.159	-0.334
-131.341	-5.301	0.255	0.172
-130.326	21.034	-0.676	0.539
-129.312	114.054	0.594	-0.711
-128.297	598.100	-0.223	-0.545
-127.283	30.643	-0.506	-0.426
-126.268	-91.610	-0.382	0.107
-125.253	32.391	-0.657	-0.558
-124.239	-37.717	0.843	-0.442
-123.224	-66.824	-0.559	0.218
-122.210	-200.000	-0.112	-0.587
-121.195	132.759	0.453	0.575
