DTS Sentinel unit serial number:	SN413079Multiplexer serial number:	ORYXHardware model number:	OX4-SRSoftware version number:	ORYX F/W v4.00 Oryx Data Collector v3.7.2.0data status	okinstallation	princeton_trtdifferential loss correction	single-endedforward channel	channel 2reverse channel	N/Adate	2019/09/17time	22:31:34forward acquisition time	60.00reverse acquisition time	0.00gamma	496.2192k internal	0.2344k external	0.2344temperature offset calibration	0.9981default loss term (dB/km)	0.3790temperature slope calibration	1.0000multiplexer offset coefficient	1.0000multiplexer slope coefficient	1.0000fibre end	0.00T internal ref (°C)	25.31T ext. ref 1 (°C)	0.17T ext. ref 2 (°C)	18.65length (m)	temperature (°C)	Stokes	anti-Stokes-747.200	100.558	0.099	-0.115
-746.185	565.405	0.098	0.238
-745.171	-114.073	-0.103	0.020
-744.156	-79.574	-0.069	-0.023
-743.142	378.091	0.132	0.270
-742.127	249.008	-0.251	0.426
-741.112	-200.000	0.078	0.418
-740.098	-88.384	-0.419	0.125
-739.083	-200.000	-0.049	-0.314
-738.069	-200.000	-0.037	0.347
-737.054	-63.295	-0.174	-0.072
-736.039	-54.707	-0.353	0.160
-735.025	-100.652	-0.088	-0.022
-734.010	30.758	-0.425	-0.364
-732.996	238.476	-0.296	-0.492
-731.981	800.000	0.031	0.112
-730.966	-28.898	0.199	-0.115
-729.952	322.984	0.115	0.219
-728.937	-73.317	-0.209	0.076
-727.923	346.859	-0.018	-0.036
-726.908	174.825	-0.083	0.120
-725.894	22.582	0.052	0.042
-724.879	223.920	-0.134	-0.217
-723.864	84.156	-0.014	0.016
-722.850	-200.000	0.016	0.139
-721.835	-71.064	-0.037	0.014
-720.821	-153.694	0.191	-0.013
-719.806	12.310	0.119	0.092
-718.791	-200.000	-0.002	-0.062
-717.777	-182.967	0.057	0.001
-716.762	-94.428	-0.273	-0.075
-715.748	-200.000	0.024	0.348
-714.733	129.031	-0.069	0.087
-713.718	-83.681	0.121	0.039
-712.704	-76.054	0.175	-0.062
-711.689	3.109	0.326	-0.237
-710.675	96.610	0.094	0.108
-709.660	-73.321	0.024	0.009
-708.645	327.434	-0.039	-0.075
-707.631	-16.484	-0.117	0.074
-706.616	-112.064	-0.130	-0.026
-705.602	421.266	0.135	-0.289
-704.587	570.210	0.133	-0.324
-703.572	-124.578	0.106	-0.016
-702.558	800.000	-0.145	-0.438
-701.543	376.605	0.003	0.006
-700.529	-12.802	0.155	-0.101
-699.514	-67.322	-0.194	-0.076
-698.499	-106.841	-0.492	-0.109
-697.485	367.829	0.040	-0.081
-696.470	-87.345	-0.161	-0.049
-695.456	551.851	-0.087	0.210
-694.441	-200.000	0.037	0.215
-693.426	554.152	0.185	-0.445
-692.412	8.216	-0.291	0.218
-691.397	-92.687	-0.255	-0.071
-690.383	157.435	-0.115	-0.158
-689.368	-43.627	0.123	-0.062
-688.354	-95.341	0.238	0.064
-687.339	-20.096	-0.166	-0.102
-686.324	-108.448	0.247	0.053
-685.310	64.329	0.209	-0.210
-684.295	-200.000	-0.004	-0.173
-683.281	-41.068	-0.187	0.097
-682.266	13.152	-0.073	0.056
-681.251	-200.000	-0.045	0.291
-680.237	-125.133	-0.128	-0.020
-679.222	499.635	-0.082	0.189
-678.208	205.487	0.196	-0.304
-677.193	-55.120	0.150	-0.067
-676.178	5.648	0.175	-0.129
-675.164	433.059	0.144	-0.311
-674.149	85.963	0.165	-0.181
-673.135	204.775	0.167	-0.258
-672.120	800.000	-0.117	-0.457
-671.105	-200.000	0.048	-0.326
-670.091	272.656	0.153	-0.270
-669.076	-12.558	-0.301	0.196
-668.062	266.885	-0.076	0.133
-667.047	800.000	0.084	0.288
-666.032	800.000	-0.026	0.074
-665.018	161.111	-0.167	-0.232
-664.003	-103.197	-0.158	0.037
-662.989	800.000	0.099	-0.333
-661.974	-200.000	0.045	0.212
-660.959	434.756	-0.048	-0.105
-659.945	-200.000	0.009	0.246
-658.930	-8.744	-0.164	-0.110
-657.916	223.958	0.102	-0.164
-656.901	-88.796	-0.259	0.077
-655.886	800.000	0.035	0.136
-654.872	-176.101	-0.157	0.004
-653.857	-19.510	0.181	0.112
-652.843	-65.890	0.277	-0.111
-651.828	517.869	-0.044	-0.102
-650.814	313.378	-0.050	0.094
-649.799	800.000	0.039	0.139
-648.784	-118.188	0.166	0.029
-647.770	800.000	-0.044	0.138
-646.755	-53.754	-0.310	-0.141
-645.741	-104.274	0.320	0.074
-644.726	-200.000	-0.030	0.181
-643.711	-15.509	-0.245	-0.156
-642.697	467.481	-0.090	-0.200
-641.682	800.000	-0.060	-0.177
-640.668	-10.404	0.182	0.120
-639.653	-19.710	0.178	0.110
-638.638	-170.752	-0.185	0.006
-637.624	-200.000	0.074	0.409
-636.609	800.000	0.122	0.374
-635.595	800.000	-0.072	0.236
-634.580	-113.878	0.460	0.089
-633.565	14.128	0.140	-0.109
-632.551	-124.525	-0.308	-0.048
-631.536	800.000	0.060	0.219
-630.522	800.000	0.065	-0.205
-629.507	-65.509	-0.190	-0.076
-628.492	800.000	-0.105	0.295
-627.478	117.214	-0.105	-0.129
-626.463	-66.718	-0.286	0.113
-625.449	-67.558	0.328	0.128
-624.434	-84.854	-0.215	0.067
-623.419	141.592	0.267	-0.353
-622.405	-131.057	0.099	0.013
-621.390	-79.878	-0.232	0.078
-620.376	30.352	-0.119	-0.101
-619.361	134.267	0.227	-0.294
-618.346	800.000	0.031	-0.107
-617.332	160.438	-0.058	0.081
-616.317	800.000	-0.029	0.091
-615.303	-7.458	-0.008	0.006
-614.288	800.000	-0.078	0.245
-613.273	107.579	0.121	0.144
-612.259	-200.000	-0.001	0.014
-611.244	80.055	0.201	-0.215
-610.230	90.211	0.183	-0.204
-609.215	800.000	-0.048	-0.184
-608.201	-200.000	0.072	-0.333
-607.186	-133.577	0.111	-0.014
-606.171	279.920	0.183	-0.326
-605.157	-144.506	0.054	0.005
-604.142	176.780	0.170	-0.246
-603.128	100.972	-0.293	-0.340
-602.113	114.117	-0.174	-0.210
-601.098	-8.938	-0.130	0.087
-600.084	800.000	-0.058	-0.221
-599.069	66.084	0.277	0.279
-598.055	-200.000	0.003	0.085
-597.040	5.216	-0.102	-0.075
-596.025	284.892	0.064	0.114
-595.011	173.252	0.120	-0.172
-593.996	-200.000	0.003	-0.122
-592.982	30.487	0.081	-0.069
-591.967	-112.430	-0.467	0.093
-590.952	-60.513	0.282	0.119
-589.938	-110.116	-0.097	0.020
-588.923	344.662	-0.118	0.231
-587.909	276.759	0.180	0.319
-586.894	20.020	-0.209	-0.168
-585.879	-68.563	0.177	-0.068
-584.865	-3.517	0.136	0.094
-583.850	161.509	0.137	-0.191
-582.836	-200.000	-0.014	-0.080
-581.821	28.152	-0.168	0.141
-580.806	442.724	0.125	0.272
-579.792	-200.000	0.039	0.327
-578.777	-81.192	0.211	-0.069
-577.763	-200.000	0.070	-0.396
-576.748	-200.000	0.010	0.126
-575.733	43.736	-0.095	-0.087
-574.719	-199.516	0.157	-0.001
-573.704	49.514	0.102	-0.095
-572.690	90.002	-0.202	-0.225
-571.675	-48.923	-0.024	-0.012
-570.661	-63.016	-0.412	-0.169
-569.646	-200.000	0.016	-0.091
-568.631	305.082	0.176	0.325
-567.617	49.577	0.061	0.057
-566.602	632.770	-0.073	0.184
-565.588	140.809	0.113	0.149
-564.573	800.000	0.069	0.222
-563.558	800.000	0.039	0.159
-562.544	-37.810	-0.164	-0.087
-561.529	-200.000	-0.031	0.147
-560.515	121.497	-0.128	-0.158
-559.500	-200.000	0.053	-0.263
-558.485	232.680	-0.051	-0.084
-557.471	17.494	-0.049	-0.039
-556.456	392.615	0.031	0.064
-555.442	152.094	-0.006	0.008
-554.427	-200.000	0.061	0.330
-553.412	270.550	-0.130	-0.227
-552.398	-67.280	0.188	0.073
-551.383	228.094	0.026	-0.042
-550.369	-120.074	0.276	0.047
-549.354	-46.698	-0.031	-0.015
-548.339	21.421	-0.131	0.106
-547.325	546.190	-0.081	0.193
-546.310	583.710	-0.011	0.026
-545.296	-87.591	-0.230	0.069
-544.281	52.023	0.122	0.115
-543.266	800.000	0.046	-0.166
-542.252	-80.701	-0.379	-0.125
-541.237	800.000	-0.042	0.117
-540.223	4.751	-0.309	0.225
-539.208	-48.387	0.023	-0.011
-538.193	-44.583	-0.022	0.011
-537.179	400.658	-0.196	0.409
-536.164	-200.000	-0.024	-0.131
-535.150	394.672	0.154	0.318
-534.135	-111.397	-0.230	0.046
-533.121	-35.981	0.267	0.144
-532.106	-193.015	0.241	-0.002
-531.091	-98.336	0.194	-0.049
-530.077	145.265	-0.156	-0.208
-529.062	-93.030	0.244	-0.067
-528.048	42.032	-0.168	-0.152
-527.033	-127.242	0.120	0.017
-526.018	-20.124	-0.133	0.081
-525.004	-184.516	0.231	-0.004
-523.989	-85.379	-0.239	0.074
-522.975	-119.181	-0.272	0.047
-521.960	295.087	-0.042	-0.076
-520.945	-200.000	0.009	-0.157
-519.931	-75.137	0.048	0.017
-518.916	47.936	0.256	0.237
-517.902	128.880	0.133	0.169
-516.887	-155.780	0.113	-0.007
-515.872	311.084	-0.109	-0.203
-514.858	-115.096	-0.271	0.051
-513.843	-200.000	-0.002	0.060
-512.829	-200.000	-0.025	0.346
-511.814	-200.000	-0.013	0.144
-510.799	37.656	-0.058	0.051
-509.785	730.510	0.081	0.215
-508.770	-134.977	-0.103	-0.012
-507.756	-200.000	0.015	-0.088
-506.741	129.433	0.203	0.258
-505.726	-200.000	-0.006	0.097
-504.712	-36.324	0.241	-0.129
-503.697	676.506	0.045	-0.116
-502.683	-23.724	0.275	-0.163
-501.668	388.456	-0.146	-0.299
-500.653	282.919	0.141	0.251
-499.639	419.653	-0.050	-0.106
-498.624	144.782	0.232	-0.308
-497.610	-90.367	-0.169	0.049
-496.595	81.838	-0.281	-0.302
-495.581	-200.000	-0.002	-0.120
-494.566	48.049	-0.065	0.060
-493.551	16.857	0.062	0.048
-492.537	158.316	-0.218	-0.299
-491.522	-3.074	-0.185	-0.128
-490.508	-200.000	0.005	0.046
-489.493	-159.062	0.247	0.014
-488.478	33.239	0.074	0.064
-487.464	310.227	-0.145	0.268
-486.449	-200.000	0.009	0.079
-485.435	-119.147	-0.323	0.056
-484.420	390.953	0.094	0.193
-483.405	-77.883	-0.145	-0.049
-482.391	291.108	0.057	-0.102
-481.376	46.922	-0.176	0.162
-480.362	-200.000	0.009	-0.194
-479.347	-26.875	0.144	-0.083
-478.332	800.000	0.032	-0.096
-477.318	590.408	0.055	0.135
-476.303	354.749	0.096	-0.189
-475.289	-200.000	0.001	-0.035
-474.274	131.780	-0.102	-0.130
-473.259	800.000	-0.015	-0.048
-472.245	132.799	0.095	0.122
-471.230	-81.218	0.073	0.024
-470.216	125.256	-0.161	0.202
-469.201	-200.000	0.033	-0.236
-468.186	-200.000	-0.012	0.074
-467.172	-200.000	0.001	0.054
-466.157	477.027	-0.075	0.168
-465.143	753.937	-0.138	-0.369
-464.128	-60.425	0.229	-0.096
-463.113	-200.000	0.021	-0.249
-462.099	-200.000	0.049	0.243
-461.084	159.619	-0.045	0.062
-460.070	800.000	0.045	-0.166
-459.055	-184.734	-0.566	-0.009
-458.040	278.426	-0.129	0.228
-457.026	264.133	0.183	-0.315
-456.011	205.753	-0.208	0.321
-454.997	11.861	0.267	0.203
-453.982	800.000	0.037	-0.159
-452.968	-200.000	-0.059	-0.284
-451.953	186.718	-0.218	-0.321
-450.938	109.172	0.187	-0.221
-449.924	-162.549	0.091	0.004
-448.909	212.344	-0.051	-0.080
-447.895	-115.803	-0.100	-0.019
-446.880	-100.866	-0.162	-0.039
-445.865	-91.547	-0.091	0.026
-444.851	429.224	-0.166	0.355
-443.836	228.664	0.200	-0.322
-442.822	85.061	0.155	-0.168
-441.807	-200.000	0.000	-0.262
-440.792	667.706	-0.052	-0.132
-439.778	327.651	0.126	0.239
-438.763	0.158	-0.259	0.183
-437.749	-200.000	0.004	-0.341
-436.734	-126.522	-0.284	0.042
-435.719	567.456	0.021	0.051
-434.705	-121.529	0.173	-0.028
-433.690	145.588	-0.158	-0.209
-432.676	-189.564	0.356	-0.004
-431.661	-144.988	0.398	-0.036
-430.646	-133.899	-0.112	-0.014
-429.632	67.519	0.044	0.045
-428.617	-123.604	-0.192	0.030
-427.603	-200.000	0.021	-0.100
-426.588	-150.920	0.162	0.012
-425.573	459.752	0.104	-0.229
-424.559	110.391	0.133	-0.158
-423.544	-200.000	0.017	0.114
-422.530	-141.159	-0.076	-0.008
-421.515	-200.000	-0.006	0.122
-420.500	182.154	0.052	-0.076
-419.486	301.594	-0.139	0.254
-418.471	55.305	-0.063	0.060
-417.457	-24.267	0.263	-0.155
-416.442	800.000	0.046	0.163
-415.428	69.590	-0.248	0.252
-414.413	-174.102	-0.126	0.004
-413.398	-85.602	-0.114	-0.035
-412.384	-107.231	0.104	-0.023
-411.369	800.000	0.020	0.066
-410.355	150.672	-0.264	-0.354
-409.340	128.844	0.127	-0.160
-408.325	172.247	-0.159	-0.227
-407.311	2.875	0.102	-0.073
-406.296	512.961	0.036	0.082
-405.282	-43.273	-0.088	0.044
-404.267	-166.351	-0.230	-0.010
-403.252	18.595	-0.072	0.057
-402.238	16.428	0.261	0.204
-401.223	800.000	-0.139	0.418
-400.209	409.633	-0.126	0.263
-399.194	-200.000	0.012	-0.236
-398.179	-123.458	-0.087	-0.014
-397.165	-81.254	0.212	-0.069
-396.150	151.827	0.098	-0.131
-395.136	-175.411	0.281	-0.008
-394.121	109.728	-0.065	-0.077
-393.106	-117.358	0.094	-0.017
-392.092	800.000	-0.046	0.148
-391.077	-200.000	-0.064	-0.339
-390.063	32.906	0.275	0.235
-389.048	800.000	-0.108	0.419
-388.033	-77.473	0.305	0.105
-387.019	-32.960	-0.282	0.155
-386.004	-200.000	-0.197	0.000
-384.990	-200.000	-0.003	-0.357
-383.975	-14.603	0.134	-0.085
-382.960	800.000	0.037	-0.116
-381.946	-200.000	0.016	0.424
-380.931	-153.084	0.088	-0.006
-379.917	41.356	-0.118	0.106
-378.902	32.371	0.081	-0.069
-377.888	36.151	0.257	-0.223
-376.873	-26.094	0.180	0.105
-375.858	512.768	-0.066	0.152
-374.844	-96.666	-0.315	-0.082
-373.829	110.917	-0.290	-0.344
-372.815	138.179	-0.281	0.363
-371.800	-134.245	0.114	-0.014
-370.785	-25.067	0.298	-0.174
-369.771	-200.000	-0.016	0.350
-368.756	-200.000	-0.004	-0.283
-367.742	-182.354	0.158	0.003
-366.727	-64.299	-0.143	-0.057
-365.712	-83.540	0.162	-0.051
-364.698	-200.000	-0.005	-0.452
-363.683	-188.208	-0.266	-0.003
-362.669	-200.000	0.018	-0.256
-361.654	-71.810	0.105	-0.039
-360.639	-113.962	0.303	0.058
-359.625	31.883	-0.272	-0.231
-358.610	15.546	0.138	0.107
-357.596	74.339	-0.167	0.173
-356.581	363.062	-0.106	0.210
-355.566	800.000	-0.051	0.201
-354.552	-103.197	-0.184	0.043
-353.537	-200.000	0.059	-0.264
-352.523	600.307	0.195	0.476
-351.508	-53.382	-0.132	-0.060
-350.493	-118.251	-0.284	-0.050
-349.479	515.365	0.024	0.055
-348.464	-20.513	-0.418	0.253
-347.450	388.400	0.093	0.189
-346.435	31.068	0.261	0.220
-345.420	37.789	0.060	0.052
-344.406	-200.000	-0.003	0.184
-343.391	-109.996	-0.278	0.057
-342.377	-104.251	-0.330	0.075
-341.362	54.832	-0.053	0.051
-340.348	113.531	-0.143	0.172
-339.333	485.281	0.073	-0.165
-338.318	-200.000	0.058	0.265
-337.304	768.337	-0.012	0.032
-336.289	-46.028	-0.040	-0.019
-335.275	-171.519	-0.474	-0.015
-334.260	30.425	0.081	-0.068
-333.245	-67.737	-0.128	0.049
-332.231	-8.442	-0.147	-0.098
-331.216	165.069	0.070	-0.097
-330.202	800.000	0.072	-0.251
-329.187	-200.000	0.004	-0.028
-328.172	74.942	-0.043	0.045
-327.158	-200.000	0.011	0.299
-326.143	-72.832	-0.164	-0.059
-325.129	-67.788	0.096	-0.037
-324.114	-7.931	0.161	-0.107
-323.099	-128.167	-0.181	-0.025
-322.085	-24.421	0.239	0.140
-321.070	-135.248	-0.140	-0.017
-320.056	-141.438	-0.202	0.020
-319.041	177.722	0.158	0.227
-318.026	-26.107	-0.215	0.125
-317.012	-11.652	0.097	-0.063
-315.997	-200.000	0.006	0.154
-314.983	95.202	-0.195	0.219
-313.968	48.943	-0.221	0.204
-312.953	-29.797	0.204	0.114
-311.939	-85.670	-0.126	0.038
-310.924	-52.284	0.268	-0.122
-309.910	-20.024	0.222	-0.135
-308.895	143.867	0.076	-0.100
-307.880	697.654	0.062	0.161
-306.866	-41.013	0.193	-0.098
-305.851	-107.249	-0.175	-0.038
-304.837	-90.698	0.083	-0.024
-303.822	-82.200	-0.215	0.069
-302.807	-104.048	-0.216	-0.049
-301.793	118.916	-0.020	0.024
-300.778	142.480	0.175	-0.229
-299.764	11.811	0.150	-0.114
-298.749	-94.524	0.129	0.034
-297.735	86.982	0.209	0.227
-296.720	-98.059	0.045	-0.011
-295.705	-200.000	-0.005	-0.217
-294.691	-200.000	0.013	0.303
-293.676	28.592	-0.157	0.131
-292.662	-56.000	-0.359	0.158
-291.647	42.015	-0.163	0.145
-290.632	800.000	-0.042	-0.134
-289.618	800.000	0.107	-0.342
-288.603	598.105	-0.049	-0.118
-287.589	-200.000	-0.023	0.121
-286.574	-200.000	0.010	0.136
-285.559	40.495	-0.133	0.118
-284.545	-53.101	-0.357	0.161
-283.530	63.730	0.156	0.154
-282.516	253.732	-0.122	0.205
-281.501	-60.501	-0.023	0.009
-280.486	800.000	0.022	-0.090
-279.472	-114.098	0.068	-0.013
-278.457	100.189	0.048	-0.055
-277.443	30.013	-0.123	0.103
-276.428	-17.148	0.181	0.112
-275.413	305.410	-0.084	0.153
-274.399	800.000	-0.011	-0.037
-273.384	-200.000	0.014	-0.171
-272.370	143.488	-0.279	0.366
-271.355	800.000	0.056	0.155
-270.340	30.503	0.293	-0.246
-269.326	76.071	-0.221	-0.230
-268.311	-32.414	0.456	-0.250
-267.297	-3.925	0.078	0.053
-266.282	800.000	0.126	-0.438
-265.267	800.000	-0.055	-0.175
-264.253	-200.000	0.033	-0.267
-263.238	-34.972	0.088	0.047
-262.224	68.447	0.163	-0.165
-261.209	15.309	-0.336	0.259
-260.195	271.925	-0.041	-0.071
-259.180	-13.872	-0.125	-0.079
-258.165	-92.386	0.122	-0.034
-257.151	-200.000	-0.009	0.056
-256.136	328.214	-0.255	0.480
-255.122	-67.838	0.388	0.149
-254.107	-42.812	-0.169	-0.084
-253.092	-46.731	0.155	0.075
-252.078	-69.970	0.158	0.059
-251.063	194.479	0.065	-0.097
-250.049	-18.237	0.162	0.099
-249.034	-61.572	-0.152	0.063
-248.019	635.057	-0.102	0.255
-247.005	-52.688	0.129	-0.058
-245.990	-18.178	-0.067	0.041
-244.976	-33.992	0.203	0.110
-243.961	274.116	0.133	-0.231
-242.946	-200.000	0.012	-0.287
-241.932	-115.848	0.128	-0.024
-240.917	-34.438	-0.110	-0.059
-239.903	-14.958	-0.227	-0.143
-238.888	-102.227	0.059	0.014
-237.873	274.591	-0.132	-0.229
-236.859	-81.344	-0.395	-0.128
-235.844	157.709	-0.015	-0.020
-234.830	279.472	0.098	-0.171
-233.815	-200.000	0.046	-0.221
-232.800	-14.402	0.436	0.275
-231.786	-200.000	-0.047	0.213
-230.771	85.106	0.129	-0.139
-229.757	-67.368	0.048	-0.018
-228.742	37.838	0.353	-0.308
-227.727	-200.000	0.056	0.321
-226.713	800.000	0.054	-0.223
-225.698	-200.000	-0.001	-0.029
-224.684	-5.793	0.140	-0.094
-223.669	-81.030	0.295	-0.096
-222.655	19.888	-0.309	-0.244
-221.640	-178.742	0.434	0.010
-220.625	27.815	-0.171	-0.142
-219.611	-73.851	0.062	0.022
-218.596	156.405	-0.068	0.093
-217.582	800.000	0.088	-0.317
-216.567	-12.783	-0.054	0.034
-215.552	111.834	-0.154	-0.182
-214.538	335.092	-0.095	-0.180
-213.523	88.873	0.199	-0.217
-212.509	-200.000	-0.078	0.357
-211.494	-200.000	0.031	0.360
-210.479	800.000	-0.089	0.307
-209.465	-122.216	0.146	-0.023
-208.450	-171.681	-0.036	0.001
-207.436	800.000	-0.087	0.317
-206.421	-133.135	0.082	0.010
-205.406	428.929	0.063	0.133
-204.392	-102.544	-0.185	-0.043
-203.377	-122.886	-0.106	0.017
-202.363	327.029	-0.074	0.140
-201.348	-137.826	0.126	-0.014
-200.333	-100.030	0.390	0.095
-199.319	-151.841	0.094	0.007
-198.304	-108.755	-0.059	0.012
-197.290	-200.000	0.059	-0.284
-196.275	-200.000	-0.027	-0.295
-195.260	115.515	0.203	0.243
-194.246	134.988	-0.091	0.116
-193.231	-200.000	0.022	0.300
-192.217	674.667	0.088	0.223
-191.202	-123.414	0.269	-0.042
-190.187	178.477	0.266	-0.381
-189.173	800.000	0.122	-0.431
-188.158	-116.012	-0.134	-0.024
-187.144	-166.922	0.153	0.006
-186.129	-200.000	0.032	-0.141
-185.114	398.688	-0.101	-0.207
-184.100	95.359	-0.384	-0.429
-183.085	-142.581	0.212	-0.020
-182.071	448.139	0.199	-0.429
-181.056	-97.382	0.115	0.029
-180.042	800.000	0.155	0.551
-179.027	800.000	0.031	-0.125
-178.012	139.493	-0.148	0.191
-176.998	-63.622	-0.159	-0.064
-175.983	-130.148	0.219	0.029
-174.969	530.564	-0.041	-0.095
-173.954	27.340	0.184	0.151
-172.939	652.881	0.128	0.320
-171.925	-119.147	-0.310	0.053
-170.910	-131.060	-0.298	-0.039
-169.896	-9.809	-0.162	-0.106
-168.881	78.716	-0.201	-0.211
-167.866	317.680	0.107	-0.198
-166.852	-73.073	-0.216	0.078
-165.837	800.000	0.089	-0.252
-164.823	742.387	-0.168	0.442
-163.808	212.249	-0.100	-0.154
-162.793	32.971	-0.151	0.128
-161.779	175.243	-0.057	0.081
-160.764	-77.507	0.194	-0.066
-159.750	221.234	0.100	0.157
-158.735	20.578	0.041	0.032
-157.720	111.588	-0.235	-0.278
-156.706	800.000	0.074	-0.311
-155.691	-200.000	0.032	0.264
-154.677	73.738	0.074	-0.076
-153.662	187.408	0.126	0.184
-152.647	-147.925	0.090	0.007
-151.633	-200.000	-0.030	-0.200
-150.618	-200.000	-0.005	-0.146
-149.604	-29.028	-0.332	-0.186
-148.589	-61.480	-0.200	-0.082
-147.574	45.461	-0.158	-0.143
-146.560	-200.000	-0.053	0.310
-145.545	-12.454	0.295	-0.189
-144.531	325.209	0.111	0.208
-143.516	800.000	-0.027	0.093
-142.502	-200.000	-0.362	-0.001
-141.487	800.000	0.114	-0.338
-140.472	279.355	0.179	-0.313
-139.458	-98.089	-0.286	0.072
-138.443	207.693	0.135	-0.205
-137.429	-200.000	0.071	0.459
-136.414	-2.911	0.097	-0.067
-135.399	800.000	-0.032	0.125
-134.385	273.654	0.229	0.395
-133.370	-80.526	0.272	-0.089
-132.356	75.371	0.041	-0.042
-131.341	-127.469	-0.248	0.035
-130.326	15.192	0.288	-0.221
-129.312	-71.190	0.286	-0.105
-128.297	91.553	0.312	-0.343
-127.283	-8.658	0.195	-0.128
-126.268	95.342	-0.051	-0.057
-125.253	-130.650	-0.175	0.023
-124.239	-86.821	-0.076	-0.023
-123.224	-96.702	0.023	-0.006
-122.210	-118.467	-0.365	0.063
-121.195	-102.330	-0.176	0.041
