DTS Sentinel unit serial number:	SN413079Multiplexer serial number:	ORYXHardware model number:	OX4-SRSoftware version number:	ORYX F/W v4.00 Oryx Data Collector v3.7.2.0data status	okinstallation	princeton_trtdifferential loss correction	single-endedforward channel	channel 2reverse channel	N/Adate	2019/09/14time	01:27:35forward acquisition time	60.00reverse acquisition time	0.00gamma	496.2192k internal	0.2338k external	0.2338temperature offset calibration	1.0123default loss term (dB/km)	0.3790temperature slope calibration	1.0000multiplexer offset coefficient	1.0000multiplexer slope coefficient	1.0000fibre end	0.00T internal ref (°C)	26.44T ext. ref 1 (°C)	3.18T ext. ref 2 (°C)	21.44length (m)	temperature (°C)	Stokes	anti-Stokes-747.200	-200.000	-0.046	-0.319
-746.185	124.408	-0.025	0.031
-745.171	693.328	0.095	0.250
-744.156	-200.000	0.008	-0.229
-743.142	89.547	0.159	0.178
-742.127	-200.000	-0.008	-0.115
-741.112	800.000	-0.174	-0.541
-740.098	800.000	-0.055	0.242
-739.083	800.000	-0.118	0.366
-738.069	-161.242	-0.252	0.013
-737.054	-161.531	-0.123	-0.006
-736.039	-200.000	-0.017	0.149
-735.025	-44.442	0.192	-0.096
-734.010	73.979	-0.213	-0.224
-732.996	800.000	-0.086	0.349
-731.981	296.627	0.057	0.105
-730.966	-86.582	0.199	-0.061
-729.952	60.617	0.066	-0.066
-728.937	-136.691	-0.196	0.023
-727.923	-68.939	-0.386	-0.149
-726.908	-200.000	-0.010	0.053
-725.894	-10.857	0.113	-0.075
-724.879	-79.064	0.318	-0.108
-723.864	800.000	-0.041	-0.120
-722.850	-168.424	0.219	-0.008
-721.835	-15.308	-0.316	-0.203
-720.821	800.000	-0.134	-0.470
-719.806	165.194	-0.074	-0.104
-718.791	-70.863	-0.135	0.051
-717.777	-36.580	0.331	0.178
-716.762	146.535	0.149	-0.201
-715.748	264.667	0.184	-0.321
-714.733	259.998	0.148	0.256
-713.718	224.988	-0.081	-0.132
-712.704	172.866	0.158	-0.228
-711.689	6.570	0.156	0.116
-710.675	-19.959	0.231	0.143
-709.660	-63.502	-0.123	-0.051
-708.645	235.212	0.163	0.270
-707.631	10.704	-0.196	-0.150
-706.616	77.685	-0.112	-0.119
-705.602	165.706	0.074	0.106
-704.587	800.000	-0.057	0.243
-703.572	-67.562	0.258	0.101
-702.558	48.152	-0.102	-0.096
-701.543	96.723	0.129	-0.148
-700.529	-200.000	0.019	-0.186
-699.514	158.902	0.038	-0.052
-698.499	-0.527	-0.179	0.127
-697.485	-167.054	-0.128	-0.005
-696.470	-167.665	-0.300	0.012
-695.456	-200.000	-0.001	0.098
-694.441	6.631	0.245	0.183
-693.426	-41.131	0.075	0.039
-692.412	178.610	0.156	-0.228
-691.397	-80.766	-0.248	-0.083
-690.383	167.995	0.108	0.154
-689.368	-122.544	0.150	-0.024
-688.354	186.130	0.101	0.151
-687.339	-18.520	0.151	-0.094
-686.324	-75.826	-0.181	0.064
-685.310	-200.000	0.003	-0.103
-684.295	-200.000	0.066	0.387
-683.281	-28.280	-0.112	-0.065
-682.266	-136.461	-0.050	0.006
-681.251	2.605	0.174	-0.126
-680.237	366.288	-0.050	0.101
-679.222	683.722	0.106	0.278
-678.208	440.348	0.080	-0.176
-677.193	800.000	-0.025	0.103
-676.178	-57.032	0.133	0.059
-675.164	800.000	0.091	-0.262
-674.149	389.595	-0.107	0.221
-673.135	9.035	-0.132	0.100
-672.120	362.393	0.116	-0.232
-671.105	-155.082	0.182	-0.012
-670.091	134.888	-0.127	0.166
-669.076	-200.000	0.011	0.394
-668.062	-200.000	-0.045	-0.257
-667.047	-200.000	0.006	0.537
-666.032	-200.000	-0.054	0.291
-665.018	800.000	0.093	-0.384
-664.003	-149.033	-0.110	-0.009
-662.989	173.650	-0.133	-0.192
-661.974	610.206	0.054	0.135
-660.959	-34.984	0.169	0.092
-659.945	-123.339	-0.100	0.016
-658.930	132.204	-0.168	0.217
-657.916	-150.462	-0.229	0.018
-656.901	477.406	-0.122	-0.277
-655.886	800.000	0.018	-0.052
-654.872	-77.292	-0.365	-0.127
-653.857	-200.000	-0.044	0.257
-652.843	-200.000	-0.026	0.229
-651.828	4.830	-0.193	-0.142
-650.814	-73.441	-0.418	-0.152
-649.799	96.906	0.085	0.097
-648.784	-55.166	0.342	0.154
-647.770	-200.000	-0.030	0.237
-646.755	214.350	0.113	0.178
-645.741	-83.082	0.250	-0.080
-644.726	-69.551	0.086	-0.033
-643.711	232.075	0.052	-0.086
-642.697	31.273	0.254	0.218
-641.682	60.227	-0.134	-0.133
-640.668	271.355	-0.039	-0.068
-639.653	-44.034	0.263	0.132
-638.638	529.884	-0.092	0.216
-637.624	243.133	0.048	0.080
-636.609	41.768	0.334	-0.302
-635.595	-185.535	0.046	-0.001
-634.580	191.521	0.117	0.177
-633.565	-200.000	-0.014	-0.333
-632.551	-200.000	0.001	0.042
-631.536	-104.044	-0.309	0.072
-630.522	-66.238	0.230	-0.092
-629.507	-40.291	-0.122	-0.063
-628.492	-64.726	0.126	-0.051
-627.478	800.000	-0.077	0.279
-626.463	-146.208	0.359	-0.031
-625.449	37.753	-0.075	-0.067
-624.434	-81.858	0.056	0.018
-623.419	54.429	-0.135	-0.130
-622.405	-37.567	0.174	-0.093
-621.390	-34.969	-0.129	-0.071
-620.376	-102.083	-0.152	-0.037
-619.361	327.449	-0.150	0.288
-618.346	275.769	0.202	-0.357
-617.332	83.741	-0.208	0.226
-616.317	-16.313	0.181	0.115
-615.303	129.506	0.230	0.293
-614.288	-200.000	-0.006	-0.071
-613.273	-200.000	-0.048	-0.296
-612.259	-5.330	0.143	-0.098
-611.244	33.543	0.150	0.130
-610.230	-200.000	0.019	-0.181
-609.215	-26.020	0.008	0.005
-608.201	5.167	-0.033	0.024
-607.186	-166.495	0.040	0.002
-606.171	-98.187	0.189	-0.048
-605.157	122.339	0.050	0.062
-604.142	268.360	0.149	0.261
-603.128	-200.000	0.028	0.159
-602.113	-44.285	0.081	0.040
-601.098	-200.000	0.060	-0.329
-600.084	73.873	0.211	-0.221
-599.069	-86.829	0.189	-0.058
-598.055	-71.483	0.289	0.108
-597.040	56.078	-0.164	0.158
-596.025	723.076	-0.136	-0.362
-595.011	800.000	-0.046	-0.156
-593.996	-200.000	0.030	0.509
-592.982	134.018	-0.107	0.139
-591.967	91.209	0.091	-0.101
-590.952	91.467	0.052	0.058
-589.938	800.000	0.016	-0.068
-588.923	23.156	0.204	-0.167
-587.909	-200.000	-0.001	-0.254
-586.894	-200.000	-0.033	0.235
-585.879	5.938	-0.104	-0.077
-584.865	-200.000	0.016	0.117
-583.850	-100.391	0.487	-0.120
-582.836	-153.295	0.016	0.001
-581.821	-8.758	-0.251	0.168
-580.806	-200.000	-0.056	0.270
-579.792	-19.235	-0.077	-0.047
-578.777	-1.046	0.061	0.043
-577.763	381.133	-0.139	-0.285
-576.748	-103.712	-0.428	-0.100
-575.733	-122.014	-0.218	0.036
-574.719	12.040	0.292	0.224
-573.704	463.337	-0.207	0.461
-572.690	-17.081	-0.075	0.047
-571.675	800.000	0.057	0.180
-570.661	800.000	-0.041	0.146
-569.646	-17.426	-0.125	0.079
-568.631	148.232	-0.145	0.195
-567.617	-200.000	0.407	0.000
-566.602	425.881	0.157	-0.337
-565.588	13.452	0.263	-0.204
-564.573	-76.318	0.213	0.075
-563.558	-200.000	-0.000	-0.096
-562.544	-200.000	-0.473	-0.001
-561.529	-200.000	0.006	-0.319
-560.515	-150.000	-0.173	-0.013
-559.500	-69.074	-0.415	-0.159
-558.485	-200.000	0.004	0.138
-557.471	22.942	0.146	-0.119
-556.456	-101.769	-0.048	-0.012
-555.442	-200.000	-0.003	0.115
-554.427	-119.068	-0.161	0.028
-553.412	-8.699	0.250	0.167
-552.398	-29.120	-0.106	0.060
-551.383	-200.000	-0.015	-0.208
-550.369	-200.000	-0.024	-0.169
-549.354	91.512	-0.063	0.071
-548.339	-6.685	-0.187	-0.126
-547.325	-200.000	-0.002	0.010
-546.310	709.886	0.088	-0.231
-545.296	800.000	-0.099	-0.361
-544.281	9.080	0.070	-0.052
-543.266	-200.000	0.001	-0.048
-542.252	-20.156	-0.034	0.021
-541.237	800.000	-0.042	0.157
-540.223	151.915	0.109	-0.147
-539.208	-82.227	-0.273	0.089
-538.193	800.000	-0.072	0.236
-537.179	-138.706	-0.454	-0.049
-536.164	63.342	0.140	0.140
-535.150	356.160	-0.063	-0.125
-534.135	377.048	0.150	-0.306
-533.121	-93.577	0.194	-0.053
-532.106	-136.572	-0.003	0.000
-531.091	71.255	0.117	0.121
-530.077	752.726	-0.084	0.226
-529.062	83.844	0.247	-0.268
-528.048	-200.000	0.009	-0.149
-527.033	120.729	-0.079	0.098
-526.018	14.200	-0.195	0.151
-525.004	-132.918	-0.263	-0.033
-523.989	-39.163	-0.109	0.057
-522.975	-47.617	-0.292	-0.141
-521.960	-200.000	0.109	0.507
-520.945	737.990	-0.049	0.130
-519.931	-147.935	-0.273	-0.023
-518.916	168.732	0.058	-0.082
-517.902	-200.000	-0.002	-0.121
-516.887	81.388	0.067	-0.073
-515.872	-12.815	-0.517	-0.335
-514.858	37.853	-0.137	-0.121
-513.843	-24.301	0.055	0.033
-512.829	-93.129	0.289	-0.080
-511.814	334.899	-0.071	-0.138
-510.799	275.089	0.044	0.078
-509.785	-117.641	-0.222	0.040
-508.770	2.262	-0.162	-0.116
-507.756	388.874	-0.095	-0.195
-506.741	-126.286	-0.082	0.012
-505.726	-200.000	0.277	0.001
-504.712	148.544	-0.216	0.291
-503.697	-114.523	0.127	-0.024
-502.683	665.654	-0.093	0.239
-501.668	-200.000	0.002	-0.142
-500.653	-93.330	0.241	0.066
-499.639	23.599	-0.086	-0.070
-498.624	-58.504	-0.261	-0.113
-497.610	-29.788	-0.134	0.076
-496.595	-53.594	0.376	-0.171
-495.581	-125.595	0.279	-0.042
-494.566	63.008	0.013	0.013
-493.551	-17.429	-0.143	-0.089
-492.537	346.913	0.114	-0.223
-491.522	-200.000	-0.056	0.354
-490.508	189.228	0.129	-0.192
-489.493	-55.259	0.178	-0.080
-488.478	-16.583	-0.302	0.190
-487.464	-200.000	-0.051	-0.306
-486.449	800.000	0.017	-0.060
-485.435	46.441	-0.142	-0.131
-484.420	54.004	-0.088	-0.084
-483.405	5.448	-0.133	-0.098
-482.391	800.000	-0.085	0.367
-481.376	15.226	0.068	-0.053
-480.362	-149.153	-0.213	-0.017
-479.347	-9.352	0.240	-0.159
-478.332	104.610	-0.174	0.204
-477.318	228.176	-0.172	-0.278
-476.303	800.000	-0.062	0.172
-475.289	-29.781	0.240	0.136
-474.274	-200.000	0.035	-0.250
-473.259	100.604	-0.114	0.132
-472.245	381.127	-0.057	-0.116
-471.230	27.074	-0.325	-0.271
-470.216	-127.571	0.159	-0.023
-469.201	-200.000	-0.008	0.066
-468.186	-143.403	-0.424	0.040
-467.172	800.000	0.054	0.192
-466.157	64.137	-0.031	0.031
-465.143	-76.914	-0.331	-0.115
-464.128	-200.000	-0.008	0.355
-463.113	-200.000	0.020	-0.142
-462.099	-72.390	-0.130	0.048
-461.084	-67.393	0.019	-0.008
-460.070	139.718	-0.231	0.303
-459.055	-200.000	0.045	-0.196
-458.040	-200.000	-0.034	-0.364
-457.026	-78.967	0.205	-0.069
-456.011	10.816	-0.107	-0.081
-454.997	-140.046	-0.124	-0.013
-453.982	-48.533	0.286	-0.137
-452.968	176.479	0.029	0.041
-451.953	-153.705	0.075	0.005
-450.938	-200.000	0.007	-0.228
-449.924	39.606	-0.183	-0.163
-448.909	109.832	-0.237	-0.282
-447.895	-65.141	-0.285	0.114
-446.880	75.893	0.280	0.294
-445.865	-61.739	-0.597	0.248
-444.851	149.385	-0.143	-0.193
-443.836	-74.943	0.223	-0.079
-442.822	349.662	0.097	0.190
-441.807	-86.626	-0.198	-0.060
-440.792	800.000	0.134	-0.436
-439.778	-86.222	-0.100	-0.030
-438.763	-131.648	-0.288	-0.037
-437.749	800.000	0.027	0.110
-436.734	89.159	0.151	-0.167
-435.719	1.537	0.218	0.156
-434.705	-200.000	-0.069	0.307
-433.690	761.819	0.073	0.197
-432.676	-200.000	0.017	-0.125
-431.661	-200.000	-0.025	-0.193
-430.646	270.978	-0.013	0.023
-429.632	160.435	0.089	-0.123
-428.617	413.088	-0.113	-0.237
-427.603	-200.000	0.060	-0.349
-426.588	-128.620	-0.158	0.022
-425.573	-200.000	-0.024	0.121
-424.559	-200.000	-0.022	-0.174
-423.544	-200.000	0.007	-0.120
-422.530	-160.533	-0.050	-0.003
-421.515	-123.045	0.363	-0.058
-420.500	-136.481	-0.165	-0.019
-419.486	113.605	0.117	-0.140
-418.471	-200.000	0.031	0.213
-417.457	228.984	-0.063	0.102
-416.442	82.551	-0.087	-0.094
-415.428	-200.000	0.001	0.124
-414.413	16.347	0.178	-0.140
-413.398	-180.990	-0.154	0.003
-412.384	120.390	0.236	-0.290
-411.369	-79.923	0.215	0.071
-410.355	-200.000	-0.002	-0.183
-409.340	-3.255	-0.183	0.126
-408.325	436.197	0.122	-0.263
-407.311	-200.000	-0.017	0.084
-406.296	-147.425	-0.169	0.014
-405.282	-200.000	0.005	0.057
-404.267	-135.827	-0.075	0.009
-403.252	137.175	-0.230	0.298
-402.238	-88.161	-0.289	0.086
-401.223	142.034	0.145	-0.191
-400.209	-200.000	0.013	0.206
-399.194	-200.000	-0.028	0.248
-398.179	103.108	-0.016	0.019
-397.165	60.891	0.136	0.134
-396.150	-47.879	0.156	-0.075
-395.136	-200.000	-0.042	-0.268
-394.121	-85.048	0.279	-0.087
-393.106	576.362	0.039	-0.094
-392.092	177.589	-0.167	0.240
-391.077	57.916	-0.184	-0.178
-390.063	-200.000	-0.054	-0.300
-389.048	417.116	-0.083	-0.176
-388.033	-40.883	0.089	-0.045
-387.019	-69.436	-0.060	0.023
-386.004	-200.000	-0.001	-0.037
-384.990	-45.541	0.101	-0.049
-383.975	57.460	-0.096	0.093
-382.960	189.904	-0.059	-0.087
-381.946	-200.000	0.063	0.342
-380.931	-154.908	0.145	0.009
-379.917	-79.413	-0.360	0.121
-378.902	-120.028	0.008	0.001
-377.888	15.646	0.386	0.300
-376.873	5.204	-0.156	0.113
-375.858	185.720	0.065	0.096
-374.844	-66.091	0.074	-0.029
-373.829	206.121	-0.118	-0.182
-372.815	-77.991	0.078	0.026
-371.800	-73.701	0.268	-0.097
-370.785	-50.173	0.097	0.045
-369.771	-200.000	-0.063	0.353
-368.756	-157.062	0.171	0.010
-367.742	402.048	0.067	0.140
-366.727	-156.615	0.057	0.004
-365.712	-84.832	0.348	0.108
-364.698	-200.000	0.440	0.000
-363.683	-69.375	0.197	0.075
-362.669	-139.470	0.241	0.025
-361.654	-37.321	-0.032	-0.017
-360.639	51.055	0.154	-0.144
-359.625	800.000	-0.088	0.262
-358.610	-62.424	0.275	0.113
-357.596	-142.410	-0.217	-0.021
-356.581	-50.089	-0.253	-0.118
-355.566	800.000	0.019	-0.071
-354.552	-200.000	-0.000	0.151
-353.537	-106.768	0.179	0.039
-352.523	-95.600	-0.246	-0.065
-351.508	-200.000	-0.016	-0.163
-350.493	-200.000	0.052	0.506
-349.479	-200.000	0.023	0.169
-348.464	-200.000	0.034	-0.193
-347.450	86.715	0.079	0.086
-346.435	87.442	0.139	0.152
-345.420	-119.755	0.179	-0.031
-344.406	-148.953	-0.164	-0.013
-343.391	-60.947	0.095	0.040
-342.377	-72.699	0.026	0.009
-341.362	-79.384	-0.096	0.032
-340.348	80.019	0.020	0.022
-339.333	-29.756	0.155	0.087
-338.318	-133.420	0.166	-0.021
-337.304	-200.000	-0.039	-0.294
-336.289	-46.033	-0.229	0.111
-335.275	-50.442	-0.253	0.118
-334.260	-163.226	-0.126	-0.006
-333.245	85.315	0.181	0.196
-332.231	-21.340	-0.077	-0.046
-331.216	-106.284	-0.396	-0.088
-330.202	257.344	0.037	0.063
-329.187	-93.407	-0.069	-0.019
-328.172	74.093	-0.236	0.244
-327.158	-200.000	-0.001	0.028
-326.143	800.000	-0.046	0.150
-325.129	-173.807	0.098	0.003
-324.114	-75.146	-0.255	-0.090
-323.099	464.346	0.081	-0.178
-322.085	159.430	0.250	0.344
-321.070	-157.712	-0.132	0.008
-320.056	305.663	0.093	-0.171
-319.041	-84.246	-0.091	-0.028
-318.026	29.240	0.117	-0.098
-317.012	276.904	-0.225	0.395
-315.997	621.145	-0.107	-0.266
-314.983	800.000	-0.053	-0.180
-313.968	43.989	-0.249	0.225
-312.953	-200.000	0.006	0.208
-311.939	11.326	-0.251	0.189
-310.924	266.393	0.149	0.258
-309.910	-3.610	-0.167	0.115
-308.895	-80.676	-0.047	-0.016
-307.880	676.398	-0.020	0.051
-306.866	220.108	-0.032	-0.050
-305.851	118.314	-0.270	-0.328
-304.837	85.474	0.030	-0.032
-303.822	-105.721	0.338	-0.075
-302.807	216.723	0.157	0.247
-301.793	-71.601	-0.354	0.131
-300.778	67.126	0.184	-0.185
-299.764	505.292	0.203	0.465
-298.749	-152.596	0.058	-0.004
-297.735	268.284	0.051	0.088
-296.720	-150.154	-0.150	0.011
-295.705	558.566	0.119	0.284
-294.691	-200.000	-0.019	-0.217
-293.676	344.783	-0.111	0.214
-292.662	-52.135	0.135	0.062
-291.647	-200.000	0.022	0.139
-290.632	-31.168	0.194	0.108
-289.618	-106.478	0.130	-0.029
-288.603	22.630	0.206	0.167
-287.589	-63.736	0.287	-0.116
-286.574	-160.369	-0.273	-0.014
-285.559	726.814	0.191	-0.501
-284.545	-110.508	0.243	0.050
-283.530	784.824	-0.112	0.302
-282.516	76.685	-0.038	-0.040
-281.501	44.913	-0.252	-0.229
-280.486	-36.761	0.159	0.084
-279.472	-24.707	-0.280	0.164
-278.457	-200.000	-0.031	0.259
-277.443	-32.456	-0.174	-0.095
-276.428	-37.127	-0.160	-0.085
-275.413	-69.750	-0.088	-0.033
-274.399	228.971	0.133	-0.213
-273.384	507.808	0.047	-0.107
-272.370	-25.984	-0.127	0.074
-271.355	800.000	-0.050	-0.168
-270.340	-28.472	0.412	0.234
-269.326	129.750	-0.111	-0.140
-268.311	800.000	0.042	-0.134
-267.297	194.583	-0.037	-0.056
-266.282	-200.000	-0.017	0.107
-265.267	-116.697	0.285	0.052
-264.253	-18.321	0.226	0.139
-263.238	371.072	0.116	-0.231
-262.224	-200.000	0.093	-0.517
-261.209	800.000	-0.053	-0.154
-260.195	17.537	0.109	0.085
-259.180	601.235	-0.022	0.054
-258.165	800.000	-0.026	0.074
-257.151	800.000	-0.111	0.388
-256.136	-106.575	0.180	0.039
-255.122	329.727	-0.065	0.122
-254.107	22.474	0.192	0.155
-253.092	-30.446	0.202	0.113
-252.078	800.000	0.014	0.051
-251.063	-57.501	0.083	0.036
-250.049	385.734	-0.218	-0.443
-249.034	62.092	0.095	-0.093
-248.019	-200.000	-0.013	-0.105
-247.005	-144.940	-0.171	0.015
-245.990	74.555	0.240	-0.249
-244.976	304.278	-0.067	-0.122
-243.961	72.903	-0.121	-0.124
-242.946	-20.918	-0.591	-0.356
-241.932	77.996	0.199	0.209
-240.917	-106.378	-0.326	-0.072
-239.903	-153.558	0.215	-0.015
-238.888	49.486	0.322	0.298
-237.873	800.000	0.098	0.277
-236.859	-200.000	0.012	-0.138
-235.844	-11.267	-0.125	0.081
-234.830	-99.388	0.168	0.042
-233.815	-200.000	-0.020	0.158
-232.800	-200.000	-0.005	0.068
-231.786	-53.472	0.128	-0.057
-230.771	13.260	0.160	0.122
-229.757	19.514	0.128	0.101
-228.742	74.635	-0.290	0.300
-227.727	-103.295	0.163	0.038
-226.713	168.428	0.214	0.299
-225.698	-72.883	0.052	0.019
-224.684	1.121	0.090	-0.063
-223.669	295.316	-0.157	0.282
-222.655	-200.000	-0.001	-0.218
-221.640	800.000	0.057	-0.158
-220.625	72.342	-0.150	0.153
-219.611	166.595	0.061	-0.084
-218.596	-200.000	0.001	-0.172
-217.582	137.129	-0.138	-0.177
-216.567	52.529	0.337	0.317
-215.552	-200.000	0.028	0.230
-214.538	110.794	0.211	0.249
-213.523	-76.375	-0.208	0.072
-212.509	-98.975	-0.337	-0.084
-211.494	-36.352	0.178	-0.094
-210.479	44.688	-0.253	0.229
-209.465	337.888	0.083	0.160
-208.450	670.814	0.127	-0.323
-207.436	-30.379	-0.242	-0.135
-206.421	800.000	0.012	0.041
-205.406	-124.770	0.215	0.033
-204.392	9.829	-0.119	-0.089
-203.377	-200.000	-0.033	-0.230
-202.363	-200.000	0.030	0.204
-201.348	800.000	0.064	0.194
-200.333	127.474	0.238	-0.297
-199.319	-99.970	0.192	0.047
-198.304	-200.000	0.019	-0.323
-197.290	-35.546	-0.144	-0.077
-196.275	305.386	-0.237	-0.432
-195.260	-111.119	-0.195	0.039
-194.246	38.094	-0.126	-0.111
-193.231	-75.488	-0.179	0.063
-192.217	123.254	0.392	0.483
-191.202	-200.000	0.036	-0.188
-190.187	342.980	-0.167	-0.321
-189.173	-118.043	0.139	0.024
-188.158	399.290	-0.066	-0.136
-187.144	331.584	0.118	-0.223
-186.129	-65.792	0.190	-0.074
-185.114	54.692	0.114	0.108
-184.100	324.258	-0.082	0.153
-183.085	626.471	0.039	-0.097
-182.071	134.612	0.148	0.188
-181.056	800.000	-0.057	0.182
-180.042	-200.000	0.055	-0.267
-179.027	-21.427	0.080	-0.048
-178.012	-152.032	-0.240	0.017
-176.998	40.145	0.265	0.233
-175.983	-80.347	-0.173	0.057
-174.969	-59.232	-0.222	0.094
-173.954	29.759	-0.140	-0.117
-172.939	546.184	-0.023	-0.053
-171.925	-108.154	-0.498	-0.106
-170.910	-72.549	0.303	-0.110
-169.896	-36.382	0.253	0.134
-168.881	4.662	-0.328	-0.236
-167.866	-109.231	-0.124	-0.026
-166.852	-200.000	0.011	0.059
-165.837	361.183	0.083	-0.163
-164.823	-200.000	0.035	-0.356
-163.808	-72.537	-0.218	0.079
-162.793	-123.008	-0.120	0.019
-161.779	766.383	0.053	-0.140
-160.764	-91.880	-0.187	-0.052
-159.750	793.965	0.027	-0.073
-158.735	282.041	0.116	-0.203
-157.720	694.276	-0.080	0.206
-156.706	168.955	-0.088	-0.123
-155.691	45.096	0.470	0.425
-154.677	800.000	-0.107	0.332
-153.662	-64.360	0.056	0.022
-152.647	7.931	-0.075	0.055
-151.633	-200.000	0.041	-0.221
-150.618	300.159	0.075	-0.136
-149.604	-102.170	-0.135	-0.032
-148.589	-200.000	0.005	0.242
-147.574	81.963	0.311	0.331
-146.560	-191.076	0.092	0.001
-145.545	507.787	0.178	-0.406
-144.531	-118.137	0.165	0.029
-143.516	-65.397	0.116	0.046
-142.502	58.940	0.163	0.157
-141.487	-130.344	-0.483	-0.064
-140.472	161.514	0.185	0.253
-139.458	-7.253	-0.127	-0.084
-138.443	-19.118	-0.085	-0.052
-137.429	63.746	0.071	0.070
-136.414	-200.000	-0.070	-0.321
-135.399	523.692	-0.092	0.211
-134.385	215.125	0.205	0.319
-133.370	-46.045	0.141	-0.068
-132.356	-160.253	-0.138	0.007
-131.341	800.000	-0.120	0.365
-130.326	-176.549	0.257	-0.006
-129.312	-200.000	0.043	-0.227
-128.297	647.317	-0.105	-0.262
-127.283	-200.000	-0.025	-0.152
-126.268	-89.794	-0.042	-0.012
-125.253	-200.000	0.012	0.184
-124.239	72.627	0.052	-0.053
-123.224	114.186	0.114	-0.136
-122.210	-148.420	0.443	-0.036
-121.195	-45.110	-0.209	0.102
