DTS Sentinel unit serial number:	SN413079Multiplexer serial number:	ORYXHardware model number:	OX4-SRSoftware version number:	ORYX F/W v4.00 Oryx Data Collector v3.7.2.0data status	okinstallation	princeton_trtdifferential loss correction	single-endedforward channel	channel 2reverse channel	N/Adate	2019/09/14time	02:35:35forward acquisition time	60.00reverse acquisition time	0.00gamma	496.2192k internal	0.2337k external	0.2337temperature offset calibration	1.0126default loss term (dB/km)	0.3790temperature slope calibration	1.0000multiplexer offset coefficient	1.0000multiplexer slope coefficient	1.0000fibre end	0.00T internal ref (°C)	26.53T ext. ref 1 (°C)	3.23T ext. ref 2 (°C)	21.56length (m)	temperature (°C)	Stokes	anti-Stokes-747.200	-13.126	0.085	0.055
-746.185	-200.000	0.033	-0.189
-745.171	101.630	0.188	0.220
-744.156	31.663	-0.063	-0.054
-743.142	-38.682	-0.112	0.059
-742.127	36.912	-0.154	0.137
-741.112	-200.000	0.047	0.464
-740.098	-200.000	-0.015	0.129
-739.083	37.077	0.336	0.299
-738.069	800.000	-0.108	0.326
-737.054	239.759	0.106	0.178
-736.039	800.000	-0.009	0.029
-735.025	43.733	-0.165	0.152
-734.010	800.000	0.066	0.184
-732.996	106.028	-0.183	-0.218
-731.981	800.000	0.004	-0.018
-730.966	310.397	-0.111	0.208
-729.952	53.904	-0.068	-0.066
-728.937	41.433	-0.120	0.109
-727.923	711.461	-0.110	-0.292
-726.908	-116.443	-0.450	-0.083
-725.894	179.190	0.146	0.214
-724.879	-200.000	0.039	0.190
-723.864	-200.000	-0.089	-0.452
-722.850	648.508	0.086	-0.220
-721.835	148.383	-0.060	0.082
-720.821	800.000	0.101	-0.289
-719.806	-200.000	0.001	0.133
-718.791	104.859	0.106	-0.126
-717.777	114.278	-0.159	-0.195
-716.762	-200.000	0.026	-0.335
-715.748	-101.648	-0.223	0.054
-714.733	-173.839	-0.235	0.007
-713.718	81.353	-0.100	0.108
-712.704	201.279	-0.057	-0.088
-711.689	-6.554	-0.239	-0.163
-710.675	-121.729	-0.355	0.059
-709.660	-200.000	0.035	0.280
-708.645	-197.015	0.161	0.001
-707.631	-153.042	0.124	0.009
-706.616	-56.461	-0.274	0.122
-705.602	309.824	0.044	0.082
-704.587	83.670	0.160	-0.175
-703.572	-49.043	0.089	-0.043
-702.558	-55.495	0.009	0.004
-701.543	91.580	-0.182	0.205
-700.529	-200.000	0.028	0.190
-699.514	800.000	-0.092	-0.275
-698.499	-50.134	0.306	0.145
-697.485	-142.643	-0.372	-0.036
-696.470	-42.892	0.416	0.212
-695.456	200.818	-0.109	0.167
-694.441	203.072	0.294	-0.455
-693.426	23.051	-0.298	-0.245
-692.412	-200.000	0.022	-0.479
-691.397	172.944	-0.184	0.266
-690.383	-200.000	0.011	0.058
-689.368	136.276	-0.257	0.336
-688.354	-97.301	-0.273	-0.071
-687.339	454.683	-0.205	-0.455
-686.324	461.743	-0.149	-0.333
-685.310	800.000	-0.020	-0.085
-684.295	10.991	0.154	-0.118
-683.281	-72.951	0.164	0.060
-682.266	429.958	-0.159	-0.344
-681.251	-200.000	-0.024	-0.242
-680.237	332.876	-0.277	-0.537
-679.222	185.529	-0.110	0.163
-678.208	117.493	-0.129	-0.159
-677.193	800.000	0.074	-0.249
-676.178	-50.639	-0.052	-0.025
-675.164	-139.190	-0.255	0.028
-674.149	202.797	0.107	0.166
-673.135	59.011	0.064	0.063
-672.120	-52.311	-0.137	-0.063
-671.105	373.635	0.089	0.181
-670.091	-67.871	0.300	0.117
-669.076	-56.106	-0.159	-0.071
-668.062	-162.308	0.065	-0.003
-667.047	-200.000	-0.030	-0.331
-666.032	800.000	0.052	-0.221
-665.018	-105.371	-0.051	0.012
-664.003	296.776	-0.093	-0.170
-662.989	-80.303	0.149	-0.050
-661.974	68.952	0.137	0.140
-660.959	-98.612	-0.070	0.018
-659.945	-200.000	-0.076	0.365
-658.930	667.157	-0.027	0.069
-657.916	334.469	0.053	0.103
-656.901	170.270	0.124	-0.178
-655.886	-39.801	0.188	0.098
-654.872	266.125	-0.084	-0.146
-653.857	-63.826	-0.164	0.067
-652.843	-28.433	0.181	-0.104
-651.828	144.023	-0.101	-0.134
-650.814	138.925	-0.101	0.133
-649.799	-183.289	0.110	-0.002
-648.784	800.000	-0.134	-0.391
-647.770	35.987	0.033	-0.029
-646.755	-200.000	0.016	-0.106
-645.741	63.914	0.161	0.162
-644.726	800.000	0.058	0.202
-643.711	-112.725	0.237	0.047
-642.697	33.068	-0.027	-0.024
-641.682	-200.000	-0.001	0.154
-640.668	800.000	0.082	0.239
-639.653	445.911	0.091	-0.201
-638.638	-137.409	-0.405	0.046
-637.624	-116.750	0.145	-0.027
-636.609	-58.793	-0.452	-0.196
-635.595	800.000	-0.100	-0.373
-634.580	-66.560	-0.099	0.039
-633.565	800.000	-0.033	0.095
-632.551	218.453	-0.121	0.194
-631.536	-81.728	-0.089	-0.029
-630.522	11.637	-0.348	0.267
-629.507	32.182	-0.276	-0.238
-628.492	28.423	-0.231	-0.195
-627.478	-151.582	-0.191	-0.014
-626.463	283.302	0.048	-0.086
-625.449	-53.272	0.202	-0.093
-624.434	349.645	-0.119	0.235
-623.419	-43.058	0.108	-0.055
-622.405	47.717	0.093	-0.087
-621.390	-35.126	0.082	0.044
-620.376	800.000	0.048	-0.201
-619.361	1.412	0.071	-0.051
-618.346	-200.000	-0.014	0.219
-617.332	800.000	-0.072	-0.268
-616.317	-40.795	-0.411	-0.213
-615.303	-100.862	-0.347	0.085
-614.288	-200.000	0.006	-0.185
-613.273	-109.274	0.019	-0.004
-612.259	-145.946	-0.173	-0.015
-611.244	2.420	-0.095	0.068
-610.230	41.766	0.080	-0.073
-609.215	52.044	-0.247	-0.235
-608.201	-112.399	-0.198	0.040
-607.186	392.268	0.048	-0.100
-606.171	-200.000	0.036	-0.184
-605.157	178.438	-0.121	-0.177
-604.142	-200.000	-0.002	-0.040
-603.128	-75.300	0.246	0.088
-602.113	-55.736	0.207	0.092
-601.098	-87.801	0.114	-0.034
-600.084	-174.508	0.363	0.010
-599.069	-52.965	0.024	0.011
-598.055	-25.094	0.038	0.023
-597.040	-93.271	0.400	-0.111
-596.025	441.127	-0.032	0.070
-595.011	215.785	0.101	-0.161
-593.996	-43.408	0.428	0.216
-592.982	-34.813	-0.020	-0.011
-591.967	-60.282	0.360	0.153
-590.952	255.158	0.021	-0.035
-589.938	-11.322	0.208	0.137
-588.923	-143.031	-0.306	0.030
-587.909	10.608	0.044	-0.034
-586.894	-98.119	0.545	-0.140
-585.879	-15.123	-0.157	-0.100
-584.865	800.000	-0.052	0.186
-583.850	-60.907	-0.179	0.076
-582.836	-55.013	-0.123	-0.055
-581.821	-17.398	-0.246	0.154
-580.806	-200.000	0.057	-0.408
-579.792	-108.197	-0.128	0.028
-578.777	1.894	-0.320	0.230
-577.763	-119.815	0.173	0.030
-576.748	-68.565	0.252	-0.097
-575.733	-152.788	0.375	0.027
-574.719	-43.538	0.085	0.043
-573.704	-62.787	-0.324	0.134
-572.690	137.550	-0.126	-0.164
-571.675	-103.598	-0.293	0.069
-570.661	800.000	0.081	-0.244
-569.646	-64.007	0.305	0.124
-568.631	-95.787	-0.511	0.136
-567.617	117.207	0.099	0.121
-566.602	179.560	0.123	0.179
-565.588	-163.153	0.207	-0.010
-564.573	-71.426	-0.325	-0.121
-563.558	307.383	-0.039	0.072
-562.544	-200.000	0.011	0.135
-561.529	-200.000	0.002	0.044
-560.515	-200.000	0.011	-0.168
-559.500	-26.318	-0.083	-0.049
-558.485	29.497	0.131	0.111
-557.471	-200.000	-0.015	-0.176
-556.456	-4.555	0.090	0.062
-555.442	-80.241	-0.303	-0.101
-554.427	-12.012	0.167	0.109
-553.412	74.614	0.134	0.140
-552.398	-200.000	0.011	-0.279
-551.383	-17.491	-0.437	0.274
-550.369	-63.588	-0.372	0.152
-549.354	-10.827	0.179	-0.118
-548.339	67.769	0.144	0.147
-547.325	-116.876	-0.300	-0.055
-546.310	-41.014	-0.152	0.078
-545.296	9.612	0.149	0.113
-544.281	27.899	0.204	0.171
-543.266	102.201	0.297	-0.346
-542.252	24.177	0.112	-0.092
-541.237	-150.568	0.088	-0.007
-540.223	-2.916	0.158	0.110
-539.208	-200.000	0.007	-0.426
-538.193	-67.133	0.333	-0.131
-537.179	162.672	-0.168	0.234
-536.164	-38.024	0.146	-0.077
-535.150	-29.837	0.093	-0.053
-534.135	-80.841	-0.278	-0.092
-533.121	397.506	0.145	-0.302
-532.106	-9.553	-0.273	0.181
-531.091	247.587	0.167	-0.282
-530.077	17.780	0.057	0.045
-529.062	81.715	-0.269	-0.290
-528.048	-200.000	-0.000	0.037
-527.033	-200.000	-0.025	-0.197
-526.018	-200.000	0.028	0.133
-525.004	800.000	-0.043	0.125
-523.989	77.417	-0.229	-0.243
-522.975	800.000	0.089	0.245
-521.960	140.443	0.184	0.241
-520.945	264.057	-0.102	0.176
-519.931	-200.000	0.036	0.265
-518.916	332.206	-0.077	0.148
-517.902	-200.000	0.045	0.238
-516.887	-168.229	0.147	-0.006
-515.872	1.017	0.291	0.207
-514.858	678.065	0.115	-0.297
-513.843	177.718	0.140	0.202
-512.829	-83.941	-0.287	-0.091
-511.814	-85.559	0.210	-0.065
-510.799	-200.000	0.072	0.549
-509.785	-78.311	0.242	-0.083
-508.770	-77.617	-0.116	0.040
-507.756	269.495	-0.119	-0.207
-506.741	-105.075	0.267	-0.061
-505.726	-157.446	-0.288	-0.017
-504.712	800.000	-0.120	0.344
-503.697	244.576	0.144	0.241
-502.683	270.190	0.024	-0.042
-501.668	278.470	-0.184	-0.326
-500.653	-200.000	-0.012	-0.172
-499.639	417.221	-0.023	-0.049
-498.624	-200.000	-0.049	0.258
-497.610	15.921	0.197	-0.154
-496.595	340.607	0.083	-0.160
-495.581	-75.468	-0.068	0.024
-494.566	-17.407	-0.221	-0.139
-493.551	111.543	-0.096	0.115
-492.537	502.811	0.162	0.372
-491.522	-200.000	-0.080	0.429
-490.508	-163.545	0.501	-0.024
-489.493	-37.664	-0.305	0.161
-488.478	-40.994	0.284	-0.146
-487.464	0.594	0.257	-0.183
-486.449	155.422	-0.185	-0.253
-485.435	-6.229	0.077	-0.052
-484.420	130.226	-0.167	-0.212
-483.405	73.309	0.029	-0.030
-482.391	243.656	-0.109	-0.182
-481.376	-78.684	0.160	-0.054
-480.362	-42.044	-0.331	0.168
-479.347	-41.883	-0.121	0.062
-478.332	800.000	0.159	-0.443
-477.318	-161.567	-0.384	-0.020
-476.303	-200.000	-0.060	-0.358
-475.289	-200.000	-0.045	0.372
-474.274	698.317	0.155	0.405
-473.259	-91.965	0.530	-0.149
-472.245	-200.000	-0.046	-0.304
-471.230	-75.428	0.238	-0.084
-470.216	800.000	0.073	-0.266
-469.201	328.872	-0.063	-0.120
-468.186	-64.336	-0.180	0.073
-467.172	-85.122	0.115	-0.036
-466.157	-200.000	-0.050	0.290
-465.143	380.212	0.155	-0.315
-464.128	-108.199	-0.316	0.068
-463.113	800.000	-0.134	0.456
-462.099	2.614	-0.027	-0.020
-461.084	-0.474	-0.138	-0.097
-460.070	242.696	0.073	-0.122
-459.055	-200.000	-0.004	0.027
-458.040	-80.291	0.273	0.091
-457.026	-200.000	-0.019	-0.146
-456.011	19.560	-0.089	-0.071
-454.997	-59.702	0.296	0.126
-453.982	-200.000	0.048	0.300
-452.968	41.127	0.066	0.059
-451.953	35.092	-0.185	-0.160
-450.938	65.143	0.228	-0.229
-449.924	-94.092	-0.052	0.014
-448.909	-169.446	-0.265	-0.010
-447.895	684.148	0.045	-0.115
-446.880	-6.955	-0.276	0.186
-445.865	-200.000	0.005	0.061
-444.851	-151.610	-0.202	0.015
-443.836	-134.005	0.332	-0.041
-442.822	-200.000	0.046	0.312
-441.807	76.734	0.244	-0.257
-440.792	-75.996	0.188	-0.066
-439.778	-14.770	-0.155	-0.098
-438.763	-23.809	0.047	0.028
-437.749	-43.049	0.434	-0.218
-436.734	46.371	-0.240	0.221
-435.719	26.593	-0.303	-0.252
-434.705	-200.000	-0.000	-0.034
-433.690	-1.510	-0.083	0.058
-432.676	-33.750	0.194	-0.106
-431.661	-64.389	0.134	-0.054
-430.646	88.599	0.040	0.044
-429.632	-109.189	0.284	0.060
-428.617	-21.652	0.102	-0.062
-427.603	800.000	-0.129	-0.406
-426.588	328.505	-0.068	0.129
-425.573	-136.174	0.130	-0.015
-424.559	-200.000	-0.020	-0.090
-423.544	-138.365	0.068	0.007
-422.530	-83.694	-0.152	0.048
-421.515	262.522	-0.037	0.064
-420.500	-127.863	0.285	-0.041
-419.486	-200.000	-0.009	-0.320
-418.471	-13.157	0.266	-0.171
-417.457	-42.895	0.103	-0.052
-416.442	-200.000	0.001	-0.074
-415.428	152.725	-0.199	0.269
-414.413	-119.643	0.386	0.066
-413.398	42.880	0.223	-0.201
-412.384	47.827	-0.145	0.134
-411.369	-74.459	0.189	-0.067
-410.355	-148.618	-0.422	0.034
-409.340	131.475	0.296	-0.377
-408.325	-69.014	0.255	-0.097
-407.311	-114.050	0.389	-0.075
-406.296	-142.540	-0.255	0.025
-405.282	270.193	-0.196	0.341
-404.267	-200.000	-0.040	0.234
-403.252	45.019	0.102	-0.093
-402.238	-43.020	0.359	0.180
-401.223	-200.000	-0.024	-0.169
-400.209	800.000	-0.059	-0.191
-399.194	800.000	-0.147	-0.475
-398.179	41.523	0.112	0.101
-397.165	-115.398	-0.113	-0.021
-396.150	-61.220	0.072	-0.030
-395.136	144.172	0.124	0.164
-394.121	-60.294	-0.060	-0.025
-393.106	-66.296	-0.149	-0.059
-392.092	-200.000	0.003	0.230
-391.077	244.777	-0.194	0.324
-390.063	-133.690	-0.309	-0.038
-389.048	36.912	0.039	-0.034
-388.033	-4.413	-0.240	0.164
-387.019	-180.353	-0.180	-0.004
-386.004	-124.507	0.370	0.057
-384.990	98.763	-0.117	-0.134
-383.975	28.900	0.054	0.045
-382.960	112.853	-0.183	0.219
-381.946	-64.161	0.282	0.114
-380.931	-200.000	0.030	0.232
-379.917	-68.534	-0.390	-0.150
-378.902	244.147	0.171	-0.284
-377.888	-91.218	-0.222	-0.063
-376.873	546.898	-0.069	0.164
-375.858	-103.009	0.409	0.096
-374.844	89.257	0.176	0.194
-373.829	800.000	0.056	-0.154
-372.815	-39.548	0.209	0.108
-371.800	800.000	-0.070	0.264
-370.785	-5.674	-0.195	-0.132
-369.771	-125.235	0.364	-0.055
-368.756	101.213	0.033	-0.038
-367.742	800.000	-0.059	-0.235
-366.727	-127.945	-0.280	-0.040
-365.712	-200.000	0.002	-0.114
-364.698	-79.763	-0.318	0.106
-363.683	800.000	-0.080	-0.274
-362.669	25.449	-0.309	0.254
-361.654	608.529	0.132	0.325
-360.639	800.000	0.023	0.094
-359.625	-53.971	-0.462	-0.208
-358.610	19.859	0.120	0.096
-357.596	-200.000	0.010	0.271
-356.581	-1.097	-0.176	-0.123
-355.566	22.823	-0.308	-0.249
-354.552	28.609	0.163	0.136
-353.537	-111.713	-0.247	-0.050
-352.523	800.000	-0.072	-0.262
-351.508	-200.000	-0.009	0.062
-350.493	-4.311	-0.071	0.048
-349.479	38.587	-0.069	-0.061
-348.464	-126.573	-0.460	0.067
-347.450	-110.814	-0.380	-0.077
-346.435	-30.457	-0.266	0.149
-345.420	-84.328	0.116	0.036
-344.406	5.753	-0.159	0.116
-343.391	69.576	0.377	-0.384
-342.377	-200.000	-0.028	0.275
-341.362	40.911	0.103	-0.092
-340.348	800.000	-0.044	-0.180
-339.333	-5.610	-0.183	0.124
-338.318	-97.381	0.287	0.074
-337.304	518.477	-0.178	0.411
-336.289	800.000	0.075	0.317
-335.275	162.729	-0.076	-0.105
-334.260	-200.000	-0.007	0.072
-333.245	-83.141	0.233	0.074
-332.231	-107.891	0.039	-0.008
-331.216	800.000	-0.093	-0.304
-330.202	-47.219	0.069	-0.033
-329.187	94.884	-0.169	-0.190
-328.172	-98.642	0.334	-0.084
-327.158	43.399	0.137	-0.124
-326.143	142.760	0.142	-0.186
-325.129	369.240	0.055	-0.109
-324.114	318.218	0.124	-0.232
-323.099	-170.572	-0.152	0.005
-322.085	-155.128	-0.298	0.019
-321.070	800.000	-0.029	-0.112
-320.056	-19.986	0.155	0.095
-319.041	-53.267	0.222	0.101
-318.026	-8.663	-0.239	0.158
-317.012	-123.369	0.231	-0.036
-315.997	-200.000	0.017	0.123
-314.983	-62.488	-0.308	0.126
-313.968	-200.000	0.006	0.287
-312.953	-128.963	0.090	-0.012
-311.939	-93.855	-0.319	-0.087
-310.924	800.000	0.056	0.236
-309.910	-171.089	-0.053	-0.002
-308.895	-100.409	-0.420	0.103
-307.880	-200.000	0.015	-0.127
-306.866	-200.000	0.011	0.070
-305.851	-200.000	-0.003	-0.116
-304.837	-63.552	0.101	0.041
-303.822	-109.950	-0.279	0.058
-302.807	-110.292	0.176	0.036
-301.793	-41.390	-0.206	-0.105
-300.778	140.891	-0.304	-0.396
-299.764	-56.570	-0.116	-0.051
-298.749	-200.000	0.067	-0.333
-297.735	-70.565	0.200	0.075
-296.720	450.983	0.182	0.396
-295.705	-168.342	-0.297	0.011
-294.691	-34.214	-0.048	-0.026
-293.676	97.123	0.153	-0.173
-292.662	25.250	-0.219	0.179
-291.647	-200.000	-0.000	-0.166
-290.632	-200.000	-0.023	0.127
-289.618	-131.800	0.220	0.028
-288.603	84.567	0.269	-0.290
-287.589	800.000	-0.084	-0.251
-286.574	-26.733	0.153	-0.088
-285.559	-60.025	0.142	0.060
-284.545	-200.000	0.028	0.264
-283.530	800.000	-0.021	0.090
-282.516	276.385	-0.077	0.134
-281.501	23.880	-0.186	-0.152
-280.486	-200.000	0.022	-0.198
-279.472	347.793	-0.145	-0.281
-278.457	800.000	0.052	0.161
-277.443	-200.000	0.068	-0.374
-276.428	800.000	-0.016	-0.058
-275.413	120.237	0.102	-0.125
-274.399	244.293	0.132	-0.218
-273.384	-200.000	0.009	-0.218
-272.370	172.344	-0.161	-0.228
-271.355	580.398	0.089	-0.214
-270.340	-113.107	0.175	0.034
-269.326	-200.000	-0.022	-0.236
-268.311	167.827	0.246	0.344
-267.297	23.223	-0.052	-0.042
-266.282	800.000	0.048	-0.134
-265.267	47.934	0.152	-0.140
-264.253	-150.823	-0.157	0.012
-263.238	21.050	-0.323	0.258
-262.224	463.600	-0.124	-0.273
-261.209	17.845	0.272	-0.213
-260.195	53.123	-0.253	0.238
-259.180	-97.852	0.280	0.071
-258.165	-105.647	-0.442	0.099
-257.151	178.533	-0.078	0.113
-256.136	800.000	0.039	0.139
-255.122	-200.000	-0.015	-0.120
-254.107	-180.967	-0.329	0.007
-253.092	618.723	-0.087	0.216
-252.078	22.359	-0.104	0.084
-251.063	99.756	-0.014	0.016
-250.049	-200.000	-0.036	0.290
-249.034	-48.167	-0.159	0.075
-248.019	-200.000	0.015	-0.132
-247.005	360.590	0.089	0.176
-245.990	-28.612	0.107	-0.061
-244.976	-196.795	0.184	-0.001
-243.961	343.068	0.042	0.081
-242.946	-131.631	0.398	0.051
-241.932	29.096	0.256	-0.214
-240.917	-200.000	0.019	-0.086
-239.903	800.000	-0.066	-0.270
-238.888	-125.091	-0.144	0.022
-237.873	800.000	0.019	-0.070
-236.859	-200.000	-0.050	0.230
-235.844	800.000	-0.117	0.492
-234.830	12.490	-0.203	0.154
-233.815	-161.858	0.113	-0.006
-232.800	800.000	0.037	-0.123
-231.786	0.022	0.213	-0.150
-230.771	382.245	0.147	0.298
-229.757	-42.971	-0.074	0.037
-228.742	800.000	-0.064	0.187
-227.727	-154.687	0.486	0.032
-226.713	70.091	-0.291	-0.295
-225.698	480.167	0.068	-0.151
-224.684	537.033	0.047	-0.110
-223.669	-200.000	-0.044	-0.289
-222.655	800.000	-0.050	-0.182
-221.640	-70.656	-0.204	0.076
-220.625	-150.433	0.267	-0.020
-219.611	-115.100	0.277	0.052
-218.596	42.567	0.139	-0.124
-217.582	53.402	-0.142	0.134
-216.567	458.173	-0.080	0.176
-215.552	-134.612	-0.354	0.042
-214.538	6.695	0.115	-0.084
-213.523	-200.000	-0.003	0.153
-212.509	270.501	-0.063	0.109
-211.494	305.009	-0.056	-0.102
-210.479	763.281	0.063	0.167
-209.465	800.000	0.050	-0.144
-208.450	-9.154	0.288	0.190
-207.436	-94.866	-0.205	0.055
-206.421	-87.315	0.184	-0.055
-205.406	-132.513	-0.124	0.016
-204.392	45.512	0.259	0.235
-203.377	638.791	-0.128	0.320
-202.363	800.000	0.096	0.353
-201.348	-200.000	-0.035	0.374
-200.333	15.994	0.169	-0.131
-199.319	415.616	0.063	-0.132
-198.304	29.953	-0.027	-0.023
-197.290	165.207	-0.157	-0.219
-196.275	-200.000	0.054	0.316
-195.260	-2.958	-0.138	0.095
-194.246	320.952	0.111	0.207
-193.231	28.775	-0.101	0.084
-192.217	-49.549	0.012	-0.006
-191.202	147.097	0.046	0.060
-190.187	87.096	0.193	-0.210
-189.173	52.425	-0.261	0.244
-188.158	800.000	-0.166	0.545
-187.144	-56.687	-0.289	-0.126
-186.129	-200.000	-0.017	-0.097
-185.114	800.000	0.148	-0.442
-184.100	176.996	0.095	0.136
-183.085	-71.519	-0.204	-0.075
-182.071	660.621	0.120	0.303
-181.056	-200.000	0.003	0.164
-180.042	-43.305	0.267	0.132
-179.027	5.633	-0.175	-0.127
-178.012	-56.062	0.314	-0.137
-176.998	-19.782	-0.164	-0.099
-175.983	693.553	-0.055	0.141
-174.969	583.851	-0.106	0.255
-173.954	-112.377	-0.310	-0.061
-172.939	136.831	-0.204	-0.261
-171.925	-122.090	0.076	-0.012
-170.910	741.146	-0.054	0.143
-169.896	182.967	-0.125	-0.181
-168.881	-103.643	0.267	0.061
-167.866	800.000	0.047	0.151
-166.852	172.264	0.058	0.082
-165.837	800.000	-0.058	0.201
-164.823	-106.064	-0.466	0.103
-163.808	310.467	0.179	0.329
-162.793	-20.978	0.270	-0.162
-161.779	42.819	-0.336	0.300
-160.764	-74.177	0.185	-0.066
-159.750	3.908	-0.060	0.043
-158.735	-66.241	0.183	0.071
-157.720	162.641	-0.182	0.250
-156.706	-97.264	0.425	0.109
-155.691	94.342	0.201	0.224
-154.677	125.283	0.119	0.147
-153.662	162.796	0.261	-0.359
-152.647	214.394	0.185	-0.288
-151.633	-200.000	-0.002	-0.243
-150.618	-185.404	0.049	-0.001
-149.604	55.393	-0.083	0.079
-148.589	-200.000	-0.024	0.263
-147.574	-105.832	-0.320	-0.071
-146.560	93.264	0.115	0.128
-145.545	-64.987	-0.198	0.078
-144.531	129.804	0.162	0.203
-143.516	18.134	-0.104	-0.082
-142.502	800.000	-0.030	-0.120
-141.487	409.305	0.101	0.209
-140.472	-200.000	0.030	-0.481
-139.458	-80.347	0.264	0.086
-138.443	-36.453	-0.133	0.070
-137.429	-200.000	0.060	-0.264
-136.414	179.157	-0.076	-0.109
-135.399	111.085	0.164	-0.193
-134.385	-151.125	0.236	0.017
-133.370	251.528	0.213	0.356
-132.356	16.224	0.162	0.125
-131.341	-41.778	-0.242	-0.122
-130.326	-23.410	-0.224	0.132
-129.312	120.396	0.088	0.108
-128.297	800.000	0.058	0.198
-127.283	-200.000	-0.058	0.256
-126.268	-118.897	-0.341	-0.059
-125.253	-79.925	-0.142	0.047
-124.239	-181.407	-0.093	0.002
-123.224	800.000	0.021	0.073
-122.210	-63.528	0.227	0.092
-121.195	5.496	0.289	0.209
-120.180	-200.000	0.006	0.141
