DTS Sentinel unit serial number:	SN413079Multiplexer serial number:	ORYXHardware model number:	OX4-SRSoftware version number:	ORYX F/W v4.00 Oryx Data Collector v3.7.2.0data status	okinstallation	princeton_trtdifferential loss correction	single-endedforward channel	channel 2reverse channel	N/Adate	2019/09/18time	03:11:35forward acquisition time	60.00reverse acquisition time	0.00gamma	496.2192k internal	0.2349k external	0.2349temperature offset calibration	0.9981default loss term (dB/km)	0.3790temperature slope calibration	1.0000multiplexer offset coefficient	1.0000multiplexer slope coefficient	1.0000fibre end	0.00T internal ref (°C)	22.75T ext. ref 1 (°C)	0.16T ext. ref 2 (°C)	16.93length (m)	temperature (°C)	Stokes	anti-Stokes-747.200	-200.000	-0.008	0.195
-746.185	-117.116	-0.177	0.032
-745.171	800.000	-0.110	-0.378
-744.156	10.479	-0.167	-0.127
-743.142	187.447	0.092	0.136
-742.127	800.000	-0.129	0.374
-741.112	-27.060	0.445	0.259
-740.098	103.601	-0.199	0.233
-739.083	316.238	0.155	0.293
-738.069	377.478	-0.135	0.275
-737.054	-200.000	0.014	0.182
-736.039	-85.863	-0.282	-0.087
-735.025	800.000	0.137	0.457
-734.010	596.790	-0.172	-0.425
-732.996	-136.251	-0.303	-0.035
-731.981	-84.516	-0.472	-0.149
-730.966	287.955	0.048	-0.087
-729.952	559.612	0.047	0.114
-728.937	-70.917	-0.156	0.059
-727.923	-151.868	-0.210	0.015
-726.908	24.513	-0.269	0.222
-725.894	-134.070	0.252	0.031
-724.879	103.474	0.162	-0.189
-723.864	-200.000	-0.010	0.062
-722.850	800.000	0.029	0.083
-721.835	101.342	-0.187	-0.217
-720.821	36.872	0.098	0.087
-719.806	-200.000	-0.003	-0.042
-718.791	-200.000	0.050	-0.454
-717.777	17.333	0.242	0.192
-716.762	4.299	-0.203	0.148
-715.748	2.268	-0.213	0.153
-714.733	-200.000	-0.030	0.146
-713.718	-36.389	-0.183	0.098
-712.704	-64.574	0.113	0.046
-711.689	21.917	0.155	0.126
-710.675	800.000	0.079	0.300
-709.660	-87.272	-0.039	-0.012
-708.645	-41.958	-0.185	0.095
-707.631	247.975	-0.028	-0.047
-706.616	-200.000	0.012	-0.193
-705.602	47.597	0.126	0.118
-704.587	-200.000	0.001	-0.156
-703.572	621.359	0.032	0.081
-702.558	-110.506	0.180	0.037
-701.543	-138.549	-0.263	-0.029
-700.529	-50.957	0.147	0.069
-699.514	800.000	0.105	0.407
-698.499	147.286	0.056	-0.075
-697.485	-139.836	0.140	0.015
-696.470	42.039	0.122	-0.110
-695.456	800.000	-0.067	0.191
-694.441	-17.024	-0.236	-0.148
-693.426	-27.881	0.251	-0.145
-692.412	17.398	-0.261	-0.207
-691.397	62.917	-0.025	-0.025
-690.383	438.330	-0.075	0.164
-689.368	-200.000	0.008	-0.121
-688.354	800.000	0.106	0.327
-687.339	196.014	-0.172	-0.260
-686.324	-133.031	-0.160	0.020
-685.310	387.927	0.021	-0.042
-684.295	-13.334	-0.082	-0.053
-683.281	-77.039	-0.304	-0.106
-682.266	-6.934	-0.284	0.192
-681.251	-200.000	0.030	0.134
-680.237	9.891	-0.213	-0.161
-679.222	140.345	0.209	-0.275
-678.208	280.183	0.187	-0.332
-677.193	-55.460	-0.310	0.138
-676.178	-153.759	0.426	0.029
-675.164	86.749	-0.218	-0.240
-674.149	183.095	0.072	-0.105
-673.135	-60.180	0.114	0.048
-672.120	101.567	-0.214	0.248
-671.105	306.364	-0.164	0.304
-670.091	-80.329	0.257	-0.086
-669.076	-200.000	-0.060	0.449
-668.062	-200.000	0.051	-0.253
-667.047	145.909	0.196	-0.261
-666.032	-66.735	-0.091	0.036
-665.018	-110.219	0.180	0.037
-664.003	112.647	0.150	-0.180
-662.989	-90.100	-0.392	0.114
-661.974	67.884	0.430	-0.438
-660.959	104.617	0.103	0.121
-659.945	-60.060	0.167	-0.071
-658.930	350.118	0.219	0.431
-657.916	173.679	0.152	-0.218
-656.901	-132.398	-0.248	0.032
-655.886	44.116	0.070	-0.064
-654.872	-200.000	0.080	0.000
-653.857	146.548	-0.201	0.269
-652.843	800.000	0.098	0.372
-651.828	-60.582	-0.323	-0.136
-650.814	42.223	-0.121	-0.110
-649.799	18.130	0.071	-0.056
-648.784	205.435	-0.109	-0.169
-647.770	-138.310	0.137	-0.015
-646.755	366.661	-0.141	-0.282
-645.741	800.000	-0.054	0.179
-644.726	9.297	0.147	0.111
-643.711	-101.776	0.099	0.024
-642.697	-184.344	0.159	-0.003
-641.682	249.129	0.107	0.180
-640.668	406.903	0.037	-0.079
-639.653	800.000	-0.080	-0.299
-638.638	-200.000	-0.001	-0.028
-637.624	800.000	0.056	-0.200
-636.609	-18.411	-0.071	-0.044
-635.595	-63.105	-0.259	-0.106
-634.580	26.175	0.113	-0.094
-633.565	416.601	0.129	0.273
-632.551	-64.223	-0.543	0.220
-631.536	800.000	0.037	-0.130
-630.522	-200.000	0.075	0.385
-629.507	-97.179	-0.130	0.034
-628.492	-99.799	-0.123	-0.031
-627.478	-69.533	0.165	0.063
-626.463	-200.000	0.015	-0.191
-625.449	-200.000	-0.001	0.250
-624.434	154.474	0.035	-0.048
-623.419	171.718	-0.038	-0.055
-622.405	65.588	0.150	0.151
-621.390	-200.000	-0.010	0.220
-620.376	747.857	0.052	-0.138
-619.361	-24.961	-0.263	0.155
-618.346	72.805	0.065	0.068
-617.332	800.000	-0.021	-0.072
-616.317	-200.000	0.081	-0.524
-615.303	800.000	0.138	0.386
-614.288	568.812	-0.041	0.098
-613.273	-79.360	-0.199	0.067
-612.259	-84.260	-0.208	0.066
-611.244	73.441	-0.164	0.171
-610.230	103.544	-0.206	-0.241
-609.215	103.142	-0.206	-0.240
-608.201	-17.095	0.136	0.085
-607.186	-100.122	-0.028	0.007
-606.171	-116.990	0.247	-0.045
-605.157	-200.000	-0.019	-0.140
-604.142	232.853	-0.138	-0.225
-603.128	214.525	-0.191	-0.300
-602.113	-112.362	-0.367	0.073
-601.098	-136.900	-0.181	0.021
-600.084	-200.000	0.013	-0.448
-599.069	321.180	-0.121	-0.229
-598.055	136.591	0.149	-0.193
-597.040	-17.064	-0.083	-0.052
-596.025	117.973	-0.051	-0.062
-595.011	87.825	0.114	0.125
-593.996	-58.945	0.185	0.079
-592.982	-82.334	-0.122	-0.039
-591.967	569.499	-0.039	-0.095
-590.952	-113.798	-0.198	0.038
-589.938	-86.289	0.252	0.077
-588.923	42.070	0.165	0.149
-587.909	32.821	-0.117	0.101
-586.894	-200.000	0.029	-0.255
-585.879	-168.074	-0.171	-0.007
-584.865	800.000	-0.060	0.223
-583.850	-82.819	0.108	0.035
-582.836	435.705	-0.109	0.234
-581.821	-82.894	0.025	-0.008
-580.806	-131.063	-0.075	-0.010
-579.792	-102.389	-0.143	-0.034
-578.777	195.978	0.098	-0.149
-577.763	-133.368	-0.148	0.018
-576.748	-133.999	0.110	0.014
-575.733	208.795	0.090	-0.140
-574.719	-11.040	0.046	-0.030
-573.704	-200.000	0.001	-0.356
-572.690	-134.259	0.349	-0.043
-571.675	800.000	-0.019	-0.063
-570.661	-19.238	-0.192	0.118
-569.646	17.292	0.104	0.082
-568.631	434.153	-0.091	0.195
-567.617	432.052	-0.114	-0.246
-566.602	800.000	0.098	0.276
-565.588	309.892	0.201	-0.372
-564.573	233.150	-0.217	-0.353
-563.558	-34.362	0.222	-0.121
-562.544	800.000	-0.071	0.233
-561.529	14.347	-0.257	0.199
-560.515	564.111	-0.073	-0.176
-559.500	-91.883	0.144	0.040
-558.485	179.963	0.078	0.114
-557.471	157.197	0.023	0.031
-556.456	13.611	0.189	0.146
-555.442	-6.498	-0.138	-0.093
-554.427	800.000	-0.075	0.266
-553.412	-18.121	0.233	-0.145
-552.398	206.083	-0.194	-0.299
-551.383	-3.277	0.152	0.105
-550.369	-55.773	0.166	0.073
-549.354	-112.331	-0.606	0.120
-548.339	129.460	-0.085	0.108
-547.325	-81.393	-0.053	-0.017
-546.310	800.000	-0.031	-0.135
-545.296	143.125	-0.095	-0.125
-544.281	-185.420	0.030	-0.000
-543.266	664.001	-0.048	-0.122
-542.252	800.000	0.022	0.082
-541.237	337.799	0.082	0.159
-540.223	-143.704	0.119	-0.011
-539.208	292.108	-0.189	0.341
-538.193	19.028	0.323	0.257
-537.179	-129.713	-0.251	-0.034
-536.164	-120.477	0.165	0.028
-535.150	101.739	-0.113	-0.130
-534.135	133.127	0.101	-0.130
-533.121	122.536	0.111	-0.138
-532.106	-121.122	0.259	-0.043
-531.091	601.462	-0.206	-0.506
-530.077	26.444	-0.206	-0.171
-529.062	-169.031	-0.074	-0.003
-528.048	800.000	0.012	0.050
-527.033	-65.544	0.148	0.059
-526.018	59.092	0.122	-0.119
-525.004	130.608	0.283	0.359
-523.989	-12.133	0.110	-0.071
-522.975	-49.259	-0.235	0.111
-521.960	547.859	-0.104	0.246
-520.945	-167.914	-0.048	-0.002
-519.931	92.277	-0.034	-0.038
-518.916	-90.690	0.301	-0.086
-517.902	116.102	0.214	-0.260
-516.887	-77.666	0.292	-0.100
-515.872	290.524	-0.094	0.169
-514.858	-69.428	0.101	-0.038
-513.843	-47.428	0.135	-0.065
-512.829	-200.000	-0.051	-0.291
-511.814	-200.000	0.008	0.075
-510.799	800.000	0.022	0.087
-509.785	-97.842	-0.236	-0.060
-508.770	56.873	-0.096	-0.093
-507.756	-20.351	-0.456	0.277
-506.741	-6.928	0.165	-0.111
-505.726	67.344	0.188	-0.190
-504.712	121.880	-0.160	0.198
-503.697	-200.000	-0.010	-0.054
-502.683	74.490	0.266	0.276
-501.668	-139.435	0.073	0.008
-500.653	-114.327	0.313	0.060
-499.639	-151.444	0.331	0.024
-498.624	-122.340	0.047	0.008
-497.610	141.029	-0.103	-0.135
-496.595	-40.304	0.196	-0.101
-495.581	34.673	-0.242	0.209
-494.566	-23.284	0.217	0.129
-493.551	-200.000	-0.005	-0.179
-492.537	32.965	0.134	-0.115
-491.522	-25.774	-0.121	0.071
-490.508	97.135	0.281	-0.319
-489.493	11.117	-0.162	-0.122
-488.478	526.380	0.109	-0.254
-487.464	330.853	-0.129	-0.246
-486.449	49.262	0.157	0.146
-485.435	9.128	0.248	0.185
-484.420	-192.216	-0.087	-0.001
-483.405	41.315	-0.302	-0.270
-482.391	800.000	0.093	-0.322
-481.376	-200.000	0.000	0.052
-480.362	-54.851	0.088	-0.039
-479.347	-39.278	0.082	-0.043
-478.332	147.210	0.172	-0.229
-477.318	104.881	0.216	0.252
-476.303	-64.653	-0.227	-0.091
-475.289	269.950	-0.141	-0.245
-474.274	30.406	-0.143	0.120
-473.259	-11.507	0.165	0.108
-472.245	286.350	-0.153	-0.273
-471.230	-57.096	-0.302	-0.132
-470.216	304.311	0.061	0.112
-469.201	-77.002	-0.412	0.142
-468.186	110.552	-0.181	0.215
-467.172	-8.556	0.222	-0.147
-466.157	334.751	-0.088	-0.168
-465.143	-200.000	-0.012	-0.158
-464.128	-200.000	0.010	-0.161
-463.113	-100.825	0.224	-0.054
-462.099	14.338	0.124	0.096
-461.084	214.528	-0.115	0.180
-460.070	800.000	0.117	0.377
-459.055	93.187	-0.036	-0.040
-458.040	361.563	0.218	0.432
-457.026	428.214	0.024	-0.052
-456.011	116.204	0.295	-0.357
-454.997	-200.000	0.019	0.099
-453.982	62.641	-0.119	-0.118
-452.968	220.190	-0.028	0.045
-451.953	-63.137	0.115	0.047
-450.938	317.930	-0.200	-0.374
-449.924	800.000	0.036	-0.122
-448.909	376.751	-0.070	-0.141
-447.895	32.929	0.130	-0.111
-446.880	796.514	-0.149	-0.405
-445.865	-24.355	-0.037	-0.022
-444.851	800.000	-0.110	-0.358
-443.836	-114.467	-0.178	-0.034
-442.822	16.173	-0.076	-0.059
-441.807	25.114	-0.381	0.312
-440.792	-15.700	0.171	0.108
-439.778	-200.000	0.011	0.068
-438.763	-150.035	-0.211	-0.016
-437.749	-49.925	-0.203	0.095
-436.734	-200.000	0.052	0.259
-435.719	200.683	-0.067	-0.101
-434.705	73.034	0.196	-0.202
-433.690	-149.543	0.395	0.031
-432.676	800.000	-0.067	0.225
-431.661	-133.555	-0.233	-0.029
-430.646	-51.979	0.088	0.040
-429.632	-200.000	-0.034	0.187
-428.617	800.000	-0.049	-0.184
-427.603	38.575	-0.360	0.316
-426.588	-119.883	-0.248	0.042
-425.573	-200.000	-0.070	-0.405
-424.559	-200.000	-0.010	-0.226
-423.544	-46.991	-0.068	-0.033
-422.530	92.740	0.229	0.255
-421.515	109.388	0.141	0.166
-420.500	-200.000	-0.024	-0.253
-419.486	-36.737	0.386	-0.205
-418.471	-1.634	-0.068	-0.047
-417.457	48.267	-0.145	-0.133
-416.442	454.069	0.108	-0.235
-415.428	-200.000	0.012	-0.391
-414.413	800.000	0.079	-0.329
-413.398	-78.525	-0.141	0.048
-412.384	-65.926	0.245	-0.097
-411.369	340.760	-0.060	0.115
-410.355	800.000	0.026	0.087
-409.340	-105.298	-0.335	0.075
-408.325	732.080	0.065	0.172
-407.311	148.920	-0.088	-0.118
-406.296	38.759	-0.174	-0.153
-405.282	-45.682	-0.329	0.160
-404.267	-105.889	0.263	0.058
-403.252	800.000	0.039	0.160
-402.238	-74.363	0.258	0.092
-401.223	104.775	0.231	0.268
-400.209	-200.000	0.016	0.150
-399.194	800.000	0.056	-0.188
-398.179	321.114	0.067	0.125
-397.165	8.503	-0.106	0.078
-396.150	97.750	0.237	0.269
-395.136	297.662	-0.025	-0.046
-394.121	325.818	0.149	-0.280
-393.106	-200.000	-0.009	0.056
-392.092	114.837	-0.017	0.020
-391.077	-125.830	-0.005	0.001
-390.063	375.146	0.178	0.358
-389.048	-121.538	0.173	-0.028
-388.033	-20.592	0.211	-0.128
-387.019	-90.893	-0.270	-0.076
-386.004	32.765	-0.024	-0.020
-384.990	148.227	-0.226	0.301
-383.975	-75.572	-0.193	-0.068
-382.960	29.063	0.299	0.250
-381.946	-200.000	0.050	0.454
-380.931	-100.680	-0.238	-0.058
-379.917	-51.063	0.463	0.214
-378.902	48.365	-0.205	-0.189
-377.888	592.554	0.044	0.108
-376.873	-200.000	-0.011	0.434
-375.858	-6.667	-0.092	0.061
-374.844	-29.934	-0.042	-0.023
-373.829	1.898	0.216	-0.153
-372.815	800.000	0.057	0.162
-371.800	60.803	0.253	0.247
-370.785	704.322	0.040	-0.104
-369.771	800.000	0.059	-0.175
-368.756	74.687	-0.170	0.176
-367.742	800.000	-0.076	0.274
-366.727	-51.990	0.308	-0.141
-365.712	659.780	0.100	0.253
-364.698	-200.000	-0.357	-0.001
-363.683	-200.000	0.008	0.274
-362.669	-172.599	0.170	0.005
-361.654	-50.798	0.110	0.051
-360.639	40.895	0.013	-0.011
-359.625	-9.274	0.072	0.047
-358.610	92.508	-0.070	0.078
-357.596	-192.804	0.167	-0.001
-356.581	-200.000	0.015	-0.114
-355.566	278.432	-0.234	-0.410
-354.552	-192.480	-0.073	-0.001
-353.537	184.069	-0.026	-0.038
-352.523	-200.000	0.022	0.470
-351.508	-94.148	0.163	-0.044
-350.493	-23.019	-0.234	-0.139
-349.479	-62.366	-0.233	0.095
-348.464	-105.721	0.289	0.064
-347.450	-131.498	0.124	-0.016
-346.435	100.584	-0.023	-0.026
-345.420	-20.839	-0.013	0.008
-344.406	-144.991	0.400	-0.036
-343.391	18.823	-0.327	-0.257
-342.377	-90.882	0.172	0.049
-341.362	-200.000	-0.015	0.247
-340.348	-17.975	0.121	-0.074
-339.333	56.353	-0.149	-0.142
-338.318	-14.776	0.033	0.021
-337.304	-118.835	-0.272	-0.047
-336.289	296.367	0.169	0.305
-335.275	-200.000	-0.023	-0.103
-334.260	543.923	-0.071	-0.166
-333.245	548.212	0.107	-0.252
-332.231	-101.066	0.130	0.031
-331.216	-180.869	0.298	0.006
-330.202	-70.835	-0.115	0.043
-329.187	66.754	0.147	-0.147
-328.172	483.440	0.116	0.260
-327.158	-129.405	0.362	0.049
-326.143	-200.000	0.044	0.397
-325.129	-200.000	-0.028	0.206
-324.114	100.569	-0.299	-0.341
-323.099	-190.759	-0.398	0.004
-322.085	-94.815	-0.130	0.035
-321.070	-92.938	-0.124	-0.034
-320.056	-114.589	0.239	0.045
-319.041	21.422	-0.131	-0.105
-318.026	-120.631	-0.124	0.021
-317.012	800.000	0.068	-0.259
-315.997	156.965	0.116	0.157
-314.983	123.809	-0.122	-0.150
-313.968	-41.628	0.196	-0.099
-312.953	-62.629	0.241	-0.098
-311.939	800.000	-0.095	0.373
-310.924	-84.185	0.315	-0.098
-309.910	3.557	-0.430	-0.308
-308.895	16.083	0.225	0.174
-307.880	-83.641	-0.139	0.044
-306.866	385.200	-0.118	0.239
-305.851	-62.772	0.181	0.073
-304.837	-200.000	0.013	-0.117
-303.822	800.000	-0.024	0.094
-302.807	328.210	-0.131	-0.246
-301.793	-87.242	-0.128	-0.038
-300.778	66.565	0.154	-0.154
-299.764	511.824	-0.030	0.069
-298.749	126.264	0.099	0.123
-297.735	-40.729	-0.098	-0.050
-296.720	21.542	0.015	0.012
-295.705	-79.457	0.080	0.027
-294.691	306.216	0.071	0.130
-293.676	-200.000	-0.047	0.253
-292.662	-11.381	-0.305	-0.197
-291.647	-200.000	0.007	-0.129
-290.632	30.356	0.303	-0.254
-289.618	-95.337	0.156	-0.041
-288.603	-200.000	0.010	0.315
-287.589	800.000	-0.087	-0.361
-286.574	9.836	0.323	-0.241
-285.559	-105.241	0.048	-0.011
-284.545	-140.161	0.216	-0.022
-283.530	800.000	-0.058	0.213
-282.516	-73.277	-0.091	0.033
-281.501	186.279	0.069	0.101
-280.486	-123.683	-0.288	-0.045
-279.472	58.574	-0.292	-0.281
-278.457	800.000	-0.024	0.071
-277.443	-109.092	0.224	-0.047
-276.428	53.963	-0.356	0.335
-275.413	64.054	0.081	-0.080
-274.399	800.000	-0.121	0.387
-273.384	-24.269	0.157	-0.092
-272.370	96.131	0.137	0.153
-271.355	35.549	0.177	0.152
-270.340	-78.851	-0.360	-0.120
-269.326	-200.000	-0.018	0.150
-268.311	95.573	0.158	-0.177
-267.297	-200.000	0.001	0.210
-266.282	81.056	-0.118	0.125
-265.267	88.372	-0.176	0.191
-264.253	800.000	-0.068	0.199
-263.238	-133.229	-0.394	-0.049
-262.224	41.433	-0.109	-0.096
-261.209	-112.286	0.120	-0.024
-260.195	-125.499	-0.215	-0.032
-259.180	136.502	0.255	0.325
-258.165	418.533	-0.188	0.394
-257.151	14.251	0.130	0.099
-256.136	75.470	-0.284	-0.294
-255.122	-70.592	-0.053	-0.020
-254.107	-2.068	0.055	-0.038
-253.092	626.348	0.105	-0.260
-252.078	800.000	-0.066	-0.238
-251.063	182.693	0.181	0.262
-250.049	343.266	-0.047	0.090
-249.034	-31.624	-0.068	-0.038
-248.019	483.882	-0.030	0.067
-247.005	134.090	0.067	0.084
-245.990	-17.240	0.137	0.084
-244.976	-10.825	-0.148	0.096
-243.961	-200.000	-0.022	0.167
-242.946	196.440	0.130	-0.194
-241.932	-70.827	-0.308	-0.114
-240.917	-200.000	0.028	0.427
-239.903	37.443	0.126	0.110
-238.888	-110.420	0.230	-0.047
-237.873	103.112	-0.037	-0.042
-236.859	430.116	-0.057	-0.121
-235.844	800.000	-0.012	-0.044
-234.830	-101.408	-0.155	0.037
-233.815	7.946	-0.329	0.241
-232.800	-200.000	-0.046	-0.214
-231.786	-200.000	-0.037	0.202
-230.771	-147.350	-0.278	-0.023
-229.757	-200.000	-0.061	-0.324
-228.742	340.807	-0.056	-0.106
-227.727	577.493	0.066	0.159
-226.713	-91.262	0.289	0.081
-225.698	-200.000	-0.042	0.223
-224.684	-141.193	0.270	-0.027
-223.669	408.268	0.189	-0.391
-222.655	-109.011	0.220	-0.046
-221.640	-200.000	0.005	0.130
-220.625	800.000	0.063	0.210
-219.611	3.167	0.187	-0.133
-218.596	-27.721	-0.133	-0.076
-217.582	-149.622	-0.021	0.002
-216.567	800.000	0.128	-0.395
-215.552	-8.468	-0.179	-0.118
-214.538	99.097	0.275	-0.310
-213.523	91.909	0.057	0.063
-212.509	-200.000	-0.032	0.324
-211.494	19.756	0.345	0.272
-210.479	-54.707	-0.256	-0.113
-209.465	67.092	-0.214	-0.213
-208.450	800.000	-0.043	-0.123
-207.436	-200.000	0.002	-0.520
-206.421	-104.158	-0.283	0.064
-205.406	160.431	-0.029	-0.039
-204.392	500.128	0.106	-0.239
-203.377	393.651	-0.056	0.113
-202.363	419.266	0.060	-0.126
-201.348	20.161	-0.091	0.072
-200.333	-1.112	0.172	-0.119
-199.319	-200.000	-0.019	0.206
-198.304	-168.591	-0.265	0.010
-197.290	800.000	0.094	-0.300
-196.275	-63.396	0.049	-0.020
-195.260	-84.992	-0.249	0.076
-194.246	-106.665	-0.090	-0.020
-193.231	51.391	0.236	0.219
-192.217	684.429	-0.042	0.106
-191.202	35.694	0.155	-0.133
-190.187	800.000	0.091	0.333
-189.173	-200.000	0.000	0.087
-188.158	-16.965	0.041	-0.025
-187.144	-200.000	0.005	0.023
-186.129	-23.846	-0.204	-0.119
-185.114	-200.000	0.020	0.278
-184.100	-30.888	-0.230	0.127
-183.085	0.942	-0.301	0.211
-182.071	354.619	0.236	0.458
-181.056	-54.331	0.293	-0.130
-180.042	-30.245	0.207	0.115
-179.027	-200.000	0.019	0.424
-178.012	-120.632	0.097	0.016
-176.998	-43.634	-0.097	-0.048
-175.983	650.250	-0.083	-0.208
-174.969	36.480	-0.138	0.119
-173.954	120.828	-0.211	0.256
-172.939	-25.101	0.175	-0.101
-171.925	67.799	0.129	-0.129
-170.910	583.655	0.031	-0.074
-169.896	394.710	-0.142	-0.290
-168.881	800.000	0.143	-0.447
-167.866	624.377	0.151	0.372
-166.852	31.309	0.040	0.033
-165.837	167.912	-0.058	0.080
-164.823	7.082	-0.208	-0.152
-163.808	-145.855	-0.105	0.009
-162.793	800.000	-0.055	-0.195
-161.779	-200.000	-0.103	0.504
-160.764	800.000	0.036	0.141
-159.750	-117.205	0.176	-0.031
-158.735	-23.210	0.371	0.218
-157.720	-73.117	-0.358	0.128
-156.706	-113.647	0.371	0.071
-155.691	-27.739	0.249	0.141
-154.677	341.460	-0.129	-0.246
-153.662	-62.263	-0.125	0.051
-152.647	-173.228	-0.284	0.008
-151.633	88.432	-0.182	-0.197
-150.618	64.998	0.083	-0.081
-149.604	-173.615	-0.135	-0.004
-148.589	161.113	-0.093	-0.127
-147.574	800.000	-0.087	0.369
-146.560	-110.442	0.127	0.026
-145.545	259.774	0.106	-0.179
-144.531	-109.611	-0.087	-0.018
-143.516	81.071	-0.248	0.261
-142.502	348.785	-0.048	-0.093
-141.487	16.271	0.156	0.120
-140.472	800.000	-0.050	0.186
-139.458	-22.166	-0.360	0.213
-138.443	-130.373	-0.386	-0.051
-137.429	101.487	-0.209	-0.237
-136.414	800.000	-0.146	-0.444
-135.399	-25.255	0.086	-0.049
-134.385	528.941	-0.088	0.203
-133.370	-200.000	0.021	-0.233
-132.356	-22.538	-0.263	-0.155
-131.341	-80.567	-0.049	-0.016
-130.326	-72.888	0.150	-0.054
-129.312	-130.208	-0.394	0.052
-128.297	-155.344	0.068	-0.004
-127.283	-105.318	-0.360	-0.080
-126.268	-119.656	0.139	-0.023
-125.253	-53.640	-0.411	-0.183
-124.239	498.347	-0.194	0.436
-123.224	-3.651	0.196	-0.133
-122.210	-170.743	0.066	0.002
-121.195	-200.000	0.021	-0.151
-120.180	-77.895	0.185	-0.062
