DTS Sentinel unit serial number:	SN413079Multiplexer serial number:	ORYXHardware model number:	OX4-SRSoftware version number:	ORYX F/W v4.00 Oryx Data Collector v3.7.2.0data status	okinstallation	princeton_trtdifferential loss correction	single-endedforward channel	channel 2reverse channel	N/Adate	2019/09/17time	18:11:34forward acquisition time	60.00reverse acquisition time	0.00gamma	496.2192k internal	0.2288k external	0.2288temperature offset calibration	0.9981default loss term (dB/km)	0.3790temperature slope calibration	1.0000multiplexer offset coefficient	1.0000multiplexer slope coefficient	1.0000fibre end	0.00T internal ref (°C)	43.44T ext. ref 1 (°C)	0.32T ext. ref 2 (°C)	37.76length (m)	temperature (°C)	Stokes	anti-Stokes-747.200	-86.210	-0.292	-0.092
-746.185	14.934	0.180	0.144
-745.171	-31.621	0.059	-0.034
-744.156	-83.963	0.094	-0.031
-743.142	105.233	0.294	-0.356
-742.127	-115.573	-0.177	-0.034
-741.112	245.852	0.151	-0.260
-740.098	32.179	0.095	0.084
-739.083	30.724	-0.327	-0.287
-738.069	-200.000	0.009	0.207
-737.054	-72.819	-0.321	0.121
-736.039	174.352	-0.149	-0.221
-735.025	-89.244	0.157	-0.048
-734.010	-159.755	0.127	-0.007
-732.996	800.000	0.028	-0.112
-731.981	-200.000	0.025	0.218
-730.966	283.593	-0.051	-0.093
-729.952	-132.842	-0.403	0.053
-728.937	-200.000	-0.048	-0.267
-727.923	-200.000	0.017	-0.254
-726.908	-85.757	-0.494	0.157
-725.894	-200.000	-0.006	-0.114
-724.879	-200.000	0.058	0.303
-723.864	16.427	0.245	-0.198
-722.850	-56.991	0.289	0.131
-721.835	800.000	0.066	0.249
-720.821	401.336	-0.070	0.150
-719.806	185.090	-0.354	-0.539
-718.791	502.231	0.084	-0.198
-717.777	517.465	-0.129	0.308
-716.762	800.000	-0.097	0.386
-715.748	800.000	-0.024	-0.078
-714.733	134.632	-0.053	0.070
-713.718	11.096	0.136	0.107
-712.704	-110.659	-0.068	-0.014
-711.689	447.979	-0.071	0.159
-710.675	-76.775	-0.391	-0.140
-709.660	179.235	-0.237	0.355
-708.645	15.175	0.127	0.102
-707.631	43.739	-0.197	-0.184
-706.616	-183.148	0.135	0.002
-705.602	-30.189	-0.160	0.093
-704.587	-64.786	0.139	0.058
-703.572	-140.078	0.304	-0.033
-702.558	-200.000	0.038	0.245
-701.543	-200.000	0.007	0.033
-700.529	-101.300	-0.238	0.060
-699.514	235.663	0.205	-0.347
-698.499	-90.495	-0.379	0.112
-697.485	12.607	-0.137	-0.108
-696.470	307.592	0.100	-0.190
-695.456	-200.000	-0.001	-0.225
-694.441	800.000	0.074	-0.242
-693.426	-80.657	-0.131	-0.045
-692.412	377.957	0.032	-0.068
-691.397	-62.381	0.376	0.160
-690.383	725.596	-0.115	-0.313
-689.368	-87.340	-0.180	-0.056
-688.354	135.210	-0.275	0.365
-687.339	-2.543	0.117	0.084
-686.324	76.826	0.151	0.164
-685.310	-27.831	0.113	-0.067
-684.295	84.871	-0.121	-0.136
-683.281	86.873	-0.292	0.330
-682.266	-86.520	-0.115	0.036
-681.251	248.324	0.065	0.113
-680.237	72.332	-0.051	-0.055
-679.222	127.350	0.025	0.032
-678.208	364.592	0.095	-0.196
-677.193	-160.355	0.398	0.022
-676.178	-200.000	-0.052	0.262
-675.164	-31.279	-0.129	0.074
-674.149	-59.021	-0.251	-0.111
-673.135	-21.449	0.280	-0.175
-672.120	-200.000	-0.025	0.245
-671.105	-142.887	0.104	0.010
-670.091	22.311	0.203	0.170
-669.076	-72.764	-0.558	0.210
-668.062	121.285	-0.126	-0.161
-667.047	-200.000	-0.027	0.137
-666.032	-200.000	0.007	-0.181
-665.018	-105.855	0.289	0.067
-664.003	-143.775	-0.145	-0.014
-662.989	-116.722	0.314	-0.059
-661.974	440.172	-0.176	0.393
-660.959	47.459	-0.240	0.229
-659.945	-181.107	-0.244	-0.005
-658.930	311.666	-0.119	-0.229
-657.916	182.918	0.112	-0.169
-656.901	738.640	0.060	0.164
-655.886	800.000	-0.044	0.167
-654.872	314.501	-0.120	0.232
-653.857	146.634	0.055	-0.076
-652.843	-14.827	0.134	-0.088
-651.828	73.853	0.169	0.181
-650.814	709.861	-0.107	0.288
-649.799	163.550	-0.032	0.046
-648.784	-200.000	0.013	-0.156
-647.770	800.000	0.035	-0.146
-646.755	53.891	0.096	-0.095
-645.741	784.058	-0.123	0.344
-644.726	-200.000	0.053	-0.312
-643.711	-152.891	0.122	-0.009
-642.697	28.817	0.087	-0.075
-641.682	800.000	0.014	-0.060
-640.668	-200.000	-0.006	-0.117
-639.653	135.491	-0.047	0.063
-638.638	-200.000	0.010	0.091
-637.624	-194.318	0.063	-0.001
-636.609	-137.329	-0.228	0.026
-635.595	-200.000	-0.004	-0.085
-634.580	572.152	0.044	0.109
-633.565	40.952	0.047	-0.043
-632.551	20.105	0.031	0.026
-631.536	-200.000	-0.018	0.250
-630.522	-200.000	-0.006	0.131
-629.507	-3.969	0.147	0.104
-628.492	800.000	0.048	-0.213
-627.478	230.549	0.157	-0.262
-626.463	70.000	0.140	-0.147
-625.449	400.747	0.119	-0.254
-624.434	-168.768	-0.592	0.023
-623.419	-125.930	0.283	-0.044
-622.405	42.004	0.137	0.127
-621.390	800.000	-0.022	0.074
-620.376	-189.801	-0.181	-0.002
-619.361	-105.241	-0.039	0.009
-618.346	800.000	-0.073	0.252
-617.332	69.084	0.221	0.231
-616.317	-30.862	0.345	-0.199
-615.303	-142.654	-0.190	-0.019
-614.288	-1.733	0.266	0.191
-613.273	192.800	0.084	0.130
-612.259	-132.299	-0.261	0.034
-611.244	-200.000	0.006	-0.059
-610.230	-70.097	-0.204	0.079
-609.215	-200.000	-0.019	0.110
-608.201	-200.000	-0.037	0.243
-607.186	-185.399	-0.270	0.004
-606.171	-168.572	-0.286	0.011
-605.157	-154.072	-0.112	0.008
-604.142	24.944	0.086	-0.073
-603.128	-70.831	0.096	0.037
-602.113	80.747	-0.096	0.105
-601.098	245.270	-0.125	0.214
-600.084	135.240	-0.045	-0.060
-599.069	175.546	-0.161	0.237
-598.055	-200.000	0.010	-0.150
-597.040	-200.000	-0.005	0.310
-596.025	-200.000	-0.043	-0.257
-595.011	339.811	0.060	0.119
-593.996	-105.287	-0.267	0.062
-592.982	-90.717	0.430	0.127
-591.967	800.000	0.058	0.230
-590.952	24.347	-0.318	-0.268
-589.938	800.000	0.013	-0.054
-588.923	6.681	-0.044	0.033
-587.909	336.503	0.188	-0.372
-586.894	70.745	0.147	-0.155
-585.879	444.573	0.066	-0.148
-584.865	-61.976	0.371	-0.158
-583.850	-113.318	-0.368	-0.074
-582.836	15.125	-0.196	-0.157
-581.821	26.080	-0.331	-0.281
-580.806	323.182	0.251	-0.488
-579.792	-200.000	0.003	-0.136
-578.777	-200.000	0.017	-0.266
-577.763	-81.024	-0.199	0.067
-576.748	-106.541	-0.179	0.041
-575.733	-200.000	0.011	-0.164
-574.719	43.996	-0.303	0.283
-573.704	319.150	-0.039	-0.075
-572.690	314.504	0.086	-0.166
-571.675	-34.920	-0.117	0.065
-570.661	-200.000	-0.024	-0.178
-569.646	-200.000	0.029	0.189
-568.631	56.623	-0.213	-0.211
-567.617	-66.486	0.177	0.072
-566.602	-87.909	-0.072	0.022
-565.588	-89.822	-0.181	0.054
-564.573	800.000	0.033	-0.122
-563.558	104.295	0.108	0.130
-562.544	-85.520	-0.471	0.149
-561.529	-200.000	-0.047	0.277
-560.515	-200.000	-0.005	-0.039
-559.500	-200.000	0.047	-0.299
-558.485	-48.056	-0.255	-0.125
-557.471	209.499	0.043	0.068
-556.456	108.333	0.097	0.118
-555.442	-85.073	0.026	-0.008
-554.427	-48.191	0.053	0.026
-553.412	105.099	-0.100	0.120
-552.398	-200.000	0.009	0.134
-551.383	96.403	0.190	-0.221
-550.369	306.128	0.138	-0.262
-549.354	298.152	0.103	0.192
-548.339	-200.000	-0.050	-0.501
-547.325	160.650	-0.137	0.195
-546.310	-188.211	-0.166	0.002
-545.296	589.577	0.057	-0.144
-544.281	316.860	0.179	0.344
-543.266	77.654	0.189	-0.204
-542.252	23.693	-0.216	-0.181
-541.237	-160.590	0.295	0.016
-540.223	96.350	-0.204	-0.237
-539.208	-1.223	-0.122	-0.088
-538.193	-114.425	-0.189	0.037
-537.179	547.291	-0.043	0.103
-536.164	164.313	-0.158	0.226
-535.150	-12.379	0.116	0.077
-534.135	68.434	-0.083	0.087
-533.121	-200.000	-0.014	0.113
-532.106	-93.175	-0.255	0.072
-531.091	-54.128	0.324	-0.150
-530.077	155.370	0.078	-0.109
-529.062	-82.108	0.174	-0.058
-528.048	-7.888	-0.040	0.028
-527.033	137.413	-0.141	-0.187
-526.018	-135.791	0.098	0.012
-525.004	128.851	0.090	0.117
-523.989	-27.203	-0.382	0.226
-522.975	97.480	0.161	-0.188
-521.960	-157.395	-0.280	0.017
-520.945	-101.009	-0.054	-0.014
-519.931	-200.000	-0.001	0.072
-518.916	-94.503	-0.287	0.080
-517.902	-61.464	-0.157	-0.067
-516.887	250.327	-0.052	-0.090
-515.872	-200.000	-0.027	0.121
-514.858	460.685	0.082	-0.186
-513.843	727.593	0.021	0.056
-512.829	20.520	0.196	0.161
-511.814	800.000	0.092	-0.319
-510.799	657.530	-0.112	-0.292
-509.785	-163.112	0.519	-0.025
-508.770	800.000	-0.076	-0.217
-507.756	-76.693	-0.232	0.083
-506.741	-22.526	-0.046	-0.028
-505.726	-200.000	0.014	0.068
-504.712	-4.658	-0.140	-0.098
-503.697	160.093	0.097	-0.138
-502.683	-67.050	0.319	0.128
-501.668	-200.000	0.013	0.126
-500.653	-200.000	0.006	0.202
-499.639	446.648	-0.040	0.089
-498.624	800.000	0.088	-0.277
-497.610	169.856	-0.037	0.054
-496.595	369.012	-0.152	-0.313
-495.581	286.218	-0.041	0.075
-494.566	-46.271	-0.113	0.057
-493.551	-168.073	-0.208	-0.008
-492.537	-62.701	-0.104	-0.044
-491.522	-49.812	0.171	-0.083
-490.508	-172.924	0.390	0.012
-489.493	790.098	0.101	0.283
-488.478	267.191	0.156	0.276
-487.464	-28.469	-0.174	-0.102
-486.449	-200.000	0.040	-0.226
-485.435	-35.558	0.154	-0.085
-484.420	608.154	0.092	-0.233
-483.405	-200.000	-0.005	0.155
-482.391	29.350	-0.193	-0.167
-481.376	-200.000	0.019	0.215
-480.362	-200.000	0.015	0.237
-479.347	128.969	0.214	-0.277
-478.332	-74.768	-0.219	0.080
-477.318	-200.000	0.050	0.294
-476.303	63.879	-0.244	-0.249
-475.289	196.591	0.084	-0.129
-474.274	-165.267	0.172	0.008
-473.259	207.987	0.140	-0.221
-472.245	-145.209	-0.163	-0.015
-471.230	-19.674	0.145	0.091
-470.216	652.767	-0.038	0.098
-469.201	69.502	0.128	0.134
-468.186	-65.306	-0.059	-0.024
-467.172	-17.409	-0.203	-0.129
-466.157	-19.262	-0.054	-0.034
-465.143	-135.457	-0.213	-0.026
-464.128	-200.000	0.041	-0.388
-463.113	800.000	0.098	-0.335
-462.099	265.029	0.049	0.086
-461.084	202.289	0.020	-0.031
-460.070	319.521	-0.063	0.121
-459.055	-200.000	0.025	0.300
-458.040	-40.011	-0.072	0.038
-457.026	-48.574	0.108	-0.052
-456.011	282.581	0.107	-0.194
-454.997	7.251	0.161	-0.122
-453.982	-63.307	0.229	0.096
-452.968	190.307	0.167	-0.255
-451.953	-200.000	0.017	0.175
-450.938	84.029	0.064	-0.071
-449.924	-133.849	0.077	-0.010
-448.909	-91.590	0.108	-0.031
-447.895	-126.063	0.062	-0.009
-446.880	-22.455	-0.190	-0.117
-445.865	264.622	-0.078	-0.137
-444.851	-200.000	0.020	0.098
-443.836	582.017	-0.051	-0.127
-442.822	279.662	-0.130	-0.235
-441.807	-119.021	-0.094	0.017
-440.792	-108.550	-0.239	0.052
-439.778	119.157	-0.032	0.040
-438.763	635.325	-0.071	-0.184
-437.749	-119.042	0.168	0.030
-436.734	14.790	0.038	-0.030
-435.719	474.734	-0.061	-0.140
-434.705	-128.529	0.254	-0.036
-433.690	645.170	0.065	0.169
-432.676	562.391	0.136	0.334
-431.661	-39.381	0.084	0.045
-430.646	549.036	-0.139	0.336
-429.632	46.236	-0.196	-0.184
-428.617	-65.791	0.074	-0.030
-427.603	-57.914	0.168	0.074
-426.588	-200.000	0.015	-0.545
-425.573	-200.000	-0.004	-0.131
-424.559	153.246	-0.035	0.049
-423.544	-66.666	0.167	0.067
-422.530	-200.000	-0.012	-0.317
-421.515	-182.642	0.130	-0.002
-420.500	-16.152	0.184	-0.118
-419.486	-38.051	0.320	0.172
-418.471	746.748	0.070	-0.191
-417.457	-40.547	0.226	-0.119
-416.442	-153.240	0.380	0.027
-415.428	-148.561	0.272	0.023
-414.413	-200.000	0.004	0.142
-413.398	27.247	-0.205	0.174
-412.384	280.106	-0.062	-0.112
-411.369	-79.785	-0.127	0.043
-410.355	198.145	-0.224	0.347
-409.340	375.362	0.031	0.065
-408.325	-62.263	0.148	-0.062
-407.311	800.000	0.064	0.270
-406.296	612.594	0.103	-0.261
-405.282	-119.671	-0.132	-0.023
-404.267	212.631	0.068	-0.109
-403.252	-200.000	0.083	-0.451
-402.238	8.155	0.098	0.074
-401.223	-200.000	-0.014	0.340
-400.209	216.955	-0.193	0.311
-399.194	107.758	0.132	-0.159
-398.179	-130.166	-0.099	0.014
-397.165	-132.447	0.120	-0.016
-396.150	-33.331	-0.260	-0.146
-395.136	-72.709	-0.337	0.126
-394.121	58.096	-0.115	-0.114
-393.106	261.924	-0.147	0.258
-392.092	-200.000	0.022	0.179
-391.077	281.898	-0.084	-0.152
-390.063	52.059	-0.212	0.204
-389.048	-200.000	0.008	-0.059
-388.033	-154.135	-0.131	-0.009
-387.019	224.822	-0.155	0.254
-386.004	-2.871	-0.265	-0.187
-384.990	135.829	0.140	-0.184
-383.975	-200.000	0.009	0.286
-382.960	800.000	0.066	0.277
-381.946	-110.356	-0.567	-0.119
-380.931	-133.897	-0.134	-0.017
-379.917	709.284	0.202	0.541
-378.902	81.012	-0.127	0.139
-377.888	283.868	0.036	-0.066
-376.873	-63.562	0.130	-0.054
-375.858	-104.019	0.244	0.057
-374.844	-128.380	0.312	-0.045
-373.829	-178.648	0.265	0.006
-372.815	67.557	-0.121	0.125
-371.800	55.350	0.097	-0.094
-370.785	244.612	0.213	0.361
-369.771	-110.711	-0.058	-0.012
-368.756	-78.048	-0.172	0.060
-367.742	-144.121	0.204	0.019
-366.727	-17.597	-0.253	0.160
-365.712	29.912	0.347	0.299
-364.698	-74.362	-0.350	0.127
-363.683	18.831	0.255	-0.206
-362.669	-200.000	0.008	-0.055
-361.654	170.418	-0.047	0.068
-360.639	-45.330	0.023	0.011
-359.625	800.000	0.051	0.180
-358.610	303.115	-0.091	-0.170
-357.596	181.982	0.080	0.119
-356.581	-22.659	0.280	-0.171
-355.566	-200.000	-0.012	-0.233
-354.552	379.787	0.162	0.334
-353.537	-156.914	0.073	-0.005
-352.523	21.450	-0.097	0.079
-351.508	-200.000	0.044	-0.263
-350.493	49.829	-0.196	0.187
-349.479	127.759	0.151	0.193
-348.464	161.322	-0.081	-0.115
-347.450	731.901	-0.023	0.061
-346.435	223.753	0.069	-0.112
-345.420	-178.674	0.240	-0.006
-344.406	595.811	0.139	-0.346
-343.391	67.874	0.195	0.202
-342.377	-109.395	-0.351	-0.075
-341.362	-101.264	0.320	-0.079
-340.348	342.144	0.141	0.278
-339.333	-37.019	0.085	-0.046
-338.318	187.592	0.208	0.313
-337.304	-119.212	0.155	0.027
-336.289	563.026	0.090	0.219
-335.275	128.838	-0.125	-0.161
-334.260	-56.243	0.483	-0.217
-333.245	219.815	0.044	-0.071
-332.231	-176.253	0.366	-0.010
-331.216	542.851	-0.127	0.306
-330.202	55.243	0.211	-0.206
-329.187	-83.004	0.088	-0.029
-328.172	199.116	0.122	0.188
-327.158	-200.000	0.001	0.059
-326.143	-49.604	-0.108	0.052
-325.129	-54.516	-0.094	0.043
-324.114	690.719	0.055	0.145
-323.099	-4.676	0.019	-0.013
-322.085	183.645	-0.196	0.293
-321.070	-48.267	-0.315	0.153
-320.056	309.292	-0.110	-0.207
-319.041	-200.000	0.039	-0.276
-318.026	122.475	-0.017	0.021
-317.012	137.402	0.185	-0.244
-315.997	-90.440	0.120	-0.035
-314.983	-51.627	0.197	-0.093
-313.968	-101.436	-0.199	-0.049
-312.953	345.992	0.072	-0.143
-311.939	401.750	-0.075	0.159
-310.924	-143.296	-0.249	0.024
-309.910	1.015	-0.139	0.101
-308.895	-144.839	-0.179	0.017
-307.880	-59.721	0.175	0.075
-306.866	714.191	-0.092	0.247
-305.851	-184.581	0.229	-0.004
-304.837	-200.000	0.035	-0.233
-303.822	-200.000	0.023	-0.152
-302.807	-143.431	0.557	-0.054
-301.793	65.011	0.096	0.098
-300.778	-78.888	-0.144	-0.049
-299.764	-66.202	0.201	-0.081
-298.749	95.706	-0.173	0.199
-297.735	67.547	-0.196	0.202
-296.720	333.519	-0.195	-0.379
-295.705	-200.000	0.073	0.329
-294.691	114.820	-0.325	0.399
-293.676	116.440	-0.317	-0.392
-292.662	88.744	-0.140	0.157
-291.647	800.000	0.022	0.086
-290.632	432.150	-0.098	-0.215
-289.618	-107.822	0.159	0.035
-288.603	203.138	0.129	0.202
-287.589	-109.139	0.113	0.024
-286.574	561.175	0.052	-0.126
-285.559	529.696	-0.099	0.234
-284.545	13.274	-0.123	0.096
-283.530	197.413	-0.119	0.183
-282.516	178.473	0.107	0.157
-281.501	75.001	-0.240	-0.255
-280.486	-61.576	0.297	-0.126
-279.472	-33.291	0.219	-0.122
-278.457	-200.000	-0.034	-0.244
-277.443	-90.531	0.366	-0.107
-276.428	-200.000	0.040	0.427
-275.413	-37.090	0.122	-0.066
-274.399	-36.608	0.197	-0.107
-273.384	-14.365	-0.185	0.120
-272.370	47.814	0.113	0.106
-271.355	-145.449	-0.211	0.019
-270.340	-122.953	-0.147	-0.024
-269.326	-76.946	0.393	0.138
-268.311	-200.000	0.005	0.057
-267.297	379.974	-0.194	-0.400
-266.282	391.450	0.169	0.353
-265.267	27.866	0.208	0.177
-264.253	-200.000	-0.012	0.215
-263.238	-130.983	0.144	0.019
-262.224	-164.230	0.232	-0.011
-261.209	36.013	0.218	0.193
-260.195	95.100	0.227	-0.261
-259.180	-0.141	-0.265	0.190
-258.165	103.817	-0.171	0.202
-257.151	800.000	0.016	-0.058
-256.136	-200.000	-0.008	-0.152
-255.122	800.000	-0.033	-0.107
-254.107	289.241	-0.062	-0.114
-253.092	121.170	-0.210	-0.263
-252.078	16.631	-0.156	0.124
-251.063	-107.375	-0.189	-0.042
-250.049	-119.715	-0.050	0.009
-249.034	-200.000	0.012	0.084
-248.019	-200.000	-0.051	-0.244
-247.005	-115.335	0.162	0.031
-245.990	-7.011	-0.163	-0.111
-244.976	769.763	-0.152	0.416
-243.961	129.665	-0.129	-0.166
-242.946	502.227	-0.143	-0.332
-241.932	451.033	0.094	0.208
-240.917	422.268	0.144	0.311
-239.903	-83.561	-0.190	0.061
-238.888	9.443	-0.138	0.105
-237.873	800.000	-0.016	0.056
-236.859	221.580	-0.142	-0.230
-235.844	238.777	-0.109	0.181
-234.830	255.804	0.133	-0.229
-233.815	228.831	0.061	-0.099
-232.800	-200.000	0.017	-0.124
-231.786	-56.916	-0.238	-0.106
-230.771	202.510	-0.180	-0.279
-229.757	-9.568	0.233	0.156
-228.742	-64.760	-0.236	-0.096
-227.727	352.491	0.141	-0.281
-226.713	-144.296	-0.037	-0.003
-225.698	800.000	-0.062	-0.192
-224.684	-35.155	-0.091	0.050
-223.669	299.122	0.108	0.200
-222.655	-200.000	-0.063	0.327
-221.640	152.448	0.090	0.123
-220.625	-200.000	-0.007	0.127
-219.611	324.405	0.125	0.240
-218.596	-112.371	-0.462	-0.093
-217.582	-68.257	0.155	0.060
-216.567	107.743	-0.176	0.211
-215.552	241.914	0.053	0.089
-214.538	68.746	0.176	0.182
-213.523	-146.018	-0.240	-0.021
-212.509	73.776	0.157	0.165
-211.494	-123.962	-0.227	0.036
-210.479	-58.230	-0.094	-0.041
-209.465	-86.543	0.253	-0.078
-208.450	660.470	-0.058	-0.150
-207.436	137.755	0.132	-0.173
-206.421	175.144	-0.235	0.342
-205.406	-90.788	0.187	0.054
-204.392	-200.000	-0.009	0.127
-203.377	-106.369	-0.152	0.034
-202.363	800.000	0.097	0.306
-201.348	71.028	-0.265	-0.276
-200.333	-200.000	0.224	0.001
-199.319	247.728	0.096	0.163
-198.304	241.955	-0.043	-0.072
-197.290	12.766	0.131	0.102
-196.275	800.000	-0.071	-0.225
-195.260	-80.793	-0.295	0.098
-194.246	-33.890	-0.018	0.010
-193.231	91.838	0.066	0.074
-192.217	-47.757	-0.082	0.040
-191.202	-200.000	0.027	-0.181
-190.187	1.637	-0.193	0.140
-189.173	24.023	0.218	0.181
-188.158	-93.006	0.110	-0.031
-187.144	297.369	-0.138	-0.254
-186.129	384.801	-0.079	-0.162
-185.114	104.638	0.123	-0.145
-184.100	-138.372	0.168	-0.019
-183.085	-106.177	-0.387	-0.087
-182.071	88.816	0.194	0.217
-181.056	-72.378	-0.286	-0.106
-180.042	35.544	0.497	-0.437
-179.027	-136.449	-0.396	-0.046
-178.012	-160.475	-0.169	-0.009
-176.998	8.409	0.168	-0.127
-175.983	238.351	0.099	-0.165
-174.969	-165.774	-0.115	-0.005
-173.954	-152.200	0.209	-0.015
-172.939	-119.604	-0.196	0.034
-171.925	-134.586	0.123	-0.015
-170.910	-80.091	-0.141	-0.047
-169.896	137.744	-0.042	-0.055
-168.881	800.000	-0.103	0.314
-167.866	26.175	-0.421	-0.353
-166.852	108.266	0.129	-0.154
-165.837	-200.000	-0.018	-0.078
-164.823	-84.228	-0.199	-0.063
-163.808	-22.559	-0.340	0.206
-162.793	-116.193	0.194	-0.036
-161.779	-76.766	0.248	0.087
-160.764	-71.883	-0.218	0.081
-159.750	480.985	-0.082	0.186
-158.735	800.000	0.046	0.193
-157.720	-131.889	0.155	0.020
-156.706	190.741	0.215	0.324
-155.691	27.238	-0.074	-0.063
-154.677	63.673	0.155	-0.156
-153.662	-200.000	0.004	-0.229
-152.647	-166.998	0.201	-0.008
-151.633	-200.000	0.002	0.071
-150.618	-104.635	-0.038	-0.009
-149.604	-200.000	0.033	0.165
-148.589	7.763	0.231	0.173
-147.574	344.339	0.125	0.246
-146.560	-200.000	0.005	0.058
-145.545	-93.480	0.105	-0.029
-144.531	299.158	-0.135	0.249
-143.516	498.907	-0.052	-0.121
-142.502	73.596	-0.114	0.120
-141.487	327.272	0.075	-0.144
-140.472	-200.000	0.011	0.324
-139.458	344.184	-0.030	-0.058
-138.443	-198.189	-0.113	0.001
-137.429	800.000	-0.085	-0.247
-136.414	-23.076	-0.251	0.151
-135.399	351.923	-0.172	0.342
-134.385	-87.864	0.114	0.034
-133.370	69.994	-0.086	0.089
-132.356	418.248	-0.113	0.243
-131.341	-200.000	-0.045	-0.275
-130.326	-10.075	0.329	-0.219
-129.312	777.257	0.109	-0.298
-128.297	-51.894	0.022	-0.010
-127.283	39.499	-0.154	0.138
-126.268	55.806	-0.210	0.204
-125.253	108.248	-0.247	0.294
-124.239	129.134	0.049	-0.063
-123.224	232.347	0.256	-0.421
-122.210	-134.878	-0.357	0.043
-121.195	105.653	-0.225	-0.266
