DTS Sentinel unit serial number:	SN413079Multiplexer serial number:	ORYXHardware model number:	OX4-SRSoftware version number:	ORYX F/W v4.00 Oryx Data Collector v3.7.2.0data status	okinstallation	princeton_trtdifferential loss correction	single-endedforward channel	channel 2reverse channel	N/Adate	2019/09/14time	13:39:34forward acquisition time	60.00reverse acquisition time	0.00gamma	496.2192k internal	0.2307k external	0.2307temperature offset calibration	1.0152default loss term (dB/km)	0.3790temperature slope calibration	1.0000multiplexer offset coefficient	1.0000multiplexer slope coefficient	1.0000fibre end	0.00T internal ref (°C)	37.91T ext. ref 1 (°C)	4.90T ext. ref 2 (°C)	32.59length (m)	temperature (°C)	Stokes	anti-Stokes-747.200	-200.000	-0.022	0.130
-746.185	336.415	-0.040	0.079
-745.171	800.000	0.094	0.273
-744.156	-200.000	-0.022	0.263
-743.142	-35.163	-0.202	-0.112
-742.127	-200.000	-0.024	0.203
-741.112	-165.645	-0.100	0.004
-740.098	800.000	0.083	0.330
-739.083	-137.041	-0.351	-0.041
-738.069	-82.188	0.505	0.167
-737.054	-200.000	0.024	0.176
-736.039	-62.899	0.225	0.095
-735.025	-200.000	0.016	-0.128
-734.010	-200.000	-0.029	-0.136
-732.996	-200.000	-0.012	-0.171
-731.981	-62.752	-0.448	-0.189
-730.966	334.238	-0.136	-0.268
-729.952	633.969	0.089	0.230
-728.937	-200.000	0.021	-0.155
-727.923	441.657	0.119	0.266
-726.908	-49.191	-0.262	0.127
-725.894	-75.624	-0.208	-0.075
-724.879	420.226	-0.120	0.261
-723.864	141.889	0.094	0.127
-722.850	-200.000	0.013	0.094
-721.835	-21.964	-0.171	-0.105
-720.821	-160.442	-0.105	0.006
-719.806	-79.634	0.276	-0.095
-718.791	-82.788	-0.084	-0.028
-717.777	-141.004	-0.212	0.022
-716.762	-33.595	-0.238	0.134
-715.748	800.000	-0.081	0.242
-714.733	-47.169	0.067	-0.033
-713.718	673.617	0.044	-0.116
-712.704	-200.000	-0.062	-0.329
-711.689	44.704	-0.171	-0.160
-710.675	800.000	-0.102	0.334
-709.660	-42.582	0.310	-0.160
-708.645	-115.409	-0.323	-0.062
-707.631	77.231	0.107	-0.116
-706.616	-47.418	0.089	-0.044
-705.602	-128.894	-0.075	-0.011
-704.587	-103.300	0.113	0.027
-703.572	780.900	-0.075	0.209
-702.558	800.000	0.143	-0.443
-701.543	-200.000	0.043	-0.229
-700.529	-200.000	0.018	0.117
-699.514	-156.814	0.206	0.013
-698.499	143.499	0.080	0.108
-697.485	-22.135	-0.288	-0.177
-696.470	-142.810	-0.165	0.016
-695.456	18.157	-0.129	-0.104
-694.441	-35.398	-0.128	0.071
-693.426	6.406	-0.132	-0.099
-692.412	-66.026	0.288	-0.117
-691.397	723.624	0.024	0.064
-690.383	93.938	0.078	0.089
-689.368	-136.143	-0.390	0.046
-688.354	-165.392	-0.218	-0.010
-687.339	-166.260	0.293	0.013
-686.324	-200.000	-0.015	0.360
-685.310	-58.459	0.186	0.082
-684.295	-12.966	-0.413	0.273
-683.281	3.515	0.102	0.075
-682.266	800.000	-0.136	-0.413
-681.251	-19.461	0.228	-0.143
-680.237	156.748	-0.231	0.324
-679.222	-84.906	-0.055	-0.018
-678.208	466.762	0.041	0.094
-677.193	19.988	-0.168	0.137
-676.178	-119.434	-0.103	-0.018
-675.164	-99.785	0.213	0.054
-674.149	800.000	-0.019	-0.074
-673.135	-122.451	-0.491	0.081
-672.120	800.000	0.120	0.355
-671.105	44.898	0.176	0.164
-670.091	718.574	-0.037	0.100
-669.076	-91.948	0.167	-0.048
-668.062	77.217	0.094	-0.101
-667.047	169.439	-0.225	0.325
-666.032	48.442	0.079	0.075
-665.018	289.264	-0.152	0.280
-664.003	-200.000	0.091	-0.470
-662.989	32.802	-0.173	-0.152
-661.974	800.000	-0.047	-0.138
-660.959	-67.819	-0.274	0.109
-659.945	547.193	0.081	0.197
-658.930	-47.577	0.379	-0.186
-657.916	-195.688	0.247	-0.002
-656.901	227.545	-0.044	0.073
-655.886	628.668	-0.097	0.248
-654.872	-200.000	0.051	-0.336
-653.857	277.985	-0.124	0.224
-652.843	342.590	-0.101	-0.200
-651.828	800.000	0.082	-0.229
-650.814	95.203	0.243	-0.280
-649.799	138.119	0.214	-0.284
-648.784	-66.533	0.189	-0.076
-647.770	-70.528	0.146	-0.056
-646.755	345.772	0.098	-0.196
-645.741	224.141	0.116	0.189
-644.726	-200.000	-0.003	-0.134
-643.711	-200.000	-0.011	0.085
-642.697	-92.098	0.237	0.068
-641.682	144.169	0.140	0.189
-640.668	800.000	-0.050	-0.172
-639.653	87.840	0.233	-0.262
-638.638	763.641	-0.143	-0.392
-637.624	-200.000	0.032	0.239
-636.609	-42.579	-0.392	0.202
-635.595	117.522	0.090	0.112
-634.580	-115.017	0.396	-0.076
-633.565	64.187	-0.071	-0.072
-632.551	-38.247	-0.157	0.084
-631.536	-185.002	0.296	0.005
-630.522	94.203	-0.077	0.088
-629.507	-86.294	-0.396	0.123
-628.492	-40.343	0.174	-0.092
-627.478	0.529	-0.016	-0.012
-626.463	800.000	0.089	-0.261
-625.449	-52.142	-0.075	-0.035
-624.434	294.336	0.022	-0.040
-623.419	800.000	-0.054	-0.221
-622.405	197.008	-0.189	-0.291
-621.390	349.168	-0.128	-0.255
-620.376	-116.632	-0.147	0.027
-619.361	24.299	0.135	0.113
-618.346	92.615	0.073	0.084
-617.332	124.090	0.101	0.128
-616.317	-200.000	-0.016	0.411
-615.303	-37.129	0.078	-0.042
-614.288	240.757	0.039	-0.065
-613.273	-29.890	-0.194	-0.112
-612.259	-92.152	-0.232	0.066
-611.244	-48.821	0.098	-0.047
-610.230	-200.000	0.069	-0.347
-609.215	-200.000	0.014	-0.456
-608.201	33.802	-0.236	-0.208
-607.186	-74.412	-0.168	-0.061
-606.171	800.000	0.064	-0.228
-605.157	212.952	-0.051	-0.082
-604.142	179.375	0.244	-0.361
-603.128	600.636	-0.125	-0.315
-602.113	-38.100	0.093	-0.050
-601.098	-144.739	-0.167	0.016
-600.084	8.474	0.104	0.079
-599.069	767.661	-0.197	0.542
-598.055	374.049	-0.038	0.079
-597.040	30.646	-0.097	-0.084
-596.025	-114.630	0.161	0.031
-595.011	147.321	0.227	0.309
-593.996	439.426	-0.050	0.110
-592.982	34.591	0.041	0.036
-591.967	5.636	-0.062	0.046
-590.952	700.814	0.062	-0.166
-589.938	-200.000	0.006	0.034
-588.923	195.133	-0.209	-0.321
-587.909	523.212	-0.094	0.223
-586.894	768.140	-0.043	-0.119
-585.879	-118.309	-0.330	-0.059
-584.865	800.000	0.050	-0.151
-583.850	221.337	0.023	0.037
-582.836	-56.368	-0.141	0.063
-581.821	-200.000	-0.030	-0.223
-580.806	68.479	-0.096	-0.099
-579.792	-163.603	-0.148	0.007
-578.777	53.735	0.087	-0.085
-577.763	-165.587	-0.225	0.010
-576.748	-143.211	0.034	-0.003
-575.733	225.780	-0.108	0.177
-574.719	-1.325	0.091	-0.065
-573.704	-17.405	-0.313	0.199
-572.690	800.000	-0.019	0.065
-571.675	792.022	-0.101	-0.281
-570.661	-200.000	-0.014	0.105
-569.646	800.000	0.050	0.200
-568.631	155.574	-0.185	-0.258
-567.617	-111.190	0.065	-0.013
-566.602	-59.425	-0.231	0.100
-565.588	-121.866	0.279	0.046
-564.573	-66.154	0.180	0.073
-563.558	-28.556	0.122	0.071
-562.544	-72.949	-0.177	0.066
-561.529	-24.117	-0.016	0.010
-560.515	-64.549	0.231	0.095
-559.500	216.228	-0.031	0.049
-558.485	-105.384	0.428	-0.098
-557.471	-82.888	0.112	-0.037
-556.456	-80.324	-0.063	0.021
-555.442	84.264	-0.089	0.099
-554.427	-0.499	0.325	-0.233
-553.412	137.256	-0.123	0.162
-552.398	-42.836	-0.402	-0.206
-551.383	39.438	-0.059	-0.053
-550.369	179.792	0.169	-0.250
-549.354	800.000	0.054	-0.204
-548.339	-123.278	0.412	-0.066
-547.325	196.141	-0.061	-0.093
-546.310	-10.408	-0.250	0.168
-545.296	62.490	0.244	0.246
-544.281	201.181	-0.122	0.189
-543.266	93.250	-0.091	0.104
-542.252	47.274	-0.322	0.303
-541.237	368.177	-0.167	0.341
-540.223	800.000	-0.080	-0.244
-539.208	150.606	0.086	-0.117
-538.193	-116.458	-0.251	0.047
-537.179	154.922	0.125	-0.173
-536.164	-176.991	0.127	0.003
-535.150	36.940	0.093	0.083
-534.135	-40.067	-0.292	-0.154
-533.121	417.034	-0.031	-0.068
-532.106	-200.000	-0.011	-0.189
-531.091	69.948	0.063	0.066
-530.077	-13.634	-0.172	0.113
-529.062	-103.758	-0.450	0.106
-528.048	-113.477	-0.035	-0.007
-527.033	-124.659	-0.347	0.054
-526.018	316.821	0.073	-0.138
-525.004	-146.446	-0.452	-0.040
-523.989	-65.941	0.210	0.085
-522.975	800.000	-0.063	-0.222
-521.960	393.855	-0.103	-0.217
-520.945	75.687	0.129	-0.138
-519.931	269.574	-0.111	0.196
-518.916	235.804	0.156	-0.260
-517.902	-111.628	0.253	0.052
-516.887	399.224	0.170	0.359
-515.872	-142.000	0.484	0.049
-514.858	-34.500	0.165	-0.091
-513.843	-27.034	-0.216	0.127
-512.829	595.533	0.192	0.479
-511.814	800.000	0.074	-0.231
-510.799	118.279	-0.183	-0.227
-509.785	8.947	0.113	0.086
-508.770	-146.509	0.323	-0.028
-507.756	636.097	-0.052	-0.134
-506.741	591.208	0.106	-0.264
-505.726	800.000	-0.016	-0.047
-504.712	-18.985	0.119	-0.074
-503.697	-139.826	0.275	-0.029
-502.683	-200.000	0.038	-0.305
-501.668	567.314	-0.078	0.190
-500.653	58.194	0.321	0.317
-499.639	46.092	-0.153	0.142
-498.624	-63.635	0.146	-0.060
-497.610	-70.202	0.184	-0.070
-496.595	61.211	0.046	0.046
-495.581	138.905	-0.194	0.257
-494.566	247.438	-0.161	0.273
-493.551	800.000	0.036	-0.150
-492.537	-200.000	0.012	-0.079
-491.522	-172.858	-0.079	0.002
-490.508	396.462	0.029	-0.061
-489.493	800.000	0.017	0.057
-488.478	-200.000	-0.034	-0.213
-487.464	57.629	0.090	-0.088
-486.449	-126.807	0.316	-0.047
-485.435	99.870	0.140	-0.164
-484.420	-200.000	0.021	0.153
-483.405	800.000	-0.088	0.359
-482.391	-200.000	0.048	0.254
-481.376	800.000	-0.056	-0.173
-480.362	230.464	-0.069	0.114
-479.347	12.270	0.137	0.106
-478.332	-200.000	-0.005	-0.028
-477.318	239.648	0.121	-0.203
-476.303	-200.000	0.057	-0.384
-475.289	-53.782	0.110	-0.050
-474.274	245.491	-0.027	0.045
-473.259	-81.347	-0.235	0.078
-472.245	185.446	0.228	-0.341
-471.230	-160.924	0.131	0.007
-470.216	30.919	0.155	0.133
-469.201	-137.352	0.265	0.030
-468.186	800.000	-0.115	-0.329
-467.172	311.731	0.189	-0.357
-466.157	-99.761	-0.205	0.052
-465.143	-200.000	-0.008	0.194
-464.128	-7.144	0.227	0.155
-463.113	-200.000	-0.059	0.279
-462.099	800.000	0.023	0.071
-461.084	-179.184	-0.117	0.003
-460.070	-169.965	0.315	-0.011
-459.055	30.181	0.121	0.104
-458.040	396.147	-0.182	0.383
-457.026	800.000	-0.023	0.077
-456.011	-113.694	-0.367	-0.072
-454.997	116.629	0.119	-0.147
-453.982	-128.204	0.228	-0.033
-452.968	800.000	-0.046	0.180
-451.953	-200.000	-0.008	0.254
-450.938	-200.000	0.016	-0.234
-449.924	800.000	-0.064	-0.180
-448.909	-26.368	-0.239	-0.141
-447.895	586.072	-0.128	-0.317
-446.880	-129.016	-0.026	-0.004
-445.865	215.955	0.119	0.191
-444.851	-130.758	-0.055	-0.007
-443.836	50.438	-0.323	0.307
-442.822	-50.359	-0.225	0.107
-441.807	20.962	-0.055	0.045
-440.792	38.683	0.137	-0.123
-439.778	-200.000	0.004	0.185
-438.763	245.409	-0.091	0.154
-437.749	-200.000	-0.023	0.162
-436.734	66.870	-0.107	0.110
-435.719	-200.000	-0.066	0.558
-434.705	-200.000	0.001	-0.095
-433.690	-151.396	-0.297	0.022
-432.676	-0.931	-0.250	0.178
-431.661	800.000	0.011	-0.035
-430.646	31.515	-0.037	-0.032
-429.632	433.065	-0.128	-0.280
-428.617	135.171	0.008	-0.011
-427.603	16.176	-0.142	0.112
-426.588	800.000	-0.064	0.257
-425.573	-92.959	-0.147	-0.041
-424.559	-6.211	0.202	-0.139
-423.544	-59.423	0.195	0.084
-422.530	-127.263	0.148	0.022
-421.515	-165.780	-0.090	-0.004
-420.500	-46.818	-0.064	0.031
-419.486	-200.000	0.026	0.224
-418.471	800.000	0.030	-0.082
-417.457	-145.299	0.072	-0.007
-416.442	-200.000	0.006	0.029
-415.428	-41.990	0.336	-0.173
-414.413	-200.000	-0.014	-0.370
-413.398	-124.975	-0.235	0.036
-412.384	32.710	0.097	0.084
-411.369	-28.963	0.196	0.113
-410.355	120.101	0.072	-0.089
-409.340	-200.000	0.003	0.232
-408.325	332.684	-0.054	0.105
-407.311	-108.409	-0.176	-0.038
-406.296	-200.000	0.019	0.128
-405.282	5.034	-0.082	0.061
-404.267	-200.000	-0.008	0.154
-403.252	80.532	0.103	0.111
-402.238	62.003	-0.485	0.485
-401.223	23.937	-0.055	0.045
-400.209	-200.000	-0.076	-0.355
-399.194	800.000	0.087	-0.261
-398.179	-68.331	0.294	0.114
-397.165	-116.602	-0.164	0.030
-396.150	-200.000	0.001	0.181
-395.136	-84.680	-0.381	-0.120
-394.121	30.749	-0.261	0.224
-393.106	-200.000	0.067	0.685
-392.092	-21.702	-0.062	0.038
-391.077	-200.000	0.024	0.318
-390.063	-94.642	0.195	-0.053
-389.048	-22.409	-0.455	0.276
-388.033	-200.000	-0.265	0.001
-387.019	-200.000	0.049	0.266
-386.004	-93.599	0.099	0.027
-384.990	-0.209	0.339	0.242
-383.975	800.000	-0.046	-0.136
-382.960	800.000	0.143	0.522
-381.946	-200.000	0.017	-0.220
-380.931	317.431	0.108	-0.205
-379.917	-142.804	-0.261	0.025
-378.902	-31.662	0.015	0.009
-377.888	114.280	0.071	0.087
-376.873	194.694	0.110	0.167
-375.858	29.095	0.063	0.053
-374.844	467.504	0.147	-0.330
-373.829	-200.000	-0.095	0.419
-372.815	-200.000	-0.037	0.405
-371.800	481.689	-0.089	0.201
-370.785	9.341	-0.263	-0.199
-369.771	-132.853	0.027	-0.003
-368.756	17.205	-0.251	-0.199
-367.742	-200.000	-0.001	-0.177
-366.727	-200.000	-0.037	-0.249
-365.712	-200.000	0.052	-0.509
-364.698	-86.633	-0.643	-0.197
-363.683	800.000	-0.025	0.097
-362.669	-200.000	0.008	-0.156
-361.654	-200.000	0.017	-0.215
-360.639	-90.972	0.214	-0.062
-359.625	-18.724	-0.089	-0.056
-358.610	800.000	-0.084	-0.342
-357.596	-26.540	-0.256	-0.150
-356.581	476.855	-0.081	-0.183
-355.566	50.964	0.180	-0.171
-354.552	454.366	-0.106	-0.236
-353.537	288.837	0.037	-0.068
-352.523	248.681	-0.150	-0.254
-351.508	-19.905	-0.248	-0.154
-350.493	-21.481	0.182	-0.111
-349.479	-125.135	-0.312	0.048
-348.464	-74.323	0.217	-0.078
-347.450	21.053	0.266	0.216
-346.435	-69.184	0.167	-0.064
-345.420	81.835	-0.235	-0.255
-344.406	326.021	0.015	0.029
-343.391	-200.000	0.019	0.096
-342.377	260.993	0.064	-0.110
-341.362	-160.754	-0.045	-0.002
-340.348	-35.591	-0.174	-0.095
-339.333	-108.385	-0.139	-0.030
-338.318	48.993	-0.067	-0.063
-337.304	37.101	0.235	0.208
-336.289	-200.000	0.005	-0.074
-335.275	-147.020	0.143	0.012
-334.260	298.440	0.075	-0.139
-333.245	331.744	-0.156	-0.300
-332.231	20.640	0.140	0.114
-331.216	-86.528	-0.170	0.052
-330.202	-200.000	-0.009	0.230
-329.187	-94.677	-0.422	0.115
-328.172	-122.345	-0.150	0.024
-327.158	145.561	0.175	0.234
-326.143	-162.194	0.027	-0.001
-325.129	-81.228	0.367	0.121
-324.114	70.981	-0.112	0.116
-323.099	-170.167	0.393	0.014
-322.085	-125.553	-0.166	0.025
-321.070	800.000	0.056	-0.234
-320.056	109.776	0.141	-0.169
-319.041	48.842	0.091	-0.085
-318.026	-200.000	0.051	-0.473
-317.012	-167.302	-0.069	0.003
-315.997	242.232	0.131	-0.218
-314.983	-200.000	-0.046	0.228
-313.968	-121.190	-0.213	0.036
-312.953	182.443	-0.109	-0.160
-311.939	68.722	-0.093	0.096
-310.924	800.000	0.078	0.226
-309.910	-10.959	-0.329	-0.217
-308.895	99.983	-0.186	0.215
-307.880	800.000	-0.029	-0.080
-306.866	14.063	-0.302	-0.235
-305.851	-82.566	0.270	0.087
-304.837	531.309	-0.052	-0.123
-303.822	-200.000	0.058	-0.478
-302.807	112.660	0.191	-0.231
-301.793	-154.144	0.165	-0.011
-300.778	-84.625	0.214	0.067
-299.764	800.000	-0.039	0.168
-298.749	800.000	0.084	-0.324
-297.735	25.050	-0.173	-0.143
-296.720	-120.323	-0.194	-0.033
-295.705	-200.000	0.023	-0.304
-294.691	-56.950	0.100	0.044
-293.676	-39.543	-0.051	-0.027
-292.662	-63.978	-0.452	-0.184
-291.647	-49.486	0.171	0.081
-290.632	-193.973	0.094	-0.001
-289.618	-156.282	0.271	0.017
-288.603	56.534	0.277	0.269
-287.589	25.681	0.149	-0.124
-286.574	-97.337	-0.246	0.064
-285.559	438.342	0.047	-0.103
-284.545	-81.361	0.251	-0.083
-283.530	-200.000	-0.033	-0.201
-282.516	21.943	0.114	-0.093
-281.501	48.512	-0.082	0.077
-280.486	800.000	-0.117	0.397
-279.472	-114.090	0.103	-0.020
-278.457	-97.582	0.187	-0.049
-277.443	266.108	0.094	0.165
-276.428	-200.000	0.007	0.161
-275.413	570.265	0.160	-0.390
-274.399	105.616	-0.102	0.120
-273.384	9.904	0.267	-0.202
-272.370	83.598	-0.168	-0.183
-271.355	-200.000	0.017	0.402
-270.340	800.000	0.050	-0.214
-269.326	-8.070	-0.204	-0.137
-268.311	228.561	-0.158	0.257
-267.297	673.479	0.054	-0.141
-266.282	57.170	0.203	0.197
-265.267	-90.167	0.087	-0.025
-264.253	4.772	0.195	0.143
-263.238	28.119	0.370	0.312
-262.224	102.040	-0.154	-0.179
-261.209	-17.055	-0.160	0.101
-260.195	-7.438	-0.193	-0.130
-259.180	-85.417	0.214	-0.067
-258.165	40.007	-0.055	0.049
-257.151	800.000	0.029	0.081
-256.136	43.797	-0.245	-0.224
-255.122	-125.917	-0.163	0.024
-254.107	-171.300	0.070	0.002
-253.092	251.902	-0.018	0.030
-252.078	800.000	0.057	0.175
-251.063	-200.000	0.023	0.609
-250.049	612.862	-0.080	0.199
-249.034	493.250	-0.103	-0.234
-248.019	-90.115	0.329	0.096
-247.005	-200.000	-0.036	-0.212
-245.990	-135.481	0.066	0.008
-244.976	-112.237	0.075	0.015
-243.961	-139.086	-0.231	0.025
-242.946	-103.798	0.365	0.085
-241.932	109.496	-0.067	-0.080
-240.917	-106.004	-0.031	0.007
-239.903	94.196	-0.249	0.281
-238.888	192.674	0.129	0.195
-237.873	800.000	0.037	0.126
-236.859	28.826	0.258	0.218
-235.844	74.089	0.099	0.104
-234.830	-67.856	-0.231	0.090
-233.815	201.823	-0.047	-0.072
-232.800	-26.504	0.144	0.084
-231.786	227.538	0.057	-0.092
-230.771	-200.000	0.020	0.144
-229.757	-200.000	-0.044	0.194
-228.742	99.736	-0.193	0.223
-227.727	30.372	0.192	-0.164
-226.713	41.930	0.113	0.102
-225.698	73.373	-0.085	0.089
-224.684	800.000	-0.044	0.130
-223.669	-114.843	-0.140	0.027
-222.655	23.383	0.212	-0.173
-221.640	-91.817	-0.170	0.048
-220.625	-116.577	0.258	0.047
-219.611	-200.000	-0.028	0.239
-218.596	336.314	-0.100	0.194
-217.582	-116.994	-0.049	-0.009
-216.567	342.944	0.078	-0.152
-215.552	-105.711	0.266	-0.060
-214.538	15.577	-0.091	0.071
-213.523	-200.000	0.014	0.172
-212.509	-114.846	-0.093	0.018
-211.494	-200.000	0.015	-0.162
-210.479	537.501	-0.115	0.272
-209.465	236.104	0.223	-0.367
-208.450	30.591	0.121	-0.103
-207.436	482.431	-0.029	-0.066
-206.421	800.000	-0.102	0.292
-205.406	-200.000	0.011	0.341
-204.392	303.667	0.143	-0.264
-203.377	539.700	-0.087	-0.206
-202.363	800.000	-0.094	0.268
-201.348	87.353	0.143	0.158
-200.333	597.471	0.077	0.191
-199.319	-51.594	-0.181	-0.084
-198.304	-65.829	-0.262	-0.104
-197.290	-200.000	-0.002	0.110
-196.275	-80.624	-0.064	-0.021
-195.260	-161.780	0.245	0.012
-194.246	-200.000	-0.006	-0.552
-193.231	179.498	0.190	0.276
-192.217	488.179	0.045	0.103
-191.202	92.878	0.184	0.207
-190.187	-200.000	-0.014	-0.155
-189.173	-168.271	-0.065	0.002
-188.158	-200.000	-0.026	-0.163
-187.144	-69.149	0.171	-0.065
-186.129	594.648	0.068	-0.166
-185.114	683.367	0.065	0.169
-184.100	-200.000	0.058	-0.256
-183.085	-200.000	0.021	-0.165
-182.071	143.750	0.137	0.181
-181.056	-61.846	-0.328	-0.137
-180.042	-136.791	-0.236	-0.027
-179.027	-167.567	0.115	0.005
-178.012	-2.347	-0.188	-0.131
-176.998	-129.424	-0.134	0.019
-175.983	-200.000	-0.001	0.006
-174.969	-15.112	0.300	-0.191
-173.954	-50.213	0.081	-0.038
-172.939	25.316	-0.138	0.114
-171.925	-61.769	0.214	0.089
-170.910	266.940	0.153	0.266
-169.896	-94.388	-0.169	0.046
-168.881	-157.055	0.116	-0.007
-167.866	800.000	-0.090	-0.367
-166.852	200.463	0.176	0.269
-165.837	144.884	-0.090	-0.119
-164.823	12.691	0.094	-0.072
-163.808	-200.000	-0.033	0.242
-162.793	328.941	-0.054	0.103
-161.779	800.000	0.100	0.411
-160.764	-30.205	-0.228	-0.129
-159.750	-200.000	-0.008	0.052
-158.735	44.839	-0.094	-0.086
-157.720	-11.219	-0.170	0.111
-156.706	-93.396	0.169	-0.047
-155.691	-39.602	0.124	-0.065
-154.677	-8.448	0.176	0.118
-153.662	148.521	-0.128	0.172
-152.647	396.771	0.222	-0.462
-151.633	43.210	0.191	0.173
-150.618	-51.612	-0.160	-0.074
-149.604	-74.206	0.510	0.183
-148.589	40.891	0.052	-0.047
-147.574	800.000	-0.073	-0.298
-146.560	199.614	-0.078	-0.120
-145.545	118.103	0.036	0.045
-144.531	-200.000	0.008	-0.081
-143.516	-131.445	-0.185	-0.024
-142.502	-136.722	0.305	0.035
-141.487	294.665	0.028	0.051
-140.472	130.815	-0.059	0.076
-139.458	-63.127	-0.205	-0.084
-138.443	-71.210	0.236	0.088
-137.429	-200.000	-0.016	0.120
-136.414	-200.000	0.040	0.355
-135.399	120.940	-0.089	0.110
-134.385	-136.227	-0.267	-0.031
-133.370	196.089	-0.145	0.219
-132.356	-57.752	-0.019	-0.008
-131.341	-23.488	0.280	0.167
-130.326	132.303	-0.087	-0.111
-129.312	-200.000	-0.015	0.310
-128.297	-200.000	0.024	0.168
-127.283	-7.835	0.343	0.230
-126.268	22.206	0.169	-0.137
-125.253	139.319	-0.116	0.151
-124.239	392.781	0.061	-0.126
-123.224	75.993	0.119	0.125
-122.210	102.257	0.206	-0.239
-121.195	127.999	0.100	-0.127
