DTS Sentinel unit serial number:	SN413079Multiplexer serial number:	ORYXHardware model number:	OX4-SRSoftware version number:	ORYX F/W v4.00 Oryx Data Collector v3.7.2.0data status	okinstallation	princeton_trtdifferential loss correction	single-endedforward channel	channel 2reverse channel	N/Adate	2019/09/15time	11:27:35forward acquisition time	60.00reverse acquisition time	0.00gamma	496.2192k internal	0.2316k external	0.2316temperature offset calibration	1.0018default loss term (dB/km)	0.3790temperature slope calibration	1.0000multiplexer offset coefficient	1.0000multiplexer slope coefficient	1.0000fibre end	0.00T internal ref (°C)	34.31T ext. ref 1 (°C)	5.03T ext. ref 2 (°C)	29.76length (m)	temperature (°C)	Stokes	anti-Stokes-747.200	-200.000	0.016	0.111
-746.185	-55.534	-0.394	0.179
-745.171	93.735	-0.159	0.183
-744.156	-44.200	0.383	0.195
-743.142	247.976	0.120	0.206
-742.127	-62.252	0.173	-0.073
-741.112	226.838	0.019	-0.031
-740.098	800.000	-0.039	0.159
-739.083	125.120	0.086	-0.110
-738.069	506.633	-0.077	0.182
-737.054	800.000	-0.043	-0.134
-736.039	-106.050	-0.195	-0.044
-735.025	-76.074	0.084	0.030
-734.010	800.000	-0.065	-0.203
-732.996	64.047	-0.216	-0.220
-731.981	-101.949	-0.242	0.059
-730.966	83.561	-0.186	-0.205
-729.952	142.524	0.058	-0.078
-728.937	55.916	-0.231	-0.227
-727.923	-170.300	-0.601	0.021
-726.908	-200.000	-0.029	0.326
-725.894	-3.827	-0.033	0.023
-724.879	-120.927	0.301	0.051
-723.864	233.197	0.057	0.094
-722.850	100.886	-0.048	0.056
-721.835	-57.795	-0.057	0.025
-720.821	734.652	0.067	0.181
-719.806	-115.277	0.160	-0.031
-718.791	44.854	-0.252	0.235
-717.777	-200.000	-0.059	0.322
-716.762	-97.390	0.201	0.053
-715.748	624.388	0.131	-0.335
-714.733	-66.120	-0.069	-0.028
-713.718	3.704	-0.176	0.130
-712.704	504.132	0.094	-0.220
-711.689	189.871	-0.139	0.211
-710.675	-200.000	-0.033	0.208
-709.660	-20.656	0.241	-0.150
-708.645	237.843	0.139	-0.233
-707.631	10.895	0.123	-0.095
-706.616	-6.203	0.109	0.075
-705.602	6.335	0.105	0.079
-704.587	-200.000	0.036	0.324
-703.572	105.277	-0.226	0.269
-702.558	-104.999	-0.061	-0.014
-701.543	-151.155	0.283	-0.021
-700.529	-77.078	-0.315	-0.111
-699.514	56.791	-0.011	-0.011
-698.499	-200.000	0.018	-0.263
-697.485	170.296	0.070	0.102
-696.470	298.156	-0.114	-0.212
-695.456	-71.063	-0.274	0.104
-694.441	-127.212	-0.282	-0.042
-693.426	55.742	0.293	-0.287
-692.412	214.528	0.078	0.124
-691.397	-104.506	0.306	0.072
-690.383	239.007	0.108	0.181
-689.368	3.002	0.261	-0.192
-688.354	2.561	0.185	-0.135
-687.339	34.193	0.108	-0.095
-686.324	-200.000	0.028	-0.376
-685.310	21.361	-0.305	0.250
-684.295	-130.663	-0.142	0.019
-683.281	-26.940	-0.227	-0.134
-682.266	309.623	-0.091	-0.172
-681.251	33.883	0.047	0.041
-680.237	800.000	0.056	0.193
-679.222	800.000	-0.033	0.112
-678.208	-200.000	0.104	-0.469
-677.193	-200.000	0.013	0.057
-676.178	23.584	-0.252	-0.209
-675.164	-36.802	-0.143	-0.077
-674.149	34.186	-0.265	-0.234
-673.135	-200.000	0.075	-0.335
-672.120	317.529	-0.098	0.187
-671.105	166.478	0.039	-0.056
-670.091	-116.942	0.289	0.053
-669.076	-200.000	-0.013	0.090
-668.062	17.330	-0.159	0.128
-667.047	-151.976	-0.386	-0.028
-666.032	17.989	0.236	-0.190
-665.018	-200.000	0.047	-0.409
-664.003	-132.561	0.270	0.035
-662.989	161.004	-0.141	0.199
-661.974	-92.841	0.185	0.052
-660.959	433.445	-0.177	0.388
-659.945	492.740	0.059	-0.136
-658.930	-75.088	-0.429	0.155
-657.916	-200.000	-0.005	-0.112
-656.901	-200.000	-0.007	-0.403
-655.886	-34.818	-0.190	0.105
-654.872	168.519	-0.076	0.109
-653.857	-200.000	-0.066	-0.456
-652.843	-158.317	-0.247	-0.014
-651.828	7.868	-0.263	-0.199
-650.814	-163.693	-0.140	-0.007
-649.799	-118.914	0.179	0.032
-648.784	84.982	0.066	0.073
-647.770	71.209	-0.124	-0.130
-646.755	92.758	0.079	-0.090
-645.741	-130.714	-0.240	-0.033
-644.726	48.720	0.312	-0.295
-643.711	-24.971	0.218	-0.130
-642.697	-95.099	0.104	0.028
-641.682	-26.965	-0.088	-0.052
-640.668	604.145	-0.101	0.254
-639.653	52.206	0.125	0.121
-638.638	59.692	-0.084	0.083
-637.624	108.660	0.220	0.265
-636.609	68.496	0.061	0.063
-635.595	-118.365	0.138	0.025
-634.580	-153.499	-0.190	0.013
-633.565	-200.000	0.006	-0.231
-632.551	-200.000	-0.040	-0.299
-631.536	-28.688	-0.143	-0.083
-630.522	257.292	-0.165	-0.286
-629.507	473.276	-0.079	-0.180
-628.492	76.468	-0.129	-0.138
-627.478	-29.080	0.021	-0.012
-626.463	-91.361	0.168	-0.048
-625.449	-74.886	-0.353	-0.128
-624.434	-200.000	-0.009	-0.068
-623.419	-140.679	-0.416	0.043
-622.405	763.953	0.044	0.120
-621.390	-139.444	-0.045	-0.005
-620.376	85.259	-0.205	-0.227
-619.361	57.299	-0.086	0.085
-618.346	-56.798	-0.118	0.053
-617.332	-5.014	0.105	-0.073
-616.317	-200.000	0.031	-0.160
-615.303	-111.149	0.325	-0.067
-614.288	800.000	-0.117	-0.385
-613.273	-56.637	-0.298	-0.133
-612.259	-59.946	0.240	-0.103
-611.244	-36.742	0.228	-0.123
-610.230	800.000	-0.039	0.149
-609.215	-200.000	-0.024	0.437
-608.201	161.687	0.252	-0.355
-607.186	82.053	0.153	-0.167
-606.171	27.008	-0.306	0.258
-605.157	-41.245	-0.158	-0.082
-604.142	-200.000	-0.006	0.033
-603.128	652.188	-0.093	0.239
-602.113	-200.000	-0.001	-0.111
-601.098	82.844	0.084	0.092
-600.084	800.000	0.097	0.292
-599.069	-113.472	0.202	-0.040
-598.055	122.378	-0.021	0.027
-597.040	-200.000	-0.003	-0.190
-596.025	-131.400	0.345	-0.046
-595.011	190.333	0.053	0.081
-593.996	13.286	-0.337	-0.263
-592.982	-42.752	-0.184	0.094
-591.967	-200.000	0.004	0.180
-590.952	-200.000	0.047	-0.330
-589.938	441.849	-0.125	0.275
-588.923	554.169	-0.065	-0.158
-587.909	-132.688	0.157	-0.020
-586.894	800.000	-0.125	0.378
-585.879	-70.965	-0.131	0.050
-584.865	517.981	-0.115	0.270
-583.850	-14.034	0.223	-0.145
-582.836	130.790	0.118	-0.152
-581.821	11.750	0.075	-0.058
-580.806	-58.463	-0.117	-0.051
-579.792	70.408	-0.164	-0.171
-578.777	-55.949	0.147	-0.066
-577.763	-136.245	0.220	0.026
-576.748	-200.000	0.015	-0.149
-575.733	366.021	0.045	0.092
-574.719	134.702	0.154	0.201
-573.704	56.955	0.159	-0.155
-572.690	-96.948	-0.356	0.094
-571.675	-50.824	-0.322	0.152
-570.661	-69.404	0.150	0.058
-569.646	-185.412	-0.257	-0.004
-568.631	-200.000	-0.025	-0.384
-567.617	-105.130	-0.287	0.066
-566.602	800.000	-0.063	0.177
-565.588	-37.374	0.167	-0.090
-564.573	-200.000	-0.009	-0.071
-563.558	250.704	-0.132	-0.225
-562.544	93.476	0.327	0.373
-561.529	42.149	-0.155	0.142
-560.515	-9.238	-0.276	-0.185
-559.500	255.174	0.121	0.209
-558.485	-200.000	0.038	-0.223
-557.471	175.394	0.308	0.448
-556.456	280.260	0.108	0.195
-555.442	-6.335	0.185	-0.127
-554.427	4.736	0.084	0.062
-553.412	-200.000	0.006	0.316
-552.398	-122.774	-0.070	0.011
-551.383	800.000	0.082	-0.296
-550.369	137.775	-0.089	-0.117
-549.354	22.532	-0.203	0.167
-548.339	-40.753	-0.079	0.041
-547.325	-61.410	0.099	-0.042
-546.310	-200.000	-0.035	0.233
-545.296	800.000	-0.053	-0.151
-544.281	-78.866	0.261	0.089
-543.266	555.205	0.074	-0.180
-542.252	-58.668	-0.015	-0.007
-541.237	85.243	0.159	0.175
-540.223	-148.894	-0.054	-0.004
-539.208	-33.398	0.350	0.194
-538.193	416.258	0.076	-0.163
-537.179	-180.154	0.331	0.007
-536.164	-35.659	0.140	-0.076
-535.150	-115.815	0.268	0.050
-534.135	-73.872	-0.304	-0.111
-533.121	396.165	-0.133	0.279
-532.106	18.737	-0.064	-0.051
-531.091	-27.582	-0.128	0.075
-530.077	-148.637	-0.094	-0.008
-529.062	102.375	-0.123	0.144
-528.048	-82.544	-0.235	-0.077
-527.033	107.229	-0.140	0.167
-526.018	-200.000	0.021	0.346
-525.004	-49.743	-0.156	-0.075
-523.989	555.966	-0.110	-0.265
-522.975	59.383	-0.246	-0.243
-521.960	-71.958	-0.202	-0.075
-520.945	307.988	0.079	0.148
-519.931	-117.940	0.123	-0.022
-518.916	152.673	0.110	0.151
-517.902	-25.988	-0.099	0.058
-516.887	800.000	-0.051	0.169
-515.872	-188.548	-0.158	0.002
-514.858	-96.122	-0.183	0.049
-513.843	-200.000	0.000	-0.250
-512.829	-200.000	0.005	-0.350
-511.814	-36.144	0.138	0.075
-510.799	-200.000	0.000	0.039
-509.785	800.000	-0.070	-0.271
-508.770	5.291	0.236	0.175
-507.756	85.954	-0.087	-0.096
-506.741	-64.500	-0.190	0.078
-505.726	-18.580	0.356	0.223
-504.712	-4.728	0.107	-0.074
-503.697	-102.394	-0.242	-0.058
-502.683	-6.538	0.123	0.084
-501.668	-200.000	0.026	-0.268
-500.653	-84.220	0.230	-0.073
-499.639	-122.752	0.381	0.062
-498.624	-69.647	0.042	-0.016
-497.610	800.000	0.036	-0.131
-496.595	-138.169	0.338	-0.038
-495.581	183.631	-0.045	0.067
-494.566	501.666	-0.078	0.182
-493.551	604.292	0.049	-0.123
-492.537	-68.746	0.314	0.122
-491.522	-36.514	-0.187	-0.101
-490.508	127.791	-0.098	-0.124
-489.493	-72.958	0.167	-0.061
-488.478	134.706	0.050	-0.065
-487.464	-200.000	-0.040	-0.254
-486.449	653.671	-0.165	-0.425
-485.435	329.545	-0.106	-0.204
-484.420	-43.319	-0.282	-0.143
-483.405	-39.571	-0.142	0.075
-482.391	-119.256	0.066	0.011
-481.376	-110.082	0.150	0.031
-480.362	800.000	0.051	-0.145
-479.347	-122.038	0.258	0.042
-478.332	800.000	-0.090	0.326
-477.318	-58.040	-0.273	0.119
-476.303	-200.000	-0.058	0.332
-475.289	-98.680	0.350	0.090
-474.274	530.754	-0.142	0.337
-473.259	-200.000	-0.006	-0.070
-472.245	-12.118	-0.032	0.021
-471.230	800.000	-0.091	-0.270
-470.216	-80.548	-0.097	-0.032
-469.201	-74.849	-0.070	0.025
-468.186	-12.684	-0.187	0.122
-467.172	107.719	0.081	0.097
-466.157	-200.000	0.018	0.079
-465.143	-97.108	0.122	0.032
-464.128	566.998	0.111	0.271
-463.113	339.031	-0.077	0.150
-462.099	-80.552	-0.300	-0.100
-461.084	17.316	0.123	0.098
-460.070	-200.000	0.046	0.230
-459.055	-22.596	-0.374	-0.227
-458.040	50.367	0.245	-0.232
-457.026	-83.584	-0.272	-0.087
-456.011	430.779	-0.079	-0.171
-454.997	800.000	0.025	0.093
-453.982	535.055	0.026	0.063
-452.968	245.392	-0.185	-0.312
-451.953	102.645	0.221	-0.259
-450.938	-200.000	0.036	0.213
-449.924	333.339	-0.068	0.132
-448.909	-118.212	0.037	0.007
-447.895	-96.745	0.259	-0.068
-446.880	179.288	-0.097	0.141
-445.865	350.846	-0.054	-0.107
-444.851	244.756	0.158	-0.267
-443.836	800.000	0.023	0.077
-442.822	800.000	-0.063	0.201
-441.807	-137.917	-0.177	0.020
-440.792	13.615	-0.192	0.149
-439.778	-200.000	-0.001	-0.121
-438.763	124.675	-0.071	0.090
-437.749	-63.237	-0.149	0.061
-436.734	409.067	-0.017	-0.036
-435.719	-200.000	0.023	0.378
-434.705	95.075	0.108	-0.123
-433.690	-57.734	0.140	-0.061
-432.676	121.660	0.062	-0.077
-431.661	515.265	-0.126	-0.293
-430.646	168.844	-0.105	-0.150
-429.632	90.463	-0.060	-0.068
-428.617	-34.036	0.152	0.084
-427.603	135.313	-0.057	-0.074
-426.588	-54.785	-0.184	-0.083
-425.573	-61.664	0.254	0.106
-424.559	-66.912	-0.264	0.104
-423.544	-10.122	-0.231	0.154
-422.530	-148.220	-0.202	-0.017
-421.515	30.494	-0.191	0.164
-420.500	-120.845	-0.415	-0.070
-419.486	-200.000	0.009	0.073
-418.471	336.757	-0.174	0.337
-417.457	800.000	0.122	-0.381
-416.442	184.453	-0.140	-0.208
-415.428	800.000	0.126	0.420
-414.413	125.788	0.150	0.190
-413.398	800.000	0.090	0.358
-412.384	-200.000	-0.001	-0.161
-411.369	-104.222	0.466	0.108
-410.355	-200.000	-0.011	0.378
-409.340	-19.414	0.082	0.051
-408.325	-200.000	0.007	-0.156
-407.311	573.483	0.086	-0.209
-406.296	-200.000	-0.015	0.260
-405.282	-120.592	0.086	0.015
-404.267	-29.676	0.223	0.127
-403.252	-98.869	-0.393	0.100
-402.238	-22.111	-0.090	-0.055
-401.223	800.000	-0.052	-0.225
-400.209	85.982	-0.019	0.021
-399.194	-17.261	0.191	-0.121
-398.179	-200.000	-0.048	0.356
-397.165	-200.000	-0.020	-0.099
-396.150	10.055	-0.111	-0.084
-395.136	-140.410	-0.082	-0.009
-394.121	-135.298	0.160	0.019
-393.106	800.000	0.037	-0.110
-392.092	143.383	-0.086	-0.114
-391.077	-38.207	-0.266	0.141
-390.063	325.541	0.049	-0.093
-389.048	-200.000	-0.100	-0.480
-388.033	-64.108	0.307	0.125
-387.019	-200.000	0.022	-0.193
-386.004	94.018	0.080	-0.091
-384.990	-200.000	0.040	0.197
-383.975	800.000	0.122	0.364
-382.960	-7.609	0.223	-0.151
-381.946	-200.000	-0.014	0.323
-380.931	-190.798	-0.206	-0.002
-379.917	-66.640	0.227	-0.090
-378.902	557.968	-0.076	-0.184
-377.888	-28.934	-0.360	0.206
-376.873	-120.280	-0.322	0.055
-375.858	773.584	0.050	-0.136
-374.844	800.000	0.064	0.229
-373.829	-99.934	0.289	-0.072
-372.815	800.000	-0.114	-0.413
-371.800	-200.000	-0.018	-0.292
-370.785	-120.167	-0.247	-0.042
-369.771	331.949	0.047	-0.090
-368.756	800.000	0.018	0.066
-367.742	-142.121	-0.338	-0.033
-366.727	210.696	-0.223	-0.350
-365.712	-186.662	0.056	0.001
-364.698	30.934	0.135	0.116
-363.683	800.000	0.078	0.240
-362.669	-129.835	-0.310	-0.043
-361.654	89.238	0.277	0.308
-360.639	188.472	-0.109	0.163
-359.625	-125.929	0.199	0.030
-358.610	800.000	0.069	-0.251
-357.596	227.435	-0.023	-0.038
-356.581	-98.804	0.187	-0.047
-355.566	30.322	-0.195	-0.166
-354.552	251.021	-0.136	-0.231
-353.537	-3.348	-0.198	0.137
-352.523	-200.000	-0.033	-0.322
-351.508	-72.072	-0.431	-0.160
-350.493	332.896	-0.105	0.203
-349.479	-112.542	0.053	0.011
-348.464	800.000	0.100	0.286
-347.450	114.932	-0.147	-0.179
-346.435	52.169	-0.118	-0.112
-345.420	800.000	0.077	0.288
-344.406	540.518	-0.143	-0.339
-343.391	-73.530	0.346	-0.126
-342.377	676.150	-0.106	0.276
-341.362	127.041	-0.253	-0.320
-340.348	800.000	0.039	-0.149
-339.333	576.347	-0.071	-0.172
-338.318	800.000	0.114	0.324
-337.304	66.406	0.103	-0.104
-336.289	-87.054	0.042	0.013
-335.275	-4.035	-0.182	-0.125
-334.260	204.868	-0.093	0.144
-333.245	143.357	0.095	0.126
-332.231	-200.000	0.027	0.166
-331.216	-131.563	0.289	-0.038
-330.202	-173.544	-0.219	0.007
-329.187	-140.534	-0.292	-0.030
-328.172	-200.000	0.001	-0.034
-327.158	-19.261	-0.155	0.096
-326.143	-155.845	-0.372	0.024
-325.129	-140.675	0.162	-0.017
-324.114	800.000	-0.027	-0.098
-323.099	-103.456	0.072	0.017
-322.085	-94.487	0.274	-0.074
-321.070	76.748	0.127	-0.135
-320.056	37.863	-0.327	0.290
-319.041	-200.000	0.016	0.131
-318.026	-39.210	0.026	-0.014
-317.012	-46.095	0.282	0.138
-315.997	-22.020	-0.189	-0.114
-314.983	250.214	-0.100	-0.170
-313.968	76.203	0.199	-0.210
-312.953	-111.016	-0.026	0.005
-311.939	318.364	-0.068	0.129
-310.924	226.299	0.201	0.325
-309.910	-99.578	-0.370	0.093
-308.895	67.662	0.212	-0.216
-307.880	152.253	0.173	0.236
-306.866	-99.140	0.071	0.018
-305.851	-200.000	0.024	0.243
-304.837	-25.263	0.090	-0.053
-303.822	-128.910	0.243	0.034
-302.807	-80.378	0.097	0.032
-301.793	-184.840	-0.232	-0.004
-300.778	-17.756	0.052	0.033
-299.764	629.074	-0.192	-0.483
-298.749	-11.007	0.348	0.228
-297.735	99.364	-0.168	0.194
-296.720	-113.238	-0.285	-0.056
-295.705	-94.495	-0.091	-0.025
-294.691	-115.366	-0.161	0.030
-293.676	-148.178	0.392	0.032
-292.662	590.067	-0.135	0.330
-291.647	-200.000	0.018	-0.121
-290.632	99.617	-0.139	0.160
-289.618	-200.000	-0.022	-0.296
-288.603	-200.000	-0.035	-0.174
-287.589	313.702	0.197	-0.369
-286.574	53.735	0.126	-0.121
-285.559	-131.212	0.026	0.003
-284.545	-115.813	0.415	-0.077
-283.530	50.384	-0.380	-0.357
-282.516	-119.946	0.160	-0.027
-281.501	-182.840	0.152	0.003
-280.486	-156.683	0.232	0.014
-279.472	-200.000	-0.025	0.241
-278.457	19.334	-0.119	0.095
-277.443	-200.000	-0.055	-0.297
-276.428	-106.357	-0.179	-0.040
-275.413	40.270	0.237	0.212
-274.399	-200.000	0.004	0.018
-273.384	180.724	0.179	0.261
-272.370	133.853	-0.093	-0.120
-271.355	-122.099	-0.334	-0.055
-270.340	800.000	-0.064	-0.212
-269.326	-33.129	-0.286	-0.158
-268.311	167.883	-0.106	0.150
-267.297	-84.177	0.122	0.038
-266.282	150.808	-0.279	0.377
-265.267	-108.411	0.210	-0.045
-264.253	-110.696	0.265	0.054
-263.238	161.042	-0.109	0.152
-262.224	-102.022	0.070	0.017
-261.209	800.000	-0.011	0.040
-260.195	615.129	0.070	-0.174
-259.180	-200.000	0.029	0.226
-258.165	800.000	0.098	0.288
-257.151	-110.090	-0.288	-0.060
-256.136	-200.000	-0.009	-0.077
-255.122	564.722	0.071	-0.172
-254.107	12.671	-0.115	-0.089
-253.092	-200.000	-0.013	0.176
-252.078	800.000	0.060	-0.240
-251.063	19.839	0.245	-0.196
-250.049	635.510	-0.036	0.092
-249.034	365.549	0.161	-0.322
-248.019	-49.909	-0.188	-0.089
-247.005	-149.178	0.136	-0.011
-245.990	-1.181	-0.207	-0.146
-244.976	800.000	0.008	-0.032
-243.961	800.000	0.094	0.303
-242.946	-65.251	-0.375	0.150
-241.932	261.603	0.134	-0.230
-240.917	117.328	-0.130	0.158
-239.903	674.766	-0.050	0.128
-238.888	-104.765	0.249	-0.057
-237.873	-200.000	0.006	0.077
-236.859	43.431	0.323	0.293
-235.844	800.000	-0.061	0.180
-234.830	296.424	0.072	-0.131
-233.815	105.533	0.105	0.123
-232.800	-102.282	0.159	-0.038
-231.786	-200.000	-0.012	-0.450
-230.771	-200.000	-0.016	0.080
-229.757	-200.000	0.016	0.197
-228.742	-200.000	-0.002	0.037
-227.727	19.493	0.209	-0.167
-226.713	-41.932	-0.056	-0.029
-225.698	111.950	-0.076	-0.091
-224.684	-12.529	-0.188	0.122
-223.669	-53.864	0.275	0.125
-222.655	-99.615	0.114	-0.028
-221.640	389.010	0.159	-0.327
-220.625	-135.175	0.413	0.049
-219.611	367.647	0.074	0.147
-218.596	-18.334	-0.134	-0.083
-217.582	-91.130	0.077	0.022
-216.567	-108.757	0.185	0.039
-215.552	800.000	0.067	0.225
-214.538	-59.262	-0.057	0.025
-213.523	-60.640	0.463	0.195
-212.509	800.000	0.066	0.191
-211.494	130.217	-0.223	0.283
-210.479	-183.859	-0.413	-0.007
-209.465	265.192	-0.126	0.218
-208.450	-63.400	-0.157	0.064
-207.436	-100.379	-0.090	-0.022
-206.421	697.118	0.049	0.128
-205.406	463.026	-0.107	-0.238
-204.392	-39.719	-0.177	-0.092
-203.377	-200.000	-0.025	-0.248
-202.363	342.224	0.069	-0.134
-201.348	114.378	-0.046	-0.055
-200.333	90.962	0.235	0.262
-199.319	104.496	0.117	0.136
-198.304	-200.000	-0.029	-0.263
-197.290	-140.879	-0.041	0.004
-196.275	197.986	-0.172	0.260
-195.260	800.000	-0.041	-0.129
-194.246	-83.122	0.084	-0.027
-193.231	100.838	0.045	0.051
-192.217	-21.798	-0.161	-0.097
-191.202	-200.000	0.031	-0.245
-190.187	22.077	0.323	-0.261
-189.173	800.000	-0.029	-0.120
-188.158	0.005	0.186	0.131
-187.144	800.000	-0.129	-0.368
-186.129	27.613	-0.230	0.192
-185.114	399.949	-0.052	0.107
-184.100	794.637	-0.120	0.329
-183.085	-10.905	-0.104	0.068
-182.071	800.000	0.119	-0.436
-181.056	-17.504	-0.260	-0.162
-180.042	37.671	0.086	-0.075
-179.027	61.786	0.191	-0.188
-178.012	198.816	0.213	-0.323
-176.998	-69.592	0.151	-0.057
-175.983	433.078	-0.126	-0.272
-174.969	800.000	-0.038	0.113
-173.954	218.166	-0.082	-0.130
-172.939	77.685	0.132	-0.140
-171.925	-99.700	0.354	-0.088
-170.910	-200.000	-0.034	0.310
-169.896	276.354	0.070	0.123
-168.881	-200.000	-0.025	0.156
-167.866	-112.150	0.244	0.049
-166.852	-200.000	0.030	0.560
-165.837	-1.651	0.042	-0.030
-164.823	740.688	0.042	0.113
-163.808	-160.052	0.161	-0.009
-162.793	173.946	-0.234	-0.334
-161.779	-177.963	0.356	-0.008
-160.764	-22.399	0.223	-0.134
-159.750	715.976	-0.123	0.322
-158.735	-200.000	-0.012	0.180
-157.720	-37.033	-0.148	0.079
-156.706	-83.428	0.313	0.099
-155.691	-200.000	-0.037	0.184
-154.677	198.881	0.098	0.148
-153.662	414.836	-0.092	0.195
-152.647	21.755	0.182	0.147
-151.633	41.345	0.208	0.187
-150.618	157.110	0.113	-0.155
-149.604	-200.000	-0.009	0.358
-148.589	52.011	0.213	0.201
-147.574	800.000	0.032	0.104
-146.560	326.391	0.046	0.088
-145.545	725.139	-0.078	-0.206
-144.531	-57.697	-0.158	-0.069
-143.516	302.642	-0.117	0.215
-142.502	-56.577	-0.186	0.082
-141.487	-78.889	0.141	0.048
-140.472	0.780	0.293	0.208
-139.458	-132.475	0.313	0.040
-138.443	-137.457	-0.282	-0.032
-137.429	-128.438	-0.071	0.010
-136.414	-8.589	0.256	-0.170
-135.399	555.727	-0.095	0.227
-134.385	-104.480	-0.282	-0.065
-133.370	-20.162	0.138	0.084
-132.356	65.511	-0.085	0.085
-131.341	-81.753	-0.075	-0.024
-130.326	800.000	-0.124	0.397
-129.312	-200.000	-0.039	0.441
-128.297	-200.000	-0.031	0.235
-127.283	-157.900	-0.218	-0.013
-126.268	613.542	-0.069	0.171
-125.253	-44.431	0.144	-0.071
-124.239	-31.739	-0.080	0.044
-123.224	30.110	-0.196	-0.165
-122.210	175.334	-0.049	-0.070
