DTS Sentinel unit serial number:	SN413079Multiplexer serial number:	ORYXHardware model number:	OX4-SRSoftware version number:	ORYX F/W v4.00 Oryx Data Collector v3.7.2.0data status	okinstallation	princeton_trtdifferential loss correction	single-endedforward channel	channel 2reverse channel	N/Adate	2019/09/19time	09:59:34forward acquisition time	60.00reverse acquisition time	0.00gamma	496.2192k internal	0.2345k external	0.2345temperature offset calibration	1.0005default loss term (dB/km)	0.3790temperature slope calibration	1.0000multiplexer offset coefficient	1.0000multiplexer slope coefficient	1.0000fibre end	0.00T internal ref (°C)	23.69T ext. ref 1 (°C)	0.66T ext. ref 2 (°C)	19.44length (m)	temperature (°C)	Stokes	anti-Stokes-747.200	-129.422	0.287	0.040
-746.185	-200.000	0.060	0.385
-745.171	-132.490	0.167	-0.022
-744.156	103.399	-0.181	0.212
-743.142	-74.025	0.168	-0.061
-742.127	-73.366	-0.167	0.061
-741.112	-122.116	0.238	0.039
-740.098	-200.000	0.050	0.235
-739.083	-200.000	0.018	0.111
-738.069	-200.000	0.013	0.295
-737.054	800.000	0.124	-0.359
-736.039	104.353	-0.133	0.156
-735.025	485.403	0.150	0.341
-734.010	-200.000	-0.034	-0.383
-732.996	-200.000	-0.094	-0.452
-731.981	85.855	-0.065	0.071
-730.966	207.478	-0.108	0.168
-729.952	-9.338	-0.285	-0.190
-728.937	36.928	-0.167	-0.148
-727.923	-56.729	-0.130	0.057
-726.908	122.507	0.131	-0.164
-725.894	-200.000	0.020	0.186
-724.879	284.498	0.082	0.147
-723.864	8.966	0.158	-0.119
-722.850	5.963	-0.236	-0.175
-721.835	-129.305	-0.064	0.009
-720.821	-147.714	0.351	-0.029
-719.806	59.671	0.126	0.124
-718.791	-60.267	0.186	-0.079
-717.777	239.771	-0.027	0.045
-716.762	43.162	0.291	0.265
-715.748	461.142	0.039	-0.087
-714.733	198.926	-0.212	-0.324
-713.718	289.873	0.063	0.115
-712.704	252.638	0.093	-0.159
-711.689	188.416	-0.124	-0.185
-710.675	-37.972	-0.050	0.027
-709.660	204.298	0.132	-0.204
-708.645	-200.000	-0.011	-0.124
-707.631	164.366	0.251	-0.354
-706.616	-28.039	-0.368	0.213
-705.602	393.738	-0.103	0.214
-704.587	-29.645	0.281	0.160
-703.572	-192.631	-0.092	0.001
-702.558	-48.637	0.151	-0.072
-701.543	-200.000	-0.018	-0.248
-700.529	-185.153	-0.207	0.003
-699.514	96.491	0.200	-0.229
-698.499	708.169	-0.087	-0.228
-697.485	284.153	-0.109	0.196
-696.470	-200.000	0.006	-0.130
-695.456	142.038	0.109	0.144
-694.441	17.501	-0.328	-0.260
-693.426	-130.217	0.187	-0.025
-692.412	264.592	0.084	0.146
-691.397	99.611	0.103	-0.119
-690.383	497.177	-0.075	0.173
-689.368	-200.000	-0.028	0.241
-688.354	97.248	-0.085	0.097
-687.339	30.144	-0.286	0.244
-686.324	-200.000	0.034	-0.229
-685.310	-40.660	-0.291	0.150
-684.295	114.095	0.333	0.404
-683.281	16.272	-0.171	-0.135
-682.266	18.269	-0.288	-0.229
-681.251	-57.893	-0.142	-0.062
-680.237	609.214	0.186	-0.463
-679.222	460.141	-0.067	-0.149
-678.208	-67.659	0.319	0.125
-677.193	800.000	0.093	-0.256
-676.178	8.404	0.232	0.174
-675.164	-200.000	0.084	0.403
-674.149	-104.011	-0.215	0.050
-673.135	-23.556	0.262	0.157
-672.120	48.204	0.109	-0.101
-671.105	-185.010	-0.154	-0.002
-670.091	171.031	-0.206	-0.295
-669.076	324.546	0.158	-0.301
-668.062	153.661	-0.141	-0.192
-667.047	89.148	0.092	-0.102
-666.032	800.000	-0.013	-0.051
-665.018	-59.839	0.193	0.083
-664.003	499.606	-0.124	-0.285
-662.989	-200.000	-0.064	-0.280
-661.974	287.716	0.194	-0.350
-660.959	218.878	0.181	0.289
-659.945	-141.616	-0.265	0.027
-658.930	-125.038	0.492	-0.075
-657.916	59.536	-0.199	0.196
-656.901	-200.000	0.003	0.161
-655.886	535.070	-0.102	0.242
-654.872	48.663	-0.138	-0.129
-653.857	800.000	0.024	0.104
-652.843	572.801	-0.225	-0.546
-651.828	-200.000	-0.029	0.141
-650.814	35.963	-0.021	-0.018
-649.799	800.000	0.056	0.229
-648.784	-200.000	-0.026	-0.300
-647.770	206.210	-0.012	0.019
-646.755	169.554	0.145	0.206
-645.741	-48.120	0.138	-0.066
-644.726	-176.772	-0.238	0.006
-643.711	-200.000	-0.055	0.426
-642.697	48.788	0.078	-0.073
-641.682	-200.000	0.018	-0.239
-640.668	230.456	0.072	0.118
-639.653	-56.407	-0.264	-0.117
-638.638	-111.679	-0.048	0.010
-637.624	-40.593	0.165	0.085
-636.609	-98.946	-0.176	0.045
-635.595	-33.718	-0.076	0.042
-634.580	800.000	-0.034	0.094
-633.565	-53.112	-0.119	-0.055
-632.551	193.953	0.021	0.032
-631.536	46.655	-0.191	0.176
-630.522	-200.000	0.035	0.228
-629.507	800.000	0.032	-0.098
-628.492	390.702	0.173	-0.357
-627.478	5.459	0.120	-0.088
-626.463	-112.562	0.142	0.028
-625.449	-200.000	-0.238	-0.001
-624.434	-72.983	0.325	0.119
-623.419	800.000	-0.058	0.187
-622.405	-166.469	-0.166	0.007
-621.390	363.133	0.142	-0.284
-620.376	-50.988	0.057	-0.027
-619.361	-20.808	-0.222	0.135
-618.346	-31.565	-0.162	0.090
-617.332	-19.197	0.326	0.202
-616.317	-76.966	0.278	0.097
-615.303	-137.687	0.173	-0.019
-614.288	-47.731	-0.410	-0.198
-613.273	-158.581	-0.264	-0.015
-612.259	-162.155	0.293	0.015
-611.244	78.618	-0.080	-0.085
-610.230	-121.313	-0.043	0.007
-609.215	-116.223	0.412	-0.076
-608.201	464.168	-0.096	0.214
-607.186	-200.000	0.027	-0.137
-606.171	800.000	-0.014	-0.047
-605.157	38.539	-0.121	0.107
-604.142	-194.304	-0.576	-0.005
-603.128	-79.834	-0.303	-0.101
-602.113	-200.000	-0.034	0.201
-601.098	64.836	0.075	-0.075
-600.084	-148.750	0.242	0.020
-599.069	20.342	-0.287	-0.231
-598.055	800.000	0.076	0.220
-597.040	-96.694	-0.252	-0.066
-596.025	-200.000	0.057	-0.312
-595.011	-99.762	0.091	-0.023
-593.996	-87.015	-0.414	-0.126
-592.982	-38.302	0.173	0.091
-591.967	800.000	0.075	-0.206
-590.952	-140.655	-0.206	0.021
-589.938	515.724	0.104	-0.241
-588.923	-34.130	0.042	0.023
-587.909	-51.426	0.105	-0.049
-586.894	266.333	0.115	-0.200
-585.879	144.613	0.119	-0.158
-584.865	-101.895	0.130	-0.031
-583.850	800.000	0.104	-0.399
-582.836	131.747	0.095	-0.122
-581.821	-72.948	0.039	-0.014
-580.806	539.348	0.047	-0.112
-579.792	125.032	-0.113	0.142
-578.777	800.000	0.066	-0.253
-577.763	800.000	-0.096	-0.353
-576.748	182.117	-0.074	-0.108
-575.733	-97.662	-0.176	-0.045
-574.719	86.469	0.284	-0.311
-573.704	61.011	0.075	0.074
-572.690	-135.043	0.157	0.019
-571.675	-200.000	-0.036	-0.161
-570.661	-200.000	-0.016	-0.141
-569.646	-101.820	-0.199	0.048
-568.631	-113.116	0.147	-0.029
-567.617	-200.000	-0.007	-0.173
-566.602	-185.585	0.199	-0.003
-565.588	-102.783	-0.118	-0.028
-564.573	333.516	0.045	-0.087
-563.558	19.295	0.174	-0.139
-562.544	-82.522	-0.272	-0.088
-561.529	-5.492	-0.343	-0.234
-560.515	800.000	-0.027	0.087
-559.500	230.711	-0.132	-0.214
-558.485	-42.796	-0.295	0.149
-557.471	52.197	0.212	-0.201
-556.456	25.969	0.132	-0.109
-555.442	-200.000	-0.021	0.103
-554.427	-120.887	0.065	0.011
-553.412	22.049	-0.176	0.143
-552.398	79.212	0.118	-0.126
-551.383	376.843	-0.098	0.199
-550.369	-106.155	-0.099	-0.022
-549.354	289.698	0.162	-0.292
-548.339	94.091	0.142	0.160
-547.325	-89.779	-0.037	-0.011
-546.310	-163.884	0.052	-0.002
-545.296	32.934	-0.123	-0.105
-544.281	-29.332	-0.173	0.098
-543.266	-49.191	0.293	0.139
-542.252	-41.676	0.216	0.110
-541.237	-3.181	-0.160	0.110
-540.223	-29.386	0.063	0.036
-539.208	-45.129	0.213	-0.105
-538.193	-175.767	-0.129	-0.003
-537.179	800.000	-0.048	0.161
-536.164	-200.000	-0.025	-0.229
-535.150	-169.223	-0.369	-0.014
-534.135	71.101	-0.183	0.188
-533.121	800.000	-0.027	-0.114
-532.106	800.000	-0.073	0.244
-531.091	212.414	0.075	0.118
-530.077	353.317	0.083	0.164
-529.062	-147.610	0.467	0.039
-528.048	-70.473	0.089	-0.034
-527.033	-13.438	-0.223	0.144
-526.018	-90.582	-0.192	-0.055
-525.004	-78.481	-0.226	0.077
-523.989	9.054	0.238	-0.178
-522.975	-30.307	0.351	-0.198
-521.960	-47.726	-0.391	0.188
-520.945	800.000	0.047	0.158
-519.931	-85.287	-0.108	-0.034
-518.916	92.526	-0.107	0.120
-517.902	-13.455	-0.053	-0.034
-516.887	127.098	-0.134	-0.169
-515.872	-200.000	-0.024	-0.177
-514.858	127.942	0.267	-0.336
-513.843	-200.000	-0.010	-0.169
-512.829	282.024	0.190	-0.338
-511.814	611.262	-0.109	0.271
-510.799	800.000	0.091	0.336
-509.785	286.279	-0.131	0.234
-508.770	-101.550	-0.170	0.041
-507.756	-19.001	-0.406	-0.250
-506.741	-10.944	-0.074	0.049
-505.726	-24.351	0.349	0.206
-504.712	800.000	0.084	0.276
-503.697	10.681	-0.146	-0.110
-502.683	-119.926	0.195	0.033
-501.668	70.014	-0.301	-0.308
-500.653	-18.786	-0.075	0.047
-499.639	-200.000	-0.005	0.090
-498.624	-200.000	0.029	0.178
-497.610	-200.000	-0.021	0.138
-496.595	-116.371	-0.093	-0.017
-495.581	800.000	0.024	-0.076
-494.566	330.288	-0.125	-0.239
-493.551	800.000	-0.069	0.206
-492.537	-127.832	-0.218	0.031
-491.522	-58.909	-0.040	0.017
-490.508	-64.468	0.037	0.015
-489.493	258.570	-0.083	-0.142
-488.478	-200.000	-0.039	0.314
-487.464	180.750	0.173	-0.252
-486.449	-200.000	-0.004	-0.276
-485.435	251.059	-0.111	-0.186
-484.420	-80.068	-0.246	-0.082
-483.405	-200.000	0.020	0.276
-482.391	146.160	-0.044	-0.059
-481.376	-100.008	0.052	-0.013
-480.362	656.819	0.037	-0.095
-479.347	193.287	-0.118	-0.176
-478.332	398.823	0.140	0.289
-477.318	24.601	0.184	0.151
-476.303	-200.000	0.077	-0.345
-475.289	-93.294	-0.107	0.029
-474.274	-182.301	-0.204	-0.004
-473.259	-177.447	0.066	0.002
-472.245	10.174	0.242	-0.182
-471.230	-147.463	-0.311	-0.026
-470.216	222.870	-0.194	0.310
-469.201	-82.474	-0.383	0.123
-468.186	134.372	0.087	-0.112
-467.172	-5.788	-0.089	0.060
-466.157	-200.000	-0.009	-0.129
-465.143	-128.893	0.066	0.009
-464.128	346.937	-0.080	-0.155
-463.113	-175.333	0.236	-0.006
-462.099	-47.292	0.094	0.045
-461.084	43.389	-0.368	-0.333
-460.070	-67.776	-0.188	0.073
-459.055	-185.697	0.466	0.007
-458.040	98.755	-0.094	0.107
-457.026	313.271	-0.103	-0.191
-456.011	294.543	-0.053	0.096
-454.997	-91.595	-0.334	-0.094
-453.982	-200.000	0.022	0.104
-452.968	246.972	-0.126	-0.210
-451.953	46.013	0.170	-0.156
-450.938	10.164	0.088	0.066
-449.924	380.317	-0.192	-0.390
-448.909	169.100	0.133	0.188
-447.895	188.318	-0.093	-0.137
-446.880	519.974	-0.135	0.313
-445.865	-148.992	-0.122	0.010
-444.851	241.611	-0.105	-0.173
-443.836	-98.854	0.156	-0.039
-442.822	-43.010	-0.089	-0.045
-441.807	800.000	0.063	0.176
-440.792	60.617	-0.054	-0.053
-439.778	-200.000	0.012	-0.296
-438.763	-200.000	0.004	0.169
-437.749	77.139	-0.197	-0.207
-436.734	358.789	0.107	-0.212
-435.719	-200.000	-0.029	0.346
-434.705	-200.000	-0.014	0.085
-433.690	-158.649	0.258	0.015
-432.676	-200.000	0.013	0.167
-431.661	156.314	-0.167	-0.228
-430.646	441.219	0.033	-0.071
-429.632	-200.000	-0.021	-0.306
-428.617	-200.000	-0.054	-0.295
-427.603	163.357	0.281	0.390
-426.588	-124.183	0.538	-0.083
-425.573	800.000	0.059	-0.254
-424.559	17.552	-0.369	0.290
-423.544	-138.108	0.146	-0.016
-422.530	-200.000	-0.015	-0.099
-421.515	51.809	0.198	-0.186
-420.500	-200.000	-0.032	-0.213
-419.486	-93.851	-0.395	0.107
-418.471	-200.000	0.025	0.133
-417.457	-57.229	0.039	-0.017
-416.442	152.404	0.148	-0.200
-415.428	-200.000	-0.034	0.154
-414.413	609.080	0.145	0.357
-413.398	-117.237	0.111	0.020
-412.384	41.102	0.150	0.134
-411.369	56.186	0.217	-0.208
-410.355	412.471	-0.125	0.262
-409.340	800.000	0.043	0.131
-408.325	-156.029	0.235	-0.015
-407.311	531.423	-0.032	-0.075
-406.296	240.848	-0.016	0.027
-405.282	19.811	0.067	-0.053
-404.267	-9.469	-0.116	-0.077
-403.252	-133.206	-0.197	0.025
-402.238	118.794	-0.246	-0.300
-401.223	-107.881	0.160	-0.034
-400.209	-64.995	0.081	0.032
-399.194	-115.885	-0.168	0.031
-398.179	-131.208	0.035	-0.005
-397.165	800.000	-0.046	0.141
-396.150	22.917	0.109	-0.089
-395.136	-200.000	0.058	0.268
-394.121	224.172	0.121	-0.193
-393.106	-18.513	-0.243	-0.150
-392.092	-200.000	-0.013	-0.098
-391.077	800.000	0.086	-0.235
-390.063	-200.000	0.004	0.119
-389.048	-36.616	0.085	0.045
-388.033	-15.126	0.348	0.220
-387.019	102.366	0.109	0.125
-386.004	132.786	0.115	-0.146
-384.990	-43.980	0.316	-0.157
-383.975	256.534	0.136	-0.230
-382.960	-37.061	-0.345	0.182
-381.946	-133.608	0.036	0.004
-380.931	82.699	-0.078	0.083
-379.917	-200.000	-0.004	-0.168
-378.902	21.252	0.175	0.140
-377.888	170.483	0.026	-0.037
-376.873	-200.000	-0.044	0.229
-375.858	-95.957	0.120	-0.031
-374.844	-117.175	-0.102	-0.018
-373.829	-70.135	0.190	-0.071
-372.815	-200.000	0.010	0.505
-371.800	-200.000	-0.042	0.269
-370.785	-99.934	0.115	0.028
-369.771	-200.000	0.011	0.057
-368.756	38.216	-0.145	0.127
-367.742	-200.000	-0.011	0.209
-366.727	-133.317	-0.329	-0.041
-365.712	-21.635	0.219	-0.131
-364.698	28.288	0.250	-0.208
-363.683	-93.499	0.302	0.082
-362.669	-152.338	-0.351	-0.025
-361.654	-103.889	0.088	-0.020
-360.639	-108.378	0.225	0.048
-359.625	45.746	-0.064	-0.058
-358.610	-200.000	0.034	-0.388
-357.596	269.201	-0.142	-0.246
-356.581	36.084	0.166	-0.144
-355.566	-189.913	-0.097	-0.001
-354.552	508.319	0.072	0.164
-353.537	0.829	-0.105	-0.074
-352.523	-83.154	0.331	0.105
-351.508	651.006	-0.087	-0.220
-350.493	-37.214	0.285	-0.150
-349.479	471.893	-0.100	0.222
-348.464	-153.960	0.378	-0.025
-347.450	-103.302	-0.126	0.029
-346.435	161.227	-0.210	0.290
-345.420	-200.000	0.011	0.128
-344.406	800.000	0.068	0.192
-343.391	410.805	0.089	0.186
-342.377	-104.222	0.049	-0.011
-341.362	-148.967	-0.284	0.023
-340.348	86.495	0.123	0.134
-339.333	-3.623	0.147	0.101
-338.318	-200.000	-0.048	0.359
-337.304	800.000	-0.042	0.159
-336.289	-200.000	-0.025	0.324
-335.275	-79.067	-0.207	-0.069
-334.260	-21.642	0.149	-0.089
-333.245	504.357	-0.096	-0.220
-332.231	-124.723	-0.171	0.026
-331.216	-85.834	-0.238	0.072
-330.202	-185.381	-0.183	0.003
-329.187	-85.837	0.144	0.044
-328.172	210.565	-0.111	-0.172
-327.158	-83.966	-0.426	0.133
-326.143	62.343	0.239	-0.235
-325.129	355.320	-0.079	0.156
-324.114	221.012	-0.081	-0.128
-323.099	66.621	-0.203	0.203
-322.085	800.000	-0.042	-0.139
-321.070	-148.268	0.268	0.022
-320.056	-134.288	0.147	0.018
-319.041	-200.000	0.006	0.223
-318.026	-27.885	-0.175	-0.100
-317.012	176.365	0.119	-0.169
-315.997	800.000	0.075	-0.265
-314.983	299.650	0.086	0.156
-313.968	35.693	0.080	-0.069
-312.953	225.712	-0.175	-0.279
-311.939	-33.211	0.049	0.027
-310.924	800.000	0.060	0.201
-309.910	-200.000	-0.040	-0.274
-308.895	-51.410	-0.348	-0.160
-307.880	-14.015	-0.352	0.224
-306.866	42.661	-0.177	0.158
-305.851	-114.004	0.029	-0.006
-304.837	533.665	-0.137	0.318
-303.822	5.889	-0.196	0.143
-302.807	137.395	0.083	0.106
-301.793	70.966	0.184	0.188
-300.778	800.000	-0.074	-0.236
-299.764	55.072	0.180	0.171
-298.749	-200.000	0.013	-0.124
-297.735	702.363	0.090	0.233
-296.720	335.213	-0.157	-0.298
-295.705	125.769	0.170	0.211
-294.691	-111.249	0.062	-0.012
-293.676	166.383	-0.011	0.015
-292.662	404.137	0.154	0.319
-291.647	30.405	-0.271	0.227
-290.632	800.000	0.091	0.248
-289.618	53.980	0.044	-0.041
-288.603	-78.064	0.074	-0.025
-287.589	-47.196	0.025	-0.012
-286.574	521.307	-0.038	-0.087
-285.559	-84.381	-0.269	-0.084
-284.545	131.307	-0.172	0.217
-283.530	459.560	0.148	-0.323
-282.516	800.000	-0.057	-0.170
-281.501	-2.719	-0.171	0.117
-280.486	136.960	0.150	0.193
-279.472	290.490	-0.098	-0.175
-278.457	800.000	0.053	-0.168
-277.443	-119.151	0.203	-0.035
-276.428	-88.525	-0.207	0.060
-275.413	-200.000	0.045	0.204
-274.399	-200.000	0.021	-0.200
-273.384	-117.842	0.089	0.016
-272.370	-17.456	0.201	-0.124
-271.355	-200.000	0.002	0.387
-270.340	-82.176	-0.106	0.034
-269.326	358.170	0.103	0.203
-268.311	76.434	-0.224	0.233
-267.297	800.000	0.022	0.095
-266.282	120.916	-0.048	0.059
-265.267	-200.000	0.001	-0.150
-264.253	-134.138	0.347	0.042
-263.238	-49.391	0.068	-0.032
-262.224	330.661	-0.064	-0.121
-261.209	-200.000	0.024	0.140
-260.195	-25.132	-0.170	0.099
-259.180	-117.421	0.108	-0.019
-258.165	290.158	0.023	-0.042
-257.151	-94.347	-0.117	-0.031
-256.136	91.864	-0.149	-0.164
-255.122	-200.000	0.002	-0.177
-254.107	-132.566	0.141	0.018
-253.092	-76.011	-0.162	-0.056
-252.078	-75.960	0.201	0.070
-251.063	-35.942	0.200	0.106
-250.049	-51.249	0.177	-0.081
-249.034	-66.473	0.042	-0.017
-248.019	19.633	0.336	-0.265
-247.005	-12.172	-0.132	-0.085
-245.990	54.836	0.086	-0.082
-244.976	-109.712	0.180	0.037
-243.961	-200.000	-0.058	0.385
-242.946	255.526	0.084	0.142
-241.932	-200.000	-0.006	-0.373
-240.917	-200.000	0.001	-0.137
-239.903	-70.794	-0.026	0.010
-238.888	271.384	-0.152	0.262
-237.873	-144.676	0.306	-0.028
-236.859	492.990	0.082	-0.184
-235.844	800.000	0.051	0.144
-234.830	800.000	-0.026	0.100
-233.815	-46.484	0.385	0.185
-232.800	-7.539	0.094	-0.063
-231.786	351.525	0.196	0.380
-230.771	-75.362	-0.033	0.012
-229.757	189.788	0.265	-0.390
-228.742	276.667	0.064	0.112
-227.727	0.144	0.183	-0.128
-226.713	800.000	-0.037	-0.132
-225.698	-12.070	-0.098	-0.063
-224.684	17.614	-0.145	0.113
-223.669	328.693	0.111	-0.208
-222.655	-124.417	-0.233	-0.036
-221.640	800.000	0.056	-0.235
-220.625	86.627	0.101	0.109
-219.611	13.275	-0.261	-0.198
-218.596	64.542	-0.383	0.378
-217.582	-200.000	0.018	0.211
-216.567	-200.000	-0.010	0.181
-215.552	-200.000	-0.011	-0.423
-214.538	719.759	0.099	0.259
-213.523	1.267	-0.292	0.205
-212.509	244.586	-0.160	0.263
-211.494	-61.165	0.462	0.191
-210.479	127.561	-0.207	0.258
-209.465	254.176	0.108	0.182
-208.450	-140.604	0.145	-0.015
-207.436	-200.000	-0.001	-0.132
-206.421	-163.128	-0.215	-0.010
-205.406	686.559	0.071	0.181
-204.392	-195.984	0.251	0.002
-203.377	9.631	-0.104	0.077
-202.363	800.000	0.039	0.136
-201.348	-56.333	-0.046	0.020
-200.333	-157.545	-0.292	0.017
-199.319	-42.002	0.066	-0.033
-198.304	448.263	-0.097	0.209
-197.290	-100.141	0.183	0.045
-196.275	11.611	-0.031	0.024
-195.260	800.000	-0.108	0.326
-194.246	-200.000	0.019	0.318
-193.231	-109.300	-0.177	0.037
-192.217	-165.968	-0.116	0.005
-191.202	-200.000	0.024	0.194
-190.187	-200.000	0.026	-0.123
-189.173	-200.000	-0.017	-0.162
-188.158	800.000	0.012	0.038
-187.144	299.273	0.088	0.159
-186.129	255.933	-0.180	-0.302
-185.114	-200.000	0.042	0.222
-184.100	0.202	-0.171	-0.119
-183.085	-101.248	0.303	-0.073
-182.071	-200.000	0.006	0.083
-181.056	-188.765	-0.183	0.002
-180.042	-5.491	0.130	-0.087
-179.027	-200.000	0.012	0.154
-178.012	-200.000	-0.026	-0.237
-176.998	15.096	-0.298	0.228
-175.983	-66.305	0.088	0.034
-174.969	-200.000	0.022	-0.138
-173.954	-8.588	0.502	-0.330
-172.939	291.031	-0.110	0.196
-171.925	604.560	-0.046	-0.111
-170.910	-86.540	0.345	-0.104
-169.896	170.805	0.247	-0.346
-168.881	-111.651	0.027	0.005
-167.866	-200.000	0.021	-0.291
-166.852	156.118	-0.202	-0.273
-165.837	272.724	0.223	0.384
-164.823	108.355	0.102	0.119
-163.808	227.007	-0.143	-0.227
-162.793	-43.628	-0.229	-0.113
-161.779	-200.000	-0.056	-0.401
-160.764	-62.205	-0.069	-0.028
-159.750	-94.981	-0.143	0.038
-158.735	-200.000	0.044	0.238
-157.720	445.355	0.195	0.419
-156.706	800.000	-0.026	0.072
-155.691	-131.503	-0.195	0.025
-154.677	-82.767	0.288	-0.091
-153.662	-200.000	-0.001	0.215
-152.647	800.000	0.042	0.148
-151.633	-9.438	0.364	-0.237
-150.618	-200.000	-0.033	0.172
-149.604	-190.250	0.156	-0.002
-148.589	-200.000	0.039	0.347
-147.574	-105.524	0.185	-0.041
-146.560	111.890	0.149	-0.176
-145.545	-200.000	0.020	0.102
-144.531	758.205	0.075	-0.199
-143.516	108.211	0.230	0.268
-142.502	182.636	-0.107	-0.154
-141.487	544.588	-0.097	0.225
-140.472	350.074	-0.058	-0.112
-139.458	-200.000	0.008	-0.162
-138.443	-200.000	-0.018	0.163
-137.429	-67.371	0.068	-0.026
-136.414	114.133	-0.104	0.123
-135.399	90.352	0.065	-0.071
-134.385	-200.000	0.033	0.147
-133.370	-116.185	0.238	-0.043
-132.356	-200.000	-0.002	0.014
-131.341	-133.686	0.248	0.030
-130.326	800.000	-0.042	-0.127
-129.312	800.000	-0.033	0.131
-128.297	-7.680	0.211	-0.139
-127.283	-167.513	0.067	0.003
-126.268	800.000	-0.032	-0.118
-125.253	-200.000	0.033	-0.172
-124.239	-86.940	-0.199	-0.059
-123.224	686.486	0.018	0.045
-122.210	22.820	0.410	0.328
-121.195	-122.233	0.245	0.039
