DTS Sentinel unit serial number:	SN413079Multiplexer serial number:	ORYXHardware model number:	OX4-SRSoftware version number:	ORYX F/W v4.00 Oryx Data Collector v3.7.2.0data status	okinstallation	princeton_trtdifferential loss correction	single-endedforward channel	channel 2reverse channel	N/Adate	2019/09/19time	01:15:34forward acquisition time	60.00reverse acquisition time	0.00gamma	496.2192k internal	0.2353k external	0.2353temperature offset calibration	1.0018default loss term (dB/km)	0.3790temperature slope calibration	1.0000multiplexer offset coefficient	1.0000multiplexer slope coefficient	1.0000fibre end	0.00T internal ref (°C)	21.77T ext. ref 1 (°C)	0.71T ext. ref 2 (°C)	15.18length (m)	temperature (°C)	Stokes	anti-Stokes-747.200	-101.560	-0.075	-0.018
-746.185	-11.731	-0.190	0.124
-745.171	311.381	0.051	0.096
-744.156	-175.296	-0.394	-0.011
-743.142	-34.876	-0.111	-0.061
-742.127	367.396	-0.070	0.141
-741.112	-200.000	0.122	0.000
-740.098	61.802	-0.262	0.260
-739.083	-127.591	-0.313	-0.045
-738.069	293.929	0.087	-0.158
-737.054	-137.504	-0.194	0.022
-736.039	-181.813	-0.270	-0.005
-735.025	560.703	0.078	0.187
-734.010	495.249	-0.088	-0.202
-732.996	346.979	-0.068	-0.134
-731.981	-200.000	-0.018	-0.179
-730.966	216.757	0.266	0.422
-729.952	-171.479	0.250	-0.008
-728.937	-41.520	0.289	0.148
-727.923	-113.077	-0.320	-0.063
-726.908	356.286	0.059	0.118
-725.894	-161.337	0.132	-0.007
-724.879	-200.000	-0.006	0.234
-723.864	271.512	-0.166	0.292
-722.850	-200.000	-0.006	-0.379
-721.835	-33.924	0.053	0.029
-720.821	220.064	0.066	-0.105
-719.806	-200.000	0.038	-0.243
-718.791	-41.718	-0.063	-0.032
-717.777	-44.973	-0.439	-0.218
-716.762	136.586	0.303	-0.394
-715.748	474.282	-0.073	-0.165
-714.733	800.000	-0.040	-0.140
-713.718	-200.000	0.005	-0.162
-712.704	-62.748	-0.419	0.173
-711.689	-200.000	0.008	0.203
-710.675	-200.000	0.007	0.155
-709.660	360.777	-0.158	-0.316
-708.645	21.796	0.275	-0.223
-707.631	-200.000	0.004	-0.180
-706.616	174.441	0.253	-0.364
-705.602	-63.311	-0.427	-0.175
-704.587	-149.598	0.045	-0.004
-703.572	570.907	0.144	0.349
-702.558	-200.000	-0.011	0.178
-701.543	-28.348	0.223	0.128
-700.529	-31.131	0.077	0.043
-699.514	800.000	0.033	0.100
-698.499	-46.932	-0.235	-0.114
-697.485	-176.695	-0.275	0.007
-696.470	136.113	0.277	0.360
-695.456	-160.719	-0.293	0.015
-694.441	499.478	0.045	0.104
-693.426	25.891	-0.292	-0.242
-692.412	800.000	0.095	-0.293
-691.397	800.000	0.112	0.413
-690.383	-200.000	-0.049	-0.217
-689.368	433.121	-0.084	0.182
-688.354	-86.054	0.179	0.055
-687.339	-107.713	-0.173	-0.038
-686.324	-200.000	-0.010	0.167
-685.310	74.010	-0.254	-0.266
-684.295	-140.529	-0.337	-0.035
-683.281	329.264	0.059	0.112
-682.266	800.000	-0.063	-0.239
-681.251	800.000	-0.065	-0.274
-680.237	-45.771	0.048	0.023
-679.222	151.966	-0.121	0.164
-678.208	800.000	0.043	-0.179
-677.193	-176.960	-0.279	0.007
-676.178	370.904	0.117	0.236
-675.164	-113.342	-0.200	-0.039
-674.149	-166.059	-0.343	-0.015
-673.135	-103.447	0.319	-0.075
-672.120	182.632	-0.042	-0.062
-671.105	-98.134	-0.197	-0.050
-670.091	-200.000	0.155	-0.001
-669.076	-141.820	0.061	-0.006
-668.062	115.746	0.094	-0.114
-667.047	-109.797	-0.233	-0.049
-666.032	46.146	-0.152	0.140
-665.018	548.397	0.199	0.474
-664.003	800.000	0.051	0.168
-662.989	-200.000	-0.065	0.539
-661.974	800.000	0.045	-0.130
-660.959	-49.817	0.183	-0.087
-659.945	206.842	-0.178	-0.275
-658.930	-118.977	0.198	0.034
-657.916	-2.265	-0.059	0.041
-656.901	147.311	0.057	-0.076
-655.886	-77.998	-0.276	-0.095
-654.872	-51.080	-0.171	0.080
-653.857	800.000	0.102	0.305
-652.843	440.415	0.093	-0.203
-651.828	546.886	-0.081	-0.192
-650.814	147.281	-0.235	-0.314
-649.799	152.054	0.135	0.183
-648.784	-200.000	-0.030	0.150
-647.770	86.864	-0.075	0.082
-646.755	16.585	0.444	-0.349
-645.741	190.583	-0.148	-0.221
-644.726	4.839	0.459	-0.335
-643.711	-14.893	-0.094	0.060
-642.697	250.309	0.048	0.081
-641.682	385.107	0.100	0.204
-640.668	-121.296	0.099	0.016
-639.653	169.386	-0.007	-0.010
-638.638	-200.000	-0.005	-0.220
-637.624	120.793	-0.208	-0.257
-636.609	148.516	-0.094	0.127
-635.595	-57.668	-0.201	0.087
-634.580	-134.927	-0.192	-0.023
-633.565	-1.027	-0.250	0.175
-632.551	-189.170	0.123	-0.001
-631.536	-122.554	-0.075	-0.012
-630.522	24.325	0.165	-0.135
-629.507	-126.793	-0.238	0.035
-628.492	9.639	0.098	-0.073
-627.478	-200.000	-0.027	-0.191
-626.463	163.267	0.031	-0.043
-625.449	-200.000	0.050	-0.264
-624.434	272.371	0.061	0.107
-623.419	-121.839	-0.140	0.023
-622.405	-200.000	0.036	-0.203
-621.390	120.988	-0.081	0.101
-620.376	800.000	-0.062	-0.260
-619.361	293.047	-0.112	-0.202
-618.346	65.644	-0.161	0.162
-617.332	-200.000	-0.057	0.331
-616.317	-72.175	-0.258	0.095
-615.303	-109.099	0.412	-0.087
-614.288	-200.000	-0.067	0.367
-613.273	17.575	-0.119	0.094
-612.259	800.000	-0.017	-0.066
-611.244	73.443	-0.127	-0.132
-610.230	-64.412	0.300	0.121
-609.215	-65.607	0.133	0.053
-608.201	-23.592	-0.152	0.090
-607.186	528.503	0.026	-0.060
-606.171	447.211	-0.088	-0.192
-605.157	-200.000	0.008	-0.353
-604.142	800.000	-0.085	-0.252
-603.128	132.982	-0.140	0.179
-602.113	-129.482	0.197	-0.027
-601.098	-200.000	0.004	0.018
-600.084	77.477	-0.133	0.140
-599.069	55.318	0.244	-0.234
-598.055	-27.017	0.336	-0.195
-597.040	-116.600	0.378	0.069
-596.025	-87.639	0.269	0.081
-595.011	111.854	0.039	-0.046
-593.996	-200.000	-0.002	-0.192
-592.982	-178.779	0.111	-0.003
-591.967	485.728	0.124	-0.280
-590.952	491.412	-0.113	-0.257
-589.938	45.226	0.123	0.113
-588.923	138.921	-0.103	0.135
-587.909	18.465	0.184	-0.146
-586.894	-199.513	0.146	0.001
-585.879	-92.437	-0.264	0.073
-584.865	-200.000	0.000	0.079
-583.850	-5.427	0.086	-0.059
-582.836	88.754	-0.222	-0.245
-581.821	-81.809	0.053	0.017
-580.806	-200.000	0.007	-0.046
-579.792	-112.677	-0.351	-0.069
-578.777	82.543	-0.217	-0.234
-577.763	23.375	0.164	0.134
-576.748	-200.000	0.001	-0.261
-575.733	352.376	0.044	-0.087
-574.719	-110.088	0.116	-0.024
-573.704	-164.941	0.556	-0.025
-572.690	-42.934	-0.105	0.053
-571.675	23.844	-0.208	0.170
-570.661	800.000	-0.057	0.205
-569.646	160.025	-0.189	0.260
-568.631	-49.511	0.170	-0.080
-567.617	-200.000	0.024	0.146
-566.602	225.311	0.084	-0.135
-565.588	59.013	0.170	-0.166
-564.573	800.000	0.005	-0.017
-563.558	780.410	-0.111	-0.300
-562.544	167.247	0.248	0.349
-561.529	-123.483	0.364	0.057
-560.515	495.332	-0.107	-0.244
-559.500	-153.285	0.292	0.020
-558.485	27.737	-0.480	-0.400
-557.471	548.272	-0.006	0.013
-556.456	465.022	0.193	0.426
-555.442	-151.544	0.326	0.024
-554.427	206.032	0.196	0.302
-553.412	188.154	-0.097	0.143
-552.398	469.591	-0.060	0.132
-551.383	114.594	0.133	0.160
-550.369	-122.473	-0.239	0.038
-549.354	185.189	0.192	0.282
-548.339	732.185	-0.021	0.054
-547.325	800.000	0.009	0.029
-546.310	800.000	-0.055	-0.216
-545.296	172.955	-0.181	0.258
-544.281	-200.000	0.028	0.262
-543.266	800.000	-0.058	0.177
-542.252	7.542	0.216	0.160
-541.237	-84.400	-0.315	0.098
-540.223	334.355	-0.091	0.175
-539.208	338.565	0.040	-0.077
-538.193	-200.000	0.045	-0.328
-537.179	-54.629	-0.234	-0.105
-536.164	-200.000	-0.036	-0.184
-535.150	-54.342	-0.242	0.108
-534.135	-102.296	-0.177	-0.042
-533.121	137.161	-0.102	-0.132
-532.106	-18.222	0.158	-0.098
-531.091	-115.043	-0.199	0.037
-530.077	-32.396	-0.162	-0.089
-529.062	-200.000	-0.005	0.137
-528.048	409.604	0.124	-0.260
-527.033	-21.821	-0.282	-0.170
-526.018	528.880	-0.053	-0.123
-525.004	800.000	-0.081	-0.302
-523.989	62.663	-0.179	-0.177
-522.975	-200.000	-0.062	-0.568
-521.960	-33.079	-0.137	0.075
-520.945	-51.975	0.285	0.131
-519.931	800.000	0.098	-0.283
-518.916	755.416	0.065	-0.174
-517.902	800.000	0.097	-0.317
-516.887	289.280	0.137	-0.245
-515.872	-200.000	-0.039	0.276
-514.858	800.000	-0.104	-0.316
-513.843	97.980	-0.138	0.157
-512.829	247.606	-0.082	0.137
-511.814	756.751	0.093	0.248
-510.799	-15.294	-0.154	-0.097
-509.785	68.128	-0.076	0.077
-508.770	-200.000	-0.035	0.243
-507.756	-130.669	0.230	0.031
-506.741	-200.000	-0.012	0.083
-505.726	-200.000	0.017	0.252
-504.712	85.628	0.078	-0.085
-503.697	-76.359	-0.325	0.113
-502.683	151.244	-0.016	0.021
-501.668	-56.895	0.278	0.121
-500.653	-200.000	-0.065	-0.358
-499.639	258.451	-0.164	-0.278
-498.624	275.077	0.175	-0.306
-497.610	-35.705	-0.328	0.176
-496.595	115.427	-0.041	-0.049
-495.581	-41.725	-0.180	-0.091
-494.566	76.407	-0.351	-0.367
-493.551	-200.000	-0.006	-0.378
-492.537	-200.000	-0.016	-0.234
-491.522	-116.739	0.523	0.095
-490.508	-162.966	-0.167	-0.008
-489.493	800.000	0.057	0.240
-488.478	-61.887	-0.269	-0.111
-487.464	800.000	0.020	-0.072
-486.449	-112.690	0.285	-0.056
-485.435	40.016	-0.081	0.072
-484.420	-25.914	0.246	0.143
-483.405	193.032	0.086	-0.129
-482.391	-10.336	-0.249	-0.163
-481.376	-59.241	-0.321	0.137
-480.362	530.561	0.120	0.280
-479.347	79.781	-0.310	-0.328
-478.332	92.694	0.144	0.160
-477.318	389.217	0.077	0.158
-476.303	-107.221	-0.624	0.136
-475.289	-45.722	-0.224	0.109
-474.274	192.269	-0.219	0.326
-473.259	-0.222	0.186	-0.131
-472.245	-200.000	-0.013	0.332
-471.230	40.549	0.211	0.187
-470.216	8.886	0.287	0.214
-469.201	-1.800	-0.203	0.141
-468.186	69.332	0.133	0.135
-467.172	-39.059	0.246	-0.128
-466.157	555.645	-0.176	-0.418
-465.143	56.471	-0.131	-0.126
-464.128	-200.000	0.000	-0.076
-463.113	-49.184	-0.228	-0.108
-462.099	-104.357	0.265	0.061
-461.084	304.352	0.087	0.159
-460.070	-132.819	-0.122	-0.015
-459.055	-123.223	0.200	-0.032
-458.040	800.000	0.020	0.062
-457.026	800.000	0.091	0.288
-456.011	-74.371	-0.128	-0.046
-454.997	19.151	-0.146	0.116
-453.982	-200.000	0.008	-0.256
-452.968	800.000	-0.041	-0.170
-451.953	-65.246	-0.460	-0.183
-450.938	751.256	-0.043	0.115
-449.924	66.220	-0.182	-0.182
-448.909	508.106	0.029	0.066
-447.895	-200.000	-0.406	-0.000
-446.880	282.547	0.026	0.047
-445.865	800.000	0.069	-0.190
-444.851	52.382	0.138	-0.130
-443.836	800.000	-0.090	0.334
-442.822	-117.806	-0.106	-0.019
-441.807	-200.000	-0.004	-0.028
-440.792	197.548	0.070	-0.105
-439.778	-194.594	-0.460	0.004
-438.763	-200.000	0.027	0.157
-437.749	299.475	-0.085	0.155
-436.734	187.306	0.076	0.112
-435.719	-51.509	0.277	-0.127
-434.705	-150.551	0.191	0.014
-433.690	-200.000	0.007	-0.085
-432.676	15.997	-0.210	-0.163
-431.661	-200.000	0.057	-0.292
-430.646	-92.345	0.433	0.120
-429.632	-92.344	-0.248	0.069
-428.617	88.771	0.238	0.260
-427.603	-16.383	-0.082	-0.051
-426.588	440.881	0.100	-0.216
-425.573	-120.945	-0.359	0.059
-424.559	-200.000	-0.057	0.245
-423.544	11.268	0.160	-0.120
-422.530	-44.182	-0.151	-0.074
-421.515	293.457	-0.180	-0.323
-420.500	-45.181	0.094	-0.046
-419.486	41.383	-0.115	-0.103
-418.471	396.219	0.110	0.226
-417.457	-37.226	0.182	-0.096
-416.442	-55.623	-0.344	-0.151
-415.428	-200.000	0.001	0.170
-414.413	267.649	-0.200	-0.344
-413.398	204.473	-0.146	-0.222
-412.384	800.000	0.054	0.172
-411.369	-200.000	0.024	0.205
-410.355	-107.502	-0.358	-0.077
-409.340	116.208	0.136	-0.164
-408.325	424.681	0.014	0.029
-407.311	-200.000	0.024	-0.122
-406.296	-200.000	-0.034	-0.196
-405.282	-200.000	-0.001	0.209
-404.267	114.975	0.234	-0.281
-403.252	-93.124	0.039	-0.011
-402.238	-138.601	-0.337	0.036
-401.223	256.162	-0.120	-0.202
-400.209	-200.000	-0.006	0.101
-399.194	-200.000	0.009	0.041
-398.179	-146.382	0.238	0.020
-397.165	-53.795	-0.175	-0.079
-396.150	75.208	0.038	0.039
-395.136	126.105	-0.264	0.328
-394.121	-142.879	0.205	0.020
-393.106	16.742	-0.274	-0.213
-392.092	95.371	-0.230	-0.258
-391.077	62.863	0.310	0.305
-390.063	9.761	-0.185	0.138
-389.048	149.519	-0.164	0.218
-388.033	-130.692	0.331	0.044
-387.019	13.063	-0.164	0.124
-386.004	-200.000	-0.030	-0.186
-384.990	-41.349	0.063	0.032
-383.975	-133.288	0.256	0.032
-382.960	-200.000	0.341	-0.001
-381.946	-43.327	-0.240	-0.120
-380.931	-200.000	-0.025	0.220
-379.917	124.779	-0.226	0.280
-378.902	-62.551	0.129	-0.052
-377.888	83.857	-0.228	-0.245
-376.873	226.909	0.237	-0.379
-375.858	-11.239	0.174	-0.112
-374.844	83.627	-0.293	0.314
-373.829	35.229	0.262	0.225
-372.815	800.000	0.036	-0.106
-371.800	-162.869	-0.521	-0.025
-370.785	-59.873	-0.057	-0.024
-369.771	140.061	0.060	0.078
-368.756	-200.000	0.058	0.324
-367.742	-200.000	0.003	-0.126
-366.727	-3.670	-0.175	-0.119
-365.712	94.953	0.218	0.244
-364.698	115.121	0.077	0.092
-363.683	684.929	-0.193	-0.495
-362.669	-200.000	0.003	-0.185
-361.654	476.728	0.014	-0.031
-360.639	155.011	0.139	0.188
-359.625	-71.937	-0.172	-0.063
-358.610	-200.000	0.016	0.334
-357.596	-147.719	-0.510	-0.042
-356.581	-200.000	-0.002	-0.164
-355.566	-200.000	-0.017	0.086
-354.552	653.091	0.028	0.070
-353.537	795.574	-0.058	0.156
-352.523	302.269	0.140	0.254
-351.508	-6.774	-0.118	0.079
-350.493	-200.000	0.013	0.182
-349.479	-174.627	-0.197	0.005
-348.464	681.083	-0.025	-0.064
-347.450	-25.669	0.091	-0.053
-346.435	-127.793	-0.143	0.020
-345.420	51.263	0.101	-0.094
-344.406	-157.332	0.584	0.035
-343.391	-200.000	0.027	-0.176
-342.377	-68.059	-0.229	-0.088
-341.362	-200.000	-0.015	0.143
-340.348	215.160	0.023	-0.036
-339.333	144.202	0.046	0.061
-338.318	-41.877	0.109	0.055
-337.304	46.970	-0.062	-0.056
-336.289	-60.956	0.395	0.164
-335.275	-136.248	0.250	0.029
-334.260	-163.486	-0.413	-0.019
-333.245	-152.745	0.300	0.021
-332.231	800.000	0.048	-0.161
-331.216	392.455	0.029	0.059
-330.202	215.301	0.115	-0.178
-329.187	25.510	-0.058	-0.048
-328.172	53.750	-0.317	-0.298
-327.158	-125.534	0.178	-0.027
-326.143	800.000	0.078	-0.295
-325.129	204.783	-0.139	0.211
-324.114	197.246	0.049	0.073
-323.099	26.527	-0.101	-0.083
-322.085	-89.137	-0.186	0.054
-321.070	109.051	0.015	0.018
-320.056	800.000	0.029	-0.108
-319.041	153.609	-0.197	-0.264
-318.026	-154.817	0.277	0.018
-317.012	800.000	-0.042	-0.147
-315.997	800.000	0.133	0.413
-314.983	-70.772	0.291	-0.108
-313.968	-43.344	0.113	0.056
-312.953	800.000	-0.034	0.105
-311.939	-34.978	-0.230	-0.123
-310.924	-133.904	0.135	-0.016
-309.910	48.514	-0.159	0.146
-308.895	-13.636	-0.246	-0.156
-307.880	-121.532	0.182	0.030
-306.866	-200.000	-0.009	0.143
-305.851	-113.606	-0.028	-0.005
-304.837	53.868	0.207	-0.195
-303.822	125.018	-0.130	0.160
-302.807	208.081	-0.142	0.217
-301.793	-6.462	0.152	0.101
-300.778	-131.814	-0.271	0.035
-299.764	178.969	-0.081	0.116
-298.749	-63.683	0.017	0.007
-297.735	160.299	0.168	0.230
-296.720	-200.000	0.033	-0.308
-295.705	-200.000	-0.031	0.204
-294.691	-83.372	0.149	-0.047
-293.676	15.578	0.072	0.055
-292.662	-31.328	0.172	-0.095
-291.647	-123.374	-0.208	0.033
-290.632	800.000	0.093	0.304
-289.618	-2.975	0.175	-0.120
-288.603	311.650	-0.138	0.253
-287.589	-4.232	-0.028	0.019
-286.574	-200.000	-0.011	0.505
-285.559	800.000	0.089	0.346
-284.545	-138.131	0.181	-0.020
-283.530	-200.000	0.163	-0.000
-282.516	-149.504	0.178	-0.014
-281.501	800.000	0.050	-0.142
-280.486	-89.831	0.189	-0.054
-279.472	158.670	-0.081	0.109
-278.457	232.493	0.286	0.460
-277.443	-200.000	0.019	0.090
-276.428	-85.106	0.212	0.065
-275.413	-122.351	0.099	-0.016
-274.399	45.860	0.353	-0.320
-273.384	-136.405	-0.257	0.029
-272.370	-200.000	-0.029	0.164
-271.355	-101.861	0.234	0.055
-270.340	452.456	-0.063	0.136
-269.326	300.028	-0.085	0.154
-268.311	484.869	0.085	0.190
-267.297	-188.832	0.147	-0.002
-266.282	10.299	0.136	-0.101
-265.267	-117.150	-0.430	0.077
-264.253	-108.668	0.158	0.033
-263.238	-200.000	0.004	-0.042
-262.224	-105.651	-0.327	-0.072
-261.209	-100.629	0.324	0.078
-260.195	-200.000	-0.038	-0.279
-259.180	581.150	-0.084	0.201
-258.165	-200.000	0.002	-0.107
-257.151	-21.912	0.220	0.131
-256.136	-106.672	0.104	0.023
-255.122	-200.000	-0.032	-0.161
-254.107	-176.556	0.295	0.007
-253.092	91.626	-0.187	0.205
-252.078	-9.503	0.094	0.061
-251.063	260.905	0.037	-0.062
-250.049	406.161	-0.106	0.218
-249.034	800.000	0.040	0.154
-248.019	560.372	-0.020	0.048
-247.005	151.637	-0.254	-0.339
-245.990	-200.000	0.005	0.031
-244.976	-67.729	0.264	0.101
-243.961	166.663	-0.016	-0.023
-242.946	50.025	0.086	0.079
-241.932	55.700	-0.080	-0.075
-240.917	1.748	0.188	0.133
-239.903	-53.998	-0.124	0.055
-238.888	19.706	-0.199	0.157
-237.873	-200.000	-0.081	0.382
-236.859	-73.571	0.149	-0.053
-235.844	-100.351	-0.377	-0.091
-234.830	165.037	0.101	-0.139
-233.815	236.558	0.131	0.213
-232.800	-200.000	-0.005	0.269
-231.786	340.362	0.080	-0.153
-230.771	-35.739	-0.072	-0.038
-229.757	258.091	-0.089	-0.151
-228.742	-38.979	0.050	-0.026
-227.727	89.956	-0.163	0.178
-226.713	-122.625	0.054	-0.009
-225.698	-136.959	0.169	-0.019
-224.684	210.066	-0.035	-0.054
-223.669	-88.222	0.289	0.084
-222.655	-200.000	0.006	0.253
-221.640	50.624	0.080	-0.074
-220.625	171.773	0.077	-0.107
-219.611	-144.980	0.198	-0.018
-218.596	-119.792	0.273	0.046
-217.582	-40.688	0.102	0.052
-216.567	-200.000	0.014	0.351
-215.552	-51.935	-0.252	0.114
-214.538	-73.101	0.029	-0.010
-213.523	423.467	0.063	-0.132
-212.509	-38.035	-0.070	0.036
-211.494	-122.812	0.386	0.061
-210.479	67.366	0.199	-0.198
-209.465	112.410	0.138	-0.163
-208.450	-200.000	-0.018	-0.281
-207.436	-137.696	-0.068	0.007
-206.421	186.425	-0.198	0.287
-205.406	-10.828	-0.208	-0.134
-204.392	-46.056	0.196	-0.094
-203.377	69.601	-0.266	0.268
-202.363	-117.809	-0.341	0.060
-201.348	-90.838	-0.156	0.044
-200.333	-54.221	0.092	-0.041
-199.319	-60.034	0.187	0.078
-198.304	10.841	0.209	0.155
-197.290	70.059	-0.265	0.267
-196.275	152.478	0.180	0.240
-195.260	-191.198	0.149	0.001
-194.246	99.925	0.110	-0.124
-193.231	-200.000	-0.043	-0.278
-192.217	-5.377	-0.430	-0.288
-191.202	67.356	0.051	0.051
-190.187	217.122	-0.096	0.149
-189.173	-83.625	0.254	-0.079
-188.158	-71.414	-0.368	0.134
-187.144	136.220	0.156	-0.199
-186.129	-104.183	0.228	-0.052
-185.114	669.470	-0.067	-0.170
-184.100	-66.652	-0.123	-0.048
-183.085	800.000	0.070	0.233
-182.071	-200.000	0.004	-0.095
-181.056	-200.000	-0.031	-0.231
-180.042	159.276	0.228	-0.309
-179.027	-30.687	0.193	-0.107
-178.012	-200.000	0.006	-0.092
-176.998	-64.872	-0.170	-0.067
-175.983	198.074	0.104	0.155
-174.969	188.249	0.109	0.159
-173.954	38.746	0.188	-0.163
-172.939	63.805	0.323	0.316
-171.925	-160.341	0.093	-0.005
-170.910	98.609	0.056	-0.063
-169.896	-79.318	0.442	-0.146
-168.881	-48.850	0.136	-0.064
-167.866	-142.670	0.140	-0.013
-166.852	-69.732	0.300	-0.112
-165.837	800.000	-0.061	-0.185
-164.823	-200.000	0.011	0.271
-163.808	423.955	-0.086	0.179
-162.793	231.914	-0.069	0.110
-161.779	696.945	-0.026	-0.068
-160.764	-200.000	0.018	-0.210
-159.750	800.000	-0.048	0.197
-158.735	-115.916	-0.332	0.060
-157.720	156.233	-0.098	-0.131
-156.706	455.353	-0.094	-0.203
-155.691	8.052	-0.256	0.187
-154.677	-200.000	-0.047	0.295
-153.662	-97.021	-0.093	0.024
-152.647	-139.381	-0.197	-0.021
-151.633	18.230	-0.266	-0.207
-150.618	-109.573	0.134	0.027
-149.604	-47.883	-0.109	0.051
-148.589	-98.899	0.192	0.047
-147.574	-9.559	-0.433	0.281
-146.560	-124.696	-0.109	0.016
-145.545	-49.046	-0.378	0.176
-144.531	-55.686	-0.188	-0.082
-143.516	-134.412	0.093	-0.011
-142.502	-74.733	-0.178	-0.062
-141.487	-38.693	0.114	0.059
-140.472	-70.376	0.024	-0.009
-139.458	-200.000	-0.039	0.243
-138.443	-129.658	-0.042	0.006
-137.429	-200.000	-0.078	-0.351
-136.414	-200.000	0.009	-0.212
-135.399	40.100	0.286	-0.250
-134.385	-12.574	0.115	-0.073
-133.370	-200.000	0.027	-0.171
-132.356	-164.391	-0.163	0.007
-131.341	45.753	-0.166	-0.149
-130.326	-200.000	0.004	0.389
-129.312	-53.803	-0.065	-0.029
-128.297	348.790	0.101	0.193
-127.283	588.016	0.077	0.184
-126.268	288.763	-0.122	0.215
-125.253	-181.555	0.320	-0.006
-124.239	-154.110	0.222	-0.015
-123.224	-60.898	0.219	-0.090
-122.210	-4.550	-0.223	-0.150
