DTS Sentinel unit serial number:	SN413079Multiplexer serial number:	ORYXHardware model number:	OX4-SRSoftware version number:	ORYX F/W v4.00 Oryx Data Collector v3.7.2.0data status	okinstallation	princeton_trtdifferential loss correction	single-endedforward channel	channel 2reverse channel	N/Adate	2019/09/13time	13:31:35forward acquisition time	60.00reverse acquisition time	0.00gamma	496.2192k internal	0.2315k external	0.2315temperature offset calibration	1.0209default loss term (dB/km)	0.3790temperature slope calibration	1.0000multiplexer offset coefficient	1.0000multiplexer slope coefficient	1.0000fibre end	0.00T internal ref (°C)	35.02T ext. ref 1 (°C)	4.57T ext. ref 2 (°C)	30.99length (m)	temperature (°C)	Stokes	anti-Stokes-747.200	779.561	-0.114	0.317
-746.185	235.952	0.071	0.119
-745.171	237.306	0.089	0.150
-744.156	77.565	-0.277	0.298
-743.142	378.196	0.231	0.479
-742.127	136.458	0.036	-0.048
-741.112	-92.966	-0.246	-0.069
-740.098	91.267	-0.247	0.281
-739.083	-200.000	-0.025	-0.281
-738.069	800.000	-0.085	0.353
-737.054	86.358	-0.251	-0.280
-736.039	-132.323	-0.508	0.066
-735.025	-200.000	0.081	0.510
-734.010	-200.000	0.028	0.161
-732.996	-159.585	0.213	-0.012
-731.981	31.341	-0.217	0.189
-730.966	-17.494	-0.188	0.120
-729.952	-60.217	-0.095	-0.041
-728.937	-42.019	-0.159	0.082
-727.923	40.837	-0.415	-0.380
-726.908	-200.000	-0.002	-0.011
-725.894	-200.000	-0.052	-0.454
-724.879	144.573	-0.091	-0.124
-723.864	62.750	0.093	-0.094
-722.850	349.518	-0.079	0.158
-721.835	-120.292	-0.204	0.035
-720.821	111.678	-0.156	-0.191
-719.806	800.000	-0.023	-0.065
-718.791	800.000	0.139	-0.433
-717.777	-200.000	-0.008	0.051
-716.762	346.181	0.062	-0.124
-715.748	-92.158	-0.155	0.044
-714.733	-200.000	-0.004	0.159
-713.718	-200.000	0.040	0.377
-712.704	485.015	0.132	-0.305
-711.689	-90.337	-0.264	0.077
-710.675	383.352	-0.072	0.149
-709.660	187.964	0.193	0.291
-708.645	800.000	0.072	-0.245
-707.631	-131.332	0.188	0.025
-706.616	-127.903	0.221	-0.032
-705.602	-113.122	0.133	-0.027
-704.587	-94.762	0.151	-0.041
-703.572	800.000	0.082	0.271
-702.558	800.000	0.090	0.303
-701.543	-144.148	0.222	0.021
-700.529	732.071	0.067	0.180
-699.514	54.825	-0.135	-0.132
-698.499	77.588	0.156	0.168
-697.485	-112.927	0.263	0.053
-696.470	7.280	-0.258	-0.195
-695.456	-200.000	-0.036	-0.246
-694.441	-167.590	-0.508	-0.020
-693.426	284.022	-0.187	-0.340
-692.412	135.508	0.170	-0.223
-691.397	-200.000	0.058	-0.269
-690.383	394.361	0.046	-0.097
-689.368	-200.000	0.011	-0.088
-688.354	-106.058	-0.302	0.069
-687.339	431.224	-0.123	-0.269
-686.324	-200.000	0.027	-0.156
-685.310	-176.217	0.282	-0.007
-684.295	-162.604	0.163	-0.008
-683.281	465.188	0.097	-0.219
-682.266	-124.957	-0.473	0.074
-681.251	-126.186	0.119	0.018
-680.237	33.578	-0.330	-0.290
-679.222	-33.703	-0.207	-0.116
-678.208	133.665	-0.119	-0.156
-677.193	-26.562	-0.276	-0.163
-676.178	126.441	-0.149	-0.191
-675.164	-72.266	-0.120	-0.045
-674.149	-3.328	0.089	-0.062
-673.135	136.534	-0.072	-0.095
-672.120	16.051	-0.290	0.231
-671.105	-115.550	0.088	0.017
-670.091	52.889	0.253	0.245
-669.076	-200.000	0.020	-0.241
-668.062	514.745	0.026	0.061
-667.047	-135.586	-0.113	0.014
-666.032	378.482	-0.139	0.287
-665.018	800.000	-0.103	-0.320
-664.003	84.524	-0.123	0.136
-662.989	-40.924	-0.148	0.077
-661.974	800.000	-0.016	-0.055
-660.959	-92.381	0.304	0.086
-659.945	500.749	-0.043	0.100
-658.930	158.995	0.077	0.108
-657.916	-37.225	0.248	0.134
-656.901	800.000	-0.099	-0.282
-655.886	524.203	-0.094	-0.222
-654.872	-8.448	0.246	0.167
-653.857	95.113	0.056	-0.064
-652.843	-108.930	-0.156	0.034
-651.828	-84.852	-0.219	-0.069
-650.814	-40.212	-0.100	0.053
-649.799	263.281	0.072	0.127
-648.784	-200.000	-0.012	0.186
-647.770	-149.242	0.157	0.013
-646.755	-50.988	-0.177	-0.084
-645.741	-104.260	-0.274	0.064
-644.726	-24.794	-0.146	-0.087
-643.711	-17.561	0.156	0.099
-642.697	134.007	-0.144	-0.188
-641.682	-129.104	0.221	0.031
-640.668	-46.578	0.187	0.092
-639.653	-13.254	0.394	-0.258
-638.638	303.947	0.075	-0.141
-637.624	-56.098	-0.262	-0.118
-636.609	800.000	0.064	-0.235
-635.595	-115.596	-0.107	0.020
-634.580	800.000	-0.067	0.188
-633.565	-89.956	-0.484	0.143
-632.551	800.000	-0.048	-0.162
-631.536	-200.000	-0.015	0.254
-630.522	-200.000	0.024	-0.186
-629.507	-200.000	-0.005	-0.244
-628.492	142.225	0.086	0.115
-627.478	-51.094	0.239	-0.113
-626.463	58.513	0.120	-0.118
-625.449	-104.055	0.154	0.036
-624.434	370.920	0.100	-0.205
-623.419	-38.660	-0.150	-0.080
-622.405	-200.000	0.008	-0.220
-621.390	-200.000	0.017	0.085
-620.376	-147.868	-0.412	0.035
-619.361	136.058	0.220	0.289
-618.346	-186.700	-0.342	0.005
-617.332	800.000	0.046	0.201
-616.317	2.957	0.234	-0.171
-615.303	338.953	-0.010	-0.020
-614.288	12.236	-0.240	-0.186
-613.273	47.298	-0.118	0.111
-612.259	154.386	-0.144	-0.200
-611.244	117.804	-0.145	-0.179
-610.230	43.283	-0.137	0.126
-609.215	-38.765	-0.065	0.034
-608.201	54.650	0.200	0.194
-607.186	-200.000	0.054	-0.309
-606.171	-23.985	0.093	0.056
-605.157	-88.940	-0.324	0.097
-604.142	-17.803	-0.202	0.128
-603.128	-79.820	0.139	0.047
-602.113	75.840	0.166	-0.177
-601.098	-101.242	-0.193	-0.047
-600.084	-112.311	-0.234	0.047
-599.069	69.812	-0.067	0.069
-598.055	-200.000	0.040	-0.249
-597.040	-121.881	0.476	-0.079
-596.025	800.000	-0.032	-0.103
-595.011	-30.710	-0.544	0.310
-593.996	97.989	0.121	0.140
-592.982	5.373	0.194	0.144
-591.967	800.000	0.057	0.227
-590.952	186.084	0.068	0.102
-589.938	-200.000	-0.006	-0.094
-588.923	-200.000	-0.018	0.378
-587.909	148.821	0.124	-0.168
-586.894	37.707	0.171	-0.153
-585.879	494.958	-0.084	-0.194
-584.865	-114.326	0.384	-0.074
-583.850	645.259	0.059	-0.152
-582.836	-60.420	-0.132	-0.057
-581.821	-96.751	0.342	-0.091
-580.806	-200.000	-0.013	0.073
-579.792	-200.000	-0.008	-0.602
-578.777	800.000	-0.126	-0.475
-577.763	-82.285	-0.317	-0.104
-576.748	108.148	0.135	0.162
-575.733	800.000	-0.062	-0.174
-574.719	-108.944	0.269	0.058
-573.704	14.307	-0.141	0.111
-572.690	800.000	0.026	-0.078
-571.675	-55.886	0.175	-0.079
-570.661	-200.000	0.023	-0.282
-569.646	-200.000	0.053	-0.287
-568.631	-200.000	0.014	0.135
-567.617	63.018	-0.162	-0.163
-566.602	-89.369	-0.281	0.083
-565.588	-131.999	0.305	0.040
-564.573	79.023	0.196	-0.211
-563.558	541.579	-0.100	-0.239
-562.544	245.401	-0.093	0.158
-561.529	-143.460	0.333	0.032
-560.515	-200.000	0.023	-0.206
-559.500	118.265	-0.234	-0.290
-558.485	-151.193	0.330	-0.025
-557.471	81.492	0.208	0.227
-556.456	-32.344	-0.222	0.125
-555.442	96.313	0.258	-0.297
-554.427	-60.634	-0.065	0.028
-553.412	18.877	-0.090	0.073
-552.398	-200.000	-0.030	-0.216
-551.383	8.550	0.163	0.123
-550.369	-71.171	0.153	-0.058
-549.354	-11.840	-0.110	0.073
-548.339	-152.092	-0.087	-0.006
-547.325	565.317	-0.100	0.244
-546.310	1.467	0.167	-0.120
-545.296	662.576	-0.074	-0.193
-544.281	94.479	0.131	0.150
-543.266	-92.595	0.223	-0.063
-542.252	78.574	0.101	0.109
-541.237	-152.905	0.219	0.016
-540.223	-200.000	-0.014	-0.109
-539.208	672.824	-0.062	-0.162
-538.193	-56.524	0.053	0.024
-537.179	-91.163	0.114	0.033
-536.164	130.860	0.067	-0.086
-535.150	-120.428	-0.116	-0.020
-534.135	251.284	-0.257	0.440
-533.121	11.013	0.088	-0.068
-532.106	65.621	-0.192	-0.196
-531.091	362.891	0.018	0.036
-530.077	24.636	-0.116	-0.097
-529.062	63.127	-0.153	0.154
-528.048	-165.811	0.207	0.009
-527.033	-106.356	-0.117	-0.026
-526.018	672.583	-0.120	-0.313
-525.004	359.852	0.147	0.295
-523.989	73.247	0.179	-0.188
-522.975	46.093	-0.277	0.258
-521.960	85.516	0.249	-0.274
-520.945	-66.938	0.216	-0.086
-519.931	-131.094	-0.147	0.020
-518.916	800.000	0.052	0.166
-517.902	323.250	0.107	-0.205
-516.887	49.798	-0.423	-0.400
-515.872	67.877	-0.176	-0.181
-514.858	-200.000	-0.038	-0.308
-513.843	-9.475	0.208	0.139
-512.829	800.000	0.043	-0.148
-511.814	153.919	0.058	-0.080
-510.799	-200.000	0.003	0.210
-509.785	800.000	-0.098	-0.367
-508.770	-60.681	0.298	0.127
-507.756	-48.715	-0.192	-0.092
-506.741	800.000	0.065	0.199
-505.726	37.983	-0.106	-0.095
-504.712	-191.986	0.111	-0.001
-503.697	609.166	-0.037	-0.093
-502.683	-29.281	0.125	-0.072
-501.668	800.000	0.055	0.213
-500.653	-200.000	-0.059	0.508
-499.639	-49.013	-0.346	0.166
-498.624	103.569	-0.162	0.190
-497.610	-37.624	-0.083	-0.044
-496.595	800.000	0.097	-0.396
-495.581	-62.009	-0.175	-0.073
-494.566	-57.632	-0.190	-0.084
-493.551	217.226	-0.105	0.168
-492.537	-48.786	0.144	-0.069
-491.522	800.000	0.070	0.263
-490.508	81.115	0.085	-0.093
-489.493	800.000	-0.118	-0.365
-488.478	-200.000	-0.034	-0.198
-487.464	-99.957	-0.278	-0.070
-486.449	-168.327	-0.425	0.016
-485.435	-28.765	0.117	0.067
-484.420	643.567	0.144	0.369
-483.405	800.000	-0.100	-0.375
-482.391	-23.076	-0.372	0.225
-481.376	-16.222	0.218	0.139
-480.362	-200.000	0.005	0.201
-479.347	72.890	-0.036	0.038
-478.332	-144.669	0.309	-0.029
-477.318	800.000	-0.067	-0.206
-476.303	26.953	0.120	0.101
-475.289	265.633	0.102	0.178
-474.274	17.477	0.179	0.142
-473.259	-92.350	-0.344	-0.097
-472.245	-200.000	-0.037	-0.164
-471.230	800.000	-0.018	-0.080
-470.216	85.050	0.076	-0.084
-469.201	221.337	0.111	0.179
-468.186	-152.843	0.093	-0.007
-467.172	-71.597	-0.268	0.100
-466.157	-59.000	0.197	-0.085
-465.143	165.755	-0.162	0.229
-464.128	571.874	0.146	0.356
-463.113	327.235	-0.139	0.267
-462.099	37.109	-0.136	-0.121
-461.084	152.389	-0.077	-0.106
-460.070	-200.000	0.016	-0.114
-459.055	-129.995	0.138	0.019
-458.040	55.702	-0.128	0.125
-457.026	-200.000	-0.027	0.203
-456.011	-13.593	-0.214	0.139
-454.997	680.879	-0.037	-0.097
-453.982	800.000	0.080	0.228
-452.968	580.214	-0.115	-0.283
-451.953	-200.000	0.021	0.235
-450.938	-132.487	-0.150	0.019
-449.924	-98.076	0.518	0.134
-448.909	198.289	-0.082	-0.126
-447.895	-46.841	0.168	-0.082
-446.880	-115.488	0.162	0.031
-445.865	640.564	0.036	0.092
-444.851	133.782	-0.146	0.190
-443.836	-200.000	0.015	0.079
-442.822	3.648	-0.038	-0.028
-441.807	249.717	-0.208	-0.353
-440.792	-20.650	0.098	-0.060
-439.778	-20.354	0.260	-0.160
-438.763	-200.000	0.023	-0.111
-437.749	24.693	0.361	-0.299
-436.734	206.774	-0.186	-0.290
-435.719	-175.251	0.117	0.003
-434.705	-60.556	0.332	-0.141
-433.690	-39.527	-0.309	-0.162
-432.676	93.913	0.116	0.132
-431.661	-108.514	-0.046	-0.010
-430.646	652.163	-0.058	0.148
-429.632	-8.969	-0.168	0.112
-428.617	-143.556	-0.071	-0.007
-427.603	-72.236	0.135	-0.050
-426.588	18.991	0.311	-0.249
-425.573	797.507	-0.137	-0.377
-424.559	267.445	-0.033	0.058
-423.544	-101.024	-0.209	-0.051
-422.530	23.964	-0.019	0.016
-421.515	-84.417	0.172	0.054
-420.500	127.872	-0.254	-0.323
-419.486	625.884	-0.012	-0.029
-418.471	-64.209	-0.177	0.072
-417.457	-83.599	-0.120	0.038
-416.442	-200.000	-0.054	0.415
-415.428	268.771	-0.070	0.123
-414.413	14.299	-0.136	-0.106
-413.398	382.350	0.104	0.213
-412.384	800.000	0.086	-0.280
-411.369	-200.000	0.011	0.103
-410.355	-200.000	-0.048	0.266
-409.340	800.000	0.056	-0.187
-408.325	412.629	0.019	-0.040
-407.311	-200.000	-0.034	-0.421
-406.296	-200.000	0.097	0.444
-405.282	70.892	-0.041	0.043
-404.267	32.002	0.082	0.071
-403.252	-82.133	-0.352	-0.115
-402.238	68.106	0.377	0.385
-401.223	-200.000	-0.040	-0.206
-400.209	-105.933	-0.421	0.095
-399.194	-200.000	-0.002	0.015
-398.179	-48.544	-0.153	0.073
-397.165	-80.062	0.089	-0.030
-396.150	-200.000	0.007	0.074
-395.136	-200.000	-0.071	0.339
-394.121	-200.000	0.035	0.632
-393.106	68.790	0.218	0.224
-392.092	-200.000	-0.057	-0.333
-391.077	-77.407	0.235	-0.082
-390.063	-136.777	0.437	0.050
-389.048	-200.000	-0.002	-0.311
-388.033	-11.417	-0.148	-0.097
-387.019	36.753	-0.097	-0.086
-386.004	513.962	0.108	0.251
-384.990	-110.361	-0.126	0.026
-383.975	156.325	0.227	0.313
-382.960	7.623	0.094	-0.070
-381.946	76.790	-0.160	-0.170
-380.931	41.939	0.183	0.166
-379.917	-89.662	0.261	0.076
-378.902	37.163	-0.098	-0.087
-377.888	-67.814	-0.127	0.050
-376.873	-200.000	0.007	0.075
-375.858	-56.019	0.093	-0.042
-374.844	800.000	-0.089	-0.276
-373.829	434.271	-0.099	-0.215
-372.815	-116.301	-0.185	-0.034
-371.800	800.000	0.114	-0.342
-370.785	444.784	0.131	-0.287
-369.771	-77.409	-0.190	-0.066
-368.756	157.796	-0.082	0.114
-367.742	-200.000	0.034	0.229
-366.727	-200.000	0.007	0.274
-365.712	-200.000	-0.031	0.271
-364.698	-200.000	-0.026	0.248
-363.683	389.320	-0.073	-0.150
-362.669	800.000	-0.025	-0.073
-361.654	434.344	-0.088	0.190
-360.639	-36.703	-0.181	-0.097
-359.625	-48.039	0.102	0.049
-358.610	439.915	-0.031	0.067
-357.596	-137.703	-0.169	-0.019
-356.581	-11.708	-0.114	-0.074
-355.566	249.974	0.183	-0.310
-354.552	-200.000	0.013	-0.245
-353.537	-1.180	-0.147	0.104
-352.523	-140.997	0.235	0.024
-351.508	-123.345	-0.120	-0.019
-350.493	153.172	-0.162	0.222
-349.479	507.892	0.093	-0.216
-348.464	-200.000	0.001	0.098
-347.450	-200.000	-0.033	-0.233
-346.435	-126.617	-0.307	-0.045
-345.420	-200.000	0.002	0.179
-344.406	33.825	-0.118	0.103
-343.391	667.613	-0.075	-0.193
-342.377	44.164	-0.155	-0.141
-341.362	66.004	0.167	-0.169
-340.348	-200.000	-0.004	-0.243
-339.333	136.099	-0.274	-0.356
-338.318	-149.700	0.183	0.014
-337.304	-200.000	-0.017	0.257
-336.289	23.026	-0.071	-0.058
-335.275	-90.764	0.147	0.042
-334.260	-200.000	0.007	0.042
-333.245	-37.628	0.208	0.110
-332.231	-67.136	-0.022	-0.009
-331.216	83.410	0.135	-0.146
-330.202	-91.815	0.379	0.107
-329.187	-95.502	-0.337	-0.090
-328.172	69.826	-0.098	-0.101
-327.158	-0.821	-0.315	0.222
-326.143	-200.000	0.030	0.166
-325.129	800.000	-0.064	0.194
-324.114	93.028	0.193	-0.218
-323.099	665.596	0.053	0.137
-322.085	-110.924	-0.057	-0.012
-321.070	-200.000	0.000	0.048
-320.056	-46.902	0.301	0.146
-319.041	56.510	0.046	-0.045
-318.026	307.437	-0.097	-0.181
-317.012	-32.550	-0.261	-0.145
-315.997	-78.713	-0.275	0.093
-314.983	54.328	0.169	0.163
-313.968	-66.614	0.084	0.033
-312.953	748.230	0.084	0.225
-311.939	-49.774	0.204	0.097
-310.924	-147.522	0.208	-0.017
-309.910	-200.000	-0.004	0.028
-308.895	-32.495	0.247	-0.137
-307.880	53.195	-0.175	0.167
-306.866	270.994	-0.111	0.195
-305.851	-200.000	0.021	0.240
-304.837	78.808	0.082	-0.088
-303.822	-162.029	-0.187	-0.009
-302.807	-59.837	0.198	0.084
-301.793	-156.664	0.215	-0.013
-300.778	-74.459	0.125	-0.045
-299.764	-119.913	-0.314	0.054
-298.749	-21.037	0.311	0.189
-297.735	-29.904	0.164	-0.093
-296.720	-74.864	-0.341	-0.122
-295.705	738.819	-0.089	-0.238
-294.691	389.453	-0.063	0.130
-293.676	78.539	0.279	0.297
-292.662	-200.000	0.052	-0.363
-291.647	-18.137	-0.295	-0.184
-290.632	-152.066	0.043	-0.003
-289.618	52.928	0.092	0.088
-288.603	316.456	0.127	-0.240
-287.589	319.108	-0.259	0.488
-286.574	-98.125	0.106	0.027
-285.559	176.818	0.177	-0.256
-284.545	-105.343	-0.090	0.021
-283.530	72.322	-0.120	0.124
-282.516	-133.477	0.226	0.028
-281.501	-86.233	0.190	-0.058
-280.486	-53.278	-0.179	-0.082
-279.472	800.000	-0.066	0.227
-278.457	-30.347	-0.231	0.130
-277.443	442.597	0.176	-0.383
-276.428	146.833	-0.088	-0.118
-275.413	69.750	0.113	0.116
-274.399	192.466	0.106	-0.159
-273.384	213.027	0.086	0.136
-272.370	-9.540	-0.224	-0.148
-271.355	241.731	0.209	0.347
-270.340	122.698	-0.130	0.162
-269.326	-200.000	0.017	0.124
-268.311	-124.735	0.109	0.017
-267.297	-142.240	0.430	-0.042
-266.282	-73.625	-0.085	0.031
-265.267	-137.428	0.160	0.018
-264.253	800.000	0.055	0.186
-263.238	560.034	-0.103	0.248
-262.224	109.116	-0.172	-0.205
-261.209	86.950	0.280	0.307
-260.195	-9.324	0.194	-0.129
-259.180	-200.000	-0.009	-0.137
-258.165	-200.000	0.001	0.040
-257.151	800.000	-0.104	-0.354
-256.136	1.623	-0.045	-0.032
-255.122	800.000	-0.097	-0.292
-254.107	182.616	0.114	-0.167
-253.092	-61.874	0.192	0.080
-252.078	800.000	-0.012	0.043
-251.063	784.833	0.129	0.352
-250.049	-55.033	0.065	-0.029
-249.034	88.058	-0.160	-0.176
-248.019	610.253	0.077	-0.191
-247.005	743.949	0.033	-0.089
-245.990	-101.446	-0.430	-0.104
-244.976	-200.000	0.525	-0.000
-243.961	-6.853	0.060	-0.040
-242.946	-191.244	-0.135	-0.001
-241.932	-200.000	0.011	0.137
-240.917	-200.000	0.001	0.174
-239.903	-84.561	0.261	0.082
-238.888	-56.143	-0.296	-0.131
-237.873	-85.197	-0.190	-0.059
-236.859	-200.000	-0.002	0.308
-235.844	658.385	-0.036	0.093
-234.830	-28.448	0.086	0.049
-233.815	472.435	0.074	0.166
-232.800	-200.000	0.020	-0.098
-231.786	29.046	0.204	-0.172
-230.771	514.723	-0.200	-0.463
-229.757	-118.322	0.310	-0.055
-228.742	-121.923	-0.344	0.056
-227.727	-109.381	-0.238	-0.050
-226.713	-52.809	-0.316	0.145
-225.698	157.718	-0.084	-0.116
-224.684	191.818	-0.151	0.226
-223.669	-102.384	-0.031	0.007
-222.655	-200.000	0.022	0.264
-221.640	800.000	0.082	-0.277
-220.625	648.870	-0.057	0.145
-219.611	501.260	0.200	0.459
-218.596	679.297	-0.044	-0.114
-217.582	-94.398	0.151	0.041
-216.567	284.516	-0.067	0.119
-215.552	800.000	-0.018	0.076
-214.538	800.000	0.085	0.274
-213.523	-87.558	0.146	0.044
-212.509	-86.731	-0.380	-0.115
-211.494	-188.178	0.045	-0.001
-210.479	755.171	-0.042	-0.113
-209.465	-200.000	0.049	-0.242
-208.450	8.854	0.232	0.173
-207.436	-162.673	-0.196	0.010
-206.421	166.599	-0.115	0.162
-205.406	211.457	-0.080	0.125
-204.392	-200.000	-0.028	0.307
-203.377	-65.311	0.121	-0.049
-202.363	-32.879	-0.145	-0.080
-201.348	-108.370	0.120	0.026
-200.333	-88.969	0.160	0.047
-199.319	-127.692	0.111	0.016
-198.304	-200.000	0.081	-0.494
-197.290	244.918	0.155	0.259
-196.275	-117.245	0.167	-0.030
-195.260	800.000	0.021	0.073
-194.246	800.000	0.039	0.147
-193.231	-107.687	-0.201	0.044
-192.217	-200.000	-0.066	0.564
-191.202	106.483	0.168	0.197
-190.187	-3.087	-0.286	0.198
-189.173	-76.559	-0.213	-0.074
-188.158	-200.000	0.052	0.273
-187.144	63.271	0.103	0.102
-186.129	505.664	-0.031	-0.071
-185.114	-50.299	0.120	-0.056
-184.100	-200.000	-0.014	0.318
-183.085	176.710	-0.025	-0.035
-182.071	-68.001	-0.134	0.052
-181.056	19.438	0.067	-0.053
-180.042	-46.742	-0.132	-0.064
-179.027	-200.000	0.004	0.142
-178.012	-96.793	0.042	-0.011
-176.998	119.982	-0.103	0.126
-175.983	142.165	0.210	-0.276
-174.969	30.779	0.326	-0.277
-173.954	8.642	-0.221	0.165
-172.939	800.000	-0.084	-0.319
-171.925	-2.143	0.104	-0.072
-170.910	-196.837	0.246	-0.002
-169.896	-47.587	-0.308	-0.148
-168.881	-96.776	0.065	0.017
-167.866	152.251	0.091	-0.123
-166.852	52.032	-0.301	-0.284
-165.837	-4.436	0.112	-0.077
-164.823	-109.840	0.137	-0.028
-163.808	56.615	-0.142	-0.137
-162.793	23.621	0.232	0.189
-161.779	99.818	0.190	0.218
-160.764	-150.714	-0.384	0.029
-159.750	-3.373	0.114	-0.079
-158.735	-200.000	0.007	0.035
-157.720	399.091	-0.116	0.241
-156.706	-105.301	0.028	0.006
-155.691	800.000	0.088	0.342
-154.677	139.376	-0.191	0.248
-153.662	-143.698	-0.173	-0.016
-152.647	-200.000	0.022	0.356
-151.633	800.000	-0.016	0.062
-150.618	337.964	-0.124	-0.238
-149.604	-21.942	0.112	0.068
-148.589	99.708	0.153	0.175
-147.574	348.163	0.106	-0.206
-146.560	-143.033	-0.141	-0.013
-145.545	240.784	0.372	0.614
-144.531	165.356	-0.125	-0.175
-143.516	33.845	-0.355	0.306
-142.502	-132.510	-0.287	-0.036
-141.487	-75.380	-0.182	0.064
-140.472	-54.967	-0.351	-0.157
-139.458	-2.540	0.118	-0.082
-138.443	36.666	0.363	0.318
-137.429	219.572	0.129	0.204
-136.414	302.293	-0.021	-0.039
-135.399	-200.000	0.007	-0.036
-134.385	-200.000	0.002	-0.087
-133.370	-16.501	0.197	-0.124
-132.356	135.628	-0.110	-0.142
-131.341	159.423	-0.178	-0.245
-130.326	-200.000	0.003	-0.106
-129.312	16.421	0.143	0.112
-128.297	61.975	0.226	0.223
-127.283	590.123	-0.043	0.106
-126.268	-78.633	0.074	-0.025
-125.253	-90.568	0.267	0.077
-124.239	800.000	-0.068	0.199
-123.224	-3.109	0.294	0.203
-122.210	362.701	0.146	-0.289
-121.195	318.703	0.076	-0.142
