DTS Sentinel unit serial number:	SN413079Multiplexer serial number:	ORYXHardware model number:	OX4-SRSoftware version number:	ORYX F/W v4.00 Oryx Data Collector v3.7.2.0data status	okinstallation	princeton_trtdifferential loss correction	single-endedforward channel	channel 2reverse channel	N/Adate	2019/09/16time	21:39:35forward acquisition time	60.00reverse acquisition time	0.00gamma	496.2192k internal	0.2329k external	0.2329temperature offset calibration	0.9966default loss term (dB/km)	0.3790temperature slope calibration	1.0000multiplexer offset coefficient	1.0000multiplexer slope coefficient	1.0000fibre end	0.00T internal ref (°C)	31.37T ext. ref 1 (°C)	0.05T ext. ref 2 (°C)	25.61length (m)	temperature (°C)	Stokes	anti-Stokes-747.200	-134.213	-0.232	0.029
-746.185	800.000	0.072	0.308
-745.171	-200.000	0.052	-0.321
-744.156	-33.348	0.075	0.042
-743.142	800.000	0.068	0.204
-742.127	-19.794	-0.067	0.042
-741.112	67.326	0.079	0.081
-740.098	179.745	-0.088	0.129
-739.083	800.000	0.032	0.112
-738.069	243.300	-0.052	0.089
-737.054	-7.530	-0.268	0.183
-736.039	480.933	0.140	-0.319
-735.025	54.095	-0.180	0.174
-734.010	-55.339	-0.324	-0.146
-732.996	-200.000	-0.012	0.241
-731.981	-200.000	-0.011	0.143
-730.966	-168.084	-0.440	-0.017
-729.952	122.005	-0.150	0.189
-728.937	-200.000	0.003	0.231
-727.923	-33.877	0.326	-0.181
-726.908	-27.014	-0.285	-0.167
-725.894	-66.575	-0.205	-0.082
-724.879	-123.020	-0.148	0.024
-723.864	120.542	-0.146	0.182
-722.850	800.000	0.024	-0.093
-721.835	-200.000	-0.007	-0.268
-720.821	5.384	-0.156	0.116
-719.806	800.000	-0.087	0.268
-718.791	800.000	-0.144	-0.602
-717.777	-12.990	0.097	-0.064
-716.762	-50.571	-0.160	0.076
-715.748	-200.000	-0.038	0.198
-714.733	-152.232	0.125	-0.009
-713.718	-131.345	0.044	0.006
-712.704	27.058	-0.128	-0.108
-711.689	-161.208	-0.426	0.022
-710.675	574.077	-0.081	-0.199
-709.660	-200.000	0.020	-0.301
-708.645	206.450	0.070	0.109
-707.631	-80.097	0.220	-0.074
-706.616	159.363	0.087	0.122
-705.602	53.416	-0.202	-0.195
-704.587	-129.625	-0.096	0.013
-703.572	-96.776	0.275	-0.073
-702.558	66.655	-0.211	0.216
-701.543	-93.274	0.240	-0.067
-700.529	-49.224	0.097	0.047
-699.514	-200.000	0.027	-0.205
-698.499	-129.312	-0.244	0.034
-697.485	-81.914	-0.196	0.065
-696.470	-188.168	-0.195	0.003
-695.456	61.295	-0.085	-0.085
-694.441	55.232	0.167	0.162
-693.426	-58.511	0.165	0.072
-692.412	800.000	0.030	-0.108
-691.397	-78.447	-0.290	-0.100
-690.383	131.266	-0.131	0.169
-689.368	644.622	-0.094	-0.241
-688.354	-200.000	0.008	-0.202
-687.339	122.061	0.143	-0.180
-686.324	91.541	-0.199	0.225
-685.310	800.000	0.019	0.069
-684.295	-72.217	-0.276	0.103
-683.281	-70.108	-0.116	0.044
-682.266	412.605	-0.087	0.185
-681.251	-200.000	0.007	0.105
-680.237	-200.000	-0.018	0.233
-679.222	-86.462	-0.110	-0.034
-678.208	5.627	0.266	-0.197
-677.193	-54.588	-0.327	-0.149
-676.178	-95.574	-0.082	0.022
-675.164	800.000	-0.110	-0.306
-674.149	-200.000	0.080	0.356
-673.135	-111.830	-0.099	-0.020
-672.120	-111.260	0.405	-0.083
-671.105	-200.000	0.019	0.129
-670.091	-200.000	-0.004	-0.083
-669.076	744.292	-0.013	0.035
-668.062	-59.839	-0.331	0.142
-667.047	-41.427	-0.193	0.100
-666.032	-122.266	0.374	0.061
-665.018	-95.621	0.438	0.118
-664.003	-200.000	-0.066	-0.338
-662.989	-200.000	0.003	0.023
-661.974	223.211	-0.048	-0.077
-660.959	800.000	-0.036	-0.116
-659.945	22.978	0.143	-0.118
-658.930	-200.000	-0.085	-0.391
-657.916	216.292	0.099	0.158
-656.901	-200.000	0.001	0.007
-655.886	262.244	0.052	0.091
-654.872	-200.000	0.017	-0.174
-653.857	-188.139	-0.407	-0.005
-652.843	136.882	0.104	-0.136
-651.828	561.521	-0.116	0.281
-650.814	-24.317	0.047	0.028
-649.799	466.056	-0.068	0.154
-648.784	-200.000	0.038	-0.211
-647.770	800.000	-0.059	-0.213
-646.755	-60.235	0.314	0.134
-645.741	-56.699	-0.176	0.078
-644.726	202.765	0.221	-0.343
-643.711	-127.538	-0.349	0.051
-642.697	-90.251	0.137	-0.040
-641.682	8.098	-0.095	-0.072
-640.668	-19.178	-0.147	-0.091
-639.653	470.933	0.025	-0.057
-638.638	-64.961	-0.171	-0.069
-637.624	79.988	0.095	-0.102
-636.609	-70.895	0.100	-0.038
-635.595	-1.932	-0.048	-0.034
-634.580	88.569	-0.221	0.247
-633.565	-52.681	0.196	-0.091
-632.551	800.000	0.040	0.154
-631.536	-53.957	0.213	-0.097
-630.522	-182.985	-0.271	-0.005
-629.507	2.519	-0.151	-0.109
-628.492	-42.443	-0.346	-0.177
-627.478	-200.000	0.024	-0.163
-626.463	-200.000	0.003	0.079
-625.449	-163.036	0.074	-0.004
-624.434	-107.507	-0.148	0.033
-623.419	-92.314	-0.145	-0.041
-622.405	-66.787	0.129	0.051
-621.390	83.809	0.085	0.093
-620.376	800.000	-0.017	0.067
-619.361	88.606	0.201	-0.224
-618.346	178.559	0.100	0.146
-617.332	-52.923	-0.189	0.087
-616.317	-200.000	-0.005	0.037
-615.303	800.000	-0.025	0.074
-614.288	-79.695	0.288	0.097
-613.273	68.709	0.120	-0.123
-612.259	-143.056	0.196	-0.019
-611.244	353.641	-0.066	-0.131
-610.230	174.786	-0.037	0.054
-609.215	183.375	0.061	0.090
-608.201	-141.765	0.236	-0.024
-607.186	28.308	0.139	-0.118
-606.171	79.693	0.257	0.277
-605.157	136.249	-0.164	-0.214
-604.142	-3.844	-0.143	-0.099
-603.128	286.088	0.055	0.100
-602.113	11.896	0.063	0.048
-601.098	-200.000	-0.003	0.057
-600.084	-41.462	-0.130	-0.067
-599.069	-105.375	-0.096	-0.022
-598.055	659.063	-0.046	-0.118
-597.040	200.349	0.112	-0.173
-596.025	-49.809	-0.103	0.049
-595.011	55.088	-0.428	0.414
-593.996	-94.950	0.214	-0.058
-592.982	-103.774	0.056	-0.013
-591.967	-21.244	0.225	-0.138
-590.952	-80.972	-0.107	0.036
-589.938	-200.000	0.069	0.470
-588.923	66.253	0.182	0.186
-587.909	-127.440	0.171	0.025
-586.894	98.129	-0.116	-0.134
-585.879	800.000	0.103	0.291
-584.865	800.000	0.143	0.462
-583.850	800.000	-0.070	0.260
-582.836	-56.224	-0.212	0.094
-581.821	-70.980	-0.084	-0.032
-580.806	-92.999	0.110	-0.031
-579.792	-106.781	-0.342	0.076
-578.777	800.000	0.065	-0.185
-577.763	36.721	-0.186	-0.165
-576.748	-145.634	0.283	0.025
-575.733	-162.244	0.123	0.006
-574.719	55.514	-0.251	-0.244
-573.704	168.868	0.082	0.117
-572.690	497.265	-0.130	0.298
-571.675	-154.915	0.133	0.009
-570.661	500.021	-0.065	-0.150
-569.646	-6.867	-0.120	0.081
-568.631	-40.673	-0.107	0.055
-567.617	-200.000	0.149	-0.000
-566.602	-200.000	-0.020	-0.114
-565.588	-71.894	0.263	-0.098
-564.573	444.529	-0.083	-0.182
-563.558	800.000	-0.032	-0.119
-562.544	-120.953	0.176	-0.030
-561.529	-148.778	-0.031	-0.002
-560.515	-142.329	-0.247	-0.024
-559.500	-200.000	-0.005	-0.223
-558.485	-150.908	-0.035	0.003
-557.471	-200.000	0.002	0.030
-556.456	73.465	0.149	-0.156
-555.442	-200.000	-0.024	0.118
-554.427	-142.550	0.274	0.027
-553.412	-94.271	0.202	0.055
-552.398	116.194	-0.151	0.184
-551.383	71.079	0.261	-0.270
-550.369	-135.315	-0.013	-0.002
-549.354	800.000	-0.102	0.394
-548.339	350.985	0.131	0.260
-547.325	-102.722	0.236	0.056
-546.310	297.703	-0.107	-0.196
-545.296	393.925	-0.125	0.261
-544.281	-65.519	-0.185	0.074
-543.266	35.409	-0.239	0.210
-542.252	-200.000	-0.017	0.162
-541.237	9.476	0.099	0.075
-540.223	271.412	-0.129	-0.227
-539.208	473.417	0.115	-0.259
-538.193	-200.000	-0.035	-0.209
-537.179	-200.000	-0.029	0.277
-536.164	307.489	0.141	-0.262
-535.150	-91.445	-0.218	0.062
-534.135	-59.265	-0.172	-0.074
-533.121	250.920	0.098	0.166
-532.106	-31.511	-0.132	-0.074
-531.091	-200.000	0.013	0.125
-530.077	22.366	-0.276	-0.225
-529.062	-200.000	-0.019	-0.186
-528.048	-88.462	0.075	-0.022
-527.033	252.250	-0.115	-0.196
-526.018	135.303	-0.189	-0.245
-525.004	620.190	0.115	0.288
-523.989	-68.262	-0.261	-0.101
-522.975	-108.668	-0.115	0.025
-521.960	-200.000	-0.026	-0.328
-520.945	-110.678	0.321	-0.066
-519.931	-78.584	0.238	-0.081
-518.916	295.224	0.225	-0.410
-517.902	-125.643	0.471	0.071
-516.887	800.000	0.058	-0.240
-515.872	-69.481	0.200	-0.076
-514.858	213.065	-0.013	0.020
-513.843	29.261	-0.071	-0.060
-512.829	46.234	0.147	-0.136
-511.814	41.332	0.202	0.183
-510.799	142.313	-0.052	0.068
-509.785	-200.000	-0.020	0.149
-508.770	-123.828	0.236	0.037
-507.756	172.255	0.107	0.153
-506.741	748.262	-0.029	-0.077
-505.726	123.855	0.121	-0.152
-504.712	6.572	-0.145	-0.108
-503.697	-85.686	-0.349	-0.108
-502.683	-200.000	-0.030	0.273
-501.668	18.065	-0.168	-0.133
-500.653	120.568	0.080	0.099
-499.639	-62.303	-0.253	0.105
-498.624	800.000	-0.066	0.211
-497.610	-191.774	-0.194	0.002
-496.595	68.508	0.384	0.392
-495.581	253.872	0.070	0.119
-494.566	231.099	0.127	-0.207
-493.551	-200.000	0.045	-0.200
-492.537	-143.147	0.396	0.038
-491.522	-132.534	-0.336	-0.043
-490.508	450.004	0.079	-0.174
-489.493	-120.713	0.011	-0.002
-488.478	19.588	0.169	0.136
-487.464	701.821	-0.109	0.286
-486.449	499.229	-0.022	0.050
-485.435	592.268	0.106	-0.262
-484.420	28.664	-0.208	0.176
-483.405	6.573	-0.077	-0.057
-482.391	-84.469	0.256	0.081
-481.376	-90.053	-0.331	0.096
-480.362	-82.372	0.079	-0.026
-479.347	36.578	0.277	0.243
-478.332	114.243	0.082	0.100
-477.318	-75.403	0.094	0.033
-476.303	65.573	-0.214	-0.216
-475.289	-32.421	0.037	0.020
-474.274	98.728	0.202	-0.232
-473.259	-68.882	0.270	0.104
-472.245	180.893	-0.135	-0.197
-471.230	-81.513	-0.364	0.119
-470.216	-46.877	0.042	0.021
-469.201	81.846	-0.127	0.137
-468.186	93.449	-0.066	0.075
-467.172	800.000	0.045	0.180
-466.157	174.301	-0.226	0.325
-465.143	113.026	0.309	-0.373
-464.128	67.591	-0.088	-0.090
-463.113	-25.694	-0.126	-0.074
-462.099	276.404	-0.054	-0.095
-461.084	-139.043	-0.054	-0.006
-460.070	51.149	-0.250	-0.236
-459.055	-0.267	-0.041	0.029
-458.040	800.000	-0.055	-0.237
-457.026	74.984	-0.216	0.227
-456.011	-57.760	-0.353	0.154
-454.997	-127.067	0.135	0.020
-453.982	800.000	0.037	-0.144
-452.968	-200.000	0.028	-0.136
-451.953	-96.213	-0.293	0.077
-450.938	42.079	-0.172	0.155
-449.924	-34.250	-0.115	-0.063
-448.909	83.899	0.011	0.012
-447.895	-200.000	-0.080	-0.401
-446.880	-44.688	0.021	-0.011
-445.865	84.511	0.205	0.223
-444.851	-27.018	0.096	-0.056
-443.836	147.721	-0.329	-0.441
-442.822	-200.000	0.002	-0.084
-441.807	-83.723	0.233	-0.074
-440.792	377.942	-0.109	0.221
-439.778	-41.217	-0.277	-0.142
-438.763	2.458	-0.315	-0.227
-437.749	-125.316	-0.287	-0.044
-436.734	145.499	-0.211	-0.282
-435.719	-109.470	-0.067	0.014
-434.705	-200.000	-0.060	-0.377
-433.690	-89.210	0.115	-0.034
-432.676	-47.577	0.117	0.057
-431.661	589.057	-0.080	-0.197
-430.646	-41.027	-0.280	-0.144
-429.632	800.000	0.097	-0.297
-428.617	350.149	-0.111	0.218
-427.603	800.000	-0.075	-0.230
-426.588	258.918	0.154	-0.263
-425.573	-200.000	0.016	0.215
-424.559	-112.730	-0.281	0.056
-423.544	-189.854	-0.404	-0.005
-422.530	-99.895	-0.167	-0.041
-421.515	-51.210	-0.148	-0.069
-420.500	29.042	-0.282	-0.238
-419.486	-200.000	-0.048	-0.244
-418.471	-117.423	0.275	-0.049
-417.457	-57.523	0.441	0.193
-416.442	-57.673	-0.049	0.021
-415.428	301.011	0.165	-0.303
-414.413	1.637	-0.113	-0.081
-413.398	-24.161	0.073	0.044
-412.384	108.916	-0.212	0.252
-411.369	693.452	-0.087	-0.228
-410.355	-45.066	-0.240	0.119
-409.340	-57.500	-0.086	-0.038
-408.325	367.662	0.117	0.235
-407.311	-141.980	0.197	-0.020
-406.296	-63.725	0.381	-0.155
-405.282	2.201	0.291	-0.209
-404.267	7.419	-0.065	0.048
-403.252	184.265	-0.048	-0.071
-402.238	583.710	0.150	0.367
-401.223	-134.277	-0.372	-0.046
-400.209	281.854	0.090	0.160
-399.194	-200.000	0.046	0.271
-398.179	-19.198	-0.245	-0.151
-397.165	145.771	-0.214	-0.286
-396.150	-76.713	0.187	-0.065
-395.136	-200.000	0.027	0.186
-394.121	350.878	0.219	0.431
-393.106	-200.000	0.025	-0.111
-392.092	264.856	-0.035	0.060
-391.077	-200.000	0.014	0.095
-390.063	-200.000	0.006	0.211
-389.048	-184.005	-0.131	-0.002
-388.033	61.168	-0.145	0.144
-387.019	800.000	-0.077	-0.278
-386.004	64.346	-0.083	-0.083
-384.990	-114.231	0.259	-0.050
-383.975	-200.000	-0.041	-0.307
-382.960	344.135	-0.060	0.117
-381.946	124.263	0.133	-0.166
-380.931	-200.000	0.051	-0.251
-379.917	-63.843	-0.170	-0.069
-378.902	215.253	0.079	0.124
-377.888	-4.742	-0.080	0.055
-376.873	800.000	-0.107	0.368
-375.858	-200.000	-0.029	-0.167
-374.844	346.098	0.067	0.130
-373.829	321.847	-0.265	0.500
-372.815	163.329	-0.186	0.260
-371.800	128.939	-0.032	0.040
-370.785	250.569	-0.053	-0.089
-369.771	19.148	-0.203	-0.162
-368.756	64.869	-0.039	-0.039
-367.742	-46.631	0.461	-0.224
-366.727	623.770	0.075	-0.187
-365.712	-200.000	0.011	-0.264
-364.698	-200.000	0.001	0.365
-363.683	-200.000	0.049	0.361
-362.669	-200.000	0.073	0.381
-361.654	-172.738	0.192	-0.006
-360.639	-67.581	0.062	-0.024
-359.625	-55.916	0.229	0.102
-358.610	31.783	-0.225	0.192
-357.596	800.000	0.099	-0.295
-356.581	386.531	0.106	-0.217
-355.566	-115.311	0.169	-0.032
-354.552	262.090	0.075	-0.129
-353.537	-200.000	-0.061	0.332
-352.523	443.276	0.045	-0.098
-351.508	233.044	0.147	0.240
-350.493	-156.022	-0.199	0.013
-349.479	-51.952	0.023	-0.010
-348.464	-188.867	-0.484	0.006
-347.450	-200.000	-0.013	-0.059
-346.435	-110.314	0.321	-0.066
-345.420	-41.762	-0.218	-0.111
-344.406	800.000	0.017	-0.060
-343.391	-20.215	0.264	-0.161
-342.377	259.569	0.080	-0.137
-341.362	-200.000	0.009	-0.182
-340.348	-106.363	-0.209	0.046
-339.333	-200.000	0.050	-0.345
-338.318	-200.000	-0.032	0.258
-337.304	-124.363	-0.136	-0.021
-336.289	76.862	-0.099	0.105
-335.275	-99.671	-0.155	0.039
-334.260	-200.000	-0.037	-0.267
-333.245	-137.426	0.276	0.031
-332.231	-138.513	-0.386	0.042
-331.216	800.000	-0.010	-0.040
-330.202	176.305	0.230	0.331
-329.187	-129.218	0.264	-0.037
-328.172	56.824	0.069	-0.067
-327.158	61.605	0.237	-0.234
-326.143	-200.000	-0.014	-0.096
-325.129	-200.000	0.019	0.129
-324.114	-200.000	-0.014	-0.208
-323.099	103.367	-0.160	0.186
-322.085	-152.271	0.211	-0.015
-321.070	768.656	0.029	-0.078
-320.056	-200.000	0.014	-0.100
-319.041	55.712	0.113	0.108
-318.026	-124.224	-0.114	0.018
-317.012	800.000	0.088	0.302
-315.997	-78.822	-0.400	0.135
-314.983	50.211	-0.404	0.378
-313.968	98.153	-0.060	0.069
-312.953	-95.779	0.136	0.036
-311.939	-156.245	-0.311	0.019
-310.924	77.150	0.177	0.186
-309.910	-96.849	0.328	-0.085
-308.895	-200.000	-0.021	-0.322
-307.880	42.685	0.198	-0.179
-306.866	-69.312	-0.320	0.122
-305.851	800.000	0.028	-0.096
-304.837	-53.329	-0.486	0.220
-303.822	800.000	0.055	0.220
-302.807	-78.840	-0.138	0.047
-301.793	-179.951	0.149	0.003
-300.778	600.431	0.073	0.179
-299.764	800.000	-0.088	-0.320
-298.749	302.163	0.174	0.319
-297.735	800.000	0.059	0.206
-296.720	110.473	0.156	0.186
-295.705	280.750	0.077	-0.136
-294.691	488.778	-0.163	-0.368
-293.676	40.572	-0.160	-0.142
-292.662	-99.011	-0.220	-0.055
-291.647	-151.369	-0.120	-0.009
-290.632	243.887	0.044	0.072
-289.618	-126.444	0.446	-0.066
-288.603	80.563	0.116	0.124
-287.589	494.232	-0.057	-0.129
-286.574	-98.826	-0.188	0.047
-285.559	-81.912	0.154	0.050
-284.545	59.272	-0.203	0.198
-283.530	-63.757	-0.068	-0.028
-282.516	211.704	-0.217	0.338
-281.501	147.107	0.155	-0.206
-280.486	268.821	0.181	-0.313
-279.472	171.166	0.025	0.035
-278.457	800.000	0.029	0.098
-277.443	-50.130	-0.450	-0.211
-276.428	-200.000	-0.016	-0.288
-275.413	-90.366	-0.227	0.065
-274.399	800.000	-0.073	0.219
-273.384	-131.797	0.200	0.026
-272.370	-54.909	-0.105	0.047
-271.355	800.000	0.094	0.289
-270.340	243.301	0.073	0.120
-269.326	12.052	0.131	-0.100
-268.311	-24.233	0.076	0.045
-267.297	-48.468	-0.061	0.029
-266.282	-21.734	0.082	-0.050
-265.267	160.674	0.061	0.084
-264.253	-200.000	0.054	0.345
-263.238	142.126	-0.042	0.056
-262.224	267.506	-0.115	0.199
-261.209	-86.766	-0.204	0.062
-260.195	-200.000	0.006	-0.221
-259.180	632.870	0.084	-0.211
-258.165	-116.016	0.319	-0.059
-257.151	344.987	0.047	-0.092
-256.136	-200.000	0.006	-0.164
-255.122	185.268	-0.101	0.148
-254.107	-200.000	-0.036	-0.179
-253.092	55.992	0.255	0.244
-252.078	-148.381	0.227	-0.018
-251.063	170.324	0.060	0.084
-250.049	-200.000	-0.003	0.219
-249.034	800.000	0.018	0.058
-248.019	-200.000	0.067	-0.325
-247.005	800.000	-0.102	-0.356
-245.990	-143.576	-0.078	-0.007
-244.976	353.329	-0.030	0.059
-243.961	-101.145	0.219	-0.053
-242.946	-19.787	0.098	-0.060
-241.932	467.468	-0.035	0.078
-240.917	-47.507	-0.332	0.159
-239.903	0.661	-0.112	-0.079
-238.888	-200.000	-0.036	-0.260
-237.873	273.120	0.160	0.280
-236.859	-200.000	-0.057	0.306
-235.844	198.088	-0.161	0.243
-234.830	8.035	-0.089	-0.066
-233.815	-200.000	0.006	-0.191
-232.800	19.364	-0.146	-0.116
-231.786	53.931	-0.169	0.160
-230.771	31.694	-0.237	-0.202
-229.757	-200.000	-0.036	-0.177
-228.742	-54.311	-0.201	0.090
-227.727	95.057	0.126	0.142
-226.713	-200.000	-0.005	0.050
-225.698	-200.000	-0.037	0.275
-224.684	48.038	-0.199	-0.183
-223.669	135.336	0.161	-0.207
-222.655	-27.725	0.081	-0.047
-221.640	-111.747	0.083	-0.017
-220.625	-65.195	-0.104	-0.041
-219.611	73.242	-0.083	0.085
-218.596	-120.168	0.380	0.064
-217.582	141.496	0.169	-0.221
-216.567	180.587	-0.179	-0.259
-215.552	-200.000	-0.014	0.106
-214.538	0.358	-0.253	0.178
-213.523	-15.701	0.124	-0.078
-212.509	-68.915	-0.116	0.044
-211.494	-200.000	-0.009	0.114
-210.479	-99.180	-0.216	0.054
-209.465	211.603	-0.039	-0.060
-208.450	-59.315	0.198	0.084
-207.436	36.159	0.212	0.184
-206.421	612.691	0.046	0.114
-205.406	-135.448	-0.175	0.021
-204.392	685.963	0.075	0.194
-203.377	-9.808	-0.045	0.030
-202.363	800.000	-0.019	0.067
-201.348	-200.000	0.044	0.194
-200.333	-154.993	-0.469	-0.030
-199.319	-75.229	0.421	0.148
-198.304	169.669	-0.192	0.271
-197.290	-98.328	0.399	-0.101
-196.275	-200.000	0.021	0.405
-195.260	344.549	0.087	0.169
-194.246	-200.000	-0.000	0.082
-193.231	157.281	0.052	0.070
-192.217	63.224	-0.235	0.233
-191.202	-104.709	0.232	-0.053
-190.187	203.341	-0.139	-0.211
-189.173	-200.000	0.038	-0.223
-188.158	800.000	0.070	-0.270
-187.144	-200.000	0.043	-0.250
-186.129	-69.044	0.147	0.056
-185.114	-80.682	-0.121	-0.040
-184.100	-180.585	0.200	0.004
-183.085	491.140	0.063	0.142
-182.071	-142.637	0.074	0.007
-181.056	-167.389	0.206	0.008
-180.042	36.260	0.297	0.258
-179.027	-16.770	0.293	-0.182
-178.012	5.124	-0.191	-0.138
-176.998	53.752	0.081	0.076
-175.983	-200.000	0.019	-0.231
-174.969	800.000	0.063	0.251
-173.954	-5.529	0.060	0.040
-172.939	423.719	-0.176	0.374
-171.925	-146.302	0.159	0.014
-170.910	-200.000	-0.032	-0.149
-169.896	161.717	0.428	0.590
-168.881	151.593	0.210	-0.281
-167.866	800.000	-0.028	0.083
-166.852	-200.000	-0.048	-0.258
-165.837	257.532	0.048	0.082
-164.823	-187.852	0.160	0.002
-163.808	433.558	0.052	-0.110
-162.793	44.699	-0.209	0.190
-161.779	41.002	0.135	0.120
-160.764	-200.000	0.000	-0.247
-159.750	-0.592	0.146	-0.102
-158.735	16.338	0.339	-0.263
-157.720	-106.689	0.304	0.067
-156.706	97.551	0.175	-0.199
-155.691	-200.000	-0.052	-0.326
-154.677	-3.531	0.091	0.062
-153.662	-4.749	-0.226	0.154
-152.647	704.367	0.104	0.271
-151.633	120.284	0.169	-0.207
-150.618	-101.384	-0.364	0.087
-149.604	-200.000	-0.016	-0.172
-148.589	-184.742	0.313	-0.005
-147.574	-53.602	-0.154	0.069
-146.560	-76.752	-0.395	-0.136
-145.545	-88.244	0.271	-0.080
-144.531	-108.709	-0.465	-0.098
-143.516	-64.025	0.385	0.155
-142.502	-38.133	-0.080	0.042
-141.487	-200.000	0.024	-0.106
-140.472	454.467	-0.054	-0.118
-139.458	109.780	0.312	0.368
-138.443	-122.284	0.288	0.046
-137.429	-112.170	-0.347	0.068
-136.414	-38.672	0.058	-0.030
-135.399	-32.758	0.186	-0.101
-134.385	-79.935	0.097	0.032
-133.370	-200.000	-0.023	-0.149
-132.356	-172.818	-0.164	0.005
-131.341	-64.962	-0.442	0.176
-130.326	-126.115	-0.271	0.040
-129.312	800.000	-0.037	-0.152
-128.297	-200.000	-0.025	-0.274
-127.283	209.470	0.180	-0.278
-126.268	85.760	-0.077	0.083
-125.253	443.230	0.184	-0.396
-124.239	188.713	0.048	0.071
-123.224	-72.752	0.342	0.124
-122.210	-200.000	0.015	-0.118
-121.195	800.000	-0.042	0.120
