DTS Sentinel unit serial number:	SN413079Multiplexer serial number:	ORYXHardware model number:	OX4-SRSoftware version number:	ORYX F/W v4.00 Oryx Data Collector v3.7.2.0data status	okinstallation	princeton_trtdifferential loss correction	single-endedforward channel	channel 2reverse channel	N/Adate	2019/09/18time	02:35:34forward acquisition time	60.00reverse acquisition time	0.00gamma	496.2192k internal	0.2350k external	0.2350temperature offset calibration	0.9982default loss term (dB/km)	0.3790temperature slope calibration	1.0000multiplexer offset coefficient	1.0000multiplexer slope coefficient	1.0000fibre end	0.00T internal ref (°C)	22.81T ext. ref 1 (°C)	0.16T ext. ref 2 (°C)	16.79length (m)	temperature (°C)	Stokes	anti-Stokes-747.200	221.673	-0.055	0.089
-746.185	-0.229	-0.156	0.111
-745.171	-200.000	-0.017	0.373
-744.156	-200.000	0.022	0.174
-743.142	63.676	-0.236	0.237
-742.127	255.490	-0.222	0.381
-741.112	24.899	-0.116	-0.096
-740.098	703.802	-0.151	-0.396
-739.083	93.078	0.148	0.167
-738.069	51.587	0.348	0.330
-737.054	105.283	-0.013	0.015
-736.039	436.579	0.073	0.158
-735.025	325.944	0.147	-0.281
-734.010	94.267	-0.405	-0.458
-732.996	243.051	-0.121	0.203
-731.981	-126.095	-0.297	0.044
-730.966	-200.000	0.078	0.359
-729.952	-76.355	-0.345	-0.121
-728.937	-50.829	-0.028	-0.013
-727.923	52.465	0.053	-0.051
-726.908	-64.063	-0.281	-0.114
-725.894	-134.195	-0.090	0.011
-724.879	127.480	0.095	0.120
-723.864	241.066	-0.015	-0.025
-722.850	118.688	-0.096	-0.118
-721.835	800.000	-0.052	-0.149
-720.821	147.652	0.157	-0.211
-719.806	-200.000	0.297	0.000
-718.791	9.727	-0.057	-0.043
-717.777	57.656	0.167	0.163
-716.762	800.000	-0.054	-0.195
-715.748	26.689	0.138	0.115
-714.733	-42.061	0.189	-0.096
-713.718	-38.979	0.043	-0.023
-712.704	-62.485	0.131	0.054
-711.689	-200.000	0.026	-0.147
-710.675	-14.732	0.147	-0.094
-709.660	238.386	0.124	0.205
-708.645	711.150	-0.058	0.154
-707.631	14.282	0.300	0.233
-706.616	-97.333	0.080	-0.021
-705.602	-200.000	-0.042	0.371
-704.587	-181.716	-0.287	0.006
-703.572	-62.014	0.182	-0.076
-702.558	-30.215	0.312	-0.177
-701.543	58.994	-0.246	0.241
-700.529	186.418	-0.168	-0.250
-699.514	-200.000	-0.012	0.265
-698.499	-200.000	0.007	-0.226
-697.485	800.000	0.034	-0.122
-696.470	-15.517	0.236	-0.150
-695.456	-87.228	0.174	-0.053
-694.441	800.000	0.033	-0.095
-693.426	221.498	-0.038	0.061
-692.412	-135.052	-0.088	-0.011
-691.397	-32.314	-0.193	-0.107
-690.383	536.513	-0.032	-0.075
-689.368	-200.000	-0.044	-0.375
-688.354	-132.260	0.205	0.026
-687.339	717.467	-0.096	-0.255
-686.324	-148.651	-0.234	-0.019
-685.310	-114.383	0.198	-0.038
-684.295	83.597	-0.170	-0.185
-683.281	366.096	-0.036	0.073
-682.266	-30.488	0.302	0.170
-681.251	-10.290	-0.133	0.088
-680.237	276.772	-0.095	-0.167
-679.222	-88.537	0.221	0.066
-678.208	547.345	-0.010	0.023
-677.193	290.867	-0.045	0.081
-676.178	-81.957	-0.143	-0.047
-675.164	-200.000	-0.007	0.087
-674.149	42.043	0.123	-0.111
-673.135	800.000	-0.077	0.308
-672.120	-99.376	0.076	0.019
-671.105	740.229	0.089	-0.238
-670.091	800.000	-0.006	-0.020
-669.076	125.871	0.197	-0.248
-668.062	-85.968	-0.383	0.118
-667.047	-200.000	-0.001	0.201
-666.032	-200.000	0.379	-0.002
-665.018	252.031	-0.146	-0.247
-664.003	800.000	-0.063	-0.220
-662.989	7.950	0.191	-0.142
-661.974	399.236	-0.184	0.383
-660.959	94.864	-0.271	-0.307
-659.945	800.000	0.018	-0.050
-658.930	-99.537	0.250	-0.063
-657.916	-200.000	-0.006	0.054
-656.901	-31.721	-0.142	0.079
-655.886	-200.000	-0.037	-0.184
-654.872	109.268	-0.034	-0.040
-653.857	-112.479	0.217	0.043
-652.843	177.665	0.312	-0.453
-651.828	276.946	-0.190	-0.336
-650.814	210.363	0.138	0.216
-649.799	53.238	-0.064	0.061
-648.784	-136.991	0.106	0.012
-647.770	11.195	-0.332	0.253
-646.755	598.276	-0.118	-0.291
-645.741	490.145	-0.046	0.105
-644.726	-52.446	0.207	-0.095
-643.711	-200.000	-0.013	-0.174
-642.697	5.325	-0.328	-0.241
-641.682	-54.131	-0.112	-0.051
-640.668	147.061	0.146	-0.195
-639.653	40.400	-0.143	-0.128
-638.638	-147.526	-0.315	0.026
-637.624	264.962	0.023	0.039
-636.609	-140.311	0.349	0.036
-635.595	175.200	0.118	0.170
-634.580	-200.000	0.021	0.209
-633.565	800.000	-0.026	0.102
-632.551	-200.000	-0.024	0.140
-631.536	800.000	0.091	0.366
-630.522	67.542	0.077	0.078
-629.507	-200.000	0.031	0.137
-628.492	-200.000	0.290	0.000
-627.478	26.476	0.193	-0.160
-626.463	1.429	0.264	-0.189
-625.449	800.000	-0.088	0.258
-624.434	-200.000	-0.023	-0.360
-623.419	800.000	-0.037	-0.116
-622.405	800.000	-0.225	-0.781
-621.390	73.640	-0.159	0.166
-620.376	-100.849	-0.247	0.060
-619.361	-131.946	-0.124	0.016
-618.346	79.893	0.017	-0.018
-617.332	-71.086	0.485	-0.181
-616.317	-28.502	-0.092	0.052
-615.303	-200.000	-0.086	-0.411
-614.288	445.053	0.208	0.455
-613.273	223.599	-0.127	0.204
-612.259	201.941	0.071	0.108
-611.244	-200.000	0.032	-0.155
-610.230	800.000	0.058	-0.205
-609.215	-41.453	-0.090	-0.046
-608.201	-200.000	-0.006	0.042
-607.186	-200.000	0.040	-0.176
-606.171	165.649	0.072	-0.101
-605.157	175.700	-0.121	0.174
-604.142	31.776	0.240	0.205
-603.128	800.000	0.047	0.135
-602.113	166.741	0.152	-0.214
-601.098	22.457	-0.213	-0.173
-600.084	32.144	-0.113	0.097
-599.069	-89.702	0.149	-0.043
-598.055	-200.000	-0.068	0.325
-597.040	800.000	-0.074	-0.320
-596.025	800.000	0.100	-0.281
-595.011	-3.209	0.072	-0.050
-593.996	378.093	-0.045	0.091
-592.982	800.000	-0.019	-0.075
-591.967	572.352	0.059	0.143
-590.952	338.632	0.013	0.026
-589.938	-200.000	-0.020	-0.347
-588.923	800.000	-0.049	-0.159
-587.909	-44.404	-0.212	0.105
-586.894	48.877	0.057	0.053
-585.879	-74.463	-0.140	0.050
-584.865	-22.343	0.278	0.167
-583.850	-40.136	-0.153	0.079
-582.836	234.811	-0.098	-0.160
-581.821	179.999	-0.109	-0.158
-580.806	-36.994	0.133	0.071
-579.792	573.752	0.139	-0.337
-578.777	10.203	-0.234	-0.176
-577.763	-171.346	0.100	0.003
-576.748	-60.993	-0.182	0.076
-575.733	24.370	-0.179	0.147
-574.719	119.744	-0.200	0.245
-573.704	482.575	-0.085	0.193
-572.690	-33.037	0.067	-0.037
-571.675	-89.353	0.169	0.049
-570.661	-192.598	0.390	0.004
-569.646	3.539	0.088	-0.064
-568.631	399.449	0.068	-0.142
-567.617	-200.000	-0.014	-0.342
-566.602	-87.434	-0.467	-0.140
-565.588	98.138	-0.079	-0.090
-564.573	-120.820	0.245	-0.041
-563.558	-37.934	-0.322	-0.169
-562.544	41.769	-0.154	0.138
-561.529	-11.563	0.136	-0.088
-560.515	-85.025	-0.052	-0.016
-559.500	534.108	-0.132	-0.310
-558.485	-200.000	0.043	0.570
-557.471	-177.355	-0.178	0.004
-556.456	-200.000	-0.056	-0.380
-555.442	-112.528	-0.322	0.064
-554.427	800.000	0.039	0.146
-553.412	-56.504	-0.109	0.048
-552.398	800.000	0.064	0.189
-551.383	189.160	-0.072	-0.107
-550.369	-183.221	0.375	0.007
-549.354	-200.000	-0.053	0.242
-548.339	-31.053	-0.157	0.088
-547.325	-200.000	-0.027	0.160
-546.310	-153.621	0.126	0.009
-545.296	800.000	0.044	-0.156
-544.281	462.181	-0.187	0.413
-543.266	-200.000	-0.019	0.213
-542.252	431.715	-0.199	-0.427
-541.237	517.491	-0.178	0.412
-540.223	-74.592	-0.022	-0.008
-539.208	800.000	-0.050	-0.212
-538.193	-22.712	0.041	-0.024
-537.179	1.391	-0.167	0.119
-536.164	201.546	-0.256	0.391
-535.150	26.372	0.365	-0.302
-534.135	-6.188	0.112	-0.075
-533.121	411.172	-0.134	0.281
-532.106	-200.000	-0.019	0.223
-531.091	207.855	0.213	-0.329
-530.077	800.000	0.053	-0.214
-529.062	-171.745	-0.253	0.008
-528.048	-83.429	0.401	0.127
-527.033	-200.000	0.029	-0.342
-526.018	-200.000	0.023	0.178
-525.004	-200.000	0.005	0.185
-523.989	150.090	-0.189	-0.254
-522.975	-43.727	0.315	0.157
-521.960	-112.401	0.213	0.042
-520.945	-60.397	0.122	0.051
-519.931	-90.103	0.182	0.053
-518.916	272.363	0.093	-0.163
-517.902	-158.763	0.288	-0.016
-516.887	347.830	-0.097	0.190
-515.872	-76.805	-0.283	0.098
-514.858	-50.344	0.230	0.107
-513.843	-75.891	0.270	0.095
-512.829	266.948	0.090	-0.155
-511.814	-200.000	-0.018	-0.129
-510.799	-200.000	-0.007	-0.262
-509.785	-200.000	-0.006	0.211
-508.770	-0.473	0.109	-0.076
-507.756	-200.000	0.009	-0.134
-506.741	197.089	0.075	0.114
-505.726	122.273	0.169	-0.209
-504.712	-200.000	0.055	-0.471
-503.697	-105.419	0.185	0.042
-502.683	-151.022	-0.250	0.019
-501.668	-200.000	0.034	0.319
-500.653	-55.289	0.018	0.008
-499.639	-87.355	0.133	-0.040
-498.624	191.490	-0.097	-0.145
-497.610	24.164	-0.139	0.113
-496.595	-73.878	0.208	0.075
-495.581	800.000	-0.099	-0.323
-494.566	367.801	0.243	-0.485
-493.551	206.158	-0.105	0.162
-492.537	231.709	-0.049	0.079
-491.522	306.230	0.222	0.409
-490.508	-105.430	0.138	-0.031
-489.493	94.046	-0.118	-0.133
-488.478	-37.877	-0.232	0.122
-487.464	206.987	0.079	-0.121
-486.449	104.930	-0.085	0.099
-485.435	-8.886	0.270	-0.179
-484.420	-67.196	0.061	-0.024
-483.405	-200.000	0.025	-0.289
-482.391	800.000	-0.072	-0.237
-481.376	107.742	0.264	0.311
-480.362	143.716	-0.038	0.049
-479.347	-71.118	0.310	-0.115
-478.332	-44.817	-0.192	-0.094
-477.318	-200.000	0.007	0.216
-476.303	800.000	0.023	0.091
-475.289	-134.492	-0.164	-0.020
-474.274	-142.541	0.351	-0.034
-473.259	-6.125	0.200	0.135
-472.245	550.830	-0.004	-0.010
-471.230	204.240	0.154	-0.235
-470.216	400.351	0.077	0.159
-469.201	-43.854	-0.125	0.062
-468.186	106.482	0.156	0.183
-467.172	800.000	0.029	0.100
-466.157	52.118	0.073	-0.069
-465.143	165.506	-0.049	0.068
-464.128	-146.681	-0.387	0.033
-463.113	732.440	0.184	-0.486
-462.099	13.919	0.083	0.064
-461.084	134.516	0.227	0.291
-460.070	23.173	-0.279	0.226
-459.055	-100.539	-0.174	-0.042
-458.040	-200.000	0.000	-0.195
-457.026	758.857	0.056	0.149
-456.011	28.515	0.098	0.082
-454.997	305.635	-0.045	0.083
-453.982	-200.000	0.029	-0.290
-452.968	383.055	0.059	0.119
-451.953	127.337	0.084	-0.106
-450.938	-87.076	-0.328	-0.099
-449.924	199.076	-0.076	0.114
-448.909	8.181	0.092	0.069
-447.895	170.202	-0.008	-0.011
-446.880	-70.053	0.101	-0.038
-445.865	-72.467	-0.184	0.067
-444.851	-79.600	-0.082	-0.027
-443.836	132.687	-0.111	-0.141
-442.822	-11.428	-0.136	0.088
-441.807	-65.991	-0.061	0.024
-440.792	-8.095	0.117	-0.078
-439.778	122.624	0.145	0.178
-438.763	118.437	-0.115	0.140
-437.749	149.531	0.110	-0.147
-436.734	-200.000	-0.040	-0.218
-435.719	-200.000	-0.035	0.205
-434.705	95.736	0.188	0.212
-433.690	-200.000	0.021	0.113
-432.676	-200.000	-0.048	-0.215
-431.661	-0.508	-0.153	-0.107
-430.646	272.333	-0.028	-0.049
-429.632	-31.316	-0.218	-0.121
-428.617	288.252	-0.151	0.269
-427.603	-3.686	0.198	0.136
-426.588	-176.435	-0.104	-0.003
-425.573	-200.000	0.014	-0.081
-424.559	-19.046	-0.253	-0.155
-423.544	58.287	-0.136	0.132
-422.530	142.788	-0.047	0.061
-421.515	-20.097	-0.214	0.130
-420.500	123.336	-0.115	-0.142
-419.486	128.469	-0.121	0.153
-418.471	-200.000	0.006	-0.130
-417.457	-100.860	-0.320	-0.077
-416.442	-58.108	0.133	0.057
-415.428	28.015	0.242	-0.201
-414.413	-123.681	-0.245	0.038
-413.398	186.365	0.213	0.312
-412.384	117.523	0.043	0.052
-411.369	-88.912	-0.269	-0.079
-410.355	490.120	-0.157	0.353
-409.340	-54.732	0.230	0.102
-408.325	-200.000	-0.006	0.319
-407.311	545.422	0.063	-0.148
-406.296	-34.341	-0.173	-0.094
-405.282	58.727	-0.136	-0.132
-404.267	59.220	0.091	0.088
-403.252	46.961	-0.199	-0.182
-402.238	-63.674	-0.189	-0.076
-401.223	36.174	-0.122	0.106
-400.209	-143.922	0.336	-0.031
-399.194	-200.000	0.016	-0.228
-398.179	-200.000	0.052	-0.274
-397.165	-86.483	0.146	0.044
-396.150	33.092	0.069	-0.059
-395.136	-189.965	-0.300	0.003
-394.121	87.236	0.046	0.050
-393.106	-81.395	-0.234	-0.076
-392.092	14.294	0.210	-0.161
-391.077	23.456	-0.237	-0.192
-390.063	137.327	0.100	-0.128
-389.048	223.794	0.082	-0.130
-388.033	-12.316	0.120	0.077
-387.019	-142.988	-0.099	0.009
-386.004	-117.302	0.049	-0.009
-384.990	-71.517	0.105	0.038
-383.975	-14.616	0.387	-0.245
-382.960	-166.159	-0.198	-0.008
-381.946	-70.312	-0.313	-0.117
-380.931	292.386	0.128	-0.230
-379.917	-200.000	0.051	0.376
-378.902	18.839	-0.150	0.118
-377.888	-16.154	-0.279	0.174
-376.873	475.832	-0.149	-0.332
-375.858	-81.407	-0.127	-0.041
-374.844	-200.000	0.023	0.137
-373.829	-172.648	-0.028	-0.001
-372.815	-200.000	0.024	0.149
-371.800	-68.080	0.414	-0.159
-370.785	-107.070	0.131	0.029
-369.771	385.008	-0.087	0.177
-368.756	-56.061	0.108	0.047
-367.742	56.565	-0.193	0.185
-366.727	570.066	0.039	0.094
-365.712	800.000	0.044	-0.169
-364.698	548.814	0.222	-0.522
-363.683	-39.985	-0.213	-0.109
-362.669	-200.000	-0.095	0.480
-361.654	-1.349	-0.295	-0.204
-360.639	-117.700	0.188	0.033
-359.625	188.569	-0.066	0.097
-358.610	-14.761	0.235	0.149
-357.596	800.000	-0.037	0.156
-356.581	-200.000	0.008	-0.079
-355.566	248.455	-0.036	-0.060
-354.552	-200.000	0.018	0.311
-353.537	-18.497	0.138	-0.085
-352.523	-200.000	0.025	0.128
-351.508	-125.210	0.037	0.006
-350.493	287.684	0.091	-0.161
-349.479	-102.218	0.340	0.080
-348.464	-200.000	-0.002	0.063
-347.450	105.856	0.231	-0.268
-346.435	0.528	0.253	0.178
-345.420	476.328	0.087	-0.193
-344.406	-9.423	0.063	-0.042
-343.391	-200.000	-0.028	-0.177
-342.377	404.031	0.081	0.168
-341.362	1.462	-0.165	0.117
-340.348	152.181	-0.157	0.210
-339.333	-92.188	0.212	0.059
-338.318	72.894	0.146	0.150
-337.304	-200.000	0.015	-0.252
-336.289	800.000	-0.088	-0.274
-335.275	584.130	-0.149	-0.359
-334.260	-76.082	-0.224	0.078
-333.245	402.737	-0.119	0.245
-332.231	4.711	0.272	0.196
-331.216	-200.000	0.045	-0.330
-330.202	180.346	-0.225	0.325
-329.187	66.117	-0.057	0.057
-328.172	9.834	0.105	-0.079
-327.158	-200.000	0.006	-0.149
-326.143	-200.000	-0.007	0.185
-325.129	41.081	0.027	-0.024
-324.114	-90.412	0.098	0.028
-323.099	99.020	0.037	0.042
-322.085	-41.950	0.284	-0.143
-321.070	203.111	-0.047	0.071
-320.056	-117.161	-0.220	0.039
-319.041	257.018	0.150	0.254
-318.026	-72.501	0.167	-0.060
-317.012	95.931	0.151	-0.169
-315.997	-69.078	-0.191	0.072
-314.983	-119.190	-0.278	0.048
-313.968	-49.187	0.163	0.077
-312.953	164.512	0.242	0.335
-311.939	267.550	0.096	-0.165
-310.924	96.239	0.166	0.186
-309.910	-78.454	0.198	0.067
-308.895	-200.000	0.001	0.005
-307.880	282.950	-0.118	0.207
-306.866	-59.865	0.279	0.117
-305.851	-25.623	-0.082	0.048
-304.837	-200.000	-0.000	0.144
-303.822	-200.000	-0.002	0.011
-302.807	-200.000	0.006	0.049
-301.793	-30.321	0.179	-0.100
-300.778	-35.900	0.129	0.068
-299.764	800.000	-0.065	-0.205
-298.749	229.569	0.275	0.440
-297.735	108.045	-0.326	0.381
-296.720	800.000	-0.056	-0.173
-295.705	-178.911	-0.244	-0.005
-294.691	173.575	-0.192	0.272
-293.676	-128.009	-0.373	0.053
-292.662	-200.000	-0.023	-0.101
-291.647	109.061	0.222	-0.260
-290.632	665.251	-0.171	-0.432
-289.618	-155.408	0.137	-0.009
-288.603	641.661	0.031	0.078
-287.589	81.457	-0.188	0.199
-286.574	-47.009	-0.196	0.094
-285.559	-25.976	0.311	0.179
-284.545	177.013	-0.102	-0.146
-283.530	59.940	-0.084	0.081
-282.516	-86.706	-0.096	0.029
-281.501	-200.000	-0.021	0.196
-280.486	800.000	0.087	0.252
-279.472	783.909	0.013	-0.034
-278.457	800.000	-0.020	-0.067
-277.443	488.160	0.184	0.413
-276.428	370.424	-0.063	-0.125
-275.413	-145.681	0.162	0.014
-274.399	550.989	0.025	-0.058
-273.384	-183.065	0.141	-0.002
-272.370	315.074	-0.148	0.273
-271.355	130.548	0.054	-0.068
-270.340	163.308	0.191	-0.263
-269.326	-200.000	-0.010	0.460
-268.311	27.588	-0.205	-0.169
-267.297	-6.311	0.194	-0.130
-266.282	-152.462	0.088	-0.006
-265.267	-66.272	0.078	0.030
-264.253	3.139	-0.329	0.234
-263.238	800.000	0.025	0.104
-262.224	-83.540	-0.274	-0.086
-261.209	-200.000	-0.013	0.172
-260.195	260.753	0.170	0.289
-259.180	-187.337	0.511	-0.007
-258.165	191.048	-0.110	-0.162
-257.151	800.000	0.073	0.202
-256.136	-53.958	-0.305	-0.136
-255.122	-93.342	0.171	-0.046
-254.107	-200.000	-0.026	0.334
-253.092	-29.462	0.325	0.182
-252.078	-67.314	0.488	-0.188
-251.063	-99.498	0.201	0.050
-250.049	-43.950	-0.183	0.090
-249.034	52.647	-0.031	-0.029
-248.019	-200.000	0.012	0.059
-247.005	-200.000	0.007	-0.220
-245.990	15.329	0.018	0.014
-244.976	624.311	0.050	0.123
-243.961	-80.156	0.090	-0.030
-242.946	800.000	-0.111	-0.338
-241.932	-200.000	-0.017	-0.166
-240.917	307.510	-0.026	-0.048
-239.903	93.247	-0.272	0.301
-238.888	-122.814	0.075	0.012
-237.873	-164.115	0.399	-0.018
-236.859	-104.873	-0.227	-0.051
-235.844	217.339	-0.110	-0.172
-234.830	-129.894	0.039	0.005
-233.815	-200.000	0.002	0.095
-232.800	72.357	0.128	-0.130
-231.786	315.859	-0.073	0.135
-230.771	-101.998	-0.095	-0.022
-229.757	527.889	0.162	-0.374
-228.742	-30.961	-0.378	-0.209
-227.727	117.460	0.196	-0.236
-226.713	777.182	-0.063	0.169
-225.698	294.717	0.037	0.067
-224.684	-179.505	0.231	0.005
-223.669	-200.000	0.016	-0.080
-222.655	141.985	-0.057	-0.074
-221.640	329.638	0.095	0.179
-220.625	-13.073	-0.302	-0.192
-219.611	-116.604	0.374	0.067
-218.596	800.000	0.053	0.174
-217.582	679.574	-0.099	0.253
-216.567	-136.565	-0.202	0.023
-215.552	-89.700	-0.458	0.131
-214.538	157.223	0.117	0.159
-213.523	-161.153	0.343	0.018
-212.509	-27.385	-0.297	0.169
-211.494	800.000	-0.036	-0.147
-210.479	-98.187	-0.132	0.033
-209.465	99.878	-0.130	-0.148
-208.450	-159.266	0.134	-0.007
-207.436	-137.859	0.343	0.038
-206.421	-117.600	-0.457	-0.081
-205.406	-200.000	0.026	0.121
-204.392	-116.568	-0.197	-0.035
-203.377	800.000	-0.030	-0.114
-202.363	800.000	-0.019	-0.064
-201.348	800.000	0.082	-0.286
-200.333	150.675	-0.079	0.105
-199.319	-53.319	-0.398	0.178
-198.304	47.036	0.129	0.117
-197.290	800.000	-0.042	-0.120
-196.275	31.678	-0.145	-0.122
-195.260	-33.542	-0.317	-0.171
-194.246	-200.000	0.037	0.358
-193.231	-200.000	-0.020	-0.182
-192.217	-66.524	-0.288	0.112
-191.202	-200.000	-0.021	0.254
-190.187	-106.183	-0.294	0.064
-189.173	-200.000	0.006	0.065
-188.158	-107.648	0.285	-0.061
-187.144	167.118	-0.120	-0.167
-186.129	-200.000	0.022	-0.101
-185.114	52.197	-0.289	0.269
-184.100	77.487	-0.213	-0.221
-183.085	261.793	-0.183	-0.311
-182.071	-166.986	-0.125	-0.005
-181.056	-116.471	-0.097	0.018
-180.042	664.355	0.060	0.151
-179.027	553.599	-0.082	-0.192
-178.012	-103.415	0.113	-0.026
-176.998	-116.533	0.157	-0.028
-175.983	519.532	0.079	0.182
-174.969	-200.000	-0.023	0.292
-173.954	-55.759	0.463	-0.202
-172.939	800.000	0.090	-0.295
-171.925	0.289	0.106	-0.074
-170.910	-200.000	-0.038	-0.196
-169.896	-65.233	0.067	0.026
-168.881	-12.901	0.095	0.060
-167.866	800.000	0.079	0.221
-166.852	-200.000	0.054	-0.459
-165.837	56.181	-0.192	0.182
-164.823	350.809	0.045	0.087
-163.808	171.396	-0.131	-0.184
-162.793	416.007	-0.039	0.082
-161.779	700.206	0.043	0.110
-160.764	-113.669	0.161	-0.031
-159.750	-200.000	0.024	-0.164
-158.735	-200.000	0.052	-0.264
-157.720	-35.132	0.194	-0.103
-156.706	-200.000	-0.009	-0.339
-155.691	97.235	0.235	0.264
-154.677	-76.536	-0.182	0.062
-153.662	800.000	-0.052	-0.154
-152.647	-71.799	-0.500	0.182
-151.633	-200.000	0.019	-0.372
-150.618	53.540	0.103	0.096
-149.604	-136.373	0.188	-0.021
-148.589	230.351	-0.053	0.085
-147.574	-1.302	-0.208	-0.143
-146.560	-42.777	-0.210	0.104
-145.545	-35.225	-0.263	-0.139
-144.531	-112.476	0.040	0.008
-143.516	-93.878	-0.251	0.067
-142.502	-200.000	0.001	0.020
-141.487	525.708	-0.088	-0.203
-140.472	-41.924	0.233	0.116
-139.458	67.290	-0.102	0.101
-138.443	30.013	0.125	-0.104
-137.429	-22.936	0.200	-0.118
-136.414	363.018	-0.165	-0.322
-135.399	-200.000	0.001	0.015
-134.385	-160.837	-0.072	-0.004
-133.370	60.392	-0.183	-0.177
-132.356	-45.774	0.345	-0.166
-131.341	-24.421	0.118	0.068
-130.326	69.918	0.293	-0.294
-129.312	800.000	-0.055	-0.161
-128.297	545.776	0.174	0.405
-127.283	484.764	-0.058	-0.130
-126.268	-117.609	0.466	-0.082
-125.253	-159.168	0.349	0.019
-124.239	458.483	-0.148	0.321
-123.224	800.000	-0.043	0.151
-122.210	-200.000	-0.009	-0.057
-121.195	158.020	0.233	0.315
