DTS Sentinel unit serial number:	SN413079Multiplexer serial number:	ORYXHardware model number:	OX4-SRSoftware version number:	ORYX F/W v4.00 Oryx Data Collector v3.7.2.0data status	okinstallation	princeton_trtdifferential loss correction	single-endedforward channel	channel 2reverse channel	N/Adate	2019/09/11time	00:33:11forward acquisition time	60.00reverse acquisition time	0.00gamma	496.2192k internal	0.2332k external	0.2332temperature offset calibration	0.9942default loss term (dB/km)	0.3790temperature slope calibration	1.0000multiplexer offset coefficient	1.0000multiplexer slope coefficient	1.0000fibre end	0.00T internal ref (°C)	29.25T ext. ref 1 (°C)	-0.30T ext. ref 2 (°C)	22.98length (m)	temperature (°C)	Stokes	anti-Stokes-747.200	-125.570	-0.289	0.044
-746.185	-5.589	0.152	0.105
-745.171	-200.000	-0.005	-0.167
-744.156	-38.900	0.119	0.063
-743.142	-86.135	0.061	0.019
-742.127	102.478	0.141	0.166
-741.112	-87.968	-0.071	0.022
-740.098	250.033	0.281	0.479
-739.083	800.000	-0.044	-0.182
-738.069	-139.401	0.215	-0.023
-737.054	713.334	0.153	0.407
-736.039	139.301	-0.251	-0.332
-735.025	-171.221	0.439	0.015
-734.010	800.000	-0.075	-0.277
-732.996	106.118	-0.121	-0.144
-731.981	-67.557	0.221	0.087
-730.966	-19.047	-0.087	-0.054
-729.952	-82.938	0.107	-0.035
-728.937	-60.222	-0.163	-0.070
-727.923	-200.000	0.046	-0.247
-726.908	208.525	0.066	0.103
-725.894	-20.391	0.400	0.247
-724.879	13.928	0.177	-0.138
-723.864	800.000	0.140	0.433
-722.850	134.005	0.108	-0.141
-721.835	-200.000	0.035	0.000
-720.821	375.398	-0.096	0.196
-719.806	800.000	-0.093	-0.317
-718.791	-74.354	0.468	0.170
-717.777	-96.259	-0.180	-0.048
-716.762	-64.555	0.135	0.055
-715.748	-74.132	-0.244	0.089
-714.733	-200.000	-0.027	-0.374
-713.718	50.536	0.125	-0.118
-712.704	-200.000	0.060	0.284
-711.689	-96.797	-0.137	-0.036
-710.675	800.000	-0.052	0.157
-709.660	-95.866	0.153	0.041
-708.645	800.000	-0.048	-0.206
-707.631	800.000	0.088	-0.274
-706.616	800.000	-0.122	-0.467
-705.602	-127.739	-0.181	-0.026
-704.587	20.169	-0.308	-0.249
-703.572	248.931	0.127	-0.216
-702.558	0.717	0.328	-0.236
-701.543	33.954	-0.138	0.120
-700.529	800.000	-0.115	-0.350
-699.514	47.567	0.095	-0.089
-698.499	-154.352	0.180	-0.012
-697.485	-56.635	0.173	0.077
-696.470	-151.953	-0.374	-0.027
-695.456	-135.260	-0.123	0.015
-694.441	563.903	0.124	-0.303
-693.426	-104.888	0.242	-0.056
-692.412	800.000	-0.034	0.129
-691.397	-95.433	0.273	0.074
-690.383	141.374	-0.113	0.150
-689.368	525.941	-0.126	-0.299
-688.354	31.789	0.282	-0.243
-687.339	-200.000	0.009	0.217
-686.324	-200.000	-0.014	0.091
-685.310	-31.989	0.296	0.167
-684.295	359.745	0.164	0.329
-683.281	96.276	0.201	0.231
-682.266	-67.714	-0.233	-0.091
-681.251	-6.760	0.312	-0.213
-680.237	-67.004	0.169	-0.067
-679.222	162.828	-0.156	-0.220
-678.208	-200.000	-0.013	-0.092
-677.193	-10.794	-0.171	-0.113
-676.178	-55.054	0.123	-0.056
-675.164	52.610	0.066	0.064
-674.149	-158.925	-0.330	-0.019
-673.135	-48.097	-0.283	-0.137
-672.120	800.000	-0.103	-0.357
-671.105	296.541	-0.235	-0.432
-670.091	26.477	-0.096	0.080
-669.076	-159.954	0.189	0.010
-668.062	-158.573	-0.306	0.018
-667.047	365.660	0.041	0.082
-666.032	-86.930	0.194	-0.059
-665.018	-200.000	-0.018	0.206
-664.003	800.000	-0.055	0.241
-662.989	-6.501	0.174	-0.119
-661.974	128.270	-0.057	0.073
-660.959	24.270	-0.097	0.081
-659.945	162.233	-0.136	-0.191
-658.930	26.947	0.206	-0.174
-657.916	-200.000	-0.034	0.263
-656.901	208.628	0.139	0.218
-655.886	800.000	-0.093	0.275
-654.872	101.277	0.105	0.123
-653.857	-200.000	-0.041	-0.225
-652.843	16.013	0.248	0.196
-651.828	20.586	-0.259	0.210
-650.814	415.112	0.136	-0.291
-649.799	-200.000	0.022	-0.205
-648.784	-26.408	-0.397	0.234
-647.770	367.924	0.084	-0.171
-646.755	330.676	0.182	-0.352
-645.741	-27.336	0.135	-0.079
-644.726	189.142	0.090	-0.136
-643.711	-200.000	0.036	-0.180
-642.697	-200.000	0.048	-0.222
-641.682	-200.000	0.015	-0.258
-640.668	-58.056	-0.150	0.066
-639.653	-177.113	0.291	0.007
-638.638	800.000	-0.080	0.241
-637.624	324.549	-0.069	0.133
-636.609	-200.000	0.005	-0.162
-635.595	-21.793	-0.171	0.104
-634.580	-19.340	0.069	-0.043
-633.565	-200.000	0.047	-0.402
-632.551	-125.613	0.393	-0.060
-631.536	-118.592	0.206	0.037
-630.522	800.000	-0.132	-0.442
-629.507	365.741	0.078	0.158
-628.492	-79.560	0.108	-0.037
-627.478	-121.518	0.131	0.022
-626.463	-93.940	0.089	-0.024
-625.449	12.070	0.064	-0.049
-624.434	113.077	0.079	-0.096
-623.419	-200.000	-0.082	0.426
-622.405	800.000	-0.034	-0.096
-621.390	271.637	0.077	-0.136
-620.376	800.000	-0.071	-0.213
-619.361	73.425	0.161	-0.169
-618.346	-107.731	0.229	0.050
-617.332	356.784	-0.052	-0.103
-616.317	-200.000	-0.014	-0.315
-615.303	-59.435	0.443	-0.191
-614.288	630.535	0.016	0.040
-613.273	-173.642	-0.242	-0.007
-612.259	-29.024	0.203	-0.116
-611.244	-78.400	0.201	-0.069
-610.230	-113.446	0.052	0.010
-609.215	-4.878	0.015	0.010
-608.201	-107.012	-0.245	0.054
-607.186	-70.646	0.065	0.025
-606.171	87.635	0.106	0.118
-605.157	-46.283	-0.043	-0.021
-604.142	605.407	-0.009	-0.023
-603.128	-9.123	0.112	0.075
-602.113	-107.916	-0.246	-0.054
-601.098	-45.762	0.307	-0.152
-600.084	-120.561	0.331	-0.056
-599.069	-200.000	-0.038	0.253
-598.055	-200.000	-0.056	0.287
-597.040	800.000	-0.123	-0.362
-596.025	-129.046	-0.219	-0.031
-595.011	-100.893	-0.174	0.043
-593.996	696.638	0.080	0.210
-592.982	-200.000	0.025	0.231
-591.967	-200.000	-0.048	-0.318
-590.952	781.257	-0.081	-0.221
-589.938	-200.000	-0.005	0.128
-588.923	114.475	-0.166	-0.202
-587.909	294.828	-0.108	0.198
-586.894	800.000	-0.079	0.263
-585.879	800.000	0.041	0.156
-584.865	47.134	-0.149	0.139
-583.850	86.950	-0.056	0.062
-582.836	119.163	-0.015	0.019
-581.821	48.801	0.331	-0.310
-580.806	39.932	-0.072	-0.064
-579.792	113.682	-0.160	-0.195
-578.777	203.225	0.105	-0.162
-577.763	110.090	-0.222	0.267
-576.748	-200.000	0.054	-0.356
-575.733	-200.000	-0.068	-0.377
-574.719	-146.893	0.238	0.020
-573.704	800.000	0.050	-0.140
-572.690	800.000	-0.036	0.106
-571.675	-5.286	-0.244	0.168
-570.661	-54.223	0.137	-0.062
-569.646	-101.031	0.095	0.023
-568.631	-200.000	-0.006	-0.060
-567.617	-77.618	-0.115	0.040
-566.602	-125.156	-0.384	0.059
-565.588	-16.400	-0.151	0.096
-564.573	-64.404	-0.168	-0.068
-563.558	248.276	-0.150	0.254
-562.544	800.000	-0.086	0.240
-561.529	-200.000	-0.006	0.100
-560.515	-76.384	0.283	0.099
-559.500	-166.752	0.309	-0.013
-558.485	-35.595	-0.191	0.104
-557.471	-200.000	0.002	0.334
-556.456	514.451	-0.073	-0.170
-555.442	-200.000	-0.029	0.320
-554.427	11.037	0.257	0.196
-553.412	-107.447	-0.324	0.071
-552.398	13.015	0.204	-0.158
-551.383	-69.422	-0.024	0.009
-550.369	-44.799	0.152	-0.076
-549.354	-49.432	-0.320	-0.152
-548.339	-163.082	0.148	0.007
-547.325	-200.000	-0.014	0.146
-546.310	741.960	0.047	0.127
-545.296	324.231	-0.192	0.367
-544.281	-7.372	0.125	-0.085
-543.266	-26.610	0.254	-0.149
-542.252	-60.976	-0.375	0.158
-541.237	-154.561	0.194	-0.013
-540.223	469.991	-0.069	0.156
-539.208	-75.520	0.208	0.074
-538.193	800.000	-0.035	-0.133
-537.179	800.000	0.090	0.250
-536.164	800.000	0.030	-0.093
-535.150	-67.702	-0.107	0.042
-534.135	62.589	-0.077	-0.076
-533.121	-200.000	0.023	-0.289
-532.106	83.546	-0.258	-0.281
-531.091	33.465	0.156	0.135
-530.077	21.607	0.145	-0.118
-529.062	-200.000	0.048	0.279
-528.048	-0.328	-0.125	0.089
-527.033	526.142	0.046	-0.109
-526.018	385.215	-0.156	0.320
-525.004	237.079	0.070	-0.115
-523.989	-200.000	0.017	0.283
-522.975	-171.112	0.140	0.005
-521.960	-161.897	-0.132	-0.007
-520.945	-97.470	-0.035	-0.009
-519.931	68.470	0.060	-0.061
-518.916	439.973	0.054	-0.117
-517.902	334.455	-0.174	0.336
-516.887	-106.286	0.338	-0.076
-515.872	482.450	0.073	-0.165
-514.858	508.106	0.192	-0.445
-513.843	-82.973	-0.186	0.060
-512.829	88.062	-0.086	0.095
-511.814	122.913	0.081	-0.101
-510.799	31.031	0.020	-0.017
-509.785	46.315	0.160	-0.148
-508.770	-13.373	-0.133	0.086
-507.756	-200.000	0.004	-0.019
-506.741	-103.660	-0.224	-0.052
-505.726	-2.076	-0.297	0.208
-504.712	-200.000	0.015	-0.078
-503.697	-134.141	0.103	-0.013
-502.683	-67.839	0.331	0.129
-501.668	28.137	-0.105	0.088
-500.653	-200.000	0.014	-0.223
-499.639	-55.398	-0.171	0.076
-498.624	7.989	-0.161	0.120
-497.610	581.643	0.128	0.314
-496.595	154.920	-0.139	-0.191
-495.581	7.751	-0.039	0.029
-494.566	77.932	-0.295	0.313
-493.551	-104.570	0.237	0.054
-492.537	-121.347	0.163	0.027
-491.522	-200.000	-0.021	-0.249
-490.508	521.125	0.042	-0.099
-489.493	-200.000	0.003	0.332
-488.478	388.483	-0.164	0.339
-487.464	-87.921	-0.080	-0.024
-486.449	577.606	0.121	0.294
-485.435	-44.240	0.481	-0.240
-484.420	30.759	0.187	-0.159
-483.405	-136.555	0.033	-0.004
-482.391	289.323	0.138	-0.248
-481.376	-158.080	-0.328	0.019
-480.362	-156.126	0.191	-0.012
-479.347	-126.796	0.090	0.013
-478.332	-95.360	0.041	-0.011
-477.318	-51.245	0.268	-0.125
-476.303	800.000	0.112	0.365
-475.289	10.593	-0.374	-0.284
-474.274	57.371	0.347	-0.337
-473.259	-62.472	-0.191	0.079
-472.245	800.000	-0.041	-0.128
-471.230	-200.000	0.009	0.168
-470.216	-130.130	-0.296	-0.040
-469.201	-24.192	-0.343	0.204
-468.186	-95.633	0.153	-0.041
-467.172	-28.320	-0.039	-0.023
-466.157	89.058	0.105	-0.116
-465.143	77.571	-0.330	0.349
-464.128	43.413	0.184	-0.167
-463.113	-84.857	-0.090	0.028
-462.099	128.828	-0.186	0.236
-461.084	-65.789	-0.197	0.079
-460.070	-200.000	-0.062	0.287
-459.055	607.811	0.107	-0.266
-458.040	-200.000	-0.047	-0.235
-457.026	-88.200	0.032	0.010
-456.011	250.136	-0.063	0.106
-454.997	17.981	0.109	-0.087
-453.982	-32.580	-0.014	0.008
-452.968	-200.000	0.080	-0.415
-451.953	-200.000	0.047	-0.224
-450.938	-75.930	-0.284	0.100
-449.924	-108.246	0.163	0.035
-448.909	-159.392	-0.344	-0.019
-447.895	-58.777	-0.051	0.022
-446.880	-14.083	0.286	-0.183
-445.865	-146.961	0.174	-0.015
-444.851	-4.660	-0.166	-0.114
-443.836	-63.984	0.300	0.122
-442.822	325.727	-0.068	-0.129
-441.807	-200.000	0.071	-0.361
-440.792	324.115	0.062	0.117
-439.778	-200.000	0.024	0.230
-438.763	800.000	-0.042	0.130
-437.749	385.572	-0.041	0.085
-436.734	-200.000	-0.022	-0.515
-435.719	-200.000	0.008	-0.128
-434.705	-129.790	-0.210	0.029
-433.690	-135.445	0.161	0.019
-432.676	-200.000	-0.036	-0.323
-431.661	62.260	0.391	-0.387
-430.646	-200.000	0.039	-0.396
-429.632	488.143	0.070	-0.159
-428.617	296.020	-0.011	-0.021
-427.603	-144.955	-0.160	-0.015
-426.588	-34.917	0.399	0.216
-425.573	-200.000	0.034	0.225
-424.559	-102.181	-0.212	-0.051
-423.544	573.548	-0.091	-0.220
-422.530	-200.000	0.060	0.357
-421.515	-61.464	-0.293	-0.122
-420.500	800.000	-0.100	0.286
-419.486	-172.285	-0.196	0.006
-418.471	-134.870	0.265	-0.032
-417.457	-200.000	-0.015	0.087
-416.442	-110.200	-0.287	0.060
-415.428	12.377	-0.149	-0.114
-414.413	-49.103	0.287	0.136
-413.398	-84.426	0.100	-0.031
-412.384	5.528	-0.247	0.181
-411.369	189.155	-0.107	-0.160
-410.355	139.311	0.086	-0.112
-409.340	301.985	-0.149	-0.274
-408.325	-45.828	-0.305	-0.150
-407.311	-98.873	0.136	-0.034
-406.296	-24.600	0.153	0.091
-405.282	495.651	0.052	0.118
-404.267	0.895	0.283	-0.201
-403.252	-149.461	0.170	-0.013
-402.238	177.746	0.067	0.097
-401.223	-22.575	0.096	0.057
-400.209	128.853	0.068	0.086
-399.194	-75.458	-0.132	-0.047
-398.179	-100.965	-0.310	-0.075
-397.165	-34.009	-0.078	0.043
-396.150	800.000	-0.052	-0.145
-395.136	-56.418	-0.149	-0.066
-394.121	-69.004	0.198	-0.076
-393.106	800.000	0.024	-0.071
-392.092	125.566	0.148	0.186
-391.077	-194.680	-0.228	0.002
-390.063	-80.755	-0.364	-0.120
-389.048	-130.963	0.010	0.001
-388.033	-200.000	-0.184	0.000
-387.019	-37.488	-0.282	-0.150
-386.004	-98.719	-0.061	0.015
-384.990	-44.302	0.065	-0.032
-383.975	193.865	0.076	0.114
-382.960	130.758	0.100	0.127
-381.946	29.329	-0.279	0.235
-380.931	195.012	-0.062	-0.094
-379.917	-200.000	0.027	-0.155
-378.902	-59.877	-0.265	0.112
-377.888	105.782	0.138	-0.162
-376.873	290.756	-0.156	-0.281
-375.858	800.000	-0.063	0.230
-374.844	17.481	0.214	-0.168
-373.829	-2.268	0.333	0.231
-372.815	425.461	0.155	0.332
-371.800	-97.463	-0.138	-0.036
-370.785	800.000	-0.070	-0.222
-369.771	1.331	-0.149	0.106
-368.756	-200.000	0.019	0.488
-367.742	11.662	0.203	0.154
-366.727	402.144	0.069	0.144
-365.712	-182.122	-0.200	0.004
-364.698	4.780	-0.128	0.093
-363.683	60.528	-0.194	0.190
-362.669	242.791	0.103	0.170
-361.654	800.000	0.066	0.193
-360.639	-200.000	0.017	0.076
-359.625	-172.503	0.207	-0.006
-358.610	800.000	0.189	0.566
-357.596	-200.000	-0.006	-0.149
-356.581	-0.678	-0.098	-0.069
-355.566	-63.391	-0.376	-0.153
-354.552	-200.000	-0.049	0.238
-353.537	-138.247	0.290	0.032
-352.523	-79.033	-0.532	-0.179
-351.508	172.459	0.139	0.198
-350.493	366.273	-0.115	-0.230
-349.479	-4.274	0.445	-0.305
-348.464	-83.221	-0.235	-0.075
-347.450	-137.791	-0.164	-0.018
-346.435	-38.545	0.257	-0.135
-345.420	-200.000	0.012	-0.074
-344.406	324.445	0.229	-0.433
-343.391	800.000	-0.060	0.240
-342.377	-200.000	0.021	0.286
-341.362	26.239	0.116	-0.096
-340.348	67.462	0.114	0.116
-339.333	-64.524	-0.091	-0.036
-338.318	62.993	0.149	0.147
-337.304	-142.601	-0.069	-0.007
-336.289	800.000	-0.045	-0.175
-335.275	571.905	0.072	-0.174
-334.260	10.107	-0.131	0.098
-333.245	-200.000	0.015	-0.219
-332.231	158.300	0.226	0.310
-331.216	800.000	-0.048	0.186
-330.202	800.000	-0.063	-0.267
-329.187	-106.112	-0.147	0.033
-328.172	-146.409	0.039	0.003
-327.158	-87.128	0.233	-0.070
-326.143	-100.368	-0.295	0.072
-325.129	-40.425	-0.262	0.135
-324.114	-200.000	0.006	-0.065
-323.099	266.420	-0.075	-0.130
-322.085	-67.938	0.343	0.132
-321.070	81.114	0.183	0.196
-320.056	-110.038	0.186	-0.039
-319.041	-2.076	0.103	-0.071
-318.026	103.328	0.170	0.197
-317.012	-129.454	0.240	0.033
-315.997	800.000	0.084	-0.268
-314.983	275.641	-0.101	-0.178
-313.968	330.931	-0.107	-0.205
-312.953	-58.411	-0.137	0.059
-311.939	209.125	0.171	-0.266
-310.924	-107.947	0.458	-0.098
-309.910	800.000	0.035	0.105
-308.895	244.606	0.045	0.075
-307.880	115.601	-0.173	0.209
-306.866	-48.431	-0.117	-0.056
-305.851	-151.732	0.214	-0.016
-304.837	-112.228	0.204	0.041
-303.822	-60.491	0.230	-0.097
-302.807	-200.000	0.025	0.190
-301.793	-136.971	-0.236	0.027
-300.778	196.927	-0.117	-0.176
-299.764	-72.873	-0.123	0.045
-298.749	-45.153	0.322	-0.158
-297.735	121.816	-0.126	0.156
-296.720	-52.288	0.444	0.204
-295.705	710.686	0.163	0.426
-294.691	40.335	0.109	-0.097
-293.676	136.144	-0.039	0.051
-292.662	539.321	-0.155	-0.365
-291.647	9.109	-0.079	0.059
-290.632	33.763	0.079	0.068
-289.618	-44.555	-0.229	-0.113
-288.603	80.787	-0.046	-0.050
-287.589	-108.250	-0.182	0.039
-286.574	-99.598	0.122	0.030
-285.559	-200.000	-0.018	0.080
-284.545	-60.488	-0.073	-0.031
-283.530	-119.632	0.119	0.020
-282.516	141.631	0.140	0.183
-281.501	138.455	0.102	0.132
-280.486	-150.671	-0.091	0.007
-279.472	26.630	-0.071	0.058
-278.457	800.000	-0.086	0.317
-277.443	252.135	-0.070	0.117
-276.428	-116.121	-0.176	0.032
-275.413	-91.006	-0.202	-0.057
-274.399	-84.697	0.113	-0.035
-273.384	228.859	0.204	-0.329
-272.370	-95.361	-0.213	-0.056
-271.355	-166.263	0.359	-0.015
-270.340	129.491	0.175	-0.221
-269.326	-146.720	0.205	-0.018
-268.311	-200.000	0.007	-0.299
-267.297	161.258	-0.242	-0.334
-266.282	800.000	0.116	0.405
-265.267	88.575	0.122	0.134
-264.253	-200.000	-0.008	0.326
-263.238	-42.440	0.159	-0.080
-262.224	106.469	0.179	0.209
-261.209	-200.000	0.049	-0.216
-260.195	-91.802	-0.158	0.044
-259.180	-28.575	0.260	0.148
-258.165	-4.715	-0.213	-0.145
-257.151	207.388	-0.087	0.133
-256.136	-155.033	0.087	-0.006
-255.122	-200.000	-0.004	-0.390
-254.107	-200.000	0.024	-0.124
-253.092	-151.971	-0.037	-0.003
-252.078	-59.818	-0.109	-0.046
-251.063	260.013	0.029	-0.049
-250.049	800.000	0.045	0.146
-249.034	-13.663	-0.173	0.111
-248.019	183.189	-0.148	-0.216
-247.005	171.821	0.025	0.035
-245.990	-200.000	0.012	-0.255
-244.976	-100.568	-0.145	-0.035
-243.961	800.000	0.028	0.081
-242.946	-13.228	-0.279	-0.179
-241.932	-200.000	-0.042	0.330
-240.917	-137.293	0.048	-0.005
-239.903	800.000	0.125	-0.449
-238.888	-93.416	-0.126	0.035
-237.873	434.184	0.031	0.066
-236.859	-53.346	-0.154	0.070
-235.844	800.000	-0.078	0.312
-234.830	597.321	0.045	0.109
-233.815	-200.000	0.011	0.088
-232.800	575.724	-0.095	-0.229
-231.786	6.360	0.203	0.149
-230.771	800.000	0.066	-0.185
-229.757	-23.725	0.258	0.153
-228.742	-200.000	0.051	0.365
-227.727	-200.000	0.031	-0.157
-226.713	-8.915	-0.320	0.212
-225.698	-200.000	0.003	0.019
-224.684	24.665	-0.213	0.174
-223.669	-13.874	-0.182	-0.116
-222.655	-200.000	-0.050	-0.221
-221.640	-200.000	-0.011	0.140
-220.625	493.229	0.021	-0.047
-219.611	800.000	0.089	-0.315
-218.596	-200.000	0.013	0.474
-217.582	774.473	-0.077	0.206
-216.567	-3.543	0.036	0.025
-215.552	-150.831	-0.191	0.014
-214.538	-86.166	-0.291	0.089
-213.523	-132.826	0.271	-0.034
-212.509	426.628	-0.133	-0.282
-211.494	519.543	0.066	-0.151
-210.479	-96.421	-0.104	0.027
-209.465	14.602	-0.185	-0.142
-208.450	-136.883	-0.169	-0.019
-207.436	150.218	-0.062	-0.083
-206.421	-30.261	-0.288	-0.161
-205.406	800.000	-0.027	0.105
-204.392	-93.742	0.200	0.054
-203.377	800.000	-0.015	-0.049
-202.363	643.393	-0.116	0.292
-201.348	92.658	0.076	-0.084
-200.333	492.231	0.033	-0.074
-199.319	333.239	-0.050	-0.096
-198.304	-200.000	-0.081	-0.424
-197.290	800.000	0.141	0.392
-196.275	713.465	-0.069	0.181
-195.260	52.091	0.129	0.121
-194.246	-187.875	0.173	0.002
-193.231	-116.087	-0.087	0.016
-192.217	800.000	-0.050	0.204
-191.202	-88.692	0.163	-0.048
-190.187	-154.616	-0.443	-0.029
-189.173	-200.000	-0.001	0.042
-188.158	-200.000	0.015	0.144
-187.144	-33.586	0.122	-0.067
-186.129	-63.403	0.146	-0.059
-185.114	274.454	-0.045	0.079
-184.100	-13.625	0.177	0.113
-183.085	772.791	0.075	-0.202
-182.071	-200.000	0.033	-0.147
-181.056	180.356	-0.080	0.115
-180.042	-200.000	0.026	0.265
-179.027	-175.307	-0.122	0.003
-178.012	-48.167	-0.043	0.020
-176.998	138.387	0.138	-0.178
-175.983	-200.000	0.025	-0.141
-174.969	-26.681	-0.063	-0.036
-173.954	-88.807	0.205	0.060
-172.939	-118.025	-0.136	0.024
-171.925	-200.000	-0.027	-0.220
-170.910	-200.000	-0.009	0.336
-169.896	-200.000	0.044	0.224
-168.881	650.502	-0.049	0.122
-167.866	-200.000	0.010	0.188
-166.852	11.663	-0.087	0.065
-165.837	643.252	0.058	0.146
-164.823	-65.439	-0.323	0.128
-163.808	162.415	0.103	0.142
-162.793	-200.000	0.010	-0.095
-161.779	-63.388	-0.107	-0.043
-160.764	21.555	0.238	0.190
-159.750	-84.909	0.354	-0.109
-158.735	-63.874	-0.254	-0.102
-157.720	82.626	0.108	-0.115
-156.706	-96.809	0.149	-0.039
-155.691	97.275	-0.182	-0.205
-154.677	-9.816	-0.173	0.113
-153.662	180.295	0.020	0.029
-152.647	-120.308	-0.267	0.045
-151.633	162.023	-0.126	0.173
-150.618	-22.073	0.543	-0.324
-149.604	236.649	-0.218	-0.354
-148.589	-2.723	0.172	0.118
-147.574	-200.000	0.003	0.125
-146.560	39.582	-0.168	0.148
-145.545	31.962	0.184	-0.156
-144.531	297.337	0.243	0.438
-143.516	30.269	0.122	-0.102
-142.502	-80.122	-0.120	-0.039
-141.487	66.348	-0.037	0.037
-140.472	241.277	0.106	-0.174
-139.458	-101.958	-0.105	-0.025
-138.443	-147.373	-0.264	0.022
-137.429	12.742	-0.074	0.056
-136.414	351.929	-0.111	0.216
-135.399	-111.027	0.164	0.033
-134.385	479.071	0.043	-0.096
-133.370	155.608	-0.062	-0.084
-132.356	800.000	0.040	0.171
-131.341	-97.429	0.324	0.083
-130.326	-35.525	0.339	-0.181
-129.312	-100.595	0.062	-0.015
-128.297	-110.031	-0.135	0.028
-127.283	158.031	-0.249	0.340
-126.268	-200.000	-0.034	-0.163
-125.253	-162.767	-0.139	0.007
-124.239	-200.000	-0.012	0.112
-123.224	0.282	0.025	-0.017
-122.210	800.000	0.098	-0.303
-121.195	68.836	0.118	-0.119
