DTS Sentinel unit serial number:	SN413079Multiplexer serial number:	ORYXHardware model number:	OX4-SRSoftware version number:	ORYX F/W v4.00 Oryx Data Collector v3.7.2.0data status	okinstallation	princeton_trtdifferential loss correction	single-endedforward channel	channel 2reverse channel	N/Adate	2019/09/18time	02:55:34forward acquisition time	60.00reverse acquisition time	0.00gamma	496.2192k internal	0.2350k external	0.2350temperature offset calibration	0.9982default loss term (dB/km)	0.3790temperature slope calibration	1.0000multiplexer offset coefficient	1.0000multiplexer slope coefficient	1.0000fibre end	0.00T internal ref (°C)	22.75T ext. ref 1 (°C)	0.16T ext. ref 2 (°C)	16.67length (m)	temperature (°C)	Stokes	anti-Stokes-747.200	-200.000	-0.016	-0.114
-746.185	-15.982	-0.252	0.160
-745.171	-200.000	0.053	-0.243
-744.156	800.000	-0.115	0.406
-743.142	451.588	-0.118	0.260
-742.127	-28.435	-0.160	0.092
-741.112	210.998	0.046	0.072
-740.098	86.091	0.138	0.152
-739.083	-200.000	-0.017	0.087
-738.069	-70.029	-0.218	-0.083
-737.054	100.662	-0.230	0.267
-736.039	-44.809	-0.131	0.065
-735.025	800.000	0.081	0.244
-734.010	-139.542	-0.270	0.029
-732.996	111.804	-0.126	0.151
-731.981	800.000	-0.051	0.184
-730.966	-153.648	-0.139	0.010
-729.952	-136.845	0.127	-0.015
-728.937	-200.000	-0.040	-0.198
-727.923	-41.588	-0.311	0.160
-726.908	26.311	0.230	-0.192
-725.894	15.224	0.167	0.131
-724.879	30.123	-0.168	0.143
-723.864	800.000	-0.149	0.446
-722.850	26.617	-0.182	0.152
-721.835	-120.730	-0.082	0.014
-720.821	-89.309	0.177	-0.052
-719.806	-92.463	-0.412	0.116
-718.791	126.610	0.191	-0.242
-717.777	-76.169	-0.367	-0.129
-716.762	-105.905	0.086	-0.019
-715.748	800.000	-0.053	-0.214
-714.733	635.229	0.045	-0.113
-713.718	-200.000	0.060	-0.293
-712.704	-10.323	-0.057	0.038
-711.689	484.678	-0.053	-0.120
-710.675	-200.000	0.018	-0.185
-709.660	-49.122	-0.398	-0.190
-708.645	694.284	0.049	0.127
-707.631	-121.744	-0.117	0.019
-706.616	-200.000	-0.036	0.305
-705.602	-6.764	0.191	-0.129
-704.587	-157.803	-0.257	-0.015
-703.572	285.715	-0.105	0.188
-702.558	-200.000	0.001	0.563
-701.543	401.251	-0.149	-0.312
-700.529	800.000	-0.134	-0.418
-699.514	-54.439	0.057	-0.026
-698.499	21.146	-0.235	0.190
-697.485	-125.096	-0.174	-0.027
-696.470	-200.000	0.017	0.260
-695.456	191.056	-0.011	0.017
-694.441	-154.103	-0.146	0.010
-693.426	-97.502	0.184	0.048
-692.412	2.371	0.485	-0.350
-691.397	98.844	-0.178	-0.204
-690.383	-49.930	-0.329	-0.155
-689.368	-83.032	0.284	-0.091
-688.354	548.962	0.109	-0.261
-687.339	-200.000	-0.036	-0.160
-686.324	-200.000	0.003	-0.310
-685.310	-95.497	0.087	0.023
-684.295	-51.260	0.205	-0.096
-683.281	800.000	-0.010	0.036
-682.266	-200.000	-0.039	0.170
-681.251	-70.479	-0.035	0.013
-680.237	120.836	-0.140	-0.173
-679.222	187.290	0.240	-0.356
-678.208	-200.000	-0.028	0.329
-677.193	221.180	-0.106	-0.170
-676.178	-172.096	0.256	0.008
-675.164	3.199	-0.219	0.159
-674.149	319.725	0.108	-0.204
-673.135	-200.000	-0.003	-0.160
-672.120	20.404	0.256	-0.206
-671.105	-66.881	-0.469	-0.185
-670.091	0.996	-0.148	-0.106
-669.076	-117.836	-0.461	0.082
-668.062	-22.779	-0.090	0.054
-667.047	800.000	-0.122	0.370
-666.032	385.595	0.229	-0.470
-665.018	-7.763	0.205	0.138
-664.003	800.000	0.080	0.254
-662.989	-58.921	-0.232	0.100
-661.974	313.624	0.122	-0.229
-660.959	198.674	0.157	-0.239
-659.945	316.481	-0.158	-0.297
-658.930	-108.261	-0.061	-0.013
-657.916	800.000	0.157	0.431
-656.901	-189.451	-0.255	-0.003
-655.886	-120.066	0.269	-0.046
-654.872	-104.596	-0.304	0.070
-653.857	438.902	0.101	-0.218
-652.843	251.066	-0.087	0.147
-651.828	518.432	0.154	-0.358
-650.814	65.607	-0.301	-0.303
-649.799	75.981	-0.101	-0.106
-648.784	800.000	-0.058	0.250
-647.770	800.000	0.078	0.332
-646.755	12.904	0.119	-0.092
-645.741	800.000	0.048	0.178
-644.726	-65.819	0.125	0.050
-643.711	619.834	-0.100	0.250
-642.697	-85.111	-0.090	-0.028
-641.682	180.528	0.099	0.144
-640.668	-136.812	0.188	-0.021
-639.653	47.372	0.167	-0.154
-638.638	-17.702	-0.360	-0.225
-637.624	-200.000	-0.010	0.191
-636.609	-96.672	0.311	-0.081
-635.595	319.072	-0.064	0.122
-634.580	-113.686	-0.136	0.026
-633.565	-40.221	-0.323	-0.167
-632.551	-144.228	-0.262	0.024
-631.536	800.000	-0.099	0.287
-630.522	162.680	0.129	0.180
-629.507	-200.000	-0.056	-0.297
-628.492	168.523	0.185	-0.262
-627.478	-200.000	-0.038	0.249
-626.463	-146.597	-0.318	-0.027
-625.449	586.945	-0.039	0.094
-624.434	105.486	0.047	-0.055
-623.419	-200.000	0.052	-0.273
-622.405	-101.711	0.196	-0.047
-621.390	108.753	-0.251	0.298
-620.376	-68.922	-0.108	-0.041
-619.361	-92.323	-0.314	0.088
-618.346	-200.000	-0.021	0.188
-617.332	-14.220	-0.208	0.133
-616.317	80.771	-0.094	0.100
-615.303	-200.000	-0.029	0.140
-614.288	22.309	-0.024	-0.020
-613.273	160.704	0.070	-0.097
-612.259	-27.681	-0.072	0.041
-611.244	181.495	-0.134	0.196
-610.230	800.000	0.047	0.201
-609.215	-93.514	-0.195	0.054
-608.201	299.960	0.091	0.166
-607.186	280.868	-0.144	0.256
-606.171	67.001	0.090	0.092
-605.157	-200.000	0.035	-0.262
-604.142	51.455	-0.162	0.153
-603.128	800.000	0.052	-0.177
-602.113	-86.152	-0.117	0.036
-601.098	-44.064	0.162	0.081
-600.084	-183.914	0.364	0.006
-599.069	45.303	-0.256	-0.234
-598.055	-14.635	0.246	0.157
-597.040	-126.742	-0.275	-0.040
-596.025	471.161	-0.103	0.230
-595.011	-106.201	-0.305	0.068
-593.996	311.622	-0.110	0.205
-592.982	38.500	-0.049	0.044
-591.967	-107.593	0.033	-0.007
-590.952	-200.000	0.051	0.569
-589.938	-150.871	0.247	-0.019
-588.923	-200.000	0.001	0.054
-587.909	-200.000	-0.008	-0.112
-586.894	38.554	-0.263	-0.233
-585.879	342.256	0.118	-0.229
-584.865	-200.000	-0.005	0.031
-583.850	-85.564	-0.144	-0.044
-582.836	-98.886	-0.033	-0.008
-581.821	394.484	0.214	0.443
-580.806	727.332	-0.122	0.323
-579.792	-18.677	-0.185	0.115
-578.777	202.101	-0.021	0.032
-577.763	31.942	0.212	-0.181
-576.748	-149.685	-0.164	-0.013
-575.733	-25.843	0.273	-0.159
-574.719	800.000	-0.064	0.177
-573.704	-131.673	-0.326	0.042
-572.690	-200.000	-0.016	-0.083
-571.675	43.638	-0.232	-0.210
-570.661	-149.893	0.322	-0.025
-569.646	-55.299	-0.288	-0.128
-568.631	70.864	0.262	0.269
-567.617	-5.063	-0.175	-0.119
-566.602	61.439	-0.215	-0.212
-565.588	-200.000	0.065	-0.388
-564.573	800.000	0.014	-0.060
-563.558	-200.000	-0.030	-0.145
-562.544	800.000	0.031	-0.112
-561.529	32.961	-0.139	0.119
-560.515	129.293	-0.144	0.182
-559.500	109.789	0.282	-0.336
-558.485	800.000	0.032	0.136
-557.471	70.856	-0.157	0.162
-556.456	-47.905	-0.099	-0.047
-555.442	-200.000	-0.012	0.117
-554.427	-128.139	0.098	-0.014
-553.412	236.218	0.127	-0.208
-552.398	-32.737	-0.114	-0.063
-551.383	-69.655	0.120	-0.046
-550.369	-159.424	0.063	0.003
-549.354	-153.141	0.160	0.011
-548.339	-85.405	0.072	-0.022
-547.325	534.464	0.087	-0.205
-546.310	-92.450	0.170	0.047
-545.296	-150.067	0.058	0.004
-544.281	172.567	0.155	-0.221
-543.266	443.687	0.100	0.217
-542.252	182.571	-0.166	0.242
-541.237	800.000	0.047	-0.164
-540.223	198.179	0.143	0.217
-539.208	-200.000	-0.039	0.399
-538.193	-93.269	-0.272	0.075
-537.179	249.269	-0.103	-0.174
-536.164	-189.678	-0.384	-0.004
-535.150	-60.575	0.121	-0.051
-534.135	90.156	-0.110	0.122
-533.121	-200.000	-0.003	0.348
-532.106	114.616	-0.224	-0.270
-531.091	-54.536	0.348	0.156
-530.077	-200.000	0.028	0.161
-529.062	800.000	0.103	0.342
-528.048	71.767	0.226	-0.233
-527.033	-70.890	0.209	-0.078
-526.018	160.810	0.087	-0.120
-525.004	-110.875	-0.103	0.021
-523.989	-133.966	-0.269	0.033
-522.975	-75.991	0.217	0.076
-521.960	122.938	-0.105	0.130
-520.945	588.315	0.104	-0.254
-519.931	-200.000	-0.025	-0.256
-518.916	367.588	0.101	0.201
-517.902	800.000	0.090	0.365
-516.887	-200.000	-0.022	0.163
-515.872	161.160	-0.231	0.319
-514.858	-61.949	0.095	-0.039
-513.843	-200.000	0.010	0.063
-512.829	-99.660	-0.149	-0.037
-511.814	-200.000	0.010	0.087
-510.799	2.680	-0.196	-0.141
-509.785	800.000	-0.081	0.264
-508.770	-52.667	0.544	0.249
-507.756	-95.046	0.274	-0.073
-506.741	-100.323	0.033	-0.008
-505.726	-40.263	0.056	0.029
-504.712	-17.074	-0.168	-0.105
-503.697	104.500	0.225	0.262
-502.683	77.108	0.120	0.126
-501.668	25.650	0.082	0.067
-500.653	38.128	-0.068	-0.060
-499.639	-67.191	0.095	-0.037
-498.624	200.311	-0.069	-0.105
-497.610	145.905	0.103	0.137
-496.595	800.000	0.075	-0.242
-495.581	-23.360	-0.152	-0.090
-494.566	39.204	0.222	-0.197
-493.551	-55.961	0.216	0.095
-492.537	35.348	-0.301	-0.261
-491.522	392.533	0.103	0.211
-490.508	-200.000	0.063	0.307
-489.493	-200.000	0.044	-0.601
-488.478	-50.325	0.149	-0.070
-487.464	-43.066	-0.066	-0.033
-486.449	-83.621	-0.147	0.046
-485.435	-112.245	0.089	0.018
-484.420	-122.630	-0.336	-0.054
-483.405	-179.335	0.051	0.001
-482.391	489.753	-0.123	-0.277
-481.376	535.812	0.069	-0.161
-480.362	-200.000	-0.006	-0.143
-479.347	239.918	0.077	-0.126
-478.332	686.449	0.039	-0.100
-477.318	-154.721	0.248	-0.016
-476.303	-18.530	-0.312	-0.192
-475.289	477.484	-0.087	-0.194
-474.274	295.813	-0.048	0.088
-473.259	-35.829	-0.200	0.107
-472.245	30.228	0.125	-0.105
-471.230	-200.000	0.022	0.318
-470.216	800.000	0.045	0.140
-469.201	-200.000	0.033	-0.266
-468.186	578.835	-0.019	-0.046
-467.172	-200.000	0.000	0.039
-466.157	-200.000	-0.022	-0.247
-465.143	-200.000	-0.027	-0.167
-464.128	800.000	-0.071	-0.291
-463.113	-200.000	0.048	-0.334
-462.099	-200.000	0.051	0.304
-461.084	-126.130	-0.222	0.033
-460.070	-16.208	0.376	0.236
-459.055	-68.164	-0.189	-0.073
-458.040	-67.544	0.296	-0.115
-457.026	-96.095	0.137	-0.036
-456.011	-161.755	-0.345	-0.017
-454.997	-104.203	-0.042	0.010
-453.982	-90.417	-0.250	-0.071
-452.968	-200.000	0.026	-0.146
-451.953	184.528	0.198	-0.289
-450.938	-49.276	0.277	-0.131
-449.924	69.537	-0.126	-0.128
-448.909	156.401	-0.091	0.124
-447.895	-124.106	0.185	-0.029
-446.880	200.970	0.178	0.270
-445.865	-41.194	-0.146	-0.074
-444.851	57.350	0.148	0.142
-443.836	-174.869	0.064	0.002
-442.822	24.466	-0.024	0.020
-441.807	-56.333	-0.225	0.099
-440.792	68.405	0.137	-0.139
-439.778	43.170	-0.160	-0.144
-438.763	-200.000	0.014	-0.331
-437.749	-200.000	0.085	0.464
-436.734	-153.278	0.156	-0.011
-435.719	-200.000	-0.004	0.167
-434.705	121.313	0.181	0.222
-433.690	800.000	-0.004	0.016
-432.676	242.432	-0.164	-0.271
-431.661	21.177	0.167	0.134
-430.646	40.031	-0.256	-0.227
-429.632	800.000	-0.080	0.267
-428.617	-114.974	0.126	-0.024
-427.603	-113.589	0.195	0.038
-426.588	-109.781	0.061	0.013
-425.573	-18.497	0.084	-0.052
-424.559	800.000	0.062	-0.245
-423.544	-18.717	-0.121	0.074
-422.530	800.000	0.049	-0.153
-421.515	259.438	0.058	0.098
-420.500	511.659	0.072	-0.165
-419.486	256.526	0.079	0.134
-418.471	145.688	-0.096	-0.127
-417.457	58.058	0.102	0.099
-416.442	-131.301	-0.127	0.017
-415.428	800.000	-0.052	-0.159
-414.413	800.000	-0.055	-0.175
-413.398	-84.510	-0.256	0.079
-412.384	536.204	0.014	-0.033
-411.369	-97.079	-0.070	-0.018
-410.355	57.273	-0.192	-0.184
-409.340	-200.000	0.061	-0.271
-408.325	540.755	0.078	0.183
-407.311	-200.000	0.012	0.055
-406.296	226.083	0.040	0.064
-405.282	-77.842	-0.178	-0.061
-404.267	-48.516	-0.382	-0.181
-403.252	-138.450	-0.129	0.014
-402.238	-129.048	0.223	-0.031
-401.223	205.629	-0.030	-0.047
-400.209	-69.524	-0.101	0.038
-399.194	15.738	0.176	-0.137
-398.179	281.126	0.169	-0.298
-397.165	-2.798	-0.165	0.114
-396.150	-96.706	0.150	0.039
-395.136	-200.000	-0.004	-0.187
-394.121	83.293	-0.120	-0.128
-393.106	800.000	0.065	-0.238
-392.092	800.000	0.025	0.091
-391.077	-200.000	0.019	-0.228
-390.063	91.418	0.164	-0.181
-389.048	-38.903	-0.298	0.154
-388.033	-40.056	0.228	-0.117
-387.019	58.813	-0.078	-0.076
-386.004	800.000	0.043	-0.165
-384.990	15.044	-0.207	0.159
-383.975	16.750	0.164	-0.128
-382.960	-21.056	-0.289	0.174
-381.946	-200.000	-0.026	0.235
-380.931	29.516	-0.174	0.145
-379.917	-58.674	0.292	-0.124
-378.902	-102.055	0.198	-0.047
-377.888	-44.207	0.151	0.075
-376.873	28.151	0.144	0.120
-375.858	-41.596	0.023	-0.011
-374.844	245.047	0.078	0.129
-373.829	63.454	0.205	-0.202
-372.815	43.202	-0.076	-0.068
-371.800	331.430	-0.070	0.132
-370.785	158.940	-0.067	-0.091
-369.771	652.336	0.022	-0.055
-368.756	-200.000	-0.041	0.261
-367.742	64.121	0.316	-0.313
-366.727	-8.523	-0.077	0.051
-365.712	-109.613	0.140	0.029
-364.698	186.095	0.055	0.081
-363.683	800.000	-0.087	-0.287
-362.669	257.881	-0.063	-0.107
-361.654	79.473	-0.036	-0.038
-360.639	-200.000	-0.006	-0.120
-359.625	-87.358	-0.148	-0.044
-358.610	-47.667	0.159	-0.076
-357.596	-200.000	-0.066	0.386
-356.581	-51.647	-0.201	0.092
-355.566	13.270	0.043	0.033
-354.552	175.247	-0.248	0.353
-353.537	170.298	0.048	-0.068
-352.523	-200.000	-0.017	-0.099
-351.508	-200.000	0.014	-0.334
-350.493	110.876	-0.171	-0.202
-349.479	-200.000	-0.226	0.000
-348.464	-184.403	-0.387	-0.006
-347.450	0.182	0.041	0.029
-346.435	-107.355	0.177	0.038
-345.420	-92.010	0.426	-0.119
-344.406	-164.179	0.284	-0.013
-343.391	-62.936	0.276	0.112
-342.377	145.818	-0.178	-0.235
-341.362	-54.546	0.206	0.092
-340.348	-94.159	-0.075	0.020
-339.333	6.520	0.083	0.060
-338.318	-6.133	0.330	0.221
-337.304	336.027	0.101	0.193
-336.289	-200.000	-0.003	0.131
-335.275	-200.000	-0.036	-0.349
-334.260	74.558	0.130	-0.134
-333.245	-59.387	-0.089	-0.038
-332.231	-159.662	-0.186	-0.010
-331.216	-55.845	0.252	-0.111
-330.202	256.588	-0.046	0.078
-329.187	8.303	0.092	0.068
-328.172	-57.539	0.294	-0.127
-327.158	-60.458	-0.425	0.177
-326.143	208.044	0.159	-0.244
-325.129	-200.000	0.030	-0.229
-324.114	-38.000	0.182	-0.095
-323.099	579.743	0.103	-0.247
-322.085	-99.407	-0.060	-0.015
-321.070	800.000	-0.044	-0.154
-320.056	76.126	-0.185	-0.192
-319.041	765.490	0.081	-0.217
-318.026	35.744	0.148	-0.128
-317.012	88.389	0.111	0.121
-315.997	275.719	-0.053	-0.092
-314.983	250.033	-0.083	0.139
-313.968	-200.000	0.012	0.241
-312.953	-38.249	-0.217	0.113
-311.939	800.000	0.085	-0.349
-310.924	-200.000	0.040	-0.196
-309.910	-26.079	-0.381	-0.220
-308.895	-146.945	-0.404	-0.034
-307.880	-82.143	0.340	-0.109
-306.866	37.978	0.096	-0.084
-305.851	-157.959	-0.295	0.017
-304.837	-191.251	0.303	0.003
-303.822	397.045	-0.070	0.144
-302.807	66.952	0.158	0.158
-301.793	-200.000	-0.025	0.203
-300.778	-33.237	0.241	0.131
-299.764	582.407	0.044	-0.107
-298.749	-82.299	-0.068	0.022
-297.735	-20.862	0.109	-0.066
-296.720	800.000	0.058	0.200
-295.705	-42.761	-0.060	0.030
-294.691	128.433	-0.186	-0.232
-293.676	-162.087	-0.238	0.012
-292.662	-152.922	-0.164	-0.011
-291.647	165.538	0.128	0.178
-290.632	-200.000	0.005	0.197
-289.618	-200.000	-0.036	-0.175
-288.603	46.824	0.307	0.280
-287.589	42.679	-0.089	0.079
-286.574	-200.000	-0.056	-0.318
-285.559	-200.000	-0.003	-0.089
-284.545	-80.611	-0.040	-0.013
-283.530	141.900	-0.086	-0.112
-282.516	21.077	0.219	-0.174
-281.501	610.883	-0.137	-0.337
-280.486	-200.000	0.029	0.165
-279.472	120.713	-0.188	-0.230
-278.457	-33.240	-0.083	-0.045
-277.443	-200.000	0.066	-0.300
-276.428	-33.406	-0.166	0.090
-275.413	-112.135	0.498	0.098
-274.399	521.636	-0.038	0.088
-273.384	139.038	0.089	0.115
-272.370	107.748	-0.156	0.182
-271.355	-200.000	-0.008	-0.224
-270.340	-118.544	-0.279	-0.048
-269.326	-108.151	-0.279	-0.059
-268.311	-52.313	-0.188	-0.085
-267.297	800.000	-0.122	-0.354
-266.282	-15.950	-0.040	0.025
-265.267	619.210	0.062	0.152
-264.253	-200.000	-0.003	-0.080
-263.238	-200.000	-0.024	0.245
-262.224	-132.985	0.177	0.022
-261.209	-135.873	0.123	0.014
-260.195	-39.295	0.051	-0.026
-259.180	-68.218	-0.332	0.127
-258.165	-107.393	0.109	-0.023
-257.151	-48.290	0.155	0.073
-256.136	-102.028	-0.183	-0.043
-255.122	800.000	0.104	0.286
-254.107	800.000	0.089	0.248
-253.092	375.256	-0.044	0.087
-252.078	800.000	-0.041	0.123
-251.063	152.565	0.166	0.222
-250.049	81.596	0.258	-0.274
-249.034	-49.063	-0.168	-0.079
-248.019	253.055	0.212	0.354
-247.005	388.776	0.028	-0.056
-245.990	-92.465	-0.332	0.091
-244.976	158.490	0.202	0.275
-243.961	60.030	0.084	0.082
-242.946	800.000	-0.045	-0.175
-241.932	-72.213	-0.244	-0.089
-240.917	-42.755	0.033	-0.016
-239.903	800.000	0.065	0.251
-238.888	-200.000	-0.009	-0.038
-237.873	-106.635	-0.404	0.088
-236.859	-200.000	-0.027	0.137
-235.844	61.329	0.220	0.214
-234.830	111.034	0.137	0.162
-233.815	-200.000	-0.013	-0.170
-232.800	-65.480	0.059	0.023
-231.786	-92.287	0.071	-0.020
-230.771	-57.755	0.134	-0.058
-229.757	-111.950	-0.182	0.036
-228.742	78.090	0.132	0.138
-227.727	20.244	-0.102	-0.081
-226.713	-79.643	0.249	-0.082
-225.698	-35.262	0.348	-0.185
-224.684	38.496	0.112	0.098
-223.669	-132.937	-0.085	-0.011
-222.655	15.924	-0.099	0.077
-221.640	452.500	0.102	0.221
-220.625	800.000	-0.123	-0.348
-219.611	41.291	0.132	0.116
-218.596	-94.350	-0.223	0.060
-217.582	-20.062	0.091	-0.055
-216.567	-174.971	-0.315	0.009
-215.552	95.192	0.046	0.051
-214.538	-73.365	-0.102	0.037
-213.523	151.396	-0.199	0.264
-212.509	81.833	0.265	0.281
-211.494	-139.789	-0.375	-0.039
-210.479	5.159	-0.132	-0.095
-209.465	-200.000	0.018	-0.082
-208.450	800.000	0.009	0.031
-207.436	161.997	0.056	-0.077
-206.421	108.884	0.120	0.140
-205.406	-200.000	0.023	-0.130
-204.392	391.688	0.113	0.229
-203.377	-100.860	-0.178	-0.043
-202.363	-200.000	0.053	0.246
-201.348	-60.212	-0.020	-0.009
-200.333	-200.000	0.005	-0.125
-199.319	-64.208	0.161	-0.064
-198.304	-95.088	-0.249	0.066
-197.290	536.293	0.047	0.108
-196.275	-115.385	0.233	-0.043
-195.260	332.014	-0.145	-0.273
-194.246	800.000	-0.120	-0.434
-193.231	-49.514	0.052	-0.024
-192.217	-200.000	-0.098	0.489
-191.202	-200.000	0.015	-0.182
-190.187	800.000	0.112	-0.309
-189.173	800.000	-0.041	0.130
-188.158	-200.000	-0.037	-0.404
-187.144	-171.304	0.061	-0.002
-186.129	800.000	0.042	0.159
-185.114	677.662	0.067	0.169
-184.100	383.840	-0.120	-0.242
-183.085	-200.000	-0.069	-0.302
-182.071	-18.613	0.402	-0.245
-181.056	492.243	-0.075	0.167
-180.042	529.455	-0.078	0.180
-179.027	-3.511	0.250	-0.170
-178.012	-50.552	-0.268	-0.124
-176.998	-127.186	0.278	0.040
-175.983	402.071	0.083	-0.171
-174.969	-200.000	0.021	0.174
-173.954	-46.255	0.374	0.180
-172.939	-75.801	0.070	-0.024
-171.925	377.019	-0.278	0.554
-170.910	98.738	-0.452	0.510
-169.896	-110.143	0.149	-0.030
-168.881	-200.000	-0.006	-0.158
-167.866	210.992	-0.083	-0.127
-166.852	170.206	-0.060	-0.084
-165.837	-145.546	-0.019	0.002
-164.823	800.000	0.024	-0.074
-163.808	-55.428	-0.236	-0.103
-162.793	118.740	0.058	-0.070
-161.779	800.000	0.014	0.043
-160.764	359.375	-0.068	0.132
-159.750	291.282	0.237	0.421
-158.735	800.000	0.078	-0.261
-157.720	-144.518	0.136	-0.012
-156.706	-63.942	0.212	-0.085
-155.691	-98.493	-0.211	0.053
-154.677	198.136	0.098	0.146
-153.662	327.745	-0.050	0.093
-152.647	-45.315	-0.130	0.063
-151.633	-200.000	0.051	0.258
-150.618	96.069	0.096	0.107
-149.604	30.773	-0.201	-0.168
-148.589	-131.495	0.194	-0.025
-147.574	-64.702	0.112	0.044
-146.560	-200.000	0.033	0.162
-145.545	4.853	-0.193	-0.138
-144.531	-5.243	0.311	0.208
-143.516	800.000	-0.078	-0.210
-142.502	800.000	0.037	0.157
-141.487	271.292	0.114	-0.196
-140.472	-182.745	0.206	0.004
-139.458	-39.043	-0.314	0.161
-138.443	800.000	-0.067	-0.257
-137.429	-200.000	0.021	0.267
-136.414	-80.867	-0.332	0.107
-135.399	-82.577	-0.129	0.041
-134.385	266.768	-0.095	0.161
-133.370	-92.370	-0.049	0.013
-132.356	44.202	-0.169	0.151
-131.341	-14.250	-0.091	0.057
-130.326	-11.293	0.328	-0.210
-129.312	-147.425	0.239	-0.020
-128.297	-200.000	-0.022	-0.098
-127.283	85.960	0.144	-0.154
-126.268	222.121	0.101	0.159
-125.253	-105.913	-0.128	0.028
-124.239	416.875	0.151	0.313
-123.224	70.002	0.139	0.140
-122.210	-200.000	-0.004	-0.029
