DTS Sentinel unit serial number:	SN413079Multiplexer serial number:	ORYXHardware model number:	OX4-SRSoftware version number:	ORYX F/W v4.00 Oryx Data Collector v3.7.2.0data status	okinstallation	princeton_trtdifferential loss correction	single-endedforward channel	channel 2reverse channel	N/Adate	2019/09/13time	17:59:35forward acquisition time	60.00reverse acquisition time	0.00gamma	496.2192k internal	0.2317k external	0.2317temperature offset calibration	1.0207default loss term (dB/km)	0.3790temperature slope calibration	1.0000multiplexer offset coefficient	1.0000multiplexer slope coefficient	1.0000fibre end	0.00T internal ref (°C)	35.05T ext. ref 1 (°C)	4.75T ext. ref 2 (°C)	27.83length (m)	temperature (°C)	Stokes	anti-Stokes-747.200	-134.615	0.038	-0.005
-746.185	369.802	0.013	-0.026
-745.171	-119.148	-0.163	-0.029
-744.156	388.620	0.112	0.235
-743.142	-43.761	0.107	-0.054
-742.127	27.983	-0.111	0.095
-741.112	49.580	0.168	0.160
-740.098	269.751	-0.096	0.170
-739.083	-110.255	-0.016	-0.003
-738.069	-98.447	0.186	-0.048
-737.054	-108.670	0.129	-0.028
-736.039	-184.080	-0.409	-0.007
-735.025	144.054	0.160	0.216
-734.010	-200.000	-0.018	-0.145
-732.996	800.000	-0.022	-0.066
-731.981	-200.000	-0.004	-0.497
-730.966	-5.285	-0.127	0.089
-729.952	800.000	0.040	-0.135
-728.937	-93.387	-0.181	-0.051
-727.923	-44.228	0.373	0.189
-726.908	254.573	-0.146	-0.253
-725.894	10.838	0.071	-0.055
-724.879	15.251	0.290	-0.230
-723.864	-33.019	0.172	-0.096
-722.850	253.454	0.145	-0.250
-721.835	9.386	-0.367	-0.281
-720.821	-93.900	-0.145	-0.040
-719.806	800.000	-0.108	-0.362
-718.791	579.930	-0.122	-0.302
-717.777	-9.954	0.080	-0.054
-716.762	-132.519	0.327	-0.042
-715.748	25.936	0.208	-0.175
-714.733	-5.178	0.076	0.053
-713.718	-200.000	0.014	-0.312
-712.704	549.431	-0.027	0.065
-711.689	97.582	-0.054	0.062
-710.675	-66.419	-0.348	-0.140
-709.660	-64.613	-0.169	-0.069
-708.645	-200.000	0.000	-0.030
-707.631	-200.000	0.004	0.319
-706.616	800.000	-0.050	-0.167
-705.602	-200.000	0.017	0.459
-704.587	-73.605	0.049	-0.018
-703.572	-88.601	-0.286	0.086
-702.558	-145.985	0.128	-0.011
-701.543	-108.534	0.414	-0.090
-700.529	-200.000	0.014	0.099
-699.514	800.000	0.065	-0.194
-698.499	-35.977	-0.253	-0.138
-697.485	-122.356	-0.110	0.018
-696.470	54.762	-0.076	-0.075
-695.456	731.136	0.121	0.328
-694.441	-166.497	0.069	0.003
-693.426	489.940	0.151	-0.348
-692.412	61.306	0.221	0.222
-691.397	107.364	-0.117	0.141
-690.383	-69.017	-0.284	0.110
-689.368	-35.559	0.267	-0.147
-688.354	800.000	-0.094	-0.398
-687.339	-2.134	0.070	-0.050
-686.324	800.000	0.081	-0.260
-685.310	800.000	0.082	-0.232
-684.295	-17.077	0.271	-0.173
-683.281	49.888	0.092	0.088
-682.266	177.504	-0.101	0.148
-681.251	800.000	-0.058	-0.208
-680.237	-140.235	0.126	0.013
-679.222	88.448	-0.302	-0.338
-678.208	-200.000	-0.004	-0.296
-677.193	266.521	0.063	-0.110
-676.178	-200.000	-0.005	-0.226
-675.164	17.222	0.012	-0.010
-674.149	-200.000	0.010	0.159
-673.135	28.788	-0.158	0.135
-672.120	800.000	0.142	-0.483
-671.105	-200.000	-0.016	0.272
-670.091	800.000	0.057	0.175
-669.076	-30.676	0.143	-0.082
-668.062	-49.009	0.256	-0.124
-667.047	-200.000	-0.009	-0.385
-666.032	48.857	-0.173	0.164
-665.018	800.000	0.081	0.271
-664.003	684.253	-0.077	-0.202
-662.989	-76.324	0.082	-0.029
-661.974	49.054	-0.023	-0.021
-660.959	-22.788	0.191	-0.117
-659.945	515.530	-0.193	-0.454
-658.930	-52.211	-0.057	-0.027
-657.916	-158.329	-0.113	0.007
-656.901	-79.950	-0.505	0.171
-655.886	-200.000	0.000	-0.140
-654.872	800.000	0.036	-0.135
-653.857	-93.465	-0.164	0.046
-652.843	-78.094	-0.160	-0.055
-651.828	713.197	-0.054	-0.144
-650.814	-6.026	0.249	-0.172
-649.799	1.486	-0.200	0.145
-648.784	-75.207	0.149	0.054
-647.770	-200.000	0.010	-0.167
-646.755	-200.000	-0.011	-0.163
-645.741	-33.180	-0.230	-0.129
-644.726	77.520	0.185	-0.199
-643.711	800.000	0.067	-0.208
-642.697	-200.000	-0.012	0.279
-641.682	-82.752	-0.209	0.068
-640.668	53.283	-0.094	0.091
-639.653	-63.650	0.201	-0.083
-638.638	301.643	0.007	0.014
-637.624	800.000	0.050	-0.219
-636.609	214.292	0.164	0.261
-635.595	-200.000	-0.006	-0.125
-634.580	-200.000	-0.015	-0.282
-633.565	-37.730	0.179	-0.096
-632.551	800.000	-0.060	-0.202
-631.536	-105.989	0.231	-0.052
-630.522	280.614	0.073	-0.131
-629.507	91.557	-0.063	-0.071
-628.492	39.103	-0.137	0.124
-627.478	-200.000	-0.042	0.226
-626.463	259.454	0.078	0.135
-625.449	-200.000	-0.015	0.301
-624.434	-33.245	-0.362	0.202
-623.419	15.121	-0.260	-0.205
-622.405	800.000	-0.069	-0.252
-621.390	-200.000	-0.047	0.312
-620.376	-32.256	-0.405	0.228
-619.361	266.810	0.080	-0.141
-618.346	-200.000	-0.009	0.237
-617.332	-174.021	-0.394	0.012
-616.317	33.499	0.048	0.042
-615.303	-200.000	0.027	0.350
-614.288	162.006	-0.136	-0.192
-613.273	-200.000	-0.035	-0.281
-612.259	-94.382	-0.247	-0.068
-611.244	-60.345	-0.238	0.102
-610.230	-51.508	-0.225	0.106
-609.215	2.828	0.230	-0.168
-608.201	143.359	-0.096	0.128
-607.186	-63.638	0.083	0.034
-606.171	-42.877	0.046	-0.023
-605.157	-200.000	-0.066	0.291
-604.142	117.965	0.191	-0.237
-603.128	-200.000	-0.019	-0.157
-602.113	-58.169	-0.093	-0.041
-601.098	-13.111	0.362	0.237
-600.084	800.000	-0.041	-0.150
-599.069	-200.000	0.065	-0.318
-598.055	-20.497	-0.438	-0.271
-597.040	101.566	-0.069	-0.080
-596.025	-37.910	0.064	-0.034
-595.011	282.601	0.064	0.115
-593.996	43.785	0.093	-0.086
-592.982	-200.000	0.006	-0.229
-591.967	-200.000	0.010	0.284
-590.952	250.316	0.058	0.100
-589.938	-12.129	-0.177	0.117
-588.923	-18.762	0.323	-0.202
-587.909	800.000	0.043	0.137
-586.894	-200.000	0.006	-0.243
-585.879	-119.881	-0.177	0.031
-584.865	-46.797	-0.251	0.123
-583.850	2.686	-0.242	-0.176
-582.836	165.384	0.120	0.170
-581.821	-50.336	0.094	0.045
-580.806	-200.000	-0.027	-0.152
-579.792	173.312	0.100	-0.145
-578.777	111.914	-0.195	-0.237
-577.763	-200.000	0.022	0.114
-576.748	17.697	0.167	-0.134
-575.733	800.000	0.108	0.387
-574.719	-123.614	-0.285	0.045
-573.704	-200.000	-0.033	0.315
-572.690	315.790	-0.129	-0.245
-571.675	46.011	-0.300	-0.279
-570.661	101.609	-0.164	-0.192
-569.646	800.000	-0.081	0.329
-568.631	-136.420	0.188	-0.022
-567.617	-80.015	0.296	0.100
-566.602	116.392	0.185	-0.228
-565.588	54.640	0.109	0.106
-564.573	-140.799	0.547	0.057
-563.558	800.000	-0.104	-0.434
-562.544	231.484	-0.085	0.141
-561.529	-200.000	-0.008	-0.068
-560.515	-68.941	0.167	-0.065
-559.500	-127.222	-0.117	0.017
-558.485	52.148	-0.211	0.202
-557.471	-164.048	-0.059	-0.003
-556.456	-19.083	0.064	-0.040
-555.442	48.659	0.091	0.086
-554.427	-177.283	-0.158	-0.004
-553.412	-18.250	0.285	-0.179
-552.398	-176.949	-0.361	0.009
-551.383	-200.000	0.012	0.138
-550.369	-200.000	-0.020	0.203
-549.354	-117.103	0.364	0.067
-548.339	-30.747	-0.167	0.095
-547.325	67.314	-0.082	-0.084
-546.310	-200.000	-0.008	0.197
-545.296	-200.000	-0.099	0.443
-544.281	60.404	0.363	-0.360
-543.266	2.817	0.140	-0.102
-542.252	-200.000	0.055	-0.378
-541.237	-200.000	-0.004	0.193
-540.223	-60.847	-0.323	-0.137
-539.208	-99.175	-0.199	-0.051
-538.193	84.104	-0.113	0.124
-537.179	-122.943	-0.155	0.025
-536.164	40.582	0.271	0.245
-535.150	-83.165	-0.188	0.061
-534.135	-109.533	0.091	-0.019
-533.121	89.826	0.155	-0.174
-532.106	42.886	0.393	0.360
-531.091	-86.213	-0.352	-0.109
-530.077	-200.000	-0.009	-0.318
-529.062	-14.740	-0.254	-0.164
-528.048	160.220	-0.061	0.086
-527.033	128.954	-0.071	0.091
-526.018	-100.880	-0.298	0.074
-525.004	-41.699	0.168	0.087
-523.989	-200.000	-0.011	0.232
-522.975	214.249	-0.147	0.234
-521.960	-151.218	0.285	-0.021
-520.945	800.000	-0.085	-0.351
-519.931	800.000	0.085	-0.271
-518.916	-34.212	0.126	-0.070
-517.902	-200.000	-0.008	0.366
-516.887	215.501	-0.201	0.321
-515.872	356.310	0.067	0.134
-514.858	-2.362	0.151	-0.106
-513.843	73.257	0.099	-0.103
-512.829	800.000	-0.021	-0.093
-511.814	-22.876	0.194	-0.117
-510.799	151.570	0.183	-0.250
-509.785	-76.460	-0.361	-0.127
-508.770	-200.000	-0.019	0.772
-507.756	195.341	0.040	-0.062
-506.741	-200.000	-0.046	-0.244
-505.726	-80.508	-0.159	0.053
-504.712	-154.836	-0.082	0.005
-503.697	-99.764	0.022	0.005
-502.683	14.726	0.096	0.075
-501.668	-66.662	-0.334	0.133
-500.653	-11.481	-0.278	-0.184
-499.639	-200.000	-0.004	0.103
-498.624	540.262	-0.159	0.378
-497.610	33.551	0.111	0.096
-496.595	-58.312	0.321	0.140
-495.581	-200.000	0.230	0.000
-494.566	161.405	0.251	-0.352
-493.551	227.027	0.092	-0.150
-492.537	-200.000	-0.061	0.403
-491.522	362.383	0.066	-0.132
-490.508	-49.092	0.080	-0.038
-489.493	-128.778	-0.057	-0.008
-488.478	29.426	-0.196	-0.167
-487.464	115.039	-0.033	-0.041
-486.449	-200.000	-0.052	-0.273
-485.435	46.627	-0.308	0.287
-484.420	-175.539	-0.117	-0.003
-483.405	-35.389	0.223	-0.121
-482.391	451.295	0.034	0.076
-481.376	-200.000	-0.027	-0.401
-480.362	321.660	0.110	-0.210
-479.347	-200.000	0.030	-0.186
-478.332	-200.000	-0.025	-0.271
-477.318	6.262	-0.200	-0.149
-476.303	-137.948	-0.099	0.011
-475.289	-168.199	-0.254	-0.010
-474.274	196.029	0.118	0.180
-473.259	-200.000	0.015	0.327
-472.245	-41.748	-0.343	-0.176
-471.230	182.829	0.220	-0.325
-470.216	644.280	0.099	-0.254
-469.201	-51.502	-0.378	-0.177
-468.186	800.000	-0.079	0.261
-467.172	75.846	-0.102	0.108
-466.157	-148.086	-0.457	-0.038
-465.143	-125.086	-0.290	-0.045
-464.128	-200.000	-0.001	0.180
-463.113	-176.327	-0.282	0.007
-462.099	-2.084	0.117	-0.082
-461.084	-200.000	-0.018	0.088
-460.070	-80.712	0.181	0.060
-459.055	-97.457	-0.402	0.105
-458.040	36.816	-0.206	-0.183
-457.026	54.096	0.120	0.115
-456.011	-41.857	-0.219	-0.113
-454.997	421.146	-0.002	0.004
-453.982	-49.992	0.275	0.130
-452.968	-16.188	0.117	-0.074
-451.953	-200.000	0.023	-0.180
-450.938	-179.258	-0.203	-0.005
-449.924	-200.000	0.033	-0.184
-448.909	-11.955	0.064	-0.042
-447.895	282.019	0.122	-0.219
-446.880	-73.518	-0.095	-0.035
-445.865	-97.346	-0.062	0.016
-444.851	331.281	0.137	-0.265
-443.836	-200.000	0.028	0.281
-442.822	-200.000	-0.038	-0.328
-441.807	800.000	0.019	0.058
-440.792	-41.824	0.047	-0.024
-439.778	-10.317	0.275	-0.182
-438.763	139.583	-0.073	0.096
-437.749	-200.000	-0.016	0.177
-436.734	800.000	0.131	0.415
-435.719	282.337	0.085	-0.153
-434.705	-134.302	0.418	0.051
-433.690	-200.000	0.050	0.243
-432.676	-200.000	-0.023	-0.133
-431.661	800.000	0.033	-0.107
-430.646	-0.083	-0.204	0.145
-429.632	-95.241	-0.221	-0.060
-428.617	-10.507	-0.148	0.098
-427.603	-135.843	0.380	0.045
-426.588	-73.156	0.150	-0.055
-425.573	157.101	0.148	0.204
-424.559	-107.317	-0.241	0.053
-423.544	800.000	0.031	-0.119
-422.530	-12.628	0.243	-0.159
-421.515	-200.000	-0.072	-0.397
-420.500	800.000	0.100	0.380
-419.486	-54.759	-0.276	-0.125
-418.471	800.000	-0.089	0.306
-417.457	288.793	0.081	-0.147
-416.442	-200.000	0.016	-0.342
-415.428	-81.594	0.094	-0.031
-414.413	154.397	0.055	-0.075
-413.398	800.000	-0.101	-0.363
-412.384	-200.000	-0.079	-0.380
-411.369	242.541	0.173	0.289
-410.355	172.713	0.033	0.048
-409.340	-56.096	0.154	-0.068
-408.325	263.758	0.192	0.334
-407.311	135.363	0.132	0.171
-406.296	159.906	0.066	-0.092
-405.282	-91.745	0.385	-0.109
-404.267	69.444	-0.127	0.130
-403.252	527.068	-0.197	-0.463
-402.238	800.000	0.044	0.123
-401.223	-24.233	0.170	0.101
-400.209	224.449	0.103	0.166
-399.194	-58.893	0.155	-0.067
-398.179	-200.000	-0.047	-0.310
-397.165	70.533	0.047	-0.049
-396.150	-11.754	0.162	0.106
-395.136	-200.000	-0.012	-0.236
-394.121	585.319	0.015	-0.037
-393.106	-73.082	-0.220	-0.081
-392.092	41.541	-0.173	0.156
-391.077	237.581	0.312	-0.517
-390.063	-68.185	0.207	0.080
-389.048	800.000	0.023	-0.082
-388.033	241.038	0.167	-0.278
-387.019	-28.651	-0.444	0.255
-386.004	3.652	0.044	0.032
-384.990	-137.432	0.265	-0.030
-383.975	800.000	0.051	-0.181
-382.960	572.765	-0.100	0.242
-381.946	100.717	-0.205	-0.238
-380.931	-82.064	0.378	-0.123
-379.917	-172.640	0.073	-0.002
-378.902	-137.844	0.282	0.032
-377.888	416.713	-0.030	-0.065
-376.873	-113.618	-0.068	0.013
-375.858	-200.000	-0.015	0.340
-374.844	-98.462	0.152	0.039
-373.829	70.200	0.048	-0.049
-372.815	24.064	0.111	-0.092
-371.800	-8.404	-0.314	-0.211
-370.785	-81.583	0.141	0.046
-369.771	-31.837	-0.156	0.087
-368.756	-200.000	-0.024	0.342
-367.742	-200.000	0.031	-0.365
-366.727	-118.983	0.399	-0.070
-365.712	-158.757	0.123	-0.007
-364.698	-85.558	-0.166	0.052
-363.683	214.256	-0.116	-0.184
-362.669	3.307	-0.272	0.197
-361.654	-113.258	-0.335	-0.066
-360.639	-200.000	-0.026	-0.166
-359.625	-68.093	-0.282	-0.110
-358.610	30.370	-0.320	0.272
-357.596	83.884	0.178	0.193
-356.581	800.000	-0.023	-0.073
-355.566	-82.692	0.237	0.077
-354.552	400.305	0.045	0.093
-353.537	-82.007	0.429	0.140
-352.523	325.969	0.104	0.199
-351.508	-200.000	0.062	0.273
-350.493	-108.761	-0.398	-0.085
-349.479	310.161	0.091	0.170
-348.464	-54.901	0.066	-0.030
-347.450	-200.000	0.074	-0.567
-346.435	800.000	-0.042	-0.179
-345.420	127.277	-0.080	-0.101
-344.406	-200.000	0.017	0.213
-343.391	-200.000	0.052	-0.248
-342.377	17.428	0.086	-0.068
-341.362	6.714	0.182	-0.135
-340.348	72.617	-0.186	0.193
-339.333	-71.634	-0.330	-0.123
-338.318	33.608	-0.142	0.123
-337.304	-77.279	0.112	0.039
-336.289	-90.152	-0.091	0.026
-335.275	-200.000	0.017	-0.182
-334.260	231.529	-0.097	-0.158
-333.245	-200.000	-0.144	-0.001
-332.231	-109.468	0.093	0.020
-331.216	98.677	0.282	0.325
-330.202	-200.000	-0.019	-0.117
-329.187	23.043	-0.299	0.244
-328.172	131.806	-0.056	0.071
-327.158	-142.051	0.357	0.035
-326.143	70.900	0.280	-0.289
-325.129	607.895	-0.015	-0.036
-324.114	77.945	0.126	-0.134
-323.099	-200.000	-0.016	0.161
-322.085	-58.314	0.082	0.036
-321.070	72.384	-0.079	0.082
-320.056	177.731	-0.173	-0.252
-319.041	-200.000	0.044	0.268
-318.026	-200.000	0.034	-0.155
-317.012	-58.764	-0.191	-0.082
-315.997	800.000	0.061	0.241
-314.983	134.776	0.284	0.367
-313.968	-51.803	0.244	-0.113
-312.953	-200.000	-0.065	-0.492
-311.939	-139.083	-0.047	0.005
-310.924	-60.380	0.134	-0.057
-309.910	-86.366	0.297	0.091
-308.895	-200.000	-0.000	0.190
-307.880	800.000	0.048	0.141
-306.866	643.673	0.131	0.333
-305.851	-200.000	-0.016	0.265
-304.837	84.671	-0.131	-0.143
-303.822	-200.000	0.054	-0.263
-302.807	583.395	-0.105	-0.256
-301.793	-93.206	-0.428	0.118
-300.778	175.891	-0.190	0.274
-299.764	-90.459	0.238	-0.069
-298.749	525.573	0.071	0.167
-297.735	800.000	0.096	0.265
-296.720	-9.412	0.153	-0.102
-295.705	-200.000	-0.007	-0.137
-294.691	-127.672	-0.076	-0.011
-293.676	-31.115	0.130	-0.073
-292.662	800.000	0.137	-0.455
-291.647	-131.286	-0.231	0.030
-290.632	252.436	-0.123	0.208
-289.618	-200.000	-0.055	0.300
-288.603	500.487	0.052	-0.119
-287.589	-143.293	0.131	-0.013
-286.574	-46.755	0.283	-0.138
-285.559	52.300	0.191	0.182
-284.545	772.277	-0.157	0.427
-283.530	-19.296	-0.112	0.069
-282.516	-200.000	0.031	0.214
-281.501	150.487	0.241	0.325
-280.486	16.124	-0.205	0.161
-279.472	209.735	0.139	-0.216
-278.457	800.000	-0.078	-0.254
-277.443	-11.738	0.037	-0.024
-276.428	-200.000	0.008	-0.214
-275.413	300.682	-0.110	0.202
-274.399	-200.000	0.023	0.240
-273.384	520.939	0.134	-0.313
-272.370	0.491	0.183	-0.130
-271.355	-33.608	0.117	-0.064
-270.340	714.254	-0.083	-0.220
-269.326	-2.492	0.261	-0.182
-268.311	-200.000	-0.025	-0.114
-267.297	16.678	0.176	-0.138
-266.282	401.255	0.111	-0.231
-265.267	800.000	-0.048	-0.198
-264.253	4.373	-0.178	-0.130
-263.238	-173.665	0.337	0.010
-262.224	-200.000	-0.003	0.067
-261.209	-89.315	-0.333	0.097
-260.195	-200.000	-0.011	0.285
-259.180	247.714	0.177	0.297
-258.165	90.941	-0.074	-0.083
-257.151	390.229	0.095	-0.196
-256.136	680.639	0.038	0.098
-255.122	28.891	0.051	0.043
-254.107	127.367	0.155	0.196
-253.092	526.849	0.116	0.271
-252.078	271.944	0.044	0.078
-251.063	-200.000	-0.021	-0.154
-250.049	-70.118	0.509	-0.192
-249.034	-104.921	-0.060	-0.014
-248.019	529.284	0.041	-0.097
-247.005	103.746	-0.165	-0.192
-245.990	-200.000	0.011	0.074
-244.976	41.613	0.021	-0.019
-243.961	191.754	0.194	0.291
-242.946	-200.000	-0.053	0.327
-241.932	-89.533	0.144	-0.042
-240.917	-200.000	0.032	-0.176
-239.903	160.012	-0.112	0.155
-238.888	120.769	-0.023	0.028
-237.873	-200.000	0.035	-0.162
-236.859	-16.117	-0.168	-0.106
-235.844	-200.000	0.015	0.182
-234.830	-134.696	0.324	-0.039
-233.815	-170.327	-0.177	0.006
-232.800	51.871	0.162	0.153
-231.786	149.836	-0.112	-0.151
-230.771	-129.230	0.297	0.041
-229.757	-125.586	0.097	-0.015
-228.742	11.555	-0.200	0.152
-227.727	-200.000	-0.086	-0.449
-226.713	-200.000	0.004	-0.252
-225.698	80.990	0.347	0.371
-224.684	-200.000	-0.027	-0.329
-223.669	-200.000	0.082	0.372
-222.655	-125.820	-0.195	0.029
-221.640	169.364	0.245	0.347
-220.625	-200.000	0.013	0.071
-219.611	-56.343	-0.320	-0.141
-218.596	-83.781	-0.105	-0.033
-217.582	800.000	0.089	0.312
-216.567	-166.893	-0.348	0.014
-215.552	-74.187	0.297	-0.106
-214.538	-200.000	-0.037	0.291
-213.523	334.346	-0.071	-0.136
-212.509	-162.554	-0.108	-0.005
-211.494	-200.000	-0.024	0.326
-210.479	-200.000	0.044	0.283
-209.465	140.180	-0.141	-0.184
-208.450	-106.376	0.234	-0.052
-207.436	-55.852	0.152	0.067
-206.421	49.587	-0.119	0.111
-205.406	112.048	0.264	0.316
-204.392	37.455	-0.133	0.117
-203.377	800.000	0.078	0.295
-202.363	56.084	0.026	-0.025
-201.348	-200.000	0.001	-0.158
-200.333	-200.000	0.022	-0.113
-199.319	-200.000	0.012	-0.236
-198.304	37.850	-0.071	0.063
-197.290	-165.021	0.217	0.010
-196.275	365.034	0.052	0.103
-195.260	-115.420	-0.504	0.094
-194.246	-200.000	0.020	-0.103
-193.231	131.960	-0.248	0.316
-192.217	-82.136	-0.204	-0.066
-191.202	115.719	-0.078	0.094
-190.187	-200.000	-0.042	0.250
-189.173	45.206	0.209	-0.191
-188.158	-200.000	-0.049	0.389
-187.144	-200.000	0.014	0.189
-186.129	-32.001	-0.220	-0.122
-185.114	-107.530	-0.170	-0.037
-184.100	-200.000	0.011	0.155
-183.085	-159.927	-0.212	-0.011
-182.071	-85.556	-0.274	-0.084
-181.056	234.136	-0.094	0.154
-180.042	800.000	-0.041	0.157
-179.027	109.119	0.088	-0.104
-178.012	46.716	-0.137	-0.126
-176.998	37.047	-0.205	-0.179
-175.983	466.513	0.025	0.056
-174.969	-131.567	-0.031	-0.004
-173.954	43.035	0.172	0.155
-172.939	-109.276	0.177	-0.037
-171.925	279.208	0.153	-0.271
-170.910	-200.000	-0.022	0.107
-169.896	294.629	-0.063	0.115
-168.881	-200.000	-0.019	-0.172
-167.866	19.170	0.295	-0.234
-166.852	-200.000	-0.033	0.157
-165.837	159.457	0.179	-0.246
-164.823	235.244	-0.216	-0.354
-163.808	139.205	-0.137	-0.178
-162.793	800.000	-0.076	0.221
-161.779	-158.233	0.248	-0.014
-160.764	-200.000	0.006	0.298
-159.750	204.925	-0.224	0.344
-158.735	-200.000	-0.002	0.047
-157.720	-92.669	0.289	0.080
-156.706	-2.520	-0.256	0.178
-155.691	800.000	0.084	-0.332
-154.677	46.133	0.096	0.088
-153.662	-113.988	-0.051	-0.010
-152.647	39.234	0.080	-0.071
-151.633	-35.218	-0.399	0.215
-150.618	-81.224	0.135	-0.044
-149.604	-35.259	0.066	-0.036
-148.589	-159.537	-0.234	0.013
-147.574	356.065	0.042	-0.082
-146.560	-200.000	-0.017	-0.102
-145.545	800.000	0.138	0.431
-144.531	-200.000	-0.030	0.151
-143.516	-200.000	-0.017	0.095
-142.502	-110.535	0.137	-0.028
-141.487	108.236	0.161	-0.190
-140.472	800.000	-0.011	0.045
-139.458	-200.000	0.016	0.231
-138.443	522.700	-0.142	-0.330
-137.429	-193.802	0.134	-0.001
-136.414	269.964	-0.069	-0.120
-135.399	-50.958	-0.199	0.092
-134.385	-77.833	-0.359	0.122
-133.370	621.901	-0.190	-0.473
-132.356	-200.000	-0.059	0.334
-131.341	406.713	0.040	0.083
-130.326	387.874	-0.120	-0.245
-129.312	-99.438	-0.386	0.096
-128.297	-89.221	0.247	-0.072
-127.283	340.703	0.106	-0.205
-126.268	-138.442	-0.533	-0.058
-125.253	-200.000	0.022	-0.180
-124.239	766.576	-0.124	-0.334
-123.224	-141.471	0.206	-0.021
