DTS Sentinel unit serial number:	SN413079Multiplexer serial number:	ORYXHardware model number:	OX4-SRSoftware version number:	ORYX F/W v4.00 Oryx Data Collector v3.7.2.0data status	okinstallation	princeton_trtdifferential loss correction	single-endedforward channel	channel 2reverse channel	N/Adate	2019/09/14time	16:43:35forward acquisition time	60.00reverse acquisition time	0.00gamma	496.2192k internal	0.2307k external	0.2307temperature offset calibration	1.0123default loss term (dB/km)	0.3790temperature slope calibration	1.0000multiplexer offset coefficient	1.0000multiplexer slope coefficient	1.0000fibre end	0.00T internal ref (°C)	38.00T ext. ref 1 (°C)	5.01T ext. ref 2 (°C)	33.78length (m)	temperature (°C)	Stokes	anti-Stokes-747.200	368.295	-0.050	0.102
-746.185	-200.000	-0.034	0.171
-745.171	-67.544	0.229	0.091
-744.156	-97.251	-0.077	-0.020
-743.142	80.560	-0.215	0.235
-742.127	123.634	-0.085	0.108
-741.112	-35.581	-0.233	0.129
-740.098	800.000	-0.080	0.281
-739.083	-88.879	0.198	0.060
-738.069	-7.573	0.122	-0.084
-737.054	-72.665	-0.124	0.047
-736.039	85.164	-0.139	0.154
-735.025	64.108	-0.075	0.077
-734.010	219.261	0.158	-0.256
-732.996	106.895	0.092	-0.111
-731.981	-200.000	-0.017	0.283
-730.966	-139.397	-0.258	0.028
-729.952	177.967	0.345	0.512
-728.937	-58.627	0.134	0.059
-727.923	78.228	-0.178	-0.193
-726.908	-200.000	0.017	-0.078
-725.894	-200.000	-0.011	-0.261
-724.879	-200.000	-0.034	-0.185
-723.864	-63.313	-0.115	-0.048
-722.850	85.507	-0.138	-0.154
-721.835	-77.173	0.217	-0.077
-720.821	9.858	-0.241	-0.186
-719.806	-200.000	0.045	-0.464
-718.791	-96.259	-0.409	0.110
-717.777	225.510	0.187	-0.308
-716.762	17.815	-0.228	-0.185
-715.748	-200.000	0.007	-0.179
-714.733	-86.851	0.174	0.054
-713.718	130.842	-0.071	-0.093
-712.704	-181.651	0.201	-0.004
-711.689	-62.418	-0.142	-0.060
-710.675	177.691	-0.271	-0.401
-709.660	114.839	0.177	-0.220
-708.645	-126.160	-0.143	-0.022
-707.631	-200.000	-0.025	0.184
-706.616	56.919	0.239	0.236
-705.602	-200.000	-0.042	0.237
-704.587	-200.000	0.018	-0.159
-703.572	-200.000	0.016	0.200
-702.558	-77.909	-0.146	0.051
-701.543	56.806	0.301	-0.298
-700.529	-42.988	0.079	-0.041
-699.514	-178.051	-0.480	0.012
-698.499	-0.552	-0.396	-0.285
-697.485	-6.720	-0.017	0.012
-696.470	143.656	-0.144	-0.195
-695.456	800.000	0.072	-0.291
-694.441	194.867	-0.035	-0.053
-693.426	-200.000	0.068	0.528
-692.412	-42.773	-0.180	0.093
-691.397	800.000	-0.129	-0.375
-690.383	-30.239	-0.177	-0.102
-689.368	671.439	0.246	0.648
-688.354	308.589	-0.106	0.201
-687.339	-105.966	0.179	-0.041
-686.324	-133.749	0.009	0.001
-685.310	129.063	0.040	-0.052
-684.295	-66.948	0.155	-0.062
-683.281	24.190	0.075	0.063
-682.266	158.034	-0.113	-0.159
-681.251	231.254	-0.073	-0.122
-680.237	-48.512	-0.298	-0.145
-679.222	10.514	0.078	0.060
-678.208	-100.940	0.249	0.062
-677.193	90.177	-0.102	-0.116
-676.178	221.736	-0.150	-0.244
-675.164	-18.290	-0.352	-0.223
-674.149	-4.134	-0.153	-0.108
-673.135	-15.474	-0.172	-0.111
-672.120	-200.000	-0.000	-0.242
-671.105	292.809	-0.022	-0.041
-670.091	-12.492	-0.323	0.214
-669.076	11.733	0.274	0.213
-668.062	-22.781	0.267	0.163
-667.047	-200.000	-0.005	0.501
-666.032	-86.296	-0.396	0.124
-665.018	-125.821	-0.115	0.018
-664.003	92.299	0.239	-0.273
-662.989	256.411	0.281	0.489
-661.974	800.000	0.020	-0.074
-660.959	-64.003	-0.087	-0.036
-659.945	152.044	-0.151	-0.209
-658.930	-27.181	0.118	-0.070
-657.916	-200.000	-0.006	-0.225
-656.901	264.889	-0.181	0.320
-655.886	-200.000	0.026	0.129
-654.872	729.295	0.050	-0.136
-653.857	135.452	-0.298	-0.393
-652.843	-200.000	-0.046	-0.372
-651.828	-66.186	-0.067	-0.027
-650.814	11.666	-0.048	0.038
-649.799	-113.150	-0.414	-0.083
-648.784	-200.000	-0.012	0.256
-647.770	22.183	-0.212	-0.176
-646.755	-103.513	0.172	0.041
-645.741	325.398	0.104	-0.202
-644.726	124.003	0.016	0.020
-643.711	-57.287	-0.203	0.091
-642.697	98.993	-0.079	0.093
-641.682	-196.044	-0.174	0.001
-640.668	-8.581	-0.300	0.204
-639.653	93.875	-0.287	-0.330
-638.638	72.660	-0.135	-0.143
-637.624	374.857	0.071	-0.146
-636.609	-118.563	-0.232	0.042
-635.595	-133.672	-0.388	0.049
-634.580	434.445	0.077	0.169
-633.565	-11.237	0.227	0.151
-632.551	-84.774	0.298	-0.095
-631.536	-17.105	-0.257	-0.164
-630.522	-200.000	-0.005	0.129
-629.507	660.572	0.048	0.125
-628.492	-10.133	0.100	-0.068
-627.478	-88.161	0.386	-0.117
-626.463	-68.426	0.035	0.014
-625.449	250.873	0.142	-0.244
-624.434	74.730	0.130	-0.139
-623.419	-76.069	-0.151	0.054
-622.405	41.746	-0.231	0.211
-621.390	73.245	0.079	0.083
-620.376	-150.561	-0.265	-0.020
-619.361	257.657	-0.153	-0.267
-618.346	527.597	-0.030	-0.073
-617.332	31.962	-0.134	0.117
-616.317	-6.296	-0.329	-0.227
-615.303	-200.000	-0.022	0.210
-614.288	91.736	-0.153	-0.175
-613.273	-112.838	0.089	-0.018
-612.259	3.634	-0.063	-0.046
-611.244	-60.760	-0.094	0.040
-610.230	8.515	0.265	-0.202
-609.215	-169.137	0.386	-0.014
-608.201	-160.266	-0.060	0.003
-607.186	0.604	0.195	-0.141
-606.171	800.000	-0.125	-0.426
-605.157	-162.733	-0.199	0.010
-604.142	-42.955	-0.326	0.167
-603.128	364.660	0.017	0.034
-602.113	-110.792	0.029	-0.006
-601.098	-110.180	0.098	-0.021
-600.084	107.383	-0.230	-0.276
-599.069	76.153	-0.118	-0.126
-598.055	172.889	0.029	0.042
-597.040	414.786	0.097	0.210
-596.025	-200.000	-0.005	0.146
-595.011	277.836	-0.090	0.162
-593.996	18.757	0.074	0.060
-592.982	81.571	-0.253	-0.277
-591.967	-81.624	-0.510	-0.169
-590.952	10.725	-0.098	0.075
-589.938	-200.000	-0.005	0.283
-588.923	379.748	-0.216	0.447
-587.909	-178.346	0.201	-0.005
-586.894	-178.589	-0.149	0.003
-585.879	263.029	-0.129	-0.226
-584.865	-200.000	0.029	-0.227
-583.850	518.654	-0.058	0.136
-582.836	530.522	-0.111	0.265
-581.821	13.976	0.231	0.182
-580.806	-98.742	-0.245	0.063
-579.792	-200.000	-0.017	-0.155
-578.777	-15.021	0.110	-0.071
-577.763	-131.923	-0.212	0.028
-576.748	53.733	0.174	0.168
-575.733	38.949	-0.260	-0.235
-574.719	3.381	-0.173	-0.127
-573.704	148.744	-0.167	0.228
-572.690	-108.378	-0.352	0.077
-571.675	-9.160	0.070	0.047
-570.661	8.471	0.431	0.327
-569.646	281.412	-0.133	-0.241
-568.631	99.932	-0.095	0.111
-567.617	12.622	0.279	-0.217
-566.602	171.050	0.108	-0.156
-565.588	380.669	-0.201	-0.417
-564.573	-200.000	0.044	0.238
-563.558	-142.888	0.014	0.001
-562.544	34.367	0.159	0.140
-561.529	800.000	-0.035	0.122
-560.515	-200.000	-0.004	-0.029
-559.500	173.813	0.077	0.113
-558.485	-70.539	0.507	0.194
-557.471	-54.514	0.055	-0.025
-556.456	-81.893	0.172	-0.057
-555.442	83.120	-0.091	0.100
-554.427	90.409	-0.070	-0.079
-553.412	-200.000	-0.066	-0.503
-552.398	-128.585	0.159	-0.023
-551.383	800.000	0.012	0.050
-550.369	70.326	0.233	-0.243
-549.354	-200.000	-0.050	-0.304
-548.339	-92.270	-0.192	-0.055
-547.325	-148.342	-0.190	0.016
-546.310	537.154	0.051	-0.122
-545.296	133.068	0.145	0.189
-544.281	317.428	-0.059	0.112
-543.266	-200.000	-0.033	-0.309
-542.252	-34.551	0.204	0.113
-541.237	-107.407	-0.402	-0.089
-540.223	-146.701	0.099	0.009
-539.208	800.000	0.006	0.027
-538.193	-35.305	0.141	0.077
-537.179	-27.955	0.208	0.122
-536.164	-113.173	-0.015	-0.003
-535.150	72.246	-0.151	-0.159
-534.135	17.980	0.103	-0.083
-533.121	800.000	0.032	-0.129
-532.106	-3.885	0.241	0.169
-531.091	152.429	-0.089	-0.122
-530.077	141.245	-0.130	0.174
-529.062	59.152	0.175	-0.174
-528.048	16.392	-0.117	-0.093
-527.033	-164.361	-0.122	-0.006
-526.018	799.111	0.164	-0.455
-525.004	-12.305	0.217	0.143
-523.989	-91.751	-0.098	0.028
-522.975	693.026	-0.057	-0.151
-521.960	787.629	0.020	0.055
-520.945	155.419	-0.067	-0.093
-519.931	300.263	0.179	0.333
-518.916	-200.000	-0.076	0.398
-517.902	332.386	-0.150	-0.291
-516.887	-200.000	0.013	0.330
-515.872	-69.673	0.299	-0.115
-514.858	-68.695	-0.218	-0.085
-513.843	-28.794	-0.213	0.124
-512.829	-78.791	0.220	-0.076
-511.814	-200.000	0.027	0.135
-510.799	202.108	0.130	-0.202
-509.785	302.196	0.062	0.116
-508.770	-9.115	0.050	0.034
-507.756	-82.289	-0.267	-0.088
-506.741	-200.000	0.011	0.125
-505.726	800.000	0.016	0.052
-504.712	324.966	-0.161	0.311
-503.697	-86.356	0.287	0.089
-502.683	-200.000	-0.051	-0.447
-501.668	-149.369	-0.101	-0.008
-500.653	-160.654	-0.144	-0.008
-499.639	18.348	-0.191	-0.154
-498.624	-183.621	-0.189	-0.003
-497.610	-132.115	0.247	0.032
-496.595	652.720	0.038	-0.097
-495.581	-200.000	0.070	-0.397
-494.566	-85.966	0.187	0.058
-493.551	746.253	0.094	-0.254
-492.537	233.660	-0.179	0.297
-491.522	-9.412	-0.152	-0.102
-490.508	57.134	-0.111	0.109
-489.493	-200.000	-0.028	0.194
-488.478	-112.244	-0.084	0.017
-487.464	-189.948	-0.123	0.001
-486.449	31.865	-0.134	-0.117
-485.435	347.228	0.159	-0.315
-484.420	-110.597	-0.244	0.051
-483.405	-200.000	-0.014	-0.132
-482.391	3.313	-0.119	-0.087
-481.376	-148.690	-0.500	-0.041
-480.362	-116.501	-0.347	-0.064
-479.347	-200.000	0.005	0.239
-478.332	424.591	-0.120	0.260
-477.318	-200.000	0.005	-0.135
-476.303	-57.685	0.048	0.021
-475.289	99.718	0.139	-0.162
-474.274	-6.033	0.018	-0.012
-473.259	800.000	-0.028	0.080
-472.245	22.729	-0.269	0.221
-471.230	-200.000	0.008	-0.170
-470.216	4.157	0.058	0.043
-469.201	-200.000	0.085	0.386
-468.186	-48.791	0.111	0.053
-467.172	-200.000	-0.084	0.419
-466.157	217.391	0.146	0.233
-465.143	696.169	-0.039	0.102
-464.128	-121.053	0.132	0.022
-463.113	-200.000	-0.033	0.198
-462.099	58.584	0.032	0.031
-461.084	61.070	0.057	-0.057
-460.070	776.653	0.053	0.147
-459.055	800.000	-0.030	0.087
-458.040	320.231	0.153	-0.292
-457.026	-103.034	-0.368	-0.088
-456.011	98.760	0.102	0.118
-454.997	58.002	-0.091	0.090
-453.982	731.935	-0.088	0.236
-452.968	72.450	0.057	-0.059
-451.953	29.359	0.015	0.013
-450.938	-33.553	0.090	-0.050
-449.924	66.500	-0.186	-0.190
-448.909	-200.000	-0.060	-0.350
-447.895	91.392	-0.413	-0.466
-446.880	-200.000	-0.006	0.059
-445.865	35.430	0.139	-0.123
-444.851	135.666	0.176	0.231
-443.836	101.738	0.183	0.214
-442.822	-200.000	-0.076	0.432
-441.807	-71.933	0.271	0.101
-440.792	-45.777	-0.111	0.055
-439.778	519.917	0.041	0.097
-438.763	-91.331	0.125	-0.036
-437.749	44.565	0.203	0.188
-436.734	149.054	0.141	-0.192
-435.719	88.678	0.133	0.149
-434.705	-77.428	-0.102	-0.036
-433.690	-143.892	-0.288	0.027
-432.676	775.161	0.066	-0.180
-431.661	-92.055	0.244	-0.069
-430.646	800.000	0.045	-0.132
-429.632	250.419	0.084	0.142
-428.617	30.869	-0.406	0.349
-427.603	-113.445	0.007	0.001
-426.588	124.797	0.198	0.251
-425.573	34.419	0.120	-0.105
-424.559	-200.000	-0.030	0.307
-423.544	-200.000	0.008	0.228
-422.530	800.000	-0.112	-0.382
-421.515	223.706	-0.144	0.233
-420.500	-168.563	-0.286	-0.011
-419.486	568.980	0.142	-0.347
-418.471	-52.290	0.314	-0.146
-417.457	32.639	-0.112	-0.097
-416.442	-200.000	-0.062	0.288
-415.428	606.339	0.147	-0.367
-414.413	553.924	0.094	-0.228
-413.398	232.099	-0.126	-0.207
-412.384	-79.130	-0.133	0.045
-411.369	-65.569	0.370	0.149
-410.355	800.000	0.057	0.159
-409.340	169.756	-0.140	0.200
-408.325	-33.255	0.166	-0.092
-407.311	101.901	-0.170	0.199
-406.296	-4.454	-0.251	0.174
-405.282	800.000	0.055	-0.175
-404.267	-56.416	-0.221	-0.099
-403.252	-174.635	0.244	0.007
-402.238	111.954	0.157	0.191
-401.223	143.294	0.165	-0.221
-400.209	87.760	0.154	0.171
-399.194	69.290	0.268	0.277
-398.179	270.854	0.136	-0.240
-397.165	59.058	-0.166	0.164
-396.150	-200.000	0.012	-0.154
-395.136	32.112	-0.080	-0.069
-394.121	-16.891	-0.060	0.038
-393.106	-117.755	0.361	0.065
-392.092	34.026	0.227	-0.198
-391.077	446.153	0.085	0.186
-390.063	65.704	0.285	0.290
-389.048	-133.282	-0.326	-0.041
-388.033	-38.887	-0.154	0.081
-387.019	-43.992	0.153	-0.077
-386.004	800.000	0.063	0.233
-384.990	-10.997	-0.280	0.185
-383.975	387.856	0.084	0.174
-382.960	-200.000	-0.009	-0.076
-381.946	130.502	0.146	0.188
-380.931	-167.604	0.178	0.007
-379.917	-134.119	-0.402	0.050
-378.902	-200.000	-0.010	-0.123
-377.888	-104.093	-0.081	0.019
-376.873	-200.000	0.051	-0.296
-375.858	632.350	0.090	0.228
-374.844	-69.642	-0.242	0.093
-373.829	-68.140	-0.181	0.071
-372.815	-4.971	0.317	-0.219
-371.800	-200.000	0.019	-0.340
-370.785	800.000	0.048	-0.171
-369.771	285.259	-0.111	-0.200
-368.756	356.428	-0.163	-0.325
-367.742	227.491	0.083	0.135
-366.727	326.783	-0.107	0.206
-365.712	800.000	0.101	-0.300
-364.698	223.327	0.123	-0.199
-363.683	-200.000	-0.024	0.422
-362.669	800.000	0.016	0.063
-361.654	64.086	-0.122	0.123
-360.639	-76.593	-0.137	-0.048
-359.625	6.476	-0.077	-0.058
-358.610	133.689	0.096	0.124
-357.596	-0.797	-0.230	-0.163
-356.581	14.947	-0.286	0.224
-355.566	-103.882	0.308	0.072
-354.552	-30.942	0.385	0.218
-353.537	390.174	0.092	0.192
-352.523	800.000	-0.047	-0.150
-351.508	-137.045	-0.161	0.018
-350.493	530.446	0.060	0.142
-349.479	359.407	0.072	-0.145
-348.464	-0.814	-0.122	-0.086
-347.450	-15.462	0.283	-0.181
-346.435	-141.253	-0.540	0.055
-345.420	-65.535	0.187	0.075
-344.406	236.262	0.178	-0.294
-343.391	42.542	0.119	-0.109
-342.377	-78.971	-0.146	-0.050
-341.362	-118.985	-0.129	-0.023
-340.348	-200.000	0.038	-0.263
-339.333	-200.000	-0.100	-0.445
-338.318	-104.776	-0.217	0.050
-337.304	-163.026	0.262	-0.013
-336.289	-200.000	-0.006	0.031
-335.275	800.000	-0.085	0.330
-334.260	53.445	-0.097	-0.093
-333.245	-74.245	-0.389	0.141
-332.231	-19.576	0.159	0.099
-331.216	-147.715	0.254	0.021
-330.202	-113.780	-0.031	0.006
-329.187	55.096	0.142	-0.137
-328.172	800.000	-0.087	-0.250
-327.158	-107.637	-0.386	0.084
-326.143	800.000	0.039	0.172
-325.129	-2.388	-0.055	0.038
-324.114	800.000	0.062	0.175
-323.099	242.065	0.099	0.166
-322.085	-13.080	0.274	-0.178
-321.070	649.744	0.082	-0.209
-320.056	-40.173	-0.066	0.034
-319.041	-145.304	-0.149	-0.013
-318.026	-200.000	-0.045	0.268
-317.012	-200.000	0.021	0.131
-315.997	119.299	0.348	0.430
-314.983	-34.038	-0.235	-0.129
-313.968	-200.000	-0.062	0.324
-312.953	-200.000	-0.002	0.184
-311.939	11.531	0.173	-0.133
-310.924	140.866	-0.186	-0.246
-309.910	-19.358	0.046	-0.028
-308.895	-63.892	-0.172	0.070
-307.880	-74.480	-0.098	-0.035
-306.866	-118.743	-0.294	0.052
-305.851	-200.000	0.024	-0.110
-304.837	-11.587	0.141	0.092
-303.822	82.797	0.205	0.222
-302.807	19.232	-0.214	0.172
-301.793	-97.120	0.155	-0.041
-300.778	24.930	0.171	-0.142
-299.764	-56.691	-0.141	-0.062
-298.749	-61.614	-0.106	-0.045
-297.735	-84.545	0.233	-0.073
-296.720	800.000	0.103	0.308
-295.705	-200.000	0.011	-0.089
-294.691	-200.000	-0.007	-0.052
-293.676	755.807	-0.049	-0.133
-292.662	222.398	-0.116	0.187
-291.647	-200.000	-0.012	0.118
-290.632	120.632	0.154	0.191
-289.618	-200.000	0.031	0.203
-288.603	360.785	-0.129	-0.258
-287.589	308.337	0.083	0.154
-286.574	-67.645	-0.030	0.012
-285.559	-113.463	-0.203	-0.040
-284.545	-200.000	-0.049	-0.331
-283.530	256.133	0.152	-0.260
-282.516	89.017	0.082	0.092
-281.501	-129.615	-0.088	0.012
-280.486	-200.000	0.070	0.428
-279.472	560.089	0.058	0.140
-278.457	-181.422	0.063	0.001
-277.443	47.886	0.050	-0.047
-276.428	461.395	0.089	-0.199
-275.413	-200.000	-0.022	0.261
-274.399	132.709	-0.093	0.120
-273.384	15.177	0.250	0.196
-272.370	79.184	0.080	-0.085
-271.355	167.545	0.206	-0.292
-270.340	-200.000	0.019	0.132
-269.326	-123.715	0.303	0.048
-268.311	-90.566	0.131	-0.038
-267.297	-200.000	0.006	0.337
-266.282	800.000	-0.106	-0.404
-265.267	555.372	0.064	-0.155
-264.253	-150.096	-0.250	-0.019
-263.238	-200.000	-0.020	0.087
-262.224	-34.901	0.302	0.165
-261.209	800.000	-0.038	0.134
-260.195	-73.990	0.202	-0.073
-259.180	-96.989	-0.128	0.034
-258.165	-42.822	0.179	-0.091
-257.151	-19.596	0.373	-0.230
-256.136	213.369	0.355	-0.560
-255.122	-164.808	0.209	-0.009
-254.107	-200.000	-0.012	0.107
-253.092	-115.016	-0.098	-0.019
-252.078	800.000	0.089	0.312
-251.063	800.000	-0.041	0.154
-250.049	-114.682	0.293	0.056
-249.034	709.348	-0.111	0.292
-248.019	-200.000	-0.017	-0.187
-247.005	118.639	-0.169	-0.208
-245.990	88.266	-0.221	-0.245
-244.976	219.719	0.095	0.152
-243.961	116.951	0.161	-0.197
-242.946	-50.920	0.119	0.056
-241.932	29.641	-0.083	0.070
-240.917	-200.000	0.007	0.104
-239.903	-92.145	0.408	-0.115
-238.888	-200.000	-0.006	-0.292
-237.873	155.246	0.114	-0.157
-236.859	-200.000	-0.016	-0.088
-235.844	375.952	-0.127	-0.258
-234.830	800.000	0.077	0.309
-233.815	-200.000	0.007	-0.237
-232.800	71.629	-0.215	0.222
-231.786	-200.000	-0.049	0.340
-230.771	297.564	-0.098	0.179
-229.757	248.803	0.137	0.232
-228.742	-200.000	-0.022	-0.145
-227.727	284.624	0.248	-0.444
-226.713	66.885	0.173	0.176
-225.698	87.084	-0.128	0.141
-224.684	213.791	-0.137	-0.217
-223.669	206.221	0.069	0.107
-222.655	-200.000	0.034	0.266
-221.640	33.863	-0.246	-0.214
-220.625	18.445	0.129	-0.103
-219.611	30.244	0.198	-0.169
-218.596	800.000	0.068	-0.218
-217.582	-39.592	-0.261	0.136
-216.567	36.800	0.293	-0.258
-215.552	-67.684	0.324	0.127
-214.538	276.345	0.088	-0.155
-213.523	7.020	-0.276	-0.205
-212.509	366.808	-0.138	0.277
-211.494	-181.614	-0.136	-0.003
-210.479	380.863	-0.093	-0.190
-209.465	-68.297	0.425	0.164
-208.450	-127.447	-0.181	-0.026
-207.436	-200.000	-0.092	0.473
-206.421	-200.000	0.005	-0.103
-205.406	425.783	-0.082	0.177
-204.392	96.742	-0.260	0.297
-203.377	125.646	-0.111	-0.140
-202.363	27.097	-0.153	0.128
-201.348	159.934	0.097	0.134
-200.333	-25.177	0.255	0.150
-199.319	-200.000	0.010	-0.142
-198.304	266.113	-0.210	-0.365
-197.290	130.129	-0.161	-0.205
-196.275	-200.000	-0.028	0.177
-195.260	-61.985	-0.273	0.114
-194.246	-145.941	0.074	0.007
-193.231	135.973	0.093	-0.121
-192.217	-130.687	0.344	-0.046
-191.202	301.194	-0.085	0.157
-190.187	-122.344	0.448	-0.073
-189.173	-136.005	0.272	0.032
-188.158	-41.979	-0.174	-0.089
-187.144	62.928	0.181	0.181
-186.129	669.247	0.023	0.060
-185.114	162.049	0.117	-0.162
-184.100	17.742	-0.092	0.073
-183.085	81.085	-0.081	0.087
-182.071	108.796	-0.103	0.123
-181.056	40.402	0.152	0.136
-180.042	-57.264	0.084	-0.037
-179.027	108.246	0.029	-0.034
-178.012	555.727	-0.039	-0.093
-176.998	212.372	0.084	-0.132
-175.983	542.472	0.038	-0.090
-174.969	625.765	0.089	-0.224
-173.954	-200.000	-0.008	-0.183
-172.939	-8.985	-0.261	0.174
-171.925	-120.222	0.111	0.019
-170.910	-200.000	0.014	-0.302
-169.896	800.000	0.080	-0.269
-168.881	5.822	0.018	-0.013
-167.866	-140.186	0.289	0.030
-166.852	-200.000	0.003	-0.405
-165.837	-200.000	-0.033	-0.182
-164.823	-200.000	-0.006	-0.293
-163.808	502.119	0.018	-0.042
-162.793	-200.000	-0.046	0.253
-161.779	-69.013	0.438	0.168
-160.764	174.559	-0.154	-0.222
-159.750	-43.176	0.093	0.047
-158.735	67.189	0.244	0.247
-157.720	-200.000	-0.043	-0.200
-156.706	220.925	-0.047	0.075
-155.691	-20.909	-0.082	0.050
-154.677	800.000	-0.027	0.076
-153.662	122.103	0.090	0.112
-152.647	-83.920	-0.435	-0.138
-151.633	-200.000	-0.008	0.293
-150.618	87.357	0.156	0.171
-149.604	-200.000	0.050	0.689
-148.589	-76.085	0.316	0.111
-147.574	-200.000	-0.035	-0.521
-146.560	278.023	0.107	-0.190
-145.545	800.000	0.038	0.162
-144.531	21.842	0.297	-0.240
-143.516	800.000	0.060	0.174
-142.502	800.000	-0.127	-0.548
-141.487	202.835	0.170	0.260
-140.472	250.288	0.209	0.352
-139.458	-46.434	0.185	-0.090
-138.443	-49.714	-0.171	0.081
-137.429	-200.000	-0.038	-0.393
-136.414	-200.000	-0.015	-0.298
-135.399	-82.646	0.384	0.124
-134.385	800.000	0.086	0.273
-133.370	-43.989	-0.110	-0.055
-132.356	-77.552	0.272	-0.094
-131.341	-119.621	-0.368	0.063
-130.326	168.065	0.216	-0.305
-129.312	-200.000	0.063	-0.295
-128.297	83.239	-0.243	0.263
-127.283	507.121	0.048	0.111
-126.268	-140.929	-0.088	0.009
-125.253	-156.227	0.212	0.013
-124.239	-126.905	-0.139	-0.020
-123.224	57.975	0.135	0.131
-122.210	-200.000	-0.025	-0.143
-121.195	-55.183	0.142	-0.063
-120.180	-100.738	0.128	-0.031
