DTS Sentinel unit serial number:	SN413079Multiplexer serial number:	ORYXHardware model number:	OX4-SRSoftware version number:	ORYX F/W v4.00 Oryx Data Collector v3.7.2.0data status	okinstallation	princeton_trtdifferential loss correction	single-endedforward channel	channel 2reverse channel	N/Adate	2019/09/12time	07:57:11forward acquisition time	60.00reverse acquisition time	0.00gamma	496.2192k internal	0.2321k external	0.2321temperature offset calibration	1.0060default loss term (dB/km)	0.3790temperature slope calibration	1.0000multiplexer offset coefficient	1.0000multiplexer slope coefficient	1.0000fibre end	0.00T internal ref (°C)	33.00T ext. ref 1 (°C)	1.66T ext. ref 2 (°C)	29.28length (m)	temperature (°C)	Stokes	anti-Stokes-747.200	800.000	0.092	0.335
-746.185	800.000	-0.052	0.177
-745.171	800.000	0.095	0.280
-744.156	221.365	-0.114	0.186
-743.142	8.762	0.080	0.061
-742.127	352.769	-0.137	0.274
-741.112	102.200	0.083	0.098
-740.098	-139.419	0.200	0.022
-739.083	800.000	-0.032	0.120
-738.069	53.725	-0.187	0.181
-737.054	83.975	0.072	0.079
-736.039	-86.752	-0.333	-0.103
-735.025	-96.355	-0.192	0.051
-734.010	-41.581	-0.479	-0.249
-732.996	0.083	0.084	0.060
-731.981	-30.771	0.183	-0.105
-730.966	-48.919	0.173	0.084
-729.952	-200.000	0.034	0.167
-728.937	-200.000	-0.011	-0.181
-727.923	-86.060	-0.219	-0.068
-726.908	-20.046	-0.335	-0.209
-725.894	57.517	-0.376	-0.371
-724.879	329.317	-0.181	-0.352
-723.864	389.218	0.105	-0.221
-722.850	-20.295	-0.362	0.225
-721.835	-116.457	-0.264	-0.049
-720.821	-149.312	0.124	0.010
-719.806	-161.074	-0.192	0.010
-718.791	11.945	0.114	0.088
-717.777	-32.357	-0.212	0.120
-716.762	-200.000	-0.015	0.105
-715.748	46.991	0.163	-0.153
-714.733	-58.639	-0.257	0.113
-713.718	12.433	0.188	-0.146
-712.704	-53.059	-0.478	0.222
-711.689	-107.515	-0.109	-0.024
-710.675	657.505	-0.061	-0.158
-709.660	766.537	-0.068	0.185
-708.645	235.644	0.068	0.114
-707.631	157.068	-0.180	-0.251
-706.616	-200.000	-0.022	-0.358
-705.602	-145.135	-0.313	-0.029
-704.587	-200.000	-0.044	0.225
-703.572	-69.222	-0.427	-0.166
-702.558	-80.690	-0.280	0.094
-701.543	140.258	0.275	0.366
-700.529	-92.064	-0.350	-0.100
-699.514	1.366	-0.315	-0.228
-698.499	-200.000	0.009	0.091
-697.485	19.596	0.113	0.092
-696.470	-68.973	0.525	-0.204
-695.456	-116.435	-0.114	-0.021
-694.441	-54.128	-0.202	-0.093
-693.426	352.366	0.190	-0.380
-692.412	-124.557	0.081	-0.013
-691.397	220.329	0.130	-0.211
-690.383	-107.722	-0.017	0.004
-689.368	-140.921	0.216	-0.022
-688.354	-30.844	-0.143	-0.082
-687.339	-115.235	-0.150	-0.029
-686.324	-200.000	0.060	0.269
-685.310	281.797	0.168	0.303
-684.295	-134.841	0.321	-0.039
-683.281	157.213	0.201	0.281
-682.266	-71.030	-0.306	-0.116
-681.251	-154.875	-0.129	-0.009
-680.237	-200.000	0.002	0.228
-679.222	-188.305	-0.085	0.001
-678.208	-200.000	-0.057	-0.261
-677.193	-200.000	-0.048	0.216
-676.178	-200.000	-0.042	-0.278
-675.164	-77.956	0.296	-0.103
-674.149	-200.000	0.012	-0.073
-673.135	800.000	0.078	-0.220
-672.120	439.830	-0.207	0.457
-671.105	-50.254	0.267	0.127
-670.091	800.000	0.039	0.157
-669.076	-55.538	0.175	-0.079
-668.062	516.339	0.101	-0.237
-667.047	800.000	-0.080	-0.331
-666.032	739.156	-0.120	-0.324
-665.018	-78.921	-0.229	0.079
-664.003	-46.701	0.169	0.083
-662.989	-25.042	-0.122	0.073
-661.974	800.000	-0.117	0.396
-660.959	-179.931	-0.264	0.006
-659.945	-73.901	0.244	0.089
-658.930	71.749	-0.147	0.154
-657.916	393.088	0.114	-0.239
-656.901	-145.437	-0.175	-0.016
-655.886	720.938	0.073	0.196
-654.872	800.000	-0.098	-0.317
-653.857	8.137	-0.119	-0.090
-652.843	-82.924	-0.146	-0.047
-651.828	244.361	-0.105	0.178
-650.814	-166.704	-0.453	0.019
-649.799	800.000	-0.048	0.204
-648.784	-127.471	-0.110	-0.016
-647.770	61.703	0.055	-0.055
-646.755	65.431	-0.216	0.220
-645.741	-200.000	-0.029	-0.191
-644.726	-200.000	0.054	0.265
-643.711	405.904	-0.190	0.404
-642.697	-187.541	-0.306	-0.004
-641.682	-134.533	-0.131	-0.016
-640.668	425.897	0.138	-0.300
-639.653	49.254	-0.173	-0.164
-638.638	-77.877	-0.197	-0.068
-637.624	-200.000	0.022	0.122
-636.609	-17.811	0.336	0.212
-635.595	59.905	0.275	0.273
-634.580	90.905	-0.219	0.247
-633.565	-200.000	0.010	0.184
-632.551	432.288	0.100	-0.219
-631.536	101.339	-0.193	0.226
-630.522	800.000	-0.035	-0.151
-629.507	-169.324	-0.280	-0.010
-628.492	-194.242	-0.139	-0.001
-627.478	262.288	-0.059	0.103
-626.463	-41.767	-0.371	0.192
-625.449	93.029	0.239	-0.272
-624.434	137.123	-0.174	-0.229
-623.419	244.755	-0.368	-0.623
-622.405	-200.000	-0.028	-0.324
-621.390	-71.383	-0.066	-0.025
-620.376	-176.155	0.164	0.004
-619.361	576.851	0.062	0.151
-618.346	800.000	0.073	-0.206
-617.332	-29.457	0.133	0.077
-616.317	-200.000	-0.014	-0.131
-615.303	800.000	0.031	0.124
-614.288	164.596	0.155	-0.220
-613.273	-83.328	-0.068	-0.022
-612.259	-148.341	0.166	0.014
-611.244	-200.000	0.004	-0.021
-610.230	800.000	-0.047	-0.151
-609.215	130.223	-0.108	-0.139
-608.201	-49.976	0.131	0.062
-607.186	-42.372	-0.264	-0.135
-606.171	-200.000	-0.028	-0.342
-605.157	-200.000	-0.011	-0.100
-604.142	-200.000	-0.016	0.074
-603.128	-33.910	-0.129	0.071
-602.113	-93.967	-0.089	0.025
-601.098	-38.612	-0.121	-0.064
-600.084	45.197	-0.073	-0.067
-599.069	120.455	-0.149	-0.185
-598.055	-200.000	0.036	0.176
-597.040	-29.743	-0.025	0.015
-596.025	683.117	-0.061	-0.160
-595.011	-121.663	0.017	0.003
-593.996	-200.000	-0.017	-0.285
-592.982	-200.000	0.016	-0.232
-591.967	-41.486	0.323	0.167
-590.952	647.724	-0.056	-0.144
-589.938	35.650	-0.104	0.092
-588.923	67.204	-0.169	0.173
-587.909	162.098	-0.242	-0.341
-586.894	51.216	0.242	-0.231
-585.879	-127.080	0.119	-0.018
-584.865	-200.000	-0.012	-0.123
-583.850	-200.000	-0.020	-0.112
-582.836	-200.000	-0.004	-0.172
-581.821	390.400	-0.099	-0.205
-580.806	-200.000	0.004	0.018
-579.792	260.764	-0.185	-0.322
-578.777	-95.664	0.159	-0.043
-577.763	162.353	-0.203	0.286
-576.748	-200.000	0.005	0.075
-575.733	800.000	0.072	0.227
-574.719	-200.000	-0.018	-0.108
-573.704	-200.000	-0.013	-0.146
-572.690	-131.047	0.104	-0.014
-571.675	161.073	-0.143	-0.200
-570.661	-200.000	0.031	-0.185
-569.646	33.705	0.211	0.184
-568.631	-156.621	0.136	0.008
-567.617	-136.166	-0.191	-0.022
-566.602	56.368	0.219	0.214
-565.588	-140.031	0.221	-0.023
-564.573	-12.237	0.318	-0.209
-563.558	76.967	0.092	0.098
-562.544	133.013	-0.229	-0.297
-561.529	150.817	0.205	0.280
-560.515	159.583	0.090	0.125
-559.500	-200.000	-0.033	-0.195
-558.485	71.986	-0.168	0.175
-557.471	-109.852	0.086	-0.018
-556.456	-45.685	0.033	0.016
-555.442	-67.623	-0.342	0.135
-554.427	-200.000	0.029	-0.206
-553.412	-200.000	0.294	-0.001
-552.398	-200.000	0.046	0.211
-551.383	132.716	-0.078	0.101
-550.369	156.141	0.063	0.088
-549.354	63.382	-0.114	0.115
-548.339	-138.452	-0.397	-0.044
-547.325	317.533	0.079	-0.149
-546.310	39.150	-0.065	0.058
-545.296	800.000	0.009	0.037
-544.281	194.319	-0.109	0.165
-543.266	82.894	0.055	0.060
-542.252	127.336	-0.155	-0.197
-541.237	425.616	0.051	0.111
-540.223	48.184	-0.208	0.196
-539.208	139.977	0.232	0.306
-538.193	-42.916	0.133	0.068
-537.179	-200.000	-0.020	0.242
-536.164	317.245	0.117	-0.221
-535.150	-7.456	0.315	-0.214
-534.135	-14.179	-0.138	0.089
-533.121	-200.000	0.009	-0.277
-532.106	129.314	-0.168	0.215
-531.091	27.994	-0.200	-0.169
-530.077	-63.132	0.154	0.064
-529.062	160.907	0.009	-0.013
-528.048	-55.698	0.186	0.084
-527.033	800.000	0.005	0.019
-526.018	-36.114	0.181	-0.098
-525.004	800.000	0.018	0.067
-523.989	-105.727	0.311	0.070
-522.975	239.723	-0.098	0.163
-521.960	-200.000	0.030	0.255
-520.945	695.069	0.140	-0.367
-519.931	-200.000	-0.049	-0.313
-518.916	-59.261	0.270	-0.116
-517.902	193.208	-0.202	0.306
-516.887	294.154	0.060	0.110
-515.872	800.000	-0.071	-0.202
-514.858	800.000	0.022	0.073
-513.843	-200.000	0.027	0.258
-512.829	125.783	-0.094	-0.119
-511.814	65.440	-0.151	0.153
-510.799	-110.050	0.131	-0.028
-509.785	1.764	0.130	-0.094
-508.770	-135.056	0.143	-0.017
-507.756	-102.884	-0.144	-0.034
-506.741	371.206	-0.199	-0.404
-505.726	-25.647	-0.119	-0.070
-504.712	66.537	-0.112	0.114
-503.697	122.756	0.013	-0.016
-502.683	-55.854	-0.197	-0.088
-501.668	-68.003	-0.492	0.192
-500.653	800.000	0.031	-0.098
-499.639	800.000	-0.084	-0.253
-498.624	-200.000	-0.059	-0.259
-497.610	315.274	0.117	-0.222
-496.595	646.008	0.090	0.231
-495.581	547.935	0.072	0.173
-494.566	89.027	-0.199	0.222
-493.551	60.703	0.057	-0.057
-492.537	-71.696	-0.206	-0.077
-491.522	-24.642	-0.250	-0.149
-490.508	-110.448	-0.177	0.037
-489.493	-200.000	-0.035	-0.226
-488.478	-43.596	0.424	0.214
-487.464	800.000	-0.030	0.123
-486.449	411.832	0.123	0.261
-485.435	69.204	0.230	0.237
-484.420	-81.725	-0.160	0.053
-483.405	409.583	0.011	-0.024
-482.391	-23.168	0.168	0.101
-481.376	346.143	-0.014	0.028
-480.362	-109.921	0.266	0.056
-479.347	24.733	-0.018	-0.015
-478.332	730.370	-0.062	0.166
-477.318	-85.935	0.080	0.025
-476.303	800.000	0.041	0.118
-475.289	-129.096	-0.107	-0.015
-474.274	130.635	0.187	0.240
-473.259	197.596	0.037	0.056
-472.245	-200.000	-0.019	0.143
-471.230	800.000	-0.031	-0.132
-470.216	800.000	-0.027	0.083
-469.201	-185.460	0.283	0.004
-468.186	-34.006	0.050	-0.028
-467.172	-200.000	0.026	0.219
-466.157	568.789	-0.037	0.091
-465.143	-111.728	-0.086	0.018
-464.128	164.471	-0.136	0.191
-463.113	656.216	0.063	0.163
-462.099	-85.107	0.052	0.016
-461.084	40.315	-0.030	0.027
-460.070	73.798	0.210	-0.221
-459.055	-15.706	-0.186	0.118
-458.040	-90.411	-0.282	0.082
-457.026	24.299	-0.235	0.194
-456.011	-156.397	0.170	-0.011
-454.997	212.817	-0.174	0.274
-453.982	262.482	-0.069	0.120
-452.968	125.520	-0.130	-0.164
-451.953	-98.828	-0.099	-0.025
-450.938	584.811	0.105	0.257
-449.924	29.428	0.062	0.053
-448.909	-42.208	-0.333	0.170
-447.895	68.319	0.086	0.088
-446.880	-200.000	-0.002	-0.028
-445.865	-145.137	-0.167	0.015
-444.851	-200.000	0.014	-0.255
-443.836	441.920	0.083	-0.182
-442.822	800.000	-0.064	-0.261
-441.807	-1.113	0.188	0.133
-440.792	167.766	-0.339	-0.482
-439.778	800.000	0.119	-0.407
-438.763	-123.305	0.294	0.047
-437.749	-200.000	-0.027	0.200
-436.734	800.000	0.048	0.155
-435.719	54.137	0.323	0.310
-434.705	-157.572	-0.191	-0.011
-433.690	800.000	-0.106	0.431
-432.676	-131.178	-0.007	0.001
-431.661	-124.798	0.275	0.042
-430.646	61.352	0.197	0.195
-429.632	-59.067	-0.465	-0.200
-428.617	695.737	0.100	-0.261
-427.603	192.807	0.178	-0.269
-426.588	-200.000	0.007	-0.183
-425.573	86.183	0.436	0.480
-424.559	-200.000	0.040	-0.185
-423.544	-74.336	-0.208	0.075
-422.530	7.280	0.222	0.165
-421.515	-74.866	0.228	0.082
-420.500	800.000	0.093	0.280
-419.486	-38.960	-0.194	-0.102
-418.471	335.742	0.085	0.165
-417.457	-156.411	0.268	-0.017
-416.442	102.920	0.262	-0.306
-415.428	176.411	-0.196	0.285
-414.413	-200.000	-0.014	-0.212
-413.398	-200.000	0.006	-0.313
-412.384	-174.494	-0.103	-0.003
-411.369	-200.000	-0.001	-0.055
-410.355	146.105	-0.194	0.259
-409.340	-90.339	0.381	0.110
-408.325	66.968	0.209	-0.212
-407.311	-142.572	0.131	-0.013
-406.296	-0.318	0.185	0.131
-405.282	-200.000	0.003	0.228
-404.267	-200.000	-0.003	0.269
-403.252	-82.754	-0.201	-0.065
-402.238	57.722	0.339	-0.331
-401.223	-48.014	0.122	-0.059
-400.209	800.000	-0.030	-0.114
-399.194	800.000	-0.047	0.155
-398.179	282.714	0.024	0.044
-397.165	-9.688	-0.183	-0.122
-396.150	13.633	-0.241	0.187
-395.136	-106.411	-0.247	-0.055
-394.121	-200.000	0.033	-0.154
-393.106	-79.624	-0.153	0.052
-392.092	-200.000	-0.035	0.297
-391.077	391.418	-0.072	0.149
-390.063	183.271	0.040	0.058
-389.048	-71.835	-0.475	0.176
-388.033	-149.456	0.347	0.027
-387.019	-35.584	-0.071	0.038
-386.004	-200.000	0.027	-0.199
-384.990	-76.709	-0.401	-0.140
-383.975	-200.000	0.039	-0.251
-382.960	166.313	-0.058	-0.082
-381.946	-200.000	-0.009	0.514
-380.931	78.295	-0.056	-0.059
-379.917	-114.935	0.422	-0.080
-378.902	-12.414	-0.251	0.163
-377.888	189.870	-0.095	0.142
-376.873	-110.737	-0.042	0.009
-375.858	-200.000	0.015	-0.193
-374.844	-126.622	-0.321	-0.047
-373.829	92.782	-0.080	0.089
-372.815	-200.000	0.019	0.120
-371.800	700.014	0.050	0.132
-370.785	800.000	-0.019	-0.075
-369.771	-38.700	0.270	-0.142
-368.756	-44.040	0.142	-0.071
-367.742	-107.718	0.442	-0.096
-366.727	396.865	-0.077	0.161
-365.712	480.544	-0.034	-0.076
-364.698	212.996	-0.140	-0.220
-363.683	100.031	0.175	0.202
-362.669	13.814	-0.164	0.127
-361.654	-86.364	0.445	-0.136
-360.639	-200.000	0.000	0.060
-359.625	-167.182	-0.091	-0.004
-358.610	378.506	0.188	-0.384
-357.596	-95.075	-0.317	-0.085
-356.581	-103.728	-0.349	-0.081
-355.566	-18.704	-0.019	0.012
-354.552	719.166	-0.108	-0.285
-353.537	-89.580	-0.392	-0.114
-352.523	221.030	-0.157	0.251
-351.508	-116.034	0.090	-0.017
-350.493	19.349	-0.064	-0.051
-349.479	-13.943	-0.213	-0.137
-348.464	190.033	-0.216	-0.323
-347.450	-200.000	-0.026	-0.322
-346.435	391.948	0.144	0.299
-345.420	-102.869	-0.339	0.080
-344.406	-119.488	-0.280	0.048
-343.391	93.380	0.224	0.252
-342.377	57.714	-0.123	0.120
-341.362	800.000	-0.051	0.179
-340.348	25.391	0.184	-0.153
-339.333	-97.057	-0.055	0.014
-338.318	-127.179	-0.289	-0.042
-337.304	-167.049	0.318	0.013
-336.289	-109.268	0.270	-0.057
-335.275	-1.489	-0.102	0.072
-334.260	386.751	-0.173	0.356
-333.245	-200.000	0.018	-0.126
-332.231	-37.863	0.179	-0.095
-331.216	289.827	-0.058	-0.105
-330.202	-166.301	-0.140	-0.006
-329.187	184.393	-0.287	0.423
-328.172	800.000	-0.019	0.062
-327.158	800.000	-0.018	0.063
-326.143	-100.064	-0.228	0.057
-325.129	-172.277	0.248	0.008
-324.114	-83.552	0.128	0.041
-323.099	-68.420	-0.150	0.058
-322.085	-6.204	-0.347	-0.236
-321.070	524.558	0.159	0.372
-320.056	75.317	0.325	-0.341
-319.041	-106.611	-0.277	-0.061
-318.026	200.639	0.086	0.132
-317.012	-200.000	-0.011	0.152
-315.997	128.483	-0.077	0.097
-314.983	192.796	0.094	-0.141
-313.968	-22.328	0.040	0.024
-312.953	800.000	0.042	-0.133
-311.939	800.000	-0.004	0.016
-310.924	-200.000	-0.021	-0.126
-309.910	80.595	0.153	-0.164
-308.895	25.333	-0.312	0.258
-307.880	-143.551	0.412	-0.039
-306.866	-200.000	-0.055	-0.333
-305.851	477.342	0.068	0.154
-304.837	-80.967	0.234	-0.077
-303.822	-153.065	-0.143	0.010
-302.807	800.000	-0.060	0.245
-301.793	4.791	0.273	0.199
-300.778	-121.625	0.162	0.027
-299.764	560.477	-0.075	0.181
-298.749	-200.000	-0.012	0.215
-297.735	800.000	-0.086	-0.279
-296.720	-3.799	-0.033	0.022
-295.705	800.000	0.034	-0.109
-294.691	-94.538	0.318	0.086
-293.676	-105.446	0.060	0.014
-292.662	-112.847	-0.237	0.047
-291.647	611.111	0.104	-0.259
-290.632	-200.000	-0.006	-0.214
-289.618	-186.404	-0.111	-0.002
-288.603	-45.689	-0.191	0.094
-287.589	212.647	-0.231	-0.362
-286.574	-27.256	0.348	0.201
-285.559	-105.993	-0.363	0.081
-284.545	800.000	-0.022	0.070
-283.530	282.193	-0.137	-0.244
-282.516	-200.000	0.074	0.320
-281.501	-165.113	0.324	0.014
-280.486	388.905	-0.100	-0.206
-279.472	-73.222	-0.246	-0.090
-278.457	28.033	0.188	-0.157
-277.443	-200.000	0.046	0.206
-276.428	48.080	0.208	-0.193
-275.413	-130.414	-0.115	-0.016
-274.399	252.608	-0.065	0.110
-273.384	-69.713	-0.289	0.110
-272.370	261.771	-0.076	-0.131
-271.355	-100.675	0.116	0.028
-270.340	-70.506	-0.359	0.135
-269.326	800.000	-0.062	-0.260
-268.311	-62.661	-0.177	-0.073
-267.297	-200.000	0.056	0.273
-266.282	-200.000	-0.002	-0.090
-265.267	99.427	0.033	0.038
-264.253	-67.723	0.289	0.112
-263.238	-67.039	0.240	-0.094
-262.224	-146.011	-0.150	-0.013
-261.209	8.207	0.247	-0.184
-260.195	37.414	0.181	0.159
-259.180	-146.284	0.106	0.009
-258.165	800.000	0.034	0.131
-257.151	50.939	-0.218	0.205
-256.136	153.391	0.150	-0.203
-255.122	236.335	-0.189	0.310
-254.107	-112.495	-0.228	0.045
-253.092	151.671	0.235	-0.317
-252.078	-125.306	0.310	0.047
-251.063	-200.000	0.059	0.297
-250.049	23.612	-0.103	-0.084
-249.034	-64.560	0.158	-0.063
-248.019	208.681	-0.074	-0.116
-247.005	16.295	0.229	-0.179
-245.990	-200.000	0.065	0.388
-244.976	-145.772	-0.244	0.022
-243.961	449.748	0.166	0.362
-242.946	-200.000	-0.016	-0.196
-241.932	-83.605	-0.128	0.041
-240.917	-176.870	0.345	0.009
-239.903	29.659	-0.354	0.298
-238.888	-147.854	-0.094	-0.008
-237.873	172.985	-0.031	-0.045
-236.859	-89.286	-0.235	-0.069
-235.844	-44.851	0.276	-0.136
-234.830	800.000	0.039	-0.155
-233.815	-16.624	-0.108	-0.068
-232.800	-39.973	-0.270	-0.140
-231.786	-28.892	-0.125	-0.071
-230.771	-132.313	0.260	0.033
-229.757	77.116	0.088	0.092
-228.742	74.024	0.094	-0.098
-227.727	-140.305	-0.242	-0.025
-226.713	22.511	-0.178	-0.144
-225.698	-101.495	0.151	-0.036
-224.684	113.749	-0.160	-0.193
-223.669	-200.000	0.005	-0.038
-222.655	24.687	-0.320	0.263
-221.640	-21.759	0.213	-0.128
-220.625	593.871	0.118	0.289
-219.611	-48.154	0.196	0.094
-218.596	261.843	0.081	-0.139
-217.582	371.879	0.075	0.151
-216.567	290.026	0.171	0.307
-215.552	123.123	-0.073	-0.091
-214.538	29.276	0.099	0.083
-213.523	111.648	-0.184	0.219
-212.509	168.193	-0.097	0.137
-211.494	-200.000	-0.032	-0.181
-210.479	800.000	0.055	-0.167
-209.465	-200.000	0.046	0.266
-208.450	-95.920	0.340	0.090
-207.436	-96.169	0.283	0.074
-206.421	-104.096	0.107	-0.025
-205.406	800.000	-0.059	-0.175
-204.392	-57.450	0.273	0.119
-203.377	-200.000	-0.007	-0.200
-202.363	-142.233	0.358	0.035
-201.348	-44.999	-0.460	-0.227
-200.333	-77.012	-0.308	-0.106
-199.319	-123.506	0.286	0.045
-198.304	-24.566	-0.076	-0.045
-197.290	102.069	-0.139	-0.161
-196.275	-200.000	0.002	-0.087
-195.260	-0.466	-0.127	0.089
-194.246	800.000	-0.064	0.209
-193.231	-200.000	-0.161	-0.000
-192.217	-200.000	-0.049	0.420
-191.202	164.567	-0.044	0.061
-190.187	-56.333	-0.115	0.051
-189.173	-200.000	-0.014	-0.175
-188.158	305.498	-0.108	0.199
-187.144	-156.188	0.127	0.008
-186.129	-200.000	0.000	-0.221
-185.114	78.362	0.180	0.190
-184.100	-150.835	0.119	0.009
-183.085	-80.704	0.191	-0.063
-182.071	-73.919	0.197	-0.071
-181.056	-33.684	0.320	0.174
-180.042	530.642	0.062	0.144
-179.027	-200.000	-0.068	-0.456
-178.012	247.662	0.042	0.070
-176.998	401.349	0.044	0.091
-175.983	129.569	0.016	0.021
-174.969	-200.000	-0.008	-0.361
-173.954	-68.473	0.211	-0.081
-172.939	-200.000	0.028	-0.154
-171.925	-88.698	-0.121	0.036
-170.910	-200.000	0.005	0.089
-169.896	312.314	0.141	-0.262
-168.881	195.981	-0.103	-0.155
-167.866	40.707	0.333	0.296
-166.852	127.280	-0.184	0.231
-165.837	210.515	0.240	-0.372
-164.823	16.924	-0.483	-0.378
-163.808	253.323	-0.076	-0.128
-162.793	-200.000	0.019	-0.093
-161.779	-200.000	-0.015	-0.336
-160.764	-200.000	0.016	-0.098
-159.750	371.580	0.105	-0.210
-158.735	181.637	0.208	-0.302
-157.720	316.714	0.072	0.134
-156.706	-6.457	0.273	0.184
-155.691	-200.000	0.003	0.255
-154.677	-147.062	0.226	0.019
-153.662	21.348	0.335	0.269
-152.647	-74.667	0.238	-0.085
-151.633	-200.000	-0.020	-0.098
-150.618	-200.000	0.016	0.105
-149.604	268.047	0.056	0.097
-148.589	302.231	0.145	0.266
-147.574	-97.024	-0.068	0.018
-146.560	-93.108	-0.130	-0.036
-145.545	-21.618	-0.216	-0.130
-144.531	-200.000	-0.013	0.181
-143.516	253.784	0.033	-0.055
-142.502	-16.421	-0.069	-0.043
-141.487	503.640	-0.089	0.203
-140.472	337.044	-0.015	0.028
-139.458	800.000	-0.051	0.159
-138.443	252.780	-0.115	-0.194
-137.429	30.566	-0.102	0.086
-136.414	-50.989	0.234	-0.108
-135.399	800.000	-0.049	-0.153
-134.385	-106.372	0.240	-0.053
-133.370	20.141	0.268	0.213
-132.356	98.893	0.254	-0.290
-131.341	-200.000	0.003	-0.044
-130.326	-71.292	0.131	-0.049
-129.312	-75.376	-0.192	-0.067
-128.297	-119.190	-0.094	-0.016
-127.283	214.230	0.046	-0.073
-126.268	-85.622	0.135	0.041
-125.253	-26.292	-0.216	-0.125
-124.239	-39.368	0.069	0.036
-123.224	-170.394	-0.388	0.013
-122.210	-200.000	0.004	-0.377
