DTS Sentinel unit serial number:	SN413079Multiplexer serial number:	ORYXHardware model number:	OX4-SRSoftware version number:	ORYX F/W v4.00 Oryx Data Collector v3.7.2.0data status	okinstallation	princeton_trtdifferential loss correction	single-endedforward channel	channel 2reverse channel	N/Adate	2019/09/16time	15:47:35forward acquisition time	60.00reverse acquisition time	0.00gamma	496.2192k internal	0.2298k external	0.2298temperature offset calibration	0.9940default loss term (dB/km)	0.3790temperature slope calibration	1.0000multiplexer offset coefficient	1.0000multiplexer slope coefficient	1.0000fibre end	0.00T internal ref (°C)	41.14T ext. ref 1 (°C)	14.81T ext. ref 2 (°C)	36.23length (m)	temperature (°C)	Stokes	anti-Stokes-747.200	439.407	0.086	-0.191
-746.185	-200.000	-0.007	0.277
-745.171	-171.412	0.295	-0.010
-744.156	-200.000	0.018	0.378
-743.142	-200.000	0.001	0.216
-742.127	-169.579	0.302	0.011
-741.112	-93.679	0.112	-0.032
-740.098	414.511	-0.133	0.289
-739.083	-97.679	0.248	-0.066
-738.069	52.393	-0.060	0.058
-737.054	-200.000	-0.054	-0.334
-736.039	287.219	-0.288	0.532
-735.025	-75.002	0.359	0.131
-734.010	-114.088	0.058	0.011
-732.996	-200.000	0.013	0.245
-731.981	349.806	-0.165	0.333
-730.966	181.085	-0.100	0.150
-729.952	-200.000	-0.006	-0.266
-728.937	-200.000	0.010	-0.174
-727.923	-12.647	-0.196	0.130
-726.908	800.000	-0.104	0.298
-725.894	547.414	0.098	-0.239
-724.879	47.839	-0.201	0.191
-723.864	709.933	-0.066	-0.177
-722.850	-6.372	-0.081	-0.057
-721.835	61.151	0.159	0.161
-720.821	-31.487	0.123	0.071
-719.806	-200.000	0.023	-0.262
-718.791	62.675	0.103	0.105
-717.777	144.872	-0.173	0.235
-716.762	-69.984	0.052	0.020
-715.748	-23.514	-0.260	-0.159
-714.733	-45.679	0.105	-0.053
-713.718	-54.896	-0.038	-0.017
-712.704	139.383	0.144	-0.194
-711.689	111.873	-0.038	0.046
-710.675	-65.392	-0.141	0.058
-709.660	-97.580	0.012	-0.003
-708.645	28.079	-0.172	0.148
-707.631	-200.000	0.010	-0.167
-706.616	13.451	-0.034	0.027
-705.602	36.938	-0.211	0.191
-704.587	-200.000	-0.022	-0.318
-703.572	-73.757	0.051	0.019
-702.558	111.480	0.056	-0.069
-701.543	-200.000	-0.021	0.225
-700.529	35.672	-0.094	-0.085
-699.514	-200.000	-0.008	-0.389
-698.499	-77.861	-0.207	-0.073
-697.485	-200.000	0.030	0.484
-696.470	-200.000	-0.026	0.441
-695.456	800.000	0.040	-0.124
-694.441	-155.928	-0.200	0.013
-693.426	-78.524	-0.033	-0.011
-692.412	543.756	0.070	0.170
-691.397	-200.000	-0.002	0.180
-690.383	-43.907	-0.156	0.080
-689.368	672.034	0.144	0.380
-688.354	8.952	0.074	0.057
-687.339	-92.217	0.292	0.084
-686.324	800.000	-0.006	0.024
-685.310	-200.000	-0.004	0.199
-684.295	-200.000	0.052	-0.291
-683.281	60.995	0.091	-0.092
-682.266	23.732	0.107	0.090
-681.251	79.823	0.162	0.178
-680.237	-32.134	-0.318	0.181
-679.222	-37.500	0.136	-0.074
-678.208	800.000	-0.133	-0.375
-677.193	-65.145	0.282	-0.116
-676.178	-200.000	-0.006	0.574
-675.164	-2.086	-0.087	-0.062
-674.149	-112.519	0.165	0.034
-673.135	-200.000	-0.410	-0.001
-672.120	567.292	0.043	0.105
-671.105	-133.821	0.116	-0.015
-670.091	-125.404	-0.470	0.073
-669.076	-200.000	0.005	0.365
-668.062	-200.000	-0.014	-0.103
-667.047	-76.695	0.273	0.097
-666.032	39.038	-0.037	0.033
-665.018	-11.381	-0.340	0.228
-664.003	-118.522	0.298	0.054
-662.989	-200.000	-0.039	0.237
-661.974	204.018	0.140	-0.220
-660.959	164.449	-0.195	-0.280
-659.945	222.761	-0.260	0.425
-658.930	-1.422	-0.202	0.145
-657.916	-69.964	0.025	0.010
-656.901	-200.000	-0.009	0.095
-655.886	-99.970	-0.232	0.059
-654.872	98.785	-0.202	0.237
-653.857	774.155	0.050	0.138
-652.843	-200.000	0.012	-0.092
-651.828	493.799	0.205	-0.477
-650.814	800.000	-0.027	-0.105
-649.799	75.049	-0.070	0.075
-648.784	-147.578	0.252	0.022
-647.770	366.463	-0.093	-0.190
-646.755	185.150	0.175	-0.265
-645.741	-82.405	0.036	-0.012
-644.726	-50.134	-0.032	0.015
-643.711	-85.099	0.415	0.132
-642.697	-200.000	-0.019	-0.332
-641.682	210.452	0.179	0.285
-640.668	800.000	-0.025	-0.076
-639.653	65.647	-0.044	0.045
-638.638	-121.963	-0.270	-0.045
-637.624	18.115	0.288	0.233
-636.609	-175.478	-0.452	-0.013
-635.595	252.772	-0.068	0.118
-634.580	-122.771	0.255	-0.042
-633.565	214.433	0.098	0.158
-632.551	-96.544	-0.162	-0.044
-631.536	-49.739	0.039	-0.019
-630.522	-133.623	0.311	0.040
-629.507	800.000	-0.082	-0.264
-628.492	657.489	-0.052	0.136
-627.478	476.102	0.007	-0.017
-626.463	35.435	-0.238	-0.212
-625.449	-101.017	0.344	-0.086
-624.434	-145.965	-0.340	-0.031
-623.419	607.388	0.109	-0.277
-622.405	-8.572	-0.417	0.284
-621.390	-23.038	0.175	-0.107
-620.376	-24.901	0.237	0.143
-619.361	216.259	-0.043	0.070
-618.346	-38.562	-0.302	-0.162
-617.332	356.092	-0.144	-0.291
-616.317	-200.000	0.002	-0.019
-615.303	-200.000	0.012	0.269
-614.288	205.129	0.100	-0.157
-613.273	-99.669	-0.159	0.041
-612.259	-172.974	0.069	0.002
-611.244	-123.365	0.503	-0.081
-610.230	800.000	-0.040	0.137
-609.215	314.383	-0.020	0.038
-608.201	-117.770	-0.241	0.044
-607.186	-62.634	0.290	0.122
-606.171	-88.586	0.195	-0.059
-605.157	6.995	0.163	-0.124
-604.142	27.949	-0.051	-0.044
-603.128	456.444	-0.088	-0.199
-602.113	2.006	0.296	-0.217
-601.098	-189.831	-0.242	-0.003
-600.084	800.000	0.050	0.221
-599.069	800.000	0.111	0.315
-598.055	-65.884	0.180	0.073
-597.040	-170.391	0.124	-0.004
-596.025	800.000	-0.054	-0.167
-595.011	800.000	-0.101	-0.328
-593.996	199.394	-0.142	-0.220
-592.982	-126.294	-0.333	-0.050
-591.967	30.518	-0.196	-0.170
-590.952	-200.000	-0.009	-0.370
-589.938	-44.022	0.055	0.028
-588.923	482.450	-0.047	-0.108
-587.909	-12.625	-0.041	-0.027
-586.894	-68.936	0.141	-0.055
-585.879	26.140	-0.064	-0.054
-584.865	254.101	0.095	0.165
-583.850	423.792	-0.203	-0.442
-582.836	-112.344	-0.315	-0.064
-581.821	-161.914	-0.510	-0.026
-580.806	266.087	-0.021	0.037
-579.792	-3.949	0.064	-0.045
-578.777	97.948	-0.139	0.163
-577.763	-104.509	0.157	0.037
-576.748	-200.000	-0.029	-0.215
-575.733	190.364	0.218	-0.332
-574.719	57.322	-0.257	-0.254
-573.704	-1.470	-0.331	-0.237
-572.690	15.534	0.266	-0.212
-571.675	-60.594	0.176	-0.076
-570.661	-153.414	0.183	-0.013
-569.646	118.892	-0.092	-0.116
-568.631	7.251	-0.040	0.031
-567.617	-168.200	0.278	0.011
-566.602	-200.000	0.027	0.186
-565.588	-158.498	-0.303	0.018
-564.573	224.501	-0.101	0.166
-563.558	-81.294	0.236	0.079
-562.544	272.908	-0.107	-0.192
-561.529	-66.798	0.163	0.065
-560.515	307.557	0.062	0.117
-559.500	-7.129	0.100	-0.069
-558.485	292.509	0.192	-0.355
-557.471	129.932	-0.097	-0.125
-556.456	35.659	0.070	-0.062
-555.442	-97.588	-0.104	0.027
-554.427	-99.383	-0.169	0.043
-553.412	-79.273	-0.072	0.025
-552.398	-200.000	-0.005	-0.076
-551.383	-200.000	0.050	0.488
-550.369	-94.412	-0.160	-0.044
-549.354	-142.447	0.448	0.045
-548.339	504.153	-0.113	0.264
-547.325	-15.164	-0.264	0.171
-546.310	-111.796	-0.039	0.008
-545.296	-130.240	0.243	-0.033
-544.281	-17.196	0.130	-0.083
-543.266	-73.775	-0.192	-0.071
-542.252	-19.126	0.262	0.165
-541.237	-40.797	0.251	0.132
-540.223	-6.184	-0.116	-0.080
-539.208	302.558	0.157	0.294
-538.193	-95.908	0.141	-0.038
-537.179	478.506	-0.100	0.228
-536.164	800.000	0.148	0.607
-535.150	-200.000	-0.027	0.162
-534.135	-46.103	-0.101	-0.050
-533.121	-53.500	-0.244	0.113
-532.106	-121.078	-0.244	-0.041
-531.091	202.452	-0.172	-0.268
-530.077	56.421	-0.276	-0.271
-529.062	800.000	0.103	-0.316
-528.048	9.903	0.086	-0.066
-527.033	-83.025	-0.287	-0.094
-526.018	-4.509	-0.280	-0.196
-525.004	-90.271	0.438	0.129
-523.989	-71.663	-0.121	0.046
-522.975	154.266	0.113	0.157
-521.960	-125.700	-0.094	0.014
-520.945	-11.957	-0.064	0.043
-519.931	-200.000	-0.021	-0.183
-518.916	760.676	0.095	-0.260
-517.902	227.357	-0.156	0.256
-516.887	-200.000	-0.020	-0.137
-515.872	-163.295	0.067	-0.003
-514.858	208.486	-0.013	-0.021
-513.843	-42.333	-0.191	-0.099
-512.829	-21.727	0.137	0.085
-511.814	-9.699	-0.176	0.118
-510.799	-102.318	0.028	0.007
-509.785	497.394	0.115	-0.269
-508.770	180.131	-0.020	-0.029
-507.756	800.000	0.065	-0.257
-506.741	-200.000	0.001	0.211
-505.726	800.000	0.092	-0.331
-504.712	107.928	0.004	0.005
-503.697	372.948	0.103	-0.212
-502.683	90.969	-0.096	-0.108
-501.668	203.846	-0.067	-0.105
-500.653	-70.023	-0.218	-0.084
-499.639	39.612	-0.249	0.226
-498.624	178.418	-0.125	0.185
-497.610	53.448	0.261	-0.253
-496.595	371.273	-0.073	-0.151
-495.581	-122.137	0.167	-0.028
-494.566	-200.000	0.006	-0.334
-493.551	74.361	-0.137	-0.146
-492.537	-83.065	0.354	0.115
-491.522	-195.539	-0.084	0.001
-490.508	563.788	-0.030	0.074
-489.493	54.875	-0.080	0.078
-488.478	29.123	0.024	-0.021
-487.464	22.445	0.025	-0.020
-486.449	-57.062	-0.290	0.129
-485.435	-59.220	-0.313	-0.136
-484.420	-111.919	0.279	0.057
-483.405	800.000	-0.097	-0.318
-482.391	-17.422	-0.482	-0.307
-481.376	-43.004	0.076	0.039
-480.362	20.679	0.350	-0.286
-479.347	621.446	0.042	-0.107
-478.332	-200.000	-0.014	-0.091
-477.318	-60.869	-0.198	0.085
-476.303	-50.663	0.138	-0.066
-475.289	-200.000	0.007	0.254
-474.274	-200.000	-0.001	-0.227
-473.259	153.253	-0.130	0.179
-472.245	183.360	0.207	0.309
-471.230	-200.000	-0.008	0.105
-470.216	-14.390	-0.323	0.210
-469.201	800.000	-0.067	-0.232
-468.186	288.515	-0.125	0.228
-467.172	-23.380	-0.227	-0.138
-466.157	31.241	-0.234	-0.203
-465.143	183.980	-0.172	-0.257
-464.128	-68.519	-0.250	0.098
-463.113	-77.170	0.261	-0.092
-462.099	255.813	0.187	-0.323
-461.084	14.769	0.209	-0.165
-460.070	-28.578	-0.100	0.058
-459.055	-105.636	0.203	0.046
-458.040	310.500	0.158	0.299
-457.026	800.000	0.079	0.268
-456.011	800.000	0.128	0.421
-454.997	476.639	-0.073	0.166
-453.982	-200.000	-0.007	-0.298
-452.968	-71.128	0.123	-0.047
-451.953	-131.406	0.146	-0.019
-450.938	11.107	-0.206	0.159
-449.924	191.712	-0.108	0.165
-448.909	-200.000	0.015	-0.307
-447.895	800.000	0.078	-0.312
-446.880	800.000	0.050	0.177
-445.865	15.470	0.339	-0.268
-444.851	-200.000	-0.003	0.183
-443.836	-82.743	-0.538	0.175
-442.822	126.917	-0.179	0.229
-441.807	215.765	0.187	0.299
-440.792	26.470	0.201	0.169
-439.778	-24.600	0.278	0.167
-438.763	800.000	-0.103	0.449
-437.749	209.979	0.126	0.199
-436.734	-119.331	0.099	-0.017
-435.719	-200.000	-0.070	0.435
-434.705	105.680	-0.276	-0.329
-433.690	42.309	-0.106	-0.097
-432.676	-54.683	-0.185	-0.084
-431.661	-200.000	-0.022	-0.284
-430.646	-200.000	-0.023	-0.158
-429.632	800.000	-0.076	0.246
-428.617	-166.532	-0.095	-0.004
-427.603	117.746	-0.158	0.196
-426.588	417.352	0.068	0.146
-425.573	46.938	-0.217	0.203
-424.559	-93.271	-0.166	-0.046
-423.544	-63.234	0.189	0.079
-422.530	-200.000	0.017	-0.202
-421.515	-200.000	0.000	-0.048
-420.500	10.281	0.250	-0.192
-419.486	111.078	-0.059	0.071
-418.471	187.172	-0.150	-0.225
-417.457	-63.507	0.290	-0.120
-416.442	-149.750	0.385	0.030
-415.428	115.001	0.331	0.407
-414.413	13.801	-0.309	0.242
-413.398	277.145	-0.092	0.164
-412.384	-200.000	0.062	-0.513
-411.369	-16.714	0.252	-0.161
-410.355	39.420	0.194	-0.175
-409.340	-75.494	0.391	-0.140
-408.325	800.000	0.086	0.313
-407.311	27.774	-0.108	-0.092
-406.296	-200.000	0.037	-0.177
-405.282	800.000	0.081	-0.253
-404.267	213.051	0.049	0.078
-403.252	800.000	-0.113	-0.323
-402.238	-104.263	0.369	0.086
-401.223	-143.305	-0.049	0.005
-400.209	-108.640	-0.213	-0.046
-399.194	669.324	0.124	-0.322
-398.179	120.308	0.260	0.325
-397.165	-152.121	-0.147	-0.011
-396.150	780.387	0.011	0.031
-395.136	-121.923	0.179	0.030
-394.121	-187.091	0.120	0.002
-393.106	105.555	-0.111	0.132
-392.092	-19.747	-0.159	0.099
-391.077	-151.485	-0.041	-0.003
-390.063	91.199	-0.175	-0.198
-389.048	800.000	0.095	-0.371
-388.033	197.601	0.043	0.067
-387.019	7.833	-0.194	-0.147
-386.004	110.138	0.246	-0.297
-384.990	800.000	-0.034	-0.106
-383.975	516.525	-0.136	0.319
-382.960	-24.728	-0.076	0.045
-381.946	-200.000	-0.006	0.212
-380.931	718.741	-0.058	-0.156
-379.917	134.793	-0.070	-0.092
-378.902	-200.000	0.034	-0.349
-377.888	800.000	0.121	-0.362
-376.873	-52.693	-0.284	0.132
-375.858	43.266	0.256	0.236
-374.844	136.830	0.087	0.114
-373.829	350.864	0.127	-0.252
-372.815	-200.000	-0.028	0.345
-371.800	-200.000	-0.002	0.189
-370.785	-29.150	0.321	0.185
-369.771	202.896	-0.125	-0.194
-368.756	-105.599	0.238	-0.054
-367.742	78.165	-0.135	0.145
-366.727	201.661	-0.017	-0.026
-365.712	800.000	0.075	0.294
-364.698	164.616	-0.187	0.265
-363.683	470.890	0.134	0.304
-362.669	131.574	0.173	0.223
-361.654	-50.832	-0.330	-0.156
-360.639	-66.715	0.243	-0.097
-359.625	-99.630	0.174	0.044
-358.610	232.806	-0.098	0.163
-357.596	-200.000	-0.002	-0.348
-356.581	-200.000	-0.033	-0.170
-355.566	800.000	0.110	0.309
-354.552	304.850	0.260	0.485
-353.537	-56.949	-0.095	0.042
-352.523	-200.000	-0.012	-0.219
-351.508	100.321	-0.103	-0.120
-350.493	-136.711	-0.107	-0.012
-349.479	70.424	-0.106	0.110
-348.464	140.432	-0.261	-0.347
-347.450	637.534	-0.147	-0.376
-346.435	-200.000	-0.044	-0.202
-345.420	389.609	-0.034	-0.071
-344.406	-200.000	-0.147	-0.000
-343.391	121.633	-0.117	0.146
-342.377	17.399	0.172	0.137
-341.362	-197.414	0.146	0.001
-340.348	-142.000	-0.115	-0.011
-339.333	65.479	0.085	0.086
-338.318	-141.258	0.276	-0.028
-337.304	-133.018	0.287	0.037
-336.289	134.217	0.056	0.073
-335.275	-74.578	0.272	-0.098
-334.260	-43.066	-0.294	-0.149
-333.245	212.374	0.071	-0.112
-332.231	-200.000	0.037	-0.283
-331.216	30.121	-0.078	-0.067
-330.202	271.413	0.111	-0.196
-329.187	208.043	0.126	0.198
-328.172	-200.000	0.062	-0.306
-327.158	70.774	-0.054	-0.056
-326.143	-19.985	0.040	-0.025
-325.129	-82.945	0.247	-0.080
-324.114	-119.550	-0.124	0.022
-323.099	-55.281	-0.268	0.121
-322.085	-61.809	0.117	-0.049
-321.070	281.106	0.129	-0.232
-320.056	-181.007	0.386	-0.008
-319.041	168.392	-0.202	0.288
-318.026	-110.931	0.322	-0.067
-317.012	-200.000	0.045	-0.232
-315.997	95.443	-0.122	0.139
-314.983	800.000	-0.078	0.242
-313.968	-98.234	-0.385	-0.099
-312.953	800.000	0.060	-0.169
-311.939	423.883	0.053	0.115
-310.924	-136.081	0.174	0.021
-309.910	158.188	0.191	0.266
-308.895	29.287	0.084	0.071
-307.880	24.687	-0.237	0.197
-306.866	218.151	-0.146	0.233
-305.851	800.000	-0.081	0.312
-304.837	-158.514	0.110	-0.006
-303.822	50.536	0.208	0.197
-302.807	399.721	-0.051	-0.106
-301.793	-140.212	0.304	-0.032
-300.778	-115.871	-0.032	0.006
-299.764	-69.290	-0.110	0.042
-298.749	-130.214	0.117	-0.016
-297.735	-1.757	-0.095	0.067
-296.720	-97.088	-0.236	-0.062
-295.705	154.578	-0.088	-0.121
-294.691	-61.863	-0.191	0.080
-293.676	-160.700	-0.104	-0.006
-292.662	8.193	-0.205	0.154
-291.647	263.530	0.105	-0.183
-290.632	-200.000	0.075	0.363
-289.618	458.859	0.149	0.331
-288.603	561.540	-0.076	-0.185
-287.589	-200.000	0.041	0.552
-286.574	-124.840	-0.142	0.022
-285.559	-152.514	0.199	-0.014
-284.545	800.000	0.009	0.032
-283.530	567.196	-0.079	0.192
-282.516	505.621	-0.076	0.177
-281.501	-200.000	-0.013	-0.173
-280.486	57.410	0.200	0.195
-279.472	-84.973	0.350	0.110
-278.457	-200.000	0.000	-0.030
-277.443	21.673	0.226	-0.184
-276.428	377.937	-0.102	-0.209
-275.413	-200.000	-0.017	-0.206
-274.399	131.162	0.055	0.071
-273.384	-18.569	-0.129	-0.081
-272.370	-83.855	0.179	0.057
-271.355	-48.568	-0.221	0.106
-270.340	16.684	0.087	0.069
-269.326	114.300	-0.232	0.283
-268.311	-200.000	0.031	0.376
-267.297	-200.000	-0.026	0.166
-266.282	292.911	-0.079	0.145
-265.267	-76.894	0.205	0.072
-264.253	-91.070	-0.154	-0.044
-263.238	-22.415	0.254	0.154
-262.224	671.450	-0.108	-0.281
-261.209	-66.316	-0.004	0.002
-260.195	69.630	-0.235	-0.242
-259.180	302.321	0.128	0.237
-258.165	78.079	-0.125	-0.133
-257.151	-200.000	-0.036	0.166
-256.136	-19.783	0.249	0.154
-255.122	-133.690	-0.099	-0.012
-254.107	-40.592	0.053	0.027
-253.092	9.063	-0.085	0.065
-252.078	-128.385	-0.129	-0.018
-251.063	-200.000	-0.057	-0.395
-250.049	-35.913	0.182	-0.098
-249.034	60.949	-0.011	0.011
-248.019	-123.481	-0.089	-0.014
-247.005	65.904	-0.143	0.145
-245.990	-167.849	0.161	-0.006
-244.976	384.144	0.190	0.392
-243.961	-200.000	-0.018	-0.193
-242.946	-7.986	-0.308	-0.208
-241.932	167.869	0.126	-0.180
-240.917	749.998	0.028	0.075
-239.903	-125.166	0.319	-0.049
-238.888	137.583	-0.143	-0.187
-237.873	59.057	-0.319	0.314
-236.859	-184.970	0.117	-0.002
-235.844	73.098	0.104	-0.109
-234.830	178.510	-0.148	0.216
-233.815	97.666	-0.069	-0.079
-232.800	270.593	0.105	-0.184
-231.786	-6.534	0.193	0.132
-230.771	-103.909	-0.248	0.058
-229.757	-200.000	-0.013	-0.058
-228.742	458.170	-0.111	-0.248
-227.727	-200.000	0.063	0.370
-226.713	89.494	0.179	0.200
-225.698	-50.627	-0.186	0.088
-224.684	-200.000	0.021	0.152
-223.669	88.118	0.072	-0.080
-222.655	-114.657	-0.204	0.039
-221.640	-200.000	-0.004	0.204
-220.625	-21.296	-0.045	-0.028
-219.611	800.000	0.053	0.178
-218.596	-200.000	0.048	-0.249
-217.582	81.866	0.124	-0.134
-216.567	406.572	-0.159	0.336
-215.552	-21.699	0.102	-0.062
-214.538	-196.717	0.277	-0.002
-213.523	233.574	-0.015	-0.025
-212.509	-89.283	-0.190	0.056
-211.494	800.000	0.028	-0.087
-210.479	-107.895	0.185	0.040
-209.465	-87.569	-0.204	0.062
-208.450	-171.845	-0.165	-0.005
-207.436	42.014	0.159	-0.144
-206.421	-17.778	-0.091	-0.057
-205.406	800.000	0.073	0.310
-204.392	-200.000	-0.013	0.144
-203.377	-84.660	0.222	-0.070
-202.363	149.154	-0.149	-0.201
-201.348	-135.439	0.203	0.024
-200.333	-11.915	-0.140	0.091
-199.319	245.803	-0.087	0.147
-198.304	-0.815	-0.204	-0.144
-197.290	-78.143	-0.163	-0.056
-196.275	-11.680	-0.106	0.070
-195.260	-34.874	0.179	-0.098
-194.246	-41.145	-0.070	-0.036
-193.231	-16.332	-0.262	0.166
-192.217	143.242	0.090	-0.120
-191.202	15.317	-0.090	0.071
-190.187	68.717	-0.096	-0.099
-189.173	333.430	0.122	-0.235
-188.158	800.000	0.048	0.162
-187.144	-200.000	-0.030	0.159
-186.129	-46.993	0.266	-0.130
-185.114	148.688	-0.066	-0.090
-184.100	-132.325	0.055	0.007
-183.085	800.000	-0.061	-0.174
-182.071	13.338	0.166	-0.129
-181.056	7.537	0.145	-0.108
-180.042	324.135	0.015	-0.028
-179.027	-55.611	0.242	0.108
-178.012	397.962	-0.264	0.552
-176.998	-100.161	0.100	-0.025
-175.983	-188.620	0.127	0.002
-174.969	-200.000	-0.038	0.182
-173.954	240.428	-0.081	0.134
-172.939	-143.615	-0.312	0.030
-171.925	-77.543	0.243	-0.084
-170.910	-80.268	-0.417	0.139
-169.896	-200.000	-0.046	-0.238
-168.881	-25.882	-0.222	0.131
-167.866	-2.432	-0.184	0.129
-166.852	-200.000	0.039	0.180
-165.837	185.438	0.105	-0.156
-164.823	482.744	0.080	0.182
-163.808	-63.690	-0.156	0.064
-162.793	-8.321	-0.136	0.091
-161.779	145.100	0.197	-0.262
-160.764	97.920	-0.248	0.284
-159.750	-21.431	-0.120	0.073
-158.735	29.155	-0.081	-0.069
-157.720	-50.819	-0.106	0.050
-156.706	77.728	-0.125	0.133
-155.691	-200.000	-0.047	-0.208
-154.677	-152.750	0.099	0.007
-153.662	71.983	0.147	-0.153
-152.647	-52.396	0.157	0.072
-151.633	-88.394	0.208	0.062
-150.618	-200.000	0.014	0.295
-149.604	-200.000	0.006	0.219
-148.589	-31.588	0.138	-0.077
-147.574	713.023	-0.146	-0.386
-146.560	-89.490	0.137	-0.040
-145.545	293.589	0.098	0.179
-144.531	-192.656	-0.245	0.002
-143.516	48.231	0.080	0.075
-142.502	108.525	0.029	-0.035
-141.487	34.085	0.181	0.157
-140.472	-112.765	-0.270	-0.053
-139.458	-52.563	0.158	-0.073
-138.443	609.076	-0.038	0.095
-137.429	-108.601	-0.445	-0.095
-136.414	182.955	-0.207	0.305
-135.399	492.982	0.053	-0.122
-134.385	-40.170	-0.289	-0.150
-133.370	333.338	0.141	-0.271
-132.356	278.168	0.148	0.263
-131.341	10.481	0.048	0.036
-130.326	10.813	-0.022	0.017
-129.312	-200.000	0.024	0.245
-128.297	800.000	0.086	0.291
-127.283	289.622	0.146	0.264
-126.268	320.051	0.116	0.219
-125.253	-40.622	-0.440	0.227
-124.239	-158.121	0.158	0.009
-123.224	29.166	-0.028	0.024
-122.210	88.363	-0.128	0.142
-121.195	87.514	0.174	-0.192
