DTS Sentinel unit serial number:	SN413079Multiplexer serial number:	ORYXHardware model number:	OX4-SRSoftware version number:	ORYX F/W v4.00 Oryx Data Collector v3.7.2.0data status	okinstallation	princeton_trtdifferential loss correction	single-endedforward channel	channel 2reverse channel	N/Adate	2019/09/17time	03:47:35forward acquisition time	60.00reverse acquisition time	0.00gamma	496.2192k internal	0.2327k external	0.2327temperature offset calibration	0.9974default loss term (dB/km)	0.3790temperature slope calibration	1.0000multiplexer offset coefficient	1.0000multiplexer slope coefficient	1.0000fibre end	0.00T internal ref (°C)	29.94T ext. ref 1 (°C)	0.13T ext. ref 2 (°C)	24.43length (m)	temperature (°C)	Stokes	anti-Stokes-747.200	-200.000	0.015	0.156
-746.185	13.470	-0.099	-0.077
-745.171	793.312	0.025	-0.070
-744.156	800.000	-0.063	0.209
-743.142	107.990	-0.066	-0.079
-742.127	8.565	-0.312	-0.237
-741.112	-72.827	0.068	-0.025
-740.098	120.571	-0.220	0.276
-739.083	253.808	0.069	0.119
-738.069	-148.773	0.118	0.010
-737.054	-200.000	-0.090	0.450
-736.039	755.297	0.155	-0.424
-735.025	578.825	0.032	-0.079
-734.010	-31.345	-0.108	-0.061
-732.996	11.801	0.103	0.080
-731.981	-200.000	0.021	0.382
-730.966	-46.028	0.198	0.098
-729.952	-154.136	-0.195	-0.013
-728.937	-200.000	-0.010	-0.095
-727.923	520.853	-0.069	-0.163
-726.908	-28.147	-0.156	-0.091
-725.894	189.401	-0.154	-0.232
-724.879	3.552	0.113	0.083
-723.864	-157.082	-0.265	-0.016
-722.850	-14.670	-0.269	-0.174
-721.835	-61.446	-0.018	-0.008
-720.821	408.424	0.027	-0.058
-719.806	800.000	-0.005	0.020
-718.791	-117.046	-0.322	-0.059
-717.777	-2.928	-0.222	-0.156
-716.762	-107.812	0.347	-0.076
-715.748	800.000	-0.076	-0.222
-714.733	157.860	-0.137	-0.191
-713.718	148.521	0.083	-0.113
-712.704	438.983	-0.192	-0.421
-711.689	409.906	0.093	-0.198
-710.675	513.094	0.123	-0.288
-709.660	-33.361	-0.037	-0.020
-708.645	800.000	0.056	-0.199
-707.631	56.342	-0.150	-0.146
-706.616	-7.844	0.261	0.177
-705.602	-159.537	0.117	0.007
-704.587	-154.077	-0.152	0.010
-703.572	543.960	0.082	0.196
-702.558	254.478	-0.054	0.092
-701.543	275.432	-0.137	0.244
-700.529	-200.000	-0.015	0.109
-699.514	-141.979	0.137	-0.014
-698.499	85.419	-0.199	-0.220
-697.485	21.460	0.315	0.258
-696.470	480.063	-0.086	0.196
-695.456	-175.108	0.493	-0.014
-694.441	215.188	-0.060	-0.096
-693.426	-200.000	0.038	0.205
-692.412	256.369	0.288	0.497
-691.397	121.185	-0.228	0.286
-690.383	-200.000	-0.092	0.463
-689.368	-200.000	0.030	0.368
-688.354	-145.720	-0.342	-0.031
-687.339	-49.752	-0.197	-0.094
-686.324	-200.000	0.012	0.145
-685.310	-89.939	-0.158	-0.047
-684.295	-126.361	0.415	0.062
-683.281	-142.237	0.088	-0.009
-682.266	-108.687	0.177	-0.038
-681.251	-46.064	0.201	-0.100
-680.237	-200.000	-0.014	0.146
-679.222	70.403	0.144	-0.149
-678.208	-200.000	0.001	0.053
-677.193	-200.000	0.072	0.532
-676.178	-85.117	0.123	0.039
-675.164	670.808	0.072	-0.186
-674.149	-36.409	-0.165	0.090
-673.135	-64.285	-0.273	0.112
-672.120	-200.000	-0.028	-0.198
-671.105	136.640	0.021	0.027
-670.091	-6.486	0.175	0.120
-669.076	800.000	0.079	-0.280
-668.062	-200.000	0.002	-0.009
-667.047	-60.209	-0.252	-0.108
-666.032	30.416	0.323	-0.277
-665.018	-59.795	-0.192	0.083
-664.003	-22.789	-0.292	0.177
-662.989	90.358	0.218	-0.245
-661.974	-146.401	-0.218	-0.019
-660.959	800.000	0.101	0.393
-659.945	7.335	-0.527	0.395
-658.930	800.000	-0.115	0.397
-657.916	378.638	-0.159	0.327
-656.901	-93.903	-0.156	-0.043
-655.886	-200.000	0.040	-0.261
-654.872	227.114	0.125	0.204
-653.857	227.481	-0.142	0.232
-652.843	-84.883	-0.261	0.082
-651.828	227.946	0.036	0.058
-650.814	-200.000	0.013	0.065
-649.799	68.809	-0.028	0.029
-648.784	12.471	0.185	-0.143
-647.770	-145.260	0.204	0.019
-646.755	-63.469	-0.206	-0.085
-645.741	-200.000	0.000	-0.273
-644.726	-15.620	-0.286	-0.183
-643.711	411.168	0.115	0.245
-642.697	-22.007	-0.248	-0.151
-641.682	398.617	0.129	-0.272
-640.668	-78.472	-0.148	0.051
-639.653	-200.000	-0.027	0.186
-638.638	274.489	0.046	-0.082
-637.624	800.000	0.058	-0.240
-636.609	-50.333	0.231	0.109
-635.595	288.425	0.080	-0.145
-634.580	543.202	0.112	0.268
-633.565	-42.162	-0.036	-0.019
-632.551	53.729	-0.146	0.141
-631.536	800.000	-0.025	-0.096
-630.522	308.720	0.063	-0.118
-629.507	778.380	0.110	0.302
-628.492	0.423	0.063	0.045
-627.478	-5.931	-0.160	-0.110
-626.463	640.433	-0.063	-0.160
-625.449	-69.329	-0.369	0.142
-624.434	57.383	-0.108	-0.106
-623.419	298.773	-0.036	-0.067
-622.405	-138.932	-0.218	0.024
-621.390	-69.737	-0.309	-0.118
-620.376	9.986	0.107	0.081
-619.361	-126.108	0.125	0.019
-618.346	21.609	0.198	0.161
-617.332	41.798	0.043	-0.039
-616.317	-200.000	-0.004	0.135
-615.303	-46.246	-0.206	0.101
-614.288	-200.000	-0.009	0.147
-613.273	-110.028	-0.164	0.034
-612.259	-200.000	-0.017	0.207
-611.244	-155.734	-0.138	-0.009
-610.230	-21.200	0.067	0.041
-609.215	110.468	-0.325	0.392
-608.201	192.275	-0.266	0.402
-607.186	28.055	0.123	0.104
-606.171	-200.000	-0.005	-0.531
-605.157	-200.000	-0.008	-0.059
-604.142	-43.142	-0.076	-0.039
-603.128	193.384	-0.075	-0.114
-602.113	338.398	0.154	0.300
-601.098	537.182	0.084	0.199
-600.084	131.274	0.162	0.209
-599.069	-200.000	0.107	0.478
-598.055	-121.318	-0.034	-0.006
-597.040	-135.767	-0.154	0.018
-596.025	-142.078	-0.345	-0.034
-595.011	-58.779	-0.360	-0.156
-593.996	91.709	-0.082	0.093
-592.982	800.000	-0.012	-0.045
-591.967	-138.335	-0.139	0.015
-590.952	88.429	0.212	0.236
-589.938	124.479	0.003	0.004
-588.923	-93.766	0.012	0.003
-587.909	800.000	0.069	-0.247
-586.894	-92.121	0.193	0.055
-585.879	78.402	0.142	-0.152
-584.865	198.418	0.268	-0.410
-583.850	-200.000	0.007	0.160
-582.836	232.427	0.075	0.124
-581.821	-122.724	-0.403	0.065
-580.806	471.695	-0.099	0.224
-579.792	-61.885	0.114	-0.048
-578.777	800.000	0.164	-0.463
-577.763	414.228	-0.081	-0.174
-576.748	-106.306	0.239	0.054
-575.733	-200.000	-0.006	0.134
-574.719	-116.853	-0.074	0.014
-573.704	76.452	0.237	-0.252
-572.690	800.000	-0.016	-0.045
-571.675	-200.000	0.012	0.254
-570.661	340.725	0.101	0.198
-569.646	-104.322	0.364	0.085
-568.631	800.000	-0.104	-0.380
-567.617	15.525	0.100	0.079
-566.602	123.265	-0.168	-0.211
-565.588	-66.877	-0.180	0.071
-564.573	-80.334	0.262	-0.088
-563.558	89.470	0.162	-0.181
-562.544	-200.000	-0.052	0.361
-561.529	-200.000	0.036	0.190
-560.515	295.178	0.158	0.289
-559.500	-200.000	0.015	0.168
-558.485	512.971	0.103	0.240
-557.471	-121.705	0.301	0.050
-556.456	69.387	-0.244	-0.251
-555.442	-200.000	0.036	0.222
-554.427	800.000	0.089	0.324
-553.412	-117.699	-0.121	0.022
-552.398	85.409	-0.251	-0.276
-551.383	692.947	-0.109	-0.285
-550.369	-200.000	0.031	-0.154
-549.354	715.349	0.017	-0.046
-548.339	-146.406	0.044	-0.004
-547.325	-57.858	0.257	-0.112
-546.310	434.335	0.101	0.220
-545.296	-177.306	-0.413	-0.010
-544.281	-99.927	-0.256	0.064
-543.266	214.453	-0.100	-0.159
-542.252	-135.203	0.057	-0.007
-541.237	74.327	0.127	0.133
-540.223	-93.020	0.116	-0.032
-539.208	123.282	0.092	-0.115
-538.193	343.303	0.047	-0.091
-537.179	-200.000	-0.038	0.386
-536.164	48.450	-0.095	-0.089
-535.150	688.221	-0.083	0.216
-534.135	287.139	0.023	0.041
-533.121	55.014	-0.172	0.166
-532.106	15.573	-0.242	-0.190
-531.091	-43.769	-0.136	0.069
-530.077	92.607	-0.237	0.267
-529.062	-200.000	0.030	0.242
-528.048	32.172	-0.074	-0.064
-527.033	75.755	-0.161	0.171
-526.018	-200.000	0.035	0.247
-525.004	-2.576	-0.187	-0.131
-523.989	-24.541	0.131	-0.078
-522.975	88.329	0.197	-0.219
-521.960	-129.652	0.421	-0.058
-520.945	-14.471	-0.026	-0.017
-519.931	-200.000	-0.018	-0.149
-518.916	-95.409	-0.322	-0.087
-517.902	-120.608	-0.222	0.038
-516.887	-200.000	0.069	-0.427
-515.872	-75.890	-0.335	-0.118
-514.858	-81.779	0.314	-0.103
-513.843	283.231	0.065	0.116
-512.829	732.275	-0.074	0.197
-511.814	55.417	0.107	-0.104
-510.799	203.919	0.060	-0.093
-509.785	98.297	0.123	0.142
-508.770	-11.838	0.231	-0.152
-507.756	-200.000	-0.061	-0.269
-506.741	-200.000	-0.005	-0.150
-505.726	-23.045	-0.254	-0.153
-504.712	265.763	-0.154	-0.269
-503.697	-200.000	-0.013	-0.321
-502.683	324.719	-0.068	-0.130
-501.668	83.821	-0.126	-0.138
-500.653	-145.696	-0.201	-0.018
-499.639	608.925	0.058	-0.146
-498.624	-121.272	-0.248	0.041
-497.610	-200.000	-0.010	0.359
-496.595	85.773	-0.090	-0.099
-495.581	-46.361	0.362	0.178
-494.566	226.528	-0.090	-0.147
-493.551	-200.000	0.013	0.146
-492.537	-131.140	0.103	-0.014
-491.522	-101.977	0.314	-0.076
-490.508	2.833	0.099	0.072
-489.493	203.217	-0.121	-0.186
-488.478	-83.512	0.194	0.062
-487.464	-4.664	0.126	0.087
-486.449	-122.480	0.259	0.042
-485.435	-76.919	0.235	-0.082
-484.420	-72.623	0.180	-0.066
-483.405	-36.682	0.206	-0.110
-482.391	-119.295	0.104	0.018
-481.376	244.600	0.164	-0.275
-480.362	685.197	0.052	-0.136
-479.347	-51.598	0.178	0.083
-478.332	-200.000	-0.152	-0.000
-477.318	343.985	-0.060	-0.118
-476.303	369.362	-0.098	0.199
-475.289	46.987	0.142	-0.132
-474.274	-36.640	-0.188	-0.101
-473.259	36.085	0.248	-0.218
-472.245	2.013	-0.087	0.063
-471.230	-196.200	-0.190	-0.001
-470.216	-200.000	0.019	-0.240
-469.201	458.944	0.171	-0.380
-468.186	-24.548	0.122	-0.072
-467.172	15.813	0.209	-0.164
-466.157	142.365	0.092	-0.122
-465.143	-74.895	-0.305	-0.109
-464.128	337.059	-0.114	0.222
-463.113	-200.000	0.055	0.258
-462.099	-104.189	0.518	0.120
-461.084	143.943	-0.200	0.265
-460.070	-104.185	-0.248	0.057
-459.055	-200.000	0.007	0.100
-458.040	-200.000	-0.012	0.114
-457.026	-70.077	0.053	0.020
-456.011	-48.367	-0.225	0.108
-454.997	-43.319	-0.164	-0.083
-453.982	-73.843	0.123	-0.045
-452.968	0.012	0.332	0.236
-451.953	55.045	0.239	0.230
-450.938	-180.009	-0.279	-0.006
-449.924	225.037	-0.078	0.125
-448.909	85.864	0.084	0.092
-447.895	399.475	-0.094	-0.196
-446.880	-80.435	-0.264	0.088
-445.865	-200.000	0.005	-0.125
-444.851	-200.000	0.002	-0.135
-443.836	113.594	0.050	-0.060
-442.822	447.866	0.110	0.241
-441.807	-88.036	-0.379	-0.113
-440.792	-80.352	0.261	-0.087
-439.778	-200.000	-0.049	-0.338
-438.763	-95.173	-0.267	-0.072
-437.749	545.008	-0.060	0.142
-436.734	-200.000	-0.003	0.191
-435.719	800.000	-0.055	0.186
-434.705	-38.715	-0.098	0.052
-433.690	800.000	0.113	0.434
-432.676	-81.878	0.091	0.030
-431.661	-60.977	0.112	-0.047
-430.646	-200.000	0.017	-0.118
-429.632	62.157	-0.223	-0.221
-428.617	201.640	0.077	0.118
-427.603	800.000	0.079	0.313
-426.588	78.488	0.164	-0.175
-425.573	-1.777	0.186	0.131
-424.559	-200.000	-0.027	0.131
-423.544	-150.162	0.212	0.016
-422.530	-98.811	0.085	-0.022
-421.515	-43.441	0.066	0.033
-420.500	-42.764	0.071	-0.036
-419.486	-200.000	0.016	-0.139
-418.471	-9.113	-0.349	0.232
-417.457	61.643	-0.185	0.183
-416.442	-53.159	0.177	0.081
-415.428	-105.851	-0.243	-0.055
-414.413	-1.364	-0.073	-0.051
-413.398	-200.000	0.009	0.058
-412.384	350.834	-0.055	-0.109
-411.369	-88.223	0.133	-0.040
-410.355	64.442	-0.309	0.310
-409.340	-30.687	-0.285	0.161
-408.325	-200.000	-0.067	0.362
-407.311	-52.112	-0.075	-0.035
-406.296	62.817	-0.281	-0.279
-405.282	-81.001	-0.396	0.131
-404.267	-196.922	-0.088	-0.001
-403.252	800.000	0.133	-0.498
-402.238	62.856	0.156	0.155
-401.223	800.000	-0.029	-0.087
-400.209	180.255	0.171	0.249
-399.194	-59.009	-0.505	-0.217
-398.179	89.850	-0.191	-0.212
-397.165	19.037	0.196	-0.156
-396.150	-62.391	0.202	0.084
-395.136	142.094	0.082	-0.109
-394.121	23.131	-0.155	-0.127
-393.106	-56.605	0.096	-0.042
-392.092	323.035	-0.233	0.441
-391.077	-200.000	-0.028	0.154
-390.063	800.000	-0.027	-0.111
-389.048	396.505	0.062	0.129
-388.033	365.797	-0.158	-0.316
-387.019	-169.197	0.269	-0.010
-386.004	-113.240	0.124	0.024
-384.990	72.726	0.085	0.088
-383.975	-200.000	0.078	-0.348
-382.960	67.914	-0.144	-0.147
-381.946	-11.658	-0.226	0.147
-380.931	178.454	-0.177	0.257
-379.917	-74.432	0.162	-0.058
-378.902	800.000	-0.115	-0.492
-377.888	-49.077	-0.143	0.068
-376.873	-76.724	-0.173	-0.060
-375.858	-120.152	0.371	0.063
-374.844	45.373	-0.144	0.132
-373.829	-105.353	-0.401	0.091
-372.815	-200.000	-0.039	-0.205
-371.800	-155.048	-0.517	0.034
-370.785	-158.900	0.181	-0.010
-369.771	-81.180	-0.363	0.119
-368.756	177.510	-0.098	0.142
-367.742	-85.759	-0.379	0.117
-366.727	174.890	0.149	0.215
-365.712	800.000	0.093	-0.275
-364.698	19.104	0.257	0.205
-363.683	-55.654	-0.166	0.074
-362.669	234.264	-0.053	-0.087
-361.654	800.000	0.112	-0.316
-360.639	-48.883	0.099	-0.047
-359.625	393.447	-0.062	-0.129
-358.610	-15.143	-0.185	0.117
-357.596	85.032	0.198	-0.216
-356.581	800.000	0.050	-0.158
-355.566	-200.000	0.004	-0.196
-354.552	-95.847	-0.280	0.074
-353.537	-42.786	-0.124	0.063
-352.523	126.392	0.133	-0.167
-351.508	800.000	0.051	0.211
-350.493	800.000	0.039	0.127
-349.479	189.716	-0.078	0.117
-348.464	-200.000	-0.028	0.348
-347.450	-200.000	-0.153	-0.000
-346.435	800.000	-0.050	0.142
-345.420	156.412	-0.165	0.227
-344.406	-105.269	-0.339	-0.077
-343.391	800.000	-0.099	0.287
-342.377	-109.167	0.397	0.084
-341.362	-34.224	0.175	0.096
-340.348	-82.108	-0.288	0.093
-339.333	-27.002	0.203	0.117
-338.318	-200.000	-0.006	-0.109
-337.304	-112.741	0.211	0.042
-336.289	162.286	-0.146	-0.204
-335.275	-133.737	0.146	-0.018
-334.260	44.207	-0.095	0.086
-333.245	800.000	-0.011	-0.032
-332.231	-45.842	-0.150	0.074
-331.216	800.000	0.005	0.017
-330.202	-85.782	0.158	0.049
-329.187	-121.412	0.411	-0.068
-328.172	233.420	-0.117	-0.192
-327.158	-200.000	0.001	-0.030
-326.143	575.330	0.139	-0.338
-325.129	-123.277	0.339	0.054
-324.114	-97.497	-0.191	-0.049
-323.099	800.000	0.039	-0.156
-322.085	-119.716	0.238	-0.041
-321.070	-143.459	0.194	-0.018
-320.056	-191.640	0.167	0.002
-319.041	453.386	0.206	-0.453
-318.026	393.825	-0.018	-0.037
-317.012	180.912	0.122	0.178
-315.997	-144.095	0.072	0.007
-314.983	-141.794	0.273	-0.027
-313.968	189.940	-0.238	-0.355
-312.953	-23.653	0.128	0.076
-311.939	30.195	0.131	0.110
-310.924	35.834	0.160	0.140
-309.910	800.000	0.087	0.321
-308.895	237.345	-0.141	-0.231
-307.880	-200.000	-0.032	0.334
-306.866	800.000	0.030	0.104
-305.851	-61.013	0.054	-0.023
-304.837	-15.241	0.309	-0.196
-303.822	800.000	-0.064	0.205
-302.807	-200.000	0.005	0.030
-301.793	-200.000	0.036	0.159
-300.778	-200.000	0.041	0.186
-299.764	114.131	-0.038	-0.046
-298.749	163.236	-0.143	-0.199
-297.735	16.752	0.195	0.153
-296.720	94.499	-0.067	0.076
-295.705	-47.090	0.162	0.078
-294.691	-40.013	0.299	0.155
-293.676	60.969	0.223	0.219
-292.662	-65.152	0.394	0.157
-291.647	-27.310	-0.069	-0.040
-290.632	-200.000	-0.017	0.110
-289.618	-38.152	0.351	-0.184
-288.603	-148.282	0.316	-0.026
-287.589	13.818	-0.183	0.141
-286.574	-137.490	0.120	-0.013
-285.559	-200.000	-0.006	-0.434
-284.545	249.987	0.068	0.115
-283.530	212.823	0.118	-0.184
-282.516	0.715	-0.228	0.161
-281.501	-52.755	0.088	0.040
-280.486	73.144	0.072	-0.074
-279.472	15.933	0.235	-0.183
-278.457	-200.000	0.005	-0.270
-277.443	17.290	0.166	0.131
-276.428	144.367	-0.229	0.302
-275.413	-186.398	-0.460	0.007
-274.399	-200.000	-0.023	-0.210
-273.384	170.645	0.124	-0.175
-272.370	79.001	-0.264	-0.280
-271.355	-28.954	-0.106	-0.060
-270.340	41.739	0.449	0.403
-269.326	20.487	-0.136	0.109
-268.311	-118.690	-0.147	-0.026
-267.297	37.009	0.071	-0.062
-266.282	800.000	0.085	0.242
-265.267	-3.413	0.081	-0.056
-264.253	247.078	-0.042	0.071
-263.238	-127.793	-0.206	-0.029
-262.224	-20.100	-0.069	-0.042
-261.209	454.864	-0.063	0.138
-260.195	272.173	-0.039	0.067
-259.180	-200.000	0.055	-0.275
-258.165	-115.763	-0.264	0.049
-257.151	-200.000	0.008	0.150
-256.136	765.992	0.109	-0.294
-255.122	-200.000	-0.024	0.319
-254.107	-200.000	-0.003	-0.075
-253.092	16.835	0.121	-0.095
-252.078	56.747	-0.198	-0.191
-251.063	137.839	0.079	0.102
-250.049	800.000	-0.047	-0.147
-249.034	458.772	0.069	-0.152
-248.019	4.121	-0.308	-0.223
-247.005	170.611	-0.125	-0.177
-245.990	52.952	-0.333	0.315
-244.976	51.306	0.217	-0.204
-243.961	189.982	-0.134	-0.199
-242.946	155.944	0.100	0.137
-241.932	-81.208	0.140	-0.046
-240.917	7.805	0.040	0.030
-239.903	-122.986	-0.091	-0.015
-238.888	-16.830	-0.264	-0.165
-237.873	800.000	0.060	0.215
-236.859	-26.763	-0.047	0.027
-235.844	-13.690	0.166	0.106
-234.830	102.151	0.035	-0.040
-233.815	238.188	0.115	0.189
-232.800	-45.112	-0.015	-0.007
-231.786	-122.627	0.119	0.019
-230.771	-171.985	0.332	-0.011
-229.757	800.000	0.083	-0.251
-228.742	-123.889	-0.374	0.058
-227.727	383.782	-0.006	-0.012
-226.713	-47.543	-0.192	-0.092
-225.698	532.239	0.052	-0.122
-224.684	471.853	0.168	-0.374
-223.669	-111.926	-0.396	-0.079
-222.655	244.682	0.073	0.122
-221.640	-16.678	-0.111	0.070
-220.625	262.532	0.081	0.139
-219.611	-200.000	0.023	0.248
-218.596	-50.828	-0.182	0.085
-217.582	-83.519	0.104	-0.033
-216.567	-200.000	-0.039	0.202
-215.552	800.000	-0.044	0.149
-214.538	-31.258	0.154	-0.086
-213.523	-200.000	0.023	0.099
-212.509	31.165	0.085	0.072
-211.494	86.514	0.133	-0.145
-210.479	152.054	0.111	-0.149
-209.465	-150.707	-0.053	-0.004
-208.450	-180.753	0.205	-0.004
-207.436	-7.485	-0.216	0.144
-206.421	165.106	-0.298	-0.415
-205.406	100.569	-0.100	0.115
-204.392	-200.000	-0.062	-0.444
-203.377	261.198	-0.101	-0.172
-202.363	25.904	0.209	0.172
-201.348	140.830	-0.047	0.062
-200.333	-200.000	0.007	-0.050
-199.319	177.712	0.097	0.140
-198.304	-41.210	0.184	0.094
-197.290	800.000	0.045	-0.191
-196.275	116.092	-0.056	-0.068
-195.260	-59.320	-0.229	-0.097
-194.246	-174.273	0.343	0.010
-193.231	-4.827	0.101	0.068
-192.217	74.436	0.162	0.168
-191.202	-200.000	-0.016	-0.224
-190.187	-27.105	-0.092	-0.053
-189.173	341.076	-0.109	-0.211
-188.158	83.285	-0.086	-0.093
-187.144	-39.631	0.288	0.149
-186.129	372.556	-0.036	0.072
-185.114	-117.995	-0.491	-0.087
-184.100	-92.953	-0.051	0.014
-183.085	-55.379	0.148	-0.065
-182.071	191.404	-0.039	-0.058
-181.056	-200.000	-0.034	0.203
-180.042	75.643	-0.098	0.102
-179.027	-200.000	0.079	-0.345
-178.012	-57.497	0.523	0.226
-176.998	311.224	-0.032	-0.059
-175.983	-130.132	0.069	-0.009
-174.969	800.000	-0.025	-0.091
-173.954	-200.000	0.044	-0.241
-172.939	-156.233	0.354	0.022
-171.925	800.000	-0.048	-0.197
-170.910	-101.406	-0.300	0.072
-169.896	-36.461	0.197	-0.105
-168.881	-53.659	-0.114	0.051
-167.866	-33.342	0.144	-0.078
-166.852	-178.365	0.491	0.011
-165.837	-103.839	0.224	-0.052
-164.823	-130.912	0.201	-0.027
-163.808	800.000	-0.055	0.187
-162.793	-1.617	-0.101	-0.070
-161.779	-37.177	0.181	0.095
-160.764	100.366	0.077	0.088
-159.750	800.000	0.076	0.207
-158.735	73.979	-0.332	0.343
-157.720	-55.797	-0.193	0.085
-156.706	-200.000	0.072	-0.392
-155.691	-34.868	-0.120	0.065
-154.677	-200.000	-0.007	-0.151
-153.662	-58.953	-0.176	0.075
-152.647	371.531	-0.095	0.191
-151.633	487.378	-0.102	0.230
-150.618	800.000	-0.078	0.304
-149.604	126.064	-0.221	0.276
-148.589	-67.518	-0.141	-0.054
-147.574	-122.602	0.203	-0.032
-146.560	800.000	-0.031	0.107
-145.545	22.573	0.091	0.074
-144.531	-16.475	0.243	0.152
-143.516	138.038	-0.232	-0.300
-142.502	22.696	-0.121	-0.097
-141.487	-94.583	-0.134	-0.036
-140.472	800.000	0.065	-0.237
-139.458	-29.621	0.268	-0.151
-138.443	-39.430	0.193	0.100
-137.429	94.358	-0.181	0.203
-136.414	-55.843	0.260	0.115
-135.399	99.062	0.271	0.309
-134.385	115.503	0.101	-0.122
-133.370	800.000	-0.084	-0.291
-132.356	116.078	-0.045	0.054
-131.341	-59.662	0.112	-0.047
-130.326	-200.000	0.005	-0.192
-129.312	-12.763	-0.145	0.093
-128.297	158.641	0.148	-0.203
-127.283	-187.617	-0.274	0.004
-126.268	800.000	-0.049	-0.210
-125.253	-140.753	0.340	-0.035
-124.239	-154.810	-0.098	-0.006
-123.224	266.980	0.027	-0.046
-122.210	-69.200	-0.230	-0.087
-121.195	205.134	-0.115	-0.176
