DTS Sentinel unit serial number:	SN413079Multiplexer serial number:	ORYXHardware model number:	OX4-SRSoftware version number:	ORYX F/W v4.00 Oryx Data Collector v3.7.2.0data status	okinstallation	princeton_trtdifferential loss correction	single-endedforward channel	channel 2reverse channel	N/Adate	2019/09/14time	14:23:34forward acquisition time	60.00reverse acquisition time	0.00gamma	496.2192k internal	0.2301k external	0.2301temperature offset calibration	1.0149default loss term (dB/km)	0.3790temperature slope calibration	1.0000multiplexer offset coefficient	1.0000multiplexer slope coefficient	1.0000fibre end	0.00T internal ref (°C)	38.94T ext. ref 1 (°C)	5.09T ext. ref 2 (°C)	35.86length (m)	temperature (°C)	Stokes	anti-Stokes-747.200	800.000	0.011	0.039
-746.185	-200.000	0.034	0.269
-745.171	-104.000	-0.348	0.083
-744.156	5.861	0.005	0.004
-743.142	-109.608	-0.265	-0.057
-742.127	-200.000	-0.042	0.238
-741.112	800.000	-0.072	0.245
-740.098	-118.677	-0.060	-0.011
-739.083	418.080	-0.127	0.277
-738.069	96.837	-0.142	0.166
-737.054	-50.448	0.094	0.045
-736.039	134.560	-0.184	0.243
-735.025	-52.851	0.232	-0.109
-734.010	800.000	0.111	-0.428
-732.996	-19.631	-0.112	-0.070
-731.981	-108.941	-0.603	-0.131
-730.966	538.237	0.142	-0.345
-729.952	329.800	0.089	0.175
-728.937	-109.239	0.275	0.060
-727.923	390.765	-0.068	-0.144
-726.908	-119.107	-0.220	-0.039
-725.894	800.000	-0.083	-0.319
-724.879	341.967	-0.056	0.111
-723.864	36.427	0.043	-0.038
-722.850	-200.000	0.025	-0.128
-721.835	6.067	0.103	0.078
-720.821	-200.000	-0.026	0.236
-719.806	124.935	-0.101	-0.130
-718.791	800.000	-0.070	0.226
-717.777	800.000	-0.049	0.149
-716.762	-71.976	-0.206	0.078
-715.748	141.525	0.088	-0.119
-714.733	452.976	-0.111	-0.250
-713.718	-200.000	-0.007	-0.089
-712.704	-162.767	-0.067	0.003
-711.689	-200.000	0.016	0.166
-710.675	-200.000	0.070	-0.425
-709.660	764.091	0.060	-0.167
-708.645	267.781	-0.087	0.154
-707.631	-16.530	0.159	-0.103
-706.616	106.491	-0.127	-0.153
-705.602	-46.644	0.104	0.052
-704.587	-200.000	0.006	0.369
-703.572	-20.040	-0.077	-0.048
-702.558	-129.089	0.271	0.039
-701.543	-102.816	-0.239	0.058
-700.529	96.397	-0.217	0.253
-699.514	-163.019	-0.238	-0.012
-698.499	-200.000	0.010	0.082
-697.485	800.000	0.035	0.113
-696.470	11.549	-0.220	0.172
-695.456	-125.653	0.221	-0.034
-694.441	136.877	-0.141	-0.188
-693.426	-7.587	-0.055	-0.038
-692.412	-200.000	-0.005	-0.096
-691.397	-43.732	-0.320	-0.164
-690.383	261.339	-0.221	-0.389
-689.368	-28.970	-0.364	-0.213
-688.354	-1.048	-0.341	-0.246
-687.339	-200.000	0.012	-0.231
-686.324	101.275	0.018	-0.021
-685.310	749.507	0.062	0.171
-684.295	-200.000	-0.003	-0.119
-683.281	-200.000	-0.055	0.248
-682.266	-72.959	0.173	-0.065
-681.251	549.748	-0.134	0.327
-680.237	-156.226	0.063	0.004
-679.222	-121.648	0.039	0.007
-678.208	-188.876	0.056	-0.001
-677.193	57.670	0.141	0.140
-676.178	111.402	0.094	-0.115
-675.164	213.577	-0.157	-0.253
-674.149	333.781	0.084	0.164
-673.135	339.548	-0.131	0.259
-672.120	34.937	-0.116	0.103
-671.105	-137.653	0.198	0.023
-670.091	30.176	0.279	0.242
-669.076	-200.000	-0.005	0.071
-668.062	481.062	0.141	0.326
-667.047	-200.000	-0.005	-0.223
-666.032	705.455	-0.098	0.264
-665.018	67.299	0.095	0.098
-664.003	-156.766	-0.279	-0.017
-662.989	586.394	0.013	-0.032
-661.974	37.125	-0.169	0.152
-660.959	661.665	0.095	0.249
-659.945	-200.000	0.031	0.238
-658.930	800.000	0.071	0.267
-657.916	-70.671	0.238	-0.091
-656.901	-119.424	-0.056	0.010
-655.886	-56.657	0.193	-0.087
-654.872	-200.000	0.020	-0.112
-653.857	800.000	0.094	0.405
-652.843	-110.576	-0.133	0.028
-651.828	451.466	-0.078	0.176
-650.814	147.452	0.180	-0.246
-649.799	-70.447	-0.282	0.108
-648.784	-200.000	-0.026	0.141
-647.770	-2.484	-0.099	0.070
-646.755	365.855	-0.098	0.201
-645.741	-200.000	-0.009	0.180
-644.726	35.741	-0.225	0.201
-643.711	-102.303	0.231	-0.056
-642.697	54.558	0.376	0.368
-641.682	-139.970	0.208	-0.022
-640.668	495.267	-0.064	0.149
-639.653	-25.041	0.150	-0.090
-638.638	-200.000	-0.009	0.092
-637.624	310.395	0.081	-0.154
-636.609	-65.122	0.192	0.078
-635.595	151.437	-0.140	-0.194
-634.580	45.766	0.073	0.069
-633.565	-40.716	-0.250	-0.131
-632.551	43.019	-0.312	0.289
-631.536	-43.325	-0.247	-0.127
-630.522	-200.000	-0.024	-0.176
-629.507	177.102	-0.162	-0.240
-628.492	41.543	0.224	-0.205
-627.478	575.207	-0.062	-0.153
-626.463	800.000	0.061	-0.207
-625.449	65.264	0.080	-0.082
-624.434	-200.000	0.009	0.207
-623.419	94.440	-0.123	-0.142
-622.405	-200.000	-0.006	0.028
-621.390	-103.948	-0.320	0.076
-620.376	-200.000	0.029	0.357
-619.361	145.706	0.176	0.240
-618.346	-38.003	0.119	0.064
-617.332	-200.000	0.065	0.295
-616.317	-200.000	0.098	-0.478
-615.303	6.219	-0.164	-0.123
-614.288	-72.054	0.239	-0.090
-613.273	-28.637	-0.461	0.269
-612.259	-167.309	0.617	-0.025
-611.244	-200.000	-0.053	-0.399
-610.230	-38.894	0.293	-0.157
-609.215	-200.000	-0.009	-0.214
-608.201	-93.355	0.386	0.109
-607.186	-200.000	0.010	-0.240
-606.171	-52.522	0.233	-0.109
-605.157	312.793	-0.095	-0.180
-604.142	-97.251	0.164	-0.043
-603.128	161.926	0.178	0.253
-602.113	-200.000	-0.033	0.187
-601.098	358.472	0.122	-0.248
-600.084	46.343	0.186	0.175
-599.069	-200.000	-0.022	0.155
-598.055	-128.003	-0.090	0.013
-597.040	-57.332	-0.155	-0.069
-596.025	-200.000	0.036	0.163
-595.011	187.120	-0.112	0.169
-593.996	-200.000	-0.010	-0.280
-592.982	-1.284	0.221	-0.158
-591.967	-200.000	-0.024	-0.272
-590.952	800.000	-0.053	0.170
-589.938	157.076	-0.205	-0.288
-588.923	-200.000	0.040	-0.194
-587.909	133.311	-0.199	-0.261
-586.894	446.690	-0.090	0.200
-585.879	-9.917	0.160	-0.108
-584.865	27.383	-0.227	0.194
-583.850	800.000	0.046	-0.202
-582.836	426.511	0.069	0.150
-581.821	-102.764	0.224	-0.054
-580.806	72.119	-0.097	0.102
-579.792	-49.378	-0.100	-0.048
-578.777	-5.736	-0.061	0.042
-577.763	-114.532	-0.092	0.018
-576.748	12.955	0.154	0.121
-575.733	-39.527	-0.056	0.029
-574.719	-200.000	0.040	-0.221
-573.704	-200.000	-0.050	0.239
-572.690	13.499	0.085	-0.067
-571.675	33.048	-0.151	-0.133
-570.661	800.000	-0.043	0.124
-569.646	-200.000	0.026	-0.204
-568.631	800.000	-0.099	-0.404
-567.617	-117.116	0.148	-0.027
-566.602	-82.427	0.219	0.072
-565.588	82.704	-0.022	0.025
-564.573	-47.217	-0.302	0.149
-563.558	58.279	0.210	0.208
-562.544	-145.595	0.297	-0.027
-561.529	38.951	-0.171	0.155
-560.515	-108.504	0.283	-0.062
-559.500	-94.502	0.355	0.098
-558.485	-74.498	-0.275	0.100
-557.471	-28.573	-0.094	-0.055
-556.456	-200.000	0.048	0.282
-555.442	29.348	0.210	-0.180
-554.427	800.000	0.044	0.132
-553.412	800.000	-0.104	-0.306
-552.398	800.000	-0.060	-0.212
-551.383	-139.435	0.097	-0.011
-550.369	48.546	-0.061	0.058
-549.354	-84.063	-0.329	0.106
-548.339	550.705	0.112	0.272
-547.325	800.000	0.052	0.199
-546.310	-200.000	0.027	-0.426
-545.296	151.364	0.252	-0.347
-544.281	-200.000	-0.051	0.384
-543.266	134.873	0.085	-0.111
-542.252	-170.285	0.160	0.006
-541.237	-47.363	-0.128	-0.063
-540.223	-200.000	-0.050	-0.232
-539.208	520.510	-0.080	-0.190
-538.193	-200.000	-0.006	-0.037
-537.179	-200.000	0.012	-0.225
-536.164	-127.990	0.462	0.067
-535.150	-122.327	-0.538	0.089
-534.135	-135.299	-0.202	-0.024
-533.121	66.546	0.278	-0.286
-532.106	-200.000	0.003	0.106
-531.091	-36.273	-0.125	-0.068
-530.077	-22.481	-0.201	0.123
-529.062	431.490	-0.083	0.183
-528.048	228.036	0.053	0.087
-527.033	-184.615	0.153	0.002
-526.018	-125.003	-0.322	-0.050
-525.004	-56.660	-0.033	-0.015
-523.989	800.000	0.117	-0.341
-522.975	-177.181	-0.101	-0.003
-521.960	-58.490	-0.182	-0.080
-520.945	800.000	0.073	-0.282
-519.931	559.501	0.165	-0.403
-518.916	-200.000	-0.022	0.303
-517.902	-42.830	-0.245	-0.126
-516.887	800.000	-0.077	-0.290
-515.872	-200.000	0.024	-0.348
-514.858	-172.286	-0.298	0.010
-513.843	6.140	0.028	-0.021
-512.829	-18.377	0.150	0.095
-511.814	-132.605	0.236	0.031
-510.799	-144.251	-0.376	-0.035
-509.785	-200.000	-0.037	0.351
-508.770	-88.982	-0.139	-0.042
-507.756	-31.658	0.188	-0.106
-506.741	-127.648	-0.096	0.014
-505.726	-55.581	0.367	0.166
-504.712	-46.832	-0.389	0.192
-503.697	295.949	0.282	0.521
-502.683	-90.246	0.077	-0.023
-501.668	-27.164	-0.336	0.198
-500.653	76.499	-0.310	-0.332
-499.639	23.583	-0.054	-0.045
-498.624	-200.000	-0.005	0.251
-497.610	161.278	0.204	0.289
-496.595	-200.000	0.030	-0.134
-495.581	-69.354	0.293	0.114
-494.566	-200.000	-0.011	-0.099
-493.551	-200.000	-0.073	-0.519
-492.537	208.547	0.058	0.092
-491.522	37.953	0.115	0.103
-490.508	800.000	0.077	0.324
-489.493	-29.579	0.158	0.091
-488.478	753.875	-0.099	-0.270
-487.464	-200.000	-0.037	-0.248
-486.449	-185.228	-0.112	0.002
-485.435	66.136	0.171	-0.175
-484.420	800.000	0.012	-0.048
-483.405	-183.130	0.172	-0.003
-482.391	-193.430	-0.031	0.000
-481.376	-27.537	-0.165	-0.097
-480.362	-111.371	0.201	-0.041
-479.347	-68.040	0.102	-0.040
-478.332	298.094	0.031	0.058
-477.318	-113.414	0.305	0.060
-476.303	49.688	-0.276	0.262
-475.289	-200.000	0.019	0.129
-474.274	-176.402	0.245	-0.006
-473.259	-16.601	0.275	0.175
-472.245	100.341	0.231	-0.270
-471.230	-21.888	-0.231	-0.142
-470.216	-141.474	-0.375	-0.038
-469.201	-24.449	0.116	-0.070
-468.186	176.415	-0.096	0.141
-467.172	49.595	-0.092	0.088
-466.157	800.000	0.044	0.165
-465.143	-129.484	-0.090	0.013
-464.128	384.573	0.086	0.179
-463.113	282.054	-0.018	0.032
-462.099	-132.092	0.250	-0.033
-461.084	99.162	-0.073	-0.085
-460.070	444.752	-0.116	-0.256
-459.055	-200.000	0.031	-0.165
-458.040	-200.000	-0.040	-0.269
-457.026	51.035	-0.328	0.313
-456.011	-33.936	0.329	-0.183
-454.997	-144.800	-0.188	0.017
-453.982	63.502	-0.333	0.337
-452.968	-116.422	0.147	-0.027
-451.953	159.831	-0.130	0.183
-450.938	800.000	0.069	-0.199
-449.924	-200.000	0.055	-0.372
-448.909	-200.000	-0.057	-0.326
-447.895	-105.415	0.153	-0.035
-446.880	-30.128	-0.376	-0.216
-445.865	-134.283	-0.283	-0.035
-444.851	225.768	0.027	0.044
-443.836	454.954	-0.050	-0.112
-442.822	45.570	0.267	-0.249
-441.807	140.298	-0.269	-0.358
-440.792	-97.250	-0.451	0.119
-439.778	319.049	-0.044	0.084
-438.763	-97.757	0.280	0.073
-437.749	-76.838	0.166	0.059
-436.734	174.493	-0.179	0.261
-435.719	800.000	0.062	0.195
-434.705	181.676	0.100	0.149
-433.690	187.983	-0.054	0.081
-432.676	-200.000	0.055	0.367
-431.661	249.720	0.048	-0.081
-430.646	39.936	0.048	-0.043
-429.632	21.588	0.354	-0.290
-428.617	-200.000	-0.057	-0.252
-427.603	-57.004	0.405	-0.180
-426.588	-73.676	0.226	-0.083
-425.573	800.000	0.017	-0.054
-424.559	-15.734	-0.142	-0.091
-423.544	293.693	-0.129	-0.237
-422.530	-38.774	0.587	-0.312
-421.515	-143.165	-0.271	-0.026
-420.500	144.785	-0.127	-0.171
-419.486	-200.000	-0.027	0.198
-418.471	-24.295	0.103	-0.062
-417.457	358.759	-0.074	-0.148
-416.442	-102.345	0.094	-0.023
-415.428	511.409	0.173	-0.406
-414.413	800.000	-0.051	-0.220
-413.398	15.179	-0.259	0.205
-412.384	-200.000	-0.033	0.278
-411.369	-16.604	0.025	-0.016
-410.355	42.663	0.091	0.083
-409.340	-131.018	-0.221	0.030
-408.325	-107.638	0.122	0.027
-407.311	-200.000	0.042	0.325
-406.296	22.265	0.207	0.170
-405.282	800.000	0.034	0.130
-404.267	-125.687	-0.445	0.068
-403.252	-127.483	0.025	-0.004
-402.238	-87.262	-0.095	-0.029
-401.223	800.000	-0.009	-0.035
-400.209	-73.380	0.238	-0.088
-399.194	-42.284	-0.170	-0.087
-398.179	-200.000	0.019	-0.251
-397.165	20.955	0.086	0.070
-396.150	-51.256	0.317	-0.149
-395.136	-155.919	0.116	-0.007
-394.121	2.540	-0.245	-0.179
-393.106	81.764	0.286	-0.311
-392.092	572.262	0.062	0.151
-391.077	81.487	0.213	0.232
-390.063	-150.678	0.241	0.018
-389.048	-29.878	-0.012	0.007
-388.033	-108.691	-0.272	-0.059
-387.019	323.667	0.172	0.330
-386.004	-148.530	-0.143	0.012
-384.990	-4.634	-0.312	0.217
-383.975	-21.352	0.130	-0.080
-382.960	-91.627	0.261	-0.075
-381.946	363.956	-0.133	0.268
-380.931	800.000	0.107	0.321
-379.917	-200.000	-0.055	0.379
-378.902	63.061	-0.179	0.181
-377.888	-43.148	-0.465	-0.237
-376.873	218.011	-0.136	0.219
-375.858	-200.000	-0.032	0.153
-374.844	79.856	-0.151	-0.164
-373.829	-84.575	-0.421	-0.133
-372.815	-200.000	0.002	0.161
-371.800	56.752	-0.116	-0.114
-370.785	-27.807	-0.221	-0.128
-369.771	800.000	0.078	-0.326
-368.756	-68.594	-0.197	-0.077
-367.742	-162.919	-0.160	-0.008
-366.727	-174.212	0.234	-0.007
-365.712	325.905	-0.144	0.276
-364.698	800.000	0.098	0.307
-363.683	-117.441	0.115	0.021
-362.669	76.780	-0.207	0.221
-361.654	99.445	-0.163	0.189
-360.639	800.000	-0.034	0.122
-359.625	800.000	-0.019	-0.070
-358.610	-105.739	0.115	0.026
-357.596	116.686	0.156	-0.192
-356.581	-200.000	0.001	0.057
-355.566	68.541	-0.133	0.137
-354.552	-70.214	0.260	-0.099
-353.537	-104.979	0.196	0.045
-352.523	-18.445	0.239	-0.150
-351.508	61.656	-0.224	-0.224
-350.493	-200.000	0.082	0.430
-349.479	-103.518	-0.282	0.067
-348.464	61.339	0.239	0.239
-347.450	55.394	-0.089	0.087
-346.435	189.264	-0.134	0.201
-345.420	-126.300	-0.282	0.042
-344.406	-200.000	-0.002	-0.027
-343.391	181.347	-0.107	-0.157
-342.377	-200.000	-0.005	0.317
-341.362	413.808	0.029	-0.063
-340.348	-200.000	-0.013	0.082
-339.333	-200.000	0.046	0.404
-338.318	-9.869	-0.128	-0.086
-337.304	-3.523	-0.189	0.132
-336.289	800.000	-0.104	0.403
-335.275	-158.582	0.242	0.014
-334.260	-140.297	0.111	0.012
-333.245	495.157	0.128	0.295
-332.231	-54.441	-0.292	0.133
-331.216	33.480	-0.129	-0.113
-330.202	518.119	-0.119	-0.279
-329.187	-33.883	0.250	0.138
-328.172	11.621	-0.315	-0.243
-327.158	-92.727	0.042	0.012
-326.143	320.189	0.192	-0.365
-325.129	201.498	-0.211	0.326
-324.114	-200.000	0.020	0.171
-323.099	-12.170	0.057	-0.038
-322.085	-90.758	0.256	0.074
-321.070	-110.365	-0.155	0.032
-320.056	-39.338	-0.233	-0.123
-319.041	-24.627	0.174	0.104
-318.026	800.000	-0.058	0.204
-317.012	-200.000	-0.004	0.173
-315.997	-200.000	-0.006	-0.151
-314.983	242.743	0.043	0.073
-313.968	-200.000	-0.018	-0.115
-312.953	-95.322	0.226	0.061
-311.939	-40.072	-0.068	-0.035
-310.924	-168.750	0.151	-0.006
-309.910	329.287	-0.048	-0.092
-308.895	-60.886	-0.333	-0.141
-307.880	-114.466	0.254	-0.049
-306.866	39.103	0.109	0.098
-305.851	-102.133	-0.125	0.030
-304.837	800.000	-0.016	0.061
-303.822	-22.490	-0.009	0.005
-302.807	441.486	0.065	-0.143
-301.793	42.258	-0.130	-0.119
-300.778	-200.000	0.014	-0.184
-299.764	-200.000	-0.029	0.270
-298.749	-89.711	0.231	0.068
-297.735	-48.557	0.150	0.072
-296.720	447.685	0.058	0.128
-295.705	-103.445	-0.176	-0.041
-294.691	-176.143	0.036	0.001
-293.676	-74.801	-0.056	-0.020
-292.662	-56.179	-0.235	0.105
-291.647	18.648	-0.206	-0.165
-290.632	-106.921	-0.270	0.060
-289.618	-92.710	-0.410	0.115
-288.603	104.862	-0.048	-0.057
-287.589	68.790	-0.148	0.152
-286.574	117.890	0.081	-0.100
-285.559	116.772	-0.141	-0.173
-284.545	508.734	-0.034	0.080
-283.530	-128.692	0.206	-0.029
-282.516	800.000	0.167	-0.515
-281.501	-200.000	-0.056	-0.449
-280.486	-200.000	0.027	0.158
-279.472	210.443	-0.128	0.201
-278.457	-51.952	0.294	0.137
-277.443	3.448	0.062	0.045
-276.428	17.988	-0.159	0.127
-275.413	20.656	-0.249	0.202
-274.399	56.129	0.096	0.093
-273.384	695.718	-0.026	-0.069
-272.370	343.468	-0.149	0.293
-271.355	-58.426	-0.233	-0.101
-270.340	-105.622	0.314	0.071
-269.326	-200.000	0.028	-0.333
-268.311	-79.692	0.069	-0.023
-267.297	-70.668	0.226	-0.086
-266.282	-158.248	0.251	-0.015
-265.267	-161.801	-0.467	-0.024
-264.253	175.429	0.107	0.156
-263.238	-63.963	0.311	-0.127
-262.224	-104.366	0.147	0.034
-261.209	-46.159	0.430	-0.212
-260.195	146.776	-0.055	0.074
-259.180	127.520	0.087	0.110
-258.165	23.294	-0.278	-0.229
-257.151	-15.279	-0.262	-0.168
-256.136	81.192	-0.122	-0.132
-255.122	85.659	0.135	0.149
-254.107	-55.457	0.078	0.035
-253.092	-200.000	0.003	0.221
-252.078	-76.287	0.149	-0.053
-251.063	27.702	0.187	0.158
-250.049	-200.000	0.002	-0.248
-249.034	-45.500	-0.056	-0.028
-248.019	35.551	0.180	-0.158
-247.005	-42.239	0.313	-0.160
-245.990	-12.726	0.113	0.073
-244.976	27.440	0.063	0.053
-243.961	-9.470	-0.074	-0.049
-242.946	5.725	0.156	-0.115
-241.932	-200.000	0.049	-0.222
-240.917	-137.680	-0.346	0.039
-239.903	-90.504	0.110	0.032
-238.888	-142.570	-0.171	0.017
-237.873	-63.449	0.135	0.055
-236.859	800.000	-0.123	-0.367
-235.844	-108.274	-0.124	-0.027
-234.830	-61.173	0.179	0.075
-233.815	88.634	-0.230	-0.255
-232.800	-138.305	-0.290	-0.032
-231.786	-200.000	0.011	0.412
-230.771	46.162	0.088	-0.081
-229.757	-67.831	0.130	0.051
-228.742	-200.000	0.040	-0.208
-227.727	-28.229	-0.041	-0.024
-226.713	116.136	0.083	0.102
-225.698	-200.000	0.032	0.267
-224.684	114.018	0.162	0.197
-223.669	15.613	0.117	-0.091
-222.655	-200.000	-0.013	-0.267
-221.640	307.561	-0.045	-0.083
-220.625	544.312	-0.012	0.028
-219.611	216.811	0.209	-0.332
-218.596	38.090	0.111	0.099
-217.582	-81.298	-0.098	-0.032
-216.567	-200.000	0.012	0.144
-215.552	450.133	-0.061	0.134
-214.538	-122.243	-0.161	-0.026
-213.523	122.571	0.085	0.106
-212.509	-63.999	0.068	-0.028
-211.494	-94.565	0.054	0.015
-210.479	-200.000	0.037	0.476
-209.465	-113.216	-0.158	-0.031
-208.450	-117.143	-0.177	0.032
-207.436	395.887	-0.084	0.174
-206.421	276.434	-0.059	0.104
-205.406	800.000	0.042	-0.119
-204.392	43.269	0.205	-0.187
-203.377	506.290	0.034	-0.078
-202.363	-200.000	-0.001	-0.267
-201.348	333.718	-0.181	-0.350
-200.333	-131.951	-0.420	-0.055
-199.319	194.580	-0.161	0.243
-198.304	111.689	0.077	0.092
-197.290	-200.000	-0.007	0.081
-196.275	-85.417	0.030	0.009
-195.260	168.718	-0.056	0.080
-194.246	37.581	-0.188	0.166
-193.231	45.877	-0.081	0.075
-192.217	60.644	0.150	0.149
-191.202	-200.000	-0.043	-0.197
-190.187	-35.221	0.285	-0.155
-189.173	-200.000	-0.057	0.254
-188.158	-67.694	0.152	0.059
-187.144	-35.858	0.141	-0.076
-186.129	11.043	0.170	0.129
-185.114	800.000	-0.034	-0.095
-184.100	-14.628	-0.217	0.139
-183.085	-53.614	-0.130	-0.059
-182.071	-200.000	-0.021	0.411
-181.056	-166.624	0.353	-0.015
-180.042	-20.766	-0.176	0.108
-179.027	800.000	-0.024	-0.090
-178.012	-160.142	0.139	0.008
-176.998	800.000	0.098	0.369
-175.983	-132.643	0.075	0.010
-174.969	85.128	0.126	0.138
-173.954	227.481	0.070	-0.113
-172.939	402.567	-0.097	0.204
-171.925	1.023	-0.114	0.082
-170.910	-82.902	-0.148	0.048
-169.896	-15.228	0.162	-0.103
-168.881	249.529	-0.067	0.113
-167.866	-106.708	0.048	0.011
-166.852	248.484	0.125	0.212
-165.837	800.000	-0.057	-0.232
-164.823	-200.000	-0.063	-0.468
-163.808	-200.000	0.015	-0.193
-162.793	-200.000	0.008	0.049
-161.779	164.861	0.118	0.167
-160.764	-200.000	0.058	-0.370
-159.750	-180.261	-0.079	-0.002
-158.735	124.153	0.162	0.203
-157.720	-92.208	-0.225	-0.063
-156.706	245.082	-0.140	-0.234
-155.691	-44.762	0.223	0.111
-154.677	195.220	-0.061	0.092
-153.662	-41.377	0.130	-0.067
-152.647	-42.922	0.246	0.124
-151.633	245.094	-0.098	0.164
-150.618	316.699	0.045	0.084
-149.604	8.740	0.198	-0.148
-148.589	-57.507	-0.185	0.081
-147.574	94.228	-0.204	-0.230
-146.560	21.875	-0.081	0.066
-145.545	-22.128	0.339	0.205
-144.531	-200.000	-0.034	0.267
-143.516	40.306	0.072	-0.064
-142.502	-81.321	0.025	-0.008
-141.487	-84.109	0.223	-0.071
-140.472	-64.394	-0.272	-0.110
-139.458	27.357	-0.072	0.060
-138.443	-200.000	0.026	-0.137
-137.429	-44.637	0.055	-0.027
-136.414	-49.379	0.257	0.122
-135.399	-120.331	-0.242	-0.041
-134.385	131.539	0.130	-0.167
-133.370	-135.469	-0.340	-0.040
-132.356	-117.500	-0.427	0.077
-131.341	800.000	0.013	0.051
-130.326	-78.180	-0.202	-0.069
-129.312	-16.885	0.068	-0.043
-128.297	61.677	0.098	0.098
-127.283	-121.543	0.145	-0.024
-126.268	97.143	-0.187	0.214
-125.253	-41.359	0.096	0.049
-124.239	-200.000	-0.047	0.314
-123.224	-81.618	-0.132	0.043
-122.210	-86.054	0.113	-0.035
