DTS Sentinel unit serial number:	SN413079Multiplexer serial number:	ORYXHardware model number:	OX4-SRSoftware version number:	ORYX F/W v4.00 Oryx Data Collector v3.7.2.0data status	okinstallation	princeton_trtdifferential loss correction	single-endedforward channel	channel 2reverse channel	N/Adate	2019/09/11time	18:29:11forward acquisition time	60.00reverse acquisition time	0.00gamma	496.2192k internal	0.2286k external	0.2286temperature offset calibration	1.0024default loss term (dB/km)	0.3790temperature slope calibration	1.0000multiplexer offset coefficient	1.0000multiplexer slope coefficient	1.0000fibre end	0.00T internal ref (°C)	43.87T ext. ref 1 (°C)	1.16T ext. ref 2 (°C)	37.51length (m)	temperature (°C)	Stokes	anti-Stokes-747.200	-103.138	0.207	-0.050
-746.185	407.715	-0.063	0.136
-745.171	-148.676	0.204	0.017
-744.156	-34.312	0.278	0.156
-743.142	47.646	0.163	-0.156
-742.127	-142.517	0.176	-0.018
-741.112	-7.193	-0.116	-0.081
-740.098	742.940	-0.043	-0.117
-739.083	59.059	0.020	0.020
-738.069	-90.332	0.310	0.092
-737.054	-200.000	-0.045	0.290
-736.039	800.000	0.097	0.275
-735.025	-67.016	0.121	0.049
-734.010	83.634	-0.027	0.030
-732.996	-100.152	0.305	-0.078
-731.981	236.963	0.050	-0.085
-730.966	-70.681	-0.255	0.099
-729.952	101.527	-0.119	0.142
-728.937	-55.617	0.059	-0.027
-727.923	-56.666	-0.264	0.120
-726.908	327.581	0.097	-0.191
-725.894	32.493	0.117	-0.103
-724.879	107.579	-0.106	-0.130
-723.864	297.219	0.243	-0.458
-722.850	449.313	0.124	0.280
-721.835	-18.760	-0.081	0.052
-720.821	794.765	-0.135	-0.380
-719.806	-130.790	-0.150	-0.021
-718.791	-31.982	-0.446	0.256
-717.777	-66.095	0.211	-0.086
-716.762	324.977	0.064	-0.125
-715.748	-200.000	-0.047	-0.402
-714.733	449.748	0.050	0.113
-713.718	800.000	-0.029	-0.086
-712.704	571.888	-0.115	-0.288
-711.689	-108.459	0.286	-0.063
-710.675	-20.888	0.092	-0.058
-709.660	398.871	-0.053	0.113
-708.645	-82.946	-0.131	-0.043
-707.631	188.368	0.126	-0.192
-706.616	41.229	0.110	-0.102
-705.602	59.258	-0.101	-0.102
-704.587	-147.401	0.080	0.007
-703.572	-200.000	0.029	-0.192
-702.558	112.321	0.111	-0.138
-701.543	-114.278	0.078	0.015
-700.529	-165.526	-0.196	-0.009
-699.514	677.854	-0.046	0.123
-698.499	-200.000	-0.026	0.259
-697.485	800.000	-0.060	-0.211
-696.470	258.830	-0.095	0.169
-695.456	687.662	-0.055	-0.147
-694.441	-47.485	0.125	0.062
-693.426	-100.372	-0.171	0.043
-692.412	-166.663	-0.189	0.008
-691.397	-98.438	-0.188	-0.049
-690.383	-200.000	-0.045	-0.335
-689.368	-92.485	-0.263	0.076
-688.354	-200.000	-0.019	-0.158
-687.339	-59.250	0.291	-0.128
-686.324	384.224	0.061	-0.128
-685.310	-200.000	0.022	0.211
-684.295	-48.160	0.154	-0.076
-683.281	-72.863	0.215	0.081
-682.266	48.344	-0.268	0.257
-681.251	10.725	0.179	0.140
-680.237	52.169	0.170	-0.166
-679.222	127.425	0.054	-0.070
-678.208	-111.656	0.192	0.040
-677.193	138.744	-0.106	-0.143
-676.178	157.888	-0.099	-0.140
-675.164	-200.000	-0.040	-0.439
-674.149	-112.188	0.126	0.026
-673.135	19.260	-0.184	0.151
-672.120	-200.000	-0.004	0.143
-671.105	-97.833	-0.458	0.121
-670.091	-200.000	-0.024	-0.131
-669.076	800.000	0.030	-0.108
-668.062	-119.045	0.112	0.020
-667.047	-200.000	-0.026	0.350
-666.032	-89.213	0.461	-0.139
-665.018	800.000	0.024	-0.074
-664.003	-143.043	-0.083	0.008
-662.989	18.524	-0.071	-0.058
-661.974	97.767	-0.086	0.101
-660.959	-82.513	0.306	0.102
-659.945	800.000	-0.009	-0.034
-658.930	-106.440	0.281	-0.064
-657.916	-67.263	0.261	-0.105
-656.901	-61.454	0.391	0.168
-655.886	-36.500	0.099	0.054
-654.872	-80.147	0.482	0.165
-653.857	204.207	-0.139	-0.220
-652.843	23.415	-0.259	-0.218
-651.828	-200.000	-0.004	-0.103
-650.814	-125.188	-0.319	-0.050
-649.799	-200.000	-0.013	0.065
-648.784	22.976	-0.100	0.084
-647.770	-96.976	-0.285	0.076
-646.755	-200.000	0.005	-0.187
-645.741	11.211	0.224	0.175
-644.726	10.216	0.066	-0.052
-643.711	59.104	0.107	-0.108
-642.697	329.546	-0.123	0.241
-641.682	-146.283	-0.492	-0.044
-640.668	-200.000	0.030	-0.305
-639.653	98.044	-0.038	0.045
-638.638	800.000	-0.105	0.346
-637.624	433.355	0.115	0.254
-636.609	-19.199	0.120	0.076
-635.595	313.132	0.093	-0.178
-634.580	-37.494	-0.194	-0.106
-633.565	-200.000	0.015	0.135
-632.551	-32.214	-0.470	0.268
-631.536	-75.671	0.178	0.065
-630.522	349.131	0.054	-0.109
-629.507	20.092	-0.042	0.034
-628.492	280.480	0.164	-0.300
-627.478	133.608	0.130	0.172
-626.463	-75.126	-0.369	0.135
-625.449	-200.000	0.002	-0.139
-624.434	-58.969	-0.197	-0.087
-623.419	497.943	-0.106	-0.249
-622.405	-132.700	0.404	-0.053
-621.390	-71.927	0.081	0.031
-620.376	585.662	-0.075	0.189
-619.361	800.000	-0.086	0.250
-618.346	77.390	0.154	0.168
-617.332	-200.000	0.028	-0.242
-616.317	-200.000	0.043	-0.197
-615.303	-96.990	-0.245	0.066
-614.288	-21.460	0.193	-0.120
-613.273	-124.087	-0.110	-0.018
-612.259	-117.307	-0.312	0.058
-611.244	-89.413	-0.151	0.045
-610.230	20.296	0.224	0.185
-609.215	-180.440	-0.203	0.004
-608.201	-81.907	-0.291	-0.097
-607.186	-157.868	-0.295	0.018
-606.171	-139.394	0.225	-0.025
-605.157	136.761	-0.128	-0.170
-604.142	-200.000	-0.015	-0.216
-603.128	-46.718	-0.365	0.182
-602.113	214.205	-0.023	0.037
-601.098	10.274	0.304	-0.236
-600.084	-2.433	0.240	0.171
-599.069	296.456	0.125	0.233
-598.055	-200.000	-0.014	-0.107
-597.040	-110.262	-0.432	0.092
-596.025	-50.520	-0.100	0.048
-595.011	218.461	0.116	-0.189
-593.996	-83.045	-0.224	-0.074
-592.982	-54.715	0.192	-0.088
-591.967	85.403	-0.100	0.111
-590.952	-200.000	0.041	0.231
-589.938	161.798	-0.048	-0.068
-588.923	800.000	-0.037	-0.135
-587.909	359.080	-0.019	0.038
-586.894	-85.478	-0.051	-0.016
-585.879	-200.000	-0.018	0.111
-584.865	201.360	-0.090	-0.141
-583.850	800.000	-0.023	0.074
-582.836	-87.142	-0.265	0.082
-581.821	310.289	-0.076	-0.144
-580.806	-20.072	-0.240	-0.151
-579.792	-200.000	-0.001	0.022
-578.777	47.238	-0.080	-0.076
-577.763	800.000	0.042	-0.176
-576.748	37.556	0.090	0.081
-575.733	44.792	0.261	0.245
-574.719	534.183	-0.085	-0.206
-573.704	78.841	0.056	-0.061
-572.690	-131.125	-0.309	-0.042
-571.675	501.191	0.122	0.288
-570.661	-188.278	-0.287	-0.004
-569.646	2.540	0.090	0.066
-568.631	-63.796	-0.346	0.144
-567.617	-124.188	-0.042	-0.007
-566.602	166.284	-0.179	-0.258
-565.588	-74.667	-0.259	-0.095
-564.573	-133.839	-0.199	-0.025
-563.558	-63.248	0.157	-0.066
-562.544	-200.000	0.063	0.317
-561.529	800.000	0.078	-0.226
-560.515	27.111	-0.147	-0.126
-559.500	54.305	0.012	-0.012
-558.485	76.837	0.154	0.166
-557.471	63.348	-0.193	-0.198
-556.456	-137.943	-0.316	0.036
-555.442	-49.669	0.124	-0.060
-554.427	-187.165	-0.245	0.003
-553.412	299.205	-0.032	0.061
-552.398	-85.862	0.188	-0.059
-551.383	-51.984	-0.114	-0.054
-550.369	-40.817	-0.222	-0.117
-549.354	-123.783	0.388	0.063
-548.339	-200.000	0.018	0.254
-547.325	-106.318	-0.363	0.083
-546.310	268.221	0.116	-0.207
-545.296	-89.350	0.204	-0.061
-544.281	800.000	0.094	-0.281
-543.266	209.833	-0.097	-0.155
-542.252	-111.083	0.514	0.107
-541.237	-200.000	-0.038	-0.280
-540.223	-50.954	-0.110	-0.052
-539.208	-25.554	0.147	0.088
-538.193	731.716	-0.090	0.244
-537.179	138.145	-0.104	0.139
-536.164	415.775	0.091	0.198
-535.150	36.041	-0.173	-0.155
-534.135	-126.947	0.121	-0.018
-533.121	-200.000	0.028	0.247
-532.106	-191.161	-0.184	0.002
-531.091	433.125	0.044	0.098
-530.077	-165.003	-0.160	-0.007
-529.062	193.038	0.147	0.226
-528.048	-117.558	-0.201	-0.037
-527.033	-63.981	-0.174	0.072
-526.018	800.000	-0.144	0.454
-525.004	445.545	0.060	-0.134
-523.989	-142.004	-0.031	0.003
-522.975	-175.324	0.198	0.006
-521.960	-107.062	-0.225	0.050
-520.945	800.000	-0.066	0.185
-519.931	-0.322	-0.329	-0.238
-518.916	-69.115	-0.015	0.006
-517.902	800.000	0.099	-0.334
-516.887	-146.235	0.309	0.028
-515.872	-200.000	-0.010	-0.171
-514.858	-200.000	0.046	-0.377
-513.843	127.505	0.142	0.183
-512.829	-11.689	0.225	-0.151
-511.814	33.439	0.134	-0.119
-510.799	-70.079	0.139	0.054
-509.785	-2.306	-0.190	-0.135
-508.770	800.000	-0.090	-0.259
-507.756	136.864	-0.204	0.271
-506.741	-120.999	-0.211	-0.036
-505.726	-200.000	0.022	-0.113
-504.712	369.258	-0.117	-0.241
-503.697	147.497	-0.129	0.177
-502.683	-135.260	-0.150	-0.018
-501.668	68.568	-0.048	0.050
-500.653	142.677	0.078	0.106
-499.639	800.000	0.157	0.534
-498.624	51.481	0.154	-0.149
-497.610	-4.036	-0.105	0.074
-496.595	-200.000	0.003	0.181
-495.581	800.000	0.040	0.128
-494.566	-61.398	0.067	-0.029
-493.551	488.592	0.114	0.265
-492.537	-57.318	0.187	-0.083
-491.522	800.000	-0.075	0.245
-490.508	403.462	0.033	0.070
-489.493	-175.124	0.137	0.004
-488.478	-89.940	-0.307	-0.091
-487.464	-200.000	0.016	0.180
-486.449	-168.395	-0.138	0.005
-485.435	690.978	-0.075	-0.200
-484.420	-49.199	0.005	0.002
-483.405	142.556	-0.172	0.232
-482.391	-2.023	0.144	-0.103
-481.376	-98.287	0.270	-0.070
-480.362	551.062	-0.042	-0.103
-479.347	800.000	-0.070	0.252
-478.332	-200.000	0.032	0.305
-477.318	67.467	-0.128	-0.133
-476.303	51.462	-0.079	-0.077
-475.289	677.343	-0.034	0.089
-474.274	800.000	0.089	-0.265
-473.259	8.376	0.228	0.174
-472.245	94.758	-0.117	0.136
-471.230	-200.000	-0.063	0.292
-470.216	-71.010	0.188	-0.072
-469.201	-200.000	0.008	-0.095
-468.186	-19.537	-0.195	-0.123
-467.172	-200.000	-0.026	-0.175
-466.157	50.310	0.282	-0.271
-465.143	-59.622	0.189	0.082
-464.128	47.742	0.153	0.145
-463.113	-200.000	-0.067	-0.298
-462.099	-159.324	-0.182	-0.010
-461.084	-200.000	0.038	-0.253
-460.070	800.000	-0.050	-0.212
-459.055	165.086	-0.224	0.321
-458.040	179.879	-0.059	-0.088
-457.026	-3.063	-0.125	0.088
-456.011	49.164	0.136	-0.130
-454.997	56.447	0.085	-0.084
-453.982	-200.000	-0.003	-0.029
-452.968	800.000	-0.093	-0.303
-451.953	-54.849	0.216	-0.099
-450.938	-17.202	0.103	-0.066
-449.924	4.239	-0.355	0.264
-448.909	411.413	-0.140	-0.301
-447.895	-29.067	-0.280	-0.163
-446.880	-200.000	0.023	-0.157
-445.865	-200.000	0.093	0.420
-444.851	166.607	-0.066	-0.094
-443.836	-114.746	0.102	0.020
-442.822	373.532	-0.043	0.089
-441.807	-200.000	0.002	0.050
-440.792	800.000	0.083	-0.250
-439.778	19.147	-0.077	-0.063
-438.763	800.000	-0.056	0.208
-437.749	539.474	0.049	0.118
-436.734	343.160	-0.091	0.181
-435.719	-160.154	-0.411	0.023
-434.705	800.000	-0.125	-0.462
-433.690	405.142	0.090	0.193
-432.676	-91.025	0.254	0.074
-431.661	-66.137	0.102	-0.041
-430.646	800.000	0.048	0.212
-429.632	377.848	-0.138	-0.286
-428.617	239.763	0.145	-0.244
-427.603	167.110	-0.221	-0.318
-426.588	-10.983	0.073	-0.049
-425.573	-43.876	0.149	0.076
-424.559	438.224	0.134	-0.297
-423.544	-89.959	0.061	-0.018
-422.530	-1.024	0.185	-0.133
-421.515	-130.991	0.242	-0.033
-420.500	527.950	-0.074	0.178
-419.486	-99.395	-0.206	-0.053
-418.471	-173.865	-0.233	0.007
-417.457	235.598	-0.098	0.164
-416.442	-200.000	-0.006	-0.049
-415.428	316.713	-0.053	-0.101
-414.413	3.194	0.120	-0.088
-413.398	-200.000	0.006	0.133
-412.384	96.821	-0.114	-0.133
-411.369	7.760	-0.163	-0.124
-410.355	76.243	-0.053	-0.056
-409.340	800.000	0.104	0.294
-408.325	56.756	-0.035	-0.035
-407.311	-11.340	0.237	0.158
-406.296	-78.607	0.238	-0.083
-405.282	232.054	-0.048	-0.080
-404.267	800.000	0.013	-0.054
-403.252	-29.248	-0.097	0.056
-402.238	-200.000	-0.043	0.228
-401.223	800.000	0.056	0.234
-400.209	257.090	-0.122	-0.212
-399.194	-19.165	0.232	0.146
-398.179	-77.175	0.369	0.130
-397.165	246.191	-0.177	0.302
-396.150	92.951	0.199	-0.227
-395.136	-123.984	0.226	0.036
-394.121	800.000	0.074	0.323
-393.106	56.115	0.108	-0.106
-392.092	400.467	0.093	-0.198
-391.077	85.022	0.092	0.102
-390.063	-120.745	-0.131	-0.022
-389.048	-126.439	0.414	0.062
-388.033	-53.659	0.199	-0.092
-387.019	-98.926	0.274	0.070
-386.004	-25.975	-0.112	0.067
-384.990	1.448	0.349	0.254
-383.975	-200.000	-0.053	0.242
-382.960	800.000	-0.082	-0.286
-381.946	-40.758	-0.042	-0.022
-380.931	-200.000	-0.019	-0.112
-379.917	-118.598	-0.110	-0.020
-378.902	327.809	-0.067	-0.130
-377.888	-130.756	0.079	-0.011
-376.873	-26.642	0.396	0.235
-375.858	-40.120	0.237	-0.125
-374.844	40.624	-0.300	-0.274
-373.829	11.750	0.268	0.208
-372.815	98.771	0.270	0.315
-371.800	-134.488	0.198	-0.024
-370.785	-160.972	0.198	-0.011
-369.771	800.000	-0.026	0.110
-368.756	-81.293	-0.308	-0.103
-367.742	329.982	0.034	0.067
-366.727	28.980	-0.363	0.311
-365.712	-200.000	-0.003	-0.195
-364.698	95.917	0.243	0.281
-363.683	-200.000	0.003	-0.052
-362.669	800.000	0.154	-0.468
-361.654	-61.658	0.329	-0.139
-360.639	-39.827	-0.200	0.106
-359.625	-180.538	-0.334	0.007
-358.610	-100.093	-0.569	-0.143
-357.596	-91.473	-0.172	0.050
-356.581	211.903	-0.173	-0.275
-355.566	273.696	-0.181	0.324
-354.552	-52.866	-0.119	-0.055
-353.537	-200.000	0.015	0.093
-352.523	-70.200	0.182	0.070
-351.508	800.000	-0.042	0.149
-350.493	-57.504	0.178	0.079
-349.479	-13.155	0.155	-0.101
-348.464	285.468	0.029	-0.053
-347.450	-71.618	0.308	0.116
-346.435	304.862	0.047	0.089
-345.420	110.945	-0.037	-0.045
-344.406	-57.494	0.302	-0.134
-343.391	-31.150	0.182	0.103
-342.377	-16.405	0.210	-0.135
-341.362	26.970	-0.321	0.272
-340.348	133.407	-0.174	0.227
-339.333	800.000	0.038	-0.155
-338.318	-49.207	-0.250	0.121
-337.304	-200.000	0.033	0.217
-336.289	401.551	-0.142	0.301
-335.275	-43.870	0.157	-0.080
-334.260	-200.000	0.052	0.296
-333.245	211.762	-0.105	-0.167
-332.231	-37.339	0.141	-0.076
-331.216	-200.000	0.035	0.166
-330.202	-66.784	-0.086	0.034
-329.187	-32.270	0.199	-0.112
-328.172	63.638	-0.271	-0.275
-327.158	-33.204	0.299	-0.167
-326.143	-27.263	-0.271	-0.159
-325.129	-63.990	-0.426	0.176
-324.114	482.671	0.171	-0.391
-323.099	-155.651	-0.247	-0.016
-322.085	310.650	0.146	-0.276
-321.070	203.100	0.161	-0.251
-320.056	-200.000	0.013	0.132
-319.041	-200.000	0.000	-0.181
-318.026	388.887	0.055	0.115
-317.012	-88.231	0.358	0.108
-315.997	-12.134	-0.484	-0.320
-314.983	453.847	0.063	-0.141
-313.968	731.924	-0.062	-0.168
-312.953	-5.355	-0.255	0.177
-311.939	-200.000	-0.027	0.234
-310.924	-28.554	0.298	-0.173
-309.910	-66.520	0.082	0.033
-308.895	-200.000	-0.022	-0.235
-307.880	-200.000	-0.012	0.091
-306.866	-200.000	-0.047	0.268
-305.851	-34.024	-0.087	0.049
-304.837	16.732	0.086	0.068
-303.822	-107.589	-0.239	0.053
-302.807	511.763	0.071	0.166
-301.793	110.294	0.367	0.444
-300.778	540.577	0.077	-0.184
-299.764	312.812	-0.148	0.281
-298.749	-200.000	0.017	0.411
-297.735	-173.494	0.351	-0.011
-296.720	-21.900	-0.154	-0.094
-295.705	18.302	-0.131	0.105
-294.691	-142.141	0.093	0.009
-293.676	-52.367	-0.181	-0.085
-292.662	-63.640	0.441	-0.183
-291.647	-96.669	-0.047	-0.012
-290.632	706.389	-0.054	-0.143
-289.618	-118.508	-0.321	-0.057
-288.603	-109.165	0.262	-0.056
-287.589	-200.000	0.003	-0.031
-286.574	132.352	-0.045	0.058
-285.559	-94.304	0.301	-0.083
-284.545	318.333	0.292	-0.556
-283.530	-157.852	0.183	-0.011
-282.516	11.213	0.174	-0.134
-281.501	68.969	-0.193	-0.200
-280.486	-37.396	-0.149	-0.080
-279.472	-168.727	-0.417	0.016
-278.457	-200.000	0.038	0.334
-277.443	159.164	0.040	0.056
-276.428	-119.861	0.078	-0.014
-275.413	800.000	0.038	-0.111
-274.399	-73.833	-0.048	0.018
-273.384	42.150	-0.156	0.143
-272.370	-107.024	0.209	-0.046
-271.355	-82.505	0.045	0.015
-270.340	-111.906	0.160	-0.032
-269.326	-90.742	0.230	0.067
-268.311	47.483	-0.088	-0.083
-267.297	28.565	-0.332	-0.283
-266.282	134.883	0.072	0.094
-265.267	136.170	-0.092	0.121
-264.253	52.702	0.066	0.064
-263.238	181.856	0.110	-0.163
-262.224	-10.556	0.154	-0.103
-261.209	45.398	-0.086	-0.080
-260.195	-200.000	-0.031	-0.220
-259.180	-73.429	0.313	0.115
-258.165	122.129	-0.059	0.074
-257.151	222.171	-0.093	0.151
-256.136	174.943	-0.107	0.155
-255.122	505.939	0.071	-0.165
-254.107	207.438	0.294	0.462
-253.092	13.939	0.158	0.124
-252.078	-200.000	-0.007	-0.238
-251.063	-145.432	0.099	0.009
-250.049	-200.000	0.024	0.197
-249.034	280.976	0.166	0.299
-248.019	-200.000	-0.027	0.135
-247.005	55.938	0.114	0.111
-245.990	27.700	0.036	-0.030
-244.976	408.360	0.080	0.170
-243.961	-55.936	0.211	0.095
-242.946	-200.000	0.016	-0.179
-241.932	148.886	0.171	-0.233
-240.917	-21.631	-0.315	0.193
-239.903	-47.015	0.227	-0.112
-238.888	25.412	-0.112	-0.094
-237.873	800.000	-0.110	0.462
-236.859	-86.165	0.199	-0.062
-235.844	570.479	0.076	-0.187
-234.830	-89.474	-0.056	-0.016
-233.815	-88.446	0.242	-0.073
-232.800	-200.000	0.051	0.314
-231.786	-200.000	0.019	-0.218
-230.771	12.383	0.296	-0.230
-229.757	87.048	0.122	-0.135
-228.742	-200.000	0.024	-0.259
-227.727	-21.921	-0.314	0.192
-226.713	-145.312	0.114	-0.010
-225.698	684.144	-0.123	0.323
-224.684	101.464	-0.033	0.039
-223.669	-200.000	0.052	0.233
-222.655	682.071	0.065	-0.170
-221.640	433.022	0.120	-0.261
-220.625	164.927	-0.013	-0.019
-219.611	554.636	0.135	0.327
-218.596	-34.028	-0.170	0.094
-217.582	428.020	0.047	-0.103
-216.567	82.284	-0.084	-0.092
-215.552	800.000	0.051	0.152
-214.538	31.326	0.268	0.231
-213.523	-106.755	-0.225	0.050
-212.509	124.440	-0.175	-0.221
-211.494	93.778	0.163	-0.185
-210.479	-121.071	0.241	-0.041
-209.465	1.854	0.235	-0.170
-208.450	68.273	-0.087	-0.089
-207.436	800.000	-0.068	-0.276
-206.421	-200.000	0.003	-0.337
-205.406	-200.000	-0.014	0.195
-204.392	-32.664	0.199	-0.112
-203.377	800.000	-0.065	-0.240
-202.363	-175.806	-0.144	0.004
-201.348	3.103	0.358	-0.262
-200.333	12.573	-0.173	-0.134
-199.319	120.208	0.142	0.176
-198.304	422.052	-0.122	0.263
-197.290	-97.140	-0.224	-0.059
-196.275	418.874	0.117	0.252
-195.260	-38.128	0.120	-0.064
-194.246	297.179	0.147	0.270
-193.231	800.000	0.078	0.342
-192.217	-65.018	-0.349	0.142
-191.202	-200.000	-0.050	-0.265
-190.187	800.000	-0.076	0.282
-189.173	-169.768	-0.152	-0.005
-188.158	-191.198	-0.170	-0.002
-187.144	-143.447	-0.241	-0.023
-186.129	-23.973	0.164	-0.099
-185.114	395.492	0.130	0.272
-184.100	232.703	0.055	0.091
-183.085	-37.563	0.068	0.036
-182.071	-93.698	0.267	-0.074
-181.056	-200.000	-0.036	-0.188
-180.042	-105.190	0.194	0.044
-179.027	-113.831	-0.264	0.052
-178.012	-164.137	0.249	-0.012
-176.998	-62.259	0.102	0.043
-175.983	8.788	0.102	-0.077
-174.969	2.388	-0.359	0.261
-173.954	-128.701	-0.197	-0.028
-172.939	-79.796	0.382	-0.129
-171.925	-200.000	-0.031	0.288
-170.910	-77.780	-0.139	0.048
-169.896	-200.000	-0.008	-0.292
-168.881	-67.760	-0.118	-0.046
-167.866	-63.704	-0.041	0.017
-166.852	117.892	0.125	0.154
-165.837	66.308	0.092	0.094
-164.823	-97.234	-0.300	-0.079
-163.808	-180.841	0.271	0.006
-162.793	-11.841	0.048	0.032
-161.779	-200.000	-0.061	-0.292
-160.764	56.995	0.271	-0.265
-159.750	-29.608	-0.174	-0.100
-158.735	-74.251	-0.278	0.101
-157.720	-200.000	-0.025	0.486
-156.706	-17.655	0.125	0.079
-155.691	-200.000	-0.056	-0.283
-154.677	-200.000	0.009	-0.169
-153.662	-5.386	0.046	-0.032
-152.647	-200.000	-0.035	-0.378
-151.633	-124.005	-0.469	-0.074
-150.618	203.023	0.133	0.206
-149.604	800.000	0.041	0.127
-148.589	-95.127	-0.240	-0.065
-147.574	532.075	0.119	0.282
-146.560	-166.326	0.053	0.002
-145.545	-7.736	-0.136	-0.092
-144.531	-2.416	0.351	-0.246
-143.516	170.163	0.164	-0.235
-142.502	482.456	-0.244	-0.555
-141.487	-60.691	0.155	0.066
-140.472	574.171	-0.102	0.249
-139.458	-116.339	-0.028	-0.005
-138.443	80.331	0.255	0.275
-137.429	402.194	0.072	0.152
-136.414	94.189	-0.193	0.220
-135.399	10.130	0.067	-0.051
-134.385	-200.000	-0.006	-0.092
-133.370	-81.492	-0.098	-0.032
-132.356	-200.000	-0.030	-0.209
-131.341	49.046	-0.127	0.119
-130.326	90.598	0.208	-0.234
-129.312	777.247	-0.048	-0.131
-128.297	-98.709	0.416	-0.106
-127.283	131.383	0.217	0.279
-126.268	-172.207	0.129	0.004
-125.253	-3.729	-0.182	-0.127
-124.239	221.341	0.207	0.333
-123.224	-43.698	0.093	0.047
-122.210	7.057	-0.221	0.165
-121.195	-87.472	-0.075	0.023
