DTS Sentinel unit serial number:	SN413079Multiplexer serial number:	ORYXHardware model number:	OX4-SRSoftware version number:	ORYX F/W v4.00 Oryx Data Collector v3.7.2.0data status	okinstallation	princeton_trtdifferential loss correction	single-endedforward channel	channel 2reverse channel	N/Adate	2019/09/18time	06:15:35forward acquisition time	60.00reverse acquisition time	0.00gamma	496.2192k internal	0.2349k external	0.2349temperature offset calibration	0.9980default loss term (dB/km)	0.3790temperature slope calibration	1.0000multiplexer offset coefficient	1.0000multiplexer slope coefficient	1.0000fibre end	0.00T internal ref (°C)	23.25T ext. ref 1 (°C)	0.19T ext. ref 2 (°C)	17.77length (m)	temperature (°C)	Stokes	anti-Stokes-747.200	136.703	0.215	-0.280
-746.185	-40.679	0.175	-0.091
-745.171	800.000	0.061	0.176
-744.156	-87.060	-0.227	0.069
-743.142	-159.942	0.164	-0.009
-742.127	593.231	0.107	0.264
-741.112	29.640	0.206	0.175
-740.098	800.000	0.009	0.030
-739.083	-126.968	-0.218	-0.032
-738.069	430.982	0.070	0.151
-737.054	-113.683	-0.197	0.038
-736.039	-110.931	-0.210	-0.043
-735.025	-40.402	-0.026	0.013
-734.010	-85.326	-0.119	0.037
-732.996	41.892	0.080	-0.072
-731.981	-13.564	-0.250	0.162
-730.966	651.451	-0.077	-0.196
-729.952	-200.000	-0.019	0.134
-728.937	287.371	0.107	-0.192
-727.923	219.407	-0.111	-0.178
-726.908	-41.232	-0.209	-0.108
-725.894	-19.984	-0.436	0.268
-724.879	800.000	0.053	-0.154
-723.864	-99.028	-0.453	0.115
-722.850	-100.167	0.235	0.058
-721.835	-25.697	0.291	0.171
-720.821	-200.000	0.033	0.226
-719.806	-200.000	0.008	0.254
-718.791	627.500	-0.084	0.213
-717.777	105.917	-0.117	-0.138
-716.762	-143.900	-0.246	0.023
-715.748	800.000	0.015	-0.064
-714.733	334.781	-0.034	-0.066
-713.718	1.836	-0.221	-0.159
-712.704	-83.891	0.407	0.129
-711.689	316.268	-0.121	0.227
-710.675	-96.060	0.314	-0.083
-709.660	762.877	0.084	0.227
-708.645	148.253	0.219	0.295
-707.631	348.388	0.060	0.118
-706.616	-77.120	-0.218	-0.076
-705.602	800.000	0.045	0.153
-704.587	-200.000	-0.022	0.163
-703.572	563.980	0.128	0.310
-702.558	800.000	0.030	-0.108
-701.543	-200.000	0.000	-0.072
-700.529	-148.543	0.373	-0.030
-699.514	63.760	0.193	-0.193
-698.499	-200.000	0.006	-0.037
-697.485	-6.121	0.179	0.122
-696.470	135.843	-0.149	-0.193
-695.456	-18.939	-0.215	-0.133
-694.441	71.232	0.070	-0.073
-693.426	48.269	0.034	0.032
-692.412	-31.418	0.180	0.101
-691.397	50.005	-0.084	0.079
-690.383	-200.000	0.104	-0.461
-689.368	-200.000	0.069	-0.408
-688.354	-155.297	-0.075	0.005
-687.339	174.959	-0.124	-0.179
-686.324	-200.000	0.045	0.332
-685.310	128.840	0.134	-0.170
-684.295	-57.293	-0.151	0.066
-683.281	-200.000	0.001	-0.126
-682.266	-168.532	-0.380	-0.014
-681.251	-82.522	0.132	0.043
-680.237	-200.000	-0.047	0.303
-679.222	-64.513	-0.113	-0.046
-678.208	800.000	0.024	-0.068
-677.193	-127.521	0.110	0.016
-676.178	-200.000	0.032	-0.159
-675.164	-200.000	0.042	0.257
-674.149	-107.021	-0.328	0.072
-673.135	-26.772	0.356	0.207
-672.120	147.411	0.254	-0.340
-671.105	131.555	-0.133	0.170
-670.091	800.000	0.040	-0.140
-669.076	-21.396	-0.361	-0.219
-668.062	116.670	-0.252	-0.308
-667.047	102.099	0.101	-0.118
-666.032	-88.355	0.221	-0.066
-665.018	-122.980	0.154	0.025
-664.003	-200.000	0.003	-0.313
-662.989	2.549	-0.146	-0.105
-661.974	141.837	0.162	0.214
-660.959	-64.944	-0.206	0.083
-659.945	-110.299	0.248	-0.051
-658.930	-175.437	-0.184	-0.005
-657.916	-29.094	-0.252	0.144
-656.901	800.000	0.036	0.136
-655.886	164.652	0.104	-0.147
-654.872	123.388	0.081	0.101
-653.857	800.000	-0.056	0.168
-652.843	-174.226	-0.178	-0.005
-651.828	232.306	0.050	-0.082
-650.814	-200.000	0.013	-0.143
-649.799	-21.989	-0.218	0.132
-648.784	-26.317	-0.158	-0.092
-647.770	432.570	0.096	-0.206
-646.755	800.000	-0.021	-0.084
-645.741	-102.825	0.270	0.064
-644.726	-68.764	0.328	0.126
-643.711	-51.099	-0.484	-0.226
-642.697	212.872	0.059	0.093
-641.682	137.173	0.143	0.186
-640.668	-109.199	0.197	-0.042
-639.653	-92.294	0.125	-0.035
-638.638	-12.954	0.165	0.107
-637.624	-200.000	-0.046	0.517
-636.609	157.317	0.028	0.039
-635.595	276.728	-0.115	0.203
-634.580	426.853	0.177	-0.379
-633.565	7.297	-0.408	-0.303
-632.551	-97.722	-0.378	0.097
-631.536	800.000	-0.078	-0.251
-630.522	-200.000	0.016	-0.150
-629.507	-200.000	-0.001	0.224
-628.492	-103.977	-0.291	-0.067
-627.478	-70.010	-0.282	0.107
-626.463	-77.148	0.233	-0.081
-625.449	-102.671	-0.133	0.032
-624.434	164.896	0.093	0.130
-623.419	96.204	0.109	-0.124
-622.405	391.080	0.029	0.061
-621.390	-1.028	0.055	-0.039
-620.376	85.878	-0.065	-0.071
-619.361	-200.000	-0.006	0.340
-618.346	-158.851	0.349	0.020
-617.332	59.860	-0.214	-0.210
-616.317	-78.979	-0.263	-0.089
-615.303	-200.000	0.018	-0.141
-614.288	292.247	-0.173	0.314
-613.273	-28.827	-0.335	-0.191
-612.259	90.930	0.158	0.176
-611.244	-200.000	0.013	-0.153
-610.230	-139.362	-0.121	0.013
-609.215	-103.254	-0.095	0.022
-608.201	8.244	-0.191	-0.142
-607.186	-74.006	-0.257	-0.093
-606.171	-119.410	-0.178	-0.031
-605.157	480.643	0.041	0.092
-604.142	-151.228	0.237	-0.018
-603.128	-200.000	-0.051	0.358
-602.113	-200.000	0.016	0.211
-601.098	542.367	0.084	0.199
-600.084	775.942	0.059	-0.160
-599.069	800.000	0.065	0.195
-598.055	184.780	0.078	-0.114
-597.040	-158.458	-0.327	-0.019
-596.025	-133.496	-0.258	-0.032
-595.011	-129.262	0.145	-0.020
-593.996	-200.000	0.011	0.384
-592.982	-9.292	-0.248	-0.165
-591.967	-119.890	-0.258	-0.044
-590.952	35.810	-0.063	-0.055
-589.938	-33.330	-0.222	0.122
-588.923	628.714	-0.045	0.113
-587.909	210.747	0.179	-0.279
-586.894	129.897	0.109	-0.138
-585.879	800.000	0.047	-0.146
-584.865	643.154	-0.086	-0.218
-583.850	83.792	-0.085	-0.092
-582.836	202.474	-0.143	-0.219
-581.821	-200.000	0.073	-0.404
-580.806	-200.000	-0.022	-0.393
-579.792	663.489	-0.040	0.102
-578.777	100.796	-0.235	0.271
-577.763	800.000	0.112	0.446
-576.748	-200.000	-0.042	-0.305
-575.733	-133.906	-0.214	0.026
-574.719	-170.432	-0.259	-0.009
-573.704	74.300	-0.050	0.052
-572.690	-200.000	-0.029	-0.151
-571.675	402.213	-0.062	-0.130
-570.661	-200.000	0.027	0.138
-569.646	800.000	0.051	0.188
-568.631	136.169	0.104	-0.135
-567.617	64.559	-0.227	-0.227
-566.602	800.000	0.140	0.390
-565.588	481.252	0.049	-0.111
-564.573	800.000	0.076	-0.225
-563.558	800.000	0.091	0.318
-562.544	141.397	-0.005	-0.006
-561.529	800.000	-0.019	0.075
-560.515	13.820	0.203	0.157
-559.500	-105.252	0.270	-0.061
-558.485	-14.152	0.192	-0.123
-557.471	-15.300	-0.017	0.011
-556.456	800.000	0.054	0.204
-555.442	800.000	0.022	0.079
-554.427	800.000	0.085	-0.279
-553.412	800.000	0.091	0.258
-552.398	-108.084	0.474	-0.102
-551.383	-200.000	-0.043	0.194
-550.369	-193.940	-0.170	-0.001
-549.354	-63.924	-0.246	-0.100
-548.339	293.152	-0.067	0.121
-547.325	-67.003	0.199	0.078
-546.310	90.143	0.394	-0.436
-545.296	-143.480	0.397	-0.038
-544.281	-41.711	-0.368	-0.187
-543.266	-28.228	-0.175	0.100
-542.252	131.245	-0.097	0.124
-541.237	-17.393	0.147	0.092
-540.223	-71.848	0.493	0.182
-539.208	76.713	0.153	0.160
-538.193	-175.023	0.293	-0.008
-537.179	-6.697	-0.100	-0.067
-536.164	-200.000	0.013	0.184
-535.150	-165.959	-0.309	0.013
-534.135	-200.000	-0.017	-0.153
-533.121	800.000	0.044	-0.148
-532.106	71.600	0.335	-0.345
-531.091	182.233	0.088	0.128
-530.077	401.988	0.112	-0.232
-529.062	207.785	-0.222	-0.343
-528.048	-82.040	-0.064	0.021
-527.033	-118.355	-0.066	-0.012
-526.018	800.000	0.027	0.109
-525.004	-111.739	-0.259	-0.052
-523.989	12.710	-0.111	0.085
-522.975	-21.770	0.095	-0.057
-521.960	-41.815	-0.081	0.041
-520.945	-200.000	-0.027	-0.120
-519.931	712.838	-0.055	0.145
-518.916	123.059	-0.052	0.065
-517.902	-200.000	-0.025	-0.291
-516.887	-200.000	0.041	0.270
-515.872	-64.484	0.157	-0.063
-514.858	-178.861	-0.223	-0.005
-513.843	-82.342	-0.312	-0.100
-512.829	800.000	-0.114	0.366
-511.814	173.515	-0.191	-0.272
-510.799	-160.339	-0.211	-0.011
-509.785	-108.994	-0.294	-0.062
-508.770	800.000	0.057	0.228
-507.756	-85.432	-0.166	0.051
-506.741	-16.287	-0.268	-0.168
-505.726	800.000	0.070	0.239
-504.712	-30.826	0.269	0.150
-503.697	-200.000	-0.004	0.048
-502.683	800.000	-0.071	0.303
-501.668	389.310	0.101	-0.207
-500.653	-20.533	-0.073	-0.045
-499.639	-79.472	-0.104	0.035
-498.624	73.847	-0.117	0.121
-497.610	-39.540	-0.397	-0.206
-496.595	18.954	-0.210	0.166
-495.581	-200.000	-0.021	0.127
-494.566	-66.369	-0.205	0.081
-493.551	-116.895	0.331	-0.060
-492.537	81.626	-0.175	0.187
-491.522	319.613	0.051	-0.095
-490.508	-57.584	-0.214	-0.093
-489.493	-130.733	0.078	0.010
-488.478	-200.000	-0.061	-0.551
-487.464	-25.396	0.138	0.080
-486.449	-160.369	0.075	-0.004
-485.435	257.064	0.111	0.189
-484.420	-85.093	-0.021	-0.006
-483.405	-65.350	-0.165	-0.066
-482.391	105.930	-0.110	-0.129
-481.376	-6.946	0.046	-0.031
-480.362	21.813	0.185	0.149
-479.347	41.537	-0.243	0.217
-478.332	-12.285	-0.161	0.104
-477.318	-61.765	0.204	-0.085
-476.303	160.466	0.179	-0.247
-475.289	28.089	0.180	-0.150
-474.274	-14.277	0.089	0.057
-473.259	269.956	-0.078	0.135
-472.245	-200.000	-0.070	-0.342
-471.230	3.435	-0.046	0.033
-470.216	388.596	0.201	-0.410
-469.201	127.373	0.108	-0.135
-468.186	93.644	-0.037	-0.041
-467.172	-200.000	-0.010	0.132
-466.157	25.703	0.180	-0.148
-465.143	65.130	0.250	-0.250
-464.128	-28.411	-0.185	-0.106
-463.113	21.123	-0.094	-0.076
-462.099	-62.895	-0.113	-0.046
-461.084	-136.317	0.337	0.039
-460.070	2.145	0.085	-0.061
-459.055	156.371	0.022	0.030
-458.040	-27.262	-0.100	0.058
-457.026	-200.000	0.014	-0.279
-456.011	-114.872	-0.076	-0.014
-454.997	-106.369	0.193	0.043
-453.982	38.155	0.094	-0.083
-452.968	-25.129	-0.154	-0.090
-451.953	-121.026	0.544	0.090
-450.938	-116.924	0.210	0.038
-449.924	-45.673	0.199	0.097
-448.909	213.128	-0.225	-0.351
-447.895	65.910	-0.101	-0.101
-446.880	56.249	0.241	0.231
-445.865	95.459	-0.125	-0.141
-444.851	-183.142	0.064	0.001
-443.836	-157.357	-0.348	-0.021
-442.822	160.849	-0.146	0.201
-441.807	182.558	-0.195	0.283
-440.792	326.527	0.109	-0.206
-439.778	6.381	0.252	0.185
-438.763	-32.793	-0.347	-0.191
-437.749	288.497	-0.054	0.097
-436.734	204.659	0.158	-0.242
-435.719	-51.827	-0.253	-0.116
-434.705	-28.611	-0.232	0.132
-433.690	-116.573	-0.142	-0.026
-432.676	-134.214	-0.123	0.015
-431.661	172.970	0.272	-0.387
-430.646	800.000	-0.048	0.178
-429.632	-51.064	0.351	-0.163
-428.617	800.000	0.071	-0.287
-427.603	-80.091	0.188	0.062
-426.588	-200.000	0.025	0.163
-425.573	-74.146	0.259	0.092
-424.559	64.717	-0.033	-0.033
-423.544	-200.000	0.022	0.100
-422.530	800.000	0.079	0.280
-421.515	354.977	-0.097	-0.190
-420.500	-34.249	-0.037	0.020
-419.486	360.600	0.137	0.271
-418.471	-200.000	-0.063	0.471
-417.457	406.312	-0.098	-0.204
-416.442	-0.329	0.115	0.080
-415.428	447.984	-0.085	0.185
-414.413	-67.066	-0.324	0.126
-413.398	-84.088	0.290	0.091
-412.384	-141.436	0.239	0.024
-411.369	-53.398	0.154	-0.069
-410.355	-122.430	0.073	0.012
-409.340	-117.623	-0.059	-0.011
-408.325	-200.000	0.043	0.282
-407.311	-200.000	0.021	0.191
-406.296	-200.000	-0.025	0.315
-405.282	285.532	-0.007	0.013
-404.267	348.609	-0.092	-0.178
-403.252	800.000	0.105	0.287
-402.238	47.906	-0.140	0.129
-401.223	800.000	-0.039	0.117
-400.209	385.227	0.054	-0.110
-399.194	-26.244	0.179	0.104
-398.179	99.410	-0.212	0.241
-397.165	13.545	0.184	-0.140
-396.150	-156.368	-0.112	-0.007
-395.136	-140.783	-0.332	0.034
-394.121	-129.288	-0.260	-0.036
-393.106	800.000	0.082	-0.270
-392.092	70.635	-0.139	-0.142
-391.077	-72.526	-0.319	-0.116
-390.063	110.416	0.163	-0.192
-389.048	84.797	0.045	-0.049
-388.033	-28.755	0.012	0.007
-387.019	636.007	-0.076	0.191
-386.004	120.106	0.132	0.161
-384.990	-200.000	0.010	0.515
-383.975	800.000	-0.074	0.223
-382.960	800.000	0.097	-0.295
-381.946	-121.849	-0.127	-0.021
-380.931	56.086	-0.361	0.345
-379.917	8.694	0.060	-0.045
-378.902	19.341	0.152	0.120
-377.888	111.753	-0.098	0.116
-376.873	-104.106	-0.238	-0.054
-375.858	26.694	0.056	-0.046
-374.844	-200.000	-0.058	0.459
-373.829	203.591	0.280	0.427
-372.815	-114.681	0.289	-0.054
-371.800	-200.000	0.023	0.271
-370.785	-59.282	-0.288	0.122
-369.771	-149.167	-0.178	-0.014
-368.756	-76.240	-0.041	-0.014
-367.742	-200.000	-0.023	0.356
-366.727	-106.970	-0.335	-0.073
-365.712	33.258	-0.184	-0.157
-364.698	-200.000	-0.033	-0.297
-363.683	-120.728	-0.179	0.030
-362.669	-75.748	-0.105	-0.036
-361.654	427.937	0.067	-0.141
-360.639	165.203	-0.006	-0.008
-359.625	51.324	0.198	-0.185
-358.610	-200.000	-0.011	-0.096
-357.596	123.938	0.211	0.261
-356.581	-24.055	0.114	0.067
-355.566	-5.569	-0.363	-0.245
-354.552	14.039	-0.087	-0.067
-353.537	557.875	-0.168	0.399
-352.523	-45.830	0.152	0.074
-351.508	800.000	-0.044	0.171
-350.493	52.413	0.118	-0.111
-349.479	-200.000	-0.009	-0.269
-348.464	108.862	-0.104	0.123
-347.450	-200.000	-0.015	0.104
-346.435	-24.951	0.201	-0.117
-345.420	-63.640	-0.373	0.151
-344.406	211.628	0.191	-0.296
-343.391	-63.507	-0.303	0.122
-342.377	64.702	-0.077	-0.077
-341.362	-200.000	-0.033	-0.198
-340.348	15.416	-0.241	-0.186
-339.333	-200.000	-0.007	0.199
-338.318	-67.591	0.247	0.095
-337.304	-86.785	0.071	-0.021
-336.289	800.000	-0.087	0.301
-335.275	177.897	-0.274	-0.393
-334.260	800.000	0.050	-0.205
-333.245	-1.441	-0.120	0.083
-332.231	-18.520	0.063	-0.038
-331.216	-200.000	0.032	0.296
-330.202	-151.304	0.254	0.019
-329.187	4.254	0.095	-0.068
-328.172	-12.302	-0.256	0.164
-327.158	146.701	0.092	-0.122
-326.143	43.152	0.124	0.112
-325.129	2.375	0.166	0.118
-324.114	85.238	-0.231	0.249
-323.099	-200.000	0.054	0.286
-322.085	-200.000	0.053	-0.589
-321.070	245.927	-0.133	-0.220
-320.056	-71.366	0.293	0.108
-319.041	800.000	-0.041	-0.141
-318.026	-131.050	0.124	-0.016
-317.012	-200.000	0.007	0.256
-315.997	-200.000	0.039	0.205
-314.983	-152.597	0.320	-0.022
-313.968	-29.010	0.098	0.055
-312.953	269.520	0.141	-0.244
-311.939	193.541	0.063	0.093
-310.924	-72.585	0.075	-0.027
-309.910	-115.719	0.044	0.008
-308.895	126.632	0.218	-0.272
-307.880	-17.693	0.114	0.070
-306.866	-46.865	0.202	-0.097
-305.851	-200.000	0.023	-0.202
-304.837	-102.068	0.216	0.051
-303.822	-36.529	-0.170	0.090
-302.807	-153.411	-0.441	-0.030
-301.793	162.807	-0.150	-0.207
-300.778	273.899	-0.197	-0.342
-299.764	238.856	-0.234	-0.382
-298.749	25.450	0.344	-0.281
-297.735	800.000	-0.101	0.326
-296.720	-9.131	0.112	0.073
-295.705	61.257	-0.138	-0.135
-294.691	-96.720	0.051	-0.013
-293.676	800.000	-0.027	0.099
-292.662	14.520	-0.192	0.147
-291.647	322.837	-0.023	-0.044
-290.632	177.016	0.176	-0.251
-289.618	4.515	-0.110	0.079
-288.603	107.421	0.198	-0.230
-287.589	181.015	-0.240	0.346
-286.574	-19.743	0.228	-0.138
-285.559	-200.000	-0.075	-0.447
-284.545	-47.883	0.185	-0.088
-283.530	415.093	0.105	0.220
-282.516	-200.000	-0.001	0.052
-281.501	181.807	0.238	0.343
-280.486	90.747	0.053	0.058
-279.472	-47.211	-0.153	-0.073
-278.457	647.293	-0.049	-0.124
-277.443	15.292	0.151	-0.116
-276.428	-96.958	-0.083	0.021
-275.413	-200.000	0.117	0.511
-274.399	-154.164	-0.254	-0.017
-273.384	-171.865	0.196	0.006
-272.370	52.607	0.198	0.186
-271.355	-200.000	-0.005	-0.035
-270.340	-4.268	0.248	0.168
-269.326	800.000	-0.105	-0.330
-268.311	-77.026	0.035	0.012
-267.297	484.934	0.159	-0.355
-266.282	800.000	-0.062	-0.190
-265.267	470.979	0.034	-0.075
-264.253	-200.000	0.009	0.096
-263.238	-57.308	0.130	-0.056
-262.224	800.000	0.069	0.243
-261.209	471.467	0.077	-0.171
-260.195	-136.972	0.121	-0.014
-259.180	800.000	-0.093	0.253
-258.165	13.330	0.129	0.098
-257.151	643.524	0.088	0.221
-256.136	141.360	-0.282	0.365
-255.122	57.013	-0.062	0.059
-254.107	-200.000	-0.025	0.161
-253.092	-132.059	-0.259	0.033
-252.078	800.000	-0.061	-0.184
-251.063	800.000	-0.045	-0.123
-250.049	-157.747	-0.180	0.010
-249.034	29.415	-0.059	-0.049
-248.019	-95.304	-0.139	0.037
-247.005	-112.135	0.087	-0.017
-245.990	-200.000	0.001	0.091
-244.976	800.000	0.057	0.221
-243.961	-114.190	0.256	0.048
-242.946	800.000	0.041	-0.123
-241.932	95.646	0.145	0.161
-240.917	-13.436	0.348	-0.221
-239.903	192.422	0.038	-0.056
-238.888	-141.314	-0.195	-0.019
-237.873	-23.800	0.157	-0.092
-236.859	117.150	0.064	-0.077
-235.844	-200.000	-0.015	0.178
-234.830	-21.588	0.189	0.113
-233.815	169.652	-0.098	-0.137
-232.800	-78.554	0.220	0.074
-231.786	800.000	0.046	0.191
-230.771	77.696	-0.100	-0.104
-229.757	800.000	-0.093	0.309
-228.742	800.000	0.076	0.269
-227.727	-19.051	-0.176	-0.107
-226.713	-149.289	0.131	-0.010
-225.698	-200.000	-0.006	0.311
-224.684	-15.222	0.316	-0.198
-223.669	-40.398	0.266	-0.135
-222.655	272.058	-0.272	-0.469
-221.640	-132.053	0.138	0.018
-220.625	-200.000	-0.000	0.142
-219.611	800.000	-0.018	-0.051
-218.596	-45.892	0.231	-0.112
-217.582	-200.000	0.012	-0.292
-216.567	-71.645	0.542	-0.198
-215.552	193.285	-0.038	0.056
-214.538	-13.629	-0.190	-0.120
-213.523	50.371	-0.081	-0.075
-212.509	-59.512	-0.298	-0.125
-211.494	1.976	0.183	-0.129
-210.479	-157.638	0.223	-0.013
-209.465	83.992	0.127	-0.135
-208.450	-92.080	-0.200	0.055
-207.436	800.000	0.022	-0.087
-206.421	-35.814	0.296	0.157
-205.406	216.073	0.116	0.180
-204.392	-10.673	-0.181	0.117
-203.377	-200.000	-0.008	-0.051
-202.363	683.549	0.052	0.132
-201.348	-46.904	0.272	0.130
-200.333	800.000	0.039	0.114
-199.319	-95.040	-0.304	0.080
-198.304	-81.208	0.288	0.093
-197.290	66.005	-0.196	-0.194
-196.275	272.976	0.110	0.190
-195.260	614.052	0.046	0.112
-194.246	-200.000	-0.074	0.323
-193.231	-200.000	-0.018	0.388
-192.217	88.431	-0.267	-0.289
-191.202	340.314	-0.039	-0.075
-190.187	217.146	-0.074	-0.115
-189.173	7.543	0.133	-0.097
-188.158	498.865	-0.082	-0.186
-187.144	143.119	0.174	0.226
-186.129	-22.486	-0.067	-0.040
-185.114	28.550	-0.319	0.264
-184.100	621.181	0.058	0.142
-183.085	329.781	0.077	0.144
-182.071	-31.264	0.008	-0.005
-181.056	-145.519	0.380	-0.033
-180.042	-200.000	0.007	-0.266
-179.027	-99.440	0.161	-0.040
-178.012	-68.159	0.327	-0.124
-176.998	-70.515	-0.289	-0.107
-175.983	-118.069	-0.255	0.044
-174.969	-70.710	0.258	-0.095
-173.954	-200.000	-0.325	0.001
-172.939	-92.505	0.258	-0.071
-171.925	800.000	0.052	0.140
-170.910	-89.586	-0.307	-0.088
-169.896	-200.000	-0.064	-0.418
-168.881	56.907	0.094	-0.090
-167.866	-107.591	0.032	-0.007
-166.852	249.749	-0.043	0.071
-165.837	-3.195	0.099	0.068
-164.823	491.158	0.136	-0.305
-163.808	22.191	0.184	0.147
-162.793	278.580	-0.205	-0.357
-161.779	123.487	-0.174	-0.213
-160.764	-74.134	0.093	-0.033
-159.750	-53.332	-0.029	-0.013
-158.735	21.852	-0.026	-0.021
-157.720	60.707	0.169	-0.163
-156.706	-70.964	0.107	-0.039
-155.691	231.246	0.160	0.256
-154.677	-115.765	-0.231	0.042
-153.662	-115.146	-0.093	0.017
-152.647	-97.200	0.433	0.110
-151.633	-7.543	-0.210	-0.139
-150.618	-106.105	-0.071	0.016
-149.604	190.851	-0.104	0.152
-148.589	-64.781	0.256	-0.101
-147.574	-200.000	0.059	0.336
-146.560	-200.000	-0.037	-0.204
-145.545	-28.534	0.166	-0.093
-144.531	369.419	0.078	-0.154
-143.516	-69.656	0.122	0.045
-142.502	-200.000	0.006	0.341
-141.487	-64.864	-0.295	0.117
-140.472	-200.000	-0.101	0.529
-139.458	425.903	0.084	0.177
-138.443	-67.042	-0.154	0.059
-137.429	-149.393	0.308	-0.024
-136.414	-184.041	-0.224	0.004
-135.399	336.729	-0.183	0.347
-134.385	26.589	0.128	0.105
-133.370	-11.959	-0.188	0.120
-132.356	5.080	0.553	0.397
-131.341	-32.131	-0.248	-0.135
-130.326	208.098	0.215	-0.328
-129.312	-50.385	0.177	0.082
-128.297	88.208	0.132	-0.143
-127.283	198.715	0.250	0.373
-126.268	203.213	0.145	0.219
-125.253	-160.677	-0.085	-0.004
-124.239	11.281	-0.313	0.233
-123.224	343.003	0.137	0.262
-122.210	-150.494	0.337	-0.025
-121.195	-200.000	0.000	0.141
