DTS Sentinel unit serial number:	SN413079Multiplexer serial number:	ORYXHardware model number:	OX4-SRSoftware version number:	ORYX F/W v4.00 Oryx Data Collector v3.7.2.0data status	okinstallation	princeton_trtdifferential loss correction	single-endedforward channel	channel 2reverse channel	N/Adate	2019/09/16time	06:07:34forward acquisition time	60.00reverse acquisition time	0.00gamma	496.2192k internal	0.2334k external	0.2334temperature offset calibration	0.9979default loss term (dB/km)	0.3790temperature slope calibration	1.0000multiplexer offset coefficient	1.0000multiplexer slope coefficient	1.0000fibre end	0.00T internal ref (°C)	27.44T ext. ref 1 (°C)	11.29T ext. ref 2 (°C)	21.88length (m)	temperature (°C)	Stokes	anti-Stokes-747.200	245.551	-0.111	0.188
-746.185	-73.362	-0.278	-0.102
-745.171	-59.034	0.248	-0.108
-744.156	54.042	-0.088	0.085
-743.142	248.223	-0.043	-0.073
-742.127	305.103	-0.139	0.260
-741.112	-23.826	0.230	-0.138
-740.098	-200.000	0.076	0.452
-739.083	36.848	-0.100	0.089
-738.069	-30.270	-0.258	0.147
-737.054	-42.389	-0.153	0.078
-736.039	-123.043	-0.127	0.020
-735.025	-138.457	0.222	0.025
-734.010	-73.541	-0.191	-0.070
-732.996	-116.699	-0.150	-0.028
-731.981	255.991	-0.084	0.145
-730.966	-171.769	0.082	-0.003
-729.952	23.546	-0.263	0.218
-728.937	-141.729	-0.103	-0.010
-727.923	-42.602	0.332	-0.170
-726.908	-200.000	-0.307	-0.001
-725.894	-78.739	0.081	0.028
-724.879	527.334	-0.049	-0.117
-723.864	-51.189	-0.296	-0.139
-722.850	406.942	0.119	-0.253
-721.835	117.720	0.044	0.054
-720.821	-121.993	0.242	-0.040
-719.806	-95.031	-0.137	0.037
-718.791	201.121	0.209	-0.324
-717.777	-200.000	-0.047	-0.227
-716.762	609.779	0.111	-0.280
-715.748	-109.483	-0.105	-0.022
-714.733	462.442	-0.097	0.218
-713.718	-140.166	0.057	-0.006
-712.704	800.000	-0.071	0.276
-711.689	91.036	-0.087	-0.098
-710.675	-200.000	0.036	-0.262
-709.660	-26.943	0.210	0.123
-708.645	800.000	-0.069	0.204
-707.631	626.547	-0.087	0.221
-706.616	74.838	-0.235	-0.248
-705.602	-28.100	0.111	-0.064
-704.587	-53.924	-0.121	0.055
-703.572	-192.988	0.184	0.002
-702.558	39.274	-0.342	0.307
-701.543	208.477	-0.075	0.118
-700.529	800.000	0.097	0.330
-699.514	177.734	0.226	0.331
-698.499	-1.345	-0.235	-0.166
-697.485	-200.000	0.010	0.145
-696.470	6.790	-0.142	-0.106
-695.456	-97.849	0.144	0.037
-694.441	302.479	0.145	0.269
-693.426	81.303	0.120	0.131
-692.412	800.000	-0.054	0.184
-691.397	44.403	-0.209	-0.193
-690.383	132.222	0.108	0.139
-689.368	-33.968	0.069	-0.038
-688.354	800.000	0.097	-0.280
-687.339	142.167	0.135	-0.180
-686.324	-200.000	-0.268	-0.001
-685.310	89.446	0.104	-0.116
-684.295	-200.000	-0.108	0.541
-683.281	92.409	-0.181	-0.205
-682.266	562.207	0.181	-0.438
-681.251	-96.529	-0.263	0.070
-680.237	115.385	0.115	0.141
-679.222	-14.712	-0.100	-0.064
-678.208	88.392	0.182	-0.203
-677.193	-47.497	0.200	-0.097
-676.178	800.000	0.115	-0.413
-675.164	-200.000	-0.001	-0.042
-674.149	800.000	0.104	-0.358
-673.135	102.891	0.252	-0.296
-672.120	-30.535	-0.063	0.036
-671.105	139.720	0.014	-0.018
-670.091	152.784	0.206	-0.282
-669.076	-131.076	-0.282	0.038
-668.062	-15.392	-0.011	-0.007
-667.047	-127.464	-0.382	0.056
-666.032	-183.847	-0.304	0.005
-665.018	10.166	-0.184	0.140
-664.003	-130.550	-0.091	-0.012
-662.989	555.718	0.033	0.079
-661.974	-114.471	-0.343	-0.066
-660.959	-160.731	-0.105	-0.006
-659.945	251.699	-0.278	-0.474
-658.930	172.519	-0.212	-0.305
-657.916	-200.000	-0.010	-0.057
-656.901	103.106	0.077	-0.091
-655.886	497.371	0.017	-0.040
-654.872	-23.204	0.065	0.039
-653.857	-122.308	0.184	-0.030
-652.843	82.650	-0.156	-0.170
-651.828	800.000	0.062	0.212
-650.814	-143.873	0.317	-0.030
-649.799	614.885	0.047	-0.119
-648.784	-119.031	0.195	-0.034
-647.770	-126.601	0.153	0.023
-646.755	343.451	0.113	0.221
-645.741	-200.000	0.045	0.237
-644.726	-165.007	0.051	0.002
-643.711	-177.846	-0.446	-0.011
-642.697	-84.780	-0.192	-0.060
-641.682	100.806	-0.329	-0.382
-640.668	-26.483	0.110	-0.064
-639.653	78.253	-0.216	-0.231
-638.638	708.790	-0.098	-0.260
-637.624	-116.747	-0.096	0.018
-636.609	290.307	-0.021	-0.039
-635.595	630.504	-0.104	0.265
-634.580	-23.052	0.362	0.218
-633.565	584.696	0.069	-0.169
-632.551	-200.000	0.022	-0.178
-631.536	358.156	-0.031	-0.063
-630.522	800.000	0.073	-0.298
-629.507	800.000	-0.054	0.191
-628.492	800.000	-0.028	0.094
-627.478	-200.000	0.042	0.397
-626.463	-123.816	0.368	-0.058
-625.449	2.257	-0.093	-0.068
-624.434	-31.321	-0.315	-0.177
-623.419	-24.350	0.196	-0.117
-622.405	-119.184	0.106	0.019
-621.390	-20.094	0.277	-0.171
-620.376	-63.348	-0.074	0.030
-619.361	310.414	-0.179	-0.335
-618.346	-62.880	-0.178	0.074
-617.332	449.304	-0.047	0.104
-616.317	-200.000	0.043	0.203
-615.303	22.709	0.238	-0.195
-614.288	615.672	-0.085	0.213
-613.273	25.289	0.060	0.049
-612.259	270.960	0.087	-0.154
-611.244	139.318	-0.137	0.181
-610.230	350.250	0.134	-0.266
-609.215	-200.000	-0.042	-0.212
-608.201	10.217	0.568	0.432
-607.186	800.000	-0.116	-0.446
-606.171	-20.637	-0.337	-0.207
-605.157	-10.822	-0.103	0.068
-604.142	-84.417	-0.250	-0.079
-603.128	-147.293	0.208	-0.018
-602.113	37.663	-0.494	0.438
-601.098	800.000	-0.138	-0.395
-600.084	-121.559	0.436	0.072
-599.069	613.573	0.091	0.228
-598.055	-148.224	-0.167	-0.014
-597.040	-104.374	-0.077	0.018
-596.025	-131.198	-0.239	0.032
-595.011	24.512	-0.266	0.220
-593.996	28.978	0.077	0.065
-592.982	800.000	0.065	-0.249
-591.967	-200.000	0.019	-0.245
-590.952	42.452	-0.040	0.036
-589.938	-135.558	0.249	-0.030
-588.923	500.195	0.079	-0.182
-587.909	-200.000	0.010	-0.257
-586.894	-103.298	-0.206	0.049
-585.879	800.000	-0.085	-0.332
-584.865	-6.089	-0.343	-0.234
-583.850	-58.743	-0.269	-0.116
-582.836	105.518	0.052	0.061
-581.821	289.490	-0.134	0.242
-580.806	800.000	-0.067	-0.225
-579.792	-200.000	0.003	-0.233
-578.777	-200.000	-0.025	-0.175
-577.763	39.927	-0.071	-0.063
-576.748	-126.140	-0.308	0.046
-575.733	-55.414	-0.158	0.071
-574.719	4.074	0.291	-0.213
-573.704	46.810	-0.325	-0.301
-572.690	-87.399	-0.084	-0.026
-571.675	-41.621	-0.281	0.144
-570.661	22.822	0.308	0.252
-569.646	0.786	-0.203	-0.145
-568.631	310.967	-0.099	-0.185
-567.617	710.702	0.060	-0.159
-566.602	77.624	0.058	-0.062
-565.588	-92.287	0.287	0.081
-564.573	800.000	0.020	-0.075
-563.558	499.799	0.029	-0.067
-562.544	-200.000	0.013	0.277
-561.529	-200.000	-0.094	0.413
-560.515	657.367	-0.123	0.316
-559.500	190.477	-0.074	0.111
-558.485	21.738	0.063	0.051
-557.471	306.984	-0.069	0.128
-556.456	457.656	-0.041	-0.090
-555.442	-200.000	0.001	0.011
-554.427	-13.256	-0.389	0.252
-553.412	81.428	-0.232	-0.250
-552.398	-200.000	0.036	-0.170
-551.383	-95.428	0.360	-0.097
-550.369	118.971	0.073	0.090
-549.354	-15.622	0.320	-0.204
-548.339	434.396	-0.086	-0.187
-547.325	-22.904	-0.266	0.160
-546.310	56.372	0.099	-0.096
-545.296	-6.477	-0.126	-0.085
-544.281	-88.787	-0.204	-0.061
-543.266	685.707	0.039	-0.103
-542.252	-56.314	-0.389	0.172
-541.237	-200.000	0.022	-0.245
-540.223	-28.758	0.190	0.109
-539.208	800.000	-0.075	-0.214
-538.193	450.782	-0.056	-0.123
-537.179	800.000	0.061	-0.221
-536.164	305.611	-0.053	0.097
-535.150	599.711	-0.087	-0.216
-534.135	2.293	-0.250	-0.181
-533.121	264.031	0.092	-0.159
-532.106	37.059	-0.166	-0.147
-531.091	-99.652	-0.048	-0.012
-530.077	265.718	-0.103	-0.179
-529.062	-96.603	0.098	0.026
-528.048	-67.697	-0.416	-0.162
-527.033	247.035	-0.062	0.104
-526.018	137.710	0.095	-0.123
-525.004	-71.362	-0.492	0.184
-523.989	800.000	0.056	0.176
-522.975	-137.058	-0.111	0.013
-521.960	114.215	-0.339	0.411
-520.945	-77.513	-0.268	-0.093
-519.931	123.942	-0.123	0.154
-518.916	-29.786	0.190	0.108
-517.902	800.000	-0.077	0.316
-516.887	-200.000	0.060	-0.303
-515.872	30.007	-0.115	0.098
-514.858	99.200	0.128	-0.148
-513.843	-19.993	0.290	-0.178
-512.829	-132.809	0.191	-0.024
-511.814	-18.355	-0.072	-0.045
-510.799	447.944	-0.082	0.179
-509.785	80.888	0.308	-0.331
-508.770	-112.134	0.299	0.060
-507.756	67.125	-0.141	0.143
-506.741	60.708	0.083	-0.082
-505.726	-65.466	-0.029	0.012
-504.712	-141.800	-0.139	0.014
-503.697	98.466	-0.064	-0.074
-502.683	52.923	0.184	0.175
-501.668	-200.000	0.027	0.130
-500.653	-200.000	-0.019	0.427
-499.639	34.038	-0.339	0.294
-498.624	-89.123	0.128	-0.038
-497.610	301.689	0.076	0.139
-496.595	-200.000	0.061	0.366
-495.581	25.932	0.338	-0.281
-494.566	67.796	0.230	0.234
-493.551	800.000	-0.060	0.179
-492.537	124.972	0.075	-0.094
-491.522	428.030	-0.071	-0.153
-490.508	142.060	0.168	-0.222
-489.493	-179.924	-0.075	0.002
-488.478	800.000	0.050	-0.169
-487.464	496.427	-0.137	0.313
-486.449	-200.000	-0.066	0.370
-485.435	114.228	0.313	0.379
-484.420	61.227	0.281	0.277
-483.405	78.870	0.096	0.103
-482.391	-12.346	-0.331	0.215
-481.376	-49.640	0.065	-0.031
-480.362	-127.828	-0.020	0.003
-479.347	800.000	-0.057	0.242
-478.332	113.182	0.100	0.121
-477.318	-68.370	0.085	-0.033
-476.303	-127.589	-0.107	-0.015
-475.289	436.444	0.033	0.072
-474.274	734.134	0.152	-0.404
-473.259	-200.000	-0.610	-0.002
-472.245	-118.021	0.199	0.035
-471.230	-32.180	0.093	0.052
-470.216	-200.000	0.044	0.233
-469.201	-49.289	0.127	-0.060
-468.186	-74.072	-0.388	0.140
-467.172	-200.000	-0.045	-0.343
-466.157	-108.570	-0.274	0.058
-465.143	83.088	-0.099	0.107
-464.128	204.933	0.248	0.382
-463.113	229.043	0.101	-0.163
-462.099	-96.830	-0.146	0.038
-461.084	-22.108	0.162	0.098
-460.070	730.325	-0.098	0.261
-459.055	-31.647	0.140	0.078
-458.040	-200.000	-0.049	0.286
-457.026	-200.000	-0.038	0.317
-456.011	26.050	0.398	0.330
-454.997	800.000	-0.090	-0.268
-453.982	-20.340	0.226	-0.138
-452.968	-200.000	0.004	0.192
-451.953	-200.000	0.027	0.123
-450.938	-137.106	0.081	-0.009
-449.924	162.190	-0.195	-0.272
-448.909	-51.841	-0.264	0.122
-447.895	74.819	0.080	-0.084
-446.880	-73.552	-0.158	0.057
-445.865	-50.590	0.312	0.146
-444.851	-200.000	-0.027	-0.294
-443.836	131.464	0.059	0.075
-442.822	-200.000	-0.003	0.149
-441.807	-136.101	-0.018	0.002
-440.792	14.812	-0.119	0.092
-439.778	800.000	-0.045	-0.133
-438.763	-56.595	0.155	0.068
-437.749	-30.167	0.394	0.222
-436.734	54.577	-0.101	-0.097
-435.719	580.504	-0.034	-0.082
-434.705	-200.000	-0.002	0.020
-433.690	800.000	0.052	-0.164
-432.676	95.733	-0.115	0.130
-431.661	346.716	0.084	-0.165
-430.646	-14.772	0.148	0.094
-429.632	-59.216	0.428	-0.183
-428.617	-25.615	-0.265	-0.155
-427.603	85.093	-0.212	-0.231
-426.588	800.000	0.022	-0.070
-425.573	-76.022	0.221	0.077
-424.559	36.170	-0.258	-0.225
-423.544	-30.126	-0.026	-0.015
-422.530	-200.000	-0.015	0.147
-421.515	-134.607	-0.442	-0.054
-420.500	39.456	0.284	0.252
-419.486	-11.911	0.107	0.070
-418.471	-188.411	0.217	-0.003
-417.457	-200.000	-0.079	0.472
-416.442	239.444	0.113	-0.187
-415.428	3.028	-0.288	-0.208
-414.413	-130.086	0.306	0.041
-413.398	-109.875	-0.295	0.061
-412.384	-80.314	-0.371	-0.123
-411.369	-200.000	0.013	-0.209
-410.355	10.648	0.107	0.081
-409.340	-14.975	-0.220	0.140
-408.325	226.888	-0.120	0.194
-407.311	-200.000	-0.055	-0.426
-406.296	800.000	0.059	-0.186
-405.282	232.253	-0.207	-0.337
-404.267	-55.176	-0.188	-0.084
-403.252	-112.172	0.231	0.046
-402.238	-64.539	0.086	-0.034
-401.223	312.785	-0.072	-0.134
-400.209	150.113	0.222	0.298
-399.194	-31.128	-0.166	0.093
-398.179	631.196	0.088	0.222
-397.165	98.602	-0.124	-0.141
-396.150	800.000	0.122	-0.419
-395.136	193.374	0.118	-0.177
-394.121	-99.852	-0.097	-0.024
-393.106	83.696	0.244	0.264
-392.092	244.536	-0.105	-0.175
-391.077	-20.355	-0.235	0.144
-390.063	-43.403	0.206	0.103
-389.048	-22.471	0.105	0.063
-388.033	62.886	-0.020	-0.020
-387.019	-7.221	0.304	-0.204
-386.004	-200.000	-0.070	0.404
-384.990	-23.797	0.051	0.030
-383.975	-200.000	0.431	0.002
-382.960	800.000	0.084	0.274
-381.946	-200.000	-0.038	0.261
-380.931	-27.845	0.198	0.114
-379.917	-67.393	-0.136	0.053
-378.902	800.000	-0.057	0.200
-377.888	-14.382	-0.100	-0.064
-376.873	235.320	0.017	-0.028
-375.858	218.873	-0.107	-0.169
-374.844	-55.460	-0.083	-0.037
-373.829	-200.000	0.026	-0.372
-372.815	335.732	0.099	-0.189
-371.800	-200.000	-0.049	0.259
-370.785	-200.000	-0.008	-0.182
-369.771	141.640	0.143	0.188
-368.756	615.016	0.027	-0.067
-367.742	-200.000	-0.038	0.193
-366.727	-49.541	-0.214	-0.101
-365.712	-200.000	-0.006	0.309
-364.698	-200.000	0.000	-0.038
-363.683	384.946	0.069	0.142
-362.669	-116.074	-0.335	-0.062
-361.654	-89.997	-0.210	0.061
-360.639	187.699	-0.196	0.290
-359.625	-18.838	0.176	0.108
-358.610	-200.000	-0.017	-0.100
-357.596	-200.000	-0.020	-0.237
-356.581	17.338	0.072	0.057
-355.566	272.963	0.189	-0.331
-354.552	800.000	-0.225	0.655
-353.537	-200.000	0.017	0.079
-352.523	770.936	-0.123	0.332
-351.508	800.000	0.082	-0.276
-350.493	-200.000	0.002	-0.045
-349.479	103.364	-0.021	0.024
-348.464	-145.187	0.120	-0.011
-347.450	73.366	0.300	0.310
-346.435	-96.849	0.147	-0.038
-345.420	-200.000	-0.010	0.117
-344.406	-1.940	0.303	0.211
-343.391	-200.000	0.009	-0.132
-342.377	-158.481	0.151	0.009
-341.362	-152.696	0.296	0.021
-340.348	-166.163	0.307	-0.013
-339.333	7.945	0.128	0.095
-338.318	22.972	0.222	0.180
-337.304	9.587	-0.212	0.159
-336.289	-130.529	0.235	0.031
-335.275	365.698	-0.133	0.266
-334.260	-77.198	-0.314	0.108
-333.245	131.533	-0.093	0.118
-332.231	-175.623	-0.129	0.003
-331.216	-200.000	0.163	0.001
-330.202	-18.351	-0.087	0.054
-329.187	680.540	0.074	0.190
-328.172	-114.193	-0.086	-0.016
-327.158	57.229	-0.195	-0.188
-326.143	-155.077	0.224	-0.015
-325.129	618.062	-0.078	-0.195
-324.114	-10.349	-0.188	-0.123
-323.099	800.000	-0.082	-0.318
-322.085	-74.005	-0.172	0.062
-321.070	-102.841	0.211	0.050
-320.056	112.679	-0.132	0.158
-319.041	440.725	0.040	-0.087
-318.026	64.947	0.151	0.150
-317.012	-200.000	0.004	0.044
-315.997	117.435	-0.205	-0.249
-314.983	38.850	0.136	-0.120
-313.968	-200.000	0.050	-0.256
-312.953	-170.796	-0.180	-0.006
-311.939	-90.281	-0.203	0.058
-310.924	250.945	-0.034	-0.056
-309.910	20.156	0.108	0.086
-308.895	-26.570	-0.042	-0.024
-307.880	-137.121	0.128	0.014
-306.866	84.208	0.032	0.034
-305.851	-42.422	0.306	0.154
-304.837	230.807	0.197	-0.318
-303.822	697.257	-0.069	-0.179
-302.807	-142.871	-0.232	-0.022
-301.793	31.805	-0.194	-0.165
-300.778	154.103	0.107	-0.145
-299.764	-47.696	-0.190	0.091
-298.749	639.330	0.071	0.178
-297.735	800.000	0.164	-0.598
-296.720	9.493	0.225	-0.168
-295.705	-200.000	0.061	0.335
-294.691	-200.000	0.018	0.128
-293.676	255.055	0.170	0.287
-292.662	-200.000	0.026	-0.259
-291.647	-2.747	-0.094	0.065
-290.632	-48.154	0.295	-0.141
-289.618	-93.743	-0.323	0.088
-288.603	-100.506	0.147	0.036
-287.589	-200.000	0.016	0.336
-286.574	-200.000	0.037	0.213
-285.559	44.429	0.194	-0.176
-284.545	-24.260	-0.166	-0.098
-283.530	432.369	-0.060	-0.128
-282.516	-200.000	0.019	0.146
-281.501	224.411	0.132	0.210
-280.486	-200.000	-0.064	-0.334
-279.472	-118.022	-0.124	0.022
-278.457	-94.237	-0.182	-0.049
-277.443	41.239	0.069	0.061
-276.428	800.000	-0.111	-0.390
-275.413	-200.000	0.024	0.192
-274.399	151.418	0.226	0.304
-273.384	231.410	-0.164	-0.265
-272.370	800.000	0.057	0.158
-271.355	-64.721	-0.210	-0.084
-270.340	9.260	0.287	0.214
-269.326	-153.151	-0.295	-0.020
-268.311	568.493	0.199	0.476
-267.297	-130.149	0.301	-0.040
-266.282	-32.318	0.307	-0.169
-265.267	-200.000	-0.020	0.187
-264.253	146.013	-0.116	0.154
-263.238	-127.557	0.362	0.052
-262.224	-200.000	-0.012	-0.293
-261.209	-74.110	0.111	0.040
-260.195	-200.000	-0.012	-0.200
-259.180	13.651	-0.125	0.096
-258.165	-59.631	-0.190	-0.081
-257.151	800.000	-0.066	-0.228
-256.136	173.858	-0.255	0.363
-255.122	-79.767	-0.394	0.131
-254.107	-63.640	0.117	-0.047
-253.092	-80.328	0.086	-0.028
-252.078	-107.158	0.091	0.020
-251.063	307.061	0.121	0.222
-250.049	271.675	0.112	0.195
-249.034	-200.000	0.021	0.162
-248.019	27.134	-0.260	0.215
-247.005	800.000	-0.062	-0.172
-245.990	646.991	-0.058	0.147
-244.976	233.523	0.109	0.177
-243.961	-200.000	0.004	0.055
-242.946	12.484	-0.153	0.116
-241.932	-73.751	0.357	-0.128
-240.917	218.077	0.187	-0.295
-239.903	224.627	-0.118	-0.187
-238.888	115.045	0.055	-0.066
-237.873	-69.982	0.408	0.153
-236.859	-63.787	0.042	0.017
-235.844	-136.797	-0.194	0.022
-234.830	-112.453	-0.416	-0.082
-233.815	91.308	-0.134	0.149
-232.800	-200.000	0.111	0.525
-231.786	-104.463	0.157	0.036
-230.771	201.634	-0.151	-0.229
-229.757	-94.358	-0.081	-0.022
-228.742	-98.235	-0.310	0.078
-227.727	-112.448	-0.089	0.018
-226.713	307.192	0.107	0.197
-225.698	-11.540	0.398	-0.258
-224.684	251.996	-0.192	-0.322
-223.669	-200.000	0.009	-0.136
-222.655	-120.362	0.065	-0.011
-221.640	201.850	0.067	-0.102
-220.625	40.569	-0.211	-0.187
-219.611	-40.515	-0.113	-0.058
-218.596	-109.961	0.318	-0.066
-217.582	610.023	0.044	-0.109
-216.567	-70.140	0.314	-0.118
-215.552	800.000	0.112	0.428
-214.538	63.164	-0.200	-0.197
-213.523	492.739	-0.143	0.322
-212.509	-91.624	0.096	0.027
-211.494	800.000	-0.037	0.136
-210.479	-1.367	0.017	0.012
-209.465	17.669	0.090	-0.070
-208.450	329.753	-0.157	0.298
-207.436	-200.000	-0.004	0.019
-206.421	47.271	-0.086	-0.079
-205.406	8.587	0.140	-0.104
-204.392	471.984	-0.087	0.194
-203.377	495.295	0.076	0.172
-202.363	375.091	-0.289	-0.580
-201.348	144.186	0.086	0.113
-200.333	800.000	-0.084	-0.239
-199.319	800.000	0.106	-0.323
-198.304	-42.491	-0.221	-0.111
-197.290	-52.407	0.319	-0.145
-196.275	-200.000	0.008	0.196
-195.260	-51.354	-0.227	0.104
-194.246	70.709	0.341	-0.348
-193.231	-46.776	0.208	-0.100
-192.217	-35.446	0.038	0.020
-191.202	800.000	-0.067	-0.276
-190.187	-200.000	0.007	-0.112
-189.173	16.377	0.143	-0.111
-188.158	-200.000	-0.037	-0.265
-187.144	-200.000	0.009	-0.061
-186.129	-200.000	-0.168	0.000
-185.114	-161.859	-0.407	0.020
-184.100	-18.655	0.277	0.170
-183.085	-200.000	0.000	-0.018
-182.071	149.506	0.143	0.191
-181.056	-19.230	0.111	0.068
-180.042	131.963	0.101	0.128
-179.027	-34.681	-0.279	0.150
-178.012	2.267	0.190	0.135
-176.998	-42.788	0.602	-0.301
-175.983	189.272	-0.119	-0.175
-174.969	-43.405	-0.182	-0.090
-173.954	800.000	0.083	0.230
-172.939	-56.155	0.050	0.022
-171.925	-88.965	0.283	0.082
-170.910	481.417	-0.162	0.361
-169.896	-128.173	-0.076	0.011
-168.881	-200.000	-0.015	0.252
-167.866	223.926	-0.030	-0.047
-166.852	-85.018	0.232	-0.072
-165.837	-200.000	0.028	-0.188
-164.823	-89.826	0.300	0.086
-163.808	-27.617	0.161	-0.092
-162.793	343.518	0.026	-0.050
-161.779	169.967	-0.102	-0.144
-160.764	490.801	0.048	-0.107
-159.750	-200.000	0.304	-0.000
-158.735	-200.000	-0.011	-0.309
-157.720	-78.433	0.140	-0.047
-156.706	36.292	0.103	-0.089
-155.691	-82.432	-0.217	-0.069
-154.677	413.744	-0.078	-0.164
-153.662	-89.166	-0.308	-0.089
-152.647	564.095	-0.078	-0.186
-151.633	283.395	0.181	-0.319
-150.618	-200.000	-0.032	0.179
-149.604	561.101	0.022	0.051
-148.589	800.000	0.043	0.164
-147.574	-200.000	0.004	0.554
-146.560	322.105	0.148	-0.276
-145.545	-101.181	0.086	-0.021
-144.531	720.474	-0.067	-0.176
-143.516	315.042	-0.056	-0.103
-142.502	87.455	0.133	-0.144
-141.487	-127.848	0.228	0.032
-140.472	401.679	-0.114	-0.235
-139.458	378.467	0.152	-0.306
-138.443	229.260	0.098	0.157
-137.429	-63.287	0.229	0.093
-136.414	-100.347	-0.183	-0.045
-135.399	314.729	0.217	0.401
-134.385	-200.000	-0.024	-0.113
-133.370	438.636	0.042	0.090
-132.356	-200.000	0.008	-0.329
-131.341	-32.851	-0.223	-0.122
-130.326	-26.380	-0.188	-0.108
-129.312	-12.578	-0.353	0.226
-128.297	-147.408	0.083	0.007
-127.283	78.662	-0.121	0.127
-126.268	307.324	0.057	-0.105
-125.253	340.587	-0.110	0.210
-124.239	177.335	0.214	-0.306
-123.224	38.330	0.055	0.048
-122.210	199.100	-0.134	-0.201
-121.195	-9.030	0.071	0.047
