DTS Sentinel unit serial number:	SN413079Multiplexer serial number:	ORYXHardware model number:	OX4-SRSoftware version number:	ORYX F/W v4.00 Oryx Data Collector v3.7.2.0data status	okinstallation	princeton_trtdifferential loss correction	single-endedforward channel	channel 2reverse channel	N/Adate	2019/09/14time	11:31:34forward acquisition time	60.00reverse acquisition time	0.00gamma	496.2192k internal	0.2311k external	0.2311temperature offset calibration	1.0154default loss term (dB/km)	0.3790temperature slope calibration	1.0000multiplexer offset coefficient	1.0000multiplexer slope coefficient	1.0000fibre end	0.00T internal ref (°C)	36.80T ext. ref 1 (°C)	4.55T ext. ref 2 (°C)	32.72length (m)	temperature (°C)	Stokes	anti-Stokes-747.200	-6.506	0.199	0.137
-746.185	162.946	-0.076	0.108
-745.171	181.625	0.032	-0.047
-744.156	105.254	-0.111	0.133
-743.142	38.094	0.240	0.216
-742.127	323.591	-0.073	-0.142
-741.112	-46.525	0.088	0.044
-740.098	-200.000	-0.099	0.538
-739.083	130.457	-0.204	0.265
-738.069	168.038	-0.226	0.326
-737.054	57.171	-0.097	0.096
-736.039	800.000	0.062	-0.264
-735.025	-8.757	0.163	0.111
-734.010	-200.000	-0.024	-0.328
-732.996	-114.082	-0.272	-0.053
-731.981	-151.367	-0.339	-0.026
-730.966	-200.000	0.010	-0.085
-729.952	-116.416	-0.376	-0.070
-728.937	610.603	-0.201	-0.509
-727.923	14.348	-0.264	-0.209
-726.908	-133.705	0.081	-0.010
-725.894	24.126	-0.189	-0.159
-724.879	-66.368	-0.473	-0.191
-723.864	-35.015	0.328	0.182
-722.850	20.480	-0.285	0.233
-721.835	-62.955	0.302	0.127
-720.821	-200.000	0.039	0.284
-719.806	277.156	0.113	-0.203
-718.791	-200.000	-0.026	-0.247
-717.777	-120.296	-0.317	-0.055
-716.762	-200.000	-0.017	-0.101
-715.748	-150.476	-0.139	-0.011
-714.733	156.888	-0.173	-0.243
-713.718	-101.681	0.230	-0.057
-712.704	-71.500	0.132	-0.050
-711.689	-88.587	0.131	0.039
-710.675	-0.927	0.235	0.168
-709.660	-158.563	-0.251	0.015
-708.645	12.060	0.046	-0.036
-707.631	95.963	0.137	0.159
-706.616	-29.754	-0.120	0.069
-705.602	48.508	-0.181	-0.172
-704.587	-68.519	0.135	-0.053
-703.572	631.310	0.041	-0.104
-702.558	-105.529	0.273	-0.063
-701.543	-125.790	0.025	0.004
-700.529	-200.000	0.031	0.279
-699.514	4.335	0.099	-0.073
-698.499	209.746	-0.188	-0.298
-697.485	-50.837	0.182	0.087
-696.470	-95.225	-0.087	-0.024
-695.456	46.588	-0.069	-0.065
-694.441	517.350	-0.028	0.066
-693.426	-47.074	0.158	0.078
-692.412	-1.737	0.252	-0.180
-691.397	-71.983	0.373	-0.140
-690.383	-200.000	-0.016	0.130
-689.368	349.119	-0.095	-0.190
-688.354	-31.573	0.437	0.249
-687.339	74.052	-0.192	-0.204
-686.324	-200.000	0.005	0.139
-685.310	-20.334	-0.280	-0.174
-684.295	-200.000	-0.008	0.045
-683.281	-170.309	0.195	-0.007
-682.266	-200.000	0.010	0.327
-681.251	-1.791	0.298	-0.213
-680.237	44.999	-0.091	0.085
-679.222	-153.358	0.192	0.014
-678.208	-189.046	0.461	-0.006
-677.193	800.000	-0.093	0.296
-676.178	-131.710	-0.135	0.018
-675.164	-200.000	-0.036	-0.165
-674.149	-0.722	-0.379	0.272
-673.135	2.021	0.154	0.113
-672.120	520.876	-0.109	-0.260
-671.105	-55.151	-0.046	-0.021
-670.091	-154.519	0.374	-0.025
-669.076	800.000	0.049	-0.205
-668.062	-75.748	-0.200	0.072
-667.047	289.098	0.160	0.293
-666.032	-64.663	0.244	-0.100
-665.018	48.289	-0.024	0.023
-664.003	-200.000	0.014	-0.107
-662.989	-158.511	0.365	-0.021
-661.974	-200.000	0.056	0.317
-660.959	-21.137	-0.269	-0.167
-659.945	2.010	-0.271	0.198
-658.930	80.978	-0.148	-0.161
-657.916	-179.334	0.356	-0.008
-656.901	293.658	-0.063	-0.117
-655.886	6.248	-0.122	-0.092
-654.872	77.659	0.107	-0.115
-653.857	800.000	0.082	-0.259
-652.843	-66.786	-0.211	-0.084
-651.828	194.551	-0.230	-0.353
-650.814	-21.904	0.147	0.090
-649.799	181.132	-0.104	-0.155
-648.784	-161.052	0.341	-0.018
-647.770	683.857	-0.122	-0.323
-646.755	-182.110	-0.297	0.006
-645.741	157.806	0.114	0.160
-644.726	-200.000	-0.013	-0.468
-643.711	-80.148	-0.197	-0.067
-642.697	-200.000	0.050	-0.268
-641.682	-135.520	-0.188	-0.023
-640.668	-133.908	0.159	-0.020
-639.653	-110.221	-0.122	-0.026
-638.638	-200.000	-0.005	-0.458
-637.624	133.567	0.237	0.310
-636.609	458.986	0.104	0.233
-635.595	-121.567	0.080	-0.013
-634.580	-2.664	0.156	0.110
-633.565	-22.607	0.136	-0.083
-632.551	-200.000	-0.008	0.066
-631.536	800.000	-0.097	-0.385
-630.522	146.615	-0.062	0.083
-629.507	-150.585	-0.061	-0.005
-628.492	-200.000	0.050	0.224
-627.478	-200.000	0.002	-0.397
-626.463	-130.108	0.177	-0.024
-625.449	-20.191	0.106	0.066
-624.434	-170.925	0.210	-0.007
-623.419	647.429	-0.091	0.236
-622.405	30.387	-0.229	-0.198
-621.390	68.020	0.120	0.124
-620.376	-35.170	-0.142	-0.078
-619.361	232.012	-0.153	-0.253
-618.346	-200.000	0.007	0.110
-617.332	260.220	0.156	0.272
-616.317	42.314	-0.138	0.127
-615.303	610.707	-0.027	-0.069
-614.288	122.367	-0.042	0.053
-613.273	-200.000	-0.002	-0.206
-612.259	52.742	-0.071	-0.069
-611.244	395.514	-0.083	-0.176
-610.230	33.039	0.399	-0.349
-609.215	262.586	-0.140	0.245
-608.201	480.004	0.082	-0.188
-607.186	-189.185	0.355	-0.004
-606.171	-59.381	-0.210	0.091
-605.157	-35.205	-0.025	-0.014
-604.142	-200.000	-0.031	0.398
-603.128	206.390	-0.029	-0.045
-602.113	180.531	0.177	0.263
-601.098	-27.123	-0.090	-0.053
-600.084	800.000	-0.026	0.080
-599.069	-52.745	0.203	-0.094
-598.055	79.890	-0.243	-0.263
-597.040	177.540	-0.131	-0.192
-596.025	-103.327	-0.297	-0.071
-595.011	6.859	-0.255	-0.192
-593.996	181.734	-0.082	-0.122
-592.982	-173.477	-0.123	0.004
-591.967	337.301	0.165	0.324
-590.952	-122.101	0.199	0.033
-589.938	-147.168	-0.138	-0.012
-588.923	-151.839	-0.421	-0.031
-587.909	-107.515	-0.449	0.099
-586.894	24.843	-0.036	0.030
-585.879	54.241	-0.309	-0.300
-584.865	-101.646	-0.270	0.066
-583.850	800.000	-0.064	-0.244
-582.836	-157.784	0.241	0.014
-581.821	800.000	-0.041	-0.139
-580.806	17.547	-0.320	0.257
-579.792	276.940	-0.076	0.137
-578.777	-42.062	0.020	-0.010
-577.763	800.000	0.063	0.265
-576.748	490.814	-0.040	0.092
-575.733	-73.906	-0.200	0.073
-574.719	-33.981	-0.044	-0.024
-573.704	-200.000	-0.020	-0.091
-572.690	118.326	0.124	-0.154
-571.675	-62.883	-0.168	0.070
-570.661	-103.201	-0.193	-0.046
-569.646	46.579	0.136	0.128
-568.631	-84.555	0.239	0.076
-567.617	-200.000	-0.007	0.160
-566.602	80.736	0.206	-0.224
-565.588	-56.224	-0.125	-0.056
-564.573	467.771	0.170	-0.383
-563.558	-64.677	-0.191	-0.078
-562.544	-65.627	0.237	0.096
-561.529	62.864	-0.111	0.112
-560.515	-72.147	-0.210	-0.078
-559.500	120.154	0.127	0.159
-558.485	530.348	-0.087	-0.208
-557.471	-74.267	-0.368	-0.134
-556.456	-9.954	-0.226	-0.151
-555.442	-200.000	-0.002	-0.139
-554.427	-61.631	-0.348	-0.147
-553.412	-200.000	-0.012	0.108
-552.398	748.460	0.021	0.058
-551.383	-200.000	0.001	-0.021
-550.369	152.075	0.258	0.355
-549.354	61.929	0.190	0.191
-548.339	-200.000	-0.012	0.117
-547.325	800.000	0.044	0.155
-546.310	-200.000	-0.010	-0.166
-545.296	34.671	0.373	0.328
-544.281	202.123	-0.171	-0.265
-543.266	800.000	-0.052	0.178
-542.252	-200.000	0.009	-0.205
-541.237	-20.402	-0.267	0.166
-540.223	-45.691	-0.338	0.169
-539.208	421.333	0.072	0.156
-538.193	800.000	-0.055	0.177
-537.179	142.889	0.139	0.186
-536.164	-200.000	0.035	-0.162
-535.150	194.467	0.186	-0.283
-534.135	55.789	0.204	-0.199
-533.121	-200.000	0.002	-0.334
-532.106	-85.043	-0.031	0.010
-531.091	-116.481	0.363	-0.067
-530.077	800.000	0.081	-0.303
-529.062	298.659	0.102	0.190
-528.048	-164.514	0.294	-0.013
-527.033	-184.137	0.231	0.004
-526.018	-19.238	0.186	-0.116
-525.004	408.353	0.074	-0.158
-523.989	-52.461	0.138	0.064
-522.975	-9.707	0.112	-0.075
-521.960	-133.705	0.192	-0.024
-520.945	-151.821	-0.372	-0.027
-519.931	64.211	0.084	0.085
-518.916	-108.486	-0.055	0.012
-517.902	56.842	-0.189	0.186
-516.887	188.381	-0.069	0.104
-515.872	501.224	-0.104	-0.241
-514.858	-125.742	-0.089	-0.013
-513.843	-96.071	-0.296	0.079
-512.829	-85.431	0.098	-0.031
-511.814	25.970	0.199	0.167
-510.799	379.748	-0.174	0.359
-509.785	-86.995	0.124	0.038
-508.770	9.326	-0.246	-0.187
-507.756	-11.411	-0.118	-0.078
-506.741	800.000	-0.019	0.071
-505.726	-200.000	-0.098	0.000
-504.712	177.814	0.285	0.418
-503.697	143.630	0.109	0.146
-502.683	-72.856	0.192	0.071
-501.668	-83.861	-0.178	0.057
-500.653	-200.000	0.092	0.483
-499.639	-17.390	0.281	0.178
-498.624	800.000	-0.047	-0.171
-497.610	48.611	0.064	0.060
-496.595	800.000	-0.060	-0.255
-495.581	545.121	-0.105	-0.252
-494.566	-111.784	0.301	-0.061
-493.551	-35.727	0.250	-0.136
-492.537	430.030	-0.101	0.219
-491.522	125.385	-0.065	-0.083
-490.508	55.203	0.204	0.198
-489.493	-200.000	-0.020	0.215
-488.478	-141.771	-0.261	0.026
-487.464	46.335	-0.157	0.147
-486.449	-103.083	0.433	-0.103
-485.435	-96.565	-0.499	0.132
-484.420	-68.464	-0.089	-0.035
-483.405	14.944	0.323	-0.254
-482.391	-46.379	0.288	0.142
-481.376	-38.701	-0.205	0.109
-480.362	-32.001	-0.151	-0.085
-479.347	-93.286	-0.272	-0.076
-478.332	-200.000	0.064	-0.391
-477.318	-200.000	0.004	0.424
-476.303	-83.729	-0.218	0.070
-475.289	-144.722	0.195	-0.018
-474.274	-92.233	0.035	-0.010
-473.259	-158.136	0.112	0.007
-472.245	717.986	0.107	-0.285
-471.230	188.839	0.055	-0.082
-470.216	-200.000	-0.030	-0.187
-469.201	800.000	-0.049	0.166
-468.186	800.000	-0.052	-0.163
-467.172	-50.239	0.111	0.053
-466.157	104.862	0.259	-0.306
-465.143	-200.000	-0.012	0.122
-464.128	-200.000	0.028	-0.299
-463.113	-108.612	0.296	0.064
-462.099	-86.255	0.068	0.021
-461.084	-21.364	0.210	0.129
-460.070	-52.680	0.162	-0.075
-459.055	48.371	0.253	0.237
-458.040	-200.000	-0.044	-0.220
-457.026	-200.000	0.044	0.204
-456.011	-8.149	0.204	0.138
-454.997	154.000	0.071	0.098
-453.982	0.656	-0.132	-0.095
-452.968	-200.000	-0.034	-0.303
-451.953	45.404	0.173	-0.160
-450.938	800.000	0.058	-0.213
-449.924	-129.401	0.290	0.040
-448.909	800.000	0.183	0.552
-447.895	-200.000	0.041	0.250
-446.880	-22.081	-0.081	-0.049
-445.865	16.306	0.241	-0.191
-444.851	530.975	0.105	-0.249
-443.836	68.447	0.135	0.139
-442.822	143.595	0.175	-0.234
-441.807	-200.000	-0.000	-0.079
-440.792	-78.222	0.202	-0.070
-439.778	-200.000	0.004	0.346
-438.763	-140.371	0.296	-0.031
-437.749	800.000	-0.161	-0.531
-436.734	-44.645	0.362	-0.181
-435.719	455.500	0.092	-0.206
-434.705	-139.542	0.193	0.021
-433.690	-30.102	0.224	0.128
-432.676	-171.845	-0.160	0.005
-431.661	-35.385	-0.175	0.096
-430.646	-200.000	-0.020	-0.268
-429.632	62.497	0.265	0.266
-428.617	-119.985	0.460	0.079
-427.603	316.600	0.165	-0.313
-426.588	-200.000	0.008	-0.237
-425.573	-133.765	0.133	-0.017
-424.559	95.568	0.067	-0.076
-423.544	37.598	-0.208	-0.185
-422.530	761.047	0.062	-0.169
-421.515	111.260	-0.323	0.390
-420.500	-158.125	-0.064	0.004
-419.486	221.231	-0.043	-0.069
-418.471	26.817	0.040	0.033
-417.457	-109.411	0.032	0.007
-416.442	-104.852	-0.026	0.006
-415.428	-106.352	0.286	-0.064
-414.413	-200.000	-0.015	0.097
-413.398	161.007	0.244	-0.341
-412.384	-79.564	-0.250	0.085
-411.369	-100.746	-0.141	-0.035
-410.355	-6.111	-0.335	0.229
-409.340	800.000	0.021	0.075
-408.325	364.473	0.115	0.233
-407.311	-154.371	-0.267	0.018
-406.296	-200.000	-0.013	0.297
-405.282	524.118	-0.151	0.357
-404.267	-67.777	-0.582	0.228
-403.252	752.407	0.039	0.106
-402.238	425.746	0.211	0.456
-401.223	51.408	-0.187	0.178
-400.209	-40.290	0.133	0.069
-399.194	163.666	-0.064	0.090
-398.179	800.000	0.038	-0.109
-397.165	13.164	-0.312	-0.242
-396.150	-102.392	0.229	-0.055
-395.136	800.000	0.073	0.225
-394.121	226.030	-0.059	-0.095
-393.106	187.255	-0.078	-0.116
-392.092	-200.000	-0.038	0.278
-391.077	-132.390	-0.088	-0.011
-390.063	56.395	0.087	0.085
-389.048	800.000	-0.066	0.201
-388.033	-49.826	-0.173	-0.082
-387.019	88.842	0.236	0.263
-386.004	212.043	0.073	-0.116
-384.990	800.000	0.072	-0.307
-383.975	43.652	0.046	-0.042
-382.960	-183.200	-0.379	0.007
-381.946	-125.788	0.244	0.037
-380.931	306.435	0.073	0.135
-379.917	800.000	0.027	-0.119
-378.902	-200.000	0.013	-0.094
-377.888	-162.167	0.274	-0.014
-376.873	-148.890	0.116	0.009
-375.858	-200.000	0.013	-0.163
-374.844	-200.000	0.031	-0.197
-373.829	61.584	0.154	0.153
-372.815	-1.577	0.321	-0.226
-371.800	467.029	-0.101	0.227
-370.785	-18.442	-0.416	0.260
-369.771	-200.000	0.022	-0.354
-368.756	-200.000	-0.007	0.207
-367.742	275.324	0.112	0.199
-366.727	-2.464	-0.215	-0.151
-365.712	-200.000	0.303	-0.001
-364.698	-102.650	0.187	-0.045
-363.683	-99.702	-0.326	0.082
-362.669	-7.614	-0.113	0.077
-361.654	-200.000	0.058	-0.518
-360.639	-32.796	-0.210	-0.117
-359.625	-172.442	-0.352	0.011
-358.610	-200.000	0.024	0.229
-357.596	-64.409	0.037	0.015
-356.581	-133.871	0.328	-0.041
-355.566	294.464	0.083	0.152
-354.552	800.000	0.022	-0.066
-353.537	800.000	-0.121	-0.344
-352.523	92.857	0.108	-0.122
-351.508	72.979	-0.108	0.113
-350.493	-12.922	-0.489	-0.318
-349.479	229.133	-0.191	-0.311
-348.464	169.857	-0.230	-0.328
-347.450	39.771	0.078	-0.070
-346.435	174.885	0.152	-0.220
-345.420	800.000	-0.119	-0.352
-344.406	-91.733	0.243	0.069
-343.391	-81.682	0.362	-0.119
-342.377	521.490	0.015	0.036
-341.362	-31.744	0.300	0.168
-340.348	-152.717	-0.081	-0.006
-339.333	800.000	-0.088	0.332
-338.318	-197.418	0.096	0.001
-337.304	182.672	-0.136	-0.200
-336.289	-142.323	0.102	0.010
-335.275	604.567	-0.034	-0.085
-334.260	16.022	-0.133	-0.105
-333.245	-200.000	0.065	0.292
-332.231	-123.600	-0.058	-0.009
-331.216	-114.147	-0.165	0.032
-330.202	207.460	0.084	-0.131
-329.187	133.988	-0.159	0.206
-328.172	-50.542	-0.140	-0.066
-327.158	800.000	0.002	0.008
-326.143	64.026	0.099	0.099
-325.129	249.083	-0.184	0.312
-324.114	634.307	0.092	0.234
-323.099	341.197	0.036	0.069
-322.085	167.450	0.137	-0.194
-321.070	-200.000	-0.031	0.224
-320.056	800.000	-0.024	0.083
-319.041	208.132	-0.167	-0.260
-318.026	195.269	-0.186	0.282
-317.012	-200.000	-0.015	-0.398
-315.997	-200.000	0.017	0.120
-314.983	302.124	0.256	0.472
-313.968	720.013	0.066	0.174
-312.953	-200.000	-0.011	-0.122
-311.939	-200.000	0.004	-0.139
-310.924	-105.526	-0.648	0.147
-309.910	-29.475	0.236	0.135
-308.895	-200.000	-0.004	0.093
-307.880	-159.502	-0.384	-0.021
-306.866	516.336	0.041	-0.095
-305.851	504.088	0.112	-0.259
-304.837	339.925	-0.180	0.349
-303.822	3.379	0.225	-0.163
-302.807	-34.621	0.288	0.157
-301.793	80.147	-0.226	-0.242
-300.778	-106.863	0.428	-0.095
-299.764	-109.665	-0.131	0.028
-298.749	116.152	0.033	-0.041
-297.735	18.880	0.286	0.228
-296.720	-117.386	0.219	0.040
-295.705	-40.770	-0.446	0.230
-294.691	-36.844	-0.389	0.208
-293.676	139.143	-0.166	0.218
-292.662	-60.192	0.139	-0.059
-291.647	-0.778	0.049	0.035
-290.632	-200.000	0.052	-0.279
-289.618	26.600	-0.040	-0.034
-288.603	-61.590	-0.197	-0.082
-287.589	800.000	-0.061	-0.181
-286.574	27.260	0.225	-0.188
-285.559	-150.640	0.100	0.008
-284.545	367.539	0.051	-0.103
-283.530	-200.000	0.012	-0.063
-282.516	800.000	0.158	0.471
-281.501	40.458	-0.133	0.119
-280.486	-66.009	0.050	-0.020
-279.472	-136.287	-0.250	-0.029
-278.457	-112.440	0.382	0.076
-277.443	229.335	0.074	0.120
-276.428	-68.155	-0.040	-0.016
-275.413	-200.000	-0.013	-0.199
-274.399	336.354	0.080	-0.155
-273.384	22.327	-0.147	0.119
-272.370	-108.492	0.246	-0.053
-271.355	-51.289	-0.066	-0.031
-270.340	142.133	-0.141	-0.186
-269.326	214.576	0.043	0.068
-268.311	246.832	-0.281	0.472
-267.297	334.849	0.069	-0.133
-266.282	72.409	0.382	-0.397
-265.267	-200.000	-0.035	-0.336
-264.253	-44.508	0.146	-0.073
-263.238	461.505	0.154	0.342
-262.224	-70.366	-0.336	-0.127
-261.209	94.978	0.160	0.181
-260.195	-18.370	0.299	0.186
-259.180	800.000	-0.074	0.265
-258.165	337.291	-0.091	0.176
-257.151	-200.000	-0.045	-0.251
-256.136	-200.000	0.049	-0.255
-255.122	-14.605	0.354	0.227
-254.107	69.491	0.184	0.188
-253.092	431.053	-0.049	0.105
-252.078	-200.000	-0.004	0.076
-251.063	253.365	-0.180	0.305
-250.049	-84.061	-0.298	0.094
-249.034	-79.181	-0.256	-0.086
-248.019	-72.273	-0.030	-0.011
-247.005	-1.342	0.151	-0.106
-245.990	-125.986	-0.298	-0.045
-244.976	800.000	-0.040	0.110
-243.961	146.419	0.142	-0.189
-242.946	-200.000	0.007	0.070
-241.932	-149.345	-0.294	0.023
-240.917	-200.000	0.023	-0.258
-239.903	-200.000	-0.000	-0.197
-238.888	-68.039	-0.123	-0.048
-237.873	-200.000	0.009	-0.068
-236.859	-158.454	-0.165	-0.009
-235.844	-41.383	-0.278	-0.143
-234.830	447.989	-0.202	0.442
-233.815	16.998	-0.122	0.096
-232.800	-48.171	-0.130	0.063
-231.786	154.203	0.115	0.157
-230.771	486.472	-0.141	-0.320
-229.757	-162.732	-0.062	0.003
-228.742	-200.000	-0.027	-0.221
-227.727	-115.510	-0.242	0.045
-226.713	-27.906	-0.136	0.078
-225.698	108.150	-0.161	-0.191
-224.684	-2.844	0.238	0.166
-223.669	64.041	-0.176	0.176
-222.655	-68.822	-0.015	-0.006
-221.640	-160.214	0.137	-0.007
-220.625	-128.401	-0.174	-0.025
-219.611	800.000	-0.050	-0.158
-218.596	-79.354	0.089	0.030
-217.582	-149.272	-0.290	0.023
-216.567	-200.000	0.014	-0.068
-215.552	370.081	0.086	0.173
-214.538	50.169	0.018	-0.017
-213.523	203.079	0.023	-0.035
-212.509	126.913	0.221	-0.278
-211.494	580.092	-0.062	0.150
-210.479	-39.318	0.136	0.071
-209.465	-92.421	0.111	-0.031
-208.450	55.244	-0.338	0.324
-207.436	84.130	-0.043	-0.047
-206.421	-200.000	-0.044	0.500
-205.406	-77.560	-0.246	-0.085
-204.392	-99.880	0.186	0.046
-203.377	-200.000	-0.023	0.353
-202.363	-156.904	0.200	0.012
-201.348	-200.000	-0.025	0.208
-200.333	239.989	-0.100	-0.165
-199.319	-129.504	-0.226	0.031
-198.304	-43.723	0.108	0.054
-197.290	-137.719	-0.207	-0.023
-196.275	60.336	-0.285	0.280
-195.260	82.100	-0.213	0.229
-194.246	794.385	-0.088	0.242
-193.231	-36.002	0.253	0.136
-192.217	160.953	0.097	0.134
-191.202	737.815	0.158	0.422
-190.187	158.709	-0.191	-0.264
-189.173	272.558	0.136	-0.238
-188.158	781.668	-0.055	0.151
-187.144	-200.000	-0.033	0.405
-186.129	-200.000	0.000	-0.203
-185.114	-89.207	0.177	0.052
-184.100	-200.000	0.025	0.239
-183.085	-28.990	-0.183	0.104
-182.071	-111.595	-0.100	0.020
-181.056	800.000	0.097	-0.402
-180.042	-27.211	0.156	0.090
-179.027	-200.000	-0.039	-0.201
-178.012	173.296	-0.060	0.085
-176.998	379.368	0.159	-0.323
-175.983	-66.082	0.309	-0.122
-174.969	141.591	0.045	-0.059
-173.954	-69.093	0.406	-0.155
-172.939	473.896	-0.171	0.382
-171.925	-200.000	0.026	0.334
-170.910	68.924	-0.266	-0.271
-169.896	616.316	0.179	-0.446
-168.881	24.427	-0.128	0.105
-167.866	323.702	0.109	-0.207
-166.852	-87.722	-0.110	-0.033
-165.837	800.000	0.037	0.117
-164.823	62.893	-0.204	0.203
-163.808	-140.129	-0.159	0.017
-162.793	-107.601	0.217	0.047
-161.779	116.086	-0.042	-0.051
-160.764	168.275	-0.043	-0.061
-159.750	-200.000	-0.021	-0.285
-158.735	43.919	0.166	0.150
-157.720	414.601	0.051	0.108
-156.706	84.159	-0.164	-0.178
-155.691	-96.424	0.193	-0.051
-154.677	-61.064	0.140	-0.059
-153.662	451.508	-0.079	-0.172
-152.647	-200.000	0.033	-0.207
-151.633	-200.000	0.003	-0.408
-150.618	-200.000	0.013	0.088
-149.604	221.415	0.071	0.113
-148.589	360.306	0.117	0.233
-147.574	-131.289	-0.401	0.053
-146.560	800.000	-0.124	-0.399
-145.545	-63.356	0.132	0.054
-144.531	82.649	0.093	0.100
-143.516	188.678	0.120	-0.177
-142.502	-200.000	-0.069	0.483
-141.487	800.000	-0.014	0.046
-140.472	530.485	-0.132	0.310
-139.458	-188.586	-0.266	0.003
-138.443	-200.000	0.086	-0.423
-137.429	-88.623	-0.293	0.086
-136.414	-47.002	0.141	0.068
-135.399	17.167	0.112	0.088
-134.385	-84.680	0.568	0.177
-133.370	35.003	0.155	-0.134
-132.356	324.571	0.162	0.307
-131.341	-165.248	-0.203	-0.009
-130.326	130.253	0.160	0.203
-129.312	-167.966	-0.287	0.011
-128.297	-165.421	-0.175	0.008
-127.283	-4.966	0.429	-0.293
-126.268	-126.710	-0.057	0.008
-125.253	124.281	0.248	-0.308
-124.239	316.106	-0.073	0.136
-123.224	267.457	0.090	0.157
-122.210	-19.735	-0.115	0.070
