DTS Sentinel unit serial number:	SN413079Multiplexer serial number:	ORYXHardware model number:	OX4-SRSoftware version number:	ORYX F/W v4.00 Oryx Data Collector v3.7.2.0data status	okinstallation	princeton_trtdifferential loss correction	single-endedforward channel	channel 2reverse channel	N/Adate	2019/09/17time	11:59:35forward acquisition time	60.00reverse acquisition time	0.00gamma	496.2192k internal	0.2322k external	0.2322temperature offset calibration	0.9989default loss term (dB/km)	0.3790temperature slope calibration	1.0000multiplexer offset coefficient	1.0000multiplexer slope coefficient	1.0000fibre end	0.00T internal ref (°C)	31.08T ext. ref 1 (°C)	0.41T ext. ref 2 (°C)	27.18length (m)	temperature (°C)	Stokes	anti-Stokes-747.200	-129.657	0.269	0.037
-746.185	-63.420	0.113	0.047
-745.171	179.949	0.023	0.035
-744.156	-91.546	-0.078	0.022
-743.142	800.000	0.082	-0.238
-742.127	176.503	-0.208	-0.305
-741.112	-60.857	0.119	-0.051
-740.098	-200.000	0.015	0.086
-739.083	-118.043	0.214	-0.039
-738.069	-200.000	-0.078	0.391
-737.054	800.000	-0.082	-0.349
-736.039	-145.029	-0.367	-0.034
-735.025	-122.097	0.196	-0.033
-734.010	53.117	-0.431	0.417
-732.996	68.414	-0.077	-0.080
-731.981	-26.364	-0.311	-0.184
-730.966	-103.554	0.162	0.039
-729.952	-143.063	-0.051	-0.005
-728.937	332.307	-0.204	-0.398
-727.923	418.957	0.122	0.263
-726.908	-182.283	-0.247	-0.005
-725.894	351.311	0.050	-0.100
-724.879	-200.000	0.053	-0.293
-723.864	-1.825	-0.332	-0.236
-722.850	-21.676	-0.096	0.059
-721.835	-200.000	0.017	-0.341
-720.821	-200.000	-0.007	-0.256
-719.806	389.376	0.172	0.359
-718.791	-3.769	-0.141	-0.099
-717.777	160.439	-0.199	0.280
-716.762	800.000	0.092	-0.269
-715.748	-130.630	0.246	0.033
-714.733	-76.612	0.065	-0.023
-713.718	800.000	-0.003	-0.009
-712.704	-90.026	-0.086	0.025
-711.689	422.430	-0.067	-0.145
-710.675	-146.875	0.265	-0.023
-709.660	-200.000	0.018	0.110
-708.645	-166.668	0.251	0.010
-707.631	23.237	-0.074	-0.061
-706.616	23.093	0.195	-0.162
-705.602	-142.374	-0.372	-0.037
-704.587	-83.248	-0.313	0.101
-703.572	221.351	-0.048	-0.077
-702.558	800.000	0.045	0.148
-701.543	-90.004	0.372	0.110
-700.529	-45.918	-0.118	0.059
-699.514	-200.000	0.060	-0.416
-698.499	-200.000	-0.030	-0.279
-697.485	-99.792	-0.249	-0.063
-696.470	258.211	-0.109	-0.190
-695.456	142.730	0.079	-0.106
-694.441	-127.444	0.159	0.023
-693.426	-98.200	0.099	-0.026
-692.412	-200.000	-0.007	-0.095
-691.397	179.098	0.158	0.232
-690.383	93.432	-0.231	-0.263
-689.368	251.970	-0.116	-0.200
-688.354	-41.573	0.321	-0.166
-687.339	32.018	0.285	-0.248
-686.324	-103.922	0.485	-0.114
-685.310	636.519	0.038	-0.098
-684.295	395.429	-0.088	-0.186
-683.281	800.000	-0.032	-0.117
-682.266	-200.000	0.084	-0.408
-681.251	72.924	-0.128	0.135
-680.237	-200.000	0.018	0.426
-679.222	800.000	0.113	-0.353
-678.208	-200.000	0.013	0.095
-677.193	800.000	0.069	-0.213
-676.178	708.302	0.084	-0.223
-675.164	136.073	-0.172	-0.226
-674.149	-99.795	0.278	-0.070
-673.135	-200.000	0.040	0.199
-672.120	-67.380	0.378	-0.150
-671.105	-12.283	0.065	-0.043
-670.091	-136.202	0.178	0.021
-669.076	-59.623	-0.179	-0.077
-668.062	44.125	0.097	0.090
-667.047	-74.292	0.030	-0.011
-666.032	-200.000	-0.028	0.000
-665.018	166.898	0.193	-0.275
-664.003	-31.973	-0.060	-0.034
-662.989	-5.437	-0.324	-0.224
-661.974	293.990	-0.132	-0.243
-660.959	-99.541	-0.588	-0.149
-659.945	-141.841	0.285	0.029
-658.930	-115.482	0.101	-0.019
-657.916	20.292	-0.067	-0.055
-656.901	-193.078	0.239	0.002
-655.886	800.000	0.115	0.365
-654.872	1.142	-0.222	-0.160
-653.857	-200.000	-0.013	-0.239
-652.843	-86.891	-0.215	-0.066
-651.828	-200.000	0.021	-0.235
-650.814	394.372	0.037	-0.078
-649.799	-10.526	-0.132	0.088
-648.784	14.344	0.340	0.267
-647.770	-109.466	-0.306	-0.065
-646.755	-20.973	-0.131	-0.081
-645.741	-94.466	0.184	0.051
-644.726	-106.956	-0.378	-0.084
-643.711	121.460	-0.211	-0.265
-642.697	800.000	0.042	0.157
-641.682	609.737	-0.117	0.293
-640.668	-122.233	0.098	0.016
-639.653	-200.000	-0.019	0.281
-638.638	800.000	-0.048	0.150
-637.624	-76.360	-0.300	0.106
-636.609	-162.870	0.401	0.020
-635.595	-124.563	0.111	0.017
-634.580	63.815	-0.173	0.175
-633.565	800.000	-0.012	-0.041
-632.551	249.411	0.073	0.125
-631.536	-81.006	0.182	-0.061
-630.522	-200.000	0.001	0.240
-629.507	-46.219	0.307	0.152
-628.492	53.705	0.226	0.218
-627.478	290.999	-0.052	0.096
-626.463	-160.610	-0.206	-0.011
-625.449	221.695	-0.277	-0.447
-624.434	28.480	-0.111	0.095
-623.419	-200.000	-0.011	0.075
-622.405	-184.024	-0.022	0.000
-621.390	-200.000	0.053	-0.416
-620.376	800.000	-0.029	-0.122
-619.361	-117.348	0.108	-0.020
-618.346	9.752	-0.149	-0.113
-617.332	-41.108	-0.290	0.150
-616.317	465.110	0.051	-0.116
-615.303	40.450	-0.315	-0.285
-614.288	-179.941	-0.307	0.007
-613.273	-110.841	0.125	-0.026
-612.259	-161.982	0.151	-0.008
-611.244	182.685	-0.175	0.259
-610.230	-3.459	-0.378	-0.264
-609.215	38.931	0.191	-0.171
-608.201	800.000	0.058	-0.196
-607.186	-200.000	0.022	0.330
-606.171	-58.283	-0.244	-0.107
-605.157	177.332	0.133	-0.194
-604.142	-39.085	-0.068	-0.036
-603.128	112.415	0.063	0.076
-602.113	130.612	0.052	0.067
-601.098	-200.000	0.043	-0.220
-600.084	16.935	-0.195	-0.155
-599.069	-21.663	-0.163	0.099
-598.055	359.005	-0.032	0.065
-597.040	-82.122	-0.105	0.034
-596.025	-127.026	0.168	-0.025
-595.011	-135.857	0.093	-0.011
-593.996	101.558	-0.060	0.071
-592.982	-145.854	-0.200	-0.018
-591.967	16.702	-0.193	0.153
-590.952	27.351	-0.110	-0.093
-589.938	156.174	0.038	0.053
-588.923	5.302	-0.271	-0.201
-587.909	45.435	-0.189	-0.175
-586.894	-200.000	0.006	0.086
-585.879	-96.295	0.226	-0.060
-584.865	660.569	0.115	-0.297
-583.850	311.128	-0.045	-0.085
-582.836	437.914	-0.142	0.312
-581.821	119.491	-0.148	-0.183
-580.806	177.285	-0.158	-0.231
-579.792	800.000	-0.076	-0.299
-578.777	800.000	0.110	-0.329
-577.763	329.567	-0.039	-0.075
-576.748	426.553	0.183	0.396
-575.733	-123.656	-0.142	-0.023
-574.719	58.357	-0.093	-0.091
-573.704	-32.838	-0.128	-0.071
-572.690	-23.853	-0.164	-0.099
-571.675	770.521	0.054	-0.147
-570.661	7.682	-0.221	-0.166
-569.646	-87.178	0.010	-0.003
-568.631	800.000	-0.094	0.355
-567.617	-14.466	0.180	0.116
-566.602	800.000	0.061	-0.233
-565.588	-22.447	-0.238	0.144
-564.573	224.442	0.110	0.179
-563.558	800.000	0.043	-0.133
-562.544	-34.732	-0.202	-0.111
-561.529	-82.708	-0.195	0.063
-560.515	-34.316	0.093	-0.051
-559.500	-5.318	0.014	0.009
-558.485	14.610	-0.181	-0.142
-557.471	-92.526	0.007	-0.002
-556.456	-135.061	0.091	-0.011
-555.442	-78.538	-0.326	-0.112
-554.427	-78.122	-0.151	-0.052
-553.412	-200.000	-0.204	0.000
-552.398	790.842	0.152	0.418
-551.383	246.409	-0.131	0.221
-550.369	-200.000	-0.005	-0.114
-549.354	290.296	0.106	-0.192
-548.339	292.841	-0.044	0.080
-547.325	51.602	0.043	0.041
-546.310	-200.000	0.019	-0.239
-545.296	-28.801	0.119	0.069
-544.281	-58.679	0.178	0.077
-543.266	800.000	0.053	-0.198
-542.252	179.646	0.113	-0.165
-541.237	28.545	0.142	-0.120
-540.223	3.384	0.121	-0.088
-539.208	2.241	-0.165	-0.119
-538.193	247.527	0.218	0.369
-537.179	-91.623	-0.110	-0.032
-536.164	-40.530	0.094	0.049
-535.150	-53.050	0.236	-0.108
-534.135	800.000	0.047	-0.182
-533.121	15.217	-0.029	0.023
-532.106	800.000	-0.104	-0.314
-531.091	-123.586	-0.200	-0.032
-530.077	103.971	0.172	0.203
-529.062	19.149	0.194	-0.156
-528.048	83.570	0.192	-0.210
-527.033	-10.097	-0.169	-0.112
-526.018	-200.000	0.001	0.036
-525.004	-95.512	0.307	-0.082
-523.989	-200.000	-0.088	0.000
-522.975	-64.829	0.193	-0.078
-521.960	-200.000	-0.028	-0.514
-520.945	-22.547	-0.049	0.030
-519.931	-168.228	0.125	0.005
-518.916	257.146	-0.025	0.043
-517.902	-25.341	0.286	-0.169
-516.887	-169.016	0.423	-0.016
-515.872	93.166	-0.238	0.269
-514.858	-62.609	-0.159	-0.066
-513.843	-139.601	-0.466	0.050
-512.829	265.494	0.104	-0.181
-511.814	-67.990	0.251	-0.098
-510.799	-87.488	0.467	-0.142
-509.785	12.129	0.183	0.141
-508.770	-43.248	-0.427	0.216
-507.756	795.103	0.046	0.127
-506.741	-14.132	0.082	0.053
-505.726	-79.824	-0.245	-0.082
-504.712	38.882	0.072	-0.064
-503.697	-62.607	-0.333	-0.138
-502.683	56.225	0.072	-0.070
-501.668	-200.000	0.222	-0.000
-500.653	388.370	-0.131	0.272
-499.639	-200.000	0.004	0.220
-498.624	800.000	-0.019	-0.075
-497.610	131.695	-0.049	-0.063
-496.595	-83.347	0.226	0.073
-495.581	-200.000	0.019	-0.137
-494.566	-75.609	-0.293	-0.104
-493.551	173.722	-0.052	0.075
-492.537	-79.823	-0.103	-0.035
-491.522	84.184	0.267	-0.292
-490.508	-35.809	-0.055	0.030
-489.493	-200.000	-0.076	0.382
-488.478	-53.380	0.155	0.071
-487.464	67.871	-0.341	-0.349
-486.449	-86.028	-0.089	0.027
-485.435	800.000	0.044	-0.124
-484.420	-103.921	0.144	0.034
-483.405	344.795	0.173	-0.339
-482.391	-200.000	-0.018	0.179
-481.376	510.245	-0.125	-0.290
-480.362	-106.956	0.218	0.048
-479.347	165.940	-0.118	0.167
-478.332	248.838	0.153	0.260
-477.318	-128.288	0.167	-0.024
-476.303	-34.205	0.210	0.115
-475.289	-150.476	-0.258	-0.020
-474.274	-182.549	-0.222	0.004
-473.259	300.974	0.283	-0.523
-472.245	-200.000	-0.009	-0.112
-471.230	96.023	0.205	-0.234
-470.216	-200.000	-0.013	-0.342
-469.201	138.376	0.189	-0.248
-468.186	-61.810	-0.290	0.121
-467.172	259.493	-0.056	0.097
-466.157	38.032	-0.271	0.241
-465.143	800.000	-0.048	-0.151
-464.128	-200.000	0.050	-0.328
-463.113	72.029	0.140	-0.145
-462.099	-94.764	0.179	0.048
-461.084	3.256	0.264	-0.192
-460.070	800.000	-0.050	0.195
-459.055	151.875	0.248	-0.338
-458.040	-54.085	0.304	-0.138
-457.026	800.000	-0.113	-0.416
-456.011	373.103	0.093	-0.189
-454.997	136.440	0.053	0.069
-453.982	357.473	0.131	0.261
-452.968	-200.000	-0.079	-0.368
-451.953	800.000	-0.120	-0.355
-450.938	-155.544	-0.299	0.019
-449.924	31.264	0.328	0.281
-448.909	118.084	0.180	0.222
-447.895	-94.785	0.177	0.048
-446.880	27.221	-0.256	-0.215
-445.865	89.121	0.117	0.130
-444.851	93.234	-0.205	0.231
-443.836	-110.252	-0.180	0.037
-442.822	5.717	-0.236	0.175
-441.807	351.343	-0.064	-0.126
-440.792	-59.631	0.080	0.034
-439.778	445.642	-0.156	-0.341
-438.763	79.062	0.130	-0.139
-437.749	800.000	0.063	-0.260
-436.734	-200.000	0.048	0.249
-435.719	-64.217	-0.230	0.093
-434.705	800.000	-0.047	0.166
-433.690	-11.581	-0.278	-0.182
-432.676	800.000	0.027	0.099
-431.661	800.000	0.074	-0.207
-430.646	-200.000	0.308	-0.000
-429.632	55.140	-0.110	0.106
-428.617	-200.000	-0.025	0.187
-427.603	800.000	0.072	0.210
-426.588	-147.108	-0.274	0.023
-425.573	-43.444	-0.221	0.111
-424.559	43.263	-0.197	0.180
-423.544	-0.074	0.264	0.188
-422.530	408.613	-0.071	0.151
-421.515	-200.000	-0.028	-0.214
-420.500	-200.000	-0.039	-0.277
-419.486	-122.999	-0.207	0.033
-418.471	800.000	0.062	-0.255
-417.457	75.613	0.157	-0.165
-416.442	-200.000	0.007	-0.037
-415.428	317.756	-0.104	0.196
-414.413	40.695	0.348	0.313
-413.398	-36.011	-0.324	0.175
-412.384	-86.837	-0.231	-0.070
-411.369	-200.000	-0.013	-0.156
-410.355	-40.429	0.274	0.142
-409.340	-119.482	-0.237	-0.041
-408.325	54.972	-0.127	-0.122
-407.311	-128.019	0.091	-0.013
-406.296	39.054	-0.306	0.273
-405.282	-75.053	-0.184	0.066
-404.267	800.000	0.018	0.072
-403.252	303.826	0.101	0.187
-402.238	-84.482	0.231	-0.073
-401.223	800.000	0.096	0.353
-400.209	177.839	0.103	0.150
-399.194	288.834	-0.030	0.054
-398.179	-200.000	-0.006	0.199
-397.165	96.178	-0.138	0.157
-396.150	-40.810	-0.276	0.142
-395.136	114.963	0.201	0.244
-394.121	-66.667	-0.194	0.076
-393.106	-200.000	0.084	0.480
-392.092	800.000	0.161	0.616
-391.077	102.837	0.278	-0.325
-390.063	800.000	-0.079	-0.309
-389.048	-171.666	-0.165	0.005
-388.033	187.078	0.044	-0.066
-387.019	-118.927	0.268	0.047
-386.004	-148.000	-0.359	0.030
-384.990	-92.577	0.287	-0.080
-383.975	800.000	0.095	-0.334
-382.960	538.607	0.090	0.214
-381.946	-40.155	-0.139	0.072
-380.931	800.000	-0.038	-0.159
-379.917	96.017	-0.200	-0.228
-378.902	40.033	-0.110	-0.099
-377.888	-200.000	0.013	0.255
-376.873	800.000	-0.163	-0.478
-375.858	-34.746	-0.131	0.071
-374.844	800.000	-0.031	-0.104
-373.829	339.623	-0.138	0.267
-372.815	-25.096	0.140	-0.083
-371.800	480.528	0.064	0.144
-370.785	-200.000	-0.024	-0.455
-369.771	398.346	-0.075	-0.156
-368.756	800.000	0.085	0.247
-367.742	-200.000	-0.011	0.245
-366.727	-73.622	0.381	0.138
-365.712	-82.580	0.148	-0.048
-364.698	-200.000	0.033	-0.377
-363.683	-64.524	0.196	0.079
-362.669	48.461	-0.091	0.084
-361.654	176.245	-0.071	0.102
-360.639	37.123	0.292	0.258
-359.625	354.199	-0.184	0.364
-358.610	121.700	0.142	-0.176
-357.596	119.894	-0.167	0.206
-356.581	26.127	-0.172	-0.143
-355.566	-200.000	0.027	0.219
-354.552	170.334	-0.136	0.194
-353.537	-42.874	-0.255	0.129
-352.523	-181.224	0.372	0.007
-351.508	-3.237	-0.074	0.051
-350.493	-6.514	-0.047	0.032
-349.479	-200.000	0.009	-0.146
-348.464	27.003	0.083	0.069
-347.450	-62.738	0.313	-0.129
-346.435	800.000	0.042	0.136
-345.420	451.710	0.111	-0.243
-344.406	-167.771	0.244	-0.010
-343.391	-24.186	0.119	-0.071
-342.377	152.105	0.190	-0.258
-341.362	15.750	0.132	0.103
-340.348	90.005	-0.126	0.140
-339.333	-158.890	-0.339	-0.019
-338.318	-105.536	0.308	0.069
-337.304	-200.000	0.033	-0.205
-336.289	-200.000	-0.083	0.371
-335.275	-200.000	-0.008	0.149
-334.260	-200.000	-0.007	-0.157
-333.245	-52.767	0.275	0.126
-332.231	-77.933	0.091	-0.031
-331.216	-179.126	0.185	0.004
-330.202	491.148	-0.105	0.239
-329.187	-71.712	0.058	-0.022
-328.172	-147.207	-0.624	-0.053
-327.158	-73.671	0.194	0.070
-326.143	-88.305	-0.182	-0.054
-325.129	-65.042	0.216	0.087
-324.114	800.000	-0.101	-0.406
-323.099	-80.709	-0.257	-0.085
-322.085	300.481	-0.079	-0.145
-321.070	-200.000	0.052	0.323
-320.056	-200.000	-0.009	0.135
-319.041	141.678	-0.048	0.063
-318.026	-24.994	-0.216	0.127
-317.012	-183.174	0.223	-0.004
-315.997	-200.000	0.029	0.326
-314.983	-156.417	0.218	-0.014
-313.968	800.000	-0.010	0.038
-312.953	800.000	-0.113	0.365
-311.939	-98.739	-0.103	-0.026
-310.924	-3.433	0.223	0.154
-309.910	83.133	0.223	-0.241
-308.895	410.194	0.212	-0.447
-307.880	590.648	0.070	-0.172
-306.866	80.301	0.158	-0.169
-305.851	351.413	-0.153	0.302
-304.837	-52.472	0.137	0.063
-303.822	800.000	0.053	0.167
-302.807	-68.352	-0.149	0.057
-301.793	-7.516	0.110	-0.074
-300.778	14.207	0.017	-0.013
-299.764	-148.582	0.358	0.029
-298.749	196.421	0.130	0.196
-297.735	458.695	0.166	0.366
-296.720	800.000	0.044	-0.151
-295.705	800.000	0.020	0.064
-294.691	41.922	0.141	-0.127
-293.676	314.728	-0.052	-0.096
-292.662	245.919	-0.118	0.197
-291.647	10.805	-0.133	0.101
-290.632	-171.732	0.288	-0.009
-289.618	-91.032	-0.330	0.094
-288.603	366.460	-0.189	-0.378
-287.589	-3.543	-0.050	0.034
-286.574	-176.588	0.120	0.003
-285.559	57.504	0.095	0.092
-284.545	-200.000	-0.019	0.129
-283.530	402.816	-0.078	0.163
-282.516	248.470	-0.024	-0.041
-281.501	-64.376	0.389	0.157
-280.486	-15.742	-0.189	0.119
-279.472	-139.941	-0.175	-0.018
-278.457	49.217	-0.338	-0.315
-277.443	-200.000	0.016	0.139
-276.428	268.007	-0.135	0.234
-275.413	-200.000	-0.014	-0.127
-274.399	800.000	0.060	-0.236
-273.384	102.977	-0.075	-0.087
-272.370	-109.411	0.165	-0.035
-271.355	192.200	-0.160	0.239
-270.340	-200.000	-0.033	-0.353
-269.326	-24.837	-0.167	-0.098
-268.311	-92.982	-0.207	0.057
-267.297	800.000	0.047	-0.156
-266.282	-86.190	0.192	0.059
-265.267	36.275	-0.097	-0.085
-264.253	485.448	0.080	0.181
-263.238	-200.000	0.037	-0.276
-262.224	47.029	0.060	-0.055
-261.209	-62.705	0.063	0.026
-260.195	208.358	-0.104	0.162
-259.180	800.000	0.006	-0.017
-258.165	-68.113	0.120	0.046
-257.151	-200.000	-0.033	0.328
-256.136	659.892	0.155	0.395
-255.122	-199.510	-0.362	-0.002
-254.107	-200.000	0.029	-0.260
-253.092	-30.352	-0.196	-0.110
-252.078	110.997	-0.183	-0.218
-251.063	449.250	-0.108	-0.235
-250.049	800.000	-0.085	0.267
-249.034	48.447	0.162	0.150
-248.019	-66.213	-0.204	0.080
-247.005	-60.170	-0.071	0.030
-245.990	139.860	-0.188	-0.245
-244.976	683.915	0.070	-0.181
-243.961	800.000	0.060	0.189
-242.946	53.284	0.165	0.157
-241.932	-140.874	-0.283	0.029
-240.917	-200.000	-0.013	0.269
-239.903	-94.481	-0.123	-0.033
-238.888	118.055	0.154	-0.188
-237.873	1.409	0.202	-0.144
-236.859	104.274	0.140	0.163
-235.844	542.500	0.054	-0.128
-234.830	-108.203	0.163	0.035
-233.815	-92.564	-0.408	-0.113
-232.800	16.001	-0.136	0.106
-231.786	506.054	0.146	0.336
-230.771	713.604	-0.056	-0.147
-229.757	-200.000	-0.015	0.079
-228.742	263.987	0.052	0.089
-227.727	-200.000	0.044	0.380
-226.713	-31.544	0.221	-0.123
-225.698	-71.225	0.223	0.083
-224.684	800.000	-0.022	-0.069
-223.669	-63.353	0.164	-0.067
-222.655	-148.238	0.348	-0.028
-221.640	-126.376	0.056	-0.008
-220.625	2.839	-0.155	-0.111
-219.611	194.480	0.099	0.148
-218.596	-114.315	0.205	-0.039
-217.582	-151.527	0.148	-0.011
-216.567	96.186	-0.145	0.164
-215.552	733.754	0.178	-0.472
-214.538	45.063	-0.101	-0.092
-213.523	-150.711	0.121	-0.009
-212.509	7.020	-0.188	0.139
-211.494	-200.000	0.019	-0.332
-210.479	-66.607	0.387	0.152
-209.465	148.488	0.067	0.089
-208.450	-200.000	-0.010	-0.228
-207.436	800.000	-0.196	0.599
-206.421	-78.412	0.403	-0.137
-205.406	53.630	0.477	0.453
-204.392	441.617	0.045	-0.096
-203.377	-200.000	-0.005	-0.153
-202.363	-26.794	0.504	-0.291
-201.348	-49.089	0.130	-0.062
-200.333	637.453	-0.160	0.402
-199.319	190.056	0.091	0.134
-198.304	-70.919	-0.364	0.136
-197.290	-200.000	-0.002	0.341
-196.275	237.474	-0.140	-0.229
-195.260	-61.698	-0.295	-0.122
-194.246	-200.000	0.002	-0.013
-193.231	-110.773	-0.274	0.056
-192.217	-146.040	0.155	-0.014
-191.202	-113.926	0.079	0.015
-190.187	128.443	0.070	-0.088
-189.173	331.074	0.031	0.060
-188.158	-117.957	-0.290	-0.051
-187.144	-75.419	0.527	-0.185
-186.129	-11.878	0.085	-0.055
-185.114	-73.374	0.303	0.110
-184.100	50.949	0.156	0.146
-183.085	-200.000	-0.002	-0.027
-182.071	-66.171	-0.031	0.012
-181.056	86.563	-0.323	0.352
-180.042	-200.000	-0.076	0.343
-179.027	-94.392	0.148	-0.040
-178.012	-60.155	0.270	0.114
-176.998	29.475	-0.144	-0.121
-175.983	-89.887	-0.130	0.038
-174.969	114.577	0.160	0.193
-173.954	-200.000	-0.045	-0.397
-172.939	-89.337	-0.278	0.081
-171.925	6.776	0.152	0.112
-170.910	253.588	0.091	-0.153
-169.896	80.606	-0.192	0.205
-168.881	-129.421	-0.304	0.042
-167.866	3.452	0.180	0.130
-166.852	66.504	-0.079	-0.079
-165.837	235.253	0.059	0.096
-164.823	-140.300	-0.284	0.029
-163.808	-200.000	0.014	-0.131
-162.793	-20.137	0.092	-0.056
-161.779	28.766	-0.161	0.134
-160.764	-22.072	0.375	-0.225
-159.750	800.000	0.128	-0.363
-158.735	-200.000	0.017	-0.175
-157.720	-200.000	-0.017	-0.228
-156.706	-99.005	-0.215	-0.054
-155.691	-200.000	0.010	0.380
-154.677	303.393	0.128	0.235
-153.662	24.647	-0.270	-0.221
-152.647	106.504	0.048	0.056
-151.633	49.996	-0.156	-0.145
-150.618	-200.000	0.051	0.355
-149.604	149.796	0.113	-0.151
-148.589	-200.000	-0.020	0.175
-147.574	-15.564	0.128	-0.081
-146.560	-9.073	-0.199	0.132
-145.545	48.946	-0.168	0.156
-144.531	-81.934	-0.173	0.056
-143.516	-61.603	0.092	-0.038
-142.502	629.565	-0.172	0.429
-141.487	-108.946	-0.245	0.052
-140.472	-33.031	0.089	0.048
-139.458	-200.000	0.000	0.054
-138.443	800.000	0.040	-0.147
-137.429	532.645	-0.148	0.345
-136.414	-1.598	0.246	-0.171
-135.399	152.152	0.186	0.251
-134.385	64.102	0.217	0.215
-133.370	-200.000	-0.030	0.282
-132.356	-200.000	0.011	-0.109
-131.341	9.890	0.115	0.086
-130.326	67.935	-0.145	0.146
-129.312	-154.250	-0.244	0.016
-128.297	-200.000	-0.018	0.123
-127.283	-200.000	0.041	0.261
-126.268	-167.472	-0.232	0.009
-125.253	-200.000	0.013	-0.085
-124.239	185.729	-0.115	-0.168
-123.224	97.703	0.114	-0.129
-122.210	800.000	-0.025	-0.107
-121.195	-19.689	0.190	0.116
