DTS Sentinel unit serial number:	SN413079Multiplexer serial number:	ORYXHardware model number:	OX4-SRSoftware version number:	ORYX F/W v4.00 Oryx Data Collector v3.7.2.0data status	okinstallation	princeton_trtdifferential loss correction	single-endedforward channel	channel 2reverse channel	N/Adate	2019/09/16time	01:19:35forward acquisition time	60.00reverse acquisition time	0.00gamma	496.2192k internal	0.2337k external	0.2337temperature offset calibration	0.9963default loss term (dB/km)	0.3790temperature slope calibration	1.0000multiplexer offset coefficient	1.0000multiplexer slope coefficient	1.0000fibre end	0.00T internal ref (°C)	27.27T ext. ref 1 (°C)	9.85T ext. ref 2 (°C)	21.83length (m)	temperature (°C)	Stokes	anti-Stokes-747.200	51.184	0.268	0.255
-746.185	-21.286	0.219	0.134
-745.171	350.712	-0.074	-0.147
-744.156	-134.152	-0.227	0.028
-743.142	-121.945	-0.252	-0.042
-742.127	52.968	-0.594	0.570
-741.112	-200.000	-0.024	0.478
-740.098	51.559	-0.113	0.107
-739.083	-200.000	0.012	-0.234
-738.069	2.750	-0.273	0.199
-737.054	451.681	0.143	-0.316
-736.039	103.199	0.115	0.135
-735.025	-200.000	-0.009	0.173
-734.010	37.834	0.080	0.071
-732.996	-155.241	-0.215	-0.014
-731.981	-200.000	-0.002	-0.275
-730.966	-200.000	0.066	0.337
-729.952	800.000	0.040	-0.153
-728.937	-150.286	-0.166	-0.013
-727.923	-198.184	-0.481	-0.003
-726.908	-92.636	-0.229	0.064
-725.894	-63.666	-0.108	-0.044
-724.879	-117.604	0.257	-0.046
-723.864	-200.000	-0.004	0.050
-722.850	-22.693	-0.285	0.173
-721.835	-42.997	-0.327	0.166
-720.821	265.663	0.049	-0.086
-719.806	82.683	0.188	-0.205
-718.791	-39.250	-0.201	0.106
-717.777	37.843	-0.116	0.103
-716.762	17.434	0.329	0.262
-715.748	-131.739	-0.110	-0.014
-714.733	-161.059	0.312	0.016
-713.718	-200.000	0.003	0.380
-712.704	0.434	0.093	-0.067
-711.689	-34.292	-0.096	0.053
-710.675	2.382	-0.092	-0.067
-709.660	-109.735	-0.266	0.056
-708.645	-176.887	-0.225	0.006
-707.631	258.650	0.171	-0.296
-706.616	-200.000	0.057	0.328
-705.602	219.778	-0.191	-0.306
-704.587	-58.005	0.081	-0.036
-703.572	499.154	-0.062	-0.143
-702.558	269.293	0.184	-0.323
-701.543	-43.084	0.108	-0.055
-700.529	-106.887	-0.529	0.117
-699.514	-84.018	-0.364	0.116
-698.499	28.025	-0.037	-0.031
-697.485	-107.409	-0.288	0.063
-696.470	-75.609	0.207	-0.074
-695.456	-200.000	-0.011	0.150
-694.441	-34.548	0.487	-0.267
-693.426	65.326	0.063	0.064
-692.412	-99.581	0.128	-0.032
-691.397	-131.527	0.209	0.028
-690.383	117.446	0.140	0.173
-689.368	-140.193	0.223	0.023
-688.354	190.326	-0.106	0.160
-687.339	800.000	-0.054	0.178
-686.324	800.000	-0.064	-0.191
-685.310	85.898	-0.085	-0.094
-684.295	33.426	0.205	-0.179
-683.281	-27.755	-0.098	-0.057
-682.266	-52.296	-0.265	0.123
-681.251	-170.702	-0.163	0.006
-680.237	33.217	0.214	-0.186
-679.222	-200.000	-0.007	-0.148
-678.208	800.000	-0.085	0.239
-677.193	-200.000	0.015	0.147
-676.178	171.211	-0.113	-0.162
-675.164	-200.000	0.027	-0.204
-674.149	184.942	-0.133	-0.197
-673.135	-170.137	0.456	-0.016
-672.120	800.000	-0.060	-0.213
-671.105	68.503	0.284	0.292
-670.091	-6.022	-0.212	-0.145
-669.076	-86.591	0.453	-0.139
-668.062	-98.472	0.079	-0.020
-667.047	-40.485	-0.125	0.065
-666.032	-74.473	-0.012	-0.004
-665.018	-200.000	-0.056	-0.278
-664.003	22.244	0.239	0.195
-662.989	635.566	0.077	0.196
-661.974	-69.813	-0.058	0.022
-660.959	-124.521	-0.029	0.004
-659.945	116.334	-0.101	0.124
-658.930	800.000	0.092	0.303
-657.916	-138.175	0.045	0.005
-656.901	-28.037	0.280	-0.162
-655.886	-88.537	-0.170	0.051
-654.872	81.492	-0.037	-0.040
-653.857	-111.516	-0.259	0.053
-652.843	-36.546	-0.305	0.164
-651.828	97.107	0.174	0.200
-650.814	758.288	-0.028	-0.076
-649.799	227.936	-0.175	-0.284
-648.784	-44.836	0.133	0.067
-647.770	-34.748	-0.137	0.075
-646.755	-200.000	0.048	-0.253
-645.741	800.000	-0.060	0.174
-644.726	-91.562	-0.080	0.023
-643.711	800.000	-0.080	0.298
-642.697	-200.000	0.031	0.299
-641.682	-48.555	0.048	-0.023
-640.668	-17.678	-0.174	-0.109
-639.653	148.748	-0.182	-0.246
-638.638	-118.116	-0.227	0.041
-637.624	-156.213	-0.339	0.021
-636.609	328.789	-0.116	-0.222
-635.595	-91.846	0.199	0.056
-634.580	42.111	0.247	-0.224
-633.565	116.390	-0.068	-0.083
-632.551	-200.000	-0.051	-0.348
-631.536	172.275	0.138	0.199
-630.522	299.256	0.171	-0.315
-629.507	53.988	0.077	0.074
-628.492	-200.000	0.018	-0.177
-627.478	-150.213	0.368	-0.028
-626.463	800.000	-0.037	-0.131
-625.449	-200.000	0.026	0.308
-624.434	65.547	0.174	0.176
-623.419	800.000	-0.054	-0.194
-622.405	122.421	0.079	0.098
-621.390	47.702	-0.013	0.012
-620.376	-134.589	0.580	-0.071
-619.361	214.521	-0.013	-0.020
-618.346	143.238	-0.127	0.169
-617.332	77.675	0.141	0.150
-616.317	9.797	0.348	0.264
-615.303	800.000	0.125	-0.374
-614.288	35.566	-0.271	-0.237
-613.273	-149.460	-0.156	0.012
-612.259	20.277	-0.121	-0.098
-611.244	-73.196	-0.130	0.048
-610.230	-200.000	-0.032	-0.205
-609.215	644.620	0.066	-0.168
-608.201	6.019	0.232	0.172
-607.186	250.105	-0.065	-0.110
-606.171	-88.220	0.101	-0.030
-605.157	-17.661	0.250	0.157
-604.142	-163.486	-0.301	0.014
-603.128	136.225	-0.089	-0.115
-602.113	-200.000	-0.012	0.115
-601.098	336.954	-0.111	0.216
-600.084	265.183	-0.187	0.325
-599.069	800.000	0.044	0.161
-598.055	672.797	0.022	-0.058
-597.040	-1.332	-0.065	-0.046
-596.025	80.705	-0.043	0.047
-595.011	3.572	-0.226	-0.164
-593.996	-5.449	-0.108	0.074
-592.982	342.093	-0.091	0.178
-591.967	-52.752	-0.072	-0.033
-590.952	78.433	0.096	-0.103
-589.938	-170.014	-0.163	0.006
-588.923	135.608	0.097	-0.126
-587.909	-33.962	-0.277	-0.152
-586.894	68.803	0.363	0.372
-585.879	486.042	-0.091	0.208
-584.865	94.731	-0.207	0.235
-583.850	396.860	0.041	0.086
-582.836	-104.687	0.111	0.025
-581.821	800.000	0.037	0.150
-580.806	626.898	0.116	-0.291
-579.792	3.480	-0.244	-0.177
-578.777	135.349	0.191	0.248
-577.763	113.361	-0.227	-0.275
-576.748	-14.690	0.242	0.155
-575.733	-114.669	0.219	0.042
-574.719	-200.000	0.032	0.262
-573.704	39.662	-0.132	-0.118
-572.690	0.503	-0.113	0.081
-571.675	800.000	-0.088	-0.246
-570.661	-200.000	-0.033	0.221
-569.646	23.418	0.115	0.094
-568.631	-118.702	0.331	0.058
-567.617	-200.000	-0.065	0.290
-566.602	-16.083	-0.047	-0.030
-565.588	295.979	-0.166	0.303
-564.573	59.601	-0.140	-0.137
-563.558	276.740	-0.092	0.163
-562.544	-70.321	-0.313	0.118
-561.529	9.724	-0.069	0.052
-560.515	-148.389	-0.197	0.016
-559.500	-164.812	0.179	-0.008
-558.485	-120.803	0.128	0.021
-557.471	-107.840	-0.119	-0.026
-556.456	-38.490	0.106	-0.056
-555.442	84.787	0.081	0.088
-554.427	800.000	-0.066	0.257
-553.412	-200.000	-0.019	-0.082
-552.398	223.124	0.110	-0.176
-551.383	173.794	-0.129	-0.186
-550.369	113.756	-0.132	-0.160
-549.354	57.461	-0.121	-0.117
-548.339	22.385	-0.168	0.137
-547.325	109.555	-0.216	0.258
-546.310	-25.827	-0.215	-0.126
-545.296	21.594	0.069	0.056
-544.281	-50.512	0.201	-0.094
-543.266	-200.000	0.036	0.329
-542.252	57.192	-0.216	0.210
-541.237	-30.204	-0.142	-0.080
-540.223	-200.000	-0.009	-0.322
-539.208	193.490	0.165	-0.248
-538.193	-131.707	-0.162	-0.021
-537.179	-67.308	-0.255	0.100
-536.164	297.917	-0.095	0.173
-535.150	-200.000	0.065	-0.306
-534.135	-200.000	-0.027	-0.212
-533.121	-132.485	0.145	0.019
-532.106	81.658	-0.232	0.250
-531.091	-195.667	0.494	0.004
-530.077	-161.248	0.165	-0.009
-529.062	168.069	-0.162	-0.229
-528.048	-153.636	0.246	-0.017
-527.033	156.943	0.038	-0.053
-526.018	800.000	-0.062	0.262
-525.004	678.026	0.112	-0.290
-523.989	-200.000	-0.042	-0.383
-522.975	-102.057	-0.425	-0.102
-521.960	-117.961	-0.089	-0.016
-520.945	800.000	0.058	-0.195
-519.931	-62.537	-0.394	-0.163
-518.916	259.562	0.255	0.437
-517.902	-200.000	-0.009	0.336
-516.887	-103.795	-0.369	-0.086
-515.872	58.366	-0.179	0.175
-514.858	106.587	-0.155	-0.183
-513.843	140.454	-0.183	-0.240
-512.829	800.000	0.054	0.185
-511.814	-44.714	0.009	-0.004
-510.799	-152.494	0.235	-0.017
-509.785	14.678	-0.177	-0.137
-508.770	-10.706	0.277	-0.182
-507.756	-119.204	-0.111	0.019
-506.741	-125.432	-0.173	-0.026
-505.726	78.845	0.124	0.132
-504.712	-200.000	-0.006	-0.085
-503.697	505.860	0.163	0.375
-502.683	-200.000	0.087	0.393
-501.668	-1.592	0.157	-0.110
-500.653	-199.749	0.500	0.003
-499.639	-0.691	-0.128	-0.090
-498.624	-118.662	-0.118	0.021
-497.610	-40.773	-0.275	0.141
-496.595	-200.000	-0.006	0.099
-495.581	-200.000	-0.036	0.258
-494.566	-80.182	0.148	-0.049
-493.551	-200.000	-0.013	0.118
-492.537	-92.867	-0.250	-0.070
-491.522	-46.677	0.362	-0.176
-490.508	163.428	0.092	-0.129
-489.493	111.769	-0.265	0.318
-488.478	-104.884	-0.134	0.031
-487.464	-40.542	0.476	-0.245
-486.449	317.471	-0.120	-0.226
-485.435	37.034	0.269	-0.236
-484.420	-75.914	-0.252	-0.089
-483.405	95.225	-0.108	-0.122
-482.391	-200.000	-0.025	-0.505
-481.376	800.000	-0.118	-0.367
-480.362	-200.000	-0.011	-0.053
-479.347	490.744	-0.093	0.211
-478.332	-200.000	-0.067	-0.491
-477.318	-200.000	0.029	-0.304
-476.303	17.692	-0.145	-0.115
-475.289	582.966	-0.023	-0.057
-474.274	-8.156	-0.248	-0.166
-473.259	-134.456	-0.280	-0.034
-472.245	-51.374	-0.066	0.031
-471.230	-177.102	0.152	0.004
-470.216	-200.000	0.029	0.586
-469.201	-60.841	-0.149	-0.063
-468.186	522.773	-0.176	-0.411
-467.172	-200.000	0.021	0.176
-466.157	-31.818	0.161	-0.089
-465.143	-74.006	0.115	-0.041
-464.128	18.346	-0.303	-0.241
-463.113	-142.387	-0.163	0.016
-462.099	-79.594	-0.288	-0.097
-461.084	100.922	-0.108	0.124
-460.070	-87.814	0.126	0.038
-459.055	449.033	0.093	0.204
-458.040	200.086	0.061	0.093
-457.026	-33.691	0.492	0.270
-456.011	-58.998	0.203	-0.087
-454.997	-200.000	-0.098	-0.509
-453.982	22.345	0.119	-0.097
-452.968	-68.304	-0.228	0.088
-451.953	86.741	-0.033	0.036
-450.938	-200.000	0.005	-0.059
-449.924	374.320	-0.132	0.267
-448.909	-71.271	-0.395	0.147
-447.895	197.281	-0.092	0.139
-446.880	-200.000	-0.022	-0.221
-445.865	28.560	0.091	-0.076
-444.851	78.498	-0.269	-0.285
-443.836	-75.645	-0.200	0.070
-442.822	800.000	-0.095	0.273
-441.807	155.704	-0.073	-0.099
-440.792	-17.051	0.133	-0.083
-439.778	-8.176	0.079	0.053
-438.763	253.007	0.039	-0.066
-437.749	187.492	0.078	-0.116
-436.734	7.716	0.126	0.094
-435.719	-53.067	-0.347	-0.158
-434.705	-33.782	-0.318	0.174
-433.690	800.000	-0.071	-0.252
-432.676	401.652	-0.132	0.274
-431.661	-200.000	0.002	0.152
-430.646	142.730	0.094	0.124
-429.632	-119.973	0.135	0.023
-428.617	-55.548	0.221	0.098
-427.603	269.209	-0.120	-0.209
-426.588	-197.345	0.199	0.001
-425.573	154.756	0.156	0.213
-424.559	-200.000	0.057	0.301
-423.544	61.620	0.215	-0.212
-422.530	-65.628	-0.352	-0.140
-421.515	800.000	-0.076	0.329
-420.500	-138.940	0.319	0.034
-419.486	90.015	-0.119	-0.132
-418.471	-116.312	-0.165	-0.030
-417.457	-137.093	-0.223	-0.025
-416.442	149.172	0.107	-0.144
-415.428	800.000	-0.092	0.383
-414.413	204.169	-0.056	0.086
-413.398	-85.554	0.276	0.085
-412.384	-200.000	0.001	-0.056
-411.369	-87.325	0.253	-0.076
-410.355	-200.000	0.007	0.283
-409.340	-5.810	0.093	0.063
-408.325	167.719	-0.144	0.202
-407.311	-200.000	0.053	-0.274
-406.296	-89.189	-0.336	0.098
-405.282	-181.822	-0.172	-0.003
-404.267	313.399	-0.152	-0.283
-403.252	-200.000	0.039	0.197
-402.238	800.000	0.035	-0.110
-401.223	-61.494	0.288	0.120
-400.209	165.999	-0.177	-0.248
-399.194	-200.000	0.015	-0.141
-398.179	255.286	0.042	0.071
-397.165	-85.695	-0.061	0.019
-396.150	-141.818	0.261	0.026
-395.136	59.711	0.074	-0.072
-394.121	-64.511	0.129	-0.052
-393.106	-32.418	0.069	0.038
-392.092	93.685	-0.262	0.294
-391.077	-200.000	-0.002	-0.009
-390.063	-200.000	-0.001	0.102
-389.048	-145.960	-0.037	0.003
-388.033	296.892	0.161	-0.292
-387.019	-87.493	-0.293	-0.088
-386.004	-200.000	0.068	0.312
-384.990	167.251	-0.076	0.107
-383.975	60.356	0.017	0.016
-382.960	-200.000	0.063	0.429
-381.946	-112.216	-0.367	0.073
-380.931	-200.000	0.006	-0.227
-379.917	42.313	-0.279	-0.251
-378.902	133.194	-0.064	0.081
-377.888	401.196	0.068	-0.140
-376.873	800.000	-0.100	-0.308
-375.858	84.806	-0.097	0.105
-374.844	67.499	0.254	0.257
-373.829	-4.532	0.124	-0.085
-372.815	-200.000	0.013	0.196
-371.800	132.199	-0.101	0.128
-370.785	-67.299	0.177	0.069
-369.771	-104.284	-0.212	0.049
-368.756	59.929	0.256	0.250
-367.742	-109.783	-0.146	-0.030
-366.727	148.077	-0.042	0.056
-365.712	-59.745	-0.161	-0.068
-364.698	-129.331	-0.167	0.023
-363.683	3.053	0.213	0.153
-362.669	209.189	0.074	-0.115
-361.654	800.000	0.102	-0.409
-360.639	307.602	0.152	0.280
-359.625	-73.407	0.204	0.074
-358.610	45.847	0.141	0.129
-357.596	-151.525	0.255	-0.019
-356.581	67.181	0.013	-0.013
-355.566	-99.776	0.251	-0.062
-354.552	51.898	0.254	0.239
-353.537	800.000	0.049	-0.137
-352.523	193.552	-0.287	-0.430
-351.508	21.006	0.057	-0.046
-350.493	-200.000	-0.050	0.336
-349.479	355.266	-0.180	0.353
-348.464	-41.812	-0.170	0.086
-347.450	-0.901	-0.146	0.103
-346.435	-127.559	0.120	-0.017
-345.420	353.769	-0.088	-0.172
-344.406	-200.000	0.044	-0.227
-343.391	-68.346	-0.225	-0.087
-342.377	-200.000	-0.003	-0.133
-341.362	800.000	-0.016	-0.045
-340.348	800.000	0.114	0.318
-339.333	-200.000	0.030	-0.264
-338.318	-200.000	-0.015	-0.270
-337.304	166.339	0.193	-0.271
-336.289	-200.000	0.021	0.184
-335.275	-70.124	-0.231	0.087
-334.260	101.247	-0.112	0.129
-333.245	-7.163	0.150	-0.100
-332.231	-80.102	0.258	0.086
-331.216	-88.504	-0.109	-0.032
-330.202	-44.625	0.244	-0.120
-329.187	248.086	0.209	-0.349
-328.172	-200.000	0.013	-0.100
-327.158	800.000	0.115	-0.402
-326.143	-23.210	-0.154	0.091
-325.129	800.000	0.046	-0.140
-324.114	800.000	-0.024	0.070
-323.099	-200.000	-0.001	-0.114
-322.085	517.909	0.110	0.254
-321.070	-200.000	0.002	-0.086
-320.056	103.640	0.095	0.110
-319.041	-5.849	0.510	0.345
-318.026	163.396	-0.182	-0.253
-317.012	-200.000	-0.013	0.082
-315.997	-18.914	0.217	-0.134
-314.983	-41.595	0.260	0.132
-313.968	77.106	-0.098	-0.103
-312.953	6.221	0.206	-0.151
-311.939	-146.248	-0.038	0.003
-310.924	800.000	0.053	-0.195
-309.910	-200.000	-0.026	0.402
-308.895	257.166	-0.144	0.245
-307.880	-200.000	0.052	0.273
-306.866	-52.736	-0.106	-0.048
-305.851	-200.000	-0.013	0.068
-304.837	146.654	0.039	-0.052
-303.822	800.000	-0.012	-0.035
-302.807	-130.090	-0.204	-0.027
-301.793	-45.372	0.108	0.053
-300.778	102.655	-0.049	0.057
-299.764	477.045	0.158	-0.352
-298.749	-22.159	0.181	0.109
-297.735	800.000	-0.081	-0.322
-296.720	20.495	0.236	0.188
-295.705	147.834	0.089	-0.119
-294.691	-87.975	0.101	0.030
-293.676	800.000	-0.089	0.382
-292.662	102.876	-0.115	0.133
-291.647	14.443	0.228	0.175
-290.632	-149.571	0.262	-0.020
-289.618	-90.536	-0.436	-0.124
-288.603	-175.796	0.086	0.002
-287.589	-200.000	-0.039	-0.200
-286.574	413.604	0.055	-0.115
-285.559	786.875	-0.093	-0.251
-284.545	-76.301	-0.101	0.035
-283.530	-200.000	0.059	0.284
-282.516	-200.000	-0.033	0.289
-281.501	57.710	-0.065	-0.063
-280.486	190.528	-0.104	-0.154
-279.472	99.695	0.145	0.165
-278.457	-186.141	-0.202	-0.003
-277.443	351.560	-0.119	0.232
-276.428	259.298	-0.180	0.306
-275.413	38.635	0.105	-0.092
-274.399	216.826	-0.113	0.177
-273.384	23.409	0.025	0.020
-272.370	-200.000	0.010	-0.105
-271.355	-200.000	-0.026	-0.146
-270.340	-200.000	-0.031	0.166
-269.326	-147.827	0.040	-0.003
-268.311	706.658	-0.105	-0.273
-267.297	242.114	0.138	0.228
-266.282	150.200	0.118	-0.157
-265.267	-64.189	-0.130	0.052
-264.253	-157.688	0.112	0.007
-263.238	-81.165	-0.050	0.016
-262.224	-166.438	-0.114	-0.005
-261.209	607.099	0.139	-0.342
-260.195	-2.161	0.120	-0.083
-259.180	82.238	0.156	0.166
-258.165	-129.050	0.202	0.028
-257.151	-68.803	0.202	0.077
-256.136	239.466	-0.081	0.133
-255.122	-200.000	0.044	0.338
-254.107	800.000	-0.080	0.287
-253.092	-116.730	0.185	-0.033
-252.078	-67.547	-0.269	0.104
-251.063	-126.179	0.271	-0.040
-250.049	415.083	0.035	0.073
-249.034	-58.371	-0.204	0.087
-248.019	-146.528	0.282	-0.024
-247.005	-152.393	0.365	-0.026
-245.990	800.000	-0.059	-0.184
-244.976	800.000	0.087	0.319
-243.961	77.359	-0.258	0.270
-242.946	-132.365	-0.305	-0.039
-241.932	-200.000	0.017	-0.152
-240.917	800.000	0.075	0.226
-239.903	-92.418	-0.073	-0.020
-238.888	471.505	-0.075	0.166
-237.873	43.667	-0.333	-0.300
-236.859	349.912	-0.109	0.212
-235.844	270.467	0.055	-0.095
-234.830	-200.000	0.038	-0.236
-233.815	-11.349	0.268	0.173
-232.800	-66.841	-0.234	-0.091
-231.786	-200.000	0.031	-0.179
-230.771	-200.000	-0.025	0.371
-229.757	-170.080	0.079	-0.003
-228.742	-128.487	0.133	0.019
-227.727	116.368	-0.039	0.047
-226.713	-176.582	-0.164	0.004
-225.698	-200.000	-0.076	-0.385
-224.684	-200.000	-0.084	-0.371
-223.669	124.160	-0.144	0.178
-222.655	-200.000	0.004	0.363
-221.640	66.512	-0.088	0.088
-220.625	-52.675	0.167	-0.076
-219.611	-101.641	0.304	-0.073
-218.596	800.000	0.104	0.314
-217.582	-124.220	-0.014	0.002
-216.567	-85.973	-0.189	0.058
-215.552	-159.987	-0.085	-0.005
-214.538	800.000	0.033	0.135
-213.523	-163.424	0.357	0.017
-212.509	-16.721	0.036	0.023
-211.494	167.898	0.096	-0.135
-210.479	21.441	-0.047	0.038
-209.465	-200.000	-0.017	-0.127
-208.450	27.456	0.230	-0.190
-207.436	-187.773	0.212	0.003
-206.421	-59.450	-0.080	-0.034
-205.406	203.015	-0.113	-0.171
-204.392	124.489	0.226	-0.279
-203.377	96.128	0.270	-0.304
-202.363	-169.943	-0.203	0.007
-201.348	-200.000	-0.001	-0.225
-200.333	-82.681	-0.254	-0.081
-199.319	-200.000	0.093	-0.401
-198.304	33.532	0.225	-0.192
-197.290	800.000	0.082	0.295
-196.275	179.508	-0.186	0.267
-195.260	264.477	0.057	0.097
-194.246	-123.806	-0.240	0.037
-193.231	-180.481	0.282	-0.006
-192.217	-144.795	0.152	0.014
-191.202	-30.586	0.162	0.090
-190.187	-200.000	0.055	0.472
-189.173	149.923	-0.053	0.070
-188.158	-51.290	0.403	-0.185
-187.144	-200.000	-0.062	0.318
-186.129	800.000	0.029	0.102
-185.114	282.382	-0.060	-0.107
-184.100	800.000	-0.073	-0.206
-183.085	-60.480	-0.175	0.073
-182.071	-76.206	0.185	-0.064
-181.056	-89.122	0.483	-0.140
-180.042	148.987	0.118	0.157
-179.027	171.149	-0.292	0.411
-178.012	103.917	0.100	0.115
-176.998	-200.000	0.045	0.279
-175.983	-64.813	0.206	-0.082
-174.969	-200.000	-0.004	-0.092
-173.954	-200.000	-0.012	-0.310
-172.939	-200.000	0.038	-0.252
-171.925	-200.000	-0.050	0.345
-170.910	50.895	0.247	-0.230
-169.896	-200.000	0.034	-0.676
-168.881	-44.667	0.220	0.108
-167.866	800.000	-0.021	-0.064
-166.852	-146.784	0.287	-0.024
-165.837	143.303	0.108	-0.142
-164.823	166.025	-0.065	-0.090
-163.808	-200.000	-0.007	0.145
-162.793	-25.030	0.002	0.001
-161.779	-34.619	-0.187	0.100
-160.764	-1.935	0.076	0.052
-159.750	167.862	-0.301	-0.420
-158.735	108.125	-0.131	0.153
-157.720	-108.997	0.073	0.015
-156.706	-200.000	-0.028	-0.278
-155.691	-57.741	-0.165	-0.071
-154.677	-200.000	-0.001	-0.167
-153.662	-120.374	0.192	0.032
-152.647	800.000	0.006	-0.025
-151.633	-33.609	-0.268	0.145
-150.618	246.313	-0.040	0.066
-149.604	147.033	0.317	-0.418
-148.589	-200.000	-0.024	-0.171
-147.574	-125.587	0.208	-0.031
-146.560	29.588	-0.121	-0.101
-145.545	-134.463	0.273	-0.033
-144.531	-115.677	0.292	0.054
-143.516	305.090	0.234	-0.426
-142.502	-200.000	0.037	-0.184
-141.487	-11.164	0.161	-0.104
-140.472	347.734	0.222	-0.429
-139.458	383.485	0.070	0.141
-138.443	-73.686	-0.131	-0.047
-137.429	-112.964	0.080	0.016
-136.414	-93.179	0.155	0.042
-135.399	74.084	-0.186	0.191
-134.385	121.485	0.128	0.156
-133.370	-40.766	0.286	-0.145
-132.356	19.457	-0.070	0.055
-131.341	-200.000	0.002	0.272
-130.326	800.000	0.057	0.191
-129.312	-133.616	0.210	-0.026
-128.297	-92.440	-0.374	-0.103
-127.283	-8.952	0.071	0.046
-126.268	-91.986	0.199	-0.055
-125.253	275.726	0.125	0.217
-124.239	-60.021	0.245	0.103
-123.224	-17.438	0.168	-0.104
-122.210	-86.719	0.212	-0.064
