DTS Sentinel unit serial number:	SN413079Multiplexer serial number:	ORYXHardware model number:	OX4-SRSoftware version number:	ORYX F/W v4.00 Oryx Data Collector v3.7.2.0data status	okinstallation	princeton_trtdifferential loss correction	single-endedforward channel	channel 2reverse channel	N/Adate	2019/09/12time	19:53:48forward acquisition time	15.00reverse acquisition time	0.00gamma	496.2192k internal	0.2328k external	0.2328temperature offset calibration	1.0161default loss term (dB/km)	0.3790temperature slope calibration	1.0000multiplexer offset coefficient	1.0000multiplexer slope coefficient	1.0000fibre end	0.00T internal ref (°C)	31.87T ext. ref 1 (°C)	3.42T ext. ref 2 (°C)	26.45length (m)	temperature (°C)	Stokes	anti-Stokes-747.200	-200.000	-0.020	-0.489
-746.185	-38.901	0.912	0.484
-745.171	180.279	0.120	0.178
-744.156	800.000	-0.063	0.184
-743.142	800.000	0.176	-0.717
-742.127	800.000	-0.174	-0.737
-741.112	-4.237	-0.113	-0.079
-740.098	-106.321	0.383	-0.086
-739.083	175.241	0.436	-0.636
-738.069	-103.781	-0.594	-0.140
-737.054	-114.806	0.441	-0.085
-736.039	-184.715	0.560	0.009
-735.025	-164.547	1.176	-0.054
-734.010	61.986	-0.648	-0.651
-732.996	274.358	-0.321	-0.572
-731.981	552.337	0.153	-0.371
-730.966	-130.030	1.053	0.145
-729.952	-136.945	-1.039	-0.120
-728.937	-200.000	-0.003	-0.242
-727.923	-1.490	-1.115	-0.792
-726.908	-48.371	0.349	-0.169
-725.894	101.816	0.206	0.242
-724.879	-200.000	0.016	-0.345
-723.864	-200.000	-0.101	-0.533
-722.850	800.000	0.283	-1.101
-721.835	109.508	-0.085	0.103
-720.821	230.903	-0.238	-0.393
-719.806	-200.000	-0.060	-0.563
-718.791	107.243	-0.351	-0.420
-717.777	103.290	-0.136	0.161
-716.762	-200.000	-0.139	-0.777
-715.748	-6.615	0.243	0.166
-714.733	800.000	0.167	-0.565
-713.718	-75.617	0.507	0.181
-712.704	-21.836	-0.084	0.052
-711.689	-200.000	-0.047	0.316
-710.675	-147.632	0.485	0.041
-709.660	-200.000	0.025	-0.521
-708.645	57.041	0.412	0.405
-707.631	714.417	-0.152	0.405
-706.616	-53.406	0.217	-0.100
-705.602	-200.000	0.012	-0.169
-704.587	-200.000	0.000	-0.030
-703.572	167.495	0.319	-0.456
-702.558	669.884	-0.115	-0.299
-701.543	-61.183	0.261	0.111
-700.529	-163.451	-0.532	0.025
-699.514	800.000	-0.231	0.679
-698.499	17.611	-0.541	-0.433
-697.485	-136.149	-0.740	-0.087
-696.470	-9.868	-0.276	0.185
-695.456	5.526	0.630	0.468
-694.441	-9.206	-0.633	0.426
-693.426	-109.810	-0.552	0.117
-692.412	29.033	-0.160	-0.137
-691.397	566.972	0.396	-0.967
-690.383	8.120	0.303	-0.229
-689.368	-200.000	-0.034	0.446
-688.354	99.353	0.173	-0.201
-687.339	122.985	-0.692	-0.872
-686.324	-200.000	0.126	-0.860
-685.310	-106.848	-0.432	0.096
-684.295	15.913	-0.088	-0.070
-683.281	-200.000	0.019	-0.368
-682.266	-200.000	-0.048	0.771
-681.251	800.000	0.133	0.449
-680.237	-115.495	-0.149	-0.028
-679.222	-142.641	-0.808	-0.079
-678.208	535.163	-0.176	-0.420
-677.193	-86.063	0.433	-0.134
-676.178	-134.328	0.129	0.016
-675.164	-146.079	-0.140	0.012
-674.149	133.528	-0.501	-0.652
-673.135	-100.872	-0.068	0.017
-672.120	-129.674	-0.461	0.064
-671.105	-157.095	-0.328	0.020
-670.091	50.542	0.213	0.202
-669.076	64.553	0.347	-0.351
-668.062	-59.858	-0.164	0.071
-667.047	49.757	0.919	-0.870
-666.032	-162.962	-0.337	-0.016
-665.018	89.169	0.484	-0.542
-664.003	395.253	0.130	-0.272
-662.989	273.082	-0.589	1.046
-661.974	-200.000	-0.140	-1.004
-660.959	-200.000	0.014	-0.768
-659.945	383.791	0.475	0.982
-658.930	718.739	0.289	0.771
-657.916	800.000	0.141	-0.419
-656.901	165.479	0.065	-0.092
-655.886	220.553	-0.067	-0.108
-654.872	44.096	0.555	-0.511
-653.857	-80.524	0.342	-0.114
-652.843	267.346	-0.357	-0.626
-651.828	-59.252	0.199	-0.086
-650.814	-61.945	0.314	0.132
-649.799	136.576	-0.305	0.399
-648.784	364.328	0.324	-0.654
-647.770	-200.000	-0.014	-0.203
-646.755	344.039	0.233	0.458
-645.741	-170.807	0.686	0.024
-644.726	-75.493	0.159	0.057
-643.711	357.135	-0.208	0.416
-642.697	259.681	0.282	0.488
-641.682	362.031	-0.147	-0.295
-640.668	800.000	-0.191	-0.590
-639.653	800.000	0.226	-0.764
-638.638	448.926	0.242	-0.535
-637.624	-14.760	-0.473	-0.305
-636.609	-200.000	-0.074	-0.631
-635.595	-62.049	1.046	-0.438
-634.580	50.799	0.420	0.399
-633.565	243.059	-0.506	0.850
-632.551	52.492	-0.435	-0.417
-631.536	42.208	-0.461	0.420
-630.522	-144.667	-0.243	-0.022
-629.507	314.065	0.176	-0.333
-628.492	-59.722	1.048	0.450
-627.478	800.000	0.178	0.683
-626.463	-148.758	0.358	-0.029
-625.449	-200.000	-0.033	0.344
-624.434	800.000	-0.226	-0.766
-623.419	-200.000	-0.081	-0.703
-622.405	49.219	-0.505	0.476
-621.390	264.351	0.209	0.365
-620.376	297.567	0.553	1.019
-619.361	-200.000	0.071	0.341
-618.346	16.297	-0.250	-0.198
-617.332	185.413	-0.526	-0.784
-616.317	228.544	-0.398	-0.651
-615.303	36.741	-0.303	0.269
-614.288	-43.565	-0.301	-0.152
-613.273	64.484	-0.468	-0.473
-612.259	-200.000	0.066	0.368
-611.244	-75.002	-0.300	-0.108
-610.230	-51.649	-0.794	-0.371
-609.215	-97.907	-0.439	0.114
-608.201	-40.062	0.277	0.145
-607.186	800.000	0.093	0.406
-606.171	-171.236	1.278	0.043
-605.157	-133.400	0.329	-0.041
-604.142	47.567	-0.326	0.304
-603.128	-148.906	0.042	0.003
-602.113	88.795	0.333	-0.371
-601.098	-42.998	-0.671	0.341
-600.084	-57.073	-0.467	-0.206
-599.069	800.000	0.183	-0.548
-598.055	4.506	0.151	0.111
-597.040	800.000	-0.322	-0.982
-596.025	-176.455	0.765	0.020
-595.011	0.631	-0.260	-0.186
-593.996	-200.000	-0.065	-0.453
-592.982	800.000	-0.299	-0.837
-591.967	18.200	-0.063	0.050
-590.952	387.836	-0.265	0.548
-589.938	157.563	-0.212	0.294
-588.923	-82.955	-0.446	-0.144
-587.909	-126.673	-0.201	0.030
-586.894	771.320	0.107	0.291
-585.879	-151.287	-0.445	0.033
-584.865	516.371	0.221	-0.518
-583.850	-29.176	0.445	-0.255
-582.836	-200.000	-0.090	-0.430
-581.821	-200.000	0.178	-1.033
-580.806	-200.000	0.037	0.529
-579.792	44.074	-0.531	0.488
-578.777	-64.669	0.199	0.081
-577.763	389.020	0.225	0.466
-576.748	233.144	0.186	0.306
-575.733	800.000	0.027	-0.082
-574.719	-15.821	0.541	-0.345
-573.704	-83.154	-0.132	0.043
-572.690	52.521	-0.476	0.455
-571.675	527.869	-0.130	-0.307
-570.661	-97.380	-0.186	0.049
-569.646	107.828	0.154	0.184
-568.631	3.763	0.253	-0.185
-567.617	-121.579	0.324	0.054
-566.602	81.617	0.670	0.725
-565.588	-200.000	0.002	0.528
-564.573	-12.709	-0.683	-0.446
-563.558	209.321	0.400	-0.627
-562.544	-200.000	-0.038	0.238
-561.529	21.802	-0.181	-0.147
-560.515	492.698	0.039	0.090
-559.500	140.827	0.476	0.629
-558.485	408.515	-0.365	0.773
-557.471	-151.066	0.589	0.044
-556.456	-6.309	0.042	-0.029
-555.442	-143.461	-0.352	-0.034
-554.427	800.000	0.214	0.683
-553.412	-200.000	0.170	-0.859
-552.398	278.294	0.203	-0.361
-551.383	296.568	-0.450	0.825
-550.369	191.338	-0.282	0.425
-549.354	136.035	0.267	-0.347
-548.339	-21.541	0.152	0.092
-547.325	-61.662	-0.412	0.173
-546.310	-200.000	-0.013	0.140
-545.296	-82.887	0.272	-0.088
-544.281	-116.599	0.982	-0.181
-543.266	306.056	-0.151	0.281
-542.252	-14.095	0.349	0.225
-541.237	-191.211	-0.258	-0.003
-540.223	74.221	0.457	-0.480
-539.208	-127.913	0.595	-0.086
-538.193	-200.000	0.033	-0.776
-537.179	-58.122	0.657	-0.286
-536.164	395.563	-0.395	-0.824
-535.150	800.000	0.160	0.607
-534.135	225.189	-0.278	0.449
-533.121	-200.000	0.051	0.279
-532.106	-200.000	0.274	0.001
-531.091	800.000	-0.039	-0.149
-530.077	-200.000	-0.040	-0.241
-529.062	-70.752	-0.160	0.060
-528.048	-133.262	-0.119	0.015
-527.033	670.677	0.230	-0.595
-526.018	495.623	-0.070	0.160
-525.004	-30.762	-0.243	-0.137
-523.989	-33.951	-0.322	-0.177
-522.975	-155.696	0.154	-0.010
-521.960	-34.809	0.663	-0.362
-520.945	-200.000	0.087	-0.456
-519.931	-25.312	-0.363	-0.215
-518.916	-200.000	-0.055	-0.383
-517.902	276.677	0.049	0.087
-516.887	-200.000	0.057	-0.472
-515.872	9.979	-0.882	0.669
-514.858	267.356	0.138	0.241
-513.843	59.070	-0.735	-0.723
-512.829	-73.238	0.314	-0.115
-511.814	31.839	0.409	-0.352
-510.799	281.254	0.208	0.372
-509.785	-200.000	-0.013	-0.359
-508.770	70.975	-0.088	0.091
-507.756	-31.599	0.108	0.061
-506.741	149.018	-0.244	0.329
-505.726	-42.637	0.606	0.308
-504.712	186.340	-0.501	-0.744
-503.697	800.000	-0.288	0.965
-502.683	568.526	-0.092	-0.223
-501.668	-142.165	0.111	-0.011
-500.653	699.514	0.130	0.341
-499.639	-143.003	-0.572	-0.055
-498.624	-188.021	-1.062	-0.014
-497.610	128.345	0.310	-0.394
-496.595	-200.000	0.037	-0.466
-495.581	97.138	-0.395	-0.452
-494.566	101.499	-0.247	0.287
-493.551	723.456	0.260	-0.691
-492.537	23.984	-0.370	-0.304
-491.522	-135.713	-0.189	-0.022
-490.508	-76.203	-0.508	-0.179
-489.493	333.216	-0.147	-0.283
-488.478	49.391	0.439	-0.412
-487.464	-200.000	-0.006	0.441
-486.449	800.000	0.125	-0.363
-485.435	-79.366	0.449	-0.152
-484.420	-157.626	0.239	-0.014
-483.405	526.169	0.157	-0.370
-482.391	-200.000	-0.102	-0.645
-481.376	-84.074	1.006	-0.319
-480.362	-200.000	-0.042	0.318
-479.347	-200.000	0.015	0.814
-478.332	-16.042	-0.393	0.249
-477.318	156.553	-0.703	0.968
-476.303	-113.535	-0.605	-0.118
-475.289	-50.450	0.553	0.261
-474.274	-90.120	-0.531	-0.154
-473.259	136.934	0.044	-0.057
-472.245	116.509	-0.191	-0.234
-471.230	-94.211	0.500	0.137
-470.216	-41.208	-0.777	0.400
-469.201	800.000	0.082	0.297
-468.186	38.827	-0.481	-0.428
-467.172	-91.981	0.656	0.185
-466.157	-10.141	-0.471	-0.312
-465.143	-200.000	0.020	0.226
-464.128	-87.391	0.369	0.111
-463.113	-151.050	-0.581	-0.044
-462.099	-115.954	-0.554	-0.103
-461.084	-128.598	0.326	0.046
-460.070	-200.000	0.027	0.363
-459.055	800.000	0.095	-0.413
-458.040	34.757	0.317	-0.276
-457.026	111.543	0.597	0.718
-456.011	628.444	-0.105	-0.265
-454.997	-82.385	-0.587	-0.190
-453.982	-41.945	0.356	0.182
-452.968	-85.167	-0.250	-0.078
-451.953	-12.187	-0.535	-0.349
-450.938	79.409	0.210	-0.224
-449.924	-41.593	0.842	-0.431
-448.909	-82.202	-0.770	-0.250
-447.895	800.000	0.107	0.355
-446.880	0.272	0.833	0.592
-445.865	36.472	-0.336	0.296
-444.851	332.817	0.249	-0.479
-443.836	150.657	-0.402	-0.545
-442.822	-92.197	-0.140	0.039
-441.807	-147.950	-0.735	0.061
-440.792	800.000	-0.225	-0.975
-439.778	-66.650	-0.479	0.189
-438.763	-48.836	-0.558	0.267
-437.749	173.539	0.208	0.298
-436.734	800.000	-0.146	-0.482
-435.719	387.791	-0.178	-0.366
-434.705	-24.922	0.410	0.242
-433.690	-200.000	0.102	0.752
-432.676	-200.000	-0.002	-0.999
-431.661	-96.885	-0.397	0.104
-430.646	-125.557	0.432	-0.065
-429.632	51.381	-0.166	-0.157
-428.617	-24.071	-0.345	-0.205
-427.603	-200.000	-0.005	-0.354
-426.588	-109.446	0.420	0.088
-425.573	91.367	0.119	0.133
-424.559	-186.405	-0.285	0.004
-423.544	385.671	-0.030	0.061
-422.530	-151.960	-0.963	0.070
-421.515	-99.183	0.501	0.126
-420.500	55.499	0.665	0.641
-419.486	800.000	-0.162	-0.459
-418.471	206.757	-0.062	0.096
-417.457	-76.243	-0.398	-0.140
-416.442	-4.339	-0.633	0.436
-415.428	-200.000	-0.098	0.518
-414.413	-200.000	-0.057	-0.514
-413.398	-200.000	0.106	0.559
-412.384	264.463	-0.254	0.441
-411.369	-91.309	0.991	-0.282
-410.355	-72.140	0.364	-0.135
-409.340	-125.093	-0.488	0.074
-408.325	-94.195	-0.225	-0.061
-407.311	800.000	0.311	0.974
-406.296	468.972	0.182	-0.407
-405.282	423.053	-0.327	-0.699
-404.267	-119.815	0.575	-0.099
-403.252	49.609	-0.330	0.309
-402.238	324.132	-0.153	0.291
-401.223	800.000	0.081	0.341
-400.209	-149.996	1.141	-0.088
-399.194	758.167	-0.559	1.504
-398.179	-91.773	-0.470	0.133
-397.165	100.072	0.896	1.033
-396.150	-200.000	0.031	-0.572
-395.136	-3.804	0.172	0.119
-394.121	800.000	0.026	-0.088
-393.106	-14.819	-0.449	0.287
-392.092	-140.752	0.433	-0.044
-391.077	-176.166	-0.832	0.022
-390.063	13.863	0.454	-0.351
-389.048	-200.000	-0.046	-0.240
-388.033	17.865	0.402	-0.319
-387.019	-132.626	-0.266	-0.034
-386.004	330.502	0.310	-0.594
-384.990	-184.701	0.511	0.008
-383.975	-176.744	0.433	0.011
-382.960	-127.982	0.818	0.117
-381.946	116.280	0.351	0.428
-380.931	800.000	-0.086	-0.323
-379.917	32.762	-0.564	-0.485
-378.902	-129.146	-0.248	-0.034
-377.888	800.000	-0.125	-0.468
-376.873	-200.000	0.105	-0.469
-375.858	-106.458	-0.395	-0.088
-374.844	287.279	0.129	0.232
-373.829	14.280	-0.316	-0.244
-372.815	-156.410	-0.558	0.035
-371.800	-67.329	-0.639	-0.249
-370.785	-13.546	-0.510	-0.328
-369.771	190.842	0.354	0.529
-368.756	800.000	0.230	-0.867
-367.742	-200.000	0.068	0.394
-366.727	800.000	0.164	0.464
-365.712	-64.680	0.693	-0.279
-364.698	-142.878	0.708	-0.068
-363.683	-60.248	-0.818	-0.346
-362.669	-200.000	0.049	0.367
-361.654	0.575	0.473	0.336
-360.639	34.654	0.332	0.288
-359.625	-200.000	0.009	-0.514
-358.610	-200.000	0.019	0.174
-357.596	-61.414	0.066	-0.028
-356.581	439.796	0.179	-0.387
-355.566	3.054	-0.502	-0.362
-354.552	192.253	0.431	0.645
-353.537	-132.470	0.183	0.023
-352.523	-35.983	-0.271	0.145
-351.508	288.682	0.194	0.348
-350.493	-77.586	0.534	0.183
-349.479	800.000	0.114	0.489
-348.464	-14.274	0.181	0.116
-347.450	-127.634	0.477	0.069
-346.435	-38.953	0.166	0.087
-345.420	800.000	-0.169	-0.536
-344.406	-149.008	0.306	-0.024
-343.391	-147.198	-0.231	-0.020
-342.377	381.025	0.544	-1.109
-341.362	60.156	0.301	-0.295
-340.348	-135.391	-0.492	-0.058
-339.333	194.281	0.482	0.724
-338.318	86.352	-0.037	0.041
-337.304	148.599	-0.450	-0.603
-336.289	-116.931	-0.530	0.096
-335.275	133.835	0.173	-0.222
-334.260	396.875	-0.317	-0.657
-333.245	46.612	-0.332	0.306
-332.231	-100.623	0.489	-0.120
-331.216	63.486	0.304	0.302
-330.202	383.204	0.089	0.181
-329.187	-32.059	0.543	0.301
-328.172	-200.000	-0.085	-0.447
-327.158	31.602	-0.530	-0.452
-326.143	-143.902	0.289	0.027
-325.129	71.084	0.331	0.340
-324.114	741.558	-0.028	-0.075
-323.099	80.742	-0.222	-0.237
-322.085	240.505	-0.254	0.420
-321.070	-200.000	0.029	0.402
-320.056	-200.000	0.092	0.588
-319.041	-5.539	-0.520	0.354
-318.026	800.000	0.283	0.810
-317.012	-200.000	-0.100	0.769
-315.997	-200.000	-0.081	0.681
-314.983	248.649	0.319	-0.535
-313.968	-15.143	-0.631	0.401
-312.953	-42.580	-0.295	0.149
-311.939	-200.000	-0.068	0.798
-310.924	-160.348	0.491	0.026
-309.910	-38.414	-0.262	0.137
-308.895	-0.357	0.599	0.422
-307.880	225.836	-0.263	-0.423
-306.866	-200.000	-0.039	-0.319
-305.851	800.000	-0.081	0.261
-304.837	-200.000	-0.033	0.683
-303.822	-127.505	-0.490	0.070
-302.807	-200.000	-0.037	0.317
-301.793	710.167	-0.585	1.534
-300.778	-103.347	0.678	0.158
-299.764	148.908	0.340	0.456
-298.749	-21.238	0.171	0.103
-297.735	-13.379	0.359	-0.231
-296.720	338.405	-0.274	0.528
-295.705	-13.342	-0.278	0.179
-294.691	16.623	-0.694	-0.543
-293.676	-48.442	0.722	0.344
-292.662	29.348	0.273	0.230
-291.647	22.050	-0.677	-0.547
-290.632	77.804	-0.294	-0.310
-289.618	154.990	0.274	-0.373
-288.603	-103.634	0.378	0.088
-287.589	13.306	-0.754	-0.578
-286.574	113.934	-0.235	0.282
-285.559	-2.453	0.227	0.158
-284.545	800.000	0.116	-0.409
-283.530	126.969	-0.244	-0.307
-282.516	-147.158	-0.187	0.016
-281.501	-116.137	-0.309	-0.057
-280.486	-34.408	-0.560	-0.304
-279.472	242.442	-0.211	0.349
-278.457	-114.837	0.667	0.126
-277.443	-62.775	0.789	0.323
-276.428	-41.376	0.016	-0.008
-275.413	-110.964	-0.924	-0.188
-274.399	137.330	-0.423	0.547
-273.384	-88.757	0.667	-0.196
-272.370	-68.343	-0.510	0.196
-271.355	-11.140	0.889	-0.580
-270.340	-13.085	-0.739	0.475
-269.326	-200.000	0.061	-0.505
-268.311	-200.000	0.002	0.254
-267.297	-127.254	0.334	-0.048
-266.282	-145.137	0.298	0.027
-265.267	-59.290	0.796	-0.339
-264.253	-86.886	-0.620	-0.187
-263.238	-78.577	-0.570	-0.193
-262.224	-86.245	0.443	-0.135
-261.209	-71.250	0.320	-0.119
-260.195	237.806	0.139	-0.228
-259.180	228.242	-0.049	-0.079
-258.165	-58.353	-1.072	-0.461
-257.151	-200.000	0.092	0.485
-256.136	-200.000	0.063	0.505
-255.122	-200.000	-0.071	0.593
-254.107	41.093	-0.265	0.237
-253.092	-66.160	0.568	-0.224
-252.078	-200.000	-0.032	0.453
-251.063	-6.017	-0.397	0.268
-250.049	-200.000	0.009	0.360
-249.034	35.477	-0.233	-0.202
-248.019	48.735	0.512	0.475
-247.005	-200.000	-0.038	-0.815
-245.990	-167.722	0.960	-0.038
-244.976	-60.126	-0.275	0.116
-243.961	-108.310	-0.457	0.097
-242.946	31.498	0.581	-0.493
-241.932	800.000	0.140	-0.412
-240.917	38.862	0.724	-0.639
-239.903	628.282	0.296	-0.740
-238.888	-200.000	-0.117	-1.464
-237.873	-124.948	0.370	-0.056
-236.859	4.321	-0.497	-0.360
-235.844	628.151	0.288	0.719
-234.830	-138.128	-0.133	0.015
-233.815	48.483	-0.387	0.358
-232.800	157.398	0.325	0.444
-231.786	569.112	-0.154	-0.370
-230.771	79.066	-0.197	-0.209
-229.757	164.230	-0.439	-0.611
-228.742	800.000	-0.121	-0.360
-227.727	20.881	0.433	-0.346
-226.713	265.151	0.276	-0.476
-225.698	17.500	0.012	0.009
-224.684	-8.978	-0.401	0.265
-223.669	-200.000	0.029	-0.587
-222.655	-144.706	0.563	0.051
-221.640	305.042	-0.083	0.152
-220.625	352.249	-0.343	0.670
-219.611	12.925	0.108	0.082
-218.596	-113.899	-0.554	0.106
-217.582	32.526	0.180	0.154
-216.567	-126.919	0.652	0.095
-215.552	-147.777	0.515	0.043
-214.538	-6.158	0.275	-0.186
-213.523	-26.652	-0.602	0.348
-212.509	-23.240	0.389	0.231
-211.494	800.000	0.167	0.714
-210.479	50.775	-0.579	0.542
-209.465	31.681	-0.446	0.379
-208.450	-130.685	-0.238	0.032
-207.436	800.000	-0.210	0.880
-206.421	800.000	0.148	0.427
-205.406	-200.000	-0.014	-0.268
-204.392	79.968	0.344	-0.365
-203.377	-71.232	-0.215	0.080
-202.363	-69.387	-0.135	-0.051
-201.348	11.303	-0.252	-0.190
-200.333	-109.349	-0.364	0.076
-199.319	18.574	0.408	0.322
-198.304	-125.108	-0.591	0.089
-197.290	-102.079	-0.477	0.113
-196.275	79.163	-0.319	0.337
-195.260	-98.065	-0.556	0.141
-194.246	-152.565	1.269	0.090
-193.231	-200.000	0.047	-0.217
-192.217	17.941	-0.352	0.276
-191.202	-87.122	-0.376	-0.113
-190.187	82.731	-0.548	0.588
-189.173	622.299	0.111	-0.274
-188.158	-132.859	0.913	0.115
-187.144	-50.167	1.019	-0.476
-186.129	-200.000	0.129	-0.737
-185.114	50.616	-0.189	-0.176
-184.100	800.000	-0.077	0.276
-183.085	48.572	0.128	-0.118
-182.071	-200.000	0.117	-0.547
-181.056	534.780	-0.240	-0.561
-180.042	800.000	-0.087	0.285
-179.027	121.299	-0.369	0.453
-178.012	209.714	-0.265	0.410
-176.998	800.000	-0.123	0.420
-175.983	-200.000	-0.145	0.876
-174.969	-200.000	-0.052	0.360
-173.954	800.000	0.044	0.176
-172.939	800.000	0.051	-0.157
-171.925	590.839	0.258	0.628
-170.910	-124.308	0.261	0.040
-169.896	202.952	0.369	-0.561
-168.881	-147.904	0.534	-0.044
-167.866	-200.000	-0.017	-0.449
-166.852	625.240	-0.103	-0.257
-165.837	-17.522	-0.564	-0.349
-164.823	87.973	-0.152	0.166
-163.808	341.383	0.183	-0.351
-162.793	-151.987	-0.374	-0.027
-161.779	-161.153	0.674	0.035
-160.764	-200.000	0.067	-0.339
-159.750	13.733	0.323	-0.248
-158.735	40.295	0.161	-0.143
-157.720	-200.000	0.088	-0.545
-156.706	118.628	-0.454	0.553
-155.691	87.433	-0.264	0.288
-154.677	-165.369	0.547	-0.024
-153.662	-92.100	-0.252	0.070
-152.647	36.621	-0.111	-0.096
-151.633	-200.000	0.071	0.716
-150.618	83.467	-0.087	-0.094
-149.604	-35.371	0.788	0.422
-148.589	-200.000	-0.127	-0.799
-147.574	89.931	-0.755	-0.830
-146.560	3.781	-0.613	-0.441
-145.545	-200.000	-0.221	-1.292
-144.531	306.660	-0.158	-0.289
-143.516	-94.753	-0.231	0.062
-142.502	-155.486	0.314	-0.020
-141.487	-200.000	-0.045	0.311
-140.472	-172.269	-0.531	-0.017
-139.458	-200.000	-0.085	0.443
-138.443	252.726	0.121	0.203
-137.429	181.566	0.400	-0.579
-136.414	328.178	-0.594	1.122
-135.399	-200.000	0.075	-0.558
-134.385	-200.000	-0.090	0.448
-133.370	14.438	-0.635	0.488
-132.356	-1.928	-0.785	0.543
-131.341	-13.133	0.427	-0.273
-130.326	-82.694	0.198	0.063
-129.312	9.609	-0.302	-0.225
-128.297	-168.784	-1.048	-0.039
-127.283	-5.905	0.594	0.400
-126.268	-200.000	0.070	0.511
-125.253	-200.000	0.832	-0.003
-124.239	219.185	0.133	-0.209
-123.224	-74.770	-0.476	0.168
-122.210	157.701	0.080	0.109
