DTS Sentinel unit serial number:	SN413079Multiplexer serial number:	ORYXHardware model number:	OX4-SRSoftware version number:	ORYX F/W v4.00 Oryx Data Collector v3.7.2.0data status	okinstallation	princeton_trtdifferential loss correction	single-endedforward channel	channel 2reverse channel	N/Adate	2019/09/15time	16:39:34forward acquisition time	60.00reverse acquisition time	0.00gamma	496.2192k internal	0.2286k external	0.2286temperature offset calibration	0.9936default loss term (dB/km)	0.3790temperature slope calibration	1.0000multiplexer offset coefficient	1.0000multiplexer slope coefficient	1.0000fibre end	0.00T internal ref (°C)	44.12T ext. ref 1 (°C)	5.66T ext. ref 2 (°C)	40.23length (m)	temperature (°C)	Stokes	anti-Stokes-747.200	-94.096	-0.158	-0.044
-746.185	431.551	0.187	0.416
-745.171	-24.900	0.228	0.139
-744.156	27.470	-0.101	0.087
-743.142	336.421	0.188	0.375
-742.127	293.029	0.112	0.209
-741.112	-183.571	0.127	0.002
-740.098	106.526	-0.227	0.277
-739.083	-128.329	-0.049	0.007
-738.069	800.000	0.111	0.385
-737.054	24.225	-0.063	-0.053
-736.039	13.414	-0.148	0.118
-735.025	-11.129	-0.184	-0.125
-734.010	-69.312	-0.400	0.158
-732.996	800.000	0.034	-0.124
-731.981	-125.411	-0.191	0.030
-730.966	663.012	0.031	-0.083
-729.952	164.486	-0.203	-0.293
-728.937	-2.407	-0.354	0.254
-727.923	431.102	-0.087	-0.193
-726.908	-102.245	0.164	0.040
-725.894	226.283	-0.058	-0.097
-724.879	-74.630	-0.312	0.115
-723.864	83.677	0.118	0.132
-722.850	-24.179	-0.292	-0.179
-721.835	-39.269	-0.242	0.130
-720.821	19.211	0.085	0.070
-719.806	377.705	-0.033	0.068
-718.791	769.521	-0.107	0.298
-717.777	410.128	-0.199	-0.432
-716.762	-200.000	0.006	0.109
-715.748	-67.317	0.087	-0.035
-714.733	800.000	-0.076	-0.251
-713.718	800.000	-0.083	-0.299
-712.704	134.191	-0.201	-0.267
-711.689	13.935	0.264	-0.211
-710.675	-7.866	0.245	-0.170
-709.660	-200.000	-0.016	0.140
-708.645	-200.000	0.007	-0.100
-707.631	-65.506	0.090	0.037
-706.616	-95.497	0.304	0.083
-705.602	413.792	0.112	0.244
-704.587	-67.207	-0.304	-0.123
-703.572	380.119	-0.030	0.062
-702.558	74.221	-0.348	-0.375
-701.543	-154.562	0.306	-0.021
-700.529	21.919	-0.154	-0.129
-699.514	174.673	0.141	0.208
-698.499	-62.250	-0.079	0.034
-697.485	-122.447	-0.158	-0.026
-696.470	-10.742	0.409	0.277
-695.456	-172.991	-0.226	-0.007
-694.441	67.464	0.131	-0.137
-693.426	-47.061	-0.453	0.226
-692.412	464.485	0.018	-0.042
-691.397	294.917	0.106	-0.198
-690.383	33.481	0.119	-0.106
-689.368	800.000	0.086	0.275
-688.354	256.085	-0.206	0.362
-687.339	800.000	0.107	0.325
-686.324	-70.314	-0.019	0.007
-685.310	195.564	0.202	-0.314
-684.295	800.000	-0.071	0.215
-683.281	439.690	-0.123	-0.275
-682.266	98.358	-0.155	-0.183
-681.251	18.238	0.128	-0.105
-680.237	-200.000	0.025	-0.143
-679.222	-25.565	-0.364	0.220
-678.208	-105.155	0.234	-0.055
-677.193	-200.000	-0.011	0.329
-676.178	-200.000	0.016	-0.235
-675.164	183.002	-0.192	0.290
-674.149	-143.976	-0.261	0.025
-673.135	-146.708	0.301	0.027
-672.120	-200.000	-0.020	-0.196
-671.105	-83.330	-0.042	0.014
-670.091	-200.000	-0.014	-0.323
-669.076	285.299	0.083	-0.152
-668.062	246.008	-0.034	0.058
-667.047	-200.000	-0.033	0.277
-666.032	787.569	0.050	0.142
-665.018	800.000	0.054	-0.180
-664.003	132.798	-0.130	0.172
-662.989	-139.707	0.039	0.004
-661.974	-49.996	-0.133	-0.064
-660.959	0.066	0.031	0.022
-659.945	-20.417	-0.153	-0.097
-658.930	800.000	-0.081	0.243
-657.916	-80.908	-0.203	0.069
-656.901	197.774	0.200	-0.313
-655.886	800.000	-0.072	-0.208
-654.872	-103.304	0.236	-0.057
-653.857	-73.394	0.109	-0.041
-652.843	-154.530	0.219	0.015
-651.828	-200.000	-0.010	-0.061
-650.814	800.000	-0.157	0.457
-649.799	289.190	0.035	0.066
-648.784	800.000	0.012	0.055
-647.770	-156.057	-0.131	0.008
-646.755	-47.360	-0.344	-0.171
-645.741	-200.000	-0.052	0.256
-644.726	6.811	0.265	-0.201
-643.711	-198.148	0.120	-0.001
-642.697	50.145	0.074	-0.071
-641.682	-159.112	0.088	0.005
-640.668	-148.932	-0.453	0.037
-639.653	-83.835	0.187	-0.061
-638.638	150.878	0.143	-0.198
-637.624	-123.338	-0.129	-0.021
-636.609	86.795	0.120	0.136
-635.595	40.551	0.189	0.174
-634.580	-115.472	-0.344	-0.066
-633.565	-77.525	-0.469	0.166
-632.551	-114.996	0.027	0.005
-631.536	-149.239	-0.225	-0.018
-630.522	-200.000	-0.008	-0.133
-629.507	99.695	0.243	0.287
-628.492	21.730	-0.274	0.228
-627.478	291.709	-0.079	-0.147
-626.463	-173.331	-0.116	-0.004
-625.449	474.075	0.079	-0.182
-624.434	-30.801	0.149	-0.086
-623.419	-13.588	-0.054	0.035
-622.405	-133.647	-0.107	0.014
-621.390	398.759	-0.043	0.092
-620.376	-119.336	-0.201	-0.036
-619.361	236.577	0.073	0.123
-618.346	800.000	0.069	-0.234
-617.332	-61.661	0.197	-0.084
-616.317	800.000	0.059	-0.184
-615.303	60.249	-0.218	0.220
-614.288	-23.701	0.023	0.014
-613.273	800.000	-0.085	-0.325
-612.259	-38.142	0.241	-0.130
-611.244	342.786	-0.014	-0.028
-610.230	-151.442	-0.248	0.019
-609.215	-29.816	0.147	-0.086
-608.201	254.947	0.166	-0.291
-607.186	-200.000	-0.025	-0.162
-606.171	-199.159	-0.235	0.001
-605.157	182.603	-0.166	-0.250
-604.142	94.701	0.045	-0.052
-603.128	-200.000	-0.011	-0.203
-602.113	-200.000	-0.025	-0.130
-601.098	2.643	0.223	0.165
-600.084	-62.206	0.083	0.035
-599.069	-126.966	-0.405	0.061
-598.055	-200.000	-0.026	-0.425
-597.040	369.504	-0.174	-0.359
-596.025	543.907	0.084	-0.205
-595.011	-74.383	-0.212	0.078
-593.996	-155.306	-0.213	-0.014
-592.982	13.668	0.238	-0.188
-591.967	-85.932	0.078	-0.025
-590.952	-170.150	0.206	0.007
-589.938	-121.031	-0.231	-0.039
-588.923	-91.457	0.190	-0.055
-587.909	-200.000	-0.002	0.272
-586.894	159.440	-0.058	-0.083
-585.879	120.934	0.035	-0.045
-584.865	-13.357	-0.054	-0.036
-583.850	19.389	0.357	0.293
-582.836	-141.825	-0.579	-0.059
-581.821	-181.567	-0.304	0.006
-580.806	-200.000	-0.038	-0.197
-579.792	800.000	-0.070	0.311
-578.777	-1.588	0.261	0.188
-577.763	-200.000	0.064	0.510
-576.748	45.712	0.253	0.238
-575.733	168.668	0.111	-0.162
-574.719	170.084	0.076	-0.111
-573.704	37.767	-0.198	-0.179
-572.690	341.293	0.165	-0.329
-571.675	-200.000	0.012	0.218
-570.661	-200.000	0.081	0.480
-569.646	-70.803	0.455	0.175
-568.631	58.928	0.159	-0.160
-567.617	-67.253	-0.166	-0.067
-566.602	314.134	0.116	-0.223
-565.588	-200.000	0.046	-0.374
-564.573	-80.994	0.234	0.079
-563.558	-200.000	0.009	0.063
-562.544	370.748	-0.189	-0.390
-561.529	-126.484	-0.300	0.045
-560.515	-35.611	0.533	-0.295
-559.500	-98.536	0.127	-0.033
-558.485	-149.218	-0.370	0.030
-557.471	-108.147	0.136	0.030
-556.456	-19.123	-0.078	-0.050
-555.442	29.967	-0.212	-0.184
-554.427	254.983	-0.161	0.280
-553.412	167.024	-0.058	-0.083
-552.398	110.880	-0.171	-0.209
-551.383	-200.000	0.021	-0.094
-550.369	800.000	-0.036	0.124
-549.354	13.463	-0.175	-0.138
-548.339	-200.000	0.017	-0.465
-547.325	-200.000	0.013	0.149
-546.310	237.976	-0.085	0.143
-545.296	129.516	0.236	0.307
-544.281	2.098	-0.186	-0.137
-543.266	800.000	0.024	0.087
-542.252	365.185	-0.050	-0.102
-541.237	-26.476	-0.241	0.144
-540.223	-200.000	0.019	0.200
-539.208	-79.329	-0.159	0.055
-538.193	-150.164	0.009	-0.001
-537.179	800.000	0.057	0.192
-536.164	-35.705	-0.057	0.031
-535.150	-200.000	-0.002	0.227
-534.135	172.448	-0.100	-0.146
-533.121	800.000	0.096	0.325
-532.106	-10.149	0.201	-0.136
-531.091	187.219	-0.036	0.055
-530.077	60.226	0.197	0.198
-529.062	119.147	0.259	0.326
-528.048	-20.413	-0.173	0.108
-527.033	800.000	-0.110	0.332
-526.018	-200.000	0.014	-0.100
-525.004	91.481	-0.083	0.095
-523.989	127.957	0.218	0.282
-522.975	9.614	-0.084	-0.065
-521.960	-122.753	-0.039	-0.006
-520.945	97.368	-0.395	0.461
-519.931	800.000	-0.162	0.457
-518.916	-71.782	0.117	-0.044
-517.902	-2.556	0.234	-0.166
-516.887	-200.000	0.011	-0.049
-515.872	-82.787	-0.120	0.040
-514.858	-112.253	-0.187	0.038
-513.843	800.000	-0.019	0.062
-512.829	-64.292	-0.317	0.131
-511.814	-59.561	0.081	-0.036
-510.799	-187.001	-0.493	0.007
-509.785	786.802	-0.099	-0.275
-508.770	-200.000	-0.020	-0.405
-507.756	-82.243	-0.182	0.060
-506.741	800.000	-0.100	-0.419
-505.726	-102.363	0.238	0.058
-504.712	-200.000	0.034	-0.214
-503.697	-67.439	-0.120	0.048
-502.683	368.593	-0.170	-0.348
-501.668	-161.823	-0.120	-0.006
-500.653	518.613	0.022	-0.053
-499.639	56.749	-0.077	0.076
-498.624	-200.000	0.013	0.409
-497.610	9.823	-0.193	0.149
-496.595	-96.385	-0.078	0.021
-495.581	73.529	-0.077	-0.082
-494.566	-200.000	0.034	-0.180
-493.551	256.487	-0.225	0.393
-492.537	800.000	0.012	-0.044
-491.522	238.223	-0.048	-0.082
-490.508	656.606	0.087	0.228
-489.493	-75.319	-0.073	-0.027
-488.478	800.000	-0.073	-0.281
-487.464	283.581	-0.161	0.293
-486.449	157.662	-0.028	-0.039
-485.435	223.192	-0.098	-0.160
-484.420	-200.000	-0.037	0.187
-483.405	230.684	0.151	0.250
-482.391	397.525	0.072	-0.152
-481.376	-9.490	0.118	0.080
-480.362	-200.000	-0.017	-0.110
-479.347	177.612	-0.115	-0.170
-478.332	-200.000	0.013	-0.107
-477.318	-155.113	-0.281	-0.019
-476.303	-104.555	-0.228	0.053
-475.289	-89.857	-0.133	0.039
-474.274	138.771	0.186	0.248
-473.259	108.358	-0.237	0.287
-472.245	23.492	0.287	0.240
-471.230	800.000	0.059	-0.191
-470.216	406.207	0.104	-0.222
-469.201	33.496	0.066	0.058
-468.186	-200.000	0.026	-0.212
-467.172	-84.314	-0.189	-0.061
-466.157	80.339	0.163	0.178
-465.143	8.914	-0.209	-0.160
-464.128	-133.620	0.331	0.042
-463.113	-103.077	0.256	-0.062
-462.099	455.349	0.183	0.412
-461.084	53.684	0.193	0.188
-460.070	54.630	0.235	0.230
-459.055	-92.119	-0.345	-0.099
-458.040	52.398	-0.187	-0.182
-457.026	122.811	-0.189	-0.240
-456.011	603.845	-0.068	0.172
-454.997	140.876	0.162	-0.218
-453.982	-169.722	0.305	-0.011
-452.968	-124.418	0.232	-0.037
-451.953	-134.123	0.267	0.033
-450.938	45.353	0.050	-0.047
-449.924	29.633	0.083	-0.072
-448.909	-200.000	0.042	0.309
-447.895	-133.268	0.301	0.039
-446.880	-166.381	0.390	0.017
-445.865	-19.716	0.193	-0.121
-444.851	327.379	-0.168	-0.326
-443.836	60.506	-0.319	0.321
-442.822	-122.840	0.253	-0.041
-441.807	-99.937	-0.226	-0.057
-440.792	-130.802	-0.183	-0.025
-439.778	-76.531	-0.120	-0.043
-438.763	376.537	0.070	0.145
-437.749	-61.754	0.356	0.151
-436.734	63.544	0.131	0.134
-435.719	-46.296	0.116	0.058
-434.705	70.371	-0.120	0.126
-433.690	-90.556	-0.091	-0.027
-432.676	260.242	-0.108	0.188
-431.661	29.272	-0.247	-0.213
-430.646	-75.447	0.234	-0.084
-429.632	-200.000	0.007	-0.205
-428.617	9.491	-0.045	0.034
-427.603	358.309	0.086	-0.173
-426.588	151.307	0.108	-0.149
-425.573	800.000	0.110	-0.348
-424.559	-156.558	0.183	-0.012
-423.544	60.145	0.045	-0.045
-422.530	800.000	0.169	0.526
-421.515	315.918	-0.061	0.116
-420.500	-56.749	0.228	-0.102
-419.486	-150.069	-0.163	0.013
-418.471	-70.485	-0.157	0.060
-417.457	-200.000	-0.039	-0.312
-416.442	800.000	0.072	0.261
-415.428	-51.236	0.192	0.091
-414.413	42.005	-0.152	-0.140
-413.398	230.311	-0.208	0.345
-412.384	-100.923	0.357	0.089
-411.369	-99.927	-0.313	0.079
-410.355	-200.000	0.014	-0.137
-409.340	-200.000	0.017	-0.327
-408.325	-200.000	0.018	-0.203
-407.311	-146.006	0.154	-0.014
-406.296	-200.000	0.011	0.132
-405.282	-194.320	0.313	-0.003
-404.267	-8.067	0.287	0.196
-403.252	-200.000	0.031	0.144
-402.238	-9.535	0.161	-0.109
-401.223	-45.610	0.175	0.088
-400.209	37.420	0.345	-0.309
-399.194	31.677	-0.031	0.027
-398.179	-200.000	0.042	-0.303
-397.165	-48.917	0.236	-0.114
-396.150	207.281	-0.121	0.191
-395.136	584.505	-0.132	0.328
-394.121	800.000	0.075	0.251
-393.106	-39.056	-0.151	-0.081
-392.092	800.000	0.081	-0.314
-391.077	-184.515	0.169	0.003
-390.063	-200.000	-0.065	0.287
-389.048	-9.116	0.064	-0.043
-388.033	-200.000	0.063	-0.289
-387.019	166.004	0.041	0.059
-386.004	-38.688	-0.122	-0.065
-384.990	-200.000	0.016	-0.303
-383.975	-36.177	-0.030	0.016
-382.960	800.000	0.103	-0.293
-381.946	12.803	-0.239	-0.187
-380.931	-200.000	-0.017	-0.191
-379.917	800.000	0.040	0.112
-378.902	93.392	0.102	-0.117
-377.888	-200.000	0.014	-0.270
-376.873	-18.847	0.316	0.199
-375.858	-45.528	-0.233	-0.117
-374.844	-200.000	-0.002	0.075
-373.829	-111.942	-0.232	-0.047
-372.815	37.777	-0.090	0.081
-371.800	75.908	-0.245	0.262
-370.785	354.902	0.152	0.306
-369.771	94.287	0.131	0.150
-368.756	-117.988	0.205	0.037
-367.742	-145.758	0.258	-0.023
-366.727	-57.818	0.133	0.059
-365.712	-200.000	0.050	0.253
-364.698	800.000	-0.045	-0.156
-363.683	-172.544	0.075	0.002
-362.669	-200.000	0.021	0.313
-361.654	800.000	0.144	-0.428
-360.639	-18.901	-0.210	0.132
-359.625	220.561	0.210	0.341
-358.610	-129.843	0.084	0.012
-357.596	324.063	0.064	-0.123
-356.581	518.780	-0.054	-0.129
-355.566	-35.773	-0.101	0.055
-354.552	57.109	0.118	-0.116
-353.537	119.068	-0.209	0.262
-352.523	-194.846	-0.138	-0.001
-351.508	476.807	0.152	-0.347
-350.493	-200.000	-0.008	-0.245
-349.479	800.000	-0.046	-0.185
-348.464	800.000	0.072	0.291
-347.450	-113.863	0.160	-0.031
-346.435	62.208	0.145	0.147
-345.420	511.645	0.015	-0.036
-344.406	-66.864	-0.344	-0.137
-343.391	-45.424	0.484	0.242
-342.377	-33.165	0.179	0.100
-341.362	63.536	0.093	0.094
-340.348	349.383	-0.034	-0.068
-339.333	650.691	0.099	-0.255
-338.318	230.491	-0.043	0.070
-337.304	576.864	-0.064	0.158
-336.289	-111.887	0.236	0.048
-335.275	-135.800	-0.058	-0.007
-334.260	90.961	0.130	-0.148
-333.245	696.743	-0.058	-0.155
-332.231	-166.193	0.214	0.009
-331.216	-200.000	-0.002	-0.147
-330.202	-193.024	-0.323	0.003
-329.187	-200.000	0.061	0.337
-328.172	-104.554	-0.219	0.051
-327.158	-13.625	0.032	-0.021
-326.143	22.325	-0.243	0.200
-325.129	304.298	0.087	-0.162
-324.114	82.405	0.237	0.260
-323.099	116.445	-0.138	-0.170
-322.085	800.000	-0.101	-0.420
-321.070	39.026	-0.128	0.116
-320.056	11.056	-0.196	-0.151
-319.041	800.000	0.035	0.129
-318.026	452.080	-0.042	0.095
-317.012	14.488	0.094	-0.074
-315.997	800.000	-0.037	-0.143
-314.983	17.736	0.251	0.202
-313.968	-159.320	-0.411	0.023
-312.953	-200.000	0.029	-0.240
-311.939	-2.721	-0.274	0.193
-310.924	270.634	-0.058	0.103
-309.910	-35.506	0.040	-0.022
-308.895	-139.838	-0.071	0.008
-307.880	9.199	-0.256	0.195
-306.866	-200.000	-0.118	0.621
-305.851	-38.018	0.247	0.132
-304.837	-94.930	0.137	0.037
-303.822	-46.953	-0.192	-0.095
-302.807	-40.281	-0.132	-0.070
-301.793	-39.165	0.248	0.131
-300.778	111.074	-0.149	0.181
-299.764	-122.957	0.251	-0.041
-298.749	800.000	0.046	0.145
-297.735	-131.606	0.041	-0.005
-296.720	650.482	0.072	-0.185
-295.705	-200.000	0.026	-0.273
-294.691	495.779	0.071	-0.164
-293.676	-200.000	0.016	0.104
-292.662	14.105	-0.071	0.055
-291.647	-102.223	0.369	-0.089
-290.632	-102.763	-0.341	-0.082
-289.618	-200.000	-0.077	0.381
-288.603	709.519	0.095	-0.253
-287.589	327.046	-0.074	0.143
-286.574	147.086	0.129	-0.175
-285.559	-162.947	0.059	-0.003
-284.545	-80.597	0.127	0.043
-283.530	-79.988	0.130	-0.044
-282.516	-83.673	-0.189	-0.061
-281.501	194.662	-0.174	0.266
-280.486	-200.000	0.007	-0.213
-279.472	-77.916	-0.137	0.048
-278.457	-90.718	0.123	-0.036
-277.443	175.757	0.150	-0.220
-276.428	-200.000	0.023	0.213
-275.413	-200.000	0.002	0.193
-274.399	153.521	0.214	0.296
-273.384	800.000	0.078	-0.326
-272.370	-200.000	0.052	-0.339
-271.355	172.409	0.122	-0.177
-270.340	800.000	0.070	-0.248
-269.326	-125.227	-0.316	0.049
-268.311	166.943	-0.331	0.474
-267.297	800.000	-0.037	-0.140
-266.282	374.744	0.114	-0.234
-265.267	-51.119	-0.253	-0.119
-264.253	-69.375	-0.273	0.106
-263.238	31.946	0.204	0.177
-262.224	93.391	-0.097	-0.111
-261.209	105.230	-0.133	-0.159
-260.195	249.299	-0.104	-0.177
-259.180	-58.548	0.323	0.141
-258.165	206.577	-0.134	0.209
-257.151	-200.000	0.031	0.371
-256.136	-64.973	-0.178	0.072
-255.122	-43.313	-0.275	-0.140
-254.107	-200.000	0.018	-0.273
-253.092	86.958	0.108	-0.120
-252.078	173.577	0.188	0.273
-251.063	307.014	0.154	0.289
-250.049	-57.840	-0.135	-0.059
-249.034	-36.793	0.161	-0.087
-248.019	719.431	0.043	0.115
-247.005	340.534	0.158	0.310
-245.990	-28.630	0.175	0.101
-244.976	-179.998	0.106	-0.002
-243.961	149.086	0.228	-0.310
-242.946	800.000	-0.075	-0.229
-241.932	2.119	-0.317	0.231
-240.917	47.273	-0.195	-0.183
-239.903	-23.451	-0.219	-0.132
-238.888	125.686	0.343	0.435
-237.873	494.091	-0.071	0.163
-236.859	0.629	-0.070	-0.051
-235.844	800.000	-0.041	0.127
-234.830	-52.667	0.213	0.099
-233.815	-63.817	-0.244	-0.100
-232.800	-144.907	-0.066	0.006
-231.786	-87.077	0.139	0.042
-230.771	-61.206	-0.299	-0.127
-229.757	-31.486	0.347	-0.196
-228.742	-200.000	-0.028	0.350
-227.727	99.315	-0.189	-0.220
-226.713	-64.781	-0.402	-0.164
-225.698	-194.825	-0.111	-0.001
-224.684	628.548	-0.103	-0.261
-223.669	378.166	0.087	0.178
-222.655	-200.000	0.010	-0.155
-221.640	-200.000	0.032	0.152
-220.625	-39.755	0.150	-0.079
-219.611	179.311	0.163	0.240
-218.596	-122.984	0.164	0.026
-217.582	-41.448	-0.229	0.118
-216.567	800.000	0.111	-0.308
-215.552	-6.175	-0.158	-0.108
-214.538	-129.605	0.116	0.016
-213.523	-126.641	0.100	0.015
-212.509	-100.942	-0.341	-0.084
-211.494	124.452	0.107	0.135
-210.479	-96.126	0.097	-0.026
-209.465	47.765	-0.121	-0.114
-208.450	220.155	-0.075	0.121
-207.436	800.000	0.073	-0.301
-206.421	-200.000	-0.045	-0.410
-205.406	325.882	0.104	0.199
-204.392	-43.905	0.314	-0.159
-203.377	-94.371	-0.286	-0.079
-202.363	800.000	-0.056	0.162
-201.348	151.293	-0.200	0.274
-200.333	282.785	0.070	-0.126
-199.319	39.428	-0.102	-0.091
-198.304	-44.741	0.208	0.104
-197.290	-51.520	-0.202	0.095
-196.275	-200.000	0.003	0.095
-195.260	-154.056	0.055	0.004
-194.246	722.275	-0.192	-0.513
-193.231	-57.325	-0.084	0.037
-192.217	13.008	-0.181	0.141
-191.202	184.568	0.106	-0.157
-190.187	-98.322	0.178	0.046
-189.173	-153.539	0.261	0.018
-188.158	-200.000	0.001	0.061
-187.144	-56.141	0.099	-0.044
-186.129	-42.446	-0.217	0.111
-185.114	37.239	-0.189	0.168
-184.100	-21.892	-0.430	-0.262
-183.085	-108.235	0.063	0.014
-182.071	48.704	0.178	-0.168
-181.056	752.281	0.201	0.546
-180.042	251.539	-0.079	-0.135
-179.027	112.661	-0.185	0.225
-178.012	-195.352	0.046	-0.000
-176.998	-0.395	-0.237	0.169
-175.983	150.172	0.236	0.321
-174.969	-192.634	0.226	0.002
-173.954	11.717	-0.186	0.143
-172.939	265.036	0.165	-0.288
-171.925	25.996	0.055	-0.046
-170.910	-200.000	-0.025	-0.127
-169.896	-200.000	-0.009	0.242
-168.881	-101.445	0.296	-0.072
-167.866	140.439	0.049	0.065
-166.852	27.137	-0.091	0.076
-165.837	-52.940	0.140	-0.065
-164.823	-2.385	-0.276	0.194
-163.808	211.268	-0.123	-0.194
-162.793	399.250	0.041	-0.086
-161.779	-115.917	0.316	-0.059
-160.764	-200.000	0.073	-0.332
-159.750	220.523	-0.088	0.141
-158.735	-28.604	0.061	0.035
-157.720	-61.989	0.460	0.193
-156.706	26.159	-0.097	-0.081
-155.691	236.790	-0.143	-0.238
-154.677	-200.000	0.016	-0.150
-153.662	199.122	-0.097	-0.149
-152.647	-166.245	0.195	-0.008
-151.633	-7.581	-0.054	0.036
-150.618	-7.038	0.079	-0.054
-149.604	800.000	0.078	0.319
-148.589	-125.088	-0.210	-0.032
-147.574	-133.689	0.205	0.026
-146.560	-200.000	-0.028	-0.181
-145.545	800.000	0.065	-0.217
-144.531	-71.656	-0.130	0.049
-143.516	-127.211	0.129	-0.019
-142.502	-17.584	0.222	-0.140
-141.487	-34.169	-0.155	0.086
-140.472	-155.340	-0.221	-0.014
-139.458	-200.000	0.008	-0.046
-138.443	16.643	-0.147	-0.116
-137.429	347.977	-0.083	0.164
-136.414	225.338	-0.149	-0.242
-135.399	126.921	0.286	-0.363
-134.385	-26.962	-0.066	-0.038
-133.370	60.183	-0.139	0.137
-132.356	-149.459	0.306	0.024
-131.341	67.191	-0.055	-0.056
-130.326	230.149	-0.217	-0.356
-129.312	-200.000	-0.024	0.181
-128.297	800.000	0.085	-0.370
-127.283	-200.000	-0.022	0.367
-126.268	138.228	-0.095	0.125
-125.253	-200.000	0.036	-0.184
-124.239	-200.000	-0.001	-0.112
-123.224	-130.356	0.151	0.021
-122.210	135.218	0.067	0.087
-121.195	28.606	-0.172	-0.146
