DTS Sentinel unit serial number:	SN413079Multiplexer serial number:	ORYXHardware model number:	OX4-SRSoftware version number:	ORYX F/W v4.00 Oryx Data Collector v3.7.2.0data status	okinstallation	princeton_trtdifferential loss correction	single-endedforward channel	channel 2reverse channel	N/Adate	2019/09/14time	04:19:35forward acquisition time	60.00reverse acquisition time	0.00gamma	496.2192k internal	0.2336k external	0.2336temperature offset calibration	1.0128default loss term (dB/km)	0.3790temperature slope calibration	1.0000multiplexer offset coefficient	1.0000multiplexer slope coefficient	1.0000fibre end	0.00T internal ref (°C)	26.73T ext. ref 1 (°C)	3.32T ext. ref 2 (°C)	21.91length (m)	temperature (°C)	Stokes	anti-Stokes-747.200	-45.135	0.104	-0.052
-746.185	372.755	-0.096	0.195
-745.171	-56.416	0.210	0.094
-744.156	7.624	-0.269	0.202
-743.142	-200.000	0.009	0.138
-742.127	-22.729	0.039	0.024
-741.112	-66.736	0.109	-0.043
-740.098	-74.528	0.098	-0.035
-739.083	-92.843	0.145	-0.041
-738.069	-145.679	-0.160	0.014
-737.054	126.114	0.020	0.026
-736.039	20.405	-0.201	-0.163
-735.025	800.000	-0.033	-0.136
-734.010	-193.255	0.202	0.002
-732.996	157.172	0.075	-0.104
-731.981	800.000	0.045	-0.132
-730.966	135.951	0.140	-0.184
-729.952	30.091	0.106	-0.091
-728.937	770.854	0.104	-0.285
-727.923	-89.114	-0.235	0.070
-726.908	-20.393	0.113	-0.070
-725.894	38.373	-0.203	-0.182
-724.879	112.917	-0.006	0.007
-723.864	79.121	0.173	-0.186
-722.850	137.386	0.139	0.183
-721.835	-47.477	0.381	-0.186
-720.821	165.704	0.128	-0.182
-719.806	-25.125	-0.059	0.035
-718.791	-68.324	-0.257	-0.100
-717.777	44.429	0.090	-0.083
-716.762	-130.874	0.266	0.036
-715.748	684.484	-0.010	-0.026
-714.733	-88.321	-0.178	0.053
-713.718	-22.612	-0.203	-0.123
-712.704	-135.454	-0.077	-0.009
-711.689	95.025	0.282	0.323
-710.675	-38.200	-0.332	0.177
-709.660	-67.280	-0.304	0.120
-708.645	-22.107	-0.207	0.126
-707.631	-16.510	0.310	-0.197
-706.616	33.428	0.181	-0.158
-705.602	-171.504	0.285	0.009
-704.587	27.239	-0.397	-0.334
-703.572	-200.000	-0.009	-0.350
-702.558	-200.000	0.050	-0.278
-701.543	36.091	-0.174	-0.154
-700.529	121.008	0.058	-0.073
-699.514	-200.000	-0.022	-0.251
-698.499	122.132	0.105	0.131
-697.485	215.285	-0.142	-0.227
-696.470	-65.947	-0.143	-0.057
-695.456	-36.094	-0.227	0.123
-694.441	111.189	0.176	-0.212
-693.426	-105.461	-0.417	-0.095
-692.412	-200.000	0.020	0.141
-691.397	299.341	-0.099	-0.184
-690.383	-200.000	-0.018	-0.226
-689.368	-200.000	-0.025	-0.270
-688.354	-24.232	-0.264	-0.158
-687.339	589.675	0.161	-0.398
-686.324	273.539	-0.012	-0.021
-685.310	-73.670	-0.115	-0.042
-684.295	800.000	0.033	0.094
-683.281	92.022	-0.168	-0.190
-682.266	-162.895	0.046	0.002
-681.251	96.962	0.131	0.151
-680.237	424.585	-0.159	0.342
-679.222	-46.562	-0.117	-0.058
-678.208	-200.000	-0.004	-0.139
-677.193	-70.169	-0.065	0.025
-676.178	64.583	0.169	-0.171
-675.164	-200.000	-0.039	-0.447
-674.149	-32.003	0.187	-0.105
-673.135	-63.724	-0.053	0.022
-672.120	-200.000	0.005	0.326
-671.105	-17.504	0.078	0.049
-670.091	800.000	-0.041	-0.176
-669.076	-145.763	-0.234	-0.021
-668.062	-16.782	-0.179	0.114
-667.047	145.413	-0.153	-0.206
-666.032	800.000	-0.040	-0.144
-665.018	-200.000	0.012	-0.079
-664.003	800.000	-0.041	0.152
-662.989	112.523	-0.061	-0.074
-661.974	-39.719	-0.279	0.146
-660.959	800.000	-0.090	-0.283
-659.945	200.423	0.191	0.294
-658.930	800.000	-0.038	0.117
-657.916	-88.516	0.166	-0.050
-656.901	-200.000	0.005	0.355
-655.886	-34.601	0.326	-0.178
-654.872	800.000	-0.038	0.118
-653.857	-42.801	-0.136	-0.069
-652.843	-200.000	0.003	-0.036
-651.828	96.063	-0.033	0.037
-650.814	-200.000	-0.042	0.187
-649.799	800.000	0.115	-0.449
-648.784	68.165	-0.105	-0.107
-647.770	3.956	-0.274	0.200
-646.755	800.000	0.154	0.448
-645.741	-129.439	-0.220	0.031
-644.726	53.442	-0.185	0.178
-643.711	90.041	-0.120	0.134
-642.697	-33.130	0.085	0.047
-641.682	-125.978	0.300	-0.045
-640.668	165.396	0.035	0.049
-639.653	-28.252	-0.596	-0.344
-638.638	50.662	-0.130	-0.123
-637.624	82.493	0.155	0.168
-636.609	604.537	-0.104	0.259
-635.595	86.534	-0.134	-0.148
-634.580	-76.313	0.053	-0.019
-633.565	-200.000	-0.015	-0.212
-632.551	151.489	-0.246	-0.334
-631.536	-200.000	-0.011	-0.094
-630.522	800.000	0.071	0.266
-629.507	47.150	0.165	0.154
-628.492	-112.166	-0.086	0.017
-627.478	800.000	-0.048	0.175
-626.463	800.000	-0.086	-0.279
-625.449	19.747	-0.241	-0.194
-624.434	56.565	-0.047	-0.045
-623.419	-99.695	-0.391	0.098
-622.405	125.719	0.134	0.169
-621.390	283.885	0.159	-0.285
-620.376	-97.720	-0.240	-0.062
-619.361	29.725	0.132	0.112
-618.346	-200.000	0.006	-0.072
-617.332	-200.000	0.035	-0.223
-616.317	-200.000	0.035	-0.163
-615.303	-200.000	-0.020	-0.307
-614.288	-200.000	-0.010	-0.133
-613.273	44.950	-0.267	0.245
-612.259	97.600	-0.152	0.175
-611.244	-123.832	-0.313	0.049
-610.230	-200.000	0.015	-0.180
-609.215	800.000	-0.048	-0.148
-608.201	-17.505	0.062	-0.039
-607.186	102.442	0.089	-0.103
-606.171	800.000	-0.040	0.150
-605.157	21.807	-0.192	0.157
-604.142	-47.809	-0.211	0.102
-603.128	-118.437	0.120	0.021
-602.113	79.213	-0.323	-0.346
-601.098	-108.215	-0.317	0.068
-600.084	558.000	0.107	-0.258
-599.069	-101.106	-0.220	0.054
-598.055	123.399	-0.038	0.048
-597.040	-102.772	-0.228	0.054
-596.025	-97.941	-0.543	0.140
-595.011	-36.604	0.265	-0.142
-593.996	168.831	-0.082	0.117
-592.982	212.063	0.192	0.302
-591.967	268.227	-0.105	-0.184
-590.952	92.365	0.147	0.166
-589.938	569.133	-0.143	-0.346
-588.923	-141.291	-0.277	-0.028
-587.909	800.000	-0.061	0.210
-586.894	800.000	0.042	-0.128
-585.879	501.431	0.086	-0.197
-584.865	-200.000	-0.015	-0.071
-583.850	-86.932	0.205	0.062
-582.836	-52.451	0.147	-0.068
-581.821	-200.000	0.026	0.173
-580.806	168.203	-0.025	-0.036
-579.792	-36.208	0.120	0.065
-578.777	-89.802	0.128	-0.037
-577.763	145.362	-0.119	-0.159
-576.748	30.956	0.102	0.087
-575.733	11.936	-0.068	0.053
-574.719	-6.196	-0.279	0.190
-573.704	-115.188	-0.388	0.073
-572.690	128.020	0.142	0.180
-571.675	363.960	0.073	-0.147
-570.661	154.818	0.038	0.052
-569.646	800.000	0.030	-0.106
-568.631	633.071	0.107	-0.271
-567.617	654.360	-0.079	-0.203
-566.602	-200.000	-0.017	-0.252
-565.588	800.000	0.047	-0.166
-564.573	-71.624	-0.175	-0.065
-563.558	90.256	0.197	-0.220
-562.544	-111.456	-0.367	0.074
-561.529	-17.640	-0.278	0.174
-560.515	-200.000	0.000	0.007
-559.500	-88.162	0.126	-0.038
-558.485	-200.000	-0.037	0.403
-557.471	-16.262	-0.112	0.071
-556.456	34.805	0.297	0.259
-555.442	50.460	0.198	0.187
-554.427	-40.204	0.210	0.109
-553.412	308.559	-0.154	-0.288
-552.398	-141.159	0.222	0.023
-551.383	34.477	-0.059	-0.051
-550.369	-173.221	0.274	0.008
-549.354	-97.984	0.331	0.085
-548.339	120.001	0.231	-0.286
-547.325	-200.000	0.014	-0.268
-546.310	68.765	-0.036	0.037
-545.296	-143.480	-0.343	-0.033
-544.281	21.528	0.176	-0.143
-543.266	-113.433	-0.234	0.046
-542.252	125.458	-0.028	0.035
-541.237	76.687	-0.113	-0.119
-540.223	249.148	-0.137	0.231
-539.208	67.196	0.089	0.090
-538.193	-81.736	0.120	-0.039
-537.179	487.699	0.121	-0.276
-536.164	-104.016	0.336	-0.078
-535.150	-142.913	-0.374	-0.036
-534.135	-53.464	0.096	0.044
-533.121	136.498	0.238	-0.309
-532.106	-165.457	-0.136	-0.006
-531.091	-91.808	-0.163	0.046
-530.077	-83.488	0.130	-0.041
-529.062	592.357	0.104	-0.256
-528.048	-200.000	-0.002	0.043
-527.033	-75.441	0.186	0.066
-526.018	94.926	0.125	0.142
-525.004	-200.000	0.008	0.054
-523.989	800.000	0.118	0.370
-522.975	-11.736	0.034	0.022
-521.960	-200.000	0.015	-0.081
-520.945	-200.000	0.060	-0.346
-519.931	-200.000	0.051	0.310
-518.916	-200.000	-0.016	-0.130
-517.902	-86.066	-0.172	0.053
-516.887	-94.975	-0.084	0.023
-515.872	192.937	-0.100	-0.150
-514.858	-68.723	-0.181	-0.070
-513.843	673.189	0.074	-0.191
-512.829	420.512	-0.129	0.276
-511.814	-161.783	0.083	0.004
-510.799	-63.272	-0.479	0.196
-509.785	-119.782	-0.017	0.003
-508.770	-119.663	0.271	-0.047
-507.756	52.533	0.094	-0.090
-506.741	196.967	-0.103	0.156
-505.726	472.872	0.079	0.178
-504.712	98.915	0.121	0.139
-503.697	-58.152	0.211	-0.091
-502.683	-4.067	-0.226	-0.156
-501.668	67.025	0.273	-0.277
-500.653	209.465	-0.074	-0.116
-499.639	800.000	-0.064	-0.215
-498.624	297.604	0.177	0.323
-497.610	445.714	0.107	-0.234
-496.595	-67.530	0.314	0.123
-495.581	81.891	-0.244	-0.263
-494.566	-14.708	-0.220	-0.141
-493.551	-22.491	-0.260	-0.157
-492.537	165.651	-0.375	0.527
-491.522	20.532	0.124	-0.100
-490.508	-128.900	-0.362	0.051
-489.493	-200.000	-0.030	-0.212
-488.478	-86.390	0.337	0.103
-487.464	48.655	-0.087	-0.081
-486.449	70.616	0.276	0.284
-485.435	-200.000	-0.028	-0.190
-484.420	-67.701	-0.191	-0.074
-483.405	800.000	0.066	0.232
-482.391	-96.342	0.279	-0.074
-481.376	26.093	0.194	-0.161
-480.362	135.411	0.092	-0.119
-479.347	-200.000	-0.035	-0.185
-478.332	-76.203	-0.162	0.057
-477.318	354.915	0.127	-0.250
-476.303	-82.911	-0.192	-0.062
-475.289	-96.930	-0.472	-0.123
-474.274	-200.000	0.031	-0.261
-473.259	-142.093	-0.239	0.024
-472.245	2.931	0.134	0.097
-471.230	225.324	-0.171	-0.275
-470.216	-50.112	-0.100	-0.047
-469.201	57.192	-0.446	-0.433
-468.186	34.705	0.160	-0.139
-467.172	-200.000	0.029	0.229
-466.157	-87.452	-0.156	-0.047
-465.143	33.012	0.129	0.111
-464.128	800.000	-0.029	0.085
-463.113	-117.621	-0.253	0.045
-462.099	126.628	0.155	0.195
-461.084	716.503	0.109	0.287
-460.070	196.938	-0.098	0.148
-459.055	41.334	-0.096	-0.086
-458.040	41.104	0.136	0.122
-457.026	-33.001	0.116	-0.064
-456.011	-82.434	-0.197	-0.064
-454.997	-13.020	0.010	0.007
-453.982	-200.000	0.019	0.215
-452.968	126.867	-0.192	0.241
-451.953	-26.552	0.141	0.082
-450.938	111.855	-0.052	-0.062
-449.924	-110.515	0.141	0.029
-448.909	219.928	0.090	0.144
-447.895	151.733	0.213	-0.288
-446.880	-7.221	0.059	0.039
-445.865	-200.000	0.029	-0.166
-444.851	188.970	0.162	-0.241
-443.836	373.611	0.144	-0.292
-442.822	6.599	0.268	-0.198
-441.807	-81.586	-0.149	0.048
-440.792	162.800	0.171	-0.238
-439.778	-31.863	-0.210	-0.117
-438.763	-58.229	-0.023	-0.010
-437.749	214.753	-0.013	0.020
-436.734	-184.969	-0.182	0.003
-435.719	-17.062	-0.087	0.055
-434.705	-49.676	-0.233	-0.110
-433.690	36.442	-0.161	-0.141
-432.676	-42.427	-0.082	0.041
-431.661	39.668	-0.135	0.121
-430.646	-32.388	-0.154	-0.085
-429.632	-26.832	-0.134	-0.078
-428.617	-167.411	0.197	-0.008
-427.603	649.415	0.034	-0.087
-426.588	-129.162	-0.160	-0.022
-425.573	-200.000	-0.017	0.076
-424.559	123.354	-0.042	0.052
-423.544	-51.034	0.353	-0.164
-422.530	-102.490	0.075	0.018
-421.515	-34.091	0.181	0.099
-420.500	-130.318	0.360	0.049
-419.486	-111.853	-0.353	-0.071
-418.471	-74.938	-0.067	0.024
-417.457	800.000	0.070	0.229
-416.442	-152.782	-0.115	-0.008
-415.428	212.160	0.063	0.099
-414.413	-40.236	0.092	0.047
-413.398	-123.551	-0.297	0.047
-412.384	-75.697	-0.124	0.044
-411.369	-200.000	0.038	-0.351
-410.355	395.167	0.040	0.084
-409.340	-200.000	0.022	-0.158
-408.325	-200.000	-0.060	0.319
-407.311	-38.153	-0.211	-0.111
-406.296	-26.830	-0.109	0.063
-405.282	174.329	0.204	0.292
-404.267	77.748	-0.197	-0.208
-403.252	131.343	-0.074	-0.094
-402.238	800.000	0.071	0.289
-401.223	-33.760	-0.151	0.082
-400.209	800.000	-0.076	0.220
-399.194	430.986	0.012	0.027
-398.179	-200.000	-0.001	0.163
-397.165	-78.578	0.013	-0.004
-396.150	59.158	-0.179	-0.175
-395.136	800.000	0.019	-0.070
-394.121	-115.480	-0.286	0.053
-393.106	688.613	-0.113	0.292
-392.092	-50.296	0.251	0.117
-391.077	-200.000	0.027	-0.179
-390.063	470.168	-0.061	0.137
-389.048	-124.951	0.424	0.065
-388.033	-200.000	0.004	0.317
-387.019	292.283	0.045	-0.082
-386.004	-200.000	0.046	-0.473
-384.990	-200.000	0.025	-0.191
-383.975	-200.000	0.008	-0.087
-382.960	-156.749	0.192	-0.012
-381.946	51.423	-0.075	-0.070
-380.931	-200.000	0.003	-0.190
-379.917	800.000	-0.035	-0.103
-378.902	-62.198	0.213	0.088
-377.888	-55.213	-0.233	0.104
-376.873	11.044	0.305	0.231
-375.858	-200.000	0.057	0.377
-374.844	210.026	-0.053	0.083
-373.829	-72.968	0.083	0.030
-372.815	54.414	-0.290	-0.276
-371.800	-9.199	-0.081	-0.053
-370.785	-81.081	0.191	-0.063
-369.771	204.082	0.134	0.205
-368.756	800.000	-0.093	0.325
-367.742	-41.296	-0.197	-0.101
-366.727	-200.000	0.011	-0.195
-365.712	47.619	-0.068	0.063
-364.698	-173.153	-0.161	-0.005
-363.683	-151.139	0.119	-0.009
-362.669	86.225	0.209	0.227
-361.654	-68.906	-0.077	-0.029
-360.639	-110.770	-0.483	-0.099
-359.625	-53.461	-0.183	-0.083
-358.610	-75.416	0.179	-0.063
-357.596	-200.000	-0.010	-0.134
-356.581	69.643	0.219	0.223
-355.566	-133.879	-0.144	0.018
-354.552	58.843	-0.094	0.092
-353.537	-98.585	-0.145	0.037
-352.523	-200.000	0.011	0.145
-351.508	-20.587	-0.148	0.090
-350.493	800.000	0.073	-0.226
-349.479	-16.961	0.155	-0.097
-348.464	38.631	0.057	-0.051
-347.450	-45.028	0.217	-0.107
-346.435	-200.000	-0.078	0.000
-345.420	-55.306	-0.049	0.022
-344.406	800.000	0.038	-0.119
-343.391	-24.461	0.216	0.127
-342.377	-5.432	0.073	-0.050
-341.362	-200.000	0.026	0.397
-340.348	-15.016	-0.144	0.091
-339.333	800.000	0.038	0.145
-338.318	-200.000	0.002	0.031
-337.304	800.000	-0.125	-0.388
-336.289	568.147	0.034	-0.082
-335.275	133.983	-0.115	0.147
-334.260	-159.921	-0.126	0.007
-333.245	19.000	0.272	0.216
-332.231	9.701	0.135	-0.101
-331.216	-70.408	-0.380	0.143
-330.202	45.979	-0.197	0.180
-329.187	472.235	-0.098	-0.219
-328.172	25.641	0.355	-0.292
-327.158	-120.256	-0.029	-0.005
-326.143	541.795	-0.072	0.170
-325.129	406.247	-0.066	0.137
-324.114	292.929	-0.174	-0.313
-323.099	-200.000	-0.006	-0.068
-322.085	800.000	-0.078	-0.244
-321.070	-119.969	0.395	-0.067
-320.056	-200.000	0.040	0.179
-319.041	34.709	-0.091	-0.079
-318.026	-200.000	-0.038	0.220
-317.012	-134.712	0.064	-0.008
-315.997	-36.667	0.203	0.108
-314.983	-95.089	-0.109	0.029
-313.968	-91.394	0.383	-0.108
-312.953	800.000	0.018	-0.077
-311.939	197.669	0.077	-0.116
-310.924	-96.014	0.072	-0.019
-309.910	-49.648	0.294	-0.138
-308.895	-200.000	0.036	0.194
-307.880	-200.000	0.054	0.292
-306.866	398.491	-0.078	0.160
-305.851	637.429	-0.110	-0.275
-304.837	800.000	-0.094	0.345
-303.822	-129.347	0.272	0.037
-302.807	119.410	-0.171	0.209
-301.793	-200.000	-0.003	-0.272
-300.778	-200.000	-0.050	-0.222
-299.764	24.584	-0.281	0.229
-298.749	406.216	-0.037	-0.076
-297.735	238.162	0.084	-0.137
-296.720	151.236	-0.080	0.107
-295.705	27.831	0.393	-0.327
-294.691	104.037	0.160	-0.186
-293.676	-55.058	-0.019	0.009
-292.662	250.075	0.239	0.400
-291.647	-46.869	-0.134	0.065
-290.632	212.154	-0.062	0.097
-289.618	-57.109	0.145	0.063
-288.603	-113.957	-0.201	0.038
-287.589	369.114	0.078	0.156
-286.574	-200.000	0.020	-0.273
-285.559	-68.574	-0.129	0.049
-284.545	-51.758	0.284	-0.130
-283.530	-139.667	0.272	-0.029
-282.516	-200.000	-0.044	0.236
-281.501	800.000	-0.033	-0.130
-280.486	-13.310	-0.100	0.064
-279.472	-89.080	0.339	0.099
-278.457	23.387	0.262	-0.212
-277.443	5.228	-0.257	-0.187
-276.428	797.709	-0.021	0.058
-275.413	800.000	0.008	-0.032
-274.399	-200.000	0.001	0.084
-273.384	-27.096	0.292	0.168
-272.370	-200.000	-0.012	-0.075
-271.355	-12.634	-0.143	0.092
-270.340	465.607	0.125	-0.275
-269.326	-200.000	0.001	0.384
-268.311	-200.000	0.018	-0.162
-267.297	-75.514	0.126	0.044
-266.282	-46.390	-0.213	0.103
-265.267	-200.000	0.013	-0.089
-264.253	-200.000	0.029	-0.180
-263.238	251.363	-0.158	0.265
-262.224	-7.087	0.251	0.168
-261.209	-81.849	0.264	-0.085
-260.195	33.814	0.185	-0.159
-259.180	45.331	0.131	-0.120
-258.165	18.649	0.277	0.218
-257.151	-133.012	0.143	-0.018
-256.136	126.995	-0.123	-0.154
-255.122	64.746	0.115	-0.114
-254.107	17.125	0.128	-0.100
-253.092	-184.688	0.141	0.002
-252.078	52.898	-0.334	-0.315
-251.063	123.181	0.100	0.123
-250.049	-200.000	0.013	-0.203
-249.034	-200.000	-0.003	-0.132
-248.019	305.484	0.227	-0.416
-247.005	122.137	0.252	-0.310
-245.990	-132.184	-0.216	-0.028
-244.976	-43.326	0.262	0.131
-243.961	439.548	-0.080	0.173
-242.946	-119.289	-0.107	-0.018
-241.932	-18.690	0.100	-0.061
-240.917	800.000	-0.034	0.105
-239.903	-149.908	-0.400	-0.031
-238.888	800.000	0.062	-0.201
-237.873	-128.786	0.314	0.044
-236.859	-200.000	0.011	0.328
-235.844	39.723	0.110	-0.097
-234.830	-200.000	-0.001	0.271
-233.815	-200.000	-0.005	0.136
-232.800	-41.615	-0.178	-0.090
-231.786	-200.000	0.022	-0.207
-230.771	29.703	0.110	0.092
-229.757	81.485	0.288	-0.307
-228.742	-155.800	0.462	-0.029
-227.727	-121.645	0.428	0.070
-226.713	-69.694	0.188	-0.071
-225.698	259.440	0.035	0.059
-224.684	318.008	0.046	0.086
-223.669	159.429	-0.041	0.056
-222.655	448.252	-0.105	-0.228
-221.640	211.914	0.142	-0.220
-220.625	-100.367	-0.226	0.055
-219.611	-125.948	0.194	-0.029
-218.596	-200.000	-0.028	-0.531
-217.582	-150.471	0.424	-0.032
-216.567	608.650	0.158	0.389
-215.552	490.431	-0.030	-0.067
-214.538	169.626	-0.195	0.275
-213.523	-200.000	0.010	0.230
-212.509	-51.965	0.239	0.109
-211.494	-12.816	-0.275	0.176
-210.479	437.359	0.140	0.301
-209.465	-22.346	0.335	0.200
-208.450	270.391	0.071	0.123
-207.436	-58.926	-0.019	-0.008
-206.421	-136.016	-0.118	-0.014
-205.406	-63.893	0.078	0.031
-204.392	78.469	-0.162	0.170
-203.377	-127.156	0.359	0.052
-202.363	-96.994	-0.163	0.042
-201.348	49.538	-0.048	-0.044
-200.333	-51.914	0.294	0.135
-199.319	45.829	0.182	-0.166
-198.304	-63.168	0.129	-0.052
-197.290	100.408	-0.264	0.301
-196.275	-74.194	-0.135	-0.048
-195.260	-175.282	-0.412	0.011
-194.246	-200.000	-0.035	-0.199
-193.231	-84.214	0.132	-0.041
-192.217	800.000	0.074	0.236
-191.202	-200.000	-0.020	0.438
-190.187	24.904	-0.004	0.003
-189.173	-200.000	-0.006	0.048
-188.158	-200.000	0.014	0.186
-187.144	800.000	-0.040	-0.147
-186.129	-164.883	-0.212	-0.009
-185.114	266.407	0.100	-0.172
-184.100	-85.644	0.360	0.110
-183.085	-9.369	0.286	0.187
-182.071	-142.332	-0.266	0.026
-181.056	111.970	0.078	0.093
-180.042	131.927	-0.214	-0.271
-179.027	599.336	0.076	0.185
-178.012	800.000	-0.080	0.229
-176.998	346.887	-0.050	-0.097
-175.983	84.047	-0.139	-0.149
-174.969	63.286	-0.252	-0.248
-173.954	15.222	-0.009	-0.007
-172.939	-126.958	-0.187	-0.027
-171.925	-200.000	-0.000	0.154
-170.910	800.000	0.097	-0.341
-169.896	-150.263	0.141	-0.011
-168.881	247.647	-0.109	0.181
-167.866	-93.527	-0.216	-0.059
-166.852	-200.000	-0.008	0.202
-165.837	438.970	-0.046	0.099
-164.823	174.832	-0.293	0.417
-163.808	800.000	-0.029	0.111
-162.793	143.003	-0.064	0.084
-161.779	0.519	-0.027	0.019
-160.764	40.218	0.189	0.167
-159.750	258.306	-0.157	0.265
-158.735	800.000	0.052	0.190
-157.720	-66.483	0.076	-0.030
-156.706	12.044	0.100	0.076
-155.691	-200.000	-0.013	-0.081
-154.677	-124.281	-0.167	0.026
-153.662	-200.000	-0.008	0.180
-152.647	-6.095	0.408	0.274
-151.633	124.155	0.047	0.058
-150.618	-58.628	0.218	-0.093
-149.604	388.761	-0.153	0.311
-148.589	-134.292	-0.043	0.005
-147.574	256.336	-0.084	-0.141
-146.560	-61.721	0.087	0.036
-145.545	219.120	-0.076	-0.120
-144.531	175.796	0.138	0.196
-143.516	225.186	0.024	-0.038
-142.502	-133.944	0.134	0.016
-141.487	47.984	-0.104	0.096
-140.472	-200.000	-0.052	0.277
-139.458	-44.919	0.095	-0.047
-138.443	314.640	-0.081	0.150
-137.429	-50.135	0.324	-0.151
-136.414	169.266	0.176	-0.247
-135.399	-165.343	-0.134	-0.006
-134.385	487.504	0.116	0.260
-133.370	800.000	-0.068	-0.218
-132.356	9.391	-0.082	-0.061
-131.341	-30.313	-0.302	0.168
-130.326	-162.642	-0.185	0.009
-129.312	658.218	-0.044	0.112
-128.297	-3.809	-0.310	0.211
-127.283	-150.047	-0.294	0.022
-126.268	303.312	-0.051	0.093
-125.253	-88.333	0.314	0.092
-124.239	800.000	-0.025	0.096
-123.224	-21.105	0.162	0.097
-122.210	-66.798	-0.040	0.015
-121.195	-59.568	0.111	0.047
