DTS Sentinel unit serial number:	SN413079Multiplexer serial number:	ORYXHardware model number:	OX4-SRSoftware version number:	ORYX F/W v4.00 Oryx Data Collector v3.7.2.0data status	okinstallation	princeton_trtdifferential loss correction	single-endedforward channel	channel 2reverse channel	N/Adate	2019/09/19time	05:55:34forward acquisition time	60.00reverse acquisition time	0.00gamma	496.2192k internal	0.2350k external	0.2350temperature offset calibration	1.0015default loss term (dB/km)	0.3790temperature slope calibration	1.0000multiplexer offset coefficient	1.0000multiplexer slope coefficient	1.0000fibre end	0.00T internal ref (°C)	19.19T ext. ref 1 (°C)	0.58T ext. ref 2 (°C)	12.77length (m)	temperature (°C)	Stokes	anti-Stokes-747.200	-100.026	0.083	0.021
-746.185	-64.959	-0.301	0.121
-745.171	-170.367	0.331	0.012
-744.156	160.892	-0.078	0.108
-743.142	-104.609	0.052	-0.012
-742.127	800.000	-0.047	0.201
-741.112	44.413	0.093	-0.085
-740.098	-170.076	-0.217	-0.008
-739.083	481.484	-0.138	0.312
-738.069	133.048	-0.080	0.104
-737.054	-6.771	-0.249	0.169
-736.039	-47.574	-0.333	0.161
-735.025	-24.879	0.166	0.098
-734.010	-127.345	-0.219	0.032
-732.996	-29.552	-0.055	0.032
-731.981	93.270	0.167	0.189
-730.966	54.600	0.186	0.179
-729.952	42.823	-0.148	0.134
-728.937	-115.071	-0.140	0.026
-727.923	-119.716	-0.243	-0.042
-726.908	-200.000	0.013	-0.285
-725.894	-200.000	-0.029	-0.497
-724.879	-39.150	-0.137	-0.072
-723.864	-70.768	-0.096	0.036
-722.850	36.934	-0.145	0.128
-721.835	-136.350	0.495	0.058
-720.821	-118.869	-0.214	-0.037
-719.806	-200.000	-0.009	0.091
-718.791	-197.497	0.259	-0.002
-717.777	-153.408	-0.283	0.020
-716.762	-112.892	-0.384	0.076
-715.748	-200.000	0.020	-0.163
-714.733	-134.905	-0.278	0.034
-713.718	415.891	0.060	0.127
-712.704	220.550	0.153	-0.245
-711.689	-15.880	-0.336	-0.213
-710.675	-174.093	0.167	-0.005
-709.660	124.136	0.049	0.062
-708.645	218.541	0.249	0.397
-707.631	80.733	-0.188	0.202
-706.616	-200.000	0.014	0.274
-705.602	-200.000	-0.026	-0.269
-704.587	381.260	0.103	-0.210
-703.572	13.858	0.337	0.261
-702.558	-63.953	0.311	-0.127
-701.543	-200.000	-0.002	-0.131
-700.529	-161.601	-0.573	0.029
-699.514	-73.270	0.198	-0.072
-698.499	443.738	0.069	0.151
-697.485	177.198	-0.242	-0.351
-696.470	800.000	-0.082	-0.269
-695.456	61.124	-0.132	0.130
-694.441	-64.840	-0.079	-0.032
-693.426	85.828	0.052	-0.057
-692.412	800.000	0.042	-0.122
-691.397	394.899	-0.202	-0.420
-690.383	35.480	-0.120	-0.105
-689.368	-200.000	-0.001	0.331
-688.354	-62.827	0.084	0.034
-687.339	53.457	0.165	0.158
-686.324	-200.000	-0.058	-0.272
-685.310	-74.592	-0.338	0.121
-684.295	800.000	-0.077	0.309
-683.281	137.752	0.055	0.072
-682.266	-200.000	0.025	0.166
-681.251	-20.817	-0.352	-0.215
-680.237	-2.272	0.052	-0.036
-679.222	-46.930	-0.099	-0.048
-678.208	126.057	-0.181	-0.228
-677.193	-110.050	-0.252	0.052
-676.178	-11.787	0.106	-0.069
-675.164	-200.000	-0.016	-0.116
-674.149	-138.296	-0.393	-0.043
-673.135	15.260	-0.222	-0.173
-672.120	-0.156	0.239	0.170
-671.105	22.018	-0.193	0.156
-670.091	59.407	-0.075	0.073
-669.076	345.699	0.048	0.094
-668.062	-5.650	0.313	-0.214
-667.047	-200.000	0.021	0.140
-666.032	-103.577	0.218	-0.051
-665.018	38.350	0.212	0.188
-664.003	70.341	-0.207	0.213
-662.989	-200.000	-0.001	0.101
-661.974	-200.000	-0.038	-0.322
-660.959	-200.000	-0.018	-0.303
-659.945	-200.000	-0.013	0.162
-658.930	-76.248	-0.071	0.025
-657.916	-17.491	-0.427	0.267
-656.901	-131.820	0.284	0.037
-655.886	-114.096	-0.442	0.085
-654.872	450.200	-0.101	-0.221
-653.857	-81.348	0.304	0.100
-652.843	-82.639	0.025	0.008
-651.828	-200.000	0.027	0.228
-650.814	-200.000	-0.008	-0.101
-649.799	-195.999	-0.532	0.004
-648.784	-2.572	-0.189	0.132
-647.770	-84.138	0.218	-0.069
-646.755	-151.324	-0.254	0.019
-645.741	-110.475	0.217	0.045
-644.726	-31.863	0.226	-0.126
-643.711	66.726	-0.088	-0.089
-642.697	-39.762	-0.195	0.101
-641.682	1.854	0.102	-0.073
-640.668	145.942	-0.079	-0.106
-639.653	-200.000	0.000	0.004
-638.638	-11.493	-0.352	-0.230
-637.624	280.002	0.103	0.183
-636.609	-120.379	0.233	-0.039
-635.595	384.959	0.032	-0.066
-634.580	-22.320	0.226	-0.136
-633.565	114.151	-0.227	-0.274
-632.551	-100.606	-0.252	0.062
-631.536	800.000	0.081	-0.295
-630.522	123.947	-0.232	0.289
-629.507	-88.793	-0.245	-0.072
-628.492	-38.545	-0.073	0.038
-627.478	408.995	-0.055	0.116
-626.463	-71.596	0.060	0.022
-625.449	305.087	0.039	-0.071
-624.434	-200.000	-0.031	0.341
-623.419	-115.615	-0.092	-0.017
-622.405	-105.513	0.144	-0.032
-621.390	800.000	-0.027	0.078
-620.376	-119.191	-0.447	-0.078
-619.361	-145.742	0.489	0.043
-618.346	1.501	0.072	0.052
-617.332	-80.220	-0.232	0.077
-616.317	-72.988	-0.085	0.031
-615.303	-104.873	0.237	0.054
-614.288	243.617	-0.010	-0.017
-613.273	-8.946	-0.174	-0.116
-612.259	214.373	0.117	-0.184
-611.244	203.072	0.160	0.246
-610.230	165.546	-0.234	-0.328
-609.215	-112.417	-0.154	-0.031
-608.201	116.878	0.087	-0.106
-607.186	800.000	0.042	-0.114
-606.171	68.378	0.253	-0.257
-605.157	458.734	0.097	-0.214
-604.142	178.775	0.103	-0.149
-603.128	267.107	-0.034	0.058
-602.113	71.220	0.291	0.300
-601.098	169.616	0.100	-0.142
-600.084	-23.227	0.176	0.105
-599.069	-13.330	-0.180	0.116
-598.055	134.521	0.237	0.306
-597.040	147.116	0.111	-0.149
-596.025	675.909	-0.127	-0.327
-595.011	119.543	0.096	0.118
-593.996	800.000	-0.053	0.178
-592.982	744.630	0.071	-0.190
-591.967	738.650	-0.115	0.306
-590.952	800.000	-0.082	0.232
-589.938	117.847	-0.181	-0.221
-588.923	636.934	-0.025	0.063
-587.909	800.000	0.023	0.065
-586.894	80.629	-0.286	0.306
-585.879	72.588	-0.169	0.174
-584.865	-121.140	-0.266	-0.044
-583.850	30.919	0.250	-0.213
-582.836	562.230	-0.094	-0.226
-581.821	-99.880	0.242	0.060
-580.806	275.263	0.148	0.261
-579.792	314.182	-0.119	0.223
-578.777	125.348	0.121	-0.151
-577.763	679.018	-0.103	0.266
-576.748	44.945	-0.266	-0.243
-575.733	-200.000	0.017	0.085
-574.719	149.164	-0.189	0.253
-573.704	-49.287	0.125	0.059
-572.690	105.090	-0.134	-0.157
-571.675	-26.181	0.160	-0.093
-570.661	-200.000	0.028	0.256
-569.646	12.317	-0.342	0.261
-568.631	54.818	0.182	-0.174
-567.617	5.925	0.147	0.108
-566.602	92.091	-0.059	-0.065
-565.588	90.177	-0.033	0.037
-564.573	535.150	0.118	0.277
-563.558	-18.615	0.170	0.105
-562.544	-200.000	-0.016	-0.078
-561.529	-16.943	-0.237	-0.148
-560.515	-88.571	0.226	-0.067
-559.500	10.261	-0.130	0.098
-558.485	-50.693	0.119	-0.055
-557.471	-71.134	-0.407	-0.152
-556.456	125.953	0.119	-0.149
-555.442	-50.569	-0.267	0.125
-554.427	-200.000	-0.048	0.300
-553.412	-106.282	0.140	0.031
-552.398	126.186	-0.118	0.148
-551.383	-26.552	0.105	-0.061
-550.369	19.402	-0.165	-0.131
-549.354	9.357	-0.085	0.064
-548.339	-200.000	-0.008	0.034
-547.325	143.043	-0.100	0.131
-546.310	-84.890	0.386	-0.120
-545.296	-200.000	-0.003	0.023
-544.281	-178.738	-0.241	-0.005
-543.266	51.653	0.313	0.295
-542.252	457.856	-0.065	0.144
-541.237	-58.869	0.118	-0.051
-540.223	-21.733	-0.190	0.115
-539.208	54.689	-0.055	0.052
-538.193	-100.724	0.301	0.074
-537.179	238.426	-0.054	-0.089
-536.164	800.000	0.143	0.483
-535.150	-10.072	0.357	0.235
-534.135	220.516	-0.147	-0.234
-533.121	4.948	-0.239	-0.174
-532.106	473.525	0.067	-0.150
-531.091	427.441	-0.218	0.465
-530.077	-107.247	-0.436	0.095
-529.062	568.577	0.029	-0.069
-528.048	8.986	-0.128	-0.096
-527.033	638.584	0.111	-0.278
-526.018	5.908	-0.177	0.129
-525.004	-67.850	0.147	0.057
-523.989	-200.000	-0.015	-0.138
-522.975	-38.125	-0.312	-0.164
-521.960	-200.000	-0.015	-0.255
-520.945	-200.000	0.049	-0.292
-519.931	151.426	0.058	-0.078
-518.916	800.000	0.043	-0.180
-517.902	-200.000	-0.044	-0.382
-516.887	253.955	0.176	-0.297
-515.872	372.314	-0.063	-0.127
-514.858	17.844	-0.269	-0.212
-513.843	-54.902	0.098	-0.044
-512.829	181.815	0.073	-0.106
-511.814	219.418	-0.198	-0.313
-510.799	-120.618	-0.248	0.042
-509.785	541.317	-0.129	-0.304
-508.770	157.458	-0.122	-0.167
-507.756	-77.878	0.268	-0.091
-506.741	-56.929	0.188	0.082
-505.726	44.157	0.190	-0.172
-504.712	-113.057	0.220	-0.043
-503.697	397.326	0.142	0.293
-502.683	-46.401	0.364	-0.177
-501.668	-167.286	-0.319	-0.013
-500.653	-200.000	-0.040	0.411
-499.639	331.726	-0.086	0.163
-498.624	-200.000	-0.045	-0.288
-497.610	224.219	-0.033	-0.052
-496.595	100.270	-0.170	-0.195
-495.581	31.415	-0.132	0.112
-494.566	-200.000	-0.067	-0.376
-493.551	-45.211	0.089	0.044
-492.537	-25.916	0.239	-0.139
-491.522	113.891	-0.185	0.222
-490.508	800.000	0.072	0.264
-489.493	56.819	0.150	0.144
-488.478	7.711	-0.180	-0.133
-487.464	-52.957	0.204	-0.093
-486.449	-3.333	0.170	-0.117
-485.435	800.000	0.036	0.104
-484.420	-200.000	0.008	0.248
-483.405	94.028	0.082	0.092
-482.391	-82.773	-0.232	-0.074
-481.376	-200.000	-0.027	0.192
-480.362	-200.000	0.000	-0.059
-479.347	-127.075	0.336	0.049
-478.332	-31.288	-0.044	0.025
-477.318	435.383	0.025	-0.053
-476.303	62.201	0.103	0.101
-475.289	-200.000	-0.049	0.239
-474.274	-90.773	-0.185	-0.053
-473.259	-86.346	0.133	-0.040
-472.245	-121.080	0.146	-0.024
-471.230	-200.000	0.082	0.395
-470.216	-200.000	0.035	-0.192
-469.201	-72.486	0.196	0.072
-468.186	-109.357	-0.102	-0.021
-467.172	800.000	0.046	0.183
-466.157	50.436	0.261	0.244
-465.143	-14.610	-0.167	-0.106
-464.128	57.810	-0.173	-0.167
-463.113	-55.015	0.120	-0.053
-462.099	800.000	-0.037	-0.110
-461.084	-200.000	-0.009	0.158
-460.070	800.000	-0.007	-0.020
-459.055	-103.937	0.179	-0.041
-458.040	-200.000	-0.046	0.199
-457.026	277.134	0.058	0.102
-456.011	708.898	0.100	0.261
-454.997	56.125	0.173	0.166
-453.982	2.376	-0.353	-0.252
-452.968	13.809	-0.040	-0.031
-451.953	-53.450	-0.185	-0.083
-450.938	-33.174	-0.208	0.114
-449.924	-77.750	0.109	-0.037
-448.909	-36.093	-0.168	-0.090
-447.895	33.785	0.169	0.145
-446.880	40.764	0.194	0.172
-445.865	800.000	0.045	0.163
-444.851	-200.000	0.052	0.251
-443.836	43.674	-0.291	-0.262
-442.822	-125.553	0.395	0.059
-441.807	1.848	0.136	-0.097
-440.792	800.000	0.046	-0.197
-439.778	33.949	0.160	0.137
-438.763	136.568	-0.407	-0.524
-437.749	800.000	-0.033	-0.090
-436.734	98.915	0.148	0.168
-435.719	-136.725	-0.249	-0.028
-434.705	-200.000	-0.043	0.212
-433.690	-200.000	-0.027	-0.161
-432.676	152.356	-0.124	-0.167
-431.661	-90.939	0.162	-0.046
-430.646	38.648	0.158	0.139
-429.632	273.588	0.022	0.039
-428.617	-200.000	0.020	0.192
-427.603	105.769	-0.083	-0.097
-426.588	-200.000	0.026	-0.472
-425.573	296.313	0.061	0.110
-424.559	-83.097	-0.131	-0.041
-423.544	66.938	-0.269	-0.270
-422.530	-15.863	0.261	0.164
-421.515	-63.692	-0.521	-0.211
-420.500	-95.309	0.204	0.054
-419.486	-200.000	0.035	0.210
-418.471	129.680	0.143	-0.180
-417.457	-162.579	-0.253	-0.012
-416.442	580.170	0.037	-0.089
-415.428	-59.525	-0.141	-0.060
-414.413	-200.000	-0.053	0.245
-413.398	800.000	0.067	0.231
-412.384	-103.063	-0.350	0.082
-411.369	-200.000	0.025	-0.184
-410.355	83.609	-0.084	-0.090
-409.340	-5.849	-0.410	-0.277
-408.325	-200.000	-0.040	-0.268
-407.311	170.015	0.181	0.256
-406.296	-200.000	0.001	0.062
-405.282	-200.000	-0.047	-0.285
-404.267	85.774	-0.070	-0.075
-403.252	-88.298	0.088	0.026
-402.238	-50.177	0.129	0.060
-401.223	-200.000	0.011	0.246
-400.209	-140.938	0.299	-0.030
-399.194	276.066	0.062	0.108
-398.179	-96.035	0.271	-0.071
-397.165	800.000	0.085	-0.352
-396.150	-200.000	-0.054	0.251
-395.136	76.374	-0.293	-0.305
-394.121	-24.401	-0.101	0.059
-393.106	-56.971	-0.287	0.125
-392.092	-200.000	-0.041	-0.342
-391.077	-18.305	-0.361	-0.222
-390.063	800.000	-0.041	-0.161
-389.048	88.112	0.195	0.213
-388.033	-166.003	-0.195	0.008
-387.019	-7.368	-0.204	0.136
-386.004	800.000	0.015	-0.048
-384.990	-200.000	0.020	-0.271
-383.975	-18.941	0.338	-0.207
-382.960	-110.740	0.196	0.040
-381.946	394.266	0.109	-0.223
-380.931	-100.039	-0.270	0.066
-379.917	-162.762	0.172	-0.008
-378.902	-142.732	-0.258	0.025
-377.888	-41.366	0.123	0.062
-376.873	-95.769	-0.168	0.044
-375.858	-7.554	0.157	0.105
-374.844	73.896	-0.113	-0.116
-373.829	-165.206	0.317	-0.014
-372.815	20.915	-0.238	0.189
-371.800	161.673	0.048	-0.066
-370.785	-47.911	0.415	0.198
-369.771	74.464	0.123	0.127
-368.756	-125.089	0.421	-0.064
-367.742	56.268	0.061	-0.058
-366.727	522.207	0.050	0.115
-365.712	-44.181	0.139	-0.069
-364.698	-13.460	-0.122	0.078
-363.683	90.562	0.242	-0.266
-362.669	212.379	-0.163	0.253
-361.654	-25.768	-0.160	-0.093
-360.639	169.888	0.095	0.133
-359.625	47.024	-0.255	0.233
-358.610	68.064	-0.202	0.203
-357.596	64.060	-0.149	-0.147
-356.581	-200.000	-0.060	0.356
-355.566	-71.432	0.209	-0.077
-354.552	-84.026	-0.043	-0.013
-353.537	-62.923	-0.150	0.061
-352.523	116.336	0.130	0.156
-351.508	-148.854	0.151	0.012
-350.493	292.491	0.081	-0.146
-349.479	38.578	-0.247	0.217
-348.464	-93.499	-0.111	0.030
-347.450	-24.501	-0.193	0.113
-346.435	-200.000	0.009	0.137
-345.420	-200.000	0.012	-0.071
-344.406	800.000	0.060	-0.254
-343.391	-68.258	-0.314	0.120
-342.377	13.153	-0.144	-0.110
-341.362	2.112	-0.112	0.080
-340.348	-153.742	0.233	-0.016
-339.333	300.169	-0.115	0.208
-338.318	80.189	0.127	-0.134
-337.304	28.525	-0.178	-0.148
-336.289	-144.520	0.112	-0.010
-335.275	302.351	0.081	0.147
-334.260	75.703	-0.068	0.071
-333.245	257.863	0.077	0.130
-332.231	-99.244	0.399	0.099
-331.216	-200.000	0.008	-0.188
-330.202	77.868	0.053	-0.055
-329.187	-125.969	0.154	-0.023
-328.172	-125.170	0.361	-0.054
-327.158	-165.866	0.108	-0.005
-326.143	8.290	0.101	0.075
-325.129	-14.824	-0.330	-0.208
-324.114	-25.756	-0.172	0.099
-323.099	-138.106	0.144	0.016
-322.085	-159.175	-0.226	0.012
-321.070	-3.396	-0.246	0.168
-320.056	233.530	0.275	0.444
-319.041	-80.990	0.397	-0.129
-318.026	800.000	0.053	0.164
-317.012	-200.000	0.038	-0.203
-315.997	-200.000	-0.022	0.191
-314.983	-200.000	0.032	0.279
-313.968	-200.000	-0.012	-0.105
-312.953	200.501	0.101	-0.153
-311.939	267.225	0.162	-0.277
-310.924	-28.181	-0.117	0.067
-309.910	-158.130	0.409	-0.024
-308.895	227.675	0.096	0.152
-307.880	-200.000	-0.031	-0.253
-306.866	-54.371	0.335	-0.149
-305.851	-106.526	0.087	-0.019
-304.837	800.000	0.038	0.135
-303.822	-124.035	-0.468	0.072
-302.807	-57.136	0.234	0.101
-301.793	2.200	0.100	0.071
-300.778	32.265	-0.243	0.206
-299.764	-92.990	0.338	-0.093
-298.749	-36.796	0.147	-0.077
-297.735	-110.014	0.072	0.015
-296.720	302.428	-0.090	0.164
-295.705	-200.000	0.002	0.194
-294.691	-200.000	-0.115	0.000
-293.676	-200.000	-0.053	-0.263
-292.662	-114.424	0.260	0.049
-291.647	49.393	-0.097	0.089
-290.632	-200.000	0.028	-0.192
-289.618	-200.000	0.023	0.166
-288.603	-200.000	-0.032	0.147
-287.589	-154.408	-0.252	-0.017
-286.574	329.222	0.160	0.301
-285.559	21.833	-0.148	-0.118
-284.545	161.831	0.171	-0.235
-283.530	-122.639	-0.276	0.044
-282.516	-200.000	-0.021	0.216
-281.501	-200.000	-0.019	0.223
-280.486	186.139	-0.416	0.607
-279.472	121.521	0.029	0.036
-278.457	-101.001	0.334	-0.080
-277.443	-110.539	-0.023	-0.005
-276.428	475.244	-0.117	0.258
-275.413	-200.000	-0.008	0.268
-274.399	52.226	0.041	-0.039
-273.384	263.742	0.278	-0.474
-272.370	800.000	0.098	-0.287
-271.355	-172.303	0.141	-0.004
-270.340	67.248	-0.017	-0.017
-269.326	-42.244	-0.124	-0.062
-268.311	18.886	0.081	0.064
-267.297	-148.292	-0.046	-0.004
-266.282	-132.227	-0.151	0.019
-265.267	-200.000	-0.058	-0.324
-264.253	585.130	-0.241	-0.579
-263.238	-200.000	0.023	-0.254
-262.224	-200.000	-0.062	-0.323
-261.209	-114.626	0.135	0.025
-260.195	309.854	0.158	0.290
-259.180	-65.348	0.116	-0.046
-258.165	169.072	-0.212	0.296
-257.151	5.692	-0.148	-0.107
-256.136	-21.894	0.182	-0.108
-255.122	182.125	-0.182	0.263
-254.107	-112.850	-0.243	0.047
-253.092	-167.108	0.442	-0.018
-252.078	414.320	0.207	-0.431
-251.063	-52.846	-0.126	0.057
-250.049	-200.000	0.018	0.102
-249.034	-68.400	0.258	-0.098
-248.019	2.839	0.106	0.076
-247.005	-125.897	0.175	-0.026
-245.990	-47.190	-0.461	-0.220
-244.976	-200.000	0.093	-0.517
-243.961	-116.743	-0.563	-0.101
-242.946	-3.129	-0.186	0.127
-241.932	272.811	-0.151	-0.260
-240.917	-67.960	-0.303	-0.116
-239.903	-50.952	0.379	-0.174
-238.888	-200.000	-0.027	-0.195
-237.873	146.084	0.215	0.283
-236.859	-200.000	-0.005	-0.218
-235.844	170.700	-0.120	-0.168
-234.830	-22.383	-0.085	-0.050
-233.815	-200.000	-0.002	-0.337
-232.800	-74.993	0.192	0.067
-231.786	15.528	-0.321	-0.247
-230.771	13.262	0.072	-0.055
-229.757	800.000	0.120	0.440
-228.742	-200.000	0.009	0.131
-227.727	-4.908	-0.147	-0.099
-226.713	-42.583	0.276	0.137
-225.698	123.844	0.132	0.162
-224.684	-81.175	0.417	0.135
-223.669	79.979	0.095	-0.100
-222.655	273.059	0.203	0.350
-221.640	-200.000	-0.010	-0.191
-220.625	-200.000	0.117	-0.531
-219.611	-200.000	0.075	-0.334
-218.596	426.337	0.088	0.185
-217.582	-133.235	-0.239	0.030
-216.567	-200.000	-0.001	0.261
-215.552	-32.811	-0.232	-0.126
-214.538	-124.172	-0.172	-0.026
-213.523	-80.087	-0.358	0.117
-212.509	-144.355	0.202	-0.018
-211.494	800.000	-0.070	0.232
-210.479	-150.438	-0.034	0.003
-209.465	-41.695	-0.067	-0.034
-208.450	21.268	0.122	0.097
-207.436	378.577	-0.080	-0.160
-206.421	-77.163	-0.261	0.089
-205.406	-7.015	0.252	0.167
-204.392	-200.000	0.012	0.267
-203.377	-200.000	0.007	0.135
-202.363	-76.625	0.085	-0.029
-201.348	-0.581	-0.259	-0.179
-200.333	458.383	0.036	0.078
-199.319	123.917	0.146	0.179
-198.304	-200.000	-0.216	0.000
-197.290	34.428	-0.063	-0.053
-196.275	-200.000	-0.016	-0.125
-195.260	-2.525	0.179	0.122
-194.246	231.311	0.196	0.313
-193.231	93.502	-0.177	0.196
-192.217	29.662	0.052	0.043
-191.202	246.642	-0.090	-0.149
-190.187	-200.000	0.024	0.145
-189.173	156.358	0.188	-0.253
-188.158	-170.690	-0.155	0.005
-187.144	-28.164	-0.094	0.053
-186.129	-81.150	0.116	-0.037
-185.114	-72.509	-0.169	0.061
-184.100	-75.173	0.108	0.038
-183.085	-69.057	0.118	-0.044
-182.071	10.690	0.227	0.169
-181.056	800.000	-0.028	-0.113
-180.042	47.651	-0.231	0.210
-179.027	-200.000	0.050	0.380
-178.012	43.757	-0.103	0.092
-176.998	-200.000	0.008	-0.079
-175.983	-200.000	-0.002	-0.030
-174.969	22.379	0.229	0.183
-173.954	-95.241	0.251	0.066
-172.939	277.842	0.025	-0.044
-171.925	-200.000	-0.005	-0.239
-170.910	23.930	0.205	-0.165
-169.896	-128.762	0.226	-0.031
-168.881	30.610	-0.210	0.175
-167.866	41.500	0.153	-0.135
-166.852	-93.242	0.203	0.055
-165.837	594.351	-0.160	-0.385
-164.823	-116.245	-0.161	-0.029
-163.808	75.735	0.244	0.251
-162.793	53.088	-0.250	-0.233
-161.779	-92.823	0.054	-0.015
-160.764	44.459	-0.214	0.192
-159.750	-93.925	0.080	-0.021
-158.735	348.100	0.055	-0.105
-157.720	-148.330	0.100	0.008
-156.706	-26.622	-0.137	0.078
-155.691	47.683	0.133	-0.121
-154.677	101.550	-0.061	-0.069
-153.662	-77.191	-0.319	-0.108
-152.647	800.000	0.122	0.350
-151.633	354.941	0.077	0.148
-150.618	-154.347	0.041	0.003
-149.604	114.747	-0.092	0.110
-148.589	168.047	0.189	-0.262
-147.574	-6.804	0.042	-0.028
-146.560	42.942	0.192	0.171
-145.545	-33.610	-0.311	0.168
-144.531	-78.791	-0.272	-0.090
-143.516	9.712	-0.106	-0.078
-142.502	-200.000	0.024	-0.150
-141.487	-79.557	0.139	-0.046
-140.472	-104.243	0.398	0.090
-139.458	-91.228	0.077	-0.022
-138.443	83.758	0.156	-0.166
-137.429	-200.000	0.004	0.111
-136.414	-1.359	-0.155	-0.106
-135.399	-163.140	-0.414	0.019
-134.385	800.000	0.057	0.226
-133.370	31.406	-0.104	0.087
-132.356	-107.813	0.296	0.063
-131.341	-114.516	-0.136	-0.025
-130.326	-200.000	-0.017	0.384
-129.312	800.000	-0.035	0.133
-128.297	-200.000	0.054	0.257
-127.283	524.395	0.102	0.234
-126.268	104.524	0.216	-0.248
-125.253	-200.000	0.014	-0.343
-124.239	-7.248	0.077	-0.051
-123.224	-100.142	-0.371	-0.090
-122.210	169.814	0.141	-0.196
-121.195	-200.000	-0.009	-0.069
-120.180	-59.428	-0.225	-0.094
