DTS Sentinel unit serial number:	SN413079Multiplexer serial number:	ORYXHardware model number:	OX4-SRSoftware version number:	ORYX F/W v4.00 Oryx Data Collector v3.7.2.0data status	okinstallation	princeton_trtdifferential loss correction	single-endedforward channel	channel 2reverse channel	N/Adate	2019/09/15time	09:07:35forward acquisition time	60.00reverse acquisition time	0.00gamma	496.2192k internal	0.2318k external	0.2318temperature offset calibration	1.0015default loss term (dB/km)	0.3790temperature slope calibration	1.0000multiplexer offset coefficient	1.0000multiplexer slope coefficient	1.0000fibre end	0.00T internal ref (°C)	33.00T ext. ref 1 (°C)	4.97T ext. ref 2 (°C)	30.17length (m)	temperature (°C)	Stokes	anti-Stokes-747.200	141.090	0.176	0.236
-746.185	-200.000	-0.011	0.146
-745.171	198.175	0.045	0.069
-744.156	-123.189	-0.317	0.051
-743.142	-89.192	0.091	0.027
-742.127	-110.999	-0.262	0.055
-741.112	-139.999	-0.208	-0.022
-740.098	74.371	0.083	0.088
-739.083	-200.000	-0.024	-0.241
-738.069	-46.052	0.211	0.105
-737.054	-200.000	0.033	-0.178
-736.039	-113.961	-0.138	-0.027
-735.025	-200.000	0.045	0.385
-734.010	36.441	0.284	-0.254
-732.996	-42.334	-0.226	-0.117
-731.981	620.437	-0.019	0.048
-730.966	-200.000	0.293	0.001
-729.952	32.324	-0.062	0.054
-728.937	669.390	-0.048	-0.125
-727.923	-200.000	-0.046	0.268
-726.908	173.451	-0.064	0.094
-725.894	-39.470	-0.354	0.187
-724.879	800.000	-0.021	0.068
-723.864	-200.000	0.007	-0.097
-722.850	-200.000	-0.059	0.543
-721.835	-200.000	-0.001	0.013
-720.821	-118.087	-0.166	0.030
-719.806	80.988	0.315	-0.344
-718.791	-200.000	-0.007	-0.264
-717.777	-132.311	0.151	-0.020
-716.762	-200.000	-0.019	-0.229
-715.748	65.069	-0.121	0.123
-714.733	656.200	-0.158	-0.410
-713.718	495.786	-0.131	-0.303
-712.704	415.674	-0.080	-0.171
-711.689	120.460	0.198	-0.248
-710.675	-157.652	0.292	-0.018
-709.660	353.665	-0.135	0.272
-708.645	-132.841	0.307	-0.040
-707.631	401.479	-0.036	0.077
-706.616	-185.561	-0.237	-0.004
-705.602	800.000	-0.095	0.285
-704.587	26.197	0.177	-0.149
-703.572	800.000	0.072	-0.290
-702.558	-159.250	0.315	-0.018
-701.543	300.790	0.080	0.150
-700.529	209.845	-0.029	-0.046
-699.514	-59.397	-0.399	0.173
-698.499	-36.426	-0.104	-0.057
-697.485	81.907	0.068	0.075
-696.470	-151.799	0.233	-0.017
-695.456	-114.861	-0.665	-0.128
-694.441	-161.629	-0.168	-0.009
-693.426	-18.525	0.151	0.095
-692.412	-200.000	0.038	-0.196
-691.397	51.428	0.187	-0.179
-690.383	-200.000	-0.053	0.280
-689.368	-95.668	0.075	0.020
-688.354	-145.807	0.073	0.007
-687.339	-200.000	0.086	-0.381
-686.324	-59.522	-0.100	0.043
-685.310	-74.815	-0.275	0.100
-684.295	-99.097	-0.466	-0.119
-683.281	103.020	0.054	0.064
-682.266	-147.390	-0.159	0.014
-681.251	-24.521	-0.249	0.149
-680.237	-200.000	-0.010	-0.249
-679.222	-18.723	-0.442	-0.278
-678.208	13.383	0.134	-0.105
-677.193	467.470	-0.042	0.095
-676.178	-59.344	-0.387	-0.168
-675.164	19.930	-0.124	-0.101
-674.149	-42.907	-0.142	-0.073
-673.135	115.672	-0.043	0.053
-672.120	-81.166	-0.038	0.013
-671.105	800.000	0.045	0.148
-670.091	306.554	0.055	-0.103
-669.076	-81.534	-0.345	-0.114
-668.062	132.895	-0.132	-0.172
-667.047	-200.000	-0.004	-0.378
-666.032	-10.490	-0.171	0.114
-665.018	-31.692	0.030	-0.017
-664.003	-99.907	-0.233	-0.059
-662.989	-23.775	-0.155	0.094
-661.974	-121.117	0.259	-0.044
-660.959	148.941	-0.016	-0.022
-659.945	32.266	-0.149	0.129
-658.930	-34.372	-0.498	0.276
-657.916	1.840	-0.210	0.153
-656.901	-200.000	-0.031	-0.198
-655.886	-200.000	0.022	-0.221
-654.872	115.964	-0.272	-0.336
-653.857	-58.722	-0.146	0.064
-652.843	800.000	-0.106	-0.338
-651.828	235.242	0.130	-0.216
-650.814	-200.000	-0.034	0.433
-649.799	-3.736	-0.256	-0.179
-648.784	-125.105	-0.186	0.029
-647.770	-92.162	0.233	-0.066
-646.755	499.261	0.076	-0.176
-645.741	-200.000	-0.009	-0.060
-644.726	800.000	-0.068	-0.232
-643.711	-4.804	-0.187	-0.130
-642.697	314.471	0.069	0.131
-641.682	-200.000	-0.014	0.265
-640.668	-133.763	-0.335	0.042
-639.653	-200.000	0.057	0.289
-638.638	800.000	0.089	-0.257
-637.624	39.495	0.190	-0.172
-636.609	-34.257	0.187	0.103
-635.595	146.448	-0.211	-0.285
-634.580	-24.026	0.323	0.195
-633.565	382.371	-0.042	-0.087
-632.551	314.166	0.135	-0.255
-631.536	800.000	-0.017	0.060
-630.522	-200.000	0.019	-0.265
-629.507	112.011	0.134	-0.163
-628.492	-111.352	-0.195	0.040
-627.478	357.156	0.085	0.170
-626.463	800.000	0.020	0.075
-625.449	-200.000	0.042	-0.304
-624.434	388.496	0.127	0.265
-623.419	-104.351	-0.101	0.024
-622.405	800.000	0.146	-0.499
-621.390	-200.000	0.036	0.243
-620.376	574.673	-0.073	-0.180
-619.361	-94.996	0.436	0.119
-618.346	-198.374	-0.225	0.001
-617.332	385.419	0.083	-0.172
-616.317	118.836	-0.185	-0.230
-615.303	750.572	-0.022	-0.060
-614.288	-183.479	-0.338	0.006
-613.273	-94.676	0.090	-0.025
-612.259	117.468	-0.037	-0.045
-611.244	189.381	0.090	0.136
-610.230	467.508	0.110	0.248
-609.215	690.620	0.127	0.336
-608.201	45.582	0.107	0.100
-607.186	17.926	-0.147	0.118
-606.171	-101.847	-0.246	0.060
-605.157	120.030	0.215	-0.268
-604.142	38.021	0.032	-0.028
-603.128	800.000	0.056	-0.230
-602.113	109.963	-0.162	0.196
-601.098	224.686	-0.103	0.168
-600.084	515.398	0.125	-0.293
-599.069	800.000	0.044	-0.164
-598.055	-103.829	0.376	0.089
-597.040	247.636	-0.015	0.025
-596.025	456.615	-0.111	-0.247
-595.011	120.442	-0.035	0.043
-593.996	442.758	0.072	0.160
-592.982	800.000	0.057	0.233
-591.967	-105.535	0.312	-0.071
-590.952	-54.317	-0.019	-0.009
-589.938	800.000	-0.051	-0.182
-588.923	48.930	0.392	0.370
-587.909	-200.000	0.038	-0.203
-586.894	-200.000	0.066	-0.307
-585.879	-67.494	-0.101	0.040
-584.865	-150.453	-0.026	0.002
-583.850	800.000	0.077	-0.249
-582.836	-52.456	-0.062	-0.029
-581.821	-64.401	-0.231	0.095
-580.806	-49.578	-0.140	-0.067
-579.792	-17.305	-0.122	-0.077
-578.777	-112.784	-0.073	0.015
-577.763	389.253	-0.110	-0.229
-576.748	393.164	0.111	0.233
-575.733	-200.000	-0.011	0.093
-574.719	-99.980	0.273	-0.068
-573.704	173.100	0.046	0.067
-572.690	-69.087	-0.127	0.049
-571.675	127.899	0.069	0.089
-570.661	-200.000	0.055	0.240
-569.646	-200.000	-0.032	0.457
-568.631	-23.237	-0.335	0.203
-567.617	800.000	-0.067	-0.285
-566.602	126.018	0.191	-0.242
-565.588	-200.000	0.008	0.256
-564.573	800.000	0.026	-0.075
-563.558	69.646	0.179	-0.186
-562.544	-123.852	-0.391	-0.062
-561.529	-68.167	-0.144	-0.056
-560.515	428.319	-0.120	0.261
-559.500	-93.739	0.094	0.026
-558.485	-153.488	-0.139	0.010
-557.471	-200.000	0.054	-0.282
-556.456	-200.000	0.012	-0.292
-555.442	-200.000	0.015	-0.067
-554.427	193.368	-0.059	-0.090
-553.412	557.414	-0.056	-0.135
-552.398	-200.000	0.019	-0.306
-551.383	800.000	0.036	-0.146
-550.369	12.648	-0.112	-0.087
-549.354	800.000	-0.156	-0.540
-548.339	-121.096	0.496	-0.083
-547.325	225.004	-0.075	0.122
-546.310	-130.968	-0.301	0.040
-545.296	-108.432	-0.137	0.030
-544.281	511.647	-0.108	-0.254
-543.266	18.101	-0.226	-0.181
-542.252	622.226	0.044	-0.112
-541.237	-120.179	0.134	-0.023
-540.223	-200.000	-0.126	-0.001
-539.208	800.000	0.075	0.223
-538.193	-68.979	0.206	-0.080
-537.179	-47.923	0.146	0.071
-536.164	-81.517	-0.169	0.056
-535.150	27.361	-0.085	0.072
-534.135	270.281	-0.081	0.142
-533.121	-36.441	-0.194	-0.105
-532.106	-200.000	0.028	-0.251
-531.091	-129.697	-0.318	-0.044
-530.077	407.364	0.039	0.083
-529.062	504.500	-0.050	-0.117
-528.048	26.366	0.380	0.319
-527.033	-152.220	-0.189	0.014
-526.018	800.000	-0.085	-0.271
-525.004	800.000	-0.105	-0.353
-523.989	-29.069	0.075	-0.043
-522.975	190.356	0.053	0.079
-521.960	288.837	0.080	-0.145
-520.945	34.231	0.053	0.046
-519.931	-200.000	-0.001	-0.322
-518.916	5.088	-0.188	-0.139
-517.902	117.613	-0.046	0.057
-516.887	141.985	-0.052	0.069
-515.872	-115.698	0.474	0.089
-514.858	-40.236	-0.081	0.042
-513.843	-162.083	0.095	0.005
-512.829	206.548	-0.191	0.298
-511.814	-29.746	0.182	-0.104
-510.799	430.789	-0.166	0.361
-509.785	-200.000	0.002	0.029
-508.770	-129.667	0.220	0.030
-507.756	-48.587	-0.212	-0.102
-506.741	-35.346	0.185	0.101
-505.726	31.667	0.231	-0.199
-504.712	-122.232	0.100	0.016
-503.697	258.094	-0.111	-0.192
-502.683	-64.760	-0.208	-0.084
-501.668	-116.363	0.286	0.053
-500.653	92.373	-0.136	0.154
-499.639	39.532	-0.220	0.198
-498.624	-56.947	-0.312	-0.138
-497.610	-48.430	-0.244	-0.118
-496.595	30.011	-0.198	-0.169
-495.581	469.006	0.149	-0.336
-494.566	-5.370	-0.186	0.128
-493.551	37.288	0.163	-0.145
-492.537	-200.000	0.015	-0.175
-491.522	-89.145	-0.225	-0.067
-490.508	800.000	0.089	-0.328
-489.493	334.714	0.150	0.291
-488.478	266.411	0.132	-0.231
-487.464	243.665	0.084	0.141
-486.449	-200.000	-0.040	0.423
-485.435	85.908	-0.034	0.037
-484.420	-200.000	0.003	0.079
-483.405	22.952	-0.165	0.136
-482.391	141.727	-0.196	0.260
-481.376	235.156	0.076	0.125
-480.362	800.000	0.023	0.081
-479.347	800.000	-0.077	0.229
-478.332	332.252	0.036	0.070
-477.318	-148.499	0.160	0.013
-476.303	-185.095	-0.291	0.005
-475.289	-107.171	-0.084	-0.018
-474.274	800.000	0.112	0.371
-473.259	357.566	-0.061	-0.122
-472.245	800.000	0.105	-0.306
-471.230	225.826	-0.074	0.121
-470.216	-200.000	-0.059	0.428
-469.201	-73.593	0.291	-0.106
-468.186	-26.541	0.371	-0.218
-467.172	-200.000	0.033	0.423
-466.157	111.052	0.063	0.076
-465.143	-95.955	-0.129	-0.034
-464.128	-133.819	-0.107	-0.013
-463.113	-200.000	-0.017	0.081
-462.099	-109.232	0.291	0.062
-461.084	420.250	-0.110	0.236
-460.070	-52.738	-0.052	0.024
-459.055	-101.468	-0.136	0.033
-458.040	-60.139	-0.046	-0.019
-457.026	80.564	-0.090	0.097
-456.011	42.754	0.030	0.027
-454.997	340.432	0.060	-0.116
-453.982	-50.316	-0.273	0.129
-452.968	14.042	0.178	0.139
-451.953	45.854	0.075	0.069
-450.938	800.000	0.066	0.210
-449.924	685.754	-0.165	-0.432
-448.909	-200.000	0.005	0.224
-447.895	468.907	0.171	0.383
-446.880	-91.410	0.287	-0.082
-445.865	-118.188	0.120	0.021
-444.851	800.000	0.084	0.318
-443.836	-93.483	-0.099	-0.027
-442.822	489.816	0.044	0.102
-441.807	172.709	0.118	0.171
-440.792	-200.000	-0.011	0.202
-439.778	231.914	0.117	0.192
-438.763	-127.636	-0.100	0.014
-437.749	-147.665	0.156	-0.013
-436.734	176.386	0.096	0.140
-435.719	-129.113	0.164	-0.023
-434.705	203.783	0.056	-0.086
-433.690	216.122	0.197	0.313
-432.676	235.568	-0.095	0.156
-431.661	-61.410	0.214	0.090
-430.646	-130.502	-0.379	-0.051
-429.632	118.409	0.157	-0.194
-428.617	800.000	0.076	-0.246
-427.603	-200.000	0.012	0.264
-426.588	114.466	-0.218	0.265
-425.573	-75.493	0.261	-0.093
-424.559	-200.000	-0.009	-0.057
-423.544	-149.337	-0.338	-0.027
-422.530	800.000	0.039	0.125
-421.515	800.000	0.030	-0.120
-420.500	175.732	-0.091	0.132
-419.486	58.170	0.105	0.103
-418.471	81.564	0.192	0.208
-417.457	-66.900	0.296	-0.117
-416.442	-115.042	0.193	0.037
-415.428	140.618	0.085	0.112
-414.413	-98.124	-0.125	0.032
-413.398	76.181	-0.114	0.121
-412.384	105.943	-0.023	-0.027
-411.369	-162.897	0.346	-0.017
-410.355	800.000	-0.052	0.146
-409.340	-200.000	-0.031	-0.244
-408.325	31.840	-0.098	-0.084
-407.311	188.909	-0.059	0.088
-406.296	-164.026	0.238	-0.011
-405.282	-200.000	0.013	0.255
-404.267	414.701	0.059	-0.125
-403.252	173.760	-0.172	0.248
-402.238	203.067	0.087	0.134
-401.223	-138.900	0.166	0.018
-400.209	17.801	0.133	-0.106
-399.194	364.823	0.102	0.205
-398.179	293.671	-0.103	0.188
-397.165	-200.000	-0.006	0.044
-396.150	186.044	-0.200	0.297
-395.136	800.000	0.043	0.158
-394.121	800.000	0.101	-0.294
-393.106	-200.000	0.011	-0.286
-392.092	-20.498	-0.150	0.092
-391.077	273.353	0.233	0.411
-390.063	475.784	-0.049	-0.110
-389.048	-165.044	-0.161	-0.007
-388.033	348.718	-0.186	0.366
-387.019	31.686	-0.071	-0.061
-386.004	-146.354	0.431	0.038
-384.990	-45.485	0.041	-0.020
-383.975	-105.211	0.360	0.082
-382.960	-200.000	0.028	-0.141
-381.946	561.065	0.022	-0.054
-380.931	267.765	-0.084	-0.146
-379.917	-200.000	0.041	0.199
-378.902	-108.328	-0.330	0.071
-377.888	-150.369	0.269	0.021
-376.873	-200.000	0.016	0.128
-375.858	219.364	-0.166	-0.265
-374.844	-8.586	-0.084	0.056
-373.829	138.061	0.097	0.127
-372.815	43.111	0.113	-0.103
-371.800	-200.000	0.014	-0.136
-370.785	123.093	0.109	-0.137
-369.771	2.002	0.193	0.139
-368.756	196.195	-0.041	-0.063
-367.742	281.152	-0.174	-0.311
-366.727	-200.000	0.010	-0.101
-365.712	-200.000	0.012	0.234
-364.698	15.631	0.063	-0.050
-363.683	94.521	-0.178	-0.201
-362.669	-133.846	-0.119	-0.015
-361.654	61.573	0.134	0.133
-360.639	327.022	-0.075	0.144
-359.625	-96.537	-0.241	-0.063
-358.610	176.103	0.047	0.067
-357.596	-40.202	-0.167	0.087
-356.581	-56.826	0.361	-0.159
-355.566	-71.966	-0.221	-0.082
-354.552	372.665	0.042	-0.085
-353.537	-104.422	-0.074	0.017
-352.523	-200.000	0.051	-0.231
-351.508	138.025	-0.065	0.085
-350.493	57.879	-0.067	-0.066
-349.479	-74.712	0.079	0.028
-348.464	194.757	-0.282	0.427
-347.450	50.720	-0.235	0.222
-346.435	-70.551	-0.655	0.247
-345.420	-32.908	-0.158	0.087
-344.406	-47.778	0.324	-0.157
-343.391	-69.227	-0.439	-0.168
-342.377	610.867	-0.162	-0.404
-341.362	-55.580	0.147	-0.065
-340.348	556.664	0.149	-0.357
-339.333	15.667	0.167	0.131
-338.318	800.000	-0.084	0.351
-337.304	800.000	0.026	0.092
-336.289	0.680	-0.332	-0.237
-335.275	421.244	0.040	0.086
-334.260	-48.711	-0.160	0.077
-333.245	111.193	0.273	-0.328
-332.231	-94.053	0.270	-0.074
-331.216	-130.768	-0.370	-0.049
-330.202	29.330	0.076	-0.065
-329.187	-37.940	0.363	-0.192
-328.172	170.014	-0.059	0.084
-327.158	800.000	0.070	-0.229
-326.143	-200.000	-0.018	-0.273
-325.129	-58.435	-0.034	0.015
-324.114	-200.000	0.003	-0.189
-323.099	421.822	0.094	-0.201
-322.085	302.646	0.117	-0.216
-321.070	309.917	-0.083	-0.154
-320.056	-179.551	-0.121	0.003
-319.041	-200.000	-0.010	0.069
-318.026	-71.502	-0.112	-0.042
-317.012	-159.267	0.209	-0.012
-315.997	257.197	0.149	0.255
-314.983	-200.000	-0.034	0.301
-313.968	50.675	-0.054	-0.051
-312.953	-78.759	0.165	0.056
-311.939	-45.004	0.552	0.273
-310.924	276.637	-0.121	-0.214
-309.910	800.000	0.154	0.440
-308.895	9.653	-0.269	0.203
-307.880	-81.232	0.449	0.148
-306.866	503.711	0.017	0.038
-305.851	-142.738	-0.230	-0.022
-304.837	2.901	-0.243	0.175
-303.822	-98.979	0.214	0.054
-302.807	48.871	-0.178	-0.166
-301.793	-200.000	0.158	0.000
-300.778	-200.000	-0.013	0.086
-299.764	64.216	-0.105	-0.105
-298.749	-9.596	-0.121	-0.080
-297.735	351.980	-0.083	-0.163
-296.720	-56.644	0.085	-0.038
-295.705	800.000	0.075	0.277
-294.691	-128.715	0.238	0.033
-293.676	800.000	-0.072	0.237
-292.662	3.889	-0.303	0.220
-291.647	-108.945	0.286	0.061
-290.632	-51.407	-0.122	-0.057
-289.618	-200.000	0.001	0.041
-288.603	75.224	-0.419	-0.439
-287.589	-113.031	-0.112	0.022
-286.574	167.807	-0.197	-0.279
-285.559	-15.461	0.113	-0.072
-284.545	-200.000	-0.063	0.443
-283.530	-47.377	0.122	-0.059
-282.516	-200.000	-0.033	0.145
-281.501	-139.923	-0.335	-0.035
-280.486	-200.000	0.037	-0.175
-279.472	-98.956	-0.229	0.058
-278.457	-96.709	-0.161	-0.042
-277.443	-30.318	0.192	0.108
-276.428	36.955	0.175	0.154
-275.413	431.770	0.071	0.153
-274.399	132.772	-0.225	-0.289
-273.384	-28.142	-0.154	-0.089
-272.370	103.014	-0.213	-0.248
-271.355	11.102	0.093	-0.071
-270.340	-7.143	-0.267	-0.180
-269.326	163.721	-0.110	-0.153
-268.311	-200.000	-0.031	0.186
-267.297	-41.613	0.391	0.199
-266.282	22.498	-0.159	0.129
-265.267	311.127	0.034	-0.063
-264.253	-200.000	0.007	-0.041
-263.238	572.738	0.037	0.090
-262.224	-200.000	0.071	0.000
-261.209	84.164	-0.091	0.099
-260.195	-83.355	0.245	0.078
-259.180	-111.119	-0.224	0.046
-258.165	-10.854	-0.228	-0.149
-257.151	62.384	-0.315	-0.312
-256.136	-145.257	0.123	0.011
-255.122	41.854	-0.307	-0.276
-254.107	17.682	0.074	0.059
-253.092	-200.000	-0.028	0.151
-252.078	85.848	-0.118	-0.129
-251.063	-163.276	-0.118	0.006
-250.049	-200.000	-0.025	0.177
-249.034	-200.000	-0.015	0.099
-248.019	350.081	-0.162	0.318
-247.005	-100.885	0.453	-0.111
-245.990	-105.159	-0.188	-0.043
-244.976	-53.752	-0.041	-0.019
-243.961	56.987	0.042	-0.040
-242.946	800.000	-0.096	0.296
-241.932	-111.870	0.313	-0.063
-240.917	-200.000	0.047	-0.269
-239.903	356.695	-0.091	-0.181
-238.888	-29.477	0.295	-0.168
-237.873	19.679	-0.103	-0.082
-236.859	-44.305	-0.104	-0.052
-235.844	-200.000	0.047	-0.205
-234.830	202.118	-0.171	0.261
-233.815	-66.236	-0.091	0.036
-232.800	-200.000	0.083	0.412
-231.786	-200.000	0.012	-0.305
-230.771	111.355	0.321	-0.384
-229.757	275.889	0.150	-0.263
-228.742	-17.617	-0.350	0.218
-227.727	-95.953	0.134	0.035
-226.713	19.628	0.112	-0.089
-225.698	-74.496	-0.212	-0.076
-224.684	68.152	-0.042	0.043
-223.669	-200.000	0.090	0.412
-222.655	11.233	0.334	0.253
-221.640	-25.538	-0.344	-0.201
-220.625	120.090	0.144	-0.177
-219.611	-13.636	0.068	-0.043
-218.596	-0.449	0.064	-0.045
-217.582	-93.846	0.073	0.020
-216.567	-41.807	0.174	0.089
-215.552	-6.062	-0.273	-0.185
-214.538	71.611	-0.119	-0.122
-213.523	800.000	-0.033	0.131
-212.509	-75.314	0.437	0.155
-211.494	-107.597	0.362	0.078
-210.479	-73.283	-0.348	-0.126
-209.465	504.582	-0.052	-0.119
-208.450	-19.917	0.201	-0.123
-207.436	192.536	0.149	-0.223
-206.421	32.502	-0.147	-0.126
-205.406	35.904	0.082	-0.072
-204.392	-200.000	0.006	0.302
-203.377	58.405	0.324	0.315
-202.363	-81.608	0.359	0.117
-201.348	78.626	0.167	0.177
-200.333	800.000	0.060	0.240
-199.319	735.146	0.155	-0.411
-198.304	-5.194	-0.284	0.193
-197.290	91.017	-0.195	-0.217
-196.275	-200.000	-0.082	0.424
-195.260	-200.000	-0.060	0.364
-194.246	5.798	0.222	-0.162
-193.231	800.000	0.046	0.135
-192.217	-200.000	0.064	-0.309
-191.202	116.307	-0.040	-0.048
-190.187	-175.501	0.197	0.005
-189.173	-60.012	-0.101	-0.043
-188.158	149.004	0.218	0.292
-187.144	-200.000	0.001	-0.190
-186.129	-191.239	-0.084	0.001
-185.114	148.921	0.040	0.053
-184.100	175.670	-0.147	-0.211
-183.085	98.017	0.200	-0.228
-182.071	-64.789	-0.399	-0.160
-181.056	-147.611	0.079	0.007
-180.042	-13.496	-0.360	0.231
-179.027	359.852	0.091	0.180
-178.012	-23.150	-0.134	0.080
-176.998	-108.142	0.319	0.068
-175.983	-80.778	-0.160	-0.053
-174.969	-70.109	0.242	0.091
-173.954	141.091	0.216	-0.283
-172.939	800.000	-0.102	-0.307
-171.925	582.859	-0.058	-0.141
-170.910	72.033	-0.489	0.504
-169.896	-136.360	0.334	-0.038
-168.881	9.547	0.147	0.110
-167.866	-81.515	0.051	0.017
-166.852	800.000	-0.035	-0.142
-165.837	475.382	0.020	-0.046
-164.823	152.672	0.112	0.151
-163.808	-200.000	0.007	0.416
-162.793	-61.520	0.079	-0.033
-161.779	8.386	-0.283	-0.211
-160.764	77.709	0.110	-0.116
-159.750	800.000	-0.028	-0.117
-158.735	-200.000	-0.003	-0.068
-157.720	-71.039	-0.313	0.116
-156.706	-117.513	-0.302	-0.054
-155.691	-200.000	0.016	-0.095
-154.677	-200.000	0.053	-0.260
-153.662	-200.000	-0.036	-0.408
-152.647	-162.775	-0.210	0.010
-151.633	246.297	0.053	-0.088
-150.618	-200.000	0.028	0.509
-149.604	800.000	-0.032	0.130
-148.589	-60.529	0.196	-0.082
-147.574	-108.992	-0.303	0.064
-146.560	34.498	-0.115	-0.099
-145.545	321.790	-0.068	0.127
-144.531	-38.751	0.101	-0.053
-143.516	800.000	-0.040	-0.135
-142.502	-0.363	0.152	0.107
-141.487	800.000	-0.026	-0.105
-140.472	-200.000	-0.030	-0.140
-139.458	134.020	-0.222	-0.285
-138.443	-3.059	-0.312	0.215
-137.429	-16.486	0.109	-0.068
-136.414	1.008	0.224	-0.159
-135.399	41.207	0.198	-0.176
-134.385	-200.000	-0.003	-0.025
-133.370	125.079	-0.222	0.277
-132.356	-89.868	-0.327	0.095
-131.341	-118.520	0.166	0.029
-130.326	-151.136	0.151	-0.011
-129.312	-29.608	-0.240	-0.135
-128.297	195.922	-0.187	0.281
-127.283	22.628	-0.105	-0.085
-126.268	-155.027	-0.182	0.012
-125.253	-34.822	0.199	-0.107
-124.239	800.000	0.044	-0.168
-123.224	121.511	-0.074	-0.092
-122.210	-200.000	0.023	0.278
