DTS Sentinel unit serial number:	SN413079Multiplexer serial number:	ORYXHardware model number:	OX4-SRSoftware version number:	ORYX F/W v4.00 Oryx Data Collector v3.7.2.0data status	okinstallation	princeton_trtdifferential loss correction	single-endedforward channel	channel 2reverse channel	N/Adate	2019/09/19time	13:51:34forward acquisition time	60.00reverse acquisition time	0.00gamma	496.2192k internal	0.2325k external	0.2325temperature offset calibration	1.0016default loss term (dB/km)	0.3790temperature slope calibration	1.0000multiplexer offset coefficient	1.0000multiplexer slope coefficient	1.0000fibre end	0.00T internal ref (°C)	30.81T ext. ref 1 (°C)	1.00T ext. ref 2 (°C)	28.20length (m)	temperature (°C)	Stokes	anti-Stokes-747.200	-35.058	-0.067	-0.037
-746.185	-65.707	-0.139	-0.056
-745.171	-200.000	-0.080	0.391
-744.156	367.483	-0.102	0.208
-743.142	234.336	0.114	0.189
-742.127	-88.944	0.027	0.008
-741.112	-65.691	0.283	0.114
-740.098	511.996	-0.118	0.276
-739.083	800.000	0.054	0.206
-738.069	4.257	0.167	-0.123
-737.054	46.772	-0.261	-0.244
-736.039	291.345	-0.081	0.148
-735.025	-146.336	0.147	0.013
-734.010	-112.083	-0.166	-0.034
-732.996	32.923	0.254	0.222
-731.981	21.226	-0.189	0.155
-730.966	-116.235	-0.246	-0.046
-729.952	173.137	-0.158	-0.230
-728.937	-200.000	-0.041	-0.248
-727.923	244.694	0.130	0.221
-726.908	-200.000	-0.013	-0.222
-725.894	800.000	-0.036	0.128
-724.879	201.845	0.074	-0.115
-723.864	-200.000	0.004	0.178
-722.850	-200.000	0.006	0.063
-721.835	800.000	0.087	-0.298
-720.821	-16.068	0.149	-0.095
-719.806	-128.527	0.405	-0.058
-718.791	306.961	-0.336	-0.632
-717.777	583.173	0.069	-0.171
-716.762	-200.000	0.010	0.127
-715.748	-123.329	0.235	-0.038
-714.733	800.000	0.079	0.242
-713.718	-50.570	-0.232	-0.110
-712.704	-46.874	0.278	0.137
-711.689	32.237	-0.193	-0.168
-710.675	-61.374	0.537	-0.228
-709.660	27.762	-0.074	0.063
-708.645	-200.000	0.010	-0.163
-707.631	308.450	-0.034	0.063
-706.616	-5.801	0.157	-0.108
-705.602	-35.883	-0.212	-0.116
-704.587	699.151	0.098	0.260
-703.572	-11.881	-0.129	-0.085
-702.558	112.082	0.152	0.186
-701.543	-76.381	-0.165	-0.059
-700.529	337.007	0.114	0.223
-699.514	-200.000	-0.018	0.084
-698.499	-200.000	-0.014	0.326
-697.485	-185.190	0.136	-0.002
-696.470	-178.743	-0.229	-0.005
-695.456	-200.000	0.031	0.143
-694.441	-200.000	0.019	-0.100
-693.426	-71.974	0.125	-0.047
-692.412	-82.004	-0.166	-0.055
-691.397	800.000	0.039	-0.134
-690.383	-200.000	-0.002	-0.366
-689.368	-39.998	-0.103	0.054
-688.354	-59.247	0.156	0.067
-687.339	-200.000	-0.071	-0.353
-686.324	58.574	0.137	-0.136
-685.310	-51.309	-0.342	0.161
-684.295	-200.000	0.036	-0.195
-683.281	-139.428	-0.294	0.032
-682.266	800.000	-0.039	0.169
-681.251	-87.773	0.242	0.074
-680.237	-200.000	-0.062	0.472
-679.222	-44.096	-0.110	0.056
-678.208	-174.211	-0.479	0.014
-677.193	800.000	0.040	0.121
-676.178	-52.246	-0.332	0.155
-675.164	30.680	-0.271	0.233
-674.149	212.407	-0.116	-0.184
-673.135	83.640	-0.215	-0.236
-672.120	-200.000	0.046	-0.394
-671.105	-137.812	-0.289	-0.033
-670.091	-200.000	-0.032	0.303
-669.076	800.000	0.018	-0.078
-668.062	800.000	-0.097	-0.390
-667.047	-90.407	-0.236	0.069
-666.032	447.093	0.086	0.191
-665.018	221.810	-0.143	0.231
-664.003	-193.657	0.095	-0.001
-662.989	-200.000	0.017	-0.174
-661.974	-200.000	-0.013	-0.119
-660.959	-1.105	-0.128	-0.091
-659.945	-200.000	0.016	-0.133
-658.930	-200.000	-0.018	-0.254
-657.916	-121.843	-0.191	-0.032
-656.901	-60.824	0.302	0.129
-655.886	-76.712	0.185	0.065
-654.872	28.561	0.128	-0.109
-653.857	-65.164	0.445	-0.180
-652.843	-9.498	0.303	-0.203
-651.828	-59.159	-0.276	0.120
-650.814	-127.302	0.026	0.004
-649.799	48.688	0.092	-0.087
-648.784	68.946	-0.236	-0.244
-647.770	-43.258	0.304	0.155
-646.755	-146.874	0.352	-0.030
-645.741	-200.000	-0.038	0.188
-644.726	-200.000	-0.034	-0.360
-643.711	-136.747	0.148	0.017
-642.697	-120.338	0.412	0.071
-641.682	-33.407	0.143	-0.080
-640.668	-95.144	-0.266	0.072
-639.653	-121.862	0.087	-0.014
-638.638	800.000	-0.055	-0.213
-637.624	-200.000	-0.039	-0.171
-636.609	-28.030	-0.308	-0.179
-635.595	-115.386	-0.259	0.049
-634.580	129.922	-0.135	-0.174
-633.565	-10.007	0.088	0.059
-632.551	17.858	0.106	0.085
-631.536	-49.390	-0.132	-0.063
-630.522	-11.812	-0.016	-0.011
-629.507	-200.000	0.073	0.455
-628.492	-200.000	0.017	0.098
-627.478	150.981	0.067	-0.092
-626.463	-58.370	-0.281	-0.123
-625.449	30.605	0.027	0.023
-624.434	-57.275	-0.179	0.079
-623.419	420.893	0.139	-0.299
-622.405	800.000	0.054	0.159
-621.390	182.422	-0.216	-0.320
-620.376	-200.000	0.008	0.160
-619.361	-153.945	0.031	-0.002
-618.346	-19.294	0.063	-0.039
-617.332	-156.864	-0.105	0.006
-616.317	255.477	0.097	-0.167
-615.303	-25.175	-0.252	0.150
-614.288	171.276	-0.178	0.257
-613.273	9.186	-0.216	-0.164
-612.259	183.770	0.203	-0.301
-611.244	-200.000	0.064	-0.328
-610.230	800.000	-0.077	0.237
-609.215	-33.459	0.097	0.054
-608.201	-109.272	0.388	-0.083
-607.186	-200.000	0.022	0.114
-606.171	4.347	-0.309	0.227
-605.157	90.800	-0.090	0.101
-604.142	-131.294	0.275	-0.037
-603.128	-49.020	0.145	0.070
-602.113	712.770	-0.058	-0.154
-601.098	-66.903	0.176	0.070
-600.084	338.239	0.085	-0.166
-599.069	800.000	0.057	-0.159
-598.055	366.025	0.091	-0.184
-597.040	128.895	0.144	0.184
-596.025	-200.000	0.014	-0.208
-595.011	-118.144	0.392	-0.070
-593.996	-95.313	0.158	-0.043
-592.982	109.839	0.049	-0.059
-591.967	-78.472	0.214	0.073
-590.952	-101.004	-0.139	0.034
-589.938	-88.728	0.277	0.082
-588.923	241.514	0.195	0.327
-587.909	46.126	-0.202	-0.188
-586.894	-18.269	0.140	0.088
-585.879	-41.956	-0.259	0.133
-584.865	189.789	0.143	-0.215
-583.850	-22.125	-0.177	0.108
-582.836	-127.085	-0.137	0.020
-581.821	90.851	-0.119	-0.133
-580.806	-113.854	0.162	0.032
-579.792	-145.156	-0.234	0.021
-578.777	-148.556	-0.079	0.006
-577.763	-151.817	-0.279	-0.021
-576.748	-96.120	0.241	0.064
-575.733	-193.827	-0.345	0.003
-574.719	-33.719	-0.201	-0.111
-573.704	-80.201	-0.330	-0.111
-572.690	79.940	0.045	0.048
-571.675	-42.338	0.160	-0.082
-570.661	-200.000	-0.001	-0.229
-569.646	800.000	-0.028	0.111
-568.631	390.462	-0.030	0.062
-567.617	-80.444	-0.226	-0.076
-566.602	16.219	0.054	-0.042
-565.588	200.129	0.070	-0.107
-564.573	183.078	0.060	0.089
-563.558	159.077	-0.150	-0.208
-562.544	-187.676	-0.207	-0.003
-561.529	140.413	0.135	-0.179
-560.515	8.192	0.250	-0.188
-559.500	147.052	0.069	0.093
-558.485	311.874	-0.088	0.164
-557.471	-200.000	-0.036	0.322
-556.456	79.954	-0.232	0.250
-555.442	-111.294	0.175	-0.036
-554.427	-145.601	-0.320	0.029
-553.412	169.514	-0.315	0.451
-552.398	-128.140	0.283	0.041
-551.383	383.680	-0.125	-0.258
-550.369	337.482	-0.090	-0.175
-549.354	-75.885	0.109	0.039
-548.339	800.000	-0.108	-0.341
-547.325	725.641	0.067	0.178
-546.310	-200.000	0.015	0.157
-545.296	-141.796	0.290	-0.029
-544.281	800.000	-0.026	-0.084
-543.266	-170.665	-0.110	0.004
-542.252	192.073	0.095	0.143
-541.237	-115.535	0.280	0.053
-540.223	-200.000	-0.062	-0.271
-539.208	-200.000	-0.025	-0.126
-538.193	275.091	0.127	0.226
-537.179	-32.529	-0.063	0.035
-536.164	117.454	-0.126	-0.155
-535.150	-147.911	0.102	-0.009
-534.135	800.000	0.012	0.037
-533.121	66.567	0.100	0.102
-532.106	-200.000	0.026	0.223
-531.091	19.273	0.305	-0.245
-530.077	-113.282	-0.476	0.094
-529.062	-200.000	0.058	0.332
-528.048	45.175	0.227	0.209
-527.033	-200.000	0.014	-0.326
-526.018	-112.702	-0.199	0.040
-525.004	-116.610	0.247	-0.045
-523.989	146.874	-0.022	-0.029
-522.975	51.180	-0.165	0.157
-521.960	-69.169	0.480	-0.185
-520.945	-49.714	-0.276	-0.131
-519.931	38.539	0.146	0.131
-518.916	45.974	0.042	0.039
-517.902	-200.000	0.016	0.217
-516.887	-200.000	-0.126	-0.000
-515.872	232.395	0.072	-0.118
-514.858	-31.829	-0.181	0.102
-513.843	-37.829	-0.166	0.088
-512.829	304.852	0.009	0.017
-511.814	-80.414	0.341	-0.114
-510.799	-74.882	-0.140	-0.050
-509.785	800.000	-0.026	0.089
-508.770	-28.239	-0.122	-0.070
-507.756	-200.000	0.005	-0.087
-506.741	-144.991	-0.223	-0.020
-505.726	-49.337	-0.122	0.058
-504.712	800.000	0.077	0.324
-503.697	-115.322	-0.317	-0.060
-502.683	-135.236	0.327	-0.039
-501.668	-66.602	0.123	-0.049
-500.653	-3.061	0.099	0.069
-499.639	-200.000	-0.020	-0.210
-498.624	-2.327	0.043	-0.030
-497.610	210.834	-0.125	0.197
-496.595	49.447	-0.089	0.083
-495.581	43.493	-0.291	0.266
-494.566	-120.685	-0.149	-0.025
-493.551	-50.924	-0.196	-0.092
-492.537	133.163	0.227	0.294
-491.522	-102.558	0.427	0.102
-490.508	800.000	-0.083	0.301
-489.493	71.733	-0.107	0.111
-488.478	-200.000	0.039	0.191
-487.464	23.804	-0.127	-0.105
-486.449	-38.574	-0.433	-0.229
-485.435	-125.043	-0.285	0.044
-484.420	-48.418	-0.127	-0.061
-483.405	-48.701	0.078	-0.037
-482.391	-200.000	0.004	-0.192
-481.376	-11.793	0.219	0.144
-480.362	-0.478	0.330	-0.234
-479.347	-200.000	0.001	0.158
-478.332	36.042	-0.117	0.103
-477.318	-89.701	-0.383	-0.112
-476.303	140.043	0.248	-0.326
-475.289	-51.439	-0.286	0.134
-474.274	-200.000	0.019	-0.219
-473.259	-132.933	0.370	0.047
-472.245	-189.614	-0.185	-0.002
-471.230	-200.000	-0.019	0.132
-470.216	800.000	0.108	-0.354
-469.201	-5.771	0.098	-0.067
-468.186	218.465	-0.082	-0.131
-467.172	-200.000	-0.001	0.185
-466.157	-89.093	0.318	0.094
-465.143	-32.073	-0.117	0.066
-464.128	-200.000	0.003	-0.016
-463.113	-200.000	-0.007	0.082
-462.099	-200.000	-0.041	0.272
-461.084	-114.546	-0.303	-0.058
-460.070	-100.745	-0.459	-0.113
-459.055	-42.225	0.372	-0.190
-458.040	-116.389	0.266	-0.049
-457.026	-87.636	0.204	-0.061
-456.011	67.034	0.095	-0.096
-454.997	-145.863	0.321	-0.028
-453.982	800.000	-0.034	0.110
-452.968	-21.100	0.246	0.150
-451.953	-143.015	0.306	-0.030
-450.938	53.877	0.081	0.078
-449.924	-101.465	-0.118	-0.029
-448.909	457.809	-0.185	-0.409
-447.895	800.000	-0.090	-0.296
-446.880	800.000	0.045	0.147
-445.865	16.617	-0.123	0.097
-444.851	-200.000	-0.249	0.001
-443.836	-200.000	0.023	0.172
-442.822	-98.847	0.125	0.032
-441.807	514.881	0.045	-0.105
-440.792	53.214	0.154	0.148
-439.778	-200.000	-0.080	0.538
-438.763	-112.535	0.041	0.008
-437.749	359.596	-0.081	-0.162
-436.734	38.075	-0.172	-0.153
-435.719	-85.954	0.234	0.072
-434.705	-76.901	0.216	-0.075
-433.690	-200.000	-0.014	-0.234
-432.676	-110.486	0.218	0.045
-431.661	155.839	-0.261	0.358
-430.646	89.049	-0.100	-0.110
-429.632	800.000	0.012	0.038
-428.617	152.209	0.159	0.216
-427.603	19.536	-0.238	-0.191
-426.588	-27.258	0.246	-0.143
-425.573	265.590	0.088	-0.153
-424.559	800.000	0.056	-0.196
-423.544	-29.700	-0.270	-0.154
-422.530	-200.000	-0.011	-0.355
-421.515	-160.240	-0.136	-0.007
-420.500	-106.970	0.133	0.029
-419.486	-2.986	0.351	0.244
-418.471	-17.527	-0.439	0.275
-417.457	-76.481	-0.093	0.033
-416.442	-6.075	0.087	-0.059
-415.428	-200.000	-0.016	-0.078
-414.413	-149.228	-0.359	-0.029
-413.398	-136.743	0.403	0.046
-412.384	-200.000	0.004	-0.189
-411.369	-200.000	-0.002	-0.142
-410.355	426.461	0.193	0.414
-409.340	-55.878	-0.190	-0.084
-408.325	446.291	-0.182	-0.399
-407.311	612.231	0.038	0.094
-406.296	195.494	0.084	-0.128
-405.282	800.000	-0.094	0.408
-404.267	-100.755	0.269	0.066
-403.252	-76.060	-0.298	0.105
-402.238	7.811	-0.116	-0.086
-401.223	155.816	0.161	-0.221
-400.209	84.469	0.160	-0.174
-399.194	-155.415	-0.173	-0.011
-398.179	-61.911	-0.278	-0.116
-397.165	-83.553	0.258	0.082
-396.150	-11.186	0.084	0.055
-395.136	61.181	0.171	0.170
-394.121	-84.272	-0.100	-0.031
-393.106	25.011	0.171	0.141
-392.092	17.156	-0.150	-0.118
-391.077	-65.725	-0.187	0.074
-390.063	277.437	0.035	0.063
-389.048	-200.000	0.012	-0.236
-388.033	116.293	0.123	-0.149
-387.019	-200.000	-0.027	-0.200
-386.004	-200.000	-0.051	0.274
-384.990	17.697	0.345	0.273
-383.975	-200.000	-0.065	0.414
-382.960	-200.000	0.008	0.198
-381.946	-146.696	0.142	0.012
-380.931	-12.256	-0.076	-0.049
-379.917	-133.559	-0.288	-0.036
-378.902	599.781	-0.087	-0.215
-377.888	17.461	-0.127	0.100
-376.873	-29.524	0.398	0.226
-375.858	-25.592	-0.428	0.251
-374.844	255.344	-0.212	0.361
-373.829	112.150	0.196	-0.236
-372.815	243.190	0.164	-0.274
-371.800	-180.890	-0.092	-0.002
-370.785	-200.000	-0.010	0.106
-369.771	-200.000	-0.041	0.202
-368.756	800.000	0.114	0.332
-367.742	-103.010	0.128	0.030
-366.727	-200.000	0.034	-0.191
-365.712	572.661	0.053	-0.128
-364.698	-25.604	0.245	-0.144
-363.683	800.000	0.100	-0.286
-362.669	297.459	-0.077	0.141
-361.654	-61.343	0.224	-0.094
-360.639	50.658	-0.283	-0.266
-359.625	132.758	-0.208	-0.266
-358.610	-27.826	-0.127	-0.073
-357.596	25.051	0.083	0.068
-356.581	-29.634	0.232	0.132
-355.566	-72.183	-0.072	-0.027
-354.552	20.701	0.339	0.273
-353.537	-200.000	-0.006	-0.067
-352.523	-11.994	0.321	-0.209
-351.508	-76.758	-0.319	-0.111
-350.493	58.346	-0.190	0.185
-349.479	-200.000	0.019	0.102
-348.464	-94.515	-0.090	-0.024
-347.450	-200.000	0.032	-0.218
-346.435	597.432	-0.145	-0.357
-345.420	-41.757	-0.235	0.120
-344.406	95.142	-0.233	-0.263
-343.391	332.344	0.049	-0.093
-342.377	-196.184	-0.057	0.000
-341.362	-123.205	-0.122	0.019
-340.348	-200.000	-0.029	0.285
-339.333	383.149	-0.061	-0.125
-338.318	-74.151	-0.285	-0.102
-337.304	636.343	0.072	0.182
-336.289	-122.612	-0.164	-0.026
-335.275	-100.610	0.219	0.054
-334.260	-66.717	0.036	0.014
-333.245	39.270	0.053	-0.047
-332.231	-6.328	0.107	0.073
-331.216	11.759	0.172	-0.131
-330.202	800.000	0.089	-0.272
-329.187	-85.499	-0.072	0.022
-328.172	-15.498	0.244	0.155
-327.158	5.678	0.080	-0.058
-326.143	-200.000	-0.008	-0.147
-325.129	534.835	0.103	0.243
-324.114	28.882	-0.073	0.062
-323.099	237.336	0.069	-0.113
-322.085	15.303	-0.202	-0.157
-321.070	-15.383	-0.144	-0.091
-320.056	-101.493	-0.161	-0.039
-319.041	472.856	0.036	0.080
-318.026	31.718	-0.028	0.024
-317.012	10.320	-0.155	0.117
-315.997	106.978	-0.190	-0.223
-314.983	143.573	-0.105	-0.139
-313.968	1.524	0.206	0.147
-312.953	-131.418	-0.314	-0.041
-311.939	-57.049	0.231	0.101
-310.924	-118.552	0.156	-0.027
-309.910	70.893	0.107	0.110
-308.895	77.697	0.121	0.128
-307.880	-200.000	0.030	0.379
-306.866	-3.762	-0.111	0.077
-305.851	89.242	0.173	-0.191
-304.837	-200.000	0.043	0.371
-303.822	9.800	-0.197	0.148
-302.807	800.000	-0.040	-0.165
-301.793	649.936	-0.042	0.107
-300.778	-119.650	0.143	-0.025
-299.764	-200.000	0.031	0.143
-298.749	166.975	0.095	-0.133
-297.735	800.000	-0.119	0.517
-296.720	167.955	0.102	0.143
-295.705	789.294	0.076	0.207
-294.691	-84.916	-0.198	-0.061
-293.676	-101.186	0.446	-0.108
-292.662	-110.962	-0.117	0.024
-291.647	800.000	-0.092	0.317
-290.632	-99.700	-0.372	0.093
-289.618	82.589	-0.150	0.161
-288.603	-200.000	0.030	0.285
-287.589	-200.000	0.055	0.328
-286.574	-159.419	-0.077	0.004
-285.559	800.000	0.107	0.305
-284.545	111.788	-0.204	0.245
-283.530	800.000	-0.149	-0.491
-282.516	74.425	0.226	0.235
-281.501	19.661	-0.190	-0.152
-280.486	194.760	-0.094	-0.142
-279.472	168.456	0.215	0.304
-278.457	217.377	-0.143	-0.225
-277.443	-29.686	-0.233	-0.132
-276.428	11.982	-0.093	-0.071
-275.413	-120.595	0.175	-0.029
-274.399	-84.132	-0.280	0.088
-273.384	-80.854	-0.069	0.023
-272.370	-1.036	-0.242	0.170
-271.355	476.536	0.089	-0.199
-270.340	-153.837	0.345	0.023
-269.326	-87.700	0.184	-0.055
-268.311	800.000	0.074	0.263
-267.297	-200.000	0.012	0.084
-266.282	-200.000	-0.033	-0.232
-265.267	-80.100	-0.123	0.041
-264.253	-55.588	0.078	-0.034
-263.238	349.064	0.088	-0.173
-262.224	133.964	-0.276	-0.353
-261.209	-200.000	-0.003	-0.015
-260.195	62.032	-0.120	-0.118
-259.180	-97.991	0.076	-0.019
-258.165	-94.297	-0.157	-0.042
-257.151	-82.438	-0.225	0.072
-256.136	-10.451	0.339	-0.223
-255.122	85.654	-0.146	0.158
-254.107	-200.000	-0.022	0.178
-253.092	-26.185	0.223	-0.130
-252.078	164.138	0.283	0.395
-251.063	-200.000	0.027	0.227
-250.049	15.348	-0.160	0.124
-249.034	644.354	-0.060	-0.153
-248.019	-10.601	-0.312	0.205
-247.005	50.554	0.042	0.039
-245.990	370.162	0.094	0.189
-244.976	-28.365	0.321	-0.184
-243.961	201.966	-0.183	-0.279
-242.946	5.402	0.234	-0.171
-241.932	8.399	-0.097	-0.072
-240.917	800.000	0.105	0.326
-239.903	-111.205	0.239	0.048
-238.888	36.024	-0.237	-0.206
-237.873	33.256	0.104	0.090
-236.859	-104.002	0.073	0.017
-235.844	307.736	0.046	0.084
-234.830	206.663	-0.099	0.152
-233.815	-25.932	0.270	0.157
-232.800	-200.000	-0.041	-0.186
-231.786	-56.234	-0.219	0.097
-230.771	-124.599	-0.025	-0.004
-229.757	800.000	0.088	0.242
-228.742	800.000	0.038	0.128
-227.727	-13.880	0.072	-0.046
-226.713	382.650	0.117	0.239
-225.698	-80.877	-0.387	-0.127
-224.684	-28.534	-0.403	-0.230
-223.669	-113.672	0.082	0.016
-222.655	-60.878	0.304	-0.127
-221.640	229.407	0.144	0.232
-220.625	-200.000	0.029	0.283
-219.611	297.423	-0.034	0.061
-218.596	-84.827	-0.306	-0.095
-217.582	-200.000	-0.004	-0.018
-216.567	800.000	0.052	0.170
-215.552	1.304	-0.102	-0.072
-214.538	-200.000	0.029	-0.193
-213.523	164.872	0.088	-0.123
-212.509	-174.209	-0.514	0.015
-211.494	-108.142	0.130	0.028
-210.479	800.000	-0.050	0.147
-209.465	-63.334	-0.302	0.123
-208.450	-63.128	-0.363	-0.148
-207.436	-54.920	0.238	-0.106
-206.421	-200.000	0.031	-0.159
-205.406	326.745	-0.169	0.321
-204.392	219.296	-0.075	-0.118
-203.377	800.000	-0.117	-0.418
-202.363	571.067	0.076	0.183
-201.348	800.000	0.045	0.133
-200.333	32.894	-0.216	-0.185
-199.319	800.000	-0.098	-0.381
-198.304	-28.149	-0.199	-0.114
-197.290	-4.498	-0.071	-0.049
-196.275	-86.655	0.140	-0.042
-195.260	345.879	0.076	-0.147
-194.246	158.265	0.222	-0.304
-193.231	17.532	0.062	-0.049
-192.217	560.768	-0.185	-0.442
-191.202	-200.000	0.020	-0.183
-190.187	-120.484	0.454	0.076
-189.173	-146.541	0.232	0.020
-188.158	-36.627	-0.174	-0.092
-187.144	-200.000	-0.020	-0.312
-186.129	121.966	0.104	0.128
-185.114	-69.471	0.305	0.116
-184.100	-23.761	0.171	-0.101
-183.085	272.634	0.057	-0.099
-182.071	187.603	0.029	-0.043
-181.056	438.274	0.024	0.052
-180.042	-120.043	-0.213	-0.036
-179.027	-67.988	-0.396	0.152
-178.012	-2.446	0.086	0.060
-176.998	-161.614	0.148	-0.007
-175.983	-24.038	-0.171	-0.101
-174.969	-200.000	0.006	0.107
-173.954	51.789	0.314	0.295
-172.939	51.759	0.222	-0.209
-171.925	-133.833	0.506	-0.062
-170.910	-74.953	0.040	0.014
-169.896	11.294	0.181	-0.137
-168.881	-164.805	-0.286	-0.013
-167.866	-200.000	-0.038	0.299
-166.852	60.544	-0.099	-0.097
-165.837	-67.303	0.132	-0.051
-164.823	-53.854	-0.102	-0.046
-163.808	-200.000	0.016	0.087
-162.793	800.000	0.041	-0.121
-161.779	-60.670	-0.095	-0.040
-160.764	4.180	0.279	-0.201
-159.750	299.320	0.098	0.177
-158.735	710.815	-0.062	0.161
-157.720	-39.316	-0.181	0.094
-156.706	243.616	-0.061	-0.102
-155.691	-52.987	-0.154	-0.070
-154.677	202.125	0.221	-0.336
-153.662	-146.868	-0.174	0.015
-152.647	50.168	0.202	0.188
-151.633	-119.492	0.457	0.078
-150.618	-200.000	0.054	0.378
-149.604	-97.190	-0.086	-0.022
-148.589	-45.230	0.103	-0.050
-147.574	47.353	0.024	-0.022
-146.560	-56.714	-0.016	-0.007
-145.545	800.000	-0.036	-0.139
-144.531	294.052	-0.066	0.118
-143.516	311.404	0.122	-0.226
-142.502	-174.819	0.393	0.011
-141.487	-89.366	0.230	0.067
-140.472	65.092	-0.189	-0.188
-139.458	118.154	0.121	0.147
-138.443	260.680	-0.197	0.336
-137.429	-110.793	0.150	-0.030
-136.414	76.705	0.089	0.094
-135.399	-200.000	0.003	0.064
-134.385	-72.137	0.404	-0.148
-133.370	197.855	-0.151	-0.228
-132.356	-22.318	0.273	-0.163
-131.341	800.000	-0.030	0.082
-130.326	122.358	0.046	0.057
-129.312	800.000	0.070	-0.221
-128.297	412.922	0.111	-0.232
-127.283	18.563	-0.288	-0.227
-126.268	-200.000	0.010	0.246
-125.253	-1.768	-0.175	0.121
-124.239	-124.875	0.292	-0.044
-123.224	-15.132	-0.051	-0.032
-122.210	-200.000	0.021	-0.152
-121.195	-86.078	0.182	0.055
