DTS Sentinel unit serial number:	SN413079Multiplexer serial number:	ORYXHardware model number:	OX4-SRSoftware version number:	ORYX F/W v4.00 Oryx Data Collector v3.7.2.0data status	okinstallation	princeton_trtdifferential loss correction	single-endedforward channel	channel 2reverse channel	N/Adate	2019/09/14time	04:47:34forward acquisition time	60.00reverse acquisition time	0.00gamma	496.2192k internal	0.2335k external	0.2335temperature offset calibration	1.0130default loss term (dB/km)	0.3790temperature slope calibration	1.0000multiplexer offset coefficient	1.0000multiplexer slope coefficient	1.0000fibre end	0.00T internal ref (°C)	26.81T ext. ref 1 (°C)	3.35T ext. ref 2 (°C)	21.96length (m)	temperature (°C)	Stokes	anti-Stokes-747.200	-103.719	-0.187	0.044
-746.185	130.380	0.029	-0.038
-745.171	-107.533	0.340	-0.075
-744.156	-19.013	-0.371	0.232
-743.142	800.000	-0.121	-0.452
-742.127	165.323	-0.123	0.174
-741.112	-3.173	-0.151	-0.106
-740.098	-73.240	-0.277	0.102
-739.083	-59.513	0.218	-0.094
-738.069	99.458	-0.080	-0.093
-737.054	-21.951	-0.005	0.003
-736.039	-179.733	-0.291	-0.006
-735.025	-187.439	-0.315	0.004
-734.010	-200.000	-0.030	-0.197
-732.996	596.274	-0.073	-0.181
-731.981	-114.848	-0.099	0.019
-730.966	-99.742	-0.350	-0.088
-729.952	-200.000	-0.020	0.305
-728.937	124.546	0.035	0.045
-727.923	16.617	0.107	0.085
-726.908	-96.603	0.124	-0.033
-725.894	-74.475	-0.345	-0.125
-724.879	800.000	-0.044	0.147
-723.864	410.287	-0.112	0.238
-722.850	-159.007	-0.413	0.024
-721.835	99.206	-0.092	0.106
-720.821	68.401	0.128	0.131
-719.806	79.498	0.081	0.087
-718.791	338.481	0.126	0.246
-717.777	-91.741	0.303	-0.086
-716.762	-154.237	-0.400	0.027
-715.748	-200.000	-0.011	-0.089
-714.733	-10.298	-0.236	-0.157
-713.718	87.751	0.142	0.158
-712.704	-200.000	-0.015	-0.415
-711.689	800.000	0.026	0.112
-710.675	140.376	-0.080	-0.106
-709.660	-76.399	0.283	-0.100
-708.645	-105.791	0.098	0.022
-707.631	707.196	0.127	-0.338
-706.616	204.654	0.209	0.325
-705.602	-139.115	-0.162	-0.018
-704.587	625.796	0.090	-0.228
-703.572	-93.088	0.268	0.075
-702.558	112.847	0.093	0.113
-701.543	-200.000	-0.018	0.171
-700.529	143.351	-0.261	0.348
-699.514	149.047	-0.063	-0.085
-698.499	800.000	0.104	-0.422
-697.485	-147.164	-0.004	0.000
-696.470	-53.753	0.130	-0.059
-695.456	163.650	-0.177	-0.250
-694.441	236.731	0.122	-0.203
-693.426	-124.732	0.152	-0.024
-692.412	60.533	0.157	-0.156
-691.397	87.487	-0.072	-0.080
-690.383	257.600	0.074	-0.128
-689.368	522.587	-0.086	-0.202
-688.354	-105.648	-0.192	0.044
-687.339	187.909	-0.121	-0.181
-686.324	-200.000	0.050	-0.233
-685.310	-182.087	0.089	0.002
-684.295	603.043	-0.044	-0.111
-683.281	-200.000	-0.012	-0.357
-682.266	-111.858	-0.615	-0.124
-681.251	-11.948	0.098	-0.064
-680.237	-32.965	-0.294	0.164
-679.222	98.938	-0.094	-0.109
-678.208	800.000	0.058	0.202
-677.193	682.581	0.081	-0.211
-676.178	360.936	0.055	0.111
-675.164	14.582	-0.166	-0.130
-674.149	100.505	-0.139	0.161
-673.135	-63.763	-0.319	-0.131
-672.120	122.971	0.121	0.151
-671.105	109.938	0.255	-0.306
-670.091	-3.885	-0.312	-0.217
-669.076	204.954	0.047	-0.073
-668.062	83.138	-0.331	-0.361
-667.047	800.000	0.098	-0.292
-666.032	724.746	-0.093	0.248
-665.018	-82.303	-0.387	0.126
-664.003	800.000	0.102	-0.379
-662.989	-200.000	0.115	0.000
-661.974	239.456	-0.218	0.363
-660.959	-82.782	-0.156	0.050
-659.945	-72.773	0.122	-0.045
-658.930	800.000	-0.017	0.074
-657.916	-200.000	-0.010	0.150
-656.901	-200.000	0.013	0.069
-655.886	125.823	-0.155	-0.197
-654.872	421.402	0.030	0.065
-653.857	607.307	0.142	-0.355
-652.843	800.000	0.041	0.174
-651.828	-52.929	-0.115	0.053
-650.814	-63.287	-0.133	0.055
-649.799	-119.386	0.035	0.006
-648.784	202.617	-0.187	-0.288
-647.770	311.640	0.096	-0.180
-646.755	250.168	0.070	0.120
-645.741	-181.870	0.051	0.001
-644.726	19.954	0.066	-0.053
-643.711	-113.480	-0.273	-0.053
-642.697	33.518	0.036	-0.032
-641.682	56.067	0.172	-0.167
-640.668	-6.652	0.205	-0.139
-639.653	258.647	-0.018	0.030
-638.638	800.000	-0.070	-0.267
-637.624	87.616	0.206	-0.228
-636.609	33.731	0.145	0.126
-635.595	205.219	-0.247	0.384
-634.580	-87.534	0.145	0.044
-633.565	-200.000	-0.005	0.025
-632.551	-167.722	-0.291	-0.012
-631.536	-200.000	0.056	-0.350
-630.522	-34.271	-0.037	0.020
-629.507	72.578	0.101	-0.106
-628.492	419.682	0.101	0.216
-627.478	800.000	0.022	-0.071
-626.463	80.301	-0.060	0.065
-625.449	-158.614	0.251	-0.014
-624.434	160.685	-0.114	0.158
-623.419	-41.006	-0.080	0.041
-622.405	-122.500	-0.274	-0.045
-621.390	184.731	0.108	-0.159
-620.376	-200.000	-0.032	-0.265
-619.361	-65.081	0.392	-0.158
-618.346	800.000	-0.066	-0.249
-617.332	-71.490	-0.187	0.070
-616.317	800.000	0.108	0.304
-615.303	-103.395	0.201	0.047
-614.288	104.268	-0.294	-0.346
-613.273	158.082	-0.259	-0.359
-612.259	23.338	-0.263	0.216
-611.244	-69.015	-0.450	-0.173
-610.230	-126.136	0.297	-0.044
-609.215	190.690	0.114	0.171
-608.201	-200.000	0.008	0.138
-607.186	16.031	-0.214	0.168
-606.171	-200.000	0.034	-0.170
-605.157	-200.000	-0.008	0.072
-604.142	497.565	0.243	-0.558
-603.128	-46.765	0.155	-0.076
-602.113	-200.000	-0.004	0.330
-601.098	-130.005	-0.072	0.010
-600.084	56.342	-0.283	-0.274
-599.069	-108.283	0.143	-0.031
-598.055	-49.549	-0.301	0.143
-597.040	5.293	0.237	0.175
-596.025	-120.612	-0.144	-0.024
-595.011	647.914	-0.206	-0.527
-593.996	612.493	0.031	0.077
-592.982	-74.424	-0.186	-0.067
-591.967	800.000	0.109	0.372
-590.952	800.000	0.095	0.342
-589.938	-90.921	-0.325	-0.093
-588.923	53.045	0.222	0.212
-587.909	-46.774	-0.255	-0.125
-586.894	-72.253	0.203	-0.075
-585.879	224.054	0.070	0.113
-584.865	-97.954	-0.082	-0.021
-583.850	51.254	0.435	-0.412
-582.836	800.000	0.035	-0.118
-581.821	-84.082	0.129	-0.041
-580.806	-29.524	0.133	-0.076
-579.792	-90.364	0.219	-0.063
-578.777	-74.964	0.095	0.034
-577.763	89.660	-0.046	0.051
-576.748	249.457	-0.031	-0.053
-575.733	-137.773	-0.138	0.015
-574.719	-200.000	-0.001	0.128
-573.704	-200.000	0.012	-0.141
-572.690	8.322	-0.207	0.155
-571.675	35.453	0.021	-0.019
-570.661	-117.331	0.298	0.054
-569.646	800.000	0.065	0.204
-568.631	21.872	-0.322	0.262
-567.617	-200.000	0.006	-0.073
-566.602	-48.962	-0.292	0.139
-565.588	46.368	0.250	0.231
-564.573	-123.542	0.153	-0.024
-563.558	193.612	0.073	-0.110
-562.544	-200.000	0.012	-0.345
-561.529	42.594	0.032	-0.029
-560.515	260.793	0.112	0.193
-559.500	-145.713	0.229	-0.020
-558.485	30.231	-0.196	0.167
-557.471	466.458	-0.097	0.216
-556.456	-50.743	-0.142	0.067
-555.442	-176.738	0.160	0.004
-554.427	-141.935	-0.206	0.021
-553.412	-200.000	0.016	0.286
-552.398	800.000	-0.056	0.227
-551.383	-200.000	0.007	0.143
-550.369	800.000	-0.020	-0.084
-549.354	-33.370	-0.068	0.038
-548.339	-30.538	-0.355	-0.200
-547.325	-200.000	-0.016	-0.167
-546.310	8.336	-0.186	-0.139
-545.296	-127.894	0.187	-0.027
-544.281	-26.624	0.085	0.049
-543.266	45.523	-0.228	-0.210
-542.252	-117.728	-0.249	-0.045
-541.237	464.471	-0.126	0.280
-540.223	800.000	-0.073	-0.249
-539.208	-171.024	0.430	0.015
-538.193	-99.113	0.095	-0.024
-537.179	68.408	0.265	-0.270
-536.164	73.436	0.216	0.225
-535.150	-98.204	0.128	0.033
-534.135	-164.364	-0.281	0.013
-533.121	-1.021	-0.100	0.070
-532.106	-122.655	0.258	-0.042
-531.091	-200.000	-0.033	0.157
-530.077	-130.168	0.426	-0.058
-529.062	202.992	-0.073	0.112
-528.048	-85.399	0.287	0.089
-527.033	708.727	0.138	0.363
-526.018	-36.635	-0.226	0.121
-525.004	-100.214	-0.339	0.084
-523.989	-200.000	0.061	-0.349
-522.975	-0.001	-0.205	-0.145
-521.960	-13.500	-0.202	-0.131
-520.945	800.000	-0.069	0.274
-519.931	-154.644	0.184	-0.012
-518.916	53.468	-0.111	-0.106
-517.902	-104.815	-0.367	-0.084
-516.887	103.096	0.168	0.196
-515.872	39.687	0.225	0.201
-514.858	-9.166	0.374	-0.249
-513.843	-200.000	-0.053	-0.290
-512.829	9.610	0.134	0.101
-511.814	-60.958	0.193	0.081
-510.799	-33.618	0.332	-0.183
-509.785	-200.000	-0.050	0.285
-508.770	729.302	0.098	0.259
-507.756	37.682	-0.105	0.093
-506.741	153.422	-0.112	-0.153
-505.726	-160.993	0.242	-0.013
-504.712	-200.000	0.017	-0.285
-503.697	-96.928	-0.261	0.068
-502.683	37.991	-0.309	-0.273
-501.668	59.534	0.348	0.342
-500.653	238.033	0.014	0.022
-499.639	-150.047	-0.173	-0.013
-498.624	490.490	-0.093	-0.212
-497.610	-200.000	0.016	0.114
-496.595	-29.377	0.070	-0.040
-495.581	-82.517	-0.130	-0.042
-494.566	-53.734	0.359	0.163
-493.551	82.039	-0.174	-0.187
-492.537	-24.412	-0.197	0.117
-491.522	-123.530	0.154	-0.024
-490.508	-163.668	-0.115	0.005
-489.493	-200.000	-0.038	0.287
-488.478	-120.786	0.392	0.066
-487.464	-160.856	0.044	-0.002
-486.449	10.617	0.128	0.097
-485.435	-200.000	-0.024	0.158
-484.420	800.000	0.039	0.132
-483.405	52.036	-0.156	-0.148
-482.391	195.440	0.099	0.150
-481.376	-118.239	-0.228	-0.040
-480.362	267.563	-0.101	-0.176
-479.347	-78.439	-0.467	-0.159
-478.332	29.015	0.199	0.168
-477.318	2.172	0.235	0.169
-476.303	800.000	0.100	0.400
-475.289	457.850	-0.119	0.264
-474.274	329.036	0.013	0.025
-473.259	-200.000	0.006	-0.289
-472.245	800.000	-0.048	0.170
-471.230	-200.000	0.005	-0.234
-470.216	-20.118	0.248	-0.152
-469.201	-100.880	-0.116	0.028
-468.186	-67.878	-0.227	0.088
-467.172	-200.000	-0.044	0.270
-466.157	607.512	-0.036	-0.090
-465.143	-44.828	-0.129	0.064
-464.128	23.452	0.226	0.184
-463.113	-60.762	-0.351	-0.148
-462.099	22.836	0.240	0.196
-461.084	171.755	0.099	-0.142
-460.070	152.480	0.050	0.068
-459.055	126.599	-0.097	0.123
-458.040	800.000	-0.058	0.248
-457.026	-115.522	-0.331	0.062
-456.011	159.244	-0.193	0.266
-454.997	-116.426	-0.309	-0.057
-453.982	79.108	-0.139	0.148
-452.968	-119.229	-0.130	0.022
-451.953	-62.120	0.083	0.034
-450.938	302.403	-0.029	0.053
-449.924	-90.118	0.086	0.025
-448.909	149.979	-0.048	-0.065
-447.895	-82.477	-0.457	-0.147
-446.880	-31.904	0.244	-0.136
-445.865	-200.000	-0.007	-0.099
-444.851	642.129	0.073	-0.184
-443.836	693.761	0.108	0.281
-442.822	417.983	-0.087	0.185
-441.807	-119.720	0.218	0.037
-440.792	61.521	0.136	-0.135
-439.778	22.373	0.259	0.210
-438.763	800.000	0.044	0.122
-437.749	800.000	-0.092	-0.388
-436.734	235.969	0.309	-0.507
-435.719	-89.943	-0.061	0.018
-434.705	4.867	-0.174	0.127
-433.690	-103.885	0.168	0.039
-432.676	-31.440	0.079	0.044
-431.661	129.975	0.096	0.122
-430.646	453.963	0.040	0.087
-429.632	535.896	-0.178	-0.419
-428.617	-126.397	-0.115	-0.017
-427.603	116.938	-0.250	-0.305
-426.588	-200.000	-0.024	0.116
-425.573	-200.000	-0.010	0.094
-424.559	800.000	-0.036	0.121
-423.544	122.120	0.032	0.040
-422.530	144.199	-0.051	-0.068
-421.515	70.416	-0.058	0.060
-420.500	-20.928	-0.395	0.240
-419.486	311.971	0.220	0.409
-418.471	800.000	0.071	-0.253
-417.457	-59.436	0.270	-0.115
-416.442	-200.000	0.035	0.460
-415.428	168.527	0.248	-0.351
-414.413	172.280	0.114	0.163
-413.398	800.000	-0.052	0.147
-412.384	-200.000	0.004	-0.025
-411.369	-108.489	-0.408	0.087
-410.355	-106.463	0.183	0.041
-409.340	-200.000	-0.033	-0.183
-408.325	-13.488	0.166	-0.107
-407.311	-200.000	-0.042	-0.258
-406.296	-200.000	-0.019	0.118
-405.282	-45.505	-0.017	-0.008
-404.267	-200.000	-0.035	-0.294
-403.252	800.000	-0.087	0.291
-402.238	-200.000	0.055	-0.242
-401.223	-200.000	0.057	-0.334
-400.209	-9.473	0.109	-0.072
-399.194	-175.052	0.217	0.006
-398.179	107.096	-0.122	0.144
-397.165	-76.445	-0.309	-0.108
-396.150	67.851	0.140	-0.141
-395.136	14.264	0.240	-0.186
-394.121	265.147	-0.179	0.308
-393.106	-79.238	0.326	0.110
-392.092	-2.077	-0.322	-0.224
-391.077	142.269	0.127	0.166
-390.063	102.177	-0.097	-0.112
-389.048	384.323	0.073	0.149
-388.033	-103.311	0.108	-0.025
-387.019	-136.612	0.100	-0.012
-386.004	800.000	-0.047	-0.195
-384.990	255.210	0.095	-0.161
-383.975	618.070	0.085	-0.212
-382.960	-54.201	-0.263	-0.118
-381.946	-17.385	0.439	-0.274
-380.931	-57.096	-0.279	-0.122
-379.917	-200.000	-0.010	0.447
-378.902	-139.247	0.203	-0.022
-377.888	-200.000	-0.005	0.027
-376.873	-107.223	-0.375	0.082
-375.858	241.456	0.075	0.124
-374.844	800.000	0.039	-0.114
-373.829	-84.642	0.224	-0.070
-372.815	348.715	0.046	-0.091
-371.800	7.821	-0.038	-0.028
-370.785	171.427	0.141	-0.200
-369.771	393.185	0.049	0.100
-368.756	141.951	-0.167	0.219
-367.742	772.766	-0.128	0.345
-366.727	93.478	0.071	-0.080
-365.712	105.389	-0.108	0.127
-364.698	-54.873	0.261	-0.117
-363.683	-111.895	-0.263	0.053
-362.669	-123.673	-0.317	-0.050
-361.654	665.260	-0.051	0.129
-360.639	20.484	-0.338	-0.271
-359.625	24.285	0.304	0.248
-358.610	-200.000	-0.004	0.057
-357.596	428.865	-0.093	-0.198
-356.581	800.000	0.066	0.285
-355.566	800.000	-0.029	-0.102
-354.552	158.357	-0.195	0.268
-353.537	-85.643	-0.206	0.063
-352.523	114.199	0.120	0.144
-351.508	162.796	0.138	0.192
-350.493	-200.000	-0.052	0.276
-349.479	183.937	0.154	0.226
-348.464	187.993	0.130	0.192
-347.450	800.000	-0.086	0.248
-346.435	-85.253	0.133	-0.041
-345.420	-39.425	0.203	-0.106
-344.406	367.173	-0.045	-0.091
-343.391	-121.793	0.135	-0.022
-342.377	264.734	-0.107	-0.185
-341.362	-200.000	-0.001	-0.211
-340.348	698.792	0.091	-0.237
-339.333	31.491	0.069	0.058
-338.318	-177.009	-0.133	0.003
-337.304	154.567	0.046	0.063
-336.289	-200.000	-0.067	0.376
-335.275	67.491	0.087	-0.088
-334.260	-29.662	-0.256	0.144
-333.245	-85.526	0.230	-0.071
-332.231	11.869	0.175	-0.133
-331.216	38.405	-0.220	0.193
-330.202	-200.000	-0.000	0.222
-329.187	336.020	0.206	-0.396
-328.172	-200.000	-0.060	-0.347
-327.158	-21.500	0.259	-0.156
-326.143	-200.000	-0.038	0.167
-325.129	800.000	-0.078	0.280
-324.114	392.588	0.107	-0.219
-323.099	360.476	0.079	-0.157
-322.085	-87.947	0.253	-0.075
-321.070	149.832	-0.217	-0.291
-320.056	-107.813	0.053	0.011
-319.041	-114.938	-0.216	-0.041
-318.026	124.017	0.053	0.065
-317.012	36.504	-0.178	0.155
-315.997	61.076	-0.085	0.083
-314.983	50.617	0.126	0.118
-313.968	-200.000	0.065	-0.395
-312.953	800.000	0.076	-0.266
-311.939	365.575	-0.076	-0.151
-310.924	800.000	0.068	-0.255
-309.910	55.669	0.175	-0.168
-308.895	-60.040	0.319	-0.135
-307.880	-13.985	0.194	0.124
-306.866	12.244	0.253	0.193
-305.851	388.626	0.054	0.110
-304.837	-116.983	0.095	-0.017
-303.822	267.047	0.100	-0.172
-302.807	-94.829	0.530	-0.142
-301.793	800.000	-0.112	-0.379
-300.778	-200.000	0.023	0.121
-299.764	-200.000	-0.081	0.362
-298.749	-200.000	-0.011	-0.357
-297.735	-36.503	-0.248	-0.132
-296.720	-59.870	0.241	0.102
-295.705	63.937	-0.209	-0.207
-294.691	476.036	-0.056	-0.124
-293.676	-200.000	0.034	-0.241
-292.662	-149.301	0.223	0.018
-291.647	193.880	0.164	0.245
-290.632	-200.000	-0.042	-0.211
-289.618	800.000	-0.083	-0.247
-288.603	800.000	0.057	-0.181
-287.589	780.958	-0.069	0.187
-286.574	196.546	0.024	-0.036
-285.559	-200.000	0.032	0.446
-284.545	108.001	0.074	0.087
-283.530	-29.305	-0.304	-0.172
-282.516	5.130	-0.146	0.106
-281.501	-200.000	0.362	-0.001
-280.486	174.016	0.231	-0.329
-279.472	304.275	-0.032	-0.059
-278.457	-176.707	-0.103	-0.003
-277.443	-86.286	-0.167	-0.051
-276.428	-200.000	0.011	-0.145
-275.413	33.499	0.148	0.127
-274.399	800.000	-0.140	0.422
-273.384	73.395	0.146	0.151
-272.370	-86.648	0.359	0.108
-271.355	-200.000	-0.017	-0.096
-270.340	-113.920	0.463	-0.089
-269.326	-142.592	-0.113	0.011
-268.311	-5.199	0.180	-0.122
-267.297	-125.834	-0.239	0.035
-266.282	-21.286	0.214	0.129
-265.267	-8.335	-0.083	0.055
-264.253	-112.904	0.080	-0.016
-263.238	35.836	-0.050	0.044
-262.224	49.510	0.055	-0.051
-261.209	-66.182	0.201	-0.079
-260.195	171.140	-0.034	0.047
-259.180	-200.000	-0.004	-0.220
-258.165	99.256	-0.217	-0.248
-257.151	-177.445	-0.255	-0.006
-256.136	-82.811	0.127	0.041
-255.122	-85.453	-0.166	-0.051
-254.107	131.278	-0.312	-0.395
-253.092	159.782	0.099	-0.136
-252.078	-84.006	-0.272	0.085
-251.063	-74.472	0.028	-0.010
-250.049	800.000	0.035	0.145
-249.034	25.762	-0.195	-0.160
-248.019	-32.792	-0.436	-0.239
-247.005	-59.110	-0.347	-0.147
-245.990	157.448	-0.114	0.155
-244.976	-22.968	-0.175	-0.104
-243.961	1.073	-0.230	0.163
-242.946	800.000	0.037	-0.157
-241.932	248.696	-0.144	-0.239
-240.917	-120.251	-0.439	0.074
-239.903	800.000	0.129	0.399
-238.888	-116.178	-0.244	0.045
-237.873	-59.748	-0.111	0.047
-236.859	800.000	-0.045	0.147
-235.844	39.302	0.217	0.191
-234.830	90.908	0.161	0.177
-233.815	-197.499	-0.035	-0.000
-232.800	-77.173	-0.116	-0.040
-231.786	776.868	0.058	-0.156
-230.771	-200.000	-0.058	0.297
-229.757	-101.899	0.293	-0.070
-228.742	491.147	0.047	0.105
-227.727	800.000	-0.016	0.067
-226.713	-47.359	0.157	-0.075
-225.698	-49.522	-0.065	-0.030
-224.684	120.034	0.037	0.045
-223.669	800.000	0.069	-0.270
-222.655	-17.771	0.108	0.066
-221.640	-105.952	0.356	0.079
-220.625	-128.527	-0.348	0.049
-219.611	68.332	0.275	-0.277
-218.596	339.788	-0.084	-0.162
-217.582	800.000	-0.032	-0.089
-216.567	-54.398	0.262	-0.117
-215.552	320.558	0.059	-0.111
-214.538	36.588	0.161	-0.140
-213.523	-200.000	-0.015	0.112
-212.509	-73.278	-0.258	0.093
-211.494	-131.222	-0.224	0.029
-210.479	800.000	-0.045	-0.127
-209.465	-137.319	0.086	-0.010
-208.450	-79.209	-0.232	-0.077
-207.436	-200.000	-0.004	0.085
-206.421	174.233	-0.080	0.113
-205.406	-18.352	-0.138	0.085
-204.392	392.697	0.137	0.281
-203.377	-56.922	-0.048	-0.021
-202.363	163.193	0.031	0.043
-201.348	-200.000	-0.048	-0.318
-200.333	293.621	-0.051	-0.091
-199.319	-97.070	-0.039	-0.010
-198.304	-22.705	0.066	0.039
-197.290	-28.965	0.374	0.211
-196.275	257.832	0.034	-0.058
-195.260	271.559	0.307	0.531
-194.246	-68.032	-0.207	0.079
-193.231	-20.980	-0.267	0.161
-192.217	34.047	-0.122	0.104
-191.202	-12.236	0.227	0.146
-190.187	800.000	0.032	-0.122
-189.173	163.039	0.091	0.125
-188.158	-102.129	-0.130	-0.031
-187.144	-163.266	-0.216	0.010
-186.129	308.220	-0.026	-0.048
-185.114	-59.496	0.171	-0.072
-184.100	-189.473	-0.073	-0.001
-183.085	-117.883	-0.174	0.031
-182.071	-200.000	0.034	0.211
-181.056	44.595	-0.110	0.099
-180.042	-131.192	0.116	0.015
-179.027	-106.098	-0.083	-0.018
-178.012	-108.712	0.489	-0.103
-176.998	769.319	-0.214	0.572
-175.983	800.000	0.037	-0.104
-174.969	-85.648	-0.297	-0.091
-173.954	-173.092	-0.434	0.013
-172.939	-145.863	-0.475	-0.041
-171.925	800.000	-0.054	0.192
-170.910	214.918	-0.189	0.295
-169.896	-141.251	0.268	-0.027
-168.881	-126.880	-0.068	-0.010
-167.866	-63.609	-0.068	0.027
-166.852	800.000	0.022	-0.091
-165.837	-147.509	0.044	0.004
-164.823	-51.317	-0.231	0.106
-163.808	-116.669	0.284	-0.051
-162.793	699.307	-0.084	0.216
-161.779	800.000	0.060	0.223
-160.764	800.000	-0.025	-0.092
-159.750	-96.823	0.299	-0.077
-158.735	710.109	-0.058	-0.152
-157.720	106.189	-0.102	0.119
-156.706	-115.048	0.103	0.019
-155.691	-63.843	-0.174	-0.070
-154.677	-196.680	0.081	0.001
-153.662	-200.000	-0.059	-0.326
-152.647	-122.799	0.062	-0.010
-151.633	-62.690	0.157	-0.064
-150.618	800.000	0.069	-0.265
-149.604	10.495	-0.089	-0.067
-148.589	-137.458	0.150	-0.017
-147.574	141.611	0.061	-0.080
-146.560	676.511	-0.099	-0.252
-145.545	81.271	-0.153	-0.163
-144.531	-131.017	-0.070	0.009
-143.516	-77.029	0.105	-0.036
-142.502	128.691	0.070	-0.088
-141.487	0.825	0.137	-0.096
-140.472	-200.000	0.022	-0.235
-139.458	19.636	-0.283	-0.223
-138.443	35.675	0.316	0.273
-137.429	800.000	0.018	0.074
-136.414	-174.791	0.340	0.009
-135.399	-4.036	0.274	-0.187
-134.385	-147.480	0.128	-0.011
-133.370	-200.000	0.000	0.048
-132.356	42.420	-0.091	0.081
-131.341	800.000	0.092	0.360
-130.326	-139.218	-0.141	-0.015
-129.312	489.378	-0.038	-0.085
-128.297	-80.636	-0.145	0.047
-127.283	-64.686	-0.347	0.138
-126.268	800.000	0.038	0.108
-125.253	-16.658	0.273	-0.169
-124.239	72.913	0.041	0.042
-123.224	-200.000	-0.014	-0.139
-122.210	-200.000	-0.018	-0.130
-121.195	14.290	-0.218	0.166
