DTS Sentinel unit serial number:	SN413079Multiplexer serial number:	ORYXHardware model number:	OX4-SRSoftware version number:	ORYX F/W v4.00 Oryx Data Collector v3.7.2.0data status	okinstallation	princeton_trtdifferential loss correction	single-endedforward channel	channel 2reverse channel	N/Adate	2019/09/17time	16:43:35forward acquisition time	60.00reverse acquisition time	0.00gamma	496.2192k internal	0.2291k external	0.2291temperature offset calibration	0.9984default loss term (dB/km)	0.3790temperature slope calibration	1.0000multiplexer offset coefficient	1.0000multiplexer slope coefficient	1.0000fibre end	0.00T internal ref (°C)	42.06T ext. ref 1 (°C)	0.35T ext. ref 2 (°C)	38.62length (m)	temperature (°C)	Stokes	anti-Stokes-747.200	-49.248	0.114	0.056
-746.185	-165.602	-0.467	0.021
-745.171	-79.362	0.273	0.095
-744.156	-106.146	0.246	0.057
-743.142	49.764	0.180	0.174
-742.127	50.362	-0.144	0.139
-741.112	-115.565	-0.259	-0.050
-740.098	-200.000	-0.065	0.399
-739.083	212.972	-0.186	0.301
-738.069	800.000	0.109	0.354
-737.054	800.000	0.105	0.361
-736.039	-100.883	-0.150	-0.038
-735.025	-200.000	0.001	-0.061
-734.010	284.051	0.083	0.153
-732.996	435.269	-0.124	0.277
-731.981	800.000	-0.125	-0.478
-730.966	-22.811	-0.027	0.017
-729.952	-134.212	-0.014	0.002
-728.937	800.000	-0.052	-0.179
-727.923	580.742	-0.052	-0.130
-726.908	-78.032	0.081	0.028
-725.894	-90.474	-0.169	-0.050
-724.879	800.000	0.073	-0.266
-723.864	-200.000	-0.082	-0.433
-722.850	300.144	-0.044	0.084
-721.835	-93.415	0.163	-0.046
-720.821	48.360	-0.142	0.136
-719.806	607.741	-0.009	0.023
-718.791	17.579	0.257	-0.209
-717.777	52.491	0.061	-0.059
-716.762	-200.000	-0.010	0.163
-715.748	-118.899	0.064	-0.011
-714.733	-145.159	-0.130	-0.012
-713.718	76.770	-0.045	0.049
-712.704	-11.980	-0.225	0.151
-711.689	361.959	-0.062	-0.126
-710.675	582.161	0.149	-0.375
-709.660	-200.000	-0.033	0.175
-708.645	601.193	-0.111	0.283
-707.631	-109.286	0.156	0.034
-706.616	-200.000	-0.027	0.352
-705.602	25.868	-0.099	-0.084
-704.587	-2.183	-0.213	-0.153
-703.572	178.674	0.114	-0.171
-702.558	-116.792	0.109	-0.020
-701.543	82.291	-0.133	-0.148
-700.529	800.000	-0.071	-0.276
-699.514	192.060	0.016	-0.025
-698.499	800.000	-0.031	0.104
-697.485	-99.376	0.119	-0.031
-696.470	91.284	-0.093	0.107
-695.456	45.641	-0.131	0.124
-694.441	-24.433	-0.407	0.248
-693.426	117.813	0.120	0.151
-692.412	-70.205	0.271	0.105
-691.397	-200.000	-0.056	0.265
-690.383	-54.410	0.059	-0.027
-689.368	-99.439	-0.377	-0.097
-688.354	110.673	0.196	-0.241
-687.339	396.190	0.123	0.262
-686.324	-105.245	0.062	-0.014
-685.310	-91.430	-0.383	0.112
-684.295	182.789	-0.179	0.270
-683.281	-84.587	-0.265	0.085
-682.266	-131.646	-0.155	0.021
-681.251	169.127	-0.375	-0.547
-680.237	127.644	-0.194	0.252
-679.222	588.010	-0.096	0.241
-678.208	-200.000	0.026	0.312
-677.193	-200.000	0.090	-0.480
-676.178	106.907	0.141	0.170
-675.164	-200.000	0.007	-0.042
-674.149	-123.230	-0.023	-0.004
-673.135	-52.096	-0.283	0.134
-672.120	26.544	-0.131	0.112
-671.105	743.084	-0.015	0.040
-670.091	17.004	0.178	0.144
-669.076	65.422	-0.237	0.245
-668.062	-124.010	-0.343	0.055
-667.047	800.000	-0.061	0.185
-666.032	-111.391	0.168	-0.035
-665.018	154.984	-0.074	-0.104
-664.003	-107.569	0.152	-0.034
-662.989	149.076	0.105	0.145
-661.974	-95.332	-0.110	-0.030
-660.959	-103.535	-0.268	-0.064
-659.945	-24.145	-0.203	-0.124
-658.930	-29.410	0.350	-0.204
-657.916	-87.787	0.158	0.049
-656.901	587.100	-0.055	0.137
-655.886	-57.122	-0.402	-0.181
-654.872	244.718	-0.032	0.055
-653.857	316.165	0.152	-0.294
-652.843	-130.485	0.188	0.026
-651.828	-90.212	-0.169	0.050
-650.814	800.000	-0.038	-0.107
-649.799	40.503	0.141	-0.130
-648.784	-57.309	0.154	-0.069
-647.770	-80.024	0.328	0.112
-646.755	-177.354	-0.301	0.008
-645.741	380.804	-0.157	0.329
-644.726	-94.402	0.336	0.093
-643.711	-77.633	0.361	-0.128
-642.697	-169.492	-0.155	-0.006
-641.682	171.235	0.241	0.352
-640.668	-3.375	-0.204	-0.145
-639.653	800.000	-0.087	-0.363
-638.638	-127.833	-0.067	0.010
-637.624	-122.707	-0.302	0.050
-636.609	-200.000	-0.017	0.238
-635.595	-200.000	-0.062	-0.278
-634.580	250.021	-0.113	0.196
-633.565	-200.000	-0.034	-0.171
-632.551	16.077	-0.168	0.135
-631.536	27.350	-0.263	0.226
-630.522	124.336	0.040	0.051
-629.507	-36.186	0.251	-0.138
-628.492	-200.000	-0.044	-0.237
-627.478	335.106	0.108	-0.213
-626.463	534.174	-0.164	-0.396
-625.449	660.817	-0.122	-0.321
-624.434	-200.000	-0.043	-0.235
-623.419	274.363	-0.135	0.243
-622.405	-153.433	0.191	0.014
-621.390	-0.110	0.144	0.104
-620.376	355.307	0.108	0.220
-619.361	-75.117	0.028	-0.010
-618.346	508.406	0.090	-0.214
-617.332	2.882	0.098	-0.072
-616.317	-172.962	-0.183	-0.006
-615.303	-200.000	-0.027	-0.214
-614.288	-200.000	-0.016	-0.312
-613.273	356.768	-0.153	0.310
-612.259	-73.124	-0.144	0.054
-611.244	-8.105	-0.148	0.102
-610.230	-110.212	0.191	0.041
-609.215	266.427	0.162	0.288
-608.201	-114.668	0.136	0.027
-607.186	-200.000	0.001	0.014
-606.171	1.693	0.200	0.147
-605.157	255.498	-0.034	0.059
-604.142	67.457	-0.198	0.206
-603.128	-66.670	-0.396	0.160
-602.113	70.774	0.111	-0.117
-601.098	-99.816	-0.069	-0.018
-600.084	-75.017	0.257	-0.094
-599.069	-37.003	0.068	-0.037
-598.055	-200.000	0.008	-0.060
-597.040	57.812	-0.200	0.199
-596.025	-200.000	-0.009	-0.259
-595.011	-28.303	-0.140	-0.082
-593.996	184.127	0.078	0.118
-592.982	-200.000	-0.030	0.234
-591.967	255.124	-0.122	0.213
-590.952	-58.544	-0.201	-0.089
-589.938	-28.296	0.173	-0.102
-588.923	-154.292	-0.164	0.011
-587.909	27.542	-0.162	0.139
-586.894	-89.510	0.477	-0.143
-585.879	-200.000	0.006	0.098
-584.865	241.258	-0.105	0.178
-583.850	-28.771	0.108	-0.063
-582.836	-200.000	-0.063	-0.319
-581.821	40.644	-0.102	0.094
-580.806	-94.448	-0.116	-0.032
-579.792	-104.071	-0.438	0.104
-578.777	-191.717	0.178	-0.002
-577.763	-53.904	-0.265	0.123
-576.748	-99.041	0.289	-0.074
-575.733	800.000	0.080	0.255
-574.719	-200.000	0.017	0.276
-573.704	-87.356	-0.337	0.104
-572.690	99.050	0.279	-0.328
-571.675	2.479	0.144	-0.106
-570.661	-161.362	0.130	-0.007
-569.646	-87.132	0.104	0.032
-568.631	160.662	-0.206	-0.293
-567.617	800.000	0.117	-0.415
-566.602	-19.118	-0.065	-0.041
-565.588	110.455	0.222	0.271
-564.573	203.269	-0.182	-0.286
-563.558	71.695	0.159	0.167
-562.544	-200.000	0.009	-0.041
-561.529	97.286	0.245	0.286
-560.515	14.411	-0.022	0.017
-559.500	492.864	-0.106	-0.246
-558.485	-100.244	0.235	0.059
-557.471	-200.000	-0.028	-0.174
-556.456	589.241	0.061	0.153
-555.442	420.625	-0.093	-0.202
-554.427	262.529	-0.078	-0.138
-553.412	800.000	-0.063	0.262
-552.398	799.418	-0.022	0.062
-551.383	-200.000	-0.029	0.279
-550.369	-200.000	0.000	-0.123
-549.354	713.714	-0.103	0.277
-548.339	240.787	-0.183	0.310
-547.325	-168.058	0.142	-0.006
-546.310	-200.000	-0.017	0.168
-545.296	3.869	0.392	-0.291
-544.281	409.704	-0.111	0.239
-543.266	198.685	0.161	0.250
-542.252	333.933	-0.046	-0.091
-541.237	-131.300	-0.264	-0.036
-540.223	-14.619	-0.137	0.089
-539.208	-84.923	-0.357	0.114
-538.193	274.680	0.096	-0.173
-537.179	-98.486	0.325	-0.084
-536.164	800.000	0.080	0.279
-535.150	119.163	-0.056	-0.070
-534.135	-27.899	0.252	-0.148
-533.121	-11.128	0.416	-0.278
-532.106	-55.699	-0.264	-0.120
-531.091	30.985	0.042	-0.036
-530.077	128.797	-0.222	0.288
-529.062	-108.621	0.331	-0.072
-528.048	-102.312	0.238	0.058
-527.033	282.421	0.219	-0.399
-526.018	85.235	0.178	-0.198
-525.004	-200.000	0.061	0.351
-523.989	286.704	0.091	0.167
-522.975	800.000	0.012	-0.044
-521.960	-97.997	-0.149	-0.039
-520.945	-119.971	-0.207	-0.036
-519.931	-200.000	0.098	-0.447
-518.916	-14.158	-0.248	-0.163
-517.902	-5.104	0.072	-0.050
-516.887	509.060	-0.013	-0.031
-515.872	109.090	0.174	-0.212
-514.858	117.960	-0.025	-0.031
-513.843	85.244	0.180	-0.200
-512.829	800.000	-0.101	-0.446
-511.814	800.000	-0.056	0.235
-510.799	-116.099	0.161	0.030
-509.785	-78.124	0.174	0.061
-508.770	-98.293	0.268	-0.070
-507.756	-200.000	-0.052	0.271
-506.741	-148.224	0.184	0.015
-505.726	-48.584	-0.185	0.090
-504.712	128.234	0.217	0.281
-503.697	-95.176	0.183	-0.050
-502.683	140.562	-0.104	-0.140
-501.668	-200.000	-0.013	0.210
-500.653	-52.920	0.093	0.043
-499.639	10.812	0.034	0.026
-498.624	155.144	-0.200	-0.279
-497.610	-78.036	-0.159	0.056
-496.595	-130.982	0.265	0.036
-495.581	-115.744	0.395	-0.075
-494.566	-116.105	-0.047	0.009
-493.551	-69.621	-0.129	-0.050
-492.537	110.074	0.132	0.161
-491.522	-12.658	0.400	-0.265
-490.508	51.306	0.148	0.143
-489.493	-73.681	0.180	0.066
-488.478	-51.184	0.112	-0.053
-487.464	-200.000	-0.010	-0.201
-486.449	-68.940	0.133	-0.052
-485.435	554.884	0.170	0.415
-484.420	-109.772	-0.314	0.067
-483.405	426.637	-0.183	-0.400
-482.391	228.527	0.166	-0.274
-481.376	-8.586	0.145	0.099
-480.362	21.847	-0.166	-0.137
-479.347	49.595	0.151	0.144
-478.332	298.462	-0.189	-0.352
-477.318	421.560	0.145	-0.314
-476.303	291.587	-0.090	0.166
-475.289	-75.968	-0.241	0.086
-474.274	-200.000	-0.020	0.229
-473.259	492.194	-0.094	0.218
-472.245	-36.219	-0.170	-0.093
-471.230	-17.992	-0.124	-0.078
-470.216	-145.806	-0.265	0.024
-469.201	-72.449	-0.173	-0.065
-468.186	130.050	0.189	-0.245
-467.172	424.574	0.097	-0.211
-466.157	37.822	0.183	0.165
-465.143	800.000	-0.076	0.275
-464.128	-128.048	-0.050	-0.007
-463.113	317.526	-0.084	0.161
-462.099	-44.558	-0.522	0.264
-461.084	497.713	0.091	-0.213
-460.070	224.570	-0.113	0.185
-459.055	346.799	-0.076	-0.151
-458.040	-200.000	-0.059	-0.308
-457.026	-121.530	-0.104	0.017
-456.011	-200.000	0.006	0.087
-454.997	-43.506	0.271	-0.138
-453.982	-162.893	0.012	0.001
-452.968	-200.000	-0.013	-0.188
-451.953	5.924	-0.116	0.087
-450.938	800.000	-0.091	0.266
-449.924	-131.890	-0.429	0.057
-448.909	207.951	-0.146	-0.232
-447.895	-200.000	0.065	0.474
-446.880	421.658	0.145	0.314
-445.865	-200.000	-0.025	0.335
-444.851	-200.000	-0.005	0.127
-443.836	-200.000	0.027	0.390
-442.822	5.509	0.102	0.077
-441.807	268.228	-0.230	-0.407
-440.792	79.639	0.084	-0.091
-439.778	800.000	0.025	-0.088
-438.763	74.442	0.214	0.227
-437.749	-185.297	0.342	-0.005
-436.734	280.734	0.033	0.059
-435.719	-200.000	-0.023	0.301
-434.705	255.445	-0.114	-0.198
-433.690	791.635	0.062	0.173
-432.676	-176.027	0.255	0.007
-431.661	800.000	-0.050	-0.195
-430.646	-200.000	-0.068	0.377
-429.632	-119.486	0.359	-0.063
-428.617	75.138	0.163	0.173
-427.603	-79.527	0.146	-0.050
-426.588	-50.305	-0.218	0.104
-425.573	-22.065	-0.050	-0.031
-424.559	-13.394	-0.359	-0.236
-423.544	214.082	0.022	0.036
-422.530	56.320	-0.121	-0.119
-421.515	-200.000	0.028	0.311
-420.500	-200.000	-0.148	-0.000
-419.486	-2.730	0.268	0.190
-418.471	800.000	-0.083	-0.358
-417.457	-83.116	-0.076	0.025
-416.442	138.646	-0.070	-0.093
-415.428	176.413	-0.133	-0.195
-414.413	-183.185	0.291	0.005
-413.398	501.213	-0.172	0.400
-412.384	217.844	0.131	0.211
-411.369	-80.264	-0.185	-0.063
-410.355	221.140	0.076	0.124
-409.340	800.000	0.060	0.190
-408.325	34.998	-0.214	0.190
-407.311	-200.000	0.002	-0.138
-406.296	28.345	-0.051	-0.044
-405.282	-200.000	0.074	-0.440
-404.267	-200.000	0.033	-0.286
-403.252	-200.000	0.002	0.161
-402.238	-54.906	-0.144	-0.066
-401.223	-200.000	-0.078	-0.501
-400.209	57.819	0.171	-0.169
-399.194	301.345	0.150	0.279
-398.179	800.000	-0.065	0.238
-397.165	-97.538	-0.288	0.076
-396.150	577.121	-0.075	0.184
-395.136	145.582	-0.133	0.180
-394.121	-85.306	-0.386	-0.122
-393.106	63.803	-0.077	-0.078
-392.092	144.901	-0.079	0.107
-391.077	-146.229	0.060	-0.005
-390.063	-4.413	0.137	-0.096
-389.048	800.000	-0.099	0.346
-388.033	-200.000	0.117	0.729
-387.019	-147.137	-0.177	-0.015
-386.004	171.191	-0.100	-0.145
-384.990	199.822	-0.293	0.455
-383.975	108.041	0.017	-0.021
-382.960	-3.255	0.167	-0.118
-381.946	-200.000	-0.007	-0.145
-380.931	86.146	0.216	0.240
-379.917	-200.000	-0.023	0.218
-378.902	148.636	-0.108	0.148
-377.888	-22.598	-0.030	0.018
-376.873	800.000	0.081	-0.254
-375.858	1.772	-0.262	-0.190
-374.844	297.601	0.037	0.068
-373.829	-143.223	0.064	-0.006
-372.815	-200.000	0.008	-0.050
-371.800	176.222	0.094	-0.137
-370.785	57.791	0.053	-0.053
-369.771	312.845	-0.032	-0.061
-368.756	48.784	0.215	0.203
-367.742	61.513	-0.063	0.063
-366.727	-200.000	-0.011	-0.105
-365.712	321.987	-0.085	-0.163
-364.698	-139.519	0.220	-0.024
-363.683	-31.708	-0.248	0.140
-362.669	-121.208	0.289	0.049
-361.654	33.646	-0.134	-0.118
-360.639	-200.000	0.118	0.000
-359.625	-78.369	0.194	0.067
-358.610	-200.000	-0.005	-0.155
-357.596	367.687	-0.065	-0.132
-356.581	164.580	-0.332	-0.472
-355.566	-200.000	-0.007	0.045
-354.552	-200.000	-0.050	-0.255
-353.537	-200.000	0.080	-0.363
-352.523	-28.847	0.123	-0.072
-351.508	59.601	-0.066	0.066
-350.493	-5.317	-0.168	0.116
-349.479	60.021	0.019	-0.019
-348.464	111.084	0.137	0.166
-347.450	573.125	0.167	-0.410
-346.435	800.000	0.038	-0.134
-345.420	-51.895	-0.190	0.089
-344.406	-8.369	-0.410	-0.278
-343.391	118.622	-0.120	-0.149
-342.377	91.373	0.189	0.214
-341.362	-200.000	-0.035	-0.189
-340.348	-11.766	-0.122	-0.081
-339.333	-151.023	0.557	-0.042
-338.318	-101.760	0.067	-0.016
-337.304	-200.000	0.055	-0.257
-336.289	-50.551	-0.246	-0.117
-335.275	242.964	0.073	-0.123
-334.260	800.000	-0.073	-0.213
-333.245	-18.025	-0.108	-0.068
-332.231	215.080	0.102	-0.163
-331.216	291.889	-0.049	0.090
-330.202	80.852	-0.118	-0.128
-329.187	-57.321	0.289	0.128
-328.172	-99.546	0.224	-0.057
-327.158	800.000	0.033	-0.129
-326.143	-200.000	0.040	-0.218
-325.129	18.456	-0.339	-0.273
-324.114	31.893	-0.104	0.091
-323.099	-11.217	0.265	-0.176
-322.085	-200.000	-0.011	-0.147
-321.070	31.257	0.024	-0.020
-320.056	615.245	0.024	0.061
-319.041	-163.847	0.070	-0.003
-318.026	66.173	-0.118	-0.120
-317.012	61.101	-0.255	0.255
-315.997	-92.722	-0.173	0.049
-314.983	-91.266	0.037	0.011
-313.968	-57.127	0.089	-0.039
-312.953	-67.544	-0.133	0.053
-311.939	-200.000	-0.071	-0.341
-310.924	-49.033	-0.267	-0.129
-309.910	-200.000	-0.003	0.122
-308.895	-79.955	-0.029	-0.010
-307.880	-82.110	0.286	0.094
-306.866	-59.518	-0.071	-0.031
-305.851	-27.688	-0.121	-0.071
-304.837	-18.560	-0.097	-0.061
-303.822	41.883	0.191	0.175
-302.807	-200.000	0.058	0.273
-301.793	-200.000	-0.024	-0.109
-300.778	246.379	0.150	0.254
-299.764	-4.906	-0.028	-0.020
-298.749	-200.000	0.000	-0.280
-297.735	548.096	-0.086	-0.206
-296.720	-200.000	0.035	0.312
-295.705	-164.526	0.211	-0.010
-294.691	148.190	0.136	0.184
-293.676	199.301	-0.129	-0.199
-292.662	800.000	0.045	0.162
-291.647	-200.000	0.011	0.256
-290.632	-200.000	0.025	-0.212
-289.618	800.000	-0.029	0.091
-288.603	373.060	-0.067	-0.137
-287.589	269.288	0.188	0.332
-286.574	-2.951	-0.183	0.129
-285.559	248.195	-0.200	0.341
-284.545	344.576	-0.121	-0.239
-283.530	-116.271	0.471	-0.088
-282.516	148.590	-0.113	-0.154
-281.501	316.474	0.075	-0.143
-280.486	-198.743	0.453	-0.003
-279.472	-3.184	-0.080	-0.056
-278.457	-82.039	0.087	0.028
-277.443	-89.059	-0.315	0.094
-276.428	125.575	-0.248	0.315
-275.413	236.414	-0.086	0.143
-274.399	36.995	-0.092	-0.081
-273.384	18.210	0.076	-0.061
-272.370	45.776	0.104	-0.096
-271.355	800.000	0.049	-0.166
-270.340	136.953	-0.053	-0.069
-269.326	800.000	-0.028	0.097
-268.311	800.000	-0.072	0.210
-267.297	-47.588	-0.211	-0.103
-266.282	-10.087	0.415	-0.277
-265.267	203.733	0.176	-0.273
-264.253	-81.915	0.019	0.006
-263.238	-75.129	-0.150	-0.054
-262.224	-200.000	0.017	0.277
-261.209	61.187	-0.239	-0.239
-260.195	6.216	-0.065	0.049
-259.180	-31.403	-0.168	-0.095
-258.165	61.531	-0.079	-0.078
-257.151	33.397	0.127	-0.111
-256.136	-69.998	-0.190	-0.073
-255.122	-12.099	-0.213	0.140
-254.107	-72.942	0.183	0.067
-253.092	-122.696	0.070	0.011
-252.078	800.000	-0.006	0.021
-251.063	800.000	-0.059	0.196
-250.049	59.664	-0.118	-0.117
-249.034	372.908	-0.206	-0.421
-248.019	-164.752	0.292	0.013
-247.005	54.163	-0.120	-0.116
-245.990	-56.422	0.214	-0.095
-244.976	89.537	-0.287	0.321
-243.961	52.884	-0.144	0.138
-242.946	18.998	0.071	0.057
-241.932	-200.000	0.023	-0.147
-240.917	800.000	-0.099	-0.307
-239.903	-200.000	-0.056	0.329
-238.888	-81.712	0.337	0.111
-237.873	-149.451	-0.309	-0.025
-236.859	-200.000	0.030	-0.341
-235.844	56.490	-0.256	-0.250
-234.830	800.000	-0.071	0.309
-233.815	225.503	0.177	0.288
-232.800	-200.000	-0.004	0.124
-231.786	89.838	-0.014	-0.016
-230.771	193.211	0.134	-0.203
-229.757	476.742	0.051	0.116
-228.742	-200.000	-0.007	0.188
-227.727	-200.000	0.029	-0.293
-226.713	-107.634	0.159	0.035
-225.698	800.000	0.055	0.200
-224.684	-76.032	0.315	0.112
-223.669	-130.987	-0.134	0.018
-222.655	-0.765	-0.162	0.115
-221.640	-200.000	0.028	0.177
-220.625	-200.000	-0.032	0.241
-219.611	-95.257	-0.237	0.064
-218.596	-200.000	-0.058	0.265
-217.582	99.055	0.218	0.253
-216.567	169.248	-0.134	-0.192
-215.552	-61.122	-0.085	-0.036
-214.538	-168.960	-0.526	-0.020
-213.523	242.493	-0.163	-0.274
-212.509	-200.000	-0.048	0.277
-211.494	800.000	0.105	-0.369
-210.479	172.014	-0.077	0.111
-209.465	-71.708	0.208	0.078
-208.450	5.511	-0.096	0.071
-207.436	-200.000	-0.016	-0.413
-206.421	226.526	0.156	-0.253
-205.406	-200.000	-0.044	-0.205
-204.392	-120.165	0.309	-0.053
-203.377	-13.566	0.011	-0.007
-202.363	-10.229	0.258	0.171
-201.348	250.395	-0.042	-0.071
-200.333	-64.648	0.187	0.076
-199.319	-15.664	-0.117	-0.074
-198.304	-21.201	-0.102	-0.063
-197.290	-43.213	-0.105	0.053
-196.275	-164.125	-0.147	-0.007
-195.260	-7.015	0.126	-0.086
-194.246	141.742	-0.154	-0.204
-193.231	94.191	-0.075	0.085
-192.217	243.832	-0.136	0.229
-191.202	22.724	0.254	-0.209
-190.187	173.443	0.159	-0.230
-189.173	169.874	0.169	0.243
-188.158	23.784	-0.012	-0.010
-187.144	-47.783	-0.171	0.083
-186.129	220.418	0.186	0.299
-185.114	-23.731	0.073	-0.044
-184.100	443.365	-0.134	-0.293
-183.085	30.574	-0.294	-0.252
-182.071	-200.000	-0.010	-0.141
-181.056	250.482	0.151	0.256
-180.042	800.000	-0.107	-0.320
-179.027	-200.000	-0.019	0.089
-178.012	177.365	0.144	0.211
-176.998	-200.000	0.038	-0.232
-175.983	-200.000	0.022	0.212
-174.969	-116.754	-0.058	0.011
-173.954	67.764	0.154	-0.158
-172.939	498.619	0.059	0.136
-171.925	-151.242	-0.040	0.003
-170.910	79.935	-0.150	-0.161
-169.896	-19.496	0.147	-0.091
-168.881	504.731	-0.023	0.053
-167.866	65.958	0.257	0.261
-166.852	-145.083	-0.166	0.015
-165.837	-77.417	0.133	-0.046
-164.823	800.000	0.191	0.692
-163.808	-8.896	-0.042	0.028
-162.793	-200.000	0.037	0.435
-161.779	131.668	0.036	0.046
-160.764	-200.000	0.038	0.223
-159.750	316.521	0.076	0.143
-158.735	800.000	0.034	0.143
-157.720	-121.105	0.324	0.054
-156.706	265.470	-0.061	0.107
-155.691	-86.984	0.102	0.031
-154.677	-200.000	-0.039	0.178
-153.662	-200.000	0.020	0.281
-152.647	134.091	0.132	-0.170
-151.633	42.945	-0.417	-0.381
-150.618	-18.817	0.337	0.210
-149.604	-200.000	-0.014	-0.079
-148.589	754.041	0.034	-0.093
-147.574	800.000	-0.174	-0.560
-146.560	-147.895	0.046	-0.004
-145.545	-53.665	0.154	0.070
-144.531	-123.632	0.212	-0.034
-143.516	800.000	0.029	-0.081
-142.502	69.863	-0.150	-0.155
-141.487	-200.000	0.046	-0.323
-140.472	-117.206	-0.308	0.056
-139.458	-170.297	-0.198	-0.007
-138.443	336.853	-0.185	0.359
-137.429	14.246	0.242	-0.188
-136.414	-200.000	0.023	0.205
-135.399	194.844	0.044	0.066
-134.385	-200.000	0.045	0.258
-133.370	-191.635	0.134	-0.001
-132.356	800.000	0.085	-0.311
-131.341	-200.000	-0.022	0.214
-130.326	800.000	0.042	-0.124
-129.312	-94.449	0.219	0.060
-128.297	-22.697	0.214	0.130
-127.283	118.416	0.115	0.142
-126.268	447.157	0.137	0.302
-125.253	94.472	0.303	0.344
-124.239	443.473	0.086	0.189
-123.224	-23.681	-0.062	0.037
-122.210	34.529	0.086	0.075
-121.195	-173.022	0.188	0.006
