DTS Sentinel unit serial number:	SN413079Multiplexer serial number:	ORYXHardware model number:	OX4-SRSoftware version number:	ORYX F/W v4.00 Oryx Data Collector v3.7.2.0data status	okinstallation	princeton_trtdifferential loss correction	single-endedforward channel	channel 2reverse channel	N/Adate	2019/09/12time	18:23:49forward acquisition time	15.00reverse acquisition time	0.00gamma	496.2192k internal	0.2324k external	0.2324temperature offset calibration	1.0137default loss term (dB/km)	0.3790temperature slope calibration	1.0000multiplexer offset coefficient	1.0000multiplexer slope coefficient	1.0000fibre end	0.00T internal ref (°C)	33.37T ext. ref 1 (°C)	3.05T ext. ref 2 (°C)	27.97length (m)	temperature (°C)	Stokes	anti-Stokes-747.200	-27.083	-0.089	-0.052
-746.185	56.010	0.741	-0.726
-745.171	800.000	-0.163	-0.575
-744.156	-82.765	-0.231	-0.075
-743.142	-38.033	-0.881	0.472
-742.127	-139.551	-0.215	-0.023
-741.112	-32.803	-0.794	0.445
-740.098	-200.000	-0.111	0.693
-739.083	-200.000	-0.058	-0.306
-738.069	242.665	0.230	-0.388
-737.054	138.077	-0.517	0.684
-736.039	6.335	0.345	-0.259
-735.025	-200.000	0.002	0.604
-734.010	276.853	-0.171	-0.307
-732.996	22.978	-0.227	0.188
-731.981	800.000	0.075	0.295
-730.966	176.891	-0.249	-0.366
-729.952	-18.059	0.331	0.209
-728.937	307.203	0.193	-0.363
-727.923	85.231	0.037	0.041
-726.908	-23.591	0.597	-0.361
-725.894	800.000	0.230	-0.997
-724.879	4.644	-0.224	0.166
-723.864	800.000	0.154	-0.595
-722.850	-46.395	-0.380	0.188
-721.835	63.855	-0.410	-0.415
-720.821	-200.000	-0.034	-1.059
-719.806	800.000	-0.170	-0.564
-718.791	-200.000	0.004	0.094
-717.777	-171.345	-0.457	-0.015
-716.762	204.709	-0.371	-0.580
-715.748	-200.000	-0.044	-0.269
-714.733	-153.668	-0.704	0.049
-713.718	-200.000	-0.006	0.233
-712.704	-117.647	0.610	-0.111
-711.689	-45.942	0.840	-0.418
-710.675	800.000	0.033	0.113
-709.660	-56.581	-0.430	-0.192
-708.645	-131.731	-0.342	0.045
-707.631	115.840	-0.348	-0.429
-706.616	-52.166	-1.072	-0.501
-705.602	248.477	0.093	-0.158
-704.587	-185.609	0.577	-0.009
-703.572	269.581	0.107	0.189
-702.558	-136.085	-0.078	0.009
-701.543	-28.281	-0.347	-0.202
-700.529	-26.307	0.368	-0.218
-699.514	418.106	0.488	1.051
-698.499	-11.328	-0.240	0.159
-697.485	83.333	-0.203	0.223
-696.470	-200.000	0.030	-0.616
-695.456	-200.000	0.018	-0.149
-694.441	-20.572	0.087	0.054
-693.426	-107.081	0.119	0.026
-692.412	800.000	-0.067	-0.286
-691.397	-62.673	0.611	-0.255
-690.383	-31.383	-0.249	-0.141
-689.368	-86.203	0.646	-0.201
-688.354	-19.382	-0.250	-0.156
-687.339	-68.259	-0.184	-0.072
-686.324	-101.347	0.610	0.150
-685.310	5.669	-0.353	0.263
-684.295	-200.000	0.042	0.478
-683.281	-161.469	-1.018	-0.053
-682.266	34.585	0.796	0.700
-681.251	124.701	0.861	-1.091
-680.237	349.555	-0.351	-0.697
-679.222	-159.141	-0.281	0.016
-678.208	-88.514	-0.934	0.280
-677.193	-10.904	0.476	0.316
-676.178	800.000	0.168	0.492
-675.164	-200.000	-0.066	0.373
-674.149	-51.262	-0.377	0.178
-673.135	800.000	0.283	-0.834
-672.120	12.517	-0.590	-0.458
-671.105	267.780	-0.116	-0.205
-670.091	-40.387	0.707	-0.370
-669.076	-143.938	0.569	0.054
-668.062	-200.000	0.019	-0.250
-667.047	-10.957	0.579	-0.385
-666.032	800.000	0.127	0.399
-665.018	701.001	-0.152	0.402
-664.003	82.212	0.470	-0.513
-662.989	800.000	0.157	-0.447
-661.974	800.000	-0.076	0.304
-660.959	-111.362	0.205	0.042
-659.945	-200.000	0.065	-0.787
-658.930	6.313	0.605	0.451
-657.916	-175.475	0.366	0.010
-656.901	73.282	-0.226	0.238
-655.886	270.080	0.200	-0.354
-654.872	800.000	-0.236	0.663
-653.857	-144.705	0.745	-0.069
-652.843	-133.154	-0.282	-0.036
-651.828	-200.000	-0.002	-0.592
-650.814	212.995	-0.683	1.084
-649.799	108.623	-0.711	-0.854
-648.784	112.309	-0.469	0.570
-647.770	-200.000	-0.228	0.001
-646.755	800.000	-0.079	0.254
-645.741	-128.526	-0.549	0.078
-644.726	-145.829	0.175	0.016
-643.711	224.053	-0.082	0.134
-642.697	-31.422	0.637	-0.360
-641.682	240.833	-0.435	0.731
-640.668	-124.439	0.569	-0.089
-639.653	-51.722	0.549	0.257
-638.638	-57.175	-0.294	0.130
-637.624	28.517	-0.214	0.182
-636.609	-162.227	-0.677	-0.034
-635.595	-32.394	-0.092	-0.051
-634.580	-200.000	-0.092	1.059
-633.565	210.390	0.593	0.936
-632.551	10.929	-0.528	-0.405
-631.536	180.811	-0.499	-0.736
-630.522	-84.769	-0.250	0.079
-629.507	-53.472	0.476	-0.219
-628.492	365.789	-0.069	0.140
-627.478	800.000	-0.154	-0.551
-626.463	-200.000	0.025	-0.329
-625.449	-118.842	-0.480	-0.085
-624.434	505.408	0.269	-0.627
-623.419	236.301	0.349	-0.580
-622.405	800.000	-0.353	-1.165
-621.390	-35.261	0.077	0.042
-620.376	800.000	-0.220	0.627
-619.361	-200.000	-0.129	1.436
-618.346	11.717	0.972	0.750
-617.332	531.110	-0.223	0.530
-616.317	-85.698	0.234	-0.073
-615.303	18.323	-0.268	0.215
-614.288	-107.716	0.404	-0.088
-613.273	-200.000	0.019	-0.196
-612.259	-28.229	1.037	0.602
-611.244	-147.742	-0.094	0.008
-610.230	-200.000	-0.052	1.157
-609.215	243.123	0.261	-0.439
-608.201	-200.000	-0.008	0.139
-607.186	-69.867	-1.279	-0.490
-606.171	9.775	0.689	-0.524
-605.157	-26.479	0.214	-0.126
-604.142	-26.003	-0.382	-0.226
-603.128	-200.000	-0.019	-0.647
-602.113	389.943	-0.516	-1.073
-601.098	131.761	-0.437	0.564
-600.084	-103.681	-0.325	-0.076
-599.069	-146.515	-0.747	-0.065
-598.055	-103.392	-0.159	-0.038
-597.040	540.527	-0.159	0.379
-596.025	200.654	0.359	0.554
-595.011	144.448	0.511	-0.685
-593.996	-30.610	-0.203	0.115
-592.982	-68.882	0.536	-0.208
-591.967	-200.000	-0.002	0.431
-590.952	-76.134	0.566	0.200
-589.938	800.000	-0.099	0.417
-588.923	-70.612	-0.362	-0.137
-587.909	-200.000	-0.045	-0.386
-586.894	800.000	0.244	-0.865
-585.879	-62.175	-0.391	-0.164
-584.865	-120.440	0.218	0.037
-583.850	-52.587	0.586	-0.272
-582.836	-200.000	0.112	0.946
-581.821	-200.000	-0.032	0.320
-580.806	73.169	0.351	0.368
-579.792	-36.244	-0.292	-0.158
-578.777	127.317	-0.421	-0.536
-577.763	-140.343	-0.438	0.046
-576.748	-37.553	-0.182	0.098
-575.733	119.515	0.371	-0.460
-574.719	432.253	-0.127	0.275
-573.704	-200.000	-0.038	-0.293
-572.690	-54.848	0.491	-0.222
-571.675	-69.639	0.336	0.129
-570.661	-200.000	-0.002	-0.348
-569.646	-105.768	-0.395	0.090
-568.631	656.872	-0.188	-0.485
-567.617	15.540	0.450	-0.354
-566.602	81.774	0.272	0.295
-565.588	-200.000	0.003	-0.183
-564.573	800.000	0.189	0.646
-563.558	438.456	0.169	-0.370
-562.544	-126.048	-0.177	-0.027
-561.529	-99.953	-0.747	-0.187
-560.515	70.707	-0.632	-0.656
-559.500	800.000	0.056	-0.230
-558.485	800.000	-0.035	0.100
-557.471	-149.425	-0.424	0.034
-556.456	469.711	-0.152	0.343
-555.442	791.714	0.333	0.919
-554.427	-104.339	1.380	0.321
-553.412	-1.820	0.251	-0.177
-552.398	-200.000	-0.012	0.294
-551.383	172.703	0.663	-0.956
-550.369	39.437	-0.406	0.364
-549.354	126.310	-0.159	-0.201
-548.339	459.379	-0.066	0.146
-547.325	-35.288	-0.842	-0.459
-546.310	-180.980	0.759	-0.015
-545.296	-162.728	-0.332	0.016
-544.281	-200.000	-0.006	-0.143
-543.266	-200.000	-0.110	0.493
-542.252	800.000	0.152	-0.521
-541.237	560.843	0.046	0.110
-540.223	-20.245	-0.657	0.405
-539.208	101.016	0.251	-0.293
-538.193	333.929	0.170	0.329
-537.179	-5.469	0.247	0.170
-536.164	99.914	-0.189	0.220
-535.150	56.328	0.429	-0.417
-534.135	-103.875	0.370	-0.087
-533.121	800.000	0.165	-0.606
-532.106	800.000	0.106	0.419
-531.091	-200.000	-0.006	-0.130
-530.077	-59.168	0.895	-0.386
-529.062	-84.557	0.464	-0.147
-528.048	-200.000	0.013	0.499
-527.033	-169.717	-0.884	-0.032
-526.018	800.000	0.289	-1.258
-525.004	-54.345	-0.422	-0.192
-523.989	-200.000	0.180	0.959
-522.975	-68.021	0.156	-0.061
-521.960	289.375	0.032	-0.059
-520.945	113.722	0.432	0.525
-519.931	800.000	0.067	-0.259
-518.916	244.990	0.155	0.260
-517.902	-79.262	0.434	-0.147
-516.887	-200.000	0.033	0.832
-515.872	222.535	-0.315	0.507
-514.858	-200.000	0.044	-0.336
-513.843	-81.639	-1.309	0.430
-512.829	800.000	-0.162	-0.544
-511.814	467.596	-0.162	-0.363
-510.799	-200.000	-0.038	-0.324
-509.785	-61.350	-0.571	-0.240
-508.770	-200.000	-0.003	0.990
-507.756	274.685	-0.392	-0.695
-506.741	-200.000	0.080	0.643
-505.726	152.306	-0.141	-0.192
-504.712	344.457	-0.153	0.300
-503.697	29.781	-0.950	-0.809
-502.683	-18.325	-0.141	0.088
-501.668	800.000	-0.167	-0.639
-500.653	-102.545	-0.298	0.071
-499.639	-169.550	0.162	-0.006
-498.624	19.311	-0.512	0.411
-497.610	-50.666	-0.281	0.132
-496.595	-11.783	0.220	-0.144
-495.581	-131.192	0.340	0.045
-494.566	-48.328	0.643	-0.310
-493.551	-127.070	0.816	0.120
-492.537	-200.000	-0.070	0.379
-491.522	111.115	-0.344	-0.414
-490.508	-200.000	0.020	0.471
-489.493	97.368	0.226	-0.260
-488.478	104.624	0.493	-0.580
-487.464	800.000	-0.188	0.652
-486.449	-170.110	0.516	0.018
-485.435	13.659	-0.385	-0.299
-484.420	-94.362	-0.220	-0.060
-483.405	-200.000	0.103	0.599
-482.391	-145.626	0.691	0.062
-481.376	-128.408	-1.187	0.169
-480.362	-200.000	-0.030	-0.321
-479.347	-24.023	1.028	0.614
-478.332	800.000	-0.210	0.592
-477.318	-40.685	0.545	0.282
-476.303	-137.440	0.810	-0.092
-475.289	26.589	0.404	-0.338
-474.274	167.147	-0.307	0.435
-473.259	-158.581	-0.332	0.019
-472.245	176.694	0.514	-0.747
-471.230	-87.694	-0.101	-0.030
-470.216	-164.823	0.696	0.031
-469.201	-200.000	0.059	0.658
-468.186	800.000	-0.160	-0.482
-467.172	41.026	-0.241	-0.217
-466.157	32.946	-0.274	-0.237
-465.143	170.324	-0.550	0.786
-464.128	-182.457	0.587	0.011
-463.113	-156.751	0.517	0.032
-462.099	-200.000	-0.078	-0.672
-461.084	-123.798	-0.411	0.065
-460.070	-200.000	-0.073	0.670
-459.055	-63.644	0.959	0.393
-458.040	-200.000	-0.011	-0.090
-457.026	-167.964	-0.626	-0.024
-456.011	677.648	0.264	-0.686
-454.997	-72.403	-0.300	-0.111
-453.982	-2.579	0.053	-0.037
-452.968	-76.464	0.739	-0.259
-451.953	-101.652	-0.676	0.164
-450.938	76.338	-0.558	0.590
-449.924	-107.407	0.172	-0.038
-448.909	-99.552	1.112	0.279
-447.895	115.366	0.357	0.435
-446.880	-66.965	-0.059	0.023
-445.865	15.877	0.376	0.295
-444.851	-166.868	0.826	-0.034
-443.836	-200.000	0.064	0.481
-442.822	69.237	-0.995	1.021
-441.807	-104.625	-0.607	0.140
-440.792	452.471	0.270	-0.596
-439.778	0.645	0.638	-0.455
-438.763	-200.000	-0.020	-0.110
-437.749	-27.774	-0.364	-0.211
-436.734	800.000	-0.084	-0.300
-435.719	296.154	0.160	0.293
-434.705	127.176	0.558	0.705
-433.690	518.749	0.057	-0.132
-432.676	470.727	0.340	-0.762
-431.661	-135.411	-0.624	-0.074
-430.646	800.000	-0.212	0.640
-429.632	450.769	0.120	-0.265
-428.617	-43.301	0.258	0.130
-427.603	228.591	-0.273	-0.444
-426.588	17.207	0.668	0.528
-425.573	-200.000	-0.074	0.645
-424.559	-137.040	0.508	-0.058
-423.544	244.075	-0.364	0.609
-422.530	53.547	-0.214	0.205
-421.515	512.093	-0.277	0.642
-420.500	47.489	-0.582	0.541
-419.486	767.946	0.203	0.551
-418.471	-40.082	0.536	-0.278
-417.457	-12.346	-0.638	-0.416
-416.442	800.000	0.264	-0.821
-415.428	217.854	-0.137	0.218
-414.413	-200.000	-0.046	0.272
-413.398	-28.466	-0.633	-0.364
-412.384	235.662	-0.469	0.772
-411.369	-200.000	-0.022	-0.141
-410.355	-150.651	-0.358	-0.027
-409.340	800.000	-0.136	-0.496
-408.325	336.964	0.501	-0.970
-407.311	-113.427	0.630	-0.123
-406.296	-200.000	0.054	0.660
-405.282	163.559	0.222	-0.311
-404.267	-200.000	-0.215	-0.972
-403.252	-24.454	-0.246	0.146
-402.238	-200.000	-0.079	0.454
-401.223	30.679	-0.338	-0.288
-400.209	-45.014	-0.234	-0.116
-399.194	-200.000	-0.109	-0.582
-398.179	-200.000	-0.059	-0.319
-397.165	1.956	-0.509	-0.366
-396.150	-108.508	0.319	-0.068
-395.136	332.189	-0.095	-0.183
-394.121	617.619	-0.226	-0.565
-393.106	114.511	0.371	0.449
-392.092	131.308	-0.164	0.210
-391.077	-27.148	-0.329	-0.191
-390.063	-200.000	0.103	-0.497
-389.048	95.256	-0.420	0.477
-388.033	350.469	0.208	0.410
-387.019	800.000	-0.176	-0.494
-386.004	-19.962	0.433	0.266
-384.990	-200.000	0.010	-0.045
-383.975	29.648	-0.734	0.622
-382.960	329.505	0.230	-0.441
-381.946	166.191	-0.227	-0.320
-380.931	-56.194	0.218	0.096
-379.917	137.702	0.313	0.408
-378.902	-200.000	0.033	-0.292
-377.888	-70.595	-0.613	-0.231
-376.873	800.000	0.068	0.260
-375.858	83.677	-0.245	0.266
-374.844	800.000	-0.040	0.150
-373.829	-58.516	-0.725	-0.313
-372.815	-103.458	-0.943	0.221
-371.800	-59.877	0.336	-0.143
-370.785	800.000	0.124	0.383
-369.771	-106.603	-0.816	-0.181
-368.756	0.679	-0.396	0.282
-367.742	-106.717	0.341	0.075
-366.727	7.511	0.687	0.511
-365.712	96.017	-0.244	0.278
-364.698	299.833	0.457	0.838
-363.683	21.868	-0.707	0.573
-362.669	-115.642	0.455	0.085
-361.654	512.288	-0.124	-0.287
-360.639	-68.889	-0.812	-0.312
-359.625	19.353	0.246	0.196
-358.610	57.738	0.292	0.284
-357.596	22.682	0.427	-0.348
-356.581	-66.757	-0.985	0.388
-355.566	681.994	0.203	0.527
-354.552	1.470	-0.577	-0.413
-353.537	-33.632	0.488	-0.268
-352.523	-112.059	-0.719	0.144
-351.508	-41.701	0.195	0.100
-350.493	-200.000	-0.061	-0.287
-349.479	34.826	-0.393	-0.342
-348.464	174.048	0.633	0.909
-347.450	-200.000	-0.187	-0.847
-346.435	-200.000	0.010	-0.700
-345.420	-103.897	1.032	0.240
-344.406	639.408	-0.200	0.506
-343.391	137.853	-0.362	-0.471
-342.377	-25.271	-0.675	-0.397
-341.362	-200.000	-0.020	-0.288
-340.348	-200.000	0.102	0.830
-339.333	-17.984	-0.345	-0.215
-338.318	-132.800	-0.177	0.022
-337.304	-107.167	0.278	-0.061
-336.289	38.992	0.282	-0.251
-335.275	-94.824	-0.746	-0.201
-334.260	800.000	-0.200	0.789
-333.245	-3.652	-0.453	-0.312
-332.231	-152.757	-0.774	-0.055
-331.216	110.023	0.519	0.619
-330.202	-14.799	-0.537	-0.342
-329.187	-200.000	-0.155	-0.842
-328.172	-80.835	0.843	-0.278
-327.158	-101.393	0.147	0.036
-326.143	-73.122	-0.770	-0.280
-325.129	800.000	-0.223	0.947
-324.114	231.783	0.152	-0.248
-323.099	-200.000	-0.006	0.653
-322.085	-200.000	0.208	1.128
-321.070	123.721	-0.204	-0.255
-320.056	-200.000	-0.012	-0.625
-319.041	60.550	-0.251	-0.247
-318.026	-45.657	-0.597	-0.293
-317.012	800.000	0.266	-0.746
-315.997	-78.291	0.644	0.220
-314.983	451.011	-0.116	-0.253
-313.968	-102.741	-0.710	-0.168
-312.953	281.579	-0.250	-0.444
-311.939	-79.567	-0.227	0.076
-310.924	-200.000	-0.095	0.755
-309.910	800.000	-0.140	-0.560
-308.895	800.000	0.190	0.531
-307.880	45.408	0.187	0.171
-306.866	-142.027	-0.278	-0.028
-305.851	577.501	0.271	-0.657
-304.837	-200.000	0.013	-0.239
-303.822	62.560	-0.305	-0.302
-302.807	-200.000	-0.081	0.782
-301.793	-200.000	0.065	-0.461
-300.778	-138.707	0.696	-0.075
-299.764	800.000	0.237	-0.748
-298.749	-133.404	-0.684	-0.085
-297.735	-90.844	0.464	-0.133
-296.720	800.000	0.182	-0.785
-295.705	-141.374	0.881	-0.089
-294.691	35.443	0.686	-0.598
-293.676	9.707	-0.281	-0.212
-292.662	800.000	0.291	-0.934
-291.647	113.239	-0.291	-0.350
-290.632	-200.000	-0.112	0.666
-289.618	-88.871	-0.325	0.096
-288.603	-200.000	-0.120	-0.668
-287.589	164.116	0.684	0.956
-286.574	67.723	-0.300	-0.304
-285.559	-77.852	0.491	-0.168
-284.545	-79.056	0.741	-0.250
-283.530	-51.335	0.558	0.259
-282.516	166.163	0.373	-0.524
-281.501	-97.832	-0.818	-0.210
-280.486	-200.000	-0.058	0.968
-279.472	-200.000	-0.035	0.788
-278.457	212.754	-0.169	0.264
-277.443	-13.594	-0.861	-0.553
-276.428	376.911	0.131	-0.266
-275.413	122.144	0.210	0.260
-274.399	59.769	-0.533	0.521
-273.384	148.256	0.886	1.185
-272.370	800.000	0.150	-0.423
-271.355	62.494	-0.339	0.336
-270.340	800.000	-0.098	-0.339
-269.326	169.679	-0.720	1.020
-268.311	124.679	0.075	-0.093
-267.297	-102.136	0.696	-0.166
-266.282	125.263	0.255	0.318
-265.267	-75.706	0.166	0.058
-264.253	800.000	-0.111	-0.344
-263.238	-108.484	-0.394	-0.084
-262.224	-200.000	-0.037	0.463
-261.209	-61.625	0.378	-0.157
-260.195	116.578	-0.338	-0.411
-259.180	-200.000	0.105	1.074
-258.165	-100.402	-0.679	0.167
-257.151	312.543	0.388	-0.721
-256.136	-41.505	0.604	0.308
-255.122	-102.955	-0.223	0.052
-254.107	-103.863	-0.511	0.118
-253.092	-63.483	0.434	0.177
-252.078	44.744	0.711	0.648
-251.063	-123.173	-0.401	0.064
-250.049	-139.417	0.471	-0.050
-249.034	-200.000	0.060	-0.507
-248.019	-189.493	0.667	-0.008
-247.005	-56.415	0.611	0.268
-245.990	322.705	0.313	0.591
-244.976	482.135	0.136	0.307
-243.961	328.619	0.282	0.537
-242.946	62.059	0.253	-0.249
-241.932	-200.000	0.022	-0.148
-240.917	-64.231	-0.382	-0.154
-239.903	166.279	-0.414	-0.580
-238.888	800.000	0.272	-0.813
-237.873	-200.000	-0.047	-0.278
-236.859	230.206	-0.384	0.621
-235.844	-200.000	-0.062	-0.324
-234.830	16.368	0.264	-0.206
-233.815	-85.858	-1.281	0.393
-232.800	-134.776	0.106	-0.013
-231.786	-31.581	0.262	-0.146
-230.771	800.000	0.115	0.357
-229.757	93.904	-0.072	0.080
-228.742	800.000	-0.249	0.760
-227.727	614.033	0.209	0.517
-226.713	-100.297	0.797	0.196
-225.698	60.626	-0.346	-0.339
-224.684	-200.000	0.179	-1.439
-223.669	-200.000	-0.026	-0.514
-222.655	-200.000	0.064	0.586
-221.640	183.585	0.382	-0.558
-220.625	-21.414	-0.438	0.264
-219.611	127.038	0.134	-0.168
-218.596	-155.632	-0.151	-0.010
-217.582	-121.966	-0.558	0.091
-216.567	-20.083	0.279	-0.170
-215.552	21.526	-0.695	-0.559
-214.538	449.415	-0.306	-0.666
-213.523	355.609	-0.093	0.184
-212.509	-91.546	-0.722	0.204
-211.494	-200.000	0.052	0.244
-210.479	25.374	0.359	0.295
-209.465	800.000	0.064	-0.260
-208.450	-95.750	0.241	-0.064
-207.436	800.000	-0.249	0.744
-206.421	800.000	-0.104	0.283
-205.406	-60.942	-0.373	0.156
-204.392	-200.000	-0.074	0.735
-203.377	-200.000	-0.134	0.969
-202.363	-61.695	-0.240	-0.100
-201.348	-200.000	0.001	0.075
-200.333	204.101	-0.450	-0.689
-199.319	-38.716	0.392	-0.205
-198.304	-116.186	1.020	-0.187
-197.290	57.600	0.519	0.501
-196.275	800.000	0.114	-0.321
-195.260	-200.000	0.067	0.472
-194.246	127.432	0.517	0.648
-193.231	-100.797	1.201	0.292
-192.217	220.902	0.228	0.362
-191.202	-126.003	0.575	0.085
-190.187	-200.000	-0.001	-0.178
-189.173	66.460	0.274	0.275
-188.158	-123.275	-0.405	-0.064
-187.144	126.401	0.526	-0.658
-186.129	43.916	-0.318	0.288
-185.114	-200.000	0.108	-0.950
-184.100	0.233	0.751	-0.529
-183.085	-4.475	-0.273	0.187
-182.071	-54.934	0.319	0.142
-181.056	100.420	-0.103	0.118
-180.042	-200.000	-0.054	-0.508
-179.027	-80.534	-0.708	-0.233
-178.012	-5.052	0.351	-0.238
-176.998	-112.888	0.369	0.072
-175.983	-200.000	0.022	0.370
-174.969	-200.000	0.242	1.140
-173.954	-104.659	-0.358	-0.081
-172.939	-200.000	0.128	-0.838
-171.925	32.318	-0.672	-0.573
-170.910	-127.153	0.145	-0.021
-169.896	266.603	-0.394	0.680
-168.881	-16.031	-0.144	-0.090
-167.866	-157.247	0.749	-0.045
-166.852	-139.496	0.681	-0.072
-165.837	167.779	0.456	-0.640
-164.823	153.135	-0.289	-0.390
-163.808	-29.915	0.401	0.225
-162.793	-200.000	-0.015	-0.220
-161.779	-4.235	-0.308	0.210
-160.764	-200.000	0.005	-0.537
-159.750	-200.000	0.064	0.310
-158.735	-32.529	0.127	-0.070
-157.720	-200.000	0.126	-1.059
-156.706	-167.851	-0.385	0.015
-155.691	-200.000	0.049	-0.780
-154.677	-51.509	0.595	-0.274
-153.662	-200.000	-0.086	-0.677
-152.647	240.006	0.115	0.190
-151.633	49.457	-0.647	0.601
-150.618	800.000	0.102	0.317
-149.604	-124.180	1.111	-0.172
-148.589	68.507	-0.810	0.819
-147.574	800.000	0.166	0.690
-146.560	2.227	-0.322	0.230
-145.545	540.226	-0.206	-0.483
-144.531	-200.000	0.061	-0.647
-143.516	42.922	0.152	-0.137
-142.502	603.068	0.084	0.206
-141.487	86.965	-0.459	-0.500
-140.472	800.000	-0.048	0.140
-139.458	-170.381	-1.178	0.041
-138.443	800.000	-0.114	-0.433
-137.429	-149.193	-0.379	-0.030
-136.414	75.899	-0.293	-0.305
-135.399	201.963	-0.426	-0.648
-134.385	-124.233	1.120	0.173
-133.370	800.000	-0.117	0.388
-132.356	359.737	0.216	-0.426
-131.341	-200.000	0.014	-0.077
-130.326	-74.455	0.355	0.126
-129.312	-152.487	0.626	-0.044
-128.297	268.704	-0.246	-0.424
-127.283	656.548	-0.057	-0.143
-126.268	381.623	-0.294	0.596
-125.253	103.389	0.348	0.403
-124.239	-137.180	-0.616	0.069
