DTS Sentinel unit serial number:	SN413079Multiplexer serial number:	ORYXHardware model number:	OX4-SRSoftware version number:	ORYX F/W v4.00 Oryx Data Collector v3.7.2.0data status	okinstallation	princeton_trtdifferential loss correction	single-endedforward channel	channel 2reverse channel	N/Adate	2019/09/19time	15:03:35forward acquisition time	60.00reverse acquisition time	0.00gamma	496.2192k internal	0.2321k external	0.2321temperature offset calibration	1.0023default loss term (dB/km)	0.3790temperature slope calibration	1.0000multiplexer offset coefficient	1.0000multiplexer slope coefficient	1.0000fibre end	0.00T internal ref (°C)	33.23T ext. ref 1 (°C)	1.11T ext. ref 2 (°C)	30.09length (m)	temperature (°C)	Stokes	anti-Stokes-747.200	-11.291	0.139	0.092
-746.185	800.000	-0.123	0.370
-745.171	-78.319	0.385	-0.134
-744.156	73.672	-0.138	-0.146
-743.142	-121.564	0.193	-0.032
-742.127	-14.896	-0.414	0.269
-741.112	137.849	0.145	-0.192
-740.098	-82.516	-0.184	0.060
-739.083	-75.605	0.099	-0.035
-738.069	136.625	-0.092	0.122
-737.054	-50.157	0.083	-0.040
-736.039	-80.019	-0.317	0.108
-735.025	-42.225	-0.042	0.022
-734.010	402.789	-0.044	-0.093
-732.996	-200.000	0.171	-0.000
-731.981	-162.881	-0.098	-0.005
-730.966	-15.232	-0.240	-0.155
-729.952	423.501	0.161	0.351
-728.937	-165.003	-0.084	-0.004
-727.923	-67.868	-0.277	0.109
-726.908	215.143	-0.093	-0.148
-725.894	-200.000	-0.015	-0.067
-724.879	-25.098	-0.170	-0.102
-723.864	82.273	-0.091	-0.100
-722.850	-200.000	0.020	0.099
-721.835	800.000	-0.131	-0.430
-720.821	-47.411	-0.246	-0.121
-719.806	64.517	-0.031	0.031
-718.791	-58.129	-0.272	-0.120
-717.777	-85.536	-0.375	0.118
-716.762	34.790	0.087	0.077
-715.748	800.000	-0.101	-0.307
-714.733	800.000	-0.019	0.082
-713.718	59.274	-0.110	0.109
-712.704	800.000	0.041	-0.169
-711.689	-200.000	-0.019	-0.175
-710.675	800.000	-0.065	0.223
-709.660	-19.878	-0.261	0.163
-708.645	-159.470	-0.107	0.006
-707.631	11.600	0.360	0.279
-706.616	800.000	0.031	-0.122
-705.602	95.327	-0.116	0.134
-704.587	-200.000	-0.064	0.339
-703.572	-110.196	0.503	0.106
-702.558	-7.332	0.210	-0.144
-701.543	536.878	-0.063	-0.151
-700.529	-143.112	0.235	0.023
-699.514	310.538	-0.065	-0.122
-698.499	346.674	0.103	0.205
-697.485	-117.920	-0.200	-0.036
-696.470	105.104	0.112	0.134
-695.456	91.310	0.056	0.064
-694.441	-160.876	0.122	-0.006
-693.426	-200.000	0.015	0.385
-692.412	-138.707	-0.278	-0.031
-691.397	-114.551	-0.056	0.011
-690.383	-200.000	-0.061	-0.325
-689.368	45.017	0.319	-0.296
-688.354	-69.027	0.329	-0.128
-687.339	800.000	-0.051	0.201
-686.324	27.836	0.169	-0.143
-685.310	228.484	-0.150	-0.247
-684.295	37.126	-0.151	0.135
-683.281	89.287	-0.183	-0.206
-682.266	-36.855	0.053	0.029
-681.251	-106.263	0.105	0.024
-680.237	800.000	0.049	-0.167
-679.222	-200.000	0.026	0.132
-678.208	-30.924	0.195	-0.111
-677.193	-158.500	0.218	-0.013
-676.178	-171.884	0.337	-0.011
-675.164	88.319	0.094	0.105
-674.149	-75.571	0.133	-0.048
-673.135	-105.029	0.068	0.016
-672.120	169.252	-0.108	0.155
-671.105	-15.055	-0.269	-0.174
-670.091	-200.000	-0.047	-0.260
-669.076	120.655	0.063	-0.079
-668.062	460.039	0.036	-0.082
-667.047	-200.000	0.037	-0.188
-666.032	443.972	0.091	-0.201
-665.018	7.248	-0.210	0.158
-664.003	110.407	0.227	-0.275
-662.989	-200.000	0.046	-0.225
-661.974	79.625	-0.206	0.222
-660.959	-32.739	0.302	-0.169
-659.945	128.840	-0.255	-0.328
-658.930	531.331	-0.043	-0.104
-657.916	-73.613	0.250	0.092
-656.901	-140.971	0.291	0.030
-655.886	800.000	0.037	-0.115
-654.872	-52.683	0.150	0.070
-653.857	-142.797	-0.073	0.007
-652.843	800.000	0.046	-0.179
-651.828	-88.767	-0.086	0.026
-650.814	697.627	0.096	-0.253
-649.799	391.457	0.063	-0.132
-648.784	423.801	0.085	0.184
-647.770	500.597	-0.056	0.129
-646.755	-50.117	-0.195	0.093
-645.741	-149.046	0.263	-0.021
-644.726	-103.745	-0.356	0.084
-643.711	46.895	0.132	0.123
-642.697	-200.000	-0.048	0.448
-641.682	174.439	-0.157	0.229
-640.668	-88.937	0.134	0.040
-639.653	632.460	-0.170	-0.432
-638.638	-200.000	0.010	0.044
-637.624	-120.445	0.113	-0.019
-636.609	-96.740	-0.111	0.029
-635.595	-19.442	0.131	-0.082
-634.580	-19.968	0.358	0.222
-633.565	-68.990	0.152	-0.059
-632.551	-75.181	-0.175	0.063
-631.536	34.553	0.260	0.228
-630.522	116.242	0.088	-0.109
-629.507	-47.997	-0.248	0.121
-628.492	-20.732	0.279	-0.172
-627.478	-96.418	0.214	0.057
-626.463	-100.224	-0.101	-0.025
-625.449	800.000	-0.063	0.181
-624.434	573.249	-0.170	0.418
-623.419	245.823	0.231	0.392
-622.405	-60.859	0.261	0.111
-621.390	53.537	0.312	-0.301
-620.376	800.000	-0.016	-0.055
-619.361	521.727	-0.050	0.119
-618.346	357.494	-0.091	0.182
-617.332	-48.939	-0.163	0.079
-616.317	77.294	0.176	-0.188
-615.303	-200.000	0.052	0.278
-614.288	-159.740	0.023	-0.001
-613.273	16.475	-0.204	-0.162
-612.259	-28.472	-0.214	-0.124
-611.244	-9.135	-0.167	0.112
-610.230	-22.355	-0.235	0.143
-609.215	-76.632	-0.054	-0.019
-608.201	60.987	0.235	-0.235
-607.186	-124.269	-0.102	0.016
-606.171	800.000	-0.087	-0.325
-605.157	200.846	-0.134	-0.207
-604.142	-190.309	-0.128	-0.001
-603.128	-30.744	0.103	0.059
-602.113	-109.394	-0.106	-0.023
-601.098	-82.323	0.315	-0.103
-600.084	-33.074	0.015	0.009
-599.069	265.999	0.160	0.281
-598.055	-52.348	0.398	0.185
-597.040	-88.310	-0.146	-0.044
-596.025	-42.617	0.127	0.065
-595.011	15.770	0.057	0.045
-593.996	-32.503	-0.321	-0.179
-592.982	-200.000	-0.031	0.511
-591.967	-75.430	-0.070	-0.025
-590.952	505.024	-0.240	-0.559
-589.938	210.942	-0.189	-0.299
-588.923	113.208	-0.151	-0.184
-587.909	-200.000	-0.002	-0.247
-586.894	-42.354	-0.182	0.094
-585.879	516.823	0.103	-0.241
-584.865	146.754	0.151	0.204
-583.850	-16.121	0.355	0.227
-582.836	8.355	-0.196	0.148
-581.821	438.664	-0.104	-0.227
-580.806	-200.000	0.018	0.093
-579.792	-82.695	-0.055	0.018
-578.777	-60.603	0.112	-0.048
-577.763	249.186	-0.149	-0.254
-576.748	166.133	0.073	-0.104
-575.733	126.916	-0.055	-0.070
-574.719	-200.000	0.017	0.171
-573.704	37.663	0.363	-0.323
-572.690	-45.956	0.163	0.081
-571.675	-20.587	-0.317	-0.195
-570.661	71.130	-0.280	-0.292
-569.646	86.525	-0.158	-0.175
-568.631	587.127	0.098	0.241
-567.617	-200.000	-0.018	-0.221
-566.602	216.906	0.075	-0.119
-565.588	69.585	-0.170	0.175
-564.573	-60.794	-0.308	0.131
-563.558	61.032	0.065	-0.064
-562.544	-69.085	-0.161	0.062
-561.529	800.000	-0.025	0.104
-560.515	122.475	0.133	-0.167
-559.500	174.314	-0.164	0.238
-558.485	800.000	0.032	0.108
-557.471	67.056	-0.117	-0.120
-556.456	65.170	-0.134	0.136
-555.442	-200.000	-0.016	0.107
-554.427	-133.927	0.346	-0.043
-553.412	-64.467	0.035	0.014
-552.398	288.035	0.067	0.122
-551.383	-87.029	-0.074	0.022
-550.369	-153.094	0.677	-0.048
-549.354	526.300	0.087	0.205
-548.339	366.634	0.087	0.175
-547.325	-200.000	0.008	-0.301
-546.310	437.575	-0.062	0.136
-545.296	16.688	-0.060	-0.047
-544.281	106.072	0.078	0.092
-543.266	706.396	-0.047	0.124
-542.252	-61.921	-0.260	0.109
-541.237	517.351	0.051	-0.119
-540.223	-30.481	-0.092	0.052
-539.208	-174.832	0.260	0.007
-538.193	-32.098	0.252	0.141
-537.179	-44.172	-0.177	0.089
-536.164	800.000	0.060	-0.233
-535.150	263.125	0.064	0.112
-534.135	496.409	0.100	0.230
-533.121	340.832	-0.056	0.110
-532.106	-200.000	-0.001	-0.185
-531.091	-60.959	0.087	-0.037
-530.077	-94.403	-0.388	0.106
-529.062	397.432	-0.132	-0.277
-528.048	-200.000	0.016	-0.120
-527.033	19.395	0.215	0.173
-526.018	800.000	0.033	0.117
-525.004	-65.253	-0.231	0.093
-523.989	-200.000	-0.019	0.134
-522.975	-115.087	-0.142	0.027
-521.960	-200.000	-0.002	0.010
-520.945	-0.553	0.081	-0.058
-519.931	162.043	-0.044	-0.062
-518.916	30.503	-0.049	-0.042
-517.902	-44.749	-0.318	-0.159
-516.887	-99.183	0.224	0.057
-515.872	800.000	0.036	-0.105
-514.858	-92.132	0.386	0.109
-513.843	203.181	-0.125	0.194
-512.829	255.717	-0.018	-0.031
-511.814	-12.705	0.052	0.034
-510.799	-200.000	-0.047	-0.226
-509.785	-200.000	-0.059	-0.359
-508.770	726.671	0.076	-0.204
-507.756	-37.338	0.298	0.159
-506.741	98.982	0.119	-0.137
-505.726	25.884	-0.076	0.063
-504.712	199.402	-0.048	0.073
-503.697	-41.348	0.206	-0.106
-502.683	800.000	-0.031	0.087
-501.668	192.294	0.167	0.253
-500.653	175.496	-0.092	-0.134
-499.639	-74.520	0.312	-0.112
-498.624	-87.681	0.386	-0.117
-497.610	-157.932	0.262	0.015
-496.595	-108.565	-0.239	0.051
-495.581	59.615	-0.258	0.255
-494.566	-200.000	-0.019	0.147
-493.551	-200.000	-0.008	-0.037
-492.537	-41.272	0.246	0.127
-491.522	800.000	0.046	0.176
-490.508	800.000	0.103	-0.310
-489.493	800.000	0.033	-0.126
-488.478	-11.538	0.168	0.111
-487.464	207.101	0.147	0.229
-486.449	-200.000	0.006	0.380
-485.435	-200.000	-0.042	0.399
-484.420	-73.568	-0.130	0.047
-483.405	384.725	0.165	0.340
-482.391	-200.000	0.027	0.266
-481.376	226.845	-0.110	-0.179
-480.362	458.718	-0.007	0.014
-479.347	-118.008	0.174	0.031
-478.332	-200.000	0.022	-0.138
-477.318	-72.688	0.269	-0.099
-476.303	-200.000	-0.046	-0.473
-475.289	-172.692	-0.334	-0.010
-474.274	283.793	0.147	-0.264
-473.259	-144.777	-0.117	-0.011
-472.245	115.621	0.161	-0.197
-471.230	-123.174	-0.406	-0.065
-470.216	-200.000	0.018	0.320
-469.201	53.414	-0.244	-0.234
-468.186	26.359	-0.284	0.237
-467.172	-200.000	-0.001	-0.216
-466.157	800.000	0.096	0.333
-465.143	-85.881	-0.513	0.159
-464.128	-102.059	0.308	0.074
-463.113	-31.300	-0.214	-0.121
-462.099	-146.792	0.271	-0.023
-461.084	63.993	-0.113	-0.114
-460.070	234.694	-0.053	0.088
-459.055	800.000	-0.110	-0.319
-458.040	350.963	0.098	0.193
-457.026	-99.278	0.197	0.050
-456.011	-200.000	0.083	0.458
-454.997	18.016	-0.218	0.174
-453.982	-100.141	-0.370	-0.092
-452.968	-90.007	-0.172	-0.050
-451.953	638.026	0.045	0.115
-450.938	153.425	0.138	-0.188
-449.924	53.995	0.168	-0.161
-448.909	299.001	0.068	-0.126
-447.895	-50.352	-0.328	-0.155
-446.880	-200.000	0.068	-0.367
-445.865	-200.000	0.001	0.180
-444.851	-84.770	0.125	-0.039
-443.836	-200.000	0.002	0.067
-442.822	-176.125	-0.059	0.002
-441.807	242.112	0.146	0.244
-440.792	-200.000	0.048	0.299
-439.778	-199.710	0.160	-0.001
-438.763	228.258	-0.130	0.211
-437.749	-186.199	0.168	-0.002
-436.734	212.202	0.083	-0.131
-435.719	449.605	0.064	0.141
-434.705	-200.000	-0.041	-0.226
-433.690	558.324	-0.012	0.030
-432.676	-200.000	0.067	-0.391
-431.661	800.000	0.073	-0.259
-430.646	-200.000	0.026	0.193
-429.632	-200.000	-0.025	-0.251
-428.617	-200.000	-0.013	-0.138
-427.603	107.588	-0.154	-0.182
-426.588	98.562	0.119	0.137
-425.573	331.216	0.145	-0.278
-424.559	-81.285	0.100	0.033
-423.544	-64.256	0.153	-0.062
-422.530	224.232	-0.177	-0.285
-421.515	800.000	0.086	0.267
-420.500	-108.477	-0.055	0.012
-419.486	-78.366	0.207	-0.071
-418.471	-96.970	-0.113	0.029
-417.457	-24.811	-0.111	0.066
-416.442	-200.000	-0.039	-0.421
-415.428	-144.240	-0.238	-0.022
-414.413	45.327	-0.250	0.230
-413.398	171.586	0.098	0.141
-412.384	-22.086	0.104	-0.063
-411.369	37.834	0.210	0.186
-410.355	800.000	-0.116	0.335
-409.340	-200.000	0.024	-0.164
-408.325	-18.531	-0.223	-0.139
-407.311	407.405	-0.049	-0.104
-406.296	183.605	-0.204	-0.301
-405.282	-172.299	0.077	-0.002
-404.267	95.032	0.056	-0.064
-403.252	268.496	0.171	-0.300
-402.238	352.204	-0.055	0.110
-401.223	-90.466	0.193	0.056
-400.209	-22.566	-0.134	-0.081
-399.194	-3.969	-0.043	-0.030
-398.179	800.000	0.060	-0.208
-397.165	800.000	0.048	-0.191
-396.150	549.125	-0.090	-0.216
-395.136	-200.000	-0.007	0.368
-394.121	301.578	-0.146	0.268
-393.106	-50.402	-0.147	0.069
-392.092	-200.000	-0.021	-0.225
-391.077	178.168	0.109	0.158
-390.063	-16.901	-0.147	-0.093
-389.048	800.000	0.009	0.034
-388.033	0.974	0.375	0.268
-387.019	-200.000	0.029	0.408
-386.004	-84.126	0.230	0.073
-384.990	471.053	0.047	-0.106
-383.975	-103.017	-0.442	-0.104
-382.960	-127.452	0.076	-0.011
-381.946	-200.000	-0.018	-0.101
-380.931	4.294	0.133	-0.097
-379.917	-94.536	-0.210	0.057
-378.902	63.092	-0.171	0.171
-377.888	-94.977	0.023	-0.006
-376.873	66.213	-0.240	-0.243
-375.858	-127.177	-0.375	-0.055
-374.844	-80.835	-0.137	-0.045
-373.829	-200.000	-0.003	0.173
-372.815	800.000	-0.076	0.294
-371.800	-200.000	-0.002	0.148
-370.785	316.430	-0.147	0.277
-369.771	248.408	0.159	-0.267
-368.756	19.097	-0.202	0.162
-367.742	-200.000	0.019	0.209
-366.727	800.000	-0.049	0.142
-365.712	-200.000	-0.029	0.159
-364.698	717.339	0.147	0.389
-363.683	17.456	0.231	0.183
-362.669	109.098	-0.201	0.239
-361.654	446.269	-0.064	-0.140
-360.639	82.633	0.088	0.095
-359.625	-61.164	0.117	-0.049
-358.610	-200.000	-0.010	0.083
-357.596	-23.036	-0.229	-0.138
-356.581	-200.000	0.020	0.264
-355.566	-200.000	-0.054	-0.317
-354.552	-200.000	-0.024	0.126
-353.537	506.802	-0.187	0.432
-352.523	-87.024	0.358	0.108
-351.508	-200.000	-0.067	-0.356
-350.493	-81.316	0.288	-0.094
-349.479	222.994	-0.104	-0.166
-348.464	116.815	-0.108	0.132
-347.450	-109.711	-0.235	-0.049
-346.435	800.000	-0.065	-0.200
-345.420	-38.005	0.273	-0.144
-344.406	-200.000	0.012	-0.235
-343.391	-65.572	0.350	0.140
-342.377	138.633	-0.183	0.240
-341.362	-81.627	0.199	-0.065
-340.348	-136.743	0.085	0.010
-339.333	-11.394	0.131	0.086
-338.318	-86.738	-0.244	0.074
-337.304	-111.498	0.342	-0.069
-336.289	159.279	0.175	-0.243
-335.275	36.278	0.201	-0.176
-334.260	183.622	-0.049	0.072
-333.245	-67.959	-0.314	-0.122
-332.231	146.713	0.182	0.244
-331.216	-200.000	0.004	-0.188
-330.202	-125.738	-0.024	-0.004
-329.187	-200.000	-0.026	0.263
-328.172	-100.654	0.235	-0.058
-327.158	113.500	0.261	0.315
-326.143	-18.777	-0.185	-0.115
-325.129	-200.000	-0.042	0.209
-324.114	1.089	-0.148	-0.106
-323.099	-200.000	-0.086	0.413
-322.085	-63.974	0.143	0.058
-321.070	-121.629	-0.245	-0.040
-320.056	-100.150	-0.209	0.052
-319.041	-196.074	0.098	-0.001
-318.026	-200.000	-0.040	0.314
-317.012	-200.000	-0.001	0.009
-315.997	-200.000	-0.013	-0.143
-314.983	-31.152	0.186	0.104
-313.968	-10.651	0.163	-0.107
-312.953	87.918	0.206	-0.227
-311.939	264.748	-0.097	0.167
-310.924	-148.618	-0.114	0.009
-309.910	169.264	-0.113	-0.160
-308.895	200.409	-0.157	0.240
-307.880	-200.000	0.019	-0.130
-306.866	-132.798	0.262	-0.033
-305.851	-200.000	-0.028	0.162
-304.837	177.989	-0.213	0.309
-303.822	216.494	-0.168	0.265
-302.807	-25.590	-0.175	0.103
-301.793	-200.000	-0.048	0.280
-300.778	-124.131	0.173	0.027
-299.764	-200.000	-0.030	-0.159
-298.749	800.000	-0.093	0.291
-297.735	73.091	-0.170	-0.176
-296.720	-200.000	0.037	0.219
-295.705	-200.000	-0.001	0.024
-294.691	2.900	0.180	0.130
-293.676	-14.398	0.132	-0.084
-292.662	800.000	0.048	-0.176
-291.647	645.523	-0.042	0.107
-290.632	588.924	-0.024	-0.058
-289.618	-79.056	-0.128	-0.043
-288.603	-196.768	-0.149	-0.001
-287.589	52.680	0.276	0.262
-286.574	48.989	0.050	0.047
-285.559	156.597	-0.176	-0.241
-284.545	-40.384	-0.128	-0.066
-283.530	-180.863	-0.218	0.004
-282.516	-27.450	-0.224	-0.129
-281.501	713.712	0.067	0.175
-280.486	536.877	0.107	0.252
-279.472	161.805	-0.161	-0.224
-278.457	203.504	0.147	-0.226
-277.443	800.000	0.104	0.309
-276.428	800.000	-0.041	-0.157
-275.413	-142.688	-0.105	0.010
-274.399	74.615	-0.207	-0.216
-273.384	800.000	-0.007	-0.025
-272.370	736.429	0.065	0.173
-271.355	-137.575	0.249	-0.028
-270.340	-200.000	0.336	-0.002
-269.326	-95.301	0.197	0.052
-268.311	-200.000	0.021	-0.337
-267.297	800.000	-0.020	0.067
-266.282	312.001	0.047	-0.088
-265.267	44.931	-0.066	0.060
-264.253	-136.169	-0.233	-0.027
-263.238	-200.000	0.007	-0.355
-262.224	34.343	-0.083	-0.072
-261.209	405.219	-0.036	-0.074
-260.195	135.442	0.106	0.137
-259.180	-12.472	-0.151	-0.098
-258.165	-11.588	0.121	0.079
-257.151	-38.181	0.307	-0.162
-256.136	-30.568	0.221	0.124
-255.122	-153.347	0.431	0.030
-254.107	-9.943	0.222	0.146
-253.092	-17.107	-0.178	0.111
-252.078	-4.568	0.178	-0.122
-251.063	34.455	0.138	0.119
-250.049	368.513	0.056	0.112
-249.034	-13.842	-0.203	0.130
-248.019	-126.265	0.168	-0.025
-247.005	800.000	0.029	-0.121
-245.990	-200.000	-0.010	-0.098
-244.976	-200.000	0.004	0.044
-243.961	32.873	0.038	0.032
-242.946	-28.333	-0.132	-0.075
-241.932	-114.757	-0.054	0.010
-240.917	-191.774	-0.220	-0.002
-239.903	-200.000	-0.081	-0.000
-238.888	-200.000	0.063	-0.440
-237.873	-18.504	-0.191	-0.118
-236.859	-146.754	-0.377	-0.032
-235.844	-200.000	0.052	-0.582
-234.830	800.000	-0.040	-0.111
-233.815	800.000	-0.093	-0.320
-232.800	230.489	0.094	-0.152
-231.786	-157.902	-0.052	-0.003
-230.771	-83.424	-0.150	0.048
-229.757	-148.853	0.109	-0.009
-228.742	-136.241	-0.174	-0.020
-227.727	-6.693	-0.167	0.112
-226.713	30.257	-0.080	-0.068
-225.698	-200.000	-0.012	-0.128
-224.684	-200.000	0.008	-0.178
-223.669	267.123	-0.056	-0.097
-222.655	-80.879	0.202	0.066
-221.640	800.000	-0.070	-0.240
-220.625	800.000	0.067	0.192
-219.611	4.223	-0.208	-0.151
-218.596	-84.265	0.303	0.095
-217.582	-200.000	0.015	-0.196
-216.567	-200.000	-0.046	0.275
-215.552	205.079	-0.237	0.364
-214.538	800.000	-0.109	-0.309
-213.523	-200.000	0.000	0.178
-212.509	-83.784	-0.219	0.069
-211.494	-170.164	0.095	0.003
-210.479	373.066	0.050	0.101
-209.465	142.343	-0.146	-0.191
-208.450	-200.000	0.011	-0.270
-207.436	360.129	0.148	-0.292
-206.421	800.000	0.045	-0.142
-205.406	-100.629	0.307	-0.075
-204.392	155.031	-0.253	-0.344
-203.377	14.509	-0.207	-0.160
-202.363	79.990	0.115	0.122
-201.348	-156.709	0.230	-0.014
-200.333	-200.000	0.040	-0.410
-199.319	17.057	-0.194	0.152
-198.304	-77.003	0.108	-0.037
-197.290	-200.000	0.010	0.349
-196.275	-31.383	-0.174	0.097
-195.260	-93.082	0.216	0.059
-194.246	-132.221	0.434	-0.056
-193.231	98.984	0.265	-0.303
-192.217	-158.465	-0.141	-0.008
-191.202	332.793	-0.153	-0.291
-190.187	-119.267	-0.506	-0.087
-189.173	800.000	0.068	-0.203
-188.158	-53.213	-0.370	-0.168
-187.144	-200.000	0.237	0.001
-186.129	146.906	0.056	0.074
-185.114	48.262	-0.223	0.206
-184.100	-0.187	0.188	0.133
-183.085	228.453	0.036	-0.057
-182.071	800.000	0.123	-0.424
-181.056	-154.317	0.300	-0.020
-180.042	4.614	-0.111	-0.081
-179.027	-200.000	-0.068	0.397
-178.012	-98.989	0.141	0.035
-176.998	-200.000	0.289	-0.001
-175.983	156.485	-0.043	-0.059
-174.969	-200.000	0.014	0.205
-173.954	174.493	0.154	0.220
-172.939	8.111	0.177	-0.131
-171.925	-200.000	-0.013	0.157
-170.910	20.201	0.046	-0.037
-169.896	-6.247	-0.260	-0.175
-168.881	337.524	-0.146	-0.281
-167.866	-82.769	-0.041	-0.013
-166.852	28.332	-0.274	0.229
-165.837	641.401	0.068	-0.171
-164.823	800.000	0.106	0.312
-163.808	-119.562	0.172	0.029
-162.793	-200.000	0.001	0.095
-161.779	-200.000	-0.176	0.000
-160.764	19.154	-0.212	0.168
-159.750	-125.491	-0.105	0.016
-158.735	38.429	-0.199	-0.175
-157.720	-41.618	0.106	0.054
-156.706	800.000	-0.032	0.117
-155.691	439.887	0.141	-0.305
-154.677	-200.000	-0.033	-0.234
-153.662	22.455	-0.063	0.051
-152.647	-22.962	0.130	-0.078
-151.633	132.778	-0.189	-0.240
-150.618	-200.000	-0.020	-0.115
-149.604	161.231	0.149	-0.205
-148.589	-7.804	0.276	0.184
-147.574	424.814	0.050	-0.106
-146.560	-30.465	0.289	0.162
-145.545	166.765	-0.201	-0.282
-144.531	-94.445	-0.025	0.007
-143.516	649.613	0.090	0.228
-142.502	-110.261	0.147	0.030
-141.487	-74.801	-0.055	-0.020
-140.472	741.478	0.101	0.268
-139.458	1.279	0.181	-0.128
-138.443	-200.000	-0.027	-0.224
-137.429	-200.000	-0.072	-0.322
-136.414	-200.000	0.151	0.000
-135.399	130.339	0.027	0.034
-134.385	248.703	0.124	0.207
-133.370	-200.000	0.024	0.119
-132.356	-52.195	-0.119	0.054
-131.341	37.457	-0.169	0.148
-130.326	-200.000	0.012	0.160
-129.312	-200.000	-0.006	0.061
-128.297	-43.136	0.106	-0.053
-127.283	-39.366	0.228	0.118
-126.268	-120.087	0.194	0.033
-125.253	512.211	-0.042	0.097
-124.239	15.892	-0.165	0.128
-123.224	81.385	0.321	0.342
-122.210	800.000	0.074	-0.265
