DTS Sentinel unit serial number:	SN413079Multiplexer serial number:	ORYXHardware model number:	OX4-SRSoftware version number:	ORYX F/W v4.00 Oryx Data Collector v3.7.2.0data status	okinstallation	princeton_trtdifferential loss correction	single-endedforward channel	channel 2reverse channel	N/Adate	2019/09/13time	06:31:34forward acquisition time	60.00reverse acquisition time	0.00gamma	496.2192k internal	0.2337k external	0.2337temperature offset calibration	1.0196default loss term (dB/km)	0.3790temperature slope calibration	1.0000multiplexer offset coefficient	1.0000multiplexer slope coefficient	1.0000fibre end	0.00T internal ref (°C)	26.06T ext. ref 1 (°C)	4.10T ext. ref 2 (°C)	20.64length (m)	temperature (°C)	Stokes	anti-Stokes-747.200	-1.127	0.021	-0.015
-746.185	-43.515	-0.082	0.042
-745.171	62.754	0.358	-0.359
-744.156	44.176	-0.204	0.188
-743.142	-102.534	0.152	-0.036
-742.127	21.172	-0.154	0.125
-741.112	-65.540	0.138	-0.056
-740.098	60.550	-0.079	-0.079
-739.083	-106.079	-0.309	0.070
-738.069	-7.275	-0.189	0.128
-737.054	-200.000	-0.030	-0.194
-736.039	67.743	0.210	0.216
-735.025	-118.546	0.308	-0.055
-734.010	522.384	-0.158	-0.373
-732.996	-123.979	0.147	-0.023
-731.981	28.154	-0.008	0.007
-730.966	-134.580	-0.145	-0.018
-729.952	-32.658	0.061	0.034
-728.937	800.000	-0.101	-0.435
-727.923	-30.505	0.155	-0.088
-726.908	356.269	-0.181	-0.362
-725.894	800.000	0.065	0.205
-724.879	-103.492	-0.223	-0.053
-723.864	-59.726	-0.172	-0.074
-722.850	-200.000	0.029	-0.367
-721.835	-96.781	0.188	0.049
-720.821	-94.096	0.095	0.026
-719.806	46.269	-0.267	-0.248
-718.791	-78.253	-0.305	-0.105
-717.777	266.898	-0.087	0.153
-716.762	-62.265	0.280	-0.117
-715.748	-10.725	0.303	0.201
-714.733	-38.126	-0.198	0.105
-713.718	-16.279	-0.034	-0.022
-712.704	-181.442	-0.299	0.006
-711.689	125.024	-0.193	-0.243
-710.675	-154.684	0.199	0.013
-709.660	592.287	0.136	-0.336
-708.645	188.903	0.140	-0.211
-707.631	446.027	0.169	-0.373
-706.616	-54.730	-0.271	-0.123
-705.602	-93.893	-0.045	-0.012
-704.587	-123.037	0.282	-0.045
-703.572	-117.866	-0.156	-0.028
-702.558	-200.000	-0.037	-0.459
-701.543	-96.620	-0.100	-0.026
-700.529	-126.375	-0.285	0.043
-699.514	-27.180	0.133	0.078
-698.499	78.423	0.210	0.225
-697.485	21.158	-0.371	-0.302
-696.470	-11.682	-0.089	-0.059
-695.456	-200.000	-0.002	0.088
-694.441	-43.936	0.118	-0.059
-693.426	800.000	-0.041	-0.115
-692.412	-95.820	-0.115	-0.031
-691.397	800.000	-0.045	-0.179
-690.383	-55.310	-0.077	-0.035
-689.368	-34.841	-0.166	0.091
-688.354	420.436	0.106	0.228
-687.339	44.905	0.091	-0.084
-686.324	-12.315	-0.242	0.158
-685.310	-200.000	-0.012	-0.274
-684.295	-10.200	-0.168	0.112
-683.281	-69.458	0.182	-0.070
-682.266	-200.000	-0.075	-0.447
-681.251	-29.948	0.063	-0.036
-680.237	-13.177	-0.136	0.088
-679.222	-173.046	-0.305	-0.009
-678.208	-181.932	-0.401	-0.008
-677.193	-161.014	0.086	-0.005
-676.178	277.915	-0.101	-0.181
-675.164	110.019	-0.053	-0.064
-674.149	-101.151	0.222	-0.054
-673.135	679.665	-0.049	-0.128
-672.120	38.106	0.167	0.149
-671.105	279.547	0.061	-0.110
-670.091	-188.493	-0.481	-0.006
-669.076	96.825	0.156	0.179
-668.062	-55.712	-0.136	0.061
-667.047	-95.271	0.105	0.028
-666.032	250.709	0.020	0.034
-665.018	-18.593	-0.017	-0.011
-664.003	-1.049	-0.138	0.098
-662.989	800.000	-0.056	0.162
-661.974	15.535	-0.079	0.062
-660.959	-184.157	0.432	-0.007
-659.945	-200.000	-0.043	0.270
-658.930	42.120	-0.126	0.115
-657.916	635.442	-0.038	-0.097
-656.901	-82.630	0.102	-0.033
-655.886	-200.000	-0.003	-0.052
-654.872	-143.337	0.494	-0.047
-653.857	-90.041	0.347	-0.101
-652.843	-200.000	0.019	-0.324
-651.828	126.979	-0.145	0.184
-650.814	-16.256	0.242	0.154
-649.799	-30.871	0.343	-0.194
-648.784	2.974	0.193	0.140
-647.770	-103.705	0.141	0.033
-646.755	-133.379	0.227	-0.029
-645.741	800.000	0.081	-0.284
-644.726	-200.000	0.001	-0.082
-643.711	112.207	0.121	-0.146
-642.697	253.404	-0.046	0.078
-641.682	-66.606	-0.209	0.083
-640.668	-42.609	-0.092	-0.047
-639.653	545.033	0.077	-0.184
-638.638	-200.000	0.048	0.236
-637.624	-69.779	-0.370	-0.141
-636.609	-40.852	0.192	0.099
-635.595	-200.000	0.025	0.150
-634.580	-90.388	0.179	-0.052
-633.565	456.622	0.087	-0.193
-632.551	257.171	-0.138	-0.237
-631.536	-81.193	0.208	-0.069
-630.522	214.022	0.201	0.318
-629.507	800.000	-0.086	0.300
-628.492	577.998	-0.097	0.236
-627.478	39.319	-0.182	-0.163
-626.463	443.381	0.088	-0.192
-625.449	-124.421	0.403	-0.063
-624.434	-200.000	0.079	-0.384
-623.419	-200.000	0.035	0.288
-622.405	196.946	-0.119	0.181
-621.390	-200.000	-0.015	-0.129
-620.376	-200.000	0.042	-0.215
-619.361	-104.113	0.443	-0.103
-618.346	158.473	-0.123	-0.171
-617.332	-121.723	0.097	0.016
-616.317	-200.000	-0.064	-0.294
-615.303	-83.560	-0.073	0.023
-614.288	327.586	0.111	-0.213
-613.273	-50.446	-0.404	0.190
-612.259	786.578	-0.079	0.217
-611.244	180.853	-0.109	0.160
-610.230	-90.930	-0.091	-0.026
-609.215	45.269	0.130	0.120
-608.201	222.625	0.080	-0.128
-607.186	226.640	0.114	0.184
-606.171	-173.124	0.321	-0.010
-605.157	-138.280	0.124	0.014
-604.142	-118.466	0.078	0.014
-603.128	-68.392	0.135	-0.052
-602.113	-42.623	-0.120	-0.061
-601.098	24.530	0.217	-0.179
-600.084	546.953	-0.068	-0.162
-599.069	42.444	-0.009	-0.008
-598.055	-200.000	-0.006	-0.106
-597.040	-32.700	-0.299	0.166
-596.025	111.869	-0.265	-0.320
-595.011	-200.000	-0.014	-0.084
-593.996	147.323	0.277	-0.372
-592.982	-170.186	0.229	0.008
-591.967	-42.956	-0.258	-0.131
-590.952	-159.584	-0.288	0.016
-589.938	210.956	-0.135	-0.212
-588.923	800.000	-0.073	-0.299
-587.909	114.869	-0.156	0.190
-586.894	-124.182	0.607	0.095
-585.879	-200.000	0.032	-0.146
-584.865	231.490	0.122	0.200
-583.850	-74.983	-0.122	0.044
-582.836	-135.808	0.162	-0.019
-581.821	-37.736	-0.115	-0.061
-580.806	-154.111	-0.073	-0.005
-579.792	-62.400	0.136	0.056
-578.777	-39.706	-0.237	-0.124
-577.763	-42.364	0.156	0.080
-576.748	-54.802	-0.144	0.065
-575.733	-96.400	0.315	-0.083
-574.719	-75.890	0.314	-0.111
-573.704	800.000	-0.106	-0.365
-572.690	69.678	0.106	-0.108
-571.675	-112.390	-0.195	0.039
-570.661	-200.000	0.054	-0.258
-569.646	128.536	-0.095	0.121
-568.631	208.083	-0.109	0.170
-567.617	74.963	0.262	0.275
-566.602	286.892	-0.109	0.196
-565.588	-132.130	0.173	0.022
-564.573	-200.000	-0.015	0.119
-563.558	20.111	-0.031	0.025
-562.544	35.938	0.207	-0.181
-561.529	101.030	-0.216	0.250
-560.515	-10.698	-0.249	-0.164
-559.500	800.000	0.011	-0.045
-558.485	-14.185	0.093	0.060
-557.471	152.490	-0.224	0.305
-556.456	-200.000	-0.055	0.259
-555.442	-55.410	0.150	-0.067
-554.427	-91.301	-0.144	0.041
-553.412	-47.261	0.174	-0.084
-552.398	26.818	-0.254	-0.212
-551.383	-15.059	-0.405	-0.259
-550.369	620.438	-0.043	-0.108
-549.354	69.906	-0.162	0.166
-548.339	108.497	0.036	0.043
-547.325	-200.000	-0.068	0.316
-546.310	-200.000	-0.026	0.340
-545.296	800.000	0.072	-0.263
-544.281	211.040	-0.202	0.317
-543.266	169.094	0.103	0.146
-542.252	-200.000	-0.054	0.522
-541.237	-80.721	0.208	0.069
-540.223	-79.284	-0.370	0.125
-539.208	-64.983	-0.142	-0.057
-538.193	40.605	-0.223	0.200
-537.179	-200.000	-0.043	0.210
-536.164	237.103	-0.086	-0.141
-535.150	-24.766	-0.075	0.044
-534.135	-84.007	-0.470	0.149
-533.121	-200.000	0.009	0.159
-532.106	-83.760	-0.208	-0.066
-531.091	130.764	-0.171	0.218
-530.077	-200.000	0.096	0.439
-529.062	385.210	-0.097	0.199
-528.048	800.000	0.044	0.186
-527.033	-200.000	-0.020	-0.226
-526.018	41.288	-0.224	0.202
-525.004	800.000	0.009	-0.033
-523.989	-98.833	-0.146	0.037
-522.975	-91.648	0.143	-0.041
-521.960	623.278	0.024	0.061
-520.945	800.000	-0.039	0.154
-519.931	800.000	-0.071	-0.302
-518.916	72.924	0.163	0.170
-517.902	663.666	0.045	0.115
-516.887	-141.272	-0.178	-0.018
-515.872	387.296	-0.120	0.247
-514.858	-200.000	-0.024	-0.179
-513.843	-3.756	-0.142	0.098
-512.829	456.718	0.100	0.220
-511.814	-80.515	-0.097	0.032
-510.799	93.836	0.246	-0.277
-509.785	68.622	0.113	-0.116
-508.770	-200.000	0.076	-0.415
-507.756	150.434	-0.088	0.119
-506.741	193.771	0.082	0.123
-505.726	53.543	0.295	-0.281
-504.712	-6.917	0.064	-0.043
-503.697	412.434	-0.085	-0.179
-502.683	-118.750	0.400	-0.070
-501.668	17.899	0.131	-0.104
-500.653	-200.000	0.025	0.174
-499.639	-200.000	-0.002	-0.260
-498.624	-200.000	-0.073	0.396
-497.610	-200.000	0.027	0.217
-496.595	21.402	-0.087	0.070
-495.581	-47.161	-0.078	-0.038
-494.566	-200.000	0.034	0.524
-493.551	182.990	0.059	0.086
-492.537	474.902	0.050	0.112
-491.522	-130.249	-0.264	-0.036
-490.508	568.718	-0.065	0.156
-489.493	-125.409	0.105	0.016
-488.478	295.176	0.081	0.147
-487.464	187.752	0.081	-0.121
-486.449	28.944	-0.176	-0.148
-485.435	-52.997	0.249	-0.114
-484.420	-15.889	-0.324	-0.205
-483.405	8.521	0.081	-0.061
-482.391	-200.000	0.030	-0.182
-481.376	800.000	-0.019	0.069
-480.362	-147.902	0.012	0.001
-479.347	-108.839	0.190	0.040
-478.332	-200.000	-0.010	-0.297
-477.318	-111.094	-0.270	-0.055
-476.303	-8.928	0.078	0.052
-475.289	-24.610	0.110	0.065
-474.274	-48.171	0.174	0.084
-473.259	-127.238	-0.269	0.039
-472.245	-200.000	0.002	-0.270
-471.230	103.401	0.343	-0.400
-470.216	-169.289	0.115	-0.004
-469.201	12.167	0.231	0.177
-468.186	7.298	0.146	-0.108
-467.172	25.589	-0.117	0.096
-466.157	201.083	0.066	-0.100
-465.143	-25.980	0.167	-0.098
-464.128	-33.120	-0.278	-0.153
-463.113	800.000	0.060	0.173
-462.099	-40.077	-0.205	-0.106
-461.084	126.201	0.115	-0.145
-460.070	-150.003	0.517	-0.040
-459.055	-35.689	-0.062	-0.033
-458.040	162.945	0.057	0.079
-457.026	-82.180	0.260	-0.084
-456.011	800.000	0.038	0.164
-454.997	-154.683	0.431	0.028
-453.982	23.425	0.126	-0.103
-452.968	62.646	-0.065	0.065
-451.953	-165.118	0.096	0.004
-450.938	591.555	-0.059	0.143
-449.924	366.752	-0.228	-0.457
-448.909	-127.399	0.063	0.009
-447.895	-16.663	-0.165	-0.104
-446.880	-151.051	-0.243	-0.018
-445.865	800.000	-0.103	-0.369
-444.851	524.192	-0.174	-0.407
-443.836	309.284	0.005	0.010
-442.822	-200.000	0.017	0.098
-441.807	294.651	-0.089	0.161
-440.792	800.000	-0.076	-0.255
-439.778	106.134	-0.156	-0.183
-438.763	-91.103	-0.286	-0.081
-437.749	100.033	0.281	0.323
-436.734	-90.570	-0.224	-0.064
-435.719	55.404	0.121	-0.116
-434.705	-97.847	-0.089	0.023
-433.690	-159.963	0.122	0.007
-432.676	-153.309	0.068	0.005
-431.661	800.000	0.023	-0.090
-430.646	-55.941	-0.148	-0.065
-429.632	-200.000	-0.012	0.364
-428.617	448.145	-0.071	-0.154
-427.603	44.295	-0.147	0.133
-426.588	107.023	-0.167	0.197
-425.573	-174.159	-0.229	0.007
-424.559	-72.150	0.253	0.093
-423.544	-146.428	0.458	-0.040
-422.530	-200.000	-0.031	0.163
-421.515	344.847	0.060	0.118
-420.500	62.189	0.125	0.124
-419.486	-68.359	-0.310	-0.119
-418.471	-6.782	0.219	0.148
-417.457	452.225	0.107	0.235
-416.442	800.000	-0.056	-0.160
-415.428	54.521	0.200	0.191
-414.413	800.000	0.009	0.039
-413.398	-200.000	0.018	-0.120
-412.384	-200.000	0.036	0.321
-411.369	-200.000	0.045	0.211
-410.355	-140.809	-0.234	-0.024
-409.340	-137.867	0.120	0.013
-408.325	20.752	0.090	0.072
-407.311	-157.495	-0.258	-0.015
-406.296	238.227	0.095	0.157
-405.282	207.932	0.182	0.282
-404.267	71.122	0.086	0.088
-403.252	-107.855	-0.278	0.060
-402.238	-52.487	-0.284	0.130
-401.223	-170.114	-0.108	0.004
-400.209	800.000	-0.036	-0.149
-399.194	-200.000	0.017	0.198
-398.179	-166.271	0.282	-0.012
-397.165	-131.659	-0.127	0.017
-396.150	800.000	-0.029	0.111
-395.136	157.921	0.132	0.181
-394.121	-113.793	0.166	-0.032
-393.106	-39.491	-0.286	0.149
-392.092	-55.433	0.134	0.059
-391.077	800.000	0.158	0.446
-390.063	-200.000	0.044	-0.348
-389.048	-93.611	0.077	0.021
-388.033	-200.000	0.015	0.068
-387.019	242.139	-0.022	-0.036
-386.004	190.925	-0.131	-0.195
-384.990	800.000	0.007	0.023
-383.975	-112.654	0.133	-0.026
-382.960	-200.000	-0.009	0.387
-381.946	384.465	-0.021	-0.042
-380.931	-128.776	0.250	-0.035
-379.917	-63.949	-0.213	-0.086
-378.902	-200.000	-0.037	-0.313
-377.888	-4.836	-0.126	-0.086
-376.873	429.040	-0.129	-0.275
-375.858	-200.000	0.062	0.397
-374.844	-32.678	-0.221	0.122
-373.829	-127.675	-0.160	0.023
-372.815	23.663	0.413	-0.337
-371.800	166.495	0.186	-0.261
-370.785	92.429	-0.099	-0.110
-369.771	9.065	0.226	0.169
-368.756	-53.483	0.195	0.088
-367.742	-200.000	-0.028	-0.184
-366.727	614.551	-0.134	0.332
-365.712	-18.914	-0.026	-0.016
-364.698	365.020	0.087	0.173
-363.683	800.000	0.087	-0.294
-362.669	-115.056	-0.205	-0.038
-361.654	3.585	-0.036	0.026
-360.639	159.327	-0.073	0.100
-359.625	187.970	0.283	0.418
-358.610	-200.000	-0.375	0.001
-357.596	-200.000	0.017	-0.083
-356.581	156.569	0.048	-0.065
-355.566	-200.000	-0.003	0.221
-354.552	-134.506	0.192	-0.023
-353.537	211.036	-0.012	-0.019
-352.523	747.737	0.080	-0.213
-351.508	36.213	-0.210	-0.183
-350.493	22.868	-0.074	0.060
-349.479	-57.246	0.170	0.074
-348.464	-172.332	0.176	-0.006
-347.450	17.920	-0.097	0.076
-346.435	800.000	-0.049	-0.192
-345.420	-104.275	0.319	-0.073
-344.406	-200.000	-0.039	-0.248
-343.391	142.043	-0.122	0.159
-342.377	-151.663	0.079	0.006
-341.362	-26.133	-0.104	0.060
-340.348	-200.000	-0.074	0.368
-339.333	-200.000	0.003	0.208
-338.318	443.984	-0.197	0.428
-337.304	800.000	0.073	0.257
-336.289	96.662	0.042	0.048
-335.275	-9.140	-0.337	0.223
-334.260	-147.236	-0.235	-0.020
-333.245	78.704	-0.259	-0.274
-332.231	800.000	-0.036	-0.132
-331.216	-64.432	-0.084	-0.034
-330.202	48.686	-0.136	0.126
-329.187	-97.452	-0.250	0.064
-328.172	-200.000	0.050	-0.225
-327.158	174.364	0.120	-0.171
-326.143	800.000	0.131	0.410
-325.129	-10.484	0.073	0.048
-324.114	-99.432	-0.173	0.043
-323.099	-200.000	-0.024	-0.272
-322.085	-56.155	0.124	0.055
-321.070	568.344	-0.040	-0.095
-320.056	311.247	0.079	0.145
-319.041	341.982	-0.110	0.212
-318.026	-185.151	0.333	0.005
-317.012	-62.926	-0.270	0.110
-315.997	-200.000	-0.010	-0.061
-314.983	-107.552	0.276	0.060
-313.968	-200.000	-0.026	0.185
-312.953	-122.366	-0.406	0.065
-311.939	39.270	0.230	0.203
-310.924	-152.770	0.185	-0.013
-309.910	70.343	-0.021	-0.021
-308.895	800.000	-0.044	-0.168
-307.880	50.728	-0.095	-0.089
-306.866	-89.044	0.354	0.103
-305.851	800.000	-0.111	0.404
-304.837	-145.818	0.535	-0.047
-303.822	170.909	-0.069	-0.098
-302.807	34.812	-0.064	0.056
-301.793	-200.000	0.002	-0.054
-300.778	44.414	-0.226	-0.205
-299.764	-111.856	-0.339	-0.068
-298.749	800.000	-0.079	0.262
-297.735	-35.717	-0.050	-0.027
-296.720	512.554	-0.098	-0.225
-295.705	637.071	-0.120	-0.301
-294.691	-200.000	-0.019	-0.272
-293.676	114.944	0.092	0.111
-292.662	800.000	-0.059	0.251
-291.647	-200.000	0.183	0.000
-290.632	-17.561	0.253	0.157
-289.618	19.159	0.149	-0.118
-288.603	86.680	0.134	-0.146
-287.589	-41.622	0.143	0.072
-286.574	-2.108	-0.365	-0.253
-285.559	-95.712	0.202	0.053
-284.545	-200.000	-0.140	0.000
-283.530	740.039	-0.122	-0.322
-282.516	46.424	-0.068	-0.063
-281.501	-200.000	0.018	-0.313
-280.486	800.000	-0.135	0.511
-279.472	579.310	0.099	0.240
-278.457	-16.940	0.199	0.124
-277.443	-200.000	-0.026	-0.112
-276.428	77.244	-0.256	-0.268
-275.413	-149.955	-0.163	0.013
-274.399	156.610	0.085	-0.116
-273.384	245.364	0.126	-0.208
-272.370	114.316	0.119	-0.143
-271.355	72.601	0.213	-0.219
-270.340	73.425	-0.277	0.286
-269.326	-41.361	-0.061	-0.031
-268.311	-78.920	0.177	0.059
-267.297	-13.837	-0.273	-0.174
-266.282	95.116	-0.103	-0.115
-265.267	-200.000	-0.065	-0.283
-264.253	-106.829	0.404	0.088
-263.238	191.222	0.110	0.163
-262.224	-27.375	0.158	-0.091
-261.209	119.184	-0.177	-0.216
-260.195	-65.769	0.453	-0.178
-259.180	-21.457	-0.201	0.121
-258.165	396.505	0.119	0.245
-257.151	57.409	-0.155	0.149
-256.136	-40.150	-0.293	0.150
-255.122	-154.394	0.084	0.006
-254.107	-113.548	-0.186	0.036
-253.092	-148.674	0.058	-0.005
-252.078	375.539	-0.204	-0.410
-251.063	-112.080	0.165	0.033
-250.049	-79.631	0.337	-0.112
-249.034	-28.894	-0.493	0.279
-248.019	800.000	-0.029	0.116
-247.005	60.077	-0.100	-0.097
-245.990	-106.329	0.137	0.030
-244.976	-33.067	0.154	-0.084
-243.961	26.631	0.123	-0.102
-242.946	800.000	-0.040	0.114
-241.932	-126.065	-0.349	0.052
-240.917	800.000	0.049	0.149
-239.903	93.082	0.085	-0.095
-238.888	800.000	0.020	-0.063
-237.873	-200.000	-0.051	-0.368
-236.859	12.901	-0.025	0.019
-235.844	-116.180	-0.151	0.028
-234.830	-65.323	-0.251	-0.099
-233.815	-168.603	-0.220	-0.008
-232.800	800.000	0.111	-0.342
-231.786	-97.535	-0.376	-0.096
-230.771	800.000	-0.054	-0.196
-229.757	-200.000	-0.055	-0.371
-228.742	607.091	0.041	-0.100
-227.727	-29.782	-0.017	0.010
-226.713	800.000	-0.033	0.098
-225.698	-200.000	-0.012	-0.246
-224.684	-132.650	0.280	-0.035
-223.669	-189.582	0.124	0.001
-222.655	-161.940	-0.112	0.006
-221.640	-129.479	-0.438	0.060
-220.625	-11.547	-0.175	0.113
-219.611	-179.300	-0.385	-0.008
-218.596	-105.043	0.289	0.065
-217.582	297.850	-0.054	-0.098
-216.567	800.000	-0.079	0.277
-215.552	19.105	-0.134	0.106
-214.538	-165.944	0.389	-0.016
-213.523	325.887	-0.225	-0.422
-212.509	800.000	0.090	-0.348
-211.494	-6.429	0.175	0.117
-210.479	-34.303	0.146	-0.079
-209.465	-36.396	0.251	-0.133
-208.450	-12.307	-0.032	0.021
-207.436	116.156	0.197	-0.237
-206.421	-164.861	-0.217	0.010
-205.406	-200.000	0.031	-0.138
-204.392	800.000	0.049	0.178
-203.377	91.218	-0.178	0.196
-202.363	-200.000	-0.002	0.015
-201.348	-175.884	0.139	-0.004
-200.333	-37.188	-0.172	0.090
-199.319	-38.185	0.174	0.090
-198.304	-200.000	0.069	-0.337
-197.290	573.866	0.066	-0.159
-196.275	650.279	-0.093	0.233
-195.260	-200.000	-0.019	0.252
-194.246	338.418	-0.079	0.151
-193.231	-175.887	0.093	-0.002
-192.217	275.676	0.082	0.143
-191.202	376.068	-0.055	0.109
-190.187	307.422	-0.073	-0.133
-189.173	111.918	0.203	-0.241
-188.158	-172.843	-0.221	0.007
-187.144	702.013	0.009	0.025
-186.129	-6.851	-0.269	-0.180
-185.114	-200.000	0.056	0.321
-184.100	-96.591	-0.015	0.004
-183.085	-74.971	0.098	-0.034
-182.071	-200.000	0.348	-0.002
-181.056	-114.374	-0.179	0.034
-180.042	-29.989	0.122	0.068
-179.027	203.710	0.046	0.070
-178.012	-200.000	0.016	0.214
-176.998	-127.976	0.030	-0.004
-175.983	800.000	0.040	-0.117
-174.969	513.786	-0.037	0.084
-173.954	-96.289	0.208	-0.054
-172.939	433.615	0.040	0.086
-171.925	157.964	0.119	0.162
-170.910	535.226	-0.074	0.173
-169.896	-47.772	-0.044	0.021
-168.881	-76.653	-0.130	-0.045
-167.866	-200.000	0.062	-0.320
-166.852	-59.673	0.240	-0.101
-165.837	800.000	0.079	-0.284
-164.823	-67.325	0.127	-0.049
-163.808	800.000	-0.087	0.328
-162.793	-50.551	0.117	-0.054
-161.779	116.754	-0.039	-0.047
-160.764	30.361	-0.104	0.087
-159.750	238.125	-0.120	0.196
-158.735	260.687	0.070	0.119
-157.720	-180.607	-0.481	-0.010
-156.706	-18.668	0.183	-0.112
-155.691	620.387	0.091	-0.223
-154.677	101.420	0.209	-0.238
-153.662	434.560	-0.067	0.142
-152.647	-61.718	0.255	-0.105
-151.633	800.000	-0.109	-0.327
-150.618	116.883	-0.135	-0.162
-149.604	-200.000	0.014	-0.099
-148.589	-123.103	-0.101	-0.016
-147.574	141.711	0.085	0.110
-146.560	-134.594	0.116	0.014
-145.545	-136.811	-0.254	0.029
-144.531	-186.837	0.277	0.004
-143.516	125.982	0.198	-0.245
-142.502	-134.700	-0.239	-0.029
-141.487	-124.252	0.258	0.040
-140.472	-40.340	-0.366	-0.187
-139.458	-88.238	-0.180	-0.053
-138.443	4.949	0.322	-0.232
-137.429	276.620	-0.087	-0.152
-136.414	-7.367	-0.186	0.123
-135.399	240.061	0.106	0.173
-134.385	46.660	-0.227	-0.206
-133.370	-110.275	0.269	-0.055
-132.356	38.283	0.033	-0.029
-131.341	-47.458	-0.354	-0.169
-130.326	-45.188	0.352	-0.171
-129.312	-89.614	0.182	-0.052
-128.297	544.161	0.046	0.108
-127.283	97.090	-0.318	0.358
-126.268	-200.000	0.007	0.570
-125.253	-114.861	0.339	-0.063
-124.239	800.000	-0.056	0.229
-123.224	-87.877	0.218	0.064
-122.210	147.475	-0.209	0.276
