DTS Sentinel unit serial number:	SN413079Multiplexer serial number:	ORYXHardware model number:	OX4-SRSoftware version number:	ORYX F/W v4.00 Oryx Data Collector v3.7.2.0data status	okinstallation	princeton_trtdifferential loss correction	single-endedforward channel	channel 2reverse channel	N/Adate	2019/09/10time	20:21:11forward acquisition time	60.00reverse acquisition time	0.00gamma	496.2192k internal	0.2330k external	0.2330temperature offset calibration	0.9946default loss term (dB/km)	0.3790temperature slope calibration	1.0000multiplexer offset coefficient	1.0000multiplexer slope coefficient	1.0000fibre end	0.00T internal ref (°C)	32.17T ext. ref 1 (°C)	-0.31T ext. ref 2 (°C)	25.30length (m)	temperature (°C)	Stokes	anti-Stokes-747.200	-141.746	0.358	-0.036
-746.185	434.385	0.116	0.254
-745.171	-21.258	-0.102	-0.063
-744.156	-41.003	-0.179	0.093
-743.142	207.281	0.226	0.354
-742.127	-60.525	0.354	0.151
-741.112	370.533	0.053	-0.109
-740.098	23.035	-0.167	-0.138
-739.083	726.404	-0.153	-0.412
-738.069	-53.679	0.162	0.074
-737.054	-78.985	-0.096	0.033
-736.039	-33.032	-0.261	-0.146
-735.025	-124.750	0.492	0.077
-734.010	800.000	0.058	-0.204
-732.996	31.946	0.094	0.082
-731.981	-140.727	-0.227	-0.024
-730.966	-185.511	-0.222	-0.003
-729.952	800.000	0.104	-0.307
-728.937	37.552	-0.301	-0.269
-727.923	151.655	-0.099	0.136
-726.908	82.354	-0.037	0.040
-725.894	-89.091	-0.133	0.040
-724.879	-18.411	0.084	-0.053
-723.864	274.424	0.085	-0.151
-722.850	579.590	0.152	-0.375
-721.835	-99.731	-0.057	0.014
-720.821	213.612	0.137	-0.217
-719.806	104.510	-0.258	-0.306
-718.791	-6.577	-0.288	0.198
-717.777	-94.022	-0.299	0.083
-716.762	-182.152	0.109	-0.002
-715.748	12.338	-0.166	0.128
-714.733	749.712	0.055	0.148
-713.718	87.394	0.194	0.216
-712.704	-90.300	-0.236	-0.069
-711.689	296.129	0.068	0.126
-710.675	-200.000	-0.007	-0.047
-709.660	-200.000	-0.013	-0.204
-708.645	-199.702	0.431	-0.002
-707.631	-94.424	-0.145	0.040
-706.616	-31.517	-0.119	0.067
-705.602	-66.625	-0.104	0.042
-704.587	-114.749	-0.071	-0.014
-703.572	-106.286	-0.287	-0.065
-702.558	41.605	-0.150	-0.137
-701.543	386.127	-0.087	-0.181
-700.529	137.389	-0.091	-0.119
-699.514	-200.000	-0.056	-0.264
-698.499	305.506	-0.092	-0.173
-697.485	329.343	0.136	0.262
-696.470	-200.000	0.058	0.308
-695.456	-200.000	0.024	-0.222
-694.441	310.835	-0.116	-0.219
-693.426	-200.000	0.044	-0.251
-692.412	-200.000	-0.010	-0.061
-691.397	-82.066	-0.218	-0.071
-690.383	-74.351	-0.278	-0.101
-689.368	130.223	-0.157	-0.202
-688.354	233.133	-0.157	-0.259
-687.339	49.337	0.059	-0.056
-686.324	55.105	0.186	0.181
-685.310	-76.093	-0.240	0.085
-684.295	581.063	0.081	0.199
-683.281	-110.712	-0.345	-0.072
-682.266	37.505	-0.219	-0.195
-681.251	-200.000	-0.003	-0.075
-680.237	85.419	0.028	-0.031
-679.222	165.845	0.232	-0.330
-678.208	-200.000	-0.022	0.150
-677.193	-200.000	0.044	-0.244
-676.178	-172.020	-0.223	-0.007
-675.164	582.912	-0.068	0.167
-674.149	-128.836	-0.093	0.013
-673.135	-200.000	-0.018	-0.202
-672.120	-4.090	0.262	-0.182
-671.105	-200.000	0.050	-0.306
-670.091	153.145	0.054	0.074
-669.076	41.521	-0.144	0.131
-668.062	-186.921	-0.329	-0.005
-667.047	-10.512	0.129	-0.086
-666.032	6.526	-0.266	-0.199
-665.018	800.000	-0.087	-0.248
-664.003	-200.000	-0.010	0.116
-662.989	-157.324	-0.243	0.015
-661.974	52.760	0.120	-0.115
-660.959	-25.225	0.067	0.040
-659.945	-63.140	-0.184	-0.076
-658.930	76.729	-0.084	-0.090
-657.916	165.322	-0.093	0.133
-656.901	280.620	-0.160	0.288
-655.886	-61.318	0.198	-0.084
-654.872	-82.800	-0.182	-0.059
-653.857	19.266	-0.077	-0.062
-652.843	238.899	-0.130	0.216
-651.828	-200.000	-0.047	0.349
-650.814	-155.096	-0.112	-0.007
-649.799	166.157	-0.301	-0.428
-648.784	-8.242	0.094	0.064
-647.770	-200.000	0.020	0.306
-646.755	39.625	-0.095	0.085
-645.741	-200.000	-0.007	-0.244
-644.726	-81.758	0.188	0.062
-643.711	800.000	-0.058	-0.170
-642.697	-200.000	-0.008	-0.192
-641.682	140.222	0.096	-0.126
-640.668	0.153	0.016	-0.011
-639.653	-72.134	-0.329	0.122
-638.638	-117.489	0.178	0.032
-637.624	-94.822	-0.250	0.068
-636.609	800.000	0.041	-0.147
-635.595	-69.153	-0.106	-0.041
-634.580	242.080	0.115	0.194
-633.565	800.000	0.005	-0.018
-632.551	97.216	0.112	0.129
-631.536	-200.000	-0.020	-0.146
-630.522	50.548	-0.187	-0.178
-629.507	-171.979	-0.091	-0.003
-628.492	-27.484	0.034	-0.020
-627.478	-200.000	0.193	0.001
-626.463	44.261	0.091	-0.083
-625.449	-111.968	-0.181	0.036
-624.434	-200.000	0.006	0.172
-623.419	315.101	-0.112	-0.212
-622.405	744.450	-0.044	-0.118
-621.390	-121.243	0.026	-0.004
-620.376	63.993	-0.206	0.207
-619.361	-200.000	-0.009	-0.202
-618.346	-9.797	-0.125	-0.084
-617.332	201.278	-0.153	-0.237
-616.317	-200.000	0.092	0.469
-615.303	800.000	-0.132	-0.493
-614.288	272.372	0.053	-0.093
-613.273	-25.461	0.291	0.172
-612.259	342.462	-0.029	0.057
-611.244	-91.832	-0.294	-0.083
-610.230	507.859	-0.123	-0.285
-609.215	-5.332	0.203	-0.140
-608.201	51.104	-0.247	-0.235
-607.186	-200.000	-0.004	-0.144
-606.171	-200.000	-0.011	-0.198
-605.157	-1.370	0.068	-0.048
-604.142	-27.606	-0.206	-0.120
-603.128	-200.000	0.022	0.180
-602.113	800.000	-0.074	-0.259
-601.098	-79.482	0.248	0.084
-600.084	23.935	0.150	-0.124
-599.069	800.000	-0.071	-0.296
-598.055	800.000	0.102	-0.339
-597.040	59.266	-0.091	-0.089
-596.025	-180.782	-0.098	0.002
-595.011	-179.201	0.193	0.004
-593.996	-18.399	-0.266	0.166
-592.982	-200.000	-0.051	0.287
-591.967	-200.000	0.003	-0.204
-590.952	-49.045	-0.333	-0.160
-589.938	-200.000	-0.001	-0.193
-588.923	800.000	-0.038	-0.150
-587.909	-106.431	-0.359	-0.080
-586.894	-200.000	-0.021	0.244
-585.879	800.000	-0.093	0.324
-584.865	-27.431	0.258	0.150
-583.850	800.000	-0.045	0.138
-582.836	800.000	-0.072	0.215
-581.821	49.222	-0.323	-0.304
-580.806	-94.834	-0.267	-0.073
-579.792	800.000	-0.129	0.373
-578.777	11.970	-0.079	0.061
-577.763	-79.703	-0.062	0.021
-576.748	800.000	-0.022	0.094
-575.733	276.660	0.143	0.254
-574.719	74.696	0.148	0.156
-573.704	138.558	-0.114	0.149
-572.690	-26.382	0.247	0.145
-571.675	-200.000	0.070	0.429
-570.661	-62.392	-0.260	-0.108
-569.646	116.056	-0.176	0.216
-568.631	-99.187	-0.128	0.032
-567.617	-64.077	0.204	-0.083
-566.602	72.180	0.134	0.140
-565.588	191.802	-0.198	-0.298
-564.573	59.238	0.043	0.043
-563.558	611.538	0.129	0.322
-562.544	-200.000	-0.042	-0.222
-561.529	-6.847	-0.081	-0.055
-560.515	21.232	-0.067	-0.054
-559.500	-160.146	-0.308	-0.017
-558.485	-49.671	-0.248	-0.118
-557.471	800.000	-0.089	-0.275
-556.456	164.853	0.113	0.159
-555.442	800.000	0.106	0.370
-554.427	800.000	0.089	0.277
-553.412	-74.931	-0.352	0.126
-552.398	-145.950	-0.134	0.012
-551.383	-155.202	-0.322	0.021
-550.369	-200.000	0.024	-0.220
-549.354	-130.278	0.085	0.011
-548.339	458.904	0.042	-0.094
-547.325	-200.000	0.001	0.229
-546.310	-69.404	0.449	0.172
-545.296	-57.551	-0.193	0.085
-544.281	470.171	-0.110	-0.247
-543.266	-40.599	-0.143	-0.074
-542.252	-3.691	-0.172	-0.119
-541.237	51.549	0.291	-0.276
-540.223	-181.866	-0.131	-0.003
-539.208	800.000	0.031	0.112
-538.193	38.268	0.177	-0.157
-537.179	-200.000	-0.031	0.593
-536.164	-76.227	0.190	0.067
-535.150	800.000	0.093	0.381
-534.135	91.903	0.129	0.144
-533.121	-200.000	-0.036	-0.168
-532.106	-200.000	0.007	0.087
-531.091	-200.000	0.011	0.324
-530.077	288.705	-0.066	0.119
-529.062	229.620	-0.096	-0.156
-528.048	-48.761	-0.056	-0.027
-527.033	165.441	0.166	-0.234
-526.018	-74.307	0.520	-0.187
-525.004	7.245	0.114	-0.085
-523.989	384.414	-0.182	-0.375
-522.975	-141.561	0.195	-0.020
-521.960	-80.557	0.201	-0.067
-520.945	165.122	-0.264	-0.372
-519.931	-134.767	-0.146	0.018
-518.916	160.247	0.159	-0.222
-517.902	55.906	-0.132	0.128
-516.887	-154.107	-0.314	0.021
-515.872	800.000	-0.055	-0.218
-514.858	800.000	0.017	0.072
-513.843	48.180	0.084	-0.078
-512.829	-124.583	-0.318	0.049
-511.814	1.746	-0.212	0.153
-510.799	-71.812	0.167	0.062
-509.785	150.565	0.176	0.238
-508.770	-200.000	-0.026	0.142
-507.756	-72.408	-0.090	0.033
-506.741	274.957	-0.154	-0.272
-505.726	78.176	0.209	-0.223
-504.712	-113.778	0.097	-0.019
-503.697	585.964	-0.102	0.250
-502.683	-124.275	-0.089	-0.014
-501.668	111.674	0.255	-0.307
-500.653	85.613	-0.068	-0.074
-499.639	-163.899	-0.322	0.015
-498.624	-200.000	0.119	0.001
-497.610	-200.000	0.042	-0.303
-496.595	-200.000	-0.037	-0.188
-495.581	-200.000	0.017	-0.183
-494.566	113.807	-0.059	-0.071
-493.551	-89.200	0.155	-0.046
-492.537	-200.000	-0.024	0.213
-491.522	174.448	0.145	-0.210
-490.508	-97.791	-0.264	0.068
-489.493	800.000	0.128	0.369
-488.478	-83.735	-0.420	0.134
-487.464	192.554	-0.084	0.127
-486.449	-24.953	0.346	0.205
-485.435	-136.336	-0.323	0.038
-484.420	-102.387	0.119	0.028
-483.405	69.905	-0.151	0.155
-482.391	-95.134	-0.194	0.052
-481.376	184.316	0.036	0.053
-480.362	-78.351	-0.356	0.122
-479.347	800.000	-0.046	0.150
-478.332	-200.000	0.031	-0.393
-477.318	-160.070	-0.240	-0.013
-476.303	-200.000	-0.000	-0.065
-475.289	253.350	0.075	-0.128
-474.274	-200.000	0.004	-0.551
-473.259	545.693	0.149	-0.356
-472.245	111.991	-0.103	-0.123
-471.230	-33.592	0.030	0.017
-470.216	-200.000	0.048	0.244
-469.201	-109.965	-0.189	-0.039
-468.186	-63.364	-0.253	0.104
-467.172	-130.153	0.069	0.009
-466.157	46.119	-0.351	-0.323
-465.143	60.634	-0.049	0.049
-464.128	-117.221	-0.100	-0.018
-463.113	-110.995	-0.284	-0.058
-462.099	-128.119	-0.138	-0.020
-461.084	-81.347	-0.466	0.153
-460.070	800.000	0.021	0.061
-459.055	-200.000	-0.049	0.284
-458.040	67.302	0.188	-0.191
-457.026	-27.904	-0.174	0.101
-456.011	4.532	0.221	-0.161
-454.997	33.692	0.186	-0.161
-453.982	34.243	-0.054	0.047
-452.968	-122.784	-0.171	-0.028
-451.953	-200.000	-0.057	0.302
-450.938	800.000	-0.038	0.110
-449.924	-168.996	0.181	0.007
-448.909	-200.000	0.018	0.134
-447.895	-200.000	-0.040	0.189
-446.880	-74.954	0.185	0.066
-445.865	130.463	0.116	-0.148
-444.851	800.000	0.103	-0.335
-443.836	22.315	-0.121	0.098
-442.822	-29.961	-0.207	-0.117
-441.807	-163.125	0.385	-0.018
-440.792	198.081	0.115	-0.175
-439.778	-147.725	-0.145	0.012
-438.763	-106.184	-0.468	-0.105
-437.749	247.598	-0.103	-0.173
-436.734	-35.311	0.362	-0.196
-435.719	-200.000	-0.009	0.313
-434.705	308.310	-0.158	0.294
-433.690	-55.017	0.354	0.159
-432.676	-180.861	-0.221	0.004
-431.661	374.108	-0.084	0.171
-430.646	144.012	-0.142	-0.188
-429.632	-200.000	-0.013	0.374
-428.617	-83.389	-0.203	0.065
-427.603	-200.000	0.047	0.206
-426.588	-40.241	0.385	0.199
-425.573	-39.945	0.146	0.076
-424.559	-173.266	0.147	0.004
-423.544	163.723	-0.207	-0.290
-422.530	-71.962	-0.123	-0.046
-421.515	-200.000	-0.029	-0.299
-420.500	178.113	-0.063	-0.091
-419.486	-31.926	0.148	0.082
-418.471	359.799	0.125	0.249
-417.457	51.452	0.150	-0.141
-416.442	800.000	-0.075	-0.249
-415.428	800.000	-0.049	-0.193
-414.413	92.248	0.269	-0.302
-413.398	-143.151	0.244	-0.023
-412.384	-155.223	0.165	-0.011
-411.369	800.000	0.075	-0.294
-410.355	-104.468	0.429	0.099
-409.340	-200.000	-0.007	-0.103
-408.325	-24.180	-0.072	0.043
-407.311	29.596	-0.152	-0.128
-406.296	44.842	-0.193	0.177
-405.282	74.820	-0.144	-0.151
-404.267	-200.000	0.015	-0.095
-403.252	-2.358	0.240	-0.167
-402.238	57.571	-0.172	-0.167
-401.223	-148.934	-0.252	0.020
-400.209	241.310	0.127	0.211
-399.194	-132.452	0.382	0.049
-398.179	206.194	-0.119	0.184
-397.165	-6.236	0.144	-0.098
-396.150	-48.843	-0.095	0.045
-395.136	-200.000	-0.021	-0.235
-394.121	55.350	0.223	-0.214
-393.106	379.196	-0.110	0.223
-392.092	231.049	0.081	0.132
-391.077	-200.000	0.018	-0.324
-390.063	75.407	0.208	-0.218
-389.048	-200.000	-0.005	0.242
-388.033	244.839	0.092	0.153
-387.019	74.275	-0.144	-0.150
-386.004	800.000	0.055	-0.199
-384.990	235.807	0.199	0.327
-383.975	-54.026	0.098	-0.044
-382.960	800.000	0.114	-0.399
-381.946	-26.841	0.111	0.065
-380.931	-55.108	0.292	0.131
-379.917	800.000	-0.026	-0.078
-378.902	201.346	0.173	-0.264
-377.888	158.218	-0.035	-0.048
-376.873	78.326	-0.066	0.070
-375.858	604.886	-0.110	0.272
-374.844	-92.753	0.079	0.022
-373.829	-200.000	0.035	0.213
-372.815	95.109	0.055	-0.062
-371.800	98.934	0.300	-0.344
-370.785	314.194	-0.102	-0.191
-369.771	664.310	-0.061	-0.157
-368.756	-150.584	0.071	-0.005
-367.742	-200.000	-0.011	0.298
-366.727	-192.214	0.102	0.001
-365.712	183.349	0.206	-0.302
-364.698	-161.313	0.264	0.014
-363.683	-31.948	0.080	-0.045
-362.669	-56.459	0.362	0.159
-361.654	-176.656	-0.128	-0.003
-360.639	67.697	-0.063	0.064
-359.625	-102.177	-0.349	0.083
-358.610	-62.561	0.198	0.082
-357.596	384.537	0.121	0.248
-356.581	43.219	-0.157	0.142
-355.566	580.532	-0.088	-0.213
-354.552	6.116	0.243	-0.179
-353.537	-65.088	0.194	-0.078
-352.523	66.379	0.117	0.118
-351.508	445.738	-0.020	0.044
-350.493	-15.714	-0.079	0.050
-349.479	24.576	-0.165	0.135
-348.464	800.000	0.070	-0.264
-347.450	-200.000	-0.026	-0.138
-346.435	185.574	0.055	-0.081
-345.420	-140.712	0.151	0.015
-344.406	792.864	0.102	-0.278
-343.391	85.606	0.178	0.194
-342.377	232.591	-0.114	0.186
-341.362	-25.402	0.450	0.264
-340.348	-71.195	-0.079	0.029
-339.333	-63.175	-0.465	0.190
-338.318	-101.190	0.114	-0.028
-337.304	-200.000	0.024	-0.319
-336.289	-200.000	0.018	0.429
-335.275	-19.343	0.381	-0.234
-334.260	800.000	-0.029	0.117
-333.245	327.403	-0.079	0.149
-332.231	334.288	-0.087	0.166
-331.216	-12.306	-0.062	0.040
-330.202	-74.712	0.290	-0.103
-329.187	464.992	0.072	-0.159
-328.172	800.000	-0.056	-0.200
-327.158	-200.000	0.010	0.059
-326.143	-200.000	-0.016	0.175
-325.129	-92.444	-0.169	-0.047
-324.114	126.138	0.151	0.190
-323.099	-121.953	0.108	0.018
-322.085	3.117	0.052	-0.038
-321.070	-137.200	0.450	0.051
-320.056	-22.869	-0.245	0.146
-319.041	-146.107	0.104	0.009
-318.026	-29.573	0.129	-0.073
-317.012	800.000	0.062	0.179
-315.997	-94.801	0.073	-0.020
-314.983	-94.467	-0.345	-0.093
-313.968	-4.015	-0.195	-0.134
-312.953	-83.260	-0.096	-0.031
-311.939	-29.713	0.046	-0.026
-310.924	-200.000	0.014	-0.082
-309.910	-139.595	0.141	0.015
-308.895	800.000	0.075	0.275
-307.880	48.420	0.189	0.175
-306.866	8.598	0.196	0.146
-305.851	236.147	-0.082	0.134
-304.837	11.513	0.050	-0.038
-303.822	-144.830	-0.416	0.038
-302.807	64.630	0.134	-0.134
-301.793	-58.011	0.051	0.022
-300.778	58.257	-0.376	0.365
-299.764	539.211	0.053	0.126
-298.749	-85.779	-0.064	0.020
-297.735	213.576	-0.112	-0.175
-296.720	103.212	0.224	-0.260
-295.705	338.405	-0.192	0.370
-294.691	-127.181	0.377	0.055
-293.676	-11.042	-0.247	0.161
-292.662	-64.302	0.180	0.072
-291.647	-36.942	-0.111	-0.059
-290.632	-200.000	-0.023	0.262
-289.618	-200.000	0.038	0.245
-288.603	-164.524	0.264	0.012
-287.589	-5.300	0.018	0.012
-286.574	165.816	0.097	-0.136
-285.559	56.794	0.189	-0.182
-284.545	-100.509	-0.180	-0.044
-283.530	77.492	-0.253	-0.267
-282.516	30.762	-0.251	-0.213
-281.501	33.554	0.160	0.138
-280.486	-61.161	-0.340	-0.142
-279.472	-200.000	0.001	0.190
-278.457	-200.000	0.007	-0.083
-277.443	-89.254	0.451	0.131
-276.428	-59.334	-0.419	0.178
-275.413	-93.426	-0.172	0.047
-274.399	5.513	-0.046	0.034
-273.384	-200.000	-0.007	-0.246
-272.370	-113.605	0.282	-0.055
-271.355	-12.461	-0.227	-0.147
-270.340	-133.983	0.328	-0.040
-269.326	-2.856	-0.150	0.104
-268.311	91.995	0.107	0.119
-267.297	-200.000	-0.002	0.034
-266.282	233.766	-0.113	-0.184
-265.267	-23.551	0.107	0.064
-264.253	800.000	0.098	0.349
-263.238	-80.139	0.155	0.051
-262.224	-200.000	-0.017	-0.159
-261.209	215.464	-0.208	0.327
-260.195	-22.111	-0.310	0.186
-259.180	-90.587	0.218	0.062
-258.165	21.478	0.145	-0.117
-257.151	-92.982	0.548	0.151
-256.136	371.729	0.079	0.158
-255.122	-120.437	0.224	-0.038
-254.107	-138.421	-0.150	0.016
-253.092	-200.000	0.192	-0.000
-252.078	-10.401	-0.415	-0.272
-251.063	800.000	0.209	0.580
-250.049	-111.587	-0.051	-0.010
-249.034	-200.000	0.050	0.416
-248.019	-66.919	0.147	0.058
-247.005	-58.171	-0.070	-0.030
-245.990	-200.000	-0.005	0.215
-244.976	-200.000	-0.004	-0.241
-243.961	-200.000	-0.019	0.512
-242.946	-132.713	0.362	-0.046
-241.932	-124.314	0.046	-0.007
-240.917	800.000	-0.137	-0.469
-239.903	726.177	-0.104	0.273
-238.888	-200.000	-0.023	0.169
-237.873	152.082	-0.215	0.289
-236.859	617.576	0.027	0.067
-235.844	-200.000	-0.006	0.373
-234.830	30.161	-0.103	0.087
-233.815	81.799	0.227	-0.243
-232.800	-64.865	0.369	-0.147
-231.786	105.103	-0.061	-0.071
-230.771	-200.000	-0.020	-0.271
-229.757	-200.000	-0.032	0.319
-228.742	55.429	0.158	-0.151
-227.727	192.921	-0.136	0.202
-226.713	210.283	0.262	-0.405
-225.698	-56.285	-0.237	-0.104
-224.684	-200.000	-0.062	-0.456
-223.669	-200.000	0.029	-0.200
-222.655	153.283	0.049	-0.066
-221.640	-50.118	0.137	0.064
-220.625	105.395	0.101	0.118
-219.611	-157.393	0.043	0.003
-218.596	-72.362	0.286	-0.104
-217.582	36.913	-0.045	0.039
-216.567	-35.665	0.222	-0.119
-215.552	-105.600	0.103	0.023
-214.538	15.057	-0.104	-0.080
-213.523	-200.000	-0.024	-0.214
-212.509	283.443	-0.075	-0.133
-211.494	28.248	0.089	0.074
-210.479	-83.410	-0.181	0.057
-209.465	-60.818	0.077	0.032
-208.450	180.953	0.200	-0.290
-207.436	-42.456	0.190	-0.095
-206.421	-101.818	-0.286	0.068
-205.406	133.790	-0.279	0.356
-204.392	278.572	-0.149	0.262
-203.377	-55.442	0.158	0.070
-202.363	-200.000	-0.012	-0.454
-201.348	-54.179	0.188	-0.084
-200.333	22.753	0.213	-0.172
-199.319	54.193	0.204	-0.194
-198.304	-71.932	-0.495	0.181
-197.290	-17.305	-0.103	0.064
-196.275	-54.213	-0.093	0.042
-195.260	75.072	-0.151	-0.157
-194.246	-19.477	0.076	-0.046
-193.231	-62.846	0.214	0.087
-192.217	-142.606	0.142	0.014
-191.202	114.210	-0.200	0.240
-190.187	24.595	-0.171	0.139
-189.173	-200.000	0.022	0.206
-188.158	-200.000	0.034	0.316
-187.144	-21.053	-0.213	0.128
-186.129	-200.000	-0.023	0.289
-185.114	-52.242	0.291	-0.133
-184.100	-155.794	-0.260	0.016
-183.085	-71.117	0.263	-0.097
-182.071	639.209	0.104	-0.260
-181.056	48.101	0.153	0.141
-180.042	128.438	-0.211	0.265
-179.027	-87.254	0.341	-0.102
-178.012	-60.888	-0.234	-0.097
-176.998	-12.423	-0.171	0.110
-175.983	-153.476	-0.188	0.013
-174.969	-151.591	-0.575	0.042
-173.954	800.000	-0.051	0.158
-172.939	-110.604	-0.071	-0.015
-171.925	380.985	0.147	0.298
-170.910	-200.000	0.028	-0.176
-169.896	178.619	0.061	0.087
-168.881	-158.816	0.213	-0.012
-167.866	-197.308	-0.178	0.001
-166.852	-200.000	-0.028	0.257
-165.837	-20.252	0.305	-0.185
-164.823	-17.690	0.122	-0.076
-163.808	-200.000	-0.034	-0.417
-162.793	-200.000	-0.015	-0.113
-161.779	390.150	0.078	-0.159
-160.764	82.742	-0.061	0.065
-159.750	88.493	-0.161	-0.177
-158.735	58.617	0.131	-0.127
-157.720	-36.556	0.125	-0.066
-156.706	328.668	-0.077	0.146
-155.691	-200.000	0.010	0.111
-154.677	-200.000	-0.018	-0.317
-153.662	125.525	0.102	0.126
-152.647	800.000	-0.050	0.155
-151.633	736.148	0.061	0.161
-150.618	208.402	0.156	-0.240
-149.604	800.000	-0.032	0.092
-148.589	-146.618	0.314	-0.027
-147.574	121.161	-0.220	-0.269
-146.560	-43.328	-0.170	-0.085
-145.545	192.001	-0.159	0.236
-144.531	283.167	-0.082	-0.145
-143.516	-5.969	0.295	-0.198
-142.502	-200.000	-0.006	0.126
-141.487	-33.262	0.132	0.072
-140.472	-186.997	-0.305	-0.004
-139.458	-30.230	-0.084	-0.047
-138.443	-128.723	0.336	0.047
-137.429	-26.650	-0.107	-0.062
-136.414	-144.984	-0.187	0.017
-135.399	-22.216	-0.169	0.101
-134.385	600.687	0.100	0.245
-133.370	111.360	-0.309	0.366
-132.356	-200.000	0.016	-0.102
-131.341	93.210	-0.034	-0.038
-130.326	-200.000	0.015	-0.398
-129.312	-200.000	-0.007	-0.465
-128.297	110.884	0.090	-0.107
-127.283	2.330	-0.228	-0.162
-126.268	-54.028	-0.123	0.055
-125.253	800.000	0.060	-0.243
-124.239	800.000	-0.100	-0.291
-123.224	147.193	0.321	0.425
-122.210	56.407	-0.068	0.065
