DTS Sentinel unit serial number:	SN413079Multiplexer serial number:	ORYXHardware model number:	OX4-SRSoftware version number:	ORYX F/W v4.00 Oryx Data Collector v3.7.2.0data status	okinstallation	princeton_trtdifferential loss correction	single-endedforward channel	channel 2reverse channel	N/Adate	2019/09/13time	12:11:35forward acquisition time	60.00reverse acquisition time	0.00gamma	496.2192k internal	0.2316k external	0.2316temperature offset calibration	1.0213default loss term (dB/km)	0.3790temperature slope calibration	1.0000multiplexer offset coefficient	1.0000multiplexer slope coefficient	1.0000fibre end	0.00T internal ref (°C)	33.92T ext. ref 1 (°C)	4.62T ext. ref 2 (°C)	31.16length (m)	temperature (°C)	Stokes	anti-Stokes-747.200	-110.069	-0.384	0.081
-746.185	63.373	-0.287	0.292
-745.171	-10.483	0.202	-0.135
-744.156	680.322	-0.047	0.125
-743.142	-157.341	-0.257	-0.016
-742.127	-145.412	0.279	-0.025
-741.112	36.318	0.139	0.124
-740.098	204.793	-0.187	0.293
-739.083	114.332	-0.167	0.206
-738.069	265.236	0.176	0.311
-737.054	-59.741	-0.194	-0.084
-736.039	53.723	-0.032	-0.031
-735.025	-128.973	0.464	0.066
-734.010	80.681	-0.130	-0.141
-732.996	-115.867	-0.332	-0.063
-731.981	-123.589	0.046	0.007
-730.966	399.838	-0.164	0.348
-729.952	-181.655	0.124	-0.002
-728.937	-115.166	-0.159	0.030
-727.923	371.577	-0.180	-0.371
-726.908	-200.000	-0.009	-0.200
-725.894	74.672	-0.093	-0.099
-724.879	1.060	0.113	0.082
-723.864	-96.347	-0.267	0.071
-722.850	800.000	0.082	-0.256
-721.835	105.271	0.058	0.069
-720.821	-70.388	0.216	0.083
-719.806	-129.087	0.145	-0.021
-718.791	-53.502	-0.239	-0.111
-717.777	800.000	0.012	0.048
-716.762	373.784	-0.229	0.471
-715.748	61.461	-0.279	-0.281
-714.733	-67.214	0.103	-0.041
-713.718	89.295	-0.154	0.173
-712.704	-200.000	0.010	-0.048
-711.689	85.145	0.055	-0.061
-710.675	11.422	-0.111	0.086
-709.660	800.000	-0.081	-0.236
-708.645	49.025	0.075	0.071
-707.631	22.251	0.029	0.024
-706.616	-200.000	0.058	0.369
-705.602	-146.674	0.111	0.010
-704.587	-104.867	-0.311	0.072
-703.572	800.000	0.048	-0.204
-702.558	-68.347	-0.201	-0.079
-701.543	800.000	-0.056	-0.186
-700.529	463.364	-0.059	-0.134
-699.514	800.000	-0.071	0.230
-698.499	-200.000	-0.009	-0.157
-697.485	-161.516	-0.272	-0.014
-696.470	-69.112	-0.453	0.176
-695.456	-157.490	0.133	0.008
-694.441	-200.000	-0.011	-0.254
-693.426	-39.506	0.282	-0.150
-692.412	207.256	-0.220	0.347
-691.397	-111.186	0.186	0.039
-690.383	-153.338	-0.139	0.010
-689.368	-106.787	-0.159	-0.036
-688.354	-19.844	-0.072	0.045
-687.339	-114.403	0.142	0.028
-686.324	-31.903	-0.211	-0.119
-685.310	58.330	0.138	-0.137
-684.295	800.000	-0.181	0.510
-683.281	38.319	-0.150	0.135
-682.266	-1.662	0.065	-0.046
-681.251	-200.000	0.070	0.338
-680.237	151.728	-0.067	-0.093
-679.222	-107.070	0.364	-0.081
-678.208	-200.000	0.017	-0.225
-677.193	-200.000	-0.033	0.237
-676.178	33.789	0.191	0.168
-675.164	661.100	-0.091	0.237
-674.149	196.867	0.139	-0.214
-673.135	-200.000	0.000	0.227
-672.120	13.005	-0.057	-0.044
-671.105	85.684	0.119	-0.132
-670.091	-31.606	0.188	0.107
-669.076	60.018	-0.313	-0.313
-668.062	-84.214	-0.397	-0.127
-667.047	800.000	0.135	0.419
-666.032	-142.428	-0.307	0.031
-665.018	-39.688	0.126	-0.067
-664.003	-10.913	-0.072	0.048
-662.989	-58.765	0.259	0.113
-661.974	267.727	-0.127	-0.224
-660.959	-37.323	-0.126	-0.068
-659.945	-24.227	0.178	-0.107
-658.930	258.834	-0.171	0.297
-657.916	-159.207	-0.271	-0.015
-656.901	-200.000	0.063	-0.409
-655.886	-200.000	0.063	-0.415
-654.872	372.499	0.128	-0.263
-653.857	304.199	-0.115	0.215
-652.843	-104.012	-0.302	0.071
-651.828	-200.000	0.033	-0.704
-650.814	132.984	0.089	-0.116
-649.799	145.071	-0.143	-0.193
-648.784	65.623	-0.134	-0.137
-647.770	-55.134	-0.386	-0.175
-646.755	159.019	-0.066	-0.092
-645.741	800.000	-0.092	0.317
-644.726	-179.427	0.537	-0.012
-643.711	-200.000	0.021	0.181
-642.697	-200.000	0.008	0.071
-641.682	-36.331	-0.217	0.118
-640.668	31.039	-0.054	-0.047
-639.653	-200.000	-0.023	0.109
-638.638	70.466	0.082	-0.085
-637.624	306.208	0.115	0.216
-636.609	89.862	0.232	-0.261
-635.595	157.990	0.071	0.099
-634.580	-54.960	-0.392	0.178
-633.565	-130.645	-0.175	0.024
-632.551	-8.832	0.286	-0.193
-631.536	800.000	0.095	-0.304
-630.522	656.974	0.138	0.357
-629.507	-91.737	0.182	-0.052
-628.492	123.123	-0.038	-0.048
-627.478	78.296	0.067	-0.072
-626.463	-135.115	0.085	0.010
-625.449	-118.727	-0.240	0.043
-624.434	388.128	-0.104	-0.217
-623.419	-57.442	-0.127	0.056
-622.405	-2.279	-0.053	-0.037
-621.390	-149.652	-0.062	-0.005
-620.376	-200.000	-0.009	0.222
-619.361	-53.015	-0.365	-0.169
-618.346	-134.845	-0.283	-0.035
-617.332	-102.025	-0.304	0.074
-616.317	629.059	-0.089	-0.226
-615.303	-143.486	-0.242	0.023
-614.288	101.968	-0.100	0.118
-613.273	150.037	-0.201	-0.275
-612.259	37.997	0.194	0.174
-611.244	80.776	0.109	-0.118
-610.230	-15.659	0.250	-0.161
-609.215	4.068	0.399	0.294
-608.201	-200.000	0.019	0.381
-607.186	618.006	-0.052	0.131
-606.171	135.159	0.115	-0.150
-605.157	53.436	0.242	-0.234
-604.142	800.000	0.108	-0.310
-603.128	-124.871	0.240	0.037
-602.113	37.761	-0.153	0.137
-601.098	-156.986	0.142	0.009
-600.084	-200.000	-0.034	0.233
-599.069	764.537	-0.145	-0.396
-598.055	210.968	-0.033	-0.053
-597.040	-6.706	0.110	0.075
-596.025	109.541	-0.059	0.071
-595.011	-21.143	0.180	-0.111
-593.996	440.378	-0.049	-0.108
-592.982	-59.575	-0.254	-0.110
-591.967	-145.150	0.080	0.007
-590.952	95.564	-0.212	-0.243
-589.938	-69.269	-0.279	-0.108
-588.923	-49.477	0.167	0.080
-587.909	391.245	-0.080	0.167
-586.894	-46.120	0.365	-0.181
-585.879	-59.620	-0.106	-0.046
-584.865	149.091	0.181	-0.246
-583.850	-139.325	0.373	-0.040
-582.836	-83.120	0.233	-0.076
-581.821	-12.987	-0.297	-0.194
-580.806	607.387	-0.034	-0.086
-579.792	23.086	-0.223	-0.185
-578.777	-200.000	-0.001	-0.075
-577.763	67.842	-0.088	0.090
-576.748	44.503	0.127	-0.117
-575.733	800.000	0.069	-0.192
-574.719	-84.983	-0.197	0.062
-573.704	121.531	0.181	0.228
-572.690	800.000	0.037	0.144
-571.675	482.253	0.082	0.187
-570.661	800.000	0.072	0.265
-569.646	800.000	0.117	0.419
-568.631	175.574	0.133	0.194
-567.617	57.507	-0.042	0.041
-566.602	-86.986	0.036	-0.011
-565.588	-20.730	0.169	0.104
-564.573	-104.191	-0.161	0.038
-563.558	-131.192	0.461	0.062
-562.544	-96.880	0.280	-0.074
-561.529	187.200	-0.231	-0.347
-560.515	-108.736	0.264	0.057
-559.500	-200.000	-0.005	0.231
-558.485	109.515	0.103	0.124
-557.471	658.991	-0.098	-0.253
-556.456	-200.000	0.028	-0.127
-555.442	-152.728	-0.113	-0.008
-554.427	-200.000	0.041	-0.278
-553.412	800.000	0.074	0.326
-552.398	154.713	-0.347	0.479
-551.383	296.411	-0.056	0.103
-550.369	692.104	-0.095	-0.251
-549.354	-200.000	0.036	0.164
-548.339	-22.274	-0.167	-0.102
-547.325	-200.000	0.018	-0.211
-546.310	125.173	0.190	-0.241
-545.296	406.016	-0.129	-0.274
-544.281	-21.555	-0.013	0.008
-543.266	743.465	-0.076	0.206
-542.252	-200.000	-0.013	-0.278
-541.237	-132.789	0.199	0.026
-540.223	88.169	-0.120	0.134
-539.208	699.563	-0.049	0.130
-538.193	71.590	-0.254	-0.265
-537.179	77.599	-0.104	-0.111
-536.164	-79.699	0.118	-0.040
-535.150	-181.978	0.083	0.002
-534.135	203.409	0.040	0.063
-533.121	95.483	0.154	-0.177
-532.106	-167.980	-0.502	0.020
-531.091	-147.970	-0.143	0.012
-530.077	-200.000	-0.042	0.267
-529.062	298.655	0.050	0.093
-528.048	84.178	-0.108	-0.118
-527.033	-104.262	-0.242	0.056
-526.018	800.000	0.083	0.299
-525.004	-45.105	-0.032	0.016
-523.989	-7.487	-0.134	0.091
-522.975	384.136	0.016	-0.032
-521.960	55.127	0.167	0.162
-520.945	-200.000	0.001	-0.230
-519.931	22.242	-0.161	0.132
-518.916	-200.000	-0.064	-0.465
-517.902	86.484	0.217	-0.240
-516.887	-88.584	-0.229	0.068
-515.872	-72.251	-0.376	0.140
-514.858	-119.841	0.248	0.043
-513.843	-115.305	-0.109	-0.021
-512.829	-51.271	-0.272	0.128
-511.814	189.635	-0.075	-0.113
-510.799	-21.567	0.092	0.057
-509.785	-19.711	-0.255	-0.159
-508.770	800.000	0.063	0.188
-507.756	-135.691	-0.085	0.010
-506.741	82.761	0.080	-0.087
-505.726	203.794	-0.209	-0.325
-504.712	-27.253	0.243	-0.142
-503.697	-197.650	-0.266	0.002
-502.683	800.000	-0.020	0.068
-501.668	163.267	0.101	-0.142
-500.653	-168.788	-0.120	0.005
-499.639	-200.000	-0.043	-0.285
-498.624	-85.117	-0.266	0.083
-497.610	27.617	0.051	-0.043
-496.595	-147.292	-0.232	-0.020
-495.581	800.000	0.056	-0.218
-494.566	800.000	-0.044	0.132
-493.551	800.000	0.035	0.119
-492.537	-200.000	0.018	0.164
-491.522	800.000	-0.091	0.297
-490.508	-161.647	0.137	-0.007
-489.493	-0.308	0.054	-0.038
-488.478	-166.488	-0.098	0.004
-487.464	-29.639	0.391	0.224
-486.449	-200.000	0.002	0.011
-485.435	-158.567	-0.187	-0.011
-484.420	-158.332	0.123	-0.007
-483.405	-61.071	0.314	0.133
-482.391	-200.000	-0.001	0.037
-481.376	733.956	-0.152	-0.409
-480.362	-58.593	0.297	0.129
-479.347	-200.000	0.013	0.170
-478.332	235.405	-0.118	-0.195
-477.318	89.245	0.259	-0.290
-476.303	-139.497	-0.237	-0.025
-475.289	-139.486	0.254	-0.027
-474.274	0.838	0.298	-0.214
-473.259	71.144	0.113	0.117
-472.245	800.000	-0.019	0.058
-471.230	-65.232	0.097	-0.039
-470.216	-200.000	-0.018	-0.234
-469.201	-49.588	-0.298	-0.142
-468.186	-200.000	0.014	0.115
-467.172	119.628	0.043	-0.054
-466.157	-165.379	0.464	-0.020
-465.143	6.369	-0.149	0.111
-464.128	-200.000	0.014	0.210
-463.113	-37.374	0.189	-0.101
-462.099	28.283	0.320	-0.271
-461.084	-196.065	-0.043	0.000
-460.070	459.208	-0.060	-0.133
-459.055	-34.644	0.043	-0.023
-458.040	-11.551	0.174	0.114
-457.026	800.000	0.017	0.065
-456.011	-200.000	-0.040	-0.303
-454.997	-200.000	-0.009	0.194
-453.982	-200.000	-0.001	-0.074
-452.968	-100.162	-0.170	0.042
-451.953	66.184	-0.090	0.091
-450.938	21.268	-0.196	0.160
-449.924	-96.337	-0.248	0.066
-448.909	-63.054	0.191	-0.079
-447.895	800.000	0.083	-0.280
-446.880	63.210	0.119	0.120
-445.865	-36.122	0.153	-0.083
-444.851	588.943	0.072	0.178
-443.836	9.389	-0.138	-0.105
-442.822	-153.796	-0.305	0.021
-441.807	28.229	-0.028	0.023
-440.792	-92.557	0.149	-0.042
-439.778	800.000	-0.058	0.222
-438.763	-12.883	-0.094	0.062
-437.749	26.028	-0.200	0.167
-436.734	-160.430	0.417	0.022
-435.719	-61.353	-0.088	-0.037
-434.705	24.340	0.210	-0.174
-433.690	-30.143	0.082	0.047
-432.676	-138.429	-0.237	0.026
-431.661	274.083	0.018	0.033
-430.646	43.015	0.036	-0.033
-429.632	-47.678	-0.085	-0.041
-428.617	800.000	0.070	0.222
-427.603	194.706	0.070	-0.106
-426.588	754.636	0.089	-0.240
-425.573	-200.000	0.004	0.029
-424.559	-92.386	0.244	0.069
-423.544	800.000	-0.032	-0.125
-422.530	-61.782	0.285	0.119
-421.515	-83.586	-0.211	0.068
-420.500	-24.709	-0.304	-0.181
-419.486	59.329	-0.211	0.208
-418.471	140.709	0.218	0.288
-417.457	55.590	0.118	0.115
-416.442	-200.000	0.100	0.456
-415.428	-138.930	0.175	-0.019
-414.413	800.000	0.062	0.248
-413.398	145.514	0.145	-0.194
-412.384	110.999	0.110	0.132
-411.369	149.482	-0.177	0.240
-410.355	-24.198	0.082	0.049
-409.340	-192.410	0.215	0.002
-408.325	155.191	0.155	0.213
-407.311	-98.731	-0.176	-0.045
-406.296	800.000	0.013	0.039
-405.282	341.932	0.032	0.062
-404.267	33.965	-0.129	-0.113
-403.252	-200.000	-0.042	0.222
-402.238	-200.000	0.024	-0.114
-401.223	450.553	0.063	-0.140
-400.209	15.551	-0.108	0.085
-399.194	-131.511	-0.122	-0.016
-398.179	-200.000	-0.003	-0.237
-397.165	118.048	-0.204	-0.251
-396.150	89.831	0.354	-0.395
-395.136	130.818	-0.173	0.222
-394.121	-38.426	-0.280	0.148
-393.106	34.553	0.034	-0.030
-392.092	714.821	-0.067	0.179
-391.077	-108.974	0.076	0.016
-390.063	-107.955	-0.370	0.080
-389.048	800.000	0.054	0.158
-388.033	-87.334	-0.192	0.058
-387.019	-85.583	-0.164	-0.051
-386.004	800.000	0.061	-0.208
-384.990	-85.715	0.197	0.061
-383.975	107.223	-0.178	0.212
-382.960	-200.000	-0.058	0.384
-381.946	668.437	-0.071	-0.183
-380.931	800.000	0.068	-0.262
-379.917	-124.476	-0.220	-0.034
-378.902	79.854	-0.242	0.260
-377.888	501.237	-0.140	-0.323
-376.873	101.170	0.196	-0.228
-375.858	55.451	0.098	0.095
-374.844	709.442	-0.067	0.177
-373.829	195.163	-0.138	0.210
-372.815	61.496	-0.168	0.167
-371.800	-200.000	-0.022	0.136
-370.785	-76.917	-0.074	0.026
-369.771	-200.000	-0.068	0.310
-368.756	-132.443	-0.285	-0.037
-367.742	6.629	-0.152	0.113
-366.727	60.701	-0.056	-0.056
-365.712	702.890	-0.082	-0.215
-364.698	-34.104	-0.205	-0.112
-363.683	-200.000	0.030	-0.172
-362.669	318.291	0.132	-0.249
-361.654	-200.000	-0.009	0.110
-360.639	389.840	0.094	0.194
-359.625	-99.316	0.242	-0.061
-358.610	-142.005	-0.086	0.009
-357.596	-54.360	0.060	0.027
-356.581	-200.000	0.019	-0.246
-355.566	-125.027	-0.224	0.034
-354.552	4.679	0.210	0.154
-353.537	146.657	0.152	0.204
-352.523	-34.478	0.366	-0.200
-351.508	429.945	0.130	0.280
-350.493	-78.475	0.031	0.011
-349.479	71.092	-0.088	0.091
-348.464	105.042	-0.248	-0.292
-347.450	-106.660	-0.311	0.069
-346.435	216.843	0.087	0.138
-345.420	-200.000	0.033	-0.214
-344.406	-76.693	0.153	0.053
-343.391	54.635	-0.158	-0.152
-342.377	-200.000	0.029	-0.252
-341.362	-166.397	-0.177	-0.007
-340.348	-200.000	-0.001	0.030
-339.333	143.524	0.110	-0.146
-338.318	-148.173	0.167	0.014
-337.304	-200.000	0.010	0.267
-336.289	-200.000	-0.027	0.300
-335.275	50.106	-0.209	0.196
-334.260	373.853	-0.050	0.102
-333.245	-200.000	0.055	0.384
-332.231	800.000	-0.054	-0.205
-331.216	-200.000	0.005	-0.226
-330.202	-123.891	-0.273	0.043
-329.187	85.151	-0.054	-0.059
-328.172	-42.538	-0.121	0.061
-327.158	46.124	-0.036	-0.034
-326.143	-200.000	-0.007	0.106
-325.129	-126.536	0.224	-0.033
-324.114	-88.313	0.385	-0.115
-323.099	23.581	-0.256	-0.210
-322.085	133.562	0.124	0.160
-321.070	-35.705	-0.082	-0.044
-320.056	-200.000	-0.031	-0.176
-319.041	-200.000	-0.104	0.475
-318.026	-53.539	-0.092	-0.042
-317.012	-70.898	0.144	-0.054
-315.997	-200.000	0.047	0.215
-314.983	-21.858	0.184	0.112
-313.968	-63.365	-0.335	0.137
-312.953	124.911	0.193	-0.242
-311.939	-200.000	-0.007	-0.235
-310.924	-200.000	-0.017	-0.122
-309.910	-92.934	-0.159	0.044
-308.895	77.679	0.068	-0.072
-307.880	800.000	0.073	0.205
-306.866	261.993	-0.044	-0.075
-305.851	468.617	0.102	0.228
-304.837	-200.000	-0.076	-0.338
-303.822	-42.548	-0.272	0.138
-302.807	-63.210	0.266	0.109
-301.793	3.969	-0.198	-0.144
-300.778	2.259	0.485	-0.349
-299.764	-77.298	-0.308	0.107
-298.749	287.815	0.108	-0.194
-297.735	134.634	0.203	0.263
-296.720	-200.000	0.010	0.084
-295.705	133.712	0.162	0.208
-294.691	75.176	0.123	0.129
-293.676	-60.835	0.179	0.076
-292.662	-99.277	0.172	0.043
-291.647	763.510	-0.054	0.145
-290.632	235.195	0.008	0.013
-289.618	167.613	0.191	0.271
-288.603	719.229	-0.168	0.443
-287.589	-135.763	-0.229	0.027
-286.574	-110.061	-0.083	0.017
-285.559	800.000	-0.028	0.087
-284.545	-22.016	-0.146	0.088
-283.530	-200.000	-0.001	0.032
-282.516	-200.000	-0.032	0.246
-281.501	347.258	-0.023	0.044
-280.486	91.890	-0.088	0.099
-279.472	-200.000	-0.033	0.253
-278.457	-127.927	0.519	0.074
-277.443	344.533	-0.146	-0.286
-276.428	800.000	0.045	-0.168
-275.413	147.324	0.155	-0.208
-274.399	-139.918	-0.385	0.040
-273.384	235.794	0.069	0.114
-272.370	-200.000	0.026	0.197
-271.355	800.000	0.049	-0.200
-270.340	800.000	0.033	0.131
-269.326	13.122	0.436	-0.336
-268.311	209.848	0.110	-0.171
-267.297	60.932	-0.110	-0.109
-266.282	800.000	0.068	0.247
-265.267	50.400	-0.241	0.227
-264.253	-200.000	-0.047	-0.218
-263.238	-175.971	0.121	0.003
-262.224	-200.000	0.000	0.123
-261.209	-132.181	0.570	-0.073
-260.195	-69.590	0.127	0.048
-259.180	-33.962	0.098	-0.054
-258.165	34.258	-0.073	-0.064
-257.151	403.595	-0.070	-0.147
-256.136	800.000	0.024	0.098
-255.122	-19.896	-0.111	0.068
-254.107	-86.789	0.270	0.082
-253.092	-112.944	0.238	-0.047
-252.078	-55.969	0.260	-0.115
-251.063	-42.475	-0.251	-0.127
-250.049	35.975	-0.067	-0.059
-249.034	38.392	-0.150	0.133
-248.019	317.140	0.066	-0.125
-247.005	800.000	0.088	-0.268
-245.990	-200.000	-0.021	0.259
-244.976	116.778	0.062	0.076
-243.961	453.114	-0.106	0.233
-242.946	-193.328	-0.194	-0.002
-241.932	-128.188	0.277	0.039
-240.917	-88.019	0.156	-0.046
-239.903	-200.000	0.011	-0.056
-238.888	-128.159	0.326	-0.046
-237.873	-11.585	-0.144	0.094
-236.859	-200.000	0.010	-0.207
-235.844	177.862	0.191	-0.277
-234.830	-200.000	-0.027	-0.298
-233.815	152.288	0.061	-0.082
-232.800	721.317	-0.019	0.050
-231.786	-72.570	-0.167	-0.061
-230.771	-200.000	0.025	-0.118
-229.757	800.000	0.084	-0.260
-228.742	-101.317	0.101	-0.025
-227.727	-39.739	0.105	0.054
-226.713	-39.798	0.147	-0.076
-225.698	13.031	-0.109	-0.084
-224.684	-90.452	-0.217	-0.062
-223.669	-150.543	-0.102	0.008
-222.655	-200.000	0.029	-0.260
-221.640	102.430	0.020	0.023
-220.625	15.661	-0.215	-0.168
-219.611	650.373	-0.065	-0.165
-218.596	-69.764	-0.206	0.078
-217.582	-55.278	0.046	-0.020
-216.567	64.224	0.168	-0.168
-215.552	60.206	-0.062	-0.061
-214.538	-90.329	-0.314	-0.090
-213.523	68.476	-0.070	-0.071
-212.509	-200.000	-0.058	0.253
-211.494	-200.000	-0.050	0.554
-210.479	26.466	-0.184	-0.153
-209.465	565.210	-0.035	-0.085
-208.450	-23.234	-0.088	-0.052
-207.436	-92.732	0.227	0.063
-206.421	641.618	0.086	-0.216
-205.406	800.000	0.023	0.091
-204.392	-42.343	0.314	0.159
-203.377	32.639	-0.201	0.172
-202.363	-200.000	-0.046	0.264
-201.348	-159.569	-0.488	-0.027
-200.333	-138.766	0.402	-0.044
-199.319	290.108	0.005	-0.009
-198.304	-14.298	0.102	0.065
-197.290	-76.426	0.301	0.105
-196.275	115.446	0.133	0.161
-195.260	216.403	-0.054	0.085
-194.246	40.351	-0.173	0.155
-193.231	102.340	0.092	-0.107
-192.217	70.317	0.237	0.243
-191.202	204.914	-0.084	0.129
-190.187	-160.159	-0.349	-0.019
-189.173	50.622	-0.385	-0.361
-188.158	153.857	0.270	-0.367
-187.144	105.415	-0.247	-0.290
-186.129	-107.804	0.184	0.040
-185.114	70.791	-0.239	-0.245
-184.100	-114.114	0.056	-0.011
-183.085	165.917	0.133	-0.186
-182.071	16.428	0.074	-0.058
-181.056	36.662	0.258	0.226
-180.042	800.000	-0.022	-0.083
-179.027	482.091	-0.075	-0.170
-178.012	369.674	-0.083	-0.166
-176.998	-79.653	0.372	0.124
-175.983	80.832	-0.229	0.245
-174.969	-29.334	0.265	-0.150
-173.954	800.000	-0.040	-0.114
-172.939	-148.147	-0.262	-0.021
-171.925	-112.449	0.008	0.002
-170.910	-200.000	-0.093	-0.413
-169.896	373.028	-0.137	0.276
-168.881	25.441	0.156	0.128
-167.866	75.310	0.228	-0.238
-166.852	800.000	0.061	-0.208
-165.837	179.698	-0.143	-0.208
-164.823	-92.051	0.177	0.050
-163.808	-42.395	-0.251	0.127
-162.793	216.015	-0.142	0.224
-161.779	800.000	0.080	0.325
-160.764	-178.124	0.570	0.013
-159.750	188.238	-0.076	-0.112
-158.735	-125.348	-0.346	0.052
-157.720	-200.000	0.033	0.315
-156.706	-200.000	0.009	-0.129
-155.691	-200.000	0.050	-0.333
-154.677	258.631	0.073	0.124
-153.662	26.209	-0.174	0.144
-152.647	64.850	0.028	0.028
-151.633	-200.000	-0.004	0.071
-150.618	594.508	-0.053	0.129
-149.604	34.334	-0.117	0.101
-148.589	-200.000	-0.020	0.134
-147.574	-108.700	-0.104	-0.022
-146.560	-200.000	-0.024	0.412
-145.545	-38.926	0.051	0.027
-144.531	800.000	-0.028	-0.082
-143.516	-13.876	0.102	-0.065
-142.502	-200.000	-0.064	0.313
-141.487	-103.587	0.325	-0.076
-140.472	242.966	-0.088	-0.145
-139.458	-200.000	-0.003	0.020
-138.443	-145.877	-0.160	0.014
-137.429	686.142	0.063	0.162
-136.414	-99.006	-0.430	-0.108
-135.399	333.055	0.238	0.455
-134.385	-59.936	0.121	-0.051
-133.370	179.069	0.160	-0.231
-132.356	-26.002	-0.094	0.055
-131.341	-51.062	0.528	0.245
-130.326	-200.000	0.021	-0.483
-129.312	11.357	0.188	-0.142
-128.297	-121.175	0.135	-0.022
-127.283	-200.000	-0.003	0.155
-126.268	-200.000	0.017	0.326
-125.253	-142.243	-0.222	0.022
-124.239	212.514	0.065	-0.102
-123.224	133.099	-0.077	-0.098
-122.210	-20.411	0.376	0.228
-121.195	61.566	0.120	-0.118
