DTS Sentinel unit serial number:	SN413079Multiplexer serial number:	ORYXHardware model number:	OX4-SRSoftware version number:	ORYX F/W v4.00 Oryx Data Collector v3.7.2.0data status	okinstallation	princeton_trtdifferential loss correction	single-endedforward channel	channel 2reverse channel	N/Adate	2019/09/14time	23:31:34forward acquisition time	60.00reverse acquisition time	0.00gamma	496.2192k internal	0.2324k external	0.2324temperature offset calibration	1.0052default loss term (dB/km)	0.3790temperature slope calibration	1.0000multiplexer offset coefficient	1.0000multiplexer slope coefficient	1.0000fibre end	0.00T internal ref (°C)	32.31T ext. ref 1 (°C)	4.64T ext. ref 2 (°C)	27.36length (m)	temperature (°C)	Stokes	anti-Stokes-747.200	-81.334	-0.169	-0.056
-746.185	42.501	0.249	0.229
-745.171	800.000	0.056	0.215
-744.156	-65.498	-0.148	-0.060
-743.142	133.108	-0.135	-0.177
-742.127	-2.360	-0.329	0.233
-741.112	97.520	-0.086	-0.100
-740.098	-94.214	-0.159	-0.044
-739.083	59.395	-0.231	-0.230
-738.069	-84.842	-0.302	0.096
-737.054	-161.505	-0.336	0.017
-736.039	-5.495	-0.174	0.120
-735.025	-200.000	-0.023	0.146
-734.010	35.100	0.082	0.072
-732.996	58.713	-0.212	0.210
-731.981	800.000	0.058	0.245
-730.966	800.000	-0.062	0.244
-729.952	-124.925	-0.357	-0.055
-728.937	406.400	-0.123	-0.262
-727.923	-200.000	-0.059	0.392
-726.908	-115.407	0.066	-0.013
-725.894	87.605	-0.147	-0.164
-724.879	-26.291	-0.092	0.054
-723.864	-200.000	-0.178	-0.000
-722.850	-140.275	0.327	-0.034
-721.835	-62.334	-0.291	-0.122
-720.821	-79.872	-0.183	-0.062
-719.806	242.387	-0.086	0.145
-718.791	585.595	-0.071	0.176
-717.777	-200.000	-0.006	-0.102
-716.762	-200.000	0.006	0.114
-715.748	-173.854	0.159	-0.005
-714.733	10.138	-0.171	-0.131
-713.718	-100.262	0.208	-0.052
-712.704	-200.000	-0.022	0.224
-711.689	398.237	0.144	-0.305
-710.675	103.739	-0.244	-0.289
-709.660	-114.874	-0.172	0.033
-708.645	-111.398	-0.159	0.033
-707.631	-85.850	0.200	-0.063
-706.616	46.204	-0.383	-0.357
-705.602	187.504	-0.135	-0.203
-704.587	42.112	-0.113	-0.103
-703.572	-107.553	0.117	0.026
-702.558	-23.777	-0.264	-0.159
-701.543	495.766	-0.092	-0.213
-700.529	184.803	-0.075	0.111
-699.514	-70.513	-0.152	0.058
-698.499	20.462	0.185	-0.150
-697.485	112.392	0.196	-0.238
-696.470	-66.969	0.206	0.082
-695.456	140.568	0.213	0.284
-694.441	-200.000	0.016	-0.368
-693.426	-73.670	0.160	-0.059
-692.412	146.999	0.150	0.203
-691.397	-54.003	-0.292	0.134
-690.383	435.412	-0.122	0.268
-689.368	800.000	-0.097	0.274
-688.354	67.309	0.136	0.140
-687.339	179.996	0.165	-0.243
-686.324	-119.443	-0.178	-0.031
-685.310	331.086	0.226	-0.438
-684.295	-38.409	-0.164	-0.088
-683.281	800.000	0.043	0.129
-682.266	147.862	-0.199	-0.270
-681.251	126.889	-0.098	0.125
-680.237	-200.000	0.020	0.156
-679.222	-63.215	0.219	0.091
-678.208	15.760	-0.190	0.150
-677.193	-129.707	-0.561	0.078
-676.178	348.242	-0.083	-0.166
-675.164	-106.918	0.247	0.055
-674.149	-152.251	-0.188	0.014
-673.135	-77.968	-0.065	0.023
-672.120	431.660	-0.147	-0.320
-671.105	557.914	-0.108	0.262
-670.091	314.027	0.204	-0.386
-669.076	320.363	-0.114	-0.219
-668.062	-47.521	-0.196	-0.096
-667.047	90.456	0.030	-0.034
-666.032	94.771	-0.137	0.157
-665.018	-43.363	0.462	0.235
-664.003	-120.942	-0.277	0.047
-662.989	-200.000	0.040	-0.244
-661.974	-200.000	0.018	-0.159
-660.959	195.808	0.117	-0.178
-659.945	-200.000	0.008	0.204
-658.930	800.000	0.042	-0.118
-657.916	800.000	-0.100	-0.300
-656.901	178.213	-0.076	-0.112
-655.886	-200.000	-0.048	-0.262
-654.872	65.716	-0.306	-0.312
-653.857	-200.000	-0.003	-0.103
-652.843	-39.509	0.242	0.127
-651.828	-200.000	-0.008	0.352
-650.814	-11.534	-0.298	0.197
-649.799	-63.648	0.102	0.042
-648.784	-174.459	0.211	0.006
-647.770	83.823	0.108	-0.119
-646.755	459.518	0.118	-0.264
-645.741	312.171	0.177	-0.333
-644.726	800.000	0.105	-0.399
-643.711	-200.000	-0.013	0.364
-642.697	416.376	0.129	-0.278
-641.682	800.000	-0.069	0.282
-640.668	281.361	0.059	-0.106
-639.653	4.397	0.180	0.133
-638.638	34.784	-0.192	-0.169
-637.624	31.383	-0.253	0.218
-636.609	-23.355	0.060	-0.036
-635.595	-95.349	-0.349	0.094
-634.580	-137.763	0.508	0.057
-633.565	311.495	0.145	-0.274
-632.551	-100.032	-0.439	-0.110
-631.536	-4.768	0.064	-0.044
-630.522	-50.140	-0.184	0.088
-629.507	-200.000	0.000	-0.021
-628.492	473.898	-0.119	0.270
-627.478	433.096	0.058	0.126
-626.463	-6.594	0.281	-0.192
-625.449	-57.038	-0.222	0.098
-624.434	800.000	-0.069	0.207
-623.419	-14.471	-0.181	-0.117
-622.405	469.652	0.165	0.374
-621.390	143.052	0.115	-0.154
-620.376	-90.587	0.072	-0.021
-619.361	680.007	0.066	-0.173
-618.346	221.982	-0.183	-0.296
-617.332	-56.738	-0.064	0.028
-616.317	-130.777	0.213	0.029
-615.303	268.975	0.121	-0.213
-614.288	-151.334	-0.283	-0.021
-613.273	-200.000	0.066	0.327
-612.259	622.720	-0.038	0.096
-611.244	-121.250	-0.091	0.015
-610.230	393.724	-0.220	0.460
-609.215	-200.000	-0.000	0.080
-608.201	311.173	-0.067	0.126
-607.186	194.536	0.238	-0.363
-606.171	800.000	0.068	0.209
-605.157	-8.482	-0.101	-0.068
-604.142	702.877	-0.083	-0.221
-603.128	800.000	0.094	-0.291
-602.113	702.226	0.049	0.129
-601.098	515.637	0.079	-0.185
-600.084	22.958	0.136	0.112
-599.069	0.902	-0.175	0.126
-598.055	192.070	0.134	-0.203
-597.040	91.139	0.216	0.244
-596.025	-137.918	0.308	0.035
-595.011	800.000	-0.034	0.148
-593.996	-93.633	-0.205	-0.057
-592.982	800.000	0.022	0.072
-591.967	135.367	-0.058	0.075
-590.952	99.071	0.223	-0.258
-589.938	-69.886	-0.239	-0.091
-588.923	-38.519	0.428	-0.227
-587.909	-166.721	-0.293	0.012
-586.894	-200.000	0.037	-0.179
-585.879	800.000	0.075	-0.302
-584.865	-102.743	-0.175	-0.042
-583.850	180.803	-0.071	-0.104
-582.836	368.472	-0.108	0.219
-581.821	800.000	-0.069	-0.248
-580.806	531.948	0.119	-0.281
-579.792	-132.161	-0.329	0.043
-578.777	113.505	-0.024	0.029
-577.763	286.896	0.118	-0.214
-576.748	-62.633	0.232	-0.096
-575.733	356.381	-0.165	-0.330
-574.719	-35.677	0.018	-0.010
-573.704	-66.939	-0.058	0.023
-572.690	-76.622	0.196	-0.069
-571.675	55.327	0.035	-0.034
-570.661	618.739	-0.085	-0.213
-569.646	-56.990	-0.321	-0.142
-568.631	-200.000	0.003	-0.040
-567.617	26.162	0.161	-0.135
-566.602	-110.609	-0.142	0.029
-565.588	54.551	-0.199	-0.192
-564.573	-144.785	0.357	0.033
-563.558	-200.000	0.019	0.268
-562.544	-21.418	-0.052	0.032
-561.529	800.000	-0.125	-0.463
-560.515	386.673	0.165	-0.341
-559.500	244.527	-0.162	0.273
-558.485	-200.000	0.022	0.499
-557.471	-200.000	-0.011	-0.219
-556.456	41.063	-0.105	-0.095
-555.442	800.000	0.120	0.399
-554.427	-77.264	0.156	-0.054
-553.412	600.837	-0.079	0.197
-552.398	-131.318	-0.177	0.024
-551.383	800.000	-0.016	0.065
-550.369	5.557	0.247	0.183
-549.354	551.841	-0.030	0.072
-548.339	-143.743	-0.124	-0.012
-547.325	-38.561	-0.214	-0.113
-546.310	190.178	0.171	0.257
-545.296	-79.847	-0.291	0.098
-544.281	145.241	0.081	-0.109
-543.266	-42.833	-0.114	-0.058
-542.252	800.000	-0.070	0.240
-541.237	110.790	-0.151	-0.182
-540.223	800.000	-0.084	-0.306
-539.208	-200.000	-0.017	0.310
-538.193	-96.700	-0.191	-0.050
-537.179	-132.888	-0.191	0.024
-536.164	-200.000	0.033	0.256
-535.150	15.094	0.167	0.131
-534.135	75.991	0.081	0.086
-533.121	800.000	0.092	-0.282
-532.106	-1.014	-0.335	0.237
-531.091	800.000	0.030	0.095
-530.077	-143.496	-0.352	0.034
-529.062	-102.212	0.383	-0.092
-528.048	121.464	-0.049	-0.061
-527.033	106.732	-0.170	-0.201
-526.018	-125.646	-0.238	0.036
-525.004	-38.218	-0.112	0.059
-523.989	-170.155	-0.115	0.004
-522.975	179.078	0.135	0.197
-521.960	47.843	-0.076	-0.071
-520.945	10.228	0.115	-0.087
-519.931	-39.749	0.361	-0.189
-518.916	-200.000	0.023	0.179
-517.902	-132.095	-0.279	-0.036
-516.887	-39.946	0.272	0.142
-515.872	36.264	-0.201	0.178
-514.858	-200.000	0.004	-0.172
-513.843	-47.729	0.075	0.037
-512.829	66.487	0.234	-0.238
-511.814	98.943	0.168	-0.195
-510.799	-120.886	-0.490	0.083
-509.785	-16.690	-0.275	0.174
-508.770	-35.441	-0.126	0.069
-507.756	-118.237	0.097	-0.017
-506.741	427.420	-0.094	0.202
-505.726	105.383	-0.150	0.177
-504.712	153.368	-0.162	0.221
-503.697	331.543	0.108	-0.208
-502.683	-200.000	-0.008	-0.189
-501.668	689.428	-0.042	0.111
-500.653	-146.628	0.169	-0.015
-499.639	114.413	-0.158	-0.193
-498.624	-93.764	0.213	-0.059
-497.610	133.311	0.150	-0.194
-496.595	-94.518	-0.233	-0.063
-495.581	22.540	0.183	-0.150
-494.566	118.119	0.121	-0.149
-493.551	-84.823	0.224	-0.070
-492.537	800.000	0.052	0.156
-491.522	800.000	0.046	-0.140
-490.508	-111.848	0.385	0.078
-489.493	618.585	0.121	-0.303
-488.478	-104.709	-0.270	-0.062
-487.464	-200.000	-0.001	0.172
-486.449	440.881	0.025	-0.054
-485.435	-23.437	0.196	-0.118
-484.420	-22.373	0.086	0.052
-483.405	111.872	-0.184	0.222
-482.391	77.796	0.158	-0.168
-481.376	196.784	0.085	0.130
-480.362	800.000	-0.106	0.329
-479.347	-200.000	-0.025	0.138
-478.332	77.784	-0.074	0.078
-477.318	-81.827	-0.133	-0.044
-476.303	240.308	0.179	0.298
-475.289	314.656	-0.126	0.237
-474.274	323.694	0.062	-0.117
-473.259	-200.000	0.025	0.122
-472.245	-42.276	-0.202	-0.103
-471.230	430.522	0.092	-0.198
-470.216	-61.289	-0.222	-0.093
-469.201	51.522	-0.211	-0.201
-468.186	294.416	0.051	-0.093
-467.172	-114.272	0.139	-0.027
-466.157	449.649	0.059	0.131
-465.143	69.764	0.032	0.033
-464.128	-200.000	0.014	0.156
-463.113	-83.638	-0.257	0.082
-462.099	-74.627	-0.494	-0.178
-461.084	-19.351	-0.220	0.136
-460.070	800.000	0.102	-0.287
-459.055	-200.000	-0.012	-0.056
-458.040	-162.120	0.119	0.006
-457.026	-34.967	-0.266	0.145
-456.011	-61.064	-0.164	-0.069
-454.997	-44.998	0.125	-0.062
-453.982	-35.995	-0.300	-0.162
-452.968	255.686	0.207	0.354
-451.953	65.962	-0.118	-0.120
-450.938	-38.245	-0.059	0.031
-449.924	-152.065	0.253	0.018
-448.909	53.405	-0.060	-0.057
-447.895	128.954	0.099	0.127
-446.880	-87.008	-0.183	0.056
-445.865	14.919	0.237	-0.185
-444.851	800.000	-0.059	-0.206
-443.836	-138.423	-0.137	-0.015
-442.822	-44.272	-0.068	0.034
-441.807	800.000	0.086	0.331
-440.792	-109.338	0.181	-0.038
-439.778	74.905	0.293	0.308
-438.763	-88.642	-0.333	-0.099
-437.749	50.101	0.074	-0.070
-436.734	46.468	-0.215	0.199
-435.719	161.323	0.117	0.163
-434.705	34.199	-0.154	-0.134
-433.690	653.111	0.078	-0.201
-432.676	-101.260	0.252	-0.061
-431.661	-77.804	0.245	-0.085
-430.646	761.624	-0.080	-0.217
-429.632	800.000	-0.024	-0.074
-428.617	114.992	-0.106	-0.130
-427.603	-105.221	-0.065	-0.015
-426.588	800.000	-0.128	-0.357
-425.573	800.000	-0.068	0.279
-424.559	65.301	0.025	0.025
-423.544	-111.491	0.355	-0.072
-422.530	68.712	-0.222	0.227
-421.515	-51.697	0.237	0.110
-420.500	-152.920	-0.140	-0.010
-419.486	-28.339	0.159	0.091
-418.471	-200.000	0.005	0.304
-417.457	-78.114	0.022	0.008
-416.442	154.898	-0.212	-0.291
-415.428	-97.470	0.129	-0.033
-414.413	52.376	0.198	0.189
-413.398	800.000	-0.083	0.330
-412.384	-164.618	0.189	0.009
-411.369	-80.173	0.222	-0.074
-410.355	-6.724	0.188	-0.128
-409.340	514.347	0.074	0.173
-408.325	-200.000	0.062	0.277
-407.311	517.862	-0.132	0.309
-406.296	-158.883	0.430	0.024
-405.282	23.135	-0.223	0.182
-404.267	-200.000	-0.012	-0.120
-403.252	-200.000	-0.011	-0.307
-402.238	289.056	0.033	0.060
-401.223	-200.000	-0.011	-0.111
-400.209	-66.421	-0.235	0.093
-399.194	-88.497	0.459	0.136
-398.179	5.018	-0.199	0.146
-397.165	-200.000	-0.037	-0.578
-396.150	489.595	-0.064	0.145
-395.136	-200.000	0.009	-0.256
-394.121	-162.434	0.362	-0.018
-393.106	800.000	0.035	-0.114
-392.092	-200.000	-0.009	-0.300
-391.077	-61.900	0.075	-0.031
-390.063	-200.000	0.019	-0.163
-389.048	-77.886	0.325	-0.112
-388.033	-200.000	0.022	0.106
-387.019	-31.703	0.364	0.203
-386.004	429.975	-0.103	-0.222
-384.990	111.409	-0.113	0.135
-383.975	338.306	0.092	-0.178
-382.960	-109.042	0.201	-0.043
-381.946	-200.000	0.001	-0.029
-380.931	312.816	-0.059	0.111
-379.917	-168.719	-0.403	-0.015
-378.902	88.509	-0.183	-0.203
-377.888	-73.030	-0.176	0.064
-376.873	117.490	0.188	0.230
-375.858	174.981	-0.079	0.113
-374.844	-121.377	-0.103	-0.017
-373.829	-87.077	-0.256	-0.077
-372.815	5.841	0.266	0.196
-371.800	-200.000	-0.080	-0.406
-370.785	68.940	0.228	-0.233
-369.771	-200.000	0.062	0.338
-368.756	75.051	0.197	0.206
-367.742	229.830	-0.094	0.153
-366.727	-200.000	0.021	-0.390
-365.712	112.346	0.251	-0.302
-364.698	90.070	-0.273	0.304
-363.683	-200.000	-0.028	0.127
-362.669	-76.567	-0.074	-0.026
-361.654	-64.142	0.137	0.056
-360.639	-98.831	0.236	-0.060
-359.625	258.637	-0.145	0.249
-358.610	203.891	-0.212	0.327
-357.596	143.567	-0.068	-0.090
-356.581	-153.765	-0.048	-0.003
-355.566	433.304	0.083	-0.178
-354.552	70.875	0.195	0.201
-353.537	772.633	-0.054	0.147
-352.523	800.000	-0.035	-0.102
-351.508	5.303	-0.208	-0.153
-350.493	-17.716	0.057	0.035
-349.479	-200.000	-0.001	0.062
-348.464	18.236	-0.272	0.216
-347.450	-111.612	0.186	0.038
-346.435	76.759	0.055	0.058
-345.420	800.000	0.074	0.308
-344.406	58.877	0.155	0.151
-343.391	447.931	-0.112	0.246
-342.377	-20.469	-0.352	0.215
-341.362	-75.680	-0.237	-0.084
-340.348	-53.563	-0.055	0.025
-339.333	800.000	0.082	0.258
-338.318	-132.446	0.066	0.008
-337.304	-93.504	0.334	0.092
-336.289	31.006	-0.121	0.103
-335.275	-94.593	-0.131	-0.036
-334.260	-168.405	-0.191	0.007
-333.245	-37.299	0.232	0.123
-332.231	-200.000	-0.013	-0.278
-331.216	208.801	-0.068	-0.106
-330.202	800.000	-0.033	0.093
-329.187	636.813	-0.050	0.127
-328.172	5.201	-0.016	0.012
-327.158	-12.131	0.071	-0.046
-326.143	-17.748	-0.243	0.152
-325.129	44.764	0.159	-0.145
-324.114	208.138	0.074	-0.115
-323.099	-123.544	0.101	-0.016
-322.085	154.257	0.077	0.104
-321.070	110.601	-0.039	0.046
-320.056	-23.690	-0.384	-0.229
-319.041	23.307	-0.250	-0.204
-318.026	-143.728	0.227	-0.021
-317.012	238.554	0.076	-0.125
-315.997	-28.177	-0.187	0.107
-314.983	100.162	-0.091	0.104
-313.968	-65.879	0.179	-0.071
-312.953	-156.233	-0.272	0.017
-311.939	800.000	0.107	0.324
-310.924	800.000	0.099	0.404
-309.910	94.309	-0.090	-0.101
-308.895	800.000	-0.074	0.272
-307.880	126.466	0.221	0.278
-306.866	5.608	0.163	-0.119
-305.851	148.566	0.199	0.266
-304.837	-200.000	-0.066	-0.407
-303.822	19.822	-0.160	-0.128
-302.807	234.140	0.112	-0.183
-301.793	62.411	-0.179	0.178
-300.778	94.467	0.218	-0.246
-299.764	-155.493	-0.104	-0.007
-298.749	-89.975	0.333	-0.096
-297.735	180.752	-0.129	0.188
-296.720	655.856	-0.169	0.431
-295.705	17.008	-0.240	0.188
-294.691	169.569	-0.067	-0.095
-293.676	-134.762	0.156	0.019
-292.662	76.737	0.100	0.105
-291.647	-27.311	0.162	0.094
-290.632	-41.044	-0.079	0.040
-289.618	-50.649	-0.209	-0.097
-288.603	155.455	-0.072	-0.099
-287.589	-157.162	0.155	0.009
-286.574	-200.000	0.010	0.101
-285.559	-55.536	-0.048	0.021
-284.545	603.858	-0.145	-0.357
-283.530	-157.078	-0.246	0.015
-282.516	122.264	-0.158	-0.195
-281.501	53.115	0.339	-0.322
-280.486	800.000	0.052	0.152
-279.472	-55.113	-0.086	-0.038
-278.457	-105.622	-0.142	0.032
-277.443	35.721	-0.077	0.067
-276.428	-102.955	-0.297	0.070
-275.413	-34.894	-0.089	0.048
-274.399	-8.611	0.160	0.107
-273.384	-150.412	-0.527	-0.040
-272.370	-92.995	-0.039	-0.011
-271.355	84.704	0.264	-0.287
-270.340	575.321	0.129	0.311
-269.326	-102.635	0.197	0.047
-268.311	-161.513	-0.237	-0.012
-267.297	442.707	0.083	0.179
-266.282	-1.256	0.188	0.131
-265.267	-200.000	-0.069	0.343
-264.253	-109.688	0.212	-0.044
-263.238	56.536	0.253	0.244
-262.224	-200.000	0.041	-0.274
-261.209	800.000	-0.049	-0.146
-260.195	800.000	0.103	-0.427
-259.180	-75.318	-0.046	-0.016
-258.165	258.461	-0.089	0.152
-257.151	800.000	0.084	-0.308
-256.136	800.000	0.014	0.042
-255.122	-56.815	0.106	-0.047
-254.107	11.425	-0.114	-0.087
-253.092	-175.005	-0.230	-0.006
-252.078	71.026	-0.077	0.079
-251.063	-200.000	0.024	-0.165
-250.049	286.113	0.055	0.098
-249.034	-200.000	0.016	-0.068
-248.019	266.413	-0.233	-0.403
-247.005	800.000	0.195	-0.540
-245.990	297.820	-0.038	0.069
-244.976	-42.244	0.270	0.137
-243.961	-24.613	0.155	0.091
-242.946	800.000	0.074	-0.217
-241.932	-200.000	-0.027	0.176
-240.917	-58.638	0.275	-0.118
-239.903	68.572	-0.094	0.095
-238.888	-200.000	0.038	0.246
-237.873	68.174	-0.194	0.197
-236.859	198.637	0.045	-0.068
-235.844	800.000	-0.030	-0.098
-234.830	800.000	-0.022	0.071
-233.815	-30.138	0.314	0.177
-232.800	800.000	-0.066	0.230
-231.786	-200.000	0.027	-0.219
-230.771	-30.414	0.401	-0.225
-229.757	-200.000	0.395	-0.001
-228.742	-8.905	-0.178	-0.118
-227.727	-200.000	0.006	0.392
-226.713	68.037	0.155	-0.157
-225.698	-200.000	0.038	0.216
-224.684	90.660	-0.114	-0.126
-223.669	108.055	-0.139	-0.163
-222.655	41.702	-0.150	-0.135
-221.640	-59.261	0.103	0.044
-220.625	462.840	-0.018	-0.039
-219.611	405.554	-0.099	-0.207
-218.596	153.099	0.179	-0.242
-217.582	668.174	0.159	-0.407
-216.567	-106.597	-0.300	-0.066
-215.552	59.310	-0.036	0.036
-214.538	281.535	0.076	0.135
-213.523	386.286	0.172	-0.351
-212.509	-14.064	-0.136	-0.087
-211.494	205.215	0.056	0.086
-210.479	144.127	-0.112	-0.148
-209.465	69.064	-0.125	0.127
-208.450	-86.116	0.247	-0.075
-207.436	-39.409	0.281	0.146
-206.421	109.153	0.319	-0.378
-205.406	-154.299	-0.032	0.002
-204.392	-186.820	-0.237	0.003
-203.377	354.896	0.085	0.166
-202.363	17.702	-0.082	-0.064
-201.348	198.911	0.101	0.153
-200.333	100.731	-0.071	-0.081
-199.319	-0.902	0.314	-0.220
-198.304	128.709	-0.220	0.277
-197.290	-52.426	0.335	-0.153
-196.275	181.578	-0.090	0.131
-195.260	-22.550	0.208	-0.124
-194.246	3.797	-0.120	0.086
-193.231	77.417	0.233	-0.245
-192.217	-112.276	-0.254	-0.050
-191.202	-65.464	-0.324	-0.129
-190.187	154.523	-0.059	0.081
-189.173	-75.873	0.082	-0.029
-188.158	-200.000	-0.022	0.119
-187.144	-200.000	0.002	-0.186
-186.129	215.745	-0.142	-0.223
-185.114	-148.559	-0.220	0.018
-184.100	-200.000	0.016	0.111
-183.085	-32.891	-0.445	-0.244
-182.071	42.314	0.192	0.173
-181.056	-200.000	0.007	-0.070
-180.042	-200.000	0.021	-0.290
-179.027	-200.000	-0.032	0.368
-178.012	-200.000	-0.032	-0.377
-176.998	800.000	-0.082	-0.255
-175.983	-39.006	0.095	0.049
-174.969	-117.731	0.083	-0.015
-173.954	-200.000	0.027	0.173
-172.939	-162.550	0.498	0.024
-171.925	800.000	-0.028	0.106
-170.910	-26.822	-0.145	0.083
-169.896	-114.831	-0.027	0.005
-168.881	-35.770	-0.120	-0.064
-167.866	-200.000	0.001	-0.097
-166.852	800.000	-0.099	0.424
-165.837	-87.201	0.190	0.057
-164.823	-58.994	-0.264	-0.113
-163.808	-12.503	-0.434	0.279
-162.793	800.000	-0.069	0.220
-161.779	547.388	0.134	0.318
-160.764	800.000	-0.043	0.168
-159.750	-186.016	0.172	-0.003
-158.735	-59.998	-0.219	0.092
-157.720	-78.166	-0.358	0.122
-156.706	-41.168	0.624	0.318
-155.691	141.581	0.133	0.173
-154.677	-200.000	-0.005	0.171
-153.662	186.159	0.112	-0.164
-152.647	-200.000	-0.009	0.132
-151.633	-13.930	-0.262	0.167
-150.618	26.188	-0.222	-0.182
-149.604	-200.000	-0.089	0.443
-148.589	34.225	0.306	0.263
-147.574	297.628	0.025	0.045
-146.560	-120.333	-0.111	0.019
-145.545	800.000	0.083	-0.345
-144.531	657.647	-0.108	0.273
-143.516	-76.186	-0.148	-0.052
-142.502	-200.000	-0.009	0.107
-141.487	-200.000	-0.020	0.089
-140.472	-34.400	0.279	0.151
-139.458	-124.565	-0.065	0.010
-138.443	416.970	-0.090	0.190
-137.429	-44.280	0.061	0.030
-136.414	-165.855	-0.271	0.011
-135.399	290.194	0.070	0.125
-134.385	-200.000	0.060	0.407
-133.370	-114.803	0.306	0.058
-132.356	-42.397	-0.158	0.079
-131.341	-200.000	-0.018	-0.329
-130.326	-60.739	-0.240	0.100
-129.312	-200.000	-0.004	-0.108
-128.297	-96.352	0.119	-0.031
-127.283	-165.477	-0.031	-0.001
-126.268	-46.102	-0.137	0.066
-125.253	19.822	-0.222	0.176
-124.239	235.356	0.053	-0.086
-123.224	-118.615	0.095	-0.017
-122.210	-78.133	0.292	-0.099
-121.195	-177.244	0.163	-0.004
