DTS Sentinel unit serial number:	SN413079Multiplexer serial number:	ORYXHardware model number:	OX4-SRSoftware version number:	ORYX F/W v4.00 Oryx Data Collector v3.7.2.0data status	okinstallation	princeton_trtdifferential loss correction	single-endedforward channel	channel 2reverse channel	N/Adate	2019/09/12time	22:43:34forward acquisition time	60.00reverse acquisition time	0.00gamma	496.2192k internal	0.2331k external	0.2331temperature offset calibration	1.0179default loss term (dB/km)	0.3790temperature slope calibration	1.0000multiplexer offset coefficient	1.0000multiplexer slope coefficient	1.0000fibre end	0.00T internal ref (°C)	29.52T ext. ref 1 (°C)	3.75T ext. ref 2 (°C)	24.11length (m)	temperature (°C)	Stokes	anti-Stokes-747.200	-200.000	0.081	0.442
-746.185	252.899	-0.053	0.091
-745.171	-17.962	-0.216	0.136
-744.156	-200.000	0.012	0.412
-743.142	-200.000	0.042	0.206
-742.127	157.536	-0.066	-0.092
-741.112	-98.270	0.101	-0.026
-740.098	-127.098	-0.191	0.028
-739.083	-78.715	0.168	0.058
-738.069	800.000	0.022	0.062
-737.054	-24.962	-0.143	-0.086
-736.039	-8.187	-0.169	0.115
-735.025	-157.728	0.214	-0.013
-734.010	34.587	-0.464	-0.408
-732.996	-135.801	0.220	-0.026
-731.981	-30.935	-0.131	-0.075
-730.966	800.000	0.044	-0.156
-729.952	142.244	-0.097	0.130
-728.937	42.659	-0.301	-0.275
-727.923	-60.148	0.219	0.094
-726.908	645.809	0.097	-0.250
-725.894	-104.592	-0.253	-0.059
-724.879	-200.000	0.076	0.367
-723.864	37.490	-0.195	0.174
-722.850	-143.144	-0.351	-0.034
-721.835	-68.243	0.449	-0.175
-720.821	117.307	-0.102	0.127
-719.806	464.326	-0.075	-0.168
-718.791	-80.177	-0.147	0.049
-717.777	-199.353	0.345	-0.002
-716.762	-3.010	0.225	0.158
-715.748	722.249	0.077	0.206
-714.733	-55.965	-0.131	-0.059
-713.718	576.166	-0.055	0.134
-712.704	-24.072	-0.302	-0.181
-711.689	605.969	0.098	0.247
-710.675	-128.111	-0.419	-0.060
-709.660	-200.000	0.035	-0.206
-708.645	-147.808	-0.109	-0.009
-707.631	-12.349	0.382	-0.251
-706.616	66.852	-0.174	-0.178
-705.602	-81.173	0.363	-0.121
-704.587	-200.000	-0.041	0.340
-703.572	14.726	0.103	0.081
-702.558	800.000	0.060	-0.222
-701.543	-111.232	0.136	0.028
-700.529	63.145	-0.027	-0.027
-699.514	-200.000	0.032	-0.451
-698.499	640.646	-0.178	0.455
-697.485	22.519	-0.152	0.125
-696.470	1.645	0.118	0.085
-695.456	-200.000	-0.056	0.436
-694.441	-200.000	-0.017	0.436
-693.426	-35.800	-0.193	0.105
-692.412	-70.750	0.086	-0.033
-691.397	-117.868	0.148	-0.027
-690.383	-200.000	-0.021	-0.131
-689.368	310.193	-0.039	-0.072
-688.354	-200.000	0.021	-0.242
-687.339	-200.000	0.068	-0.407
-686.324	-200.000	0.015	-0.093
-685.310	37.761	-0.037	0.033
-684.295	-157.946	-0.337	-0.020
-683.281	42.268	0.345	0.314
-682.266	66.498	0.242	0.247
-681.251	63.547	-0.165	-0.166
-680.237	614.104	-0.123	0.309
-679.222	66.515	0.204	0.208
-678.208	113.323	0.315	0.384
-677.193	-75.028	0.106	-0.038
-676.178	109.635	-0.137	0.164
-675.164	800.000	0.074	0.205
-674.149	-200.000	-0.051	-0.232
-673.135	-200.000	0.021	-0.335
-672.120	15.980	-0.182	-0.144
-671.105	-200.000	0.003	-0.199
-670.091	-184.795	-0.338	0.005
-669.076	-132.937	0.194	0.025
-668.062	-11.706	0.315	0.208
-667.047	39.407	-0.210	0.188
-666.032	571.246	-0.097	0.237
-665.018	256.405	0.043	-0.075
-664.003	-87.271	-0.037	-0.011
-662.989	-54.761	0.104	-0.047
-661.974	235.892	-0.062	0.102
-660.959	-200.000	0.006	0.206
-659.945	22.538	-0.266	0.219
-658.930	-108.399	-0.260	0.056
-657.916	-148.477	0.185	0.015
-656.901	100.611	-0.189	-0.220
-655.886	70.218	0.070	-0.072
-654.872	53.629	-0.137	-0.132
-653.857	-149.416	-0.208	-0.017
-652.843	61.570	0.106	0.105
-651.828	-33.792	-0.345	-0.191
-650.814	-200.000	-0.006	-0.254
-649.799	41.260	0.216	0.196
-648.784	-200.000	0.006	-0.138
-647.770	-200.000	-0.040	-0.234
-646.755	175.270	-0.194	-0.282
-645.741	149.426	0.068	0.093
-644.726	500.004	-0.062	-0.144
-643.711	-51.739	-0.134	-0.062
-642.697	25.915	-0.423	0.353
-641.682	441.500	-0.092	-0.201
-640.668	-55.435	0.297	-0.133
-639.653	-200.000	0.029	-0.207
-638.638	3.212	0.198	0.144
-637.624	-92.886	0.238	0.067
-636.609	61.730	-0.104	-0.104
-635.595	207.620	0.096	-0.150
-634.580	119.913	-0.013	-0.016
-633.565	-14.925	-0.306	0.197
-632.551	137.464	0.211	-0.277
-631.536	160.961	-0.010	0.014
-630.522	52.039	-0.119	-0.114
-629.507	-200.000	0.040	-0.180
-628.492	-200.000	-0.039	0.197
-627.478	105.510	-0.123	0.146
-626.463	14.503	-0.124	0.097
-625.449	195.459	0.085	0.130
-624.434	-79.266	-0.184	-0.063
-623.419	27.162	-0.187	0.158
-622.405	234.099	0.063	-0.104
-621.390	-200.000	-0.022	0.205
-620.376	296.932	0.096	0.176
-619.361	-173.618	-0.141	0.004
-618.346	197.603	0.129	-0.197
-617.332	131.683	0.024	-0.031
-616.317	-70.367	0.131	0.050
-615.303	-200.000	0.051	0.259
-614.288	-200.000	0.019	0.124
-613.273	485.620	0.084	-0.191
-612.259	49.086	-0.085	0.080
-611.244	-200.000	0.036	0.253
-610.230	-78.177	0.085	-0.029
-609.215	-200.000	0.038	-0.359
-608.201	800.000	-0.030	-0.108
-607.186	-165.967	-0.258	0.011
-606.171	-83.417	-0.126	0.040
-605.157	-7.725	0.072	0.048
-604.142	-200.000	0.010	-0.068
-603.128	-56.600	0.150	-0.067
-602.113	-117.664	-0.091	0.016
-601.098	-200.000	-0.040	0.228
-600.084	-200.000	-0.005	-0.040
-599.069	-31.406	-0.122	-0.069
-598.055	-200.000	-0.065	-0.327
-597.040	42.872	0.133	-0.122
-596.025	184.048	0.113	-0.168
-595.011	227.122	0.032	0.052
-593.996	46.430	0.084	0.078
-592.982	800.000	0.009	0.032
-591.967	-30.073	-0.246	0.140
-590.952	-80.641	0.267	-0.089
-589.938	69.921	-0.067	-0.070
-588.923	-200.000	0.094	-0.453
-587.909	-119.802	0.177	0.031
-586.894	800.000	0.036	0.150
-585.879	185.882	-0.187	0.278
-584.865	-45.291	0.206	-0.102
-583.850	-46.997	0.234	-0.115
-582.836	8.472	0.274	-0.207
-581.821	133.419	0.070	-0.090
-580.806	800.000	-0.065	-0.197
-579.792	15.611	0.221	0.174
-578.777	-200.000	-0.049	0.304
-577.763	-9.718	0.131	-0.088
-576.748	-200.000	0.047	0.428
-575.733	91.635	0.181	0.203
-574.719	-200.000	-0.096	-0.000
-573.704	-64.226	-0.264	-0.107
-572.690	221.674	0.040	-0.064
-571.675	89.705	-0.230	-0.256
-570.661	62.246	0.138	0.138
-569.646	-181.794	0.137	0.003
-568.631	351.542	-0.222	-0.439
-567.617	382.479	-0.208	-0.427
-566.602	466.584	0.089	-0.200
-565.588	-62.824	0.026	0.011
-564.573	-200.000	0.002	-0.151
-563.558	-103.007	-0.352	-0.084
-562.544	-200.000	-0.011	-0.127
-561.529	-107.375	-0.266	-0.058
-560.515	201.915	-0.102	0.157
-559.500	5.294	0.025	0.018
-558.485	-126.062	0.336	0.050
-557.471	800.000	-0.008	-0.031
-556.456	-184.588	-0.399	0.006
-555.442	800.000	0.072	-0.203
-554.427	-89.993	-0.170	-0.049
-553.412	14.262	-0.213	0.166
-552.398	108.166	0.039	-0.046
-551.383	800.000	0.072	-0.212
-550.369	-25.481	-0.061	-0.036
-549.354	-200.000	-0.021	-0.119
-548.339	410.746	-0.138	0.291
-547.325	-200.000	0.012	-0.053
-546.310	-77.928	-0.099	-0.034
-545.296	-200.000	0.019	0.154
-544.281	84.842	0.154	0.169
-543.266	156.050	0.057	0.078
-542.252	285.646	-0.067	-0.120
-541.237	-10.592	0.039	-0.026
-540.223	-188.577	0.234	-0.003
-539.208	-10.869	-0.102	0.068
-538.193	342.318	-0.061	-0.119
-537.179	-66.010	0.060	-0.024
-536.164	800.000	0.020	-0.078
-535.150	198.706	0.108	-0.165
-534.135	800.000	-0.078	-0.274
-533.121	-75.698	0.268	-0.095
-532.106	-45.385	-0.064	-0.032
-531.091	800.000	-0.052	-0.208
-530.077	151.463	-0.039	-0.053
-529.062	85.010	-0.029	-0.032
-528.048	199.393	0.047	-0.072
-527.033	-200.000	0.050	0.228
-526.018	-118.413	-0.212	-0.038
-525.004	34.194	0.180	0.156
-523.989	-54.762	-0.073	0.033
-522.975	-26.571	0.077	0.045
-521.960	769.570	0.072	0.197
-520.945	292.600	-0.117	0.212
-519.931	-130.412	0.308	-0.042
-518.916	-190.353	-0.086	-0.001
-517.902	-200.000	-0.028	-0.383
-516.887	5.016	-0.079	0.058
-515.872	-100.459	-0.161	-0.040
-514.858	-92.135	0.207	0.058
-513.843	128.764	-0.146	0.186
-512.829	-139.007	0.146	-0.016
-511.814	150.478	-0.275	0.373
-510.799	800.000	0.032	-0.090
-509.785	-166.694	0.138	0.006
-508.770	-119.066	-0.187	0.033
-507.756	800.000	-0.022	0.082
-506.741	112.265	-0.214	0.258
-505.726	-200.000	-0.023	-0.249
-504.712	-130.394	-0.177	-0.024
-503.697	-200.000	-0.017	0.083
-502.683	21.819	0.158	-0.128
-501.668	-62.683	0.098	-0.041
-500.653	34.970	0.092	0.080
-499.639	16.994	-0.349	-0.276
-498.624	534.076	-0.064	0.152
-497.610	109.304	0.290	0.347
-496.595	-90.512	-0.196	-0.057
-495.581	-200.000	0.028	0.210
-494.566	-109.255	0.088	0.019
-493.551	-143.248	-0.052	-0.005
-492.537	681.686	-0.156	-0.404
-491.522	800.000	0.114	0.444
-490.508	-94.010	-0.243	0.067
-489.493	26.816	0.147	-0.122
-488.478	-97.624	0.266	0.069
-487.464	-137.851	-0.152	-0.017
-486.449	116.705	0.117	0.143
-485.435	137.019	0.216	0.281
-484.420	-84.462	0.481	0.151
-483.405	-39.448	0.145	-0.076
-482.391	800.000	0.046	-0.129
-481.376	-200.000	0.027	-0.244
-480.362	370.128	0.081	-0.163
-479.347	9.277	-0.103	0.077
-478.332	-181.216	-0.050	0.001
-477.318	12.918	-0.130	0.100
-476.303	-66.622	-0.064	0.025
-475.289	99.262	0.047	0.054
-474.274	-167.118	-0.375	-0.015
-473.259	-117.676	-0.349	0.063
-472.245	321.107	-0.285	-0.539
-471.230	8.270	0.109	0.082
-470.216	3.383	0.167	-0.121
-469.201	800.000	-0.078	0.294
-468.186	14.194	-0.140	0.108
-467.172	800.000	0.100	0.284
-466.157	-36.490	0.302	0.162
-465.143	-156.679	0.119	-0.007
-464.128	-5.272	0.213	-0.146
-463.113	-200.000	0.002	-0.126
-462.099	-89.813	-0.157	-0.046
-461.084	-104.604	-0.101	0.023
-460.070	-67.627	-0.327	0.127
-459.055	-20.886	-0.115	-0.070
-458.040	403.970	-0.109	0.228
-457.026	-46.400	0.243	-0.119
-456.011	351.225	-0.019	0.038
-454.997	-31.805	0.382	0.213
-453.982	459.886	0.070	0.154
-452.968	800.000	-0.031	0.132
-451.953	109.803	0.101	0.120
-450.938	42.277	-0.318	-0.288
-449.924	800.000	0.015	0.055
-448.909	153.446	0.089	-0.121
-447.895	-9.387	-0.369	0.245
-446.880	261.851	0.017	-0.029
-445.865	48.604	-0.065	-0.060
-444.851	800.000	0.070	0.242
-443.836	800.000	0.069	0.216
-442.822	-8.481	-0.273	-0.183
-441.807	-7.706	0.159	-0.107
-440.792	201.954	0.078	-0.119
-439.778	-200.000	0.045	0.295
-438.763	-200.000	-0.032	0.246
-437.749	-105.152	-0.261	-0.059
-436.734	625.350	-0.083	0.208
-435.719	222.014	0.188	-0.300
-434.705	90.152	-0.098	0.109
-433.690	800.000	0.077	0.280
-432.676	-200.000	-0.036	0.190
-431.661	-112.691	-0.238	-0.047
-430.646	-145.342	-0.336	-0.030
-429.632	-26.024	0.269	-0.157
-428.617	166.818	0.095	0.134
-427.603	51.445	-0.328	0.310
-426.588	800.000	0.025	0.105
-425.573	-99.577	0.332	0.083
-424.559	-200.000	0.034	-0.185
-423.544	325.451	0.062	-0.117
-422.530	-1.749	0.069	0.048
-421.515	-149.408	-0.106	0.008
-420.500	23.273	0.164	-0.134
-419.486	107.721	0.167	-0.197
-418.471	56.556	-0.008	-0.008
-417.457	417.745	-0.058	-0.122
-416.442	757.255	-0.059	0.159
-415.428	-200.000	-0.066	-0.412
-414.413	-30.547	0.199	-0.112
-413.398	264.104	0.212	-0.367
-412.384	-113.051	0.047	-0.009
-411.369	23.242	-0.210	0.171
-410.355	68.726	0.233	0.238
-409.340	147.617	0.050	-0.067
-408.325	-38.999	-0.317	0.166
-407.311	-200.000	-0.015	-0.143
-406.296	-200.000	-0.042	-0.214
-405.282	682.926	0.089	0.231
-404.267	-59.101	-0.252	0.108
-403.252	68.595	-0.205	0.209
-402.238	800.000	0.035	0.118
-401.223	-113.586	-0.183	0.036
-400.209	187.695	0.123	0.182
-399.194	-35.270	-0.260	0.141
-398.179	352.156	0.118	0.233
-397.165	-118.831	0.202	0.035
-396.150	800.000	0.015	0.054
-395.136	800.000	0.033	-0.125
-394.121	55.594	-0.150	0.144
-393.106	800.000	-0.086	0.298
-392.092	-91.189	-0.281	-0.080
-391.077	-57.877	0.104	0.045
-390.063	79.242	-0.114	0.121
-389.048	-200.000	-0.020	0.704
-388.033	-100.840	-0.016	0.004
-387.019	-28.677	-0.251	0.144
-386.004	800.000	-0.206	-0.752
-384.990	98.061	-0.043	-0.049
-383.975	-36.667	0.080	0.043
-382.960	-200.000	0.005	0.154
-381.946	149.535	-0.148	-0.199
-380.931	407.508	-0.007	-0.015
-379.917	324.007	0.089	0.169
-378.902	-93.863	-0.130	0.036
-377.888	-142.014	-0.161	0.016
-376.873	324.054	-0.240	0.455
-375.858	-200.000	-0.022	-0.179
-374.844	27.310	-0.126	-0.105
-373.829	247.736	-0.075	-0.125
-372.815	-92.250	-0.040	-0.011
-371.800	29.749	0.194	0.164
-370.785	36.900	0.046	-0.040
-369.771	-200.000	-0.001	0.059
-368.756	-50.239	-0.119	0.056
-367.742	57.240	0.088	0.086
-366.727	78.690	-0.256	-0.272
-365.712	157.153	0.048	-0.066
-364.698	-82.429	0.319	0.103
-363.683	55.508	0.286	0.275
-362.669	-96.748	-0.187	-0.049
-361.654	66.738	-0.150	0.151
-360.639	217.543	0.037	0.058
-359.625	-200.000	-0.043	0.218
-358.610	-200.000	0.005	0.282
-357.596	31.190	0.198	-0.168
-356.581	73.977	-0.229	0.239
-355.566	-40.805	-0.126	0.065
-354.552	-125.108	0.148	0.022
-353.537	-105.116	0.242	-0.055
-352.523	-200.000	0.024	-0.117
-351.508	-200.000	-0.012	-0.068
-350.493	498.781	-0.155	0.354
-349.479	228.989	0.081	0.131
-348.464	-82.167	0.252	-0.081
-347.450	42.719	0.032	0.029
-346.435	-125.699	-0.399	0.060
-345.420	14.873	-0.278	-0.215
-344.406	800.000	-0.072	-0.303
-343.391	-31.006	0.306	-0.171
-342.377	-76.172	-0.092	-0.032
-341.362	-51.042	-0.185	0.086
-340.348	-200.000	-0.031	-0.341
-339.333	-66.636	0.110	0.043
-338.318	800.000	-0.010	-0.034
-337.304	214.668	0.083	-0.131
-336.289	467.937	0.064	-0.142
-335.275	800.000	-0.159	-0.444
-334.260	233.265	0.104	0.169
-333.245	-73.066	-0.196	0.071
-332.231	-111.693	-0.263	-0.053
-331.216	-108.672	-0.149	-0.032
-330.202	-35.020	-0.197	0.107
-329.187	-177.423	-0.229	-0.006
-328.172	241.041	-0.166	-0.274
-327.158	27.999	0.101	0.084
-326.143	-45.427	-0.085	0.042
-325.129	185.663	0.167	0.245
-324.114	18.202	0.301	-0.238
-323.099	89.516	0.276	-0.305
-322.085	502.638	-0.027	0.061
-321.070	-85.512	-0.303	-0.094
-320.056	-36.535	0.350	0.186
-319.041	-56.702	0.176	0.077
-318.026	259.544	0.112	0.191
-317.012	-95.759	-0.351	-0.093
-315.997	121.218	0.122	0.151
-314.983	267.239	0.058	-0.101
-313.968	-200.000	0.021	-0.162
-312.953	-200.000	0.024	-0.137
-311.939	283.235	0.095	-0.168
-310.924	25.004	0.138	0.114
-309.910	-71.640	-0.077	-0.028
-308.895	-82.325	-0.254	-0.082
-307.880	182.526	0.200	-0.291
-306.866	4.112	0.284	0.206
-305.851	800.000	0.047	0.197
-304.837	-115.544	-0.336	0.062
-303.822	-141.476	-0.309	-0.031
-302.807	545.655	-0.065	-0.155
-301.793	-12.316	-0.286	0.185
-300.778	-189.830	-0.179	-0.002
-299.764	-90.101	0.345	0.099
-298.749	-200.000	-0.039	-0.200
-297.735	6.077	0.190	-0.139
-296.720	25.333	-0.093	0.077
-295.705	-108.679	0.219	0.046
-294.691	-26.721	-0.278	-0.161
-293.676	244.900	0.186	-0.309
-292.662	21.722	0.156	0.125
-291.647	471.206	0.063	0.140
-290.632	-42.535	0.164	-0.083
-289.618	-200.000	0.002	0.198
-288.603	-200.000	0.007	0.160
-287.589	-102.792	0.163	0.038
-286.574	-200.000	0.047	0.215
-285.559	122.291	-0.174	0.215
-284.545	62.113	0.159	-0.157
-283.530	-181.132	-0.193	0.004
-282.516	-81.843	-0.147	-0.048
-281.501	235.138	-0.134	-0.218
-280.486	118.675	0.145	-0.177
-279.472	465.551	-0.129	-0.286
-278.457	-75.691	0.199	0.070
-277.443	598.431	0.044	-0.108
-276.428	800.000	0.050	0.156
-275.413	-200.000	-0.003	-0.145
-274.399	800.000	-0.046	-0.176
-273.384	-64.410	0.405	0.163
-272.370	224.899	0.169	0.270
-271.355	800.000	-0.081	0.222
-270.340	-45.631	0.397	-0.194
-269.326	-127.560	0.232	0.033
-268.311	-200.000	0.010	0.164
-267.297	-139.224	-0.088	-0.009
-266.282	-200.000	-0.023	-0.145
-265.267	174.625	0.031	0.044
-264.253	-65.036	0.128	0.051
-263.238	-137.097	0.388	-0.044
-262.224	-113.728	-0.153	-0.029
-261.209	134.344	0.172	0.220
-260.195	-108.437	-0.286	0.061
-259.180	48.904	0.079	-0.073
-258.165	800.000	0.163	0.452
-257.151	374.044	0.132	-0.266
-256.136	-99.148	0.518	-0.129
-255.122	191.039	-0.034	-0.051
-254.107	-92.790	-0.204	0.056
-253.092	-200.000	0.006	-0.281
-252.078	165.996	-0.077	-0.108
-251.063	-200.000	-0.006	0.200
-250.049	-200.000	-0.030	-0.161
-249.034	-13.980	-0.103	-0.066
-248.019	360.068	-0.134	-0.265
-247.005	-200.000	-0.022	-0.107
-245.990	37.560	0.302	-0.265
-244.976	198.711	-0.043	-0.064
-243.961	-26.478	0.360	-0.208
-242.946	319.949	0.180	0.337
-241.932	-200.000	0.063	-0.354
-240.917	156.639	-0.200	0.273
-239.903	-38.279	0.375	-0.196
-238.888	-200.000	0.024	0.160
-237.873	198.914	0.072	0.109
-236.859	800.000	0.038	0.134
-235.844	-131.727	0.269	0.035
-234.830	-155.430	0.124	-0.008
-233.815	-165.529	-0.340	0.015
-232.800	32.023	-0.162	0.137
-231.786	-39.968	0.189	-0.097
-230.771	87.064	0.224	-0.244
-229.757	-166.294	-0.234	-0.010
-228.742	522.768	-0.065	0.151
-227.727	-200.000	-0.032	0.182
-226.713	366.551	0.054	0.107
-225.698	-64.931	0.139	0.055
-224.684	282.187	-0.091	0.162
-223.669	25.906	0.140	-0.115
-222.655	15.703	-0.093	-0.072
-221.640	-57.925	0.180	-0.077
-220.625	-82.394	0.185	0.059
-219.611	213.874	-0.125	0.196
-218.596	94.606	0.107	0.120
-217.582	287.537	-0.038	0.067
-216.567	-111.053	-0.343	0.069
-215.552	-103.208	-0.291	0.068
-214.538	-200.000	0.012	0.059
-213.523	116.869	-0.027	0.033
-212.509	800.000	0.103	-0.355
-211.494	19.168	0.126	0.100
-210.479	-200.000	-0.038	-0.277
-209.465	-54.190	-0.370	-0.166
-208.450	-200.000	-0.042	0.205
-207.436	640.684	-0.035	0.088
-206.421	-167.398	0.185	-0.007
-205.406	670.519	-0.097	0.247
-204.392	47.667	0.086	-0.079
-203.377	143.960	-0.204	-0.268
-202.363	-33.427	0.192	0.105
-201.348	-200.000	0.055	0.395
-200.333	231.345	0.182	-0.294
-199.319	-40.012	-0.165	-0.085
-198.304	-77.531	-0.181	0.062
-197.290	101.731	-0.121	0.139
-196.275	2.392	0.325	0.231
-195.260	-200.000	-0.025	0.201
-194.246	-33.356	-0.240	-0.131
-193.231	23.861	-0.101	-0.082
-192.217	800.000	0.078	0.213
-191.202	43.465	-0.119	-0.107
-190.187	-78.993	0.228	0.076
-189.173	-200.000	-0.054	-0.386
-188.158	-141.384	0.057	0.006
-187.144	544.498	-0.030	-0.071
-186.129	-40.115	0.206	-0.106
-185.114	-6.742	0.472	0.316
-184.100	-76.789	0.099	0.034
-183.085	-1.750	-0.028	-0.019
-182.071	655.322	0.134	-0.338
-181.056	20.269	0.078	-0.062
-180.042	-31.741	0.046	-0.025
-179.027	-18.822	0.074	-0.046
-178.012	104.983	-0.138	0.160
-176.998	-82.869	0.272	-0.086
-175.983	-74.278	-0.263	-0.093
-174.969	-159.388	0.252	-0.014
-173.954	-200.000	-0.011	-0.109
-172.939	-200.000	0.027	0.258
-171.925	151.726	-0.299	-0.401
-170.910	-77.363	0.360	-0.123
-169.896	794.429	0.108	0.291
-168.881	-101.004	-0.167	0.040
-167.866	-54.609	-0.061	-0.027
-166.852	34.943	-0.194	0.167
-165.837	483.787	0.075	-0.167
-164.823	161.104	-0.136	-0.188
-163.808	-200.000	-0.086	0.393
-162.793	411.342	-0.044	-0.091
-161.779	277.550	-0.159	0.279
-160.764	10.684	-0.126	-0.094
-159.750	306.537	0.089	-0.163
-158.735	-44.643	-0.252	0.124
-157.720	439.028	-0.195	-0.419
-156.706	-200.000	-0.024	-0.182
-155.691	-109.182	0.459	0.096
-154.677	53.660	0.014	-0.013
-153.662	-115.700	0.217	-0.040
-152.647	1.518	-0.063	-0.044
-151.633	423.090	-0.109	-0.230
-150.618	23.343	-0.085	-0.069
-149.604	256.380	-0.093	-0.157
-148.589	191.727	-0.109	-0.161
-147.574	800.000	0.065	-0.255
-146.560	-172.007	-0.184	-0.006
-145.545	636.066	-0.043	-0.107
-144.531	73.272	0.057	-0.058
-143.516	60.849	0.320	-0.312
-142.502	140.814	-0.060	-0.078
-141.487	-78.376	0.089	-0.030
-140.472	-200.000	0.016	-0.221
-139.458	70.950	0.214	0.218
-138.443	485.277	0.093	0.209
-137.429	-131.614	-0.133	0.017
-136.414	-143.853	-0.317	0.029
-135.399	135.702	0.163	-0.209
-134.385	-137.973	-0.354	0.039
-133.370	362.708	0.114	0.226
-132.356	59.396	-0.125	-0.121
-131.341	-45.066	-0.116	0.057
-130.326	-200.000	0.021	-0.146
-129.312	219.779	-0.064	-0.101
-128.297	-32.841	-0.367	-0.200
-127.283	349.026	0.051	-0.100
-126.268	-200.000	0.005	-0.197
-125.253	-200.000	-0.022	-0.295
-124.239	143.992	0.331	-0.434
-123.224	-3.816	0.332	0.226
-122.210	-62.115	0.227	0.093
-121.195	-34.928	-0.154	-0.083
