DTS Sentinel unit serial number:	SN413079Multiplexer serial number:	ORYXHardware model number:	OX4-SRSoftware version number:	ORYX F/W v4.00 Oryx Data Collector v3.7.2.0data status	okinstallation	princeton_trtdifferential loss correction	single-endedforward channel	channel 2reverse channel	N/Adate	2019/09/13time	22:07:34forward acquisition time	60.00reverse acquisition time	0.00gamma	496.2192k internal	0.2335k external	0.2335temperature offset calibration	1.0135default loss term (dB/km)	0.3790temperature slope calibration	1.0000multiplexer offset coefficient	1.0000multiplexer slope coefficient	1.0000fibre end	0.00T internal ref (°C)	27.94T ext. ref 1 (°C)	3.26T ext. ref 2 (°C)	22.69length (m)	temperature (°C)	Stokes	anti-Stokes-747.200	55.335	-0.145	0.141
-746.185	-200.000	-0.007	-0.104
-745.171	-200.000	0.002	0.218
-744.156	58.494	0.187	0.184
-743.142	136.593	-0.272	-0.357
-742.127	-89.417	-0.178	0.053
-741.112	28.097	0.328	-0.278
-740.098	-26.167	0.081	0.048
-739.083	409.741	0.186	-0.396
-738.069	-90.271	-0.215	0.063
-737.054	216.464	-0.098	0.156
-736.039	-86.111	-0.244	-0.076
-735.025	31.508	-0.013	0.012
-734.010	-62.905	-0.269	0.112
-732.996	311.445	-0.130	0.244
-731.981	-200.000	-0.033	-0.264
-730.966	-164.434	-0.312	-0.014
-729.952	12.976	-0.138	-0.107
-728.937	-72.564	-0.184	-0.068
-727.923	78.737	-0.221	-0.237
-726.908	103.452	-0.181	0.213
-725.894	-158.914	-0.492	0.028
-724.879	-200.000	-0.344	0.001
-723.864	-130.699	-0.164	0.022
-722.850	-85.820	-0.118	0.037
-721.835	-200.000	0.004	0.025
-720.821	-21.829	-0.096	-0.058
-719.806	6.119	-0.255	-0.190
-718.791	-109.416	-0.165	0.035
-717.777	24.077	-0.138	0.115
-716.762	-60.350	-0.215	0.092
-715.748	55.721	-0.253	-0.246
-714.733	-135.328	0.230	0.028
-713.718	103.173	-0.217	0.255
-712.704	31.451	-0.129	0.111
-711.689	-41.213	0.229	-0.119
-710.675	-39.321	0.035	-0.019
-709.660	-200.000	-0.026	-0.252
-708.645	800.000	-0.076	-0.281
-707.631	271.442	0.196	0.347
-706.616	235.741	0.036	0.060
-705.602	74.710	-0.203	-0.215
-704.587	20.508	-0.265	0.215
-703.572	30.013	-0.212	-0.181
-702.558	484.487	0.101	-0.231
-701.543	-84.998	-0.236	-0.074
-700.529	-200.000	0.025	-0.210
-699.514	-200.000	0.008	0.076
-698.499	-67.253	0.339	-0.134
-697.485	-17.427	0.164	0.103
-696.470	179.930	-0.171	0.251
-695.456	-117.834	0.406	0.073
-694.441	-61.818	-0.239	0.100
-693.426	-24.816	0.053	-0.032
-692.412	-200.000	-0.199	-0.001
-691.397	-200.000	0.066	0.427
-690.383	-122.491	0.185	0.030
-689.368	-200.000	0.006	0.167
-688.354	-123.195	0.055	-0.009
-687.339	800.000	-0.053	0.149
-686.324	800.000	0.060	0.205
-685.310	-24.451	-0.060	0.036
-684.295	-42.332	-0.096	0.049
-683.281	-71.806	-0.215	0.080
-682.266	-200.000	-0.038	0.305
-681.251	205.550	-0.087	0.135
-680.237	-200.000	-0.089	-0.486
-679.222	-46.664	0.115	0.056
-678.208	122.799	-0.072	0.091
-677.193	-163.979	0.231	0.011
-676.178	10.292	0.133	-0.102
-675.164	699.939	-0.113	-0.299
-674.149	146.382	0.047	-0.064
-673.135	-134.454	-0.152	-0.019
-672.120	-3.596	0.338	0.236
-671.105	-3.507	-0.262	-0.183
-670.091	153.440	-0.145	-0.199
-669.076	-129.531	-0.415	-0.058
-668.062	348.853	0.101	0.200
-667.047	800.000	0.044	-0.142
-666.032	-177.918	0.270	0.006
-665.018	216.167	-0.105	0.167
-664.003	461.568	0.089	-0.200
-662.989	-200.000	0.022	0.612
-661.974	200.760	-0.066	0.101
-660.959	-85.038	0.170	0.053
-659.945	271.097	0.090	-0.159
-658.930	-4.062	-0.281	0.195
-657.916	-138.782	-0.168	-0.018
-656.901	147.140	0.296	-0.399
-655.886	-156.116	-0.156	0.010
-654.872	183.289	-0.055	0.082
-653.857	583.065	0.077	0.188
-652.843	331.817	0.159	-0.306
-651.828	-4.270	-0.152	-0.105
-650.814	62.324	0.134	0.134
-649.799	-168.601	-0.348	-0.013
-648.784	800.000	0.012	-0.036
-647.770	189.475	0.157	-0.235
-646.755	-73.051	-0.269	-0.099
-645.741	-8.812	0.302	0.203
-644.726	-200.000	-0.034	-0.295
-643.711	103.785	-0.143	0.168
-642.697	39.371	-0.378	-0.339
-641.682	800.000	-0.018	-0.067
-640.668	-45.744	-0.245	0.121
-639.653	20.699	-0.279	-0.226
-638.638	-92.510	-0.354	0.100
-637.624	-162.049	-0.146	0.007
-636.609	-200.000	0.015	0.252
-635.595	-72.076	0.299	0.111
-634.580	6.168	0.224	-0.166
-633.565	393.307	-0.036	-0.074
-632.551	-58.257	0.168	-0.073
-631.536	97.328	-0.199	0.229
-630.522	-92.434	0.180	0.051
-629.507	-42.211	-0.139	-0.071
-628.492	-94.111	-0.165	-0.045
-627.478	-28.282	0.306	0.177
-626.463	325.958	0.239	-0.457
-625.449	448.536	-0.124	0.273
-624.434	-200.000	-0.050	0.306
-623.419	-120.006	0.063	-0.011
-622.405	19.698	0.088	0.071
-621.390	-113.499	-0.216	-0.042
-620.376	-37.979	-0.412	0.219
-619.361	26.402	0.128	-0.107
-618.346	619.930	0.039	-0.097
-617.332	31.079	-0.244	0.209
-616.317	152.366	0.124	-0.170
-615.303	276.035	0.103	0.183
-614.288	157.643	-0.046	0.063
-613.273	-76.381	-0.433	0.152
-612.259	-43.815	0.117	0.059
-611.244	-200.000	-0.016	0.337
-610.230	41.329	0.107	0.097
-609.215	-200.000	-0.058	-0.351
-608.201	-78.738	0.277	0.095
-607.186	-78.553	-0.475	0.162
-606.171	-93.013	-0.151	-0.042
-605.157	9.980	0.106	0.081
-604.142	-200.000	-0.010	0.118
-603.128	-71.046	-0.297	0.112
-602.113	25.083	-0.374	0.310
-601.098	-200.000	-0.010	0.082
-600.084	634.292	0.055	-0.139
-599.069	-58.458	-0.302	0.131
-598.055	-200.000	-0.027	0.131
-597.040	-106.610	0.190	-0.042
-596.025	-94.962	0.063	-0.017
-595.011	-166.080	0.208	0.009
-593.996	-32.339	0.059	0.033
-592.982	-194.942	0.163	-0.001
-591.967	-200.000	0.003	0.102
-590.952	-200.000	0.053	-0.345
-589.938	35.693	0.220	-0.193
-588.923	-200.000	0.035	-0.158
-587.909	68.862	0.094	-0.096
-586.894	307.648	-0.165	-0.307
-585.879	184.132	0.165	0.244
-584.865	22.265	-0.127	0.104
-583.850	800.000	-0.073	0.239
-582.836	-175.298	-0.218	-0.006
-581.821	3.625	0.255	-0.186
-580.806	-21.352	-0.244	-0.149
-579.792	800.000	0.041	-0.122
-578.777	18.627	-0.119	0.095
-577.763	120.371	0.146	0.181
-576.748	800.000	-0.099	0.315
-575.733	-5.690	-0.117	0.080
-574.719	-138.282	-0.134	0.015
-573.704	-59.087	-0.111	-0.048
-572.690	31.128	0.093	0.080
-571.675	263.454	0.117	-0.202
-570.661	-200.000	0.047	-0.341
-569.646	-200.000	-0.026	-0.151
-568.631	83.432	-0.057	0.062
-567.617	208.425	0.156	0.243
-566.602	3.225	0.128	-0.093
-565.588	143.737	-0.159	-0.211
-564.573	62.757	0.129	-0.129
-563.558	186.677	-0.253	-0.377
-562.544	-156.345	0.331	-0.021
-561.529	-47.905	-0.209	-0.101
-560.515	-75.422	0.126	-0.045
-559.500	-112.671	-0.138	-0.027
-558.485	-200.000	-0.058	-0.365
-557.471	18.070	0.088	-0.070
-556.456	-128.132	-0.284	-0.041
-555.442	-200.000	0.025	-0.259
-554.427	27.276	0.199	-0.167
-553.412	369.099	-0.062	-0.125
-552.398	-122.846	-0.148	-0.024
-551.383	-79.988	-0.336	0.113
-550.369	-99.028	0.292	0.074
-549.354	-113.692	0.135	0.026
-548.339	800.000	0.022	-0.084
-547.325	235.597	0.094	-0.154
-546.310	161.604	-0.017	-0.023
-545.296	113.675	0.125	0.151
-544.281	-200.000	0.002	-0.268
-543.266	-200.000	0.018	0.209
-542.252	-200.000	0.009	-0.050
-541.237	79.657	0.172	-0.184
-540.223	152.347	0.080	-0.109
-539.208	-26.630	0.261	-0.152
-538.193	-1.382	-0.083	-0.058
-537.179	45.515	-0.180	-0.165
-536.164	-27.034	0.287	0.167
-535.150	46.737	0.403	-0.373
-534.135	800.000	-0.090	-0.276
-533.121	152.139	-0.143	0.195
-532.106	-177.566	0.314	-0.008
-531.091	678.755	-0.047	-0.121
-530.077	-67.957	-0.099	0.038
-529.062	800.000	-0.043	0.157
-528.048	-67.314	-0.177	0.069
-527.033	13.959	-0.213	0.165
-526.018	-169.394	0.173	0.006
-525.004	-32.542	0.062	0.034
-523.989	15.390	0.153	-0.119
-522.975	186.549	-0.107	0.159
-521.960	-147.413	0.215	0.018
-520.945	-96.532	-0.223	-0.059
-519.931	170.498	0.123	0.175
-518.916	28.608	-0.063	0.053
-517.902	-144.021	-0.099	0.009
-516.887	300.067	0.133	0.244
-515.872	-81.517	0.384	-0.126
-514.858	-200.000	0.006	0.256
-513.843	800.000	0.076	0.242
-512.829	1.068	-0.022	-0.016
-511.814	-111.016	0.093	-0.019
-510.799	-144.959	-0.071	-0.006
-509.785	4.892	0.118	0.086
-508.770	68.946	-0.283	-0.289
-507.756	-91.275	0.245	0.070
-506.741	-129.699	0.051	-0.007
-505.726	-200.000	0.021	0.456
-504.712	-102.458	0.262	0.062
-503.697	800.000	-0.078	0.274
-502.683	-89.539	0.119	0.035
-501.668	263.147	-0.120	-0.207
-500.653	-140.581	-0.238	0.025
-499.639	-58.351	0.163	-0.070
-498.624	-200.000	-0.008	-0.587
-497.610	-140.877	0.280	0.029
-496.595	-200.000	-0.009	-0.131
-495.581	800.000	0.069	0.223
-494.566	-49.541	0.253	0.120
-493.551	-70.837	-0.349	-0.131
-492.537	-27.113	-0.155	0.090
-491.522	-200.000	-0.033	0.153
-490.508	-11.555	-0.238	-0.156
-489.493	-45.725	-0.070	0.034
-488.478	-200.000	0.026	-0.291
-487.464	-86.650	0.186	-0.057
-486.449	-7.757	0.165	0.111
-485.435	240.424	0.217	-0.359
-484.420	-200.000	0.007	0.072
-483.405	270.891	-0.114	-0.199
-482.391	150.527	-0.164	-0.222
-481.376	157.392	0.049	-0.067
-480.362	-88.159	-0.370	0.110
-479.347	-73.474	-0.050	0.018
-478.332	-200.000	-0.010	-0.122
-477.318	152.932	0.151	-0.206
-476.303	555.926	-0.036	0.086
-475.289	27.776	-0.117	0.098
-474.274	-200.000	-0.108	0.759
-473.259	-200.000	0.002	-0.371
-472.245	-200.000	-0.049	-0.405
-471.230	58.921	0.156	0.152
-470.216	437.449	-0.126	-0.273
-469.201	23.783	-0.058	0.048
-468.186	-108.284	0.299	-0.064
-467.172	-200.000	0.041	0.444
-466.157	800.000	-0.102	0.356
-465.143	175.265	0.212	0.306
-464.128	-93.882	0.050	-0.014
-463.113	-120.367	-0.228	0.039
-462.099	177.693	0.070	-0.102
-461.084	-200.000	-0.012	-0.181
-460.070	378.241	-0.144	0.294
-459.055	-127.128	-0.229	-0.033
-458.040	800.000	0.116	0.420
-457.026	36.282	-0.197	0.173
-456.011	137.948	0.287	0.374
-454.997	-166.034	-0.265	0.011
-453.982	800.000	0.057	-0.170
-452.968	78.536	-0.210	-0.223
-451.953	28.887	-0.232	-0.196
-450.938	565.221	-0.057	0.136
-449.924	291.265	0.098	-0.177
-448.909	83.107	0.167	-0.181
-447.895	163.591	-0.101	-0.141
-446.880	-90.961	0.085	-0.024
-445.865	171.006	-0.155	0.221
-444.851	-56.920	-0.082	-0.036
-443.836	16.505	0.105	-0.083
-442.822	14.784	0.191	0.148
-441.807	7.781	0.157	-0.117
-440.792	800.000	0.052	0.170
-439.778	800.000	0.095	-0.294
-438.763	721.092	-0.055	-0.145
-437.749	-87.754	0.234	-0.070
-436.734	5.236	-0.179	-0.131
-435.719	-30.770	0.313	-0.176
-434.705	-155.581	-0.519	0.033
-433.690	-200.000	0.005	-0.290
-432.676	272.969	-0.034	-0.059
-431.661	-200.000	0.008	0.287
-430.646	-200.000	0.008	0.091
-429.632	14.641	0.263	-0.204
-428.617	39.882	0.248	-0.221
-427.603	-200.000	-0.059	0.397
-426.588	-136.654	0.105	0.012
-425.573	712.692	-0.074	0.195
-424.559	534.625	0.083	-0.195
-423.544	-69.860	-0.105	0.040
-422.530	-48.099	0.079	0.038
-421.515	-200.000	-0.049	-0.267
-420.500	-14.443	0.136	-0.087
-419.486	-10.326	-0.263	-0.173
-418.471	-82.186	0.108	-0.035
-417.457	196.455	-0.087	-0.132
-416.442	485.669	0.022	-0.050
-415.428	153.696	-0.141	-0.191
-414.413	-200.000	0.001	0.214
-413.398	582.765	0.086	0.209
-412.384	33.295	0.076	0.066
-411.369	-159.377	0.285	0.016
-410.355	-49.977	0.148	0.069
-409.340	59.101	0.219	0.214
-408.325	-38.162	-0.237	-0.125
-407.311	-121.282	0.339	-0.056
-406.296	-200.000	-0.005	-0.261
-405.282	-0.641	0.101	-0.071
-404.267	-200.000	0.036	0.510
-403.252	8.125	0.157	-0.117
-402.238	-40.536	0.045	0.023
-401.223	-44.928	0.205	0.101
-400.209	-40.286	-0.063	0.032
-399.194	55.942	-0.157	-0.151
-398.179	800.000	0.097	-0.278
-397.165	-120.567	0.350	0.059
-396.150	800.000	-0.060	-0.208
-395.136	-200.000	-0.021	-0.139
-394.121	-25.728	-0.068	-0.040
-393.106	-76.338	0.094	0.033
-392.092	630.543	-0.076	0.190
-391.077	523.120	-0.066	0.153
-390.063	568.189	-0.087	-0.209
-389.048	385.771	-0.185	0.378
-388.033	-123.973	0.272	0.042
-387.019	185.654	-0.136	-0.200
-386.004	-124.133	0.236	-0.037
-384.990	800.000	-0.061	-0.209
-383.975	-200.000	0.034	0.188
-382.960	-122.216	-0.450	0.073
-381.946	-53.073	-0.164	0.075
-380.931	10.217	0.249	0.188
-379.917	500.782	0.112	0.255
-378.902	800.000	-0.108	-0.414
-377.888	40.062	0.086	0.076
-376.873	67.208	-0.189	0.191
-375.858	-200.000	-0.002	0.201
-374.844	373.366	0.156	-0.315
-373.829	-78.584	0.207	0.070
-372.815	3.060	-0.327	-0.235
-371.800	126.252	0.095	-0.119
-370.785	-71.585	-0.051	-0.019
-369.771	-0.600	0.269	0.189
-368.756	-150.897	-0.134	0.010
-367.742	215.956	0.040	0.063
-366.727	-69.203	-0.137	0.052
-365.712	253.521	-0.243	0.411
-364.698	4.146	0.051	0.037
-363.683	-62.268	-0.282	0.116
-362.669	-200.000	-0.070	-0.335
-361.654	800.000	0.028	-0.086
-360.639	800.000	0.060	-0.169
-359.625	-190.575	-0.298	-0.003
-358.610	-200.000	0.034	0.220
-357.596	0.753	0.066	0.047
-356.581	137.575	0.329	0.427
-355.566	-33.806	0.122	-0.067
-354.552	-200.000	-0.021	0.143
-353.537	-191.932	-0.253	-0.002
-352.523	-31.225	-0.138	-0.077
-351.508	-200.000	0.059	-0.500
-350.493	73.648	0.241	0.250
-349.479	-67.274	-0.340	0.132
-348.464	-56.350	0.081	-0.036
-347.450	4.769	0.013	0.010
-346.435	800.000	0.051	0.223
-345.420	189.021	0.102	-0.152
-344.406	-43.847	-0.251	-0.125
-343.391	800.000	-0.057	0.228
-342.377	164.685	-0.094	-0.131
-341.362	800.000	0.072	-0.253
-340.348	-78.802	-0.449	0.151
-339.333	-50.232	0.144	-0.067
-338.318	67.511	0.084	0.084
-337.304	208.265	-0.112	-0.173
-336.289	196.325	0.170	-0.255
-335.275	347.931	0.081	-0.158
-334.260	-158.161	-0.280	-0.016
-333.245	420.572	-0.060	-0.126
-332.231	-200.000	0.006	-0.115
-331.216	-45.536	-0.199	0.098
-330.202	179.862	-0.217	-0.314
-329.187	136.042	-0.069	-0.089
-328.172	191.563	-0.112	0.166
-327.158	-122.560	0.277	-0.044
-326.143	80.328	-0.196	0.209
-325.129	2.579	0.190	-0.136
-324.114	106.076	0.095	-0.111
-323.099	118.890	-0.247	0.302
-322.085	-104.986	-0.201	0.045
-321.070	800.000	0.050	-0.182
-320.056	800.000	-0.073	-0.286
-319.041	-200.000	0.023	0.299
-318.026	-200.000	-0.044	0.232
-317.012	41.055	0.131	0.116
-315.997	-40.508	0.206	0.106
-314.983	0.558	0.314	-0.222
-313.968	72.058	-0.077	0.079
-312.953	-75.876	0.203	-0.071
-311.939	227.665	-0.129	-0.208
-310.924	-68.318	0.313	-0.120
-309.910	800.000	-0.039	0.158
-308.895	149.575	-0.060	-0.080
-307.880	800.000	0.034	-0.130
-306.866	93.040	0.026	-0.029
-305.851	800.000	0.029	-0.101
-304.837	55.079	-0.144	0.137
-303.822	-171.527	0.026	0.001
-302.807	-200.000	0.009	0.077
-301.793	620.009	0.086	-0.213
-300.778	444.073	-0.200	-0.434
-299.764	-200.000	-0.022	-0.186
-298.749	107.264	-0.043	-0.051
-297.735	-139.507	-0.312	-0.033
-296.720	-200.000	-0.075	0.663
-295.705	-57.624	0.316	0.137
-294.691	-135.733	-0.239	-0.028
-293.676	-200.000	0.006	0.129
-292.662	-83.385	0.294	-0.093
-291.647	82.901	-0.066	0.071
-290.632	-24.057	-0.088	0.052
-289.618	-49.973	-0.496	-0.232
-288.603	-200.000	-0.028	-0.437
-287.589	158.065	-0.151	0.207
-286.574	-55.710	0.398	0.176
-285.559	-29.024	0.103	0.058
-284.545	-117.147	-0.212	0.038
-283.530	-196.892	0.107	0.001
-282.516	800.000	0.090	-0.265
-281.501	104.607	-0.131	-0.152
-280.486	-68.704	-0.371	-0.142
-279.472	-200.000	0.011	-0.357
-278.457	371.633	-0.100	-0.200
-277.443	245.613	-0.127	-0.211
-276.428	-80.023	0.317	0.105
-275.413	-200.000	0.009	-0.148
-274.399	-28.543	0.325	0.185
-273.384	-115.905	0.165	0.030
-272.370	64.882	-0.157	-0.157
-271.355	10.577	0.216	-0.163
-270.340	103.638	-0.170	-0.197
-269.326	-200.000	-0.002	-0.022
-268.311	-200.000	-0.023	-0.101
-267.297	-83.020	0.125	0.040
-266.282	-88.695	-0.163	0.048
-265.267	800.000	-0.082	0.277
-264.253	-147.787	-0.289	0.024
-263.238	73.062	0.162	0.167
-262.224	102.268	-0.055	0.064
-261.209	258.447	0.145	0.246
-260.195	61.387	-0.130	0.127
-259.180	-54.860	0.244	-0.109
-258.165	-57.932	-0.368	-0.158
-257.151	70.137	0.118	-0.120
-256.136	-85.218	0.121	0.037
-255.122	94.114	0.203	0.227
-254.107	-123.707	-0.232	0.036
-253.092	-200.000	0.050	-0.233
-252.078	25.373	0.425	-0.348
-251.063	-17.639	-0.047	0.029
-250.049	800.000	0.035	-0.134
-249.034	120.667	0.073	-0.089
-248.019	-42.299	-0.047	-0.023
-247.005	-68.911	0.323	-0.123
-245.990	-200.000	-0.036	-0.230
-244.976	-33.513	0.130	0.071
-243.961	234.282	-0.150	-0.243
-242.946	-200.000	-0.005	-0.046
-241.932	-89.468	0.131	-0.038
-240.917	-153.406	-0.196	0.013
-239.903	-56.465	0.290	0.127
-238.888	-123.442	-0.289	0.045
-237.873	183.135	0.089	0.130
-236.859	18.972	0.204	-0.161
-235.844	-38.253	-0.081	-0.042
-234.830	584.448	-0.058	0.139
-233.815	-97.832	0.251	0.064
-232.800	-200.000	0.016	-0.078
-231.786	137.183	-0.056	0.072
-230.771	-118.384	0.279	-0.049
-229.757	304.721	-0.178	-0.326
-228.742	-16.817	0.006	-0.004
-227.727	536.469	0.141	0.331
-226.713	389.896	0.102	0.208
-225.698	-51.168	-0.142	-0.066
-224.684	115.257	-0.059	0.071
-223.669	-200.000	-0.013	0.103
-222.655	-3.197	0.084	0.058
-221.640	24.149	-0.097	-0.079
-220.625	-50.041	0.139	0.065
-219.611	-200.000	-0.010	-0.241
-218.596	13.248	-0.274	0.209
-217.582	264.445	0.102	-0.176
-216.567	58.956	-0.122	0.118
-215.552	18.306	-0.135	-0.106
-214.538	101.848	-0.099	0.113
-213.523	-83.909	0.378	0.119
-212.509	166.798	0.026	0.037
-211.494	16.911	-0.160	-0.124
-210.479	-62.291	-0.089	0.036
-209.465	-200.000	0.037	0.235
-208.450	-200.000	-0.003	-0.286
-207.436	-55.676	0.108	0.048
-206.421	228.470	0.147	-0.235
-205.406	-46.094	-0.160	-0.077
-204.392	12.491	-0.101	-0.076
-203.377	730.670	-0.038	-0.099
-202.363	122.625	0.251	0.309
-201.348	-11.551	-0.253	0.164
-200.333	-101.334	0.369	0.089
-199.319	-118.034	0.286	-0.050
-198.304	579.437	-0.047	-0.114
-197.290	111.655	-0.027	-0.032
-196.275	114.336	0.230	0.276
-195.260	800.000	-0.029	-0.101
-194.246	-124.785	0.295	-0.045
-193.231	-141.405	-0.437	-0.044
-192.217	-48.582	0.409	0.193
-191.202	-130.855	0.343	-0.045
-190.187	12.991	-0.139	0.106
-189.173	56.612	0.184	-0.176
-188.158	-40.469	-0.212	0.108
-187.144	-200.000	-0.063	0.406
-186.129	152.870	0.058	-0.078
-185.114	-200.000	-0.019	0.495
-184.100	-107.303	-0.120	0.026
-183.085	-137.476	-0.186	-0.021
-182.071	27.011	-0.047	0.039
-181.056	-5.657	0.231	0.156
-180.042	800.000	0.065	0.224
-179.027	623.113	-0.113	0.279
-178.012	575.824	-0.091	-0.219
-176.998	-34.157	-0.141	-0.076
-175.983	422.747	0.134	-0.283
-174.969	244.090	-0.039	0.065
-173.954	20.255	-0.099	-0.079
-172.939	-200.000	-0.006	-0.127
-171.925	91.797	-0.118	0.130
-170.910	-200.000	-0.006	-0.051
-169.896	424.486	-0.120	0.253
-168.881	197.032	0.294	0.440
-167.866	218.659	-0.156	0.246
-166.852	-88.850	-0.145	-0.042
-165.837	-200.000	0.028	0.281
-164.823	-106.086	-0.088	-0.019
-163.808	-125.615	-0.085	-0.013
-162.793	-200.000	0.024	-0.242
-161.779	-92.504	-0.201	0.055
-160.764	43.100	0.352	0.316
-159.750	800.000	0.075	0.295
-158.735	500.739	-0.115	0.261
-157.720	-200.000	-0.015	0.142
-156.706	-77.345	-0.179	0.061
-155.691	120.374	0.082	0.100
-154.677	-76.188	0.115	0.040
-153.662	800.000	0.078	0.219
-152.647	-200.000	0.053	0.278
-151.633	544.261	0.076	0.179
-150.618	362.671	0.091	0.180
-149.604	3.888	0.157	-0.112
-148.589	524.835	-0.086	0.199
-147.574	8.377	-0.159	0.118
-146.560	-105.916	0.338	0.075
-145.545	-10.871	-0.171	0.111
-144.531	-81.890	-0.527	0.169
-143.516	-200.000	0.033	-0.155
-142.502	-44.920	-0.139	0.068
-141.487	13.216	0.116	-0.088
-140.472	531.029	-0.135	0.313
-139.458	-200.000	-0.032	0.295
-138.443	209.278	0.151	0.231
-137.429	129.343	-0.141	-0.177
-136.414	348.123	0.128	0.248
-135.399	-200.000	0.019	0.238
-134.385	179.263	0.137	-0.196
-133.370	-200.000	-0.008	-0.053
-132.356	-166.389	0.034	-0.001
-131.341	220.635	0.109	-0.172
-130.326	53.800	-0.129	-0.122
-129.312	94.476	0.394	0.439
-128.297	-66.170	-0.228	0.089
-127.283	152.782	-0.058	-0.078
-126.268	-57.512	0.448	0.193
-125.253	61.566	0.121	-0.118
-124.239	-55.235	-0.243	0.107
-123.224	800.000	-0.053	0.198
-122.210	-200.000	-0.007	0.135
-121.195	800.000	0.029	-0.099
-120.180	111.082	-0.122	-0.144
