DTS Sentinel unit serial number:	SN413079Multiplexer serial number:	ORYXHardware model number:	OX4-SRSoftware version number:	ORYX F/W v4.00 Oryx Data Collector v3.7.2.0data status	okinstallation	princeton_trtdifferential loss correction	single-endedforward channel	channel 2reverse channel	N/Adate	2019/09/14time	20:51:35forward acquisition time	60.00reverse acquisition time	0.00gamma	496.2192k internal	0.2323k external	0.2323temperature offset calibration	1.0083default loss term (dB/km)	0.3790temperature slope calibration	1.0000multiplexer offset coefficient	1.0000multiplexer slope coefficient	1.0000fibre end	0.00T internal ref (°C)	33.25T ext. ref 1 (°C)	4.80T ext. ref 2 (°C)	27.95length (m)	temperature (°C)	Stokes	anti-Stokes-747.200	-39.341	0.251	-0.133
-746.185	800.000	-0.111	0.434
-745.171	-200.000	0.058	-0.333
-744.156	-200.000	0.003	0.280
-743.142	134.969	0.261	-0.342
-742.127	50.101	-0.297	0.283
-741.112	172.949	0.165	0.240
-740.098	72.282	-0.138	-0.145
-739.083	-200.000	-0.016	-0.401
-738.069	-119.724	-0.055	-0.010
-737.054	-200.000	-0.033	-0.250
-736.039	-200.000	0.013	-0.351
-735.025	62.041	0.223	0.225
-734.010	800.000	0.021	-0.085
-732.996	-108.564	-0.104	-0.022
-731.981	-113.962	-0.301	-0.059
-730.966	-23.798	0.158	-0.095
-729.952	-139.124	0.202	-0.022
-728.937	93.457	0.026	-0.030
-727.923	122.805	-0.283	-0.357
-726.908	800.000	0.065	-0.207
-725.894	-200.000	-0.010	-0.175
-724.879	800.000	0.052	-0.217
-723.864	-5.737	0.086	-0.060
-722.850	481.640	-0.109	-0.249
-721.835	-116.108	-0.327	0.061
-720.821	286.651	0.049	-0.090
-719.806	-121.350	-0.190	-0.032
-718.791	104.752	0.224	0.267
-717.777	-58.516	-0.050	0.022
-716.762	26.350	-0.328	-0.277
-715.748	3.476	-0.278	-0.204
-714.733	-13.465	0.051	-0.034
-713.718	800.000	0.078	0.312
-712.704	23.415	-0.271	0.225
-711.689	-200.000	-0.013	0.090
-710.675	-48.017	-0.143	0.070
-709.660	113.314	0.106	0.130
-708.645	-200.000	0.022	0.116
-707.631	-200.000	-0.043	-0.247
-706.616	-125.264	-0.111	0.017
-705.602	-152.989	-0.378	0.027
-704.587	466.762	0.133	-0.301
-703.572	-55.157	0.280	-0.127
-702.558	23.292	0.116	-0.096
-701.543	-5.855	-0.243	0.168
-700.529	-200.000	-0.014	0.100
-699.514	-145.055	0.202	0.019
-698.499	370.965	-0.158	-0.322
-697.485	635.829	-0.067	-0.170
-696.470	800.000	-0.056	-0.209
-695.456	-200.000	-0.061	0.324
-694.441	566.455	0.086	-0.211
-693.426	800.000	-0.020	0.067
-692.412	800.000	0.074	0.259
-691.397	-65.008	0.185	0.075
-690.383	42.538	-0.234	-0.215
-689.368	226.457	-0.094	0.153
-688.354	455.494	-0.068	-0.153
-687.339	53.017	-0.112	-0.108
-686.324	82.832	-0.208	-0.228
-685.310	259.732	-0.158	-0.274
-684.295	-200.000	-0.035	-0.173
-683.281	240.380	-0.200	0.335
-682.266	91.254	0.216	-0.245
-681.251	226.373	-0.080	0.131
-680.237	344.368	0.160	0.317
-679.222	-200.000	0.012	-0.089
-678.208	-77.615	-0.366	-0.128
-677.193	-109.958	-0.369	0.078
-676.178	-117.357	0.160	-0.029
-675.164	-200.000	-0.030	-0.494
-674.149	-190.396	0.116	-0.001
-673.135	-172.784	-0.173	-0.005
-672.120	47.212	0.031	0.029
-671.105	-54.580	-0.206	-0.094
-670.091	98.160	0.261	-0.303
-669.076	800.000	0.115	-0.339
-668.062	-18.024	-0.068	0.043
-667.047	800.000	-0.015	-0.043
-666.032	-62.962	-0.280	0.116
-665.018	-23.605	0.136	-0.082
-664.003	-200.000	-0.015	-0.175
-662.989	131.844	-0.181	0.235
-661.974	-200.000	-0.009	-0.051
-660.959	-114.869	-0.357	-0.069
-659.945	-175.156	-0.343	0.010
-658.930	-86.321	0.324	-0.100
-657.916	-113.455	0.265	-0.052
-656.901	-50.547	-0.111	-0.053
-655.886	548.006	0.094	-0.227
-654.872	-80.336	-0.310	-0.104
-653.857	468.344	0.131	-0.295
-652.843	96.482	-0.185	-0.213
-651.828	87.358	-0.063	-0.070
-650.814	-148.053	0.259	-0.022
-649.799	-97.493	0.291	0.076
-648.784	97.424	0.196	0.227
-647.770	-50.627	0.153	-0.072
-646.755	30.858	0.091	-0.078
-645.741	-60.088	-0.141	0.061
-644.726	-20.264	-0.107	0.067
-643.711	-200.000	0.017	-0.166
-642.697	-35.191	0.331	0.181
-641.682	-200.000	-0.026	-0.185
-640.668	136.177	-0.400	-0.524
-639.653	-141.028	-0.173	0.018
-638.638	251.292	-0.155	0.266
-637.624	-56.558	0.157	0.070
-636.609	-28.313	0.124	-0.072
-635.595	68.241	0.287	-0.296
-634.580	-200.000	-0.001	-0.217
-633.565	-60.407	0.170	-0.072
-632.551	299.625	0.149	0.276
-631.536	-48.723	-0.271	0.131
-630.522	32.962	0.147	-0.128
-629.507	-89.191	-0.322	0.095
-628.492	185.193	-0.038	0.056
-627.478	625.102	-0.130	-0.330
-626.463	113.851	0.108	-0.132
-625.449	-135.921	0.059	0.007
-624.434	-1.505	-0.113	0.080
-623.419	800.000	-0.064	-0.226
-622.405	-200.000	0.526	0.000
-621.390	-141.152	0.277	0.028
-620.376	800.000	-0.059	0.236
-619.361	216.661	-0.184	-0.294
-618.346	119.384	-0.052	0.065
-617.332	-10.143	-0.035	-0.023
-616.317	-102.092	0.176	-0.043
-615.303	9.368	-0.327	-0.248
-614.288	138.646	0.146	-0.193
-613.273	-163.323	-0.144	-0.007
-612.259	-200.000	0.028	-0.470
-611.244	-200.000	0.012	0.120
-610.230	37.418	-0.235	0.210
-609.215	3.341	0.233	-0.171
-608.201	555.719	-0.024	0.058
-607.186	-160.516	0.242	-0.013
-606.171	-54.247	-0.102	0.046
-605.157	-68.090	-0.319	0.125
-604.142	-162.026	0.250	0.013
-603.128	800.000	0.157	-0.607
-602.113	285.212	-0.050	-0.091
-601.098	-107.399	-0.370	0.082
-600.084	800.000	-0.087	-0.248
-599.069	-110.148	-0.221	0.046
-598.055	-91.966	-0.168	-0.048
-597.040	800.000	0.053	0.163
-596.025	564.145	-0.119	0.289
-595.011	147.973	0.047	-0.064
-593.996	800.000	0.072	0.258
-592.982	-200.000	0.029	-0.252
-591.967	-109.558	-0.292	0.062
-590.952	88.149	0.353	-0.393
-589.938	-74.134	-0.428	-0.155
-588.923	184.973	0.125	0.186
-587.909	-18.992	-0.143	0.089
-586.894	-200.000	-0.001	-0.055
-585.879	-105.396	0.143	0.033
-584.865	-49.223	0.441	-0.211
-583.850	-200.000	-0.006	-0.089
-582.836	29.154	0.058	-0.049
-581.821	-45.786	0.108	-0.054
-580.806	84.055	-0.119	-0.130
-579.792	-30.032	0.168	0.096
-578.777	-82.989	0.185	-0.060
-577.763	-35.599	-0.155	-0.085
-576.748	390.116	0.016	0.033
-575.733	228.337	-0.139	-0.226
-574.719	293.941	-0.025	0.047
-573.704	-84.433	0.118	0.037
-572.690	-200.000	-0.056	0.369
-571.675	-200.000	0.022	0.245
-570.661	104.513	-0.235	0.277
-569.646	312.964	0.169	-0.319
-568.631	800.000	-0.053	-0.173
-567.617	-200.000	0.000	0.146
-566.602	-52.539	0.261	-0.121
-565.588	327.635	-0.181	0.349
-564.573	465.594	-0.069	0.154
-563.558	-99.653	0.215	-0.054
-562.544	259.058	-0.140	-0.242
-561.529	245.653	0.182	-0.307
-560.515	-95.533	-0.127	-0.034
-559.500	13.342	-0.139	-0.108
-558.485	-31.218	0.243	0.137
-557.471	57.666	0.066	-0.065
-556.456	471.555	-0.148	-0.335
-555.442	-50.724	-0.050	-0.024
-554.427	-35.000	0.153	0.084
-553.412	48.152	-0.237	-0.222
-552.398	296.764	-0.173	0.318
-551.383	800.000	0.069	0.276
-550.369	107.138	0.083	-0.099
-549.354	-24.821	0.103	-0.061
-548.339	-200.000	0.024	-0.130
-547.325	343.317	0.139	-0.274
-546.310	-200.000	-0.011	-0.146
-545.296	-28.411	-0.287	0.166
-544.281	161.507	0.134	0.187
-543.266	16.940	-0.376	0.298
-542.252	-200.000	-0.021	0.214
-541.237	-136.424	-0.102	-0.012
-540.223	28.379	0.356	-0.302
-539.208	335.579	-0.080	0.155
-538.193	800.000	0.055	-0.221
-537.179	97.512	-0.348	-0.401
-536.164	-162.005	-0.072	0.004
-535.150	74.371	-0.282	-0.297
-534.135	-200.000	-0.048	0.222
-533.121	355.621	-0.202	0.403
-532.106	34.300	-0.242	0.212
-531.091	-10.967	-0.236	-0.156
-530.077	-53.230	0.096	-0.044
-529.062	-72.088	-0.088	-0.033
-528.048	-28.420	0.018	-0.010
-527.033	549.790	0.148	0.355
-526.018	-86.472	-0.339	-0.104
-525.004	-67.790	-0.144	0.056
-523.989	282.242	-0.047	0.084
-522.975	-73.966	-0.353	-0.128
-521.960	-15.528	-0.221	-0.141
-520.945	303.445	0.066	0.123
-519.931	161.879	0.146	0.204
-518.916	-69.178	0.247	0.095
-517.902	-26.009	-0.477	0.281
-516.887	173.936	-0.116	0.168
-515.872	-200.000	-0.002	-0.114
-514.858	800.000	-0.023	0.073
-513.843	17.834	0.123	0.098
-512.829	-150.650	0.036	-0.003
-511.814	-41.788	0.191	-0.098
-510.799	-39.244	0.110	-0.058
-509.785	-105.800	-0.180	-0.041
-508.770	-150.851	-0.238	-0.018
-507.756	-200.000	-0.041	0.243
-506.741	159.967	-0.093	-0.129
-505.726	518.431	-0.140	-0.327
-504.712	329.316	0.037	0.070
-503.697	-200.000	-0.014	-0.064
-502.683	800.000	0.078	0.233
-501.668	800.000	-0.055	0.217
-500.653	800.000	0.096	-0.348
-499.639	-78.878	-0.021	-0.007
-498.624	-200.000	0.003	0.260
-497.610	-94.462	-0.230	0.063
-496.595	319.090	-0.011	0.021
-495.581	443.867	0.130	0.285
-494.566	-91.222	0.110	-0.032
-493.551	790.347	-0.112	-0.306
-492.537	300.136	0.046	-0.085
-491.522	-200.000	0.019	-0.163
-490.508	800.000	0.036	0.127
-489.493	-31.333	0.203	0.114
-488.478	-200.000	0.017	-0.262
-487.464	-21.776	-0.300	0.183
-486.449	106.982	0.186	0.221
-485.435	-63.263	-0.226	-0.093
-484.420	-104.610	-0.284	-0.066
-483.405	-200.000	-0.004	-0.139
-482.391	15.775	0.420	0.330
-481.376	-31.150	0.094	-0.053
-480.362	-200.000	0.086	-0.562
-479.347	-168.747	0.296	0.011
-478.332	26.376	-0.169	-0.142
-477.318	88.248	-0.150	0.167
-476.303	800.000	-0.109	-0.392
-475.289	541.013	-0.097	-0.231
-474.274	693.634	0.067	0.177
-473.259	-64.937	0.120	-0.048
-472.245	23.325	-0.194	0.159
-471.230	800.000	-0.067	0.230
-470.216	-57.328	0.181	-0.079
-469.201	-24.638	-0.334	0.199
-468.186	-200.000	-0.009	0.342
-467.172	267.343	0.114	0.200
-466.157	-62.873	0.324	0.134
-465.143	-96.797	-0.386	-0.101
-464.128	-200.000	0.009	-0.216
-463.113	-20.655	-0.282	0.173
-462.099	-200.000	-0.022	0.298
-461.084	113.044	0.236	-0.286
-460.070	-99.592	0.234	-0.059
-459.055	60.565	0.153	0.151
-458.040	-63.248	0.071	-0.029
-457.026	-22.297	0.367	0.222
-456.011	-68.896	0.433	-0.167
-454.997	50.720	-0.182	-0.172
-453.982	111.412	0.020	-0.024
-452.968	-2.202	-0.158	0.111
-451.953	10.316	0.152	-0.115
-450.938	800.000	-0.084	-0.318
-449.924	36.975	-0.141	0.125
-448.909	800.000	-0.032	-0.120
-447.895	584.850	0.094	-0.230
-446.880	-120.511	0.364	-0.062
-445.865	-112.198	-0.335	0.067
-444.851	46.317	0.179	-0.165
-443.836	-83.611	-0.115	-0.037
-442.822	-39.041	0.110	0.058
-441.807	-106.005	-0.059	-0.013
-440.792	800.000	-0.079	0.253
-439.778	280.540	0.132	-0.235
-438.763	-22.718	-0.374	0.225
-437.749	-200.000	0.022	0.172
-436.734	800.000	0.025	-0.077
-435.719	-2.638	-0.152	-0.106
-434.705	-200.000	-0.013	0.139
-433.690	-200.000	0.035	-0.166
-432.676	428.090	-0.144	0.311
-431.661	-50.421	-0.067	-0.031
-430.646	36.452	0.361	-0.318
-429.632	71.163	-0.184	0.190
-428.617	253.928	0.092	0.156
-427.603	-200.000	-0.030	0.135
-426.588	-8.123	0.150	0.101
-425.573	637.586	0.079	0.201
-424.559	-93.915	0.140	-0.039
-423.544	-126.081	-0.103	0.015
-422.530	-170.373	-0.189	-0.007
-421.515	800.000	-0.064	-0.196
-420.500	-23.656	-0.068	0.040
-419.486	640.969	-0.148	-0.375
-418.471	-91.774	0.333	0.094
-417.457	-12.302	-0.156	0.102
-416.442	-22.404	-0.055	-0.033
-415.428	4.028	-0.244	0.178
-414.413	-41.870	-0.287	0.147
-413.398	800.000	-0.088	0.295
-412.384	-192.360	-0.183	-0.002
-411.369	-35.632	0.131	-0.071
-410.355	242.777	-0.189	-0.316
-409.340	800.000	-0.045	-0.145
-408.325	54.653	0.122	0.118
-407.311	55.320	0.160	-0.155
-406.296	260.449	0.021	0.036
-405.282	-78.218	0.061	0.021
-404.267	88.647	0.275	-0.305
-403.252	1.343	0.186	0.133
-402.238	76.948	0.145	0.154
-401.223	-200.000	0.011	0.093
-400.209	382.020	-0.045	-0.093
-399.194	-200.000	-0.001	-0.059
-398.179	35.363	0.031	0.027
-397.165	150.473	0.210	-0.284
-396.150	800.000	0.060	-0.199
-395.136	800.000	0.013	0.041
-394.121	-83.987	0.171	0.054
-393.106	-100.374	0.204	-0.050
-392.092	-67.816	-0.226	-0.088
-391.077	20.339	0.256	0.206
-390.063	-200.000	-0.004	-0.178
-389.048	-115.756	-0.249	0.046
-388.033	-104.917	-0.209	-0.048
-387.019	24.309	0.295	-0.243
-386.004	-91.109	0.047	0.013
-384.990	-117.809	0.340	0.061
-383.975	296.833	-0.039	-0.071
-382.960	-40.760	0.103	0.053
-381.946	-200.000	0.010	0.184
-380.931	106.182	0.217	-0.256
-379.917	-69.850	0.117	-0.044
-378.902	-172.582	-0.358	-0.011
-377.888	-110.441	-0.193	-0.040
-376.873	800.000	0.074	0.247
-375.858	572.672	-0.155	-0.377
-374.844	-200.000	-0.020	-0.146
-373.829	69.938	0.187	0.193
-372.815	618.967	-0.089	-0.223
-371.800	-200.000	0.045	-0.217
-370.785	525.110	-0.054	-0.126
-369.771	-200.000	-0.018	0.404
-368.756	-39.218	0.507	0.265
-367.742	25.214	0.203	-0.168
-366.727	-43.680	0.090	0.045
-365.712	-200.000	0.015	-0.175
-364.698	-113.581	-0.196	0.038
-363.683	-200.000	-0.008	0.157
-362.669	-161.801	-0.055	-0.003
-361.654	310.294	-0.113	-0.210
-360.639	-20.267	-0.441	0.270
-359.625	-200.000	0.058	-0.268
-358.610	800.000	0.025	-0.099
-357.596	-166.014	-0.229	-0.010
-356.581	-200.000	0.039	0.208
-355.566	-89.936	-0.329	-0.095
-354.552	549.882	-0.112	-0.266
-353.537	123.984	0.130	0.162
-352.523	-0.273	-0.220	-0.155
-351.508	64.342	0.175	0.175
-350.493	744.125	-0.057	-0.151
-349.479	-200.000	0.011	-0.183
-348.464	-101.006	0.218	0.053
-347.450	-54.382	-0.141	-0.064
-346.435	-200.000	-0.008	0.274
-345.420	-19.145	-0.090	0.055
-344.406	39.366	0.025	0.022
-343.391	-200.000	-0.035	-0.351
-342.377	-79.060	-0.133	0.045
-341.362	-200.000	-0.003	0.287
-340.348	-200.000	0.005	0.131
-339.333	-104.341	-0.304	0.070
-338.318	-7.124	0.270	0.182
-337.304	800.000	-0.042	0.165
-336.289	70.518	-0.193	-0.198
-335.275	194.944	0.050	-0.075
-334.260	689.975	0.077	-0.201
-333.245	159.945	-0.192	-0.265
-332.231	388.435	0.131	0.269
-331.216	800.000	-0.110	0.392
-330.202	113.268	0.080	0.096
-329.187	-37.847	0.116	-0.062
-328.172	-95.991	-0.206	-0.054
-327.158	42.574	0.116	0.105
-326.143	70.469	-0.175	-0.180
-325.129	172.646	-0.175	-0.251
-324.114	296.857	0.054	0.099
-323.099	-37.205	-0.027	0.014
-322.085	-14.718	0.134	0.085
-321.070	-200.000	-0.007	-0.078
-320.056	268.238	0.061	0.106
-319.041	-159.584	-0.265	0.015
-318.026	-83.359	-0.167	0.053
-317.012	139.375	0.029	0.038
-315.997	654.251	-0.122	0.311
-314.983	157.688	-0.109	0.150
-313.968	-18.160	0.220	0.137
-312.953	-188.989	-0.119	-0.001
-311.939	-114.845	0.117	-0.022
-310.924	-116.216	-0.224	-0.041
-309.910	91.516	-0.153	0.171
-308.895	361.832	-0.115	-0.229
-307.880	-130.866	0.614	0.082
-306.866	-145.591	0.343	-0.031
-305.851	-13.731	-0.174	0.111
-304.837	-200.000	0.060	0.303
-303.822	560.687	0.082	0.196
-302.807	32.822	0.064	-0.055
-301.793	-79.625	0.250	-0.084
-300.778	-13.011	0.220	0.142
-299.764	-52.820	0.251	0.115
-298.749	-9.325	-0.381	0.252
-297.735	-93.480	-0.089	0.025
-296.720	-80.348	0.117	0.039
-295.705	-31.514	0.155	-0.087
-294.691	241.850	-0.049	0.082
-293.676	-35.978	-0.217	0.116
-292.662	-144.776	0.327	-0.030
-291.647	-160.567	-0.099	0.005
-290.632	120.551	0.098	0.120
-289.618	-84.444	-0.306	0.096
-288.603	-122.025	0.215	0.035
-287.589	53.517	0.270	-0.257
-286.574	-7.636	0.214	0.143
-285.559	-146.314	-0.129	-0.011
-284.545	44.623	-0.054	-0.049
-283.530	-78.731	0.238	0.080
-282.516	446.580	-0.130	0.283
-281.501	800.000	0.126	-0.485
-280.486	-200.000	0.074	0.404
-279.472	-118.024	0.120	-0.021
-278.457	697.351	0.041	-0.106
-277.443	-200.000	-0.002	-0.302
-276.428	-67.541	0.133	0.052
-275.413	164.904	0.125	0.175
-274.399	-149.616	0.122	0.010
-273.384	-88.148	-0.262	-0.078
-272.370	276.539	-0.087	-0.154
-271.355	12.797	0.153	-0.117
-270.340	599.081	-0.104	-0.255
-269.326	693.647	-0.105	-0.274
-268.311	63.493	0.137	-0.137
-267.297	-180.236	0.162	-0.003
-266.282	-97.789	-0.201	-0.052
-265.267	-41.875	-0.164	0.083
-264.253	35.504	0.040	-0.035
-263.238	-63.080	-0.442	-0.181
-262.224	-200.000	-0.032	0.260
-261.209	-200.000	0.001	-0.348
-260.195	-147.300	0.110	0.009
-259.180	-134.154	-0.294	0.036
-258.165	-177.762	0.506	-0.012
-257.151	-22.906	-0.115	-0.069
-256.136	62.734	0.096	-0.095
-255.122	-200.000	0.017	0.179
-254.107	-152.777	-0.273	0.019
-253.092	217.613	0.165	0.261
-252.078	-200.000	0.008	-0.110
-251.063	-156.877	-0.325	0.020
-250.049	480.433	-0.066	0.149
-249.034	706.256	-0.118	0.310
-248.019	-56.517	-0.193	0.085
-247.005	-200.000	-0.082	-0.363
-245.990	306.017	0.030	0.055
-244.976	-57.793	0.034	-0.015
-243.961	149.598	0.184	0.248
-242.946	-70.307	-0.142	0.053
-241.932	-200.000	0.035	0.181
-240.917	-74.943	0.248	0.088
-239.903	45.165	0.098	-0.090
-238.888	186.282	0.187	-0.275
-237.873	-200.000	-0.000	0.189
-236.859	54.121	0.046	-0.044
-235.844	-105.598	-0.190	0.043
-234.830	81.393	-0.033	0.036
-233.815	-51.946	-0.261	-0.120
-232.800	559.303	0.143	-0.342
-231.786	-127.587	0.228	0.033
-230.771	-81.525	0.113	0.037
-229.757	-200.000	0.009	-0.305
-228.742	-124.558	0.109	0.017
-227.727	106.458	-0.208	-0.244
-226.713	108.863	-0.167	0.197
-225.698	-26.004	-0.227	-0.132
-224.684	-29.650	-0.244	0.138
-223.669	354.029	0.131	0.258
-222.655	511.696	0.032	0.073
-221.640	-200.000	-0.017	-0.139
-220.625	-139.042	0.188	-0.020
-219.611	-200.000	-0.032	0.344
-218.596	-138.881	-0.256	-0.028
-217.582	-49.942	0.181	0.085
-216.567	-90.386	0.214	0.061
-215.552	-24.678	-0.178	-0.105
-214.538	-122.455	-0.223	0.036
-213.523	-141.922	-0.163	0.016
-212.509	19.454	0.093	-0.074
-211.494	800.000	0.085	-0.331
-210.479	9.919	0.186	-0.140
-209.465	800.000	0.025	0.081
-208.450	214.953	-0.016	0.026
-207.436	279.497	0.135	0.239
-206.421	-23.787	0.184	0.109
-205.406	345.486	0.134	0.260
-204.392	52.024	-0.111	0.104
-203.377	86.425	-0.202	0.221
-202.363	-200.000	-0.059	-0.299
-201.348	-200.000	0.021	0.101
-200.333	-169.908	-0.179	-0.006
-199.319	-200.000	0.039	-0.243
-198.304	-85.344	-0.412	-0.127
-197.290	73.102	0.121	-0.125
-196.275	-50.719	-0.088	0.041
-195.260	-98.768	0.198	-0.050
-194.246	608.588	-0.063	0.156
-193.231	-200.000	0.027	0.289
-192.217	-112.774	0.300	-0.059
-191.202	-118.166	-0.191	0.034
-190.187	-98.753	-0.433	-0.109
-189.173	161.856	0.056	-0.077
-188.158	-200.000	0.043	-0.205
-187.144	-178.427	0.352	-0.008
-186.129	728.327	0.134	0.353
-185.114	639.377	-0.011	0.027
-184.100	160.325	0.157	-0.216
-183.085	369.176	0.120	0.240
-182.071	-33.896	0.091	0.049
-181.056	-81.121	0.206	-0.067
-180.042	-31.541	-0.157	-0.087
-179.027	-19.887	-0.092	0.056
-178.012	161.393	0.137	-0.190
-176.998	-41.352	-0.222	-0.113
-175.983	-1.873	0.245	0.170
-174.969	-200.000	-0.035	-0.248
-173.954	-200.000	0.003	0.058
-172.939	800.000	0.023	0.080
-171.925	800.000	-0.043	0.121
-170.910	800.000	0.080	0.310
-169.896	800.000	0.031	0.088
-168.881	-49.161	0.209	0.099
-167.866	180.955	-0.063	-0.092
-166.852	800.000	-0.063	0.196
-165.837	257.199	-0.068	0.115
-164.823	144.573	-0.120	0.158
-163.808	-200.000	-0.001	0.044
-162.793	407.434	0.040	0.084
-161.779	-142.749	0.135	0.013
-160.764	-200.000	0.031	-0.232
-159.750	122.310	0.121	0.150
-158.735	3.486	0.461	0.331
-157.720	84.777	0.118	0.128
-156.706	-100.671	0.212	-0.052
-155.691	-67.690	-0.043	0.017
-154.677	800.000	0.058	-0.232
-153.662	800.000	0.042	-0.168
-152.647	-200.000	0.019	0.107
-151.633	376.191	0.110	0.222
-150.618	34.997	0.063	0.055
-149.604	174.258	0.128	0.182
-148.589	800.000	-0.049	0.196
-147.574	-146.271	-0.374	0.032
-146.560	-5.369	0.161	-0.109
-145.545	-200.000	-0.005	-0.146
-144.531	-101.198	0.230	-0.055
-143.516	-192.450	-0.366	-0.003
-142.502	294.190	-0.101	-0.182
-141.487	19.818	0.056	-0.045
-140.472	241.425	-0.042	-0.070
-139.458	-99.516	0.009	0.002
-138.443	-50.646	-0.654	-0.304
-137.429	-98.106	0.161	-0.041
-136.414	30.580	0.035	0.030
-135.399	800.000	0.027	0.093
-134.385	-64.655	0.375	-0.150
-133.370	-1.091	-0.291	0.203
-132.356	278.953	0.043	-0.076
-131.341	800.000	0.079	-0.253
-130.326	250.957	0.147	-0.247
-129.312	-176.509	0.296	-0.008
-128.297	486.064	0.120	0.271
-127.283	-158.303	-0.204	-0.012
-126.268	792.886	0.010	-0.028
-125.253	-72.453	0.214	-0.078
-124.239	-27.656	-0.382	0.219
-123.224	125.990	0.177	0.220
-122.210	-5.041	0.282	-0.191
-121.195	68.932	0.169	-0.171
