DTS Sentinel unit serial number:	SN413079Multiplexer serial number:	ORYXHardware model number:	OX4-SRSoftware version number:	ORYX F/W v4.00 Oryx Data Collector v3.7.2.0data status	okinstallation	princeton_trtdifferential loss correction	single-endedforward channel	channel 2reverse channel	N/Adate	2019/09/14time	12:11:35forward acquisition time	60.00reverse acquisition time	0.00gamma	496.2192k internal	0.2308k external	0.2308temperature offset calibration	1.0159default loss term (dB/km)	0.3790temperature slope calibration	1.0000multiplexer offset coefficient	1.0000multiplexer slope coefficient	1.0000fibre end	0.00T internal ref (°C)	37.56T ext. ref 1 (°C)	4.70T ext. ref 2 (°C)	33.28length (m)	temperature (°C)	Stokes	anti-Stokes-747.200	602.852	0.155	0.392
-746.185	-200.000	-0.061	0.361
-745.171	36.162	0.153	-0.137
-744.156	170.460	0.203	-0.296
-743.142	-200.000	0.033	0.187
-742.127	800.000	0.023	-0.072
-741.112	305.698	0.096	0.181
-740.098	723.739	0.101	0.272
-739.083	-87.005	0.079	0.024
-738.069	-110.913	0.115	0.024
-737.054	-184.833	0.137	0.002
-736.039	-110.651	-0.061	-0.013
-735.025	-105.534	-0.049	0.011
-734.010	-185.012	0.166	0.003
-732.996	177.307	0.049	-0.072
-731.981	-109.571	-0.138	-0.030
-730.966	2.445	-0.005	0.004
-729.952	-102.463	0.107	-0.026
-728.937	-30.241	-0.191	-0.110
-727.923	28.187	-0.120	0.103
-726.908	191.729	0.133	0.204
-725.894	800.000	0.015	-0.059
-724.879	-200.000	0.032	-0.452
-723.864	2.221	0.200	-0.147
-722.850	-48.274	-0.328	0.161
-721.835	559.802	-0.012	0.031
-720.821	161.714	-0.065	0.093
-719.806	-200.000	-0.001	0.118
-718.791	271.421	0.038	-0.068
-717.777	13.907	-0.176	0.139
-716.762	107.240	-0.141	0.170
-715.748	6.371	0.481	-0.363
-714.733	-200.000	0.007	-0.439
-713.718	-16.935	0.213	-0.137
-712.704	-92.050	-0.074	0.021
-711.689	82.349	-0.182	0.201
-710.675	78.700	-0.131	-0.142
-709.660	-90.986	0.051	-0.015
-708.645	337.604	-0.183	-0.361
-707.631	49.200	0.233	-0.222
-706.616	-13.882	-0.216	0.142
-705.602	-112.414	-0.064	0.013
-704.587	800.000	0.080	-0.350
-703.572	99.661	-0.213	-0.250
-702.558	-66.165	-0.174	0.071
-701.543	-128.629	-0.164	0.024
-700.529	-200.000	0.017	0.208
-699.514	800.000	-0.105	-0.462
-698.499	88.778	-0.054	-0.061
-697.485	-29.059	0.372	-0.217
-696.470	20.251	0.111	0.091
-695.456	-200.000	0.354	-0.001
-694.441	800.000	0.105	0.351
-693.426	-15.261	-0.318	0.207
-692.412	500.810	0.052	0.121
-691.397	265.723	-0.041	0.072
-690.383	10.350	-0.034	0.026
-689.368	30.526	-0.282	0.245
-688.354	-181.516	-0.233	-0.005
-687.339	-93.193	-0.385	0.109
-686.324	-25.316	0.218	0.131
-685.310	-200.000	-0.013	-0.114
-684.295	-200.000	-0.068	-0.400
-683.281	800.000	0.062	-0.218
-682.266	-128.669	-0.151	-0.022
-681.251	180.148	0.143	-0.212
-680.237	62.672	0.348	-0.353
-679.222	-76.728	0.251	-0.089
-678.208	-100.098	0.258	-0.065
-677.193	-43.485	0.167	-0.086
-676.178	-116.258	-0.052	-0.010
-675.164	-118.175	-0.116	0.021
-674.149	800.000	-0.049	0.203
-673.135	321.869	0.088	-0.170
-672.120	-200.000	-0.010	-0.337
-671.105	-200.000	-0.005	0.055
-670.091	-200.000	-0.009	0.095
-669.076	231.281	0.184	-0.306
-668.062	-58.279	-0.118	0.052
-667.047	800.000	-0.102	0.341
-666.032	-81.001	-0.258	0.087
-665.018	188.239	-0.102	-0.155
-664.003	-194.992	-0.361	0.003
-662.989	-102.757	0.217	-0.052
-661.974	-12.890	0.241	-0.159
-660.959	-200.000	0.002	0.107
-659.945	70.455	-0.032	0.034
-658.930	30.055	-0.119	0.103
-657.916	487.999	0.099	0.230
-656.901	-200.000	-0.431	0.001
-655.886	-18.651	-0.273	-0.172
-654.872	-14.019	0.408	-0.267
-653.857	-144.876	-0.145	0.013
-652.843	800.000	0.083	-0.264
-651.828	83.655	0.120	0.132
-650.814	130.036	0.106	0.138
-649.799	218.646	0.122	-0.198
-648.784	800.000	0.045	-0.193
-647.770	115.783	0.147	0.183
-646.755	67.403	0.093	-0.096
-645.741	-131.218	0.236	-0.032
-644.726	-96.994	-0.287	0.076
-643.711	-200.000	0.017	0.130
-642.697	-2.660	-0.293	-0.208
-641.682	584.936	-0.073	-0.183
-640.668	-52.684	0.329	0.154
-639.653	-59.717	-0.265	0.115
-638.638	-92.911	-0.055	0.016
-637.624	191.060	-0.110	0.167
-636.609	581.466	0.191	-0.473
-635.595	540.340	0.116	-0.279
-634.580	481.994	0.075	-0.173
-633.565	81.953	-0.127	-0.139
-632.551	327.264	-0.017	0.034
-631.536	-159.801	-0.267	-0.015
-630.522	298.811	-0.040	0.074
-629.507	800.000	-0.084	0.251
-628.492	93.935	0.165	0.189
-627.478	-125.407	-0.233	-0.036
-626.463	-92.400	0.071	0.020
-625.449	33.970	0.277	0.244
-624.434	-144.489	-0.128	0.012
-623.419	-78.575	0.443	0.153
-622.405	418.336	-0.195	0.421
-621.390	800.000	0.026	0.077
-620.376	800.000	-0.049	-0.163
-619.361	800.000	-0.088	-0.317
-618.346	-200.000	0.059	-0.330
-617.332	337.689	0.036	0.071
-616.317	240.958	-0.285	0.482
-615.303	442.439	-0.088	0.195
-614.288	-162.283	-0.091	0.005
-613.273	800.000	-0.045	-0.176
-612.259	-8.890	-0.097	0.066
-611.244	76.623	-0.019	0.021
-610.230	4.252	-0.065	0.048
-609.215	-155.104	-0.078	0.005
-608.201	-24.133	-0.326	0.197
-607.186	422.300	0.149	-0.323
-606.171	800.000	0.023	0.074
-605.157	-200.000	0.036	0.222
-604.142	253.467	-0.086	0.148
-603.128	315.028	0.033	0.063
-602.113	-153.144	0.360	-0.026
-601.098	260.779	0.117	0.204
-600.084	-93.306	-0.049	-0.014
-599.069	-200.000	0.000	-0.003
-598.055	-66.171	-0.134	-0.054
-597.040	78.151	-0.243	-0.262
-596.025	800.000	0.048	0.198
-595.011	122.647	0.043	0.054
-593.996	184.479	-0.100	-0.150
-592.982	382.811	-0.174	0.362
-591.967	-200.000	0.068	0.316
-590.952	145.560	0.058	0.079
-589.938	-200.000	-0.044	0.308
-588.923	-147.496	-0.288	0.025
-587.909	-90.371	-0.354	0.104
-586.894	-128.511	-0.501	-0.072
-585.879	-191.647	0.146	0.001
-584.865	164.599	-0.069	0.098
-583.850	73.091	-0.037	0.039
-582.836	-183.212	0.225	0.004
-581.821	-169.215	0.171	-0.006
-580.806	-200.000	-0.016	-0.135
-579.792	148.757	-0.111	-0.151
-578.777	-26.091	0.073	-0.043
-577.763	800.000	0.041	0.161
-576.748	-25.139	-0.253	-0.151
-575.733	-1.446	-0.160	0.114
-574.719	-180.869	0.559	-0.011
-573.704	-1.675	-0.221	-0.157
-572.690	207.303	0.174	0.274
-571.675	-147.485	0.071	0.006
-570.661	-110.130	-0.142	-0.030
-569.646	800.000	0.032	-0.096
-568.631	-200.000	0.039	-0.245
-567.617	-73.733	0.144	-0.053
-566.602	123.326	-0.113	0.143
-565.588	-153.127	-0.121	0.009
-564.573	-32.385	0.326	-0.183
-563.558	-200.000	0.000	0.082
-562.544	-72.807	0.258	-0.096
-561.529	-61.131	0.057	-0.024
-560.515	-139.765	0.209	0.022
-559.500	511.892	-0.083	-0.196
-558.485	-10.259	-0.067	-0.045
-557.471	-200.000	-0.009	-0.056
-556.456	-24.076	0.372	-0.225
-555.442	-121.115	-0.216	0.037
-554.427	800.000	0.037	0.107
-553.412	656.300	0.052	-0.135
-552.398	-157.634	0.118	0.007
-551.383	355.397	-0.064	-0.129
-550.369	-200.000	-0.056	-0.380
-549.354	-200.000	0.039	-0.178
-548.339	-37.337	-0.212	-0.114
-547.325	196.805	0.005	0.008
-546.310	-200.000	0.043	0.437
-545.296	-200.000	0.037	-0.239
-544.281	-46.177	-0.249	0.124
-543.266	-200.000	0.006	0.224
-542.252	-48.909	0.171	-0.083
-541.237	109.147	0.047	0.057
-540.223	-12.537	0.057	-0.038
-539.208	-200.000	-0.070	-0.390
-538.193	-184.333	-0.152	0.003
-537.179	3.404	0.136	-0.100
-536.164	135.385	0.117	-0.153
-535.150	412.283	0.066	-0.141
-534.135	-63.605	-0.261	0.108
-533.121	315.621	0.068	-0.129
-532.106	-200.000	0.039	-0.182
-531.091	-200.000	0.052	-0.284
-530.077	-138.437	-0.427	0.047
-529.062	115.150	-0.190	-0.234
-528.048	-200.000	0.016	0.492
-527.033	202.915	-0.102	-0.160
-526.018	461.355	0.118	-0.264
-525.004	141.322	0.091	-0.121
-523.989	-142.502	-0.135	0.013
-522.975	800.000	0.022	0.094
-521.960	-98.661	-0.080	0.021
-520.945	28.971	0.283	0.241
-519.931	-137.171	-0.115	-0.013
-518.916	800.000	0.093	0.337
-517.902	-8.052	-0.254	0.173
-516.887	-200.000	0.021	0.384
-515.872	-186.225	-0.273	0.004
-514.858	469.879	-0.046	-0.103
-513.843	12.398	-0.180	-0.139
-512.829	-48.950	-0.181	0.087
-511.814	-162.603	-0.236	0.012
-510.799	-200.000	-0.016	-0.122
-509.785	-110.342	0.056	-0.012
-508.770	-74.947	-0.503	-0.182
-507.756	-200.000	-0.006	0.035
-506.741	-200.000	-0.007	-0.040
-505.726	-15.113	-0.186	0.120
-504.712	-113.278	0.208	0.041
-503.697	-200.000	-0.010	-0.063
-502.683	800.000	-0.043	0.156
-501.668	-200.000	0.034	-0.289
-500.653	800.000	-0.089	-0.264
-499.639	-98.707	0.226	0.058
-498.624	800.000	-0.031	0.105
-497.610	105.720	0.053	-0.063
-496.595	800.000	0.057	0.228
-495.581	38.638	-0.101	-0.091
-494.566	112.298	0.211	-0.257
-493.551	-200.000	-0.047	-0.264
-492.537	-38.995	-0.204	-0.108
-491.522	800.000	0.075	-0.257
-490.508	246.328	0.038	-0.064
-489.493	-21.203	0.245	-0.151
-488.478	-110.229	0.108	-0.023
-487.464	63.703	0.008	-0.008
-486.449	-123.220	0.099	-0.016
-485.435	-200.000	0.056	-0.496
-484.420	3.059	-0.218	0.160
-483.405	-129.682	-0.073	0.010
-482.391	449.390	0.153	0.340
-481.376	33.599	0.125	0.109
-480.362	187.125	0.034	-0.050
-479.347	-12.664	0.235	0.154
-478.332	113.660	-0.071	-0.087
-477.318	-20.617	0.130	0.080
-476.303	-200.000	0.105	0.499
-475.289	767.992	0.138	-0.377
-474.274	-125.956	-0.126	-0.019
-473.259	178.630	-0.077	-0.113
-472.245	126.476	-0.164	-0.209
-471.230	-136.034	-0.293	-0.035
-470.216	-200.000	-0.010	0.203
-469.201	7.273	-0.117	0.088
-468.186	-137.475	-0.095	0.011
-467.172	-75.717	-0.214	0.077
-466.157	211.825	-0.112	0.178
-465.143	-200.000	0.008	-0.054
-464.128	90.795	0.136	-0.153
-463.113	47.683	-0.064	-0.060
-462.099	20.303	0.235	-0.191
-461.084	254.050	-0.067	0.114
-460.070	800.000	0.041	0.148
-459.055	25.952	0.103	0.087
-458.040	144.220	-0.131	-0.175
-457.026	62.522	0.116	0.116
-456.011	-3.645	-0.114	-0.079
-454.997	-200.000	0.019	-0.174
-453.982	106.780	-0.046	-0.055
-452.968	-95.709	0.214	0.058
-451.953	-162.769	-0.325	0.016
-450.938	-140.696	-0.335	-0.035
-449.924	-108.637	-0.151	-0.032
-448.909	373.610	-0.010	0.020
-447.895	-102.708	-0.257	0.062
-446.880	-38.872	0.353	0.187
-445.865	-200.000	-0.015	0.097
-444.851	-200.000	-0.017	0.117
-443.836	-7.172	-0.122	0.083
-442.822	-200.000	-0.032	0.264
-441.807	578.885	-0.042	-0.104
-440.792	405.290	-0.242	-0.512
-439.778	-200.000	-0.184	-0.000
-438.763	25.423	0.256	0.214
-437.749	800.000	0.018	0.056
-436.734	-133.087	0.071	0.009
-435.719	-116.823	0.472	-0.087
-434.705	50.038	0.129	-0.122
-433.690	169.430	0.110	-0.158
-432.676	-140.705	-0.097	-0.010
-431.661	-99.693	0.314	0.079
-430.646	-38.394	0.381	-0.202
-429.632	138.146	0.163	0.214
-428.617	-200.000	-0.043	-0.354
-427.603	-200.000	-0.046	-0.218
-426.588	800.000	-0.036	0.120
-425.573	81.896	0.283	-0.308
-424.559	72.918	0.191	-0.200
-423.544	26.772	0.049	-0.042
-422.530	-116.839	-0.365	0.067
-421.515	-111.246	-0.134	-0.028
-420.500	-200.000	0.023	0.281
-419.486	-156.901	-0.082	0.005
-418.471	-200.000	0.033	0.346
-417.457	800.000	-0.049	-0.176
-416.442	-98.581	-0.360	0.092
-415.428	800.000	0.047	-0.167
-414.413	546.870	0.107	-0.256
-413.398	-115.144	0.090	0.017
-412.384	-68.096	0.272	0.106
-411.369	-200.000	0.043	0.279
-410.355	800.000	-0.121	0.507
-409.340	354.486	0.235	0.469
-408.325	289.990	-0.051	-0.092
-407.311	800.000	0.030	-0.119
-406.296	-200.000	0.012	-0.253
-405.282	800.000	0.080	0.308
-404.267	152.447	0.078	-0.106
-403.252	800.000	0.114	0.326
-402.238	-200.000	0.014	-0.190
-401.223	173.321	-0.048	0.070
-400.209	-33.413	-0.080	0.045
-399.194	-60.918	-0.124	-0.053
-398.179	321.159	-0.083	0.158
-397.165	96.423	0.100	0.115
-396.150	56.605	-0.169	0.165
-395.136	43.769	-0.011	0.010
-394.121	-86.656	-0.335	0.103
-393.106	60.029	0.048	-0.047
-392.092	-124.177	-0.070	0.011
-391.077	407.885	0.047	-0.099
-390.063	96.772	0.107	0.123
-389.048	44.987	0.053	0.049
-388.033	177.957	-0.047	0.068
-387.019	-200.000	-0.029	-0.208
-386.004	80.781	-0.080	-0.086
-384.990	44.776	-0.019	-0.017
-383.975	0.072	0.029	0.021
-382.960	308.100	0.123	0.229
-381.946	134.258	0.142	-0.184
-380.931	-19.037	-0.193	0.120
-379.917	-145.290	-0.278	0.025
-378.902	-148.211	0.447	-0.037
-377.888	-10.310	0.395	0.262
-376.873	15.235	0.094	0.074
-375.858	216.983	0.148	0.236
-374.844	-137.723	-0.267	0.030
-373.829	392.946	0.086	0.179
-372.815	-97.712	-0.119	0.031
-371.800	-42.934	-0.132	0.067
-370.785	12.117	0.341	0.263
-369.771	652.370	-0.087	-0.223
-368.756	-200.000	-0.043	0.000
-367.742	-200.000	-0.038	-0.218
-366.727	-171.908	-0.414	-0.014
-365.712	39.072	0.301	0.269
-364.698	-200.000	0.058	-0.467
-363.683	-200.000	-0.017	0.212
-362.669	-56.794	-0.067	-0.030
-361.654	-200.000	0.014	-0.171
-360.639	216.137	0.021	-0.034
-359.625	-87.974	-0.097	-0.029
-358.610	800.000	0.045	0.130
-357.596	129.323	0.033	0.042
-356.581	-200.000	-0.032	0.176
-355.566	-92.308	-0.069	0.020
-354.552	800.000	0.027	0.105
-353.537	-88.866	-0.234	0.069
-352.523	117.531	-0.039	0.048
-351.508	800.000	-0.066	-0.183
-350.493	506.737	0.038	0.087
-349.479	800.000	0.065	-0.188
-348.464	134.162	0.212	-0.275
-347.450	800.000	-0.072	-0.234
-346.435	-200.000	0.002	-0.273
-345.420	-200.000	0.006	0.113
-344.406	-73.441	-0.113	0.041
-343.391	800.000	-0.075	-0.279
-342.377	85.234	-0.133	-0.146
-341.362	-35.099	0.248	-0.135
-340.348	800.000	0.023	-0.076
-339.333	15.034	-0.061	0.048
-338.318	-70.071	0.400	0.152
-337.304	275.998	-0.097	0.172
-336.289	-81.447	0.222	-0.073
-335.275	-58.907	-0.341	0.148
-334.260	151.308	0.162	-0.220
-333.245	-111.597	0.423	0.086
-332.231	338.914	-0.063	-0.122
-331.216	800.000	0.101	0.400
-330.202	546.856	-0.094	0.224
-329.187	-56.261	0.192	-0.086
-328.172	-0.276	0.085	-0.060
-327.158	-100.933	-0.238	0.059
-326.143	800.000	0.100	-0.333
-325.129	112.147	0.272	0.328
-324.114	27.471	-0.266	0.224
-323.099	797.237	-0.059	0.162
-322.085	213.105	-0.231	0.365
-321.070	-99.377	0.325	-0.082
-320.056	-102.044	-0.147	0.035
-319.041	4.273	-0.085	-0.062
-318.026	86.073	0.135	0.149
-317.012	197.838	0.102	-0.155
-315.997	37.219	-0.160	-0.142
-314.983	717.552	0.073	0.194
-313.968	-151.666	0.268	-0.020
-312.953	-6.142	0.071	-0.048
-311.939	-113.628	0.222	0.043
-310.924	-147.922	0.137	-0.011
-309.910	-200.000	-0.023	-0.168
-308.895	-30.100	-0.266	-0.151
-307.880	25.039	-0.304	0.252
-306.866	-83.394	-0.060	0.019
-305.851	-25.127	0.205	0.121
-304.837	-62.142	0.299	-0.125
-303.822	800.000	0.048	-0.187
-302.807	61.847	0.239	-0.238
-301.793	800.000	-0.057	0.186
-300.778	-119.584	0.232	0.040
-299.764	263.518	0.144	-0.249
-298.749	7.444	-0.235	-0.176
-297.735	-143.077	-0.251	-0.024
-296.720	800.000	0.039	-0.136
-295.705	800.000	0.070	-0.219
-294.691	504.377	-0.136	-0.314
-293.676	800.000	0.017	0.074
-292.662	-130.145	0.159	0.022
-291.647	258.588	0.064	-0.111
-290.632	-200.000	0.006	0.030
-289.618	300.947	-0.082	-0.152
-288.603	-109.981	0.595	0.124
-287.589	-123.998	0.155	0.024
-286.574	11.790	-0.044	0.034
-285.559	126.172	0.139	0.176
-284.545	-200.000	-0.017	-0.275
-283.530	12.065	-0.231	0.178
-282.516	-106.507	0.148	0.033
-281.501	-54.434	-0.087	-0.039
-280.486	-200.000	0.014	0.121
-279.472	-200.000	-0.060	0.293
-278.457	-31.497	0.003	0.002
-277.443	-39.654	0.287	-0.150
-276.428	186.335	0.093	-0.138
-275.413	-200.000	0.019	-0.277
-274.399	-200.000	0.030	0.194
-273.384	-83.613	0.184	0.059
-272.370	-200.000	0.035	0.360
-271.355	115.558	0.285	-0.348
-270.340	-200.000	0.013	0.131
-269.326	-121.495	0.190	-0.031
-268.311	-43.957	0.117	-0.059
-267.297	-161.360	0.239	-0.012
-266.282	-112.547	0.083	0.017
-265.267	206.430	0.118	-0.183
-264.253	347.292	-0.168	-0.331
-263.238	-200.000	-0.014	-0.133
-262.224	-129.574	-0.138	0.019
-261.209	638.404	-0.079	-0.201
-260.195	173.681	0.072	-0.103
-259.180	389.196	0.096	-0.199
-258.165	382.817	-0.101	0.207
-257.151	-200.000	-0.012	-0.112
-256.136	-164.015	0.246	0.011
-255.122	776.720	0.068	-0.185
-254.107	150.236	-0.159	-0.215
-253.092	-200.000	0.004	0.138
-252.078	-102.890	-0.240	-0.057
-251.063	471.949	0.053	0.118
-250.049	-200.000	-0.029	-0.228
-249.034	-121.697	-0.194	-0.032
-248.019	-75.203	0.301	0.107
-247.005	-200.000	-0.013	-0.235
-245.990	127.599	-0.135	0.172
-244.976	-44.093	-0.350	0.175
-243.961	-200.000	0.040	0.199
-242.946	-200.000	-0.002	0.211
-241.932	181.324	-0.127	0.187
-240.917	-30.563	-0.216	0.122
-239.903	174.303	-0.115	-0.165
-238.888	482.080	0.119	-0.270
-237.873	78.584	-0.196	-0.209
-236.859	153.206	0.057	0.078
-235.844	251.314	0.111	0.188
-234.830	-96.113	-0.155	0.041
-233.815	800.000	-0.072	-0.279
-232.800	-122.497	0.187	0.030
-231.786	468.913	-0.066	0.148
-230.771	-200.000	0.097	0.498
-229.757	-0.199	-0.213	0.151
-228.742	101.319	-0.117	0.135
-227.727	-200.000	0.022	-0.119
-226.713	800.000	0.023	-0.088
-225.698	-200.000	-0.076	-0.399
-224.684	319.747	0.089	-0.168
-223.669	-200.000	0.037	0.187
-222.655	800.000	-0.025	0.084
-221.640	-36.941	0.267	0.142
-220.625	-41.518	0.254	-0.130
-219.611	-91.320	0.271	-0.077
-218.596	-200.000	-0.044	0.471
-217.582	-13.077	0.116	0.075
-216.567	-122.945	-0.262	0.042
-215.552	-200.000	0.090	-0.417
-214.538	422.205	0.016	0.034
-213.523	50.650	0.140	-0.132
-212.509	-151.921	-0.108	-0.008
-211.494	800.000	-0.082	0.226
-210.479	76.123	0.143	0.151
-209.465	-94.438	-0.111	-0.030
-208.450	800.000	-0.021	-0.088
-207.436	-141.487	0.050	-0.005
-206.421	-8.713	-0.191	0.128
-205.406	-111.619	-0.474	0.096
-204.392	-32.934	0.154	0.085
-203.377	-200.000	-0.064	0.288
-202.363	552.888	-0.069	-0.166
-201.348	-72.448	0.048	0.017
-200.333	775.667	0.137	0.374
-199.319	-53.950	-0.203	0.092
-198.304	-17.238	0.055	0.034
-197.290	142.461	0.101	-0.133
-196.275	233.770	-0.080	0.131
-195.260	121.761	-0.177	0.219
-194.246	3.430	0.189	-0.137
-193.231	-102.918	-0.334	-0.079
-192.217	800.000	-0.078	-0.308
-191.202	198.423	0.053	-0.081
-190.187	-43.211	0.174	0.088
-189.173	-78.023	-0.362	-0.124
-188.158	800.000	-0.028	-0.118
-187.144	-1.764	0.335	-0.234
-186.129	7.651	-0.237	0.177
-185.114	657.064	-0.061	0.155
-184.100	81.736	0.256	-0.275
-183.085	-100.855	-0.370	0.091
-182.071	74.323	-0.347	0.363
-181.056	-200.000	0.023	-0.215
-180.042	340.616	-0.073	0.142
-179.027	-102.408	0.098	-0.023
-178.012	-102.282	-0.239	-0.057
-176.998	-134.354	-0.182	0.022
-175.983	283.450	-0.248	0.443
-174.969	367.012	-0.151	0.303
-173.954	2.800	0.247	-0.178
-172.939	-67.750	0.170	0.066
-171.925	-91.601	0.110	-0.031
-170.910	271.247	0.055	-0.097
-169.896	-200.000	0.007	-0.181
-168.881	-200.000	-0.054	0.350
-167.866	-200.000	-0.021	0.124
-166.852	-200.000	-0.010	0.200
-165.837	-200.000	-0.021	-0.339
-164.823	-65.200	-0.074	-0.030
-163.808	627.392	0.007	-0.017
-162.793	-13.513	0.261	-0.168
-161.779	451.746	0.052	-0.115
-160.764	-138.819	-0.163	-0.018
-159.750	-80.752	0.105	-0.035
-158.735	-146.613	0.176	-0.015
-157.720	-200.000	0.043	-0.246
-156.706	-115.348	0.343	0.064
-155.691	128.628	-0.065	-0.082
-154.677	571.463	-0.158	0.383
-153.662	-76.619	-0.126	0.044
-152.647	-48.274	0.104	-0.050
-151.633	352.657	-0.015	0.029
-150.618	-24.697	-0.193	0.114
-149.604	-53.246	0.310	-0.141
-148.589	198.766	-0.167	-0.254
-147.574	158.681	-0.106	-0.147
-146.560	93.516	0.165	-0.186
-145.545	273.687	-0.080	0.140
-144.531	49.009	-0.296	-0.276
-143.516	-17.521	0.253	-0.158
-142.502	-9.980	0.316	0.209
-141.487	-102.896	0.207	-0.049
-140.472	-73.811	0.141	-0.051
-139.458	-147.171	-0.257	0.022
-138.443	560.074	0.158	0.380
-137.429	67.568	-0.053	0.054
-136.414	-200.000	-0.032	0.367
-135.399	-5.460	0.199	-0.135
-134.385	237.978	-0.096	-0.159
-133.370	-98.140	0.073	-0.019
-132.356	125.568	0.102	-0.128
-131.341	-200.000	-0.032	-0.504
-130.326	19.492	-0.207	0.165
-129.312	205.827	0.041	-0.064
-128.297	569.579	-0.042	-0.102
-127.283	-102.991	-0.189	-0.045
-126.268	69.454	0.134	0.136
-125.253	800.000	0.036	-0.127
-124.239	273.169	-0.055	-0.097
-123.224	-200.000	0.001	0.182
-122.210	78.879	0.265	0.281
