DTS Sentinel unit serial number:	SN413079Multiplexer serial number:	ORYXHardware model number:	OX4-SRSoftware version number:	ORYX F/W v4.00 Oryx Data Collector v3.7.2.0data status	okinstallation	princeton_trtdifferential loss correction	single-endedforward channel	channel 2reverse channel	N/Adate	2019/09/15time	05:19:35forward acquisition time	60.00reverse acquisition time	0.00gamma	496.2192k internal	0.2327k external	0.2327temperature offset calibration	1.0032default loss term (dB/km)	0.3790temperature slope calibration	1.0000multiplexer offset coefficient	1.0000multiplexer slope coefficient	1.0000fibre end	0.00T internal ref (°C)	30.62T ext. ref 1 (°C)	4.80T ext. ref 2 (°C)	25.55length (m)	temperature (°C)	Stokes	anti-Stokes-747.200	-200.000	-0.013	0.085
-746.185	262.307	0.114	0.199
-745.171	-62.543	0.126	-0.053
-744.156	395.937	0.144	0.303
-743.142	39.236	-0.091	-0.082
-742.127	-83.662	-0.201	0.065
-741.112	-37.284	-0.166	-0.089
-740.098	-148.501	-0.138	0.011
-739.083	49.790	0.153	-0.145
-738.069	423.955	0.107	0.233
-737.054	-200.000	-0.005	-0.068
-736.039	-30.250	-0.215	-0.123
-735.025	800.000	0.014	0.060
-734.010	-80.736	0.085	-0.028
-732.996	-108.279	0.186	0.040
-731.981	-131.843	-0.567	-0.075
-730.966	-143.630	-0.090	-0.009
-729.952	-15.192	-0.071	-0.046
-728.937	-123.023	-0.239	0.039
-727.923	-89.717	-0.549	-0.162
-726.908	-200.000	0.049	0.258
-725.894	8.032	-0.249	-0.188
-724.879	-23.039	-0.113	0.069
-723.864	-200.000	-0.048	-0.226
-722.850	-200.000	0.019	0.127
-721.835	-63.130	-0.440	0.183
-720.821	114.972	-0.111	0.136
-719.806	800.000	-0.055	0.233
-718.791	719.702	-0.064	0.170
-717.777	-200.000	0.022	0.239
-716.762	-200.000	-0.013	0.063
-715.748	573.699	-0.147	-0.362
-714.733	-5.248	0.255	-0.176
-713.718	-200.000	-0.015	0.166
-712.704	195.463	0.096	0.147
-711.689	-69.962	-0.282	0.108
-710.675	65.382	0.212	0.216
-709.660	-106.917	-0.557	-0.124
-708.645	-200.000	0.005	-0.258
-707.631	-200.000	-0.027	-0.200
-706.616	228.348	-0.126	0.206
-705.602	-82.027	0.255	-0.084
-704.587	-25.095	-0.425	-0.254
-703.572	-200.000	-0.001	0.183
-702.558	23.836	0.205	0.170
-701.543	80.853	-0.080	0.087
-700.529	374.215	-0.080	0.164
-699.514	-1.319	-0.152	0.108
-698.499	800.000	-0.044	-0.166
-697.485	-109.019	0.095	0.020
-696.470	-165.521	-0.334	-0.015
-695.456	-17.555	-0.165	-0.104
-694.441	-200.000	-0.008	-0.126
-693.426	-200.000	0.028	-0.178
-692.412	-135.531	-0.101	-0.012
-691.397	-38.159	-0.210	-0.112
-690.383	8.597	-0.168	-0.127
-689.368	800.000	0.063	0.199
-688.354	-66.673	0.237	0.094
-687.339	15.290	0.141	0.111
-686.324	-120.407	0.250	0.043
-685.310	-112.039	-0.180	-0.037
-684.295	-50.480	0.313	0.149
-683.281	-162.881	-0.124	0.006
-682.266	271.608	-0.098	-0.173
-681.251	21.617	0.157	-0.128
-680.237	27.999	-0.170	0.144
-679.222	670.308	-0.157	-0.409
-678.208	-87.909	-0.128	-0.039
-677.193	-200.000	-0.052	-0.242
-676.178	-88.506	0.194	-0.058
-675.164	-125.268	0.087	-0.013
-674.149	-200.000	-0.006	0.207
-673.135	-152.808	-0.254	-0.018
-672.120	149.837	0.060	0.082
-671.105	154.510	-0.081	-0.112
-670.091	219.240	-0.067	0.108
-669.076	162.980	-0.074	-0.105
-668.062	101.242	-0.073	-0.086
-667.047	-200.000	0.022	-0.180
-666.032	54.553	0.221	-0.214
-665.018	-200.000	-0.020	-0.202
-664.003	-160.907	-0.219	0.012
-662.989	37.403	0.295	0.263
-661.974	-41.378	-0.506	0.262
-660.959	-200.000	-0.037	-0.176
-659.945	-200.000	-0.025	-0.230
-658.930	-200.000	0.024	-0.205
-657.916	253.331	-0.156	0.267
-656.901	-103.162	-0.254	-0.060
-655.886	-88.753	0.244	-0.073
-654.872	35.052	0.069	-0.060
-653.857	-163.876	0.398	-0.019
-652.843	-29.324	-0.180	-0.104
-651.828	-118.055	-0.364	0.065
-650.814	-124.180	0.208	0.033
-649.799	-200.000	-0.011	-0.269
-648.784	-54.699	-0.221	-0.100
-647.770	-102.115	-0.280	0.068
-646.755	-200.000	-0.018	0.168
-645.741	-200.000	0.015	-0.286
-644.726	347.099	0.063	0.125
-643.711	321.256	-0.099	0.190
-642.697	-181.012	-0.337	0.007
-641.682	59.832	-0.137	-0.136
-640.668	-200.000	-0.043	-0.281
-639.653	20.081	-0.240	-0.194
-638.638	56.912	0.100	-0.098
-637.624	282.854	-0.109	0.197
-636.609	14.557	-0.334	-0.262
-635.595	-43.977	0.041	-0.021
-634.580	74.546	-0.138	-0.146
-633.565	-156.050	0.164	0.010
-632.551	-200.000	0.004	0.265
-631.536	-97.836	-0.194	0.050
-630.522	-164.394	0.149	-0.007
-629.507	254.707	0.159	0.273
-628.492	-111.865	-0.123	0.025
-627.478	-75.633	-0.140	-0.050
-626.463	86.026	-0.079	-0.088
-625.449	25.866	-0.021	0.017
-624.434	77.296	-0.186	0.199
-623.419	-97.181	-0.424	0.111
-622.405	-77.360	0.076	0.027
-621.390	381.177	-0.150	0.310
-620.376	37.203	-0.159	0.141
-619.361	-98.063	-0.163	-0.042
-618.346	-2.141	0.170	0.119
-617.332	659.713	0.114	-0.293
-616.317	-88.707	0.281	0.084
-615.303	-52.935	-0.384	-0.177
-614.288	-127.458	-0.165	-0.024
-613.273	84.548	0.236	0.259
-612.259	-200.000	0.039	-0.290
-611.244	33.700	0.067	0.059
-610.230	-61.263	0.327	-0.138
-609.215	-200.000	-0.004	-0.026
-608.201	44.514	0.100	0.092
-607.186	-200.000	0.034	0.157
-606.171	-200.000	-0.029	-0.244
-605.157	433.723	-0.130	-0.284
-604.142	-66.079	0.263	0.105
-603.128	57.662	0.063	-0.062
-602.113	-174.482	0.051	0.001
-601.098	-102.758	0.217	-0.052
-600.084	-2.463	-0.072	0.050
-599.069	-162.212	-0.071	-0.004
-598.055	-52.020	-0.101	0.047
-597.040	31.908	-0.165	0.142
-596.025	-95.538	-0.216	-0.058
-595.011	1.385	-0.143	0.103
-593.996	-200.000	0.003	0.098
-592.982	10.128	-0.215	-0.164
-591.967	-11.927	0.155	-0.102
-590.952	157.920	0.143	0.199
-589.938	-21.135	0.122	-0.075
-588.923	106.627	-0.177	0.210
-587.909	3.540	0.077	-0.057
-586.894	-24.764	-0.180	0.107
-585.879	-121.981	0.020	-0.003
-584.865	-200.000	-0.052	0.235
-583.850	164.124	-0.215	0.303
-582.836	217.474	-0.089	-0.142
-581.821	-101.994	-0.209	-0.050
-580.806	800.000	-0.052	0.215
-579.792	-98.271	0.240	-0.062
-578.777	-113.540	0.080	0.016
-577.763	800.000	-0.105	-0.417
-576.748	157.524	-0.116	-0.161
-575.733	-82.180	-0.215	-0.070
-574.719	78.666	-0.080	-0.085
-573.704	141.687	0.243	0.323
-572.690	-120.079	-0.019	0.003
-571.675	207.031	-0.128	-0.199
-570.661	387.168	-0.120	-0.248
-569.646	-81.849	-0.081	0.027
-568.631	800.000	-0.094	-0.267
-567.617	20.124	0.149	-0.120
-566.602	-200.000	-0.010	0.050
-565.588	-200.000	0.014	0.181
-564.573	-64.175	-0.129	0.053
-563.558	-142.680	-0.294	0.029
-562.544	-146.566	0.199	-0.017
-561.529	35.293	-0.029	0.025
-560.515	-200.000	0.035	0.229
-559.500	800.000	0.036	0.103
-558.485	152.010	-0.097	-0.133
-557.471	-200.000	-0.053	-0.239
-556.456	-124.668	0.299	-0.046
-555.442	-91.846	0.089	-0.025
-554.427	-59.987	0.287	-0.123
-553.412	800.000	0.063	-0.241
-552.398	800.000	0.020	-0.069
-551.383	234.520	0.086	-0.141
-550.369	244.319	-0.134	-0.224
-549.354	20.585	-0.254	-0.206
-548.339	800.000	-0.046	-0.134
-547.325	213.212	-0.104	-0.164
-546.310	49.354	-0.184	-0.173
-545.296	317.780	-0.288	-0.544
-544.281	369.980	0.165	-0.334
-543.266	49.822	0.242	0.228
-542.252	186.277	0.221	0.329
-541.237	-200.000	-0.002	0.310
-540.223	-200.000	0.031	-0.189
-539.208	-93.737	-0.083	0.023
-538.193	-121.006	0.172	-0.029
-537.179	67.872	-0.123	-0.126
-536.164	-107.452	-0.621	0.136
-535.150	800.000	-0.060	0.207
-534.135	298.011	0.095	0.174
-533.121	438.083	0.122	0.265
-532.106	800.000	-0.032	0.092
-531.091	-44.757	0.092	-0.046
-530.077	-125.059	-0.106	0.016
-529.062	4.947	0.264	-0.194
-528.048	88.421	-0.224	-0.249
-527.033	218.556	0.102	-0.163
-526.018	-68.276	-0.134	0.052
-525.004	-34.880	0.177	-0.097
-523.989	-67.661	0.115	-0.045
-522.975	-200.000	0.021	-0.305
-521.960	134.103	-0.123	-0.160
-520.945	-200.000	-0.001	-0.093
-519.931	24.118	0.181	-0.149
-518.916	57.518	-0.174	0.169
-517.902	86.813	0.327	0.361
-516.887	419.970	0.074	0.159
-515.872	128.827	-0.209	-0.267
-514.858	-90.954	0.310	-0.089
-513.843	-13.713	-0.122	0.079
-512.829	-73.857	0.321	0.116
-511.814	258.496	-0.178	0.306
-510.799	142.138	-0.091	0.121
-509.785	-25.039	-0.180	-0.107
-508.770	-91.877	-0.102	-0.029
-507.756	-200.000	0.040	-0.192
-506.741	233.558	-0.043	-0.071
-505.726	531.024	0.071	0.168
-504.712	13.511	-0.063	-0.049
-503.697	449.333	0.080	-0.175
-502.683	-92.621	0.118	-0.033
-501.668	-103.483	0.280	-0.066
-500.653	-200.000	-0.024	0.162
-499.639	800.000	-0.092	0.353
-498.624	77.720	0.123	0.131
-497.610	-74.404	0.192	0.069
-496.595	37.048	-0.174	0.154
-495.581	-200.000	0.006	0.035
-494.566	92.283	0.066	-0.074
-493.551	34.447	0.089	0.078
-492.537	-82.911	-0.275	0.089
-491.522	711.593	0.086	-0.227
-490.508	800.000	0.069	0.212
-489.493	331.699	-0.125	0.240
-488.478	-35.071	0.364	0.198
-487.464	238.932	0.106	0.175
-486.449	-200.000	0.032	-0.157
-485.435	86.247	0.143	-0.157
-484.420	-1.579	0.181	-0.128
-483.405	-5.072	0.197	0.135
-482.391	800.000	-0.057	0.246
-481.376	-133.906	-0.085	0.011
-480.362	517.062	0.081	-0.188
-479.347	-200.000	0.000	0.064
-478.332	800.000	0.039	-0.145
-477.318	800.000	-0.020	0.063
-476.303	416.742	0.135	0.288
-475.289	219.125	-0.031	0.049
-474.274	48.686	0.233	-0.218
-473.259	27.336	-0.062	0.052
-472.245	263.179	-0.065	0.112
-471.230	-48.627	0.285	0.137
-470.216	22.354	0.249	0.203
-469.201	-200.000	-0.009	-0.047
-468.186	137.100	0.074	-0.097
-467.172	500.027	-0.044	0.101
-466.157	-119.826	-0.162	0.028
-465.143	800.000	-0.052	0.206
-464.128	-67.908	-0.210	-0.082
-463.113	313.370	0.124	-0.233
-462.099	-200.000	0.327	0.002
-461.084	21.822	0.321	0.261
-460.070	-100.956	-0.176	-0.043
-459.055	237.965	0.265	-0.438
-458.040	-200.000	-0.011	-0.128
-457.026	179.348	-0.172	-0.250
-456.011	-64.404	-0.089	-0.036
-454.997	119.658	0.131	0.162
-453.982	800.000	-0.096	-0.342
-452.968	-8.229	0.047	-0.032
-451.953	-58.181	-0.091	-0.040
-450.938	218.977	0.134	0.213
-449.924	-123.909	0.292	0.046
-448.909	185.688	0.216	0.320
-447.895	-50.038	-0.118	-0.056
-446.880	15.696	-0.345	-0.270
-445.865	-35.406	0.066	0.036
-444.851	-130.698	-0.189	-0.025
-443.836	-200.000	-0.006	-0.084
-442.822	-87.753	0.122	-0.037
-441.807	54.829	-0.147	-0.142
-440.792	-195.351	0.242	0.002
-439.778	24.474	-0.210	0.173
-438.763	582.344	0.084	0.204
-437.749	252.448	0.184	-0.313
-436.734	273.297	-0.099	0.174
-435.719	98.469	-0.189	-0.217
-434.705	-122.980	0.201	-0.032
-433.690	399.754	-0.081	0.170
-432.676	363.380	-0.125	-0.250
-431.661	-137.348	0.133	-0.015
-430.646	-4.140	0.107	-0.074
-429.632	148.487	0.174	-0.234
-428.617	78.814	0.144	-0.153
-427.603	800.000	-0.037	0.115
-426.588	257.082	0.161	-0.276
-425.573	309.117	0.218	-0.405
-424.559	-1.919	-0.264	-0.185
-423.544	401.777	-0.129	-0.270
-422.530	-200.000	-0.016	0.089
-421.515	-174.318	-0.192	-0.006
-420.500	40.477	-0.187	0.168
-419.486	228.941	-0.045	0.073
-418.471	-23.511	0.216	0.129
-417.457	800.000	0.076	0.287
-416.442	-200.000	0.060	0.264
-415.428	20.041	-0.178	-0.143
-414.413	800.000	-0.080	-0.300
-413.398	-57.403	0.089	0.039
-412.384	191.730	-0.043	0.065
-411.369	-200.000	0.051	0.221
-410.355	19.209	0.084	-0.067
-409.340	-123.585	0.142	0.023
-408.325	672.993	0.019	0.050
-407.311	-113.194	-0.076	-0.015
-406.296	17.050	0.367	0.289
-405.282	-119.359	0.137	-0.024
-404.267	352.704	-0.046	0.092
-403.252	-37.018	0.114	0.061
-402.238	-1.592	0.203	0.142
-401.223	253.362	0.201	0.341
-400.209	-79.778	-0.343	-0.115
-399.194	29.189	-0.151	-0.127
-398.179	-74.316	0.166	-0.060
-397.165	243.012	0.015	-0.025
-396.150	-63.222	0.312	-0.128
-395.136	-8.146	-0.251	-0.168
-394.121	-63.679	-0.246	0.100
-393.106	-133.959	-0.226	-0.028
-392.092	795.422	0.043	-0.118
-391.077	-105.390	-0.430	0.097
-390.063	-84.224	-0.253	-0.080
-389.048	-33.468	-0.079	-0.044
-388.033	-182.022	0.054	-0.001
-387.019	-200.000	-0.008	0.327
-386.004	-173.205	-0.234	-0.007
-384.990	-200.000	0.008	-0.080
-383.975	96.913	0.126	0.144
-382.960	16.048	0.131	-0.103
-381.946	-43.283	0.222	0.112
-380.931	-155.606	-0.055	0.004
-379.917	-200.000	-0.041	0.355
-378.902	-117.105	0.072	0.013
-377.888	128.362	0.042	-0.053
-376.873	-183.341	0.344	-0.006
-375.858	-118.522	-0.104	0.018
-374.844	-93.777	0.048	-0.013
-373.829	202.876	-0.085	-0.130
-372.815	-200.000	-0.024	-0.189
-371.800	-200.000	-0.033	-0.281
-370.785	33.415	-0.197	0.170
-369.771	-12.032	-0.302	-0.196
-368.756	-200.000	0.012	-0.213
-367.742	-57.085	0.406	-0.178
-366.727	574.542	0.020	-0.048
-365.712	326.868	-0.127	-0.243
-364.698	-123.272	-0.151	-0.024
-363.683	-200.000	0.034	0.155
-362.669	-122.473	-0.142	-0.023
-361.654	720.107	0.135	-0.356
-360.639	-134.001	0.425	0.052
-359.625	-200.000	-0.040	0.224
-358.610	-54.746	0.174	-0.078
-357.596	475.874	0.253	-0.567
-356.581	306.877	-0.160	-0.296
-355.566	49.777	-0.213	-0.199
-354.552	-102.805	-0.174	0.041
-353.537	234.068	-0.110	0.179
-352.523	48.426	-0.100	-0.093
-351.508	-97.861	0.320	-0.082
-350.493	800.000	0.051	-0.196
-349.479	-68.618	0.204	-0.079
-348.464	263.521	0.067	0.115
-347.450	118.808	0.128	0.156
-346.435	123.915	-0.115	-0.144
-345.420	284.882	-0.106	0.190
-344.406	101.709	0.164	0.190
-343.391	-200.000	-0.037	-0.211
-342.377	-75.416	-0.025	0.009
-341.362	285.824	-0.096	0.172
-340.348	-200.000	-0.054	-0.377
-339.333	-138.622	0.035	-0.004
-338.318	-200.000	-0.002	-0.053
-337.304	-47.882	0.165	-0.079
-336.289	194.753	-0.089	0.134
-335.275	-200.000	0.043	0.331
-334.260	-200.000	-0.066	0.467
-333.245	-78.074	-0.421	0.144
-332.231	38.319	-0.225	0.199
-331.216	-17.134	0.171	0.107
-330.202	-6.536	0.347	0.234
-329.187	-96.585	-0.063	-0.017
-328.172	184.426	-0.021	-0.030
-327.158	-31.281	0.096	-0.053
-326.143	-182.670	0.108	-0.002
-325.129	-27.471	-0.119	0.069
-324.114	246.126	-0.063	0.105
-323.099	-103.149	0.221	-0.052
-322.085	-108.500	-0.103	0.022
-321.070	-200.000	0.027	-0.136
-320.056	135.454	0.044	0.057
-319.041	-81.314	-0.350	0.115
-318.026	-86.715	-0.195	0.059
-317.012	94.689	0.327	0.368
-315.997	-78.331	-0.180	0.061
-314.983	800.000	0.137	0.381
-313.968	-118.145	0.120	-0.021
-312.953	800.000	-0.044	0.180
-311.939	800.000	0.137	0.435
-310.924	-13.093	0.097	-0.063
-309.910	206.460	0.210	0.324
-308.895	-105.467	-0.089	0.020
-307.880	16.395	-0.186	0.145
-306.866	-147.532	-0.330	0.028
-305.851	732.099	0.033	0.087
-304.837	398.931	-0.005	0.010
-303.822	-200.000	0.019	0.096
-302.807	213.871	0.110	0.173
-301.793	-72.246	0.098	0.036
-300.778	-200.000	-0.032	-0.427
-299.764	2.483	-0.212	0.152
-298.749	304.698	-0.071	-0.130
-297.735	-168.552	-0.236	-0.009
-296.720	13.550	0.097	-0.075
-295.705	-47.988	-0.249	-0.119
-294.691	-76.873	0.070	-0.024
-293.676	800.000	0.067	-0.207
-292.662	-200.000	-0.010	-0.237
-291.647	-86.123	0.208	0.064
-290.632	-200.000	0.051	0.248
-289.618	-127.488	-0.208	-0.030
-288.603	800.000	0.041	-0.128
-287.589	800.000	0.059	-0.170
-286.574	-59.797	0.153	0.065
-285.559	-35.323	-0.046	-0.025
-284.545	800.000	-0.126	0.357
-283.530	-153.601	0.172	-0.012
-282.516	-140.558	0.340	0.035
-281.501	-14.540	-0.261	0.166
-280.486	-29.458	0.087	0.049
-279.472	-132.638	-0.448	0.057
-278.457	-200.000	-0.067	0.332
-277.443	-94.867	0.296	0.079
-276.428	603.184	-0.092	0.227
-275.413	142.366	-0.315	0.414
-274.399	90.355	-0.302	-0.334
-273.384	5.436	0.094	0.068
-272.370	-146.371	-0.062	-0.005
-271.355	-200.000	0.043	-0.209
-270.340	-48.779	-0.385	-0.183
-269.326	-200.000	-0.005	0.132
-268.311	-200.000	-0.002	0.171
-267.297	422.473	-0.131	-0.279
-266.282	192.774	0.235	0.351
-265.267	137.333	0.108	-0.140
-264.253	82.407	-0.105	0.113
-263.238	-88.300	0.213	0.063
-262.224	-54.370	0.035	-0.016
-261.209	-200.000	-0.007	0.113
-260.195	292.038	-0.106	0.191
-259.180	89.656	0.211	0.233
-258.165	6.424	0.166	0.122
-257.151	-199.676	-0.358	-0.002
-256.136	-88.005	0.128	-0.038
-255.122	800.000	0.031	-0.111
-254.107	-134.849	-0.070	-0.008
-253.092	256.184	0.058	0.098
-252.078	800.000	-0.023	-0.066
-251.063	-200.000	-0.009	0.129
-250.049	-76.697	-0.178	-0.062
-249.034	-200.000	-0.050	-0.345
-248.019	-111.328	0.371	-0.075
-247.005	190.908	0.063	-0.093
-245.990	265.200	-0.093	0.160
-244.976	-177.926	0.212	0.005
-243.961	-75.566	0.263	0.092
-242.946	704.382	-0.079	0.205
-241.932	460.198	0.085	-0.188
-240.917	-107.025	0.191	0.042
-239.903	124.670	-0.067	-0.084
-238.888	101.662	-0.105	-0.121
-237.873	572.579	0.133	-0.320
-236.859	781.090	0.124	0.335
-235.844	-119.425	0.228	-0.039
-234.830	107.629	0.161	0.190
-233.815	-200.000	0.050	0.231
-232.800	27.427	-0.136	-0.113
-231.786	-200.000	-0.026	0.155
-230.771	-158.423	-0.130	-0.007
-229.757	9.170	-0.067	0.050
-228.742	60.072	-0.092	0.090
-227.727	-200.000	0.001	-0.175
-226.713	-11.337	0.203	0.132
-225.698	-46.540	0.176	-0.085
-224.684	-28.027	0.206	-0.118
-223.669	800.000	0.090	0.273
-222.655	-55.805	0.423	-0.187
-221.640	78.562	-0.252	-0.266
-220.625	-68.095	0.296	-0.114
-219.611	-200.000	-0.080	0.355
-218.596	-200.000	-0.035	0.174
-217.582	-200.000	-0.118	-0.513
-216.567	-86.056	0.049	-0.015
-215.552	128.765	-0.089	-0.112
-214.538	433.083	-0.160	0.342
-213.523	-89.324	0.357	-0.104
-212.509	-58.982	0.173	0.074
-211.494	800.000	0.065	0.252
-210.479	-44.634	0.189	0.093
-209.465	-200.000	0.037	0.202
-208.450	-25.264	-0.116	0.068
-207.436	127.190	0.118	0.148
-206.421	-13.488	-0.063	0.040
-205.406	800.000	-0.061	0.200
-204.392	-85.616	-0.206	-0.063
-203.377	23.480	0.076	-0.062
-202.363	-200.000	0.038	-0.212
-201.348	-128.814	-0.237	-0.033
-200.333	800.000	-0.034	-0.134
-199.319	-200.000	0.006	0.133
-198.304	-200.000	0.026	0.121
-197.290	-105.828	0.235	-0.052
-196.275	2.512	-0.234	-0.168
-195.260	-200.000	-0.033	-0.317
-194.246	-200.000	0.047	-0.256
-193.231	800.000	0.016	-0.069
-192.217	19.079	0.259	0.205
-191.202	-200.000	-0.022	-0.173
-190.187	-153.873	0.338	0.023
-189.173	-183.018	-0.362	-0.006
-188.158	4.888	-0.188	0.136
-187.144	-114.898	-0.070	0.013
-186.129	-77.378	-0.216	0.074
-185.114	456.021	-0.058	-0.126
-184.100	-200.000	-0.027	0.173
-183.085	53.384	-0.237	-0.224
-182.071	-132.910	0.243	-0.031
-181.056	146.703	0.117	0.156
-180.042	-96.736	-0.296	-0.077
-179.027	-150.712	0.050	0.004
-178.012	-98.339	-0.025	0.006
-176.998	-52.736	0.128	0.058
-175.983	-78.272	-0.141	0.048
-174.969	67.126	0.134	-0.135
-173.954	41.043	-0.192	0.171
-172.939	-41.573	0.060	-0.030
-171.925	-61.671	0.219	0.090
-170.910	-200.000	-0.006	-0.180
-169.896	-28.082	0.198	-0.113
-168.881	800.000	-0.064	-0.227
-167.866	-200.000	-0.023	0.101
-166.852	-200.000	-0.032	0.170
-165.837	-52.726	-0.124	0.056
-164.823	800.000	-0.032	-0.129
-163.808	-97.656	-0.078	-0.020
-162.793	-200.000	-0.013	-0.249
-161.779	-200.000	-0.038	-0.463
-160.764	-17.519	-0.053	-0.033
-159.750	29.587	-0.131	-0.110
-158.735	281.101	-0.233	0.410
-157.720	44.072	0.207	-0.187
-156.706	16.012	-0.191	-0.149
-155.691	-43.759	-0.179	-0.089
-154.677	13.655	0.267	-0.204
-153.662	800.000	0.057	0.233
-152.647	74.501	-0.051	0.053
-151.633	-27.462	0.086	0.049
-150.618	-200.000	-0.021	-0.483
-149.604	86.319	0.122	0.132
-148.589	-60.189	0.348	-0.146
-147.574	-4.399	0.157	0.107
-146.560	453.111	0.071	0.154
-145.545	697.660	-0.051	0.133
-144.531	133.349	-0.324	0.412
-143.516	-36.484	0.132	-0.070
-142.502	-93.768	0.140	0.038
-141.487	-77.417	-0.185	-0.063
-140.472	90.530	-0.049	-0.054
-139.458	277.628	-0.127	-0.222
-138.443	3.742	-0.452	-0.325
-137.429	19.310	-0.132	0.105
-136.414	-39.095	0.082	-0.042
-135.399	101.800	0.201	-0.231
-134.385	403.286	-0.155	0.320
-133.370	323.956	-0.193	0.363
-132.356	-200.000	0.012	-0.259
-131.341	279.593	0.119	-0.210
-130.326	-83.603	0.279	-0.088
-129.312	800.000	0.038	-0.125
-128.297	-4.168	0.164	0.112
-127.283	-59.459	-0.121	0.051
-126.268	-57.058	0.220	0.096
-125.253	-200.000	0.003	-0.115
-124.239	53.387	-0.202	-0.190
-123.224	-23.384	0.090	0.053
-122.210	695.469	-0.061	-0.158
