DTS Sentinel unit serial number:	SN413079Multiplexer serial number:	ORYXHardware model number:	OX4-SRSoftware version number:	ORYX F/W v4.00 Oryx Data Collector v3.7.2.0data status	okinstallation	princeton_trtdifferential loss correction	single-endedforward channel	channel 2reverse channel	N/Adate	2019/09/14time	00:55:35forward acquisition time	60.00reverse acquisition time	0.00gamma	496.2192k internal	0.2338k external	0.2338temperature offset calibration	1.0128default loss term (dB/km)	0.3790temperature slope calibration	1.0000multiplexer offset coefficient	1.0000multiplexer slope coefficient	1.0000fibre end	0.00T internal ref (°C)	26.37T ext. ref 1 (°C)	3.18T ext. ref 2 (°C)	21.28length (m)	temperature (°C)	Stokes	anti-Stokes-747.200	610.424	0.089	0.224
-746.185	363.855	-0.079	0.160
-745.171	22.146	-0.132	0.108
-744.156	-93.832	-0.050	0.014
-743.142	399.657	-0.045	0.095
-742.127	-200.000	-0.076	0.440
-741.112	800.000	0.072	-0.201
-740.098	-60.569	0.115	0.049
-739.083	800.000	0.075	0.265
-738.069	-200.000	0.090	0.479
-737.054	135.787	0.133	0.173
-736.039	-24.475	-0.270	-0.161
-735.025	-37.325	0.173	-0.093
-734.010	-40.020	0.051	-0.027
-732.996	-32.879	-0.107	-0.060
-731.981	-102.922	-0.375	-0.089
-730.966	149.905	0.204	-0.277
-729.952	800.000	-0.084	-0.318
-728.937	6.859	-0.010	0.008
-727.923	312.059	-0.090	-0.170
-726.908	-185.963	0.078	0.001
-725.894	-200.000	-0.026	0.184
-724.879	-149.771	0.202	-0.016
-723.864	151.789	0.041	-0.057
-722.850	-163.053	0.019	-0.001
-721.835	-200.000	0.068	-0.310
-720.821	281.366	-0.083	0.149
-719.806	474.926	-0.032	-0.072
-718.791	133.315	-0.062	-0.081
-717.777	-200.000	-0.008	-0.063
-716.762	326.317	-0.093	-0.178
-715.748	-173.605	-0.226	-0.007
-714.733	-133.089	-0.388	0.049
-713.718	-200.000	0.008	-0.163
-712.704	192.712	-0.170	-0.257
-711.689	-200.000	-0.025	-0.179
-710.675	-126.566	0.385	0.057
-709.660	-200.000	-0.044	0.318
-708.645	364.070	-0.081	0.163
-707.631	628.550	0.191	-0.485
-706.616	492.996	-0.249	-0.573
-705.602	-125.527	0.277	-0.042
-704.587	115.247	0.263	-0.322
-703.572	-141.905	0.346	0.035
-702.558	-200.000	0.010	-0.291
-701.543	563.139	0.118	0.285
-700.529	-200.000	-0.012	-0.183
-699.514	332.370	0.045	0.087
-698.499	372.152	0.092	0.188
-697.485	491.522	0.060	0.137
-696.470	-88.845	-0.156	-0.046
-695.456	21.732	-0.286	0.233
-694.441	-200.000	-0.014	-0.132
-693.426	-128.941	-0.322	-0.045
-692.412	-50.207	-0.081	-0.038
-691.397	123.395	-0.208	-0.261
-690.383	585.391	0.152	0.374
-689.368	60.587	0.081	0.081
-688.354	-112.558	-0.296	0.059
-687.339	30.836	0.099	-0.085
-686.324	278.932	0.107	-0.191
-685.310	800.000	-0.037	0.132
-684.295	2.731	-0.201	-0.146
-683.281	-82.792	-0.269	-0.087
-682.266	237.974	0.026	-0.043
-681.251	-107.470	0.265	0.058
-680.237	-41.219	-0.181	-0.093
-679.222	213.031	-0.100	0.158
-678.208	-65.658	-0.137	0.055
-677.193	127.854	-0.041	-0.052
-676.178	54.164	-0.064	0.061
-675.164	-132.410	0.058	-0.008
-674.149	-72.597	0.167	0.062
-673.135	-62.071	0.178	0.074
-672.120	9.663	0.218	0.166
-671.105	-200.000	0.025	-0.150
-670.091	24.991	-0.290	-0.241
-669.076	385.212	-0.228	-0.471
-668.062	40.976	-0.081	0.073
-667.047	-200.000	-0.024	0.205
-666.032	-200.000	0.023	-0.187
-665.018	111.138	-0.146	0.176
-664.003	-86.928	-0.127	0.039
-662.989	-3.189	0.202	0.141
-661.974	-200.000	-0.094	-0.427
-660.959	-131.664	0.124	-0.016
-659.945	-135.794	0.389	-0.046
-658.930	-97.588	-0.041	0.011
-657.916	800.000	0.101	-0.318
-656.901	-200.000	-0.046	-0.471
-655.886	-200.000	0.020	0.149
-654.872	-200.000	-0.026	0.203
-653.857	296.409	-0.101	-0.185
-652.843	-200.000	0.038	-0.231
-651.828	-200.000	-0.033	-0.169
-650.814	-53.656	-0.197	-0.090
-649.799	0.329	0.301	-0.215
-648.784	-200.000	0.019	-0.156
-647.770	54.566	-0.288	-0.277
-646.755	-103.692	0.401	0.094
-645.741	-200.000	-0.015	0.154
-644.726	-51.596	-0.275	-0.128
-643.711	-200.000	0.001	0.021
-642.697	-200.000	-0.073	-0.389
-641.682	-43.087	-0.291	0.147
-640.668	69.432	-0.169	0.174
-639.653	760.004	-0.012	0.034
-638.638	-86.892	-0.195	0.060
-637.624	-138.260	0.369	0.041
-636.609	18.938	-0.099	-0.079
-635.595	-105.545	0.069	-0.016
-634.580	-200.000	-0.056	0.340
-633.565	-113.420	-0.288	0.056
-632.551	382.143	0.025	0.051
-631.536	-119.186	0.070	0.012
-630.522	-59.392	-0.138	-0.059
-629.507	-200.000	-0.059	-0.786
-628.492	634.538	0.023	0.057
-627.478	-173.529	0.320	0.010
-626.463	-92.751	-0.039	-0.011
-625.449	-117.310	0.203	-0.037
-624.434	250.428	0.116	0.196
-623.419	-200.000	0.246	0.001
-622.405	-19.905	0.231	-0.142
-621.390	800.000	0.038	-0.154
-620.376	-44.031	0.258	-0.129
-619.361	-97.670	-0.167	0.043
-618.346	219.693	-0.185	0.295
-617.332	-200.000	-0.001	0.081
-616.317	-2.106	-0.207	0.145
-615.303	-132.356	-0.047	0.006
-614.288	800.000	-0.077	0.265
-613.273	-14.670	-0.094	-0.060
-612.259	-87.741	-0.205	-0.062
-611.244	261.823	0.152	-0.264
-610.230	-148.965	0.211	0.017
-609.215	-102.340	-0.131	0.031
-608.201	249.984	-0.020	0.033
-607.186	-131.034	0.061	-0.008
-606.171	212.721	-0.169	-0.266
-605.157	-103.530	-0.212	0.050
-604.142	-58.986	-0.211	0.091
-603.128	102.746	-0.035	0.040
-602.113	-56.928	0.267	-0.118
-601.098	-15.838	-0.183	-0.116
-600.084	496.705	-0.140	-0.322
-599.069	480.493	0.178	-0.403
-598.055	-200.000	-0.019	-0.293
-597.040	-103.443	-0.439	0.103
-596.025	88.187	-0.273	-0.303
-595.011	-200.000	-0.013	-0.321
-593.996	14.368	0.174	-0.136
-592.982	219.448	-0.102	-0.163
-591.967	-30.540	0.118	0.067
-590.952	-174.831	-0.133	-0.004
-589.938	20.643	-0.064	0.052
-588.923	800.000	0.129	0.358
-587.909	-200.000	0.056	-0.364
-586.894	263.272	-0.027	-0.046
-585.879	150.918	0.087	0.118
-584.865	800.000	-0.083	-0.229
-583.850	179.318	-0.241	-0.352
-582.836	-200.000	-0.038	0.207
-581.821	-35.894	-0.141	-0.076
-580.806	96.945	0.116	-0.133
-579.792	-115.640	0.080	-0.015
-578.777	800.000	-0.002	-0.007
-577.763	173.871	-0.190	-0.273
-576.748	110.389	-0.101	0.121
-575.733	370.836	-0.087	0.176
-574.719	-29.005	-0.236	0.135
-573.704	-86.044	0.131	-0.040
-572.690	-70.676	0.279	0.105
-571.675	-5.928	0.169	-0.115
-570.661	800.000	0.070	0.282
-569.646	627.747	0.031	0.077
-568.631	-86.777	0.065	0.020
-567.617	21.415	0.204	0.165
-566.602	264.807	-0.109	-0.190
-565.588	800.000	0.013	0.045
-564.573	-200.000	-0.022	-0.259
-563.558	-42.474	-0.188	-0.096
-562.544	-200.000	0.014	0.352
-561.529	-200.000	0.002	0.330
-560.515	162.694	-0.278	0.389
-559.500	-90.338	0.222	-0.064
-558.485	17.222	0.345	-0.272
-557.471	4.222	0.352	-0.257
-556.456	800.000	-0.047	0.170
-555.442	-200.000	-0.003	-0.043
-554.427	109.856	-0.040	0.048
-553.412	-200.000	-0.043	0.265
-552.398	-77.097	-0.312	-0.108
-551.383	-119.262	0.262	-0.046
-550.369	-55.417	0.188	-0.084
-549.354	-29.774	-0.074	0.042
-548.339	-26.170	0.174	-0.102
-547.325	355.116	0.161	0.318
-546.310	800.000	0.105	-0.297
-545.296	439.481	-0.143	-0.311
-544.281	-114.529	-0.032	0.006
-543.266	-12.411	0.179	-0.117
-542.252	-200.000	-0.003	-0.171
-541.237	-1.755	0.165	-0.116
-540.223	-34.884	-0.156	-0.085
-539.208	800.000	0.023	-0.093
-538.193	-28.288	-0.137	0.079
-537.179	-38.799	0.238	0.125
-536.164	-74.120	0.240	0.086
-535.150	782.001	-0.009	0.025
-534.135	546.899	-0.133	0.316
-533.121	-104.695	0.306	-0.070
-532.106	-200.000	-0.002	-0.163
-531.091	-75.344	0.131	0.046
-530.077	-44.843	-0.103	-0.051
-529.062	46.865	0.540	0.499
-528.048	800.000	-0.064	-0.219
-527.033	800.000	-0.062	0.266
-526.018	-119.690	0.147	-0.025
-525.004	8.433	0.068	0.051
-523.989	-200.000	0.021	0.131
-522.975	-124.126	0.204	0.032
-521.960	436.887	0.136	0.295
-520.945	-127.901	-0.362	-0.052
-519.931	-151.007	0.332	0.025
-518.916	-200.000	0.060	0.307
-517.902	-124.334	0.246	0.038
-516.887	457.743	0.102	-0.226
-515.872	629.584	0.109	-0.274
-514.858	800.000	0.082	-0.347
-513.843	10.346	-0.097	0.073
-512.829	143.233	0.171	0.227
-511.814	-63.024	0.153	0.063
-510.799	121.305	-0.203	0.252
-509.785	-11.042	0.103	0.067
-508.770	-200.000	-0.019	-0.094
-507.756	-28.905	-0.201	0.115
-506.741	-200.000	0.007	0.262
-505.726	-22.460	0.018	-0.011
-504.712	182.849	0.148	0.217
-503.697	99.353	-0.137	-0.158
-502.683	-200.000	-0.060	-0.366
-501.668	-73.816	-0.086	0.031
-500.653	221.562	-0.174	-0.278
-499.639	477.493	0.098	0.221
-498.624	-200.000	-0.045	-0.283
-497.610	739.462	-0.130	0.347
-496.595	800.000	0.036	-0.141
-495.581	-200.000	-0.062	0.308
-494.566	-94.714	0.208	-0.056
-493.551	-195.590	0.229	-0.002
-492.537	-15.104	0.193	-0.123
-491.522	77.266	-0.203	0.214
-490.508	0.685	0.194	-0.138
-489.493	-111.827	0.131	0.026
-488.478	-200.000	-0.041	-0.351
-487.464	800.000	-0.075	0.253
-486.449	-49.027	-0.203	-0.096
-485.435	-60.715	-0.311	-0.131
-484.420	101.604	-0.263	0.305
-483.405	302.635	-0.172	-0.316
-482.391	-36.979	-0.150	-0.080
-481.376	-200.000	-0.012	-0.066
-480.362	494.419	0.035	0.080
-479.347	-12.912	0.152	0.098
-478.332	750.226	0.087	0.234
-477.318	108.051	0.113	-0.134
-476.303	-132.268	0.217	0.028
-475.289	-200.000	-0.021	-0.287
-474.274	800.000	0.019	0.071
-473.259	-128.494	0.216	0.030
-472.245	-77.390	-0.425	-0.146
-471.230	-200.000	-0.016	-0.092
-470.216	-200.000	-0.012	-0.264
-469.201	-200.000	-0.002	0.040
-468.186	-124.179	-0.099	-0.015
-467.172	-144.273	0.333	0.031
-466.157	174.111	-0.130	-0.186
-465.143	171.255	-0.169	0.241
-464.128	124.747	-0.057	-0.072
-463.113	-134.427	-0.261	0.032
-462.099	-132.918	0.261	0.033
-461.084	74.983	-0.116	-0.121
-460.070	-200.000	-0.095	0.445
-459.055	-4.918	0.218	-0.149
-458.040	60.658	-0.236	-0.232
-457.026	-67.500	0.111	-0.043
-456.011	48.834	-0.076	0.070
-454.997	-51.982	0.247	0.114
-453.982	-35.212	-0.235	0.127
-452.968	95.323	0.099	0.112
-451.953	24.722	-0.161	-0.132
-450.938	432.345	-0.116	-0.251
-449.924	-13.458	0.262	-0.169
-448.909	800.000	-0.028	-0.096
-447.895	443.390	0.121	0.263
-446.880	-200.000	0.017	0.173
-445.865	-200.000	0.032	0.316
-444.851	-200.000	0.110	-0.717
-443.836	-6.311	-0.082	-0.055
-442.822	-32.015	-0.129	-0.072
-441.807	-84.315	0.514	-0.161
-440.792	300.199	0.233	-0.426
-439.778	-130.324	-0.134	0.018
-438.763	800.000	-0.015	-0.046
-437.749	-116.495	-0.282	-0.052
-436.734	-67.753	0.122	-0.047
-435.719	336.006	0.097	0.187
-434.705	311.412	0.130	-0.241
-433.690	800.000	-0.042	-0.129
-432.676	-137.604	0.213	-0.024
-431.661	28.907	0.085	-0.072
-430.646	-200.000	-0.139	0.000
-429.632	222.240	0.150	0.240
-428.617	-200.000	0.100	-0.517
-427.603	800.000	-0.086	0.288
-426.588	-120.925	-0.088	0.015
-425.573	800.000	-0.055	0.150
-424.559	53.609	0.344	0.327
-423.544	337.028	0.155	0.299
-422.530	131.194	0.059	0.075
-421.515	-153.749	-0.243	0.017
-420.500	362.169	-0.095	0.189
-419.486	-93.736	0.231	-0.063
-418.471	-55.876	-0.183	0.081
-417.457	291.555	0.034	0.061
-416.442	-124.452	0.222	0.034
-415.428	32.101	-0.040	-0.034
-414.413	-200.000	0.044	0.309
-413.398	-83.498	0.412	-0.131
-412.384	-128.835	-0.186	-0.026
-411.369	-128.648	0.387	0.054
-410.355	205.888	-0.063	0.098
-409.340	-147.025	0.424	-0.036
-408.325	798.726	0.156	-0.425
-407.311	305.199	-0.041	-0.075
-406.296	130.510	-0.101	-0.128
-405.282	55.802	-0.086	0.082
-404.267	-200.000	-0.015	-0.115
-403.252	437.719	-0.110	0.237
-402.238	104.686	0.113	0.131
-401.223	800.000	-0.072	-0.198
-400.209	147.830	-0.165	0.221
-399.194	-142.735	-0.421	-0.041
-398.179	-83.015	-0.212	-0.068
-397.165	40.887	-0.038	-0.034
-396.150	800.000	0.096	0.293
-395.136	155.593	0.058	-0.079
-394.121	705.235	-0.031	-0.081
-393.106	514.222	0.097	-0.223
-392.092	150.046	-0.240	0.322
-391.077	-200.000	-0.022	-0.251
-390.063	156.111	0.100	-0.136
-389.048	-200.000	-0.024	0.185
-388.033	284.009	0.119	-0.212
-387.019	-85.246	0.266	0.082
-386.004	250.575	0.142	0.239
-384.990	77.924	0.145	0.153
-383.975	-57.393	-0.092	0.040
-382.960	-200.000	-0.010	0.143
-381.946	587.112	-0.166	0.405
-380.931	-84.305	0.179	0.056
-379.917	-200.000	-0.063	0.299
-378.902	-145.439	0.167	0.015
-377.888	-126.685	-0.240	0.035
-376.873	800.000	-0.081	-0.268
-375.858	-117.685	-0.126	-0.022
-374.844	338.683	-0.071	0.137
-373.829	-91.864	0.069	0.019
-372.815	52.900	0.075	0.071
-371.800	-102.575	-0.124	-0.029
-370.785	790.094	-0.124	0.338
-369.771	800.000	-0.023	0.088
-368.756	-140.317	0.191	0.020
-367.742	134.440	0.067	0.085
-366.727	-47.830	0.054	0.026
-365.712	-200.000	0.001	-0.006
-364.698	107.036	-0.074	-0.086
-363.683	-36.214	-0.299	0.159
-362.669	238.470	0.077	-0.126
-361.654	-45.433	0.124	0.061
-360.639	-66.274	0.101	0.040
-359.625	296.806	0.110	0.200
-358.610	147.605	-0.121	-0.162
-357.596	31.743	0.107	0.091
-356.581	-58.967	-0.283	0.121
-355.566	-176.705	0.111	0.003
-354.552	128.367	0.147	-0.185
-353.537	180.331	-0.116	0.168
-352.523	638.817	0.018	0.046
-351.508	-171.645	-0.074	-0.002
-350.493	53.530	0.111	-0.105
-349.479	-50.361	-0.101	-0.047
-348.464	409.075	0.037	0.077
-347.450	-46.260	0.151	0.073
-346.435	-200.000	-0.017	0.148
-345.420	-200.000	-0.099	0.490
-344.406	-200.000	-0.080	0.463
-343.391	-200.000	-0.040	-0.229
-342.377	74.326	-0.046	0.048
-341.362	286.782	0.155	0.277
-340.348	-18.868	0.224	0.138
-339.333	-200.000	0.045	-0.232
-338.318	57.367	-0.115	-0.111
-337.304	800.000	0.096	-0.398
-336.289	593.166	0.111	-0.272
-335.275	-200.000	-0.008	-0.099
-334.260	714.507	0.013	0.033
-333.245	-200.000	0.060	-0.458
-332.231	15.380	-0.099	-0.076
-331.216	800.000	0.043	-0.125
-330.202	101.154	-0.142	-0.163
-329.187	-2.970	-0.259	0.179
-328.172	-77.504	0.141	0.048
-327.158	30.734	-0.176	-0.149
-326.143	800.000	0.045	0.169
-325.129	176.531	0.087	0.124
-324.114	252.328	-0.082	0.138
-323.099	215.659	-0.056	0.087
-322.085	664.696	-0.121	-0.307
-321.070	422.580	0.240	0.510
-320.056	-191.461	0.146	-0.001
-319.041	26.769	-0.096	-0.080
-318.026	-56.261	-0.154	0.068
-317.012	-49.224	-0.164	0.077
-315.997	89.338	0.121	0.133
-314.983	163.070	-0.165	0.229
-313.968	-11.917	-0.128	0.083
-312.953	-200.000	-0.022	0.167
-311.939	-79.146	-0.100	0.034
-310.924	135.139	0.127	-0.163
-309.910	-200.000	-0.088	-0.398
-308.895	203.498	-0.170	-0.260
-307.880	-200.000	0.001	0.125
-306.866	-83.738	0.228	0.072
-305.851	800.000	-0.064	0.256
-304.837	11.485	-0.173	0.131
-303.822	800.000	0.055	0.171
-302.807	-21.889	0.166	0.100
-301.793	147.365	-0.052	0.070
-300.778	307.533	0.123	-0.227
-299.764	800.000	-0.042	-0.127
-298.749	-92.636	-0.194	-0.054
-297.735	-200.000	-0.021	-0.192
-296.720	-49.740	0.254	-0.119
-295.705	114.083	-0.180	-0.215
-294.691	-25.616	0.151	-0.088
-293.676	319.605	-0.091	-0.171
-292.662	583.266	-0.082	0.198
-291.647	-15.393	0.116	0.073
-290.632	800.000	-0.098	-0.318
-289.618	800.000	-0.069	0.209
-288.603	-200.000	-0.000	-0.185
-287.589	169.006	0.166	0.234
-286.574	-65.175	0.093	0.037
-285.559	-9.674	-0.186	0.122
-284.545	-197.022	0.306	-0.002
-283.530	132.780	0.104	-0.132
-282.516	-44.996	-0.043	-0.021
-281.501	-72.707	0.099	0.036
-280.486	36.062	-0.161	0.140
-279.472	256.221	-0.073	0.123
-278.457	370.318	-0.149	-0.297
-277.443	-200.000	-0.005	0.192
-276.428	-59.212	0.218	0.092
-275.413	-168.300	0.290	0.011
-274.399	800.000	-0.087	0.302
-273.384	-63.423	-0.141	0.057
-272.370	253.465	0.026	0.044
-271.355	-41.858	0.172	0.087
-270.340	70.243	0.067	-0.068
-269.326	-43.631	-0.404	-0.201
-268.311	-165.495	0.211	-0.009
-267.297	-200.000	0.002	-0.072
-266.282	800.000	-0.086	-0.244
-265.267	49.400	-0.092	-0.085
-264.253	-169.213	-0.195	0.007
-263.238	-200.000	-0.031	0.210
-262.224	-192.984	0.137	-0.001
-261.209	-61.706	-0.214	-0.088
-260.195	-200.000	0.029	0.153
-259.180	-97.329	0.246	-0.063
-258.165	80.765	-0.030	-0.032
-257.151	-135.139	0.200	-0.024
-256.136	-200.000	0.001	-0.138
-255.122	-100.316	0.305	0.075
-254.107	273.177	0.077	0.134
-253.092	196.856	-0.290	-0.435
-252.078	-110.457	0.137	-0.028
-251.063	131.701	-0.173	0.219
-250.049	-200.000	-0.018	-0.133
-249.034	189.495	-0.358	-0.527
-248.019	800.000	0.018	-0.063
-247.005	-175.806	-0.243	0.006
-245.990	185.787	0.105	0.154
-244.976	49.871	0.180	0.167
-243.961	800.000	0.054	-0.185
-242.946	40.112	-0.252	-0.223
-241.932	-200.000	0.044	0.289
-240.917	-113.635	-0.220	-0.042
-239.903	21.192	-0.240	-0.192
-238.888	-200.000	-0.030	-0.191
-237.873	36.446	0.092	-0.080
-236.859	800.000	-0.058	0.158
-235.844	583.565	-0.062	-0.151
-234.830	-126.177	-0.316	0.046
-233.815	800.000	0.045	-0.134
-232.800	125.166	-0.018	0.023
-231.786	-123.529	0.161	0.025
-230.771	-200.000	0.003	0.044
-229.757	-119.358	0.275	-0.047
-228.742	800.000	-0.035	0.110
-227.727	417.085	-0.074	-0.155
-226.713	-200.000	0.031	-0.178
-225.698	-200.000	-0.043	0.207
-224.684	-32.067	0.547	0.301
-223.669	183.050	-0.189	0.274
-222.655	40.474	-0.216	0.192
-221.640	127.181	-0.227	-0.283
-220.625	800.000	-0.079	0.219
-219.611	-47.991	0.115	-0.054
-218.596	-200.000	-0.012	0.308
-217.582	77.116	-0.257	0.268
-216.567	-0.387	-0.389	-0.272
-215.552	138.500	0.061	-0.079
-214.538	20.729	-0.160	0.127
-213.523	800.000	0.085	0.268
-212.509	66.298	-0.181	0.181
-211.494	800.000	-0.053	-0.184
-210.479	-75.458	-0.210	0.073
-209.465	265.168	0.014	-0.024
-208.450	-85.125	-0.213	-0.065
-207.436	205.803	0.133	0.203
-206.421	288.868	-0.072	0.128
-205.406	-80.792	-0.235	0.077
-204.392	72.192	0.104	-0.106
-203.377	-81.345	-0.216	0.070
-202.363	53.522	-0.200	-0.188
-201.348	-200.000	-0.017	-0.247
-200.333	-23.823	-0.230	-0.135
-199.319	292.162	0.185	0.331
-198.304	-129.066	-0.317	-0.044
-197.290	-85.464	0.090	-0.027
-196.275	306.955	-0.141	0.257
-195.260	-200.000	0.037	0.213
-194.246	279.371	-0.034	-0.060
-193.231	-171.241	-0.098	0.003
-192.217	-117.736	0.076	0.013
-191.202	236.920	-0.167	0.272
-190.187	660.448	0.115	-0.291
-189.173	38.801	-0.196	0.172
-188.158	15.533	0.408	-0.315
-187.144	-128.154	0.208	-0.029
-186.129	254.871	0.194	0.326
-185.114	800.000	0.072	0.206
-184.100	800.000	-0.060	0.242
-183.085	-69.208	-0.284	-0.107
-182.071	-177.121	0.265	-0.006
-181.056	-200.000	-0.058	0.298
-180.042	-20.359	-0.199	0.120
-179.027	-200.000	0.010	-0.163
-178.012	69.204	-0.045	0.046
-176.998	-137.347	0.172	0.019
-175.983	-33.181	0.154	-0.084
-174.969	464.373	-0.086	0.188
-173.954	800.000	-0.065	-0.198
-172.939	-200.000	-0.005	-0.164
-171.925	-200.000	0.011	-0.281
-170.910	-165.692	0.084	-0.004
-169.896	37.952	0.179	-0.156
-168.881	-12.975	-0.211	0.135
-167.866	21.656	-0.053	-0.042
-166.852	116.174	-0.113	-0.136
-165.837	-8.115	-0.081	-0.054
-164.823	-191.709	0.155	-0.002
-163.808	239.531	0.153	-0.250
-162.793	-13.337	-0.169	-0.107
-161.779	-12.690	-0.115	0.073
-160.764	367.739	-0.026	-0.052
-159.750	506.103	-0.176	0.401
-158.735	41.811	-0.183	0.163
-157.720	197.367	0.053	-0.080
-156.706	275.867	0.173	-0.301
-155.691	-71.893	0.170	0.062
-154.677	340.114	0.074	-0.141
-153.662	-86.218	0.089	-0.027
-152.647	6.751	-0.029	0.021
-151.633	-55.985	0.248	0.109
-150.618	-92.148	0.246	0.068
-149.604	-72.584	-0.196	-0.071
-148.589	-200.000	-0.017	0.178
-147.574	-65.852	0.309	-0.121
-146.560	234.290	-0.062	0.100
-145.545	262.116	-0.043	0.073
-144.531	692.522	-0.083	-0.214
-143.516	596.234	0.053	-0.130
-142.502	586.934	0.158	0.381
-141.487	-93.384	0.388	0.106
-140.472	-151.724	-0.404	-0.029
-139.458	-114.953	0.087	0.016
-138.443	-200.000	-0.005	0.175
-137.429	183.451	-0.088	-0.128
-136.414	-43.230	-0.057	0.028
-135.399	-132.759	0.283	-0.035
-134.385	-200.000	0.029	-0.310
-133.370	-151.817	0.247	-0.018
-132.356	-114.695	-0.206	0.039
-131.341	-200.000	-0.031	0.161
-130.326	176.046	-0.098	0.139
-129.312	685.786	0.049	0.124
-128.297	-29.219	0.132	0.074
-127.283	0.536	0.236	0.165
-126.268	-47.640	-0.090	0.043
-125.253	-200.000	0.001	-0.160
-124.239	-2.524	0.208	-0.143
-123.224	-200.000	-0.047	0.226
