DTS Sentinel unit serial number:	SN413079Multiplexer serial number:	ORYXHardware model number:	OX4-SRSoftware version number:	ORYX F/W v4.00 Oryx Data Collector v3.7.2.0data status	okinstallation	princeton_trtdifferential loss correction	single-endedforward channel	channel 2reverse channel	N/Adate	2019/09/14time	14:39:35forward acquisition time	60.00reverse acquisition time	0.00gamma	496.2192k internal	0.2301k external	0.2301temperature offset calibration	1.0137default loss term (dB/km)	0.3790temperature slope calibration	1.0000multiplexer offset coefficient	1.0000multiplexer slope coefficient	1.0000fibre end	0.00T internal ref (°C)	39.25T ext. ref 1 (°C)	4.98T ext. ref 2 (°C)	34.81length (m)	temperature (°C)	Stokes	anti-Stokes-747.200	-44.973	-0.261	0.133
-746.185	-61.205	0.254	0.109
-745.171	800.000	0.017	0.073
-744.156	217.549	-0.145	0.236
-743.142	-0.487	0.061	0.044
-742.127	-7.241	0.121	0.083
-741.112	800.000	0.110	0.340
-740.098	800.000	-0.092	0.315
-739.083	-188.074	0.066	0.001
-738.069	36.543	-0.175	0.157
-737.054	-94.401	-0.069	0.019
-736.039	47.782	-0.117	-0.111
-735.025	-200.000	0.027	0.252
-734.010	-200.000	0.054	0.297
-732.996	-173.209	0.020	-0.001
-731.981	-97.447	-0.369	-0.098
-730.966	-200.000	0.039	0.280
-729.952	-51.679	0.191	0.091
-728.937	335.313	-0.280	-0.553
-727.923	339.952	-0.145	-0.288
-726.908	344.084	0.068	0.135
-725.894	-19.651	-0.125	0.079
-724.879	76.704	-0.135	0.146
-723.864	-78.669	-0.081	-0.028
-722.850	-179.782	0.447	-0.010
-721.835	-5.683	0.082	-0.057
-720.821	-155.368	0.079	-0.005
-719.806	201.220	0.142	-0.222
-718.791	93.619	-0.112	-0.129
-717.777	154.099	-0.130	-0.182
-716.762	800.000	-0.009	-0.033
-715.748	181.845	-0.081	0.122
-714.733	37.579	0.126	-0.114
-713.718	-200.000	-0.023	-0.196
-712.704	-116.052	0.097	-0.018
-711.689	31.341	0.046	0.040
-710.675	-117.819	-0.244	0.045
-709.660	197.268	-0.134	0.209
-708.645	800.000	0.042	-0.169
-707.631	-103.590	-0.232	0.055
-706.616	-131.941	0.194	0.026
-705.602	800.000	-0.058	0.211
-704.587	-26.940	-0.185	0.110
-703.572	-31.575	0.077	0.044
-702.558	50.249	-0.070	-0.067
-701.543	-4.648	0.249	-0.175
-700.529	-48.377	0.242	0.119
-699.514	-4.712	0.154	-0.108
-698.499	-200.000	0.041	-0.189
-697.485	332.490	-0.109	0.214
-696.470	-87.192	0.376	-0.116
-695.456	15.770	-0.328	-0.263
-694.441	-200.000	-0.026	0.257
-693.426	-200.000	0.009	0.181
-692.412	800.000	0.032	0.140
-691.397	-69.861	0.286	0.111
-690.383	592.970	-0.123	-0.308
-689.368	354.522	-0.106	-0.214
-688.354	-88.454	-0.322	0.098
-687.339	-200.000	-0.002	-0.321
-686.324	-200.000	-0.011	0.079
-685.310	364.924	0.086	0.177
-684.295	87.436	-0.275	0.309
-683.281	6.726	0.019	-0.014
-682.266	-15.046	-0.202	0.132
-681.251	-73.123	-0.308	0.115
-680.237	-128.909	0.223	0.032
-679.222	-49.710	0.105	0.051
-678.208	-61.143	-0.247	-0.106
-677.193	-74.056	-0.219	-0.081
-676.178	230.636	0.086	0.144
-675.164	122.020	-0.165	0.210
-674.149	473.132	0.139	-0.319
-673.135	800.000	0.093	-0.379
-672.120	-200.000	0.005	0.208
-671.105	-135.438	-0.236	0.029
-670.091	-95.670	-0.174	0.047
-669.076	468.025	0.095	0.216
-668.062	32.146	-0.075	0.066
-667.047	-15.968	0.189	-0.123
-666.032	493.064	-0.183	-0.426
-665.018	-38.153	0.290	0.156
-664.003	336.454	-0.216	0.426
-662.989	-79.997	0.150	0.051
-661.974	200.546	-0.058	0.091
-660.959	180.364	-0.153	0.229
-659.945	-200.000	0.015	-0.224
-658.930	-200.000	0.023	0.360
-657.916	74.288	0.220	0.235
-656.901	-54.251	0.354	0.163
-655.886	567.211	-0.143	-0.353
-654.872	429.988	0.069	-0.152
-653.857	672.202	0.039	0.103
-652.843	-100.412	0.219	-0.055
-651.828	-34.508	0.298	0.166
-650.814	34.227	-0.323	0.286
-649.799	-58.278	-0.272	0.120
-648.784	96.341	-0.049	-0.057
-647.770	-68.680	-0.080	-0.032
-646.755	-110.178	0.194	0.041
-645.741	-200.000	0.035	-0.296
-644.726	-200.000	0.047	-0.252
-643.711	-145.761	0.313	-0.028
-642.697	509.078	0.045	0.107
-641.682	-80.785	0.256	0.086
-640.668	56.739	-0.106	-0.104
-639.653	800.000	-0.037	-0.146
-638.638	6.142	-0.131	-0.099
-637.624	-200.000	-0.004	-0.182
-636.609	-48.516	0.098	0.048
-635.595	17.346	0.234	-0.189
-634.580	-200.000	-0.063	0.560
-633.565	-42.971	0.458	0.236
-632.551	-129.250	0.127	-0.018
-631.536	-37.818	0.342	-0.184
-630.522	800.000	-0.045	-0.146
-629.507	81.708	0.158	0.174
-628.492	-69.387	0.236	-0.092
-627.478	-200.000	-0.002	-0.137
-626.463	80.003	0.244	0.266
-625.449	252.466	0.219	0.379
-624.434	-96.972	0.226	-0.060
-623.419	277.238	-0.153	0.277
-622.405	240.272	0.052	0.088
-621.390	-129.270	0.066	0.009
-620.376	69.509	-0.211	-0.221
-619.361	216.443	-0.143	-0.231
-618.346	-35.929	0.254	-0.139
-617.332	-200.000	-0.001	-0.430
-616.317	-36.448	0.048	-0.026
-615.303	390.090	0.065	-0.137
-614.288	-200.000	0.028	-0.133
-613.273	-151.959	-0.380	0.028
-612.259	119.328	-0.137	-0.171
-611.244	590.349	0.047	-0.118
-610.230	64.017	0.207	-0.211
-609.215	165.406	-0.089	0.128
-608.201	800.000	-0.127	0.368
-607.186	-112.803	-0.189	0.038
-606.171	66.970	-0.031	-0.032
-605.157	800.000	0.141	-0.454
-604.142	-84.641	0.144	0.046
-603.128	-200.000	0.022	0.202
-602.113	-200.000	0.012	0.227
-601.098	448.179	-0.065	0.144
-600.084	-2.952	0.082	0.058
-599.069	-200.000	0.020	0.261
-598.055	512.190	0.046	0.109
-597.040	-133.619	-0.079	0.010
-596.025	-166.315	0.209	-0.009
-595.011	-91.466	-0.237	0.069
-593.996	111.730	0.238	-0.291
-592.982	-200.000	-0.018	-0.089
-591.967	-200.000	0.054	-0.244
-590.952	-200.000	-0.010	-0.206
-589.938	65.227	0.150	0.154
-588.923	-1.426	0.181	0.129
-587.909	24.593	-0.262	-0.220
-586.894	-120.655	0.222	0.038
-585.879	-93.681	0.386	0.108
-584.865	-200.000	0.025	0.212
-583.850	62.682	0.293	0.297
-582.836	-98.495	-0.433	0.112
-581.821	76.160	0.244	-0.261
-580.806	-180.456	0.312	-0.007
-579.792	800.000	-0.030	-0.095
-578.777	11.314	0.303	-0.235
-577.763	-76.268	-0.205	-0.073
-576.748	50.721	-0.120	-0.115
-575.733	800.000	-0.043	-0.178
-574.719	6.878	-0.239	0.180
-573.704	800.000	0.059	0.245
-572.690	535.095	0.031	-0.074
-571.675	331.461	0.129	-0.252
-570.661	-91.329	-0.052	0.015
-569.646	800.000	0.086	-0.266
-568.631	599.057	0.038	-0.096
-567.617	37.124	0.070	-0.063
-566.602	-112.533	0.146	-0.030
-565.588	800.000	-0.041	-0.158
-564.573	-200.000	-0.025	-0.148
-563.558	574.937	0.087	-0.214
-562.544	-88.550	0.146	-0.044
-561.529	2.525	0.212	-0.155
-560.515	337.033	-0.118	-0.232
-559.500	52.431	0.214	-0.207
-558.485	800.000	-0.082	-0.253
-557.471	210.045	-0.100	-0.159
-556.456	-83.843	-0.322	0.104
-555.442	-148.183	-0.114	-0.010
-554.427	-93.472	0.245	-0.069
-553.412	-200.000	0.007	-0.224
-552.398	-27.082	0.156	0.092
-551.383	-52.997	-0.387	-0.180
-550.369	484.275	-0.059	-0.135
-549.354	800.000	0.124	-0.406
-548.339	-74.942	0.081	0.029
-547.325	-35.186	-0.274	-0.151
-546.310	-146.941	0.171	-0.015
-545.296	800.000	-0.093	0.325
-544.281	-134.301	-0.037	0.005
-543.266	-119.059	0.153	-0.027
-542.252	-173.295	0.207	0.006
-541.237	-110.163	0.138	-0.029
-540.223	-200.000	0.035	0.246
-539.208	707.611	-0.083	-0.222
-538.193	196.682	0.112	0.172
-537.179	-146.376	-0.232	-0.020
-536.164	-112.661	-0.237	0.048
-535.150	-193.513	-0.018	-0.000
-534.135	-134.512	0.279	-0.034
-533.121	800.000	-0.058	-0.174
-532.106	8.614	-0.400	-0.305
-531.091	-24.376	-0.221	0.133
-530.077	800.000	-0.012	-0.047
-529.062	278.951	0.085	-0.154
-528.048	-97.015	0.049	0.013
-527.033	-111.336	-0.110	0.023
-526.018	-35.009	0.149	-0.082
-525.004	800.000	0.032	0.099
-523.989	45.031	-0.136	-0.127
-522.975	-19.053	-0.198	-0.124
-521.960	93.824	-0.114	0.130
-520.945	0.319	0.058	-0.042
-519.931	-25.377	-0.323	0.193
-518.916	800.000	-0.146	0.433
-517.902	49.950	-0.042	-0.040
-516.887	-3.533	-0.073	0.051
-515.872	300.181	-0.150	0.279
-514.858	-134.636	0.075	0.009
-513.843	395.116	-0.034	0.071
-512.829	447.776	0.092	-0.205
-511.814	108.435	0.220	0.265
-510.799	-46.628	0.043	-0.021
-509.785	-200.000	-0.042	0.262
-508.770	-200.000	0.001	-0.006
-507.756	-200.000	-0.041	0.258
-506.741	44.258	0.165	0.153
-505.726	-84.323	0.084	0.027
-504.712	60.572	-0.227	-0.227
-503.697	-101.788	0.228	-0.056
-502.683	-200.000	-0.014	0.113
-501.668	-119.299	0.107	-0.019
-500.653	-49.724	0.168	-0.081
-499.639	-136.397	-0.112	0.013
-498.624	302.462	0.102	0.190
-497.610	-8.619	0.161	0.109
-496.595	48.535	-0.080	-0.076
-495.581	9.897	0.288	0.221
-494.566	-97.354	-0.045	0.012
-493.551	27.562	0.193	-0.164
-492.537	-98.095	-0.183	0.047
-491.522	-200.000	-0.088	0.431
-490.508	182.496	-0.168	0.250
-489.493	95.174	0.070	0.081
-488.478	251.463	-0.039	0.067
-487.464	-116.134	0.070	-0.013
-486.449	-81.376	0.050	-0.017
-485.435	271.671	0.168	0.298
-484.420	-99.699	0.348	0.088
-483.405	-200.000	-0.031	0.215
-482.391	-65.254	-0.188	-0.076
-481.376	800.000	-0.041	-0.118
-480.362	-23.658	-0.064	-0.039
-479.347	-200.000	-0.016	-0.137
-478.332	126.696	0.119	-0.152
-477.318	154.383	-0.025	-0.035
-476.303	208.152	0.183	0.289
-475.289	26.265	-0.212	0.179
-474.274	-15.274	0.195	-0.126
-473.259	363.665	0.071	-0.145
-472.245	-164.130	-0.321	0.015
-471.230	-200.000	0.057	-0.272
-470.216	-157.647	-0.133	-0.008
-469.201	-153.787	-0.038	0.003
-468.186	-30.376	0.408	0.234
-467.172	-32.544	0.335	0.188
-466.157	32.879	0.290	-0.254
-465.143	127.988	-0.190	0.243
-464.128	-200.000	-0.018	-0.169
-463.113	-200.000	0.026	-0.357
-462.099	41.436	-0.143	-0.130
-461.084	-200.000	0.009	-0.168
-460.070	113.020	0.173	0.212
-459.055	800.000	-0.030	0.128
-458.040	-133.970	0.388	-0.049
-457.026	-150.619	0.326	-0.025
-456.011	800.000	0.030	0.126
-454.997	470.735	0.080	0.182
-453.982	30.653	0.112	-0.097
-452.968	-83.813	-0.156	-0.050
-451.953	-151.103	0.253	-0.019
-450.938	-55.301	0.287	-0.130
-449.924	201.941	0.027	-0.041
-448.909	800.000	-0.072	-0.199
-447.895	642.572	-0.147	-0.379
-446.880	800.000	0.050	0.213
-445.865	-200.000	0.059	0.307
-444.851	-200.000	-0.008	-0.055
-443.836	-200.000	-0.016	-0.188
-442.822	-67.937	-0.075	-0.030
-441.807	-200.000	-0.024	-0.139
-440.792	72.572	-0.118	0.124
-439.778	-41.324	-0.111	0.058
-438.763	112.754	0.123	0.150
-437.749	-200.000	0.046	0.246
-436.734	-200.000	0.044	0.214
-435.719	800.000	0.093	0.363
-434.705	-200.000	0.009	0.204
-433.690	308.231	0.062	0.116
-432.676	-81.642	-0.053	-0.018
-431.661	-12.251	-0.202	-0.133
-430.646	263.731	0.156	0.273
-429.632	-90.840	-0.333	0.097
-428.617	21.081	0.303	-0.248
-427.603	515.916	-0.116	0.274
-426.588	0.319	0.266	0.191
-425.573	71.534	-0.197	-0.206
-424.559	-200.000	-0.008	-0.179
-423.544	-200.000	-0.005	-0.081
-422.530	23.172	0.287	-0.237
-421.515	800.000	0.023	0.094
-420.500	399.339	-0.175	-0.368
-419.486	26.709	0.164	0.138
-418.471	-161.616	-0.402	0.021
-417.457	-92.163	-0.272	-0.077
-416.442	-115.242	-0.217	0.041
-415.428	101.513	-0.162	0.190
-414.413	-186.019	0.189	0.003
-413.398	-178.112	0.057	-0.001
-412.384	-30.836	-0.530	-0.302
-411.369	-200.000	0.037	0.269
-410.355	-200.000	0.019	0.230
-409.340	800.000	0.028	-0.121
-408.325	-200.000	-0.019	-0.255
-407.311	-200.000	-0.021	-0.276
-406.296	800.000	-0.074	0.265
-405.282	-200.000	-0.038	0.215
-404.267	-49.160	0.065	-0.031
-403.252	-98.308	-0.263	-0.068
-402.238	-200.000	0.031	-0.369
-401.223	-65.324	-0.294	0.119
-400.209	765.661	0.038	0.105
-399.194	-16.509	0.330	0.210
-398.179	-200.000	-0.025	-0.421
-397.165	-200.000	-0.022	-0.126
-396.150	647.464	0.028	-0.073
-395.136	106.449	0.245	0.292
-394.121	800.000	-0.065	-0.262
-393.106	-200.000	-0.010	-0.056
-392.092	132.224	-0.249	0.322
-391.077	-175.795	-0.291	0.008
-390.063	251.611	-0.051	0.088
-389.048	352.536	-0.119	-0.237
-388.033	67.506	0.030	-0.030
-387.019	-108.508	-0.315	0.068
-386.004	-92.270	0.287	-0.081
-384.990	-200.000	-0.035	0.370
-383.975	277.746	0.185	-0.330
-382.960	35.826	0.225	-0.199
-381.946	-62.513	0.349	-0.146
-380.931	-0.401	-0.211	0.151
-379.917	-200.000	-0.001	-0.205
-378.902	-91.141	-0.215	0.062
-377.888	297.935	-0.078	0.144
-376.873	47.272	-0.086	0.081
-375.858	438.616	-0.143	0.314
-374.844	-200.000	-0.031	0.346
-373.829	363.227	0.120	-0.243
-372.815	289.457	0.049	0.088
-371.800	-188.946	-0.258	-0.003
-370.785	1.325	0.138	-0.099
-369.771	-125.231	-0.149	0.023
-368.756	29.161	-0.281	-0.240
-367.742	-160.186	-0.117	0.006
-366.727	800.000	-0.038	-0.142
-365.712	103.518	-0.015	-0.018
-364.698	-200.000	-0.013	0.360
-363.683	-75.313	0.145	-0.052
-362.669	-18.841	-0.084	-0.053
-361.654	47.949	0.067	0.063
-360.639	52.745	-0.116	0.111
-359.625	47.075	-0.166	0.155
-358.610	185.336	0.117	0.174
-357.596	-81.291	-0.365	0.121
-356.581	-60.264	-0.368	-0.157
-355.566	-200.000	-0.204	0.000
-354.552	-74.578	-0.168	-0.061
-353.537	800.000	-0.062	0.206
-352.523	-102.423	0.426	-0.102
-351.508	36.850	0.058	-0.051
-350.493	-81.538	-0.107	-0.035
-349.479	155.645	0.037	0.051
-348.464	503.869	-0.118	0.274
-347.450	174.319	-0.049	0.070
-346.435	355.202	0.045	0.091
-345.420	-200.000	-0.003	0.067
-344.406	178.900	-0.081	0.119
-343.391	-12.143	0.265	-0.174
-342.377	588.247	-0.116	-0.287
-341.362	327.183	-0.157	-0.303
-340.348	800.000	0.153	0.439
-339.333	-105.477	-0.200	0.046
-338.318	-25.822	0.160	-0.095
-337.304	-66.164	-0.129	0.052
-336.289	800.000	-0.044	0.129
-335.275	-200.000	-0.015	-0.087
-334.260	597.723	-0.089	0.222
-333.245	800.000	0.031	0.098
-332.231	-200.000	0.008	0.080
-331.216	-134.102	-0.301	-0.037
-330.202	-200.000	0.042	0.477
-329.187	-200.000	0.021	-0.179
-328.172	-12.860	0.169	-0.110
-327.158	800.000	-0.047	0.191
-326.143	-162.144	-0.495	0.025
-325.129	131.054	-0.075	-0.097
-324.114	800.000	0.106	-0.322
-323.099	603.337	0.020	0.049
-322.085	-127.291	0.064	-0.009
-321.070	-200.000	0.019	-0.386
-320.056	-148.246	-0.334	0.028
-319.041	-200.000	0.050	-0.397
-318.026	-161.600	-0.098	0.005
-317.012	-200.000	-0.014	0.128
-315.997	-200.000	-0.028	0.224
-314.983	347.496	0.033	-0.064
-313.968	-39.644	0.061	-0.032
-312.953	-200.000	0.077	-0.000
-311.939	-200.000	0.052	-0.315
-310.924	800.000	0.018	-0.060
-309.910	96.506	-0.045	-0.052
-308.895	800.000	-0.128	-0.393
-307.880	26.357	-0.115	-0.097
-306.866	621.607	-0.113	-0.286
-305.851	-200.000	-0.002	0.076
-304.837	161.059	-0.089	0.125
-303.822	-200.000	-0.007	0.154
-302.807	265.992	-0.058	0.101
-301.793	-142.675	-0.146	-0.014
-300.778	-200.000	-0.006	0.184
-299.764	-21.205	0.105	-0.064
-298.749	-127.568	0.385	0.056
-297.735	-200.000	-0.022	-0.210
-296.720	800.000	0.011	0.037
-295.705	-186.520	0.051	0.001
-294.691	-135.230	0.398	-0.048
-293.676	-69.157	-0.214	-0.083
-292.662	410.582	0.165	0.350
-291.647	-159.838	0.211	-0.012
-290.632	-200.000	-0.068	0.369
-289.618	800.000	-0.020	0.080
-288.603	-130.180	-0.230	-0.031
-287.589	-142.737	-0.320	0.031
-286.574	-18.689	-0.508	-0.317
-285.559	-87.774	-0.180	-0.054
-284.545	522.506	0.124	0.292
-283.530	30.543	0.195	-0.167
-282.516	-200.000	-0.062	0.294
-281.501	17.348	-0.126	-0.100
-280.486	-200.000	-0.069	-0.344
-279.472	-29.314	-0.416	0.238
-278.457	-4.711	-0.188	-0.130
-277.443	-105.717	0.096	-0.022
-276.428	80.584	-0.169	0.182
-275.413	800.000	-0.067	-0.192
-274.399	-200.000	-0.031	0.324
-273.384	552.835	0.025	0.060
-272.370	32.864	-0.275	0.239
-271.355	311.553	-0.063	-0.118
-270.340	-45.154	-0.106	0.053
-269.326	800.000	0.103	0.290
-268.311	-27.722	0.132	0.077
-267.297	-200.000	-0.008	-0.141
-266.282	238.799	0.119	0.197
-265.267	-181.587	0.137	0.003
-264.253	800.000	0.024	-0.093
-263.238	73.499	-0.254	0.266
-262.224	69.814	-0.101	0.105
-261.209	-113.255	-0.136	0.027
-260.195	67.456	-0.173	-0.177
-259.180	-88.740	0.309	0.092
-258.165	18.171	0.080	0.064
-257.151	-200.000	0.030	0.432
-256.136	23.975	-0.130	-0.107
-255.122	466.109	0.106	-0.237
-254.107	40.963	0.124	0.112
-253.092	-28.344	0.078	-0.045
-252.078	800.000	-0.021	-0.089
-251.063	-71.256	0.280	0.105
-250.049	-49.075	-0.100	-0.048
-249.034	117.639	-0.190	0.234
-248.019	-200.000	0.023	-0.119
-247.005	-22.305	-0.231	0.140
-245.990	-146.009	0.105	0.009
-244.976	-200.000	-0.008	-0.106
-243.961	-25.248	-0.195	-0.116
-242.946	154.065	-0.083	-0.114
-241.932	8.325	0.148	-0.112
-240.917	-144.279	0.365	0.034
-239.903	-47.102	0.140	0.068
-238.888	800.000	0.082	0.286
-237.873	-200.000	0.015	-0.074
-236.859	800.000	0.074	0.309
-235.844	-196.651	-0.442	0.003
-234.830	355.211	0.048	-0.095
-233.815	385.291	-0.021	0.042
-232.800	-78.819	0.062	-0.021
-231.786	740.537	-0.048	-0.128
-230.771	511.497	-0.188	-0.437
-229.757	-200.000	-0.006	-0.131
-228.742	-200.000	0.031	0.272
-227.727	-77.269	0.251	0.087
-226.713	-92.375	-0.133	0.038
-225.698	-200.000	0.054	-0.395
-224.684	39.344	0.089	0.079
-223.669	-200.000	0.003	0.209
-222.655	61.576	0.222	-0.220
-221.640	-200.000	-0.004	0.209
-220.625	44.167	0.160	0.146
-219.611	287.780	0.105	-0.190
-218.596	-97.257	-0.424	-0.111
-217.582	-143.077	-0.258	0.025
-216.567	-200.000	0.040	-0.247
-215.552	2.749	0.227	0.164
-214.538	10.987	-0.306	-0.233
-213.523	-200.000	0.015	0.195
-212.509	35.389	0.077	0.067
-211.494	800.000	0.137	0.451
-210.479	32.612	0.158	-0.137
-209.465	-200.000	0.015	-0.120
-208.450	-32.325	-0.129	-0.072
-207.436	-200.000	0.019	0.185
-206.421	646.225	0.076	0.193
-205.406	33.071	0.292	0.253
-204.392	303.615	-0.050	-0.092
-203.377	-79.110	0.076	0.026
-202.363	-200.000	-0.017	-0.116
-201.348	-82.178	-0.359	0.117
-200.333	-82.373	0.133	-0.043
-199.319	-80.429	-0.199	-0.066
-198.304	77.582	-0.154	0.163
-197.290	-130.990	0.306	-0.041
-196.275	-200.000	0.010	-0.416
-195.260	800.000	0.076	-0.234
-194.246	800.000	0.050	-0.192
-193.231	-119.705	0.377	-0.065
-192.217	245.330	0.066	-0.111
-191.202	-51.303	-0.180	-0.084
-190.187	800.000	0.118	0.362
-189.173	5.778	-0.112	0.082
-188.158	-200.000	0.014	-0.326
-187.144	-200.000	0.011	-0.217
-186.129	-52.920	0.099	0.045
-185.114	375.122	-0.102	-0.207
-184.100	-76.600	-0.201	-0.070
-183.085	-180.466	0.216	-0.004
-182.071	-165.036	0.174	0.008
-181.056	20.060	0.088	-0.071
-180.042	800.000	0.026	-0.103
-179.027	-200.000	0.018	-0.137
-178.012	-200.000	-0.016	0.232
-176.998	291.091	-0.100	-0.182
-175.983	17.985	-0.134	0.106
-174.969	800.000	0.021	-0.058
-173.954	-56.138	0.154	0.068
-172.939	-200.000	-0.022	0.172
-171.925	-200.000	-0.005	0.171
-170.910	-81.234	-0.234	0.077
-169.896	24.710	0.039	0.032
-168.881	105.600	0.102	-0.121
-167.866	187.782	0.245	-0.364
-166.852	-108.306	-0.427	-0.092
-165.837	800.000	-0.143	0.408
-164.823	6.199	0.048	0.036
-163.808	-189.607	-0.193	0.002
-162.793	141.718	-0.079	0.104
-161.779	-55.944	0.118	0.053
-160.764	-33.619	-0.241	-0.133
-159.750	139.910	-0.030	-0.040
-158.735	-200.000	-0.014	0.198
-157.720	232.946	0.126	0.206
-156.706	-89.675	-0.032	0.009
-155.691	-200.000	-0.025	-0.128
-154.677	800.000	-0.063	0.253
-153.662	-85.336	0.306	-0.095
-152.647	-86.785	0.257	0.078
-151.633	-102.679	-0.056	-0.013
-150.618	54.496	-0.138	-0.132
-149.604	-117.457	-0.247	0.045
-148.589	-24.627	-0.372	0.220
-147.574	429.369	-0.138	0.297
-146.560	-171.625	-0.189	0.006
-145.545	-131.274	0.405	-0.054
-144.531	-151.111	-0.087	0.007
-143.516	145.166	0.266	-0.354
-142.502	251.109	0.087	-0.147
-141.487	396.483	0.116	-0.240
-140.472	-200.000	0.045	-0.272
-139.458	494.304	-0.134	-0.307
-138.443	115.387	-0.062	-0.075
-137.429	58.194	0.411	-0.402
-136.414	-35.023	0.160	-0.087
-135.399	32.183	-0.225	-0.193
-134.385	-30.055	-0.064	0.036
-133.370	-200.000	-0.027	0.125
-132.356	-200.000	0.019	0.096
-131.341	10.709	0.078	0.059
-130.326	-37.309	0.180	-0.096
-129.312	68.449	0.123	0.126
-128.297	48.947	-0.122	-0.114
-127.283	-95.327	0.158	0.042
-126.268	-10.299	-0.285	0.188
-125.253	800.000	0.030	-0.124
-124.239	-57.495	-0.158	-0.069
-123.224	800.000	0.017	0.060
-122.210	98.781	-0.323	-0.371
-121.195	446.931	-0.120	-0.263
