DTS Sentinel unit serial number:	SN413079Multiplexer serial number:	ORYXHardware model number:	OX4-SRSoftware version number:	ORYX F/W v4.00 Oryx Data Collector v3.7.2.0data status	okinstallation	princeton_trtdifferential loss correction	single-endedforward channel	channel 2reverse channel	N/Adate	2019/09/14time	21:55:34forward acquisition time	60.00reverse acquisition time	0.00gamma	496.2192k internal	0.2323k external	0.2323temperature offset calibration	1.0068default loss term (dB/km)	0.3790temperature slope calibration	1.0000multiplexer offset coefficient	1.0000multiplexer slope coefficient	1.0000fibre end	0.00T internal ref (°C)	32.69T ext. ref 1 (°C)	4.71T ext. ref 2 (°C)	27.69length (m)	temperature (°C)	Stokes	anti-Stokes-747.200	-123.933	0.138	0.022
-746.185	34.892	0.301	0.266
-745.171	130.750	0.218	0.282
-744.156	-200.000	0.015	0.070
-743.142	-200.000	-0.005	-0.103
-742.127	214.537	0.101	0.162
-741.112	800.000	0.068	0.192
-740.098	267.034	-0.154	0.272
-739.083	800.000	0.045	0.171
-738.069	187.343	0.242	0.364
-737.054	-109.922	-0.263	-0.056
-736.039	460.432	-0.038	-0.086
-735.025	-200.000	-0.010	-0.133
-734.010	294.804	-0.157	-0.290
-732.996	-74.338	-0.023	0.008
-731.981	118.960	-0.293	0.365
-730.966	-145.924	-0.187	-0.017
-729.952	118.251	0.062	0.077
-728.937	-148.697	-0.072	-0.006
-727.923	126.345	0.084	0.107
-726.908	10.664	-0.219	-0.169
-725.894	586.620	0.136	0.337
-724.879	-200.000	-0.015	-0.165
-723.864	-108.500	-0.066	-0.014
-722.850	61.054	0.120	-0.121
-721.835	-200.000	0.017	0.488
-720.821	-17.804	0.045	0.029
-719.806	120.429	0.110	0.138
-718.791	-141.528	0.099	-0.010
-717.777	-9.845	-0.179	0.121
-716.762	800.000	-0.065	0.273
-715.748	-116.048	-0.149	0.028
-714.733	83.830	-0.189	0.208
-713.718	-57.024	-0.302	-0.134
-712.704	135.704	0.224	-0.294
-711.689	-94.758	-0.262	0.072
-710.675	43.151	0.253	0.233
-709.660	-109.581	-0.048	0.010
-708.645	-15.615	-0.140	-0.090
-707.631	154.838	0.094	-0.130
-706.616	11.258	0.367	-0.283
-705.602	179.690	0.191	0.282
-704.587	-200.000	-0.022	-0.255
-703.572	-119.645	0.134	-0.023
-702.558	61.364	-0.147	-0.148
-701.543	-200.000	0.059	0.348
-700.529	-174.816	0.308	0.009
-699.514	-36.817	0.074	0.040
-698.499	358.091	0.162	-0.326
-697.485	-67.683	-0.113	-0.045
-696.470	-92.993	0.193	0.054
-695.456	800.000	-0.031	0.087
-694.441	-200.000	0.049	0.324
-693.426	-200.000	-0.022	0.144
-692.412	-37.004	0.040	-0.021
-691.397	-68.727	0.146	0.057
-690.383	200.736	-0.169	0.261
-689.368	-200.000	-0.007	-0.072
-688.354	-123.544	-0.258	0.041
-687.339	-125.225	0.498	-0.077
-686.324	110.871	-0.046	0.056
-685.310	-70.524	0.123	0.047
-684.295	-73.416	0.205	-0.075
-683.281	-144.040	0.054	-0.005
-682.266	800.000	-0.041	-0.178
-681.251	20.057	0.140	0.114
-680.237	-200.000	0.025	0.171
-679.222	-128.742	0.274	-0.039
-678.208	11.717	-0.217	0.168
-677.193	-24.927	0.154	-0.092
-676.178	12.641	-0.140	-0.109
-675.164	-49.471	-0.161	-0.077
-674.149	-58.137	0.178	-0.078
-673.135	-200.000	0.031	0.230
-672.120	-200.000	0.013	-0.150
-671.105	232.972	-0.211	0.349
-670.091	570.909	0.069	0.168
-669.076	-200.000	0.003	0.190
-668.062	-48.578	-0.185	0.090
-667.047	81.642	0.211	-0.230
-666.032	-116.632	-0.318	-0.059
-665.018	-29.416	0.139	0.080
-664.003	3.829	0.287	-0.211
-662.989	-200.000	0.035	-0.162
-661.974	-71.902	0.072	-0.027
-660.959	800.000	-0.023	-0.085
-659.945	-81.475	0.138	-0.046
-658.930	532.839	0.105	-0.249
-657.916	-131.993	-0.250	0.033
-656.901	800.000	0.139	-0.400
-655.886	20.051	-0.412	-0.334
-654.872	-200.000	-0.044	0.000
-653.857	-200.000	0.016	-0.150
-652.843	-200.000	-0.020	-0.155
-651.828	800.000	0.120	-0.391
-650.814	21.302	-0.076	-0.062
-649.799	-200.000	-0.021	0.207
-648.784	48.355	-0.265	0.249
-647.770	69.532	-0.064	0.066
-646.755	-74.879	-0.171	-0.062
-645.741	-27.291	0.247	0.145
-644.726	-152.064	0.173	-0.013
-643.711	-16.081	0.113	0.072
-642.697	-6.701	-0.012	-0.008
-641.682	800.000	0.091	-0.257
-640.668	-200.000	-0.054	-0.263
-639.653	800.000	-0.063	0.223
-638.638	33.380	0.213	0.186
-637.624	-200.000	-0.004	0.067
-636.609	132.451	-0.096	0.125
-635.595	55.501	-0.036	0.035
-634.580	309.517	-0.126	-0.237
-633.565	-75.003	-0.184	0.066
-632.551	-200.000	0.030	-0.323
-631.536	-200.000	0.028	-0.381
-630.522	-200.000	0.005	0.119
-629.507	-41.537	-0.219	0.113
-628.492	-154.270	0.327	-0.022
-627.478	-29.279	-0.107	0.062
-626.463	-111.532	-0.206	0.042
-625.449	-104.020	-0.121	0.028
-624.434	-138.401	0.159	0.018
-623.419	-27.751	0.380	-0.222
-622.405	-40.984	0.182	0.095
-621.390	21.776	-0.128	0.105
-620.376	-8.255	-0.136	-0.092
-619.361	-46.815	-0.230	-0.113
-618.346	-104.698	-0.087	-0.020
-617.332	-200.000	-0.009	-0.130
-616.317	-200.000	-0.081	0.383
-615.303	800.000	0.082	0.326
-614.288	11.364	-0.200	0.154
-613.273	-95.632	0.334	-0.090
-612.259	-200.000	0.004	-0.129
-611.244	-200.000	0.019	-0.199
-610.230	-76.323	0.262	0.093
-609.215	-182.942	-0.247	-0.004
-608.201	-200.000	0.020	-0.459
-607.186	74.040	0.177	0.186
-606.171	57.917	-0.146	0.144
-605.157	159.151	0.087	-0.121
-604.142	392.030	0.113	0.236
-603.128	-200.000	0.005	-0.047
-602.113	-47.750	0.194	-0.094
-601.098	-23.431	-0.231	-0.140
-600.084	298.127	-0.166	0.307
-599.069	-110.375	0.443	-0.092
-598.055	57.175	-0.222	0.218
-597.040	-160.451	-0.108	0.006
-596.025	18.995	0.162	-0.130
-595.011	-16.577	-0.274	0.175
-593.996	-200.000	-0.005	-0.131
-592.982	323.096	-0.090	-0.172
-591.967	229.535	0.099	-0.162
-590.952	-200.000	-0.020	-0.391
-589.938	800.000	-0.079	-0.283
-588.923	-117.725	0.246	-0.044
-587.909	303.362	0.077	-0.143
-586.894	173.175	-0.119	-0.172
-585.879	281.254	-0.125	-0.224
-584.865	580.483	-0.126	-0.309
-583.850	800.000	0.108	-0.380
-582.836	-0.600	0.181	0.129
-581.821	-106.547	-0.096	-0.022
-580.806	35.744	-0.217	-0.192
-579.792	155.193	0.102	0.141
-578.777	98.522	0.245	-0.284
-577.763	-135.963	0.036	0.004
-576.748	99.560	0.253	-0.294
-575.733	-10.286	-0.399	-0.266
-574.719	31.171	-0.012	-0.011
-573.704	517.631	-0.068	-0.159
-572.690	521.483	-0.157	0.369
-571.675	-166.861	-0.375	-0.015
-570.661	43.887	-0.285	-0.262
-569.646	-40.276	-0.261	0.136
-568.631	-150.160	0.265	-0.021
-567.617	-200.000	-0.011	-0.270
-566.602	800.000	-0.056	-0.209
-565.588	-117.790	-0.409	-0.074
-564.573	13.623	0.071	0.055
-563.558	133.976	-0.138	-0.179
-562.544	-54.666	-0.232	0.105
-561.529	-118.612	0.126	0.022
-560.515	63.317	0.126	0.126
-559.500	-3.112	-0.278	0.195
-558.485	74.944	-0.281	0.297
-557.471	134.129	0.079	-0.103
-556.456	-200.000	0.020	-0.203
-555.442	800.000	-0.017	0.050
-554.427	-200.000	0.124	-0.000
-553.412	31.958	0.080	-0.069
-552.398	-200.000	-0.067	0.452
-551.383	35.280	-0.154	-0.135
-550.369	64.477	-0.197	0.199
-549.354	-200.000	-0.019	-0.095
-548.339	-200.000	0.001	-0.119
-547.325	-101.023	-0.131	0.032
-546.310	-144.925	-0.141	0.013
-545.296	176.630	0.116	-0.169
-544.281	-108.215	-0.396	0.086
-543.266	107.320	0.120	-0.142
-542.252	-200.000	0.018	-0.331
-541.237	800.000	0.081	-0.238
-540.223	-27.311	0.158	0.092
-539.208	-90.468	-0.148	-0.043
-538.193	-92.789	-0.085	-0.024
-537.179	-178.239	0.287	0.007
-536.164	350.670	-0.088	0.174
-535.150	436.279	-0.116	-0.253
-534.135	574.169	0.019	-0.047
-533.121	173.102	0.145	-0.209
-532.106	-200.000	0.006	0.214
-531.091	94.079	-0.108	0.123
-530.077	-24.600	-0.181	-0.108
-529.062	-95.568	0.297	0.080
-528.048	-0.909	0.130	0.092
-527.033	-200.000	-0.003	0.075
-526.018	-66.046	0.504	0.202
-525.004	-50.457	0.027	-0.013
-523.989	358.455	0.099	-0.198
-522.975	25.673	0.095	0.079
-521.960	109.637	0.232	0.279
-520.945	-2.468	0.069	0.049
-519.931	153.047	-0.209	0.286
-518.916	-121.402	0.239	-0.040
-517.902	195.032	-0.221	0.336
-516.887	800.000	-0.046	0.181
-515.872	-200.000	-0.026	0.124
-514.858	-17.072	-0.094	-0.060
-513.843	-200.000	0.010	-0.149
-512.829	-179.573	0.126	0.003
-511.814	-200.000	0.028	0.204
-510.799	800.000	-0.033	0.104
-509.785	-200.000	0.017	-0.173
-508.770	800.000	-0.046	0.138
-507.756	-47.802	-0.350	0.170
-506.741	-200.000	-0.043	0.652
-505.726	800.000	0.042	-0.153
-504.712	-67.101	0.343	0.135
-503.697	288.703	0.195	-0.353
-502.683	235.282	0.095	0.157
-501.668	-47.679	0.064	-0.031
-500.653	-200.000	-0.058	0.357
-499.639	33.924	-0.243	-0.212
-498.624	-131.253	0.331	0.044
-497.610	-2.427	-0.273	-0.191
-496.595	-142.581	0.217	0.021
-495.581	-133.728	0.212	0.026
-494.566	-88.065	0.111	-0.033
-493.551	4.248	-0.213	0.156
-492.537	10.050	0.174	0.133
-491.522	-165.921	0.426	0.018
-490.508	19.920	0.303	-0.244
-489.493	-94.118	-0.158	0.043
-488.478	-159.067	-0.344	-0.019
-487.464	436.783	-0.075	0.163
-486.449	-23.731	-0.184	-0.110
-485.435	152.577	0.095	0.130
-484.420	-15.964	-0.070	-0.044
-483.405	-1.199	-0.232	-0.164
-482.391	-200.000	-0.024	-0.158
-481.376	-30.088	0.220	0.125
-480.362	195.742	-0.081	0.123
-479.347	111.664	-0.067	0.080
-478.332	-31.779	-0.065	-0.036
-477.318	-200.000	-0.010	-0.149
-476.303	-36.065	0.090	-0.049
-475.289	-113.051	0.240	0.047
-474.274	17.810	-0.090	0.072
-473.259	174.269	-0.109	-0.158
-472.245	-126.436	0.068	-0.010
-471.230	-72.873	-0.268	0.099
-470.216	-200.000	-0.029	-0.279
-469.201	-117.012	0.110	0.020
-468.186	-45.760	-0.086	-0.042
-467.172	-200.000	-0.080	-0.383
-466.157	-128.931	0.147	-0.021
-465.143	800.000	-0.053	-0.153
-464.128	407.272	-0.094	0.199
-463.113	95.210	-0.251	-0.285
-462.099	-154.887	0.386	-0.025
-461.084	223.493	0.135	0.218
-460.070	571.862	-0.032	0.078
-459.055	-200.000	-0.014	0.425
-458.040	148.921	-0.070	0.095
-457.026	-200.000	-0.018	-0.285
-456.011	88.876	0.070	0.078
-454.997	-200.000	-0.007	-0.266
-453.982	-200.000	0.016	-0.135
-452.968	-16.276	0.198	-0.126
-451.953	-147.207	0.205	-0.017
-450.938	-77.552	-0.126	0.044
-449.924	27.731	0.035	0.029
-448.909	-56.616	0.111	-0.049
-447.895	-111.548	-0.162	-0.033
-446.880	231.378	0.087	0.143
-445.865	-82.466	-0.241	-0.078
-444.851	260.737	0.151	-0.261
-443.836	-200.000	0.019	0.136
-442.822	-79.981	-0.389	-0.130
-441.807	214.805	0.013	0.020
-440.792	-25.298	-0.140	0.083
-439.778	-102.354	0.406	0.097
-438.763	-50.619	0.153	0.072
-437.749	-123.095	-0.150	-0.024
-436.734	800.000	0.052	-0.147
-435.719	-200.000	-0.041	-0.308
-434.705	61.602	0.138	-0.137
-433.690	-70.660	0.147	-0.056
-432.676	-152.029	0.122	-0.009
-431.661	-21.659	-0.148	-0.090
-430.646	21.679	0.125	-0.102
-429.632	124.829	0.086	-0.108
-428.617	-137.210	-0.198	-0.023
-427.603	161.077	0.110	0.154
-426.588	-35.964	-0.146	0.079
-425.573	0.801	-0.326	0.233
-424.559	249.380	0.090	0.152
-423.544	-104.406	-0.219	0.051
-422.530	800.000	0.054	0.157
-421.515	-70.318	0.304	0.115
-420.500	405.334	0.084	0.176
-419.486	-200.000	0.005	0.125
-418.471	-200.000	0.052	0.433
-417.457	132.350	-0.178	-0.228
-416.442	-33.740	0.462	0.254
-415.428	-0.876	0.176	0.125
-414.413	177.787	-0.106	0.155
-413.398	-200.000	0.015	0.218
-412.384	-126.720	-0.365	0.054
-411.369	337.110	-0.155	-0.301
-410.355	12.215	0.215	0.165
-409.340	495.095	-0.131	-0.301
-408.325	-200.000	-0.009	-0.132
-407.311	-82.308	0.147	-0.048
-406.296	270.393	0.225	-0.394
-405.282	423.369	-0.083	0.178
-404.267	-200.000	0.005	0.039
-403.252	149.481	-0.090	-0.122
-402.238	-200.000	0.043	0.288
-401.223	-8.693	-0.183	0.123
-400.209	-92.726	0.284	0.079
-399.194	-54.356	-0.237	-0.107
-398.179	-200.000	0.032	-0.422
-397.165	-169.808	-0.176	0.006
-396.150	-157.812	-0.181	0.011
-395.136	-84.301	0.317	-0.100
-394.121	-126.746	0.290	0.043
-393.106	800.000	0.047	0.151
-392.092	-178.124	-0.321	-0.008
-391.077	-200.000	-0.042	-0.215
-390.063	12.004	0.114	0.087
-389.048	52.675	-0.100	-0.095
-388.033	71.755	-0.073	0.076
-387.019	-200.000	-0.038	0.323
-386.004	-187.358	0.200	0.003
-384.990	-68.476	0.071	-0.027
-383.975	153.158	0.072	0.098
-382.960	-80.257	-0.186	-0.062
-381.946	-18.977	-0.485	-0.301
-380.931	90.676	-0.187	0.208
-379.917	-66.397	0.172	0.068
-378.902	214.382	0.184	0.290
-377.888	479.592	0.035	0.078
-376.873	-104.949	-0.100	-0.023
-375.858	-146.242	-0.149	0.013
-374.844	-200.000	-0.001	-0.241
-373.829	45.328	-0.175	0.161
-372.815	-31.723	0.236	0.132
-371.800	133.621	0.095	0.123
-370.785	73.149	-0.279	0.290
-369.771	19.108	-0.147	0.117
-368.756	-110.536	0.138	0.028
-367.742	-200.000	-0.011	0.065
-366.727	-13.198	0.109	-0.071
-365.712	-140.154	0.202	0.021
-364.698	264.479	-0.069	-0.120
-363.683	-118.898	0.181	-0.032
-362.669	289.907	0.097	0.176
-361.654	125.945	-0.209	-0.262
-360.639	-24.831	0.221	-0.130
-359.625	8.142	0.259	0.194
-358.610	-56.276	0.168	0.074
-357.596	-113.035	-0.294	0.058
-356.581	800.000	0.060	-0.225
-355.566	-184.895	-0.235	-0.004
-354.552	731.689	-0.108	0.288
-353.537	-24.019	-0.236	-0.140
-352.523	429.021	0.053	0.114
-351.508	188.464	-0.181	0.269
-350.493	800.000	-0.046	0.170
-349.479	410.835	-0.173	-0.365
-348.464	-54.858	0.416	-0.186
-347.450	-25.301	-0.101	0.059
-346.435	81.079	-0.164	0.176
-345.420	148.277	0.224	0.301
-344.406	216.925	-0.120	-0.189
-343.391	44.741	-0.152	0.139
-342.377	17.980	0.080	-0.064
-341.362	41.407	-0.070	0.063
-340.348	-101.896	-0.242	-0.058
-339.333	-32.991	0.065	-0.036
-338.318	-11.575	-0.106	0.069
-337.304	229.611	0.083	0.135
-336.289	502.753	0.098	-0.225
-335.275	205.506	0.101	0.156
-334.260	-200.000	0.027	-0.295
-333.245	-200.000	0.020	0.297
-332.231	447.890	0.030	0.065
-331.216	210.822	-0.113	0.177
-330.202	-47.613	-0.489	0.236
-329.187	-8.141	0.121	-0.081
-328.172	80.838	0.238	-0.256
-327.158	800.000	-0.009	-0.039
-326.143	173.841	-0.121	-0.173
-325.129	59.160	0.368	-0.360
-324.114	792.694	-0.125	0.341
-323.099	-32.291	-0.209	-0.116
-322.085	-200.000	0.037	-0.304
-321.070	-200.000	0.027	-0.127
-320.056	139.331	0.095	-0.125
-319.041	-62.290	-0.117	0.049
-318.026	-168.570	-0.112	0.004
-317.012	-200.000	0.005	-0.058
-315.997	-100.111	0.435	-0.108
-314.983	-200.000	-0.022	0.121
-313.968	104.062	0.016	0.018
-312.953	-162.047	-0.379	-0.019
-311.939	86.106	-0.225	0.246
-310.924	-35.961	0.231	0.124
-309.910	-139.408	-0.129	-0.014
-308.895	-90.741	-0.252	0.072
-307.880	-200.000	0.031	0.170
-306.866	-16.416	-0.142	0.089
-305.851	800.000	-0.028	0.096
-304.837	459.451	-0.086	0.191
-303.822	-41.803	0.329	0.167
-302.807	645.106	0.159	0.404
-301.793	-91.805	-0.267	-0.075
-300.778	-200.000	0.025	0.180
-299.764	-200.000	0.011	-0.050
-298.749	-114.048	0.287	-0.055
-297.735	-93.105	-0.113	0.031
-296.720	-2.797	0.090	0.062
-295.705	-47.327	-0.092	0.044
-294.691	-54.296	0.176	0.079
-293.676	57.080	0.080	0.077
-292.662	-200.000	-0.047	-0.468
-291.647	-51.237	0.165	0.077
-290.632	40.535	0.253	0.226
-289.618	62.914	-0.035	-0.034
-288.603	-200.000	-0.052	-0.250
-287.589	-200.000	-0.010	0.424
-286.574	-61.636	-0.022	0.009
-285.559	-41.007	0.112	0.057
-284.545	-100.299	-0.111	0.027
-283.530	292.484	-0.129	-0.232
-282.516	424.978	-0.160	-0.342
-281.501	17.727	-0.347	0.274
-280.486	688.306	0.119	0.309
-279.472	-88.010	-0.193	0.057
-278.457	52.414	0.337	-0.319
-277.443	-200.000	-0.036	-0.348
-276.428	-31.285	-0.242	0.135
-275.413	71.911	-0.083	0.085
-274.399	-48.413	-0.200	0.096
-273.384	-131.139	-0.262	0.035
-272.370	-200.000	-0.041	0.250
-271.355	50.845	-0.075	-0.070
-270.340	303.181	-0.174	-0.320
-269.326	-200.000	0.001	0.155
-268.311	787.764	0.055	0.149
-267.297	21.380	0.203	0.163
-266.282	55.394	0.187	-0.180
-265.267	111.739	0.119	0.142
-264.253	-25.030	0.188	0.110
-263.238	217.443	-0.041	-0.064
-262.224	14.845	0.283	-0.219
-261.209	189.385	0.092	-0.136
-260.195	-200.000	0.001	0.136
-259.180	-97.752	-0.101	-0.026
-258.165	800.000	0.052	0.154
-257.151	-76.831	-0.200	-0.069
-256.136	332.870	-0.223	-0.426
-255.122	77.367	-0.245	-0.259
-254.107	-40.345	0.448	0.231
-253.092	641.777	0.112	0.283
-252.078	107.529	-0.218	-0.257
-251.063	-49.132	-0.182	-0.086
-250.049	-53.495	0.340	-0.154
-249.034	41.910	0.242	-0.217
-248.019	167.365	-0.074	-0.104
-247.005	800.000	0.067	0.251
-245.990	-144.308	-0.495	-0.046
-244.976	104.883	0.091	0.106
-243.961	-16.958	0.098	-0.061
-242.946	176.765	-0.158	0.227
-241.932	-30.711	0.139	0.078
-240.917	-119.861	0.279	0.048
-239.903	-47.691	0.145	0.069
-238.888	-46.664	0.114	0.055
-237.873	-79.530	-0.405	-0.136
-236.859	-141.672	0.267	0.027
-235.844	800.000	0.020	-0.081
-234.830	130.026	0.219	-0.278
-233.815	-119.909	0.049	0.008
-232.800	800.000	0.027	-0.110
-231.786	74.162	-0.145	0.151
-230.771	566.196	-0.088	-0.212
-229.757	761.646	0.050	0.133
-228.742	364.045	0.117	0.234
-227.727	-179.461	0.252	-0.005
-226.713	-28.766	0.239	0.136
-225.698	-138.590	-0.367	-0.040
-224.684	-200.000	-0.046	0.234
-223.669	-47.042	0.435	0.210
-222.655	-200.000	-0.003	-0.243
-221.640	355.012	-0.140	-0.275
-220.625	-200.000	-0.000	-0.044
-219.611	-200.000	0.009	-0.119
-218.596	-12.126	0.091	-0.059
-217.582	-126.368	0.146	-0.021
-216.567	-87.541	-0.398	-0.119
-215.552	326.548	-0.099	0.188
-214.538	108.191	0.115	0.136
-213.523	43.485	-0.013	0.012
-212.509	67.884	-0.132	-0.134
-211.494	-90.301	-0.340	-0.098
-210.479	205.583	0.142	0.218
-209.465	411.168	0.059	0.123
-208.450	-42.941	-0.066	-0.033
-207.436	21.664	-0.059	0.047
-206.421	77.228	0.143	0.150
-205.406	800.000	0.015	-0.062
-204.392	-107.186	0.169	-0.037
-203.377	800.000	0.057	0.203
-202.363	800.000	0.092	0.267
-201.348	-200.000	-0.022	-0.098
-200.333	-45.244	0.223	0.109
-199.319	-102.969	0.164	0.039
-198.304	-25.267	-0.321	-0.188
-197.290	355.940	0.070	-0.138
-196.275	-127.712	0.238	-0.034
-195.260	-200.000	-0.035	-0.218
-194.246	-57.171	-0.197	0.086
-193.231	215.472	0.149	-0.234
-192.217	-87.717	0.261	-0.078
-191.202	800.000	-0.093	0.292
-190.187	55.933	0.339	0.325
-189.173	293.230	0.115	-0.208
-188.158	-200.000	0.052	-0.254
-187.144	-31.505	0.278	-0.155
-186.129	-200.000	0.011	0.084
-185.114	111.832	-0.238	0.284
-184.100	-149.750	-0.071	-0.006
-183.085	-119.090	0.486	0.084
-182.071	800.000	0.098	0.296
-181.056	-200.000	0.044	-0.218
-180.042	7.603	-0.355	0.262
-179.027	25.424	0.193	-0.159
-178.012	-200.000	0.027	-0.355
-176.998	-200.000	0.007	0.197
-175.983	38.372	0.122	-0.107
-174.969	-113.640	-0.187	-0.036
-173.954	187.843	0.149	-0.219
-172.939	90.533	-0.129	-0.143
-171.925	28.763	-0.105	0.088
-170.910	800.000	-0.018	-0.063
-169.896	116.284	0.106	-0.128
-168.881	-96.806	0.234	0.061
-167.866	-44.282	-0.062	-0.030
-166.852	766.844	0.080	0.214
-165.837	-124.125	0.104	-0.016
-164.823	1.825	0.288	0.205
-163.808	751.740	-0.189	-0.505
-162.793	-9.246	-0.032	-0.021
-161.779	639.096	-0.065	-0.164
-160.764	233.888	-0.118	-0.192
-159.750	362.940	-0.132	0.263
-158.735	-73.847	-0.050	0.018
-157.720	800.000	-0.040	0.145
-156.706	-113.271	-0.297	-0.058
-155.691	438.222	0.083	0.179
-154.677	-177.323	0.122	0.003
-153.662	-138.155	-0.040	0.004
-152.647	132.880	-0.232	-0.295
-151.633	-200.000	-0.015	-0.130
-150.618	-19.630	0.260	0.159
-149.604	-118.108	0.139	0.025
-148.589	642.608	-0.072	0.180
-147.574	-200.000	-0.030	0.170
-146.560	-200.000	0.024	0.319
-145.545	513.965	-0.148	0.341
-144.531	800.000	0.095	-0.281
-143.516	-200.000	-0.035	0.573
-142.502	568.191	-0.090	0.216
-141.487	-200.000	-0.005	0.168
-140.472	-200.000	0.022	-0.105
-139.458	29.146	0.225	-0.188
-138.443	-87.255	-0.114	0.034
-137.429	-111.723	0.189	0.038
-136.414	-7.604	0.231	0.154
-135.399	-14.022	0.123	0.078
-134.385	-200.000	-0.013	0.221
-133.370	800.000	-0.040	0.150
-132.356	-41.981	-0.034	-0.017
-131.341	442.529	-0.128	0.277
-130.326	-200.000	-0.031	-0.155
-129.312	800.000	0.153	0.569
-128.297	-50.854	0.135	0.062
-127.283	-200.000	-0.001	-0.330
-126.268	-200.000	0.034	-0.311
-125.253	63.592	-0.109	-0.108
-124.239	26.289	0.163	-0.134
-123.224	193.659	0.053	0.079
-122.210	-86.617	-0.073	0.022
-121.195	-96.942	0.638	0.165
