DTS Sentinel unit serial number:	SN413079Multiplexer serial number:	ORYXHardware model number:	OX4-SRSoftware version number:	ORYX F/W v4.00 Oryx Data Collector v3.7.2.0data status	okinstallation	princeton_trtdifferential loss correction	single-endedforward channel	channel 2reverse channel	N/Adate	2019/09/18time	07:15:34forward acquisition time	60.00reverse acquisition time	0.00gamma	496.2192k internal	0.2349k external	0.2349temperature offset calibration	0.9984default loss term (dB/km)	0.3790temperature slope calibration	1.0000multiplexer offset coefficient	1.0000multiplexer slope coefficient	1.0000fibre end	0.00T internal ref (°C)	23.16T ext. ref 1 (°C)	0.19T ext. ref 2 (°C)	17.39length (m)	temperature (°C)	Stokes	anti-Stokes-747.200	581.145	0.136	0.334
-746.185	-77.437	-0.583	0.202
-745.171	-111.212	0.171	0.035
-744.156	78.140	-0.276	0.294
-743.142	800.000	-0.051	-0.147
-742.127	-19.333	-0.150	-0.093
-741.112	-93.644	0.095	-0.026
-740.098	538.099	-0.170	0.403
-739.083	395.378	-0.102	0.212
-738.069	-94.302	-0.100	0.027
-737.054	-64.565	-0.195	-0.079
-736.039	-11.705	-0.163	-0.107
-735.025	-44.867	-0.096	0.048
-734.010	-200.000	-0.016	-0.227
-732.996	-200.000	-0.002	-0.385
-731.981	-77.750	0.234	-0.081
-730.966	-20.476	0.294	0.180
-729.952	519.092	0.141	0.331
-728.937	-10.441	-0.086	-0.057
-727.923	437.272	0.026	0.058
-726.908	113.424	-0.208	-0.252
-725.894	-56.813	-0.304	-0.134
-724.879	800.000	0.041	0.127
-723.864	502.047	-0.225	0.519
-722.850	-88.212	-0.090	-0.027
-721.835	-113.115	0.263	0.052
-720.821	-200.000	0.015	-0.131
-719.806	97.201	-0.217	-0.248
-718.791	-200.000	0.044	-0.350
-717.777	-175.134	-0.271	0.007
-716.762	330.448	0.075	-0.144
-715.748	45.217	-0.148	-0.136
-714.733	-91.757	-0.172	-0.049
-713.718	-58.808	0.244	-0.105
-712.704	800.000	-0.117	-0.360
-711.689	-41.848	-0.069	0.035
-710.675	617.978	0.106	0.266
-709.660	270.168	-0.082	0.144
-708.645	97.682	-0.122	-0.140
-707.631	800.000	-0.022	-0.083
-706.616	244.113	-0.154	0.258
-705.602	-200.000	0.017	0.249
-704.587	252.740	0.076	0.129
-703.572	-84.528	0.242	0.076
-702.558	80.645	0.151	-0.162
-701.543	-141.521	0.170	-0.017
-700.529	649.212	-0.090	-0.229
-699.514	-102.605	-0.104	0.025
-698.499	-200.000	-0.035	0.283
-697.485	-78.220	0.337	0.115
-696.470	-55.916	-0.254	0.113
-695.456	-83.184	-0.100	-0.032
-694.441	-151.581	0.131	-0.010
-693.426	-46.667	0.353	0.172
-692.412	157.843	-0.063	0.087
-691.397	-2.670	0.113	0.079
-690.383	122.723	-0.246	-0.307
-689.368	800.000	0.103	-0.285
-688.354	-58.886	-0.330	-0.142
-687.339	67.601	0.173	0.177
-686.324	220.242	0.180	0.288
-685.310	800.000	-0.046	0.138
-684.295	97.152	-0.193	-0.220
-683.281	-110.769	0.181	0.037
-682.266	-200.000	0.082	-0.409
-681.251	41.340	-0.196	-0.177
-680.237	-2.173	0.135	-0.094
-679.222	-14.755	0.284	0.181
-678.208	563.211	-0.203	0.490
-677.193	-105.760	-0.250	-0.056
-676.178	156.410	0.273	-0.375
-675.164	-1.015	0.096	0.068
-674.149	-88.719	-0.255	0.075
-673.135	261.111	-0.176	0.303
-672.120	800.000	-0.123	0.457
-671.105	-54.076	-0.147	0.067
-670.091	800.000	0.043	0.160
-669.076	397.989	-0.094	-0.196
-668.062	167.452	-0.265	-0.374
-667.047	109.111	0.096	0.114
-666.032	634.217	-0.029	-0.073
-665.018	-2.396	0.087	0.061
-664.003	-25.757	-0.148	-0.087
-662.989	-105.963	0.371	0.083
-661.974	-162.188	-0.262	-0.013
-660.959	-200.000	-0.337	0.000
-659.945	-139.110	-0.260	0.028
-658.930	413.871	-0.189	0.401
-657.916	-35.652	-0.110	-0.059
-656.901	382.522	-0.057	-0.117
-655.886	-1.485	0.297	-0.209
-654.872	168.295	0.075	0.106
-653.857	-200.000	-0.060	-0.355
-652.843	-98.305	0.214	0.055
-651.828	143.082	-0.093	0.123
-650.814	31.555	-0.118	-0.101
-649.799	198.477	-0.089	0.135
-648.784	800.000	0.103	-0.300
-647.770	100.504	0.060	-0.070
-646.755	800.000	-0.052	-0.175
-645.741	664.222	0.055	-0.142
-644.726	-200.000	-0.000	0.281
-643.711	-200.000	-0.011	-0.103
-642.697	800.000	-0.037	-0.118
-641.682	-143.931	0.073	0.007
-640.668	227.750	0.088	0.142
-639.653	59.189	0.078	-0.076
-638.638	-96.000	0.341	-0.090
-637.624	39.804	0.148	-0.132
-636.609	106.133	0.190	0.224
-635.595	-104.872	0.234	-0.054
-634.580	-144.717	-0.197	0.018
-633.565	-18.232	0.193	-0.120
-632.551	-200.000	-0.001	0.132
-631.536	158.542	0.100	-0.138
-630.522	-14.606	0.230	-0.147
-629.507	124.266	-0.075	-0.094
-628.492	116.590	0.178	-0.217
-627.478	279.261	-0.131	0.233
-626.463	86.457	0.278	0.305
-625.449	131.400	0.041	0.052
-624.434	-102.105	-0.138	-0.033
-623.419	-129.494	-0.123	-0.017
-622.405	-46.488	-0.148	0.072
-621.390	158.890	0.060	-0.083
-620.376	-171.936	-0.181	0.006
-619.361	364.928	-0.147	-0.294
-618.346	164.451	-0.098	-0.137
-617.332	40.592	-0.202	0.180
-616.317	-11.719	-0.333	-0.217
-615.303	749.961	0.075	-0.200
-614.288	-135.370	0.124	-0.015
-613.273	629.548	0.054	-0.136
-612.259	-200.000	0.015	-0.324
-611.244	800.000	-0.065	-0.229
-610.230	369.273	-0.052	0.104
-609.215	267.570	-0.233	0.405
-608.201	30.716	0.035	-0.030
-607.186	-163.329	0.203	0.010
-606.171	24.859	-0.218	0.180
-605.157	-86.133	-0.396	-0.121
-604.142	-117.447	0.264	0.047
-603.128	-83.443	0.317	0.101
-602.113	-156.881	-0.410	0.025
-601.098	-98.973	-0.261	-0.066
-600.084	800.000	-0.061	-0.202
-599.069	143.040	-0.127	0.167
-598.055	-124.315	0.155	0.024
-597.040	-63.073	0.226	-0.093
-596.025	-162.449	-0.050	-0.002
-595.011	216.047	-0.217	-0.343
-593.996	-200.000	0.025	-0.396
-592.982	-200.000	0.006	-0.148
-591.967	-95.442	-0.306	0.081
-590.952	800.000	0.088	-0.366
-589.938	78.491	0.173	0.184
-588.923	-29.022	-0.295	-0.168
-587.909	-200.000	-0.008	0.060
-586.894	186.771	0.117	0.174
-585.879	368.121	-0.165	0.331
-584.865	-200.000	-0.003	0.147
-583.850	800.000	0.020	0.083
-582.836	800.000	0.036	-0.136
-581.821	-52.627	-0.210	-0.096
-580.806	173.097	-0.074	-0.106
-579.792	-106.583	0.348	0.077
-578.777	800.000	-0.088	0.264
-577.763	-193.337	-0.299	0.003
-576.748	-200.000	0.012	0.132
-575.733	-200.000	-0.002	0.007
-574.719	28.753	0.072	0.061
-573.704	404.323	-0.062	-0.130
-572.690	-172.337	0.155	0.005
-571.675	-107.020	0.154	0.034
-570.661	800.000	-0.093	0.318
-569.646	-86.000	0.226	-0.069
-568.631	-68.082	0.249	-0.096
-567.617	115.516	-0.068	-0.082
-566.602	-131.767	0.205	0.027
-565.588	-62.595	-0.210	-0.087
-564.573	800.000	0.018	-0.057
-563.558	-99.529	-0.244	0.061
-562.544	24.298	0.317	-0.260
-561.529	29.357	0.276	-0.233
-560.515	-163.406	-0.097	0.005
-559.500	-98.128	-0.049	0.012
-558.485	800.000	-0.052	0.205
-557.471	-79.728	0.285	-0.095
-556.456	800.000	0.050	-0.191
-555.442	-138.267	-0.103	-0.011
-554.427	-142.915	-0.487	0.047
-553.412	5.419	0.134	-0.098
-552.398	-1.326	-0.146	-0.102
-551.383	-171.751	0.162	-0.005
-550.369	-113.752	0.362	0.070
-549.354	114.313	0.199	0.241
-548.339	-32.835	0.134	-0.074
-547.325	-42.686	0.163	-0.082
-546.310	363.100	0.111	-0.221
-545.296	-20.883	-0.296	0.180
-544.281	-5.745	-0.214	0.145
-543.266	-85.853	0.186	-0.057
-542.252	157.619	-0.176	0.241
-541.237	1.129	0.330	0.234
-540.223	685.172	0.157	0.407
-539.208	-30.834	0.136	0.076
-538.193	100.725	0.077	-0.088
-537.179	-39.502	0.087	-0.045
-536.164	-41.465	-0.234	0.119
-535.150	-123.570	0.211	0.033
-534.135	-66.584	0.071	0.028
-533.121	-8.639	-0.293	-0.195
-532.106	-155.921	0.290	0.018
-531.091	-104.238	-0.330	-0.076
-530.077	-9.227	0.140	0.092
-529.062	8.202	-0.464	0.345
-528.048	-99.620	-0.324	0.081
-527.033	-200.000	0.059	-0.297
-526.018	177.054	0.126	-0.181
-525.004	-200.000	-0.036	-0.197
-523.989	800.000	-0.074	-0.255
-522.975	39.358	-0.106	-0.094
-521.960	-20.221	0.308	-0.188
-520.945	6.416	-0.237	-0.174
-519.931	54.563	0.347	0.331
-518.916	-66.795	-0.087	-0.034
-517.902	800.000	-0.015	-0.042
-516.887	-129.472	-0.235	-0.032
-515.872	-49.737	-0.146	0.069
-514.858	103.730	0.126	-0.146
-513.843	-14.122	0.322	-0.205
-512.829	-76.145	-0.269	-0.094
-511.814	-198.757	-0.135	0.001
-510.799	-46.093	-0.151	-0.074
-509.785	208.660	0.117	-0.181
-508.770	276.435	-0.168	0.295
-507.756	182.604	0.157	0.230
-506.741	-121.712	-0.251	0.041
-505.726	95.017	0.096	0.108
-504.712	-42.574	-0.331	-0.167
-503.697	400.556	-0.141	0.293
-502.683	8.761	0.050	-0.037
-501.668	4.803	-0.073	0.053
-500.653	-200.000	-0.001	-0.231
-499.639	-200.000	0.012	0.056
-498.624	302.813	-0.099	0.181
-497.610	-200.000	0.006	0.229
-496.595	45.569	0.165	0.151
-495.581	-200.000	-0.019	0.088
-494.566	-116.690	0.146	-0.027
-493.551	-44.641	0.210	0.104
-492.537	-27.152	-0.160	-0.092
-491.522	-84.920	-0.127	-0.039
-490.508	-52.234	-0.183	0.084
-489.493	192.752	0.182	0.272
-488.478	102.253	-0.119	0.137
-487.464	-155.621	-0.196	-0.012
-486.449	-200.000	-0.029	-0.146
-485.435	112.074	-0.344	-0.411
-484.420	-200.000	0.001	-0.085
-483.405	69.471	0.342	-0.348
-482.391	-200.000	-0.020	0.134
-481.376	-43.318	-0.254	-0.127
-480.362	201.131	-0.159	0.242
-479.347	-136.480	-0.566	-0.065
-478.332	-154.845	0.387	-0.025
-477.318	-138.311	-0.403	0.044
-476.303	76.337	0.129	0.135
-475.289	-42.958	-0.234	0.117
-474.274	-43.076	-0.196	0.098
-473.259	-111.163	0.177	0.036
-472.245	800.000	-0.023	-0.086
-471.230	378.291	-0.013	-0.027
-470.216	275.732	0.127	-0.222
-469.201	397.787	-0.091	-0.189
-468.186	12.571	0.121	-0.092
-467.172	-200.000	-0.013	-0.064
-466.157	-167.319	-0.032	-0.001
-465.143	-70.205	-0.137	0.052
-464.128	800.000	-0.022	-0.073
-463.113	-200.000	0.013	0.171
-462.099	-102.625	-0.283	0.067
-461.084	-2.119	-0.348	0.241
-460.070	-83.852	0.069	0.022
-459.055	800.000	-0.038	-0.120
-458.040	359.492	0.040	-0.079
-457.026	-24.282	0.190	0.112
-456.011	-75.815	0.145	0.051
-454.997	-115.468	-0.152	-0.028
-453.982	-133.986	-0.317	0.039
-452.968	-200.000	-0.019	-0.089
-451.953	-98.261	-0.254	0.064
-450.938	22.503	0.173	-0.139
-449.924	52.391	0.080	-0.075
-448.909	-200.000	0.013	-0.100
-447.895	800.000	-0.075	0.243
-446.880	29.089	-0.180	0.151
-445.865	-200.000	-0.046	-0.263
-444.851	348.268	0.074	-0.145
-443.836	20.894	-0.056	0.045
-442.822	-111.854	0.445	-0.089
-441.807	-125.080	0.275	0.042
-440.792	-148.690	-0.200	-0.016
-439.778	800.000	0.045	-0.170
-438.763	12.138	0.087	-0.066
-437.749	83.565	0.232	0.250
-436.734	-200.000	-0.009	0.275
-435.719	346.635	-0.046	-0.090
-434.705	227.891	-0.108	0.174
-433.690	572.316	0.053	-0.128
-432.676	32.401	0.159	0.136
-431.661	551.134	-0.113	0.268
-430.646	525.175	0.161	-0.374
-429.632	317.099	-0.081	0.152
-428.617	180.163	-0.065	0.095
-427.603	6.913	0.189	0.139
-426.588	40.987	-0.122	0.109
-425.573	-200.000	0.013	-0.149
-424.559	398.134	-0.039	-0.081
-423.544	-84.110	0.291	0.091
-422.530	800.000	-0.039	-0.144
-421.515	-86.888	0.118	0.036
-420.500	190.232	-0.171	-0.253
-419.486	-83.004	-0.287	0.091
-418.471	-39.808	0.249	-0.128
-417.457	13.178	-0.111	-0.085
-416.442	800.000	0.055	0.171
-415.428	143.270	0.138	-0.181
-414.413	428.797	0.060	-0.129
-413.398	800.000	-0.067	0.247
-412.384	190.159	0.104	-0.154
-411.369	800.000	0.019	0.066
-410.355	262.104	-0.052	-0.089
-409.340	-101.191	0.202	0.049
-408.325	37.366	0.154	0.134
-407.311	-200.000	0.006	-0.086
-406.296	800.000	0.039	-0.119
-405.282	41.879	0.035	-0.031
-404.267	-98.475	-0.371	-0.094
-403.252	70.180	0.108	-0.110
-402.238	21.454	-0.065	0.052
-401.223	-10.050	0.360	0.236
-400.209	157.983	0.166	-0.227
-399.194	379.185	-0.098	-0.198
-398.179	231.394	0.100	0.161
-397.165	-7.907	-0.034	-0.023
-396.150	-69.786	-0.311	-0.117
-395.136	-153.581	0.243	0.017
-394.121	-200.000	0.025	0.260
-393.106	175.767	-0.291	-0.416
-392.092	-116.767	-0.174	-0.031
-391.077	800.000	0.073	0.244
-390.063	130.480	0.064	0.081
-389.048	-86.048	0.070	-0.021
-388.033	12.529	-0.182	0.138
-387.019	-99.424	-0.292	-0.072
-386.004	-200.000	0.007	-0.258
-384.990	166.275	-0.078	-0.108
-383.975	279.236	0.201	-0.353
-382.960	-1.802	0.156	-0.108
-381.946	53.726	0.128	-0.121
-380.931	184.652	-0.106	0.155
-379.917	-37.592	-0.253	0.133
-378.902	212.055	0.252	-0.392
-377.888	183.546	0.013	-0.019
-376.873	-69.939	-0.126	0.047
-375.858	-76.863	-0.121	0.042
-374.844	800.000	-0.067	-0.192
-373.829	-91.578	0.109	0.031
-372.815	-23.684	0.255	-0.151
-371.800	800.000	0.034	-0.120
-370.785	800.000	0.130	0.419
-369.771	800.000	-0.085	0.353
-368.756	-128.672	-0.154	0.021
-367.742	56.272	-0.142	0.136
-366.727	132.407	-0.028	0.036
-365.712	383.651	0.053	0.107
-364.698	52.935	0.124	0.117
-363.683	800.000	0.048	-0.133
-362.669	-129.018	0.339	-0.047
-361.654	-45.879	0.145	0.070
-360.639	-200.000	0.011	0.175
-359.625	-100.052	-0.047	-0.011
-358.610	-200.000	0.116	0.532
-357.596	-200.000	-0.019	0.153
-356.581	800.000	-0.004	-0.014
-355.566	800.000	-0.021	0.088
-354.552	278.029	0.097	0.170
-353.537	-105.229	-0.558	0.125
-352.523	-53.707	0.221	-0.099
-351.508	52.861	-0.055	0.052
-350.493	43.907	-0.057	0.051
-349.479	219.176	0.009	-0.015
-348.464	61.028	0.329	0.321
-347.450	331.311	0.067	0.127
-346.435	220.653	-0.113	0.178
-345.420	-66.044	0.325	-0.127
-344.406	800.000	-0.025	-0.077
-343.391	488.602	0.120	-0.270
-342.377	-92.268	0.107	0.030
-341.362	800.000	-0.038	-0.141
-340.348	141.237	-0.197	0.256
-339.333	-22.783	0.040	-0.024
-338.318	-78.282	-0.238	0.080
-337.304	181.432	0.116	0.168
-336.289	102.460	0.141	-0.162
-335.275	-92.853	0.239	0.066
-334.260	3.162	0.176	-0.126
-333.245	-134.893	-0.362	-0.043
-332.231	64.608	0.100	-0.099
-331.216	800.000	-0.118	-0.384
-330.202	-89.597	-0.228	0.066
-329.187	53.040	-0.112	-0.106
-328.172	800.000	-0.089	0.281
-327.158	233.758	-0.072	0.116
-326.143	-154.516	0.132	-0.009
-325.129	-196.569	-0.068	-0.000
-324.114	509.797	0.157	0.359
-323.099	-6.355	-0.097	0.065
-322.085	642.584	-0.202	0.505
-321.070	22.842	-0.252	-0.203
-320.056	276.015	-0.074	-0.129
-319.041	283.671	0.066	0.116
-318.026	1.172	0.182	-0.128
-317.012	-100.731	-0.215	-0.052
-315.997	-75.996	-0.124	-0.043
-314.983	-132.358	0.123	0.016
-313.968	3.257	-0.030	-0.021
-312.953	-25.606	0.087	0.051
-311.939	-200.000	-0.029	-0.338
-310.924	-56.903	0.387	0.168
-309.910	59.839	0.175	-0.170
-308.895	-200.000	-0.047	-0.299
-307.880	141.808	0.226	-0.294
-306.866	-24.219	0.165	-0.097
-305.851	241.827	0.034	-0.056
-304.837	-131.510	0.133	0.017
-303.822	-109.709	-0.041	0.009
-302.807	-35.352	-0.233	-0.124
-301.793	-169.600	-0.189	0.007
-300.778	-85.173	0.107	-0.033
-299.764	800.000	0.061	0.172
-298.749	-200.000	0.027	-0.127
-297.735	63.862	0.295	0.291
-296.720	7.683	0.179	-0.131
-295.705	22.985	-0.151	0.122
-294.691	752.490	-0.099	0.263
-293.676	-200.000	0.010	-0.255
-292.662	-200.000	-0.008	-0.257
-291.647	560.206	-0.064	0.152
-290.632	-163.817	-0.403	0.019
-289.618	800.000	0.052	0.160
-288.603	-200.000	-0.037	0.305
-287.589	-200.000	-0.013	0.091
-286.574	-100.680	-0.070	0.017
-285.559	366.788	0.085	-0.167
-284.545	-9.849	0.096	-0.063
-283.530	-200.000	0.018	0.084
-282.516	68.169	-0.068	-0.068
-281.501	294.587	0.145	0.261
-280.486	-200.000	0.049	0.232
-279.472	31.143	-0.142	-0.119
-278.457	36.180	-0.279	-0.241
-277.443	115.218	0.107	0.128
-276.428	-34.642	-0.142	-0.076
-275.413	-200.000	-0.029	-0.322
-274.399	106.514	-0.166	-0.193
-273.384	159.906	0.303	0.413
-272.370	-43.437	-0.144	-0.071
-271.355	481.682	0.051	-0.113
-270.340	-61.328	-0.161	0.066
-269.326	132.965	-0.080	-0.101
-268.311	122.015	-0.215	0.264
-267.297	-75.651	-0.380	0.132
-266.282	-122.869	0.234	-0.037
-265.267	388.882	0.111	0.226
-264.253	-143.965	-0.032	-0.003
-263.238	32.803	0.163	-0.139
-262.224	-88.157	0.082	-0.024
-261.209	19.390	-0.135	0.106
-260.195	431.086	0.114	-0.242
-259.180	-32.264	-0.112	0.061
-258.165	-134.553	0.364	0.044
-257.151	53.495	0.313	0.295
-256.136	-29.691	0.103	0.057
-255.122	800.000	-0.136	-0.398
-254.107	140.849	-0.201	0.260
-253.092	-52.217	0.520	0.236
-252.078	82.577	-0.074	-0.079
-251.063	-152.910	-0.065	-0.005
-250.049	353.762	-0.054	0.106
-249.034	-28.039	0.398	-0.225
-248.019	-10.457	0.081	-0.053
-247.005	57.509	-0.086	-0.082
-245.990	-200.000	-0.004	0.048
-244.976	578.042	0.116	0.278
-243.961	9.096	0.125	-0.093
-242.946	263.220	0.116	-0.197
-241.932	-200.000	-0.039	-0.215
-240.917	17.647	-0.121	0.094
-239.903	-200.000	0.008	0.451
-238.888	23.279	0.134	0.107
-237.873	112.207	0.052	0.062
-236.859	-200.000	-0.028	-0.203
-235.844	-200.000	0.065	-0.340
-234.830	-200.000	-0.016	0.103
-233.815	-186.082	0.113	0.002
-232.800	-200.000	0.042	0.209
-231.786	98.689	0.247	-0.279
-230.771	-64.175	0.128	-0.051
-229.757	-133.407	-0.212	-0.026
-228.742	-84.051	-0.256	0.080
-227.727	110.534	0.058	-0.068
-226.713	-155.931	-0.323	0.020
-225.698	-49.608	0.141	0.066
-224.684	226.930	0.215	-0.342
-223.669	-173.263	0.179	-0.005
-222.655	101.787	-0.188	-0.214
-221.640	-66.046	0.222	0.087
-220.625	-83.846	-0.084	-0.026
-219.611	193.976	-0.034	0.050
-218.596	-153.423	-0.077	-0.005
-217.582	-53.077	0.077	-0.034
-216.567	800.000	-0.069	-0.213
-215.552	-109.918	-0.100	-0.020
-214.538	-67.443	0.354	-0.136
-213.523	-39.872	-0.315	-0.161
-212.509	175.975	-0.208	0.295
-211.494	-34.653	0.251	0.135
-210.479	-200.000	0.017	-0.084
-209.465	307.035	0.097	-0.178
-208.450	93.135	0.099	-0.110
-207.436	-41.351	0.059	0.030
-206.421	37.701	-0.440	-0.382
-205.406	800.000	0.095	0.336
-204.392	-71.343	0.304	-0.111
-203.377	-62.714	-0.178	-0.072
-202.363	260.200	0.117	0.197
-201.348	-89.868	0.303	-0.086
-200.333	-136.340	0.532	0.061
-199.319	800.000	0.017	-0.050
-198.304	-94.206	0.032	0.009
-197.290	180.137	-0.160	-0.230
-196.275	110.427	0.097	-0.114
-195.260	201.198	0.144	0.217
-194.246	26.929	-0.020	-0.016
-193.231	-200.000	-0.010	-0.190
-192.217	355.507	-0.154	-0.300
-191.202	190.895	-0.119	0.174
-190.187	-26.014	0.131	0.075
-189.173	-164.329	0.199	0.009
-188.158	-130.101	-0.472	0.063
-187.144	-125.386	0.238	0.035
-186.129	335.214	-0.104	-0.197
-185.114	800.000	0.071	0.237
-184.100	86.223	-0.308	0.331
-183.085	-11.401	0.203	0.130
-182.071	15.465	-0.184	-0.141
-181.056	-34.781	-0.282	0.151
-180.042	-24.633	0.054	0.032
-179.027	278.545	0.177	0.308
-178.012	-79.240	-0.161	-0.053
-176.998	-13.097	-0.215	-0.137
-175.983	109.685	-0.183	-0.215
-174.969	-200.000	-0.021	0.294
-173.954	800.000	-0.024	0.083
-172.939	47.344	0.059	0.054
-171.925	196.062	0.117	-0.174
-170.910	-200.000	0.022	0.300
-169.896	800.000	-0.076	-0.227
-168.881	157.322	0.134	0.181
-167.866	25.047	-0.223	0.181
-166.852	-200.000	-0.047	0.510
-165.837	17.028	0.155	-0.120
-164.823	-151.680	-0.439	-0.032
-163.808	-200.000	0.053	0.264
-162.793	-58.462	-0.066	0.028
-161.779	168.011	0.134	0.186
-160.764	-127.828	0.418	0.059
-159.750	-122.328	-0.160	-0.025
-158.735	-23.774	0.153	-0.090
-157.720	-65.597	-0.096	-0.038
-156.706	27.241	0.231	0.190
-155.691	-19.650	-0.147	-0.089
-154.677	200.935	-0.148	0.222
-153.662	800.000	-0.082	-0.269
-152.647	197.387	-0.078	-0.117
-151.633	-200.000	-0.029	0.143
-150.618	263.647	-0.078	-0.132
-149.604	-96.117	0.376	0.097
-148.589	-200.000	-0.004	-0.138
-147.574	16.343	0.209	0.161
-146.560	-30.415	0.119	0.066
-145.545	-115.977	0.067	0.012
-144.531	121.412	0.170	0.207
-143.516	293.963	-0.074	-0.131
-142.502	-118.936	-0.209	-0.036
-141.487	-8.628	-0.114	-0.075
-140.472	800.000	-0.047	0.198
-139.458	-127.139	0.265	-0.038
-138.443	249.802	0.176	0.291
-137.429	133.136	0.186	-0.234
-136.414	135.587	-0.301	0.382
-135.399	312.435	0.032	-0.059
-134.385	-167.866	-0.201	-0.008
-133.370	15.603	-0.198	-0.152
-132.356	-119.840	0.449	-0.075
-131.341	-87.755	-0.177	-0.052
-130.326	-19.298	0.216	0.131
-129.312	522.184	0.120	-0.274
-128.297	-106.070	0.215	-0.047
-127.283	19.101	0.265	-0.208
-126.268	262.469	0.073	-0.123
-125.253	-200.000	0.049	-0.267
-124.239	-122.361	0.206	0.033
-123.224	-200.000	-0.066	-0.546
-122.210	-63.368	-0.136	-0.054
-121.195	-200.000	0.008	-0.050
