DTS Sentinel unit serial number:	SN413079Multiplexer serial number:	ORYXHardware model number:	OX4-SRSoftware version number:	ORYX F/W v4.00 Oryx Data Collector v3.7.2.0data status	okinstallation	princeton_trtdifferential loss correction	single-endedforward channel	channel 2reverse channel	N/Adate	2019/09/12time	19:55:49forward acquisition time	15.00reverse acquisition time	0.00gamma	496.2192k internal	0.2327k external	0.2327temperature offset calibration	1.0163default loss term (dB/km)	0.3790temperature slope calibration	1.0000multiplexer offset coefficient	1.0000multiplexer slope coefficient	1.0000fibre end	0.00T internal ref (°C)	31.81T ext. ref 1 (°C)	3.49T ext. ref 2 (°C)	26.42length (m)	temperature (°C)	Stokes	anti-Stokes-747.200	800.000	-0.224	-0.638
-746.185	-70.960	0.219	0.083
-745.171	10.165	0.715	0.548
-744.156	-89.776	0.130	0.038
-743.142	-200.000	0.179	-0.865
-742.127	-200.000	-0.067	0.461
-741.112	69.575	0.146	-0.152
-740.098	-200.000	0.046	-0.242
-739.083	376.570	-0.490	-1.008
-738.069	-68.695	-0.681	-0.265
-737.054	61.849	0.428	-0.430
-736.039	76.839	-0.330	0.353
-735.025	410.542	-0.214	-0.458
-734.010	-10.828	-0.581	0.387
-732.996	800.000	-0.148	-0.515
-731.981	-49.656	-0.761	0.365
-730.966	800.000	0.204	0.664
-729.952	54.300	-0.325	-0.315
-728.937	-54.639	0.435	-0.198
-727.923	-200.000	0.044	-0.259
-726.908	35.282	-0.441	-0.389
-725.894	388.903	-0.475	0.990
-724.879	123.873	0.257	0.326
-723.864	-93.934	-1.062	-0.294
-722.850	327.118	0.077	0.149
-721.835	-108.996	-0.221	0.047
-720.821	-77.402	-0.250	-0.088
-719.806	7.060	-0.554	-0.416
-718.791	800.000	-0.189	-0.815
-717.777	-200.000	-0.070	-0.887
-716.762	-83.378	-0.410	-0.132
-715.748	-200.000	0.085	0.543
-714.733	376.946	-0.163	-0.336
-713.718	106.194	0.428	-0.510
-712.704	-200.000	-0.040	0.334
-711.689	-114.944	0.199	-0.038
-710.675	28.709	0.403	-0.343
-709.660	-200.000	-0.012	0.113
-708.645	123.087	0.069	0.087
-707.631	800.000	0.163	-0.660
-706.616	-200.000	-0.002	0.064
-705.602	171.442	-0.378	0.545
-704.587	41.876	-0.237	0.216
-703.572	-200.000	0.118	0.551
-702.558	286.427	-0.183	0.333
-701.543	204.551	-0.243	-0.379
-700.529	-8.289	-0.757	-0.512
-699.514	-2.448	-0.232	0.164
-698.499	-12.445	-0.473	0.311
-697.485	31.527	0.446	0.386
-696.470	303.587	-0.230	-0.428
-695.456	-200.000	0.033	-0.505
-694.441	10.083	-1.025	-0.784
-693.426	-1.122	0.558	-0.397
-692.412	28.693	-0.379	-0.323
-691.397	289.762	-0.255	-0.465
-690.383	-200.000	-0.070	-0.472
-689.368	-200.000	0.010	0.445
-688.354	-200.000	0.052	-0.471
-687.339	-150.857	0.484	-0.037
-686.324	800.000	-0.044	-0.131
-685.310	23.391	0.581	-0.481
-684.295	643.362	-0.117	-0.299
-683.281	184.519	0.217	0.324
-682.266	22.376	-0.643	-0.528
-681.251	-0.331	0.999	-0.714
-680.237	205.394	-0.260	0.405
-679.222	-162.933	0.277	0.014
-678.208	-200.000	0.084	-0.447
-677.193	45.311	0.165	0.153
-676.178	-200.000	-0.129	-0.748
-675.164	-200.000	-0.194	0.941
-674.149	559.657	-0.167	0.406
-673.135	-200.000	0.215	-1.002
-672.120	50.502	-0.344	-0.327
-671.105	-101.332	-0.824	0.202
-670.091	-158.982	-0.729	-0.042
-669.076	-74.310	0.448	-0.163
-668.062	-200.000	0.051	-0.280
-667.047	-77.908	0.939	0.326
-666.032	109.534	-0.385	-0.463
-665.018	-26.396	-0.528	-0.311
-664.003	-8.672	-0.353	-0.238
-662.989	-119.721	0.320	0.056
-661.974	-53.726	0.454	-0.208
-660.959	800.000	0.257	-1.024
-659.945	-12.632	-0.588	0.385
-658.930	800.000	0.092	0.361
-657.916	-72.571	0.217	0.081
-656.901	-200.000	-0.085	-1.219
-655.886	-112.469	-0.367	-0.074
-654.872	-151.079	-0.450	-0.034
-653.857	-47.477	0.038	-0.019
-652.843	499.285	-0.261	0.605
-651.828	800.000	0.030	-0.127
-650.814	64.007	-0.077	0.078
-649.799	199.075	-0.254	-0.391
-648.784	-31.216	0.028	-0.016
-647.770	-139.374	-0.530	0.057
-646.755	149.386	0.068	-0.093
-645.741	41.798	0.352	-0.320
-644.726	-94.532	-1.004	0.275
-643.711	-200.000	0.067	-0.488
-642.697	-152.827	-0.375	0.027
-641.682	99.769	-0.172	-0.200
-640.668	-82.699	0.485	-0.158
-639.653	-132.910	-0.897	-0.115
-638.638	-144.208	0.438	0.041
-637.624	-40.921	0.274	0.142
-636.609	-200.000	-0.018	-0.145
-635.595	568.719	0.248	-0.606
-634.580	120.236	0.254	0.317
-633.565	49.262	-0.495	0.467
-632.551	-200.000	-0.011	-0.468
-631.536	72.638	-0.239	0.250
-630.522	9.534	0.619	-0.470
-629.507	55.210	-0.244	-0.237
-628.492	-43.131	0.242	0.123
-627.478	441.205	0.275	-0.604
-626.463	598.965	-0.065	0.161
-625.449	-132.596	-0.591	-0.076
-624.434	27.593	0.876	-0.740
-623.419	549.314	-0.327	-0.787
-622.405	124.138	-0.171	-0.216
-621.390	128.650	0.168	-0.215
-620.376	79.017	0.220	-0.236
-619.361	-167.394	0.119	0.005
-618.346	-60.307	0.270	-0.115
-617.332	189.764	0.123	-0.185
-616.317	-1.016	-0.045	-0.032
-615.303	34.165	-0.590	-0.516
-614.288	-186.818	-1.243	0.017
-613.273	-121.776	-0.254	0.042
-612.259	0.964	0.328	-0.236
-611.244	-120.260	-0.297	0.051
-610.230	258.174	0.241	0.415
-609.215	-200.000	0.132	-0.960
-608.201	-140.660	-0.481	-0.050
-607.186	58.965	0.527	0.519
-606.171	-200.000	0.010	-0.116
-605.157	235.562	-0.409	-0.678
-604.142	800.000	-0.195	-0.673
-603.128	-11.842	0.335	-0.220
-602.113	800.000	0.107	-0.343
-601.098	121.085	-0.491	-0.613
-600.084	465.253	-0.227	0.508
-599.069	166.669	-0.273	0.388
-598.055	-50.671	-0.229	-0.108
-597.040	120.464	-0.266	0.331
-596.025	-200.000	-0.058	-0.688
-595.011	-24.112	0.864	-0.517
-593.996	315.977	0.253	-0.479
-592.982	54.926	0.416	-0.402
-591.967	456.663	-0.334	0.742
-590.952	-58.419	0.400	0.174
-589.938	153.800	-0.251	0.345
-588.923	800.000	-0.177	0.644
-587.909	-200.000	0.200	-1.193
-586.894	800.000	0.009	-0.028
-585.879	-8.256	0.273	0.184
-584.865	-74.978	0.545	0.195
-583.850	-86.407	0.534	0.165
-582.836	-200.000	0.094	-0.443
-581.821	655.475	0.339	0.871
-580.806	-200.000	0.053	0.241
-579.792	35.604	0.313	0.275
-578.777	-46.383	0.196	-0.096
-577.763	-200.000	-0.134	-0.643
-576.748	82.184	-0.820	-0.891
-575.733	-149.901	-0.417	-0.033
-574.719	289.175	0.155	-0.281
-573.704	405.232	0.241	0.509
-572.690	24.366	-0.076	0.063
-571.675	206.481	0.543	0.846
-570.661	-200.000	0.089	1.045
-569.646	-35.252	1.077	0.587
-568.631	50.759	-0.464	-0.439
-567.617	190.332	-0.087	-0.131
-566.602	105.605	0.280	-0.331
-565.588	-88.944	-0.522	-0.155
-564.573	-151.769	0.629	-0.046
-563.558	196.651	0.171	-0.261
-562.544	800.000	0.105	-0.411
-561.529	-200.000	-0.008	-0.813
-560.515	-200.000	-0.079	0.499
-559.500	112.130	0.242	0.293
-558.485	-134.672	0.475	0.058
-557.471	724.415	0.287	-0.764
-556.456	-34.313	-0.566	0.311
-555.442	800.000	0.185	-0.698
-554.427	-81.053	-0.552	-0.183
-553.412	-122.443	-0.576	-0.094
-552.398	40.509	-0.436	-0.393
-551.383	484.006	-0.035	0.079
-550.369	454.058	-0.159	-0.352
-549.354	149.457	0.360	0.488
-548.339	-48.494	0.584	0.281
-547.325	-200.000	-0.101	0.456
-546.310	-12.555	-0.488	0.318
-545.296	800.000	0.095	-0.356
-544.281	55.695	-0.355	-0.344
-543.266	39.465	-0.388	-0.348
-542.252	-67.386	0.086	-0.034
-541.237	-200.000	0.114	0.511
-540.223	232.667	-0.368	-0.604
-539.208	11.532	0.382	0.293
-538.193	-10.882	-0.106	-0.070
-537.179	87.712	0.671	0.743
-536.164	-114.347	0.437	-0.084
-535.150	6.307	-0.404	0.300
-534.135	-200.000	0.035	-0.289
-533.121	54.424	0.539	0.519
-532.106	78.606	0.355	-0.380
-531.091	212.791	-0.232	0.365
-530.077	-200.000	0.042	0.678
-529.062	-200.000	-0.111	-0.809
-528.048	-40.830	-0.993	-0.514
-527.033	-102.193	-0.578	-0.139
-526.018	-200.000	-0.015	0.131
-525.004	-200.000	0.014	-0.587
-523.989	-85.996	-0.773	-0.239
-522.975	-45.714	0.711	-0.351
-521.960	-25.646	-0.363	-0.214
-520.945	-27.461	-0.479	0.278
-519.931	114.479	-0.565	0.687
-518.916	12.475	-0.582	0.448
-517.902	-200.000	0.078	-0.616
-516.887	320.597	0.142	0.270
-515.872	3.006	0.526	0.382
-514.858	-46.890	0.452	0.221
-513.843	-8.527	0.523	-0.351
-512.829	-90.153	-0.634	0.184
-511.814	-200.000	-0.013	0.061
-510.799	-102.147	0.283	-0.068
-509.785	755.881	-0.320	-0.863
-508.770	226.780	0.067	0.109
-507.756	644.956	-0.242	0.617
-506.741	-169.036	-0.327	0.012
-505.726	800.000	0.267	1.005
-504.712	800.000	0.127	0.369
-503.697	72.019	0.462	0.480
-502.683	-30.956	-0.344	0.194
-501.668	-44.204	-0.116	-0.058
-500.653	-200.000	0.120	0.579
-499.639	-165.561	-0.513	-0.022
-498.624	-84.213	0.417	-0.132
-497.610	-170.707	-0.608	-0.021
-496.595	53.062	0.305	0.292
-495.581	-200.000	-0.012	-0.078
-494.566	151.068	0.714	-0.970
-493.551	-160.272	-0.163	-0.009
-492.537	-64.295	-0.882	0.358
-491.522	75.289	-0.350	-0.369
-490.508	124.104	-0.059	0.074
-489.493	16.097	0.347	0.273
-488.478	-200.000	-0.023	-0.392
-487.464	-198.510	-0.353	-0.002
-486.449	-200.000	-0.016	0.136
-485.435	-28.004	-0.792	0.457
-484.420	-200.000	-0.036	-0.396
-483.405	-200.000	0.105	0.479
-482.391	280.084	0.210	-0.374
-481.376	800.000	0.093	0.391
-480.362	800.000	-0.175	0.609
-479.347	17.421	-0.058	-0.046
-478.332	800.000	0.189	0.574
-477.318	800.000	-0.119	0.361
-476.303	-45.798	-0.695	-0.343
-475.289	-152.403	-0.300	0.022
-474.274	76.190	-0.409	0.431
-473.259	-200.000	0.154	-0.967
-472.245	11.985	0.354	-0.272
-471.230	115.036	0.544	-0.662
-470.216	137.715	0.319	-0.417
-469.201	557.630	-0.311	0.747
-468.186	-200.000	0.006	0.072
-467.172	27.060	0.244	0.204
-466.157	253.786	0.039	-0.066
-465.143	-101.013	-0.576	0.141
-464.128	47.082	0.890	0.826
-463.113	-15.420	0.670	0.427
-462.099	-156.980	-0.724	-0.044
-461.084	800.000	-0.060	-0.187
-460.070	-28.302	0.607	-0.349
-459.055	800.000	-0.128	-0.506
-458.040	-117.745	-0.723	-0.130
-457.026	-58.872	0.413	-0.178
-456.011	-7.238	-0.269	-0.182
-454.997	-24.894	0.486	-0.287
-453.982	-200.000	0.105	0.608
-452.968	-95.198	0.363	0.097
-451.953	-153.684	0.290	0.020
-450.938	-104.526	0.464	-0.107
-449.924	-75.371	0.369	0.131
-448.909	88.603	0.265	-0.294
-447.895	189.479	-0.152	-0.228
-446.880	800.000	0.061	0.177
-445.865	-200.000	-0.053	-0.262
-444.851	-28.896	0.533	0.305
-443.836	-85.392	-0.435	-0.135
-442.822	800.000	-0.095	-0.270
-441.807	-166.625	0.385	-0.016
-440.792	-31.948	-0.441	-0.246
-439.778	140.141	-0.381	-0.500
-438.763	11.991	-0.350	0.268
-437.749	-120.889	-0.183	0.031
-436.734	-100.357	-1.111	-0.274
-435.719	76.012	-0.137	0.145
-434.705	-93.382	0.342	-0.094
-433.690	-50.241	-0.419	-0.197
-432.676	-30.262	-0.215	-0.122
-431.661	-200.000	0.015	-0.079
-430.646	5.655	0.469	-0.345
-429.632	-88.551	-0.287	0.085
-428.617	-44.388	-0.124	-0.062
-427.603	193.570	-0.345	0.519
-426.588	119.463	-0.707	0.871
-425.573	376.581	0.235	-0.477
-424.559	-159.760	0.783	-0.043
-423.544	-117.925	0.832	0.148
-422.530	-200.000	-0.016	0.439
-421.515	149.294	-0.232	0.312
-420.500	192.901	-0.675	1.015
-419.486	-175.777	0.385	0.010
-418.471	268.648	-0.251	-0.438
-417.457	18.994	-0.273	0.218
-416.442	64.927	0.529	-0.532
-415.428	273.629	0.152	-0.267
-414.413	-35.199	-0.268	-0.145
-413.398	290.067	0.249	0.449
-412.384	-100.412	0.521	0.128
-411.369	-200.000	-0.014	0.095
-410.355	-50.304	-0.300	0.141
-409.340	76.654	0.070	0.074
-408.325	670.056	0.194	0.499
-407.311	-200.000	0.135	-0.825
-406.296	-138.428	0.312	-0.034
-405.282	-200.000	0.077	-0.601
-404.267	11.119	-0.252	0.191
-403.252	-104.051	-0.828	-0.192
-402.238	-200.000	-0.016	-0.470
-401.223	16.740	-0.671	0.528
-400.209	-200.000	0.103	1.035
-399.194	-200.000	-0.012	-0.215
-398.179	-200.000	0.040	-0.189
-397.165	800.000	0.264	0.731
-396.150	-194.265	-0.358	-0.003
-395.136	-27.610	-0.227	0.131
-394.121	-82.858	0.316	0.101
-393.106	5.876	-0.231	0.170
-392.092	-41.431	0.817	-0.418
-391.077	-116.675	-0.543	0.099
-390.063	-200.000	-0.079	0.469
-389.048	6.255	0.188	-0.139
-388.033	-59.905	0.621	-0.264
-387.019	288.408	0.286	0.514
-386.004	47.038	-0.181	-0.167
-384.990	111.963	-0.507	-0.608
-383.975	33.082	-0.688	-0.593
-382.960	-8.049	1.176	-0.788
-381.946	-200.000	0.170	-0.876
-380.931	31.745	0.521	0.445
-379.917	-100.963	0.915	0.223
-378.902	-130.442	-0.518	-0.070
-377.888	303.076	-0.592	1.090
-376.873	-200.000	-0.017	-0.967
-375.858	-91.819	-0.571	0.161
-374.844	-29.913	-0.404	0.229
-373.829	58.399	-0.264	-0.257
-372.815	-51.419	0.234	0.109
-371.800	71.176	-0.539	-0.555
-370.785	-75.702	-1.050	-0.370
-369.771	-72.640	0.245	0.090
-368.756	54.811	-0.349	-0.334
-367.742	-200.000	-0.032	-0.452
-366.727	18.170	0.559	-0.443
-365.712	48.113	-0.391	-0.363
-364.698	-23.878	-0.311	-0.185
-363.683	-200.000	0.094	0.420
-362.669	-12.866	0.507	-0.328
-361.654	800.000	-0.218	0.683
-360.639	-94.590	0.674	0.182
-359.625	-159.754	0.713	0.039
-358.610	-178.036	0.289	0.007
-357.596	30.342	0.396	0.336
-356.581	171.157	-0.541	0.770
-355.566	14.724	-0.401	0.311
-354.552	-117.134	0.489	-0.088
-353.537	800.000	-0.143	0.551
-352.523	-200.000	0.037	0.293
-351.508	-200.000	0.042	-0.538
-350.493	-104.485	-0.596	0.137
-349.479	-200.000	0.059	0.383
-348.464	-76.785	-0.406	0.141
-347.450	423.466	-0.386	0.824
-346.435	56.676	-0.162	-0.157
-345.420	185.174	0.327	-0.482
-344.406	-60.705	0.512	0.215
-343.391	800.000	0.177	0.585
-342.377	350.520	-0.179	-0.352
-341.362	-7.223	0.637	-0.429
-340.348	398.711	-0.238	0.494
-339.333	-53.114	0.331	-0.151
-338.318	-200.000	-0.037	0.352
-337.304	678.273	0.154	0.398
-336.289	800.000	0.058	-0.230
-335.275	-68.390	0.635	-0.245
-334.260	-200.000	-0.041	0.764
-333.245	25.701	0.315	0.261
-332.231	73.928	-0.131	-0.136
-331.216	-200.000	-0.072	-0.435
-330.202	-62.849	-0.217	-0.089
-329.187	-200.000	-0.015	-0.850
-328.172	-2.197	0.223	-0.155
-327.158	164.406	0.052	-0.072
-326.143	20.221	-0.680	0.545
-325.129	-20.132	-0.340	-0.208
-324.114	286.033	-0.300	0.536
-323.099	-66.479	0.758	0.298
-322.085	72.365	0.283	0.293
-321.070	40.677	-0.413	-0.369
-320.056	24.567	-0.174	-0.143
-319.041	123.434	-0.127	-0.158
-318.026	800.000	0.101	0.353
-317.012	-138.539	-0.297	-0.032
-315.997	-166.885	-0.499	0.020
-314.983	-3.104	0.319	-0.220
-313.968	194.469	-0.258	-0.387
-312.953	-157.723	-0.546	-0.032
-311.939	800.000	0.106	0.400
-310.924	20.162	-0.500	-0.400
-309.910	-155.621	0.048	0.003
-308.895	531.754	-0.443	1.038
-307.880	-72.995	-0.715	-0.260
-306.866	394.349	0.344	-0.710
-305.851	-156.031	0.234	-0.015
-304.837	43.167	0.322	0.291
-303.822	-68.642	-0.911	-0.350
-302.807	682.215	-0.173	0.448
-301.793	318.491	0.612	1.149
-300.778	800.000	-0.191	0.735
-299.764	-79.247	-0.198	0.067
-298.749	-62.212	-0.579	0.239
-297.735	-65.793	-0.380	-0.151
-296.720	427.565	0.414	0.885
-295.705	90.943	-0.486	-0.540
-294.691	-59.241	-1.151	-0.491
-293.676	-68.542	0.303	-0.116
-292.662	320.728	-0.303	0.570
-291.647	-106.044	0.463	-0.103
-290.632	-37.420	0.447	0.237
-289.618	-200.000	0.039	-0.216
-288.603	-191.842	-0.564	0.005
-287.589	-37.759	0.592	-0.312
-286.574	-131.477	0.382	0.050
-285.559	26.052	-0.374	-0.309
-284.545	-200.000	0.033	0.373
-283.530	-50.240	0.245	-0.115
-282.516	-103.824	0.578	0.134
-281.501	-200.000	0.052	0.703
-280.486	35.832	-0.524	0.456
-279.472	-80.117	0.655	0.217
-278.457	-200.000	0.035	-0.544
-277.443	144.304	-0.178	0.235
-276.428	-200.000	0.012	-0.265
-275.413	-142.867	0.614	-0.059
-274.399	-123.014	0.722	-0.115
-273.384	-200.000	0.091	-1.228
-272.370	268.150	0.299	-0.518
-271.355	186.751	0.829	1.221
-270.340	-200.000	0.065	0.772
-269.326	-77.453	-0.492	0.169
-268.311	100.758	-0.303	0.349
-267.297	-87.069	0.780	-0.235
-266.282	800.000	0.093	0.373
-265.267	-48.569	-0.294	-0.140
-264.253	-200.000	0.105	-0.549
-263.238	17.820	0.223	-0.176
-262.224	462.651	0.343	0.758
-261.209	610.507	0.022	0.055
-260.195	800.000	0.243	0.720
-259.180	202.511	0.214	-0.327
-258.165	-160.751	0.581	0.030
-257.151	-157.441	-1.106	-0.066
-256.136	-161.752	0.343	0.017
-255.122	-145.832	-0.060	0.005
-254.107	532.191	0.284	0.664
-253.092	-67.997	0.290	0.112
-252.078	1.924	-0.276	-0.197
-251.063	-21.681	0.242	0.146
-250.049	252.621	-0.333	-0.561
-249.034	-35.829	-0.655	0.351
-248.019	85.161	0.380	-0.412
-247.005	-39.625	-0.116	-0.060
-245.990	637.133	-0.071	-0.177
-244.976	80.081	0.216	-0.230
-243.961	-134.511	-0.222	0.027
-242.946	42.372	-0.097	-0.088
-241.932	-189.662	-0.274	-0.003
-240.917	800.000	0.049	-0.168
-239.903	-12.540	0.510	-0.329
-238.888	170.818	0.462	0.654
-237.873	592.465	-0.156	0.381
-236.859	-120.846	-0.409	-0.068
-235.844	26.790	-0.377	0.312
-234.830	-112.409	0.591	-0.117
-233.815	551.595	0.518	1.228
-232.800	13.797	-0.432	-0.332
-231.786	-200.000	0.009	-0.056
-230.771	800.000	-0.264	-0.824
-229.757	-200.000	0.170	0.775
-228.742	19.587	-0.244	-0.194
-227.727	-106.847	-0.621	0.136
-226.713	22.931	-0.202	0.164
-225.698	78.625	0.690	-0.729
-224.684	800.000	-0.185	-0.723
-223.669	-122.376	0.824	-0.133
-222.655	-143.162	0.581	-0.055
-221.640	-200.000	0.063	-0.442
-220.625	-22.446	0.728	0.435
-219.611	-200.000	-0.186	-1.056
-218.596	-114.811	1.156	-0.218
-217.582	58.153	0.468	-0.453
-216.567	-28.448	-0.711	-0.405
-215.552	-200.000	0.033	0.397
-214.538	-200.000	0.017	0.714
-213.523	309.234	0.149	-0.275
-212.509	-111.918	0.340	-0.068
-211.494	193.889	-0.460	-0.688
-210.479	-200.000	-0.001	0.431
-209.465	-200.000	-0.053	0.459
-208.450	-155.597	0.197	0.013
-207.436	-158.139	-0.268	-0.015
-206.421	498.849	0.337	0.767
-205.406	-119.755	0.259	-0.044
-204.392	6.355	-0.921	0.675
-203.377	-14.495	0.301	0.191
-202.363	800.000	0.223	0.718
-201.348	-57.023	0.180	-0.078
-200.333	-200.000	0.109	-0.517
-199.319	29.622	0.337	-0.283
-198.304	-96.503	0.400	0.104
-197.290	-200.000	0.239	1.281
-196.275	99.911	-0.089	-0.102
-195.260	-51.480	-0.275	0.127
-194.246	-1.435	-0.611	-0.425
-193.231	800.000	-0.071	-0.252
-192.217	-122.708	-0.532	0.085
-191.202	-200.000	0.015	0.129
-190.187	-90.518	-0.559	-0.160
-189.173	151.903	0.378	-0.508
-188.158	196.497	0.143	0.215
-187.144	-200.000	0.017	0.237
-186.129	-200.000	-0.031	-0.219
-185.114	-176.858	-0.183	0.005
-184.100	341.297	0.182	0.351
-183.085	-198.647	-0.442	-0.002
-182.071	-22.476	0.335	-0.200
-181.056	85.784	-0.406	0.440
-180.042	800.000	-0.049	0.197
-179.027	-83.715	-0.506	0.159
-178.012	38.933	-0.580	-0.511
-176.998	12.769	-0.260	-0.198
-175.983	-15.096	0.007	0.004
-174.969	800.000	-0.221	0.860
-173.954	-3.840	0.135	-0.092
-172.939	-109.134	0.970	0.203
-171.925	81.221	-0.757	-0.806
-170.910	-58.526	0.430	-0.184
-169.896	-115.873	0.220	0.041
-168.881	800.000	0.126	-0.352
-167.866	90.831	-0.312	0.345
-166.852	760.507	-0.128	-0.343
-165.837	46.708	0.130	-0.119
-164.823	263.746	0.460	0.789
-163.808	56.986	-0.589	0.566
-162.793	-143.547	0.284	-0.027
-161.779	-42.154	0.886	0.446
-160.764	-90.624	0.607	-0.173
-159.750	-31.055	0.892	0.496
-158.735	-200.000	0.032	-0.721
-157.720	576.730	-0.208	-0.501
-156.706	742.846	-0.162	0.429
-155.691	29.491	0.362	-0.303
-154.677	-13.618	0.806	0.514
-153.662	-83.812	-0.748	-0.235
-152.647	-106.527	-0.472	-0.104
-151.633	301.800	0.185	-0.337
-150.618	47.837	0.169	-0.156
-149.604	-22.509	0.499	0.297
-148.589	37.751	-0.831	-0.727
-147.574	89.568	-0.400	-0.439
-146.560	-119.448	-0.179	0.031
-145.545	-200.000	0.096	-0.683
-144.531	800.000	-0.186	-0.653
-143.516	266.412	-0.387	-0.665
-142.502	-138.574	1.017	0.110
-141.487	72.895	0.274	0.282
-140.472	11.841	-0.660	-0.499
-139.458	800.000	-0.054	0.207
-138.443	-200.000	-0.153	0.994
-137.429	-113.009	0.138	0.027
-136.414	-200.000	-0.053	-1.041
-135.399	-0.519	0.914	-0.638
-134.385	-16.925	0.040	-0.025
-133.370	20.265	-0.216	-0.172
-132.356	328.417	-0.104	0.196
-131.341	800.000	0.359	-1.219
-130.326	-17.031	-0.578	0.359
-129.312	-158.679	0.891	0.050
-128.297	-112.728	0.549	-0.107
-127.283	-119.881	-0.323	0.055
-126.268	800.000	0.154	-0.511
-125.253	73.518	0.359	0.370
-124.239	-93.740	-0.222	-0.060
-123.224	-35.981	-0.774	-0.412
-122.210	-81.177	-0.442	-0.144
