DTS Sentinel unit serial number:	SN413079Multiplexer serial number:	ORYXHardware model number:	OX4-SRSoftware version number:	ORYX F/W v4.00 Oryx Data Collector v3.7.2.0data status	okinstallation	princeton_trtdifferential loss correction	single-endedforward channel	channel 2reverse channel	N/Adate	2019/09/12time	06:17:11forward acquisition time	60.00reverse acquisition time	0.00gamma	496.2192k internal	0.2324k external	0.2324temperature offset calibration	1.0061default loss term (dB/km)	0.3790temperature slope calibration	1.0000multiplexer offset coefficient	1.0000multiplexer slope coefficient	1.0000fibre end	0.00T internal ref (°C)	32.12T ext. ref 1 (°C)	1.56T ext. ref 2 (°C)	27.42length (m)	temperature (°C)	Stokes	anti-Stokes-747.200	-49.209	0.228	-0.110
-746.185	266.860	-0.186	0.329
-745.171	-200.000	-0.021	0.145
-744.156	-97.238	-0.202	0.053
-743.142	-200.000	0.013	0.182
-742.127	634.954	0.077	0.198
-741.112	800.000	0.049	-0.209
-740.098	418.517	0.150	-0.324
-739.083	-72.773	0.345	0.128
-738.069	255.861	0.090	0.156
-737.054	-200.000	-0.017	-0.098
-736.039	-158.071	-0.207	-0.012
-735.025	-12.056	0.300	0.198
-734.010	649.800	-0.085	0.219
-732.996	-135.756	0.210	0.025
-731.981	-183.663	0.117	-0.002
-730.966	485.671	-0.139	0.319
-729.952	-41.976	-0.089	-0.046
-728.937	204.290	0.045	-0.071
-727.923	82.432	-0.194	0.212
-726.908	39.412	-0.141	-0.127
-725.894	-200.000	0.003	0.104
-724.879	-200.000	-0.010	0.170
-723.864	28.594	0.290	0.248
-722.850	800.000	0.060	0.251
-721.835	-41.578	0.092	0.048
-720.821	800.000	-0.071	-0.257
-719.806	4.104	0.108	0.080
-718.791	-200.000	-0.103	-0.572
-717.777	62.005	-0.234	-0.236
-716.762	-62.077	0.082	-0.035
-715.748	139.859	0.192	-0.255
-714.733	95.383	-0.182	-0.209
-713.718	-83.813	0.268	0.086
-712.704	-168.396	-0.180	-0.007
-711.689	39.969	0.069	-0.063
-710.675	-200.000	-0.032	-0.432
-709.660	800.000	-0.071	-0.287
-708.645	-200.000	0.037	-0.182
-707.631	-148.997	0.255	-0.021
-706.616	-200.000	0.033	-0.346
-705.602	99.953	0.204	0.239
-704.587	-119.753	0.184	0.032
-703.572	800.000	0.063	-0.255
-702.558	46.318	0.060	-0.056
-701.543	237.751	0.196	0.328
-700.529	99.823	0.068	-0.079
-699.514	-57.387	0.122	-0.054
-698.499	-125.804	0.219	0.033
-697.485	-200.000	-0.031	0.139
-696.470	-26.307	-0.061	0.036
-695.456	-97.650	-0.207	-0.054
-694.441	-151.503	-0.242	-0.018
-693.426	-10.637	0.214	0.143
-692.412	-200.000	0.029	-0.191
-691.397	1.431	0.284	-0.206
-690.383	-93.096	-0.061	-0.017
-689.368	800.000	0.069	-0.238
-688.354	93.579	-0.181	0.206
-687.339	-146.884	0.140	-0.012
-686.324	800.000	0.015	0.059
-685.310	436.127	-0.094	-0.207
-684.295	18.881	0.044	-0.035
-683.281	75.013	0.046	-0.049
-682.266	-56.196	0.103	-0.046
-681.251	-115.720	0.254	-0.048
-680.237	-200.000	0.013	-0.084
-679.222	800.000	-0.053	-0.225
-678.208	-129.722	-0.177	-0.025
-677.193	-200.000	-0.031	0.138
-676.178	-85.375	-0.359	0.113
-675.164	-157.362	0.080	-0.005
-674.149	-32.874	-0.222	-0.124
-673.135	8.163	0.062	0.047
-672.120	297.991	-0.064	0.118
-671.105	-200.000	-0.058	-0.364
-670.091	427.338	0.114	0.249
-669.076	52.935	0.194	0.187
-668.062	64.640	-0.155	0.157
-667.047	-200.000	-0.060	-0.301
-666.032	53.250	-0.072	-0.070
-665.018	800.000	0.065	-0.190
-664.003	343.707	0.077	0.153
-662.989	-59.978	0.230	-0.099
-661.974	245.570	0.054	0.091
-660.959	-30.107	0.213	0.122
-659.945	-48.600	-0.061	-0.030
-658.930	514.910	-0.088	-0.206
-657.916	234.122	-0.059	-0.097
-656.901	59.566	0.153	-0.152
-655.886	-10.005	0.111	0.074
-654.872	800.000	0.030	0.116
-653.857	-89.794	-0.328	-0.097
-652.843	-62.918	0.434	-0.181
-651.828	1.523	-0.325	0.235
-650.814	-200.000	-0.030	-0.140
-649.799	-144.530	-0.319	0.030
-648.784	115.818	0.168	-0.207
-647.770	-27.967	-0.342	0.199
-646.755	275.882	0.090	-0.160
-645.741	-200.000	0.001	-0.034
-644.726	-122.460	-0.126	-0.021
-643.711	329.474	-0.103	-0.199
-642.697	-200.000	-0.008	-0.215
-641.682	-200.000	-0.020	0.186
-640.668	9.887	0.003	0.002
-639.653	-106.554	0.028	0.006
-638.638	-117.333	-0.364	0.066
-637.624	-110.550	-0.070	-0.015
-636.609	-11.550	-0.304	-0.201
-635.595	-200.000	0.018	-0.273
-634.580	-200.000	-0.028	0.163
-633.565	-129.432	-0.377	-0.053
-632.551	-10.981	-0.149	-0.099
-631.536	-26.332	0.135	-0.079
-630.522	-162.333	-0.238	0.012
-629.507	237.839	0.159	0.266
-628.492	-22.268	0.356	0.217
-627.478	800.000	-0.124	-0.401
-626.463	-86.727	0.080	0.025
-625.449	105.702	0.274	-0.325
-624.434	281.190	0.068	-0.122
-623.419	-79.289	0.343	0.117
-622.405	-87.274	0.324	-0.099
-621.390	507.366	-0.080	-0.186
-620.376	-200.000	0.027	0.169
-619.361	7.612	0.322	0.242
-618.346	-200.000	0.042	0.215
-617.332	-159.751	0.198	0.011
-616.317	-134.419	-0.227	0.028
-615.303	-62.178	0.141	0.059
-614.288	482.011	-0.080	-0.183
-613.273	-159.167	-0.382	-0.022
-612.259	-200.000	-0.012	0.114
-611.244	-200.000	0.009	-0.378
-610.230	-8.310	-0.161	-0.109
-609.215	7.202	-0.060	0.045
-608.201	-200.000	0.021	-0.271
-607.186	-89.733	-0.263	-0.077
-606.171	112.243	-0.243	-0.295
-605.157	800.000	-0.020	0.075
-604.142	-66.694	-0.138	0.055
-603.128	-97.737	0.281	-0.073
-602.113	160.111	-0.038	0.054
-601.098	73.929	0.102	0.107
-600.084	-92.893	-0.255	0.072
-599.069	781.683	-0.131	0.359
-598.055	-0.443	0.318	0.227
-597.040	60.434	0.297	-0.295
-596.025	-63.945	0.100	-0.041
-595.011	57.557	0.021	-0.021
-593.996	-200.000	0.006	0.190
-592.982	-200.000	0.017	0.171
-591.967	10.076	0.189	-0.144
-590.952	-31.784	-0.190	0.107
-589.938	34.687	-0.096	0.085
-588.923	-176.218	-0.237	0.006
-587.909	217.139	0.218	-0.348
-586.894	18.116	-0.275	0.220
-585.879	298.961	-0.118	0.218
-584.865	-200.000	0.027	0.188
-583.850	147.829	-0.184	0.249
-582.836	-200.000	-0.012	-0.054
-581.821	494.083	0.045	-0.104
-580.806	-115.663	-0.205	-0.039
-579.792	-141.634	0.053	0.005
-578.777	-200.000	-0.025	-0.419
-577.763	-200.000	-0.006	0.074
-576.748	-6.408	-0.466	0.318
-575.733	274.699	0.080	-0.142
-574.719	196.269	-0.179	-0.274
-573.704	800.000	0.041	-0.115
-572.690	-140.117	0.084	-0.009
-571.675	323.732	0.056	-0.108
-570.661	8.740	-0.123	-0.093
-569.646	5.592	0.119	-0.088
-568.631	-200.000	-0.052	-0.577
-567.617	800.000	0.045	-0.126
-566.602	-14.130	-0.322	0.208
-565.588	-134.278	0.076	0.009
-564.573	95.354	0.154	-0.176
-563.558	-200.000	-0.043	-0.242
-562.544	40.814	-0.149	0.135
-561.529	65.784	0.027	-0.027
-560.515	-3.280	-0.228	-0.159
-559.500	532.880	-0.095	0.225
-558.485	-128.150	-0.365	-0.052
-557.471	800.000	0.075	0.257
-556.456	-175.791	-0.221	0.006
-555.442	-130.598	-0.150	-0.020
-554.427	633.847	-0.092	-0.233
-553.412	33.392	0.148	-0.129
-552.398	-200.000	0.009	-0.217
-551.383	137.746	0.293	0.385
-550.369	-146.156	-0.178	0.016
-549.354	582.006	0.032	0.078
-548.339	-200.000	0.020	-0.243
-547.325	183.302	-0.179	0.264
-546.310	800.000	-0.090	-0.300
-545.296	140.030	0.028	0.037
-544.281	304.696	-0.114	-0.212
-543.266	66.717	-0.186	0.190
-542.252	144.446	-0.175	-0.234
-541.237	800.000	0.052	-0.152
-540.223	-147.302	0.232	0.020
-539.208	-170.768	-0.304	-0.010
-538.193	96.485	-0.088	0.101
-537.179	800.000	0.058	0.174
-536.164	397.766	-0.094	0.196
-535.150	141.681	0.168	0.223
-534.135	-200.000	0.019	-0.215
-533.121	-136.776	0.247	0.029
-532.106	-200.000	-0.009	-0.149
-531.091	30.247	-0.235	-0.201
-530.077	81.882	0.122	0.132
-529.062	-200.000	0.037	0.224
-528.048	800.000	0.096	-0.345
-527.033	-200.000	-0.012	-0.144
-526.018	269.504	-0.080	-0.141
-525.004	382.985	0.148	0.306
-523.989	-200.000	0.034	0.340
-522.975	-140.075	-0.320	0.034
-521.960	-63.171	-0.259	-0.107
-520.945	-39.526	0.223	0.117
-519.931	328.027	0.105	0.202
-518.916	47.382	-0.061	0.057
-517.902	229.239	0.037	-0.061
-516.887	-200.000	-0.009	0.054
-515.872	267.073	0.059	0.104
-514.858	-200.000	-0.015	-0.351
-513.843	84.601	0.075	0.083
-512.829	58.526	-0.185	-0.182
-511.814	-126.256	0.031	0.005
-510.799	-78.141	0.134	-0.046
-509.785	-160.063	-0.237	0.013
-508.770	-200.000	0.007	-0.156
-507.756	-200.000	-0.003	-0.129
-506.741	35.822	0.239	0.211
-505.726	281.275	0.153	-0.275
-504.712	73.057	-0.109	0.114
-503.697	800.000	-0.180	0.517
-502.683	-200.000	-0.105	-0.000
-501.668	-151.045	0.435	-0.033
-500.653	98.081	0.160	0.184
-499.639	46.088	0.121	0.112
-498.624	350.968	0.029	0.057
-497.610	-200.000	-0.004	-0.238
-496.595	-200.000	-0.016	0.141
-495.581	385.132	-0.061	0.126
-494.566	-166.592	-0.283	0.012
-493.551	280.258	0.056	0.100
-492.537	274.793	-0.101	0.179
-491.522	800.000	0.047	0.153
-490.508	-200.000	0.009	-0.053
-489.493	-76.424	-0.224	-0.079
-488.478	-133.788	0.210	0.026
-487.464	-15.354	-0.048	-0.031
-486.449	800.000	-0.124	-0.416
-485.435	24.584	-0.210	-0.173
-484.420	800.000	0.032	-0.118
-483.405	55.099	0.145	0.140
-482.391	-71.921	-0.382	0.142
-481.376	-199.453	-0.084	-0.000
-480.362	78.829	0.132	0.141
-479.347	-200.000	0.054	-0.272
-478.332	-8.551	-0.263	-0.176
-477.318	483.474	0.093	0.212
-476.303	306.713	-0.061	-0.114
-475.289	-200.000	-0.047	-0.213
-474.274	-109.933	0.089	0.019
-473.259	-200.000	0.052	-0.267
-472.245	-200.000	0.005	0.099
-471.230	-37.701	0.035	-0.019
-470.216	630.011	0.055	0.140
-469.201	800.000	0.034	-0.111
-468.186	141.830	-0.213	-0.282
-467.172	-17.974	0.025	-0.016
-466.157	-111.106	0.167	-0.034
-465.143	7.016	-0.281	-0.209
-464.128	800.000	0.080	-0.321
-463.113	-200.000	0.020	-0.152
-462.099	-119.951	0.190	-0.033
-461.084	-138.791	-0.125	0.014
-460.070	-200.000	-0.023	0.450
-459.055	-41.722	-0.234	-0.120
-458.040	276.634	-0.132	-0.235
-457.026	-200.000	-0.010	-0.089
-456.011	-200.000	0.012	0.158
-454.997	-200.000	-0.066	-0.335
-453.982	-125.005	-0.200	-0.031
-452.968	800.000	-0.053	-0.172
-451.953	-105.244	-0.126	0.029
-450.938	549.397	-0.042	-0.102
-449.924	-36.384	0.281	0.151
-448.909	-200.000	-0.012	-0.154
-447.895	800.000	-0.080	0.298
-446.880	5.750	0.041	-0.030
-445.865	35.060	0.110	-0.096
-444.851	-136.747	-0.119	0.014
-443.836	293.140	0.120	-0.218
-442.822	-46.489	0.098	-0.048
-441.807	-37.546	0.087	-0.046
-440.792	-94.486	-0.334	-0.091
-439.778	-200.000	-0.054	-0.260
-438.763	-200.000	0.019	0.142
-437.749	45.151	0.068	-0.063
-436.734	800.000	-0.058	0.251
-435.719	177.655	-0.260	-0.378
-434.705	-198.310	0.490	0.003
-433.690	-200.000	-0.007	-0.206
-432.676	153.802	0.086	-0.117
-431.661	-57.365	0.142	0.062
-430.646	-17.919	0.205	-0.128
-429.632	-200.000	-0.013	0.122
-428.617	635.181	-0.101	-0.256
-427.603	-77.289	0.166	-0.058
-426.588	85.310	0.145	-0.159
-425.573	-89.127	-0.288	0.085
-424.559	800.000	0.082	-0.233
-423.544	-52.801	0.160	0.073
-422.530	82.435	0.286	0.310
-421.515	104.915	0.101	0.119
-420.500	-55.345	0.442	-0.198
-419.486	278.343	0.048	-0.086
-418.471	207.350	0.084	0.130
-417.457	-141.312	0.293	0.030
-416.442	-123.086	-0.011	0.002
-415.428	351.611	-0.056	0.111
-414.413	-200.000	-0.015	0.436
-413.398	-200.000	-0.019	0.104
-412.384	-24.281	0.162	0.096
-411.369	1.094	-0.109	-0.078
-410.355	-122.916	-0.185	-0.030
-409.340	13.280	-0.182	0.141
-408.325	-200.000	0.037	0.276
-407.311	-200.000	-0.030	-0.346
-406.296	-200.000	0.013	0.151
-405.282	262.207	-0.095	0.164
-404.267	1.813	0.109	0.078
-403.252	-111.067	0.381	0.078
-402.238	-108.649	-0.370	-0.079
-401.223	152.579	0.034	-0.046
-400.209	-200.000	0.012	0.237
-399.194	181.371	-0.123	-0.180
-398.179	99.192	0.067	0.077
-397.165	-80.323	0.188	-0.063
-396.150	-200.000	-0.025	0.215
-395.136	-136.481	0.140	0.016
-394.121	-200.000	0.036	0.235
-393.106	-200.000	0.021	-0.201
-392.092	-110.401	-0.121	0.025
-391.077	82.838	-0.115	0.125
-390.063	310.448	-0.061	0.113
-389.048	-200.000	-0.008	-0.149
-388.033	-152.062	0.258	-0.019
-387.019	-29.027	-0.091	-0.052
-386.004	437.819	-0.118	-0.255
-384.990	24.117	-0.178	-0.147
-383.975	-200.000	0.071	-0.425
-382.960	-12.008	-0.217	-0.141
-381.946	-117.369	-0.334	-0.060
-380.931	157.468	-0.154	-0.212
-379.917	342.997	-0.075	-0.146
-378.902	153.777	0.076	-0.103
-377.888	281.370	0.164	-0.291
-376.873	-52.754	0.213	0.098
-375.858	-38.602	-0.167	0.088
-374.844	800.000	-0.067	-0.283
-373.829	118.993	0.098	-0.120
-372.815	-133.912	-0.074	-0.009
-371.800	778.805	-0.092	0.251
-370.785	37.713	-0.407	-0.359
-369.771	800.000	0.062	-0.203
-368.756	53.819	0.081	-0.077
-367.742	-146.585	-0.096	-0.008
-366.727	-130.606	0.054	-0.007
-365.712	-32.654	0.269	0.149
-364.698	-47.675	0.304	-0.147
-363.683	-55.147	0.321	0.144
-362.669	-200.000	-0.003	0.051
-361.654	-126.372	0.192	-0.028
-360.639	-200.000	-0.005	-0.267
-359.625	800.000	0.124	0.376
-358.610	-86.768	-0.208	-0.063
-357.596	80.031	0.168	0.180
-356.581	-21.418	-0.186	0.113
-355.566	163.997	0.282	0.395
-354.552	67.478	-0.024	-0.025
-353.537	117.833	0.090	0.110
-352.523	-9.913	0.164	0.108
-351.508	-200.000	0.001	-0.056
-350.493	20.686	0.082	-0.066
-349.479	138.691	-0.196	-0.256
-348.464	189.028	-0.329	0.490
-347.450	38.107	-0.174	0.154
-346.435	-136.741	-0.264	-0.030
-345.420	-59.403	0.143	-0.061
-344.406	212.077	0.045	-0.070
-343.391	800.000	0.125	0.375
-342.377	692.334	0.055	0.144
-341.362	62.104	-0.289	-0.286
-340.348	21.246	0.290	0.234
-339.333	230.228	-0.043	-0.070
-338.318	-41.042	0.103	-0.053
-337.304	-27.102	-0.141	0.082
-336.289	800.000	0.109	-0.327
-335.275	-166.303	0.188	-0.008
-334.260	-8.487	-0.237	0.158
-333.245	-200.000	0.039	0.217
-332.231	-200.000	0.057	0.286
-331.216	-35.168	-0.204	0.110
-330.202	-28.039	0.140	0.080
-329.187	-200.000	0.039	-0.232
-328.172	-200.000	-0.023	-0.118
-327.158	83.115	-0.241	-0.261
-326.143	-34.649	0.112	-0.061
-325.129	7.421	0.233	0.173
-324.114	-28.949	-0.067	0.038
-323.099	-17.476	0.152	0.095
-322.085	162.823	0.151	-0.211
-321.070	-128.958	0.121	0.017
-320.056	-114.642	0.211	-0.040
-319.041	-28.432	0.130	0.074
-318.026	800.000	-0.079	-0.220
-317.012	-152.176	0.280	0.020
-315.997	160.279	-0.091	0.126
-314.983	24.038	0.218	-0.178
-313.968	-30.963	-0.217	-0.122
-312.953	-63.359	-0.394	-0.161
-311.939	-179.295	0.292	0.006
-310.924	-200.000	-0.010	0.105
-309.910	-23.602	-0.328	0.195
-308.895	45.289	0.154	0.141
-307.880	-200.000	-0.043	-0.237
-306.866	31.691	-0.166	0.142
-305.851	-94.657	-0.248	0.067
-304.837	-124.702	0.103	0.016
-303.822	358.082	0.109	-0.215
-302.807	-39.285	0.211	0.110
-301.793	-200.000	-0.003	0.273
-300.778	-200.000	-0.029	0.452
-299.764	445.453	-0.165	-0.359
-298.749	-74.946	0.261	-0.093
-297.735	100.600	-0.154	-0.178
-296.720	165.611	-0.089	-0.125
-295.705	-200.000	-0.018	0.520
-294.691	-200.000	-0.016	0.392
-293.676	-200.000	-0.050	0.308
-292.662	-22.139	-0.297	0.179
-291.647	-200.000	-0.004	0.035
-290.632	-200.000	-0.060	-0.274
-289.618	-84.023	-0.074	-0.023
-288.603	6.817	-0.442	0.327
-287.589	-200.000	-0.023	0.154
-286.574	403.353	-0.150	-0.312
-285.559	175.513	-0.137	-0.197
-284.545	459.245	0.043	-0.094
-283.530	184.864	-0.150	0.220
-282.516	-30.690	0.224	0.125
-281.501	800.000	0.061	0.253
-280.486	162.396	0.214	0.298
-279.472	-200.000	-0.039	-0.282
-278.457	-98.617	0.175	-0.044
-277.443	65.225	0.329	-0.330
-276.428	-22.929	-0.220	-0.131
-275.413	800.000	-0.022	-0.063
-274.399	216.389	0.080	-0.126
-273.384	-88.158	0.260	-0.077
-272.370	465.950	0.134	-0.298
-271.355	-27.376	-0.203	-0.117
-270.340	-67.339	0.344	-0.134
-269.326	-200.000	0.049	0.339
-268.311	-88.783	0.529	-0.156
-267.297	-61.679	0.043	-0.018
-266.282	-200.000	0.020	0.162
-265.267	-61.205	0.138	0.058
-264.253	128.299	0.274	0.345
-263.238	491.273	-0.193	0.438
-262.224	-200.000	-0.042	0.319
-261.209	-96.479	0.133	-0.035
-260.195	800.000	-0.163	0.495
-259.180	-200.000	-0.027	-0.215
-258.165	-36.471	-0.378	-0.201
-257.151	25.571	0.201	0.166
-256.136	19.590	0.302	0.240
-255.122	255.938	0.023	-0.039
-254.107	-200.000	-0.084	-0.472
-253.092	-2.224	-0.080	-0.055
-252.078	-2.712	0.116	0.080
-251.063	339.656	0.143	-0.277
-250.049	-86.984	-0.060	-0.018
-249.034	702.568	0.157	-0.411
-248.019	-110.704	0.057	0.012
-247.005	-38.150	0.162	0.085
-245.990	194.039	-0.031	-0.046
-244.976	800.000	-0.050	0.150
-243.961	-200.000	0.025	-0.110
-242.946	72.101	0.168	0.173
-241.932	-119.208	-0.100	-0.017
-240.917	-55.485	0.263	0.116
-239.903	-12.489	-0.249	0.161
-238.888	-200.000	0.007	-0.155
-237.873	106.330	-0.188	-0.220
-236.859	70.071	0.135	0.138
-235.844	-200.000	-0.001	0.070
-234.830	-200.000	0.032	-0.355
-233.815	82.634	0.106	0.114
-232.800	396.466	0.169	0.349
-231.786	-150.021	0.256	0.020
-230.771	145.544	-0.204	-0.270
-229.757	-54.620	-0.064	0.029
-228.742	-83.609	-0.125	0.040
-227.727	188.696	-0.064	0.094
-226.713	-19.669	-0.209	0.128
-225.698	6.509	-0.084	0.062
-224.684	93.176	-0.078	0.087
-223.669	190.303	-0.201	0.299
-222.655	110.958	0.168	0.200
-221.640	227.527	-0.055	-0.089
-220.625	544.100	0.054	0.127
-219.611	-3.761	-0.290	0.199
-218.596	205.706	-0.104	-0.161
-217.582	-132.140	0.141	0.018
-216.567	743.728	-0.027	-0.072
-215.552	-65.154	-0.068	-0.027
-214.538	-0.760	-0.054	0.038
-213.523	-120.105	0.082	0.014
-212.509	29.586	0.269	0.227
-211.494	4.448	-0.186	0.135
-210.479	215.020	0.141	0.221
-209.465	-200.000	0.029	-0.271
-208.450	366.908	-0.023	-0.046
-207.436	800.000	0.066	0.226
-206.421	-98.451	-0.228	0.058
-205.406	129.677	-0.095	-0.121
-204.392	800.000	0.032	-0.115
-203.377	96.401	0.162	-0.184
-202.363	-122.602	-0.111	-0.018
-201.348	800.000	-0.041	0.123
-200.333	-122.744	0.333	0.053
-199.319	-43.922	0.188	0.093
-198.304	800.000	0.027	0.076
-197.290	268.428	-0.066	0.115
-196.275	-85.556	-0.122	0.038
-195.260	-21.162	0.194	-0.117
-194.246	463.308	-0.049	0.107
-193.231	65.738	-0.229	0.229
-192.217	34.591	0.083	0.072
-191.202	-200.000	0.017	0.189
-190.187	-200.000	-0.025	0.116
-189.173	-200.000	0.017	-0.188
-188.158	800.000	-0.041	0.165
-187.144	267.898	0.146	0.252
-186.129	-200.000	-0.004	0.023
-185.114	-84.704	0.187	0.058
-184.100	-200.000	0.005	-0.292
-183.085	800.000	0.094	0.279
-182.071	64.310	-0.158	0.157
-181.056	115.739	-0.059	-0.071
-180.042	412.227	0.021	0.044
-179.027	-138.863	-0.208	-0.022
-178.012	76.291	-0.062	0.065
-176.998	-90.930	-0.170	-0.048
-175.983	-121.680	0.351	-0.057
-174.969	-200.000	0.012	0.088
-173.954	-37.023	0.073	-0.039
-172.939	-71.267	0.478	0.177
-171.925	-200.000	0.074	0.371
-170.910	-200.000	0.064	0.363
-169.896	800.000	0.030	-0.100
-168.881	63.537	0.184	0.182
-167.866	800.000	0.032	-0.100
-166.852	163.022	0.141	-0.195
-165.837	484.825	-0.028	-0.064
-164.823	402.618	0.092	-0.191
-163.808	166.541	-0.071	0.099
-162.793	-99.739	0.174	-0.043
-161.779	-49.902	-0.331	0.155
-160.764	-44.499	0.202	0.100
-159.750	800.000	0.072	-0.215
-158.735	-15.213	-0.100	0.063
-157.720	249.690	-0.124	0.207
-156.706	-106.697	0.198	-0.043
-155.691	113.947	0.235	0.282
-154.677	-59.084	-0.211	-0.090
-153.662	800.000	0.089	-0.257
-152.647	-200.000	-0.033	-0.146
-151.633	-143.365	0.097	-0.009
-150.618	-200.000	0.013	0.061
-149.604	4.793	-0.170	-0.123
-148.589	335.886	-0.135	0.258
-147.574	-116.273	-0.218	0.040
-146.560	-37.048	-0.099	0.052
-145.545	35.974	-0.161	-0.140
-144.531	178.965	-0.150	0.217
-143.516	-67.486	0.137	0.053
-142.502	-153.132	-0.414	-0.029
-141.487	27.658	0.210	0.174
-140.472	-200.000	-0.001	0.143
-139.458	800.000	-0.087	0.298
-138.443	318.537	0.146	-0.272
-137.429	-152.794	-0.116	-0.008
-136.414	-44.420	-0.207	0.102
-135.399	800.000	0.106	-0.315
-134.385	29.305	-0.197	0.165
-133.370	70.811	-0.116	0.119
-132.356	-18.992	0.060	0.037
-131.341	34.997	0.195	0.169
-130.326	800.000	-0.077	-0.221
-129.312	24.167	0.303	-0.246
-128.297	250.980	0.284	-0.477
-127.283	-25.238	0.154	-0.090
-126.268	297.614	0.172	0.311
-125.253	-44.244	0.189	0.093
-124.239	77.200	0.183	0.191
-123.224	154.299	0.246	0.332
-122.210	-51.801	-0.242	-0.111
-121.195	110.507	0.219	0.260
