DTS Sentinel unit serial number:	SN413079Multiplexer serial number:	ORYXHardware model number:	OX4-SRSoftware version number:	ORYX F/W v4.00 Oryx Data Collector v3.7.2.0data status	okinstallation	princeton_trtdifferential loss correction	single-endedforward channel	channel 2reverse channel	N/Adate	2019/09/12time	18:00:48forward acquisition time	15.00reverse acquisition time	0.00gamma	496.2192k internal	0.2325k external	0.2325temperature offset calibration	1.0126default loss term (dB/km)	0.3790temperature slope calibration	1.0000multiplexer offset coefficient	1.0000multiplexer slope coefficient	1.0000fibre end	0.00T internal ref (°C)	33.81T ext. ref 1 (°C)	2.91T ext. ref 2 (°C)	28.23length (m)	temperature (°C)	Stokes	anti-Stokes-747.200	566.939	-0.254	-0.623
-746.185	-200.000	-0.004	-0.397
-745.171	-24.344	-0.463	0.279
-744.156	800.000	0.173	0.539
-743.142	-200.000	0.123	-0.609
-742.127	-122.982	0.174	-0.028
-741.112	-125.789	0.531	-0.081
-740.098	2.148	0.304	0.222
-739.083	-87.882	0.296	-0.090
-738.069	-155.822	0.683	0.044
-737.054	187.722	-0.264	-0.398
-736.039	-59.045	-0.137	-0.060
-735.025	800.000	0.112	0.465
-734.010	800.000	-0.122	0.358
-732.996	-57.437	0.318	-0.141
-731.981	525.985	0.013	-0.030
-730.966	-200.000	-0.028	-0.486
-729.952	-114.713	0.480	0.092
-728.937	-104.546	0.300	-0.070
-727.923	-200.000	-0.075	0.678
-726.908	-68.087	1.048	-0.412
-725.894	-200.000	-0.069	-1.544
-724.879	-74.583	-0.206	0.075
-723.864	-91.186	-0.759	-0.219
-722.850	-22.917	0.289	0.176
-721.835	-145.292	0.352	-0.032
-720.821	-17.131	0.400	0.254
-719.806	318.432	-0.310	0.593
-718.791	49.316	0.064	-0.061
-717.777	-78.023	-0.150	0.052
-716.762	-99.896	0.345	-0.087
-715.748	664.017	-0.135	0.350
-714.733	-116.753	-0.855	0.158
-713.718	-200.000	-0.037	-0.297
-712.704	30.910	0.181	0.156
-711.689	288.288	0.238	-0.434
-710.675	-200.000	0.052	-0.305
-709.660	-91.036	0.330	-0.096
-708.645	53.538	-0.535	0.517
-707.631	183.497	-0.357	0.532
-706.616	-200.000	0.016	0.463
-705.602	148.933	-0.412	0.562
-704.587	-62.394	0.388	-0.162
-703.572	329.181	-0.124	-0.240
-702.558	134.655	-0.159	-0.208
-701.543	201.089	-0.466	-0.722
-700.529	-200.000	-0.077	-0.602
-699.514	89.170	-0.509	-0.571
-698.499	-83.917	-0.751	0.241
-697.485	23.265	-0.554	-0.459
-696.470	350.739	0.183	-0.364
-695.456	800.000	0.055	0.177
-694.441	208.395	-0.693	1.091
-693.426	182.319	0.426	0.632
-692.412	-23.545	0.198	0.120
-691.397	-140.750	0.579	-0.060
-690.383	3.968	0.329	-0.242
-689.368	-12.351	0.505	0.332
-688.354	-63.344	0.652	0.270
-687.339	-200.000	0.054	-0.672
-686.324	-200.000	0.081	-0.884
-685.310	-51.632	0.907	-0.426
-684.295	130.806	-0.101	0.131
-683.281	95.003	-0.202	0.232
-682.266	7.337	-0.415	-0.312
-681.251	-166.311	-0.496	-0.021
-680.237	-12.568	-1.237	0.812
-679.222	-200.000	-0.075	0.452
-678.208	-125.097	0.378	-0.058
-677.193	-93.255	-0.927	-0.259
-676.178	-102.813	-0.349	-0.084
-675.164	-63.378	-0.379	-0.157
-674.149	294.650	0.145	0.267
-673.135	-38.201	-0.332	-0.177
-672.120	-89.429	-0.337	-0.100
-671.105	331.131	-0.204	-0.395
-670.091	800.000	0.281	1.070
-669.076	-200.000	0.188	-1.207
-668.062	-29.787	-0.682	-0.391
-667.047	800.000	0.048	-0.165
-666.032	-112.668	-0.489	0.098
-665.018	-100.077	0.071	0.018
-664.003	-19.311	0.697	0.435
-662.989	-138.638	0.680	-0.075
-661.974	800.000	-0.153	-0.449
-660.959	-200.000	-0.150	-1.087
-659.945	800.000	-0.127	-0.556
-658.930	-31.082	-0.303	0.172
-657.916	-89.069	-0.300	-0.089
-656.901	-200.000	0.117	-0.597
-655.886	158.630	0.279	-0.389
-654.872	-75.373	0.191	-0.068
-653.857	118.232	-0.272	0.337
-652.843	57.075	-0.316	0.310
-651.828	-133.990	-0.678	0.084
-650.814	800.000	-0.148	-0.441
-649.799	-10.347	-0.727	0.485
-648.784	-200.000	0.014	-0.271
-647.770	-99.742	0.455	-0.115
-646.755	-70.592	-0.817	-0.311
-645.741	76.488	0.398	-0.424
-644.726	-83.461	-0.519	-0.167
-643.711	-170.405	0.519	0.018
-642.697	87.611	0.238	0.265
-641.682	-39.339	1.291	0.681
-640.668	62.261	-0.491	0.492
-639.653	566.260	-0.054	0.131
-638.638	357.372	0.248	-0.497
-637.624	-125.514	-0.818	0.125
-636.609	-200.000	-0.035	0.185
-635.595	-42.639	0.681	-0.348
-634.580	-96.783	-0.292	0.077
-633.565	-67.122	0.668	0.265
-632.551	800.000	0.293	-1.109
-631.536	-19.903	0.587	-0.364
-630.522	279.290	-0.259	0.464
-629.507	422.579	0.326	0.703
-628.492	193.169	-0.103	-0.156
-627.478	-162.635	0.318	0.016
-626.463	87.697	0.527	-0.587
-625.449	-105.603	-0.534	-0.122
-624.434	-200.000	-0.023	0.422
-623.419	-111.449	0.287	0.059
-622.405	-34.512	0.193	-0.106
-621.390	-65.134	0.396	-0.160
-620.376	-124.133	0.197	-0.031
-619.361	-125.502	-0.786	-0.120
-618.346	123.621	-0.402	0.506
-617.332	-32.165	-0.505	0.284
-616.317	-13.243	0.443	-0.289
-615.303	-138.043	0.696	-0.078
-614.288	-200.000	-0.027	-0.430
-613.273	138.268	-0.377	-0.496
-612.259	-47.641	0.676	0.330
-611.244	-64.612	-0.145	-0.059
-610.230	25.943	0.222	0.186
-609.215	-140.107	0.341	0.036
-608.201	800.000	-0.182	-0.736
-607.186	-200.000	-0.121	0.632
-606.171	23.018	-0.267	0.220
-605.157	-95.632	-1.026	-0.276
-604.142	202.814	0.407	-0.632
-603.128	-195.451	-0.525	-0.004
-602.113	-87.307	0.554	0.169
-601.098	-87.179	0.674	-0.206
-600.084	63.278	-0.573	-0.576
-599.069	77.544	-0.063	-0.067
-598.055	-21.816	-0.252	0.154
-597.040	36.207	0.308	0.272
-596.025	-109.739	-0.654	-0.138
-595.011	-36.342	0.775	0.419
-593.996	291.505	-0.351	-0.641
-592.982	226.981	-0.631	-1.029
-591.967	-5.858	-0.395	0.271
-590.952	-200.000	-0.022	-0.209
-589.938	-40.515	0.330	0.172
-588.923	-171.632	-0.548	0.018
-587.909	300.432	0.153	-0.283
-586.894	481.386	0.154	-0.351
-585.879	536.974	0.220	-0.523
-584.865	-200.000	0.028	-0.846
-583.850	800.000	0.126	0.391
-582.836	36.849	-0.367	-0.326
-581.821	446.265	-0.233	-0.515
-580.806	59.633	-0.210	-0.207
-579.792	199.541	0.325	0.500
-578.777	13.925	0.553	0.432
-577.763	-30.711	-1.013	-0.575
-576.748	-79.089	-0.770	-0.262
-575.733	-200.000	0.006	0.421
-574.719	800.000	0.162	0.590
-573.704	344.861	0.454	-0.893
-572.690	-139.956	-0.467	-0.049
-571.675	28.242	-0.510	0.432
-570.661	-152.265	-0.280	-0.020
-569.646	159.259	0.200	0.279
-568.631	-114.096	-1.051	0.204
-567.617	-200.000	0.057	0.571
-566.602	109.479	-0.574	-0.689
-565.588	-4.612	0.242	0.167
-564.573	-47.538	-0.496	-0.242
-563.558	42.861	0.117	0.107
-562.544	800.000	-0.069	0.209
-561.529	-200.000	0.020	-0.570
-560.515	-96.416	0.630	-0.167
-559.500	-41.916	0.417	0.214
-558.485	-35.936	0.410	-0.222
-557.471	800.000	0.101	-0.301
-556.456	-200.000	-0.074	-0.679
-555.442	-197.030	0.170	0.001
-554.427	-134.526	-0.738	0.090
-553.412	800.000	0.247	0.719
-552.398	-132.581	-0.528	-0.068
-551.383	-112.109	0.087	0.017
-550.369	-52.848	0.617	-0.285
-549.354	374.856	-0.441	0.900
-548.339	124.935	0.337	0.425
-547.325	377.212	-0.413	-0.845
-546.310	-200.000	-0.059	0.513
-545.296	631.842	0.078	-0.197
-544.281	355.289	-0.233	0.465
-543.266	99.786	0.556	0.645
-542.252	800.000	-0.263	-0.836
-541.237	800.000	0.009	0.028
-540.223	383.175	-0.318	0.654
-539.208	173.787	0.315	-0.455
-538.193	-165.388	0.662	-0.029
-537.179	-47.911	0.626	0.303
-536.164	-94.165	-1.432	0.393
-535.150	73.990	0.253	0.266
-534.135	78.047	-0.334	0.356
-533.121	15.674	0.761	-0.599
-532.106	800.000	-0.245	0.724
-531.091	-35.827	-0.343	0.186
-530.077	-134.993	-0.508	0.061
-529.062	-47.406	-0.359	0.175
-528.048	-200.000	0.016	0.084
-527.033	103.671	-0.008	-0.010
-526.018	-200.000	0.084	0.500
-525.004	-43.551	-0.487	0.246
-523.989	-125.262	0.450	0.069
-522.975	8.217	-0.168	0.126
-521.960	86.898	-0.290	0.320
-520.945	38.756	0.474	0.423
-519.931	-52.020	-0.232	-0.108
-518.916	4.635	-0.012	0.009
-517.902	5.407	0.047	-0.035
-516.887	267.535	-0.167	-0.293
-515.872	-120.046	0.491	-0.084
-514.858	-87.107	0.649	0.198
-513.843	-200.000	0.015	-0.347
-512.829	-53.404	-0.825	-0.378
-511.814	-123.338	0.756	0.121
-510.799	-0.150	0.283	0.201
-509.785	-200.000	0.193	0.985
-508.770	-46.384	-0.640	-0.314
-507.756	-59.426	0.396	0.170
-506.741	-200.000	-0.023	-0.586
-505.726	-3.987	0.340	0.236
-504.712	230.882	-0.529	-0.866
-503.697	363.130	-0.269	-0.540
-502.683	640.418	0.176	0.449
-501.668	455.924	0.165	-0.366
-500.653	-76.064	-0.160	0.056
-499.639	-200.000	0.065	0.381
-498.624	-26.898	-0.271	-0.159
-497.610	-154.069	0.540	0.037
-496.595	-97.251	-0.479	0.125
-495.581	119.985	-0.203	-0.252
-494.566	462.710	-0.220	-0.492
-493.551	474.951	0.418	0.943
-492.537	800.000	-0.040	-0.123
-491.522	-52.541	0.443	-0.204
-490.508	-172.828	-0.050	-0.002
-489.493	254.314	-0.300	-0.513
-488.478	800.000	-0.196	0.772
-487.464	-66.981	0.588	0.232
-486.449	-200.000	0.049	0.385
-485.435	90.762	0.430	0.481
-484.420	14.392	1.029	0.802
-483.405	-200.000	-0.022	0.500
-482.391	199.580	-0.097	-0.148
-481.376	-200.000	0.027	-0.173
-480.362	429.127	-0.177	0.383
-479.347	399.075	-0.455	0.951
-478.332	52.798	0.337	-0.322
-477.318	800.000	-0.139	-0.540
-476.303	800.000	0.054	-0.212
-475.289	303.362	-0.242	0.448
-474.274	-197.412	-0.412	-0.003
-473.259	-200.000	-0.012	-0.330
-472.245	161.616	0.022	0.031
-471.230	-200.000	0.083	0.429
-470.216	43.533	-0.239	-0.218
-469.201	-94.680	0.372	-0.101
-468.186	-200.000	-0.048	0.608
-467.172	185.179	0.349	0.517
-466.157	-200.000	0.052	0.295
-465.143	351.944	-0.325	0.643
-464.128	-76.945	-0.958	0.334
-463.113	309.582	-0.250	0.466
-462.099	-200.000	0.102	-1.052
-461.084	131.109	-0.227	-0.291
-460.070	-200.000	-0.025	-0.251
-459.055	37.873	0.391	0.347
-458.040	176.358	-0.248	0.360
-457.026	-27.996	-0.527	-0.304
-456.011	-121.046	-0.617	0.103
-454.997	106.504	-0.423	-0.501
-453.982	13.383	-0.626	-0.484
-452.968	800.000	-0.291	0.821
-451.953	-113.730	0.638	0.124
-450.938	15.489	-0.506	0.396
-449.924	-190.475	-0.431	0.005
-448.909	33.776	-0.601	-0.522
-447.895	535.366	0.214	0.507
-446.880	-72.380	-0.333	0.123
-445.865	417.649	-0.282	0.600
-444.851	-19.552	-0.344	-0.212
-443.836	35.407	0.406	-0.356
-442.822	-126.608	-0.434	-0.064
-441.807	-145.083	-0.569	0.052
-440.792	-200.000	0.032	-0.421
-439.778	120.885	0.266	0.330
-438.763	69.318	0.497	-0.510
-437.749	-110.511	-0.668	-0.138
-436.734	116.135	-0.232	0.283
-435.719	655.308	0.359	0.920
-434.705	-200.000	0.043	0.476
-433.690	605.562	-0.237	-0.588
-432.676	-70.395	0.411	-0.155
-431.661	-92.553	0.266	-0.074
-430.646	-184.094	0.535	-0.009
-429.632	-75.524	0.565	0.200
-428.617	-177.678	-0.391	-0.009
-427.603	218.981	-0.580	0.925
-426.588	223.970	-0.597	-0.962
-425.573	-90.954	-0.547	0.157
-424.559	-84.046	0.685	-0.217
-423.544	-177.854	0.424	-0.010
-422.530	-200.000	-0.054	0.264
-421.515	-152.153	0.442	0.032
-420.500	609.689	0.098	-0.243
-419.486	-160.626	0.764	-0.041
-418.471	-71.026	0.720	-0.270
-417.457	18.215	-0.187	-0.149
-416.442	55.116	-0.373	-0.359
-415.428	-55.718	0.262	-0.117
-414.413	15.900	0.338	-0.265
-413.398	217.144	-0.288	0.456
-412.384	150.167	-0.262	-0.355
-411.369	-11.726	0.569	-0.372
-410.355	-73.543	0.282	-0.102
-409.340	-9.102	0.717	0.478
-408.325	-200.000	0.151	-0.000
-407.311	800.000	0.092	0.361
-406.296	-65.337	-0.775	-0.311
-405.282	261.047	-0.171	0.295
-404.267	128.261	-0.193	-0.244
-403.252	-89.826	0.282	0.082
-402.238	-72.208	-0.826	-0.305
-401.223	66.437	0.538	0.544
-400.209	272.309	-0.518	0.909
-399.194	-130.731	0.101	-0.013
-398.179	-135.033	0.474	0.057
-397.165	76.539	-0.714	0.753
-396.150	-104.038	-1.165	0.270
-395.136	63.194	-0.467	-0.466
-394.121	86.842	0.697	-0.766
-393.106	-200.000	-0.127	-0.648
-392.092	-200.000	0.013	-0.581
-391.077	37.153	-0.336	-0.296
-390.063	340.592	-0.367	-0.712
-389.048	-2.760	0.417	0.290
-388.033	-92.462	0.798	-0.223
-387.019	-200.000	-0.041	0.917
-386.004	-200.000	-0.140	0.664
-384.990	-106.580	0.936	-0.207
-383.975	-94.004	0.652	0.178
-382.960	521.806	0.137	-0.320
-381.946	-200.000	0.005	-0.488
-380.931	-200.000	-0.007	0.151
-379.917	149.298	0.410	0.553
-378.902	-200.000	0.020	-0.518
-377.888	-1.779	-0.562	0.393
-376.873	-200.000	-0.041	0.230
-375.858	84.736	0.506	0.551
-374.844	-171.540	-0.135	0.004
-373.829	-200.000	-0.012	-0.379
-372.815	-176.490	-0.268	0.007
-371.800	-200.000	0.036	-0.643
-370.785	-200.000	0.030	-0.948
-369.771	785.974	0.111	0.304
-368.756	-200.000	0.097	0.592
-367.742	79.326	0.355	-0.379
-366.727	-113.550	-0.735	0.143
-365.712	10.345	-0.797	-0.603
-364.698	329.971	0.179	-0.342
-363.683	410.343	0.258	0.543
-362.669	-168.835	0.609	0.023
-361.654	800.000	0.437	-1.545
-360.639	-200.000	0.019	0.464
-359.625	800.000	0.375	1.328
-358.610	-70.082	0.722	0.273
-357.596	587.297	0.248	0.606
-356.581	-44.964	-0.411	-0.204
-355.566	-200.000	0.062	0.359
-354.552	-37.953	0.282	-0.149
-353.537	54.225	0.332	-0.318
-352.523	-83.290	-0.681	-0.217
-351.508	286.328	0.403	0.722
-350.493	731.331	0.250	0.664
-349.479	-172.816	0.553	-0.017
-348.464	74.504	-0.683	0.714
-347.450	61.586	0.528	0.522
-346.435	-26.175	0.390	0.227
-345.420	-200.000	-0.003	0.480
-344.406	-58.995	-0.238	-0.102
-343.391	32.910	0.256	0.220
-342.377	-181.789	-0.560	0.011
-341.362	-199.769	0.599	0.003
-340.348	-125.059	0.857	-0.131
-339.333	-139.789	-0.502	-0.053
-338.318	295.371	-0.448	-0.815
-337.304	800.000	0.194	-0.616
-336.289	800.000	-0.130	-0.390
-335.275	22.936	0.430	-0.350
-334.260	55.543	-0.528	-0.508
-333.245	-200.000	-0.137	0.657
-332.231	184.173	0.111	-0.163
-331.216	-200.000	0.055	0.469
-330.202	-10.960	-0.690	0.452
-329.187	65.761	-0.582	-0.586
-328.172	-31.901	0.481	-0.268
-327.158	-83.858	-0.527	-0.167
-326.143	-200.000	0.025	-0.346
-325.129	20.952	-0.146	-0.117
-324.114	143.029	-0.589	-0.777
-323.099	800.000	-0.152	0.434
-322.085	-36.266	-0.136	0.073
-321.070	-31.676	0.299	0.167
-320.056	93.941	0.360	0.405
-319.041	204.486	-0.380	-0.585
-318.026	289.386	0.364	-0.655
-317.012	411.312	-0.136	-0.287
-315.997	149.500	0.531	0.714
-314.983	800.000	0.188	-0.589
-313.968	-0.507	0.235	-0.166
-312.953	-26.483	0.281	-0.163
-311.939	-200.000	-0.024	0.151
-310.924	-200.000	0.033	1.507
-309.910	-134.994	-0.517	0.062
-308.895	48.682	0.280	-0.261
-307.880	800.000	-0.176	-0.621
-306.866	-47.315	-0.316	-0.152
-305.851	-32.965	0.371	0.204
-304.837	-53.002	-0.123	-0.056
-303.822	79.351	0.228	-0.242
-302.807	-108.946	0.714	-0.151
-301.793	-40.271	0.465	-0.240
-300.778	-28.347	0.031	0.018
-299.764	-120.069	0.538	-0.091
-298.749	-27.688	0.261	-0.150
-297.735	-18.929	0.812	-0.501
-296.720	399.288	-0.133	0.276
-295.705	712.526	-0.050	-0.130
-294.691	453.455	-0.326	-0.715
-293.676	186.900	-0.120	0.178
-292.662	-37.635	-0.600	-0.317
-291.647	-67.584	0.657	-0.255
-290.632	800.000	-0.165	-0.494
-289.618	-200.000	0.074	-0.355
-288.603	-146.125	0.475	-0.042
-287.589	541.370	0.227	-0.535
-286.574	205.642	0.162	-0.250
-285.559	-200.000	-0.007	0.741
-284.545	-200.000	0.047	-0.803
-283.530	-200.000	0.035	-0.627
-282.516	-57.302	-0.708	-0.309
-281.501	110.543	-0.163	-0.195
-280.486	-120.119	0.839	0.142
-279.472	-159.515	-0.280	0.015
-278.457	40.340	0.498	-0.444
-277.443	-200.000	0.107	0.838
-276.428	-200.000	0.065	0.378
-275.413	172.604	0.518	-0.739
-274.399	-141.720	0.536	0.053
-273.384	-200.000	-0.180	0.971
-272.370	-19.441	0.661	-0.406
-271.355	-16.558	0.579	0.363
-270.340	-155.956	-0.671	0.042
-269.326	-120.898	-0.293	-0.049
-268.311	-149.159	0.164	-0.013
-267.297	369.335	-0.042	-0.084
-266.282	-9.150	0.624	0.414
-265.267	-200.000	0.143	-0.729
-264.253	-94.763	0.440	-0.118
-263.238	-200.000	0.114	-0.787
-262.224	-76.617	0.442	-0.153
-261.209	800.000	0.242	-0.675
-260.195	800.000	0.069	-0.190
-259.180	-64.812	-0.163	0.065
-258.165	-109.708	-0.708	0.148
-257.151	123.596	0.087	0.109
-256.136	-200.000	-0.224	1.070
-255.122	12.245	-0.052	-0.039
-254.107	-200.000	0.065	-0.644
-253.092	599.076	0.217	-0.533
-252.078	-39.787	-0.439	0.227
-251.063	44.880	0.410	-0.373
-250.049	800.000	-0.002	0.006
-249.034	-83.227	-0.093	0.030
-248.019	151.123	-0.248	0.334
-247.005	800.000	-0.192	0.649
-245.990	692.055	0.112	0.290
-244.976	-200.000	0.023	-0.694
-243.961	-151.746	-0.714	-0.052
-242.946	-200.000	0.066	0.520
-241.932	-155.173	-0.789	-0.051
-240.917	-160.610	1.342	0.071
-239.903	-52.535	-0.713	0.326
-238.888	52.431	0.700	0.661
-237.873	800.000	-0.208	0.721
-236.859	-48.518	-0.115	0.055
-235.844	77.770	0.488	-0.515
-234.830	90.068	-0.159	-0.176
-233.815	166.273	-0.634	-0.889
-232.800	-151.974	-0.524	-0.038
-231.786	247.400	0.357	-0.597
-230.771	-109.959	-0.762	-0.158
-229.757	148.106	0.157	0.210
-228.742	414.866	0.385	0.810
-227.727	-200.000	0.058	0.402
-226.713	32.849	0.603	0.516
-225.698	-200.000	-0.062	0.295
-224.684	204.938	-0.051	-0.078
-223.669	471.980	0.179	0.399
-222.655	109.572	-0.365	-0.433
-221.640	80.182	0.404	0.430
-220.625	570.829	-0.296	-0.712
-219.611	97.028	-0.400	-0.453
-218.596	-77.658	-0.176	-0.060
-217.582	164.996	-0.095	-0.132
-216.567	225.596	0.158	0.254
-215.552	-76.305	0.418	0.146
-214.538	-77.865	-1.126	0.384
-213.523	-104.309	0.518	0.119
-212.509	-75.693	0.352	0.124
-211.494	-103.322	-1.118	-0.261
-210.479	103.203	-0.314	-0.363
-209.465	-200.000	0.003	-0.754
-208.450	29.828	-0.560	0.472
-207.436	0.485	0.631	0.446
-206.421	-124.855	-0.418	-0.064
-205.406	56.394	-0.348	-0.334
-204.392	-122.275	-0.526	-0.085
-203.377	-200.000	-0.015	-0.124
-202.363	-67.928	0.546	0.210
-201.348	-100.242	0.698	-0.171
-200.333	215.005	-0.203	-0.317
-199.319	-200.000	-0.005	0.656
-198.304	181.457	-0.556	0.808
-197.290	-66.287	-0.397	-0.156
-196.275	-200.000	-0.017	-0.261
-195.260	-200.000	0.039	-0.806
-194.246	-121.832	0.171	-0.028
-193.231	800.000	0.059	-0.169
-192.217	800.000	-0.216	0.631
-191.202	-144.952	-0.700	-0.063
-190.187	-200.000	-0.127	0.617
-189.173	368.266	0.270	0.538
-188.158	239.904	0.663	1.090
-187.144	-67.935	0.507	-0.196
-186.129	-11.380	-0.628	-0.408
-185.114	-29.475	0.123	0.069
-184.100	-101.589	-0.386	-0.093
-183.085	108.205	0.065	-0.076
-182.071	-170.822	-1.084	-0.037
-181.056	-200.000	-0.049	-0.413
-180.042	-113.135	-0.735	-0.143
-179.027	-103.173	0.303	0.071
-178.012	9.230	0.565	-0.421
-176.998	-200.000	0.224	-1.031
-175.983	208.138	0.674	-1.040
-174.969	-131.608	-0.292	0.038
-173.954	364.699	-0.101	0.201
-172.939	-133.791	-0.198	-0.024
-171.925	41.126	0.178	0.158
-170.910	-132.289	-1.032	0.132
-169.896	-93.133	0.843	0.231
-168.881	-200.000	0.085	1.207
-167.866	26.717	0.097	-0.080
-166.852	800.000	-0.102	0.327
-165.837	183.819	0.372	0.543
-164.823	800.000	-0.182	-0.724
-163.808	-115.684	0.412	-0.076
-162.793	42.447	0.159	0.142
-161.779	-55.815	0.160	-0.071
-160.764	-88.951	0.590	0.172
-159.750	82.965	0.297	-0.318
-158.735	-11.716	-0.576	-0.373
-157.720	587.106	-0.244	0.593
-156.706	800.000	0.081	-0.346
-155.691	-58.152	-0.440	0.189
-154.677	-200.000	-0.105	1.002
-153.662	265.598	-0.195	-0.335
-152.647	211.784	0.323	0.501
-151.633	160.689	-0.214	0.294
-150.618	-50.456	0.427	-0.199
-149.604	-21.611	0.153	0.092
-148.589	-96.139	-0.992	0.260
-147.574	4.994	-0.544	0.395
-146.560	62.468	0.240	-0.236
-145.545	7.309	0.485	-0.357
-144.531	1.033	-0.691	0.488
-143.516	-32.057	-0.106	0.058
-142.502	-39.409	-0.171	0.088
-141.487	-160.171	0.383	-0.020
-140.472	-200.000	-0.025	0.211
-139.458	284.533	0.404	0.717
-138.443	-11.929	-0.040	-0.026
-137.429	-200.000	-0.112	0.484
-136.414	-200.000	0.569	0.002
-135.399	72.126	-0.686	-0.704
-134.385	-25.611	-0.528	-0.307
-133.370	61.639	0.726	0.712
-132.356	-137.614	0.651	-0.072
-131.341	39.901	0.633	0.560
-130.326	147.152	0.425	0.563
-129.312	-50.964	0.425	0.196
-128.297	-187.259	0.482	-0.006
-127.283	-101.600	-0.233	0.056
-126.268	-167.939	-0.433	0.017
-125.253	-141.610	-0.319	0.032
-124.239	-200.000	0.129	-0.767
-123.224	-200.000	0.016	-0.091
-122.210	290.162	-0.299	-0.534
