DTS Sentinel unit serial number:	SN413079Multiplexer serial number:	ORYXHardware model number:	OX4-SRSoftware version number:	ORYX F/W v4.00 Oryx Data Collector v3.7.2.0data status	okinstallation	princeton_trtdifferential loss correction	single-endedforward channel	channel 2reverse channel	N/Adate	2019/09/15time	18:59:35forward acquisition time	60.00reverse acquisition time	0.00gamma	496.2192k internal	0.2296k external	0.2296temperature offset calibration	0.9926default loss term (dB/km)	0.3790temperature slope calibration	1.0000multiplexer offset coefficient	1.0000multiplexer slope coefficient	1.0000fibre end	0.00T internal ref (°C)	42.20T ext. ref 1 (°C)	7.02T ext. ref 2 (°C)	31.91length (m)	temperature (°C)	Stokes	anti-Stokes-747.200	205.789	-0.066	-0.105
-746.185	47.695	0.164	0.156
-745.171	-99.379	0.086	0.022
-744.156	-55.316	0.242	-0.111
-743.142	-200.000	0.004	0.109
-742.127	-95.100	0.338	0.093
-741.112	19.087	0.056	0.046
-740.098	800.000	-0.051	0.173
-739.083	-200.000	0.040	-0.259
-738.069	201.797	0.113	0.177
-737.054	800.000	0.086	-0.273
-736.039	197.082	-0.048	0.075
-735.025	487.455	0.086	0.200
-734.010	-200.000	0.006	0.269
-732.996	-9.744	-0.213	-0.145
-731.981	-86.031	-0.334	-0.105
-730.966	-200.000	0.020	-0.196
-729.952	-200.000	-0.049	-0.432
-728.937	552.439	-0.065	-0.158
-727.923	-32.543	-0.294	0.168
-726.908	-139.476	0.188	0.021
-725.894	272.624	0.079	-0.142
-724.879	51.738	0.141	-0.137
-723.864	-200.000	0.030	0.192
-722.850	-200.000	-0.013	-0.089
-721.835	-34.723	-0.191	0.106
-720.821	-200.000	-0.000	0.037
-719.806	100.005	-0.227	-0.269
-718.791	-200.000	0.040	-0.272
-717.777	-113.900	0.254	-0.050
-716.762	-114.683	-0.410	-0.080
-715.748	433.620	0.097	0.215
-714.733	-106.075	-0.279	0.064
-713.718	-78.798	-0.274	0.096
-712.704	-42.154	-0.156	0.082
-711.689	-85.702	0.125	0.040
-710.675	800.000	-0.065	0.234
-709.660	56.986	-0.151	-0.150
-708.645	-143.312	-0.200	0.020
-707.631	636.628	-0.022	-0.056
-706.616	-200.000	-0.062	0.344
-705.602	355.603	0.057	-0.116
-704.587	-88.255	0.195	-0.059
-703.572	-200.000	0.034	0.183
-702.558	-183.289	-0.046	0.001
-701.543	-165.682	-0.206	0.009
-700.529	-18.235	-0.183	-0.117
-699.514	-124.913	0.170	-0.027
-698.499	121.729	-0.141	-0.179
-697.485	224.531	-0.064	0.106
-696.470	-29.205	-0.326	-0.191
-695.456	-70.622	0.253	-0.098
-694.441	-101.075	-0.356	-0.089
-693.426	-200.000	-0.055	-0.430
-692.412	468.308	-0.071	-0.162
-691.397	-167.638	0.094	-0.004
-690.383	-112.238	-0.167	0.034
-689.368	800.000	0.053	0.204
-688.354	15.457	-0.146	0.116
-687.339	-133.287	0.283	-0.036
-686.324	-9.221	-0.214	-0.146
-685.310	-55.766	0.157	-0.072
-684.295	-141.617	-0.053	-0.005
-683.281	-200.000	-0.020	-0.210
-682.266	800.000	-0.107	-0.353
-681.251	-146.419	0.101	-0.009
-680.237	344.518	0.036	-0.071
-679.222	49.670	0.148	-0.142
-678.208	215.698	-0.090	-0.146
-677.193	-200.000	-0.044	-0.203
-676.178	800.000	-0.020	-0.059
-675.164	194.780	-0.134	0.208
-674.149	-74.745	-0.360	0.132
-673.135	-122.219	-0.113	-0.019
-672.120	585.063	-0.113	-0.283
-671.105	163.245	0.103	-0.147
-670.091	-45.801	-0.154	-0.078
-669.076	175.921	-0.061	0.090
-668.062	115.548	-0.185	-0.230
-667.047	-200.000	0.033	0.213
-666.032	121.510	-0.146	0.186
-665.018	-66.756	0.034	-0.014
-664.003	800.000	0.074	-0.329
-662.989	66.990	0.108	-0.112
-661.974	325.017	-0.117	-0.227
-660.959	800.000	-0.079	-0.231
-659.945	-126.281	0.137	0.021
-658.930	65.304	0.317	0.327
-657.916	256.790	-0.101	0.176
-656.901	242.549	0.083	-0.142
-655.886	54.813	0.299	0.294
-654.872	20.884	-0.152	-0.125
-653.857	-84.417	-0.041	0.013
-652.843	-200.000	-0.057	-0.284
-651.828	-153.308	-0.225	-0.016
-650.814	-62.906	-0.132	-0.056
-649.799	-200.000	0.017	-0.293
-648.784	-117.455	0.032	0.006
-647.770	416.570	-0.098	-0.214
-646.755	11.984	0.207	0.162
-645.741	-110.766	0.345	-0.072
-644.726	576.007	-0.071	-0.176
-643.711	-92.318	-0.122	-0.035
-642.697	-200.000	-0.006	0.248
-641.682	184.839	0.214	-0.323
-640.668	124.738	0.249	-0.319
-639.653	-97.465	-0.173	0.046
-638.638	800.000	-0.155	0.478
-637.624	-200.000	-0.001	0.026
-636.609	516.198	-0.088	0.208
-635.595	682.252	0.039	-0.104
-634.580	-37.073	-0.045	-0.024
-633.565	485.993	0.066	0.152
-632.551	-146.315	-0.249	-0.022
-631.536	470.934	0.126	-0.288
-630.522	-117.891	-0.071	0.013
-629.507	-146.919	-0.205	0.018
-628.492	100.735	0.199	0.235
-627.478	-61.100	-0.224	-0.096
-626.463	-200.000	0.011	0.048
-625.449	-105.280	0.265	0.061
-624.434	493.348	-0.270	-0.630
-623.419	800.000	-0.042	-0.146
-622.405	82.643	-0.112	0.124
-621.390	-64.153	-0.142	0.059
-620.376	-200.000	0.014	0.497
-619.361	-45.452	0.136	-0.068
-618.346	-109.599	0.407	0.087
-617.332	800.000	0.021	0.066
-616.317	246.884	-0.160	-0.274
-615.303	657.344	0.119	-0.311
-614.288	-200.000	-0.003	0.081
-613.273	592.852	-0.107	0.268
-612.259	117.895	0.208	0.260
-611.244	80.965	0.136	-0.149
-610.230	800.000	0.018	0.076
-609.215	800.000	-0.034	-0.146
-608.201	-85.394	-0.088	-0.028
-607.186	-200.000	0.015	-0.325
-606.171	208.890	0.047	-0.074
-605.157	-200.000	-0.059	0.387
-604.142	559.160	0.200	0.490
-603.128	45.447	-0.088	0.082
-602.113	-200.000	0.024	-0.274
-601.098	148.970	0.212	-0.292
-600.084	-200.000	0.042	0.275
-599.069	-125.755	-0.196	-0.030
-598.055	28.467	-0.086	0.074
-597.040	800.000	0.099	0.299
-596.025	354.723	0.151	-0.305
-595.011	16.112	0.176	-0.141
-593.996	-200.000	0.004	-0.457
-592.982	39.046	-0.098	-0.089
-591.967	18.049	-0.202	0.164
-590.952	101.305	0.075	-0.089
-589.938	-41.790	-0.343	-0.179
-588.923	148.146	-0.140	-0.192
-587.909	-28.488	-0.162	-0.095
-586.894	-51.489	0.025	0.012
-585.879	-22.235	-0.050	-0.031
-584.865	2.702	-0.037	-0.027
-583.850	800.000	-0.079	-0.293
-582.836	-200.000	0.015	-0.073
-581.821	174.512	0.094	-0.138
-580.806	87.009	-0.094	0.106
-579.792	-45.488	0.048	-0.024
-578.777	-154.775	0.350	0.024
-577.763	30.807	0.144	-0.125
-576.748	-101.924	-0.170	0.042
-575.733	671.496	-0.088	-0.231
-574.719	15.826	-0.174	-0.139
-573.704	275.278	-0.098	0.176
-572.690	7.423	0.112	-0.085
-571.675	-200.000	-0.026	-0.216
-570.661	38.038	-0.159	0.144
-569.646	146.172	0.140	-0.191
-568.631	419.761	-0.121	-0.262
-567.617	-179.255	0.269	-0.006
-566.602	106.330	0.114	0.137
-565.588	-200.000	-0.019	0.311
-564.573	800.000	0.071	-0.219
-563.558	800.000	0.040	-0.158
-562.544	-56.995	-0.237	0.106
-561.529	15.108	0.286	-0.227
-560.515	-96.334	0.116	-0.031
-559.500	-96.230	0.363	0.098
-558.485	276.264	0.151	0.272
-557.471	800.000	-0.086	0.370
-556.456	-103.294	0.333	0.080
-555.442	94.466	0.292	0.337
-554.427	-200.000	-0.007	0.050
-553.412	-200.000	-0.040	-0.217
-552.398	-28.577	-0.191	0.112
-551.383	-3.296	-0.249	0.176
-550.369	38.445	0.039	-0.035
-549.354	-134.815	0.242	-0.030
-548.339	-200.000	-0.038	0.263
-547.325	-92.096	-0.512	0.147
-546.310	8.028	0.135	-0.103
-545.296	-75.456	0.129	0.047
-544.281	-118.532	-0.293	-0.053
-543.266	89.179	-0.284	0.320
-542.252	-88.799	-0.163	0.049
-541.237	-12.946	0.136	0.090
-540.223	305.370	-0.092	0.173
-539.208	-116.181	-0.386	-0.073
-538.193	-87.143	-0.086	0.027
-537.179	327.073	0.062	0.120
-536.164	194.656	0.241	-0.370
-535.150	-200.000	-0.015	0.121
-534.135	-93.687	-0.396	-0.111
-533.121	29.271	0.191	0.164
-532.106	-145.537	0.050	0.005
-531.091	17.960	-0.059	0.048
-530.077	162.538	0.285	-0.405
-529.062	-120.519	-0.268	-0.046
-528.048	-91.708	0.072	0.021
-527.033	-109.859	0.266	0.057
-526.018	-40.138	-0.131	0.069
-525.004	276.030	0.039	-0.069
-523.989	-44.933	0.086	0.043
-522.975	-29.454	-0.308	-0.179
-521.960	13.806	-0.144	0.113
-520.945	184.245	-0.154	0.231
-519.931	-200.000	0.043	-0.516
-518.916	180.148	-0.102	0.151
-517.902	-68.885	-0.110	0.043
-516.887	-200.000	-0.041	0.212
-515.872	71.699	-0.256	0.270
-514.858	-128.405	-0.153	-0.022
-513.843	288.462	-0.075	0.137
-512.829	148.094	0.302	-0.413
-511.814	6.451	0.212	-0.160
-510.799	601.366	0.037	-0.094
-509.785	116.884	-0.234	0.291
-508.770	-81.113	0.353	0.118
-507.756	-200.000	-0.018	-0.221
-506.741	-200.000	0.006	-0.388
-505.726	170.738	-0.102	0.148
-504.712	-200.000	0.011	-0.192
-503.697	353.342	-0.054	0.109
-502.683	800.000	-0.055	-0.223
-501.668	-97.704	0.141	-0.037
-500.653	-81.382	0.306	-0.102
-499.639	-200.000	-0.049	-0.388
-498.624	-200.000	0.008	-0.098
-497.610	45.569	0.243	-0.227
-496.595	-7.373	0.226	-0.155
-495.581	589.940	-0.184	0.459
-494.566	384.841	0.181	0.378
-493.551	45.540	-0.293	0.274
-492.537	-43.812	-0.392	0.199
-491.522	427.764	0.096	0.210
-490.508	-45.402	0.270	0.135
-489.493	-65.167	0.274	-0.112
-488.478	49.627	0.224	0.213
-487.464	86.957	0.076	0.085
-486.449	800.000	-0.104	-0.295
-485.435	-114.411	-0.107	-0.021
-484.420	243.100	-0.113	0.191
-483.405	-200.000	0.036	0.338
-482.391	112.392	0.036	-0.044
-481.376	-200.000	0.001	-0.311
-480.362	-74.876	-0.354	-0.128
-479.347	246.800	-0.230	-0.392
-478.332	46.453	-0.181	-0.170
-477.318	0.283	0.248	0.179
-476.303	240.399	0.052	0.087
-475.289	676.304	-0.014	-0.037
-474.274	333.028	0.048	0.093
-473.259	464.645	-0.090	-0.203
-472.245	573.613	-0.103	0.254
-471.230	51.242	0.110	0.106
-470.216	-28.086	0.187	0.109
-469.201	-152.672	-0.096	-0.007
-468.186	120.727	0.281	-0.353
-467.172	-4.845	-0.393	0.274
-466.157	-200.000	-0.046	0.284
-465.143	-57.645	-0.105	-0.047
-464.128	420.836	0.209	0.454
-463.113	145.941	0.055	-0.075
-462.099	-111.143	-0.238	0.049
-461.084	800.000	-0.044	0.178
-460.070	171.543	-0.086	-0.125
-459.055	333.636	-0.093	0.183
-458.040	-54.410	-0.065	0.030
-457.026	176.883	-0.134	-0.196
-456.011	-118.632	0.190	0.034
-454.997	140.132	0.164	-0.219
-453.982	69.212	0.075	0.078
-452.968	63.543	-0.219	0.222
-451.953	21.593	0.100	0.082
-450.938	-200.000	0.019	0.153
-449.924	-200.000	-0.039	0.174
-448.909	-59.011	-0.309	0.135
-447.895	-143.749	-0.247	-0.024
-446.880	229.225	-0.078	-0.128
-445.865	-200.000	-0.019	0.183
-444.851	-44.604	0.231	-0.116
-443.836	9.201	0.312	0.238
-442.822	-19.566	-0.219	-0.137
-441.807	527.448	0.085	-0.201
-440.792	-56.791	-0.205	-0.092
-439.778	-17.381	-0.262	-0.167
-438.763	-38.123	-0.246	-0.132
-437.749	168.995	0.171	0.246
-436.734	113.159	0.134	0.164
-435.719	-125.194	-0.194	0.030
-434.705	6.156	0.141	0.105
-433.690	17.492	-0.038	0.031
-432.676	47.519	-0.183	-0.172
-431.661	633.776	0.139	0.355
-430.646	-143.634	-0.241	0.023
-429.632	-7.776	-0.182	0.124
-428.617	65.485	0.137	-0.140
-427.603	-200.000	-0.017	-0.352
-426.588	-200.000	0.016	0.106
-425.573	467.771	0.057	-0.129
-424.559	-71.614	0.137	0.052
-423.544	-114.868	0.208	-0.040
-422.530	-97.234	0.313	-0.082
-421.515	-134.035	0.182	-0.023
-420.500	72.786	0.248	0.261
-419.486	800.000	0.108	0.337
-418.471	-200.000	0.010	-0.127
-417.457	-153.706	0.160	-0.011
-416.442	1.542	0.238	0.173
-415.428	-200.000	0.049	-0.331
-414.413	800.000	-0.102	-0.378
-413.398	238.023	-0.053	0.088
-412.384	428.582	-0.130	-0.282
-411.369	-103.058	-0.105	-0.025
-410.355	-138.660	0.146	-0.016
-409.340	-21.431	-0.144	-0.089
-408.325	-33.597	-0.248	-0.138
-407.311	312.032	-0.083	0.158
-406.296	-200.000	-0.001	0.227
-405.282	-200.000	-0.007	0.109
-404.267	-87.387	-0.090	0.028
-403.252	-98.770	-0.087	-0.022
-402.238	800.000	-0.106	0.306
-401.223	-43.416	0.395	-0.201
-400.209	139.736	0.168	-0.224
-399.194	-66.628	0.128	0.051
-398.179	-158.510	0.177	0.010
-397.165	83.870	0.009	-0.010
-396.150	-31.952	0.334	0.188
-395.136	-200.000	-0.012	-0.384
-394.121	-74.325	0.379	-0.138
-393.106	39.884	-0.243	-0.220
-392.092	800.000	-0.129	0.361
-391.077	9.892	-0.260	0.199
-390.063	-106.604	-0.210	0.047
-389.048	-72.176	0.236	0.088
-388.033	37.955	0.218	0.195
-387.019	-200.000	-0.009	0.182
-386.004	279.310	0.066	-0.119
-384.990	150.962	0.211	-0.289
-383.975	-46.673	-0.094	-0.046
-382.960	-77.110	0.306	0.107
-381.946	-41.893	0.170	0.088
-380.931	-200.000	-0.031	0.278
-379.917	-200.000	-0.028	-0.164
-378.902	-127.804	-0.322	-0.047
-377.888	-17.579	0.105	-0.066
-376.873	9.129	0.394	-0.300
-375.858	-134.333	-0.181	0.022
-374.844	-80.219	-0.078	-0.026
-373.829	760.166	0.110	0.299
-372.815	301.462	0.041	0.077
-371.800	-104.144	0.121	-0.028
-370.785	-200.000	-0.077	-0.401
-369.771	-92.541	0.243	-0.069
-368.756	-9.041	-0.188	-0.127
-367.742	-70.784	-0.268	-0.102
-366.727	111.130	-0.098	0.119
-365.712	-200.000	-0.022	-0.167
-364.698	-50.443	0.179	0.085
-363.683	77.986	0.004	0.004
-362.669	85.089	-0.247	-0.272
-361.654	-109.239	0.065	0.014
-360.639	-78.931	-0.271	-0.093
-359.625	-200.000	-0.034	0.186
-358.610	-84.707	0.251	0.079
-357.596	-35.411	0.181	0.099
-356.581	-200.000	-0.003	-0.017
-355.566	-82.510	0.220	-0.072
-354.552	-200.000	0.009	0.073
-353.537	15.968	-0.253	0.200
-352.523	-174.195	-0.153	0.004
-351.508	16.864	0.140	0.111
-350.493	-136.166	-0.348	-0.041
-349.479	800.000	0.110	0.412
-348.464	800.000	0.066	-0.263
-347.450	92.467	-0.096	-0.109
-346.435	139.992	0.136	-0.181
-345.420	59.644	0.233	0.231
-344.406	-109.151	-0.064	0.014
-343.391	-195.670	0.071	-0.001
-342.377	122.448	-0.200	0.251
-341.362	-48.847	-0.110	0.053
-340.348	-181.624	-0.425	-0.008
-339.333	-123.839	0.115	-0.018
-338.318	23.537	0.125	0.103
-337.304	152.140	-0.299	0.410
-336.289	359.315	-0.042	-0.084
-335.275	68.580	-0.173	0.178
-334.260	81.065	-0.262	-0.284
-333.245	-64.785	-0.268	-0.109
-332.231	-200.000	0.007	0.323
-331.216	314.215	-0.115	-0.217
-330.202	-104.405	-0.168	-0.039
-329.187	-69.325	0.259	-0.100
-328.172	186.829	0.095	0.143
-327.158	-117.419	-0.195	0.036
-326.143	282.460	0.140	-0.252
-325.129	-3.617	-0.164	-0.115
-324.114	-200.000	-0.071	0.358
-323.099	42.155	-0.027	-0.024
-322.085	39.959	-0.096	0.087
-321.070	-200.000	0.060	0.418
-320.056	800.000	0.117	0.369
-319.041	-18.340	0.117	-0.073
-318.026	-62.018	0.229	-0.096
-317.012	117.700	-0.147	-0.182
-315.997	150.145	-0.156	0.213
-314.983	200.342	0.182	0.281
-313.968	-137.860	0.467	-0.053
-312.953	-200.000	-0.003	-0.034
-311.939	-200.000	0.030	-0.217
-310.924	227.081	-0.070	-0.114
-309.910	-81.698	-0.048	0.016
-308.895	289.309	0.073	0.133
-307.880	800.000	-0.033	0.098
-306.866	499.697	-0.062	-0.143
-305.851	117.264	-0.218	0.270
-304.837	-33.901	-0.400	0.221
-303.822	-50.813	0.228	0.108
-302.807	-10.513	0.158	0.105
-301.793	119.991	0.093	-0.116
-300.778	245.715	-0.141	0.239
-299.764	515.331	-0.124	-0.292
-298.749	800.000	-0.063	0.217
-297.735	-70.035	0.356	0.136
-296.720	800.000	-0.113	0.313
-295.705	-119.175	-0.069	-0.012
-294.691	-200.000	0.003	-0.206
-293.676	-86.534	0.198	-0.061
-292.662	800.000	-0.028	-0.098
-291.647	-77.119	0.174	0.061
-290.632	-38.593	0.131	-0.069
-289.618	248.265	-0.150	0.255
-288.603	-100.581	0.286	0.071
-287.589	62.639	0.170	0.170
-286.574	-200.000	0.085	0.508
-285.559	108.394	0.253	0.303
-284.545	-17.991	-0.349	0.220
-283.530	366.776	0.064	-0.129
-282.516	39.857	0.117	-0.105
-281.501	235.787	-0.057	-0.095
-280.486	-130.446	0.167	-0.023
-279.472	-3.782	-0.103	-0.072
-278.457	800.000	0.040	0.169
-277.443	181.155	-0.092	-0.136
-276.428	-68.759	0.159	-0.062
-275.413	58.794	-0.142	-0.140
-274.399	313.605	-0.099	0.187
-273.384	-40.338	0.096	0.050
-272.370	162.571	0.159	-0.223
-271.355	112.644	0.094	-0.115
-270.340	762.836	0.130	-0.354
-269.326	3.024	0.153	0.111
-268.311	800.000	0.052	-0.183
-267.297	-200.000	-0.009	-0.275
-266.282	-134.922	0.381	0.046
-265.267	-28.807	-0.098	-0.057
-264.253	159.558	-0.181	-0.253
-263.238	98.547	0.088	-0.101
-262.224	800.000	0.047	0.163
-261.209	-200.000	-0.115	-0.560
-260.195	91.644	-0.132	-0.149
-259.180	-122.816	0.166	-0.027
-258.165	800.000	0.111	-0.449
-257.151	229.581	-0.152	-0.249
-256.136	-28.916	-0.014	0.008
-255.122	-200.000	-0.029	-0.216
-254.107	-156.629	0.027	-0.002
-253.092	118.339	-0.200	0.248
-252.078	-127.425	0.093	0.014
-251.063	-155.074	0.194	-0.013
-250.049	-35.073	0.174	-0.095
-249.034	31.784	0.099	0.085
-248.019	-200.000	0.016	0.189
-247.005	150.601	-0.028	-0.038
-245.990	80.055	-0.183	0.197
-244.976	-130.403	0.225	-0.031
-243.961	70.505	-0.096	0.100
-242.946	752.106	0.102	-0.275
-241.932	102.376	0.173	0.202
-240.917	-200.000	0.032	0.141
-239.903	130.120	0.029	-0.037
-238.888	85.751	0.083	0.091
-237.873	400.376	-0.024	-0.050
-236.859	-151.097	0.356	0.027
-235.844	-166.491	0.122	0.005
-234.830	-200.000	-0.060	0.313
-233.815	35.064	0.217	0.190
-232.800	-150.896	0.384	-0.029
-231.786	-141.403	-0.188	0.019
-230.771	-200.000	0.006	-0.110
-229.757	-74.883	-0.156	0.056
-228.742	85.046	0.110	-0.120
-227.727	-89.932	-0.130	-0.038
-226.713	67.792	0.042	0.043
-225.698	128.927	-0.014	-0.017
-224.684	151.645	-0.207	0.283
-223.669	-100.694	-0.075	-0.018
-222.655	-105.631	0.356	-0.081
-221.640	-116.594	0.066	0.012
-220.625	-88.676	-0.155	0.046
-219.611	-200.000	0.023	-0.414
-218.596	-119.001	-0.455	0.080
-217.582	-52.621	0.086	-0.040
-216.567	-29.232	-0.071	-0.041
-215.552	-91.558	-0.137	-0.039
-214.538	-86.083	0.218	-0.067
-213.523	80.170	-0.160	0.172
-212.509	231.023	-0.138	0.226
-211.494	-62.063	-0.095	-0.040
-210.479	56.945	-0.230	-0.224
-209.465	-200.000	-0.059	-0.474
-208.450	258.164	0.052	0.089
-207.436	-115.169	0.114	0.022
-206.421	43.139	-0.095	-0.087
-205.406	-91.818	-0.245	0.070
-204.392	224.072	0.217	0.351
-203.377	-123.300	0.195	-0.031
-202.363	-200.000	0.011	0.195
-201.348	800.000	0.024	0.086
-200.333	-118.070	-0.256	-0.046
-199.319	554.232	0.152	0.365
-198.304	-200.000	-0.075	0.336
-197.290	23.258	0.114	0.094
-196.275	800.000	0.057	-0.167
-195.260	-200.000	0.107	-0.493
-194.246	-30.577	-0.344	-0.195
-193.231	-200.000	-0.050	-0.246
-192.217	13.082	0.154	0.120
-191.202	269.399	-0.125	0.219
-190.187	465.647	0.047	-0.104
-189.173	-105.182	0.256	0.058
-188.158	-110.598	-0.077	0.016
-187.144	76.322	-0.011	0.012
-186.129	710.455	0.122	-0.323
-185.114	-103.674	0.073	-0.017
-184.100	57.944	-0.294	-0.287
-183.085	-119.337	0.198	-0.035
-182.071	177.698	-0.065	-0.094
-181.056	-116.022	0.197	0.037
-180.042	285.172	-0.159	-0.287
-179.027	86.196	0.109	-0.120
-178.012	-200.000	-0.006	-0.171
-176.998	800.000	-0.042	-0.125
-175.983	100.371	-0.079	0.091
-174.969	694.153	0.036	-0.093
-173.954	42.314	-0.173	0.157
-172.939	74.472	0.035	-0.036
-171.925	-31.763	0.141	-0.079
-170.910	-9.914	-0.438	0.291
-169.896	-22.023	0.057	-0.035
-168.881	-163.692	-0.169	0.008
-167.866	-42.933	-0.338	0.171
-166.852	-17.708	0.116	0.073
-165.837	150.190	-0.150	-0.203
-164.823	-78.006	-0.281	0.097
-163.808	-45.877	-0.222	0.109
-162.793	-75.532	-0.210	-0.075
-161.779	800.000	-0.012	0.039
-160.764	-187.622	0.163	-0.002
-159.750	-45.436	-0.222	0.110
-158.735	-89.066	-0.122	0.036
-157.720	-200.000	-0.002	-0.246
-156.706	358.094	-0.064	0.127
-155.691	252.651	-0.154	-0.262
-154.677	577.859	-0.027	-0.066
-153.662	-179.184	-0.182	0.004
-152.647	-75.922	0.303	-0.107
-151.633	162.627	0.161	-0.225
-150.618	35.841	-0.114	-0.100
-149.604	-106.976	0.240	0.053
-148.589	24.142	-0.324	-0.267
-147.574	-200.000	0.021	-0.356
-146.560	-49.875	-0.315	0.149
-145.545	37.275	-0.079	-0.070
-144.531	800.000	0.075	-0.244
-143.516	11.103	-0.113	-0.086
-142.502	250.705	0.078	0.132
-141.487	-118.260	0.168	-0.030
-140.472	-116.775	0.118	-0.022
-139.458	284.459	-0.220	0.394
-138.443	-66.732	0.502	-0.198
-137.429	126.134	0.116	0.147
-136.414	194.584	-0.189	0.286
-135.399	-200.000	0.037	0.208
-134.385	-67.374	-0.248	0.097
-133.370	-56.326	-0.259	-0.115
-132.356	148.520	-0.169	0.228
-131.341	289.075	0.092	0.166
-130.326	-156.018	-0.368	-0.023
-129.312	-63.918	0.239	0.097
-128.297	-200.000	-0.010	0.112
-127.283	-200.000	0.022	-0.197
-126.268	171.382	0.060	0.085
-125.253	491.823	0.046	0.104
-124.239	800.000	0.009	-0.030
-123.224	-1.084	-0.293	0.207
-122.210	-200.000	0.032	0.184
