DTS Sentinel unit serial number:	SN413079Multiplexer serial number:	ORYXHardware model number:	OX4-SRSoftware version number:	ORYX F/W v4.00 Oryx Data Collector v3.7.2.0data status	okinstallation	princeton_trtdifferential loss correction	single-endedforward channel	channel 2reverse channel	N/Adate	2019/09/12time	09:41:11forward acquisition time	60.00reverse acquisition time	0.00gamma	496.2192k internal	0.2315k external	0.2315temperature offset calibration	1.0066default loss term (dB/km)	0.3790temperature slope calibration	1.0000multiplexer offset coefficient	1.0000multiplexer slope coefficient	1.0000fibre end	0.00T internal ref (°C)	35.81T ext. ref 1 (°C)	1.83T ext. ref 2 (°C)	32.57length (m)	temperature (°C)	Stokes	anti-Stokes-747.200	-200.000	-0.041	-0.235
-746.185	-122.963	-0.065	0.011
-745.171	401.719	-0.039	0.082
-744.156	-200.000	-0.040	0.416
-743.142	375.898	-0.155	0.321
-742.127	-75.015	-0.126	-0.046
-741.112	-106.751	0.089	-0.020
-740.098	360.028	0.077	0.156
-739.083	-180.113	-0.344	-0.007
-738.069	484.832	-0.048	-0.110
-737.054	-77.338	-0.119	0.042
-736.039	-90.770	-0.107	-0.031
-735.025	304.669	-0.159	0.299
-734.010	-71.291	-0.166	0.063
-732.996	460.401	-0.200	-0.451
-731.981	800.000	-0.106	-0.373
-730.966	282.028	-0.122	0.222
-729.952	538.451	0.091	0.219
-728.937	-200.000	0.027	0.424
-727.923	-30.155	-0.124	0.071
-726.908	399.784	0.139	0.296
-725.894	164.176	0.057	-0.081
-724.879	-116.870	-0.189	0.035
-723.864	-54.374	-0.134	0.062
-722.850	-200.000	0.043	-0.206
-721.835	800.000	-0.098	-0.349
-720.821	-140.660	-0.383	-0.040
-719.806	16.733	-0.157	0.126
-718.791	-12.923	-0.262	-0.173
-717.777	228.072	0.204	0.337
-716.762	-144.126	-0.032	-0.003
-715.748	-107.880	-0.137	-0.030
-714.733	800.000	-0.078	-0.331
-713.718	-85.094	0.103	-0.033
-712.704	-200.000	0.042	0.213
-711.689	-200.000	0.031	0.154
-710.675	7.201	0.066	0.050
-709.660	-54.368	-0.398	0.183
-708.645	-140.940	-0.175	-0.018
-707.631	-152.455	0.241	0.017
-706.616	147.986	-0.252	-0.344
-705.602	-128.024	0.287	0.042
-704.587	208.544	0.205	-0.324
-703.572	800.000	0.017	-0.052
-702.558	328.478	-0.048	-0.092
-701.543	146.554	-0.164	-0.223
-700.529	267.457	0.199	-0.352
-699.514	374.448	-0.083	-0.171
-698.499	-33.214	0.294	0.165
-697.485	800.000	-0.049	0.184
-696.470	134.562	0.057	0.075
-695.456	-116.123	0.470	0.088
-694.441	-16.782	0.252	0.161
-693.426	153.489	-0.134	0.186
-692.412	-200.000	0.027	-0.171
-691.397	115.930	0.074	0.091
-690.383	102.419	0.033	0.039
-689.368	800.000	0.065	-0.246
-688.354	-112.632	-0.267	0.054
-687.339	356.236	-0.066	0.133
-686.324	39.843	-0.289	-0.262
-685.310	-132.812	0.401	0.052
-684.295	91.638	-0.064	-0.073
-683.281	-200.000	-0.024	0.310
-682.266	-36.097	-0.309	-0.169
-681.251	800.000	0.013	0.054
-680.237	127.617	-0.122	0.156
-679.222	-55.261	0.283	-0.128
-678.208	69.409	-0.210	-0.219
-677.193	555.958	-0.019	-0.047
-676.178	800.000	0.097	0.272
-675.164	800.000	-0.039	-0.133
-674.149	-116.735	0.019	0.003
-673.135	32.447	-0.243	-0.212
-672.120	22.078	-0.160	0.132
-671.105	-200.000	-0.011	0.321
-670.091	41.207	-0.125	-0.114
-669.076	264.651	0.093	0.164
-668.062	-200.000	-0.011	-0.294
-667.047	209.370	0.112	-0.177
-666.032	-200.000	0.005	-0.152
-665.018	292.100	0.192	0.353
-664.003	-94.503	-0.225	-0.062
-662.989	3.910	-0.230	0.170
-661.974	58.035	-0.191	-0.189
-660.959	-200.000	0.068	-0.394
-659.945	178.018	-0.081	-0.119
-658.930	-62.917	-0.247	0.103
-657.916	-200.000	0.042	0.597
-656.901	-70.383	-0.104	-0.040
-655.886	43.123	-0.149	-0.137
-654.872	335.821	-0.125	-0.244
-653.857	129.376	-0.141	0.182
-652.843	800.000	0.080	0.281
-651.828	-200.000	0.013	0.199
-650.814	14.045	-0.154	0.121
-649.799	2.911	-0.228	-0.167
-648.784	291.343	-0.071	-0.131
-647.770	134.307	-0.081	0.106
-646.755	79.332	0.175	0.189
-645.741	-26.063	-0.136	-0.081
-644.726	-200.000	0.048	-0.334
-643.711	105.234	0.132	-0.158
-642.697	-47.714	0.229	-0.112
-641.682	166.418	-0.142	0.204
-640.668	455.012	-0.097	0.217
-639.653	318.851	0.132	0.253
-638.638	-200.000	0.000	0.056
-637.624	-31.328	0.123	0.070
-636.609	-95.801	-0.066	-0.018
-635.595	296.888	-0.098	0.181
-634.580	374.364	-0.039	0.079
-633.565	438.387	0.167	0.367
-632.551	-94.983	-0.272	-0.074
-631.536	-32.013	-0.374	0.211
-630.522	43.080	0.156	-0.144
-629.507	-200.000	-0.124	0.611
-628.492	-50.051	-0.304	0.145
-627.478	-1.695	-0.175	-0.124
-626.463	163.341	0.034	-0.049
-625.449	-182.546	0.227	0.004
-624.434	4.373	-0.131	0.097
-623.419	-200.000	-0.086	0.425
-622.405	-200.000	-0.023	-0.142
-621.390	-16.072	0.162	0.104
-620.376	-129.414	-0.048	0.007
-619.361	-200.000	0.005	-0.108
-618.346	-136.810	-0.108	-0.012
-617.332	-200.000	-0.069	-0.345
-616.317	293.796	0.176	0.323
-615.303	-23.062	0.206	0.125
-614.288	800.000	-0.065	0.189
-613.273	59.422	-0.273	-0.271
-612.259	-14.736	0.263	0.170
-611.244	-200.000	0.026	-0.238
-610.230	-76.185	-0.235	-0.084
-609.215	70.540	0.123	-0.128
-608.201	52.393	-0.185	0.178
-607.186	170.740	-0.028	-0.040
-606.171	800.000	-0.045	-0.184
-605.157	74.213	0.091	0.096
-604.142	-67.535	0.251	-0.099
-603.128	800.000	-0.074	0.304
-602.113	-18.239	-0.106	-0.067
-601.098	90.324	0.035	-0.040
-600.084	32.442	-0.197	0.171
-599.069	-200.000	0.026	0.251
-598.055	-200.000	-0.017	-0.131
-597.040	-124.440	-0.272	0.043
-596.025	-168.689	-0.077	0.003
-595.011	256.729	-0.203	0.350
-593.996	-42.067	0.205	0.106
-592.982	-6.142	-0.034	0.024
-591.967	-111.588	0.091	-0.019
-590.952	-92.434	-0.196	0.055
-589.938	800.000	0.013	-0.055
-588.923	-132.912	-0.309	-0.040
-587.909	598.469	0.123	0.306
-586.894	193.846	0.059	0.090
-585.879	377.975	0.113	0.233
-584.865	-13.924	-0.158	0.103
-583.850	108.528	0.094	0.113
-582.836	275.759	-0.037	0.067
-581.821	-200.000	-0.020	-0.176
-580.806	-200.000	-0.029	-0.162
-579.792	-43.001	0.361	-0.184
-578.777	528.881	-0.106	-0.251
-577.763	-3.488	0.291	-0.204
-576.748	-200.000	0.338	0.001
-575.733	16.592	0.251	0.199
-574.719	-60.322	0.256	0.110
-573.704	-133.395	-0.072	0.009
-572.690	516.190	-0.101	-0.239
-571.675	-200.000	-0.007	0.083
-570.661	-1.749	-0.137	-0.097
-569.646	-36.004	0.253	-0.138
-568.631	419.062	0.066	0.142
-567.617	-106.139	0.132	0.030
-566.602	-105.984	-0.107	-0.024
-565.588	181.080	0.273	0.404
-564.573	800.000	0.088	-0.317
-563.558	-137.000	-0.423	-0.049
-562.544	-152.539	0.341	0.025
-561.529	-178.924	-0.018	0.000
-560.515	-171.128	-0.047	-0.002
-559.500	206.864	0.188	-0.295
-558.485	107.089	0.160	-0.192
-557.471	-139.366	-0.126	0.014
-556.456	-122.896	-0.147	0.024
-555.442	-200.000	-0.019	0.312
-554.427	17.298	-0.326	-0.260
-553.412	157.814	-0.265	-0.370
-552.398	272.505	-0.042	-0.075
-551.383	275.610	-0.117	0.210
-550.369	39.519	-0.186	-0.168
-549.354	69.575	0.149	0.155
-548.339	62.809	0.237	0.238
-547.325	312.862	0.184	-0.348
-546.310	-200.000	-0.013	-0.061
-545.296	312.284	-0.123	0.232
-544.281	83.962	-0.192	0.211
-543.266	230.752	-0.231	-0.380
-542.252	312.028	-0.111	0.209
-541.237	-28.396	-0.149	0.086
-540.223	-88.246	-0.249	-0.075
-539.208	752.315	-0.158	-0.430
-538.193	-54.219	-0.151	-0.069
-537.179	-25.467	-0.224	0.133
-536.164	-79.878	0.185	0.063
-535.150	-155.283	0.265	0.017
-534.135	227.999	0.066	0.109
-533.121	-200.000	-0.074	-0.358
-532.106	-92.803	-0.225	0.063
-531.091	556.112	-0.110	-0.265
-530.077	-200.000	-0.046	0.348
-529.062	-105.734	0.291	0.066
-528.048	-19.427	0.237	0.148
-527.033	-51.910	-0.145	0.068
-526.018	-43.875	0.134	0.068
-525.004	-140.574	0.160	-0.017
-523.989	-138.134	-0.152	0.017
-522.975	-200.000	0.008	0.131
-521.960	-190.412	-0.275	0.003
-520.945	95.926	0.139	0.160
-519.931	-85.852	0.166	-0.052
-518.916	-200.000	-0.042	-0.225
-517.902	220.004	-0.152	-0.245
-516.887	-65.267	-0.114	-0.046
-515.872	-32.709	-0.104	0.058
-514.858	-200.000	0.018	0.112
-513.843	-88.787	0.186	0.055
-512.829	138.126	0.112	0.147
-511.814	-200.000	-0.010	-0.153
-510.799	348.892	0.142	0.281
-509.785	57.863	-0.255	-0.250
-508.770	231.636	-0.117	0.192
-507.756	-55.033	0.207	-0.094
-506.741	350.045	0.143	-0.285
-505.726	800.000	0.055	0.215
-504.712	87.165	0.033	-0.037
-503.697	-96.910	-0.169	0.044
-502.683	21.743	-0.150	0.123
-501.668	-99.171	0.446	0.113
-500.653	-132.191	-0.361	-0.047
-499.639	-17.532	-0.113	0.071
-498.624	381.374	-0.118	0.243
-497.610	-200.000	-0.009	0.095
-496.595	-94.665	0.257	0.070
-495.581	-119.035	0.366	0.064
-494.566	-200.000	0.054	-0.256
-493.551	-14.438	-0.030	-0.020
-492.537	-200.000	0.040	0.217
-491.522	135.552	-0.172	0.224
-490.508	-82.948	-0.326	0.106
-489.493	-37.406	-0.119	0.064
-488.478	800.000	-0.113	0.418
-487.464	800.000	-0.047	0.192
-486.449	110.627	0.068	0.083
-485.435	800.000	-0.043	-0.154
-484.420	308.226	-0.124	-0.231
-483.405	759.530	-0.120	-0.326
-482.391	-200.000	-0.002	-0.170
-481.376	800.000	-0.080	-0.272
-480.362	364.866	-0.041	0.082
-479.347	16.478	0.144	-0.114
-478.332	-84.103	0.140	0.045
-477.318	409.882	0.134	0.285
-476.303	-85.368	-0.320	0.100
-475.289	-128.962	0.151	0.021
-474.274	278.924	-0.050	0.090
-473.259	48.627	0.076	-0.072
-472.245	-113.285	-0.181	-0.036
-471.230	-33.054	-0.082	-0.046
-470.216	265.729	0.087	0.152
-469.201	785.840	-0.090	-0.247
-468.186	-46.488	0.189	-0.093
-467.172	285.761	-0.044	0.079
-466.157	2.730	0.030	0.022
-465.143	-172.356	-0.229	0.007
-464.128	-185.441	-0.105	0.002
-463.113	171.526	-0.283	-0.407
-462.099	80.208	-0.327	-0.353
-461.084	97.978	0.153	-0.177
-460.070	261.405	-0.116	0.201
-459.055	-199.175	0.368	0.002
-458.040	142.933	-0.141	-0.187
-457.026	95.579	-0.037	0.042
-456.011	-200.000	-0.020	0.377
-454.997	-3.166	-0.130	0.091
-453.982	-200.000	0.005	0.144
-452.968	512.168	-0.201	-0.469
-451.953	-27.717	0.286	-0.166
-450.938	2.419	-0.383	-0.278
-449.924	89.418	0.338	-0.378
-448.909	120.456	0.051	-0.064
-447.895	-149.291	-0.202	0.016
-446.880	367.307	0.192	0.389
-445.865	-146.185	0.234	0.021
-444.851	-48.826	-0.193	0.093
-443.836	-200.000	0.068	-0.385
-442.822	73.040	0.111	0.116
-441.807	-200.000	-0.005	0.179
-440.792	-14.920	-0.110	0.070
-439.778	-200.000	0.026	0.375
-438.763	800.000	0.043	0.137
-437.749	800.000	-0.058	0.215
-436.734	800.000	-0.047	0.145
-435.719	-138.243	0.209	0.023
-434.705	103.475	-0.212	-0.250
-433.690	-49.980	0.169	-0.080
-432.676	15.760	0.259	0.204
-431.661	170.790	-0.033	-0.048
-430.646	-37.678	-0.163	-0.087
-429.632	-50.885	-0.253	-0.119
-428.617	242.481	0.233	-0.391
-427.603	-15.170	-0.101	0.065
-426.588	72.029	-0.165	-0.172
-425.573	-103.816	0.121	-0.028
-424.559	62.640	-0.076	-0.076
-423.544	-58.415	0.103	0.045
-422.530	800.000	0.135	0.448
-421.515	192.539	0.225	0.340
-420.500	637.559	0.018	-0.047
-419.486	77.090	0.213	-0.226
-418.471	-114.014	0.446	0.087
-417.457	93.626	-0.047	0.054
-416.442	50.373	0.095	-0.090
-415.428	-72.933	-0.090	0.033
-414.413	-34.332	0.225	-0.123
-413.398	698.657	0.125	0.329
-412.384	97.753	-0.154	-0.178
-411.369	-173.145	-0.088	-0.003
-410.355	-5.348	0.123	-0.085
-409.340	-82.160	0.269	-0.088
-408.325	-79.436	-0.317	0.107
-407.311	-29.460	0.078	0.045
-406.296	-100.158	0.141	0.035
-405.282	-200.000	0.003	-0.238
-404.267	160.852	-0.096	-0.133
-403.252	35.699	0.160	-0.140
-402.238	354.167	-0.057	-0.113
-401.223	13.156	0.077	-0.060
-400.209	-45.782	0.199	0.098
-399.194	-90.075	-0.100	-0.029
-398.179	-120.913	0.244	-0.041
-397.165	-74.703	0.413	0.149
-396.150	-200.000	-0.016	-0.444
-395.136	243.385	-0.079	0.133
-394.121	33.465	-0.029	0.026
-393.106	-80.885	-0.164	0.054
-392.092	-135.215	0.221	-0.027
-391.077	572.201	0.116	-0.281
-390.063	-118.057	0.153	-0.027
-389.048	60.437	0.152	0.151
-388.033	-200.000	-0.009	0.184
-387.019	-35.643	-0.131	0.071
-386.004	-63.131	-0.190	-0.078
-384.990	-42.043	0.411	-0.210
-383.975	631.416	-0.050	-0.127
-382.960	245.415	0.080	0.134
-381.946	-200.000	-0.020	-0.490
-380.931	-200.000	0.002	-0.090
-379.917	74.032	-0.116	0.122
-378.902	-43.023	-0.188	-0.095
-377.888	-111.986	0.192	-0.039
-376.873	-9.548	0.242	0.161
-375.858	219.756	0.149	0.238
-374.844	56.687	-0.231	-0.224
-373.829	-108.975	0.446	-0.095
-372.815	117.189	-0.138	-0.170
-371.800	34.932	-0.152	0.133
-370.785	19.516	-0.058	0.047
-369.771	395.886	0.113	0.236
-368.756	-200.000	-0.011	-0.071
-367.742	-81.356	0.198	0.065
-366.727	-166.246	-0.151	0.006
-365.712	372.858	-0.129	-0.263
-364.698	-17.025	-0.303	0.191
-363.683	-111.045	0.321	-0.066
-362.669	77.181	0.049	0.052
-361.654	-82.454	0.134	0.043
-360.639	-200.000	0.098	-0.547
-359.625	-122.316	0.479	-0.078
-358.610	114.218	0.222	-0.270
-357.596	-78.149	-0.294	0.101
-356.581	-32.832	-0.102	0.057
-355.566	-77.080	-0.169	0.059
-354.552	252.436	0.207	0.352
-353.537	-65.287	-0.026	-0.011
-352.523	-2.308	0.281	-0.197
-351.508	206.014	-0.084	-0.130
-350.493	800.000	-0.074	-0.313
-349.479	-39.993	0.177	-0.092
-348.464	800.000	0.039	0.131
-347.450	-200.000	0.015	-0.178
-346.435	-94.412	-0.192	0.052
-345.420	-86.314	-0.100	-0.031
-344.406	-125.974	0.340	0.051
-343.391	587.613	0.082	-0.201
-342.377	167.939	0.164	-0.233
-341.362	338.524	-0.022	0.043
-340.348	9.560	-0.394	0.298
-339.333	-14.268	-0.189	-0.121
-338.318	-18.837	-0.230	0.143
-337.304	543.458	0.047	-0.111
-336.289	-128.109	-0.140	0.020
-335.275	800.000	0.012	-0.049
-334.260	-200.000	0.024	-0.432
-333.245	-103.381	-0.050	0.012
-332.231	738.690	-0.055	-0.148
-331.216	224.376	0.054	0.087
-330.202	212.511	0.102	-0.161
-329.187	67.099	0.138	-0.141
-328.172	-151.195	-0.205	-0.015
-327.158	-200.000	0.033	-0.224
-326.143	8.156	0.257	0.192
-325.129	132.463	-0.158	-0.203
-324.114	170.157	-0.053	0.076
-323.099	690.430	-0.074	0.193
-322.085	37.544	-0.123	-0.109
-321.070	800.000	-0.054	-0.177
-320.056	37.298	0.162	0.144
-319.041	43.191	0.291	-0.265
-318.026	577.979	0.163	0.398
-317.012	-75.280	0.185	0.066
-315.997	-157.810	-0.166	-0.010
-314.983	800.000	-0.025	-0.080
-313.968	4.635	-0.399	-0.292
-312.953	-200.000	0.001	-0.068
-311.939	40.832	-0.179	-0.161
-310.924	-60.532	0.135	0.057
-309.910	-200.000	-0.004	0.021
-308.895	-200.000	0.075	0.364
-307.880	800.000	0.028	-0.122
-306.866	92.716	0.094	-0.106
-305.851	-110.499	0.152	0.031
-304.837	315.833	-0.091	0.171
-303.822	-200.000	-0.024	0.196
-302.807	52.404	-0.159	0.152
-301.793	800.000	-0.064	-0.205
-300.778	25.073	-0.164	-0.136
-299.764	-180.023	-0.008	-0.000
-298.749	-53.746	-0.340	-0.155
-297.735	198.738	0.194	-0.295
-296.720	-85.094	0.500	0.156
-295.705	-200.000	-0.018	0.161
-294.691	605.658	0.089	0.221
-293.676	3.176	-0.352	0.255
-292.662	-120.658	0.126	0.021
-291.647	-67.809	0.156	-0.061
-290.632	-200.000	-0.029	0.214
-289.618	646.780	0.012	0.031
-288.603	198.967	0.014	-0.022
-287.589	-200.000	-0.012	-0.253
-286.574	-200.000	0.006	-0.057
-285.559	52.998	0.205	-0.195
-284.545	-152.033	0.122	-0.009
-283.530	21.367	0.157	-0.127
-282.516	-141.603	0.258	0.026
-281.501	800.000	-0.093	-0.277
-280.486	-137.731	-0.113	0.013
-279.472	677.370	0.046	0.119
-278.457	-200.000	-0.029	0.431
-277.443	-27.954	-0.219	0.126
-276.428	800.000	0.022	-0.082
-275.413	629.789	-0.064	0.161
-274.399	-31.917	0.118	-0.066
-273.384	-99.928	0.249	-0.062
-272.370	-200.000	-0.043	0.401
-271.355	-88.554	0.133	0.039
-270.340	-73.898	-0.026	0.009
-269.326	14.486	-0.020	0.016
-268.311	-200.000	0.006	0.167
-267.297	187.366	0.100	-0.148
-266.282	-200.000	-0.037	-0.265
-265.267	127.596	-0.148	-0.186
-264.253	-200.000	-0.030	0.318
-263.238	-124.192	0.168	0.026
-262.224	800.000	0.084	0.273
-261.209	-200.000	-0.028	0.230
-260.195	61.199	0.124	0.123
-259.180	-61.488	-0.254	0.106
-258.165	3.026	-0.238	-0.172
-257.151	-200.000	0.014	0.101
-256.136	-52.980	-0.122	0.056
-255.122	-12.877	-0.028	0.018
-254.107	9.436	0.143	0.108
-253.092	-36.663	-0.240	-0.128
-252.078	-46.451	-0.148	0.072
-251.063	-118.337	0.247	0.044
-250.049	-23.922	0.092	0.055
-249.034	-43.614	-0.112	-0.056
-248.019	220.077	-0.103	-0.164
-247.005	-76.610	-0.383	-0.134
-245.990	89.955	-0.155	-0.172
-244.976	426.446	0.071	-0.151
-243.961	55.792	-0.230	-0.221
-242.946	-200.000	0.022	0.109
-241.932	365.104	0.088	-0.175
-240.917	-101.384	0.143	-0.035
-239.903	-8.468	-0.009	-0.006
-238.888	800.000	-0.089	-0.263
-237.873	-74.093	0.109	0.039
-236.859	169.966	-0.088	0.125
-235.844	0.600	-0.170	-0.120
-234.830	-200.000	-0.036	-0.171
-233.815	364.833	-0.100	-0.199
-232.800	-0.269	0.187	-0.132
-231.786	-117.682	-0.060	-0.011
-230.771	-136.265	-0.306	-0.036
-229.757	568.743	-0.139	-0.337
-228.742	-92.304	-0.330	-0.092
-227.727	800.000	-0.012	0.037
-226.713	593.109	-0.170	0.418
-225.698	-98.854	-0.172	-0.043
-224.684	793.712	0.100	0.274
-223.669	329.470	0.086	-0.165
-222.655	28.517	0.154	-0.130
-221.640	173.546	-0.179	0.257
-220.625	-200.000	0.015	-0.251
-219.611	19.724	-0.252	-0.201
-218.596	-200.000	0.024	0.283
-217.582	800.000	-0.037	-0.117
-216.567	333.256	-0.048	-0.093
-215.552	-111.279	-0.233	-0.047
-214.538	74.452	-0.087	0.091
-213.523	725.665	0.089	0.236
-212.509	-64.355	-0.185	-0.075
-211.494	-200.000	-0.016	-0.211
-210.479	-158.316	0.113	0.007
-209.465	-53.317	0.254	-0.116
-208.450	-42.368	0.265	0.134
-207.436	21.125	-0.093	-0.075
-206.421	-140.324	0.132	-0.014
-205.406	-102.356	-0.201	0.048
-204.392	800.000	0.025	0.083
-203.377	51.329	-0.163	-0.154
-202.363	-99.655	0.396	0.099
-201.348	-97.847	-0.418	0.107
-200.333	83.450	-0.071	0.076
-199.319	92.454	0.126	0.141
-198.304	-194.953	0.179	-0.001
-197.290	-162.442	0.144	-0.007
-196.275	458.615	0.070	0.155
-195.260	-30.158	-0.350	0.197
-194.246	48.563	-0.169	0.157
-193.231	-84.240	0.071	-0.022
-192.217	-99.338	-0.282	0.071
-191.202	-105.043	0.311	0.071
-190.187	-113.238	-0.203	0.040
-189.173	53.397	-0.109	0.104
-188.158	800.000	-0.094	-0.323
-187.144	133.887	0.149	-0.191
-186.129	800.000	-0.100	0.296
-185.114	522.570	0.158	0.367
-184.100	193.660	0.069	0.103
-183.085	327.448	0.037	-0.070
-182.071	55.738	0.100	-0.097
-181.056	-200.000	-0.004	0.031
-180.042	-149.361	0.307	-0.024
-179.027	74.745	0.157	0.164
-178.012	-46.450	-0.248	0.121
-176.998	176.520	0.196	-0.283
-175.983	-92.780	-0.314	-0.087
-174.969	-200.000	0.048	-0.213
-173.954	62.569	-0.095	-0.094
-172.939	97.264	-0.127	0.145
-171.925	-87.213	0.022	-0.007
-170.910	159.454	0.168	0.232
-169.896	800.000	0.048	0.194
-168.881	-115.288	0.432	0.081
-167.866	800.000	0.042	0.140
-166.852	131.890	0.217	-0.277
-165.837	121.171	-0.094	0.116
-164.823	-61.083	0.218	0.091
-163.808	621.801	-0.056	-0.141
-162.793	27.059	-0.260	0.216
-161.779	-166.126	0.592	0.025
-160.764	196.453	0.127	0.192
-159.750	167.543	-0.139	-0.196
-158.735	-200.000	-0.014	-0.087
-157.720	461.438	-0.097	-0.213
-156.706	-200.000	0.020	0.136
-155.691	-34.290	-0.275	0.150
-154.677	-105.851	0.163	0.036
-153.662	-200.000	0.028	-0.365
-152.647	495.707	-0.048	0.110
-151.633	516.485	0.106	0.245
-150.618	-52.113	0.112	-0.052
-149.604	277.554	0.023	0.040
-148.589	-32.633	-0.255	0.141
-147.574	-25.136	0.023	-0.013
-146.560	-176.644	0.259	0.007
-145.545	-24.448	-0.023	0.013
-144.531	-200.000	0.066	0.292
-143.516	-200.000	-0.034	-0.182
-142.502	76.812	0.296	0.311
-141.487	-200.000	-0.028	0.354
-140.472	-149.318	-0.279	0.022
-139.458	416.564	-0.016	0.034
-138.443	-64.607	0.121	0.049
-137.429	-96.159	0.079	-0.021
-136.414	-55.274	-0.149	-0.066
-135.399	660.155	0.161	-0.410
-134.385	17.434	0.101	0.080
-133.370	109.183	-0.149	0.176
-132.356	280.288	0.134	0.237
-131.341	93.279	0.165	0.184
-130.326	-200.000	0.026	-0.141
-129.312	125.558	-0.152	0.190
-128.297	-200.000	0.032	-0.166
-127.283	289.959	0.043	0.078
-126.268	-102.163	-0.146	0.035
-125.253	-24.279	-0.199	0.117
-124.239	27.951	-0.238	0.198
-123.224	-200.000	0.012	-0.254
-122.210	-15.628	-0.208	0.131
-121.195	48.923	-0.235	0.218
