DTS Sentinel unit serial number:	SN413079Multiplexer serial number:	ORYXHardware model number:	OX4-SRSoftware version number:	ORYX F/W v4.00 Oryx Data Collector v3.7.2.0data status	okinstallation	princeton_trtdifferential loss correction	single-endedforward channel	channel 2reverse channel	N/Adate	2019/09/10time	16:09:11forward acquisition time	60.00reverse acquisition time	0.00gamma	496.2192k internal	0.2308k external	0.2308temperature offset calibration	0.9937default loss term (dB/km)	0.3790temperature slope calibration	1.0000multiplexer offset coefficient	1.0000multiplexer slope coefficient	1.0000fibre end	0.00T internal ref (°C)	38.30T ext. ref 1 (°C)	-0.26T ext. ref 2 (°C)	31.46length (m)	temperature (°C)	Stokes	anti-Stokes-747.200	-89.085	0.402	0.121
-746.185	25.263	0.188	0.159
-745.171	800.000	-0.094	0.295
-744.156	55.167	0.141	-0.139
-743.142	-179.457	0.073	-0.002
-742.127	-150.446	0.093	0.007
-741.112	-152.113	0.145	0.011
-740.098	-200.000	0.013	-0.088
-739.083	168.741	0.155	0.224
-738.069	-10.902	-0.185	0.124
-737.054	201.910	0.227	-0.356
-736.039	-200.000	-0.043	-0.256
-735.025	-117.896	0.258	0.047
-734.010	-144.655	-0.458	0.043
-732.996	-138.268	-0.479	0.054
-731.981	478.011	-0.151	-0.347
-730.966	800.000	-0.095	0.294
-729.952	-120.233	-0.042	0.007
-728.937	-200.000	-0.005	0.262
-727.923	-30.501	-0.030	0.017
-726.908	-8.035	-0.301	0.206
-725.894	-200.000	0.030	-0.227
-724.879	800.000	0.148	-0.580
-723.864	-44.034	-0.047	0.024
-722.850	379.254	0.070	0.146
-721.835	171.158	0.082	0.119
-720.821	-115.560	0.303	0.058
-719.806	800.000	0.029	0.088
-718.791	800.000	0.113	0.377
-717.777	-77.648	-0.208	-0.073
-716.762	215.012	-0.175	-0.282
-715.748	-84.966	0.115	-0.037
-714.733	84.669	-0.065	-0.072
-713.718	-200.000	-0.016	0.278
-712.704	-120.943	-0.094	-0.016
-711.689	-3.909	-0.284	0.200
-710.675	62.670	-0.145	-0.147
-709.660	23.815	-0.319	-0.267
-708.645	332.108	-0.097	-0.191
-707.631	85.576	-0.322	-0.359
-706.616	-46.322	-0.303	-0.151
-705.602	-200.000	-0.008	0.185
-704.587	800.000	0.115	0.369
-703.572	-200.000	0.000	-0.107
-702.558	-200.000	-0.054	0.308
-701.543	102.065	-0.105	-0.124
-700.529	800.000	-0.061	0.237
-699.514	604.079	0.199	0.502
-698.499	-6.090	-0.163	-0.113
-697.485	-65.807	0.181	-0.073
-696.470	228.985	-0.070	0.116
-695.456	-11.313	0.262	-0.175
-694.441	72.236	-0.222	-0.234
-693.426	330.465	0.107	0.208
-692.412	-200.000	-0.005	-0.404
-691.397	195.651	0.259	-0.399
-690.383	-104.108	-0.472	-0.111
-689.368	367.449	0.092	-0.188
-688.354	51.412	0.108	0.104
-687.339	-79.216	0.331	-0.114
-686.324	165.850	0.024	-0.034
-685.310	266.972	0.030	-0.054
-684.295	-200.000	-0.002	0.176
-683.281	-161.227	0.236	-0.012
-682.266	-81.877	0.158	0.052
-681.251	-117.105	0.315	-0.058
-680.237	-21.388	-0.130	-0.080
-679.222	-141.041	-0.350	-0.036
-678.208	70.250	0.083	-0.087
-677.193	279.554	-0.230	-0.417
-676.178	212.859	0.234	-0.375
-675.164	247.846	0.113	-0.193
-674.149	-168.440	-0.462	-0.018
-673.135	313.744	-0.036	0.069
-672.120	-91.902	-0.118	0.034
-671.105	438.324	-0.076	0.168
-670.091	88.390	0.188	-0.212
-669.076	-89.329	0.149	0.045
-668.062	-61.877	0.414	-0.176
-667.047	34.636	-0.149	-0.132
-666.032	-87.518	-0.100	0.031
-665.018	-16.940	-0.233	-0.149
-664.003	-39.380	-0.084	0.045
-662.989	-200.000	-0.017	-0.137
-661.974	-149.986	-0.397	0.031
-660.959	-109.130	0.030	-0.006
-659.945	526.713	-0.112	-0.268
-658.930	131.838	-0.108	-0.141
-657.916	-200.000	0.023	0.197
-656.901	800.000	-0.102	0.356
-655.886	55.139	-0.123	-0.121
-654.872	-53.525	0.032	0.015
-653.857	262.623	-0.134	-0.236
-652.843	-32.633	-0.252	-0.142
-651.828	409.465	0.022	0.048
-650.814	522.673	-0.097	0.230
-649.799	494.857	0.055	-0.129
-648.784	-96.491	0.163	-0.044
-647.770	-200.000	0.076	0.369
-646.755	-196.594	0.306	-0.002
-645.741	-27.848	-0.116	-0.068
-644.726	-200.000	0.028	0.212
-643.711	-34.737	0.174	-0.096
-642.697	-81.143	-0.093	0.031
-641.682	-143.225	-0.342	0.033
-640.668	-39.623	-0.126	-0.067
-639.653	-200.000	-0.015	-0.122
-638.638	288.942	-0.027	0.049
-637.624	-200.000	-0.055	-0.355
-636.609	-153.397	-0.281	-0.020
-635.595	-200.000	-0.056	0.257
-634.580	-17.209	-0.071	0.045
-633.565	582.791	0.042	-0.105
-632.551	109.831	-0.113	0.137
-631.536	-200.000	-0.033	-0.165
-630.522	-114.814	0.054	-0.010
-629.507	-98.753	-0.250	0.064
-628.492	272.870	0.062	0.111
-627.478	-123.338	0.171	0.028
-626.463	-151.697	0.161	0.012
-625.449	42.893	-0.175	-0.161
-624.434	89.638	-0.244	-0.275
-623.419	-200.000	0.008	-0.290
-622.405	68.220	0.113	0.117
-621.390	201.528	0.146	-0.228
-620.376	32.515	0.099	0.086
-619.361	-123.262	-0.199	-0.032
-618.346	-146.878	-0.174	-0.015
-617.332	-200.000	0.059	-0.398
-616.317	-198.347	0.305	0.002
-615.303	-146.421	-0.160	-0.014
-614.288	-93.415	-0.096	0.027
-613.273	335.481	0.077	0.151
-612.259	-75.450	-0.199	0.072
-611.244	-200.000	-0.049	-0.324
-610.230	97.980	0.154	-0.179
-609.215	-24.831	-0.290	0.174
-608.201	-200.000	0.106	0.472
-607.186	384.978	0.051	0.105
-606.171	-88.122	0.085	0.026
-605.157	-76.008	0.269	-0.096
-604.142	167.439	-0.017	-0.024
-603.128	72.196	-0.154	0.162
-602.113	-111.501	-0.213	-0.044
-601.098	800.000	0.081	-0.259
-600.084	-117.500	0.106	-0.019
-599.069	-200.000	-0.021	0.100
-598.055	2.213	-0.102	0.074
-597.040	-116.589	-0.416	-0.077
-596.025	-46.079	-0.123	0.061
-595.011	51.675	-0.207	0.199
-593.996	114.160	-0.161	0.198
-592.982	800.000	0.031	-0.137
-591.967	-50.811	0.053	0.025
-590.952	-44.355	0.102	0.052
-589.938	-200.000	-0.151	0.000
-588.923	189.312	0.138	-0.209
-587.909	-120.777	0.582	-0.099
-586.894	166.659	-0.203	-0.291
-585.879	-107.096	-0.268	-0.060
-584.865	-113.313	-0.129	-0.026
-583.850	800.000	0.005	0.016
-582.836	-200.000	-0.002	0.141
-581.821	134.888	0.111	-0.145
-580.806	140.201	-0.124	-0.165
-579.792	-56.276	0.107	-0.048
-578.777	-70.274	-0.293	0.112
-577.763	210.221	0.182	0.289
-576.748	-200.000	-0.001	-0.415
-575.733	108.220	-0.082	0.099
-574.719	-200.000	-0.021	0.305
-573.704	-79.828	0.088	0.030
-572.690	-200.000	0.001	-0.107
-571.675	191.515	0.091	0.138
-570.661	-41.330	-0.396	0.206
-569.646	800.000	0.059	0.190
-568.631	800.000	-0.088	-0.321
-567.617	-145.476	-0.103	-0.009
-566.602	-71.155	-0.110	-0.042
-565.588	81.837	0.101	-0.111
-564.573	1.751	-0.184	0.134
-563.558	51.024	0.095	0.091
-562.544	-36.908	0.389	0.211
-561.529	800.000	0.078	0.304
-560.515	-92.532	-0.164	0.046
-559.500	-15.118	0.049	-0.032
-558.485	300.307	-0.014	0.025
-557.471	190.238	0.170	-0.258
-556.456	111.609	-0.155	0.188
-555.442	6.379	-0.188	-0.141
-554.427	-158.495	-0.158	-0.009
-553.412	800.000	0.048	-0.192
-552.398	148.564	0.019	-0.026
-551.383	-2.723	0.293	-0.207
-550.369	7.697	0.105	-0.079
-549.354	241.323	-0.041	-0.069
-548.339	-141.602	0.258	-0.026
-547.325	202.256	0.099	0.154
-546.310	-200.000	-0.020	0.098
-545.296	-71.256	0.044	0.017
-544.281	-41.032	0.082	0.043
-543.266	-200.000	0.040	0.299
-542.252	-109.373	-0.236	0.050
-541.237	-200.000	0.053	0.366
-540.223	332.714	-0.068	-0.132
-539.208	800.000	-0.060	-0.184
-538.193	-123.717	-0.138	0.022
-537.179	426.341	0.111	-0.242
-536.164	74.417	0.464	0.491
-535.150	237.774	0.074	0.125
-534.135	564.159	-0.101	-0.248
-533.121	102.739	-0.270	0.318
-532.106	-161.007	0.140	-0.007
-531.091	800.000	-0.044	0.156
-530.077	-155.874	-0.345	0.022
-529.062	-76.341	-0.334	-0.119
-528.048	-200.000	-0.040	0.233
-527.033	-159.457	-0.111	0.006
-526.018	158.929	-0.144	-0.202
-525.004	800.000	0.032	-0.101
-523.989	103.787	0.070	-0.083
-522.975	-200.000	0.014	-0.095
-521.960	-84.560	-0.084	0.027
-520.945	14.128	-0.170	0.133
-519.931	468.068	-0.213	0.481
-518.916	205.879	-0.147	-0.231
-517.902	-200.000	0.053	-0.242
-516.887	-75.897	-0.217	0.077
-515.872	-200.000	0.004	-0.283
-514.858	800.000	0.127	-0.360
-513.843	69.564	0.254	0.264
-512.829	53.213	-0.129	0.124
-511.814	800.000	-0.064	0.185
-510.799	31.267	0.164	0.142
-509.785	-1.826	0.094	-0.066
-508.770	2.172	0.061	-0.045
-507.756	-57.237	-0.029	0.013
-506.741	-48.599	0.186	0.090
-505.726	-200.000	-0.065	0.325
-504.712	217.055	-0.083	0.133
-503.697	-73.776	0.332	0.121
-502.683	116.951	-0.169	0.208
-501.668	-77.735	0.148	0.052
-500.653	-200.000	0.023	-0.122
-499.639	706.067	-0.049	0.129
-498.624	444.640	-0.175	0.387
-497.610	-200.000	-0.010	0.139
-496.595	-125.877	0.257	0.039
-495.581	-17.753	-0.297	-0.188
-494.566	-118.179	-0.282	0.051
-493.551	-30.003	0.388	-0.222
-492.537	-119.026	0.140	0.025
-491.522	73.586	0.141	0.148
-490.508	-145.912	-0.161	0.014
-489.493	215.142	-0.046	-0.074
-488.478	-48.478	0.274	-0.133
-487.464	319.115	-0.112	0.214
-486.449	-54.789	-0.190	-0.086
-485.435	-200.000	0.044	0.404
-484.420	5.689	0.185	0.138
-483.405	119.844	-0.197	0.246
-482.391	800.000	0.066	0.243
-481.376	-67.640	-0.146	-0.058
-480.362	-103.331	-0.374	-0.089
-479.347	-169.756	0.213	-0.008
-478.332	800.000	-0.048	-0.135
-477.318	800.000	-0.105	-0.310
-476.303	800.000	0.082	0.290
-475.289	77.087	0.375	0.400
-474.274	135.899	-0.183	-0.239
-473.259	152.067	0.275	-0.377
-472.245	-11.986	0.217	-0.143
-471.230	87.207	0.096	0.107
-470.216	494.580	-0.080	-0.186
-469.201	-200.000	0.042	0.222
-468.186	-133.148	0.484	-0.062
-467.172	-200.000	0.037	0.284
-466.157	-6.797	-0.240	0.164
-465.143	800.000	-0.068	-0.249
-464.128	-59.833	-0.159	0.068
-463.113	419.734	0.108	-0.232
-462.099	-81.853	0.257	0.084
-461.084	-200.000	-0.002	0.083
-460.070	358.474	0.035	-0.069
-459.055	271.675	0.063	-0.111
-458.040	112.717	-0.102	0.124
-457.026	726.699	-0.119	-0.320
-456.011	95.862	0.148	0.170
-454.997	86.233	-0.317	0.351
-453.982	217.879	-0.175	0.280
-452.968	-65.584	-0.213	-0.086
-451.953	306.163	-0.149	0.279
-450.938	-200.000	-0.038	0.230
-449.924	-27.779	-0.055	-0.032
-448.909	-41.128	-0.276	-0.143
-447.895	317.414	-0.171	-0.325
-446.880	-200.000	0.006	0.052
-445.865	-1.136	-0.191	0.136
-444.851	210.450	-0.196	0.309
-443.836	-62.158	-0.334	-0.140
-442.822	-156.971	-0.089	0.005
-441.807	-82.295	0.190	-0.062
-440.792	-33.287	0.139	-0.078
-439.778	-62.613	-0.256	0.107
-438.763	6.042	0.198	-0.147
-437.749	16.061	0.091	-0.072
-436.734	199.478	-0.209	0.322
-435.719	-10.008	-0.114	-0.076
-434.705	130.568	-0.079	0.102
-433.690	-200.000	0.007	-0.037
-432.676	-200.000	-0.013	-0.320
-431.661	-31.698	-0.047	0.027
-430.646	800.000	0.054	-0.172
-429.632	14.254	-0.133	-0.104
-428.617	-200.000	0.023	0.176
-427.603	-58.125	-0.170	0.074
-426.588	618.757	0.104	-0.262
-425.573	43.035	0.408	0.374
-424.559	132.889	-0.171	0.222
-423.544	44.492	0.247	-0.228
-422.530	-61.426	0.217	-0.092
-421.515	157.585	-0.194	-0.270
-420.500	-86.118	0.178	-0.055
-419.486	-200.000	-0.052	-0.305
-418.471	-78.643	0.084	-0.029
-417.457	27.928	-0.124	0.105
-416.442	-200.000	0.026	-0.415
-415.428	-200.000	-0.000	-0.042
-414.413	-164.168	0.071	0.003
-413.398	-200.000	-0.053	-0.263
-412.384	800.000	-0.067	0.287
-411.369	-200.000	-0.014	0.159
-410.355	-145.566	-0.182	0.016
-409.340	-89.866	-0.391	0.115
-408.325	-65.327	-0.177	-0.071
-407.311	-56.348	-0.425	-0.190
-406.296	29.606	0.114	0.097
-405.282	-131.930	0.218	0.029
-404.267	-26.815	0.190	0.112
-403.252	-164.299	0.181	-0.008
-402.238	95.863	-0.256	-0.293
-401.223	-141.379	0.330	-0.034
-400.209	71.136	0.341	-0.354
-399.194	176.362	-0.301	0.439
-398.179	319.129	-0.282	0.536
-397.165	-8.220	0.279	-0.188
-396.150	-200.000	0.019	0.522
-395.136	287.057	0.066	0.120
-394.121	336.484	-0.233	0.454
-393.106	75.119	0.231	-0.244
-392.092	-59.136	0.410	0.177
-391.077	-200.000	-0.001	0.211
-390.063	800.000	0.072	-0.259
-389.048	212.247	-0.116	-0.184
-388.033	-135.156	0.264	-0.032
-387.019	-13.189	-0.207	0.135
-386.004	3.194	0.274	0.200
-384.990	-200.000	-0.040	-0.396
-383.975	255.329	-0.180	-0.309
-382.960	336.850	-0.117	0.227
-381.946	140.030	-0.060	-0.079
-380.931	-70.267	0.375	-0.143
-379.917	-9.643	0.110	0.074
-378.902	-200.000	-0.018	-0.127
-377.888	-167.975	0.114	0.004
-376.873	-127.439	0.210	0.031
-375.858	228.568	0.164	0.268
-374.844	81.178	-0.171	-0.185
-373.829	1.116	-0.177	-0.127
-372.815	-38.329	-0.247	0.131
-371.800	-145.601	0.596	-0.053
-370.785	-69.685	0.121	-0.046
-369.771	3.080	-0.396	-0.288
-368.756	-28.782	-0.111	0.064
-367.742	-129.103	0.177	0.025
-366.727	-200.000	-0.049	0.283
-365.712	-31.391	0.134	-0.075
-364.698	198.047	-0.108	0.165
-363.683	-114.019	-0.148	-0.029
-362.669	-200.000	0.004	-0.094
-361.654	-200.000	-0.004	0.270
-360.639	126.898	0.077	-0.098
-359.625	-62.040	0.324	-0.135
-358.610	429.475	-0.038	0.082
-357.596	-90.835	0.478	-0.138
-356.581	-72.526	-0.084	0.031
-355.566	288.431	0.142	0.258
-354.552	-135.743	-0.115	-0.014
-353.537	-45.177	0.230	-0.114
-352.523	-38.969	0.122	-0.064
-351.508	-23.506	-0.162	0.097
-350.493	-24.465	-0.357	0.213
-349.479	-200.000	0.024	-0.277
-348.464	0.303	0.222	-0.158
-347.450	140.941	-0.137	-0.182
-346.435	-200.000	0.024	-0.218
-345.420	212.567	-0.167	-0.264
-344.406	228.556	-0.120	-0.196
-343.391	-200.000	-0.048	0.359
-342.377	-37.474	0.442	0.236
-341.362	-200.000	0.039	-0.223
-340.348	-50.890	0.079	-0.037
-339.333	-56.995	0.071	-0.031
-338.318	356.797	-0.122	0.243
-337.304	-200.000	0.005	-0.079
-336.289	169.779	-0.067	0.096
-335.275	-200.000	-0.012	0.175
-334.260	136.296	-0.058	0.075
-333.245	-80.652	0.058	0.019
-332.231	-50.652	-0.233	0.110
-331.216	-67.891	0.402	-0.157
-330.202	800.000	0.053	-0.187
-329.187	373.930	-0.072	-0.147
-328.172	-45.601	0.261	-0.129
-327.158	-46.085	-0.206	0.102
-326.143	-61.649	-0.087	0.037
-325.129	67.826	0.142	-0.145
-324.114	59.811	-0.085	-0.084
-323.099	676.971	-0.087	0.225
-322.085	800.000	-0.098	0.271
-321.070	-103.152	-0.186	-0.044
-320.056	126.617	0.180	0.228
-319.041	-135.934	-0.146	0.017
-318.026	187.882	0.029	-0.044
-317.012	-68.836	0.193	-0.075
-315.997	-200.000	0.037	-0.413
-314.983	98.384	0.077	-0.088
-313.968	800.000	-0.052	-0.215
-312.953	98.318	0.091	0.104
-311.939	-150.331	-0.133	0.010
-310.924	141.254	0.102	0.134
-309.910	152.209	0.188	-0.257
-308.895	800.000	-0.009	-0.040
-307.880	461.687	-0.141	-0.314
-306.866	-74.292	0.181	0.065
-305.851	-104.454	-0.286	0.066
-304.837	52.981	-0.221	-0.211
-303.822	-200.000	-0.101	-0.531
-302.807	-58.041	0.330	0.144
-301.793	-2.420	0.153	-0.107
-300.778	6.513	0.194	0.144
-299.764	-114.904	0.273	-0.052
-298.749	339.958	-0.091	-0.178
-297.735	-77.928	0.063	0.022
-296.720	-103.980	0.097	0.023
-295.705	-77.249	-0.158	-0.055
-294.691	-15.438	-0.157	-0.100
-293.676	65.285	0.080	-0.081
-292.662	-5.751	-0.239	-0.163
-291.647	-65.942	-0.151	0.060
-290.632	800.000	0.113	-0.320
-289.618	-98.680	0.109	-0.028
-288.603	-4.350	-0.139	0.096
-287.589	-124.951	0.295	0.045
-286.574	-80.832	0.254	-0.084
-285.559	372.047	0.010	-0.020
-284.545	-96.515	0.258	-0.068
-283.530	-133.667	0.285	-0.035
-282.516	-8.921	-0.055	0.037
-281.501	286.147	-0.081	-0.146
-280.486	-14.237	-0.074	0.048
-279.472	-32.666	0.189	0.105
-278.457	638.298	0.107	-0.270
-277.443	-53.400	0.237	-0.108
-276.428	-88.993	-0.161	0.048
-275.413	-51.801	-0.125	-0.058
-274.399	186.258	-0.059	0.087
-273.384	-200.000	0.001	0.084
-272.370	-116.437	-0.124	-0.023
-271.355	136.697	-0.207	-0.270
-270.340	-76.331	-0.109	-0.038
-269.326	-41.347	-0.178	0.091
-268.311	253.164	-0.062	0.105
-267.297	800.000	-0.040	-0.129
-266.282	-94.396	-0.085	0.023
-265.267	-197.242	0.375	0.002
-264.253	121.444	-0.135	0.168
-263.238	800.000	-0.109	-0.364
-262.224	218.201	-0.141	0.225
-261.209	-200.000	0.045	0.200
-260.195	752.105	-0.020	-0.055
-259.180	134.754	-0.151	0.195
-258.165	-200.000	0.074	-0.382
-257.151	-102.546	0.286	0.068
-256.136	301.206	-0.102	-0.188
-255.122	-200.000	-0.078	0.347
-254.107	241.565	0.035	-0.059
-253.092	800.000	0.221	-0.659
-252.078	-49.547	0.153	0.072
-251.063	-115.288	0.377	0.071
-250.049	145.764	0.322	0.430
-249.034	638.114	0.059	0.148
-248.019	86.661	0.156	-0.172
-247.005	91.375	0.089	-0.099
-245.990	-18.853	-0.250	-0.155
-244.976	373.061	0.083	-0.167
-243.961	-200.000	-0.061	-0.392
-242.946	-80.656	-0.161	0.053
-241.932	-11.777	0.231	0.151
-240.917	-117.699	0.333	-0.060
-239.903	42.113	-0.088	0.080
-238.888	-36.384	0.141	0.076
-237.873	-190.079	0.388	0.004
-236.859	196.857	-0.193	-0.293
-235.844	-200.000	-0.028	0.281
-234.830	-75.400	-0.040	-0.014
-233.815	446.233	0.148	-0.324
-232.800	-100.521	-0.264	0.065
-231.786	-102.591	-0.190	-0.045
-230.771	25.514	-0.116	0.096
-229.757	-93.874	-0.090	0.025
-228.742	666.897	0.148	-0.381
-227.727	63.934	-0.067	0.067
-226.713	69.353	-0.181	-0.186
-225.698	248.871	0.160	0.271
-224.684	-94.042	-0.020	-0.005
-223.669	-4.413	0.258	-0.178
-222.655	-200.000	0.020	0.427
-221.640	223.856	0.060	0.096
-220.625	-124.706	-0.194	0.030
-219.611	109.337	-0.040	-0.048
-218.596	-200.000	0.038	0.246
-217.582	-71.015	0.296	-0.111
-216.567	-175.327	-0.310	-0.008
-215.552	268.050	-0.209	0.365
-214.538	-200.000	-0.020	-0.121
-213.523	800.000	0.040	0.123
-212.509	-177.564	0.128	0.003
-211.494	-15.250	-0.217	0.138
-210.479	-90.044	0.427	0.124
-209.465	-190.988	-0.071	-0.001
-208.450	-172.861	-0.192	-0.006
-207.436	738.870	0.101	0.269
-206.421	-54.773	0.272	-0.122
-205.406	404.060	-0.087	0.183
-204.392	-37.590	-0.191	-0.101
-203.377	495.768	-0.099	0.226
-202.363	2.358	-0.119	-0.086
-201.348	84.178	0.051	-0.056
-200.333	205.825	0.080	-0.124
-199.319	-148.695	-0.253	0.020
-198.304	-200.000	0.011	0.292
-197.290	-200.000	-0.014	0.113
-196.275	-200.000	-0.056	0.319
-195.260	-18.717	-0.120	-0.074
-194.246	-200.000	-0.040	0.240
-193.231	136.675	0.075	0.098
-192.217	628.591	-0.074	-0.185
-191.202	-151.363	0.094	0.007
-190.187	661.144	0.076	0.195
-189.173	196.038	-0.093	0.141
-188.158	13.069	-0.165	0.127
-187.144	-77.752	-0.360	-0.124
-186.129	-200.000	0.034	0.362
-185.114	8.731	0.067	-0.050
-184.100	-167.127	0.213	0.009
-183.085	666.394	0.052	-0.134
-182.071	63.007	0.157	-0.156
-181.056	-101.343	0.154	-0.037
-180.042	-162.111	-0.068	0.003
-179.027	-91.920	0.156	-0.044
-178.012	-69.293	-0.112	0.043
-176.998	-20.768	-0.186	-0.114
-175.983	-200.000	-0.014	0.106
-174.969	7.163	0.121	0.090
-173.954	-200.000	0.029	-0.153
-172.939	141.601	-0.108	-0.142
-171.925	-146.220	0.104	-0.009
-170.910	-124.977	-0.134	0.020
-169.896	-200.000	-0.020	-0.370
-168.881	389.374	0.047	-0.097
-167.866	327.127	0.061	0.117
-166.852	343.525	0.100	-0.194
-165.837	77.785	0.044	0.046
-164.823	0.861	0.320	0.228
-163.808	44.017	-0.184	-0.167
-162.793	-93.522	0.156	-0.043
-161.779	800.000	-0.011	0.031
-160.764	-166.250	-0.361	0.015
-159.750	163.352	-0.107	-0.149
-158.735	684.003	0.080	0.207
-157.720	-60.545	0.245	-0.103
-156.706	-200.000	-0.002	-0.013
-155.691	115.489	0.056	0.068
-154.677	-78.598	-0.114	-0.039
-153.662	39.117	-0.314	0.279
-152.647	-200.000	-0.064	-0.288
-151.633	337.913	0.208	-0.401
-150.618	165.622	0.209	-0.294
-149.604	67.966	-0.071	-0.072
-148.589	-200.000	-0.013	0.056
-147.574	-200.000	0.033	0.161
-146.560	-200.000	0.071	0.527
-145.545	-145.106	0.036	0.003
-144.531	-83.538	-0.121	0.038
-143.516	-70.377	0.229	-0.086
-142.502	-132.149	-0.093	-0.012
-141.487	-67.007	-0.083	-0.032
-140.472	104.039	-0.126	0.147
-139.458	106.729	-0.022	-0.026
-138.443	-122.884	0.250	-0.040
-137.429	-94.461	0.304	0.082
-136.414	-200.000	-0.001	-0.359
-135.399	366.803	0.042	0.083
-134.385	800.000	-0.042	0.180
-133.370	381.030	0.100	0.204
-132.356	42.560	-0.036	-0.032
-131.341	-18.219	0.063	0.039
-130.326	632.579	-0.091	0.229
-129.312	169.995	-0.063	0.089
-128.297	2.208	-0.221	0.158
-127.283	222.783	0.057	0.091
-126.268	-41.485	0.143	-0.073
-125.253	-180.723	-0.264	0.005
-124.239	-106.449	-0.337	-0.075
-123.224	800.000	-0.175	-0.632
-122.210	-5.645	0.150	-0.102
