DTS Sentinel unit serial number:	SN413079Multiplexer serial number:	ORYXHardware model number:	OX4-SRSoftware version number:	ORYX F/W v4.00 Oryx Data Collector v3.7.2.0data status	okinstallation	princeton_trtdifferential loss correction	single-endedforward channel	channel 2reverse channel	N/Adate	2019/09/13time	03:11:35forward acquisition time	60.00reverse acquisition time	0.00gamma	496.2192k internal	0.2334k external	0.2334temperature offset calibration	1.0191default loss term (dB/km)	0.3790temperature slope calibration	1.0000multiplexer offset coefficient	1.0000multiplexer slope coefficient	1.0000fibre end	0.00T internal ref (°C)	27.39T ext. ref 1 (°C)	4.09T ext. ref 2 (°C)	22.14length (m)	temperature (°C)	Stokes	anti-Stokes-747.200	229.611	0.036	-0.059
-746.185	-200.000	0.043	0.229
-745.171	-57.770	0.078	-0.034
-744.156	79.842	0.365	0.394
-743.142	800.000	-0.069	-0.219
-742.127	800.000	0.074	-0.214
-741.112	402.631	-0.096	-0.203
-740.098	51.154	-0.235	0.224
-739.083	-76.159	0.160	0.057
-738.069	182.539	0.097	-0.144
-737.054	-38.402	0.167	0.089
-736.039	-44.690	-0.375	0.188
-735.025	391.371	-0.056	0.117
-734.010	-147.690	-0.409	0.034
-732.996	-102.130	-0.248	0.060
-731.981	-200.000	0.047	0.311
-730.966	800.000	0.051	-0.160
-729.952	748.808	0.042	0.114
-728.937	-134.060	0.172	0.021
-727.923	-147.473	0.044	0.004
-726.908	-136.963	-0.133	0.015
-725.894	-38.706	-0.391	0.207
-724.879	63.122	-0.154	-0.155
-723.864	231.163	-0.101	0.167
-722.850	800.000	-0.104	-0.327
-721.835	-67.098	0.045	0.018
-720.821	-200.000	0.041	-0.239
-719.806	-177.128	-0.542	-0.014
-718.791	800.000	-0.050	-0.172
-717.777	298.916	0.160	0.296
-716.762	-91.922	-0.258	0.073
-715.748	-90.653	0.294	-0.085
-714.733	-20.706	-0.364	0.224
-713.718	-85.834	0.050	0.015
-712.704	-200.000	-0.048	-0.236
-711.689	85.953	-0.065	0.072
-710.675	-94.131	0.235	0.065
-709.660	-62.943	-0.114	0.047
-708.645	186.525	0.213	0.318
-707.631	800.000	-0.030	-0.110
-706.616	-200.000	-0.023	0.196
-705.602	-33.870	0.158	0.087
-704.587	-2.970	-0.249	-0.174
-703.572	-7.293	0.249	-0.169
-702.558	-75.405	0.246	-0.088
-701.543	417.904	0.165	0.354
-700.529	-200.000	-0.025	0.232
-699.514	-78.550	-0.152	0.052
-698.499	743.650	-0.122	-0.329
-697.485	-24.496	-0.167	-0.100
-696.470	-156.884	0.192	-0.012
-695.456	320.983	0.056	0.108
-694.441	-200.000	-0.016	0.080
-693.426	26.137	0.199	-0.167
-692.412	117.411	0.206	-0.254
-691.397	-161.962	0.336	-0.017
-690.383	800.000	-0.060	0.232
-689.368	79.283	-0.300	0.323
-688.354	-200.000	-0.030	0.188
-687.339	14.570	0.232	0.182
-686.324	800.000	-0.060	-0.171
-685.310	800.000	0.172	0.499
-684.295	-77.497	0.111	0.039
-683.281	140.296	0.159	-0.211
-682.266	17.183	0.256	0.203
-681.251	156.315	0.060	0.082
-680.237	117.009	-0.145	0.178
-679.222	-200.000	0.042	0.317
-678.208	177.518	-0.029	0.042
-677.193	90.592	0.138	-0.155
-676.178	80.147	-0.183	-0.197
-675.164	-40.356	0.207	-0.108
-674.149	64.051	0.051	0.051
-673.135	297.843	0.253	-0.465
-672.120	-30.624	-0.242	0.137
-671.105	-92.266	-0.415	-0.117
-670.091	-128.462	0.229	-0.033
-669.076	334.118	-0.155	-0.300
-668.062	-200.000	0.017	-0.196
-667.047	-24.318	-0.037	0.022
-666.032	-93.002	-0.092	-0.026
-665.018	607.033	0.022	0.055
-664.003	66.876	0.059	-0.060
-662.989	307.969	0.057	0.107
-661.974	136.319	-0.238	0.310
-660.959	-111.413	-0.029	0.006
-659.945	-83.323	0.211	-0.068
-658.930	-45.331	0.396	0.197
-657.916	100.669	-0.190	-0.221
-656.901	-149.792	-0.438	0.034
-655.886	-82.485	-0.201	-0.065
-654.872	-72.676	0.176	0.065
-653.857	23.303	-0.212	-0.175
-652.843	95.965	0.062	-0.071
-651.828	209.950	0.172	-0.270
-650.814	-0.601	0.325	-0.231
-649.799	100.268	-0.098	-0.114
-648.784	-57.041	-0.312	-0.138
-647.770	-200.000	-0.051	0.276
-646.755	-21.889	-0.213	0.130
-645.741	-200.000	0.035	-0.339
-644.726	11.651	-0.143	0.110
-643.711	-108.857	-0.120	0.026
-642.697	-200.000	0.054	-0.342
-641.682	-20.518	0.166	0.102
-640.668	-200.000	0.044	-0.231
-639.653	-200.000	-0.026	0.153
-638.638	-48.330	0.165	-0.080
-637.624	-86.210	0.186	-0.057
-636.609	-71.659	0.222	0.083
-635.595	-200.000	-0.002	-0.137
-634.580	-200.000	0.012	-0.060
-633.565	-200.000	-0.207	0.000
-632.551	158.876	0.102	-0.142
-631.536	-194.086	0.241	0.002
-630.522	-200.000	0.045	-0.398
-629.507	714.644	0.130	0.344
-628.492	-5.655	-0.085	0.058
-627.478	85.504	0.178	-0.196
-626.463	-95.464	-0.145	-0.039
-625.449	-132.346	0.414	0.053
-624.434	800.000	0.113	0.356
-623.419	177.887	0.051	-0.075
-622.405	-42.618	-0.162	0.082
-621.390	-18.313	-0.107	0.067
-620.376	-152.924	-0.251	-0.018
-619.361	-101.332	0.248	0.060
-618.346	32.568	0.106	0.092
-617.332	-41.490	-0.352	-0.181
-616.317	800.000	0.062	0.186
-615.303	-105.329	-0.295	0.067
-614.288	-200.000	0.068	0.317
-613.273	-90.401	0.438	0.127
-612.259	800.000	-0.109	-0.390
-611.244	-4.107	-0.124	0.086
-610.230	-200.000	0.012	-0.142
-609.215	-17.778	-0.178	-0.112
-608.201	-200.000	0.002	-0.301
-607.186	-54.339	0.379	-0.172
-606.171	165.171	-0.040	0.056
-605.157	-130.522	0.097	0.013
-604.142	364.045	0.011	-0.023
-603.128	556.002	-0.103	-0.249
-602.113	-29.557	-0.224	0.128
-601.098	57.510	0.176	-0.172
-600.084	-101.969	-0.358	-0.086
-599.069	-142.589	0.145	0.014
-598.055	79.044	0.118	0.127
-597.040	-67.043	-0.055	-0.022
-596.025	800.000	0.110	-0.452
-595.011	180.254	0.099	0.145
-593.996	-200.000	0.015	0.149
-592.982	-120.111	-0.285	-0.049
-591.967	24.907	0.216	-0.179
-590.952	-15.061	-0.370	0.237
-589.938	0.556	0.109	-0.078
-588.923	800.000	0.131	-0.413
-587.909	-200.000	0.019	-0.366
-586.894	-104.937	0.270	-0.062
-585.879	-76.450	-0.068	-0.024
-584.865	209.029	0.070	-0.110
-583.850	198.442	-0.063	-0.096
-582.836	168.705	-0.300	-0.427
-581.821	739.510	-0.109	-0.292
-580.806	636.541	0.124	-0.315
-579.792	31.348	0.317	-0.272
-578.777	127.515	0.083	-0.105
-577.763	-200.000	-0.017	0.074
-576.748	-200.000	-0.011	0.166
-575.733	-68.351	-0.133	0.052
-574.719	800.000	-0.030	0.110
-573.704	112.753	-0.187	-0.226
-572.690	-121.336	0.131	-0.022
-571.675	-199.526	0.267	0.001
-570.661	321.507	0.108	-0.205
-569.646	800.000	-0.034	-0.107
-568.631	-157.113	-0.238	-0.014
-567.617	-6.368	-0.112	-0.076
-566.602	-9.765	-0.214	-0.142
-565.588	-26.146	-0.136	0.080
-564.573	528.676	0.048	0.112
-563.558	160.760	0.136	0.190
-562.544	53.636	0.081	-0.077
-561.529	-200.000	-0.070	-0.333
-560.515	-200.000	0.043	-0.375
-559.500	-61.482	-0.199	-0.083
-558.485	800.000	0.059	0.224
-557.471	-1.320	-0.183	0.129
-556.456	-146.527	-0.224	0.019
-555.442	-12.023	0.086	-0.056
-554.427	-200.000	0.013	0.404
-553.412	-24.980	-0.199	0.118
-552.398	-114.814	-0.430	0.082
-551.383	-102.085	-0.442	-0.106
-550.369	-135.037	-0.108	-0.013
-549.354	-18.640	0.106	0.066
-548.339	-200.000	0.012	-0.134
-547.325	-65.808	-0.123	-0.049
-546.310	-200.000	0.019	-0.110
-545.296	-200.000	0.001	-0.216
-544.281	477.643	-0.117	0.265
-543.266	-200.000	0.007	0.357
-542.252	800.000	0.031	0.096
-541.237	-5.927	-0.060	0.041
-540.223	118.241	-0.092	0.114
-539.208	-159.795	-0.332	-0.018
-538.193	1.092	-0.129	0.092
-537.179	-148.929	0.266	0.021
-536.164	296.844	-0.141	0.257
-535.150	307.358	0.110	0.205
-534.135	222.242	0.067	-0.107
-533.121	661.799	0.036	0.093
-532.106	50.930	0.276	0.261
-531.091	800.000	-0.012	0.033
-530.077	-200.000	-0.152	0.000
-529.062	177.526	-0.131	0.190
-528.048	-200.000	-0.008	-0.121
-527.033	149.676	-0.040	-0.054
-526.018	43.303	-0.173	0.158
-525.004	-25.095	0.138	0.081
-523.989	-184.806	-0.340	0.005
-522.975	163.842	-0.034	0.048
-521.960	130.621	0.335	-0.428
-520.945	215.179	-0.201	0.317
-519.931	366.237	0.040	-0.079
-518.916	-25.209	-0.188	0.111
-517.902	800.000	-0.087	-0.276
-516.887	125.705	-0.026	0.033
-515.872	23.939	0.243	0.199
-514.858	-9.403	-0.294	-0.196
-513.843	59.675	-0.143	-0.140
-512.829	-200.000	-0.009	0.264
-511.814	88.945	-0.126	0.140
-510.799	-200.000	0.023	-0.115
-509.785	202.127	0.188	0.288
-508.770	-29.977	0.119	-0.068
-507.756	-200.000	-0.064	-0.296
-506.741	-19.699	0.350	-0.216
-505.726	-122.657	0.228	0.037
-504.712	228.869	0.075	0.121
-503.697	800.000	0.046	-0.195
-502.683	86.608	-0.110	0.121
-501.668	190.334	0.227	-0.340
-500.653	-102.227	0.154	-0.037
-499.639	332.026	0.133	-0.255
-498.624	-200.000	0.003	0.199
-497.610	-0.150	0.220	0.156
-496.595	-200.000	-0.045	-0.234
-495.581	-35.954	-0.088	0.047
-494.566	-42.545	-0.135	-0.068
-493.551	-142.075	0.261	0.026
-492.537	-141.256	-0.036	-0.004
-491.522	-136.656	0.191	0.022
-490.508	180.637	-0.112	-0.164
-489.493	-200.000	0.015	-0.221
-488.478	-14.130	-0.100	0.064
-487.464	137.290	0.149	-0.194
-486.449	-75.563	0.156	0.055
-485.435	197.089	-0.161	0.244
-484.420	332.812	-0.123	0.236
-483.405	800.000	0.082	-0.330
-482.391	56.258	-0.171	-0.165
-481.376	-110.235	-0.289	0.060
-480.362	-33.569	-0.162	-0.089
-479.347	-23.176	-0.201	0.120
-478.332	-147.733	0.272	-0.023
-477.318	90.771	-0.214	0.238
-476.303	-200.000	-0.029	0.231
-475.289	-41.688	0.115	-0.059
-474.274	-168.695	0.109	-0.004
-473.259	161.353	-0.024	0.033
-472.245	40.481	-0.087	0.078
-471.230	70.054	-0.102	0.105
-470.216	800.000	0.066	0.201
-469.201	235.123	-0.100	-0.165
-468.186	-82.755	-0.069	0.022
-467.172	-11.081	-0.086	-0.056
-466.157	47.953	-0.189	-0.176
-465.143	86.331	-0.109	0.119
-464.128	-45.667	0.364	0.179
-463.113	395.115	-0.085	0.176
-462.099	-200.000	0.013	0.396
-461.084	800.000	-0.110	-0.403
-460.070	437.804	-0.086	-0.186
-459.055	176.545	0.116	0.168
-458.040	150.775	0.216	0.292
-457.026	90.939	0.228	0.254
-456.011	3.487	-0.275	-0.199
-454.997	76.322	-0.147	0.155
-453.982	-146.785	0.339	0.029
-452.968	120.722	-0.187	-0.232
-451.953	-166.707	0.088	0.004
-450.938	77.018	-0.150	0.159
-449.924	-200.000	0.070	0.358
-448.909	-25.169	0.311	-0.183
-447.895	203.109	-0.087	-0.134
-446.880	35.921	0.260	0.227
-445.865	-115.534	-0.171	0.032
-444.851	-200.000	0.019	-0.164
-443.836	199.972	-0.143	-0.218
-442.822	-34.376	0.172	-0.094
-441.807	-89.993	0.256	-0.074
-440.792	-200.000	0.000	-0.067
-439.778	10.194	-0.022	-0.016
-438.763	800.000	-0.097	0.315
-437.749	440.016	0.188	0.408
-436.734	32.958	0.122	0.105
-435.719	800.000	-0.073	-0.299
-434.705	-21.018	-0.015	0.009
-433.690	9.060	-0.274	0.206
-432.676	159.492	-0.151	-0.208
-431.661	-200.000	0.040	-0.404
-430.646	6.949	0.243	0.180
-429.632	-44.008	-0.077	-0.039
-428.617	-61.116	-0.200	-0.084
-427.603	10.342	-0.176	-0.133
-426.588	-200.000	-0.019	-0.235
-425.573	-200.000	-0.014	0.238
-424.559	-200.000	-0.020	-0.170
-423.544	95.467	-0.230	-0.260
-422.530	106.978	0.046	-0.054
-421.515	-87.333	0.529	0.159
-420.500	56.310	-0.231	-0.223
-419.486	156.666	0.014	0.019
-418.471	-200.000	0.009	0.153
-417.457	-119.604	0.047	-0.008
-416.442	-79.320	0.222	-0.075
-415.428	800.000	-0.175	0.510
-414.413	91.873	-0.189	0.211
-413.398	-200.000	-0.264	-0.001
-412.384	102.737	-0.201	0.233
-411.369	33.193	-0.083	-0.071
-410.355	-94.419	-0.139	0.038
-409.340	-118.014	-0.224	0.040
-408.325	-177.861	-0.066	-0.002
-407.311	49.942	-0.200	-0.187
-406.296	-6.078	0.239	0.162
-405.282	-200.000	-0.007	-0.235
-404.267	-15.512	0.197	0.124
-403.252	280.007	0.074	-0.131
-402.238	263.527	0.129	0.222
-401.223	244.114	-0.069	-0.115
-400.209	-17.675	0.256	-0.159
-399.194	-169.366	-0.491	-0.018
-398.179	-200.000	0.016	-0.108
-397.165	-177.729	0.417	0.010
-396.150	19.974	0.135	0.108
-395.136	-200.000	0.043	-0.214
-394.121	-21.755	-0.348	-0.210
-393.106	49.417	0.123	-0.115
-392.092	-194.850	-0.124	0.001
-391.077	800.000	0.022	-0.091
-390.063	10.109	0.368	0.277
-389.048	-200.000	-0.022	-0.136
-388.033	409.503	0.184	0.387
-387.019	-200.000	-0.025	-0.332
-386.004	-93.982	-0.121	0.033
-384.990	251.672	0.095	-0.161
-383.975	-94.694	-0.417	-0.112
-382.960	-39.719	0.365	0.189
-381.946	10.496	-0.309	0.233
-380.931	-100.758	-0.308	0.075
-379.917	45.759	-0.236	-0.216
-378.902	499.235	0.049	-0.111
-377.888	-200.000	-0.066	-0.350
-376.873	161.810	-0.200	0.277
-375.858	192.448	-0.187	0.279
-374.844	-75.316	0.263	0.093
-373.829	55.557	-0.316	0.303
-372.815	288.523	0.139	-0.249
-371.800	17.999	-0.079	-0.063
-370.785	-104.155	0.115	0.026
-369.771	100.753	0.042	-0.049
-368.756	-22.311	0.183	-0.110
-367.742	86.171	-0.210	0.229
-366.727	800.000	-0.066	0.204
-365.712	-114.496	0.572	-0.109
-364.698	-124.917	-0.206	0.031
-363.683	-200.000	0.005	-0.044
-362.669	-124.386	-0.074	-0.011
-361.654	249.429	-0.059	-0.098
-360.639	-143.422	-0.402	0.038
-359.625	119.811	0.140	-0.172
-358.610	-146.423	0.066	0.006
-357.596	-40.378	-0.152	-0.078
-356.581	86.089	0.109	0.119
-355.566	31.537	-0.144	0.123
-354.552	800.000	0.023	0.085
-353.537	-200.000	-0.018	-0.126
-352.523	248.725	-0.095	0.158
-351.508	642.474	0.080	0.201
-350.493	-97.929	0.295	0.075
-349.479	-91.989	-0.227	0.064
-348.464	800.000	-0.102	-0.331
-347.450	800.000	0.010	-0.038
-346.435	80.458	0.083	0.089
-345.420	108.145	-0.030	0.035
-344.406	-84.091	-0.179	0.056
-343.391	97.766	-0.248	0.282
-342.377	62.151	-0.145	-0.143
-341.362	307.403	-0.041	-0.076
-340.348	-200.000	-0.060	-0.441
-339.333	15.694	-0.047	-0.037
-338.318	-21.394	0.055	-0.033
-337.304	-101.486	0.112	0.027
-336.289	118.109	0.209	-0.254
-335.275	-44.124	0.184	0.092
-334.260	80.770	-0.241	0.257
-333.245	213.013	-0.121	-0.189
-332.231	-200.000	-0.005	-0.050
-331.216	121.352	-0.116	0.143
-330.202	470.344	-0.113	0.250
-329.187	-200.000	0.059	0.299
-328.172	56.569	-0.168	0.162
-327.158	139.858	0.076	-0.099
-326.143	116.884	0.051	-0.062
-325.129	171.319	-0.025	0.035
-324.114	213.118	0.109	0.171
-323.099	270.075	0.171	0.297
-322.085	800.000	-0.071	0.228
-321.070	-97.029	0.222	-0.057
-320.056	295.052	0.170	-0.307
-319.041	-14.528	-0.131	-0.083
-318.026	-200.000	-0.000	0.085
-317.012	-139.145	-0.210	0.022
-315.997	3.255	0.227	-0.163
-314.983	800.000	0.038	0.160
-313.968	-2.543	-0.025	0.017
-312.953	-148.091	0.272	0.022
-311.939	96.172	-0.232	0.262
-310.924	27.590	-0.270	0.225
-309.910	-42.693	-0.225	0.113
-308.895	-200.000	0.076	0.334
-307.880	98.415	0.160	-0.182
-306.866	-109.411	-0.298	-0.062
-305.851	44.668	-0.110	0.100
-304.837	-49.996	0.246	0.115
-303.822	259.793	0.107	-0.183
-302.807	-200.000	-0.082	-0.482
-301.793	-8.961	-0.039	-0.026
-300.778	103.190	-0.087	0.100
-299.764	425.495	-0.100	-0.212
-298.749	379.811	-0.074	-0.149
-297.735	-200.000	-0.063	-0.289
-296.720	256.045	0.225	0.381
-295.705	488.012	0.152	0.344
-294.691	291.933	-0.092	0.165
-293.676	88.181	0.145	0.159
-292.662	-200.000	-0.037	-0.180
-291.647	-22.548	-0.197	-0.117
-290.632	-169.080	0.365	0.013
-289.618	-200.000	0.001	-0.217
-288.603	-136.161	-0.302	-0.035
-287.589	-200.000	0.000	-0.060
-286.574	-103.488	0.499	0.116
-285.559	59.887	0.118	0.115
-284.545	800.000	-0.037	0.156
-283.530	-46.751	-0.102	-0.049
-282.516	2.230	0.111	0.079
-281.501	-200.000	0.047	-0.288
-280.486	12.166	0.119	0.090
-279.472	-67.002	0.325	0.127
-278.457	-200.000	0.010	0.064
-277.443	-41.455	0.248	0.126
-276.428	800.000	-0.017	-0.058
-275.413	800.000	-0.025	0.083
-274.399	467.955	-0.097	-0.214
-273.384	800.000	0.035	0.148
-272.370	203.079	-0.075	-0.114
-271.355	168.006	0.010	-0.014
-270.340	303.284	0.087	-0.160
-269.326	-52.468	0.132	0.060
-268.311	91.998	0.078	-0.086
-267.297	-78.511	0.223	0.075
-266.282	39.698	0.133	0.118
-265.267	70.066	0.197	0.200
-264.253	-39.975	-0.418	-0.215
-263.238	-115.761	0.282	-0.052
-262.224	42.208	0.188	-0.168
-261.209	718.892	0.118	-0.309
-260.195	373.694	-0.067	-0.135
-259.180	800.000	-0.029	0.118
-258.165	88.245	0.162	-0.177
-257.151	-192.805	0.407	-0.004
-256.136	-135.169	-0.168	0.020
-255.122	425.941	-0.104	-0.222
-254.107	135.616	-0.165	0.211
-253.092	800.000	0.069	-0.285
-252.078	136.276	0.136	-0.175
-251.063	238.786	-0.154	-0.252
-250.049	-200.000	-0.070	0.371
-249.034	13.046	0.125	0.095
-248.019	114.933	-0.220	0.264
-247.005	-129.073	0.415	0.057
-245.990	-200.000	0.013	-0.220
-244.976	-200.000	0.004	0.025
-243.961	-6.774	-0.192	-0.129
-242.946	17.071	-0.114	-0.089
-241.932	139.192	0.255	0.330
-240.917	100.836	0.150	0.171
-239.903	128.274	-0.316	0.396
-238.888	-135.364	-0.304	-0.036
-237.873	-15.639	-0.129	0.081
-236.859	310.138	-0.099	0.183
-235.844	90.820	-0.137	-0.151
-234.830	-2.042	0.269	0.186
-233.815	-37.822	-0.049	-0.026
-232.800	-30.292	0.230	0.129
-231.786	-12.921	0.204	-0.131
-230.771	-200.000	-0.037	0.199
-229.757	-109.028	-0.110	-0.023
-228.742	-62.912	-0.219	-0.089
-227.727	446.597	0.165	-0.357
-226.713	800.000	-0.033	-0.127
-225.698	800.000	0.051	-0.207
-224.684	159.081	0.141	0.193
-223.669	183.253	0.058	-0.085
-222.655	32.730	0.223	0.190
-221.640	75.902	-0.065	0.068
-220.625	-200.000	0.028	-0.336
-219.611	63.091	0.129	-0.127
-218.596	800.000	0.023	-0.072
-217.582	-88.629	0.204	0.060
-216.567	434.178	0.114	0.243
-215.552	529.982	-0.064	0.148
-214.538	130.954	0.138	-0.174
-213.523	68.349	-0.208	0.210
-212.509	355.387	0.112	0.220
-211.494	100.026	-0.109	0.125
-210.479	54.308	0.115	-0.109
-209.465	-99.671	0.130	0.032
-208.450	93.316	-0.093	0.103
-207.436	-200.000	0.085	-0.373
-206.421	-90.330	-0.205	-0.059
-205.406	7.488	-0.210	-0.154
-204.392	94.629	0.050	0.056
-203.377	381.218	0.099	0.201
-202.363	-141.636	0.187	-0.018
-201.348	-39.697	-0.170	0.088
-200.333	405.325	-0.053	-0.110
-199.319	-179.065	0.150	0.003
-198.304	-200.000	0.001	-0.132
-197.290	-200.000	0.006	0.134
-196.275	276.443	-0.007	0.013
-195.260	-66.951	0.188	0.073
-194.246	-200.000	0.046	0.200
-193.231	-80.732	-0.159	-0.052
-192.217	800.000	0.125	0.344
-191.202	-134.336	-0.258	0.031
-190.187	79.808	0.037	-0.040
-189.173	106.431	-0.032	0.038
-188.158	-97.885	0.356	0.090
-187.144	-13.855	0.271	-0.173
-186.129	800.000	-0.052	0.167
-185.114	-146.479	0.300	-0.026
-184.100	82.276	0.050	-0.053
-183.085	-123.757	-0.245	0.038
-182.071	-200.000	-0.084	-0.454
-181.056	308.410	0.163	0.298
-180.042	-200.000	0.028	0.170
-179.027	-133.945	-0.356	0.043
-178.012	-106.105	-0.180	0.040
-176.998	191.012	-0.046	0.068
-175.983	-39.306	-0.316	-0.163
-174.969	-137.843	0.312	0.034
-173.954	-81.111	0.104	0.034
-172.939	-163.461	0.141	0.007
-171.925	-2.682	-0.353	0.243
-170.910	503.393	-0.087	-0.198
-169.896	198.343	-0.042	-0.063
-168.881	-200.000	0.155	-0.000
-167.866	271.807	0.092	0.160
-166.852	-200.000	0.005	-0.352
-165.837	-113.277	0.274	0.053
-164.823	122.335	-0.023	0.029
-163.808	-200.000	0.048	0.258
-162.793	-171.042	-0.095	0.003
-161.779	-200.000	0.009	-0.075
-160.764	358.181	0.010	-0.020
-159.750	800.000	0.062	0.263
-158.735	-31.600	0.293	0.162
-157.720	-200.000	-0.010	0.140
-156.706	-46.868	0.350	-0.168
-155.691	-92.663	-0.243	0.067
-154.677	530.423	-0.096	-0.222
-153.662	-50.156	-0.198	0.092
-152.647	1.672	0.144	-0.102
-151.633	98.320	0.299	0.338
-150.618	35.742	-0.092	0.079
-149.604	89.833	-0.103	0.113
-148.589	-14.164	-0.180	-0.114
-147.574	-187.698	0.290	0.004
-146.560	-200.000	0.052	-0.379
-145.545	-1.575	0.139	-0.096
-144.531	-160.510	0.095	-0.005
-143.516	232.643	0.146	-0.236
-142.502	-78.186	-0.282	-0.095
-141.487	-200.000	-0.028	0.432
-140.472	-200.000	0.032	0.200
-139.458	-189.671	-0.101	-0.001
-138.443	24.365	0.194	-0.157
-137.429	-200.000	-0.028	0.409
-136.414	247.890	-0.121	0.200
-135.399	800.000	0.065	0.183
-134.385	-200.000	0.056	0.286
-133.370	-200.000	0.004	-0.106
-132.356	-37.347	0.091	-0.048
-131.341	-70.514	0.164	0.061
-130.326	-200.000	0.016	-0.289
-129.312	-200.000	0.005	-0.315
-128.297	-72.307	0.089	-0.032
-127.283	43.443	0.251	-0.225
-126.268	-7.179	-0.312	0.208
-125.253	800.000	-0.075	0.309
-124.239	-25.919	0.141	-0.082
-123.224	-200.000	-0.015	0.271
-122.210	-200.000	-0.004	0.354
-121.195	-55.770	-0.520	-0.228
-120.180	-131.394	-0.287	0.037
