DTS Sentinel unit serial number:	SN413079Multiplexer serial number:	ORYXHardware model number:	OX4-SRSoftware version number:	ORYX F/W v4.00 Oryx Data Collector v3.7.2.0data status	okinstallation	princeton_trtdifferential loss correction	single-endedforward channel	channel 2reverse channel	N/Adate	2019/09/16time	04:55:34forward acquisition time	60.00reverse acquisition time	0.00gamma	496.2192k internal	0.2335k external	0.2335temperature offset calibration	0.9974default loss term (dB/km)	0.3790temperature slope calibration	1.0000multiplexer offset coefficient	1.0000multiplexer slope coefficient	1.0000fibre end	0.00T internal ref (°C)	27.17T ext. ref 1 (°C)	10.97T ext. ref 2 (°C)	21.76length (m)	temperature (°C)	Stokes	anti-Stokes-747.200	219.168	0.104	0.167
-746.185	394.556	0.118	0.247
-745.171	77.290	-0.038	-0.041
-744.156	-200.000	-0.031	-0.259
-743.142	-200.000	-0.030	-0.168
-742.127	800.000	-0.131	0.444
-741.112	143.391	-0.066	0.088
-740.098	-121.921	0.197	0.033
-739.083	36.276	0.174	-0.154
-738.069	-8.636	-0.236	0.159
-737.054	145.901	0.168	0.227
-736.039	539.636	-0.188	0.449
-735.025	800.000	0.113	0.336
-734.010	-200.000	-0.028	0.320
-732.996	165.106	-0.156	0.221
-731.981	135.120	-0.035	0.046
-730.966	-83.348	0.188	-0.061
-729.952	107.746	-0.085	-0.102
-728.937	-30.448	-0.113	0.064
-727.923	414.160	-0.045	0.097
-726.908	-128.619	-0.250	0.036
-725.894	-156.165	-0.459	-0.029
-724.879	11.938	-0.420	-0.324
-723.864	50.345	-0.078	-0.074
-722.850	800.000	-0.055	-0.187
-721.835	-200.000	-0.009	-0.234
-720.821	178.566	-0.206	0.301
-719.806	-156.184	-0.322	0.020
-718.791	191.923	-0.177	-0.268
-717.777	349.712	-0.124	-0.245
-716.762	319.024	-0.135	0.257
-715.748	14.777	-0.296	0.232
-714.733	-9.095	0.038	-0.026
-713.718	332.029	-0.121	-0.234
-712.704	800.000	0.055	0.228
-711.689	-184.313	0.151	-0.002
-710.675	-117.644	0.075	0.014
-709.660	-124.276	-0.316	0.050
-708.645	18.461	0.170	0.136
-707.631	800.000	-0.047	-0.157
-706.616	-124.161	0.178	0.028
-705.602	-104.441	-0.163	0.038
-704.587	516.479	-0.023	-0.054
-703.572	-21.567	-0.357	-0.218
-702.558	-22.189	-0.187	0.114
-701.543	87.209	-0.062	0.069
-700.529	-144.318	-0.293	-0.027
-699.514	800.000	-0.053	0.225
-698.499	380.374	-0.020	0.042
-697.485	-69.799	-0.158	0.061
-696.470	-109.043	-0.272	-0.058
-695.456	52.670	-0.056	-0.054
-694.441	-200.000	-0.099	-0.469
-693.426	46.375	-0.102	0.095
-692.412	244.411	-0.175	0.294
-691.397	800.000	0.037	-0.156
-690.383	65.612	-0.328	-0.333
-689.368	-96.675	-0.255	0.067
-688.354	51.932	-0.084	0.080
-687.339	-200.000	-0.010	0.186
-686.324	86.196	-0.289	-0.319
-685.310	-145.548	-0.099	0.009
-684.295	-200.000	-0.009	0.069
-683.281	800.000	0.024	-0.074
-682.266	-159.745	-0.060	-0.003
-681.251	-200.000	-0.015	-0.108
-680.237	64.887	-0.162	-0.164
-679.222	419.742	-0.072	-0.154
-678.208	800.000	-0.077	0.313
-677.193	197.012	0.044	0.067
-676.178	-200.000	-0.059	0.271
-675.164	-200.000	0.017	0.251
-674.149	-147.598	0.252	-0.021
-673.135	-200.000	0.039	0.212
-672.120	96.048	-0.041	-0.047
-671.105	-4.491	0.267	0.185
-670.091	-36.521	0.175	0.094
-669.076	202.472	0.017	-0.027
-668.062	-124.082	-0.190	-0.030
-667.047	-66.818	0.081	0.032
-666.032	-101.052	-0.129	-0.032
-665.018	800.000	0.033	0.105
-664.003	-170.446	-0.124	-0.004
-662.989	-200.000	-0.003	0.202
-661.974	-27.617	-0.092	-0.053
-660.959	52.323	-0.237	0.226
-659.945	79.059	-0.013	0.014
-658.930	800.000	-0.088	0.255
-657.916	800.000	0.052	0.196
-656.901	700.463	-0.030	0.079
-655.886	426.071	-0.086	-0.185
-654.872	502.073	0.175	-0.404
-653.857	19.269	-0.402	-0.323
-652.843	430.205	-0.082	-0.177
-651.828	800.000	0.091	0.315
-650.814	9.138	-0.118	0.089
-649.799	38.730	-0.324	0.289
-648.784	335.014	0.078	-0.151
-647.770	-161.338	0.137	0.007
-646.755	-7.703	-0.298	-0.201
-645.741	134.768	-0.164	-0.213
-644.726	-200.000	0.043	-0.236
-643.711	-75.487	-0.156	-0.056
-642.697	102.799	0.186	0.218
-641.682	-200.000	0.010	0.053
-640.668	-78.556	0.122	-0.042
-639.653	-63.593	-0.170	-0.070
-638.638	-55.913	-0.090	-0.040
-637.624	644.028	0.056	-0.142
-636.609	130.363	-0.102	0.131
-635.595	-5.098	-0.333	0.229
-634.580	299.675	0.090	-0.165
-633.565	800.000	0.009	-0.035
-632.551	49.998	-0.041	0.039
-631.536	62.128	-0.232	0.232
-630.522	-20.012	0.134	0.082
-629.507	51.316	-0.221	-0.210
-628.492	186.686	0.143	0.213
-627.478	-128.404	-0.128	0.018
-626.463	154.591	0.163	0.224
-625.449	404.191	0.079	0.167
-624.434	-200.000	0.004	-0.279
-623.419	-87.938	0.115	-0.034
-622.405	73.589	-0.160	-0.168
-621.390	182.608	0.240	-0.355
-620.376	-37.929	-0.092	0.049
-619.361	-122.016	0.333	-0.055
-618.346	-14.270	0.157	-0.101
-617.332	-147.935	-0.260	-0.022
-616.317	-1.128	-0.190	-0.134
-615.303	168.358	-0.172	0.245
-614.288	231.595	-0.181	0.297
-613.273	58.614	-0.162	-0.159
-612.259	-56.557	0.049	0.022
-611.244	-146.791	-0.297	0.026
-610.230	133.558	0.228	-0.295
-609.215	-69.711	-0.344	0.132
-608.201	456.609	0.217	-0.481
-607.186	-200.000	-0.001	-0.181
-606.171	95.465	-0.104	-0.119
-605.157	-16.194	-0.199	-0.126
-604.142	10.618	0.193	-0.147
-603.128	-100.096	-0.212	-0.053
-602.113	-103.182	-0.308	-0.073
-601.098	-106.367	0.519	-0.116
-600.084	-99.282	-0.195	-0.049
-599.069	800.000	-0.076	0.252
-598.055	-34.879	0.080	0.044
-597.040	-145.991	-0.310	0.027
-596.025	800.000	-0.158	0.451
-595.011	574.437	-0.104	-0.252
-593.996	124.373	-0.132	0.166
-592.982	-3.667	0.382	0.265
-591.967	-200.000	-0.012	0.067
-590.952	316.378	0.065	-0.122
-589.938	-51.691	0.116	0.054
-588.923	-200.000	0.009	0.059
-587.909	-167.015	-0.454	-0.019
-586.894	-102.226	0.135	0.032
-585.879	322.485	-0.038	0.072
-584.865	289.953	0.218	0.395
-583.850	-34.564	0.198	0.108
-582.836	-70.051	-0.176	0.067
-581.821	-200.000	-0.010	0.266
-580.806	-200.000	-0.035	-0.252
-579.792	-200.000	0.015	0.124
-578.777	-67.317	0.135	0.053
-577.763	-11.910	-0.320	-0.210
-576.748	-98.765	0.167	-0.042
-575.733	-200.000	0.005	-0.033
-574.719	148.562	-0.076	-0.102
-573.704	199.018	-0.104	0.159
-572.690	-200.000	-0.025	-0.144
-571.675	-200.000	0.012	-0.359
-570.661	96.051	0.171	-0.195
-569.646	-41.323	0.127	-0.066
-568.631	111.900	-0.138	-0.166
-567.617	-200.000	0.031	-0.334
-566.602	665.525	0.065	-0.167
-565.588	764.792	-0.111	-0.301
-564.573	526.213	0.086	-0.202
-563.558	39.634	0.226	-0.202
-562.544	-100.784	-0.411	0.101
-561.529	-200.000	-0.037	0.216
-560.515	192.042	-0.073	-0.109
-559.500	628.503	-0.053	0.135
-558.485	800.000	-0.026	-0.101
-557.471	-97.271	-0.086	-0.022
-556.456	34.777	-0.285	-0.248
-555.442	-71.313	-0.161	-0.060
-554.427	105.292	0.135	0.159
-553.412	-200.000	0.008	0.043
-552.398	-25.163	0.199	-0.117
-551.383	-10.600	-0.246	-0.162
-550.369	-200.000	0.023	-0.132
-549.354	336.536	0.055	-0.106
-548.339	-75.259	-0.178	-0.063
-547.325	-55.655	0.205	0.091
-546.310	-200.000	0.030	-0.219
-545.296	-200.000	0.059	0.318
-544.281	79.559	-0.097	-0.104
-543.266	800.000	0.035	-0.140
-542.252	-42.119	0.030	-0.015
-541.237	-200.000	0.021	0.113
-540.223	123.126	0.128	-0.159
-539.208	-3.620	-0.115	-0.080
-538.193	91.662	0.295	-0.331
-537.179	9.938	-0.259	-0.196
-536.164	-99.419	-0.171	0.043
-535.150	22.342	0.153	0.125
-534.135	767.887	0.063	0.172
-533.121	-200.000	0.002	0.053
-532.106	-103.861	-0.163	0.038
-531.091	50.986	-0.127	0.120
-530.077	-200.000	0.024	-0.283
-529.062	-76.326	0.246	-0.086
-528.048	300.562	-0.032	0.059
-527.033	-200.000	-0.008	-0.173
-526.018	-29.689	-0.056	0.032
-525.004	-118.690	-0.334	0.059
-523.989	-16.079	-0.210	0.133
-522.975	56.568	0.489	-0.473
-521.960	-19.056	-0.267	0.165
-520.945	-38.674	0.182	0.096
-519.931	124.431	0.125	0.157
-518.916	56.958	0.123	-0.119
-517.902	-200.000	0.018	0.172
-516.887	36.813	-0.276	0.243
-515.872	-55.993	0.103	-0.046
-514.858	-200.000	0.025	0.177
-513.843	265.776	-0.129	0.224
-512.829	-1.579	-0.208	0.146
-511.814	86.519	-0.060	0.065
-510.799	147.095	0.110	-0.148
-509.785	-200.000	-0.017	-0.130
-508.770	-24.133	-0.132	0.079
-507.756	-200.000	0.063	-0.458
-506.741	-64.527	-0.123	-0.050
-505.726	119.771	0.162	-0.200
-504.712	641.611	-0.055	-0.139
-503.697	-200.000	-0.005	0.121
-502.683	-135.393	0.084	0.010
-501.668	800.000	-0.024	0.101
-500.653	800.000	0.114	0.329
-499.639	164.367	-0.193	-0.270
-498.624	800.000	-0.033	-0.119
-497.610	-57.894	0.137	-0.059
-496.595	800.000	-0.072	-0.221
-495.581	-132.600	-0.176	-0.022
-494.566	-200.000	0.006	0.063
-493.551	-106.654	0.313	0.069
-492.537	-42.969	-0.307	-0.155
-491.522	800.000	-0.075	-0.299
-490.508	-4.857	0.234	-0.161
-489.493	-200.000	0.005	-0.038
-488.478	-30.828	-0.096	0.054
-487.464	-17.664	-0.191	-0.119
-486.449	-200.000	-0.011	0.216
-485.435	66.769	-0.259	0.262
-484.420	27.748	-0.059	-0.050
-483.405	50.499	-0.151	0.142
-482.391	-200.000	0.010	0.124
-481.376	247.588	0.091	0.154
-480.362	-124.797	-0.265	0.041
-479.347	201.491	-0.111	-0.170
-478.332	78.184	-0.089	0.094
-477.318	-73.057	0.312	0.114
-476.303	551.788	-0.184	0.439
-475.289	-189.197	0.317	-0.004
-474.274	-126.232	-0.185	-0.028
-473.259	84.921	-0.102	-0.112
-472.245	-170.138	-0.172	-0.006
-471.230	206.082	0.117	0.181
-470.216	-118.423	0.232	0.041
-469.201	2.537	0.216	-0.156
-468.186	403.611	0.128	-0.268
-467.172	447.832	-0.025	-0.056
-466.157	-200.000	0.012	0.109
-465.143	-53.331	-0.150	-0.068
-464.128	8.390	-0.189	0.141
-463.113	106.312	-0.133	-0.156
-462.099	-67.419	0.142	-0.055
-461.084	8.394	-0.072	-0.054
-460.070	348.480	-0.045	0.088
-459.055	383.628	0.201	0.410
-458.040	800.000	-0.080	-0.346
-457.026	800.000	0.058	-0.190
-456.011	-200.000	0.026	0.168
-454.997	-5.643	0.177	0.121
-453.982	75.409	0.154	0.161
-452.968	-193.955	-0.229	0.002
-451.953	800.000	0.048	0.145
-450.938	-200.000	-0.001	-0.013
-449.924	300.290	0.119	-0.217
-448.909	566.318	-0.091	0.219
-447.895	-44.028	0.405	0.202
-446.880	-51.371	-0.217	-0.101
-445.865	-163.361	0.203	-0.010
-444.851	-4.026	0.230	-0.158
-443.836	346.956	-0.061	-0.118
-442.822	138.143	0.073	-0.094
-441.807	-179.970	-0.279	-0.006
-440.792	57.184	0.371	0.359
-439.778	-92.486	-0.031	-0.009
-438.763	-87.117	-0.119	0.036
-437.749	643.350	0.182	0.460
-436.734	-11.948	-0.078	-0.051
-435.719	800.000	-0.107	-0.411
-434.705	-2.197	-0.276	-0.193
-433.690	-200.000	0.052	-0.253
-432.676	-40.079	0.073	-0.038
-431.661	-103.683	-0.322	0.075
-430.646	-65.622	0.268	0.107
-429.632	389.439	-0.183	-0.377
-428.617	-89.035	-0.079	-0.023
-427.603	-200.000	-0.012	0.280
-426.588	-200.000	-0.008	-0.317
-425.573	-192.132	0.121	-0.001
-424.559	-85.510	-0.405	-0.125
-423.544	260.078	0.116	0.199
-422.530	70.072	-0.076	0.078
-421.515	-39.532	0.171	-0.089
-420.500	-29.729	0.228	-0.129
-419.486	21.328	0.174	0.140
-418.471	-200.000	-0.009	0.098
-417.457	-200.000	-0.014	-0.099
-416.442	-200.000	-0.031	-0.223
-415.428	560.942	-0.128	0.308
-414.413	39.446	0.182	-0.162
-413.398	-110.378	0.389	0.080
-412.384	61.009	0.073	0.071
-411.369	-101.302	0.178	-0.043
-410.355	-200.000	-0.008	-0.050
-409.340	171.645	-0.181	0.257
-408.325	-28.279	-0.042	0.024
-407.311	532.579	-0.117	0.275
-406.296	-98.615	-0.140	-0.035
-405.282	107.320	-0.099	-0.116
-404.267	290.095	-0.124	-0.224
-403.252	-40.347	0.059	-0.031
-402.238	107.041	0.194	-0.229
-401.223	-109.760	0.357	0.074
-400.209	-78.657	0.216	-0.073
-399.194	293.227	0.144	-0.260
-398.179	146.171	-0.184	0.245
-397.165	-167.291	0.296	-0.012
-396.150	214.406	-0.154	0.242
-395.136	164.869	-0.068	-0.095
-394.121	83.816	0.046	0.050
-393.106	-200.000	-0.043	-0.237
-392.092	-27.185	-0.154	-0.089
-391.077	-63.365	-0.179	-0.073
-390.063	-200.000	0.054	-0.305
-389.048	-200.000	0.047	0.239
-388.033	286.369	-0.170	-0.304
-387.019	-200.000	-0.009	-0.052
-386.004	-131.569	-0.050	0.006
-384.990	16.242	0.225	0.175
-383.975	126.696	-0.208	0.261
-382.960	-200.000	-0.008	0.120
-381.946	216.289	0.026	0.041
-380.931	800.000	-0.119	-0.403
-379.917	472.605	0.059	0.132
-378.902	-200.000	-0.002	-0.168
-377.888	41.228	0.272	-0.244
-376.873	-97.504	-0.104	-0.027
-375.858	2.198	-0.124	-0.089
-374.844	-28.124	0.172	-0.098
-373.829	-3.542	-0.068	0.047
-372.815	-200.000	0.019	-0.252
-371.800	22.645	-0.112	0.091
-370.785	16.355	-0.152	0.119
-369.771	-113.632	-0.304	-0.059
-368.756	-80.721	-0.259	0.085
-367.742	-89.656	-0.250	-0.073
-366.727	-49.332	0.048	-0.023
-365.712	-200.000	-0.008	-0.258
-364.698	68.878	-0.037	-0.037
-363.683	-63.677	-0.348	0.141
-362.669	-0.468	-0.236	-0.166
-361.654	-101.329	-0.198	-0.048
-360.639	-28.117	0.107	-0.061
-359.625	-200.000	0.086	0.392
-358.610	29.241	-0.147	-0.123
-357.596	-200.000	0.037	-0.279
-356.581	-20.005	-0.291	-0.178
-355.566	356.531	0.126	0.248
-354.552	-144.634	0.168	0.015
-353.537	-133.373	0.177	-0.022
-352.523	-34.486	0.399	0.216
-351.508	166.687	-0.049	-0.069
-350.493	676.475	-0.033	0.086
-349.479	-22.069	-0.240	0.144
-348.464	-85.119	0.333	0.103
-347.450	800.000	0.084	0.254
-346.435	17.606	0.178	-0.140
-345.420	586.084	0.139	0.339
-344.406	-45.024	-0.259	-0.128
-343.391	-200.000	0.012	0.054
-342.377	-92.822	-0.309	0.085
-341.362	450.729	0.057	-0.124
-340.348	800.000	-0.059	-0.177
-339.333	29.056	0.159	0.133
-338.318	204.233	-0.084	-0.129
-337.304	800.000	-0.026	0.110
-336.289	397.760	-0.072	0.148
-335.275	-34.425	0.244	-0.132
-334.260	192.804	0.149	-0.222
-333.245	173.322	0.037	-0.053
-332.231	-174.330	0.022	0.001
-331.216	23.731	0.276	-0.225
-330.202	-87.608	0.213	-0.064
-329.187	-61.672	0.163	0.068
-328.172	-200.000	0.028	0.223
-327.158	-43.057	0.195	-0.098
-326.143	692.436	0.017	-0.045
-325.129	6.733	-0.080	0.059
-324.114	-120.011	0.246	-0.042
-323.099	110.670	0.259	0.308
-322.085	-91.109	0.108	-0.031
-321.070	-200.000	-0.001	0.208
-320.056	-102.993	-0.234	-0.055
-319.041	153.335	-0.060	0.082
-318.026	-173.320	0.172	-0.005
-317.012	-58.151	0.255	0.110
-315.997	-25.056	-0.175	-0.103
-314.983	800.000	0.043	0.156
-313.968	49.004	0.111	0.103
-312.953	54.958	-0.018	0.018
-311.939	-174.301	0.292	0.008
-310.924	592.972	0.143	0.349
-309.910	-31.306	0.399	-0.222
-308.895	-117.345	-0.175	-0.031
-307.880	327.622	-0.048	0.091
-306.866	-36.008	0.153	-0.082
-305.851	5.047	-0.234	0.170
-304.837	648.790	0.049	-0.123
-303.822	-124.589	0.122	0.019
-302.807	7.539	-0.118	0.087
-301.793	157.495	-0.246	0.337
-300.778	675.836	0.029	-0.074
-299.764	-102.378	-0.232	-0.055
-298.749	-43.648	0.168	0.084
-297.735	-51.632	-0.316	0.145
-296.720	210.548	0.147	0.227
-295.705	-32.446	-0.105	0.058
-294.691	90.270	-0.102	0.112
-293.676	630.379	0.050	-0.125
-292.662	-76.159	0.098	0.034
-291.647	47.600	-0.115	0.106
-290.632	-200.000	0.040	-0.262
-289.618	16.895	0.072	-0.056
-288.603	-26.379	-0.158	-0.091
-287.589	-68.688	-0.061	0.023
-286.574	-16.987	0.205	-0.128
-285.559	-28.592	0.067	0.038
-284.545	-142.252	-0.364	0.036
-283.530	-200.000	-0.091	-0.523
-282.516	505.328	0.094	-0.214
-281.501	347.755	0.121	-0.236
-280.486	-80.937	-0.315	0.103
-279.472	-131.021	0.164	-0.022
-278.457	484.354	-0.162	0.364
-277.443	477.204	-0.214	0.478
-276.428	242.059	-0.072	-0.119
-275.413	-200.000	0.048	0.248
-274.399	41.735	0.219	0.196
-273.384	-200.000	0.016	0.390
-272.370	-149.491	0.221	-0.017
-271.355	196.010	0.072	0.108
-270.340	-200.000	0.039	0.176
-269.326	-200.000	-0.006	0.302
-268.311	-49.252	0.284	0.134
-267.297	122.336	-0.160	-0.197
-266.282	89.216	0.107	0.118
-265.267	45.130	-0.063	0.057
-264.253	-133.035	0.204	0.025
-263.238	-95.122	-0.572	-0.152
-262.224	-200.000	0.024	-0.281
-261.209	23.248	-0.168	-0.136
-260.195	800.000	-0.032	-0.120
-259.180	-127.395	-0.090	0.013
-258.165	-48.677	-0.048	-0.023
-257.151	372.533	0.149	0.299
-256.136	-114.096	0.135	-0.026
-255.122	6.080	-0.120	0.087
-254.107	-115.577	0.037	0.007
-253.092	800.000	-0.023	-0.068
-252.078	538.891	-0.054	-0.126
-251.063	-200.000	0.033	-0.344
-250.049	204.106	-0.039	-0.060
-249.034	44.494	-0.097	-0.088
-248.019	-200.000	0.015	0.225
-247.005	128.479	-0.080	-0.100
-245.990	734.574	-0.091	-0.240
-244.976	71.435	0.104	0.106
-243.961	278.825	-0.156	0.274
-242.946	455.022	-0.092	0.201
-241.932	-93.984	0.037	-0.010
-240.917	387.075	-0.091	0.185
-239.903	216.500	-0.135	-0.211
-238.888	87.811	-0.061	0.066
-237.873	800.000	-0.078	0.237
-236.859	-32.608	-0.297	0.163
-235.844	800.000	-0.077	-0.215
-234.830	1.063	-0.106	0.075
-233.815	-146.498	-0.102	-0.009
-232.800	7.450	0.115	0.084
-231.786	16.249	0.178	-0.138
-230.771	211.273	0.193	0.299
-229.757	269.761	-0.130	0.225
-228.742	580.970	0.061	0.146
-227.727	-167.702	0.379	0.015
-226.713	-113.858	-0.082	-0.016
-225.698	800.000	-0.084	-0.259
-224.684	-47.945	0.287	0.137
-223.669	800.000	0.024	-0.087
-222.655	-114.720	0.209	-0.039
-221.640	-80.423	0.090	-0.030
-220.625	-200.000	0.007	-0.241
-219.611	-200.000	0.002	-0.045
-218.596	-48.006	0.184	0.088
-217.582	-200.000	-0.033	0.492
-216.567	57.834	0.104	0.100
-215.552	-97.829	0.191	-0.049
-214.538	321.761	-0.043	0.081
-213.523	421.816	0.090	0.191
-212.509	180.738	0.057	0.082
-211.494	63.746	0.353	0.349
-210.479	-200.000	0.011	-0.143
-209.465	38.444	0.272	-0.239
-208.450	-8.454	0.064	0.042
-207.436	800.000	-0.070	-0.270
-206.421	-135.853	-0.159	0.018
-205.406	56.225	0.079	0.075
-204.392	-200.000	0.090	-0.456
-203.377	-79.541	0.245	-0.081
-202.363	-155.605	-0.222	-0.014
-201.348	499.673	-0.026	-0.059
-200.333	36.081	-0.116	-0.101
-199.319	-200.000	-0.017	-0.268
-198.304	37.081	0.137	0.120
-197.290	-200.000	-0.029	0.523
-196.275	613.934	-0.111	-0.273
-195.260	247.448	-0.080	0.132
-194.246	137.641	-0.067	-0.086
-193.231	-100.561	0.114	-0.028
-192.217	284.653	0.212	-0.376
-191.202	-135.001	0.276	0.033
-190.187	-39.521	0.451	0.232
-189.173	-64.387	0.397	-0.159
-188.158	800.000	-0.064	0.229
-187.144	315.385	-0.060	0.111
-186.129	-24.593	-0.170	0.099
-185.114	-200.000	-0.016	0.236
-184.100	-185.193	0.037	-0.001
-183.085	-182.082	0.170	-0.003
-182.071	-200.000	-0.013	0.378
-181.056	159.527	-0.095	0.130
-180.042	800.000	0.168	-0.460
-179.027	-35.561	0.298	0.159
-178.012	800.000	-0.053	0.198
-176.998	177.258	-0.125	0.179
-175.983	-200.000	-0.005	-0.031
-174.969	65.775	-0.231	0.230
-173.954	-200.000	0.026	0.244
-172.939	72.545	-0.201	0.206
-171.925	169.001	-0.024	0.033
-170.910	800.000	0.094	0.298
-169.896	-200.000	0.050	-0.260
-168.881	415.924	-0.054	-0.112
-167.866	526.988	0.097	0.224
-166.852	-123.094	0.214	-0.034
-165.837	-98.028	0.225	0.057
-164.823	-200.000	0.035	0.183
-163.808	-91.921	0.243	-0.068
-162.793	71.860	0.131	-0.134
-161.779	-76.140	0.336	0.116
-160.764	23.075	0.180	-0.145
-159.750	-66.842	0.194	-0.075
-158.735	-4.455	-0.329	-0.223
-157.720	-200.000	0.032	0.137
-156.706	-200.000	-0.042	0.329
-155.691	-116.987	-0.093	0.017
-154.677	454.077	-0.099	-0.215
-153.662	79.552	-0.047	-0.050
-152.647	-60.892	-0.356	0.148
-151.633	800.000	-0.067	-0.261
-150.618	-33.702	0.082	0.045
-149.604	800.000	-0.044	0.189
-148.589	-29.072	0.082	-0.046
-147.574	-4.904	0.114	0.077
-146.560	70.287	0.088	0.090
-145.545	50.848	0.032	0.030
-144.531	-200.000	-0.012	0.162
-143.516	-200.000	0.040	-0.177
-142.502	53.987	-0.118	-0.112
-141.487	-200.000	0.013	0.294
-140.472	-182.872	0.183	0.003
-139.458	528.801	0.081	0.188
-138.443	-92.858	-0.176	0.048
-137.429	-200.000	0.086	0.379
-136.414	84.026	-0.122	-0.131
-135.399	206.241	0.199	-0.304
-134.385	-67.463	0.089	-0.034
-133.370	-126.967	0.482	0.070
-132.356	-18.800	0.178	0.109
-131.341	-45.828	-0.196	-0.095
-130.326	-94.578	0.330	0.088
-129.312	421.229	-0.075	0.157
-128.297	137.546	-0.073	0.094
-127.283	77.484	0.165	-0.172
-126.268	800.000	0.024	0.100
-125.253	150.009	0.125	0.167
-124.239	-200.000	-0.038	0.168
-123.224	511.884	0.044	-0.101
-122.210	-6.418	-0.177	-0.119
-121.195	-5.365	0.403	0.272
