DTS Sentinel unit serial number:	SN413079Multiplexer serial number:	ORYXHardware model number:	OX4-SRSoftware version number:	ORYX F/W v4.00 Oryx Data Collector v3.7.2.0data status	okinstallation	princeton_trtdifferential loss correction	single-endedforward channel	channel 2reverse channel	N/Adate	2019/09/15time	06:11:34forward acquisition time	60.00reverse acquisition time	0.00gamma	496.2192k internal	0.2326k external	0.2326temperature offset calibration	1.0034default loss term (dB/km)	0.3790temperature slope calibration	1.0000multiplexer offset coefficient	1.0000multiplexer slope coefficient	1.0000fibre end	0.00T internal ref (°C)	30.56T ext. ref 1 (°C)	4.82T ext. ref 2 (°C)	25.03length (m)	temperature (°C)	Stokes	anti-Stokes-747.200	122.949	-0.360	0.455
-746.185	309.651	-0.053	-0.101
-745.171	286.401	0.151	0.274
-744.156	-81.875	0.185	-0.061
-743.142	-126.959	0.154	0.023
-742.127	-139.692	0.079	0.008
-741.112	-200.000	0.041	-0.276
-740.098	-63.624	-0.141	0.058
-739.083	-51.279	0.228	-0.107
-738.069	-171.729	0.200	-0.007
-737.054	-38.214	0.091	0.049
-736.039	-54.786	-0.087	0.040
-735.025	-100.464	0.196	0.049
-734.010	-105.274	-0.457	-0.105
-732.996	-3.157	0.157	-0.110
-731.981	800.000	-0.083	0.264
-730.966	73.762	0.121	0.127
-729.952	-65.986	0.108	-0.043
-728.937	-200.000	-0.020	-0.104
-727.923	-77.239	-0.084	0.030
-726.908	298.640	0.055	-0.101
-725.894	-200.000	0.002	-0.246
-724.879	129.301	0.168	-0.216
-723.864	88.229	-0.075	0.084
-722.850	553.287	-0.151	-0.366
-721.835	800.000	-0.065	-0.231
-720.821	168.800	0.058	0.084
-719.806	30.956	-0.109	0.094
-718.791	-200.000	0.043	-0.366
-717.777	-96.413	-0.192	-0.051
-716.762	-200.000	0.103	0.455
-715.748	-200.000	0.004	-0.039
-714.733	98.294	0.209	0.242
-713.718	107.217	0.190	-0.227
-712.704	800.000	0.067	-0.277
-711.689	-164.973	-0.374	0.017
-710.675	182.588	0.089	-0.132
-709.660	133.210	0.076	-0.098
-708.645	-200.000	-0.040	0.308
-707.631	284.770	-0.221	-0.401
-706.616	72.880	0.090	-0.095
-705.602	-77.943	0.280	0.097
-704.587	712.024	-0.115	-0.306
-703.572	-41.310	0.029	-0.015
-702.558	-110.538	-0.187	-0.039
-701.543	-109.550	-0.015	0.003
-700.529	281.077	-0.140	-0.251
-699.514	800.000	-0.088	0.389
-698.499	-102.569	0.383	-0.092
-697.485	-118.510	-0.296	0.053
-696.470	69.098	0.209	0.216
-695.456	-51.397	0.215	0.101
-694.441	800.000	-0.025	0.098
-693.426	-200.000	-0.006	-0.146
-692.412	70.988	-0.175	-0.183
-691.397	-157.669	0.306	-0.018
-690.383	-200.000	0.041	0.265
-689.368	-200.000	-0.042	-0.222
-688.354	-34.857	-0.285	-0.156
-687.339	500.874	0.154	0.358
-686.324	-132.341	-0.265	0.034
-685.310	-200.000	0.001	0.283
-684.295	-200.000	-0.065	-0.306
-683.281	-53.672	0.344	0.158
-682.266	-200.000	0.009	0.087
-681.251	459.370	-0.155	-0.347
-680.237	50.006	-0.066	0.063
-679.222	2.742	0.109	-0.079
-678.208	-160.973	0.450	0.024
-677.193	-23.464	-0.167	-0.101
-676.178	-41.245	0.025	-0.013
-675.164	6.171	-0.158	-0.118
-674.149	-200.000	0.069	-0.344
-673.135	800.000	0.052	-0.150
-672.120	-200.000	-0.031	-0.387
-671.105	129.771	0.032	0.041
-670.091	3.323	-0.202	-0.148
-669.076	-200.000	0.007	0.055
-668.062	-51.871	-0.089	-0.042
-667.047	-200.000	0.053	0.282
-666.032	456.098	-0.081	0.180
-665.018	20.558	0.018	0.015
-664.003	-200.000	-0.017	0.142
-662.989	-94.674	-0.085	-0.023
-661.974	-200.000	0.013	0.207
-660.959	-46.522	-0.321	-0.158
-659.945	46.011	0.049	0.045
-658.930	118.659	0.070	0.087
-657.916	-200.000	-0.093	-0.551
-656.901	99.796	0.177	-0.206
-655.886	-121.379	0.079	0.013
-654.872	-32.974	-0.335	-0.187
-653.857	-200.000	-0.050	0.389
-652.843	-6.358	0.267	0.183
-651.828	539.087	-0.053	0.128
-650.814	85.134	-0.127	0.140
-649.799	-109.820	0.138	0.029
-648.784	-200.000	0.009	0.468
-647.770	252.181	0.127	-0.217
-646.755	-200.000	0.031	-0.251
-645.741	800.000	0.096	-0.347
-644.726	217.160	0.161	-0.258
-643.711	-115.176	-0.280	-0.053
-642.697	-149.102	0.081	-0.006
-641.682	-200.000	-0.002	-0.106
-640.668	184.593	-0.106	0.158
-639.653	279.637	0.215	-0.385
-638.638	-200.000	-0.053	-0.319
-637.624	-200.000	0.048	-0.310
-636.609	18.139	0.151	-0.121
-635.595	-116.725	-0.247	-0.045
-634.580	-123.700	0.265	-0.042
-633.565	175.729	-0.303	-0.442
-632.551	411.178	-0.182	-0.389
-631.536	-74.771	-0.379	0.137
-630.522	270.175	0.076	0.134
-629.507	-67.559	-0.115	0.045
-628.492	-42.898	-0.349	0.178
-627.478	-92.570	-0.322	0.091
-626.463	223.604	-0.125	-0.203
-625.449	-200.000	0.044	-0.331
-624.434	-80.901	-0.295	0.098
-623.419	368.167	-0.079	0.161
-622.405	-59.648	-0.245	0.105
-621.390	-191.099	-0.509	-0.005
-620.376	-200.000	0.028	-0.198
-619.361	-143.100	-0.227	0.022
-618.346	-170.298	0.188	-0.007
-617.332	800.000	-0.034	-0.142
-616.317	-94.557	0.107	-0.029
-615.303	603.506	-0.134	0.334
-614.288	-69.463	-0.147	0.057
-613.273	93.155	-0.141	0.160
-612.259	433.923	0.076	0.165
-611.244	549.068	-0.072	-0.174
-610.230	-54.271	-0.301	-0.137
-609.215	-87.276	-0.332	0.101
-608.201	-20.591	0.208	0.128
-607.186	135.884	-0.128	0.167
-606.171	-66.038	0.172	-0.069
-605.157	-200.000	0.015	-0.132
-604.142	-69.198	0.369	0.142
-603.128	-25.751	-0.052	0.031
-602.113	800.000	-0.088	-0.315
-601.098	-200.000	-0.009	-0.109
-600.084	-200.000	0.025	0.512
-599.069	-111.787	0.064	-0.013
-598.055	9.683	0.120	0.091
-597.040	-76.191	0.125	0.044
-596.025	-200.000	-0.003	0.094
-595.011	-125.384	-0.263	-0.040
-593.996	119.256	0.151	-0.187
-592.982	-110.833	0.186	-0.038
-591.967	-200.000	-0.018	0.129
-590.952	-200.000	0.031	0.361
-589.938	4.169	-0.061	-0.045
-588.923	-200.000	-0.082	-0.436
-587.909	-200.000	0.094	-0.469
-586.894	32.277	0.123	0.107
-585.879	133.197	-0.140	0.181
-584.865	-31.195	0.290	-0.164
-583.850	-85.165	0.264	0.083
-582.836	800.000	-0.102	-0.298
-581.821	36.876	0.145	0.128
-580.806	800.000	-0.086	0.299
-579.792	-73.284	0.137	0.050
-578.777	800.000	-0.050	0.155
-577.763	-200.000	0.012	-0.099
-576.748	-161.620	-0.067	0.003
-575.733	2.002	0.086	0.062
-574.719	52.024	-0.193	-0.184
-573.704	-15.752	-0.265	-0.169
-572.690	800.000	0.061	0.176
-571.675	-200.000	0.018	-0.251
-570.661	11.516	0.186	0.143
-569.646	-27.142	-0.177	0.103
-568.631	345.248	0.114	0.225
-567.617	-86.490	0.198	0.061
-566.602	-200.000	0.035	-0.529
-565.588	183.351	-0.167	-0.247
-564.573	51.984	-0.123	-0.117
-563.558	94.789	0.154	-0.175
-562.544	265.217	-0.090	0.156
-561.529	418.085	0.098	0.210
-560.515	-117.837	-0.307	0.055
-559.500	-80.521	0.426	-0.142
-558.485	-200.000	-0.016	-0.079
-557.471	69.808	-0.101	-0.104
-556.456	800.000	-0.014	0.057
-555.442	78.954	0.138	0.148
-554.427	201.037	0.033	-0.051
-553.412	83.424	0.121	0.132
-552.398	-6.840	0.228	0.155
-551.383	-77.996	-0.100	-0.034
-550.369	-56.880	0.148	0.066
-549.354	255.403	-0.109	0.187
-548.339	296.419	-0.153	0.280
-547.325	800.000	0.026	-0.097
-546.310	222.717	0.008	0.013
-545.296	434.651	-0.065	-0.142
-544.281	-200.000	-0.007	-0.099
-543.266	-63.858	0.185	-0.076
-542.252	-59.874	-0.065	0.028
-541.237	-41.196	0.366	-0.189
-540.223	-153.832	0.168	-0.012
-539.208	253.691	0.110	0.189
-538.193	-94.634	-0.175	0.048
-537.179	364.237	0.126	0.254
-536.164	-115.727	-0.214	0.040
-535.150	73.098	0.073	-0.076
-534.135	181.613	0.304	-0.447
-533.121	424.155	0.173	0.372
-532.106	19.139	-0.080	0.064
-531.091	343.379	-0.094	0.184
-530.077	33.558	-0.258	-0.224
-529.062	-143.699	0.141	0.013
-528.048	311.471	0.048	0.089
-527.033	-110.814	-0.232	0.048
-526.018	169.188	-0.170	0.243
-525.004	496.918	-0.044	0.101
-523.989	800.000	0.029	-0.083
-522.975	-11.909	-0.176	0.115
-521.960	386.421	-0.105	-0.217
-520.945	-89.278	0.286	-0.084
-519.931	-156.617	-0.100	-0.006
-518.916	-100.756	-0.201	0.050
-517.902	-8.524	-0.207	0.139
-516.887	800.000	0.068	-0.202
-515.872	-95.407	0.181	-0.049
-514.858	-135.656	-0.260	-0.031
-513.843	-200.000	0.058	0.403
-512.829	-68.938	0.199	0.077
-511.814	31.154	0.307	-0.263
-510.799	8.997	-0.048	-0.036
-509.785	-112.919	-0.288	-0.057
-508.770	800.000	0.015	-0.065
-507.756	-72.276	0.481	0.178
-506.741	421.895	0.101	0.218
-505.726	141.701	0.104	0.138
-504.712	800.000	0.044	-0.154
-503.697	-69.458	-0.092	-0.035
-502.683	-88.726	0.325	0.096
-501.668	-18.043	0.079	-0.049
-500.653	471.306	0.120	-0.269
-499.639	-76.936	-0.204	0.071
-498.624	129.755	-0.120	-0.154
-497.610	-136.069	0.315	0.037
-496.595	46.917	-0.177	-0.164
-495.581	50.014	0.023	0.022
-494.566	-200.000	-0.014	0.064
-493.551	-186.730	-0.081	-0.001
-492.537	800.000	0.057	0.181
-491.522	-102.933	-0.231	-0.055
-490.508	-200.000	0.026	-0.172
-489.493	-44.224	0.024	-0.012
-488.478	80.452	-0.191	-0.205
-487.464	118.806	0.157	-0.194
-486.449	-200.000	0.032	-0.192
-485.435	-161.864	-0.138	0.007
-484.420	50.148	-0.101	-0.095
-483.405	-150.082	0.320	-0.025
-482.391	49.070	-0.138	-0.130
-481.376	414.949	-0.094	0.200
-480.362	738.092	0.074	0.199
-479.347	-63.018	0.160	0.066
-478.332	-80.942	0.335	0.111
-477.318	-200.000	-0.056	0.278
-476.303	32.393	-0.106	-0.092
-475.289	248.486	-0.049	0.083
-474.274	-64.928	-0.097	0.039
-473.259	394.899	-0.080	0.167
-472.245	-97.260	-0.373	0.097
-471.230	85.857	-0.010	0.011
-470.216	-200.000	-0.002	0.096
-469.201	800.000	0.031	-0.091
-468.186	-56.233	-0.085	-0.038
-467.172	-53.339	0.325	0.148
-466.157	800.000	-0.065	-0.238
-465.143	-6.243	-0.209	0.142
-464.128	71.793	0.257	-0.267
-463.113	-124.391	-0.027	0.004
-462.099	-200.000	-0.036	0.183
-461.084	-49.345	0.232	-0.110
-460.070	-200.000	0.022	0.132
-459.055	66.212	0.175	0.178
-458.040	-71.869	0.394	0.146
-457.026	-177.534	-0.099	0.002
-456.011	100.491	-0.181	-0.210
-454.997	27.221	-0.154	0.129
-453.982	-19.123	-0.126	-0.078
-452.968	-72.214	0.118	0.043
-451.953	-109.173	-0.087	-0.019
-450.938	-118.919	-0.254	0.044
-449.924	178.150	0.167	-0.243
-448.909	8.149	0.200	0.150
-447.895	-161.146	-0.180	0.009
-446.880	-50.088	0.272	0.128
-445.865	800.000	0.092	0.311
-444.851	-200.000	0.040	0.280
-443.836	25.814	0.054	0.045
-442.822	800.000	0.079	-0.292
-441.807	8.518	-0.089	0.067
-440.792	-60.852	-0.115	-0.049
-439.778	-200.000	0.001	-0.165
-438.763	99.806	0.109	-0.126
-437.749	-140.860	-0.052	-0.005
-436.734	-149.207	0.070	-0.006
-435.719	712.829	0.124	-0.328
-434.705	-52.528	-0.037	-0.017
-433.690	-200.000	0.015	-0.253
-432.676	-89.169	0.170	0.050
-431.661	3.143	0.126	-0.091
-430.646	-200.000	0.000	-0.276
-429.632	-98.352	-0.402	-0.103
-428.617	136.352	-0.254	0.330
-427.603	424.565	-0.119	-0.255
-426.588	-153.765	0.291	0.020
-425.573	275.771	0.091	0.162
-424.559	89.450	0.154	0.171
-423.544	266.301	-0.178	-0.309
-422.530	-200.000	-0.028	-0.142
-421.515	800.000	-0.073	0.255
-420.500	415.380	0.023	-0.050
-419.486	800.000	0.041	-0.171
-418.471	800.000	-0.029	-0.099
-417.457	-68.424	0.025	-0.010
-416.442	645.324	0.066	-0.169
-415.428	253.922	-0.026	0.044
-414.413	5.283	-0.405	-0.297
-413.398	-92.339	-0.268	0.075
-412.384	-110.703	0.159	0.033
-411.369	420.955	-0.076	-0.163
-410.355	-24.347	-0.165	0.098
-409.340	18.905	-0.206	0.164
-408.325	-200.000	-0.013	0.131
-407.311	-200.000	0.067	-0.353
-406.296	-200.000	-0.087	0.411
-405.282	-200.000	-0.053	-0.246
-404.267	25.665	0.405	0.336
-403.252	800.000	-0.039	0.108
-402.238	-200.000	-0.035	0.227
-401.223	800.000	0.117	0.339
-400.209	-111.045	0.170	0.035
-399.194	-200.000	0.031	0.309
-398.179	-2.077	0.142	-0.099
-397.165	-125.779	-0.225	-0.034
-396.150	-26.908	0.216	0.126
-395.136	-136.296	0.277	0.032
-394.121	105.404	0.251	-0.295
-393.106	-200.000	-0.012	-0.164
-392.092	-26.639	-0.135	0.078
-391.077	-200.000	-0.020	-0.117
-390.063	800.000	-0.074	0.260
-389.048	800.000	0.050	-0.167
-388.033	9.677	-0.310	0.233
-387.019	-111.742	0.242	0.049
-386.004	-181.383	0.089	-0.002
-384.990	-200.000	-0.031	-0.232
-383.975	192.105	0.055	-0.083
-382.960	522.233	-0.133	0.311
-381.946	9.516	0.221	-0.166
-380.931	245.257	0.143	0.239
-379.917	-8.707	-0.036	-0.024
-378.902	-10.356	0.229	0.151
-377.888	130.441	0.085	-0.108
-376.873	30.154	0.163	-0.138
-375.858	-75.201	-0.023	0.008
-374.844	-32.432	0.241	0.134
-373.829	-34.365	0.213	-0.116
-372.815	-38.164	0.112	0.059
-371.800	-17.395	-0.076	-0.047
-370.785	-47.646	0.331	-0.160
-369.771	-99.852	0.166	-0.041
-368.756	-95.282	-0.199	0.053
-367.742	-70.606	0.151	0.057
-366.727	385.649	0.063	-0.129
-365.712	8.674	0.119	0.089
-364.698	-170.802	0.153	0.005
-363.683	58.093	0.126	-0.122
-362.669	-80.381	0.368	-0.122
-361.654	325.996	-0.070	0.134
-360.639	-175.761	-0.090	0.002
-359.625	-48.105	-0.302	0.145
-358.610	-5.015	0.139	0.095
-357.596	-163.950	0.200	0.009
-356.581	-133.917	0.131	-0.016
-355.566	800.000	-0.038	0.136
-354.552	427.481	-0.135	0.289
-353.537	554.708	0.080	-0.191
-352.523	-26.778	-0.172	-0.100
-351.508	127.077	-0.080	0.100
-350.493	-120.018	0.167	0.029
-349.479	252.066	0.058	-0.097
-348.464	773.270	-0.080	0.218
-347.450	-156.765	0.336	-0.021
-346.435	-44.124	-0.270	0.135
-345.420	-200.000	0.001	0.221
-344.406	16.195	-0.141	0.110
-343.391	55.426	0.158	-0.151
-342.377	12.048	-0.280	-0.214
-341.362	374.985	0.178	0.361
-340.348	-31.461	-0.441	0.246
-339.333	359.758	0.092	-0.183
-338.318	162.049	0.202	-0.281
-337.304	-39.873	-0.256	-0.133
-336.289	-200.000	0.007	-0.160
-335.275	-108.281	-0.151	-0.032
-334.260	681.268	-0.020	-0.052
-333.245	800.000	-0.020	0.064
-332.231	-42.952	-0.110	0.056
-331.216	457.654	0.081	0.178
-330.202	758.424	0.106	0.284
-329.187	-136.457	0.182	-0.021
-328.172	164.543	-0.150	0.210
-327.158	-153.411	-0.375	0.026
-326.143	29.012	-0.086	-0.072
-325.129	-124.913	0.351	-0.054
-324.114	273.803	-0.047	0.082
-323.099	-200.000	0.008	-0.119
-322.085	121.976	-0.159	0.197
-321.070	-21.127	0.241	0.146
-320.056	-76.658	0.379	0.132
-319.041	-200.000	-0.096	0.468
-318.026	-200.000	0.007	-0.073
-317.012	800.000	-0.063	0.207
-315.997	-25.246	-0.341	-0.200
-314.983	800.000	-0.030	-0.086
-313.968	800.000	0.117	0.363
-312.953	-113.529	0.218	-0.042
-311.939	89.807	-0.152	0.169
-310.924	274.390	-0.189	0.332
-309.910	396.511	0.106	0.219
-308.895	9.396	-0.219	-0.165
-307.880	277.856	-0.044	-0.078
-306.866	95.337	0.124	-0.140
-305.851	301.278	0.142	0.260
-304.837	-200.000	0.020	-0.136
-303.822	346.864	-0.207	-0.404
-302.807	-45.894	-0.219	-0.107
-301.793	120.713	-0.090	-0.111
-300.778	93.840	-0.298	-0.335
-299.764	-30.695	-0.357	-0.200
-298.749	-21.861	0.196	-0.118
-297.735	88.309	-0.136	-0.149
-296.720	-200.000	-0.007	0.052
-295.705	366.448	-0.070	0.139
-294.691	206.933	-0.038	-0.058
-293.676	-190.996	0.112	-0.001
-292.662	59.842	-0.187	-0.183
-291.647	-65.738	0.264	-0.105
-290.632	800.000	0.087	0.306
-289.618	-68.826	-0.074	-0.028
-288.603	-88.883	0.356	-0.105
-287.589	228.384	-0.068	0.110
-286.574	-44.135	-0.227	0.113
-285.559	-64.404	0.088	0.035
-284.545	14.873	0.096	0.074
-283.530	-72.085	-0.120	0.044
-282.516	131.488	0.228	-0.290
-281.501	-33.053	0.250	0.138
-280.486	130.656	-0.061	0.077
-279.472	66.159	-0.173	0.174
-278.457	-113.952	0.197	0.038
-277.443	-72.480	-0.430	0.158
-276.428	-200.000	-0.026	-0.229
-275.413	3.298	0.072	-0.052
-274.399	-200.000	-0.023	0.287
-273.384	49.877	0.193	0.180
-272.370	-200.000	-0.028	-0.281
-271.355	568.747	-0.074	0.179
-270.340	-102.850	0.080	-0.019
-269.326	-90.794	-0.182	0.052
-268.311	79.162	0.179	-0.190
-267.297	-190.180	-0.065	-0.001
-266.282	164.638	0.163	0.228
-265.267	199.536	0.097	0.147
-264.253	297.387	0.118	-0.214
-263.238	-4.333	0.333	-0.228
-262.224	-81.996	-0.089	-0.029
-261.209	25.359	-0.270	0.222
-260.195	-15.446	0.202	0.128
-259.180	-130.768	-0.227	0.030
-258.165	-121.172	0.284	-0.047
-257.151	-29.434	0.077	0.043
-256.136	-200.000	0.032	0.221
-255.122	130.023	0.070	-0.089
-254.107	-3.862	-0.146	0.100
-253.092	600.913	0.029	-0.070
-252.078	247.993	0.119	-0.199
-251.063	8.449	0.070	0.052
-250.049	41.469	-0.256	0.229
-249.034	-197.747	0.291	-0.002
-248.019	-146.596	-0.075	0.006
-247.005	-8.767	0.140	-0.093
-245.990	-44.692	-0.173	0.086
-244.976	-154.135	-0.057	-0.004
-243.961	-200.000	0.017	-0.248
-242.946	-134.795	-0.220	0.026
-241.932	-75.090	0.356	0.126
-240.917	-56.238	0.148	0.065
-239.903	302.016	-0.071	-0.130
-238.888	-65.114	0.041	-0.016
-237.873	-200.000	-0.004	0.079
-236.859	-20.468	-0.143	-0.087
-235.844	-50.487	-0.039	-0.018
-234.830	-142.466	-0.100	-0.010
-233.815	-200.000	0.022	0.139
-232.800	30.945	0.150	-0.127
-231.786	172.931	0.160	-0.227
-230.771	288.445	0.116	-0.208
-229.757	-62.511	0.178	-0.073
-228.742	152.008	-0.128	0.172
-227.727	-121.236	-0.069	0.011
-226.713	198.842	0.086	0.130
-225.698	637.784	0.012	0.029
-224.684	-148.737	0.267	0.021
-223.669	-107.083	-0.087	-0.019
-222.655	379.368	-0.089	0.180
-221.640	-200.000	-0.003	-0.016
-220.625	30.860	-0.124	0.105
-219.611	-154.538	-0.187	0.012
-218.596	92.195	0.174	0.194
-217.582	-54.015	0.042	-0.019
-216.567	-200.000	-0.031	0.244
-215.552	150.311	-0.036	-0.048
-214.538	-13.643	-0.321	-0.205
-213.523	-7.585	0.118	0.079
-212.509	-56.003	0.540	0.238
-211.494	18.381	0.139	0.110
-210.479	59.763	0.062	-0.060
-209.465	800.000	0.103	-0.368
-208.450	435.613	-0.087	0.187
-207.436	184.289	0.123	0.180
-206.421	257.527	0.252	-0.428
-205.406	-143.984	-0.083	-0.008
-204.392	42.212	-0.284	0.254
-203.377	68.671	0.218	-0.220
-202.363	40.885	-0.245	-0.219
-201.348	-200.000	0.012	-0.183
-200.333	375.370	0.089	0.179
-199.319	-105.482	-0.181	0.041
-198.304	800.000	0.054	-0.151
-197.290	-35.104	-0.179	-0.096
-196.275	-200.000	0.054	0.237
-195.260	-66.152	0.237	-0.093
-194.246	-90.328	0.239	0.068
-193.231	-112.940	-0.234	-0.046
-192.217	-200.000	0.003	-0.130
-191.202	-97.848	-0.360	0.092
-190.187	-15.775	-0.241	-0.151
-189.173	300.911	-0.100	0.183
-188.158	6.421	-0.145	0.107
-187.144	55.158	0.153	-0.146
-186.129	-200.000	-0.004	0.164
-185.114	-95.427	-0.017	-0.005
-184.100	380.937	0.199	-0.402
-183.085	291.285	-0.048	-0.087
-182.071	404.830	-0.126	0.262
-181.056	90.921	0.115	-0.127
-180.042	-200.000	0.020	-0.181
-179.027	-200.000	0.062	-0.323
-178.012	-102.009	-0.227	-0.054
-176.998	-32.558	0.138	0.076
-175.983	-200.000	-0.021	-0.167
-174.969	235.763	-0.074	0.121
-173.954	41.928	0.142	0.127
-172.939	176.413	-0.155	-0.222
-171.925	35.630	-0.133	-0.115
-170.910	-143.181	-0.291	0.028
-169.896	255.419	-0.163	-0.275
-168.881	-7.003	-0.216	-0.144
-167.866	-127.278	-0.262	0.038
-166.852	240.712	-0.125	-0.205
-165.837	-10.815	-0.187	-0.122
-164.823	503.912	-0.100	-0.228
-163.808	-200.000	-0.006	-0.167
-162.793	-82.149	0.194	0.062
-161.779	-149.051	-0.300	0.024
-160.764	-200.000	-0.028	0.369
-159.750	14.218	-0.092	0.071
-158.735	-200.000	0.076	0.394
-157.720	2.773	-0.084	-0.060
-156.706	58.328	-0.185	0.179
-155.691	-108.001	0.325	0.070
-154.677	-2.813	0.057	0.039
-153.662	98.970	-0.083	-0.094
-152.647	-153.433	-0.402	0.027
-151.633	-200.000	0.057	0.259
-150.618	84.496	-0.147	-0.159
-149.604	-200.000	-0.035	-0.265
-148.589	-12.268	-0.267	-0.172
-147.574	-59.952	0.177	-0.075
-146.560	133.998	-0.022	-0.028
-145.545	-105.799	-0.023	-0.005
-144.531	-200.000	-0.008	0.305
-143.516	-40.007	-0.090	-0.046
-142.502	-200.000	-0.036	-0.222
-141.487	800.000	0.196	0.547
-140.472	-82.344	0.383	0.123
-139.458	800.000	0.053	0.174
-138.443	-5.277	-0.158	0.107
-137.429	800.000	0.070	-0.290
-136.414	7.319	-0.134	-0.099
-135.399	-21.853	0.280	-0.168
-134.385	343.426	0.084	-0.161
-133.370	248.947	-0.042	-0.071
-132.356	-39.668	0.129	0.066
-131.341	307.983	0.058	0.107
-130.326	124.061	-0.107	0.133
-129.312	-200.000	-0.050	0.267
-128.297	-64.393	0.015	-0.006
-127.283	90.327	0.158	0.174
-126.268	-64.523	0.210	0.084
-125.253	143.578	0.206	-0.271
-124.239	536.118	-0.168	0.392
-123.224	-52.791	0.338	-0.153
-122.210	47.643	0.161	-0.148
-121.195	-123.398	0.357	-0.056
