DTS Sentinel unit serial number:	SN413079Multiplexer serial number:	ORYXHardware model number:	OX4-SRSoftware version number:	ORYX F/W v4.00 Oryx Data Collector v3.7.2.0data status	okinstallation	princeton_trtdifferential loss correction	single-endedforward channel	channel 2reverse channel	N/Adate	2019/09/13time	03:39:35forward acquisition time	60.00reverse acquisition time	0.00gamma	496.2192k internal	0.2334k external	0.2334temperature offset calibration	1.0191default loss term (dB/km)	0.3790temperature slope calibration	1.0000multiplexer offset coefficient	1.0000multiplexer slope coefficient	1.0000fibre end	0.00T internal ref (°C)	27.25T ext. ref 1 (°C)	4.09T ext. ref 2 (°C)	21.63length (m)	temperature (°C)	Stokes	anti-Stokes-747.200	800.000	0.096	-0.265
-746.185	170.212	-0.252	0.363
-745.171	-39.447	0.189	-0.100
-744.156	197.644	-0.080	-0.123
-743.142	-91.310	0.214	-0.061
-742.127	-200.000	0.002	0.493
-741.112	-200.000	0.044	0.203
-740.098	612.471	-0.085	0.215
-739.083	0.085	0.263	0.188
-738.069	235.274	-0.191	0.317
-737.054	800.000	0.058	-0.255
-736.039	144.940	-0.217	0.292
-735.025	-95.390	0.511	0.138
-734.010	-200.000	0.036	-0.379
-732.996	-148.958	-0.286	-0.023
-731.981	-200.000	0.035	-0.203
-730.966	-136.158	0.335	0.039
-729.952	-200.000	0.019	-0.095
-728.937	-200.000	0.007	-0.120
-727.923	-131.693	-0.083	0.011
-726.908	175.204	0.190	-0.276
-725.894	800.000	-0.022	-0.065
-724.879	80.631	-0.094	-0.102
-723.864	192.939	0.119	0.180
-722.850	-58.909	0.322	-0.140
-721.835	54.675	0.031	-0.030
-720.821	-126.962	-0.194	0.029
-719.806	800.000	0.104	-0.345
-718.791	-54.447	0.206	-0.094
-717.777	29.690	0.085	-0.073
-716.762	-128.085	0.253	-0.036
-715.748	-22.328	0.282	-0.172
-714.733	800.000	-0.022	-0.063
-713.718	800.000	0.040	-0.123
-712.704	0.458	-0.049	-0.035
-711.689	56.928	0.119	-0.116
-710.675	-99.957	-0.221	-0.055
-709.660	91.829	0.144	-0.163
-708.645	-110.178	0.226	0.047
-707.631	-121.180	0.076	-0.013
-706.616	-120.279	0.057	-0.010
-705.602	391.549	-0.159	-0.332
-704.587	-60.230	0.210	-0.090
-703.572	-60.425	-0.261	0.111
-702.558	31.293	-0.210	0.180
-701.543	-119.442	0.286	-0.050
-700.529	116.457	-0.209	-0.257
-699.514	-199.361	-0.177	-0.001
-698.499	220.580	-0.214	-0.344
-697.485	-102.714	-0.136	-0.032
-696.470	513.180	0.076	-0.178
-695.456	77.575	-0.032	0.034
-694.441	462.769	0.056	0.125
-693.426	99.004	-0.213	-0.247
-692.412	-54.534	-0.411	-0.187
-691.397	-133.683	0.142	0.018
-690.383	-33.194	0.298	-0.166
-689.368	186.657	0.094	0.141
-688.354	68.324	-0.182	0.187
-687.339	800.000	0.090	0.268
-686.324	-200.000	0.031	-0.225
-685.310	800.000	-0.076	-0.312
-684.295	-200.000	-0.034	0.178
-683.281	-161.341	0.159	0.008
-682.266	-200.000	-0.027	-0.193
-681.251	-15.860	-0.130	-0.083
-680.237	-81.380	-0.204	-0.067
-679.222	-144.370	0.263	0.024
-678.208	277.027	0.094	-0.167
-677.193	-66.398	0.100	-0.040
-676.178	-200.000	-0.043	0.244
-675.164	36.672	-0.128	-0.113
-674.149	-200.000	0.011	-0.155
-673.135	303.884	-0.141	0.262
-672.120	-105.226	-0.045	0.010
-671.105	480.773	0.091	0.206
-670.091	-200.000	-0.046	-0.216
-669.076	102.035	0.097	-0.113
-668.062	-152.314	0.180	-0.013
-667.047	12.941	0.213	0.165
-666.032	-115.766	0.223	-0.042
-665.018	-69.656	-0.171	-0.065
-664.003	-143.976	0.599	-0.056
-662.989	42.975	0.108	-0.098
-661.974	-200.000	0.002	-0.166
-660.959	-200.000	0.040	-0.197
-659.945	43.729	0.076	-0.069
-658.930	-98.896	-0.210	-0.053
-657.916	17.926	-0.097	0.077
-656.901	-95.306	-0.461	-0.124
-655.886	800.000	0.074	-0.237
-654.872	800.000	-0.028	0.078
-653.857	-42.043	0.132	-0.068
-652.843	111.419	0.140	0.169
-651.828	-59.494	0.055	0.024
-650.814	-49.285	0.208	-0.100
-649.799	159.036	-0.219	-0.305
-648.784	81.968	0.157	0.171
-647.770	-48.690	0.345	0.166
-646.755	166.839	0.094	0.134
-645.741	212.125	-0.120	0.189
-644.726	-153.449	0.297	0.021
-643.711	363.551	-0.028	-0.056
-642.697	127.804	-0.169	0.216
-641.682	-122.064	0.153	-0.025
-640.668	-119.566	-0.120	0.021
-639.653	89.020	-0.140	-0.157
-638.638	-200.000	0.052	0.269
-637.624	-92.335	0.179	-0.050
-636.609	-95.911	0.134	-0.036
-635.595	-131.637	0.144	0.019
-634.580	792.907	0.078	-0.216
-633.565	-169.609	-0.205	0.007
-632.551	-107.763	0.060	0.013
-631.536	-0.778	-0.106	-0.075
-630.522	-55.276	-0.210	0.094
-629.507	-110.393	0.123	-0.026
-628.492	800.000	-0.187	0.628
-627.478	-66.124	-0.168	0.067
-626.463	292.146	0.117	-0.214
-625.449	-15.096	-0.113	-0.072
-624.434	86.445	-0.159	0.175
-623.419	-124.395	0.122	0.019
-622.405	-91.603	0.502	-0.143
-621.390	-33.056	0.126	0.070
-620.376	112.472	-0.183	0.221
-619.361	-200.000	-0.010	-0.257
-618.346	235.100	0.066	0.110
-617.332	-141.720	-0.397	-0.040
-616.317	-142.623	-0.270	0.026
-615.303	4.459	0.073	-0.053
-614.288	-13.570	0.107	-0.069
-613.273	-118.183	-0.089	0.016
-612.259	-41.529	-0.175	0.090
-611.244	-200.000	0.004	-0.021
-610.230	49.516	-0.129	0.122
-609.215	-200.000	-0.010	0.154
-608.201	-71.105	-0.348	-0.131
-607.186	705.612	0.031	0.083
-606.171	370.848	-0.068	-0.137
-605.157	129.212	0.086	-0.110
-604.142	-118.189	0.139	0.025
-603.128	-29.034	0.064	-0.037
-602.113	-99.529	-0.269	-0.068
-601.098	-96.641	0.028	-0.007
-600.084	323.336	0.032	0.061
-599.069	-200.000	0.023	-0.160
-598.055	-179.488	-0.208	0.005
-597.040	52.777	-0.068	0.065
-596.025	-200.000	-0.053	-0.246
-595.011	-200.000	-0.006	0.164
-593.996	-34.354	-0.093	0.051
-592.982	-200.000	0.060	0.305
-591.967	-200.000	0.056	-0.252
-590.952	-101.030	-0.241	-0.059
-589.938	-160.334	0.372	0.020
-588.923	-57.907	-0.070	-0.031
-587.909	-200.000	0.001	-0.036
-586.894	-11.723	0.074	-0.048
-585.879	-50.383	0.196	0.092
-584.865	283.514	0.096	0.173
-583.850	-200.000	-0.009	0.066
-582.836	-55.591	0.393	-0.176
-581.821	-152.634	-0.199	0.014
-580.806	-200.000	0.007	0.164
-579.792	-200.000	0.007	0.073
-578.777	330.138	0.114	-0.218
-577.763	-52.377	-0.117	-0.054
-576.748	693.342	-0.099	-0.260
-575.733	-168.247	-0.299	0.012
-574.719	-113.410	-0.261	-0.051
-573.704	800.000	0.022	0.078
-572.690	-57.328	0.177	0.078
-571.675	1.754	0.213	-0.153
-570.661	-200.000	0.061	-0.272
-569.646	-176.109	-0.290	-0.008
-568.631	77.611	-0.282	-0.300
-567.617	661.205	-0.072	-0.186
-566.602	-86.686	0.073	-0.022
-565.588	-74.219	0.267	-0.096
-564.573	-193.061	0.321	0.003
-563.558	26.630	-0.274	-0.229
-562.544	-200.000	-0.023	0.358
-561.529	-17.060	-0.060	0.038
-560.515	-32.893	0.114	-0.063
-559.500	13.879	0.182	0.141
-558.485	-95.255	0.147	0.039
-557.471	35.721	-0.527	0.462
-556.456	-30.649	0.201	-0.113
-555.442	0.505	-0.373	0.266
-554.427	101.619	-0.142	0.165
-553.412	-200.000	0.061	-0.556
-552.398	44.861	0.079	-0.072
-551.383	800.000	0.097	-0.286
-550.369	-200.000	-0.015	0.227
-549.354	-91.218	-0.202	-0.058
-548.339	-35.940	-0.054	0.029
-547.325	800.000	0.002	-0.008
-546.310	-70.395	0.264	0.100
-545.296	-63.862	0.235	0.096
-544.281	-4.988	-0.079	-0.054
-543.266	-158.761	0.199	-0.011
-542.252	94.527	0.096	-0.108
-541.237	-133.900	0.283	0.035
-540.223	-25.984	-0.099	-0.058
-539.208	-164.798	-0.193	-0.009
-538.193	-200.000	-0.035	0.183
-537.179	800.000	0.079	0.272
-536.164	74.210	-0.219	-0.230
-535.150	79.721	-0.018	0.020
-534.135	115.981	0.060	-0.073
-533.121	-200.000	0.037	-0.222
-532.106	800.000	-0.052	0.217
-531.091	450.396	0.049	-0.107
-530.077	-115.907	-0.329	0.061
-529.062	-200.000	-0.007	0.171
-528.048	-45.057	0.102	0.050
-527.033	800.000	-0.133	-0.388
-526.018	-149.351	0.220	0.017
-525.004	590.457	-0.019	0.047
-523.989	-154.813	0.309	0.020
-522.975	146.273	0.065	-0.087
-521.960	121.065	-0.253	0.314
-520.945	-200.000	0.020	0.123
-519.931	-84.686	-0.303	-0.095
-518.916	-113.070	0.173	0.034
-517.902	800.000	-0.019	0.071
-516.887	-50.906	0.224	-0.105
-515.872	-165.360	0.086	0.004
-514.858	221.953	-0.051	0.082
-513.843	800.000	0.021	0.081
-512.829	331.508	0.159	0.306
-511.814	800.000	0.106	0.388
-510.799	239.061	0.163	-0.269
-509.785	-183.670	0.272	0.005
-508.770	800.000	-0.022	-0.092
-507.756	-200.000	0.007	0.242
-506.741	-200.000	-0.021	0.180
-505.726	118.124	-0.221	0.271
-504.712	-182.493	0.038	0.001
-503.697	117.784	0.129	-0.158
-502.683	114.649	0.167	-0.203
-501.668	800.000	-0.077	-0.235
-500.653	-200.000	0.016	-0.132
-499.639	2.323	-0.160	0.115
-498.624	94.819	-0.177	0.200
-497.610	-158.454	0.032	0.002
-496.595	675.411	0.117	0.301
-495.581	-61.845	0.329	-0.137
-494.566	-200.000	-0.041	0.280
-493.551	309.077	-0.106	-0.198
-492.537	204.560	0.117	-0.180
-491.522	376.650	-0.123	-0.251
-490.508	-82.620	-0.236	-0.076
-489.493	-86.931	0.148	-0.045
-488.478	-21.793	0.091	0.055
-487.464	106.900	0.234	0.277
-486.449	110.901	0.049	0.058
-485.435	-200.000	-0.018	-0.096
-484.420	28.690	0.079	-0.066
-483.405	47.574	-0.125	-0.116
-482.391	11.840	-0.306	-0.234
-481.376	-40.994	0.091	-0.047
-480.362	443.114	0.115	0.250
-479.347	-5.712	-0.091	0.062
-478.332	800.000	0.052	-0.219
-477.318	-200.000	-0.038	-0.194
-476.303	-149.294	0.222	0.018
-475.289	300.649	0.136	-0.249
-474.274	14.010	-0.195	0.151
-473.259	619.742	0.075	0.187
-472.245	390.151	0.158	0.326
-471.230	196.971	-0.102	-0.155
-470.216	-46.456	0.239	-0.116
-469.201	126.855	0.243	-0.306
-468.186	-76.435	-0.225	0.079
-467.172	618.953	-0.067	-0.167
-466.157	25.484	0.190	-0.157
-465.143	655.570	-0.026	-0.067
-464.128	-149.360	0.244	0.019
-463.113	72.208	-0.042	-0.044
-462.099	-156.376	-0.076	0.005
-461.084	729.962	-0.078	-0.208
-460.070	-41.572	-0.174	-0.089
-459.055	114.538	-0.034	-0.041
-458.040	-200.000	-0.004	-0.063
-457.026	319.965	-0.134	-0.253
-456.011	221.682	0.151	0.241
-454.997	0.977	-0.172	-0.123
-453.982	-139.858	-0.214	-0.022
-452.968	-14.299	-0.061	0.039
-451.953	76.049	0.071	-0.074
-450.938	-14.371	-0.319	-0.204
-449.924	-200.000	-0.002	-0.128
-448.909	-200.000	0.006	0.163
-447.895	191.527	-0.145	-0.217
-446.880	114.556	-0.232	-0.281
-445.865	93.296	-0.091	0.102
-444.851	134.279	0.242	0.312
-443.836	-108.641	0.128	-0.027
-442.822	24.177	0.240	0.197
-441.807	800.000	-0.036	-0.101
-440.792	-38.142	-0.124	-0.065
-439.778	169.605	-0.003	0.005
-438.763	182.396	-0.026	-0.038
-437.749	-95.433	0.120	0.032
-436.734	267.773	-0.087	-0.152
-435.719	175.136	-0.129	0.186
-434.705	-97.198	-0.073	0.019
-433.690	574.402	0.140	0.339
-432.676	155.975	0.160	0.218
-431.661	-200.000	0.048	0.273
-430.646	-43.932	-0.114	-0.057
-429.632	-62.221	0.213	0.088
-428.617	-90.949	0.196	0.056
-427.603	604.488	0.077	-0.190
-426.588	376.479	0.084	0.171
-425.573	-22.882	-0.137	0.082
-424.559	-33.583	-0.185	0.101
-423.544	-23.266	0.186	-0.111
-422.530	-104.653	0.239	-0.055
-421.515	-18.327	-0.204	-0.127
-420.500	-169.301	-0.352	-0.013
-419.486	-40.752	0.120	-0.062
-418.471	-60.147	-0.124	0.052
-417.457	-93.038	0.290	-0.080
-416.442	221.226	0.124	-0.198
-415.428	-200.000	0.138	0.000
-414.413	800.000	-0.039	-0.137
-413.398	-118.989	-0.377	-0.066
-412.384	-200.000	-0.001	-0.202
-411.369	-98.862	-0.263	-0.066
-410.355	187.284	-0.085	-0.126
-409.340	-200.000	0.052	0.383
-408.325	-200.000	0.056	0.276
-407.311	-200.000	0.014	-0.082
-406.296	-200.000	-0.009	-0.150
-405.282	-141.650	0.153	0.015
-404.267	78.756	-0.130	-0.138
-403.252	-48.682	0.064	0.031
-402.238	-101.805	-0.092	0.022
-401.223	479.857	-0.045	0.101
-400.209	120.883	-0.105	0.130
-399.194	800.000	0.042	0.128
-398.179	605.849	0.079	-0.195
-397.165	-98.167	-0.108	-0.028
-396.150	-169.904	-0.264	0.009
-395.136	-164.960	0.249	-0.011
-394.121	-64.212	0.136	-0.055
-393.106	-10.128	-0.240	-0.158
-392.092	-103.998	-0.321	-0.074
-391.077	-109.910	-0.239	0.050
-390.063	217.574	0.058	0.092
-389.048	-26.742	-0.046	-0.027
-388.033	-200.000	-0.024	0.108
-387.019	20.608	0.075	-0.060
-386.004	350.714	-0.118	-0.231
-384.990	800.000	-0.091	0.302
-383.975	-38.193	0.191	-0.101
-382.960	-75.575	-0.097	0.034
-381.946	3.701	0.141	0.102
-380.931	-49.981	0.215	-0.101
-379.917	-151.460	-0.298	-0.022
-378.902	683.905	-0.097	-0.250
-377.888	18.132	0.105	0.083
-376.873	35.638	0.082	0.071
-375.858	145.981	0.155	0.205
-374.844	-78.602	0.196	0.066
-373.829	-22.696	0.341	-0.204
-372.815	67.139	-0.281	-0.284
-371.800	771.619	0.073	-0.197
-370.785	-101.221	-0.398	-0.096
-369.771	45.548	0.169	0.154
-368.756	510.677	0.058	-0.134
-367.742	-28.588	0.028	0.016
-366.727	-115.763	-0.206	0.038
-365.712	651.017	0.093	0.237
-364.698	-200.000	0.042	0.565
-363.683	12.197	-0.157	0.120
-362.669	800.000	0.046	0.170
-361.654	-34.440	-0.162	-0.088
-360.639	-77.824	-0.126	-0.043
-359.625	185.062	-0.132	-0.194
-358.610	238.774	-0.214	-0.353
-357.596	800.000	-0.100	-0.284
-356.581	66.954	-0.149	-0.151
-355.566	-12.052	-0.392	-0.254
-354.552	800.000	0.089	-0.254
-353.537	800.000	-0.045	-0.128
-352.523	-123.591	0.396	-0.062
-351.508	-36.036	-0.425	0.228
-350.493	800.000	-0.052	-0.179
-349.479	-44.199	-0.108	0.054
-348.464	-200.000	-0.049	0.239
-347.450	-108.878	0.311	-0.066
-346.435	45.017	-0.142	-0.129
-345.420	253.457	-0.156	0.263
-344.406	-32.959	-0.200	-0.110
-343.391	87.025	-0.073	0.079
-342.377	-200.000	-0.011	-0.160
-341.362	-27.568	0.149	0.086
-340.348	-63.369	0.108	-0.044
-339.333	800.000	-0.006	-0.025
-338.318	401.719	-0.124	0.257
-337.304	-140.622	0.258	-0.026
-336.289	-65.717	-0.209	0.083
-335.275	800.000	-0.015	0.066
-334.260	29.894	0.147	0.124
-333.245	800.000	0.101	0.409
-332.231	335.096	-0.060	-0.115
-331.216	-21.041	0.268	0.162
-330.202	-200.000	0.002	-0.168
-329.187	-85.526	0.164	-0.050
-328.172	371.265	0.036	-0.072
-327.158	-200.000	-0.023	-0.330
-326.143	-62.297	-0.074	-0.031
-325.129	1.492	-0.097	0.069
-324.114	-200.000	0.055	0.239
-323.099	-11.005	0.194	0.127
-322.085	-68.314	0.275	-0.105
-321.070	504.678	-0.027	0.062
-320.056	26.662	-0.051	0.042
-319.041	4.392	0.126	-0.092
-318.026	-62.139	0.226	-0.093
-317.012	-66.708	-0.105	0.041
-315.997	-200.000	0.082	-0.372
-314.983	-195.825	-0.152	0.001
-313.968	188.684	-0.075	0.111
-312.953	-43.772	0.088	0.044
-311.939	-200.000	0.048	0.231
-310.924	-147.118	0.210	0.018
-309.910	-88.848	-0.074	-0.022
-308.895	-200.000	0.004	0.375
-307.880	44.596	0.247	-0.224
-306.866	-200.000	-0.043	-0.287
-305.851	371.026	0.103	-0.206
-304.837	173.694	-0.244	0.347
-303.822	-74.177	-0.067	-0.024
-302.807	-1.934	0.077	0.053
-301.793	-181.573	0.544	-0.010
-300.778	73.413	-0.447	0.462
-299.764	367.631	0.075	-0.149
-298.749	158.542	0.132	-0.181
-297.735	305.495	0.106	-0.195
-296.720	-200.000	-0.041	0.211
-295.705	246.171	0.128	0.213
-294.691	800.000	-0.138	-0.395
-293.676	-200.000	0.002	-0.073
-292.662	30.134	-0.004	0.004
-291.647	800.000	0.140	0.389
-290.632	262.799	0.115	-0.196
-289.618	139.352	-0.087	-0.113
-288.603	85.937	-0.140	0.153
-287.589	671.189	-0.105	0.268
-286.574	434.749	-0.135	0.290
-285.559	119.102	0.059	-0.072
-284.545	59.438	-0.109	-0.106
-283.530	304.068	0.029	0.053
-282.516	-16.989	-0.135	0.084
-281.501	-7.896	0.420	0.280
-280.486	407.929	0.101	-0.212
-279.472	800.000	0.023	0.075
-278.457	-45.990	0.303	0.148
-277.443	22.543	-0.083	0.067
-276.428	-168.807	-0.418	-0.016
-275.413	-33.916	-0.083	0.045
-274.399	800.000	0.082	0.304
-273.384	-53.497	0.344	-0.155
-272.370	54.451	0.249	0.236
-271.355	-200.000	-0.006	0.275
-270.340	-90.599	0.271	-0.077
-269.326	-58.551	-0.281	-0.120
-268.311	-47.767	0.114	-0.055
-267.297	-200.000	-0.036	0.198
-266.282	-200.000	0.046	0.321
-265.267	363.489	-0.065	-0.129
-264.253	-128.369	-0.269	0.038
-263.238	16.981	-0.212	-0.166
-262.224	-23.569	0.057	-0.034
-261.209	-159.724	-0.334	-0.018
-260.195	61.192	0.159	0.156
-259.180	800.000	0.061	0.168
-258.165	800.000	0.081	-0.260
-257.151	-31.640	0.078	0.043
-256.136	90.484	0.027	0.030
-255.122	-200.000	-0.016	-0.159
-254.107	-13.009	0.185	0.118
-253.092	-200.000	-0.011	-0.088
-252.078	-132.438	0.155	-0.020
-251.063	137.125	-0.231	-0.297
-250.049	-200.000	-0.017	-0.205
-249.034	89.737	-0.134	-0.147
-248.019	-186.547	-0.225	0.003
-247.005	-71.920	0.034	0.013
-245.990	224.832	0.005	-0.009
-244.976	800.000	0.079	-0.267
-243.961	-172.004	-0.317	0.010
-242.946	-200.000	0.012	-0.135
-241.932	-200.000	0.006	-0.104
-240.917	800.000	-0.127	-0.471
-239.903	-137.912	0.228	-0.025
-238.888	-69.474	0.261	-0.099
-237.873	-200.000	0.040	0.226
-236.859	-200.000	-0.037	-0.244
-235.844	13.717	-0.380	0.291
-234.830	800.000	-0.037	-0.129
-233.815	739.349	0.095	-0.251
-232.800	53.669	0.072	0.068
-231.786	79.790	0.173	-0.183
-230.771	-34.903	0.295	-0.159
-229.757	177.415	0.151	-0.217
-228.742	20.212	-0.143	-0.114
-227.727	254.982	0.062	0.104
-226.713	-48.753	0.162	-0.076
-225.698	-64.594	0.203	-0.081
-224.684	783.524	0.069	0.187
-223.669	800.000	0.035	-0.100
-222.655	-200.000	-0.008	-0.427
-221.640	800.000	0.070	0.228
-220.625	-200.000	-0.043	-0.199
-219.611	48.364	0.047	0.044
-218.596	149.988	-0.185	0.247
-217.582	-4.414	0.088	-0.060
-216.567	64.607	-0.107	0.106
-215.552	-147.740	-0.395	0.033
-214.538	-200.000	0.016	-0.113
-213.523	-111.828	0.314	-0.062
-212.509	-200.000	0.024	0.135
-211.494	181.029	-0.058	0.084
-210.479	-37.051	-0.233	0.123
-209.465	-200.000	0.094	0.460
-208.450	-200.000	0.005	0.417
-207.436	134.197	-0.094	0.120
-206.421	800.000	-0.045	0.148
-205.406	-140.103	-0.328	-0.034
-204.392	-30.332	0.162	0.090
-203.377	-53.955	0.263	-0.118
-202.363	-154.750	-0.183	-0.012
-201.348	-200.000	-0.004	-0.121
-200.333	-144.981	-0.039	0.004
-199.319	737.470	-0.053	0.139
-198.304	800.000	0.051	-0.201
-197.290	77.626	-0.164	0.172
-196.275	291.339	-0.070	-0.125
-195.260	-200.000	-0.086	-0.413
-194.246	-57.657	-0.308	0.133
-193.231	76.029	-0.170	0.177
-192.217	-37.876	0.236	-0.123
-191.202	-200.000	0.013	0.443
-190.187	343.440	-0.090	0.174
-189.173	5.625	0.128	0.093
-188.158	800.000	-0.023	0.076
-187.144	-52.504	0.111	-0.050
-186.129	-200.000	-0.010	0.120
-185.114	-38.143	0.170	-0.089
-184.100	34.890	0.289	0.249
-183.085	199.731	-0.037	0.056
-182.071	7.233	-0.223	-0.164
-181.056	-161.062	-0.211	0.011
-180.042	-200.000	0.006	-0.044
-179.027	-41.163	0.239	-0.121
-178.012	737.490	-0.045	0.120
-176.998	-56.915	0.201	-0.087
-175.983	-53.809	0.101	-0.045
-174.969	-105.917	0.158	-0.035
-173.954	-44.519	0.170	0.084
-172.939	35.352	-0.073	-0.063
-171.925	111.483	0.198	0.235
-170.910	-0.428	0.083	0.058
-169.896	461.857	-0.113	0.249
-168.881	80.485	0.133	0.140
-167.866	13.058	0.177	-0.135
-166.852	-173.770	-0.083	0.002
-165.837	-73.335	-0.227	0.082
-164.823	-103.001	-0.305	-0.071
-163.808	111.332	-0.125	-0.148
-162.793	-95.532	0.258	-0.068
-161.779	-139.423	0.200	0.021
-160.764	-68.866	-0.383	-0.145
-159.750	800.000	-0.095	0.272
-158.735	56.351	0.031	-0.030
-157.720	464.652	-0.059	-0.130
-156.706	193.954	-0.134	-0.199
-155.691	-55.791	0.178	0.078
-154.677	166.340	0.134	0.186
-153.662	-63.982	-0.196	0.079
-152.647	-200.000	0.024	-0.167
-151.633	473.499	0.068	-0.152
-150.618	800.000	-0.056	-0.204
-149.604	800.000	-0.073	-0.234
-148.589	121.089	0.244	0.299
-147.574	118.020	-0.158	0.192
-146.560	234.742	0.200	0.324
-145.545	-164.399	0.213	-0.010
-144.531	800.000	0.025	0.074
-143.516	-124.125	0.191	0.029
-142.502	117.425	-0.142	0.172
-141.487	800.000	-0.156	0.453
-140.472	-122.496	0.199	0.032
-139.458	-69.715	-0.076	0.028
-138.443	-200.000	-0.002	-0.279
-137.429	800.000	0.007	0.025
-136.414	800.000	0.125	-0.431
-135.399	-157.465	-0.318	-0.019
-134.385	-96.403	0.108	0.028
-133.370	110.317	0.368	-0.434
-132.356	143.483	0.169	0.220
-131.341	-31.357	0.264	-0.146
-130.326	-125.217	0.265	0.040
-129.312	-150.944	0.015	0.001
-128.297	-104.639	0.349	-0.079
-127.283	-86.592	-0.232	0.070
-126.268	-123.253	0.227	0.036
-125.253	-118.265	0.035	0.006
-124.239	-2.315	-0.143	0.098
-123.224	-128.505	0.310	-0.043
-122.210	-200.000	-0.034	0.159
