DTS Sentinel unit serial number:	SN413079Multiplexer serial number:	ORYXHardware model number:	OX4-SRSoftware version number:	ORYX F/W v4.00 Oryx Data Collector v3.7.2.0data status	okinstallation	princeton_trtdifferential loss correction	single-endedforward channel	channel 2reverse channel	N/Adate	2019/09/19time	02:59:35forward acquisition time	60.00reverse acquisition time	0.00gamma	496.2192k internal	0.2353k external	0.2353temperature offset calibration	1.0013default loss term (dB/km)	0.3790temperature slope calibration	1.0000multiplexer offset coefficient	1.0000multiplexer slope coefficient	1.0000fibre end	0.00T internal ref (°C)	20.86T ext. ref 1 (°C)	0.66T ext. ref 2 (°C)	14.61length (m)	temperature (°C)	Stokes	anti-Stokes-747.200	800.000	-0.016	0.057
-746.185	-68.873	-0.398	-0.153
-745.171	-200.000	0.000	-0.227
-744.156	-200.000	-0.004	0.070
-743.142	9.750	-0.236	-0.178
-742.127	-88.554	-0.220	0.065
-741.112	252.770	-0.119	0.202
-740.098	-200.000	-0.032	0.300
-739.083	196.550	-0.017	0.025
-738.069	291.967	0.152	-0.276
-737.054	0.834	-0.133	-0.095
-736.039	138.444	-0.168	0.219
-735.025	-106.794	0.196	0.043
-734.010	-133.360	-0.192	0.024
-732.996	-4.909	-0.181	0.124
-731.981	-81.765	-0.106	0.034
-730.966	-116.751	0.295	-0.054
-729.952	609.572	0.201	-0.500
-728.937	-200.000	0.006	-0.204
-727.923	63.089	-0.135	-0.135
-726.908	-200.000	-0.015	-0.132
-725.894	-69.307	-0.276	0.106
-724.879	-200.000	-0.002	0.054
-723.864	-137.279	-0.290	-0.033
-722.850	698.247	-0.086	0.226
-721.835	800.000	0.088	-0.274
-720.821	160.846	0.064	0.089
-719.806	-200.000	0.042	-0.280
-718.791	38.212	-0.203	0.180
-717.777	-30.222	0.267	-0.151
-716.762	52.822	0.271	-0.258
-715.748	-13.452	-0.322	-0.208
-714.733	491.728	0.194	-0.443
-713.718	800.000	-0.159	-0.522
-712.704	-80.236	-0.247	0.082
-711.689	-170.780	-0.258	0.009
-710.675	-123.902	0.100	-0.016
-709.660	-200.000	0.062	-0.291
-708.645	-191.489	-0.293	-0.003
-707.631	-200.000	0.001	0.411
-706.616	261.036	-0.145	0.249
-705.602	14.981	-0.208	0.162
-704.587	-200.000	-0.043	-0.290
-703.572	-200.000	-0.003	0.127
-702.558	-27.526	0.152	0.088
-701.543	41.340	0.214	-0.192
-700.529	-65.706	0.176	0.070
-699.514	-200.000	-0.003	-0.078
-698.499	143.149	-0.106	0.141
-697.485	-0.636	-0.127	-0.090
-696.470	49.560	-0.110	0.104
-695.456	425.302	-0.089	0.190
-694.441	360.566	0.064	-0.128
-693.426	800.000	0.027	-0.101
-692.412	127.355	0.220	-0.278
-691.397	84.480	-0.241	-0.263
-690.383	800.000	0.039	0.143
-689.368	-4.938	-0.026	-0.018
-688.354	-3.790	-0.133	-0.092
-687.339	-153.977	-0.111	0.008
-686.324	800.000	0.016	0.055
-685.310	800.000	-0.063	-0.190
-684.295	-200.000	-0.031	-0.146
-683.281	-200.000	0.013	-0.147
-682.266	752.995	0.158	0.424
-681.251	-20.503	-0.353	-0.216
-680.237	-123.431	0.298	-0.047
-679.222	687.351	0.036	-0.095
-678.208	103.121	-0.191	-0.223
-677.193	-16.420	0.147	-0.093
-676.178	149.506	0.064	-0.086
-675.164	-200.000	-0.017	0.188
-674.149	452.502	0.009	-0.020
-673.135	115.233	-0.047	0.058
-672.120	-170.330	-0.166	0.006
-671.105	-200.000	0.078	-0.356
-670.091	-200.000	0.017	-0.150
-669.076	281.597	0.175	-0.312
-668.062	204.615	-0.219	-0.337
-667.047	189.112	-0.225	-0.335
-666.032	800.000	0.093	-0.308
-665.018	57.494	-0.281	-0.273
-664.003	642.075	-0.084	0.214
-662.989	46.172	0.119	-0.109
-661.974	3.724	-0.335	-0.243
-660.959	-200.000	-0.011	-0.174
-659.945	-112.077	-0.355	-0.071
-658.930	-200.000	0.044	-0.373
-657.916	424.819	-0.065	0.140
-656.901	14.381	-0.049	0.038
-655.886	-92.701	0.276	0.077
-654.872	-102.536	0.118	-0.028
-653.857	0.192	0.257	-0.182
-652.843	352.589	0.095	0.187
-651.828	589.809	-0.054	-0.132
-650.814	-9.736	0.280	0.185
-649.799	-7.337	-0.112	0.075
-648.784	52.510	-0.319	-0.302
-647.770	-102.494	-0.216	-0.051
-646.755	-112.800	0.343	-0.068
-645.741	141.101	0.134	-0.176
-644.726	573.862	0.062	0.149
-643.711	237.170	-0.075	0.124
-642.697	-98.919	0.176	-0.044
-641.682	460.164	0.049	-0.108
-640.668	-105.755	-0.393	0.088
-639.653	-41.635	-0.323	-0.165
-638.638	800.000	-0.061	0.247
-637.624	111.918	-0.101	0.121
-636.609	-27.704	-0.229	-0.132
-635.595	800.000	0.069	-0.236
-634.580	102.877	0.089	0.104
-633.565	83.802	0.050	0.054
-632.551	-168.215	0.122	0.005
-631.536	35.731	0.391	0.341
-630.522	585.185	0.083	-0.202
-629.507	800.000	0.019	-0.054
-628.492	185.993	0.037	-0.055
-627.478	-149.954	-0.010	0.001
-626.463	344.773	0.012	0.024
-625.449	-174.566	-0.059	0.002
-624.434	62.099	-0.170	-0.168
-623.419	137.629	-0.147	-0.190
-622.405	575.705	0.082	0.198
-621.390	158.382	-0.201	0.277
-620.376	-200.000	-0.000	0.311
-619.361	64.163	-0.090	0.090
-618.346	306.100	-0.083	-0.154
-617.332	179.901	0.070	0.102
-616.317	-88.811	0.093	-0.027
-615.303	467.173	-0.096	0.214
-614.288	-100.911	0.152	-0.037
-613.273	71.777	-0.228	0.235
-612.259	-200.000	-0.027	-0.406
-611.244	-200.000	-0.001	0.078
-610.230	-200.000	0.011	-0.120
-609.215	-24.650	-0.042	0.025
-608.201	606.794	0.210	0.520
-607.186	800.000	0.036	-0.110
-606.171	-32.950	-0.221	-0.122
-605.157	360.717	0.083	0.165
-604.142	-9.282	0.099	0.065
-603.128	800.000	0.121	-0.409
-602.113	-200.000	0.050	-0.386
-601.098	-58.573	-0.152	-0.066
-600.084	134.322	0.087	0.111
-599.069	-200.000	0.050	0.238
-598.055	249.086	0.148	0.248
-597.040	-200.000	-0.023	-0.371
-596.025	-32.676	-0.170	0.094
-595.011	-200.000	-0.021	-0.381
-593.996	-153.450	-0.208	-0.014
-592.982	54.260	0.106	0.101
-591.967	352.454	0.047	0.093
-590.952	-108.405	-0.146	-0.031
-589.938	-125.625	-0.135	0.020
-588.923	-74.954	0.298	0.106
-587.909	-84.235	-0.180	0.056
-586.894	151.689	-0.160	0.217
-585.879	800.000	-0.142	0.429
-584.865	-61.167	0.211	-0.088
-583.850	-112.061	0.319	0.064
-582.836	388.126	0.155	0.318
-581.821	-10.201	0.071	-0.047
-580.806	711.719	-0.092	-0.241
-579.792	158.373	-0.032	0.044
-578.777	227.839	-0.035	-0.057
-577.763	644.821	-0.141	-0.356
-576.748	185.030	0.130	-0.191
-575.733	-200.000	0.004	0.032
-574.719	522.099	0.020	-0.047
-573.704	-107.683	0.356	-0.077
-572.690	-76.005	0.116	-0.040
-571.675	-200.000	0.014	-0.134
-570.661	-126.198	-0.194	0.029
-569.646	774.335	0.104	-0.282
-568.631	-39.085	0.191	-0.099
-567.617	-136.517	-0.307	0.035
-566.602	-13.005	0.169	0.109
-565.588	756.194	0.082	-0.218
-564.573	40.395	-0.200	0.179
-563.558	-41.983	-0.227	-0.115
-562.544	-200.000	-0.008	-0.233
-561.529	243.249	-0.173	-0.287
-560.515	209.866	-0.024	0.038
-559.500	-189.669	-0.191	0.002
-558.485	-200.000	0.007	-0.067
-557.471	74.709	0.113	0.118
-556.456	800.000	-0.099	0.282
-555.442	216.395	-0.137	0.215
-554.427	-22.307	0.161	-0.097
-553.412	-200.000	-0.055	-0.242
-552.398	-37.562	0.181	-0.096
-551.383	-200.000	-0.007	-0.209
-550.369	-16.807	-0.275	0.172
-549.354	-23.046	-0.105	-0.063
-548.339	169.616	-0.129	0.183
-547.325	53.860	0.175	0.167
-546.310	-123.297	-0.159	-0.025
-545.296	132.083	-0.177	-0.226
-544.281	800.000	-0.106	0.459
-543.266	-200.000	-0.060	-0.446
-542.252	-200.000	0.001	-0.262
-541.237	-200.000	-0.020	0.271
-540.223	-8.026	-0.087	0.058
-539.208	-119.914	-0.221	-0.038
-538.193	3.240	0.255	0.183
-537.179	6.927	-0.300	0.221
-536.164	259.757	-0.054	0.093
-535.150	-200.000	-0.047	0.208
-534.135	-51.754	-0.039	0.018
-533.121	-66.479	0.138	-0.054
-532.106	261.485	0.079	-0.135
-531.091	57.976	0.222	-0.214
-530.077	-49.696	0.175	-0.082
-529.062	-20.658	-0.449	-0.272
-528.048	-57.514	0.088	-0.038
-527.033	-200.000	0.000	0.041
-526.018	53.286	-0.294	-0.278
-525.004	202.872	0.108	-0.165
-523.989	800.000	-0.029	0.106
-522.975	800.000	0.022	0.063
-521.960	-200.000	0.006	-0.199
-520.945	93.470	-0.156	-0.175
-519.931	224.052	0.120	-0.191
-518.916	307.902	-0.080	-0.148
-517.902	-153.938	-0.354	-0.024
-516.887	294.836	0.061	0.110
-515.872	303.342	-0.190	-0.348
-514.858	244.353	-0.081	-0.134
-513.843	-85.062	0.159	-0.049
-512.829	26.277	-0.065	0.054
-511.814	-200.000	0.002	-0.036
-510.799	330.966	-0.216	0.411
-509.785	-127.116	0.262	-0.038
-508.770	800.000	-0.088	0.245
-507.756	-158.070	0.241	0.014
-506.741	103.044	0.219	0.254
-505.726	-200.000	-0.031	-0.156
-504.712	-147.514	-0.109	-0.009
-503.697	-163.354	0.699	0.033
-502.683	800.000	0.054	-0.230
-501.668	-200.000	-0.047	-0.225
-500.653	-57.144	0.262	0.114
-499.639	-200.000	0.012	0.099
-498.624	-66.388	-0.221	-0.087
-497.610	-121.798	-0.129	0.021
-496.595	60.430	-0.097	-0.095
-495.581	47.725	-0.072	-0.067
-494.566	-3.456	-0.205	-0.141
-493.551	100.905	0.107	0.123
-492.537	-2.494	0.158	0.110
-491.522	121.753	0.126	-0.155
-490.508	-200.000	-0.014	0.229
-489.493	-200.000	-0.011	-0.164
-488.478	85.344	0.109	-0.118
-487.464	-33.689	-0.164	-0.089
-486.449	-3.904	-0.214	-0.147
-485.435	22.328	-0.157	-0.126
-484.420	-35.991	-0.227	0.121
-483.405	-104.388	-0.461	-0.105
-482.391	184.885	-0.075	0.110
-481.376	-77.669	-0.068	-0.023
-480.362	-42.064	0.064	0.032
-479.347	-44.535	-0.222	0.110
-478.332	-56.456	0.416	-0.182
-477.318	-63.462	-0.121	0.049
-476.303	-82.517	-0.162	0.052
-475.289	-102.801	0.064	0.015
-474.274	15.248	0.129	-0.100
-473.259	-11.118	0.087	0.057
-472.245	-47.015	0.167	-0.080
-471.230	-58.626	-0.243	-0.104
-470.216	2.964	0.148	0.106
-469.201	-200.000	-0.035	0.666
-468.186	800.000	0.040	0.167
-467.172	172.043	-0.073	-0.103
-466.157	388.722	-0.019	0.040
-465.143	-177.542	0.196	-0.005
-464.128	-56.628	-0.065	-0.028
-463.113	132.835	0.132	-0.168
-462.099	20.797	0.125	-0.100
-461.084	-59.387	0.142	-0.060
-460.070	392.346	-0.079	0.161
-459.055	-200.000	0.006	0.144
-458.040	-29.601	-0.082	-0.046
-457.026	192.597	-0.038	0.057
-456.011	55.388	-0.185	0.177
-454.997	116.614	0.071	-0.086
-453.982	800.000	-0.045	0.149
-452.968	52.159	0.162	0.152
-451.953	-123.784	0.184	-0.029
-450.938	107.081	-0.129	0.151
-449.924	-200.000	0.007	-0.172
-448.909	-147.065	0.232	0.020
-447.895	226.828	0.090	-0.144
-446.880	-105.281	0.096	-0.022
-445.865	-36.243	0.018	-0.010
-444.851	275.034	-0.104	0.181
-443.836	800.000	-0.055	-0.232
-442.822	132.317	0.043	0.055
-441.807	10.206	-0.286	-0.214
-440.792	800.000	-0.084	-0.302
-439.778	800.000	-0.096	-0.396
-438.763	-106.414	-0.043	0.009
-437.749	-200.000	0.036	-0.191
-436.734	-36.472	0.440	-0.234
-435.719	565.258	-0.087	-0.207
-434.705	-118.873	0.119	-0.021
-433.690	-123.569	0.058	0.009
-432.676	-138.502	-0.154	0.017
-431.661	-200.000	-0.017	0.160
-430.646	340.895	0.072	-0.138
-429.632	800.000	0.048	0.144
-428.617	91.757	0.070	-0.078
-427.603	281.393	-0.093	0.164
-426.588	800.000	0.020	-0.068
-425.573	63.040	-0.061	-0.060
-424.559	800.000	-0.109	-0.320
-423.544	-66.321	0.225	0.088
-422.530	-137.470	0.216	0.024
-421.515	52.235	-0.266	-0.250
-420.500	67.690	0.178	0.179
-419.486	195.032	-0.006	-0.010
-418.471	800.000	-0.024	-0.091
-417.457	-30.475	0.081	0.045
-416.442	-132.446	-0.451	-0.057
-415.428	800.000	0.040	0.122
-414.413	-157.092	0.094	0.006
-413.398	-166.910	-0.314	0.013
-412.384	800.000	-0.045	-0.142
-411.369	-43.394	-0.273	-0.136
-410.355	-116.234	0.137	0.025
-409.340	-200.000	0.013	0.174
-408.325	-93.722	0.272	0.074
-407.311	-200.000	0.026	0.431
-406.296	32.937	0.110	0.094
-405.282	-69.324	0.215	0.081
-404.267	25.545	0.173	0.142
-403.252	-84.604	0.367	-0.114
-402.238	-84.157	-0.244	-0.076
-401.223	178.892	-0.134	-0.192
-400.209	14.413	0.180	-0.138
-399.194	-37.306	-0.182	0.096
-398.179	-200.000	0.029	-0.169
-397.165	666.777	-0.066	-0.167
-396.150	800.000	-0.099	-0.313
-395.136	32.803	0.106	0.090
-394.121	333.424	-0.032	0.060
-393.106	380.638	-0.053	-0.107
-392.092	800.000	0.091	-0.338
-391.077	800.000	0.039	0.118
-390.063	173.628	0.087	0.124
-389.048	39.575	-0.255	0.224
-388.033	800.000	0.054	0.155
-387.019	39.025	0.169	-0.148
-386.004	172.694	-0.054	0.077
-384.990	-32.428	-0.293	0.161
-383.975	-131.435	0.264	0.034
-382.960	-128.387	0.031	0.004
-381.946	-74.903	0.089	0.031
-380.931	-200.000	0.015	0.119
-379.917	21.970	0.078	-0.062
-378.902	98.861	0.247	-0.280
-377.888	-58.143	-0.224	0.096
-376.873	-25.797	0.260	0.151
-375.858	800.000	0.060	-0.226
-374.844	-77.294	0.071	-0.024
-373.829	-65.273	0.069	-0.027
-372.815	-89.353	0.316	-0.092
-371.800	-13.955	0.072	0.046
-370.785	-66.067	-0.256	-0.100
-369.771	348.176	0.103	0.200
-368.756	69.517	0.122	0.123
-367.742	103.223	-0.026	0.029
-366.727	800.000	0.068	-0.204
-365.712	-200.000	0.005	-0.208
-364.698	-111.367	-0.134	-0.027
-363.683	-200.000	-0.004	0.144
-362.669	-156.514	0.302	0.018
-361.654	100.811	0.019	-0.021
-360.639	282.992	0.096	0.169
-359.625	146.331	0.145	0.191
-358.610	800.000	0.012	-0.047
-357.596	-54.807	-0.266	0.118
-356.581	-200.000	-0.043	-0.296
-355.566	-200.000	-0.029	0.197
-354.552	9.441	-0.164	-0.122
-353.537	209.287	0.121	-0.187
-352.523	64.598	-0.010	-0.010
-351.508	76.458	0.091	-0.094
-350.493	-84.516	0.118	-0.037
-349.479	-200.000	-0.015	0.263
-348.464	53.812	0.113	0.106
-347.450	115.864	-0.101	0.121
-346.435	800.000	0.136	-0.388
-345.420	190.235	-0.122	-0.180
-344.406	-68.874	0.154	-0.058
-343.391	-113.409	-0.306	-0.059
-342.377	-200.000	0.022	0.196
-341.362	-200.000	-0.102	0.494
-340.348	135.777	0.156	-0.199
-339.333	-200.000	0.014	-0.153
-338.318	-200.000	0.013	-0.348
-337.304	112.560	0.121	0.144
-336.289	517.282	0.124	0.285
-335.275	13.638	0.204	-0.155
-334.260	-200.000	-0.039	-0.168
-333.245	-72.830	0.557	0.201
-332.231	-23.993	0.166	-0.097
-331.216	-200.000	0.022	-0.335
-330.202	-120.694	-0.122	-0.020
-329.187	300.509	0.165	0.299
-328.172	800.000	-0.050	0.210
-327.158	-184.071	-0.098	-0.002
-326.143	-7.020	0.080	0.053
-325.129	-80.275	-0.174	-0.057
-324.114	53.064	0.040	0.037
-323.099	-200.000	0.025	0.161
-322.085	-152.613	0.107	0.008
-321.070	84.760	-0.072	0.078
-320.056	33.321	-0.264	0.225
-319.041	77.323	0.187	0.195
-318.026	-200.000	0.192	-0.000
-317.012	-129.931	-0.129	-0.017
-315.997	96.320	0.279	0.313
-314.983	-180.738	-0.169	-0.003
-313.968	20.156	0.043	0.034
-312.953	281.762	0.106	0.186
-311.939	-80.070	-0.154	0.051
-310.924	800.000	-0.048	0.130
-309.910	149.587	0.130	0.173
-308.895	-151.599	-0.256	0.019
-307.880	36.190	-0.043	0.037
-306.866	148.913	-0.118	-0.156
-305.851	-200.000	-0.030	0.418
-304.837	213.436	-0.097	0.151
-303.822	-159.195	-0.101	0.006
-302.807	-25.782	-0.193	0.112
-301.793	-100.724	0.353	0.085
-300.778	-120.845	-0.331	-0.055
-299.764	153.866	-0.114	-0.153
-298.749	800.000	-0.093	-0.279
-297.735	-76.918	0.195	0.067
-296.720	44.058	-0.116	-0.104
-295.705	800.000	-0.056	0.189
-294.691	800.000	0.040	-0.160
-293.676	-163.872	0.167	0.008
-292.662	-200.000	0.016	-0.156
-291.647	-200.000	0.007	0.108
-290.632	177.510	-0.092	-0.132
-289.618	225.759	-0.105	0.167
-288.603	-92.888	-0.071	-0.019
-287.589	800.000	0.056	0.216
-286.574	5.307	-0.200	0.144
-285.559	-200.000	-0.022	-0.493
-284.545	-33.703	-0.241	-0.130
-283.530	184.626	-0.082	0.119
-282.516	800.000	0.105	0.298
-281.501	490.328	-0.067	-0.151
-280.486	167.902	0.159	0.222
-279.472	241.697	-0.096	0.157
-278.457	77.406	0.096	-0.100
-277.443	67.314	-0.053	0.053
-276.428	-200.000	-0.011	-0.246
-275.413	800.000	-0.183	-0.545
-274.399	251.790	-0.054	-0.091
-273.384	800.000	0.079	-0.228
-272.370	382.290	-0.051	0.103
-271.355	800.000	-0.027	-0.078
-270.340	-83.579	-0.334	0.105
-269.326	20.923	0.254	0.202
-268.311	800.000	-0.020	0.071
-267.297	6.176	-0.056	-0.041
-266.282	-52.928	0.231	0.104
-265.267	396.265	0.077	-0.158
-264.253	-200.000	0.032	-0.267
-263.238	-130.529	0.408	0.054
-262.224	41.104	-0.116	0.103
-261.209	-200.000	-0.081	0.394
-260.195	-92.841	-0.081	-0.022
-259.180	-172.824	0.246	0.008
-258.165	800.000	0.021	-0.073
-257.151	-18.845	0.134	-0.081
-256.136	95.196	-0.232	0.259
-255.122	800.000	-0.054	0.178
-254.107	91.892	-0.157	-0.173
-253.092	70.115	0.218	-0.220
-252.078	436.647	-0.059	0.126
-251.063	-19.462	0.196	-0.119
-250.049	40.243	0.141	0.124
-249.034	-152.794	0.236	0.016
-248.019	260.097	-0.075	-0.127
-247.005	-102.899	-0.217	0.051
-245.990	462.963	-0.099	0.215
-244.976	26.733	-0.108	0.088
-243.961	-39.641	0.163	-0.083
-242.946	-200.000	-0.073	-0.459
-241.932	800.000	-0.075	-0.268
-240.917	143.917	0.212	-0.276
-239.903	-9.255	-0.357	-0.233
-238.888	2.956	-0.234	-0.166
-237.873	-137.561	0.243	-0.027
-236.859	-21.838	-0.129	-0.077
-235.844	192.251	0.042	0.062
-234.830	-58.396	-0.334	-0.142
-233.815	-124.863	0.249	0.038
-232.800	445.527	-0.109	0.235
-231.786	23.815	0.173	-0.139
-230.771	-83.593	-0.199	0.062
-229.757	341.150	-0.229	-0.437
-228.742	-200.000	-0.014	0.074
-227.727	150.066	0.135	0.179
-226.713	-34.950	-0.127	-0.068
-225.698	-200.000	0.059	-0.273
-224.684	-56.967	-0.170	0.073
-223.669	653.488	0.024	-0.059
-222.655	769.496	0.111	0.296
-221.640	800.000	-0.087	0.333
-220.625	182.080	-0.217	0.312
-219.611	800.000	-0.040	-0.141
-218.596	-128.556	0.347	-0.048
-217.582	-200.000	0.032	-0.525
-216.567	-200.000	-0.119	-0.000
-215.552	800.000	-0.123	0.436
-214.538	-200.000	0.004	0.061
-213.523	-113.474	0.471	0.090
-212.509	800.000	-0.104	0.328
-211.494	149.551	0.044	-0.058
-210.479	-200.000	0.050	0.248
-209.465	-200.000	-0.020	-0.277
-208.450	-97.526	0.343	0.087
-207.436	125.344	-0.157	-0.194
-206.421	-200.000	0.073	-0.513
-205.406	408.431	0.134	0.277
-204.392	-200.000	-0.030	0.217
-203.377	-24.901	0.101	-0.059
-202.363	-200.000	-0.053	0.367
-201.348	-200.000	0.033	-0.161
-200.333	-200.000	-0.069	-0.314
-199.319	70.367	0.327	0.329
-198.304	34.524	-0.086	0.073
-197.290	204.816	-0.224	0.339
-196.275	800.000	-0.067	0.279
-195.260	800.000	0.062	0.229
-194.246	157.854	0.218	0.295
-193.231	-25.013	-0.133	-0.077
-192.217	49.431	-0.077	-0.071
-191.202	-200.000	0.007	0.225
-190.187	-142.620	-0.088	0.008
-189.173	405.256	-0.101	0.208
-188.158	10.214	-0.175	0.130
-187.144	-16.544	-0.202	0.125
-186.129	800.000	-0.074	0.258
-185.114	156.525	-0.038	0.051
-184.100	268.885	0.113	-0.193
-183.085	-55.262	0.230	-0.101
-182.071	-105.937	-0.155	-0.034
-181.056	-24.367	-0.164	-0.095
-180.042	1.535	0.328	-0.230
-179.027	-56.485	0.205	0.089
-178.012	-59.948	0.051	-0.021
-176.998	77.946	-0.131	0.136
-175.983	11.654	-0.163	0.122
-174.969	290.006	0.226	-0.400
-173.954	125.763	-0.100	0.123
-172.939	86.076	0.099	0.107
-171.925	-200.000	-0.031	0.141
-170.910	190.370	-0.069	0.101
-169.896	-170.250	0.265	-0.009
-168.881	-200.000	-0.017	0.207
-167.866	174.378	-0.114	-0.161
-166.852	203.268	0.048	-0.072
-165.837	40.799	0.188	0.166
-164.823	233.155	-0.159	0.256
-163.808	-169.100	-0.154	0.006
-162.793	247.675	-0.091	-0.150
-161.779	25.729	0.375	-0.304
-160.764	-200.000	0.012	0.162
-159.750	-150.057	0.232	0.018
-158.735	800.000	-0.034	0.137
-157.720	510.977	0.034	0.076
-156.706	41.741	0.130	-0.114
-155.691	-140.629	0.098	0.010
-154.677	-5.344	0.178	0.119
-153.662	-185.038	-0.123	0.002
-152.647	-153.861	-0.058	0.004
-151.633	4.405	-0.257	0.184
-150.618	-75.767	0.379	0.131
-149.604	263.127	-0.129	0.219
-148.589	-200.000	0.025	0.170
-147.574	130.687	-0.331	0.414
-146.560	-34.632	-0.273	0.145
-145.545	-100.353	0.103	-0.025
-144.531	214.366	0.075	0.115
-143.516	36.275	-0.182	-0.156
-142.502	-94.736	-0.219	-0.058
-141.487	97.976	0.134	0.150
-140.472	602.784	0.050	0.122
-139.458	-22.414	0.299	-0.176
-138.443	800.000	0.063	0.172
-137.429	181.048	-0.365	0.522
-136.414	-100.837	-0.216	-0.052
-135.399	317.249	0.031	0.057
-134.385	800.000	-0.033	0.115
-133.370	-112.850	-0.184	-0.035
-132.356	-34.721	0.116	-0.062
-131.341	-63.346	-0.263	0.105
-130.326	-44.928	0.136	0.066
-129.312	-160.590	-0.265	0.014
-128.297	341.339	-0.131	-0.249
-127.283	-200.000	-0.042	-0.216
-126.268	-200.000	-0.015	0.152
-125.253	-129.067	0.199	0.027
-124.239	-25.794	0.241	-0.138
-123.224	170.614	0.165	0.230
-122.210	500.911	0.118	0.264
-121.195	9.219	0.113	0.083
