DTS Sentinel unit serial number:	SN413079Multiplexer serial number:	ORYXHardware model number:	OX4-SRSoftware version number:	ORYX F/W v4.00 Oryx Data Collector v3.7.2.0data status	okinstallation	princeton_trtdifferential loss correction	single-endedforward channel	channel 2reverse channel	N/Adate	2019/09/11time	18:09:11forward acquisition time	60.00reverse acquisition time	0.00gamma	496.2192k internal	0.2285k external	0.2285temperature offset calibration	1.0025default loss term (dB/km)	0.3790temperature slope calibration	1.0000multiplexer offset coefficient	1.0000multiplexer slope coefficient	1.0000fibre end	0.00T internal ref (°C)	44.00T ext. ref 1 (°C)	1.15T ext. ref 2 (°C)	38.81length (m)	temperature (°C)	Stokes	anti-Stokes-747.200	-46.728	-0.256	0.129
-746.185	34.514	-0.253	0.227
-745.171	372.949	-0.108	-0.225
-744.156	-200.000	-0.246	0.001
-743.142	462.472	0.112	0.256
-742.127	349.540	-0.131	0.265
-741.112	655.036	-0.083	-0.219
-740.098	-91.720	-0.157	-0.046
-739.083	-113.203	0.082	0.017
-738.069	392.406	-0.183	0.391
-737.054	-141.721	0.166	0.017
-736.039	-88.114	0.058	0.018
-735.025	-121.073	0.266	-0.046
-734.010	165.365	0.124	-0.179
-732.996	-200.000	-0.018	0.165
-731.981	306.885	-0.141	-0.270
-730.966	800.000	-0.031	0.123
-729.952	-136.254	-0.350	0.042
-728.937	-92.812	0.381	0.109
-727.923	44.113	0.099	0.093
-726.908	-152.124	-0.037	-0.003
-725.894	-163.543	-0.171	0.008
-724.879	246.293	-0.109	0.189
-723.864	-115.197	-0.273	0.053
-722.850	-200.000	0.030	-0.354
-721.835	-95.131	0.086	-0.024
-720.821	683.001	0.005	-0.012
-719.806	19.495	-0.131	0.108
-718.791	184.779	-0.276	0.419
-717.777	-51.685	-0.236	-0.113
-716.762	419.455	0.119	-0.262
-715.748	-67.347	0.097	-0.039
-714.733	-200.000	0.046	-0.288
-713.718	6.815	0.227	-0.173
-712.704	-105.535	-0.124	0.029
-711.689	247.420	0.141	0.244
-710.675	51.716	0.177	-0.172
-709.660	-128.778	-0.391	0.057
-708.645	-107.330	0.331	-0.074
-707.631	-31.630	-0.189	-0.109
-706.616	415.337	-0.108	0.237
-705.602	800.000	-0.077	0.235
-704.587	581.865	0.124	-0.313
-703.572	-121.590	-0.032	-0.005
-702.558	-200.000	-0.019	0.091
-701.543	-200.000	-0.006	-0.114
-700.529	-200.000	-0.006	0.277
-699.514	97.611	0.137	-0.161
-698.499	-42.145	0.172	0.090
-697.485	-200.000	-0.003	-0.178
-696.470	64.956	-0.249	-0.257
-695.456	237.776	0.129	0.219
-694.441	-200.000	0.021	-0.118
-693.426	194.326	0.179	-0.278
-692.412	47.712	-0.183	0.175
-691.397	800.000	-0.057	0.245
-690.383	-110.910	0.149	-0.031
-689.368	-111.499	-0.155	-0.032
-688.354	-92.660	0.167	-0.048
-687.339	-96.064	0.192	0.052
-686.324	111.450	-0.176	0.217
-685.310	800.000	-0.014	0.041
-684.295	251.463	0.132	-0.231
-683.281	223.217	0.102	0.168
-682.266	-200.000	-0.018	-0.103
-681.251	800.000	0.042	-0.137
-680.237	-36.576	0.036	0.020
-679.222	14.409	0.135	-0.108
-678.208	-84.071	-0.270	0.088
-677.193	-4.880	0.094	0.066
-676.178	109.841	-0.171	0.210
-675.164	-166.629	0.174	0.007
-674.149	221.540	0.090	-0.148
-673.135	42.764	0.115	-0.107
-672.120	200.636	0.123	-0.193
-671.105	-73.100	-0.196	0.073
-670.091	209.391	-0.099	0.158
-669.076	-200.000	-0.042	0.396
-668.062	4.977	-0.058	-0.044
-667.047	-149.124	-0.125	-0.010
-666.032	15.391	0.164	-0.132
-665.018	4.649	-0.235	-0.177
-664.003	187.256	-0.212	0.323
-662.989	-0.237	0.263	0.192
-661.974	342.832	0.176	0.353
-660.959	-158.368	-0.085	-0.005
-659.945	-200.000	-0.008	0.038
-658.930	-9.315	0.247	0.169
-657.916	-9.485	0.264	-0.180
-656.901	60.712	0.134	-0.136
-655.886	2.023	0.142	0.105
-654.872	1.795	0.039	-0.029
-653.857	476.433	-0.023	-0.054
-652.843	-33.488	-0.279	0.158
-651.828	-200.000	-0.016	0.308
-650.814	42.096	-0.262	-0.243
-649.799	14.100	-0.154	-0.123
-648.784	345.477	0.147	-0.295
-647.770	-31.791	-0.304	-0.174
-646.755	179.900	-0.133	-0.200
-645.741	-200.000	-0.030	0.404
-644.726	175.236	0.213	0.316
-643.711	-67.818	-0.237	0.095
-642.697	800.000	0.043	0.154
-641.682	-200.000	0.008	-0.047
-640.668	268.011	-0.056	-0.101
-639.653	-200.000	0.010	0.078
-638.638	800.000	0.032	0.113
-637.624	486.102	0.076	0.176
-636.609	800.000	-0.078	0.274
-635.595	-48.885	0.122	0.060
-634.580	-190.553	-0.151	-0.002
-633.565	-200.000	-0.020	0.108
-632.551	119.461	-0.194	-0.246
-631.536	800.000	-0.073	0.218
-630.522	58.576	0.315	0.317
-629.507	111.826	0.246	-0.304
-628.492	-16.299	-0.297	0.193
-627.478	76.766	0.097	0.106
-626.463	-183.710	0.274	-0.005
-625.449	169.697	0.101	0.148
-624.434	800.000	0.034	-0.097
-623.419	-65.784	-0.242	-0.099
-622.405	-76.745	-0.090	-0.032
-621.390	-136.211	-0.374	-0.045
-620.376	8.982	0.099	0.076
-619.361	-133.569	0.094	0.012
-618.346	-130.468	0.190	0.026
-617.332	336.162	0.090	0.178
-616.317	-84.270	0.151	-0.049
-615.303	-50.973	0.278	0.134
-614.288	-172.661	0.311	-0.010
-613.273	15.171	-0.062	0.050
-612.259	-104.364	-0.136	-0.032
-611.244	12.625	0.275	-0.217
-610.230	427.116	0.106	0.234
-609.215	473.117	0.036	0.083
-608.201	-99.342	0.162	0.042
-607.186	-109.856	-0.193	-0.041
-606.171	-73.462	-0.294	0.110
-605.157	597.348	0.090	-0.227
-604.142	169.437	-0.097	0.141
-603.128	-200.000	-0.009	0.097
-602.113	208.301	0.188	0.300
-601.098	-200.000	0.004	0.029
-600.084	22.273	-0.114	0.095
-599.069	-140.091	0.241	-0.026
-598.055	-118.537	0.225	-0.041
-597.040	-83.664	-0.136	0.044
-596.025	83.382	-0.212	0.236
-595.011	136.541	0.107	0.143
-593.996	-51.179	0.167	-0.080
-592.982	-86.687	-0.110	-0.034
-591.967	-42.562	-0.367	-0.191
-590.952	-200.000	-0.025	0.112
-589.938	-200.000	0.034	0.454
-588.923	31.347	-0.240	0.210
-587.909	-200.000	0.003	-0.091
-586.894	45.411	-0.178	0.168
-585.879	355.816	0.064	-0.131
-584.865	-12.046	0.093	0.062
-583.850	571.307	0.024	-0.058
-582.836	358.389	-0.170	0.346
-581.821	-159.143	-0.232	0.013
-580.806	358.854	-0.143	-0.292
-579.792	64.082	0.268	0.275
-578.777	-140.781	-0.352	0.037
-577.763	-200.000	-0.038	0.209
-576.748	-7.524	0.104	0.072
-575.733	-72.912	0.189	0.071
-574.719	686.912	0.050	-0.134
-573.704	-200.000	0.015	-0.294
-572.690	596.514	-0.038	0.096
-571.675	800.000	0.096	0.326
-570.661	231.488	0.067	0.112
-569.646	-123.475	0.075	-0.012
-568.631	-16.165	0.262	-0.170
-567.617	206.378	0.036	0.056
-566.602	-127.522	-0.434	-0.064
-565.588	-134.724	-0.237	-0.029
-564.573	80.676	-0.028	-0.031
-563.558	-200.000	-0.004	0.053
-562.544	75.705	0.149	0.161
-561.529	12.319	0.191	0.150
-560.515	-38.514	-0.277	-0.149
-559.500	-10.364	-0.230	-0.155
-558.485	-200.000	-0.040	0.177
-557.471	-64.758	0.079	-0.033
-556.456	454.365	0.147	0.332
-555.442	776.933	-0.094	0.261
-554.427	762.928	-0.092	-0.254
-553.412	-69.655	0.197	-0.077
-552.398	-200.000	-0.003	-0.065
-551.383	-144.110	0.163	0.016
-550.369	40.054	-0.138	-0.127
-549.354	340.155	-0.066	-0.131
-548.339	-1.813	-0.014	-0.010
-547.325	131.185	-0.023	-0.030
-546.310	-200.000	0.036	-0.205
-545.296	800.000	0.005	-0.019
-544.281	30.551	-0.146	-0.127
-543.266	706.264	-0.118	0.318
-542.252	220.475	0.047	-0.077
-541.237	-58.096	0.372	0.165
-540.223	-137.505	-0.327	0.038
-539.208	-200.000	-0.011	-0.122
-538.193	-105.869	-0.135	0.031
-537.179	-200.000	-0.001	-0.086
-536.164	800.000	-0.077	-0.232
-535.150	800.000	-0.062	0.175
-534.135	-13.513	0.131	0.086
-533.121	-124.348	-0.577	-0.092
-532.106	51.849	0.291	-0.282
-531.091	-200.000	0.250	-0.001
-530.077	184.855	0.053	0.080
-529.062	68.074	-0.067	0.070
-528.048	-200.000	-0.004	-0.062
-527.033	-62.997	0.073	0.031
-526.018	439.626	0.102	-0.227
-525.004	-7.587	-0.463	0.319
-523.989	-200.000	-0.023	0.201
-522.975	3.717	0.229	-0.170
-521.960	-109.297	-0.397	0.086
-520.945	-102.650	0.289	-0.070
-519.931	542.689	-0.108	-0.262
-518.916	800.000	-0.039	-0.142
-517.902	-66.369	0.085	-0.035
-516.887	112.012	-0.213	0.262
-515.872	150.118	-0.312	0.431
-514.858	-103.984	-0.143	-0.034
-513.843	-31.250	0.294	-0.169
-512.829	417.071	0.108	-0.235
-511.814	-200.000	-0.008	-0.389
-510.799	-144.284	0.394	0.037
-509.785	-94.409	0.161	-0.045
-508.770	-105.444	0.162	0.038
-507.756	-105.200	0.275	-0.064
-506.741	547.209	0.064	-0.157
-505.726	-13.454	0.117	-0.077
-504.712	800.000	-0.030	0.097
-503.697	800.000	0.086	0.339
-502.683	-200.000	-0.043	-0.197
-501.668	-98.759	-0.143	-0.037
-500.653	103.073	-0.166	0.198
-499.639	413.212	0.128	-0.276
-498.624	-200.000	0.006	-0.109
-497.610	-19.380	-0.313	0.197
-496.595	-105.602	0.175	0.040
-495.581	5.866	0.072	-0.054
-494.566	-200.000	-0.044	-0.424
-493.551	-76.417	0.159	-0.057
-492.537	800.000	-0.042	-0.141
-491.522	170.199	-0.054	-0.079
-490.508	-73.931	0.050	0.019
-489.493	291.803	-0.108	0.200
-488.478	-12.698	-0.265	0.176
-487.464	-200.000	-0.006	0.107
-486.449	326.441	-0.152	-0.295
-485.435	249.461	-0.099	-0.171
-484.420	3.610	-0.215	0.159
-483.405	-178.760	0.439	-0.010
-482.391	-17.184	-0.257	0.165
-481.376	800.000	0.100	0.371
-480.362	21.717	-0.310	0.256
-479.347	800.000	0.071	0.303
-478.332	40.609	0.139	-0.128
-477.318	-200.000	-0.035	-0.175
-476.303	193.185	0.251	-0.386
-475.289	-200.000	-0.039	-0.233
-474.274	107.767	-0.111	-0.135
-473.259	-200.000	-0.089	0.439
-472.245	-76.821	0.197	0.070
-471.230	-62.494	0.106	0.045
-470.216	-54.690	0.461	0.212
-469.201	-200.000	-0.006	-0.118
-468.186	-5.710	0.312	0.217
-467.172	171.005	0.090	0.131
-466.157	-117.209	-0.298	-0.055
-465.143	-200.000	0.009	0.061
-464.128	-140.614	-0.320	-0.034
-463.113	-128.958	-0.269	-0.038
-462.099	326.417	0.032	0.061
-461.084	-74.087	0.516	0.190
-460.070	51.755	0.136	-0.131
-459.055	125.074	-0.217	-0.278
-458.040	-193.013	-0.150	-0.001
-457.026	86.332	0.120	-0.134
-456.011	-71.087	0.141	-0.054
-454.997	36.048	-0.128	-0.114
-453.982	199.674	-0.232	-0.361
-452.968	-158.629	-0.324	0.019
-451.953	-128.635	0.240	0.034
-450.938	-22.733	-0.173	0.106
-449.924	-200.000	0.025	-0.368
-448.909	25.869	-0.106	-0.089
-447.895	41.538	0.246	-0.226
-446.880	55.646	-0.183	0.180
-445.865	45.881	-0.179	0.168
-444.851	-200.000	-0.019	-0.300
-443.836	40.118	-0.164	0.150
-442.822	51.980	0.081	-0.078
-441.807	148.841	0.124	0.170
-440.792	297.282	-0.205	-0.382
-439.778	-13.512	-0.222	0.146
-438.763	76.492	-0.239	0.257
-437.749	-48.837	0.116	-0.056
-436.734	800.000	-0.132	-0.401
-435.719	-200.000	0.119	-0.586
-434.705	189.361	0.077	0.117
-433.690	800.000	-0.063	-0.196
-432.676	222.191	0.100	-0.163
-431.661	-200.000	0.018	-0.248
-430.646	-89.568	-0.340	0.101
-429.632	-85.474	-0.154	0.049
-428.617	-200.000	-0.004	0.052
-427.603	-111.675	-0.170	0.035
-426.588	-80.267	-0.201	-0.068
-425.573	-200.000	-0.028	-0.278
-424.559	-200.000	-0.023	-0.252
-423.544	58.601	0.137	-0.137
-422.530	140.033	-0.206	0.276
-421.515	-78.871	-0.179	-0.062
-420.500	165.512	0.106	0.152
-419.486	648.422	0.034	0.088
-418.471	-95.059	0.270	0.074
-417.457	66.838	-0.206	-0.212
-416.442	-61.792	-0.195	-0.083
-415.428	-119.175	0.057	0.010
-414.413	-200.000	0.013	-0.094
-413.398	-200.000	0.164	0.000
-412.384	299.268	-0.090	-0.167
-411.369	270.164	0.130	0.231
-410.355	-129.043	0.366	-0.052
-409.340	187.808	0.066	0.101
-408.325	118.707	0.097	-0.121
-407.311	83.993	0.070	-0.077
-406.296	800.000	-0.030	-0.122
-405.282	74.044	-0.113	0.120
-404.267	162.518	-0.089	0.127
-403.252	800.000	-0.008	-0.024
-402.238	-97.523	-0.150	0.040
-401.223	728.345	0.037	-0.100
-400.209	285.461	0.046	0.083
-399.194	108.010	0.130	0.157
-398.179	133.023	-0.127	-0.166
-397.165	-200.000	-0.035	0.171
-396.150	-185.345	0.489	0.008
-395.136	-14.108	-0.245	-0.160
-394.121	117.474	-0.145	0.181
-393.106	-72.254	0.084	-0.032
-392.092	-18.812	0.103	-0.065
-391.077	-101.924	-0.107	0.026
-390.063	476.812	-0.076	0.175
-389.048	45.184	0.240	0.224
-388.033	-149.415	-0.385	-0.031
-387.019	800.000	-0.051	0.184
-386.004	-9.077	-0.131	0.089
-384.990	-13.089	-0.344	-0.226
-383.975	800.000	0.032	0.125
-382.960	-29.865	-0.213	0.123
-381.946	444.204	0.109	-0.243
-380.931	-106.658	-0.250	-0.056
-379.917	-200.000	-0.041	-0.181
-378.902	-116.995	-0.291	0.054
-377.888	-200.000	0.010	0.063
-376.873	44.665	-0.081	0.076
-375.858	-200.000	0.000	-0.239
-374.844	15.186	-0.240	-0.190
-373.829	330.618	0.047	-0.092
-372.815	-153.578	-0.112	0.008
-371.800	-200.000	-0.012	0.080
-370.785	142.226	-0.067	-0.090
-369.771	-61.799	0.273	0.116
-368.756	800.000	0.055	0.154
-367.742	-92.883	0.105	0.030
-366.727	-1.556	-0.177	0.126
-365.712	-107.877	0.221	0.049
-364.698	800.000	0.080	0.226
-363.683	84.508	0.107	-0.118
-362.669	-156.708	0.097	0.006
-361.654	140.154	0.280	0.373
-360.639	451.513	-0.087	-0.195
-359.625	-200.000	-0.004	0.298
-358.610	-69.990	0.207	0.080
-357.596	235.784	-0.077	0.129
-356.581	61.268	0.362	-0.364
-355.566	-200.000	-0.015	-0.244
-354.552	-93.401	-0.190	0.053
-353.537	9.813	0.067	0.051
-352.523	-200.000	0.002	0.073
-351.508	330.952	0.226	-0.440
-350.493	80.332	0.160	-0.174
-349.479	122.790	0.180	-0.227
-348.464	-158.963	-0.068	-0.004
-347.450	-200.000	0.012	-0.139
-346.435	800.000	0.096	0.397
-345.420	-145.554	0.153	-0.014
-344.406	706.251	0.110	0.293
-343.391	306.999	-0.052	0.098
-342.377	1.455	-0.119	0.087
-341.362	-86.767	-0.066	-0.020
-340.348	-62.685	0.239	-0.100
-339.333	181.191	-0.262	0.389
-338.318	-82.142	-0.215	-0.071
-337.304	-48.226	0.193	0.094
-336.289	-200.000	0.000	0.350
-335.275	117.390	0.188	0.233
-334.260	-68.404	0.090	0.035
-333.245	-80.644	-0.336	-0.113
-332.231	800.000	0.046	0.157
-331.216	-40.700	-0.257	0.134
-330.202	99.071	0.228	-0.266
-329.187	-116.184	0.250	-0.047
-328.172	290.557	0.093	0.170
-327.158	-73.295	-0.149	-0.055
-326.143	-200.000	-0.008	-0.162
-325.129	49.641	0.228	0.217
-324.114	86.441	-0.247	-0.275
-323.099	-200.000	-0.043	0.254
-322.085	353.335	-0.094	-0.188
-321.070	47.791	0.155	0.146
-320.056	-200.000	0.030	-0.233
-319.041	89.495	0.208	-0.234
-318.026	-56.156	-0.184	-0.083
-317.012	575.162	0.142	0.349
-315.997	70.134	0.314	-0.328
-314.983	-56.595	0.251	0.112
-313.968	90.940	0.034	0.039
-312.953	181.115	-0.074	-0.110
-311.939	13.886	0.315	0.247
-310.924	0.815	-0.095	-0.068
-309.910	-149.425	-0.069	-0.006
-308.895	48.670	0.090	0.085
-307.880	-66.310	0.103	0.041
-306.866	-86.499	0.071	0.022
-305.851	800.000	0.018	-0.068
-304.837	-49.941	-0.327	0.157
-303.822	12.302	0.223	-0.173
-302.807	18.340	-0.232	0.187
-301.793	15.227	-0.267	0.211
-300.778	584.010	-0.116	0.288
-299.764	-200.000	-0.023	-0.126
-298.749	-118.291	0.340	0.061
-297.735	800.000	-0.123	-0.398
-296.720	-97.023	0.161	0.043
-295.705	131.390	0.102	-0.132
-294.691	-200.000	-0.034	-0.540
-293.676	488.080	0.100	-0.230
-292.662	800.000	-0.029	-0.122
-291.647	-86.076	-0.055	-0.017
-290.632	800.000	-0.084	0.262
-289.618	-53.254	0.415	-0.192
-288.603	47.168	-0.126	0.118
-287.589	-179.627	0.245	-0.005
-286.574	80.298	-0.132	0.144
-285.559	-29.169	-0.244	-0.141
-284.545	32.185	0.152	-0.132
-283.530	800.000	-0.074	-0.224
-282.516	-126.437	0.119	0.018
-281.501	282.671	0.091	0.165
-280.486	150.246	0.165	-0.226
-279.472	5.173	-0.245	0.182
-278.457	-42.506	0.216	-0.111
-277.443	123.941	-0.249	-0.315
-276.428	240.197	-0.093	0.157
-275.413	488.731	0.082	-0.189
-274.399	-200.000	-0.034	0.252
-273.384	132.764	0.148	0.193
-272.370	-164.717	0.135	0.006
-271.355	-57.890	0.207	-0.091
-270.340	231.970	0.150	-0.247
-269.326	-117.318	0.215	0.039
-268.311	113.892	0.146	-0.178
-267.297	-170.682	-0.140	0.005
-266.282	46.636	-0.096	-0.089
-265.267	-200.000	-0.016	-0.141
-264.253	-80.710	-0.283	-0.095
-263.238	-156.758	-0.298	0.019
-262.224	-176.341	-0.094	-0.002
-261.209	800.000	0.016	0.059
-260.195	-200.000	0.015	-0.211
-259.180	364.985	0.069	0.141
-258.165	800.000	-0.043	-0.181
-257.151	110.949	-0.111	0.135
-256.136	-200.000	-0.040	-0.261
-255.122	-200.000	-0.049	0.319
-254.107	115.417	0.150	-0.185
-253.092	2.621	0.170	0.124
-252.078	636.494	0.103	-0.263
-251.063	-90.768	0.056	-0.016
-250.049	-200.000	0.005	0.242
-249.034	-200.000	-0.015	-0.355
-248.019	-65.083	-0.110	0.045
-247.005	-131.292	-0.224	0.030
-245.990	800.000	-0.069	-0.202
-244.976	-180.789	0.088	-0.002
-243.961	-135.330	-0.140	-0.017
-242.946	-65.105	0.094	0.038
-241.932	-106.305	0.260	-0.059
-240.917	423.656	-0.075	0.163
-239.903	800.000	0.013	-0.043
-238.888	176.538	0.192	0.281
-237.873	-43.577	0.200	-0.102
-236.859	240.248	0.085	-0.143
-235.844	-5.691	0.150	-0.103
-234.830	-200.000	0.029	0.235
-233.815	312.928	-0.013	-0.025
-232.800	51.936	0.101	0.097
-231.786	-121.043	0.548	0.093
-230.771	800.000	0.119	0.377
-229.757	490.180	0.076	-0.174
-228.742	-36.174	-0.110	0.060
-227.727	63.883	-0.055	0.056
-226.713	238.820	-0.090	0.151
-225.698	202.934	-0.140	0.218
-224.684	-200.000	0.021	0.209
-223.669	-71.800	0.228	-0.086
-222.655	321.789	0.108	-0.207
-221.640	-86.650	-0.075	-0.023
-220.625	334.799	-0.218	-0.425
-219.611	-110.122	0.155	-0.032
-218.596	-115.292	0.316	-0.060
-217.582	-7.910	-0.127	0.086
-216.567	-41.968	0.109	0.056
-215.552	-200.000	-0.021	-0.112
-214.538	-129.964	0.108	-0.015
-213.523	-38.763	-0.205	-0.109
-212.509	113.472	-0.270	0.329
-211.494	478.712	-0.177	-0.403
-210.479	-105.745	0.295	0.067
-209.465	800.000	0.046	-0.182
-208.450	-3.869	0.024	0.017
-207.436	-200.000	0.011	-0.145
-206.421	3.394	0.348	0.255
-205.406	-200.000	0.019	0.305
-204.392	-200.000	0.001	0.056
-203.377	198.559	0.107	-0.165
-202.363	-6.143	-0.276	-0.190
-201.348	388.058	0.173	0.359
-200.333	95.392	-0.151	-0.173
-199.319	393.837	0.156	0.326
-198.304	17.342	-0.084	0.067
-197.290	117.109	-0.061	0.076
-196.275	-125.250	-0.227	0.035
-195.260	800.000	-0.020	-0.060
-194.246	800.000	0.027	0.080
-193.231	328.468	0.291	0.562
-192.217	800.000	0.086	-0.249
-191.202	-200.000	0.033	-0.266
-190.187	-86.431	-0.569	-0.176
-189.173	-200.000	-0.010	0.335
-188.158	589.949	0.043	-0.105
-187.144	800.000	-0.029	-0.091
-186.129	-102.714	0.568	-0.136
-185.114	-45.771	0.116	-0.058
-184.100	-136.964	0.359	-0.041
-183.085	588.341	-0.093	-0.230
-182.071	135.093	0.163	-0.213
-181.056	146.100	-0.054	-0.073
-180.042	800.000	0.045	0.159
-179.027	-40.807	0.126	0.065
-178.012	230.041	-0.100	-0.165
-176.998	-143.365	-0.164	0.016
-175.983	-74.742	-0.153	0.055
-174.969	-25.742	0.336	-0.199
-173.954	-114.617	-0.151	-0.029
-172.939	-200.000	0.009	0.044
-171.925	-200.000	-0.009	0.150
-170.910	184.579	-0.190	-0.283
-169.896	22.052	-0.052	0.042
-168.881	494.224	-0.137	0.315
-167.866	-75.035	-0.212	-0.076
-166.852	112.478	-0.293	0.356
-165.837	800.000	-0.076	0.218
-164.823	261.579	0.215	-0.374
-163.808	56.803	-0.145	0.141
-162.793	297.004	-0.139	0.256
-161.779	-169.250	-0.133	-0.005
-160.764	-77.859	0.192	-0.066
-159.750	-200.000	0.047	-0.243
-158.735	-90.396	0.110	-0.032
-157.720	366.173	-0.163	-0.331
-156.706	-108.647	0.066	0.014
-155.691	183.162	0.075	0.111
-154.677	-126.582	-0.606	-0.090
-153.662	-135.548	-0.129	0.015
-152.647	110.479	-0.167	0.201
-151.633	-137.317	-0.271	0.031
-150.618	-200.000	0.037	0.274
-149.604	90.127	-0.159	-0.179
-148.589	-128.084	-0.317	0.045
-147.574	41.025	0.130	0.118
-146.560	-200.000	0.003	-0.203
-145.545	-200.000	-0.111	0.000
-144.531	-71.331	-0.329	0.124
-143.516	254.720	0.066	-0.113
-142.502	-200.000	0.030	-0.499
-141.487	-140.470	0.340	-0.036
-140.472	38.380	0.159	-0.142
-139.458	631.812	0.044	0.112
-138.443	-200.000	0.039	0.259
-137.429	-92.594	0.198	0.056
-136.414	350.924	0.086	0.170
-135.399	-126.461	0.390	-0.058
-134.385	-92.729	0.120	0.034
-133.370	-76.402	-0.227	0.080
-132.356	-200.000	-0.217	0.001
-131.341	39.046	0.169	0.152
-130.326	-192.475	-0.164	0.002
-129.312	86.493	0.172	0.190
-128.297	-178.214	0.197	0.005
-127.283	319.058	0.058	-0.111
-126.268	800.000	-0.063	-0.250
-125.253	107.281	-0.288	-0.343
-124.239	695.879	0.024	-0.064
-123.224	83.923	0.145	-0.159
-122.210	-132.881	-0.179	-0.023
-121.195	-200.000	-0.004	0.050
