DTS Sentinel unit serial number:	SN413079Multiplexer serial number:	ORYXHardware model number:	OX4-SRSoftware version number:	ORYX F/W v4.00 Oryx Data Collector v3.7.2.0data status	okinstallation	princeton_trtdifferential loss correction	single-endedforward channel	channel 2reverse channel	N/Adate	2019/09/15time	20:51:35forward acquisition time	60.00reverse acquisition time	0.00gamma	496.2192k internal	0.2332k external	0.2332temperature offset calibration	0.9935default loss term (dB/km)	0.3790temperature slope calibration	1.0000multiplexer offset coefficient	1.0000multiplexer slope coefficient	1.0000fibre end	0.00T internal ref (°C)	32.22T ext. ref 1 (°C)	7.99T ext. ref 2 (°C)	24.43length (m)	temperature (°C)	Stokes	anti-Stokes-747.200	-94.430	0.250	-0.069
-746.185	155.157	0.147	0.204
-745.171	-179.480	0.062	0.001
-744.156	-86.541	0.045	0.014
-743.142	-45.366	-0.120	0.060
-742.127	-143.882	-0.208	-0.020
-741.112	800.000	-0.121	-0.352
-740.098	612.398	0.078	0.196
-739.083	-86.984	-0.206	0.063
-738.069	-27.872	-0.083	0.049
-737.054	-116.231	0.226	-0.042
-736.039	386.473	-0.094	-0.194
-735.025	13.191	0.445	0.346
-734.010	413.388	-0.081	-0.172
-732.996	-99.188	-0.138	-0.035
-731.981	-53.124	-0.351	-0.162
-730.966	292.974	0.165	-0.303
-729.952	-72.091	-0.207	0.077
-728.937	-125.021	-0.257	0.040
-727.923	72.510	-0.099	0.104
-726.908	-24.091	-0.212	-0.127
-725.894	-115.499	-0.357	0.067
-724.879	-200.000	-0.005	-0.163
-723.864	-77.931	0.299	-0.104
-722.850	294.581	-0.199	-0.366
-721.835	164.884	-0.201	-0.284
-720.821	-200.000	0.013	0.279
-719.806	-104.659	-0.209	0.048
-718.791	-200.000	-0.030	0.179
-717.777	-21.164	0.197	0.121
-716.762	-44.261	-0.123	-0.062
-715.748	14.015	0.364	0.285
-714.733	35.362	0.198	-0.175
-713.718	-139.154	0.244	0.027
-712.704	249.239	-0.088	0.150
-711.689	381.729	0.076	0.157
-710.675	311.961	-0.065	-0.123
-709.660	40.761	0.154	-0.139
-708.645	-136.253	0.253	0.030
-707.631	-73.422	0.287	-0.105
-706.616	-21.240	0.306	0.188
-705.602	32.954	-0.142	0.124
-704.587	-117.685	0.171	-0.031
-703.572	61.415	-0.244	-0.244
-702.558	-48.025	-0.101	-0.049
-701.543	-43.546	0.277	-0.141
-700.529	89.552	0.107	0.119
-699.514	-200.000	-0.050	0.235
-698.499	-61.505	-0.138	0.058
-697.485	14.065	0.164	-0.128
-696.470	-38.293	-0.217	-0.115
-695.456	-73.509	0.151	-0.055
-694.441	207.399	0.100	-0.157
-693.426	-45.285	0.100	0.050
-692.412	-187.987	-0.221	0.003
-691.397	800.000	-0.031	0.105
-690.383	-43.626	-0.086	-0.044
-689.368	289.658	0.051	-0.092
-688.354	-200.000	0.037	-0.266
-687.339	95.642	0.151	-0.173
-686.324	-200.000	0.004	-0.155
-685.310	10.396	-0.057	-0.043
-684.295	-34.616	-0.160	-0.088
-683.281	800.000	-0.050	-0.141
-682.266	5.835	-0.117	-0.087
-681.251	800.000	-0.126	-0.364
-680.237	-46.660	0.316	-0.155
-679.222	212.986	-0.158	0.250
-678.208	-200.000	0.016	-0.309
-677.193	-60.186	0.289	-0.123
-676.178	800.000	-0.034	-0.150
-675.164	800.000	0.026	0.074
-674.149	-200.000	0.046	-0.341
-673.135	-130.788	0.151	0.020
-672.120	-100.571	-0.200	-0.050
-671.105	-17.333	0.329	0.208
-670.091	800.000	-0.083	-0.259
-669.076	-101.145	0.312	-0.077
-668.062	-39.815	-0.227	0.119
-667.047	-2.776	-0.082	0.058
-666.032	306.636	-0.053	-0.099
-665.018	-12.610	0.138	-0.090
-664.003	97.892	0.113	0.131
-662.989	285.427	0.114	-0.206
-661.974	-65.397	-0.123	-0.050
-660.959	-113.007	0.224	-0.044
-659.945	-200.000	-0.000	0.134
-658.930	435.364	0.049	-0.107
-657.916	800.000	0.091	0.253
-656.901	-38.885	-0.063	0.034
-655.886	-26.320	0.069	-0.041
-654.872	167.526	0.246	-0.350
-653.857	-121.969	0.411	0.068
-652.843	5.956	0.317	-0.236
-651.828	312.256	-0.171	-0.322
-650.814	-50.302	0.227	0.108
-649.799	-200.000	0.013	0.089
-648.784	-131.408	0.187	0.025
-647.770	-145.051	-0.116	0.011
-646.755	120.492	-0.290	0.361
-645.741	153.589	-0.093	-0.127
-644.726	-130.638	0.119	-0.016
-643.711	800.000	0.021	0.067
-642.697	-145.115	-0.438	0.040
-641.682	79.629	-0.191	0.205
-640.668	-38.127	-0.104	-0.055
-639.653	-135.003	-0.325	-0.039
-638.638	-109.709	-0.163	0.034
-637.624	166.071	0.096	0.136
-636.609	800.000	0.108	-0.302
-635.595	-45.708	0.116	0.058
-634.580	800.000	-0.084	0.233
-633.565	92.196	-0.355	0.400
-632.551	-158.272	0.154	0.009
-631.536	79.356	0.262	0.281
-630.522	800.000	0.067	0.194
-629.507	390.781	-0.023	0.048
-628.492	-35.516	-0.334	0.182
-627.478	-128.490	0.106	-0.015
-626.463	14.844	0.327	0.256
-625.449	-34.395	-0.043	0.024
-624.434	163.264	-0.118	-0.167
-623.419	800.000	0.035	0.103
-622.405	-123.972	0.112	0.018
-621.390	49.269	0.351	0.330
-620.376	-200.000	-0.039	-0.175
-619.361	-129.642	-0.182	0.025
-618.346	286.227	0.242	-0.437
-617.332	63.220	-0.325	0.326
-616.317	800.000	-0.138	-0.434
-615.303	41.597	0.396	0.359
-614.288	-97.325	-0.221	-0.058
-613.273	800.000	-0.032	-0.116
-612.259	-200.000	-0.126	0.000
-611.244	800.000	0.066	-0.208
-610.230	-200.000	0.016	-0.240
-609.215	543.556	0.051	-0.122
-608.201	-78.835	0.132	0.045
-607.186	800.000	0.020	-0.084
-606.171	4.021	-0.275	0.201
-605.157	-9.661	0.122	-0.081
-604.142	74.770	-0.265	-0.279
-603.128	-34.196	-0.249	-0.137
-602.113	-51.903	-0.077	0.036
-601.098	50.100	0.035	-0.033
-600.084	-152.175	0.211	-0.015
-599.069	-200.000	0.020	0.095
-598.055	-32.690	-0.064	-0.036
-597.040	164.690	0.236	-0.334
-596.025	-43.840	0.191	-0.096
-595.011	81.183	-0.123	-0.133
-593.996	-5.000	0.270	-0.186
-592.982	800.000	0.118	-0.336
-591.967	800.000	0.088	-0.247
-590.952	184.841	0.053	-0.079
-589.938	52.814	0.096	-0.092
-588.923	-200.000	0.054	0.300
-587.909	-200.000	-0.032	-0.229
-586.894	-172.928	-0.114	-0.004
-585.879	-200.000	0.010	0.114
-584.865	-43.866	0.161	0.081
-583.850	-200.000	0.002	-0.107
-582.836	-70.436	-0.226	-0.086
-581.821	-119.070	-0.075	-0.013
-580.806	-31.962	-0.254	0.142
-579.792	-31.393	0.185	-0.104
-578.777	-120.266	-0.335	0.057
-577.763	442.735	-0.087	-0.191
-576.748	-200.000	0.008	-0.072
-575.733	-136.652	-0.089	-0.010
-574.719	2.626	-0.031	0.022
-573.704	-200.000	-0.070	0.327
-572.690	-43.731	-0.198	-0.100
-571.675	-37.638	-0.183	0.098
-570.661	137.676	0.098	-0.128
-569.646	23.358	0.083	-0.068
-568.631	7.556	0.040	-0.030
-567.617	-113.509	0.090	-0.018
-566.602	800.000	0.065	-0.226
-565.588	21.634	-0.083	-0.067
-564.573	398.538	0.058	0.121
-563.558	-90.747	-0.209	0.060
-562.544	-200.000	0.061	0.320
-561.529	-55.214	-0.291	-0.131
-560.515	-200.000	-0.033	0.160
-559.500	28.267	-0.158	0.133
-558.485	800.000	0.057	0.217
-557.471	-67.236	-0.003	-0.001
-556.456	-150.638	-0.301	-0.023
-555.442	109.299	0.191	0.229
-554.427	800.000	0.024	-0.089
-553.412	-200.000	0.012	-0.144
-552.398	800.000	0.081	-0.224
-551.383	-43.120	-0.100	-0.051
-550.369	31.233	-0.177	-0.151
-549.354	-102.173	0.252	-0.060
-548.339	800.000	0.051	0.175
-547.325	271.021	-0.190	-0.334
-546.310	-110.892	-0.356	-0.073
-545.296	-139.896	0.193	-0.020
-544.281	-12.845	0.206	0.134
-543.266	-18.305	-0.232	-0.145
-542.252	56.254	-0.236	-0.229
-541.237	288.389	0.218	-0.394
-540.223	-91.721	-0.046	-0.013
-539.208	-200.000	0.000	-0.084
-538.193	-23.679	0.157	-0.094
-537.179	-200.000	0.018	-0.264
-536.164	-200.000	-0.018	-0.083
-535.150	-28.532	0.396	0.228
-534.135	137.072	0.111	-0.145
-533.121	411.340	-0.143	-0.303
-532.106	-34.663	-0.062	0.034
-531.091	3.255	0.246	0.178
-530.077	179.584	-0.197	-0.288
-529.062	-62.851	0.160	0.066
-528.048	-42.784	0.288	-0.146
-527.033	4.934	0.270	0.198
-526.018	150.028	0.051	0.069
-525.004	38.720	-0.010	0.009
-523.989	-134.736	0.060	-0.007
-522.975	-200.000	-0.063	0.377
-521.960	115.117	-0.249	0.303
-520.945	2.888	0.280	-0.203
-519.931	-40.315	-0.121	-0.063
-518.916	142.881	0.014	0.018
-517.902	-162.950	0.219	0.011
-516.887	-39.597	0.472	-0.246
-515.872	273.394	-0.121	-0.214
-514.858	-200.000	0.011	-0.189
-513.843	51.627	0.030	0.029
-512.829	60.529	0.098	-0.097
-511.814	-200.000	0.003	-0.032
-510.799	255.004	-0.160	0.272
-509.785	-85.725	0.136	-0.042
-508.770	-120.799	-0.335	0.056
-507.756	800.000	0.060	-0.261
-506.741	297.864	0.142	-0.260
-505.726	-107.074	0.310	-0.068
-504.712	-33.024	-0.122	0.067
-503.697	-200.000	-0.018	0.086
-502.683	-200.000	0.010	0.217
-501.668	-44.103	-0.104	0.052
-500.653	-14.135	-0.139	-0.090
-499.639	145.589	0.104	0.139
-498.624	79.202	-0.152	0.162
-497.610	386.691	0.088	0.181
-496.595	156.118	-0.091	-0.125
-495.581	-80.910	-0.284	-0.094
-494.566	-62.832	0.322	-0.133
-493.551	-137.076	0.052	-0.006
-492.537	-200.000	0.022	-0.119
-491.522	30.380	-0.233	-0.198
-490.508	-200.000	-0.076	-0.486
-489.493	179.507	0.107	-0.156
-488.478	191.781	0.123	0.185
-487.464	258.223	-0.060	-0.102
-486.449	-111.257	0.237	-0.048
-485.435	11.235	0.312	0.238
-484.420	23.704	0.334	0.274
-483.405	62.320	0.091	0.090
-482.391	281.607	0.023	-0.040
-481.376	-87.064	0.230	0.070
-480.362	-103.068	0.139	-0.033
-479.347	-200.000	-0.261	-0.000
-478.332	0.701	0.104	0.074
-477.318	-49.557	-0.222	0.105
-476.303	800.000	0.070	0.227
-475.289	-200.000	-0.052	-0.295
-474.274	-200.000	-0.038	-0.309
-473.259	424.541	0.084	0.180
-472.245	-9.455	0.181	-0.120
-471.230	800.000	0.091	-0.287
-470.216	241.117	-0.125	0.208
-469.201	-156.619	-0.133	0.008
-468.186	800.000	0.050	-0.152
-467.172	-51.296	0.170	-0.079
-466.157	800.000	-0.060	0.214
-465.143	283.585	-0.102	0.183
-464.128	175.401	-0.168	0.242
-463.113	-139.431	0.302	0.032
-462.099	-113.195	-0.031	-0.006
-461.084	2.756	0.124	-0.090
-460.070	174.038	-0.189	-0.271
-459.055	-200.000	-0.023	0.177
-458.040	-123.490	-0.111	0.018
-457.026	147.288	0.097	0.130
-456.011	-90.562	0.196	0.056
-454.997	215.616	-0.200	0.316
-453.982	-48.792	-0.179	-0.086
-452.968	225.751	-0.099	-0.159
-451.953	800.000	0.058	0.222
-450.938	795.369	-0.008	-0.021
-449.924	-200.000	0.106	-0.525
-448.909	-171.158	0.050	0.002
-447.895	474.795	0.042	0.095
-446.880	-24.801	0.136	-0.080
-445.865	-68.157	-0.340	0.132
-444.851	428.226	-0.133	-0.287
-443.836	-167.107	-0.197	0.008
-442.822	296.974	-0.148	-0.269
-441.807	800.000	-0.152	-0.451
-440.792	235.191	-0.047	-0.078
-439.778	497.946	-0.029	0.067
-438.763	-163.213	0.260	-0.012
-437.749	-188.012	-0.090	0.001
-436.734	-112.144	0.192	0.038
-435.719	-200.000	-0.011	-0.440
-434.705	219.177	-0.029	-0.046
-433.690	1.307	0.190	-0.136
-432.676	-6.848	0.078	0.052
-431.661	-17.394	-0.124	0.077
-430.646	-123.739	0.251	-0.039
-429.632	-109.831	0.135	0.028
-428.617	-45.322	-0.298	0.147
-427.603	125.614	-0.109	-0.137
-426.588	-96.900	-0.076	0.020
-425.573	413.688	0.104	-0.220
-424.559	-200.000	-0.026	-0.173
-423.544	-200.000	-0.013	0.140
-422.530	800.000	0.073	-0.276
-421.515	141.377	0.026	-0.034
-420.500	47.661	-0.296	0.274
-419.486	430.701	-0.188	0.405
-418.471	-121.454	-0.289	-0.048
-417.457	-17.840	0.192	0.120
-416.442	-200.000	0.024	-0.160
-415.428	57.883	0.092	-0.090
-414.413	-62.105	-0.193	-0.080
-413.398	185.817	-0.030	0.044
-412.384	382.069	0.086	0.176
-411.369	-1.139	0.115	0.081
-410.355	-200.000	-0.066	0.349
-409.340	-66.387	-0.263	0.104
-408.325	-200.000	0.030	-0.195
-407.311	0.971	-0.192	0.137
-406.296	418.483	0.144	-0.305
-405.282	-76.685	-0.172	0.060
-404.267	-38.055	0.180	-0.095
-403.252	16.375	-0.136	0.106
-402.238	107.667	-0.126	0.149
-401.223	-135.596	0.388	0.046
-400.209	-63.795	-0.258	-0.105
-399.194	-9.094	-0.021	-0.014
-398.179	-3.243	0.190	-0.132
-397.165	-71.249	-0.162	0.060
-396.150	89.085	0.073	0.080
-395.136	8.390	0.196	-0.146
-394.121	-88.372	0.126	0.037
-393.106	22.365	-0.090	-0.073
-392.092	-17.561	0.128	-0.080
-391.077	-83.489	-0.103	-0.033
-390.063	800.000	-0.092	0.318
-389.048	-91.584	0.069	0.019
-388.033	-200.000	-0.028	-0.168
-387.019	-148.428	0.213	0.017
-386.004	-155.202	-0.210	-0.014
-384.990	288.114	0.103	0.186
-383.975	-43.509	0.239	0.120
-382.960	-136.427	-0.277	-0.032
-381.946	555.787	0.106	0.254
-380.931	387.165	-0.134	0.275
-379.917	-73.680	-0.052	-0.019
-378.902	-200.000	-0.019	-0.270
-377.888	14.855	-0.205	-0.159
-376.873	-20.359	0.200	0.122
-375.858	-200.000	-0.034	0.344
-374.844	349.661	0.109	0.214
-373.829	-119.164	0.215	-0.037
-372.815	-200.000	0.010	-0.196
-371.800	-86.815	-0.089	-0.027
-370.785	698.435	0.030	0.079
-369.771	523.007	0.017	0.039
-368.756	-134.937	0.304	0.036
-367.742	255.596	-0.171	-0.290
-366.727	-200.000	0.016	0.316
-365.712	-200.000	0.006	-0.078
-364.698	-86.917	-0.175	0.053
-363.683	-134.290	-0.185	-0.023
-362.669	-200.000	-0.057	-0.262
-361.654	-63.776	-0.406	-0.165
-360.639	-147.476	0.124	-0.010
-359.625	-200.000	0.024	0.183
-358.610	239.650	0.105	0.174
-357.596	-55.612	-0.325	0.144
-356.581	687.784	-0.045	0.116
-355.566	104.699	-0.180	0.210
-354.552	800.000	-0.066	0.249
-353.537	-83.339	0.140	-0.044
-352.523	-200.000	0.037	-0.385
-351.508	-54.532	0.148	-0.066
-350.493	-190.387	-0.340	0.004
-349.479	256.935	-0.125	0.212
-348.464	-89.976	0.122	-0.035
-347.450	130.338	0.206	0.262
-346.435	-200.000	0.117	0.564
-345.420	-200.000	0.000	-0.279
-344.406	-50.388	-0.221	-0.103
-343.391	-174.954	-0.205	0.006
-342.377	-46.558	-0.083	-0.040
-341.362	-200.000	-0.031	-0.229
-340.348	425.675	-0.120	-0.256
-339.333	-200.000	-0.061	-0.285
-338.318	-200.000	-0.003	0.168
-337.304	-26.845	-0.199	-0.115
-336.289	-112.292	0.391	0.078
-335.275	-38.232	-0.181	0.095
-334.260	-142.855	-0.388	0.037
-333.245	-74.795	0.168	-0.060
-332.231	800.000	0.041	0.127
-331.216	102.604	-0.164	-0.190
-330.202	-62.778	0.318	0.131
-329.187	189.340	-0.252	0.374
-328.172	-100.924	-0.003	-0.001
-327.158	-56.880	0.091	0.040
-326.143	253.233	0.082	-0.138
-325.129	8.880	0.247	0.185
-324.114	-77.900	0.010	0.004
-323.099	353.604	-0.144	-0.283
-322.085	2.999	0.030	-0.021
-321.070	-161.239	-0.129	-0.007
-320.056	199.480	-0.027	0.042
-319.041	98.313	0.088	-0.100
-318.026	-22.831	0.125	0.075
-317.012	-200.000	-0.006	-0.408
-315.997	223.448	-0.089	0.142
-314.983	-200.000	0.064	0.358
-313.968	-121.313	-0.287	0.047
-312.953	306.888	-0.140	0.258
-311.939	-111.179	-0.236	-0.048
-310.924	800.000	0.061	0.198
-309.910	-90.044	-0.191	-0.055
-308.895	185.330	-0.091	0.133
-307.880	-55.387	-0.201	0.089
-306.866	-138.274	0.390	-0.043
-305.851	-30.830	0.154	0.086
-304.837	-31.823	0.248	-0.137
-303.822	-187.283	0.479	-0.006
-302.807	116.169	0.226	-0.274
-301.793	-200.000	-0.016	-0.091
-300.778	-74.370	-0.025	-0.009
-299.764	44.477	0.192	0.175
-298.749	27.434	-0.258	0.215
-297.735	-200.000	0.011	0.062
-296.720	195.049	-0.088	-0.131
-295.705	175.894	-0.067	-0.095
-294.691	-37.705	-0.263	0.138
-293.676	727.500	-0.101	0.265
-292.662	-27.932	0.335	0.192
-291.647	34.175	0.173	0.149
-290.632	-136.812	-0.178	-0.020
-289.618	27.168	-0.196	-0.163
-288.603	-82.414	-0.263	-0.084
-287.589	-42.388	-0.144	0.073
-286.574	-200.000	-0.002	-0.150
-285.559	-34.468	0.216	0.117
-284.545	-123.070	-0.343	-0.054
-283.530	181.921	-0.130	0.189
-282.516	-87.266	-0.152	0.045
-281.501	89.740	-0.154	-0.170
-280.486	-200.000	-0.011	0.376
-279.472	-200.000	-0.020	-0.411
-278.457	171.746	-0.155	-0.220
-277.443	-64.059	-0.252	0.101
-276.428	144.477	-0.183	0.241
-275.413	-188.009	0.079	0.001
-274.399	-106.435	0.125	0.027
-273.384	-160.720	-0.206	0.011
-272.370	800.000	0.072	-0.203
-271.355	-93.404	-0.129	0.035
-270.340	-200.000	-0.033	-0.146
-269.326	7.228	-0.220	-0.162
-268.311	249.117	-0.071	0.119
-267.297	34.688	-0.033	-0.028
-266.282	150.730	-0.089	0.119
-265.267	-200.000	-0.011	0.087
-264.253	140.159	0.204	-0.266
-263.238	488.248	-0.162	-0.365
-262.224	800.000	0.042	0.165
-261.209	215.076	0.057	-0.090
-260.195	-200.000	-0.015	0.153
-259.180	139.991	-0.143	0.185
-258.165	89.429	0.158	-0.173
-257.151	39.570	0.060	0.053
-256.136	-200.000	0.002	-0.168
-255.122	33.891	-0.139	0.119
-254.107	-35.134	-0.099	0.053
-253.092	64.000	-0.160	-0.159
-252.078	-20.921	-0.278	-0.168
-251.063	15.874	0.125	0.097
-250.049	800.000	0.072	0.298
-249.034	322.377	-0.125	-0.234
-248.019	-13.211	0.165	0.106
-247.005	-113.515	-0.213	0.041
-245.990	-127.929	-0.212	0.030
-244.976	72.678	0.174	-0.179
-243.961	-104.557	0.207	-0.047
-242.946	-58.092	0.243	0.105
-241.932	685.350	0.116	-0.298
-240.917	59.522	0.105	-0.102
-239.903	276.693	0.285	0.499
-238.888	-200.000	0.009	0.158
-237.873	135.412	0.082	-0.105
-236.859	-200.000	-0.014	-0.182
-235.844	231.858	-0.252	0.407
-234.830	347.527	0.084	0.163
-233.815	800.000	0.124	-0.338
-232.800	14.464	0.201	0.155
-231.786	287.678	0.075	0.134
-230.771	-50.384	-0.158	0.073
-229.757	357.872	-0.030	-0.059
-228.742	65.145	0.203	0.202
-227.727	359.874	0.095	0.187
-226.713	487.491	0.072	0.162
-225.698	690.382	-0.067	0.173
-224.684	463.340	-0.069	0.152
-223.669	-200.000	0.266	-0.001
-222.655	-54.144	-0.196	0.088
-221.640	153.925	0.141	0.190
-220.625	-76.278	-0.097	-0.034
-219.611	-78.320	0.144	-0.049
-218.596	155.491	0.092	0.125
-217.582	4.642	0.094	-0.068
-216.567	-170.679	-0.060	0.002
-215.552	53.805	-0.186	0.176
-214.538	52.331	-0.167	0.157
-213.523	542.600	0.077	-0.181
-212.509	-200.000	-0.004	0.131
-211.494	98.401	0.044	-0.050
-210.479	256.754	0.091	0.154
-209.465	40.055	0.105	-0.093
-208.450	-15.291	0.273	-0.172
-207.436	-200.000	0.027	-0.121
-206.421	-86.650	-0.192	-0.058
-205.406	-20.969	0.341	-0.206
-204.392	-200.000	-0.007	0.084
-203.377	-35.519	0.189	-0.101
-202.363	-64.114	0.204	-0.082
-201.348	112.173	-0.145	0.173
-200.333	-119.207	0.297	0.051
-199.319	-71.539	-0.211	-0.078
-198.304	800.000	0.019	0.056
-197.290	423.458	-0.157	-0.333
-196.275	188.791	0.066	0.097
-195.260	-155.755	0.265	0.017
-194.246	41.005	-0.197	0.176
-193.231	723.124	0.051	-0.133
-192.217	800.000	0.087	0.268
-191.202	305.770	0.170	-0.311
-190.187	-99.175	0.303	0.075
-189.173	-200.000	0.015	-0.267
-188.158	56.578	0.326	0.312
-187.144	43.209	0.057	0.051
-186.129	111.430	0.346	0.410
-185.114	93.535	-0.263	-0.293
-184.100	33.664	0.122	-0.104
-183.085	145.801	0.129	0.170
-182.071	-7.070	-0.331	-0.221
-181.056	157.648	0.239	-0.326
-180.042	67.087	0.183	-0.184
-179.027	-136.367	-0.278	0.032
-178.012	772.063	0.043	0.116
-176.998	39.196	0.343	0.302
-175.983	229.835	0.063	0.102
-174.969	-200.000	0.019	0.311
-173.954	800.000	-0.023	0.079
-172.939	-85.109	0.463	-0.143
-171.925	800.000	-0.091	0.309
-170.910	148.943	0.158	0.211
-169.896	81.269	0.075	-0.079
-168.881	-200.000	0.028	-0.132
-167.866	435.321	0.171	-0.367
-166.852	-148.344	0.217	0.018
-165.837	-200.000	-0.002	-0.123
-164.823	-115.525	0.344	0.064
-163.808	-200.000	0.063	-0.294
-162.793	800.000	0.099	0.333
-161.779	101.059	-0.267	-0.305
-160.764	-160.589	-0.380	0.020
-159.750	725.177	0.128	-0.335
-158.735	72.131	0.140	0.144
-157.720	368.018	-0.102	0.202
-156.706	-112.024	0.157	-0.031
-155.691	-100.961	-0.337	0.081
-154.677	800.000	-0.078	0.222
-153.662	-200.000	-0.039	0.221
-152.647	43.710	-0.160	-0.144
-151.633	-138.994	-0.177	-0.019
-150.618	-109.816	0.114	-0.024
-149.604	50.548	0.232	0.216
-148.589	800.000	0.033	-0.142
-147.574	325.265	0.117	0.220
-146.560	110.272	-0.138	0.163
-145.545	-200.000	0.022	-0.306
-144.531	599.913	0.068	-0.166
-143.516	-113.295	0.193	-0.037
-142.502	-123.178	-0.343	0.054
-141.487	350.660	0.048	0.094
-140.472	571.971	0.076	-0.181
-139.458	800.000	-0.067	0.229
-138.443	107.636	-0.134	-0.157
-137.429	413.749	-0.073	-0.153
-136.414	5.012	0.112	0.081
-135.399	-200.000	-0.012	-0.329
-134.385	242.834	-0.100	-0.165
-133.370	-200.000	0.007	-0.102
-132.356	800.000	-0.023	0.091
-131.341	40.307	-0.170	-0.150
-130.326	-10.339	-0.040	0.026
-129.312	-131.954	0.271	-0.035
-128.297	-71.412	0.146	-0.054
-127.283	12.164	-0.119	-0.090
-126.268	-200.000	0.045	0.243
-125.253	-66.127	-0.051	-0.020
-124.239	87.495	-0.216	0.234
-123.224	538.885	0.083	0.194
-122.210	63.637	0.190	-0.188
-121.195	-163.762	0.122	0.006
