DTS Sentinel unit serial number:	SN413079Multiplexer serial number:	ORYXHardware model number:	OX4-SRSoftware version number:	ORYX F/W v4.00 Oryx Data Collector v3.7.2.0data status	okinstallation	princeton_trtdifferential loss correction	single-endedforward channel	channel 2reverse channel	N/Adate	2019/09/17time	14:59:34forward acquisition time	60.00reverse acquisition time	0.00gamma	496.2192k internal	0.2309k external	0.2309temperature offset calibration	0.9984default loss term (dB/km)	0.3790temperature slope calibration	1.0000multiplexer offset coefficient	1.0000multiplexer slope coefficient	1.0000fibre end	0.00T internal ref (°C)	37.36T ext. ref 1 (°C)	0.38T ext. ref 2 (°C)	34.21length (m)	temperature (°C)	Stokes	anti-Stokes-747.200	800.000	-0.031	0.104
-746.185	-200.000	-0.072	0.328
-745.171	40.273	-0.167	0.153
-744.156	-83.169	0.194	0.063
-743.142	-38.978	-0.151	0.081
-742.127	15.866	-0.333	0.266
-741.112	-146.171	0.259	-0.023
-740.098	-94.611	-0.359	0.099
-739.083	-91.407	0.097	0.028
-738.069	-200.000	0.051	0.256
-737.054	-83.565	-0.256	-0.083
-736.039	-78.978	-0.065	0.022
-735.025	-113.803	0.376	0.074
-734.010	-147.899	-0.271	-0.023
-732.996	40.964	-0.116	-0.106
-731.981	268.936	0.106	-0.189
-730.966	-116.374	-0.145	0.027
-729.952	-50.767	0.115	-0.055
-728.937	800.000	0.053	-0.201
-727.923	-200.000	0.038	-0.206
-726.908	-81.968	-0.341	-0.113
-725.894	166.563	-0.094	-0.136
-724.879	108.970	-0.217	-0.263
-723.864	-31.723	-0.177	-0.101
-722.850	-107.494	-0.175	0.039
-721.835	-200.000	-0.048	-0.304
-720.821	305.707	-0.181	-0.342
-719.806	405.025	-0.189	0.404
-718.791	-87.215	-0.168	-0.052
-717.777	-7.247	0.128	-0.088
-716.762	-134.895	0.138	-0.017
-715.748	-163.963	0.136	0.006
-714.733	-69.596	-0.180	-0.070
-713.718	800.000	-0.069	0.210
-712.704	314.783	-0.062	-0.119
-711.689	-46.384	0.218	-0.109
-710.675	800.000	-0.139	-0.432
-709.660	-23.812	0.025	0.015
-708.645	-200.000	-0.038	-0.194
-707.631	-29.423	0.147	-0.085
-706.616	290.162	0.184	0.339
-705.602	248.540	-0.228	-0.391
-704.587	365.972	-0.103	0.210
-703.572	-51.119	0.142	-0.067
-702.558	-84.690	-0.205	0.065
-701.543	-136.686	-0.226	-0.027
-700.529	-200.000	0.021	-0.305
-699.514	289.534	-0.109	0.200
-698.499	86.651	0.181	-0.203
-697.485	324.085	0.114	-0.221
-696.470	-61.547	0.151	0.064
-695.456	4.221	0.145	-0.108
-694.441	-0.076	0.506	0.365
-693.426	233.661	-0.102	-0.171
-692.412	-105.338	-0.231	0.053
-691.397	-200.000	-0.002	-0.104
-690.383	-84.685	0.157	0.050
-689.368	800.000	0.089	-0.364
-688.354	399.624	0.118	0.251
-687.339	27.344	0.225	-0.191
-686.324	15.376	-0.189	-0.150
-685.310	13.433	-0.108	-0.085
-684.295	488.391	0.078	0.180
-683.281	-15.871	0.223	0.144
-682.266	548.436	-0.068	-0.164
-681.251	-149.884	-0.220	0.017
-680.237	50.538	-0.140	0.134
-679.222	-97.653	-0.169	-0.044
-678.208	142.688	-0.256	-0.345
-677.193	-200.000	-0.069	-0.312
-676.178	444.669	-0.117	0.259
-675.164	-41.993	0.159	-0.082
-674.149	61.107	-0.100	0.101
-673.135	-23.105	-0.316	0.193
-672.120	6.144	0.148	-0.111
-671.105	800.000	-0.119	-0.354
-670.091	-67.769	-0.195	0.077
-669.076	-200.000	0.039	-0.462
-668.062	-74.259	0.240	0.088
-667.047	-27.112	-0.082	0.049
-666.032	-200.000	0.042	0.280
-665.018	-200.000	-0.003	-0.153
-664.003	-2.433	-0.260	-0.184
-662.989	-122.283	0.104	0.017
-661.974	591.171	0.044	0.110
-660.959	-157.988	-0.098	0.006
-659.945	190.043	0.091	0.138
-658.930	-44.170	-0.155	0.079
-657.916	-78.436	0.338	-0.117
-656.901	60.122	0.112	-0.113
-655.886	-62.605	0.070	0.029
-654.872	-200.000	-0.020	-0.155
-653.857	568.547	-0.187	-0.460
-652.843	-40.158	-0.296	0.156
-651.828	800.000	0.076	0.281
-650.814	372.797	0.069	-0.142
-649.799	274.083	0.030	0.054
-648.784	-48.153	-0.179	0.088
-647.770	-157.346	-0.036	-0.002
-646.755	-200.000	0.039	-0.255
-645.741	136.479	0.164	-0.216
-644.726	101.155	0.129	0.152
-643.711	162.576	0.155	0.220
-642.697	-52.664	-0.169	0.079
-641.682	4.144	0.215	0.159
-640.668	209.654	0.111	0.177
-639.653	-62.925	0.091	0.038
-638.638	13.620	-0.072	0.057
-637.624	88.193	-0.175	-0.197
-636.609	-115.547	0.190	-0.036
-635.595	24.714	-0.259	-0.217
-634.580	578.686	0.041	0.101
-633.565	189.291	-0.152	0.230
-632.551	-200.000	0.044	-0.273
-631.536	73.108	-0.085	0.090
-630.522	28.138	0.190	-0.162
-629.507	67.082	-0.222	-0.229
-628.492	164.743	-0.044	-0.063
-627.478	-144.296	-0.293	0.028
-626.463	28.677	-0.257	-0.220
-625.449	-36.043	0.142	0.078
-624.434	-200.000	0.013	-0.237
-623.419	18.664	-0.118	-0.096
-622.405	-55.504	0.153	0.069
-621.390	800.000	0.042	0.136
-620.376	-94.864	0.391	0.107
-619.361	144.727	0.172	0.232
-618.346	-200.000	-0.056	0.301
-617.332	-136.881	0.042	-0.005
-616.317	99.873	0.070	0.083
-615.303	-122.157	0.302	-0.050
-614.288	92.551	0.255	0.291
-613.273	-42.962	0.196	0.101
-612.259	46.819	-0.166	-0.156
-611.244	-79.259	-0.155	-0.053
-610.230	669.149	0.190	0.496
-609.215	-200.000	0.000	0.178
-608.201	-200.000	0.019	0.173
-607.186	-85.318	0.449	-0.142
-606.171	-143.062	-0.353	0.034
-605.157	176.748	-0.092	-0.136
-604.142	255.998	0.077	0.134
-603.128	800.000	-0.111	0.334
-602.113	-3.872	0.147	-0.103
-601.098	-17.206	-0.164	0.105
-600.084	167.269	-0.120	0.173
-599.069	-35.810	-0.112	0.061
-598.055	686.725	-0.034	0.088
-597.040	-200.000	-0.015	-0.138
-596.025	-200.000	0.022	0.177
-595.011	-200.000	0.019	-0.133
-593.996	-200.000	-0.020	0.150
-592.982	-149.196	0.268	-0.022
-591.967	33.439	0.030	0.026
-590.952	104.583	-0.097	-0.115
-589.938	-26.059	-0.297	-0.176
-588.923	-31.575	-0.143	-0.081
-587.909	1.663	-0.250	-0.182
-586.894	52.538	0.260	-0.251
-585.879	-200.000	-0.022	-0.358
-584.865	-9.015	0.178	0.120
-583.850	-200.000	0.026	0.214
-582.836	49.755	-0.180	0.171
-581.821	179.272	-0.065	0.096
-580.806	11.456	-0.145	0.112
-579.792	-200.000	-0.050	-0.277
-578.777	292.533	-0.109	-0.201
-577.763	-106.354	0.094	-0.021
-576.748	-171.728	0.246	-0.008
-575.733	-85.045	0.130	0.041
-574.719	-86.699	0.105	-0.032
-573.704	356.404	-0.098	-0.197
-572.690	-1.303	-0.128	-0.091
-571.675	-126.377	-0.219	-0.033
-570.661	-152.407	-0.145	-0.011
-569.646	-70.176	-0.163	-0.062
-568.631	-1.112	0.181	-0.129
-567.617	-129.878	0.329	-0.046
-566.602	-200.000	0.017	-0.148
-565.588	162.102	-0.190	-0.269
-564.573	38.466	-0.112	0.101
-563.558	-27.432	-0.087	0.051
-562.544	-122.492	0.101	0.017
-561.529	451.648	-0.162	0.361
-560.515	-26.533	-0.141	-0.083
-559.500	800.000	-0.026	-0.114
-558.485	775.518	-0.028	-0.076
-557.471	283.195	0.144	-0.261
-556.456	206.616	-0.217	0.341
-555.442	-13.374	-0.391	-0.256
-554.427	-114.109	-0.102	0.020
-553.412	-200.000	-0.002	0.247
-552.398	-144.194	-0.276	0.026
-551.383	33.056	0.076	-0.066
-550.369	-14.235	0.200	-0.130
-549.354	735.803	0.049	-0.133
-548.339	-161.935	-0.055	-0.003
-547.325	-200.000	0.022	0.148
-546.310	-102.962	-0.314	-0.075
-545.296	-56.720	0.152	0.068
-544.281	-120.373	0.092	0.016
-543.266	-11.550	0.147	-0.098
-542.252	20.890	-0.188	-0.154
-541.237	24.555	-0.217	-0.181
-540.223	26.470	0.100	0.084
-539.208	102.180	-0.203	-0.238
-538.193	12.625	0.067	-0.052
-537.179	-73.245	0.090	0.033
-536.164	77.968	0.108	-0.116
-535.150	-52.152	-0.223	-0.104
-534.135	-200.000	0.011	0.121
-533.121	267.691	-0.128	-0.225
-532.106	480.758	-0.143	-0.326
-531.091	800.000	-0.039	0.144
-530.077	-200.000	-0.035	0.195
-529.062	-200.000	0.005	0.067
-528.048	-200.000	-0.046	-0.344
-527.033	-120.078	-0.375	-0.065
-526.018	-200.000	0.042	0.192
-525.004	-200.000	-0.036	0.165
-523.989	-149.828	-0.617	0.049
-522.975	-200.000	0.051	-0.300
-521.960	776.883	-0.070	0.193
-520.945	-106.709	-0.364	-0.082
-519.931	738.910	0.053	-0.144
-518.916	-112.167	0.396	0.080
-517.902	-56.172	-0.328	-0.147
-516.887	21.423	0.040	-0.033
-515.872	-200.000	0.004	-0.189
-514.858	-27.665	-0.236	0.138
-513.843	174.365	-0.100	-0.146
-512.829	313.309	0.053	-0.101
-511.814	25.463	0.117	0.098
-510.799	-17.322	0.250	-0.159
-509.785	-152.588	-0.235	0.017
-508.770	-28.676	0.201	-0.117
-507.756	340.972	-0.087	0.171
-506.741	-200.000	-0.029	0.233
-505.726	-62.549	-0.242	-0.101
-504.712	42.858	0.055	0.050
-503.697	-200.000	0.009	-0.228
-502.683	-200.000	0.017	0.080
-501.668	-92.068	-0.228	0.065
-500.653	298.159	0.158	-0.293
-499.639	403.210	-0.016	-0.035
-498.624	274.455	0.083	-0.148
-497.610	-45.710	0.205	-0.102
-496.595	-12.280	-0.141	0.093
-495.581	-151.900	0.183	-0.013
-494.566	-54.669	0.387	-0.176
-493.551	800.000	-0.011	0.046
-492.537	596.456	0.107	-0.266
-491.522	-13.286	0.129	0.084
-490.508	-170.241	0.183	-0.006
-489.493	-8.034	-0.373	0.253
-488.478	161.632	0.083	-0.116
-487.464	631.842	0.118	-0.300
-486.449	800.000	0.057	0.164
-485.435	-200.000	0.048	0.275
-484.420	86.070	0.201	-0.222
-483.405	82.025	0.040	-0.043
-482.391	-110.050	-0.295	0.062
-481.376	-132.825	-0.113	0.015
-480.362	-29.370	-0.199	0.115
-479.347	-9.873	0.255	-0.171
-478.332	261.557	-0.161	-0.280
-477.318	75.458	-0.049	0.051
-476.303	589.976	-0.137	0.339
-475.289	-6.646	-0.044	-0.030
-474.274	-49.256	0.106	0.051
-473.259	-26.567	0.220	0.130
-472.245	800.000	-0.052	-0.196
-471.230	-200.000	-0.064	0.454
-470.216	800.000	-0.005	0.018
-469.201	-78.668	0.298	0.102
-468.186	247.098	-0.186	-0.316
-467.172	-69.483	-0.300	-0.116
-466.157	-94.689	0.112	0.030
-465.143	-200.000	-0.033	-0.186
-464.128	800.000	0.034	0.104
-463.113	800.000	-0.043	0.167
-462.099	105.322	0.131	0.156
-461.084	214.096	0.084	0.133
-460.070	357.044	0.078	-0.156
-459.055	602.276	-0.089	-0.222
-458.040	-6.168	-0.176	-0.120
-457.026	-17.271	-0.135	0.085
-456.011	-58.644	0.141	-0.061
-454.997	-164.234	0.334	-0.015
-453.982	-200.000	0.013	-0.069
-452.968	-63.512	-0.249	-0.103
-451.953	3.122	0.233	0.170
-450.938	-46.950	-0.373	0.183
-449.924	-200.000	0.001	0.180
-448.909	590.314	0.069	-0.172
-447.895	556.542	0.053	-0.129
-446.880	-133.464	0.186	-0.023
-445.865	-148.650	-0.215	-0.018
-444.851	-200.000	0.001	-0.282
-443.836	-200.000	0.000	0.042
-442.822	-31.728	-0.296	0.166
-441.807	397.456	-0.088	-0.185
-440.792	-200.000	0.051	0.285
-439.778	239.249	-0.197	-0.329
-438.763	-200.000	0.026	-0.320
-437.749	-178.668	0.285	0.007
-436.734	-108.546	-0.186	0.040
-435.719	-47.423	-0.289	0.141
-434.705	439.003	-0.134	0.293
-433.690	-48.745	0.084	-0.041
-432.676	-200.000	0.003	-0.045
-431.661	499.394	0.013	0.031
-430.646	800.000	-0.076	0.290
-429.632	89.548	-0.170	-0.190
-428.617	800.000	0.053	0.166
-427.603	800.000	0.022	0.088
-426.588	395.751	0.053	0.110
-425.573	337.657	-0.101	0.198
-424.559	-94.790	-0.442	-0.120
-423.544	-200.000	-0.036	-0.416
-422.530	-200.000	-0.041	0.249
-421.515	-56.648	-0.188	-0.084
-420.500	-111.090	0.032	0.007
-419.486	-200.000	0.067	-0.567
-418.471	-200.000	0.026	-0.181
-417.457	443.244	0.059	-0.129
-416.442	-200.000	0.034	0.181
-415.428	-102.631	-0.138	0.033
-414.413	-41.296	0.044	-0.023
-413.398	-31.430	0.161	0.091
-412.384	-47.700	0.092	-0.045
-411.369	294.326	-0.174	0.319
-410.355	-200.000	0.015	0.091
-409.340	-200.000	0.026	0.244
-408.325	447.272	-0.127	-0.281
-407.311	209.578	-0.103	-0.162
-406.296	348.889	-0.192	0.379
-405.282	-200.000	0.005	-0.293
-404.267	91.550	-0.082	-0.092
-403.252	-139.448	0.212	0.023
-402.238	-37.233	-0.177	-0.095
-401.223	70.176	-0.133	0.138
-400.209	160.526	-0.048	0.067
-399.194	-80.548	0.393	-0.131
-398.179	-69.006	0.260	0.100
-397.165	-66.893	0.229	0.091
-396.150	-176.394	0.205	0.005
-395.136	124.608	-0.153	0.192
-394.121	-156.211	-0.247	0.016
-393.106	292.342	-0.084	-0.154
-392.092	163.302	-0.168	-0.236
-391.077	53.908	0.254	0.245
-390.063	800.000	0.028	0.092
-389.048	-200.000	0.021	0.101
-388.033	-200.000	-0.035	0.269
-387.019	-75.607	0.205	-0.073
-386.004	-200.000	0.056	-0.288
-384.990	108.899	0.096	-0.115
-383.975	-16.252	-0.433	-0.275
-382.960	116.965	-0.094	0.115
-381.946	25.880	0.243	0.203
-380.931	800.000	0.049	-0.160
-379.917	2.532	0.037	0.027
-378.902	-82.480	-0.155	-0.051
-377.888	-162.115	0.286	0.014
-376.873	-200.000	-0.061	-0.319
-375.858	-59.361	-0.209	0.090
-374.844	-18.262	0.066	0.041
-373.829	-52.641	0.076	0.035
-372.815	-116.639	-0.175	0.032
-371.800	-200.000	0.001	0.060
-370.785	-200.000	0.024	0.192
-369.771	-4.882	-0.304	0.210
-368.756	182.522	0.099	-0.147
-367.742	-6.598	-0.158	0.108
-366.727	-200.000	0.008	0.174
-365.712	149.211	-0.077	0.104
-364.698	-46.170	0.075	0.037
-363.683	30.567	0.168	0.144
-362.669	800.000	0.051	0.212
-361.654	-31.433	-0.296	-0.167
-360.639	174.993	-0.172	0.249
-359.625	-200.000	0.004	0.210
-358.610	800.000	0.079	0.308
-357.596	714.735	0.072	-0.190
-356.581	-26.845	-0.210	0.123
-355.566	-77.457	0.306	0.106
-354.552	-40.864	0.202	-0.105
-353.537	199.588	-0.129	0.198
-352.523	-200.000	-0.049	0.366
-351.508	-19.044	0.175	0.109
-350.493	-50.919	-0.248	0.116
-349.479	-200.000	0.022	-0.103
-348.464	350.046	-0.048	0.095
-347.450	-200.000	0.022	0.175
-346.435	90.822	0.150	0.168
-345.420	-19.995	0.094	0.058
-344.406	378.278	0.049	0.101
-343.391	-200.000	-0.006	0.042
-342.377	-35.115	-0.143	0.078
-341.362	181.630	0.275	0.405
-340.348	428.316	0.152	0.327
-339.333	-142.233	-0.411	0.041
-338.318	-48.344	0.077	-0.037
-337.304	186.160	0.138	0.205
-336.289	-87.746	0.270	0.081
-335.275	-200.000	0.043	0.345
-334.260	-0.951	0.081	-0.057
-333.245	183.449	0.039	-0.058
-332.231	1.750	0.054	-0.039
-331.216	-12.239	-0.113	-0.074
-330.202	-141.106	0.135	-0.014
-329.187	-200.000	-0.004	-0.093
-328.172	-2.800	-0.294	0.205
-327.158	-200.000	-0.019	-0.227
-326.143	-200.000	0.002	-0.046
-325.129	-97.060	-0.234	-0.061
-324.114	-200.000	-0.019	0.103
-323.099	143.520	0.153	-0.204
-322.085	14.656	-0.119	-0.093
-321.070	-98.934	0.140	-0.036
-320.056	-145.453	-0.384	0.034
-319.041	-200.000	0.022	-0.270
-318.026	-27.782	-0.051	-0.029
-317.012	54.741	0.225	-0.217
-315.997	-200.000	0.047	-0.340
-314.983	288.047	-0.050	-0.091
-313.968	800.000	-0.050	0.146
-312.953	67.509	-0.119	-0.121
-311.939	-90.781	0.015	-0.004
-310.924	319.051	0.165	-0.313
-309.910	64.483	0.074	0.075
-308.895	-200.000	0.012	0.399
-307.880	800.000	-0.045	-0.168
-306.866	800.000	-0.113	-0.333
-305.851	-128.199	0.191	0.027
-304.837	36.835	-0.106	0.094
-303.822	0.414	-0.236	-0.168
-302.807	652.462	0.108	0.276
-301.793	-114.752	0.169	-0.032
-300.778	-94.484	0.361	0.098
-299.764	-154.704	-0.245	0.016
-298.749	713.443	-0.029	-0.077
-297.735	-200.000	-0.050	-0.368
-296.720	-200.000	0.019	-0.155
-295.705	269.508	0.092	0.162
-294.691	485.863	-0.124	-0.282
-293.676	588.504	0.016	-0.039
-292.662	135.863	-0.052	0.068
-291.647	-200.000	0.081	0.520
-290.632	25.345	0.414	-0.343
-289.618	-200.000	0.013	-0.318
-288.603	121.487	-0.121	0.150
-287.589	94.509	0.071	0.081
-286.574	171.568	0.162	-0.231
-285.559	93.760	-0.217	-0.245
-284.545	-200.000	-0.027	-0.243
-283.530	588.215	0.098	0.242
-282.516	-200.000	0.026	-0.401
-281.501	-200.000	-0.019	-0.105
-280.486	651.744	0.161	-0.413
-279.472	-200.000	-0.054	0.268
-278.457	800.000	0.051	-0.208
-277.443	-200.000	0.031	-0.189
-276.428	-109.440	-0.296	0.062
-275.413	-85.208	0.275	-0.086
-274.399	-54.325	0.266	0.120
-273.384	447.195	0.079	0.173
-272.370	-35.405	-0.159	-0.086
-271.355	-33.098	0.117	0.065
-270.340	-127.603	0.367	-0.053
-269.326	78.325	-0.143	0.152
-268.311	485.160	-0.042	-0.094
-267.297	55.538	-0.011	0.011
-266.282	-126.739	0.098	-0.014
-265.267	-200.000	-0.007	0.160
-264.253	-21.542	0.147	-0.089
-263.238	97.741	-0.053	-0.060
-262.224	-0.918	-0.229	0.162
-261.209	650.789	0.117	0.299
-260.195	-74.843	0.298	-0.107
-259.180	17.254	0.284	0.224
-258.165	667.752	-0.166	0.427
-257.151	-107.471	-0.238	-0.052
-256.136	-78.651	0.240	-0.082
-255.122	800.000	0.105	-0.316
-254.107	-144.833	0.169	0.015
-253.092	-64.996	-0.123	-0.050
-252.078	-109.001	0.128	-0.027
-251.063	168.877	0.064	0.091
-250.049	77.512	0.378	-0.401
-249.034	10.114	-0.129	0.098
-248.019	-65.913	-0.235	0.093
-247.005	-173.998	-0.235	0.007
-245.990	800.000	0.037	0.111
-244.976	-87.176	0.136	0.041
-243.961	-121.283	-0.159	-0.026
-242.946	52.208	-0.117	0.111
-241.932	800.000	0.061	0.217
-240.917	598.498	-0.210	0.518
-239.903	-200.000	-0.078	-0.506
-238.888	-63.553	-0.207	0.085
-237.873	800.000	0.064	-0.186
-236.859	-138.512	-0.110	0.012
-235.844	-151.097	-0.250	-0.019
-234.830	628.954	0.066	0.166
-233.815	-91.542	-0.143	-0.041
-232.800	-53.044	-0.210	0.096
-231.786	21.286	0.280	-0.227
-230.771	140.415	0.158	-0.208
-229.757	-200.000	0.011	0.106
-228.742	702.969	-0.085	-0.223
-227.727	-59.239	-0.060	-0.026
-226.713	149.298	0.257	-0.346
-225.698	-170.431	0.269	0.009
-224.684	-122.243	0.171	-0.028
-223.669	17.873	0.089	-0.071
-222.655	800.000	-0.026	0.073
-221.640	-0.392	-0.042	0.029
-220.625	152.902	-0.190	0.259
-219.611	728.676	0.062	-0.164
-218.596	-15.700	-0.201	-0.128
-217.582	444.230	0.032	0.071
-216.567	261.490	-0.103	0.177
-215.552	-84.291	0.238	0.075
-214.538	800.000	0.051	-0.140
-213.523	109.758	-0.026	0.031
-212.509	45.298	0.318	-0.292
-211.494	-73.662	0.329	0.119
-210.479	404.546	0.024	-0.050
-209.465	-200.000	0.016	0.137
-208.450	-23.902	-0.098	-0.058
-207.436	424.719	-0.140	0.300
-206.421	-200.000	-0.043	-0.481
-205.406	-200.000	-0.058	-0.308
-204.392	-9.913	0.168	-0.111
-203.377	18.381	-0.141	-0.112
-202.363	-100.360	-0.140	0.034
-201.348	217.653	0.117	0.186
-200.333	-73.919	-0.146	0.053
-199.319	-16.303	-0.254	0.160
-198.304	800.000	0.081	-0.240
-197.290	55.588	0.232	-0.224
-196.275	-200.000	0.006	0.085
-195.260	20.099	0.180	-0.144
-194.246	-162.077	0.447	-0.022
-193.231	-76.999	0.248	-0.086
-192.217	800.000	-0.030	-0.121
-191.202	239.866	-0.191	0.317
-190.187	-26.593	0.083	-0.048
-189.173	800.000	0.037	-0.128
-188.158	-12.056	0.317	-0.207
-187.144	-200.000	0.007	-0.125
-186.129	152.653	0.237	0.322
-185.114	-46.605	-0.075	0.037
-184.100	-49.060	-0.171	0.082
-183.085	-95.680	-0.272	0.072
-182.071	68.870	0.168	0.172
-181.056	-200.000	-0.032	0.168
-180.042	157.744	-0.185	0.255
-179.027	128.092	-0.139	0.176
-178.012	494.896	-0.052	0.119
-176.998	-12.918	0.198	-0.128
-175.983	-35.168	0.237	-0.128
-174.969	-200.000	-0.053	0.237
-173.954	308.313	0.112	0.207
-172.939	-98.053	0.267	0.068
-171.925	422.833	0.125	0.266
-170.910	143.715	-0.073	-0.096
-169.896	167.656	-0.119	0.168
-168.881	158.762	0.146	0.201
-167.866	800.000	-0.036	0.145
-166.852	788.437	0.032	0.089
-165.837	-57.041	0.232	-0.101
-164.823	-90.973	0.275	-0.079
-163.808	522.873	-0.054	-0.126
-162.793	-200.000	-0.002	0.409
-161.779	-87.244	-0.470	-0.142
-160.764	345.578	-0.040	-0.078
-159.750	737.058	0.026	-0.068
-158.735	-88.586	-0.268	-0.079
-157.720	88.553	0.101	0.111
-156.706	-129.367	0.304	0.042
-155.691	-38.479	-0.084	-0.044
-154.677	-149.232	0.131	0.010
-153.662	241.776	0.069	-0.114
-152.647	133.049	0.296	0.380
-151.633	-125.912	0.040	-0.006
-150.618	-6.662	-0.138	0.093
-149.604	-135.893	-0.215	-0.025
-148.589	-133.898	0.229	0.028
-147.574	-15.271	0.305	0.193
-146.560	-28.061	-0.078	0.045
-145.545	35.203	0.018	-0.015
-144.531	-200.000	-0.027	0.192
-143.516	-81.602	-0.383	0.125
-142.502	186.534	0.123	0.181
-141.487	36.799	-0.148	0.130
-140.472	580.540	-0.066	0.160
-139.458	52.756	0.268	-0.254
-138.443	-44.139	-0.182	-0.090
-137.429	-102.017	0.365	0.087
-136.414	-182.092	0.238	-0.004
-135.399	800.000	-0.086	-0.284
-134.385	-200.000	0.017	-0.315
-133.370	-12.454	0.165	-0.107
-132.356	-113.377	0.171	0.033
-131.341	-116.780	0.313	-0.057
-130.326	179.014	-0.073	0.106
-129.312	-200.000	0.042	-0.201
-128.297	32.626	-0.120	0.103
-127.283	226.778	0.127	0.204
-126.268	-124.689	0.195	-0.030
-125.253	-120.727	-0.342	0.057
-124.239	177.767	-0.138	0.199
-123.224	-70.320	0.158	-0.059
-122.210	-109.323	-0.106	0.022
-121.195	-88.364	-0.393	0.117
