DTS Sentinel unit serial number:	SN413079Multiplexer serial number:	ORYXHardware model number:	OX4-SRSoftware version number:	ORYX F/W v4.00 Oryx Data Collector v3.7.2.0data status	okinstallation	princeton_trtdifferential loss correction	single-endedforward channel	channel 2reverse channel	N/Adate	2019/09/12time	10:49:10forward acquisition time	60.00reverse acquisition time	0.00gamma	496.2192k internal	0.2307k external	0.2307temperature offset calibration	1.0061default loss term (dB/km)	0.3790temperature slope calibration	1.0000multiplexer offset coefficient	1.0000multiplexer slope coefficient	1.0000fibre end	0.00T internal ref (°C)	37.91T ext. ref 1 (°C)	1.91T ext. ref 2 (°C)	36.69length (m)	temperature (°C)	Stokes	anti-Stokes-747.200	-36.266	-0.232	-0.127
-746.185	78.179	-0.200	0.217
-745.171	70.693	0.228	-0.240
-744.156	-200.000	-0.044	0.299
-743.142	-200.000	-0.023	0.218
-742.127	-148.811	0.370	0.030
-741.112	53.592	-0.075	-0.074
-740.098	213.651	-0.144	0.231
-739.083	-50.238	0.280	-0.135
-738.069	-189.328	-0.055	-0.001
-737.054	-48.834	-0.137	0.067
-736.039	-30.605	-0.275	-0.159
-735.025	800.000	0.030	0.127
-734.010	-105.376	-0.289	-0.067
-732.996	-69.583	0.040	-0.016
-731.981	-49.122	0.068	-0.033
-730.966	-87.247	-0.207	0.064
-729.952	-2.293	-0.241	-0.172
-728.937	-200.000	0.040	0.193
-727.923	-105.851	-0.203	0.047
-726.908	164.598	0.057	0.082
-725.894	-118.241	-0.294	0.053
-724.879	-19.373	-0.226	0.142
-723.864	484.512	-0.128	-0.296
-722.850	-118.029	0.071	-0.013
-721.835	-200.000	0.026	-0.195
-720.821	800.000	0.041	-0.142
-719.806	-55.013	-0.292	-0.134
-718.791	800.000	0.084	-0.235
-717.777	-6.910	0.153	-0.105
-716.762	-39.151	-0.295	-0.158
-715.748	600.679	0.075	-0.190
-714.733	29.763	0.106	-0.092
-713.718	451.589	0.038	-0.085
-712.704	47.931	-0.218	-0.207
-711.689	-62.052	-0.253	-0.107
-710.675	-200.000	0.046	-0.247
-709.660	166.215	0.116	0.167
-708.645	-32.621	-0.049	0.028
-707.631	-24.301	-0.383	-0.232
-706.616	-36.985	0.117	0.064
-705.602	800.000	-0.006	0.018
-704.587	441.344	0.121	0.270
-703.572	96.391	0.135	0.157
-702.558	-200.000	-0.021	0.095
-701.543	-49.071	-0.196	-0.095
-700.529	53.817	0.159	0.155
-699.514	-13.209	-0.097	-0.064
-698.499	59.292	-0.197	0.197
-697.485	46.702	0.070	-0.066
-696.470	-85.054	-0.162	-0.052
-695.456	-200.000	-0.031	0.216
-694.441	-200.000	-0.020	-0.138
-693.426	73.693	-0.063	-0.067
-692.412	386.260	0.092	-0.194
-691.397	8.350	-0.027	0.020
-690.383	2.477	-0.264	-0.194
-689.368	144.421	-0.115	-0.155
-688.354	800.000	0.047	-0.147
-687.339	-158.326	0.508	-0.030
-686.324	167.530	-0.147	-0.212
-685.310	66.755	-0.123	-0.127
-684.295	-18.230	-0.142	0.090
-683.281	-200.000	0.000	-0.176
-682.266	-200.000	0.005	-0.215
-681.251	800.000	-0.088	-0.381
-680.237	-56.020	0.171	-0.077
-679.222	-5.803	-0.198	-0.137
-678.208	-200.000	0.037	0.305
-677.193	22.849	0.238	0.198
-676.178	10.891	-0.079	0.061
-675.164	51.713	0.214	0.206
-674.149	-133.195	-0.400	-0.051
-673.135	-34.873	0.131	0.072
-672.120	87.666	-0.143	0.161
-671.105	113.844	0.152	-0.187
-670.091	-12.883	0.187	-0.123
-669.076	800.000	-0.069	-0.239
-668.062	800.000	-0.033	-0.114
-667.047	130.696	-0.098	-0.128
-666.032	-119.027	0.081	-0.014
-665.018	-66.250	0.113	-0.046
-664.003	17.698	0.161	-0.130
-662.989	-105.452	0.251	-0.058
-661.974	109.061	0.076	-0.092
-660.959	-68.186	0.088	-0.035
-659.945	351.754	-0.096	-0.193
-658.930	800.000	0.098	-0.285
-657.916	569.042	0.070	0.173
-656.901	-200.000	-0.036	0.466
-655.886	-63.761	-0.164	0.068
-654.872	-200.000	0.004	-0.171
-653.857	1.421	-0.036	0.026
-652.843	104.963	-0.062	0.074
-651.828	114.000	-0.089	-0.109
-650.814	-200.000	0.075	-0.397
-649.799	-85.382	-0.140	0.044
-648.784	722.594	-0.098	0.264
-647.770	65.215	0.113	-0.116
-646.755	117.017	-0.182	-0.226
-645.741	104.702	-0.206	-0.246
-644.726	370.773	0.125	-0.256
-643.711	-52.185	0.145	0.068
-642.697	55.073	-0.104	-0.101
-641.682	-200.000	-0.030	-0.243
-640.668	-154.876	-0.030	0.002
-639.653	-50.944	-0.045	-0.022
-638.638	-17.632	-0.117	0.075
-637.624	-177.941	0.254	0.006
-636.609	-96.343	0.096	0.026
-635.595	-200.000	-0.024	0.169
-634.580	131.594	-0.223	0.290
-633.565	144.924	0.193	-0.262
-632.551	-147.306	0.187	0.016
-631.536	-24.515	0.166	-0.100
-630.522	-119.056	-0.158	0.028
-629.507	-103.338	-0.118	0.028
-628.492	552.254	-0.127	-0.310
-627.478	-80.929	-0.146	-0.049
-626.463	-200.000	-0.012	0.169
-625.449	-65.464	-0.324	0.132
-624.434	-103.841	-0.205	0.048
-623.419	185.992	-0.113	-0.170
-622.405	646.046	-0.057	-0.147
-621.390	-200.000	-0.048	-0.248
-620.376	-129.989	-0.173	-0.024
-619.361	560.314	-0.092	0.224
-618.346	800.000	-0.088	-0.342
-617.332	-86.845	-0.312	-0.096
-616.317	-200.000	-0.087	-0.431
-615.303	-117.435	0.126	-0.023
-614.288	-37.340	-0.144	-0.078
-613.273	251.113	0.025	-0.043
-612.259	15.322	0.295	0.234
-611.244	-91.003	0.297	0.086
-610.230	-200.000	0.004	0.220
-609.215	-25.834	-0.082	0.049
-608.201	800.000	0.101	0.343
-607.186	-200.000	0.049	0.257
-606.171	33.171	-0.078	-0.069
-605.157	62.684	-0.048	-0.048
-604.142	800.000	0.066	0.213
-603.128	-97.539	0.396	-0.104
-602.113	476.353	0.080	-0.182
-601.098	-92.699	0.275	0.078
-600.084	-164.245	0.142	-0.007
-599.069	-58.236	-0.200	0.088
-598.055	800.000	-0.138	0.392
-597.040	25.160	-0.153	0.128
-596.025	-183.749	-0.245	-0.004
-595.011	146.120	0.108	-0.146
-593.996	-138.852	0.142	-0.016
-592.982	-100.668	0.195	-0.049
-591.967	-200.000	-0.049	-0.323
-590.952	35.888	-0.249	-0.222
-589.938	-200.000	0.008	0.076
-588.923	-200.000	-0.038	0.305
-587.909	12.108	0.084	-0.065
-586.894	468.259	0.061	-0.139
-585.879	-9.665	0.429	-0.289
-584.865	54.228	0.398	-0.387
-583.850	-19.025	-0.280	-0.176
-582.836	-102.231	-0.242	0.059
-581.821	15.436	0.090	0.071
-580.806	-200.000	-0.003	-0.029
-579.792	-40.917	-0.088	0.046
-578.777	-15.096	0.078	0.050
-577.763	207.324	-0.164	0.259
-576.748	-11.653	-0.184	0.122
-575.733	-46.590	-0.040	-0.020
-574.719	-103.078	0.356	0.085
-573.704	-29.592	0.069	-0.040
-572.690	-89.514	-0.363	-0.108
-571.675	-125.185	-0.180	-0.028
-570.661	174.997	-0.124	-0.181
-569.646	800.000	0.120	-0.410
-568.631	-134.625	-0.298	0.037
-567.617	-15.228	0.290	-0.187
-566.602	11.884	0.214	0.166
-565.588	-39.124	-0.158	0.084
-564.573	-200.000	0.051	-0.237
-563.558	242.889	-0.104	0.176
-562.544	-145.524	-0.109	0.010
-561.529	153.842	-0.119	0.164
-560.515	133.169	0.251	0.327
-559.500	800.000	-0.070	0.298
-558.485	-200.000	-0.038	0.500
-557.471	8.075	0.200	-0.151
-556.456	-200.000	-0.007	-0.305
-555.442	754.277	0.075	-0.205
-554.427	-200.000	0.022	0.218
-553.412	-85.385	-0.149	-0.047
-552.398	-31.738	0.246	-0.139
-551.383	354.462	-0.044	-0.088
-550.369	-94.927	0.033	-0.009
-549.354	-149.809	0.181	0.014
-548.339	687.532	-0.109	0.287
-547.325	800.000	0.017	0.064
-546.310	188.459	0.055	-0.083
-545.296	800.000	-0.025	-0.097
-544.281	336.689	-0.070	-0.138
-543.266	-115.555	0.168	-0.032
-542.252	107.881	-0.125	0.151
-541.237	-4.054	0.308	0.215
-540.223	800.000	0.026	-0.112
-539.208	800.000	-0.079	-0.309
-538.193	800.000	-0.070	-0.224
-537.179	13.356	-0.075	-0.058
-536.164	-35.710	-0.175	-0.096
-535.150	-120.752	-0.285	-0.049
-534.135	800.000	-0.020	0.082
-533.121	-99.898	0.055	-0.014
-532.106	80.388	0.054	0.059
-531.091	-21.704	0.055	0.034
-530.077	57.891	0.278	0.275
-529.062	-32.201	0.057	-0.032
-528.048	-200.000	0.024	-0.198
-527.033	-24.092	-0.288	-0.174
-526.018	227.657	0.123	-0.202
-525.004	-200.000	0.027	-0.205
-523.989	238.331	0.117	0.196
-522.975	-200.000	-0.003	0.173
-521.960	-108.528	0.312	-0.068
-520.945	35.113	0.121	-0.107
-519.931	160.228	0.080	-0.112
-518.916	145.656	0.071	-0.096
-517.902	800.000	0.050	-0.185
-516.887	-97.650	0.155	-0.040
-515.872	800.000	-0.067	0.238
-514.858	-200.000	0.103	0.526
-513.843	-117.607	-0.249	0.045
-512.829	-200.000	0.030	-0.151
-511.814	251.293	-0.109	0.186
-510.799	131.281	0.202	-0.262
-509.785	87.682	0.192	-0.215
-508.770	-1.279	-0.102	-0.072
-507.756	458.323	-0.116	-0.260
-506.741	145.886	-0.326	-0.440
-505.726	178.700	0.157	-0.231
-504.712	230.150	-0.080	0.131
-503.697	-31.070	-0.307	-0.175
-502.683	-104.087	0.060	-0.014
-501.668	241.905	0.139	0.234
-500.653	-29.370	0.070	0.041
-499.639	-106.388	0.363	-0.082
-498.624	14.014	0.268	0.210
-497.610	-200.000	-0.035	-0.384
-496.595	116.222	-0.172	0.212
-495.581	369.883	0.042	0.086
-494.566	728.079	-0.081	0.218
-493.551	-200.000	0.026	0.333
-492.537	-113.704	-0.320	-0.063
-491.522	243.349	0.213	-0.360
-490.508	-200.000	0.031	-0.360
-489.493	128.531	-0.069	0.089
-488.478	-66.951	-0.180	-0.072
-487.464	-29.513	-0.116	0.067
-486.449	-200.000	0.028	0.297
-485.435	52.797	-0.139	0.134
-484.420	-200.000	0.061	0.382
-483.405	168.128	-0.180	-0.258
-482.391	-97.350	0.219	-0.057
-481.376	-81.085	0.210	0.070
-480.362	-36.391	-0.212	0.115
-479.347	340.699	-0.124	-0.243
-478.332	6.859	0.172	0.129
-477.318	740.652	-0.128	0.347
-476.303	800.000	0.029	0.092
-475.289	241.222	-0.088	-0.147
-474.274	-36.134	0.129	0.070
-473.259	99.840	-0.154	0.179
-472.245	-200.000	-0.021	-0.128
-471.230	54.838	0.100	-0.097
-470.216	67.339	0.084	0.086
-469.201	-200.000	0.012	0.234
-468.186	435.257	0.119	-0.259
-467.172	-118.622	-0.137	-0.024
-466.157	-58.158	0.159	0.070
-465.143	-61.830	-0.243	0.102
-464.128	84.160	0.046	0.051
-463.113	236.226	0.146	-0.243
-462.099	800.000	-0.021	0.078
-461.084	363.959	-0.145	0.293
-460.070	-140.654	-0.570	-0.059
-459.055	-121.537	0.484	0.081
-458.040	333.476	0.092	0.180
-457.026	214.765	0.155	0.247
-456.011	-52.496	-0.328	-0.153
-454.997	-88.047	0.144	-0.043
-453.982	-200.000	0.069	-0.335
-452.968	9.995	-0.173	0.132
-451.953	189.385	-0.097	-0.146
-450.938	-200.000	-0.007	-0.290
-449.924	-80.395	0.013	-0.004
-448.909	800.000	-0.070	0.202
-447.895	71.978	0.067	-0.070
-446.880	-200.000	0.048	-0.464
-445.865	280.589	-0.106	-0.191
-444.851	-200.000	0.051	0.242
-443.836	-191.615	-0.186	0.002
-442.822	-29.523	0.265	0.152
-441.807	-26.790	-0.337	0.198
-440.792	-200.000	-0.028	-0.154
-439.778	-180.042	0.115	0.002
-438.763	-114.567	0.321	-0.062
-437.749	-200.000	0.021	0.183
-436.734	-88.088	0.102	0.031
-435.719	-85.862	0.047	0.014
-434.705	302.870	0.029	-0.055
-433.690	38.691	0.354	-0.318
-432.676	-66.522	-0.485	-0.193
-431.661	-172.235	0.117	-0.004
-430.646	-200.000	-0.017	-0.152
-429.632	-77.011	-0.396	0.139
-428.617	800.000	-0.072	-0.289
-427.603	-77.562	0.280	-0.097
-426.588	-109.643	-0.109	-0.023
-425.573	-200.000	0.003	0.437
-424.559	-200.000	-0.023	0.263
-423.544	450.539	0.121	-0.267
-422.530	-120.497	-0.285	-0.049
-421.515	-200.000	-0.009	0.135
-420.500	-200.000	-0.014	-0.130
-419.486	-200.000	-0.015	0.127
-418.471	-113.403	0.131	0.026
-417.457	-164.896	-0.187	0.008
-416.442	132.140	0.126	-0.163
-415.428	-200.000	-0.010	0.180
-414.413	-65.585	-0.126	-0.051
-413.398	-200.000	-0.029	0.180
-412.384	-110.572	0.096	-0.020
-411.369	91.270	-0.231	0.260
-410.355	-124.351	0.257	-0.040
-409.340	-200.000	-0.001	0.026
-408.325	-200.000	-0.038	-0.169
-407.311	-168.790	0.096	0.004
-406.296	-200.000	-0.002	0.185
-405.282	290.100	0.075	-0.136
-404.267	-58.063	-0.401	-0.176
-403.252	800.000	-0.026	-0.090
-402.238	800.000	-0.062	0.206
-401.223	-80.518	-0.126	-0.042
-400.209	34.596	-0.163	-0.143
-399.194	300.624	0.149	0.276
-398.179	-200.000	0.021	0.380
-397.165	-90.188	0.252	0.074
-396.150	800.000	-0.153	-0.451
-395.136	-3.720	0.225	-0.157
-394.121	-187.304	-0.454	0.006
-393.106	62.852	0.081	0.081
-392.092	367.880	-0.122	-0.247
-391.077	-67.009	0.044	-0.017
-390.063	-200.000	0.013	0.243
-389.048	-166.994	-0.135	-0.006
-388.033	-8.621	0.062	-0.042
-387.019	-200.000	-0.032	0.208
-386.004	276.268	0.137	-0.244
-384.990	-200.000	-0.022	0.171
-383.975	395.972	-0.084	0.177
-382.960	555.664	0.119	0.287
-381.946	-200.000	-0.002	-0.068
-380.931	107.290	0.202	-0.241
-379.917	800.000	0.019	-0.067
-378.902	89.616	0.188	0.210
-377.888	46.163	0.184	-0.171
-376.873	-52.905	-0.179	0.083
-375.858	-97.478	0.221	0.058
-374.844	303.473	-0.011	-0.020
-373.829	-200.000	0.025	-0.303
-372.815	14.008	0.343	0.267
-371.800	-79.312	-0.351	-0.119
-370.785	63.617	-0.147	-0.148
-369.771	-112.725	-0.223	0.044
-368.756	650.908	0.085	-0.217
-367.742	-156.671	0.018	0.001
-366.727	133.169	-0.274	-0.355
-365.712	-131.642	-0.477	-0.063
-364.698	-19.235	-0.108	0.067
-363.683	359.468	0.098	0.197
-362.669	-200.000	0.086	-0.493
-361.654	-173.143	0.321	-0.010
-360.639	786.129	-0.098	0.270
-359.625	800.000	-0.091	0.365
-358.610	380.827	-0.174	-0.358
-357.596	-200.000	-0.015	0.119
-356.581	-90.754	-0.260	0.075
-355.566	77.029	0.331	0.352
-354.552	-137.049	0.468	0.054
-353.537	9.187	-0.209	-0.158
-352.523	-63.428	-0.272	0.112
-351.508	2.590	0.239	0.173
-350.493	171.051	-0.167	-0.240
-349.479	-200.000	-0.033	-0.213
-348.464	45.825	0.240	0.222
-347.450	-64.788	0.139	-0.056
-346.435	714.906	0.089	0.235
-345.420	-89.227	-0.070	0.021
-344.406	-171.140	0.457	-0.015
-343.391	-200.000	-0.017	0.249
-342.377	35.602	-0.134	0.117
-341.362	800.000	-0.112	0.358
-340.348	28.705	-0.173	-0.147
-339.333	800.000	-0.046	-0.172
-338.318	-4.331	-0.247	-0.171
-337.304	83.609	0.212	0.231
-336.289	-200.000	-0.027	0.348
-335.275	-59.206	-0.317	0.137
-334.260	435.731	-0.106	0.231
-333.245	-128.698	0.074	0.010
-332.231	180.087	-0.135	-0.198
-331.216	443.533	-0.039	0.085
-330.202	234.027	-0.279	-0.461
-329.187	-200.000	-0.054	-0.274
-328.172	-88.726	0.112	-0.033
-327.158	37.758	-0.118	-0.104
-326.143	-200.000	-0.015	-0.173
-325.129	-200.000	-0.007	-0.337
-324.114	133.041	0.146	-0.188
-323.099	40.452	-0.072	0.065
-322.085	204.144	0.061	-0.095
-321.070	-200.000	-0.026	-0.132
-320.056	-92.942	0.045	0.013
-319.041	672.784	-0.013	0.034
-318.026	91.457	0.115	0.129
-317.012	171.301	0.240	0.344
-315.997	-41.676	-0.059	0.030
-314.983	718.216	-0.077	-0.204
-313.968	-12.622	-0.130	0.085
-312.953	89.857	0.058	-0.064
-311.939	314.339	-0.097	0.183
-310.924	406.443	-0.057	-0.121
-309.910	128.128	-0.064	-0.081
-308.895	133.489	-0.061	-0.079
-307.880	228.243	0.133	-0.217
-306.866	-69.007	0.161	-0.062
-305.851	800.000	-0.068	-0.256
-304.837	-200.000	0.002	-0.070
-303.822	218.343	-0.075	0.120
-302.807	-107.455	0.182	0.040
-301.793	508.389	-0.104	-0.241
-300.778	-38.472	0.465	0.246
-299.764	170.898	-0.140	0.201
-298.749	268.234	-0.112	-0.195
-297.735	-31.359	-0.132	-0.075
-296.720	39.639	0.230	0.207
-295.705	-200.000	-0.011	0.056
-294.691	-33.206	0.305	-0.169
-293.676	147.923	0.134	-0.181
-292.662	-78.646	0.223	-0.076
-291.647	239.209	-0.161	-0.267
-290.632	66.214	0.108	0.109
-289.618	-200.000	-0.031	0.225
-288.603	-200.000	0.039	-0.197
-287.589	-71.444	0.365	0.136
-286.574	24.765	0.116	0.096
-285.559	-16.347	0.139	0.088
-284.545	-134.145	0.212	-0.026
-283.530	217.942	0.074	0.117
-282.516	65.189	-0.025	0.026
-281.501	10.206	0.265	0.201
-280.486	-200.000	-0.032	0.235
-279.472	-8.626	-0.161	0.108
-278.457	139.799	0.153	0.201
-277.443	337.683	-0.097	-0.189
-276.428	41.054	-0.035	0.032
-275.413	-167.640	-0.081	0.003
-274.399	-42.486	0.132	0.067
-273.384	800.000	0.085	0.294
-272.370	-169.003	-0.264	-0.010
-271.355	68.061	0.273	-0.279
-270.340	800.000	0.013	-0.039
-269.326	-45.480	-0.057	0.028
-268.311	-120.677	-0.219	-0.037
-267.297	351.423	0.047	0.093
-266.282	15.892	0.346	0.271
-265.267	-200.000	0.001	0.026
-264.253	-97.557	-0.396	0.103
-263.238	591.382	-0.062	-0.153
-262.224	-63.875	-0.074	-0.030
-261.209	313.777	0.085	0.160
-260.195	232.499	0.069	0.113
-259.180	-52.195	0.192	0.089
-258.165	-200.000	-0.023	0.149
-257.151	435.189	0.119	-0.258
-256.136	108.913	0.332	0.396
-255.122	-200.000	-0.028	0.331
-254.107	-50.369	-0.167	-0.079
-253.092	800.000	0.062	-0.256
-252.078	-81.733	-0.250	-0.082
-251.063	261.245	0.107	0.185
-250.049	-104.414	-0.280	0.065
-249.034	-92.690	-0.113	0.032
-248.019	-99.213	0.179	-0.045
-247.005	-51.366	-0.173	0.080
-245.990	-80.201	-0.261	0.087
-244.976	187.140	0.374	-0.556
-243.961	-47.281	0.160	0.078
-242.946	-200.000	0.016	-0.089
-241.932	189.071	-0.062	-0.093
-240.917	-5.530	0.090	0.061
-239.903	74.011	-0.128	0.133
-238.888	-72.652	-0.191	0.070
-237.873	-80.161	-0.225	-0.075
-236.859	133.134	0.157	0.202
-235.844	-170.703	0.200	-0.007
-234.830	-177.066	-0.401	0.010
-233.815	-129.451	0.248	0.034
-232.800	24.316	0.320	0.264
-231.786	358.909	-0.095	0.188
-230.771	-167.748	-0.115	0.005
-229.757	147.322	0.168	0.225
-228.742	210.813	-0.089	0.139
-227.727	-70.689	0.074	0.028
-226.713	-200.000	0.022	-0.446
-225.698	221.698	0.079	0.127
-224.684	800.000	0.018	-0.053
-223.669	3.255	-0.242	0.175
-222.655	-200.000	-0.007	-0.085
-221.640	800.000	-0.057	0.170
-220.625	24.130	-0.023	0.019
-219.611	-186.259	-0.231	0.003
-218.596	-200.000	0.016	-0.299
-217.582	-72.067	0.188	-0.069
-216.567	551.385	0.159	0.380
-215.552	-200.000	-0.034	0.151
-214.538	43.910	0.158	-0.144
-213.523	-10.348	-0.058	0.038
-212.509	-41.881	0.229	0.117
-211.494	48.613	0.102	0.095
-210.479	197.291	0.084	0.128
-209.465	800.000	-0.062	-0.212
-208.450	800.000	0.082	0.231
-207.436	32.983	0.158	0.137
-206.421	-200.000	0.069	0.477
-205.406	-173.012	-0.128	-0.004
-204.392	-111.533	0.163	-0.033
-203.377	292.016	-0.079	-0.143
-202.363	-44.198	0.170	0.085
-201.348	-97.258	0.183	-0.048
-200.333	-169.395	0.372	0.014
-199.319	10.784	-0.101	0.077
-198.304	-105.397	-0.096	0.022
-197.290	17.911	0.212	-0.168
-196.275	-0.976	-0.352	-0.248
-195.260	-10.107	-0.092	-0.061
-194.246	602.141	0.150	-0.372
-193.231	88.526	-0.095	-0.105
-192.217	127.016	0.297	0.375
-191.202	-43.256	-0.146	-0.073
-190.187	337.227	0.076	-0.147
-189.173	306.465	0.025	0.046
-188.158	-112.906	-0.054	-0.011
-187.144	-55.970	0.193	-0.085
-186.129	378.467	-0.111	-0.226
-185.114	-66.927	-0.285	0.112
-184.100	-200.000	-0.002	-0.435
-183.085	81.977	-0.247	0.266
-182.071	-100.451	0.151	-0.037
-181.056	174.397	0.175	-0.252
-180.042	-161.320	-0.185	-0.010
-179.027	-96.921	-0.372	-0.097
-178.012	-167.301	0.234	-0.009
-176.998	244.259	-0.058	-0.096
-175.983	-200.000	-0.071	0.455
-174.969	-200.000	0.028	-0.235
-173.954	-138.178	0.267	0.029
-172.939	-200.000	0.001	-0.190
-171.925	800.000	0.020	0.082
-170.910	-98.707	-0.188	0.048
-169.896	-133.637	0.350	-0.044
-168.881	-200.000	-0.017	0.246
-167.866	-76.730	-0.276	0.096
-166.852	-200.000	-0.061	-0.396
-165.837	4.154	-0.127	0.093
-164.823	800.000	0.063	0.260
-163.808	-200.000	-0.035	-0.387
-162.793	211.520	0.079	-0.123
-161.779	-4.516	-0.324	-0.223
-160.764	67.603	-0.074	0.076
-159.750	38.304	0.079	0.070
-158.735	-200.000	0.008	0.068
-157.720	382.888	-0.091	0.186
-156.706	-170.839	0.146	0.005
-155.691	-66.866	-0.251	-0.099
-154.677	800.000	0.070	0.223
-153.662	57.388	-0.403	0.391
-152.647	-40.210	0.146	0.075
-151.633	152.586	-0.131	0.178
-150.618	-10.496	0.155	-0.102
-149.604	-172.535	0.167	-0.005
-148.589	-76.134	0.323	0.113
-147.574	712.764	0.045	0.119
-146.560	-16.412	0.113	0.071
-145.545	-200.000	0.000	-0.100
-144.531	-57.298	-0.390	0.170
-143.516	148.588	0.184	-0.247
-142.502	-63.587	0.071	0.029
-141.487	94.457	0.248	0.280
-140.472	800.000	-0.062	-0.207
-139.458	143.533	-0.135	-0.178
-138.443	115.557	-0.235	-0.285
-137.429	105.152	-0.306	-0.359
-136.414	-200.000	0.054	-0.303
-135.399	-142.226	0.144	-0.014
-134.385	-80.276	-0.131	-0.044
-133.370	29.763	-0.177	0.150
-132.356	-122.141	0.194	0.032
-131.341	-200.000	-0.013	-0.255
-130.326	-200.000	0.010	-0.254
-129.312	56.302	-0.166	0.160
-128.297	123.477	0.138	0.172
-127.283	274.765	0.102	0.180
-126.268	-200.000	0.179	0.001
-125.253	192.449	-0.186	0.279
-124.239	239.579	0.007	-0.012
-123.224	-42.951	-0.009	-0.005
-122.210	-6.494	-0.162	-0.110
