DTS Sentinel unit serial number:	SN413079Multiplexer serial number:	ORYXHardware model number:	OX4-SRSoftware version number:	ORYX F/W v4.00 Oryx Data Collector v3.7.2.0data status	okinstallation	princeton_trtdifferential loss correction	single-endedforward channel	channel 2reverse channel	N/Adate	2019/09/12time	15:25:11forward acquisition time	60.00reverse acquisition time	0.00gamma	496.2192k internal	0.2299k external	0.2299temperature offset calibration	1.0095default loss term (dB/km)	0.3790temperature slope calibration	1.0000multiplexer offset coefficient	1.0000multiplexer slope coefficient	1.0000fibre end	0.00T internal ref (°C)	40.73T ext. ref 1 (°C)	2.41T ext. ref 2 (°C)	34.81length (m)	temperature (°C)	Stokes	anti-Stokes-747.200	800.000	-0.096	0.357
-746.185	56.665	-0.197	0.195
-745.171	-200.000	-0.011	0.153
-744.156	-200.000	0.060	0.455
-743.142	800.000	-0.089	0.291
-742.127	-200.000	-0.004	0.358
-741.112	619.254	-0.088	-0.226
-740.098	-23.795	0.150	0.092
-739.083	-200.000	0.017	-0.279
-738.069	-171.348	-0.111	0.004
-737.054	8.180	0.086	0.066
-736.039	-108.920	-0.289	0.063
-735.025	20.552	0.065	-0.053
-734.010	0.941	-0.109	-0.080
-732.996	-83.715	0.308	0.100
-731.981	83.041	-0.046	0.051
-730.966	-200.000	-0.003	-0.275
-729.952	86.630	-0.148	0.167
-728.937	-66.873	0.120	-0.048
-727.923	30.213	0.233	0.203
-726.908	-195.641	-0.167	-0.001
-725.894	-41.686	-0.171	0.090
-724.879	-163.093	-0.357	-0.018
-723.864	800.000	-0.025	0.085
-722.850	-18.580	0.082	0.052
-721.835	-41.778	-0.252	-0.132
-720.821	622.597	-0.108	0.277
-719.806	-200.000	-0.035	0.262
-718.791	-200.000	0.043	0.307
-717.777	-166.623	0.230	-0.010
-716.762	-31.109	0.343	-0.197
-715.748	0.888	-0.118	0.086
-714.733	-40.940	-0.264	-0.139
-713.718	800.000	0.007	0.029
-712.704	-200.000	-0.016	-0.217
-711.689	244.305	0.061	0.104
-710.675	-59.894	-0.281	0.123
-709.660	-176.507	-0.314	0.008
-708.645	-200.000	0.006	-0.141
-707.631	3.792	0.129	0.096
-706.616	-134.154	-0.341	-0.043
-705.602	95.177	-0.157	-0.182
-704.587	-82.330	-0.250	-0.083
-703.572	-20.495	0.188	-0.118
-702.558	-200.000	-0.010	-0.214
-701.543	-78.538	0.318	0.111
-700.529	30.649	0.240	-0.209
-699.514	-159.231	0.312	-0.018
-698.499	-137.169	0.204	0.024
-697.485	-11.001	0.073	-0.049
-696.470	800.000	-0.043	0.146
-695.456	152.910	-0.173	0.241
-694.441	-88.160	0.422	-0.129
-693.426	-52.242	0.214	0.101
-692.412	227.168	-0.144	-0.239
-691.397	-68.619	0.140	-0.055
-690.383	-200.000	-0.111	0.527
-689.368	552.846	-0.090	-0.220
-688.354	429.210	-0.064	0.141
-687.339	57.896	-0.126	0.125
-686.324	-50.113	0.166	-0.080
-685.310	-79.957	-0.253	-0.086
-684.295	-200.000	0.086	-0.441
-683.281	-65.564	-0.121	0.049
-682.266	-120.352	-0.145	-0.025
-681.251	-42.942	0.247	0.128
-680.237	149.573	-0.130	-0.179
-679.222	-27.386	0.106	0.063
-678.208	93.391	0.065	-0.075
-677.193	800.000	0.066	-0.186
-676.178	-131.643	0.284	0.038
-675.164	88.407	-0.036	-0.041
-674.149	414.035	-0.123	0.267
-673.135	-200.000	-0.003	-0.329
-672.120	-200.000	0.002	-0.081
-671.105	-200.000	-0.004	0.109
-670.091	-143.086	-0.121	-0.012
-669.076	-21.328	-0.189	-0.117
-668.062	23.424	0.266	-0.223
-667.047	800.000	0.059	-0.206
-666.032	800.000	0.077	0.303
-665.018	-87.333	-0.187	0.058
-664.003	-61.350	-0.165	-0.071
-662.989	-200.000	0.032	-0.183
-661.974	800.000	-0.035	-0.144
-660.959	-72.974	-0.097	0.036
-659.945	311.833	0.097	0.186
-658.930	-200.000	-0.009	-0.234
-657.916	257.630	0.047	0.082
-656.901	182.050	0.207	0.310
-655.886	108.271	-0.143	-0.173
-654.872	189.346	-0.173	0.264
-653.857	341.259	0.153	-0.303
-652.843	419.267	0.038	0.084
-651.828	-169.946	0.056	0.002
-650.814	290.012	0.100	-0.184
-649.799	-200.000	0.016	-0.216
-648.784	127.165	0.208	-0.268
-647.770	146.536	0.146	-0.200
-646.755	34.689	0.120	-0.107
-645.741	800.000	-0.032	-0.128
-644.726	800.000	0.057	0.164
-643.711	79.144	-0.090	-0.098
-642.697	-145.965	-0.280	0.025
-641.682	420.656	0.093	-0.202
-640.668	600.394	-0.046	-0.117
-639.653	-200.000	-0.016	0.085
-638.638	-115.298	-0.208	0.040
-637.624	-23.147	-0.125	0.077
-636.609	-85.975	0.327	-0.103
-635.595	-27.489	-0.172	-0.102
-634.580	-17.746	0.132	-0.084
-633.565	34.153	0.040	-0.036
-632.551	-200.000	-0.054	0.339
-631.536	26.246	0.291	-0.247
-630.522	-61.147	0.417	0.179
-629.507	-69.748	-0.189	0.073
-628.492	28.400	-0.126	0.108
-627.478	-160.131	0.082	-0.005
-626.463	207.304	-0.169	-0.268
-625.449	-30.682	0.261	0.150
-624.434	-108.004	-0.177	0.039
-623.419	7.689	0.277	0.211
-622.405	-131.121	0.294	0.040
-621.390	84.148	-0.178	-0.198
-620.376	-200.000	0.066	-0.330
-619.361	-200.000	0.003	-0.259
-618.346	-106.774	-0.427	0.096
-617.332	77.407	-0.063	0.068
-616.317	635.815	-0.069	0.177
-615.303	-63.570	0.100	-0.042
-614.288	356.926	0.040	-0.081
-613.273	108.308	-0.124	-0.150
-612.259	-139.012	-0.074	0.008
-611.244	-200.000	0.019	0.429
-610.230	-200.000	-0.025	-0.118
-609.215	-129.207	-0.122	-0.017
-608.201	721.318	0.071	-0.191
-607.186	-200.000	-0.029	-0.325
-606.171	-119.263	-0.334	0.059
-605.157	-142.646	-0.251	0.025
-604.142	-177.411	-0.122	-0.003
-603.128	9.268	-0.274	-0.210
-602.113	-115.906	0.166	0.031
-601.098	-109.554	-0.216	0.046
-600.084	800.000	-0.122	0.393
-599.069	800.000	-0.026	-0.112
-598.055	-128.039	0.055	-0.008
-597.040	-169.780	0.092	0.003
-596.025	-200.000	-0.002	-0.037
-595.011	-75.156	0.112	-0.041
-593.996	-5.839	0.223	0.155
-592.982	-97.627	0.403	-0.106
-591.967	170.497	-0.154	-0.223
-590.952	30.436	-0.060	0.052
-589.938	-104.249	-0.417	0.098
-588.923	-90.340	-0.124	0.036
-587.909	-65.790	-0.285	-0.116
-586.894	-200.000	-0.001	0.130
-585.879	-129.847	-0.070	0.010
-584.865	179.334	-0.144	-0.214
-583.850	83.506	0.061	0.067
-582.836	-200.000	-0.009	0.173
-581.821	592.460	-0.078	0.197
-580.806	2.099	-0.164	0.120
-579.792	-64.353	-0.211	-0.087
-578.777	-18.285	0.301	-0.191
-577.763	800.000	0.027	-0.106
-576.748	-200.000	-0.006	-0.090
-575.733	164.873	-0.092	-0.131
-574.719	184.416	0.280	-0.421
-573.704	-115.720	0.083	-0.016
-572.690	-200.000	-0.002	-0.055
-571.675	-97.882	0.342	-0.089
-570.661	22.791	0.104	-0.087
-569.646	391.948	0.071	0.149
-568.631	364.666	-0.098	-0.200
-567.617	-69.202	-0.140	0.054
-566.602	56.036	-0.205	0.202
-565.588	260.927	0.222	0.389
-564.573	-23.050	-0.273	0.167
-563.558	-200.000	-0.013	-0.118
-562.544	-112.233	-0.144	0.029
-561.529	29.410	-0.299	0.258
-560.515	140.906	0.094	-0.126
-559.500	-45.807	0.397	-0.199
-558.485	441.881	0.046	0.103
-557.471	-63.931	0.256	-0.106
-556.456	-200.000	-0.018	-0.296
-555.442	-200.000	-0.006	0.061
-554.427	800.000	-0.021	-0.083
-553.412	67.438	0.149	0.154
-552.398	415.672	-0.004	-0.009
-551.383	-158.161	0.380	0.023
-550.369	-74.923	-0.269	0.098
-549.354	87.072	-0.133	-0.149
-548.339	-200.000	-0.038	-0.239
-547.325	-200.000	-0.008	-0.298
-546.310	800.000	-0.081	-0.269
-545.296	-79.332	0.274	-0.094
-544.281	-82.322	-0.132	0.043
-543.266	768.308	-0.053	0.147
-542.252	495.085	0.094	-0.219
-541.237	596.978	0.042	0.104
-540.223	-200.000	0.004	0.115
-539.208	-200.000	-0.009	0.048
-538.193	-200.000	0.012	-0.205
-537.179	-12.303	-0.332	-0.220
-536.164	220.146	-0.027	-0.044
-535.150	-26.394	0.130	0.077
-534.135	-200.000	-0.010	-0.164
-533.121	-200.000	0.021	0.096
-532.106	717.995	0.104	0.280
-531.091	-73.462	0.339	-0.125
-530.077	-88.072	-0.363	-0.110
-529.062	121.330	-0.154	0.194
-528.048	800.000	0.007	0.029
-527.033	-200.000	-0.007	0.125
-526.018	-200.000	0.145	0.001
-525.004	709.540	-0.059	-0.159
-523.989	-200.000	0.039	-0.202
-522.975	95.888	-0.029	0.033
-521.960	-200.000	0.008	0.103
-520.945	185.092	0.123	0.185
-519.931	3.824	-0.182	0.135
-518.916	-112.259	-0.159	0.032
-517.902	-120.984	0.088	0.015
-516.887	374.030	0.059	0.122
-515.872	64.777	-0.107	-0.109
-514.858	-124.737	-0.307	0.048
-513.843	-185.662	0.344	-0.005
-512.829	-6.341	-0.101	0.070
-511.814	93.645	0.128	0.147
-510.799	-106.222	0.154	0.035
-509.785	752.607	0.058	0.158
-508.770	800.000	0.036	-0.123
-507.756	-82.215	0.219	0.072
-506.741	-99.538	-0.540	-0.137
-505.726	800.000	-0.042	0.145
-504.712	-36.646	0.274	-0.149
-503.697	76.424	-0.234	0.251
-502.683	-114.649	0.051	-0.010
-501.668	-53.189	-0.054	-0.025
-500.653	-119.268	0.402	0.071
-499.639	-59.416	0.016	0.007
-498.624	560.988	-0.097	-0.236
-497.610	-55.274	-0.228	0.104
-496.595	-200.000	-0.022	0.103
-495.581	251.868	0.216	0.371
-494.566	460.263	0.136	-0.306
-493.551	-164.963	-0.455	-0.021
-492.537	-130.115	0.072	0.010
-491.522	-30.070	0.486	0.279
-490.508	69.196	0.088	0.091
-489.493	160.672	0.098	0.138
-488.478	379.501	-0.112	0.232
-487.464	274.453	-0.166	-0.296
-486.449	-200.000	-0.058	-0.315
-485.435	-200.000	-0.038	0.194
-484.420	-200.000	0.005	0.239
-483.405	-78.004	-0.354	0.123
-482.391	290.419	0.052	-0.095
-481.376	800.000	0.088	0.256
-480.362	517.373	0.157	-0.370
-479.347	114.792	0.258	-0.318
-478.332	95.851	-0.300	-0.345
-477.318	-112.570	0.458	-0.092
-476.303	42.629	0.114	0.105
-475.289	-200.000	-0.006	-0.200
-474.274	-200.000	0.005	0.039
-473.259	-58.168	0.128	-0.056
-472.245	-126.969	-0.358	0.053
-471.230	-200.000	-0.021	-0.333
-470.216	-117.576	0.147	-0.027
-469.201	-6.193	-0.361	-0.249
-468.186	-51.862	0.149	-0.070
-467.172	-167.495	0.248	-0.010
-466.157	-200.000	-0.041	0.340
-465.143	40.079	-0.054	0.049
-464.128	-162.881	-0.186	0.009
-463.113	-146.853	0.298	-0.026
-462.099	-133.679	-0.329	-0.042
-461.084	15.092	-0.129	-0.102
-460.070	81.458	0.287	0.313
-459.055	28.129	0.111	-0.095
-458.040	-181.778	-0.510	0.010
-457.026	-200.000	-0.001	0.033
-456.011	-14.858	0.127	0.082
-454.997	-200.000	-0.251	-0.001
-453.982	-16.408	-0.025	0.016
-452.968	-200.000	-0.008	-0.054
-451.953	774.638	0.079	-0.217
-450.938	192.546	0.027	-0.041
-449.924	-200.000	0.008	-0.325
-448.909	800.000	-0.107	0.315
-447.895	1.362	0.167	-0.121
-446.880	-103.120	0.485	-0.116
-445.865	800.000	-0.052	-0.155
-444.851	-27.885	-0.175	0.102
-443.836	-200.000	-0.039	0.188
-442.822	-200.000	0.030	0.305
-441.807	22.767	-0.168	0.139
-440.792	547.440	0.079	0.190
-439.778	-47.896	0.266	-0.130
-438.763	-79.547	-0.272	-0.093
-437.749	-143.236	-0.244	-0.024
-436.734	-132.628	0.100	0.013
-435.719	150.966	-0.170	0.233
-434.705	14.638	-0.182	-0.143
-433.690	232.343	-0.013	-0.021
-432.676	-200.000	-0.025	-0.178
-431.661	-120.690	0.298	0.051
-430.646	71.037	0.180	0.188
-429.632	204.462	-0.136	-0.212
-428.617	800.000	-0.098	-0.314
-427.603	800.000	0.057	-0.182
-426.588	800.000	0.028	0.117
-425.573	-109.381	0.273	-0.058
-424.559	519.791	0.140	0.329
-423.544	109.407	-0.106	-0.128
-422.530	800.000	0.075	-0.256
-421.515	-200.000	-0.048	-0.269
-420.500	-200.000	0.009	-0.053
-419.486	468.082	0.029	-0.066
-418.471	-166.147	-0.338	-0.014
-417.457	-200.000	0.014	-0.111
-416.442	-200.000	0.063	0.385
-415.428	-200.000	0.028	0.284
-414.413	-51.632	0.138	-0.065
-413.398	31.895	0.186	-0.162
-412.384	-200.000	0.004	0.118
-411.369	-16.183	-0.208	-0.133
-410.355	-200.000	0.062	0.307
-409.340	-200.000	0.007	0.069
-408.325	-200.000	-0.029	-0.186
-407.311	-13.435	-0.256	-0.167
-406.296	-200.000	-0.015	-0.230
-405.282	800.000	-0.061	0.175
-404.267	-35.993	-0.088	0.048
-403.252	22.363	-0.332	0.273
-402.238	-185.139	0.097	-0.002
-401.223	508.371	0.189	0.441
-400.209	-200.000	0.033	0.345
-399.194	-200.000	0.017	-0.151
-398.179	266.856	-0.053	0.093
-397.165	-178.375	-0.377	0.009
-396.150	-116.851	-0.103	0.019
-395.136	-37.449	0.375	-0.202
-394.121	800.000	-0.034	-0.143
-393.106	-200.000	-0.007	0.222
-392.092	800.000	0.056	0.159
-391.077	479.657	0.097	0.221
-390.063	-57.019	-0.188	0.084
-389.048	800.000	-0.031	-0.093
-388.033	-200.000	-0.007	0.052
-387.019	-200.000	-0.021	-0.437
-386.004	-200.000	0.038	0.276
-384.990	-200.000	0.076	0.338
-383.975	7.757	-0.240	0.181
-382.960	225.753	0.040	-0.065
-381.946	181.857	0.083	0.124
-380.931	-200.000	0.032	0.166
-379.917	35.763	-0.131	0.116
-378.902	800.000	-0.130	0.407
-377.888	-200.000	-0.005	-0.103
-376.873	110.504	0.200	0.242
-375.858	-115.011	-0.269	-0.051
-374.844	20.863	0.094	0.077
-373.829	-38.490	0.257	0.136
-372.815	-200.000	0.000	-0.003
-371.800	800.000	0.038	0.148
-370.785	800.000	0.032	-0.111
-369.771	-12.761	0.178	0.117
-368.756	226.865	0.031	-0.051
-367.742	214.144	0.170	-0.270
-366.727	-200.000	-0.006	0.252
-365.712	-152.706	-0.283	-0.020
-364.698	-56.096	0.176	-0.079
-363.683	-200.000	-0.016	0.153
-362.669	-200.000	0.016	0.244
-361.654	-200.000	0.040	0.250
-360.639	-200.000	0.020	0.109
-359.625	106.939	0.271	-0.324
-358.610	800.000	0.048	0.153
-357.596	384.288	-0.036	-0.075
-356.581	-106.883	0.077	-0.017
-355.566	-200.000	0.006	-0.180
-354.552	-132.961	0.021	-0.003
-353.537	136.327	0.115	0.151
-352.523	355.331	-0.100	-0.200
-351.508	-200.000	-0.033	0.431
-350.493	51.331	-0.194	0.185
-349.479	-200.000	0.005	0.155
-348.464	-2.679	0.156	-0.110
-347.450	58.326	-0.069	0.068
-346.435	113.514	-0.110	0.134
-345.420	-200.000	-0.040	0.283
-344.406	235.752	-0.015	-0.025
-343.391	470.654	0.082	0.186
-342.377	119.865	-0.073	0.091
-341.362	-182.593	-0.192	0.004
-340.348	-200.000	0.009	0.108
-339.333	-200.000	0.017	-0.255
-338.318	-33.127	-0.154	0.086
-337.304	-200.000	-0.004	-0.148
-336.289	-94.146	0.290	0.080
-335.275	-55.567	0.077	-0.034
-334.260	-116.302	0.210	0.039
-333.245	-56.243	-0.492	0.220
-332.231	-200.000	0.007	0.059
-331.216	159.681	-0.244	-0.341
-330.202	800.000	0.084	0.366
-329.187	-200.000	-0.002	0.057
-328.172	-183.541	-0.390	0.007
-327.158	800.000	0.095	-0.281
-326.143	-200.000	0.012	-0.063
-325.129	-200.000	-0.004	-0.204
-324.114	14.559	-0.231	0.181
-323.099	135.401	-0.228	0.298
-322.085	-200.000	0.008	-0.107
-321.070	-184.945	0.381	0.006
-320.056	-187.232	-0.071	0.001
-319.041	114.684	-0.139	0.170
-318.026	229.335	-0.077	0.127
-317.012	-86.167	0.155	-0.048
-315.997	69.888	-0.025	-0.026
-314.983	92.343	-0.312	0.353
-313.968	-23.414	0.114	-0.069
-312.953	-109.179	-0.121	-0.026
-311.939	-144.112	0.241	-0.023
-310.924	-6.627	0.262	-0.179
-309.910	-200.000	0.027	-0.169
-308.895	18.084	0.149	-0.119
-307.880	-86.150	0.116	0.036
-306.866	113.870	-0.084	-0.103
-305.851	-67.841	0.170	-0.067
-304.837	-49.363	0.156	-0.074
-303.822	-200.000	0.019	-0.114
-302.807	-200.000	0.012	0.294
-301.793	-200.000	0.012	-0.218
-300.778	-13.263	0.210	0.137
-299.764	52.172	-0.169	-0.161
-298.749	245.626	0.183	0.308
-297.735	-129.962	-0.376	0.052
-296.720	-44.727	0.025	-0.013
-295.705	-20.337	-0.152	-0.094
-294.691	-37.356	0.096	-0.052
-293.676	456.392	0.023	0.052
-292.662	-24.561	-0.095	0.057
-291.647	-63.865	0.219	-0.090
-290.632	-102.379	0.378	0.091
-289.618	234.015	-0.006	0.009
-288.603	-200.000	-0.006	-0.099
-287.589	800.000	-0.072	0.261
-286.574	178.652	-0.182	0.267
-285.559	648.272	-0.053	0.135
-284.545	-81.022	-0.154	-0.051
-283.530	65.113	-0.326	0.331
-282.516	800.000	0.071	0.200
-281.501	-200.000	0.014	-0.100
-280.486	-200.000	0.236	0.001
-279.472	-200.000	-0.020	0.380
-278.457	84.416	-0.056	0.061
-277.443	135.579	0.210	-0.273
-276.428	-200.000	-0.015	0.154
-275.413	-200.000	0.014	0.368
-274.399	742.843	0.070	-0.189
-273.384	-200.000	0.021	-0.243
-272.370	395.219	-0.014	0.030
-271.355	45.354	0.237	-0.219
-270.340	-62.652	-0.183	-0.076
-269.326	-200.000	0.009	0.284
-268.311	-158.552	-0.040	0.002
-267.297	-124.575	-0.244	-0.038
-266.282	-200.000	0.026	-0.209
-265.267	-157.271	0.491	-0.030
-264.253	-200.000	0.028	-0.270
-263.238	43.538	0.261	-0.239
-262.224	-148.087	0.447	0.037
-261.209	-134.410	-0.405	-0.050
-260.195	800.000	-0.016	0.045
-259.180	-200.000	0.016	0.254
-258.165	-47.803	-0.364	-0.176
-257.151	-38.125	0.452	0.240
-256.136	90.171	-0.140	-0.157
-255.122	800.000	-0.109	-0.356
-254.107	800.000	-0.022	-0.068
-253.092	368.283	0.155	0.313
-252.078	117.956	0.077	0.094
-251.063	-146.713	0.339	0.029
-250.049	-136.575	0.555	-0.064
-249.034	-151.900	-0.267	-0.020
-248.019	-5.795	0.220	-0.150
-247.005	254.032	0.187	-0.320
-245.990	634.879	-0.105	-0.267
-244.976	-30.667	0.201	-0.114
-243.961	-200.000	0.002	0.063
-242.946	-8.423	-0.152	0.102
-241.932	514.562	0.020	-0.046
-240.917	-200.000	0.041	-0.243
-239.903	800.000	-0.058	-0.215
-238.888	800.000	-0.113	0.312
-237.873	-116.965	0.074	-0.014
-236.859	-59.019	0.106	-0.046
-235.844	72.451	-0.073	0.076
-234.830	800.000	-0.115	0.391
-233.815	-71.377	0.184	0.069
-232.800	800.000	0.025	-0.106
-231.786	24.356	0.075	0.062
-230.771	582.014	0.153	0.374
-229.757	-200.000	-0.020	0.139
-228.742	198.127	0.086	0.131
-227.727	-48.763	0.508	-0.244
-226.713	131.401	-0.169	-0.217
-225.698	78.741	0.149	-0.160
-224.684	573.922	0.088	0.215
-223.669	-128.062	0.066	0.009
-222.655	54.687	-0.137	-0.132
-221.640	164.779	-0.143	-0.202
-220.625	-40.243	-0.408	0.212
-219.611	-200.000	-0.002	0.193
-218.596	-200.000	-0.016	-0.434
-217.582	50.208	0.295	-0.279
-216.567	-150.869	-0.236	-0.018
-215.552	800.000	-0.108	-0.346
-214.538	-200.000	-0.010	0.090
-213.523	-8.335	-0.156	0.105
-212.509	-41.315	-0.126	-0.065
-211.494	30.350	0.263	-0.225
-210.479	-200.000	-0.040	-0.191
-209.465	800.000	-0.033	0.130
-208.450	423.627	-0.034	-0.072
-207.436	256.166	-0.274	0.470
-206.421	145.244	0.092	-0.124
-205.406	-79.875	0.107	0.036
-204.392	242.843	-0.220	-0.369
-203.377	152.701	0.067	-0.092
-202.363	-115.835	-0.307	0.057
-201.348	800.000	-0.099	0.284
-200.333	-117.930	0.172	0.031
-199.319	288.191	-0.161	-0.291
-198.304	154.312	0.068	-0.093
-197.290	57.471	-0.209	-0.204
-196.275	-21.247	-0.215	0.131
-195.260	119.407	-0.187	0.231
-194.246	-27.763	0.166	-0.096
-193.231	-200.000	-0.007	0.054
-192.217	800.000	-0.017	0.058
-191.202	4.040	-0.099	-0.073
-190.187	434.399	-0.154	0.335
-189.173	356.506	0.201	0.399
-188.158	15.475	-0.215	-0.168
-187.144	-166.815	-0.165	0.007
-186.129	15.721	0.142	0.112
-185.114	152.051	-0.347	0.472
-184.100	88.007	0.224	-0.249
-183.085	94.011	-0.078	-0.089
-182.071	426.542	0.099	-0.213
-181.056	148.395	0.161	-0.217
-180.042	346.788	-0.094	-0.184
-179.027	-110.787	0.250	-0.051
-178.012	-89.004	0.391	0.115
-176.998	358.733	-0.285	0.568
-175.983	28.563	-0.151	0.127
-174.969	-182.140	0.113	-0.002
-173.954	800.000	0.026	-0.074
-172.939	800.000	-0.030	-0.095
-171.925	235.591	-0.158	0.260
-170.910	196.587	0.154	0.234
-169.896	214.387	0.143	-0.227
-168.881	-69.022	0.264	-0.101
-167.866	800.000	-0.065	-0.199
-166.852	-200.000	-0.003	-0.052
-165.837	-200.000	-0.053	0.000
-164.823	-96.718	-0.409	-0.107
-163.808	-139.441	0.391	0.042
-162.793	800.000	-0.016	0.062
-161.779	16.064	0.086	-0.068
-160.764	-200.000	0.011	-0.322
-159.750	433.516	-0.104	-0.225
-158.735	-200.000	0.046	0.209
-157.720	787.615	0.159	-0.435
-156.706	-159.891	-0.426	0.023
-155.691	-187.504	-0.162	0.002
-154.677	-200.000	0.028	-0.175
-153.662	-25.129	0.082	-0.048
-152.647	33.934	-0.031	-0.027
-151.633	-200.000	0.014	-0.238
-150.618	122.694	0.347	0.433
-149.604	204.913	-0.302	-0.467
-148.589	-55.028	0.379	-0.170
-147.574	83.233	-0.061	0.066
-146.560	-200.000	0.007	0.224
-145.545	389.320	-0.063	-0.130
-144.531	-110.764	-0.226	0.046
-143.516	-200.000	0.031	0.160
-142.502	-127.320	-0.346	-0.050
-141.487	23.936	0.188	0.155
-140.472	-200.000	0.008	0.064
-139.458	27.682	-0.311	0.261
-138.443	-121.487	0.056	0.009
-137.429	-118.002	0.380	-0.068
-136.414	31.588	0.072	0.062
-135.399	62.451	-0.061	0.061
-134.385	-89.963	-0.239	0.070
-133.370	62.976	-0.115	0.114
-132.356	-200.000	-0.024	-0.360
-131.341	-200.000	0.029	-0.156
-130.326	228.772	-0.080	0.130
-129.312	-73.181	-0.172	-0.063
-128.297	-95.147	0.319	-0.086
-127.283	-106.252	0.179	0.040
-126.268	-23.117	-0.177	-0.106
-125.253	157.669	0.106	-0.146
-124.239	-124.795	-0.171	0.026
-123.224	-108.077	-0.235	0.051
