DTS Sentinel unit serial number:	SN413079Multiplexer serial number:	ORYXHardware model number:	OX4-SRSoftware version number:	ORYX F/W v4.00 Oryx Data Collector v3.7.2.0data status	okinstallation	princeton_trtdifferential loss correction	single-endedforward channel	channel 2reverse channel	N/Adate	2019/09/18time	06:55:34forward acquisition time	60.00reverse acquisition time	0.00gamma	496.2192k internal	0.2349k external	0.2349temperature offset calibration	0.9985default loss term (dB/km)	0.3790temperature slope calibration	1.0000multiplexer offset coefficient	1.0000multiplexer slope coefficient	1.0000fibre end	0.00T internal ref (°C)	23.20T ext. ref 1 (°C)	0.19T ext. ref 2 (°C)	17.06length (m)	temperature (°C)	Stokes	anti-Stokes-747.200	192.879	-0.084	0.127
-746.185	169.825	-0.092	0.132
-745.171	-200.000	-0.010	-0.072
-744.156	-200.000	0.021	0.154
-743.142	800.000	-0.049	0.169
-742.127	-200.000	-0.002	0.010
-741.112	800.000	0.054	-0.203
-740.098	-16.568	0.085	-0.054
-739.083	-117.467	0.311	0.056
-738.069	154.873	0.137	0.188
-737.054	141.478	0.174	0.230
-736.039	-68.994	-0.443	-0.171
-735.025	157.854	-0.090	-0.124
-734.010	-200.000	0.012	-0.155
-732.996	207.468	-0.065	-0.101
-731.981	182.800	0.025	-0.038
-730.966	-61.978	0.191	-0.080
-729.952	800.000	0.138	-0.421
-728.937	344.723	-0.214	-0.419
-727.923	-99.654	0.060	-0.015
-726.908	-120.260	0.185	-0.032
-725.894	-22.756	0.135	0.081
-724.879	135.300	0.192	-0.249
-723.864	-114.186	0.081	0.016
-722.850	-41.413	-0.327	-0.168
-721.835	-93.120	0.101	0.028
-720.821	-200.000	0.013	0.079
-719.806	-200.000	0.115	-0.521
-718.791	243.791	-0.162	-0.272
-717.777	138.206	-0.057	-0.074
-716.762	236.011	0.208	-0.343
-715.748	-120.315	0.256	0.044
-714.733	-83.391	0.045	-0.014
-713.718	180.901	-0.195	-0.285
-712.704	-92.405	0.136	-0.038
-711.689	-119.044	0.053	-0.009
-710.675	216.369	0.108	0.171
-709.660	27.796	0.157	-0.132
-708.645	-56.882	-0.187	-0.083
-707.631	-200.000	-0.010	-0.311
-706.616	-34.716	0.175	-0.096
-705.602	-200.000	-0.011	-0.627
-704.587	52.053	-0.219	-0.208
-703.572	800.000	-0.077	0.280
-702.558	-33.496	-0.208	-0.114
-701.543	-77.560	-0.097	-0.034
-700.529	69.711	0.201	0.206
-699.514	-146.932	0.258	0.022
-698.499	-120.408	-0.212	-0.036
-697.485	800.000	0.083	-0.299
-696.470	800.000	0.039	-0.106
-695.456	800.000	0.140	-0.458
-694.441	800.000	0.066	0.205
-693.426	183.117	-0.137	-0.202
-692.412	-27.281	-0.107	-0.062
-691.397	334.117	-0.093	0.180
-690.383	276.175	0.155	-0.274
-689.368	800.000	0.037	-0.130
-688.354	26.839	-0.329	0.275
-687.339	-105.252	-0.161	-0.037
-686.324	127.766	0.158	-0.200
-685.310	-55.060	0.271	-0.122
-684.295	-120.322	0.262	-0.044
-683.281	721.942	-0.090	0.239
-682.266	51.527	-0.058	0.055
-681.251	-200.000	-0.025	-0.236
-680.237	800.000	-0.155	-0.466
-679.222	272.153	0.050	-0.088
-678.208	-197.935	0.139	-0.001
-677.193	-23.287	-0.063	-0.038
-676.178	-200.000	-0.032	-0.351
-675.164	35.910	-0.038	-0.034
-674.149	472.830	-0.060	0.134
-673.135	-2.456	0.068	-0.047
-672.120	-63.664	0.276	0.113
-671.105	-57.096	0.097	-0.042
-670.091	172.845	0.182	-0.261
-669.076	572.310	-0.096	-0.232
-668.062	-111.921	-0.169	-0.034
-667.047	138.870	-0.100	0.131
-666.032	800.000	-0.056	0.208
-665.018	247.591	-0.089	0.150
-664.003	-25.120	0.120	-0.071
-662.989	68.032	0.267	0.272
-661.974	-149.040	-0.260	-0.021
-660.959	-0.388	-0.249	0.176
-659.945	-200.000	-0.015	-0.304
-658.930	-200.000	0.021	-0.148
-657.916	121.356	-0.094	-0.116
-656.901	-46.100	0.132	0.065
-655.886	-46.962	-0.129	-0.063
-654.872	-111.341	-0.156	-0.032
-653.857	-200.000	0.017	0.164
-652.843	157.591	-0.140	0.193
-651.828	-185.400	0.355	-0.005
-650.814	62.279	-0.135	-0.134
-649.799	-200.000	0.028	-0.278
-648.784	-200.000	0.036	-0.323
-647.770	503.741	-0.070	0.162
-646.755	-146.617	0.262	0.023
-645.741	387.386	-0.133	0.274
-644.726	670.888	0.068	0.174
-643.711	-70.719	-0.316	-0.119
-642.697	800.000	0.065	-0.215
-641.682	-138.704	-0.093	0.010
-640.668	-200.000	-0.055	-0.320
-639.653	-200.000	-0.003	-0.366
-638.638	-62.580	-0.224	0.092
-637.624	800.000	-0.158	0.478
-636.609	-200.000	-0.071	-0.316
-635.595	-160.516	0.138	0.007
-634.580	290.048	0.191	0.344
-633.565	800.000	0.111	0.309
-632.551	96.492	0.165	0.188
-631.536	-19.826	0.117	-0.072
-630.522	-123.513	-0.259	-0.041
-629.507	800.000	-0.057	-0.238
-628.492	-77.364	-0.131	0.045
-627.478	-138.118	-0.279	-0.031
-626.463	664.424	0.115	0.294
-625.449	800.000	-0.101	-0.431
-624.434	244.982	-0.043	-0.072
-623.419	-129.882	0.418	-0.057
-622.405	-85.987	-0.137	-0.042
-621.390	255.611	-0.063	0.107
-620.376	-200.000	0.004	-0.116
-619.361	51.040	-0.141	0.133
-618.346	800.000	-0.093	-0.349
-617.332	382.727	-0.075	0.154
-616.317	800.000	0.043	-0.145
-615.303	-121.321	-0.274	-0.045
-614.288	-69.589	0.035	0.013
-613.273	124.301	-0.120	0.150
-612.259	49.295	-0.105	0.098
-611.244	-200.000	-0.013	-0.065
-610.230	-23.497	-0.302	-0.180
-609.215	-66.435	0.072	0.028
-608.201	130.450	0.178	-0.227
-607.186	-89.094	0.227	-0.067
-606.171	800.000	-0.036	0.149
-605.157	800.000	0.118	-0.369
-604.142	340.215	0.054	-0.105
-603.128	213.956	-0.107	0.169
-602.113	414.956	0.073	-0.155
-601.098	-13.763	0.039	-0.025
-600.084	43.991	-0.095	0.086
-599.069	-193.215	0.247	-0.002
-598.055	-200.000	0.015	-0.142
-597.040	800.000	-0.032	0.132
-596.025	-80.546	-0.407	-0.135
-595.011	263.232	0.110	0.190
-593.996	635.186	0.100	0.252
-592.982	64.083	0.069	0.069
-591.967	-200.000	-0.065	-0.324
-590.952	544.501	-0.128	0.304
-589.938	-75.001	0.219	0.078
-588.923	399.669	-0.068	0.142
-587.909	39.552	0.167	0.149
-586.894	800.000	0.016	0.045
-585.879	-200.000	-0.045	-0.326
-584.865	-48.177	-0.389	-0.186
-583.850	14.185	0.070	-0.054
-582.836	-200.000	0.047	-0.233
-581.821	800.000	-0.086	0.343
-580.806	-103.328	-0.482	-0.113
-579.792	311.446	0.148	-0.275
-578.777	154.675	0.018	-0.025
-577.763	110.316	0.069	-0.082
-576.748	11.106	0.158	0.120
-575.733	212.955	0.164	0.257
-574.719	39.556	0.194	0.172
-573.704	369.210	-0.119	0.240
-572.690	585.646	0.074	0.182
-571.675	296.348	-0.137	0.250
-570.661	-129.213	-0.184	-0.025
-569.646	449.966	-0.032	-0.070
-568.631	-90.846	-0.205	-0.059
-567.617	-132.027	-0.402	-0.052
-566.602	156.366	0.060	0.083
-565.588	-85.241	0.176	-0.055
-564.573	-113.680	0.110	-0.021
-563.558	-50.633	0.053	-0.025
-562.544	800.000	0.095	0.262
-561.529	104.202	0.109	-0.127
-560.515	-200.000	-0.009	-0.236
-559.500	-3.448	0.149	-0.103
-558.485	139.230	-0.032	-0.042
-557.471	-200.000	0.035	0.329
-556.456	-200.000	0.053	-0.260
-555.442	-64.694	-0.191	-0.077
-554.427	-200.000	-0.044	0.265
-553.412	248.840	-0.110	0.185
-552.398	20.340	-0.137	-0.110
-551.383	-200.000	-0.009	-0.066
-550.369	-102.623	-0.198	0.047
-549.354	800.000	0.101	-0.342
-548.339	99.532	0.252	0.289
-547.325	261.063	-0.013	0.022
-546.310	-77.538	-0.281	-0.097
-545.296	-200.000	0.013	-0.170
-544.281	80.070	-0.148	-0.157
-543.266	-77.423	0.081	0.028
-542.252	-109.863	0.138	-0.029
-541.237	-200.000	-0.020	0.263
-540.223	-200.000	0.003	0.015
-539.208	-200.000	0.094	-0.466
-538.193	-44.723	0.106	-0.052
-537.179	353.644	0.134	0.264
-536.164	800.000	0.044	-0.165
-535.150	18.427	-0.300	-0.238
-534.135	800.000	0.100	0.401
-533.121	-200.000	0.037	-0.161
-532.106	-123.268	-0.076	0.012
-531.091	-200.000	-0.038	-0.275
-530.077	-200.000	-0.024	0.259
-529.062	139.403	-0.150	0.195
-528.048	-24.199	-0.066	0.039
-527.033	-19.596	0.263	-0.161
-526.018	-72.784	-0.313	-0.114
-525.004	-200.000	0.008	0.172
-523.989	-132.552	-0.219	-0.028
-522.975	264.626	0.098	-0.168
-521.960	-173.391	-0.225	-0.007
-520.945	3.694	0.283	-0.205
-519.931	262.818	-0.158	-0.272
-518.916	800.000	0.078	-0.286
-517.902	-66.883	0.276	0.108
-516.887	-200.000	-0.045	0.355
-515.872	-81.713	0.194	0.063
-514.858	800.000	-0.070	-0.232
-513.843	8.715	0.190	0.142
-512.829	47.712	-0.088	-0.081
-511.814	800.000	-0.045	-0.126
-510.799	98.510	-0.257	-0.294
-509.785	-125.130	0.119	-0.018
-508.770	0.547	-0.243	0.172
-507.756	-200.000	0.036	-0.182
-506.741	-31.943	0.437	0.242
-505.726	-76.874	-0.098	0.034
-504.712	56.777	-0.078	-0.075
-503.697	1.237	-0.208	0.148
-502.683	-116.111	0.299	0.055
-501.668	-87.542	-0.389	0.116
-500.653	-171.200	-0.454	-0.015
-499.639	-89.193	-0.046	-0.013
-498.624	-200.000	-0.015	0.075
-497.610	146.067	-0.152	0.201
-496.595	49.404	-0.076	0.070
-495.581	218.054	0.086	-0.135
-494.566	-200.000	-0.004	0.039
-493.551	-131.040	0.023	-0.003
-492.537	27.220	-0.266	0.221
-491.522	27.580	0.023	0.019
-490.508	73.826	0.174	-0.180
-489.493	267.215	-0.210	0.364
-488.478	3.416	-0.148	0.107
-487.464	-200.000	0.016	-0.268
-486.449	197.221	-0.192	-0.290
-485.435	78.953	-0.257	-0.272
-484.420	-200.000	-0.025	-0.247
-483.405	800.000	-0.049	-0.156
-482.391	-11.441	0.276	-0.180
-481.376	66.786	0.227	-0.228
-480.362	22.617	-0.294	-0.238
-479.347	-122.171	0.090	0.015
-478.332	-115.192	-0.038	-0.007
-477.318	86.646	-0.189	0.206
-476.303	5.458	-0.104	-0.076
-475.289	-120.467	0.188	0.032
-474.274	-162.401	-0.245	-0.012
-473.259	460.861	-0.045	0.099
-472.245	-200.000	-0.049	0.215
-471.230	-141.152	-0.184	0.019
-470.216	-30.291	0.362	0.203
-469.201	-153.436	-0.262	0.018
-468.186	52.218	-0.093	0.088
-467.172	-127.933	0.207	0.029
-466.157	424.721	0.054	0.115
-465.143	92.174	-0.303	0.338
-464.128	800.000	-0.050	0.186
-463.113	144.814	-0.063	0.083
-462.099	-200.000	0.032	0.402
-461.084	792.153	-0.061	-0.166
-460.070	800.000	-0.058	0.184
-459.055	-62.704	0.259	-0.106
-458.040	174.751	0.073	-0.104
-457.026	280.791	-0.128	-0.226
-456.011	-125.330	-0.013	-0.002
-454.997	-200.000	-0.049	-0.307
-453.982	-200.000	0.018	-0.208
-452.968	-200.000	0.038	0.246
-451.953	232.087	0.049	0.079
-450.938	-22.045	0.062	0.037
-449.924	212.076	0.105	0.163
-448.909	746.756	-0.050	-0.134
-447.895	1.395	-0.115	0.081
-446.880	-82.356	-0.273	0.088
-445.865	-60.482	-0.322	0.135
-444.851	-103.016	0.335	-0.078
-443.836	2.629	0.137	-0.098
-442.822	-57.914	0.180	-0.078
-441.807	381.684	-0.075	-0.152
-440.792	100.311	0.281	0.322
-439.778	-29.280	-0.135	0.076
-438.763	800.000	-0.087	0.252
-437.749	-27.998	0.063	0.036
-436.734	780.511	0.014	-0.038
-435.719	-156.596	0.336	0.021
-434.705	-149.658	-0.222	0.017
-433.690	311.236	-0.055	-0.103
-432.676	800.000	0.086	-0.365
-431.661	800.000	-0.190	0.562
-430.646	-200.000	-0.014	-0.088
-429.632	-200.000	0.079	0.364
-428.617	-200.000	-0.016	0.291
-427.603	-91.658	-0.530	0.149
-426.588	71.414	0.177	-0.181
-425.573	240.733	0.094	-0.155
-424.559	428.033	0.067	-0.143
-423.544	27.571	0.476	0.395
-422.530	115.292	-0.251	-0.302
-421.515	-200.000	-0.026	0.276
-420.500	800.000	-0.063	0.235
-419.486	800.000	0.031	0.104
-418.471	267.105	0.073	0.126
-417.457	-200.000	0.012	0.298
-416.442	263.550	-0.026	0.044
-415.428	-10.899	0.100	0.065
-414.413	-38.244	-0.109	-0.057
-413.398	-200.000	0.012	-0.057
-412.384	800.000	-0.019	-0.055
-411.369	152.971	0.199	-0.269
-410.355	-58.238	-0.236	-0.101
-409.340	-138.797	0.179	0.019
-408.325	99.853	-0.184	-0.210
-407.311	-126.743	0.232	-0.034
-406.296	-200.000	-0.024	0.233
-405.282	-174.662	-0.333	0.009
-404.267	-48.857	0.171	0.081
-403.252	-2.279	-0.034	0.024
-402.238	118.025	0.087	0.105
-401.223	-38.738	-0.013	0.007
-400.209	93.689	0.071	-0.079
-399.194	213.980	-0.154	0.241
-398.179	175.086	0.145	0.206
-397.165	-151.820	0.223	0.016
-396.150	800.000	-0.051	0.159
-395.136	582.188	-0.017	-0.040
-394.121	211.108	0.113	-0.175
-393.106	429.467	0.216	0.461
-392.092	800.000	-0.035	0.130
-391.077	-132.952	0.234	0.029
-390.063	-20.653	0.142	-0.086
-389.048	-175.077	0.093	-0.003
-388.033	-182.544	-0.226	-0.004
-387.019	35.973	0.254	-0.220
-386.004	-151.558	-0.223	-0.016
-384.990	5.540	-0.384	0.280
-383.975	-93.923	0.285	0.077
-382.960	92.854	-0.124	0.138
-381.946	-140.403	0.167	0.017
-380.931	106.058	0.170	-0.198
-379.917	92.267	-0.141	-0.157
-378.902	356.433	0.096	0.189
-377.888	-144.010	-0.238	-0.022
-376.873	-200.000	-0.011	-0.049
-375.858	-71.192	0.290	0.107
-374.844	53.102	-0.070	-0.066
-373.829	-82.774	-0.460	0.147
-372.815	-98.182	0.228	0.058
-371.800	-141.499	-0.195	-0.019
-370.785	428.618	0.095	-0.203
-369.771	-36.677	-0.156	-0.083
-368.756	-50.917	-0.351	-0.162
-367.742	184.185	0.080	0.116
-366.727	-0.158	0.192	0.134
-365.712	685.540	-0.101	-0.260
-364.698	-200.000	0.004	-0.023
-363.683	65.892	0.102	0.102
-362.669	344.996	-0.112	-0.216
-361.654	-26.187	0.216	-0.125
-360.639	-24.042	-0.152	0.089
-359.625	-200.000	-0.019	0.197
-358.610	-162.539	0.077	-0.004
-357.596	762.314	0.104	-0.278
-356.581	178.532	0.120	-0.173
-355.566	-51.059	0.102	-0.047
-354.552	507.898	-0.161	0.367
-353.537	157.286	0.071	0.096
-352.523	-41.597	-0.285	0.144
-351.508	-200.000	-0.073	0.315
-350.493	800.000	0.057	0.212
-349.479	63.773	0.131	0.130
-348.464	67.428	0.128	-0.128
-347.450	140.961	-0.104	-0.135
-346.435	-58.500	-0.142	0.060
-345.420	-91.307	0.208	-0.059
-344.406	-200.000	0.032	-0.153
-343.391	89.186	0.153	-0.168
-342.377	-62.280	-0.136	0.056
-341.362	-54.925	0.302	-0.134
-340.348	364.116	-0.140	-0.277
-339.333	800.000	-0.036	0.113
-338.318	55.585	-0.175	0.166
-337.304	106.125	-0.184	0.215
-336.289	-47.040	0.105	-0.050
-335.275	-78.795	0.137	0.046
-334.260	-200.000	0.003	0.164
-333.245	105.437	0.115	-0.133
-332.231	-31.643	0.239	-0.132
-331.216	344.644	0.138	0.267
-330.202	162.976	0.128	0.176
-329.187	-111.394	0.078	-0.016
-328.172	-40.019	-0.226	-0.116
-327.158	-99.431	-0.256	0.063
-326.143	36.142	-0.371	-0.321
-325.129	800.000	0.030	0.100
-324.114	-200.000	-0.001	-0.436
-323.099	-60.949	-0.044	-0.018
-322.085	-200.000	0.040	0.282
-321.070	154.012	-0.113	0.152
-320.056	394.820	0.076	-0.155
-319.041	41.899	-0.080	-0.071
-318.026	246.260	-0.148	0.244
-317.012	-172.574	-0.084	-0.003
-315.997	-200.000	0.029	-0.128
-314.983	-58.342	0.196	0.084
-313.968	-97.618	-0.159	-0.041
-312.953	72.091	-0.089	-0.091
-311.939	800.000	0.008	0.029
-310.924	-124.050	-0.105	0.016
-309.910	174.607	-0.114	-0.162
-308.895	-12.688	0.046	0.029
-307.880	-59.927	-0.173	-0.073
-306.866	-172.946	0.129	0.004
-305.851	-124.154	-0.204	-0.031
-304.837	214.114	-0.074	0.115
-303.822	-23.094	0.219	-0.129
-302.807	-150.771	-0.247	0.018
-301.793	-200.000	-0.050	-0.254
-300.778	19.344	-0.089	0.070
-299.764	99.814	-0.152	0.173
-298.749	58.995	0.238	-0.230
-297.735	436.269	-0.175	-0.374
-296.720	443.740	0.119	-0.257
-295.705	270.447	-0.065	0.113
-294.691	60.706	-0.177	-0.172
-293.676	-38.443	0.204	0.106
-292.662	-129.607	0.494	0.067
-291.647	58.982	0.162	0.156
-290.632	-47.379	0.207	0.099
-289.618	-200.000	0.026	0.138
-288.603	146.472	0.047	-0.063
-287.589	143.889	0.078	-0.102
-286.574	-68.601	0.010	0.004
-285.559	-57.076	0.213	-0.092
-284.545	-95.543	0.138	-0.036
-283.530	215.407	0.259	0.403
-282.516	-53.026	0.088	-0.040
-281.501	-200.000	-0.026	-0.233
-280.486	-117.953	0.287	0.050
-279.472	-127.131	-0.201	0.029
-278.457	-200.000	0.022	0.187
-277.443	800.000	0.039	0.110
-276.428	-68.913	-0.076	-0.029
-275.413	-100.264	0.146	-0.036
-274.399	-200.000	-0.004	-0.075
-273.384	-83.048	0.151	-0.048
-272.370	-10.936	-0.048	-0.031
-271.355	-78.744	-0.047	-0.016
-270.340	-200.000	-0.031	-0.186
-269.326	16.999	-0.139	0.108
-268.311	-96.826	-0.065	-0.017
-267.297	800.000	0.108	0.453
-266.282	-149.772	0.153	0.012
-265.267	114.251	-0.057	0.067
-264.253	-200.000	-0.028	-0.172
-263.238	800.000	0.045	-0.137
-262.224	768.440	0.116	-0.309
-261.209	-78.024	-0.163	0.055
-260.195	-100.890	0.325	-0.078
-259.180	-130.645	0.267	-0.035
-258.165	-117.714	-0.146	-0.026
-257.151	800.000	-0.023	0.092
-256.136	242.444	-0.112	-0.183
-255.122	93.831	-0.067	-0.074
-254.107	379.961	0.066	-0.132
-253.092	-92.170	-0.182	-0.050
-252.078	-153.236	0.274	0.019
-251.063	-117.930	-0.247	-0.043
-250.049	-74.191	-0.106	0.037
-249.034	-104.449	0.273	0.062
-248.019	-200.000	0.007	0.164
-247.005	-96.997	0.094	-0.024
-245.990	29.520	-0.085	0.071
-244.976	13.207	-0.296	0.224
-243.961	164.918	0.069	-0.096
-242.946	-50.928	0.362	-0.166
-241.932	402.347	0.034	0.071
-240.917	32.618	0.165	0.139
-239.903	800.000	-0.132	0.372
-238.888	800.000	-0.075	-0.263
-237.873	509.218	-0.083	-0.189
-236.859	-200.000	0.025	0.463
-235.844	78.441	-0.117	-0.123
-234.830	24.022	0.303	0.245
-233.815	-124.163	0.252	-0.039
-232.800	-52.485	-0.101	0.046
-231.786	-62.335	0.354	0.144
-230.771	-27.799	0.069	0.039
-229.757	-3.614	0.163	-0.111
-228.742	16.052	-0.209	-0.161
-227.727	244.278	-0.076	-0.124
-226.713	214.819	0.051	0.079
-225.698	-200.000	0.007	-0.128
-224.684	-118.472	0.308	-0.053
-223.669	800.000	0.052	0.176
-222.655	86.106	-0.136	-0.146
-221.640	-56.145	-0.237	0.103
-220.625	515.046	0.095	0.217
-219.611	-200.000	0.015	0.191
-218.596	-200.000	-0.015	-0.306
-217.582	-117.149	0.130	-0.023
-216.567	441.963	0.061	-0.131
-215.552	-21.803	-0.111	-0.066
-214.538	260.335	-0.042	0.070
-213.523	-130.592	-0.249	-0.033
-212.509	-200.000	0.004	0.058
-211.494	116.003	-0.084	-0.101
-210.479	-200.000	0.001	0.126
-209.465	-66.874	0.128	0.050
-208.450	800.000	-0.161	-0.485
-207.436	79.391	-0.059	0.061
-206.421	-97.225	0.230	-0.059
-205.406	800.000	-0.064	0.267
-204.392	-162.220	0.389	-0.019
-203.377	-119.872	0.132	-0.022
-202.363	-200.000	-0.019	-0.340
-201.348	606.697	-0.045	-0.108
-200.333	128.091	-0.096	0.119
-199.319	800.000	-0.044	0.151
-198.304	800.000	-0.080	-0.286
-197.290	-48.677	0.157	0.074
-196.275	110.875	0.040	0.047
-195.260	-140.611	0.304	-0.031
-194.246	800.000	0.063	0.269
-193.231	-95.397	0.139	-0.036
-192.217	-175.365	-0.276	0.007
-191.202	209.735	-0.171	0.262
-190.187	353.885	-0.132	-0.255
-189.173	487.535	-0.086	0.193
-188.158	43.225	0.175	-0.156
-187.144	543.600	0.107	-0.250
-186.129	442.571	-0.059	-0.126
-185.114	-15.202	-0.369	-0.231
-184.100	20.510	-0.062	0.049
-183.085	-119.989	0.298	0.050
-182.071	-45.959	-0.049	-0.024
-181.056	-17.352	0.148	0.091
-180.042	-200.000	-0.036	0.363
-179.027	-51.398	0.204	0.093
-178.012	695.491	0.095	-0.244
-176.998	9.432	0.215	-0.159
-175.983	-79.709	0.134	0.044
-174.969	19.491	0.182	-0.143
-173.954	186.665	-0.152	0.221
-172.939	82.979	0.243	0.259
-171.925	-20.008	0.112	-0.068
-170.910	16.908	0.063	0.049
-169.896	-80.531	-0.264	-0.086
-168.881	-49.350	-0.169	0.079
-167.866	46.830	0.059	0.054
-166.852	-200.000	-0.012	0.085
-165.837	-112.511	0.024	-0.005
-164.823	-46.287	0.175	-0.084
-163.808	-111.880	0.216	-0.043
-162.793	-159.363	-0.227	-0.012
-161.779	-88.114	0.278	0.082
-160.764	-114.945	-0.205	0.038
-159.750	-63.978	0.113	-0.045
-158.735	-31.628	0.137	-0.075
-157.720	256.364	-0.014	0.024
-156.706	284.410	-0.077	-0.135
-155.691	-200.000	-0.029	-0.174
-154.677	800.000	0.099	-0.351
-153.662	152.980	-0.060	-0.080
-152.647	-200.000	0.033	-0.461
-151.633	800.000	-0.113	0.309
-150.618	-146.638	-0.232	-0.020
-149.604	326.580	-0.035	-0.066
-148.589	-200.000	0.032	-0.200
-147.574	161.011	0.058	-0.079
-146.560	413.196	0.047	0.097
-145.545	-31.129	0.255	0.140
-144.531	800.000	0.132	0.485
-143.516	6.820	0.197	-0.143
-142.502	-7.343	0.377	0.249
-141.487	135.026	-0.247	-0.313
-140.472	-7.212	0.299	-0.197
-139.458	-200.000	0.003	-0.161
-138.443	-65.941	-0.293	0.114
-137.429	563.684	-0.079	-0.186
-136.414	381.805	-0.136	0.273
-135.399	-49.451	0.017	0.008
-134.385	504.251	-0.142	0.320
-133.370	800.000	-0.054	0.217
-132.356	-113.714	-0.289	0.055
-131.341	-35.592	-0.267	-0.141
-130.326	-200.000	0.022	0.251
-129.312	-104.615	-0.106	0.024
-128.297	110.502	-0.062	-0.073
-127.283	5.491	0.299	-0.215
-126.268	65.027	0.082	-0.081
-125.253	258.189	-0.078	-0.131
-124.239	112.251	-0.197	0.232
-123.224	360.575	-0.038	-0.074
-122.210	13.609	-0.032	-0.024
