DTS Sentinel unit serial number:	SN413079Multiplexer serial number:	ORYXHardware model number:	OX4-SRSoftware version number:	ORYX F/W v4.00 Oryx Data Collector v3.7.2.0data status	okinstallation	princeton_trtdifferential loss correction	single-endedforward channel	channel 2reverse channel	N/Adate	2019/09/16time	15:23:35forward acquisition time	60.00reverse acquisition time	0.00gamma	496.2192k internal	0.2298k external	0.2298temperature offset calibration	0.9941default loss term (dB/km)	0.3790temperature slope calibration	1.0000multiplexer offset coefficient	1.0000multiplexer slope coefficient	1.0000fibre end	0.00T internal ref (°C)	41.06T ext. ref 1 (°C)	14.64T ext. ref 2 (°C)	37.59length (m)	temperature (°C)	Stokes	anti-Stokes-747.200	32.248	-0.072	-0.064
-746.185	-200.000	-0.037	0.405
-745.171	-116.427	0.275	0.052
-744.156	-85.337	0.363	0.116
-743.142	-200.000	-0.024	0.151
-742.127	800.000	-0.112	0.482
-741.112	-200.000	-0.022	-0.158
-740.098	-200.000	0.018	0.114
-739.083	-110.799	-0.175	-0.037
-738.069	-200.000	-0.001	0.275
-737.054	366.315	0.105	0.215
-736.039	317.348	-0.019	-0.036
-735.025	-10.350	0.138	0.093
-734.010	-2.364	-0.094	0.068
-732.996	-117.985	-0.461	-0.084
-731.981	65.020	-0.323	0.333
-730.966	374.113	0.154	0.320
-729.952	-52.889	-0.147	-0.069
-728.937	-99.527	0.379	-0.097
-727.923	-24.261	-0.241	0.147
-726.908	800.000	-0.056	-0.163
-725.894	417.210	0.151	-0.329
-724.879	-107.834	0.165	0.037
-723.864	167.426	0.213	-0.309
-722.850	-3.239	-0.285	-0.202
-721.835	-200.000	-0.014	-0.188
-720.821	-200.000	-0.042	-0.251
-719.806	-200.000	0.012	-0.288
-718.791	88.094	-0.141	0.160
-717.777	5.182	-0.131	0.098
-716.762	800.000	0.099	0.400
-715.748	800.000	-0.016	0.056
-714.733	-111.207	0.156	0.032
-713.718	-13.611	-0.053	0.035
-712.704	681.472	0.103	0.274
-711.689	-200.000	0.042	-0.215
-710.675	-149.563	0.265	-0.021
-709.660	-4.605	-0.237	-0.167
-708.645	-75.585	-0.622	-0.225
-707.631	15.947	-0.084	-0.068
-706.616	524.174	-0.055	0.133
-705.602	-96.511	0.315	-0.085
-704.587	659.926	-0.120	-0.314
-703.572	59.968	0.327	0.329
-702.558	-200.000	-0.067	0.391
-701.543	-124.607	-0.177	-0.028
-700.529	-63.403	0.458	0.192
-699.514	-200.000	-0.006	-0.312
-698.499	-66.401	0.440	-0.178
-697.485	135.025	0.140	-0.186
-696.470	-79.028	0.159	0.055
-695.456	-200.000	-0.025	-0.182
-694.441	331.660	0.043	-0.085
-693.426	4.287	0.031	-0.023
-692.412	-187.760	-0.221	-0.003
-691.397	416.483	-0.067	0.145
-690.383	63.968	-0.207	-0.212
-689.368	-39.375	-0.171	-0.091
-688.354	-23.281	-0.276	0.169
-687.339	129.634	-0.119	-0.155
-686.324	23.489	0.091	-0.077
-685.310	73.418	-0.132	0.141
-684.295	-183.086	-0.188	-0.003
-683.281	-200.000	-0.040	0.251
-682.266	-105.966	-0.188	0.043
-681.251	800.000	-0.111	0.402
-680.237	252.056	0.096	0.167
-679.222	163.668	0.073	-0.104
-678.208	-102.234	0.187	0.046
-677.193	-91.514	0.483	0.140
-676.178	-47.601	0.184	-0.091
-675.164	-110.077	0.121	-0.026
-674.149	55.140	-0.165	0.163
-673.135	156.107	0.120	-0.169
-672.120	-90.529	0.110	-0.032
-671.105	-200.000	0.033	-0.263
-670.091	-88.048	-0.290	0.089
-669.076	53.694	0.123	-0.120
-668.062	-51.681	-0.349	-0.166
-667.047	297.138	-0.234	-0.437
-666.032	-200.000	0.001	-0.013
-665.018	356.759	-0.121	0.246
-664.003	-23.372	-0.247	0.151
-662.989	88.318	0.182	-0.205
-661.974	-158.537	0.214	-0.013
-660.959	-81.718	-0.314	-0.105
-659.945	255.890	-0.119	0.207
-658.930	-10.159	0.219	-0.148
-657.916	-200.000	0.219	-0.001
-656.901	373.821	-0.167	-0.346
-655.886	-200.000	-0.043	-0.327
-654.872	772.651	-0.017	0.046
-653.857	532.479	-0.046	0.110
-652.843	241.049	0.031	0.053
-651.828	42.323	-0.173	0.160
-650.814	-39.135	-0.182	0.097
-649.799	-66.165	-0.082	-0.033
-648.784	179.517	0.148	0.221
-647.770	-72.029	-0.241	-0.091
-646.755	800.000	-0.016	-0.071
-645.741	69.715	-0.095	-0.100
-644.726	357.273	0.195	0.396
-643.711	-200.000	0.005	-0.255
-642.697	-200.000	-0.016	-0.242
-641.682	67.214	-0.262	-0.271
-640.668	-36.542	-0.152	-0.083
-639.653	28.830	0.047	-0.041
-638.638	-200.000	0.033	-0.305
-637.624	-1.668	0.282	-0.202
-636.609	-169.814	-0.091	0.003
-635.595	-200.000	0.000	0.077
-634.580	-200.000	-0.002	-0.303
-633.565	23.947	0.114	-0.095
-632.551	-200.000	-0.051	0.381
-631.536	179.827	0.143	0.214
-630.522	304.988	0.275	0.518
-629.507	-200.000	-0.029	-0.380
-628.492	23.563	0.104	-0.087
-627.478	277.442	-0.196	0.355
-626.463	265.437	0.080	-0.142
-625.449	6.455	-0.087	0.066
-624.434	-76.799	-0.299	0.106
-623.419	-30.810	-0.267	-0.153
-622.405	61.529	0.224	-0.226
-621.390	428.322	-0.053	-0.115
-620.376	-17.700	0.220	-0.140
-619.361	-200.000	0.050	0.226
-618.346	-26.415	0.233	-0.139
-617.332	-200.000	-0.055	0.349
-616.317	-111.238	0.459	-0.095
-615.303	800.000	-0.053	-0.153
-614.288	-35.621	0.315	0.174
-613.273	46.162	-0.183	-0.172
-612.259	-123.720	0.308	-0.049
-611.244	-46.841	-0.182	-0.090
-610.230	-119.728	-0.318	0.056
-609.215	800.000	-0.017	-0.075
-608.201	-200.000	-0.016	0.090
-607.186	-75.146	0.161	-0.059
-606.171	800.000	-0.075	-0.284
-605.157	800.000	0.044	0.179
-604.142	287.022	-0.204	0.374
-603.128	29.446	-0.258	0.222
-602.113	624.043	0.030	0.076
-601.098	-14.058	-0.113	-0.074
-600.084	800.000	0.064	0.189
-599.069	-133.738	-0.077	-0.010
-598.055	164.635	0.124	0.177
-597.040	-200.000	0.017	-0.132
-596.025	-200.000	0.029	-0.181
-595.011	743.144	-0.073	-0.199
-593.996	-137.617	0.121	0.014
-592.982	539.512	0.144	-0.349
-591.967	-170.328	0.144	0.005
-590.952	107.449	0.165	0.200
-589.938	-200.000	-0.020	-0.229
-588.923	800.000	-0.069	-0.204
-587.909	-137.973	0.176	-0.020
-586.894	800.000	0.056	-0.216
-585.879	-36.438	0.261	-0.143
-584.865	201.355	-0.131	-0.205
-583.850	-83.155	-0.303	0.099
-582.836	-41.221	-0.262	-0.137
-581.821	68.011	0.282	-0.293
-580.806	-121.032	-0.190	-0.032
-579.792	16.970	0.236	-0.190
-578.777	151.273	-0.016	0.022
-577.763	-33.982	-0.202	0.113
-576.748	-49.506	-0.146	-0.071
-575.733	-90.612	0.370	-0.109
-574.719	-152.549	0.223	-0.016
-573.704	-93.611	-0.126	-0.035
-572.690	404.669	-0.126	0.269
-571.675	113.945	-0.110	-0.136
-570.661	61.049	0.251	0.253
-569.646	-163.385	-0.287	0.014
-568.631	-125.905	-0.433	-0.066
-567.617	-200.000	0.039	0.229
-566.602	-200.000	0.052	-0.413
-565.588	56.824	-0.260	0.257
-564.573	-73.906	0.138	0.051
-563.558	-47.810	0.378	0.186
-562.544	-162.923	0.180	-0.009
-561.529	-129.339	-0.208	0.029
-560.515	800.000	-0.053	-0.234
-559.500	-95.279	0.439	-0.120
-558.485	-12.206	0.114	-0.076
-557.471	-137.241	-0.212	-0.024
-556.456	278.723	0.093	-0.168
-555.442	-9.312	-0.106	0.072
-554.427	318.146	-0.203	0.390
-553.412	-38.565	0.242	0.130
-552.398	800.000	-0.085	0.260
-551.383	-23.712	0.154	0.093
-550.369	800.000	0.042	-0.170
-549.354	-200.000	0.002	0.364
-548.339	59.138	-0.148	0.148
-547.325	239.434	-0.065	0.109
-546.310	337.397	0.029	0.057
-545.296	255.563	-0.124	-0.216
-544.281	-200.000	-0.007	0.109
-543.266	800.000	0.089	0.306
-542.252	-39.442	0.089	0.047
-541.237	-112.752	-0.199	0.040
-540.223	-200.000	-0.034	-0.182
-539.208	667.734	-0.085	0.224
-538.193	401.322	-0.080	-0.170
-537.179	204.973	-0.103	0.163
-536.164	-200.000	0.056	-0.369
-535.150	31.188	0.229	0.199
-534.135	-78.772	0.138	-0.048
-533.121	-200.000	0.052	0.290
-532.106	494.469	0.059	0.137
-531.091	135.439	-0.169	0.222
-530.077	-23.245	0.146	0.089
-529.062	469.462	-0.151	-0.342
-528.048	-70.999	0.123	0.047
-527.033	-119.499	0.242	0.042
-526.018	233.179	-0.220	0.366
-525.004	288.164	0.074	-0.136
-523.989	-73.022	0.089	0.033
-522.975	-200.000	-0.023	0.115
-521.960	473.839	0.034	-0.078
-520.945	-151.336	0.172	-0.013
-519.931	143.004	0.107	-0.144
-518.916	-132.200	-0.376	-0.049
-517.902	-180.603	0.335	0.007
-516.887	800.000	-0.045	-0.134
-515.872	-103.064	0.284	0.068
-514.858	185.703	-0.201	0.302
-513.843	-200.000	-0.007	0.328
-512.829	165.206	0.021	0.030
-511.814	-200.000	-0.025	0.357
-510.799	50.210	-0.127	0.121
-509.785	89.724	-0.089	0.100
-508.770	200.366	-0.290	0.451
-507.756	800.000	0.050	-0.141
-506.741	33.763	0.333	0.293
-505.726	-29.122	0.253	-0.147
-504.712	-124.531	-0.379	-0.060
-503.697	-200.000	-0.002	0.086
-502.683	-99.529	0.197	-0.050
-501.668	-126.688	-0.270	0.040
-500.653	100.906	-0.090	0.106
-499.639	-141.206	-0.220	0.023
-498.624	-159.437	-0.222	0.013
-497.610	-99.304	-0.301	-0.077
-496.595	-27.598	0.248	0.146
-495.581	14.878	0.212	-0.168
-494.566	-64.085	0.190	-0.078
-493.551	-200.000	0.026	-0.146
-492.537	166.984	-0.102	-0.146
-491.522	74.029	0.134	-0.142
-490.508	-96.749	-0.130	0.034
-489.493	-143.464	0.104	-0.010
-488.478	-24.442	0.235	0.141
-487.464	229.790	0.036	-0.059
-486.449	54.666	-0.246	0.240
-485.435	118.829	0.129	0.162
-484.420	-152.545	-0.270	-0.019
-483.405	-142.035	0.292	0.029
-482.391	36.640	-0.412	0.368
-481.376	366.606	-0.108	-0.220
-480.362	-101.243	-0.296	-0.073
-479.347	27.694	-0.323	-0.275
-478.332	-82.369	-0.216	-0.071
-477.318	-163.900	0.192	0.009
-476.303	-200.000	0.010	-0.151
-475.289	15.305	0.249	0.197
-474.274	-150.615	-0.368	0.028
-473.259	-200.000	0.023	0.145
-472.245	-173.897	0.336	0.010
-471.230	-134.321	-0.348	-0.043
-470.216	800.000	-0.076	0.262
-469.201	800.000	0.050	0.162
-468.186	232.897	-0.014	-0.024
-467.172	-200.000	-0.015	-0.108
-466.157	40.083	-0.219	-0.198
-465.143	19.005	0.194	0.157
-464.128	-142.943	-0.182	-0.018
-463.113	382.593	-0.047	0.098
-462.099	-148.988	-0.220	-0.018
-461.084	377.071	0.055	0.113
-460.070	-90.954	0.127	0.037
-459.055	34.470	-0.036	-0.032
-458.040	77.758	-0.227	-0.245
-457.026	800.000	-0.059	-0.212
-456.011	161.961	-0.132	0.186
-454.997	-54.807	0.233	-0.106
-453.982	311.094	0.099	-0.187
-452.968	389.307	0.161	-0.337
-451.953	232.203	-0.194	0.322
-450.938	-73.954	-0.164	-0.060
-449.924	278.717	-0.033	-0.060
-448.909	-200.000	-0.004	0.188
-447.895	673.862	0.128	0.334
-446.880	118.778	0.057	-0.071
-445.865	197.392	-0.074	-0.114
-444.851	330.100	0.064	-0.125
-443.836	-161.333	-0.481	-0.025
-442.822	-163.847	-0.251	-0.012
-441.807	-64.993	-0.138	-0.056
-440.792	-98.259	0.336	0.087
-439.778	-89.072	-0.235	-0.070
-438.763	4.971	-0.039	-0.029
-437.749	164.092	0.160	-0.227
-436.734	498.266	0.038	0.087
-435.719	-200.000	-0.040	-0.456
-434.705	16.863	-0.238	-0.190
-433.690	136.799	-0.123	-0.162
-432.676	47.404	-0.079	-0.074
-431.661	-78.877	-0.182	-0.063
-430.646	118.369	-0.120	-0.149
-429.632	112.081	0.172	-0.209
-428.617	-153.511	-0.104	-0.007
-427.603	85.095	0.185	-0.205
-426.588	-110.706	0.175	-0.036
-425.573	253.006	0.223	-0.383
-424.559	26.579	-0.281	0.237
-423.544	-101.790	-0.111	-0.027
-422.530	-200.000	0.005	-0.418
-421.515	-41.819	-0.084	0.044
-420.500	-70.682	-0.110	-0.042
-419.486	56.537	-0.153	-0.150
-418.471	-158.467	0.180	-0.011
-417.457	-9.325	0.119	0.080
-416.442	13.265	-0.051	0.040
-415.428	-170.168	0.135	-0.005
-414.413	-111.802	-0.067	-0.014
-413.398	-200.000	0.018	0.286
-412.384	18.640	-0.099	0.079
-411.369	800.000	-0.135	0.504
-410.355	-154.482	0.101	0.007
-409.340	-155.860	0.355	0.023
-408.325	800.000	0.029	-0.091
-407.311	198.665	0.100	0.155
-406.296	67.854	0.212	0.218
-405.282	-75.169	0.480	0.173
-404.267	800.000	0.072	0.221
-403.252	228.675	0.110	0.181
-402.238	-9.814	-0.219	0.147
-401.223	300.448	-0.075	-0.140
-400.209	-129.988	-0.371	0.051
-399.194	10.435	-0.035	-0.026
-398.179	-118.311	0.255	-0.046
-397.165	144.052	-0.054	0.072
-396.150	800.000	0.028	0.119
-395.136	800.000	0.040	-0.142
-394.121	-200.000	-0.021	-0.242
-393.106	-200.000	-0.418	-0.001
-392.092	-57.470	-0.132	-0.058
-391.077	-89.020	-0.247	-0.073
-390.063	-87.067	-0.356	0.109
-389.048	89.788	0.041	-0.046
-388.033	725.955	0.028	0.074
-387.019	42.808	0.141	-0.130
-386.004	4.359	-0.177	-0.131
-384.990	-128.770	0.121	0.017
-383.975	-200.000	0.038	0.292
-382.960	-200.000	-0.050	-0.240
-381.946	208.018	0.111	-0.175
-380.931	29.083	0.075	-0.064
-379.917	-24.507	0.111	-0.067
-378.902	-200.000	0.036	-0.532
-377.888	-85.109	0.191	0.060
-376.873	263.666	-0.066	-0.116
-375.858	-130.538	0.224	-0.030
-374.844	-113.507	0.232	0.046
-373.829	-143.006	0.143	0.014
-372.815	116.972	0.136	-0.168
-371.800	800.000	-0.045	0.167
-370.785	20.224	0.092	-0.075
-369.771	-200.000	-0.027	0.370
-368.756	-14.609	-0.259	-0.168
-367.742	-2.655	-0.384	0.270
-366.727	264.642	0.061	0.107
-365.712	-200.000	0.079	0.451
-364.698	-33.555	-0.072	-0.040
-363.683	176.624	0.155	-0.227
-362.669	-200.000	0.034	-0.243
-361.654	-97.632	-0.190	0.050
-360.639	-57.617	0.270	-0.119
-359.625	46.515	0.128	0.120
-358.610	47.700	-0.270	0.253
-357.596	359.820	-0.052	0.104
-356.581	159.014	-0.041	-0.057
-355.566	-36.383	0.149	-0.081
-354.552	800.000	-0.118	-0.457
-353.537	39.680	0.488	-0.440
-352.523	-200.000	0.027	0.127
-351.508	-112.749	-0.232	-0.046
-350.493	-73.778	0.128	0.047
-349.479	-135.080	-0.064	-0.008
-348.464	-200.000	-0.000	-0.284
-347.450	3.542	0.203	0.148
-346.435	-111.038	-0.127	0.026
-345.420	-94.515	0.083	0.023
-344.406	339.285	0.050	0.099
-343.391	-26.429	-0.270	0.159
-342.377	576.604	-0.111	0.273
-341.362	-200.000	0.047	0.257
-340.348	-200.000	0.030	0.172
-339.333	-200.000	-0.016	-0.153
-338.318	-200.000	0.019	0.245
-337.304	77.764	0.093	0.099
-336.289	20.378	-0.137	-0.111
-335.275	24.358	-0.087	-0.072
-334.260	107.037	-0.047	0.057
-333.245	800.000	-0.067	-0.260
-332.231	800.000	0.075	-0.244
-331.216	16.810	-0.161	-0.128
-330.202	-50.150	-0.181	-0.086
-329.187	252.335	0.058	0.100
-328.172	-7.088	0.168	-0.114
-327.158	-133.949	-0.104	0.013
-326.143	800.000	0.054	-0.194
-325.129	-169.558	0.446	-0.016
-324.114	66.839	0.213	-0.218
-323.099	-137.621	0.265	0.030
-322.085	-63.768	0.083	-0.034
-321.070	-167.800	-0.281	0.011
-320.056	-88.749	0.267	0.080
-319.041	-155.407	-0.246	-0.016
-318.026	-200.000	0.004	0.302
-317.012	-56.580	-0.309	0.138
-315.997	-92.998	-0.238	0.067
-314.983	-200.000	0.012	-0.160
-313.968	156.670	-0.067	-0.092
-312.953	283.348	0.090	-0.162
-311.939	-95.187	-0.361	0.098
-310.924	40.224	0.111	0.100
-309.910	800.000	-0.127	0.425
-308.895	156.194	0.075	-0.104
-307.880	31.235	-0.058	0.050
-306.866	-69.813	0.220	-0.084
-305.851	168.486	-0.123	-0.176
-304.837	800.000	-0.112	-0.346
-303.822	-169.938	0.122	0.004
-302.807	111.067	0.226	0.273
-301.793	90.226	0.051	-0.057
-300.778	-156.431	0.230	0.014
-299.764	-114.957	0.413	-0.079
-298.749	800.000	0.076	-0.285
-297.735	-29.399	-0.237	-0.136
-296.720	800.000	-0.053	-0.189
-295.705	-200.000	-0.018	-0.105
-294.691	8.649	-0.104	0.078
-293.676	774.092	-0.039	0.107
-292.662	800.000	-0.070	0.212
-291.647	800.000	-0.044	0.136
-290.632	-12.135	-0.123	-0.081
-289.618	96.707	0.068	-0.078
-288.603	287.331	0.185	-0.336
-287.589	-10.448	0.186	0.123
-286.574	-123.579	-0.171	0.027
-285.559	328.400	0.110	-0.212
-284.545	-40.463	-0.264	-0.137
-283.530	84.997	-0.127	0.139
-282.516	-200.000	0.017	0.273
-281.501	-26.477	-0.138	-0.081
-280.486	141.930	-0.146	0.195
-279.472	45.350	-0.131	0.121
-278.457	97.494	0.138	0.159
-277.443	795.094	0.063	-0.175
-276.428	340.466	0.126	0.246
-275.413	254.016	0.137	0.234
-274.399	50.449	0.093	0.089
-273.384	93.037	-0.079	-0.090
-272.370	-200.000	-0.019	-0.129
-271.355	-200.000	0.056	-0.279
-270.340	58.156	0.115	0.113
-269.326	-74.043	0.166	-0.060
-268.311	-53.037	-0.172	0.079
-267.297	106.187	0.192	0.228
-266.282	-94.389	-0.025	-0.007
-265.267	-200.000	-0.055	0.342
-264.253	17.177	-0.158	0.126
-263.238	89.654	0.023	0.026
-262.224	-200.000	-0.007	0.070
-261.209	-128.962	0.502	-0.071
-260.195	-119.864	0.120	-0.021
-259.180	-52.380	-0.314	0.145
-258.165	-200.000	0.007	0.079
-257.151	25.059	-0.014	0.012
-256.136	-47.992	-0.294	0.142
-255.122	-165.792	0.218	0.009
-254.107	202.880	0.091	0.141
-253.092	-200.000	-0.010	0.227
-252.078	233.714	0.173	0.286
-251.063	-148.614	0.328	-0.027
-250.049	243.529	-0.106	-0.178
-249.034	178.331	0.112	0.164
-248.019	450.627	-0.040	0.087
-247.005	-57.474	-0.194	-0.085
-245.990	-75.907	0.213	0.076
-244.976	-200.000	-0.030	-0.214
-243.961	583.442	0.055	-0.134
-242.946	194.475	-0.053	-0.081
-241.932	-101.870	0.185	0.045
-240.917	67.616	-0.296	0.303
-239.903	800.000	-0.082	-0.318
-238.888	325.634	-0.104	-0.199
-237.873	-200.000	-0.013	0.216
-236.859	-200.000	-0.036	-0.193
-235.844	-200.000	0.022	-0.214
-234.830	645.079	-0.042	-0.107
-233.815	331.621	0.123	-0.238
-232.800	82.924	0.086	-0.094
-231.786	185.142	0.161	0.238
-230.771	-152.394	0.209	0.015
-229.757	-96.451	0.183	0.048
-228.742	34.052	-0.119	0.104
-227.727	-200.000	0.034	0.277
-226.713	-25.059	-0.370	0.219
-225.698	-200.000	0.026	-0.326
-224.684	800.000	0.038	-0.153
-223.669	800.000	0.016	0.048
-222.655	-10.515	0.038	-0.025
-221.640	219.876	-0.079	-0.126
-220.625	800.000	0.096	-0.267
-219.611	146.817	0.112	0.150
-218.596	154.017	0.149	-0.205
-217.582	50.212	-0.406	-0.384
-216.567	166.868	-0.125	-0.177
-215.552	800.000	0.125	-0.467
-214.538	2.217	0.144	-0.104
-213.523	800.000	-0.125	0.465
-212.509	-200.000	-0.052	0.327
-211.494	-160.258	0.253	0.014
-210.479	12.489	-0.211	-0.163
-209.465	800.000	0.049	0.174
-208.450	800.000	0.017	-0.051
-207.436	1.071	0.128	0.092
-206.421	-200.000	0.021	-0.227
-205.406	432.394	0.140	0.303
-204.392	48.530	0.147	-0.137
-203.377	-116.995	-0.183	0.033
-202.363	-85.005	-0.022	0.007
-201.348	94.480	0.209	0.237
-200.333	406.036	0.128	-0.269
-199.319	162.578	0.205	0.288
-198.304	-200.000	0.022	0.158
-197.290	800.000	0.089	0.259
-196.275	-200.000	-0.062	0.279
-195.260	-96.418	-0.179	0.047
-194.246	800.000	0.066	-0.185
-193.231	122.870	0.052	-0.065
-192.217	-109.803	0.166	0.035
-191.202	707.713	-0.103	-0.272
-190.187	191.892	-0.114	0.172
-189.173	75.222	0.128	0.135
-188.158	-7.769	0.239	-0.161
-187.144	-127.099	-0.176	-0.026
-186.129	-37.157	-0.132	0.071
-185.114	-10.883	0.124	-0.082
-184.100	-33.171	-0.235	-0.130
-183.085	85.392	-0.132	0.145
-182.071	233.257	-0.202	0.332
-181.056	392.173	0.061	-0.126
-180.042	-200.000	0.017	0.442
-179.027	137.732	0.347	0.454
-178.012	491.840	0.083	-0.190
-176.998	-50.595	-0.257	-0.121
-175.983	-200.000	-0.011	-0.066
-174.969	77.315	-0.192	-0.204
-173.954	33.371	-0.021	0.018
-172.939	31.713	-0.064	-0.055
-171.925	68.774	-0.167	-0.171
-170.910	800.000	0.120	0.350
-169.896	-47.161	0.207	0.101
-168.881	-200.000	0.027	-0.176
-167.866	800.000	-0.026	-0.075
-166.852	-48.076	-0.108	0.052
-165.837	47.180	0.110	-0.103
-164.823	800.000	-0.036	-0.146
-163.808	-200.000	0.010	0.073
-162.793	247.018	-0.103	-0.174
-161.779	224.170	-0.130	-0.210
-160.764	-69.182	-0.096	-0.037
-159.750	-75.859	-0.115	-0.041
-158.735	129.253	-0.118	-0.150
-157.720	-200.000	-0.023	-0.185
-156.706	-89.317	-0.270	-0.079
-155.691	800.000	0.055	-0.154
-154.677	98.109	0.137	0.157
-153.662	-108.135	0.364	0.079
-152.647	-62.740	0.151	0.063
-151.633	18.324	0.115	0.092
-150.618	92.935	-0.101	-0.113
-149.604	54.208	0.110	0.106
-148.589	17.605	0.212	0.168
-147.574	700.376	-0.063	-0.165
-146.560	161.002	-0.063	-0.088
-145.545	-200.000	0.014	0.140
-144.531	206.484	-0.201	0.312
-143.516	-124.845	-0.414	0.064
-142.502	-115.628	0.272	-0.051
-141.487	322.165	-0.111	0.210
-140.472	149.276	-0.034	0.046
-139.458	-80.283	0.220	0.073
-138.443	-87.176	-0.046	-0.014
-137.429	60.072	-0.092	0.091
-136.414	-22.608	0.383	0.231
-135.399	126.930	-0.065	0.082
-134.385	418.827	0.104	0.223
-133.370	46.184	0.139	-0.128
-132.356	734.638	-0.040	-0.108
-131.341	437.892	0.115	-0.251
-130.326	-200.000	-0.058	-0.271
-129.312	-108.206	-0.344	0.074
-128.297	592.651	-0.121	0.299
-127.283	-35.227	0.157	0.085
-126.268	-13.289	0.331	0.214
-125.253	45.681	-0.188	0.173
-124.239	742.795	-0.077	-0.207
-123.224	-69.523	-0.421	0.161
-122.210	-200.000	-0.032	0.173
-121.195	800.000	-0.090	0.253
