DTS Sentinel unit serial number:	SN413079Multiplexer serial number:	ORYXHardware model number:	OX4-SRSoftware version number:	ORYX F/W v4.00 Oryx Data Collector v3.7.2.0data status	okinstallation	princeton_trtdifferential loss correction	single-endedforward channel	channel 2reverse channel	N/Adate	2019/09/15time	14:07:34forward acquisition time	60.00reverse acquisition time	0.00gamma	496.2192k internal	0.2301k external	0.2301temperature offset calibration	0.9992default loss term (dB/km)	0.3790temperature slope calibration	1.0000multiplexer offset coefficient	1.0000multiplexer slope coefficient	1.0000fibre end	0.00T internal ref (°C)	38.66T ext. ref 1 (°C)	4.94T ext. ref 2 (°C)	35.96length (m)	temperature (°C)	Stokes	anti-Stokes-747.200	416.400	-0.128	0.279
-746.185	446.975	-0.121	0.271
-745.171	-142.663	-0.138	0.014
-744.156	234.857	-0.142	0.239
-743.142	633.906	-0.077	-0.200
-742.127	-12.452	0.008	-0.005
-741.112	55.317	-0.206	0.203
-740.098	-137.394	0.144	-0.017
-739.083	-200.000	0.053	0.305
-738.069	686.137	-0.111	0.297
-737.054	-200.000	-0.006	0.133
-736.039	531.990	0.089	-0.214
-735.025	800.000	-0.096	-0.347
-734.010	34.223	0.202	0.180
-732.996	-145.115	-0.388	0.036
-731.981	800.000	-0.087	0.330
-730.966	18.859	-0.289	0.236
-729.952	617.644	-0.047	0.120
-728.937	302.615	-0.109	-0.206
-727.923	-100.196	0.114	-0.029
-726.908	-42.527	-0.175	0.091
-725.894	-34.197	-0.185	0.103
-724.879	-69.117	0.204	0.080
-723.864	192.381	-0.175	0.269
-722.850	39.203	0.203	-0.185
-721.835	800.000	-0.026	0.076
-720.821	-200.000	-0.017	0.189
-719.806	85.463	-0.027	0.030
-718.791	-200.000	-0.006	-0.655
-717.777	800.000	-0.087	0.328
-716.762	126.845	-0.085	0.110
-715.748	-200.000	-0.013	0.137
-714.733	-81.091	-0.093	0.031
-713.718	-191.246	-0.256	-0.003
-712.704	-72.951	0.156	-0.059
-711.689	13.496	-0.214	0.169
-710.675	-87.932	-0.073	-0.022
-709.660	-11.833	-0.106	-0.071
-708.645	-200.000	-0.004	0.274
-707.631	-134.976	-0.088	-0.011
-706.616	-77.223	-0.210	0.075
-705.602	465.167	0.094	0.215
-704.587	-200.000	-0.028	-0.136
-703.572	-111.538	-0.159	-0.033
-702.558	-96.841	-0.165	0.044
-701.543	-36.611	0.032	-0.018
-700.529	-89.045	-0.251	0.076
-699.514	-2.317	0.340	0.243
-698.499	-200.000	-0.038	-0.193
-697.485	538.276	0.155	0.376
-696.470	39.019	-0.283	-0.257
-695.456	800.000	-0.076	0.231
-694.441	800.000	-0.085	0.358
-693.426	-111.471	-0.089	-0.018
-692.412	-43.914	0.099	-0.051
-691.397	301.728	-0.198	0.372
-690.383	-8.669	0.167	0.114
-689.368	-200.000	0.037	0.267
-688.354	-55.544	-0.428	-0.195
-687.339	-200.000	-0.051	-0.305
-686.324	5.336	0.080	0.060
-685.310	-18.041	0.088	-0.056
-684.295	-132.760	0.136	-0.018
-683.281	-91.272	-0.217	-0.063
-682.266	-146.105	0.214	0.019
-681.251	282.633	0.131	0.238
-680.237	800.000	-0.031	-0.109
-679.222	771.570	-0.076	-0.209
-678.208	-157.345	0.182	0.011
-677.193	-21.878	0.298	0.185
-676.178	-200.000	-0.010	-0.073
-675.164	210.719	-0.166	-0.265
-674.149	-171.562	-0.222	0.007
-673.135	-105.097	0.205	-0.048
-672.120	129.781	-0.179	-0.233
-671.105	800.000	0.074	0.214
-670.091	190.257	-0.257	0.392
-669.076	-38.076	-0.106	-0.057
-668.062	-112.584	-0.441	0.089
-667.047	41.451	-0.055	-0.050
-666.032	333.074	-0.074	-0.146
-665.018	203.151	-0.124	0.195
-664.003	-31.299	0.213	-0.122
-662.989	-55.019	-0.105	0.048
-661.974	800.000	-0.075	0.229
-660.959	-8.596	0.006	-0.004
-659.945	252.423	0.188	0.326
-658.930	49.565	0.208	0.199
-657.916	476.669	0.142	0.325
-656.901	54.681	0.130	-0.128
-655.886	-33.975	-0.136	0.076
-654.872	216.277	-0.088	0.142
-653.857	-200.000	0.023	0.170
-652.843	-171.203	-0.303	0.010
-651.828	-200.000	-0.080	0.440
-650.814	330.701	0.128	0.251
-649.799	-178.246	0.090	-0.002
-648.784	-200.000	-0.021	-0.183
-647.770	110.787	-0.122	0.149
-646.755	-141.875	-0.232	0.024
-645.741	800.000	0.018	0.059
-644.726	116.675	-0.082	-0.102
-643.711	2.748	-0.189	-0.139
-642.697	-131.364	-0.242	0.032
-641.682	-42.573	0.170	0.088
-640.668	-3.302	0.282	0.200
-639.653	-88.551	-0.242	0.073
-638.638	-200.000	-0.035	0.189
-637.624	-173.794	0.298	0.009
-636.609	265.592	0.048	0.085
-635.595	-138.290	-0.060	-0.007
-634.580	-28.783	0.217	-0.127
-633.565	800.000	0.145	-0.410
-632.551	-200.000	0.001	-0.210
-631.536	-102.632	-0.394	0.095
-630.522	-200.000	-0.016	0.270
-629.507	34.981	-0.170	0.151
-628.492	-96.815	-0.244	0.065
-627.478	91.789	-0.058	0.067
-626.463	-127.657	-0.035	0.005
-625.449	51.309	-0.155	-0.149
-624.434	-200.000	0.032	0.228
-623.419	440.713	0.097	0.216
-622.405	-107.851	-0.261	-0.058
-621.390	800.000	-0.069	-0.242
-620.376	-200.000	0.070	-0.339
-619.361	234.294	-0.093	-0.156
-618.346	164.503	-0.035	0.050
-617.332	-91.972	0.158	0.045
-616.317	31.075	0.090	-0.078
-615.303	-47.368	0.120	-0.059
-614.288	190.787	0.215	0.328
-613.273	-78.682	0.233	0.081
-612.259	112.503	0.290	0.357
-611.244	-200.000	0.003	0.074
-610.230	-69.929	0.343	0.133
-609.215	-200.000	0.009	0.133
-608.201	-77.270	0.156	-0.055
-607.186	800.000	-0.048	0.133
-606.171	-77.527	-0.207	0.073
-605.157	73.230	0.301	-0.320
-604.142	60.268	-0.213	-0.213
-603.128	-143.642	0.112	0.011
-602.113	42.548	-0.152	0.141
-601.098	-109.276	-0.156	-0.033
-600.084	-200.000	-0.018	-0.154
-599.069	80.519	-0.185	-0.202
-598.055	800.000	-0.056	0.214
-597.040	26.511	-0.131	-0.111
-596.025	30.247	-0.276	-0.239
-595.011	-32.262	0.199	-0.113
-593.996	-92.627	0.256	-0.073
-592.982	-12.282	0.419	0.278
-591.967	-132.982	0.109	0.014
-590.952	673.845	-0.086	0.225
-589.938	141.339	0.049	0.066
-588.923	-200.000	-0.011	-0.126
-587.909	800.000	-0.033	-0.093
-586.894	430.846	-0.054	-0.119
-585.879	-97.402	-0.136	-0.036
-584.865	-200.000	-0.074	0.468
-583.850	-2.052	0.113	0.080
-582.836	-200.000	-0.015	0.150
-581.821	800.000	-0.089	0.353
-580.806	527.122	-0.075	0.179
-579.792	-153.067	-0.467	-0.033
-578.777	800.000	0.021	-0.080
-577.763	800.000	-0.068	0.213
-576.748	-200.000	-0.014	-0.211
-575.733	72.205	-0.099	0.104
-574.719	800.000	0.116	-0.358
-573.704	800.000	0.005	0.018
-572.690	-10.065	-0.413	0.278
-571.675	-94.971	0.315	0.086
-570.661	-32.888	-0.213	-0.120
-569.646	180.496	-0.056	0.083
-568.631	53.977	-0.202	-0.197
-567.617	0.857	0.209	-0.152
-566.602	800.000	0.068	0.282
-565.588	-51.073	0.153	-0.073
-564.573	463.189	0.088	-0.199
-563.558	800.000	0.039	-0.118
-562.544	113.278	-0.030	0.037
-561.529	-137.877	-0.246	-0.028
-560.515	-59.629	0.187	-0.081
-559.500	800.000	0.064	-0.283
-558.485	800.000	0.042	-0.187
-557.471	800.000	-0.050	-0.171
-556.456	218.346	0.066	0.106
-555.442	-83.762	-0.223	0.072
-554.427	-200.000	-0.011	-0.218
-553.412	69.236	-0.158	-0.164
-552.398	-66.194	-0.278	0.112
-551.383	559.350	-0.105	0.256
-550.369	-200.000	-0.006	0.091
-549.354	-22.051	-0.185	-0.114
-548.339	-17.385	0.186	0.118
-547.325	72.481	-0.101	-0.107
-546.310	-126.672	-0.133	0.020
-545.296	-9.045	-0.084	-0.057
-544.281	-200.000	0.014	-0.538
-543.266	-22.657	0.211	0.129
-542.252	179.340	0.156	-0.230
-541.237	-200.000	0.045	-0.317
-540.223	-101.197	-0.082	0.020
-539.208	-87.032	-0.279	0.086
-538.193	-28.794	0.353	-0.205
-537.179	-54.983	-0.192	0.088
-536.164	79.913	0.091	0.099
-535.150	150.676	-0.082	-0.113
-534.135	-10.532	0.394	0.264
-533.121	777.868	0.072	0.199
-532.106	-79.419	-0.062	-0.021
-531.091	-200.000	0.017	0.300
-530.077	64.257	-0.106	-0.108
-529.062	140.270	0.057	-0.077
-528.048	41.524	0.068	-0.062
-527.033	42.035	0.109	0.100
-526.018	60.986	-0.131	-0.131
-525.004	53.964	-0.197	0.191
-523.989	-10.696	0.192	-0.128
-522.975	-200.000	-0.001	-0.165
-521.960	334.066	0.089	0.174
-520.945	-18.737	-0.041	0.026
-519.931	800.000	-0.020	0.076
-518.916	-125.429	-0.236	0.036
-517.902	78.840	-0.116	0.126
-516.887	160.174	-0.059	0.083
-515.872	-96.741	-0.229	-0.061
-514.858	-200.000	-0.001	-0.080
-513.843	11.145	-0.069	0.054
-512.829	800.000	-0.118	0.357
-511.814	-1.359	-0.142	0.102
-510.799	-61.399	0.265	0.112
-509.785	38.676	0.069	0.062
-508.770	-200.000	-0.005	-0.168
-507.756	-110.366	0.090	-0.019
-506.741	-115.331	0.397	0.076
-505.726	-88.140	0.159	-0.048
-504.712	-114.197	-0.256	0.050
-503.697	201.707	0.113	0.175
-502.683	-136.125	-0.065	0.008
-501.668	-200.000	0.029	0.288
-500.653	-99.406	0.146	0.037
-499.639	382.536	-0.084	0.175
-498.624	-93.554	-0.318	-0.089
-497.610	-10.849	0.233	-0.156
-496.595	126.995	0.173	-0.221
-495.581	368.640	-0.195	-0.397
-494.566	-43.571	0.269	0.137
-493.551	240.630	0.137	0.231
-492.537	121.011	-0.117	0.147
-491.522	-110.737	0.544	0.113
-490.508	-200.000	-0.002	-0.038
-489.493	-200.000	-0.038	-0.182
-488.478	-58.196	0.382	-0.168
-487.464	-127.073	0.055	-0.008
-486.449	-200.000	-0.006	0.123
-485.435	394.474	-0.032	0.067
-484.420	223.098	-0.007	-0.011
-483.405	-200.000	0.005	0.161
-482.391	-139.060	0.337	-0.037
-481.376	130.830	-0.025	0.032
-480.362	-200.000	-0.035	0.389
-479.347	800.000	-0.034	0.123
-478.332	163.355	0.187	-0.265
-477.318	85.406	-0.144	-0.160
-476.303	-47.805	-0.363	0.178
-475.289	-200.000	-0.010	0.292
-474.274	-118.323	-0.181	0.032
-473.259	400.633	0.087	0.185
-472.245	800.000	-0.034	0.132
-471.230	703.754	0.069	0.183
-470.216	-200.000	0.013	0.073
-469.201	350.026	-0.087	0.173
-468.186	184.506	0.062	0.093
-467.172	-143.321	0.360	0.035
-466.157	-105.790	0.412	0.094
-465.143	27.602	-0.047	0.040
-464.128	-25.340	-0.292	0.174
-463.113	-142.617	0.160	-0.016
-462.099	800.000	-0.017	0.069
-461.084	-46.195	-0.111	-0.055
-460.070	-98.103	-0.232	-0.060
-459.055	-200.000	0.036	-0.203
-458.040	-200.000	-0.009	-0.043
-457.026	42.704	0.054	-0.050
-456.011	-48.292	-0.099	0.048
-454.997	-180.621	-0.140	-0.003
-453.982	-120.253	-0.158	-0.027
-452.968	-22.319	0.112	0.068
-451.953	27.003	0.118	-0.100
-450.938	-20.997	-0.233	0.144
-449.924	144.403	0.051	-0.068
-448.909	-89.717	0.191	-0.056
-447.895	800.000	-0.145	-0.408
-446.880	482.445	-0.052	-0.120
-445.865	28.485	-0.229	-0.196
-444.851	-32.550	0.023	-0.013
-443.836	-87.941	0.359	-0.109
-442.822	-178.592	0.163	0.004
-441.807	-81.833	-0.110	0.036
-440.792	298.720	0.162	0.300
-439.778	800.000	0.083	-0.348
-438.763	800.000	-0.055	0.225
-437.749	-200.000	0.031	-0.201
-436.734	-3.632	-0.256	-0.180
-435.719	-88.422	0.203	0.061
-434.705	188.252	-0.053	-0.080
-433.690	-200.000	0.003	0.073
-432.676	78.215	0.089	-0.096
-431.661	136.605	-0.109	0.143
-430.646	-200.000	0.007	0.092
-429.632	152.199	0.076	0.104
-428.617	-50.616	0.255	0.121
-427.603	-34.985	0.119	-0.066
-426.588	-115.117	-0.283	-0.054
-425.573	-6.683	-0.170	0.116
-424.559	-42.479	-0.146	0.075
-423.544	86.819	0.137	-0.153
-422.530	-2.154	0.153	-0.108
-421.515	-200.000	0.041	-0.229
-420.500	-82.854	-0.105	0.034
-419.486	49.008	0.341	0.323
-418.471	2.225	-0.083	-0.060
-417.457	55.920	-0.217	-0.212
-416.442	-72.745	0.297	-0.110
-415.428	-115.724	-0.119	-0.022
-414.413	178.131	-0.099	-0.146
-413.398	800.000	0.052	-0.227
-412.384	40.866	-0.299	0.272
-411.369	59.098	0.116	0.115
-410.355	-134.634	0.287	0.035
-409.340	-200.000	0.030	-0.156
-408.325	-200.000	-0.026	-0.157
-407.311	800.000	-0.048	-0.208
-406.296	800.000	0.073	-0.249
-405.282	-200.000	0.015	-0.319
-404.267	227.056	-0.114	-0.187
-403.252	-88.937	0.342	-0.102
-402.238	-42.117	-0.078	-0.040
-401.223	-47.668	0.159	0.078
-400.209	-200.000	-0.115	-0.645
-399.194	-87.806	-0.270	-0.082
-398.179	-200.000	0.014	0.263
-397.165	316.344	0.049	0.093
-396.150	-3.582	0.078	-0.055
-395.136	2.647	0.086	-0.063
-394.121	573.705	0.077	-0.188
-393.106	-34.478	-0.130	-0.072
-392.092	-79.680	-0.096	-0.032
-391.077	-169.509	-0.198	0.007
-390.063	142.424	0.113	0.150
-389.048	-17.147	0.352	0.223
-388.033	-25.934	0.384	0.228
-387.019	-120.514	0.245	0.042
-386.004	800.000	-0.105	0.322
-384.990	-173.397	0.146	-0.004
-383.975	-38.979	-0.259	0.137
-382.960	-200.000	-0.043	-0.284
-381.946	-96.336	0.101	-0.027
-380.931	20.379	-0.097	0.079
-379.917	-41.611	-0.127	-0.066
-378.902	-200.000	0.010	-0.149
-377.888	-200.000	-0.013	-0.190
-376.873	-117.565	0.170	0.031
-375.858	800.000	-0.063	-0.236
-374.844	800.000	0.038	0.123
-373.829	66.058	-0.157	0.160
-372.815	-200.000	-0.027	0.150
-371.800	34.593	-0.247	-0.217
-370.785	215.904	0.221	0.353
-369.771	409.480	-0.109	-0.232
-368.756	-200.000	0.328	-0.001
-367.742	34.318	0.201	0.176
-366.727	180.219	0.080	-0.118
-365.712	-200.000	0.024	0.144
-364.698	20.507	-0.189	0.154
-363.683	-134.995	0.278	-0.034
-362.669	-188.971	-0.367	-0.004
-361.654	320.846	-0.192	0.366
-360.639	-158.246	-0.134	0.008
-359.625	-88.830	-0.332	0.099
-358.610	-172.938	-0.281	0.009
-357.596	-25.807	0.113	0.067
-356.581	559.750	0.038	0.093
-355.566	-27.186	-0.189	-0.111
-354.552	-200.000	-0.020	-0.300
-353.537	-108.416	-0.063	-0.014
-352.523	650.871	-0.161	0.415
-351.508	-0.153	0.129	0.092
-350.493	-82.090	-0.109	0.036
-349.479	34.604	0.271	0.237
-348.464	-200.000	0.011	0.157
-347.450	28.805	-0.037	0.031
-346.435	-5.482	0.109	0.075
-345.420	-200.000	-0.010	-0.152
-344.406	-200.000	0.009	-0.142
-343.391	76.026	0.173	-0.184
-342.377	-36.743	-0.026	-0.014
-341.362	469.414	0.132	0.297
-340.348	33.906	-0.170	-0.148
-339.333	-200.000	0.033	0.293
-338.318	192.921	0.310	0.470
-337.304	170.114	0.161	0.231
-336.289	590.652	0.108	0.268
-335.275	-200.000	-0.000	-0.022
-334.260	-57.516	0.057	-0.025
-333.245	774.664	-0.159	0.435
-332.231	-2.540	0.110	0.077
-331.216	-27.051	-0.337	0.197
-330.202	-62.050	-0.377	-0.158
-329.187	-49.504	0.170	-0.081
-328.172	-200.000	0.010	-0.121
-327.158	80.163	-0.191	-0.206
-326.143	-94.318	-0.243	0.066
-325.129	-200.000	0.017	0.131
-324.114	-125.864	0.173	0.026
-323.099	-97.363	-0.180	-0.047
-322.085	52.701	0.216	-0.207
-321.070	37.351	0.191	-0.170
-320.056	64.423	-0.094	0.095
-319.041	166.175	0.055	-0.078
-318.026	-200.000	-0.021	-0.167
-317.012	-115.572	-0.129	0.024
-315.997	159.404	0.144	-0.201
-314.983	676.418	-0.039	0.102
-313.968	-42.748	0.222	0.113
-312.953	-135.317	0.175	-0.021
-311.939	127.888	0.145	-0.185
-310.924	754.771	0.065	-0.176
-309.910	55.249	-0.070	0.068
-308.895	-160.829	-0.094	0.005
-307.880	-200.000	-0.059	-0.339
-306.866	24.849	-0.261	-0.217
-305.851	-36.095	0.149	-0.081
-304.837	29.043	-0.177	0.151
-303.822	-200.000	-0.002	-0.057
-302.807	106.404	-0.067	-0.080
-301.793	190.021	0.168	0.253
-300.778	-200.000	0.052	0.376
-299.764	-90.551	-0.349	-0.101
-298.749	52.142	0.125	-0.119
-297.735	-1.638	0.134	-0.095
-296.720	52.265	0.230	-0.219
-295.705	-200.000	0.010	-0.249
-294.691	140.314	-0.166	-0.219
-293.676	-148.085	0.266	0.022
-292.662	-104.076	-0.222	-0.052
-291.647	66.558	0.059	-0.060
-290.632	-200.000	-0.298	-0.000
-289.618	-32.741	0.033	-0.018
-288.603	-11.697	-0.144	0.095
-287.589	42.588	-0.093	-0.085
-286.574	57.789	0.241	0.236
-285.559	800.000	0.001	0.005
-284.545	311.706	0.181	-0.340
-283.530	159.393	0.110	-0.153
-282.516	183.736	-0.222	-0.329
-281.501	-200.000	-0.021	-0.138
-280.486	-200.000	-0.032	-0.189
-279.472	-141.069	0.437	0.045
-278.457	-0.399	0.079	-0.056
-277.443	-108.948	0.420	-0.090
-276.428	98.574	-0.091	0.105
-275.413	-136.945	0.127	-0.015
-274.399	25.816	-0.227	-0.190
-273.384	442.385	-0.086	-0.189
-272.370	158.470	-0.072	0.101
-271.355	-71.318	0.095	-0.036
-270.340	-86.044	-0.236	-0.073
-269.326	-200.000	0.000	-0.148
-268.311	-200.000	-0.030	-0.226
-267.297	32.222	0.035	-0.031
-266.282	33.277	-0.169	0.147
-265.267	94.590	0.127	-0.144
-264.253	59.097	-0.098	-0.097
-263.238	181.638	0.212	0.312
-262.224	-134.050	0.182	-0.022
-261.209	210.225	-0.193	0.303
-260.195	-200.000	0.005	0.115
-259.180	45.642	-0.032	0.030
-258.165	-115.227	0.221	-0.042
-257.151	694.510	0.054	-0.141
-256.136	246.149	-0.055	0.092
-255.122	-200.000	-0.056	0.267
-254.107	-61.604	0.235	-0.099
-253.092	-200.000	-0.058	-0.381
-252.078	-64.222	0.357	0.145
-251.063	-136.472	0.286	-0.033
-250.049	-166.795	0.124	-0.005
-249.034	353.839	-0.073	-0.146
-248.019	62.783	0.079	-0.079
-247.005	144.001	0.160	0.214
-245.990	-114.814	-0.046	0.009
-244.976	-200.000	0.049	0.217
-243.961	19.740	-0.078	-0.063
-242.946	-92.977	-0.196	0.055
-241.932	103.887	0.129	-0.152
-240.917	-31.572	0.147	0.083
-239.903	-115.916	0.142	0.026
-238.888	23.520	-0.096	0.079
-237.873	-61.286	0.150	-0.063
-236.859	-132.793	-0.177	-0.023
-235.844	41.152	0.125	-0.113
-234.830	285.050	0.085	-0.153
-233.815	81.134	0.184	-0.198
-232.800	-200.000	0.002	-0.049
-231.786	-171.450	-0.176	-0.006
-230.771	-200.000	0.048	0.342
-229.757	509.866	-0.080	0.187
-228.742	-51.286	-0.134	-0.063
-227.727	-200.000	0.021	-0.362
-226.713	97.030	-0.101	0.116
-225.698	-82.724	-0.261	-0.084
-224.684	-109.631	-0.328	-0.069
-223.669	-200.000	0.005	0.068
-222.655	-115.418	-0.343	-0.065
-221.640	160.730	0.114	-0.158
-220.625	-124.135	-0.120	-0.019
-219.611	-200.000	-0.018	-0.269
-218.596	605.057	0.033	0.083
-217.582	38.924	0.080	0.071
-216.567	-87.719	0.439	-0.132
-215.552	-2.303	-0.137	0.096
-214.538	800.000	-0.064	-0.201
-213.523	-200.000	0.078	0.411
-212.509	800.000	0.098	-0.300
-211.494	-138.985	0.329	-0.036
-210.479	58.403	0.215	-0.210
-209.465	-22.873	-0.213	-0.128
-208.450	-96.424	-0.041	-0.011
-207.436	193.119	0.119	-0.180
-206.421	800.000	-0.088	0.261
-205.406	-85.603	0.169	-0.053
-204.392	45.249	0.098	0.090
-203.377	-125.842	-0.026	0.004
-202.363	25.066	-0.172	-0.143
-201.348	194.573	-0.143	0.217
-200.333	126.358	0.115	0.145
-199.319	-11.574	-0.107	0.070
-198.304	90.401	-0.271	-0.303
-197.290	-35.981	-0.173	-0.093
-196.275	63.710	0.090	-0.090
-195.260	15.007	-0.120	0.094
-194.246	-73.115	0.092	-0.034
-193.231	-200.000	0.047	0.254
-192.217	55.291	0.159	0.154
-191.202	41.606	-0.171	-0.155
-190.187	308.494	0.068	0.127
-189.173	55.753	-0.063	-0.061
-188.158	229.119	-0.225	0.366
-187.144	-200.000	-0.011	0.219
-186.129	259.861	-0.083	-0.143
-185.114	-200.000	0.006	-0.155
-184.100	43.657	0.169	-0.154
-183.085	-54.763	-0.177	0.080
-182.071	747.312	-0.041	0.110
-181.056	269.995	-0.198	0.347
-180.042	41.600	-0.263	0.238
-179.027	-48.878	-0.043	-0.020
-178.012	-125.126	-0.313	-0.048
-176.998	185.939	-0.056	0.082
-175.983	-104.919	0.128	0.029
-174.969	-200.000	0.049	0.303
-173.954	800.000	0.036	0.153
-172.939	-12.471	0.243	0.158
-171.925	-200.000	-0.031	-0.138
-170.910	5.084	0.139	0.102
-169.896	-98.960	-0.303	0.077
-168.881	8.196	-0.181	0.135
-167.866	-115.145	-0.287	-0.054
-166.852	-34.794	0.021	-0.012
-165.837	-44.964	-0.133	0.066
-164.823	-200.000	-0.016	0.333
-163.808	-118.534	-0.257	0.045
-162.793	-200.000	0.013	-0.152
-161.779	-133.181	0.200	-0.025
-160.764	112.643	-0.192	-0.231
-159.750	-42.989	-0.283	-0.143
-158.735	255.583	0.160	-0.274
-157.720	-200.000	-0.034	0.327
-156.706	-200.000	0.041	-0.247
-155.691	-38.584	0.080	-0.042
-154.677	-61.937	0.106	0.044
-153.662	487.899	0.094	-0.214
-152.647	-69.314	-0.076	-0.029
-151.633	-200.000	0.001	0.062
-150.618	-200.000	0.006	0.164
-149.604	258.287	-0.103	0.177
-148.589	0.283	0.086	0.061
-147.574	-37.712	0.152	0.081
-146.560	-138.014	0.294	-0.033
-145.545	-56.018	0.170	-0.076
-144.531	-15.234	-0.370	0.236
-143.516	188.046	0.152	0.226
-142.502	144.288	0.122	0.162
-141.487	89.595	0.293	0.326
-140.472	-200.000	-0.062	0.335
-139.458	84.412	0.199	0.216
-138.443	-158.817	-0.226	-0.013
-137.429	-106.033	0.401	0.090
-136.414	-200.000	-0.002	0.150
-135.399	26.166	0.116	0.096
-134.385	-200.000	-0.023	-0.110
-133.370	-200.000	0.029	-0.142
-132.356	417.043	-0.094	-0.199
-131.341	-126.773	0.225	-0.033
-130.326	131.969	0.147	-0.188
-129.312	-58.562	-0.156	-0.068
-128.297	-160.034	0.045	0.002
-127.283	174.638	-0.029	0.042
-126.268	330.106	0.025	0.048
-125.253	800.000	0.051	-0.187
-124.239	-27.488	-0.349	0.202
-123.224	-200.000	-0.016	0.230
-122.210	366.637	-0.122	-0.244
-121.195	375.520	0.066	-0.134
