DTS Sentinel unit serial number:	SN413079Multiplexer serial number:	ORYXHardware model number:	OX4-SRSoftware version number:	ORYX F/W v4.00 Oryx Data Collector v3.7.2.0data status	okinstallation	princeton_trtdifferential loss correction	single-endedforward channel	channel 2reverse channel	N/Adate	2019/09/12time	15:33:10forward acquisition time	60.00reverse acquisition time	0.00gamma	496.2192k internal	0.2301k external	0.2301temperature offset calibration	1.0096default loss term (dB/km)	0.3790temperature slope calibration	1.0000multiplexer offset coefficient	1.0000multiplexer slope coefficient	1.0000fibre end	0.00T internal ref (°C)	40.50T ext. ref 1 (°C)	2.43T ext. ref 2 (°C)	33.60length (m)	temperature (°C)	Stokes	anti-Stokes-747.200	1.177	-0.069	0.051
-746.185	103.952	-0.278	0.334
-745.171	-106.212	0.076	0.017
-744.156	800.000	-0.062	0.219
-743.142	-200.000	0.042	0.282
-742.127	8.619	-0.038	-0.029
-741.112	244.784	-0.114	-0.196
-740.098	735.969	0.148	0.404
-739.083	-116.584	0.330	-0.062
-738.069	78.418	-0.210	0.228
-737.054	-21.566	0.267	0.166
-736.039	221.562	-0.036	-0.058
-735.025	2.075	0.188	0.139
-734.010	41.537	-0.195	-0.180
-732.996	-200.000	-0.040	-0.187
-731.981	43.582	-0.177	0.165
-730.966	-39.807	-0.067	0.036
-729.952	-200.000	0.049	-0.250
-728.937	541.094	0.095	0.231
-727.923	12.466	-0.141	0.111
-726.908	-200.000	-0.023	-0.300
-725.894	43.173	-0.221	0.205
-724.879	-200.000	-0.004	-0.118
-723.864	-118.242	-0.360	-0.065
-722.850	650.878	0.119	-0.311
-721.835	800.000	0.029	-0.087
-720.821	49.578	0.166	-0.160
-719.806	-131.144	-0.256	-0.035
-718.791	622.407	0.102	0.262
-717.777	-200.000	-0.006	0.090
-716.762	365.627	0.162	-0.332
-715.748	-200.000	-0.019	-0.092
-714.733	311.502	-0.073	-0.140
-713.718	8.507	-0.060	0.046
-712.704	184.197	0.086	0.130
-711.689	44.200	-0.082	-0.077
-710.675	-61.589	-0.199	-0.085
-709.660	-200.000	0.055	0.316
-708.645	-45.307	-0.140	0.071
-707.631	-139.304	-0.190	-0.021
-706.616	298.921	0.062	0.116
-705.602	193.656	0.044	0.068
-704.587	-88.749	-0.139	-0.042
-703.572	-200.000	-0.021	0.330
-702.558	-5.869	-0.185	0.129
-701.543	189.462	0.113	0.172
-700.529	800.000	0.080	0.235
-699.514	-21.851	0.355	0.220
-698.499	-105.950	-0.166	-0.038
-697.485	-200.000	-0.020	-0.201
-696.470	85.805	-0.165	0.185
-695.456	285.783	0.167	0.306
-694.441	205.607	-0.174	-0.275
-693.426	426.216	0.069	-0.151
-692.412	118.801	0.100	0.125
-691.397	-61.474	-0.138	-0.059
-690.383	20.472	0.279	-0.230
-689.368	-32.664	-0.347	-0.196
-688.354	-52.101	0.221	-0.104
-687.339	-84.214	-0.054	0.017
-686.324	-200.000	-0.001	-0.240
-685.310	-54.493	-0.347	0.160
-684.295	-71.852	-0.257	0.097
-683.281	39.568	0.369	-0.336
-682.266	39.294	0.185	0.168
-681.251	-152.480	0.175	-0.013
-680.237	-40.879	-0.190	0.100
-679.222	-88.650	0.215	-0.065
-678.208	-10.596	0.238	0.160
-677.193	-142.575	0.170	-0.017
-676.178	29.865	-0.074	0.064
-675.164	-175.602	-0.197	0.005
-674.149	-18.771	0.303	0.192
-673.135	178.677	-0.135	0.200
-672.120	-200.000	-0.209	0.001
-671.105	-200.000	-0.013	-0.174
-670.091	-72.093	-0.008	0.003
-669.076	-92.864	0.198	0.056
-668.062	-200.000	0.020	-0.179
-667.047	-78.686	0.173	0.060
-666.032	-200.000	-0.007	-0.083
-665.018	800.000	-0.078	-0.298
-664.003	7.559	-0.031	0.023
-662.989	90.749	-0.067	0.076
-661.974	267.047	-0.308	0.547
-660.959	20.898	-0.035	0.029
-659.945	-59.428	0.118	0.052
-658.930	722.165	0.045	-0.122
-657.916	-177.267	-0.063	0.002
-656.901	-123.932	0.299	0.048
-655.886	-138.930	0.156	-0.017
-654.872	-200.000	0.007	-0.446
-653.857	-66.350	-0.066	0.027
-652.843	-154.733	-0.136	0.009
-651.828	19.907	0.214	-0.175
-650.814	-200.000	0.014	0.415
-649.799	32.296	-0.125	-0.109
-648.784	-200.000	0.092	-0.450
-647.770	384.306	0.127	0.267
-646.755	90.252	0.230	0.262
-645.741	102.061	-0.222	0.263
-644.726	158.907	0.103	0.145
-643.711	150.524	0.104	-0.143
-642.697	-200.000	-0.017	-0.233
-641.682	125.458	0.050	0.064
-640.668	-190.545	-0.185	0.002
-639.653	216.609	-0.155	-0.250
-638.638	-71.857	0.396	0.150
-637.624	114.846	-0.033	0.041
-636.609	-200.000	0.011	-0.119
-635.595	40.410	0.104	0.095
-634.580	1.433	-0.117	-0.086
-633.565	800.000	-0.063	-0.244
-632.551	183.048	0.177	-0.265
-631.536	627.572	0.028	-0.073
-630.522	800.000	0.044	-0.177
-629.507	-118.015	0.166	0.030
-628.492	-16.092	-0.251	-0.162
-627.478	282.729	0.105	-0.192
-626.463	800.000	-0.128	0.448
-625.449	800.000	-0.028	-0.117
-624.434	-200.000	0.004	-0.074
-623.419	-76.170	-0.058	-0.021
-622.405	363.316	0.113	-0.230
-621.390	-200.000	-0.025	-0.120
-620.376	13.492	-0.185	0.146
-619.361	-200.000	-0.063	0.321
-618.346	92.962	0.103	0.118
-617.332	42.135	-0.046	-0.043
-616.317	-10.399	0.095	0.064
-615.303	588.010	0.092	0.229
-614.288	107.702	-0.154	-0.186
-613.273	202.510	0.180	0.281
-612.259	42.835	0.205	0.190
-611.244	262.446	-0.126	0.221
-610.230	94.297	0.311	-0.358
-609.215	250.648	-0.147	0.254
-608.201	218.793	0.162	0.263
-607.186	642.633	0.078	-0.202
-606.171	-200.000	-0.021	0.096
-605.157	220.064	-0.240	-0.390
-604.142	-200.000	-0.012	-0.235
-603.128	-107.132	0.108	0.024
-602.113	244.671	-0.106	-0.180
-601.098	53.872	-0.060	0.058
-600.084	455.889	-0.070	-0.156
-599.069	6.761	0.027	0.021
-598.055	-46.410	0.252	0.126
-597.040	66.215	-0.153	-0.158
-596.025	252.293	0.082	-0.142
-595.011	27.753	0.133	-0.113
-593.996	46.421	-0.065	0.061
-592.982	-200.000	-0.009	-0.280
-591.967	-200.000	-0.002	0.312
-590.952	-200.000	0.018	-0.130
-589.938	-85.301	0.109	-0.034
-588.923	64.751	-0.199	-0.204
-587.909	218.481	0.137	-0.222
-586.894	137.731	-0.218	-0.289
-585.879	466.832	-0.080	0.182
-584.865	387.096	0.040	-0.084
-583.850	-118.834	0.276	0.049
-582.836	514.293	-0.013	-0.031
-581.821	-28.423	0.359	-0.210
-580.806	-181.950	-0.105	0.002
-579.792	-171.359	0.108	0.004
-578.777	22.794	0.109	0.090
-577.763	-175.215	0.274	0.008
-576.748	85.522	0.214	0.238
-575.733	-112.447	-0.148	-0.030
-574.719	340.954	0.217	-0.430
-573.704	-66.301	-0.361	-0.146
-572.690	-116.130	-0.248	-0.047
-571.675	-82.271	0.211	0.069
-570.661	-126.748	-0.172	0.026
-569.646	-200.000	0.017	0.159
-568.631	19.524	-0.077	0.063
-567.617	-200.000	-0.077	-0.405
-566.602	-200.000	-0.079	-0.376
-565.588	199.937	-0.086	0.134
-564.573	800.000	0.045	-0.196
-563.558	349.595	-0.083	-0.167
-562.544	800.000	-0.112	-0.424
-561.529	-200.000	-0.003	-0.194
-560.515	-200.000	0.025	-0.142
-559.500	800.000	-0.024	0.085
-558.485	15.125	0.319	0.253
-557.471	180.625	0.056	0.083
-556.456	2.647	-0.163	0.119
-555.442	-112.973	0.062	-0.013
-554.427	-103.507	-0.113	0.027
-553.412	12.287	-0.234	-0.183
-552.398	-118.508	-0.101	-0.018
-551.383	-5.853	0.186	0.129
-550.369	800.000	-0.118	-0.353
-549.354	-62.846	0.156	-0.065
-548.339	356.487	-0.187	-0.378
-547.325	581.805	0.048	0.120
-546.310	616.812	-0.098	0.250
-545.296	42.936	0.164	-0.152
-544.281	582.840	-0.109	-0.271
-543.266	800.000	-0.044	0.124
-542.252	-200.000	-0.058	-0.297
-541.237	-77.623	-0.044	0.016
-540.223	387.665	0.062	0.130
-539.208	212.442	0.056	0.090
-538.193	-200.000	-0.011	-0.286
-537.179	-14.672	-0.122	-0.079
-536.164	-92.324	-0.209	-0.060
-535.150	800.000	0.003	-0.009
-534.135	-45.168	-0.091	0.046
-533.121	-105.080	-0.217	0.050
-532.106	325.710	-0.076	0.147
-531.091	-80.679	-0.054	-0.018
-530.077	247.709	-0.137	0.234
-529.062	449.703	0.103	-0.230
-528.048	-8.190	0.347	-0.236
-527.033	-67.804	-0.179	0.071
-526.018	-53.162	0.289	-0.134
-525.004	60.274	0.074	-0.074
-523.989	-144.279	0.119	-0.011
-522.975	-59.681	-0.095	-0.041
-521.960	-150.536	-0.099	0.008
-520.945	226.481	0.175	-0.287
-519.931	20.658	0.069	0.056
-518.916	-200.000	-0.004	-0.308
-517.902	-142.379	0.164	-0.016
-516.887	-80.898	-0.141	-0.047
-515.872	-18.235	-0.093	0.059
-514.858	-200.000	0.007	0.074
-513.843	-7.708	0.122	-0.084
-512.829	-87.253	0.129	0.040
-511.814	48.359	0.070	0.066
-510.799	-27.219	-0.280	0.165
-509.785	153.526	0.095	0.131
-508.770	-80.765	0.100	-0.033
-507.756	800.000	-0.027	0.107
-506.741	133.751	0.102	0.133
-505.726	-200.000	-0.087	0.432
-504.712	-200.000	-0.069	-0.334
-503.697	800.000	0.091	-0.275
-502.683	-57.588	-0.260	-0.115
-501.668	-154.760	-0.015	0.001
-500.653	-33.286	-0.066	-0.037
-499.639	-124.922	-0.379	0.059
-498.624	-89.417	-0.093	0.028
-497.610	-200.000	0.014	-0.313
-496.595	61.757	-0.148	-0.149
-495.581	295.314	0.140	-0.258
-494.566	-200.000	0.042	0.241
-493.551	-200.000	0.011	0.130
-492.537	174.607	0.227	0.332
-491.522	-45.073	0.219	-0.110
-490.508	-94.088	-0.259	-0.072
-489.493	30.567	0.177	-0.153
-488.478	-200.000	-0.021	0.129
-487.464	392.892	-0.110	-0.232
-486.449	-71.524	0.275	-0.104
-485.435	-176.751	0.125	0.003
-484.420	298.725	-0.055	0.102
-483.405	51.803	0.073	0.070
-482.391	-100.180	0.330	0.083
-481.376	72.169	0.158	-0.166
-480.362	-76.106	-0.326	-0.116
-479.347	-29.651	0.170	0.098
-478.332	13.299	0.027	-0.021
-477.318	-200.000	-0.005	0.253
-476.303	-14.640	-0.388	-0.252
-475.289	-200.000	-0.405	0.002
-474.274	326.315	0.118	0.228
-473.259	800.000	0.071	0.286
-472.245	28.038	-0.220	-0.188
-471.230	77.677	0.007	-0.007
-470.216	-111.825	0.204	-0.042
-469.201	-112.279	-0.025	-0.005
-468.186	-200.000	0.010	-0.281
-467.172	711.708	-0.055	-0.147
-466.157	-200.000	-0.038	-0.184
-465.143	-71.234	0.090	0.034
-464.128	16.574	-0.157	-0.125
-463.113	413.843	0.022	-0.046
-462.099	192.627	-0.023	0.035
-461.084	-8.275	-0.196	0.133
-460.070	-96.881	0.084	-0.022
-459.055	-200.000	-0.031	0.494
-458.040	800.000	0.034	0.110
-457.026	800.000	-0.028	0.094
-456.011	-98.043	-0.125	0.033
-454.997	12.661	0.342	0.266
-453.982	313.574	0.109	-0.206
-452.968	151.316	-0.131	-0.179
-451.953	100.087	0.124	0.145
-450.938	-200.000	-0.020	-0.093
-449.924	-59.612	-0.492	-0.213
-448.909	-200.000	0.016	0.172
-447.895	118.023	-0.118	0.146
-446.880	-108.457	0.193	-0.042
-445.865	-145.410	0.525	0.048
-444.851	-200.000	0.022	0.102
-443.836	757.952	0.059	0.162
-442.822	82.628	-0.250	0.274
-441.807	114.398	-0.073	0.090
-440.792	-72.489	0.177	-0.066
-439.778	-41.101	0.228	-0.119
-438.763	120.354	0.121	0.151
-437.749	-93.425	0.129	0.036
-436.734	216.323	0.146	0.234
-435.719	-104.713	-0.278	-0.065
-434.705	5.278	0.116	-0.086
-433.690	163.159	-0.058	0.082
-432.676	-196.052	0.097	0.001
-431.661	80.216	0.494	0.536
-430.646	800.000	0.017	-0.065
-429.632	-117.844	0.122	0.022
-428.617	-46.022	0.006	-0.003
-427.603	56.836	0.124	-0.122
-426.588	730.377	0.084	-0.226
-425.573	251.049	-0.035	-0.060
-424.559	-200.000	-0.005	0.140
-423.544	-26.095	-0.157	0.093
-422.530	91.195	-0.121	-0.137
-421.515	-57.351	-0.097	0.043
-420.500	-185.233	0.139	0.002
-419.486	-125.076	0.226	-0.035
-418.471	41.541	0.209	0.190
-417.457	467.318	-0.128	0.289
-416.442	800.000	-0.072	-0.235
-415.428	-113.849	-0.234	0.046
-414.413	-139.786	0.182	-0.019
-413.398	186.331	-0.065	0.097
-412.384	4.223	-0.159	-0.118
-411.369	-34.199	0.363	-0.201
-410.355	-95.993	0.154	0.041
-409.340	-200.000	0.022	-0.099
-408.325	6.796	-0.301	-0.225
-407.311	-171.068	0.184	-0.006
-406.296	119.009	0.197	0.245
-405.282	-200.000	0.063	0.410
-404.267	-200.000	-0.038	0.266
-403.252	148.723	-0.393	-0.535
-402.238	-85.956	0.196	-0.061
-401.223	800.000	-0.047	-0.138
-400.209	-200.000	-0.032	-0.201
-399.194	-80.172	-0.307	0.103
-398.179	-78.756	0.314	-0.108
-397.165	-200.000	-0.002	-0.207
-396.150	-200.000	0.018	0.086
-395.136	7.764	-0.362	-0.272
-394.121	229.400	-0.147	-0.242
-393.106	-193.172	-0.056	-0.000
-392.092	86.080	-0.187	-0.207
-391.077	394.071	-0.126	0.263
-390.063	-9.039	-0.083	0.056
-389.048	-169.549	-0.143	-0.005
-388.033	800.000	0.109	0.330
-387.019	800.000	0.125	0.410
-386.004	-103.804	-0.274	-0.065
-384.990	-131.943	0.245	-0.032
-383.975	-200.000	0.015	-0.439
-382.960	56.623	0.073	0.071
-381.946	-78.679	0.123	-0.042
-380.931	241.088	0.164	-0.276
-379.917	-85.881	-0.128	0.040
-378.902	111.775	0.232	0.281
-377.888	273.596	0.104	0.185
-376.873	-129.572	0.315	-0.044
-375.858	-37.526	0.359	-0.192
-374.844	1.367	0.163	-0.118
-373.829	-152.147	-0.251	-0.018
-372.815	193.150	0.132	0.201
-371.800	-200.000	0.020	0.144
-370.785	-23.303	-0.289	-0.175
-369.771	-200.000	0.000	0.193
-368.756	799.008	-0.022	0.060
-367.742	-200.000	0.003	0.097
-366.727	-144.518	0.278	-0.026
-365.712	176.471	-0.051	0.075
-364.698	103.413	0.221	0.261
-363.683	348.234	-0.082	-0.162
-362.669	-63.754	-0.252	-0.104
-361.654	-200.000	0.003	0.019
-360.639	-200.000	0.016	-0.103
-359.625	-40.142	-0.184	-0.096
-358.610	-139.253	0.336	-0.036
-357.596	195.773	0.064	-0.098
-356.581	1.217	0.254	0.183
-355.566	266.747	0.051	-0.090
-354.552	-200.000	0.003	-0.023
-353.537	205.415	0.238	0.372
-352.523	553.544	0.097	-0.233
-351.508	800.000	-0.041	0.127
-350.493	36.998	0.071	0.063
-349.479	297.644	-0.120	0.222
-348.464	68.977	0.143	0.147
-347.450	253.493	-0.099	0.170
-346.435	-200.000	-0.016	0.298
-345.420	-24.783	0.077	0.046
-344.406	-2.689	-0.203	-0.143
-343.391	103.024	0.075	0.089
-342.377	189.490	-0.039	-0.059
-341.362	75.999	-0.207	-0.220
-340.348	-23.248	0.066	0.040
-339.333	-200.000	-0.043	0.421
-338.318	-33.735	0.122	0.068
-337.304	-78.459	0.212	0.073
-336.289	-200.000	-0.007	0.050
-335.275	247.468	0.174	0.296
-334.260	85.952	-0.202	0.223
-333.245	-119.009	-0.217	-0.038
-332.231	-200.000	0.058	-0.271
-331.216	800.000	-0.140	-0.395
-330.202	-38.716	-0.297	-0.157
-329.187	-200.000	-0.029	0.316
-328.172	-12.160	-0.249	0.163
-327.158	20.774	-0.149	-0.121
-326.143	129.639	-0.043	0.055
-325.129	-21.316	-0.175	-0.107
-324.114	-23.772	-0.330	0.199
-323.099	-44.888	0.144	-0.072
-322.085	-200.000	-0.018	-0.156
-321.070	-64.412	-0.148	0.060
-320.056	27.240	-0.157	0.132
-319.041	-0.617	-0.086	0.061
-318.026	-152.114	-0.219	-0.016
-317.012	-179.091	0.181	-0.004
-315.997	-80.258	0.181	0.061
-314.983	756.306	-0.045	0.121
-313.968	431.892	-0.014	-0.030
-312.953	-200.000	0.005	-0.422
-311.939	506.812	0.097	-0.227
-310.924	207.048	0.211	-0.330
-309.910	397.630	0.006	-0.012
-308.895	-33.035	-0.331	-0.184
-307.880	-200.000	0.015	0.250
-306.866	-85.403	0.079	0.025
-305.851	-200.000	-0.002	0.069
-304.837	602.074	0.063	-0.156
-303.822	-59.797	0.276	0.118
-302.807	-3.445	-0.298	-0.208
-301.793	-193.091	-0.271	-0.002
-300.778	315.021	0.170	-0.322
-299.764	-91.499	0.125	0.036
-298.749	540.645	-0.089	-0.212
-297.735	-99.794	0.049	-0.012
-296.720	206.189	-0.163	0.254
-295.705	22.515	-0.156	0.128
-294.691	-72.917	0.202	-0.075
-293.676	-51.562	-0.393	0.184
-292.662	223.771	0.191	-0.309
-291.647	37.473	0.323	-0.287
-290.632	-106.991	-0.364	0.081
-289.618	4.405	-0.245	-0.180
-288.603	-86.733	-0.055	-0.017
-287.589	250.418	0.186	0.316
-286.574	610.368	0.110	0.276
-285.559	185.623	-0.181	-0.269
-284.545	176.123	0.135	-0.196
-283.530	211.065	-0.110	-0.173
-282.516	-200.000	0.063	0.300
-281.501	-200.000	-0.061	0.345
-280.486	396.733	-0.051	-0.106
-279.472	-131.674	0.127	-0.017
-278.457	-21.402	0.063	-0.039
-277.443	800.000	-0.099	-0.309
-276.428	12.857	0.032	0.025
-275.413	48.058	-0.135	-0.126
-274.399	38.360	-0.113	0.101
-273.384	205.585	-0.049	0.077
-272.370	496.459	-0.069	0.159
-271.355	33.633	0.375	-0.326
-270.340	-2.604	-0.154	-0.108
-269.326	-200.000	-0.047	-0.597
-268.311	54.148	-0.058	-0.056
-267.297	29.132	-0.152	-0.129
-266.282	168.146	-0.274	-0.390
-265.267	-200.000	0.022	0.196
-264.253	355.981	-0.107	0.213
-263.238	543.628	-0.163	-0.388
-262.224	-155.537	0.217	-0.014
-261.209	-200.000	0.041	0.370
-260.195	-51.811	-0.212	0.099
-259.180	130.017	-0.079	0.102
-258.165	653.625	0.105	-0.268
-257.151	-200.000	-0.001	0.135
-256.136	-102.576	0.170	0.041
-255.122	35.778	-0.038	0.034
-254.107	0.170	-0.007	-0.005
-253.092	-154.624	-0.099	-0.007
-252.078	-200.000	0.006	-0.077
-251.063	140.554	-0.149	-0.196
-250.049	239.525	0.053	-0.088
-249.034	797.676	0.096	-0.263
-248.019	186.524	-0.088	-0.131
-247.005	-200.000	0.024	0.196
-245.990	120.719	-0.233	0.289
-244.976	62.552	-0.216	0.215
-243.961	-32.936	0.231	0.128
-242.946	800.000	0.041	0.130
-241.932	36.949	-0.183	0.161
-240.917	-9.673	0.190	0.126
-239.903	82.852	0.183	-0.199
-238.888	228.825	-0.031	-0.050
-237.873	180.360	-0.044	0.064
-236.859	-15.186	0.211	-0.135
-235.844	800.000	-0.028	0.083
-234.830	800.000	-0.174	0.486
-233.815	-200.000	0.024	-0.225
-232.800	-200.000	0.002	-0.122
-231.786	-200.000	-0.027	0.208
-230.771	-50.158	-0.204	-0.097
-229.757	-25.420	0.039	0.023
-228.742	311.959	-0.149	0.280
-227.727	216.218	0.326	0.517
-226.713	800.000	-0.047	0.147
-225.698	800.000	-0.049	-0.138
-224.684	-46.334	0.208	0.102
-223.669	-188.026	0.180	0.002
-222.655	-18.715	-0.433	0.270
-221.640	800.000	-0.084	0.320
-220.625	800.000	-0.084	-0.240
-219.611	707.185	0.081	-0.214
-218.596	77.519	0.010	-0.010
-217.582	245.324	-0.122	0.206
-216.567	-49.603	0.069	0.033
-215.552	-200.000	-0.013	-0.079
-214.538	-59.525	-0.167	-0.072
-213.523	17.570	0.010	0.008
-212.509	-33.661	-0.135	-0.074
-211.494	496.485	-0.118	0.271
-210.479	800.000	-0.080	0.321
-209.465	800.000	0.055	0.235
-208.450	-70.726	0.199	-0.075
-207.436	800.000	0.059	0.247
-206.421	800.000	-0.044	0.180
-205.406	-200.000	0.009	-0.185
-204.392	-133.555	0.125	-0.016
-203.377	-7.635	0.054	-0.037
-202.363	-17.529	0.081	-0.051
-201.348	-200.000	0.012	-0.054
-200.333	-200.000	-0.009	0.260
-199.319	-80.215	0.572	0.191
-198.304	-119.089	0.180	-0.031
-197.290	36.144	-0.130	0.115
-196.275	-200.000	-0.038	0.484
-195.260	800.000	0.074	0.311
-194.246	-50.640	-0.324	0.152
-193.231	-118.767	0.396	-0.070
-192.217	-200.000	0.017	-0.401
-191.202	2.350	0.190	0.137
-190.187	-200.000	0.012	-0.171
-189.173	83.808	-0.044	0.048
-188.158	-143.773	0.195	-0.018
-187.144	516.849	0.080	-0.188
-186.129	-9.397	0.049	-0.033
-185.114	126.085	-0.176	0.222
-184.100	45.476	-0.130	-0.120
-183.085	26.691	0.058	0.048
-182.071	-135.671	-0.273	0.032
-181.056	-30.135	0.269	-0.153
-180.042	119.257	0.041	0.051
-179.027	800.000	-0.032	0.094
-178.012	-200.000	0.039	0.279
-176.998	-35.321	-0.196	0.106
-175.983	435.336	-0.086	0.187
-174.969	-26.644	-0.020	-0.012
-173.954	800.000	0.095	0.292
-172.939	-71.210	0.055	0.021
-171.925	800.000	0.014	0.047
-170.910	325.603	0.193	0.368
-169.896	-51.154	0.144	-0.067
-168.881	-200.000	0.020	-0.113
-167.866	800.000	0.114	-0.355
-166.852	135.964	-0.050	-0.065
-165.837	-200.000	0.011	0.280
-164.823	271.093	-0.165	0.289
-163.808	-130.629	0.216	-0.029
-162.793	-127.657	-0.119	-0.017
-161.779	230.975	-0.115	0.188
-160.764	-200.000	0.041	0.265
-159.750	19.129	-0.219	-0.175
-158.735	-77.775	-0.276	-0.095
-157.720	-146.565	-0.128	0.011
-156.706	-147.894	-0.185	0.015
-155.691	-200.000	-0.009	0.236
-154.677	-200.000	-0.014	0.063
-153.662	75.672	0.059	-0.062
-152.647	-80.464	-0.213	0.071
-151.633	245.462	0.090	-0.151
-150.618	88.765	0.112	0.124
-149.604	-105.210	-0.324	-0.074
-148.589	-132.950	0.408	0.052
-147.574	-53.548	0.248	-0.113
-146.560	800.000	0.055	0.221
-145.545	399.981	0.259	0.540
-144.531	225.588	0.050	0.080
-143.516	-114.433	-0.572	0.110
-142.502	-90.939	0.197	-0.057
-141.487	-200.000	-0.075	-0.512
-140.472	248.224	0.071	0.119
-139.458	-158.589	-0.252	-0.014
-138.443	375.935	0.229	0.465
-137.429	-30.600	-0.079	-0.044
-136.414	-162.390	-0.166	-0.008
-135.399	-97.966	-0.146	0.038
-134.385	800.000	0.039	-0.148
-133.370	-70.250	-0.335	0.127
-132.356	340.833	0.142	0.276
-131.341	800.000	-0.150	0.504
-130.326	-166.983	0.203	0.008
-129.312	6.669	-0.263	0.195
-128.297	84.842	0.284	0.310
-127.283	-7.953	0.314	0.211
-126.268	-200.000	-0.026	0.151
-125.253	-132.489	0.063	-0.008
-124.239	-200.000	0.021	0.358
-123.224	-200.000	-0.051	-0.290
-122.210	-129.319	-0.414	0.057
-121.195	17.675	0.081	0.064
-120.180	-57.153	-0.092	0.040
