DTS Sentinel unit serial number:	SN413079Multiplexer serial number:	ORYXHardware model number:	OX4-SRSoftware version number:	ORYX F/W v4.00 Oryx Data Collector v3.7.2.0data status	okinstallation	princeton_trtdifferential loss correction	single-endedforward channel	channel 2reverse channel	N/Adate	2019/09/17time	06:47:35forward acquisition time	60.00reverse acquisition time	0.00gamma	496.2192k internal	0.2333k external	0.2333temperature offset calibration	0.9981default loss term (dB/km)	0.3790temperature slope calibration	1.0000multiplexer offset coefficient	1.0000multiplexer slope coefficient	1.0000fibre end	0.00T internal ref (°C)	27.78T ext. ref 1 (°C)	0.13T ext. ref 2 (°C)	21.13length (m)	temperature (°C)	Stokes	anti-Stokes-747.200	-200.000	-0.016	-0.143
-746.185	-173.808	-0.189	-0.006
-745.171	-46.689	0.048	0.024
-744.156	-200.000	-0.030	0.204
-743.142	114.415	-0.184	-0.225
-742.127	72.034	0.203	0.213
-741.112	-200.000	-0.012	-0.226
-740.098	422.990	0.125	0.269
-739.083	132.242	-0.256	0.332
-738.069	134.976	0.136	-0.178
-737.054	-123.730	-0.289	-0.046
-736.039	423.541	-0.106	-0.229
-735.025	-137.280	-0.494	-0.056
-734.010	-59.528	-0.391	-0.169
-732.996	195.018	-0.237	-0.362
-731.981	10.941	-0.034	-0.026
-730.966	-155.877	0.076	-0.005
-729.952	532.596	-0.044	0.104
-728.937	-200.000	0.019	-0.319
-727.923	98.840	0.140	-0.163
-726.908	-78.255	-0.177	-0.061
-725.894	-200.000	-0.033	-0.174
-724.879	-152.820	-0.248	0.018
-723.864	-28.312	-0.189	-0.109
-722.850	-38.366	-0.363	-0.193
-721.835	-96.670	0.180	0.048
-720.821	218.028	0.041	0.065
-719.806	417.586	-0.070	0.151
-718.791	-25.746	-0.198	0.117
-717.777	102.195	-0.237	-0.278
-716.762	-118.256	-0.158	0.028
-715.748	800.000	-0.079	0.225
-714.733	-129.342	-0.221	0.031
-713.718	-28.420	0.086	-0.050
-712.704	167.235	-0.145	0.207
-711.689	84.412	-0.086	0.094
-710.675	-49.274	0.013	-0.006
-709.660	455.202	0.150	-0.334
-708.645	-200.000	0.009	0.055
-707.631	59.869	-0.267	-0.265
-706.616	449.680	-0.095	-0.211
-705.602	25.679	0.113	0.095
-704.587	-200.000	-0.002	-0.049
-703.572	800.000	-0.024	-0.071
-702.558	60.455	0.126	0.126
-701.543	800.000	-0.095	-0.288
-700.529	-18.976	-0.318	0.198
-699.514	515.544	0.066	-0.154
-698.499	-200.000	0.018	-0.344
-697.485	67.523	0.064	0.066
-696.470	-35.445	0.187	-0.102
-695.456	-200.000	-0.037	-0.188
-694.441	-145.681	0.129	0.012
-693.426	800.000	-0.050	-0.214
-692.412	166.545	-0.167	0.238
-691.397	800.000	-0.066	0.188
-690.383	512.235	0.077	0.180
-689.368	-29.581	-0.143	0.082
-688.354	525.250	0.130	0.307
-687.339	-110.507	0.518	-0.108
-686.324	155.087	0.170	-0.234
-685.310	294.818	0.032	-0.059
-684.295	-152.679	-0.352	-0.025
-683.281	800.000	0.052	-0.218
-682.266	46.954	-0.211	0.197
-681.251	34.246	-0.025	-0.022
-680.237	737.336	0.115	-0.309
-679.222	-87.144	-0.096	-0.029
-678.208	-108.496	0.545	-0.118
-677.193	-5.777	-0.141	-0.097
-676.178	137.941	0.116	0.152
-675.164	379.335	-0.058	0.120
-674.149	-41.619	0.026	-0.013
-673.135	-70.432	0.490	-0.186
-672.120	-78.436	-0.367	0.126
-671.105	-62.205	-0.184	0.077
-670.091	-92.876	0.287	-0.080
-669.076	-200.000	0.043	0.229
-668.062	-8.104	-0.184	-0.125
-667.047	-50.632	-0.196	-0.093
-666.032	-139.294	0.270	0.029
-665.018	2.474	-0.114	-0.082
-664.003	24.022	0.162	-0.134
-662.989	61.580	-0.052	-0.052
-661.974	-200.000	-0.008	-0.195
-660.959	800.000	-0.042	0.129
-659.945	-62.496	-0.199	-0.083
-658.930	33.673	0.070	-0.061
-657.916	-88.550	-0.215	-0.064
-656.901	110.475	0.190	-0.229
-655.886	-0.244	-0.281	-0.201
-654.872	-24.521	-0.349	0.208
-653.857	-20.855	-0.238	-0.146
-652.843	800.000	-0.061	0.176
-651.828	358.396	-0.063	0.125
-650.814	-50.893	-0.063	0.030
-649.799	-124.977	0.258	0.040
-648.784	-8.920	0.143	-0.096
-647.770	-200.000	-0.031	-0.304
-646.755	800.000	0.086	-0.242
-645.741	-200.000	-0.049	-0.302
-644.726	-92.105	0.119	0.034
-643.711	-28.473	0.230	-0.133
-642.697	-85.624	0.291	-0.090
-641.682	145.461	-0.164	-0.220
-640.668	-200.000	-0.040	0.230
-639.653	-149.998	0.060	-0.005
-638.638	-89.858	-0.056	0.016
-637.624	-171.228	-0.045	0.002
-636.609	-151.984	-0.302	0.022
-635.595	-200.000	-0.022	0.174
-634.580	800.000	-0.239	-0.802
-633.565	361.089	0.097	-0.195
-632.551	-161.302	-0.131	-0.007
-631.536	-200.000	-0.008	0.139
-630.522	-57.724	0.136	-0.060
-629.507	93.364	0.084	0.095
-628.492	-132.750	-0.083	0.011
-627.478	-200.000	-0.021	0.119
-626.463	-168.897	0.217	-0.008
-625.449	110.827	-0.183	-0.221
-624.434	-42.751	-0.173	-0.088
-623.419	-44.538	-0.369	0.185
-622.405	-72.194	-0.276	-0.103
-621.390	352.956	-0.110	-0.219
-620.376	-133.103	0.116	-0.015
-619.361	-69.580	-0.350	0.134
-618.346	-126.544	0.072	-0.011
-617.332	563.406	-0.141	-0.342
-616.317	-148.028	-0.068	0.006
-615.303	800.000	-0.040	0.127
-614.288	-67.181	0.140	-0.055
-613.273	-71.842	0.032	0.012
-612.259	121.020	-0.162	0.202
-611.244	-175.163	0.205	0.006
-610.230	-109.620	0.155	0.033
-609.215	-200.000	-0.040	-0.203
-608.201	89.047	0.140	-0.156
-607.186	800.000	0.053	0.206
-606.171	800.000	-0.025	-0.077
-605.157	78.202	-0.064	0.069
-604.142	-200.000	-0.056	-0.258
-603.128	-5.780	-0.362	-0.248
-602.113	-64.663	0.082	-0.033
-601.098	800.000	0.110	0.304
-600.084	201.307	-0.085	0.131
-599.069	-200.000	-0.025	0.195
-598.055	-29.088	-0.067	0.038
-597.040	-49.180	0.184	-0.088
-596.025	-109.719	-0.230	0.048
-595.011	-104.239	-0.243	0.056
-593.996	388.210	0.111	-0.230
-592.982	-116.483	-0.019	0.003
-591.967	347.608	0.065	0.129
-590.952	800.000	0.128	0.389
-589.938	-15.730	-0.311	0.198
-588.923	298.450	-0.049	0.090
-587.909	173.338	-0.148	0.213
-586.894	114.370	0.148	-0.180
-585.879	-147.285	0.206	-0.017
-584.865	219.044	0.069	0.111
-583.850	81.772	0.197	0.213
-582.836	-200.000	-0.050	-0.231
-581.821	-172.211	-0.241	0.008
-580.806	-132.337	0.187	0.024
-579.792	-101.843	0.198	0.048
-578.777	230.299	-0.078	0.127
-577.763	-126.485	0.232	-0.034
-576.748	-75.735	-0.134	-0.048
-575.733	3.881	0.105	0.077
-574.719	254.284	0.148	-0.254
-573.704	-49.471	0.060	-0.029
-572.690	-92.286	-0.287	0.081
-571.675	418.554	0.099	0.211
-570.661	198.567	-0.101	0.154
-569.646	160.738	-0.146	-0.204
-568.631	-200.000	0.019	-0.106
-567.617	125.522	-0.119	0.150
-566.602	-200.000	0.030	0.299
-565.588	366.087	0.039	-0.078
-564.573	205.454	0.159	0.246
-563.558	800.000	0.017	-0.063
-562.544	-200.000	-0.023	0.196
-561.529	68.738	-0.066	-0.068
-560.515	-156.721	-0.437	-0.027
-559.500	-6.306	0.206	-0.141
-558.485	-91.744	0.198	-0.056
-557.471	800.000	-0.109	0.308
-556.456	-200.000	-0.004	0.174
-555.442	-131.994	0.122	-0.016
-554.427	116.604	-0.111	0.136
-553.412	-3.524	-0.238	0.165
-552.398	-200.000	-0.027	0.135
-551.383	35.891	0.242	-0.213
-550.369	713.682	0.046	0.122
-549.354	-138.571	0.089	-0.010
-548.339	190.570	0.139	-0.209
-547.325	-200.000	-0.023	0.225
-546.310	800.000	0.076	0.254
-545.296	-147.006	-0.527	-0.045
-544.281	800.000	0.049	0.193
-543.266	-200.000	0.014	0.207
-542.252	800.000	-0.096	-0.387
-541.237	800.000	-0.091	-0.370
-540.223	-200.000	0.022	0.296
-539.208	-200.000	-0.036	-0.160
-538.193	-200.000	0.024	-0.339
-537.179	437.427	-0.217	-0.472
-536.164	58.651	0.105	-0.103
-535.150	54.545	0.009	-0.008
-534.135	206.794	0.110	0.171
-533.121	800.000	-0.036	0.145
-532.106	1.691	0.163	-0.117
-531.091	12.408	-0.135	0.104
-530.077	555.707	0.137	-0.330
-529.062	-58.171	-0.085	0.037
-528.048	651.466	-0.049	0.125
-527.033	-67.698	0.164	0.064
-526.018	-85.645	0.220	0.068
-525.004	-50.264	0.168	-0.079
-523.989	-189.064	-0.270	-0.003
-522.975	-68.490	-0.241	-0.093
-521.960	24.552	0.086	0.071
-520.945	-200.000	0.102	-0.510
-519.931	800.000	-0.073	0.297
-518.916	-59.076	0.209	0.090
-517.902	-11.503	-0.292	-0.191
-516.887	5.090	-0.174	-0.128
-515.872	107.293	-0.249	-0.295
-514.858	-200.000	0.066	0.310
-513.843	-200.000	-0.022	-0.223
-512.829	-139.947	-0.120	0.013
-511.814	-67.282	-0.287	-0.113
-510.799	800.000	0.064	0.229
-509.785	151.204	-0.191	-0.259
-508.770	-200.000	0.019	-0.141
-507.756	291.988	0.114	0.206
-506.741	-200.000	0.071	-0.367
-505.726	478.911	-0.031	-0.071
-504.712	92.103	-0.083	-0.093
-503.697	-105.515	-0.168	-0.038
-502.683	95.319	-0.243	-0.276
-501.668	-200.000	0.037	-0.223
-500.653	800.000	0.138	0.420
-499.639	800.000	-0.094	0.270
-498.624	475.657	-0.070	0.157
-497.610	-200.000	0.006	-0.155
-496.595	705.244	0.069	0.181
-495.581	800.000	0.024	0.067
-494.566	-55.677	-0.302	-0.135
-493.551	66.792	-0.144	0.146
-492.537	-40.500	-0.092	0.048
-491.522	753.256	0.121	0.325
-490.508	-76.326	-0.274	-0.096
-489.493	-99.723	0.203	0.051
-488.478	-148.149	0.407	0.034
-487.464	-200.000	-0.028	-0.261
-486.449	800.000	-0.072	-0.239
-485.435	163.689	0.174	-0.244
-484.420	-97.445	0.199	0.051
-483.405	-173.566	0.247	-0.007
-482.391	-68.290	-0.330	0.128
-481.376	252.887	0.215	0.366
-480.362	155.001	0.073	-0.099
-479.347	-84.635	-0.257	0.081
-478.332	-157.849	-0.284	-0.017
-477.318	-98.513	0.381	0.097
-476.303	-200.000	-0.016	-0.197
-475.289	-200.000	0.083	0.375
-474.274	-16.546	-0.205	0.129
-473.259	30.055	-0.074	0.063
-472.245	102.287	0.123	0.143
-471.230	-104.293	-0.254	-0.059
-470.216	800.000	-0.068	0.220
-469.201	-99.786	0.098	0.025
-468.186	-139.287	0.262	-0.028
-467.172	61.917	0.146	-0.145
-466.157	0.329	0.119	0.084
-465.143	6.337	-0.172	0.127
-464.128	-9.664	-0.273	0.181
-463.113	-122.556	-0.080	0.013
-462.099	-43.621	-0.265	-0.133
-461.084	184.217	0.104	0.153
-460.070	635.926	-0.134	0.338
-459.055	-52.372	-0.106	0.049
-458.040	26.835	-0.117	-0.097
-457.026	800.000	-0.088	-0.251
-456.011	-200.000	-0.028	0.159
-454.997	-200.000	-0.032	0.269
-453.982	226.157	0.109	-0.175
-452.968	-152.292	-0.095	-0.007
-451.953	-116.506	-0.356	-0.065
-450.938	-34.192	-0.049	0.027
-449.924	97.667	0.204	0.234
-448.909	33.543	-0.232	0.200
-447.895	-72.863	-0.269	0.098
-446.880	10.689	0.068	0.052
-445.865	-15.463	-0.444	-0.282
-444.851	17.097	0.465	-0.366
-443.836	-64.240	-0.323	0.131
-442.822	55.268	-0.107	-0.103
-441.807	-200.000	-0.031	-0.224
-440.792	-2.449	0.143	0.100
-439.778	313.051	0.118	0.221
-438.763	-200.000	0.020	0.105
-437.749	-109.372	0.204	-0.043
-436.734	333.416	-0.052	0.099
-435.719	-138.621	0.102	0.011
-434.705	31.342	0.166	-0.142
-433.690	-76.394	-0.198	-0.069
-432.676	800.000	0.081	0.276
-431.661	-200.000	-0.019	0.257
-430.646	-200.000	0.013	0.131
-429.632	313.527	-0.142	-0.265
-428.617	23.235	-0.204	-0.166
-427.603	146.889	0.170	-0.226
-426.588	-164.962	0.156	-0.007
-425.573	-34.333	0.199	0.109
-424.559	468.886	0.109	0.243
-423.544	-114.411	-0.036	-0.007
-422.530	67.926	-0.177	-0.180
-421.515	55.427	0.127	0.122
-420.500	64.701	0.084	0.084
-419.486	160.243	0.141	-0.196
-418.471	-163.164	0.195	-0.009
-417.457	176.862	-0.121	-0.175
-416.442	-27.300	0.279	-0.161
-415.428	58.894	-0.142	0.138
-414.413	118.155	0.213	-0.261
-413.398	-177.607	-0.166	0.004
-412.384	800.000	0.047	0.162
-411.369	353.615	0.058	0.114
-410.355	-31.449	-0.314	0.175
-409.340	72.816	0.109	-0.113
-408.325	20.226	0.191	0.153
-407.311	-4.863	-0.242	0.165
-406.296	-74.473	-0.314	-0.112
-405.282	238.194	0.213	0.351
-404.267	100.873	0.135	-0.156
-403.252	764.221	0.041	0.110
-402.238	-200.000	0.008	-0.201
-401.223	-200.000	0.028	-0.274
-400.209	-57.314	-0.137	-0.060
-399.194	160.123	-0.148	0.204
-398.179	-42.176	-0.324	-0.164
-397.165	-18.747	-0.201	-0.124
-396.150	789.697	0.102	-0.278
-395.136	-200.000	-0.035	0.330
-394.121	-95.067	0.169	-0.045
-393.106	-164.258	0.075	0.003
-392.092	61.623	0.086	-0.085
-391.077	-200.000	-0.011	0.268
-390.063	-200.000	0.012	0.259
-389.048	57.925	-0.167	0.162
-388.033	-3.894	-0.138	0.095
-387.019	1.761	-0.116	-0.083
-386.004	68.303	-0.277	-0.281
-384.990	-34.063	0.083	-0.045
-383.975	330.205	0.022	0.041
-382.960	-33.127	0.149	0.082
-381.946	-6.827	0.033	-0.022
-380.931	-200.000	0.018	-0.126
-379.917	150.019	-0.194	0.261
-378.902	-103.635	0.186	0.043
-377.888	53.515	0.286	-0.272
-376.873	-97.762	-0.170	-0.044
-375.858	116.304	0.063	0.077
-374.844	475.100	-0.115	-0.258
-373.829	444.004	-0.083	-0.181
-372.815	-200.000	0.002	0.014
-371.800	-73.374	-0.213	0.077
-370.785	171.541	-0.100	0.143
-369.771	-131.758	-0.272	0.035
-368.756	-7.390	0.266	-0.178
-367.742	19.060	0.141	-0.112
-366.727	108.533	0.193	-0.229
-365.712	-18.218	0.152	0.094
-364.698	-14.898	0.093	0.059
-363.683	-63.132	-0.069	0.028
-362.669	48.729	0.153	0.143
-361.654	43.154	0.100	-0.090
-360.639	-145.554	-0.199	-0.018
-359.625	-69.001	-0.254	-0.097
-358.610	687.761	-0.034	0.088
-357.596	-79.065	0.165	-0.056
-356.581	-200.000	0.017	0.400
-355.566	-134.918	0.128	-0.015
-354.552	-149.417	0.132	-0.010
-353.537	142.472	0.161	0.212
-352.523	-200.000	-0.013	0.254
-351.508	70.416	-0.140	0.143
-350.493	-18.141	0.065	0.040
-349.479	-200.000	0.009	0.295
-348.464	800.000	-0.142	0.452
-347.450	-147.767	-0.305	-0.025
-346.435	-37.594	-0.198	0.104
-345.420	-112.101	0.256	0.051
-344.406	-153.976	-0.323	0.022
-343.391	800.000	0.046	0.157
-342.377	-104.116	-0.328	-0.076
-341.362	800.000	-0.090	0.251
-340.348	63.100	0.128	0.127
-339.333	-70.145	-0.167	-0.063
-338.318	-200.000	-0.030	-0.367
-337.304	35.061	-0.339	-0.294
-336.289	800.000	-0.086	0.307
-335.275	-200.000	-0.053	-0.256
-334.260	1.577	-0.123	0.087
-333.245	-200.000	0.054	-0.354
-332.231	-200.000	-0.012	-0.125
-331.216	-163.251	-0.293	-0.014
-330.202	-8.542	0.040	-0.027
-329.187	-200.000	-0.044	0.203
-328.172	-80.508	0.062	-0.021
-327.158	127.006	0.087	0.110
-326.143	-86.805	-0.225	-0.068
-325.129	-75.214	0.387	-0.137
-324.114	-200.000	-0.001	0.053
-323.099	-200.000	-0.016	0.074
-322.085	448.229	-0.169	-0.367
-321.070	-20.920	-0.163	0.099
-320.056	-124.205	0.486	-0.075
-319.041	-42.596	0.047	-0.024
-318.026	-43.993	0.293	-0.145
-317.012	27.324	0.120	0.100
-315.997	-56.564	0.390	0.171
-314.983	67.549	0.149	0.150
-313.968	800.000	-0.039	-0.122
-312.953	-200.000	0.001	-0.096
-311.939	-89.656	-0.210	-0.061
-310.924	249.548	-0.075	-0.125
-309.910	-86.702	0.472	-0.143
-308.895	100.032	0.151	-0.173
-307.880	800.000	-0.045	0.176
-306.866	-200.000	0.023	0.143
-305.851	-200.000	0.045	-0.272
-304.837	800.000	-0.056	0.173
-303.822	-200.000	-0.056	0.295
-302.807	-200.000	-0.041	-0.257
-301.793	-34.745	0.224	0.121
-300.778	-6.938	-0.303	0.204
-299.764	58.445	-0.265	-0.257
-298.749	-95.628	0.123	0.033
-297.735	103.497	0.249	0.289
-296.720	125.212	-0.011	0.014
-295.705	800.000	-0.070	-0.223
-294.691	638.435	-0.110	0.275
-293.676	-93.526	0.255	-0.070
-292.662	153.888	-0.280	0.379
-291.647	98.069	-0.133	0.151
-290.632	-200.000	0.005	0.076
-289.618	-200.000	-0.074	0.343
-288.603	-42.532	0.203	-0.102
-287.589	-102.215	0.362	0.086
-286.574	-107.970	0.135	-0.029
-285.559	-200.000	-0.002	0.385
-284.545	-0.304	0.136	0.096
-283.530	132.887	0.121	-0.154
-282.516	-108.670	-0.120	-0.025
-281.501	800.000	0.062	0.200
-280.486	-79.555	-0.175	-0.058
-279.472	-200.000	-0.006	-0.164
-278.457	379.406	-0.127	0.256
-277.443	247.027	0.157	-0.262
-276.428	327.476	0.212	0.401
-275.413	71.195	0.270	0.276
-274.399	-59.400	-0.259	-0.110
-273.384	69.198	-0.126	-0.128
-272.370	-15.684	0.192	-0.121
-271.355	-174.885	0.262	-0.007
-270.340	170.367	-0.177	0.250
-269.326	156.714	0.155	0.211
-268.311	270.053	-0.156	-0.270
-267.297	-94.219	-0.189	-0.051
-266.282	79.119	0.178	0.188
-265.267	690.349	-0.114	0.293
-264.253	-70.525	0.066	0.025
-263.238	148.874	0.212	-0.283
-262.224	57.696	0.170	0.164
-261.209	147.891	-0.103	-0.137
-260.195	78.854	0.032	0.034
-259.180	-107.491	-0.128	-0.028
-258.165	800.000	-0.010	-0.042
-257.151	-112.256	0.091	-0.018
-256.136	-97.655	-0.071	0.018
-255.122	-147.974	0.193	0.016
-254.107	-41.560	0.126	-0.064
-253.092	800.000	0.037	0.155
-252.078	-200.000	-0.001	-0.302
-251.063	-65.497	-0.274	-0.109
-250.049	800.000	-0.067	-0.203
-249.034	576.455	0.139	-0.335
-248.019	-57.089	0.071	-0.031
-247.005	-200.000	-0.008	-0.045
-245.990	492.825	-0.033	-0.075
-244.976	-157.082	-0.173	-0.010
-243.961	-132.864	0.189	0.024
-242.946	-125.701	-0.228	0.034
-241.932	-142.922	-0.195	-0.019
-240.917	40.229	-0.136	-0.121
-239.903	-44.076	0.214	0.106
-238.888	370.704	0.061	0.122
-237.873	-46.341	0.004	0.002
-236.859	525.431	0.237	-0.551
-235.844	800.000	0.033	-0.121
-234.830	-102.643	-0.253	0.060
-233.815	800.000	0.045	-0.163
-232.800	-83.993	0.287	-0.090
-231.786	272.988	-0.066	0.115
-230.771	-200.000	0.063	0.283
-229.757	598.827	0.020	0.048
-228.742	114.715	0.093	0.111
-227.727	-145.296	0.078	-0.007
-226.713	216.130	0.061	-0.095
-225.698	103.148	-0.033	0.038
-224.684	-74.689	-0.074	0.026
-223.669	245.161	0.164	-0.272
-222.655	36.661	-0.135	-0.117
-221.640	-200.000	-0.042	0.250
-220.625	-200.000	-0.086	0.377
-219.611	-30.414	0.268	-0.150
-218.596	32.086	0.055	0.047
-217.582	382.322	0.070	0.142
-216.567	-29.121	0.314	-0.178
-215.552	91.100	-0.121	-0.134
-214.538	800.000	-0.063	-0.215
-213.523	800.000	0.096	-0.374
-212.509	-76.371	-0.270	-0.094
-211.494	230.858	0.072	-0.116
-210.479	61.905	0.145	0.143
-209.465	165.649	-0.053	-0.074
-208.450	800.000	0.096	0.280
-207.436	-164.536	-0.292	0.013
-206.421	-200.000	0.053	0.329
-205.406	-42.501	-0.221	-0.111
-204.392	40.445	0.059	-0.052
-203.377	253.673	-0.153	-0.258
-202.363	139.035	-0.116	0.150
-201.348	513.738	-0.096	0.221
-200.333	715.427	0.067	-0.175
-199.319	-133.272	0.181	0.022
-198.304	111.935	0.362	-0.430
-197.290	-31.148	0.136	0.076
-196.275	518.080	0.079	0.183
-195.260	13.943	0.066	0.050
-194.246	-200.000	0.027	-0.143
-193.231	-48.380	0.031	-0.015
-192.217	-118.509	-0.071	-0.012
-191.202	305.979	0.148	-0.270
-190.187	-87.958	-0.309	0.092
-189.173	-200.000	-0.011	0.160
-188.158	-18.932	-0.227	-0.139
-187.144	-17.029	0.245	-0.152
-186.129	-52.362	0.096	-0.044
-185.114	-35.439	0.176	-0.094
-184.100	177.793	0.084	-0.120
-183.085	-7.267	0.227	0.151
-182.071	-70.362	-0.141	0.053
-181.056	14.778	-0.295	-0.227
-180.042	800.000	-0.066	-0.209
-179.027	-75.362	-0.186	-0.065
-178.012	-81.454	0.350	-0.113
-176.998	-31.521	-0.134	-0.074
-175.983	-200.000	-0.073	-0.352
-174.969	-42.246	-0.048	0.024
-173.954	526.443	-0.114	0.264
-172.939	800.000	0.047	0.182
-171.925	800.000	0.081	0.301
-170.910	3.697	-0.217	0.156
-169.896	800.000	-0.020	0.068
-168.881	-46.383	0.389	0.188
-167.866	-56.853	-0.348	0.151
-166.852	-51.283	0.143	-0.066
-165.837	320.326	0.058	0.109
-164.823	-200.000	0.011	-0.153
-163.808	-61.899	0.240	-0.099
-162.793	-46.868	0.172	0.083
-161.779	49.284	0.187	0.173
-160.764	-200.000	-0.012	0.185
-159.750	-160.286	0.484	0.026
-158.735	-107.630	0.059	0.013
-157.720	321.283	0.184	-0.344
-156.706	-200.000	-0.003	0.043
-155.691	133.148	0.208	-0.264
-154.677	275.947	0.221	-0.386
-153.662	217.241	0.114	0.178
-152.647	-200.000	-0.005	-0.359
-151.633	179.681	0.029	-0.042
-150.618	239.969	-0.081	-0.133
-149.604	-200.000	-0.014	-0.177
-148.589	-200.000	0.016	-0.148
-147.574	-65.533	-0.034	0.014
-146.560	240.279	-0.230	0.376
-145.545	-200.000	-0.029	-0.150
-144.531	-149.904	-0.243	-0.019
-143.516	-157.811	-0.112	0.007
-142.502	-200.000	-0.013	0.093
-141.487	-102.041	-0.258	0.061
-140.472	800.000	-0.026	-0.079
-139.458	413.431	-0.032	0.067
-138.443	4.625	-0.208	-0.150
-137.429	71.582	0.226	-0.230
-136.414	618.501	0.059	-0.145
-135.399	60.359	0.133	0.129
-134.385	-156.413	-0.200	-0.012
-133.370	-143.112	0.188	-0.018
-132.356	-200.000	-0.039	0.217
-131.341	-137.941	-0.432	-0.047
-130.326	-80.378	-0.041	-0.013
-129.312	-200.000	-0.025	0.200
-128.297	-145.070	0.048	-0.004
-127.283	-200.000	0.024	0.260
-126.268	222.973	-0.251	0.397
-125.253	-200.000	0.007	-0.086
-124.239	-142.250	0.125	-0.012
-123.224	-123.452	-0.254	0.040
-122.210	2.195	-0.207	-0.147
