DTS Sentinel unit serial number:	SN413079Multiplexer serial number:	ORYXHardware model number:	OX4-SRSoftware version number:	ORYX F/W v4.00 Oryx Data Collector v3.7.2.0data status	okinstallation	princeton_trtdifferential loss correction	single-endedforward channel	channel 2reverse channel	N/Adate	2019/09/18time	16:19:35forward acquisition time	60.00reverse acquisition time	0.00gamma	496.2192k internal	0.2302k external	0.2302temperature offset calibration	1.0009default loss term (dB/km)	0.3790temperature slope calibration	1.0000multiplexer offset coefficient	1.0000multiplexer slope coefficient	1.0000fibre end	0.00T internal ref (°C)	38.67T ext. ref 1 (°C)	0.82T ext. ref 2 (°C)	35.49length (m)	temperature (°C)	Stokes	anti-Stokes-747.200	-141.713	-0.357	0.037
-746.185	574.375	-0.090	0.225
-745.171	696.150	0.098	0.262
-744.156	569.110	-0.060	0.149
-743.142	-3.770	0.136	0.096
-742.127	219.041	-0.060	0.098
-741.112	-200.000	-0.040	0.216
-740.098	56.684	-0.167	-0.166
-739.083	124.940	0.092	-0.118
-738.069	334.035	0.151	0.297
-737.054	99.278	-0.234	0.276
-736.039	43.017	-0.166	-0.154
-735.025	124.433	0.212	-0.271
-734.010	-2.052	0.052	0.037
-732.996	-200.000	0.051	-0.261
-731.981	-200.000	-0.034	-0.208
-730.966	-61.244	-0.165	-0.071
-729.952	200.152	-0.121	-0.189
-728.937	396.442	-0.061	0.129
-727.923	-108.262	-0.439	0.097
-726.908	117.885	-0.199	-0.249
-725.894	-132.139	-0.233	0.031
-724.879	124.187	0.222	-0.284
-723.864	34.095	0.074	0.066
-722.850	275.346	-0.114	-0.206
-721.835	-200.000	0.021	0.298
-720.821	-33.467	-0.232	0.130
-719.806	221.491	-0.103	-0.168
-718.791	400.613	0.035	-0.075
-717.777	800.000	-0.054	-0.206
-716.762	-11.608	-0.155	-0.104
-715.748	-37.345	-0.276	0.150
-714.733	-200.000	0.026	0.352
-713.718	-95.448	-0.096	-0.026
-712.704	-200.000	0.014	0.068
-711.689	-155.038	-0.243	-0.016
-710.675	800.000	0.087	-0.297
-709.660	-49.107	-0.141	-0.069
-708.645	800.000	-0.041	-0.167
-707.631	-200.000	0.041	0.360
-706.616	512.532	0.040	-0.095
-705.602	-80.834	-0.147	-0.050
-704.587	223.287	-0.211	-0.345
-703.572	476.763	0.036	-0.082
-702.558	-34.812	-0.060	0.033
-701.543	-7.099	-0.026	-0.018
-700.529	-99.685	-0.435	0.111
-699.514	-136.628	-0.118	-0.014
-698.499	38.801	-0.063	-0.058
-697.485	-14.637	0.256	-0.167
-696.470	-8.887	-0.159	-0.109
-695.456	-111.874	-0.318	-0.065
-694.441	-184.307	-0.227	-0.004
-693.426	130.559	0.113	0.148
-692.412	-133.625	-0.040	-0.005
-691.397	74.992	-0.145	-0.155
-690.383	-110.296	-0.262	-0.056
-689.368	77.944	-0.327	-0.355
-688.354	493.820	-0.144	0.335
-687.339	261.370	-0.037	0.066
-686.324	-28.764	0.350	0.205
-685.310	101.942	-0.162	-0.192
-684.295	379.448	-0.028	0.059
-683.281	-146.703	-0.219	0.019
-682.266	-176.931	0.477	0.012
-681.251	103.888	-0.287	-0.343
-680.237	92.563	0.101	0.116
-679.222	99.891	0.112	-0.132
-678.208	-196.460	0.246	0.002
-677.193	604.278	0.119	0.300
-676.178	467.770	-0.106	0.241
-675.164	-88.780	0.101	0.030
-674.149	-63.124	0.258	0.108
-673.135	-38.992	0.191	0.102
-672.120	800.000	0.133	-0.500
-671.105	320.150	0.046	0.089
-670.091	68.205	0.155	0.161
-669.076	-200.000	-0.010	-0.104
-668.062	103.606	-0.141	0.168
-667.047	-25.182	-0.157	-0.095
-666.032	147.739	0.127	-0.173
-665.018	-200.000	-0.027	0.253
-664.003	-200.000	-0.005	0.203
-662.989	-4.267	-0.104	-0.073
-661.974	213.402	0.143	0.230
-660.959	800.000	0.043	0.147
-659.945	-153.698	0.279	0.019
-658.930	-200.000	0.022	-0.160
-657.916	206.091	0.164	0.259
-656.901	47.091	-0.192	-0.182
-655.886	-124.527	-0.240	-0.038
-654.872	-200.000	-0.001	-0.286
-653.857	97.594	-0.107	-0.125
-652.843	240.614	-0.132	-0.223
-651.828	92.672	-0.205	0.235
-650.814	-200.000	-0.009	0.291
-649.799	-80.642	-0.158	0.053
-648.784	64.678	-0.128	-0.131
-647.770	471.726	-0.129	-0.294
-646.755	-50.811	0.282	-0.135
-645.741	-28.836	-0.096	0.056
-644.726	327.417	-0.092	-0.179
-643.711	-200.000	-0.012	-0.211
-642.697	-139.275	-0.199	0.022
-641.682	16.000	-0.309	0.247
-640.668	-111.349	-0.279	-0.058
-639.653	800.000	-0.089	0.281
-638.638	27.295	-0.146	0.124
-637.624	-74.739	0.263	-0.096
-636.609	60.184	-0.071	-0.071
-635.595	-200.000	0.001	-0.021
-634.580	800.000	0.043	0.153
-633.565	491.973	-0.076	-0.176
-632.551	341.038	-0.016	-0.032
-631.536	-74.898	0.262	-0.095
-630.522	-47.606	-0.258	-0.127
-629.507	327.578	0.085	-0.165
-628.492	-71.778	-0.419	0.158
-627.478	206.400	-0.269	0.425
-626.463	609.006	0.024	0.061
-625.449	30.640	-0.044	0.038
-624.434	321.842	0.089	0.172
-623.419	800.000	0.085	0.266
-622.405	60.444	-0.097	-0.097
-621.390	-161.639	-0.144	0.007
-620.376	195.355	-0.134	-0.206
-619.361	297.562	-0.185	0.344
-618.346	-5.499	-0.160	-0.111
-617.332	-33.716	0.290	0.162
-616.317	-200.000	0.022	-0.270
-615.303	800.000	0.053	-0.230
-614.288	-144.338	0.313	-0.030
-613.273	-123.518	-0.232	-0.037
-612.259	53.067	0.101	-0.098
-611.244	86.677	0.067	0.074
-610.230	800.000	0.031	0.092
-609.215	-153.350	-0.394	0.028
-608.201	800.000	-0.044	0.134
-607.186	-200.000	0.016	0.135
-606.171	-35.850	-0.103	0.057
-605.157	-103.827	-0.261	-0.062
-604.142	22.057	0.059	-0.049
-603.128	800.000	-0.010	0.039
-602.113	-131.947	-0.249	0.033
-601.098	-200.000	0.024	0.167
-600.084	308.744	0.114	-0.215
-599.069	7.771	0.202	-0.153
-598.055	69.725	0.018	0.019
-597.040	205.109	0.206	-0.324
-596.025	127.422	0.093	-0.120
-595.011	-200.000	-0.006	-0.237
-593.996	-26.353	-0.141	-0.084
-592.982	52.700	-0.020	0.020
-591.967	-183.266	-0.323	0.006
-590.952	97.044	-0.138	0.160
-589.938	11.131	-0.087	0.068
-588.923	-29.189	-0.416	0.242
-587.909	12.291	-0.124	-0.097
-586.894	-168.495	0.289	0.011
-585.879	-192.978	-0.061	0.001
-584.865	-178.236	0.166	-0.004
-583.850	-81.832	-0.155	0.052
-582.836	-87.658	0.258	-0.079
-581.821	-6.326	-0.068	0.047
-580.806	-200.000	0.004	0.137
-579.792	279.166	-0.153	-0.277
-578.777	-200.000	0.039	0.263
-577.763	-200.000	-0.012	0.247
-576.748	-200.000	0.029	0.204
-575.733	-30.109	-0.050	-0.029
-574.719	98.009	0.115	-0.134
-573.704	800.000	-0.096	0.424
-572.690	481.481	0.167	-0.383
-571.675	236.273	0.281	-0.470
-570.661	339.340	0.220	-0.434
-569.646	465.636	-0.042	-0.095
-568.631	749.739	0.048	-0.130
-567.617	-39.568	-0.285	-0.151
-566.602	211.065	-0.097	-0.155
-565.588	271.920	0.143	0.255
-564.573	769.238	0.052	-0.143
-563.558	268.303	0.085	-0.151
-562.544	20.473	0.099	0.081
-561.529	449.329	0.035	0.079
-560.515	-24.537	0.153	-0.092
-559.500	-200.000	-0.020	-0.377
-558.485	-69.471	0.132	0.051
-557.471	-128.524	-0.079	-0.011
-556.456	-131.370	0.003	0.000
-555.442	44.677	-0.143	-0.133
-554.427	800.000	0.049	0.169
-553.412	-200.000	0.060	0.303
-552.398	-89.163	-0.147	-0.044
-551.383	800.000	-0.082	-0.257
-550.369	-200.000	-0.037	-0.171
-549.354	800.000	0.073	0.216
-548.339	1.747	0.355	0.258
-547.325	147.573	0.205	0.279
-546.310	72.226	-0.086	-0.090
-545.296	-200.000	-0.066	0.309
-544.281	355.299	-0.077	-0.155
-543.266	800.000	0.116	0.462
-542.252	800.000	-0.091	0.367
-541.237	-200.000	0.039	0.286
-540.223	-55.079	-0.208	0.095
-539.208	800.000	0.039	0.160
-538.193	24.690	-0.234	-0.196
-537.179	220.127	-0.087	-0.140
-536.164	213.268	0.180	-0.288
-535.150	-95.312	-0.160	0.043
-534.135	570.541	-0.053	0.131
-533.121	63.880	0.125	0.127
-532.106	800.000	0.099	0.337
-531.091	-45.649	-0.208	-0.104
-530.077	-127.159	0.192	0.028
-529.062	379.155	-0.134	0.278
-528.048	-156.711	0.274	0.017
-527.033	-200.000	0.016	0.318
-526.018	220.457	0.041	0.066
-525.004	-200.000	-0.003	0.139
-523.989	182.514	0.163	-0.243
-522.975	69.822	-0.109	-0.114
-521.960	-119.535	-0.078	-0.014
-520.945	-200.000	-0.015	-0.196
-519.931	-93.774	0.056	0.015
-518.916	102.512	0.076	-0.090
-517.902	-110.660	0.117	-0.024
-516.887	-155.778	0.242	-0.016
-515.872	-97.530	-0.384	-0.101
-514.858	-1.036	0.214	0.153
-513.843	-170.865	0.148	-0.005
-512.829	-95.527	0.101	-0.027
-511.814	312.782	-0.282	-0.535
-510.799	35.070	0.114	-0.101
-509.785	-137.335	0.184	0.021
-508.770	192.752	-0.165	-0.252
-507.756	-56.553	0.133	0.060
-506.741	98.822	-0.030	0.035
-505.726	-159.964	-0.079	-0.004
-504.712	-118.477	0.353	-0.063
-503.697	-68.736	-0.285	0.111
-502.683	-3.524	0.237	-0.166
-501.668	-66.495	-0.246	-0.098
-500.653	-144.065	0.047	-0.004
-499.639	-78.516	0.200	0.069
-498.624	313.480	-0.103	-0.196
-497.610	101.794	0.180	-0.212
-496.595	-200.000	0.034	0.239
-495.581	-14.161	-0.169	-0.110
-494.566	-74.441	0.035	0.013
-493.551	614.355	-0.056	0.140
-492.537	-200.000	-0.056	0.310
-491.522	-30.500	-0.439	0.251
-490.508	212.757	0.058	0.093
-489.493	-200.000	-0.003	0.057
-488.478	-200.000	-0.011	0.162
-487.464	-200.000	-0.004	0.146
-486.449	175.954	0.099	0.144
-485.435	-4.706	0.067	0.047
-484.420	40.011	-0.097	-0.088
-483.405	-40.544	0.375	0.196
-482.391	-200.000	0.001	-0.042
-481.376	-49.387	-0.275	0.132
-480.362	53.140	-0.149	-0.144
-479.347	-29.831	-0.583	0.335
-478.332	450.740	0.172	-0.383
-477.318	-173.015	0.274	0.009
-476.303	800.000	-0.045	-0.195
-475.289	800.000	-0.063	-0.215
-474.274	-200.000	0.010	0.460
-473.259	-72.070	-0.153	0.057
-472.245	-53.587	-0.198	0.091
-471.230	-23.856	-0.115	0.069
-470.216	-65.763	0.076	-0.031
-469.201	800.000	0.030	0.087
-468.186	-200.000	0.008	0.178
-467.172	-150.417	0.206	-0.016
-466.157	208.810	-0.190	-0.300
-465.143	352.775	0.105	-0.210
-464.128	-183.461	-0.592	0.010
-463.113	-56.129	0.526	0.236
-462.099	218.788	-0.108	-0.175
-461.084	67.988	0.283	0.292
-460.070	-200.000	-0.053	0.342
-459.055	-200.000	0.001	0.348
-458.040	-29.800	0.054	-0.031
-457.026	-102.498	-0.481	0.116
-456.011	-200.000	-0.060	0.368
-454.997	780.972	0.091	0.251
-453.982	569.470	-0.045	-0.111
-452.968	-117.105	-0.162	0.030
-451.953	-76.523	-0.116	-0.041
-450.938	-43.681	0.209	-0.106
-449.924	800.000	-0.054	0.159
-448.909	182.781	-0.096	0.142
-447.895	86.596	-0.070	0.077
-446.880	6.183	-0.188	0.141
-445.865	-104.718	-0.093	0.022
-444.851	527.533	-0.118	-0.279
-443.836	94.019	0.206	-0.235
-442.822	800.000	0.017	0.066
-441.807	-200.000	-0.017	-0.293
-440.792	247.437	0.093	0.158
-439.778	-89.017	0.321	0.096
-438.763	-200.000	0.055	0.304
-437.749	-127.697	-0.124	0.018
-436.734	161.755	0.070	-0.099
-435.719	-113.929	0.296	-0.058
-434.705	90.168	0.223	0.251
-433.690	113.321	-0.123	0.150
-432.676	33.109	-0.169	-0.148
-431.661	-10.355	0.147	0.098
-430.646	800.000	-0.149	-0.443
-429.632	148.067	0.180	-0.244
-428.617	119.677	-0.169	-0.210
-427.603	-144.354	0.273	-0.026
-426.588	800.000	-0.007	-0.029
-425.573	-184.967	0.175	0.003
-424.559	675.313	-0.048	-0.125
-423.544	-91.117	-0.219	0.063
-422.530	137.323	-0.265	-0.349
-421.515	-101.997	0.125	-0.030
-420.500	-38.553	0.112	-0.060
-419.486	-144.425	-0.087	0.008
-418.471	81.340	-0.159	-0.173
-417.457	-200.000	-0.025	0.397
-416.442	800.000	0.061	0.204
-415.428	-200.000	0.025	0.223
-414.413	-119.184	0.250	-0.044
-413.398	-82.035	0.233	-0.077
-412.384	-87.003	0.363	0.111
-411.369	-67.839	-0.146	-0.058
-410.355	-34.911	0.073	-0.040
-409.340	800.000	0.044	0.189
-408.325	-137.493	0.169	-0.019
-407.311	-200.000	-0.020	0.181
-406.296	-64.699	-0.348	-0.142
-405.282	53.589	-0.116	-0.112
-404.267	800.000	0.103	0.355
-403.252	800.000	0.011	-0.036
-402.238	-148.087	0.088	0.007
-401.223	-95.088	-0.196	0.053
-400.209	-180.465	-0.060	0.001
-399.194	-200.000	-0.023	-0.120
-398.179	-120.247	0.152	0.026
-397.165	800.000	0.038	0.160
-396.150	800.000	-0.180	0.555
-395.136	-94.389	0.413	-0.113
-394.121	-6.081	-0.318	0.218
-393.106	179.018	-0.045	-0.066
-392.092	107.578	-0.146	0.174
-391.077	28.725	-0.177	0.151
-390.063	68.083	-0.268	-0.276
-389.048	96.283	0.201	-0.231
-388.033	-200.000	-0.015	-0.260
-387.019	254.552	0.107	0.184
-386.004	-200.000	0.051	0.226
-384.990	-68.859	0.220	0.085
-383.975	-104.251	0.185	-0.043
-382.960	-200.000	-0.017	-0.382
-381.946	278.678	0.057	-0.102
-380.931	324.619	0.172	-0.330
-379.917	-89.156	-0.041	0.012
-378.902	516.688	0.053	-0.123
-377.888	-200.000	0.029	-0.356
-376.873	-124.807	0.114	-0.018
-375.858	-75.666	-0.099	-0.035
-374.844	281.207	0.115	0.207
-373.829	475.989	0.138	0.313
-372.815	-54.784	0.100	0.045
-371.800	-119.141	0.425	0.075
-370.785	137.100	-0.083	-0.109
-369.771	-30.158	-0.220	-0.126
-368.756	-200.000	-0.032	0.269
-367.742	-58.529	-0.168	-0.073
-366.727	535.451	-0.071	0.168
-365.712	250.486	-0.074	-0.125
-364.698	800.000	-0.043	0.162
-363.683	60.365	-0.052	-0.051
-362.669	-200.000	-0.013	-0.141
-361.654	-49.142	0.123	-0.059
-360.639	102.165	0.135	-0.158
-359.625	-78.997	-0.320	0.109
-358.610	800.000	0.032	0.133
-357.596	-200.000	0.013	0.290
-356.581	188.765	0.121	0.182
-355.566	800.000	-0.031	-0.117
-354.552	-32.939	0.303	-0.169
-353.537	141.628	-0.189	-0.251
-352.523	-4.859	-0.082	-0.057
-351.508	800.000	-0.046	0.184
-350.493	-31.972	-0.174	0.098
-349.479	165.841	-0.012	-0.017
-348.464	-23.292	0.331	0.200
-347.450	15.368	0.226	-0.178
-346.435	800.000	0.104	0.379
-345.420	800.000	0.087	0.282
-344.406	132.038	-0.146	-0.188
-343.391	-32.115	-0.067	-0.038
-342.377	-14.227	-0.456	-0.295
-341.362	-200.000	0.032	0.204
-340.348	-119.961	0.120	0.021
-339.333	-200.000	0.005	-0.464
-338.318	0.266	-0.130	-0.093
-337.304	-31.993	-0.079	0.044
-336.289	43.996	-0.197	-0.181
-335.275	148.005	-0.082	0.111
-334.260	-200.000	-0.090	-0.450
-333.245	108.377	0.192	-0.229
-332.231	-98.650	0.261	-0.067
-331.216	-76.643	-0.083	-0.029
-330.202	1.922	-0.308	-0.223
-329.187	-95.147	-0.228	0.062
-328.172	-200.000	-0.005	-0.031
-327.158	-55.882	-0.142	-0.064
-326.143	757.621	-0.065	0.176
-325.129	138.668	0.135	-0.177
-324.114	146.595	-0.097	-0.131
-323.099	302.622	-0.131	0.243
-322.085	-113.014	0.112	-0.022
-321.070	-54.535	-0.229	-0.104
-320.056	729.616	-0.095	0.254
-319.041	51.402	0.110	0.105
-318.026	-135.831	0.333	0.039
-317.012	800.000	0.089	-0.351
-315.997	-64.271	-0.170	0.069
-314.983	48.165	-0.182	-0.171
-313.968	-200.000	0.008	-0.327
-312.953	-200.000	0.011	0.091
-311.939	-200.000	-0.020	0.127
-310.924	312.781	-0.193	-0.362
-309.910	252.116	-0.108	-0.185
-308.895	19.585	0.224	-0.181
-307.880	800.000	-0.096	-0.273
-306.866	-200.000	-0.031	0.159
-305.851	-115.872	-0.204	-0.038
-304.837	-143.728	0.092	-0.009
-303.822	800.000	0.029	-0.084
-302.807	-78.654	-0.036	0.012
-301.793	-200.000	0.003	-0.057
-300.778	800.000	-0.075	-0.242
-299.764	-200.000	0.006	-0.031
-298.749	-31.481	-0.162	-0.091
-297.735	73.896	0.106	-0.111
-296.720	66.681	0.129	0.131
-295.705	-33.457	0.232	0.128
-294.691	236.107	0.062	0.103
-293.676	-113.730	0.034	0.007
-292.662	-3.376	0.057	0.040
-291.647	351.109	-0.133	-0.264
-290.632	111.260	-0.106	-0.128
-289.618	-55.497	-0.142	-0.064
-288.603	78.013	0.117	-0.125
-287.589	0.678	0.157	0.113
-286.574	134.105	0.108	0.139
-285.559	-20.537	0.078	0.048
-284.545	-200.000	-0.018	0.557
-283.530	74.269	0.089	-0.094
-282.516	15.472	-0.149	-0.117
-281.501	90.513	-0.065	0.073
-280.486	-130.492	0.146	-0.020
-279.472	800.000	0.101	-0.327
-278.457	732.679	0.152	0.407
-277.443	192.828	0.067	0.101
-276.428	102.640	0.185	0.217
-275.413	64.353	-0.147	-0.148
-274.399	414.625	0.071	-0.150
-273.384	66.544	0.318	-0.323
-272.370	-110.039	0.074	0.015
-271.355	-94.137	0.267	-0.073
-270.340	-53.243	0.198	0.091
-269.326	697.750	-0.072	0.188
-268.311	104.532	-0.170	0.201
-267.297	-200.000	-0.011	0.240
-266.282	800.000	-0.055	0.212
-265.267	141.044	-0.026	-0.034
-264.253	-200.000	0.004	0.170
-263.238	77.458	0.134	-0.142
-262.224	-152.723	-0.505	0.036
-261.209	-101.608	0.189	-0.046
-260.195	-22.702	0.293	0.177
-259.180	82.980	-0.211	-0.230
-258.165	57.424	0.388	-0.379
-257.151	-84.577	-0.337	-0.106
-256.136	693.678	0.064	-0.168
-255.122	-190.767	0.115	-0.001
-254.107	70.237	0.024	-0.025
-253.092	12.821	0.127	0.098
-252.078	-200.000	0.073	-0.323
-251.063	11.417	0.124	0.095
-250.049	97.342	-0.290	-0.333
-249.034	-200.000	0.009	0.319
-248.019	560.984	-0.055	-0.134
-247.005	181.883	0.218	-0.321
-245.990	204.562	-0.071	0.110
-244.976	126.809	0.349	0.442
-243.961	-77.641	-0.144	-0.050
-242.946	-21.678	-0.132	-0.081
-241.932	101.777	0.156	0.182
-240.917	-98.862	0.156	0.040
-239.903	220.168	-0.193	0.308
-238.888	618.245	-0.071	0.179
-237.873	631.396	0.081	0.206
-236.859	-89.381	-0.041	0.012
-235.844	800.000	-0.060	-0.222
-234.830	-81.971	0.462	-0.151
-233.815	-200.000	0.028	-0.356
-232.800	247.844	0.052	-0.087
-231.786	98.266	0.192	-0.221
-230.771	-56.166	-0.118	-0.052
-229.757	97.686	0.063	-0.073
-228.742	-27.922	-0.315	-0.182
-227.727	-200.000	0.003	0.582
-226.713	-72.445	-0.208	0.077
-225.698	-200.000	0.041	-0.276
-224.684	-33.922	0.435	-0.239
-223.669	-200.000	0.026	-0.117
-222.655	357.878	0.072	-0.143
-221.640	-142.316	-0.199	-0.020
-220.625	-86.436	0.144	-0.044
-219.611	89.075	0.131	0.145
-218.596	-29.666	-0.403	0.230
-217.582	800.000	-0.075	-0.260
-216.567	26.648	-0.100	-0.084
-215.552	-200.000	0.008	0.060
-214.538	-200.000	-0.002	0.137
-213.523	-62.894	0.248	0.102
-212.509	-200.000	0.006	0.401
-211.494	-152.753	-0.057	0.004
-210.479	-72.694	-0.243	0.089
-209.465	-76.437	0.162	-0.057
-208.450	-41.081	-0.096	0.050
-207.436	141.140	-0.164	0.217
-206.421	94.793	-0.331	0.376
-205.406	-106.234	-0.098	-0.022
-204.392	-152.601	0.397	0.028
-203.377	-153.835	-0.240	0.016
-202.363	-169.510	0.343	-0.012
-201.348	-127.812	0.172	-0.025
-200.333	-166.189	0.355	-0.015
-199.319	-32.188	-0.138	0.077
-198.304	-115.855	0.369	-0.069
-197.290	28.441	0.163	0.138
-196.275	21.168	-0.238	0.193
-195.260	-32.902	-0.146	0.081
-194.246	-139.382	-0.131	-0.014
-193.231	-200.000	-0.088	-0.390
-192.217	-109.409	-0.275	0.058
-191.202	347.387	0.136	0.266
-190.187	-9.271	-0.161	0.107
-189.173	800.000	0.017	0.061
-188.158	129.447	-0.173	-0.221
-187.144	-94.246	0.125	0.034
-186.129	-200.000	-0.027	-0.164
-185.114	20.225	-0.209	-0.168
-184.100	93.809	-0.174	0.196
-183.085	452.349	0.036	0.080
-182.071	-13.129	0.097	-0.063
-181.056	575.353	-0.096	0.234
-180.042	696.005	-0.104	0.272
-179.027	-200.000	-0.041	-0.190
-178.012	-84.350	0.180	-0.057
-176.998	-164.084	0.500	-0.023
-175.983	800.000	0.042	0.146
-174.969	-78.894	0.126	-0.043
-173.954	158.945	0.136	-0.188
-172.939	-156.001	0.135	0.009
-171.925	-7.547	0.053	-0.036
-170.910	800.000	-0.074	-0.249
-169.896	196.266	-0.077	0.118
-168.881	-53.114	-0.133	0.061
-167.866	480.048	0.110	-0.248
-166.852	130.966	0.109	-0.140
-165.837	20.359	0.329	-0.265
-164.823	-80.273	0.426	-0.142
-163.808	-35.019	-0.182	0.099
-162.793	-200.000	0.024	-0.348
-161.779	11.168	-0.025	0.019
-160.764	-136.225	0.474	0.055
-159.750	59.210	0.073	0.072
-158.735	-200.000	0.006	-0.033
-157.720	-107.112	-0.322	0.071
-156.706	-69.326	-0.396	-0.151
-155.691	-128.611	0.254	-0.036
-154.677	-49.182	-0.099	0.047
-153.662	-200.000	0.024	0.269
-152.647	-200.000	-0.029	-0.131
-151.633	-154.935	-0.165	0.011
-150.618	123.144	0.312	-0.389
-149.604	-200.000	-0.018	0.181
-148.589	290.374	-0.160	0.290
-147.574	800.000	0.064	-0.188
-146.560	333.531	-0.083	0.161
-145.545	-200.000	-0.009	-0.199
-144.531	749.287	-0.017	-0.046
-143.516	178.915	-0.115	-0.167
-142.502	-200.000	-0.045	0.234
-141.487	219.343	0.129	-0.205
-140.472	29.320	-0.164	-0.139
-139.458	122.890	-0.145	-0.181
-138.443	99.448	0.164	-0.189
-137.429	211.930	-0.117	-0.183
-136.414	-36.895	-0.126	-0.067
-135.399	78.716	-0.127	0.136
-134.385	206.310	-0.156	0.241
-133.370	281.269	-0.095	0.168
-132.356	-68.505	-0.045	0.017
-131.341	-200.000	0.009	0.159
-130.326	157.114	0.147	-0.202
-129.312	-186.788	-0.066	-0.001
-128.297	75.550	0.163	-0.171
-127.283	-175.256	-0.091	0.002
-126.268	800.000	0.008	0.030
-125.253	-200.000	-0.009	0.054
-124.239	-200.000	-0.003	-0.183
-123.224	-130.503	-0.335	0.045
-122.210	-132.076	0.302	-0.039
