DTS Sentinel unit serial number:	SN413079Multiplexer serial number:	ORYXHardware model number:	OX4-SRSoftware version number:	ORYX F/W v4.00 Oryx Data Collector v3.7.2.0data status	okinstallation	princeton_trtdifferential loss correction	single-endedforward channel	channel 2reverse channel	N/Adate	2019/09/17time	01:43:35forward acquisition time	60.00reverse acquisition time	0.00gamma	496.2192k internal	0.2328k external	0.2328temperature offset calibration	0.9978default loss term (dB/km)	0.3790temperature slope calibration	1.0000multiplexer offset coefficient	1.0000multiplexer slope coefficient	1.0000fibre end	0.00T internal ref (°C)	29.56T ext. ref 1 (°C)	0.12T ext. ref 2 (°C)	24.55length (m)	temperature (°C)	Stokes	anti-Stokes-747.200	218.095	-0.164	0.264
-746.185	-200.000	0.018	0.090
-745.171	-200.000	0.034	-0.224
-744.156	58.866	0.043	-0.042
-743.142	-78.871	0.130	-0.045
-742.127	348.090	-0.111	0.220
-741.112	-200.000	-0.050	0.259
-740.098	-74.806	-0.240	-0.087
-739.083	-200.000	-0.102	-0.516
-738.069	-200.000	0.043	0.277
-737.054	56.480	0.251	0.246
-736.039	-83.822	-0.249	-0.080
-735.025	-16.844	-0.308	0.196
-734.010	-145.753	-0.237	0.021
-732.996	800.000	-0.068	-0.197
-731.981	-92.686	-0.044	0.013
-730.966	-141.857	-0.169	-0.017
-729.952	-200.000	-0.002	-0.411
-728.937	-200.000	0.048	0.274
-727.923	142.061	-0.115	-0.154
-726.908	800.000	-0.031	0.116
-725.894	800.000	-0.039	0.162
-724.879	452.569	0.209	0.466
-723.864	380.833	0.023	-0.048
-722.850	-14.165	0.098	-0.064
-721.835	109.932	0.052	0.063
-720.821	800.000	-0.125	-0.403
-719.806	-200.000	-0.005	-0.214
-718.791	41.769	-0.114	0.104
-717.777	800.000	-0.068	-0.254
-716.762	-47.052	-0.202	-0.099
-715.748	-200.000	0.048	-0.238
-714.733	-188.900	0.145	-0.002
-713.718	712.723	-0.119	-0.317
-712.704	-31.473	-0.209	-0.118
-711.689	651.395	-0.177	-0.457
-710.675	142.298	0.167	-0.223
-709.660	-18.876	-0.137	0.086
-708.645	-11.691	-0.113	-0.075
-707.631	581.966	0.063	0.155
-706.616	39.873	0.042	-0.038
-705.602	-73.044	0.026	0.010
-704.587	-154.352	0.327	-0.022
-703.572	256.953	-0.131	0.227
-702.558	800.000	0.072	-0.236
-701.543	535.173	-0.077	-0.183
-700.529	800.000	-0.062	0.196
-699.514	-29.433	-0.121	-0.069
-698.499	800.000	-0.045	-0.141
-697.485	-200.000	0.032	-0.332
-696.470	-90.216	-0.292	0.085
-695.456	437.885	0.063	0.137
-694.441	90.721	-0.119	-0.134
-693.426	-200.000	-0.005	0.116
-692.412	800.000	0.068	-0.210
-691.397	-62.585	0.207	0.087
-690.383	92.166	0.123	0.140
-689.368	55.713	-0.247	-0.241
-688.354	-7.084	0.270	0.184
-687.339	577.837	-0.109	0.269
-686.324	12.802	0.147	0.114
-685.310	681.037	0.020	-0.053
-684.295	-8.399	0.571	0.386
-683.281	-200.000	-0.054	0.331
-682.266	-138.953	-0.243	0.027
-681.251	-200.000	0.043	-0.377
-680.237	516.431	0.044	-0.103
-679.222	26.348	0.061	0.051
-678.208	800.000	-0.024	0.088
-677.193	138.157	0.219	-0.289
-676.178	319.818	0.102	-0.195
-675.164	-64.086	0.406	-0.166
-674.149	10.615	-0.087	0.066
-673.135	-200.000	0.008	0.200
-672.120	-200.000	-0.030	-0.435
-671.105	158.493	0.107	0.149
-670.091	-38.549	0.211	-0.112
-669.076	270.805	0.194	0.343
-668.062	659.490	0.085	0.220
-667.047	335.552	0.031	-0.060
-666.032	-54.352	-0.261	-0.119
-665.018	-67.458	-0.368	0.145
-664.003	-62.300	0.290	-0.121
-662.989	58.962	-0.142	-0.140
-661.974	263.573	-0.092	-0.160
-660.959	-125.424	-0.462	0.071
-659.945	-81.857	-0.311	0.102
-658.930	-37.180	-0.206	-0.111
-657.916	-110.454	0.286	-0.060
-656.901	-121.223	-0.327	-0.055
-655.886	-134.886	0.140	0.017
-654.872	-83.346	0.416	0.134
-653.857	-112.296	0.044	0.009
-652.843	167.116	-0.033	-0.047
-651.828	-9.196	0.044	0.030
-650.814	62.342	-0.026	-0.026
-649.799	800.000	-0.205	0.608
-648.784	134.673	-0.192	0.250
-647.770	109.445	0.140	-0.168
-646.755	5.970	-0.081	-0.060
-645.741	401.878	-0.103	-0.218
-644.726	-155.974	-0.151	0.010
-643.711	115.684	0.135	-0.166
-642.697	674.674	0.032	-0.083
-641.682	269.615	0.063	0.111
-640.668	62.695	-0.101	-0.101
-639.653	616.068	0.078	0.195
-638.638	-200.000	-0.019	-0.098
-637.624	-139.428	-0.244	0.026
-636.609	-29.847	0.188	-0.108
-635.595	-19.105	0.248	0.155
-634.580	659.774	-0.075	0.193
-633.565	800.000	0.036	-0.132
-632.551	-200.000	0.011	-0.168
-631.536	-18.579	0.097	-0.061
-630.522	-75.943	-0.123	0.044
-629.507	-67.826	-0.369	0.145
-628.492	-112.789	-0.160	0.032
-627.478	172.576	0.033	-0.047
-626.463	-99.661	-0.217	0.055
-625.449	-98.161	0.466	-0.120
-624.434	227.371	0.097	-0.158
-623.419	800.000	-0.119	0.341
-622.405	-200.000	-0.023	0.241
-621.390	-53.544	0.107	0.049
-620.376	-200.000	-0.038	0.246
-619.361	59.577	-0.249	-0.246
-618.346	-66.336	0.153	0.061
-617.332	119.210	-0.160	0.198
-616.317	-92.283	-0.317	-0.090
-615.303	800.000	0.039	-0.170
-614.288	-102.174	0.133	-0.032
-613.273	-30.935	-0.232	0.132
-612.259	-16.924	0.125	-0.079
-611.244	67.220	-0.269	-0.275
-610.230	702.777	0.076	0.202
-609.215	-54.343	-0.148	0.067
-608.201	5.147	0.092	0.068
-607.186	-71.606	0.401	-0.150
-606.171	-80.111	0.150	0.050
-605.157	15.502	-0.358	0.282
-604.142	800.000	0.075	0.213
-603.128	-200.000	-0.034	0.213
-602.113	10.105	-0.177	-0.135
-601.098	383.737	0.118	0.243
-600.084	-200.000	0.011	0.133
-599.069	-200.000	-0.004	0.039
-598.055	-38.318	0.159	-0.084
-597.040	-147.613	-0.210	0.018
-596.025	138.916	-0.144	-0.190
-595.011	44.488	-0.150	0.138
-593.996	-41.940	0.465	0.239
-592.982	-29.863	0.207	0.118
-591.967	-50.844	0.293	0.138
-590.952	74.782	-0.162	-0.171
-589.938	-200.000	-0.009	-0.110
-588.923	82.484	0.111	0.121
-587.909	-95.062	-0.299	0.081
-586.894	29.384	-0.166	-0.141
-585.879	168.899	-0.253	-0.361
-584.865	800.000	-0.033	-0.100
-583.850	-58.306	-0.047	0.020
-582.836	-200.000	-0.028	-0.236
-581.821	-119.453	-0.176	0.031
-580.806	42.062	-0.048	-0.044
-579.792	-32.553	-0.187	-0.104
-578.777	-47.016	-0.501	0.245
-577.763	-1.150	-0.162	0.114
-576.748	345.107	0.135	0.265
-575.733	508.214	-0.125	0.291
-574.719	-133.286	-0.103	0.013
-573.704	800.000	0.053	0.152
-572.690	279.315	0.090	0.161
-571.675	194.731	0.044	0.067
-570.661	-200.000	0.015	0.132
-569.646	-200.000	-0.003	0.161
-568.631	463.841	0.110	-0.247
-567.617	21.611	-0.030	0.024
-566.602	-200.000	-0.046	0.326
-565.588	-200.000	0.040	0.299
-564.573	-200.000	0.020	-0.477
-563.558	34.643	-0.027	-0.023
-562.544	-28.090	0.137	0.079
-561.529	161.574	0.132	-0.185
-560.515	49.575	-0.124	-0.117
-559.500	-143.631	-0.307	0.029
-558.485	-3.698	-0.275	-0.191
-557.471	71.605	0.239	-0.249
-556.456	10.162	0.228	0.173
-555.442	11.277	0.093	0.071
-554.427	508.450	0.141	-0.329
-553.412	82.952	-0.137	-0.150
-552.398	33.957	-0.110	-0.096
-551.383	153.559	0.200	-0.274
-550.369	-200.000	0.018	0.181
-549.354	17.517	-0.017	-0.014
-548.339	39.459	0.111	-0.099
-547.325	-64.074	0.094	0.039
-546.310	38.247	0.040	0.035
-545.296	-146.214	-0.226	0.020
-544.281	-165.408	-0.126	0.005
-543.266	-200.000	-0.003	0.052
-542.252	-200.000	-0.009	0.373
-541.237	520.444	-0.153	0.360
-540.223	-116.441	-0.468	0.086
-539.208	207.283	-0.183	0.286
-538.193	-45.784	-0.154	-0.076
-537.179	-5.791	0.174	-0.119
-536.164	101.012	-0.137	-0.159
-535.150	-200.000	0.013	-0.339
-534.135	571.914	0.144	0.351
-533.121	-182.403	-0.324	-0.006
-532.106	257.198	0.064	0.110
-531.091	-200.000	0.014	0.064
-530.077	-16.297	-0.141	-0.089
-529.062	-26.177	0.307	0.180
-528.048	145.734	-0.231	0.310
-527.033	339.570	-0.095	0.184
-526.018	-90.626	0.114	0.033
-525.004	800.000	0.048	0.160
-523.989	-200.000	0.005	-0.063
-522.975	-200.000	0.027	-0.126
-521.960	-84.663	0.206	-0.065
-520.945	349.618	0.052	0.103
-519.931	749.655	-0.100	0.270
-518.916	-4.139	-0.028	0.019
-517.902	-61.453	0.100	0.042
-516.887	800.000	-0.053	-0.227
-515.872	-115.368	0.299	0.056
-514.858	-129.565	-0.407	-0.056
-513.843	-200.000	0.067	-0.550
-512.829	-95.960	0.252	-0.067
-511.814	96.402	-0.103	0.117
-510.799	-66.552	-0.305	-0.121
-509.785	99.507	-0.174	0.201
-508.770	-200.000	-0.003	-0.202
-507.756	-200.000	0.016	0.219
-506.741	570.115	-0.071	0.173
-505.726	-200.000	0.047	0.332
-504.712	-200.000	0.014	0.102
-503.697	136.206	0.233	-0.304
-502.683	-32.005	0.108	-0.060
-501.668	-22.218	0.254	-0.154
-500.653	163.544	0.171	0.241
-499.639	-200.000	-0.004	-0.053
-498.624	92.406	-0.077	-0.087
-497.610	416.765	-0.047	-0.099
-496.595	6.818	-0.376	-0.280
-495.581	-200.000	0.033	-0.315
-494.566	59.410	0.120	0.118
-493.551	-200.000	-0.017	-0.118
-492.537	-95.851	-0.407	0.108
-491.522	-54.968	0.117	0.053
-490.508	800.000	0.072	-0.229
-489.493	145.483	0.047	-0.063
-488.478	-200.000	0.000	-0.182
-487.464	510.261	-0.074	-0.172
-486.449	625.558	0.042	-0.106
-485.435	-69.741	0.081	-0.031
-484.420	-200.000	0.047	0.243
-483.405	761.243	-0.051	-0.138
-482.391	211.063	0.151	-0.237
-481.376	-77.139	-0.463	-0.161
-480.362	211.252	-0.118	-0.185
-479.347	800.000	-0.090	0.284
-478.332	-13.247	0.021	-0.014
-477.318	800.000	-0.082	-0.280
-476.303	255.649	0.141	-0.242
-475.289	-89.723	0.403	0.118
-474.274	-113.254	0.288	-0.057
-473.259	99.517	0.052	-0.059
-472.245	-200.000	-0.033	0.283
-471.230	-135.494	0.236	0.028
-470.216	-28.816	-0.200	0.115
-469.201	-200.000	0.020	-0.227
-468.186	-200.000	-0.062	-0.350
-467.172	26.692	-0.177	0.148
-466.157	11.371	-0.268	-0.204
-465.143	-77.479	-0.112	-0.039
-464.128	-200.000	0.045	0.209
-463.113	245.888	0.021	-0.036
-462.099	46.164	0.198	-0.183
-461.084	-200.000	-0.045	-0.475
-460.070	361.646	0.042	0.085
-459.055	220.158	-0.175	-0.279
-458.040	-39.021	-0.227	-0.119
-457.026	-56.941	0.292	0.128
-456.011	-42.092	0.191	0.097
-454.997	-184.849	0.159	-0.003
-453.982	6.821	0.157	0.117
-452.968	800.000	0.123	-0.410
-451.953	-200.000	0.012	0.142
-450.938	800.000	0.053	-0.218
-449.924	-114.679	0.097	0.018
-448.909	-91.458	-0.101	-0.029
-447.895	800.000	0.055	0.155
-446.880	-76.006	0.259	0.091
-445.865	-28.665	-0.290	0.167
-444.851	-200.000	0.015	0.377
-443.836	-102.627	0.310	-0.074
-442.822	-100.268	-0.291	-0.072
-441.807	36.921	0.042	0.037
-440.792	-194.370	0.168	0.001
-439.778	-48.093	-0.146	-0.070
-438.763	68.403	0.192	0.196
-437.749	-6.806	-0.100	-0.068
-436.734	800.000	0.081	0.314
-435.719	6.604	0.155	0.115
-434.705	97.044	0.149	0.170
-433.690	35.080	-0.121	0.105
-432.676	-200.000	-0.005	0.186
-431.661	214.553	-0.106	-0.167
-430.646	-127.358	0.233	-0.034
-429.632	-170.621	-0.100	-0.003
-428.617	800.000	-0.095	-0.262
-427.603	-200.000	-0.016	0.080
-426.588	91.074	-0.194	0.217
-425.573	140.836	-0.128	0.168
-424.559	-200.000	-0.021	0.131
-423.544	-97.064	0.275	-0.072
-422.530	-6.172	0.096	0.065
-421.515	-200.000	0.042	0.265
-420.500	506.589	-0.014	-0.033
-419.486	20.351	0.178	-0.143
-418.471	67.197	-0.260	-0.264
-417.457	594.531	0.048	-0.119
-416.442	-161.692	-0.082	0.004
-415.428	-84.626	-0.090	-0.028
-414.413	2.789	-0.176	0.127
-413.398	374.124	-0.070	0.142
-412.384	-162.920	0.304	0.015
-411.369	800.000	0.044	0.124
-410.355	-3.883	-0.098	-0.068
-409.340	-55.905	0.159	-0.071
-408.325	-92.873	0.093	-0.026
-407.311	-200.000	0.014	-0.062
-406.296	-200.000	0.026	-0.185
-405.282	129.973	-0.086	0.109
-404.267	-200.000	-0.030	-0.210
-403.252	-6.540	0.174	0.118
-402.238	-90.240	0.258	-0.074
-401.223	220.365	0.119	0.190
-400.209	-200.000	0.048	-0.374
-399.194	800.000	0.060	0.231
-398.179	101.331	0.189	0.219
-397.165	800.000	0.050	0.178
-396.150	-102.067	0.145	-0.035
-395.136	-56.273	0.221	0.098
-394.121	100.036	-0.163	0.188
-393.106	-101.978	0.311	-0.075
-392.092	800.000	-0.055	0.181
-391.077	-200.000	0.057	0.409
-390.063	230.657	-0.057	-0.093
-389.048	-200.000	0.048	-0.306
-388.033	128.606	-0.077	0.098
-387.019	-55.688	0.107	0.047
-386.004	3.853	0.182	-0.132
-384.990	-22.645	0.148	0.089
-383.975	243.849	0.167	-0.279
-382.960	78.416	-0.188	0.199
-381.946	0.557	-0.161	0.114
-380.931	121.305	0.213	-0.263
-379.917	-19.924	0.117	0.072
-378.902	-101.876	-0.108	-0.026
-377.888	-180.130	0.162	-0.003
-376.873	372.768	-0.027	-0.055
-375.858	-200.000	0.016	-0.261
-374.844	-0.917	0.042	-0.029
-373.829	-200.000	0.017	0.407
-372.815	-60.225	-0.333	0.141
-371.800	323.272	0.148	-0.280
-370.785	67.581	0.263	-0.266
-369.771	-200.000	-0.021	-0.197
-368.756	81.140	-0.084	0.090
-367.742	-48.550	0.121	-0.058
-366.727	56.045	0.093	-0.089
-365.712	455.693	-0.056	-0.124
-364.698	-70.672	-0.186	0.070
-363.683	-90.905	-0.216	-0.062
-362.669	334.924	-0.030	0.057
-361.654	75.997	-0.339	-0.356
-360.639	595.610	0.074	0.182
-359.625	237.720	0.092	0.152
-358.610	-200.000	-0.012	-0.359
-357.596	-133.028	0.055	0.007
-356.581	-200.000	-0.021	-0.165
-355.566	137.624	0.099	0.128
-354.552	92.586	0.157	0.176
-353.537	-200.000	-0.071	0.335
-352.523	-129.100	0.096	0.013
-351.508	800.000	0.071	0.306
-350.493	-161.843	-0.122	-0.006
-349.479	-200.000	0.004	-0.147
-348.464	602.939	0.075	-0.184
-347.450	-106.133	-0.360	0.080
-346.435	800.000	0.079	-0.240
-345.420	-106.792	0.166	-0.037
-344.406	800.000	0.088	-0.306
-343.391	-151.240	-0.346	-0.026
-342.377	47.254	0.031	-0.028
-341.362	-200.000	-0.029	0.355
-340.348	-71.821	-0.332	-0.123
-339.333	8.761	0.120	-0.089
-338.318	-200.000	0.003	0.257
-337.304	-45.363	0.071	-0.035
-336.289	-20.939	-0.012	-0.007
-335.275	336.140	-0.143	0.276
-334.260	-153.493	0.202	0.014
-333.245	-130.827	-0.311	-0.041
-332.231	267.875	-0.058	-0.100
-331.216	-121.843	-0.088	0.014
-330.202	-166.750	0.095	-0.004
-329.187	-95.560	0.189	-0.050
-328.172	-29.083	-0.145	0.082
-327.158	206.584	-0.110	-0.170
-326.143	-30.779	0.102	-0.057
-325.129	486.366	0.087	0.197
-324.114	-200.000	0.012	-0.096
-323.099	800.000	0.070	-0.292
-322.085	186.938	-0.186	0.275
-321.070	35.206	-0.238	-0.207
-320.056	339.012	-0.185	-0.358
-319.041	-200.000	0.003	-0.065
-318.026	-44.188	0.388	0.193
-317.012	118.886	-0.259	0.317
-315.997	39.089	0.358	-0.317
-314.983	800.000	-0.042	-0.126
-313.968	-59.673	0.088	0.037
-312.953	-140.668	-0.590	-0.061
-311.939	102.481	0.011	0.013
-310.924	-177.483	0.067	-0.002
-309.910	645.341	0.145	0.367
-308.895	-200.000	-0.046	-0.286
-307.880	263.402	-0.129	-0.222
-306.866	1.129	-0.126	0.090
-305.851	-200.000	0.018	-0.129
-304.837	-189.175	0.341	0.004
-303.822	800.000	0.021	0.071
-302.807	800.000	-0.102	0.368
-301.793	-200.000	-0.003	0.029
-300.778	-13.578	0.267	0.171
-299.764	-61.614	-0.316	-0.131
-298.749	-46.719	0.356	0.173
-297.735	261.075	0.143	-0.245
-296.720	-136.002	0.294	-0.034
-295.705	-94.163	-0.490	0.133
-294.691	-85.827	-0.169	-0.052
-293.676	-200.000	-0.002	0.147
-292.662	-2.005	0.076	-0.053
-291.647	-200.000	0.074	-0.344
-290.632	-200.000	-0.011	-0.225
-289.618	130.047	0.285	0.361
-288.603	57.941	0.084	0.081
-287.589	-37.515	-0.271	0.143
-286.574	-29.361	-0.184	0.104
-285.559	427.162	0.116	-0.249
-284.545	-121.323	-0.049	0.008
-283.530	145.897	0.080	-0.106
-282.516	-200.000	-0.009	0.175
-281.501	800.000	0.087	0.309
-280.486	251.955	0.083	-0.139
-279.472	-82.507	-0.287	-0.092
-278.457	-131.766	0.242	-0.031
-277.443	66.740	-0.229	0.231
-276.428	-200.000	0.020	0.296
-275.413	-200.000	0.023	-0.109
-274.399	-100.127	-0.409	-0.101
-273.384	-79.686	0.366	-0.122
-272.370	800.000	0.098	-0.314
-271.355	291.522	0.046	-0.083
-270.340	736.714	0.066	0.174
-269.326	-24.763	-0.184	-0.108
-268.311	-93.328	-0.411	0.113
-267.297	54.160	-0.207	-0.197
-266.282	-38.386	0.314	-0.164
-265.267	36.301	0.136	0.118
-264.253	-115.897	0.103	0.019
-263.238	61.182	0.073	-0.072
-262.224	-148.580	0.213	0.017
-261.209	800.000	0.028	0.080
-260.195	221.540	0.047	-0.075
-259.180	85.980	0.265	0.289
-258.165	761.883	0.086	0.230
-257.151	800.000	-0.054	-0.148
-256.136	800.000	-0.082	0.235
-255.122	-45.054	-0.298	0.147
-254.107	800.000	-0.030	-0.099
-253.092	-34.579	0.255	-0.138
-252.078	3.227	-0.288	-0.207
-251.063	800.000	-0.023	0.080
-250.049	800.000	-0.162	0.487
-249.034	-161.393	-0.338	-0.017
-248.019	800.000	0.011	0.041
-247.005	800.000	0.035	-0.107
-245.990	-112.828	-0.240	0.047
-244.976	345.701	0.088	0.171
-243.961	800.000	-0.007	-0.023
-242.946	456.799	-0.155	-0.340
-241.932	800.000	0.050	-0.209
-240.917	98.438	-0.101	-0.115
-239.903	-200.000	-0.008	0.123
-238.888	-26.271	-0.156	-0.091
-237.873	23.389	0.075	-0.061
-236.859	-28.147	-0.092	0.053
-235.844	-128.561	-0.245	-0.034
-234.830	-200.000	-0.006	-0.204
-233.815	100.958	0.402	0.462
-232.800	-200.000	-0.015	0.137
-231.786	-40.406	0.164	-0.084
-230.771	-44.808	-0.212	-0.104
-229.757	121.593	0.063	-0.077
-228.742	-17.243	0.327	0.203
-227.727	-200.000	-0.022	0.384
-226.713	-200.000	-0.080	0.348
-225.698	-42.326	-0.372	0.187
-224.684	-133.947	0.324	-0.040
-223.669	-101.149	-0.212	-0.051
-222.655	606.989	-0.093	-0.230
-221.640	-169.417	-0.283	0.010
-220.625	-200.000	-0.019	0.189
-219.611	-200.000	0.015	0.213
-218.596	113.277	0.126	-0.151
-217.582	-16.399	-0.083	0.052
-216.567	-200.000	-0.046	-0.423
-215.552	7.089	0.178	0.131
-214.538	163.634	-0.152	0.211
-213.523	-0.027	-0.097	0.068
-212.509	-42.416	-0.288	0.145
-211.494	-200.000	0.003	0.137
-210.479	263.734	-0.193	0.331
-209.465	228.365	-0.112	-0.180
-208.450	183.546	0.186	-0.272
-207.436	-200.000	-0.061	-0.326
-206.421	377.815	0.081	0.164
-205.406	-200.000	-0.032	-0.168
-204.392	113.713	-0.108	0.129
-203.377	-14.938	0.278	0.176
-202.363	800.000	-0.113	0.312
-201.348	155.740	0.208	-0.283
-200.333	124.516	-0.171	0.213
-199.319	-60.620	0.308	0.129
-198.304	-111.497	-0.264	0.053
-197.290	-200.000	-0.054	-0.358
-196.275	-88.580	0.179	-0.053
-195.260	-169.400	0.278	-0.010
-194.246	-200.000	0.041	0.231
-193.231	-45.281	-0.160	0.078
-192.217	-200.000	-0.004	-0.138
-191.202	800.000	-0.069	-0.266
-190.187	0.948	0.182	0.129
-189.173	0.738	0.231	0.163
-188.158	302.641	0.073	-0.133
-187.144	192.897	0.063	-0.093
-186.129	68.903	-0.149	0.151
-185.114	14.801	-0.281	-0.217
-184.100	-13.553	0.191	-0.122
-183.085	-30.599	-0.134	0.075
-182.071	-87.789	0.538	-0.160
-181.056	-200.000	0.033	-0.340
-180.042	-61.460	0.184	0.076
-179.027	800.000	-0.076	0.247
-178.012	-200.000	0.017	-0.155
-176.998	34.522	0.165	0.142
-175.983	-200.000	-0.078	0.401
-174.969	-7.877	-0.168	-0.112
-173.954	213.571	-0.095	-0.148
-172.939	-76.059	0.509	-0.177
-171.925	53.179	0.118	-0.111
-170.910	6.873	0.215	0.158
-169.896	329.793	-0.079	-0.150
-168.881	-34.393	0.265	0.143
-167.866	800.000	-0.064	-0.211
-166.852	-200.000	0.032	-0.165
-165.837	71.545	0.252	-0.257
-164.823	-100.520	-0.256	-0.062
-163.808	-200.000	-0.066	-0.371
-162.793	209.582	-0.035	0.054
-161.779	716.077	-0.033	0.086
-160.764	-200.000	0.023	-0.199
-159.750	2.087	-0.245	-0.174
-158.735	192.571	0.254	-0.377
-157.720	258.660	0.083	-0.141
-156.706	6.638	-0.143	-0.105
-155.691	114.801	0.155	-0.187
-154.677	44.510	0.244	-0.221
-153.662	800.000	0.068	0.211
-152.647	-56.184	0.209	0.092
-151.633	-139.110	0.148	-0.016
-150.618	-20.697	0.158	0.095
-149.604	-134.533	-0.074	0.009
-148.589	97.450	-0.084	-0.096
-147.574	-200.000	0.043	0.208
-146.560	-200.000	0.013	-0.081
-145.545	-100.885	0.031	-0.007
-144.531	-98.975	-0.324	0.081
-143.516	-4.444	0.403	-0.274
-142.502	-64.156	-0.217	0.087
-141.487	-142.538	0.226	-0.022
-140.472	41.153	0.362	0.322
-139.458	-61.777	-0.135	-0.056
-138.443	-200.000	-0.041	-0.402
-137.429	496.631	0.067	-0.152
-136.414	-19.601	-0.511	0.311
-135.399	432.134	0.140	-0.299
-134.385	235.491	-0.141	-0.228
-133.370	31.003	-0.092	-0.077
-132.356	288.822	0.221	-0.393
-131.341	800.000	-0.023	-0.073
-130.326	-78.197	0.044	-0.015
-129.312	156.827	0.072	0.097
-128.297	620.515	0.107	-0.264
-127.283	193.785	0.075	0.112
-126.268	800.000	-0.020	-0.068
-125.253	-152.004	-0.233	0.017
-124.239	-200.000	-0.018	-0.163
-123.224	-200.000	0.030	-0.187
-122.210	-132.701	0.270	0.034
-121.195	379.648	-0.206	0.415
