DTS Sentinel unit serial number:	SN413079Multiplexer serial number:	ORYXHardware model number:	OX4-SRSoftware version number:	ORYX F/W v4.00 Oryx Data Collector v3.7.2.0data status	okinstallation	princeton_trtdifferential loss correction	single-endedforward channel	channel 2reverse channel	N/Adate	2019/09/19time	11:15:35forward acquisition time	60.00reverse acquisition time	0.00gamma	496.2192k internal	0.2341k external	0.2341temperature offset calibration	1.0011default loss term (dB/km)	0.3790temperature slope calibration	1.0000multiplexer offset coefficient	1.0000multiplexer slope coefficient	1.0000fibre end	0.00T internal ref (°C)	25.12T ext. ref 1 (°C)	0.77T ext. ref 2 (°C)	20.65length (m)	temperature (°C)	Stokes	anti-Stokes-747.200	72.201	-0.130	-0.136
-746.185	-111.819	-0.130	-0.026
-745.171	191.732	0.215	0.324
-744.156	-200.000	-0.074	0.367
-743.142	160.764	0.037	0.052
-742.127	59.150	0.325	0.320
-741.112	800.000	0.048	0.137
-740.098	730.261	-0.065	0.175
-739.083	154.345	0.176	0.242
-738.069	183.963	-0.186	0.276
-737.054	17.842	-0.050	-0.040
-736.039	-45.939	-0.274	-0.135
-735.025	28.457	0.182	-0.154
-734.010	800.000	-0.089	-0.342
-732.996	256.224	0.158	-0.272
-731.981	72.252	-0.130	0.136
-730.966	673.577	-0.062	-0.161
-729.952	19.422	-0.074	0.059
-728.937	182.708	-0.148	0.219
-727.923	800.000	-0.025	0.103
-726.908	-200.000	-0.025	-0.184
-725.894	137.038	0.116	-0.151
-724.879	-124.681	-0.261	-0.041
-723.864	-131.050	0.252	0.034
-722.850	-120.086	-0.173	0.030
-721.835	97.353	0.073	0.083
-720.821	483.257	0.127	-0.288
-719.806	188.939	-0.094	-0.141
-718.791	83.679	-0.087	0.095
-717.777	-96.527	-0.074	-0.020
-716.762	-19.255	-0.135	0.084
-715.748	232.462	0.246	-0.404
-714.733	-200.000	0.046	-0.320
-713.718	192.131	-0.217	-0.328
-712.704	800.000	-0.069	-0.222
-711.689	-23.567	0.142	-0.085
-710.675	229.938	0.156	0.255
-709.660	-6.217	-0.277	0.189
-708.645	86.766	-0.153	0.169
-707.631	598.666	0.082	0.203
-706.616	-85.075	-0.127	0.040
-705.602	24.362	0.076	0.063
-704.587	-60.723	0.057	0.024
-703.572	-13.804	0.142	-0.092
-702.558	382.846	-0.202	0.417
-701.543	-200.000	0.012	-0.239
-700.529	-52.164	0.061	-0.028
-699.514	-108.448	0.040	-0.009
-698.499	-200.000	0.032	0.145
-697.485	143.655	0.104	-0.138
-696.470	-200.000	-0.000	-0.132
-695.456	-119.687	0.092	0.016
-694.441	67.506	0.120	-0.123
-693.426	-19.875	0.152	0.094
-692.412	800.000	0.045	0.139
-691.397	-128.855	0.248	-0.035
-690.383	-118.590	-0.258	-0.046
-689.368	800.000	0.024	0.081
-688.354	-200.000	-0.005	0.245
-687.339	800.000	0.009	0.034
-686.324	-17.067	-0.315	-0.199
-685.310	-112.505	0.201	0.040
-684.295	159.315	-0.114	0.158
-683.281	453.043	0.055	0.122
-682.266	800.000	-0.063	-0.181
-681.251	39.219	-0.012	-0.010
-680.237	445.009	0.068	0.149
-679.222	84.274	0.228	-0.249
-678.208	800.000	0.005	0.021
-677.193	-200.000	0.000	-0.143
-676.178	-65.838	-0.172	0.069
-675.164	255.468	0.094	-0.162
-674.149	-8.214	0.224	0.151
-673.135	371.717	-0.099	-0.201
-672.120	31.872	0.069	0.059
-671.105	178.349	0.083	0.121
-670.091	800.000	-0.032	-0.090
-669.076	-110.365	0.323	0.067
-668.062	800.000	-0.040	-0.166
-667.047	-45.253	-0.118	-0.059
-666.032	-49.017	0.195	0.093
-665.018	-200.000	-0.009	-0.051
-664.003	448.015	-0.122	-0.268
-662.989	101.412	-0.197	0.229
-661.974	4.069	-0.198	0.145
-660.959	-129.118	0.509	-0.071
-659.945	-39.260	-0.292	-0.153
-658.930	800.000	0.103	-0.314
-657.916	-14.093	0.130	-0.084
-656.901	-0.956	0.265	-0.187
-655.886	-103.050	0.136	-0.032
-654.872	15.204	0.204	-0.160
-653.857	-88.618	0.245	0.073
-652.843	119.207	0.209	0.259
-651.828	420.786	-0.109	-0.234
-650.814	172.915	-0.202	0.290
-649.799	-128.611	-0.193	0.027
-648.784	-44.110	-0.222	0.111
-647.770	46.702	0.048	0.044
-646.755	11.225	-0.127	0.097
-645.741	-123.605	0.193	0.031
-644.726	-91.576	-0.449	0.128
-643.711	55.455	-0.032	0.031
-642.697	67.441	-0.126	0.129
-641.682	-152.868	-0.140	0.010
-640.668	-29.104	0.097	-0.056
-639.653	85.224	0.042	-0.046
-638.638	-200.000	0.048	0.342
-637.624	-200.000	-0.048	0.264
-636.609	326.727	-0.112	0.215
-635.595	-200.000	0.005	0.107
-634.580	-200.000	0.006	0.076
-633.565	8.365	-0.248	0.186
-632.551	286.412	-0.031	-0.056
-631.536	55.604	0.061	-0.059
-630.522	-68.399	-0.150	0.058
-629.507	800.000	-0.077	-0.278
-628.492	37.799	-0.058	-0.051
-627.478	-200.000	-0.051	-0.250
-626.463	-10.151	0.116	0.077
-625.449	-200.000	-0.015	-0.150
-624.434	534.013	0.049	0.115
-623.419	800.000	0.046	0.180
-622.405	-27.971	0.084	0.049
-621.390	-159.017	-0.180	0.010
-620.376	-200.000	0.015	0.410
-619.361	107.969	-0.043	-0.051
-618.346	-200.000	-0.028	0.148
-617.332	800.000	-0.070	-0.193
-616.317	-182.368	-0.227	-0.004
-615.303	-146.111	-0.126	0.011
-614.288	40.160	0.129	0.115
-613.273	377.561	-0.096	-0.196
-612.259	-168.358	0.092	0.004
-611.244	23.635	0.242	0.199
-610.230	502.747	-0.082	0.189
-609.215	800.000	-0.124	0.361
-608.201	-200.000	-0.015	-0.105
-607.186	-129.470	-0.494	0.068
-606.171	-23.449	-0.140	0.084
-605.157	747.584	0.071	0.190
-604.142	86.099	-0.287	-0.315
-603.128	-137.814	0.232	0.026
-602.113	-200.000	0.007	-0.053
-601.098	625.252	0.087	-0.219
-600.084	-200.000	0.032	0.203
-599.069	800.000	0.047	0.164
-598.055	-105.229	-0.196	-0.045
-597.040	-138.655	-0.217	-0.024
-596.025	54.233	-0.356	-0.341
-595.011	-200.000	0.047	-0.218
-593.996	-8.032	-0.056	-0.037
-592.982	-19.633	0.230	0.142
-591.967	-62.052	0.285	-0.119
-590.952	112.865	0.231	-0.279
-589.938	117.163	-0.118	-0.144
-588.923	248.988	-0.172	0.290
-587.909	-126.974	0.269	0.039
-586.894	-119.703	0.427	-0.073
-585.879	-200.000	-0.025	-0.414
-584.865	-200.000	-0.017	0.165
-583.850	-200.000	0.022	-0.190
-582.836	-186.941	-0.530	-0.007
-581.821	160.651	0.086	0.120
-580.806	-5.548	-0.190	-0.130
-579.792	-51.909	0.234	0.108
-578.777	-200.000	0.000	-0.016
-577.763	67.008	-0.243	-0.246
-576.748	-11.831	-0.213	-0.139
-575.733	104.249	-0.249	0.292
-574.719	14.556	0.184	0.143
-573.704	22.429	-0.045	0.037
-572.690	-76.794	-0.210	-0.073
-571.675	-106.284	0.081	-0.018
-570.661	-200.000	0.074	0.371
-569.646	21.354	0.079	-0.064
-568.631	135.919	-0.146	0.190
-567.617	-200.000	-0.010	0.091
-566.602	-121.599	0.158	0.026
-565.588	413.205	-0.037	-0.079
-564.573	59.422	-0.066	-0.064
-563.558	-62.174	-0.478	0.199
-562.544	202.596	-0.041	-0.063
-561.529	47.203	0.059	-0.054
-560.515	178.199	0.087	0.126
-559.500	-56.342	-0.255	0.113
-558.485	27.526	0.216	0.181
-557.471	25.155	0.067	-0.055
-556.456	-200.000	0.553	0.001
-555.442	260.956	-0.079	-0.136
-554.427	-59.467	-0.172	0.074
-553.412	66.168	0.208	-0.210
-552.398	-37.738	0.033	0.017
-551.383	346.171	0.090	-0.176
-550.369	5.886	0.185	0.136
-549.354	-129.085	-0.276	0.038
-548.339	-44.323	-0.139	-0.069
-547.325	800.000	0.089	0.340
-546.310	-95.021	-0.037	0.010
-545.296	800.000	-0.099	-0.303
-544.281	-200.000	0.029	-0.216
-543.266	82.899	0.106	-0.114
-542.252	2.470	0.206	-0.148
-541.237	-152.175	0.303	-0.022
-540.223	-58.783	-0.021	0.009
-539.208	-173.462	0.224	-0.007
-538.193	-139.983	0.292	-0.031
-537.179	-46.195	-0.332	-0.162
-536.164	89.484	0.122	-0.135
-535.150	567.189	-0.077	-0.186
-534.135	800.000	-0.037	0.103
-533.121	-6.707	-0.186	-0.126
-532.106	800.000	0.046	0.148
-531.091	-60.626	-0.162	-0.068
-530.077	538.145	0.123	0.289
-529.062	-0.016	0.203	-0.143
-528.048	179.870	-0.101	0.147
-527.033	-200.000	0.041	-0.254
-526.018	-156.892	0.184	0.011
-525.004	282.449	0.128	-0.228
-523.989	13.834	-0.052	0.040
-522.975	-108.837	-0.331	0.070
-521.960	-53.826	-0.228	-0.103
-520.945	631.474	0.040	-0.101
-519.931	106.495	0.088	-0.103
-518.916	234.386	-0.142	-0.233
-517.902	29.409	0.057	0.048
-516.887	15.460	-0.134	-0.105
-515.872	198.026	0.086	-0.131
-514.858	-41.218	0.181	-0.093
-513.843	-107.289	-0.400	0.087
-512.829	-64.745	-0.216	-0.087
-511.814	240.643	0.072	-0.119
-510.799	800.000	0.029	-0.096
-509.785	-200.000	0.006	-0.683
-508.770	-68.475	-0.164	0.063
-507.756	800.000	0.034	0.104
-506.741	255.353	0.037	0.063
-505.726	225.898	0.099	0.159
-504.712	-140.777	-0.107	0.011
-503.697	144.500	-0.158	-0.209
-502.683	800.000	-0.074	-0.265
-501.668	41.946	0.049	0.044
-500.653	-200.000	0.055	0.343
-499.639	60.230	-0.027	0.026
-498.624	185.681	-0.024	-0.035
-497.610	148.028	-0.085	-0.113
-496.595	-36.638	-0.128	-0.068
-495.581	448.133	0.125	-0.272
-494.566	800.000	-0.062	-0.231
-493.551	13.469	0.193	-0.149
-492.537	-91.989	-0.223	-0.063
-491.522	84.185	-0.083	-0.090
-490.508	-102.526	0.322	0.076
-489.493	800.000	-0.013	-0.050
-488.478	217.334	-0.103	-0.162
-487.464	-60.824	-0.092	0.039
-486.449	-88.066	-0.325	-0.097
-485.435	3.354	0.175	0.126
-484.420	800.000	-0.103	0.308
-483.405	234.249	-0.145	-0.237
-482.391	-65.445	-0.168	0.067
-481.376	-200.000	0.009	-0.115
-480.362	484.236	-0.090	0.204
-479.347	-200.000	-0.028	0.143
-478.332	45.000	0.243	0.222
-477.318	94.710	-0.078	-0.088
-476.303	283.071	-0.133	-0.236
-475.289	-59.953	-0.072	-0.031
-474.274	-11.128	0.346	0.226
-473.259	-102.799	0.063	0.015
-472.245	541.610	-0.105	0.248
-471.230	-69.936	0.226	-0.085
-470.216	-95.832	0.118	-0.031
-469.201	-13.533	-0.106	-0.068
-468.186	-19.222	0.228	0.140
-467.172	-200.000	0.007	-0.048
-466.157	79.736	0.289	-0.307
-465.143	-200.000	-0.028	0.180
-464.128	-13.691	0.262	0.168
-463.113	115.012	-0.331	-0.401
-462.099	-124.928	-0.622	-0.095
-461.084	21.580	-0.107	0.087
-460.070	-27.745	0.194	0.111
-459.055	213.122	-0.139	-0.217
-458.040	366.084	0.130	-0.260
-457.026	-69.590	0.359	0.136
-456.011	-200.000	0.019	0.352
-454.997	-65.155	0.169	-0.067
-453.982	-107.744	-0.209	-0.045
-452.968	-1.288	0.189	0.132
-451.953	290.830	0.096	0.172
-450.938	-52.767	-0.244	-0.112
-449.924	-183.697	0.269	0.005
-448.909	116.160	-0.093	-0.113
-447.895	177.500	-0.118	-0.170
-446.880	-50.625	-0.198	0.092
-445.865	108.209	0.146	0.173
-444.851	800.000	-0.152	0.599
-443.836	-200.000	-0.013	0.229
-442.822	219.454	-0.219	0.347
-441.807	162.917	-0.302	0.421
-440.792	-55.260	0.572	0.255
-439.778	70.106	0.181	0.185
-438.763	130.302	0.331	-0.420
-437.749	-134.359	-0.183	-0.022
-436.734	-109.037	-0.284	-0.060
-435.719	156.961	-0.083	-0.114
-434.705	800.000	-0.072	0.210
-433.690	-200.000	0.000	-0.159
-432.676	-127.149	0.314	0.045
-431.661	353.801	0.029	-0.057
-430.646	-105.584	-0.493	0.111
-429.632	101.745	0.013	-0.015
-428.617	-110.675	-0.170	0.035
-427.603	-69.283	-0.206	0.078
-426.588	160.233	-0.089	-0.123
-425.573	-200.000	0.004	0.064
-424.559	800.000	0.031	-0.101
-423.544	21.503	0.123	-0.099
-422.530	300.126	-0.045	-0.083
-421.515	53.881	0.016	-0.015
-420.500	-54.110	0.242	0.109
-419.486	-200.000	0.040	0.202
-418.471	404.903	0.044	0.092
-417.457	-7.353	-0.109	0.073
-416.442	-200.000	0.000	0.196
-415.428	-72.034	0.117	-0.043
-414.413	124.838	-0.140	-0.174
-413.398	800.000	0.092	-0.271
-412.384	103.623	0.165	-0.191
-411.369	-164.693	-0.338	0.015
-410.355	-100.074	0.249	0.061
-409.340	207.047	0.057	-0.087
-408.325	495.095	-0.119	-0.271
-407.311	216.803	0.124	-0.195
-406.296	135.440	0.198	0.255
-405.282	-200.000	-0.052	-0.406
-404.267	-101.965	-0.235	0.056
-403.252	-62.171	0.413	-0.170
-402.238	-40.874	-0.142	0.073
-401.223	350.689	-0.097	-0.190
-400.209	-173.965	0.283	0.008
-399.194	-95.985	0.150	0.039
-398.179	-91.998	-0.252	0.071
-397.165	-44.872	-0.084	0.041
-396.150	-200.000	0.040	0.185
-395.136	-59.443	-0.418	0.177
-394.121	-200.000	0.018	0.093
-393.106	800.000	0.067	0.265
-392.092	8.171	-0.228	-0.169
-391.077	49.365	-0.131	0.122
-390.063	204.404	-0.108	-0.166
-389.048	-115.882	0.221	0.041
-388.033	7.617	-0.322	-0.238
-387.019	-200.000	0.030	-0.319
-386.004	217.766	-0.106	0.167
-384.990	-27.194	-0.223	-0.128
-383.975	-56.419	-0.115	-0.050
-382.960	417.464	0.045	-0.094
-381.946	38.728	0.207	0.182
-380.931	-200.000	0.028	0.201
-379.917	-64.950	0.275	0.110
-378.902	-86.162	-0.065	0.020
-377.888	438.891	-0.124	-0.267
-376.873	-122.178	0.167	0.027
-375.858	-200.000	-0.009	0.326
-374.844	7.191	-0.159	-0.117
-373.829	298.467	-0.097	0.177
-372.815	497.513	-0.063	0.144
-371.800	800.000	0.033	0.103
-370.785	800.000	0.043	-0.146
-369.771	800.000	-0.010	0.036
-368.756	255.160	-0.146	-0.247
-367.742	107.656	0.161	0.189
-366.727	-200.000	0.058	0.317
-365.712	-200.000	-0.002	0.121
-364.698	92.641	0.071	-0.079
-363.683	265.409	-0.112	-0.192
-362.669	-87.242	0.359	0.108
-361.654	-200.000	0.004	0.191
-360.639	4.374	0.356	0.258
-359.625	-200.000	0.002	0.246
-358.610	-161.735	0.160	-0.008
-357.596	204.132	0.182	-0.279
-356.581	-54.913	-0.313	-0.139
-355.566	800.000	-0.129	-0.396
-354.552	257.391	-0.191	-0.324
-353.537	-9.925	-0.131	0.086
-352.523	139.654	-0.161	0.210
-351.508	48.864	-0.177	0.164
-350.493	48.387	0.096	-0.089
-349.479	560.255	-0.104	-0.248
-348.464	-200.000	-0.028	0.262
-347.450	-53.792	-0.139	-0.062
-346.435	288.665	0.061	0.109
-345.420	-200.000	0.027	-0.155
-344.406	41.213	0.127	0.113
-343.391	-200.000	0.018	0.132
-342.377	266.164	0.169	0.290
-341.362	28.859	-0.263	0.220
-340.348	-108.359	0.276	0.059
-339.333	-190.363	0.201	0.002
-338.318	346.139	0.107	-0.208
-337.304	800.000	-0.076	0.321
-336.289	-29.695	0.356	0.200
-335.275	-29.084	0.061	0.034
-334.260	-59.068	-0.247	0.105
-333.245	291.185	-0.024	-0.043
-332.231	9.035	-0.232	0.172
-331.216	-200.000	-0.060	0.282
-330.202	800.000	0.053	0.162
-329.187	267.984	-0.066	0.114
-328.172	-136.851	0.501	0.057
-327.158	800.000	0.049	0.181
-326.143	-147.726	-0.071	0.006
-325.129	-184.169	0.278	0.005
-324.114	-200.000	0.024	-0.113
-323.099	289.268	-0.091	0.162
-322.085	-134.506	0.200	-0.024
-321.070	2.258	0.249	-0.177
-320.056	-90.083	0.199	0.057
-319.041	81.374	-0.380	0.405
-318.026	800.000	0.068	-0.285
-317.012	463.465	-0.142	-0.313
-315.997	-103.317	-0.217	-0.050
-314.983	13.577	-0.149	-0.114
-313.968	50.427	0.226	-0.211
-312.953	603.351	-0.038	-0.092
-311.939	-200.000	0.026	-0.140
-310.924	-148.722	0.314	-0.025
-309.910	555.341	-0.105	0.249
-308.895	-51.204	-0.262	0.121
-307.880	-105.268	0.166	-0.037
-306.866	81.340	0.228	0.243
-305.851	352.159	0.060	0.116
-304.837	800.000	-0.151	0.437
-303.822	123.089	-0.066	-0.081
-302.807	-92.167	-0.210	0.058
-301.793	-78.861	-0.176	-0.059
-300.778	-137.278	-0.095	0.011
-299.764	-71.981	0.334	-0.122
-298.749	-74.982	0.190	-0.067
-297.735	-33.794	-0.137	0.074
-296.720	364.604	-0.168	-0.333
-295.705	-200.000	0.065	-0.344
-294.691	310.829	-0.127	0.235
-293.676	-71.479	0.054	-0.020
-292.662	-67.125	0.043	-0.017
-291.647	-200.000	-0.030	-0.134
-290.632	179.732	-0.109	-0.157
-289.618	-40.740	0.273	-0.139
-288.603	-200.000	0.026	-0.429
-287.589	6.415	0.262	0.192
-286.574	152.949	-0.052	0.070
-285.559	467.358	-0.120	-0.264
-284.545	-200.000	-0.013	0.071
-283.530	-108.290	-0.155	0.033
-282.516	-48.897	-0.269	-0.127
-281.501	-200.000	0.004	0.141
-280.486	-200.000	0.275	0.001
-279.472	316.620	-0.061	0.114
-278.457	-173.234	0.495	-0.015
-277.443	133.509	-0.098	-0.125
-276.428	-200.000	-0.011	-0.256
-275.413	-200.000	0.016	-0.173
-274.399	617.704	-0.025	0.062
-273.384	136.597	0.228	0.292
-272.370	800.000	0.065	-0.212
-271.355	-24.829	0.114	-0.067
-270.340	-5.695	0.240	0.162
-269.326	800.000	-0.009	0.037
-268.311	31.194	-0.173	-0.146
-267.297	-33.670	0.286	-0.155
-266.282	152.155	-0.036	0.048
-265.267	800.000	-0.069	0.284
-264.253	-104.023	0.092	-0.021
-263.238	300.274	0.124	-0.225
-262.224	-32.419	-0.186	-0.102
-261.209	393.073	-0.097	-0.198
-260.195	321.057	-0.017	-0.033
-259.180	-200.000	-0.016	0.174
-258.165	58.794	-0.055	-0.053
-257.151	-200.000	0.008	0.123
-256.136	134.397	-0.220	0.281
-255.122	-22.446	-0.221	-0.132
-254.107	-200.000	-0.009	-0.240
-253.092	128.637	0.124	0.156
-252.078	-51.032	0.274	0.126
-251.063	-200.000	-0.055	0.421
-250.049	-102.907	-0.163	0.038
-249.034	125.131	-0.125	-0.155
-248.019	-38.934	0.105	0.055
-247.005	169.896	-0.121	-0.171
-245.990	98.590	-0.081	-0.091
-244.976	58.648	0.063	0.061
-243.961	327.923	-0.150	-0.284
-242.946	-200.000	-0.230	0.001
-241.932	-200.000	0.050	-0.318
-240.917	-200.000	-0.033	-0.347
-239.903	288.304	0.044	0.078
-238.888	44.031	-0.127	0.114
-237.873	-158.839	0.247	-0.014
-236.859	-69.913	-0.024	-0.009
-235.844	-64.794	0.258	0.103
-234.830	-108.029	0.211	0.045
-233.815	-200.000	0.045	-0.209
-232.800	-11.709	0.226	0.146
-231.786	-123.119	-0.017	0.003
-230.771	-83.014	0.310	0.098
-229.757	337.205	-0.144	-0.275
-228.742	-200.000	-0.012	-0.199
-227.727	308.909	0.129	-0.237
-226.713	-118.092	-0.300	0.053
-225.698	-132.085	-0.021	-0.003
-224.684	-3.977	-0.071	-0.049
-223.669	800.000	0.035	0.105
-222.655	-19.503	0.307	-0.187
-221.640	-25.864	-0.181	0.105
-220.625	85.907	0.090	-0.097
-219.611	-200.000	-0.045	0.194
-218.596	-105.236	0.172	-0.038
-217.582	-200.000	0.002	0.148
-216.567	781.964	0.057	-0.152
-215.552	-130.595	-0.353	-0.047
-214.538	-122.665	-0.347	-0.055
-213.523	4.462	0.316	-0.228
-212.509	302.384	0.032	0.059
-211.494	311.204	-0.157	0.288
-210.479	-2.903	0.219	0.150
-209.465	6.355	-0.148	0.108
-208.450	800.000	0.028	0.117
-207.436	-5.974	0.235	-0.158
-206.421	289.258	-0.102	0.181
-205.406	-184.657	0.429	0.007
-204.392	42.489	-0.127	0.113
-203.377	800.000	-0.065	-0.262
-202.363	-156.726	0.184	-0.011
-201.348	44.812	-0.056	-0.050
-200.333	371.674	0.142	0.282
-199.319	800.000	0.033	-0.116
-198.304	442.693	0.090	-0.193
-197.290	800.000	0.079	-0.221
-196.275	-104.036	0.262	-0.060
-195.260	-39.776	0.088	0.045
-194.246	512.900	-0.186	0.426
-193.231	-64.208	0.364	-0.146
-192.217	-119.646	0.275	-0.047
-191.202	-8.951	0.194	-0.127
-190.187	194.351	-0.207	-0.308
-189.173	800.000	0.043	0.125
-188.158	-200.000	-0.014	0.232
-187.144	-103.824	-0.085	-0.019
-186.129	176.809	0.049	0.070
-185.114	32.039	-0.169	0.143
-184.100	-79.865	0.241	-0.079
-183.085	346.778	-0.081	-0.156
-182.071	800.000	0.026	0.083
-181.056	800.000	0.051	-0.162
-180.042	59.930	-0.104	-0.101
-179.027	-37.678	0.076	-0.040
-178.012	-171.904	0.122	-0.004
-176.998	-95.435	0.150	0.039
-175.983	67.280	-0.243	-0.243
-174.969	-58.108	0.366	0.157
-173.954	-200.000	-0.026	-0.221
-172.939	-44.485	-0.108	-0.053
-171.925	103.661	-0.138	-0.159
-170.910	524.933	0.065	-0.149
-169.896	800.000	0.059	0.176
-168.881	800.000	-0.029	-0.089
-167.866	-90.588	0.226	0.064
-166.852	169.731	0.221	-0.310
-165.837	581.922	0.061	0.147
-164.823	185.933	-0.064	0.093
-163.808	-124.856	-0.273	-0.041
-162.793	67.955	0.286	-0.287
-161.779	-200.000	0.012	0.218
-160.764	70.985	-0.086	0.088
-159.750	3.404	0.127	-0.091
-158.735	-200.000	0.020	0.321
-157.720	-90.683	-0.112	0.032
-156.706	-41.751	-0.283	0.142
-155.691	-78.397	-0.086	-0.029
-154.677	183.126	0.169	0.244
-153.662	584.636	0.033	-0.079
-152.647	48.046	0.157	0.144
-151.633	-200.000	0.022	0.279
-150.618	391.004	-0.086	0.174
-149.604	-200.000	-0.013	0.063
-148.589	-193.288	0.265	-0.002
-147.574	-13.107	0.161	0.103
-146.560	357.932	-0.111	0.216
-145.545	149.214	-0.107	0.142
-144.531	7.433	0.012	0.009
-143.516	41.851	-0.251	0.223
-142.502	2.961	0.248	-0.177
-141.487	-200.000	-0.024	0.381
-140.472	-61.831	0.027	0.011
-139.458	-41.219	0.261	-0.132
-138.443	-25.431	0.071	-0.041
-137.429	-200.000	-0.028	-0.139
-136.414	-148.232	0.179	0.014
-135.399	-200.000	0.018	0.084
-134.385	561.865	0.058	0.136
-133.370	-15.372	0.168	0.105
-132.356	350.625	-0.150	-0.290
-131.341	-6.165	0.181	0.121
-130.326	-139.913	-0.266	-0.027
-129.312	47.968	0.098	0.090
-128.297	-200.000	-0.012	0.178
-127.283	-32.710	0.231	0.126
-126.268	124.527	-0.217	-0.267
-125.253	-99.202	0.349	0.086
-124.239	226.150	0.204	-0.324
-123.224	-6.960	0.069	-0.046
-122.210	52.467	-0.111	-0.103
-121.195	-156.468	0.350	0.021
-120.180	-95.275	-0.083	0.022
