DTS Sentinel unit serial number:	SN413079Multiplexer serial number:	ORYXHardware model number:	OX4-SRSoftware version number:	ORYX F/W v4.00 Oryx Data Collector v3.7.2.0data status	okinstallation	princeton_trtdifferential loss correction	single-endedforward channel	channel 2reverse channel	N/Adate	2019/09/12time	00:57:11forward acquisition time	60.00reverse acquisition time	0.00gamma	496.2192k internal	0.2325k external	0.2325temperature offset calibration	1.0092default loss term (dB/km)	0.3790temperature slope calibration	1.0000multiplexer offset coefficient	1.0000multiplexer slope coefficient	1.0000fibre end	0.00T internal ref (°C)	33.20T ext. ref 1 (°C)	2.08T ext. ref 2 (°C)	27.73length (m)	temperature (°C)	Stokes	anti-Stokes-747.200	23.657	0.221	-0.184
-746.185	800.000	0.066	0.219
-745.171	100.069	0.139	-0.162
-744.156	-120.986	0.045	-0.008
-743.142	358.953	-0.138	0.279
-742.127	627.106	-0.178	0.454
-741.112	30.037	0.151	0.130
-740.098	207.615	-0.175	0.276
-739.083	165.670	-0.158	-0.226
-738.069	-200.000	0.013	0.405
-737.054	305.303	0.120	-0.225
-736.039	-200.000	0.022	0.122
-735.025	-82.980	0.143	0.046
-734.010	-82.640	-0.322	0.105
-732.996	-200.000	0.025	0.120
-731.981	-124.627	-0.176	-0.028
-730.966	342.370	-0.048	0.094
-729.952	-200.000	-0.019	-0.093
-728.937	469.830	-0.014	0.032
-727.923	-200.000	0.008	-0.096
-726.908	137.807	-0.105	0.139
-725.894	2.781	0.189	-0.139
-724.879	67.854	-0.195	-0.201
-723.864	800.000	-0.096	-0.391
-722.850	-78.485	0.160	0.055
-721.835	-200.000	-0.071	0.429
-720.821	96.849	-0.218	-0.251
-719.806	4.401	-0.243	-0.180
-718.791	-90.963	-0.279	-0.081
-717.777	-148.288	-0.079	0.007
-716.762	800.000	0.036	0.157
-715.748	-157.286	-0.248	-0.015
-714.733	157.866	0.082	0.114
-713.718	110.547	0.158	-0.191
-712.704	162.233	0.170	-0.241
-711.689	800.000	0.081	-0.243
-710.675	-49.501	-0.187	-0.090
-709.660	-107.169	0.525	0.117
-708.645	800.000	-0.035	0.133
-707.631	318.796	0.050	0.096
-706.616	-200.000	0.021	-0.349
-705.602	76.790	-0.142	-0.152
-704.587	87.086	0.101	0.113
-703.572	-200.000	0.027	-0.179
-702.558	322.608	0.175	0.335
-701.543	-200.000	-0.028	0.153
-700.529	6.614	0.111	-0.083
-699.514	-63.177	-0.071	-0.030
-698.499	-9.626	-0.277	0.186
-697.485	6.634	-0.389	0.291
-696.470	800.000	0.016	0.066
-695.456	135.756	-0.197	-0.259
-694.441	425.783	0.117	-0.254
-693.426	10.838	-0.150	0.115
-692.412	87.211	-0.106	-0.118
-691.397	158.569	0.104	-0.145
-690.383	307.764	0.195	0.366
-689.368	83.600	0.062	0.068
-688.354	-90.562	0.162	-0.047
-687.339	173.644	-0.089	-0.129
-686.324	-192.676	-0.342	-0.003
-685.310	129.222	0.067	0.086
-684.295	304.435	0.064	0.120
-683.281	-200.000	-0.030	0.239
-682.266	-35.507	0.318	0.174
-681.251	800.000	-0.049	0.204
-680.237	800.000	-0.075	-0.255
-679.222	-121.530	0.144	0.024
-678.208	301.966	-0.032	0.059
-677.193	635.432	-0.098	-0.252
-676.178	-20.020	0.243	-0.151
-675.164	164.386	-0.170	0.241
-674.149	-159.261	-0.443	0.025
-673.135	-107.033	0.273	-0.061
-672.120	-171.014	0.280	0.010
-671.105	146.580	0.171	-0.231
-670.091	800.000	0.123	-0.350
-669.076	-3.306	0.196	0.137
-668.062	800.000	-0.036	-0.137
-667.047	4.215	0.065	-0.048
-666.032	85.060	0.045	0.050
-665.018	25.637	-0.196	0.164
-664.003	340.479	0.061	0.120
-662.989	-54.204	0.124	-0.057
-661.974	-66.071	-0.184	0.074
-660.959	-80.173	-0.210	-0.071
-659.945	306.061	0.246	0.461
-658.930	-200.000	0.015	-0.327
-657.916	-200.000	-0.007	-0.090
-656.901	214.922	0.110	-0.176
-655.886	6.916	0.022	0.016
-654.872	197.577	-0.138	0.211
-653.857	-200.000	0.029	-0.263
-652.843	30.245	0.328	-0.281
-651.828	40.083	-0.282	0.255
-650.814	-83.145	0.045	-0.015
-649.799	-11.699	0.336	-0.222
-648.784	-200.000	-0.019	-0.142
-647.770	-200.000	0.006	0.187
-646.755	-200.000	-0.006	0.111
-645.741	-200.000	0.004	-0.072
-644.726	-200.000	-0.007	-0.036
-643.711	167.240	0.117	0.167
-642.697	53.905	-0.329	-0.318
-641.682	41.819	-0.176	-0.160
-640.668	-53.330	0.228	-0.105
-639.653	-56.709	0.517	-0.230
-638.638	-15.585	0.233	-0.150
-637.624	-1.114	0.345	-0.245
-636.609	-200.000	-0.052	0.447
-635.595	41.676	0.248	-0.226
-634.580	-15.621	0.140	-0.090
-633.565	53.369	0.148	0.142
-632.551	121.763	-0.111	0.139
-631.536	27.499	-0.063	-0.054
-630.522	-43.363	0.169	0.086
-629.507	86.463	0.150	-0.167
-628.492	-146.552	-0.378	0.033
-627.478	-70.396	0.276	0.105
-626.463	-200.000	-0.040	0.208
-625.449	712.198	-0.078	0.208
-624.434	173.251	-0.077	0.112
-623.419	51.645	-0.293	0.280
-622.405	800.000	0.056	-0.164
-621.390	-124.140	-0.099	0.016
-620.376	118.240	0.051	-0.063
-619.361	800.000	-0.019	0.055
-618.346	289.953	-0.048	0.088
-617.332	-120.577	0.110	0.019
-616.317	-200.000	0.000	0.026
-615.303	36.298	-0.282	-0.249
-614.288	800.000	-0.157	0.472
-613.273	-200.000	0.020	-0.201
-612.259	-74.916	-0.364	-0.131
-611.244	-200.000	-0.047	0.257
-610.230	-32.490	-0.105	0.059
-609.215	93.176	-0.039	-0.045
-608.201	99.917	-0.151	-0.176
-607.186	-200.000	0.002	0.124
-606.171	-200.000	-0.035	0.242
-605.157	-63.549	-0.248	-0.102
-604.142	455.321	0.052	-0.116
-603.128	-200.000	-0.001	0.289
-602.113	115.558	-0.077	-0.095
-601.098	366.385	0.291	-0.588
-600.084	-29.357	-0.245	-0.141
-599.069	-3.401	0.152	0.107
-598.055	369.380	0.151	0.306
-597.040	-66.659	-0.439	0.174
-596.025	800.000	0.053	0.155
-595.011	343.626	0.172	0.337
-593.996	44.023	-0.245	-0.225
-592.982	-83.853	-0.142	-0.045
-591.967	513.160	-0.015	-0.035
-590.952	-200.000	-0.044	0.221
-589.938	-30.225	-0.094	-0.054
-588.923	-200.000	0.030	0.156
-587.909	800.000	-0.129	0.424
-586.894	8.579	0.164	-0.124
-585.879	217.287	0.142	-0.228
-584.865	-63.114	-0.144	0.060
-583.850	161.731	0.085	-0.120
-582.836	36.174	-0.116	0.102
-581.821	-89.858	-0.339	-0.099
-580.806	131.940	0.099	-0.128
-579.792	-200.000	-0.009	0.098
-578.777	60.157	-0.152	0.151
-577.763	-106.688	0.029	-0.006
-576.748	146.286	0.054	0.073
-575.733	-5.155	-0.092	0.063
-574.719	186.928	-0.062	-0.092
-573.704	-146.580	0.240	-0.021
-572.690	-37.701	0.179	-0.095
-571.675	-200.000	-0.003	0.274
-570.661	-200.000	0.001	0.226
-569.646	-7.241	-0.076	0.051
-568.631	800.000	-0.043	-0.130
-567.617	103.352	0.044	-0.052
-566.602	372.414	-0.179	-0.364
-565.588	336.554	0.077	-0.149
-564.573	38.941	-0.074	-0.066
-563.558	714.598	0.065	-0.172
-562.544	173.279	0.109	-0.158
-561.529	318.983	-0.037	-0.071
-560.515	-200.000	0.016	0.242
-559.500	-77.429	0.308	0.107
-558.485	271.422	-0.058	-0.102
-557.471	-86.718	-0.179	0.055
-556.456	-200.000	0.027	0.180
-555.442	-12.726	-0.167	0.109
-554.427	-53.561	0.442	-0.203
-553.412	2.667	-0.274	0.199
-552.398	-147.251	0.082	-0.007
-551.383	229.235	-0.008	-0.013
-550.369	36.200	0.176	0.156
-549.354	571.645	-0.055	-0.133
-548.339	-96.696	-0.156	0.041
-547.325	52.781	0.313	0.300
-546.310	-200.000	0.040	-0.213
-545.296	-200.000	0.001	0.126
-544.281	-33.966	-0.099	0.054
-543.266	-200.000	-0.042	-0.243
-542.252	232.138	0.044	0.072
-541.237	-25.850	0.300	-0.177
-540.223	-61.055	-0.242	0.102
-539.208	-15.919	0.190	0.121
-538.193	211.372	-0.068	-0.107
-537.179	-10.288	0.384	0.255
-536.164	267.965	-0.105	0.184
-535.150	-200.000	0.034	0.200
-534.135	110.619	-0.084	-0.102
-533.121	84.473	-0.108	-0.119
-532.106	207.366	-0.036	0.056
-531.091	-100.457	-0.355	-0.088
-530.077	176.616	-0.141	-0.205
-529.062	-153.118	0.260	-0.018
-528.048	-81.931	-0.241	-0.079
-527.033	-111.775	-0.229	-0.046
-526.018	-131.382	-0.215	-0.028
-525.004	-72.169	0.136	-0.050
-523.989	-194.257	-0.225	-0.002
-522.975	89.187	0.148	-0.165
-521.960	45.887	0.185	-0.171
-520.945	-70.630	-0.228	-0.086
-519.931	-25.704	-0.238	-0.140
-518.916	-146.616	-0.284	0.025
-517.902	-31.319	0.051	0.028
-516.887	-149.466	-0.145	0.011
-515.872	800.000	-0.014	-0.049
-514.858	-90.055	0.042	0.012
-513.843	180.780	-0.261	0.383
-512.829	-57.053	0.244	0.107
-511.814	36.774	-0.103	0.091
-510.799	368.435	0.064	0.129
-509.785	164.118	0.333	0.469
-508.770	496.225	0.109	-0.251
-507.756	21.147	-0.251	-0.204
-506.741	177.678	0.136	-0.199
-505.726	-200.000	-0.047	-0.237
-504.712	-200.000	0.041	0.242
-503.697	800.000	-0.067	-0.191
-502.683	800.000	0.108	0.352
-501.668	50.307	-0.145	-0.137
-500.653	-200.000	-0.056	-0.278
-499.639	-25.696	-0.320	0.188
-498.624	-71.228	-0.242	0.091
-497.610	-40.927	-0.157	0.081
-496.595	-97.669	-0.151	-0.039
-495.581	787.487	-0.100	0.275
-494.566	-200.000	-0.026	0.144
-493.551	800.000	0.043	-0.158
-492.537	800.000	-0.084	-0.234
-491.522	-57.586	0.227	0.099
-490.508	256.926	-0.156	-0.267
-489.493	-79.157	-0.063	-0.021
-488.478	800.000	0.016	-0.056
-487.464	-89.691	-0.223	-0.065
-486.449	-84.209	0.066	-0.021
-485.435	-200.000	-0.002	-0.315
-484.420	-200.000	-0.009	0.109
-483.405	259.655	0.037	-0.064
-482.391	-74.999	-0.374	0.134
-481.376	-45.952	0.119	-0.059
-480.362	-114.810	-0.178	-0.034
-479.347	-43.812	-0.126	0.063
-478.332	29.880	-0.122	0.104
-477.318	101.546	0.179	-0.209
-476.303	-200.000	-0.006	-0.077
-475.289	-178.585	0.069	0.002
-474.274	-95.847	0.341	0.091
-473.259	-27.186	0.244	-0.142
-472.245	32.055	-0.151	0.130
-471.230	-5.286	0.204	0.140
-470.216	-63.083	0.209	0.086
-469.201	-38.553	-0.091	0.048
-468.186	-200.000	0.003	-0.238
-467.172	-200.000	-0.004	-0.190
-466.157	-200.000	0.331	-0.001
-465.143	32.255	0.183	0.157
-464.128	47.005	-0.368	-0.342
-463.113	173.012	0.062	-0.089
-462.099	-165.669	0.142	0.006
-461.084	-18.210	0.307	0.192
-460.070	-27.972	-0.148	-0.085
-459.055	-116.034	0.235	0.044
-458.040	-169.068	-0.133	0.005
-457.026	-58.871	0.409	-0.177
-456.011	228.645	0.136	-0.221
-454.997	171.577	-0.091	0.130
-453.982	-34.851	0.159	-0.087
-452.968	-200.000	-0.044	0.312
-451.953	248.448	-0.018	0.030
-450.938	-200.000	0.058	-0.361
-449.924	-160.997	-0.074	0.004
-448.909	800.000	-0.028	0.110
-447.895	-34.161	-0.232	0.127
-446.880	30.958	-0.309	0.264
-445.865	670.579	-0.032	0.082
-444.851	800.000	-0.038	-0.135
-443.836	-200.000	-0.023	0.105
-442.822	146.412	0.047	-0.063
-441.807	-96.063	-0.158	-0.042
-440.792	143.747	-0.205	-0.272
-439.778	353.298	-0.090	0.178
-438.763	-59.783	-0.123	-0.052
-437.749	701.281	0.041	-0.108
-436.734	-180.806	-0.046	-0.001
-435.719	-97.010	-0.198	0.052
-434.705	-155.049	0.166	-0.011
-433.690	-91.725	0.134	0.038
-432.676	-200.000	0.009	-0.043
-431.661	8.312	0.283	-0.212
-430.646	-3.673	-0.154	-0.106
-429.632	-165.908	0.237	0.010
-428.617	159.152	0.134	0.186
-427.603	49.525	-0.188	0.177
-426.588	-111.597	0.160	0.032
-425.573	-200.000	-0.048	-0.401
-424.559	66.378	0.070	-0.071
-423.544	-200.000	-0.097	0.517
-422.530	35.585	0.094	0.082
-421.515	735.088	0.045	0.120
-420.500	52.129	0.073	0.069
-419.486	-200.000	0.022	0.259
-418.471	132.994	-0.239	0.308
-417.457	-149.033	-0.085	-0.007
-416.442	-200.000	-0.009	0.073
-415.428	-11.585	0.367	-0.241
-414.413	800.000	-0.063	0.196
-413.398	-92.579	-0.157	0.044
-412.384	-200.000	0.050	-0.307
-411.369	-69.509	0.247	0.094
-410.355	411.869	-0.066	-0.140
-409.340	394.454	0.064	0.132
-408.325	800.000	0.020	0.071
-407.311	-14.960	0.268	-0.171
-406.296	-200.000	-0.047	0.270
-405.282	83.974	0.104	-0.113
-404.267	-164.924	-0.259	0.012
-403.252	173.266	-0.121	-0.174
-402.238	65.138	-0.254	-0.256
-401.223	-38.057	0.162	-0.085
-400.209	800.000	0.161	0.450
-399.194	-130.890	0.333	-0.044
-398.179	544.713	0.041	-0.099
-397.165	-11.675	-0.173	-0.113
-396.150	-14.991	0.186	0.119
-395.136	-56.936	0.115	0.051
-394.121	-43.842	-0.131	0.066
-393.106	18.628	-0.266	-0.211
-392.092	-200.000	-0.055	0.451
-391.077	453.392	0.112	-0.247
-390.063	-139.276	-0.183	-0.020
-389.048	-200.000	-0.011	-0.127
-388.033	800.000	-0.085	-0.247
-387.019	-138.729	-0.183	0.020
-386.004	291.969	-0.055	-0.100
-384.990	-108.623	0.394	-0.084
-383.975	-96.877	0.150	-0.039
-382.960	-200.000	0.041	-0.422
-381.946	303.297	0.060	-0.111
-380.931	-156.971	0.268	-0.016
-379.917	-70.385	0.095	0.036
-378.902	-71.454	0.437	0.163
-377.888	120.815	0.098	-0.121
-376.873	-66.026	0.180	0.072
-375.858	-200.000	0.034	-0.235
-374.844	-200.000	0.021	0.203
-373.829	-86.489	0.205	0.063
-372.815	-96.544	0.077	-0.020
-371.800	624.403	-0.100	0.250
-370.785	29.966	-0.162	-0.137
-369.771	-200.000	-0.057	-0.296
-368.756	-106.850	-0.242	-0.053
-367.742	-6.363	0.125	0.085
-366.727	-101.171	0.068	-0.016
-365.712	4.585	-0.147	0.107
-364.698	-200.000	-0.006	-0.164
-363.683	-200.000	0.025	-0.215
-362.669	800.000	0.049	-0.155
-361.654	-200.000	-0.002	-0.075
-360.639	-37.999	-0.026	0.014
-359.625	-105.257	0.252	-0.057
-358.610	800.000	0.045	0.124
-357.596	-149.181	-0.129	-0.010
-356.581	19.042	0.115	-0.092
-355.566	-127.363	0.201	0.029
-354.552	-109.925	-0.195	0.041
-353.537	150.329	0.181	-0.244
-352.523	-72.588	-0.208	-0.076
-351.508	497.934	0.117	-0.267
-350.493	-104.042	0.289	-0.067
-349.479	-200.000	0.004	-0.129
-348.464	-148.644	0.167	0.014
-347.450	800.000	-0.052	-0.180
-346.435	-146.457	-0.242	0.021
-345.420	-119.569	-0.214	-0.037
-344.406	-147.404	0.093	-0.008
-343.391	-12.895	0.255	-0.165
-342.377	157.111	0.124	0.170
-341.362	-127.971	-0.104	0.015
-340.348	468.256	0.096	0.213
-339.333	24.178	0.041	0.034
-338.318	-39.117	-0.331	-0.173
-337.304	-62.520	-0.248	0.102
-336.289	-126.606	-0.323	-0.048
-335.275	-73.203	-0.103	0.038
-334.260	-95.069	-0.162	0.043
-333.245	238.685	0.039	-0.064
-332.231	-77.301	0.191	0.066
-331.216	-200.000	0.036	0.327
-330.202	191.296	-0.209	0.313
-329.187	730.283	0.062	-0.164
-328.172	43.222	-0.307	0.278
-327.158	-121.002	0.192	0.032
-326.143	188.587	0.233	0.345
-325.129	-141.298	0.117	0.012
-324.114	-51.504	0.128	0.060
-323.099	-13.333	0.206	-0.132
-322.085	-200.000	-0.005	-0.073
-321.070	136.569	-0.057	-0.073
-320.056	-200.000	0.039	-0.329
-319.041	-98.968	-0.204	0.051
-318.026	240.745	0.106	0.175
-317.012	155.074	0.105	0.143
-315.997	-200.000	-0.003	0.244
-314.983	-200.000	-0.009	-0.074
-313.968	-19.679	0.348	0.213
-312.953	437.530	0.037	0.081
-311.939	435.810	-0.075	-0.163
-310.924	800.000	-0.051	-0.204
-309.910	-75.749	-0.146	0.052
-308.895	800.000	0.109	0.386
-307.880	800.000	0.075	-0.292
-306.866	229.190	-0.059	-0.095
-305.851	34.806	0.273	-0.237
-304.837	60.237	-0.135	-0.133
-303.822	-15.198	-0.122	-0.078
-302.807	69.043	-0.170	0.173
-301.793	-99.841	0.255	-0.063
-300.778	333.929	0.029	0.057
-299.764	81.376	0.079	-0.085
-298.749	79.834	0.080	0.085
-297.735	132.851	0.166	-0.213
-296.720	-56.474	0.227	0.100
-295.705	800.000	-0.057	0.183
-294.691	-114.834	-0.300	0.057
-293.676	-27.082	-0.225	-0.130
-292.662	-144.826	-0.189	0.017
-291.647	-84.428	0.479	0.150
-290.632	-73.976	0.159	0.057
-289.618	9.868	-0.267	-0.201
-288.603	15.560	0.356	-0.277
-287.589	72.341	-0.078	-0.080
-286.574	148.440	0.311	0.417
-285.559	-1.935	-0.215	0.150
-284.545	-102.924	0.127	-0.030
-283.530	-87.446	-0.231	0.069
-282.516	349.575	0.099	-0.193
-281.501	-200.000	-0.006	-0.455
-280.486	-25.734	0.264	-0.154
-279.472	-162.451	-0.237	0.012
-278.457	161.710	0.085	0.118
-277.443	70.807	-0.208	-0.213
-276.428	-200.000	0.005	-0.291
-275.413	800.000	-0.006	-0.024
-274.399	800.000	-0.061	0.257
-273.384	-91.879	0.227	0.064
-272.370	-6.996	-0.112	-0.075
-271.355	-179.255	-0.059	-0.001
-270.340	-200.000	-0.017	0.203
-269.326	-39.874	-0.038	0.020
-268.311	30.394	-0.080	0.068
-267.297	-200.000	0.054	0.339
-266.282	-81.088	0.489	-0.160
-265.267	-185.241	0.182	-0.003
-264.253	125.344	-0.189	0.237
-263.238	-35.369	0.155	0.083
-262.224	-114.413	0.092	-0.018
-261.209	-88.556	-0.230	-0.068
-260.195	-107.121	-0.167	0.036
-259.180	800.000	-0.081	-0.242
-258.165	-19.519	-0.300	-0.184
-257.151	-10.225	0.317	0.209
-256.136	117.348	-0.210	0.256
-255.122	-2.121	0.164	0.114
-254.107	-200.000	-0.032	-0.214
-253.092	163.396	0.144	-0.201
-252.078	-111.836	-0.196	0.039
-251.063	-2.938	0.118	-0.081
-250.049	59.748	0.286	0.279
-249.034	-65.802	-0.154	-0.061
-248.019	596.331	0.023	-0.056
-247.005	-99.869	-0.169	0.042
-245.990	220.529	0.087	-0.139
-244.976	188.670	0.091	-0.135
-243.961	280.464	0.159	-0.282
-242.946	18.809	-0.125	0.099
-241.932	-16.805	-0.256	0.160
-240.917	800.000	0.066	-0.252
-239.903	-200.000	0.065	-0.339
-238.888	-200.000	-0.186	0.000
-237.873	-200.000	0.006	0.086
-236.859	307.318	-0.099	0.182
-235.844	-139.412	0.272	-0.029
-234.830	-200.000	0.027	-0.157
-233.815	65.049	-0.189	0.189
-232.800	20.951	0.175	-0.140
-231.786	-73.080	-0.338	0.123
-230.771	-121.067	-0.249	-0.041
-229.757	102.690	-0.156	0.180
-228.742	-114.104	-0.458	0.088
-227.727	-200.000	0.028	0.387
-226.713	-23.497	-0.111	0.066
-225.698	46.736	0.081	0.075
-224.684	-200.000	0.008	-0.050
-223.669	-200.000	-0.053	-0.265
-222.655	358.724	-0.029	0.058
-221.640	325.034	0.170	0.321
-220.625	-200.000	-0.004	0.175
-219.611	-38.612	0.048	-0.025
-218.596	-88.392	-0.105	0.031
-217.582	-132.414	-0.248	0.032
-216.567	408.869	0.110	0.230
-215.552	-121.211	-0.243	-0.040
-214.538	97.854	0.106	-0.120
-213.523	483.588	0.065	0.145
-212.509	-200.000	0.007	-0.438
-211.494	-200.000	0.017	0.146
-210.479	-190.503	0.205	-0.002
-209.465	-200.000	0.036	-0.264
-208.450	-64.610	-0.160	0.064
-207.436	-50.609	0.123	0.057
-206.421	41.407	0.157	0.140
-205.406	-200.000	-0.008	0.206
-204.392	205.556	-0.071	0.109
-203.377	0.825	-0.147	0.104
-202.363	-40.777	0.243	0.124
-201.348	364.656	0.164	0.327
-200.333	264.432	0.052	0.089
-199.319	-200.000	-0.009	0.076
-198.304	-49.786	-0.303	0.142
-197.290	-82.917	-0.283	-0.090
-196.275	-15.898	0.109	0.068
-195.260	449.177	-0.149	0.324
-194.246	-50.877	-0.292	-0.135
-193.231	-126.033	0.061	-0.009
-192.217	124.912	0.333	0.414
-191.202	800.000	-0.075	0.233
-190.187	-170.996	0.226	0.008
-189.173	-200.000	0.014	0.113
-188.158	2.743	-0.043	0.030
-187.144	-91.337	-0.258	-0.073
-186.129	-74.447	-0.174	0.062
-185.114	159.929	-0.113	-0.156
-184.100	219.155	0.013	-0.021
-183.085	723.232	0.072	0.189
-182.071	72.570	0.014	0.014
-181.056	-200.000	-0.067	-0.340
-180.042	56.246	-0.185	0.177
-179.027	800.000	-0.074	-0.255
-178.012	57.583	0.070	-0.067
-176.998	108.702	0.088	0.104
-175.983	-198.432	-0.178	-0.001
-174.969	363.003	-0.074	-0.146
-173.954	102.758	0.105	-0.121
-172.939	800.000	0.033	-0.098
-171.925	190.670	0.105	-0.156
-170.910	-127.521	0.134	0.019
-169.896	-137.075	0.270	-0.030
-168.881	-104.521	-0.187	-0.043
-167.866	-43.442	0.284	0.141
-166.852	-200.000	-0.016	0.266
-165.837	75.338	-0.123	0.128
-164.823	-103.454	-0.202	-0.047
-163.808	279.057	0.019	-0.034
-162.793	-75.814	0.181	-0.063
-161.779	176.980	0.051	0.074
-160.764	48.923	-0.080	0.074
-159.750	-91.239	0.100	-0.028
-158.735	-107.935	0.111	0.024
-157.720	-36.294	0.259	0.138
-156.706	800.000	-0.081	-0.299
-155.691	-200.000	-0.030	-0.272
-154.677	343.820	0.198	-0.383
-153.662	23.532	-0.174	0.141
-152.647	-200.000	-0.001	-0.341
-151.633	-55.137	-0.179	-0.079
-150.618	342.291	0.155	0.298
-149.604	231.273	-0.056	0.090
-148.589	119.386	0.043	0.052
-147.574	-159.940	0.220	-0.012
-146.560	-10.487	0.152	0.099
-145.545	523.298	-0.184	0.427
-144.531	347.143	-0.062	-0.121
-143.516	-200.000	-0.010	0.063
-142.502	66.581	0.147	0.148
-141.487	800.000	0.045	0.124
-140.472	800.000	0.019	0.055
-139.458	800.000	0.031	-0.085
-138.443	354.820	-0.133	0.261
-137.429	-94.628	0.329	0.088
-136.414	12.901	-0.163	0.124
-135.399	-31.556	-0.133	-0.074
-134.385	235.877	-0.087	0.142
-133.370	800.000	0.093	0.303
-132.356	23.884	0.127	-0.103
-131.341	-200.000	-0.001	-0.091
-130.326	-87.569	-0.157	-0.047
-129.312	-63.398	0.137	-0.055
-128.297	-113.775	0.102	0.020
-127.283	800.000	-0.057	0.229
-126.268	-200.000	-0.072	0.474
-125.253	40.632	0.143	0.127
-124.239	19.354	0.313	0.248
-123.224	-3.197	-0.120	0.083
-122.210	-125.406	0.262	0.039
-121.195	-193.985	-0.203	0.002
