DTS Sentinel unit serial number:	SN413079Multiplexer serial number:	ORYXHardware model number:	OX4-SRSoftware version number:	ORYX F/W v4.00 Oryx Data Collector v3.7.2.0data status	okinstallation	princeton_trtdifferential loss correction	single-endedforward channel	channel 2reverse channel	N/Adate	2019/09/19time	12:11:35forward acquisition time	60.00reverse acquisition time	0.00gamma	496.2192k internal	0.2337k external	0.2337temperature offset calibration	1.0012default loss term (dB/km)	0.3790temperature slope calibration	1.0000multiplexer offset coefficient	1.0000multiplexer slope coefficient	1.0000fibre end	0.00T internal ref (°C)	26.33T ext. ref 1 (°C)	0.85T ext. ref 2 (°C)	22.98length (m)	temperature (°C)	Stokes	anti-Stokes-747.200	190.861	-0.079	0.119
-746.185	800.000	0.052	0.147
-745.171	-118.715	-0.401	0.071
-744.156	-170.493	0.164	0.006
-743.142	-161.136	-0.057	-0.003
-742.127	-20.818	0.109	0.067
-741.112	146.780	0.118	0.159
-740.098	-200.000	-0.037	0.356
-739.083	-183.132	0.075	0.001
-738.069	-121.319	-0.135	0.023
-737.054	-100.746	-0.168	-0.042
-736.039	-130.428	0.198	-0.027
-735.025	-4.229	0.263	-0.183
-734.010	800.000	-0.066	-0.257
-732.996	177.099	0.164	0.240
-731.981	22.583	-0.203	0.167
-730.966	-200.000	-0.015	0.270
-729.952	-200.000	0.037	-0.217
-728.937	-200.000	0.004	-0.037
-727.923	-171.833	0.232	-0.008
-726.908	-186.603	-0.490	0.007
-725.894	72.823	0.101	0.105
-724.879	208.082	0.049	-0.077
-723.864	-200.000	-0.041	-0.324
-722.850	468.096	0.092	-0.207
-721.835	800.000	-0.064	-0.244
-720.821	-200.000	-0.049	-0.289
-719.806	81.617	-0.072	0.078
-718.791	57.810	-0.090	-0.088
-717.777	551.077	-0.141	-0.339
-716.762	508.377	0.132	-0.307
-715.748	-200.000	0.038	0.294
-714.733	800.000	-0.068	0.200
-713.718	145.686	-0.105	0.141
-712.704	-128.450	-0.276	-0.039
-711.689	-200.000	-0.006	-0.113
-710.675	-41.218	-0.246	-0.127
-709.660	-110.511	-0.282	0.059
-708.645	-69.132	-0.291	-0.112
-707.631	16.586	-0.084	0.067
-706.616	-88.785	-0.051	0.015
-705.602	-79.148	0.133	0.045
-704.587	112.586	-0.142	-0.172
-703.572	-188.964	0.174	-0.002
-702.558	397.416	-0.167	-0.349
-701.543	-49.950	-0.253	-0.120
-700.529	12.628	0.144	-0.112
-699.514	-41.666	-0.147	0.075
-698.499	-144.709	0.410	0.038
-697.485	-7.335	0.401	0.272
-696.470	-83.857	-0.099	-0.032
-695.456	-79.063	0.125	-0.042
-694.441	106.872	0.092	0.109
-693.426	400.073	-0.024	-0.051
-692.412	-133.899	-0.315	-0.039
-691.397	-67.264	0.184	-0.072
-690.383	9.666	-0.493	0.374
-689.368	-200.000	0.000	-0.072
-688.354	361.637	0.068	0.137
-687.339	-100.112	0.298	-0.074
-686.324	38.375	-0.257	0.229
-685.310	-200.000	0.008	0.113
-684.295	-200.000	0.042	0.398
-683.281	-93.136	0.322	0.090
-682.266	-17.182	0.215	-0.136
-681.251	-102.056	-0.259	0.063
-680.237	800.000	-0.097	-0.339
-679.222	163.561	0.151	-0.213
-678.208	-102.767	0.156	0.037
-677.193	20.894	0.205	0.167
-676.178	-80.399	0.070	0.023
-675.164	110.357	-0.258	-0.310
-674.149	800.000	-0.090	-0.332
-673.135	-200.000	-0.023	-0.240
-672.120	-200.000	0.001	0.384
-671.105	40.818	0.145	0.131
-670.091	-77.688	-0.332	0.115
-669.076	-200.000	-0.034	0.277
-668.062	-57.880	-0.208	0.091
-667.047	800.000	0.061	0.223
-666.032	248.012	-0.133	-0.224
-665.018	-46.145	-0.480	0.236
-664.003	10.869	0.096	-0.073
-662.989	800.000	0.011	0.040
-661.974	-200.000	0.002	-0.089
-660.959	55.085	-0.278	-0.269
-659.945	129.426	0.128	0.164
-658.930	-156.688	-0.148	0.009
-657.916	-116.727	0.259	-0.048
-656.901	37.497	0.433	0.384
-655.886	-71.580	-0.129	-0.048
-654.872	-28.379	-0.197	-0.114
-653.857	15.593	-0.187	0.147
-652.843	437.792	0.072	-0.157
-651.828	-23.597	0.150	0.090
-650.814	-38.319	0.264	-0.140
-649.799	256.355	-0.173	-0.297
-648.784	-46.690	-0.145	0.071
-647.770	-60.158	-0.162	-0.069
-646.755	95.224	0.104	0.119
-645.741	-200.000	0.020	-0.170
-644.726	-200.000	0.024	-0.221
-643.711	-200.000	0.002	-0.008
-642.697	-200.000	-0.055	0.354
-641.682	203.716	0.080	0.124
-640.668	800.000	-0.128	-0.356
-639.653	-165.011	-0.223	-0.010
-638.638	-62.106	-0.212	-0.089
-637.624	-14.881	-0.144	-0.092
-636.609	-129.043	-0.204	-0.029
-635.595	75.022	-0.091	0.095
-634.580	148.032	0.146	-0.197
-633.565	-69.590	0.064	0.024
-632.551	800.000	-0.034	-0.146
-631.536	-5.534	0.128	-0.088
-630.522	-200.000	0.004	-0.071
-629.507	14.165	0.140	-0.109
-628.492	-56.445	0.040	-0.018
-627.478	-33.866	-0.061	-0.034
-626.463	-200.000	0.046	0.321
-625.449	-105.357	-0.243	0.055
-624.434	-69.108	-0.181	-0.070
-623.419	-130.204	0.116	-0.016
-622.405	11.925	-0.135	0.103
-621.390	116.510	-0.065	0.079
-620.376	-89.361	0.103	0.030
-619.361	194.469	-0.159	-0.241
-618.346	800.000	0.106	0.316
-617.332	800.000	0.049	-0.196
-616.317	79.972	0.061	0.065
-615.303	-119.911	-0.281	0.048
-614.288	1.990	-0.315	-0.227
-613.273	230.038	-0.061	-0.099
-612.259	-200.000	0.003	-0.164
-611.244	-144.631	-0.308	-0.028
-610.230	247.353	0.030	0.051
-609.215	465.512	0.123	0.275
-608.201	11.353	-0.133	0.102
-607.186	166.790	-0.165	0.234
-606.171	6.472	0.121	0.089
-605.157	-106.550	0.340	0.076
-604.142	-200.000	0.053	0.298
-603.128	800.000	0.151	0.542
-602.113	800.000	0.117	0.381
-601.098	22.527	-0.077	-0.063
-600.084	-145.873	0.246	0.022
-599.069	118.114	-0.111	0.137
-598.055	227.275	-0.107	-0.173
-597.040	-79.416	0.295	-0.100
-596.025	156.652	-0.072	-0.100
-595.011	-200.000	0.007	0.313
-593.996	-59.829	0.461	-0.197
-592.982	-200.000	0.018	-0.087
-591.967	-29.286	0.537	0.307
-590.952	110.773	-0.150	0.180
-589.938	-131.973	-0.341	-0.044
-588.923	-4.416	-0.156	-0.108
-587.909	-200.000	-0.037	0.530
-586.894	-200.000	-0.023	0.340
-585.879	25.691	0.103	-0.085
-584.865	172.142	-0.151	0.216
-583.850	-200.000	-0.009	0.307
-582.836	-144.379	0.053	-0.005
-581.821	-137.757	-0.176	0.020
-580.806	-21.907	0.049	-0.030
-579.792	800.000	0.054	0.164
-578.777	-13.440	0.216	0.140
-577.763	-89.699	-0.178	-0.052
-576.748	-83.108	-0.286	-0.092
-575.733	-35.029	-0.557	-0.303
-574.719	-100.096	-0.245	0.061
-573.704	-27.183	-0.299	0.174
-572.690	-200.000	-0.005	-0.280
-571.675	314.705	-0.081	-0.152
-570.661	-190.207	-0.080	0.001
-569.646	649.466	-0.090	-0.230
-568.631	211.811	-0.045	0.070
-567.617	800.000	0.130	-0.391
-566.602	-73.005	-0.298	0.109
-565.588	-200.000	0.047	-0.498
-564.573	61.242	0.178	0.176
-563.558	491.906	0.090	0.205
-562.544	365.985	0.062	0.125
-561.529	-200.000	-0.002	-0.031
-560.515	458.583	-0.106	-0.234
-559.500	-200.000	0.004	0.086
-558.485	-200.000	0.095	0.464
-557.471	-200.000	0.031	0.163
-556.456	-200.000	-0.019	-0.156
-555.442	-106.881	0.382	-0.084
-554.427	800.000	0.090	0.280
-553.412	132.346	0.109	0.140
-552.398	800.000	0.022	-0.074
-551.383	-200.000	-0.010	0.191
-550.369	800.000	0.058	-0.197
-549.354	-200.000	-0.026	0.146
-548.339	-187.453	0.167	-0.002
-547.325	293.585	-0.027	-0.048
-546.310	356.371	0.057	-0.113
-545.296	6.176	-0.216	-0.159
-544.281	-173.904	0.101	0.003
-543.266	-200.000	-0.010	0.130
-542.252	-151.019	-0.103	-0.008
-541.237	35.502	-0.095	0.083
-540.223	96.882	0.097	0.111
-539.208	-15.471	-0.287	0.182
-538.193	222.685	0.076	-0.122
-537.179	-11.492	0.032	-0.021
-536.164	-111.434	-0.393	-0.080
-535.150	-135.635	0.422	-0.050
-534.135	-200.000	-0.017	0.172
-533.121	207.244	0.101	0.156
-532.106	178.133	-0.147	0.213
-531.091	168.190	0.116	0.164
-530.077	391.567	-0.149	0.308
-529.062	-200.000	0.028	-0.272
-528.048	-200.000	0.039	0.248
-527.033	-37.357	-0.398	0.212
-526.018	-71.009	0.329	-0.123
-525.004	-74.856	-0.184	-0.066
-523.989	691.597	0.038	-0.100
-522.975	110.094	-0.070	0.083
-521.960	490.040	0.069	0.156
-520.945	482.071	0.103	-0.232
-519.931	32.679	-0.083	0.071
-518.916	52.947	-0.260	-0.247
-517.902	-69.266	-0.151	-0.058
-516.887	457.384	-0.165	0.365
-515.872	11.659	-0.353	-0.269
-514.858	-57.623	-0.373	-0.163
-513.843	32.540	-0.066	-0.057
-512.829	55.777	0.203	0.196
-511.814	-80.469	-0.274	-0.091
-510.799	39.086	0.055	0.049
-509.785	800.000	-0.044	-0.187
-508.770	342.633	-0.106	0.207
-507.756	-200.000	-0.005	0.144
-506.741	-88.718	0.124	0.037
-505.726	326.376	0.121	0.231
-504.712	800.000	0.074	-0.248
-503.697	766.456	0.077	0.209
-502.683	-78.178	-0.192	-0.066
-501.668	-96.016	-0.286	-0.076
-500.653	-125.582	0.142	-0.021
-499.639	27.080	-0.068	-0.057
-498.624	-114.345	0.225	0.043
-497.610	69.237	0.141	0.144
-496.595	378.989	0.099	0.201
-495.581	361.665	-0.021	-0.042
-494.566	9.889	-0.097	0.073
-493.551	698.978	-0.078	-0.205
-492.537	800.000	-0.067	-0.217
-491.522	455.177	-0.012	0.027
-490.508	800.000	0.106	-0.355
-489.493	800.000	-0.096	-0.353
-488.478	800.000	-0.100	-0.332
-487.464	212.307	0.174	-0.272
-486.449	555.594	0.135	-0.323
-485.435	800.000	-0.048	-0.150
-484.420	-200.000	0.004	0.071
-483.405	30.851	0.140	-0.119
-482.391	-126.525	-0.336	-0.050
-481.376	-96.983	0.518	-0.135
-480.362	-16.951	0.130	0.082
-479.347	-17.817	-0.319	0.199
-478.332	-166.040	-0.255	0.011
-477.318	800.000	-0.092	-0.284
-476.303	-200.000	-0.002	-0.271
-475.289	148.347	0.272	0.365
-474.274	52.249	-0.238	0.225
-473.259	800.000	-0.030	0.110
-472.245	-200.000	0.001	0.031
-471.230	-22.213	-0.141	0.085
-470.216	-200.000	0.008	-0.034
-469.201	-50.128	0.121	-0.057
-468.186	-200.000	-0.006	0.104
-467.172	-31.683	-0.398	0.222
-466.157	-109.830	0.396	0.083
-465.143	800.000	0.134	0.397
-464.128	18.671	0.174	0.139
-463.113	-38.359	0.253	-0.133
-462.099	-200.000	-0.003	-0.013
-461.084	-154.689	0.382	0.025
-460.070	21.390	-0.239	-0.193
-459.055	7.604	-0.168	0.125
-458.040	-200.000	0.026	-0.132
-457.026	-139.237	-0.083	-0.009
-456.011	190.719	0.213	-0.318
-454.997	-200.000	0.022	-0.608
-453.982	800.000	0.019	0.072
-452.968	29.182	0.438	0.369
-451.953	800.000	-0.103	0.335
-450.938	800.000	-0.079	0.267
-449.924	16.069	0.282	0.221
-448.909	-200.000	0.002	-0.226
-447.895	-200.000	-0.033	-0.192
-446.880	-31.356	0.028	0.016
-445.865	-200.000	-0.049	-0.235
-444.851	800.000	-0.049	-0.190
-443.836	117.507	0.125	-0.152
-442.822	-4.481	0.303	-0.208
-441.807	-102.222	-0.143	-0.034
-440.792	240.045	-0.230	-0.380
-439.778	422.590	0.123	-0.262
-438.763	-200.000	-0.001	0.094
-437.749	800.000	0.067	-0.255
-436.734	31.913	0.076	-0.065
-435.719	19.093	-0.124	0.099
-434.705	-200.000	0.016	-0.122
-433.690	-134.652	0.430	-0.052
-432.676	-127.569	0.109	-0.016
-431.661	-200.000	-0.007	-0.231
-430.646	-200.000	-0.022	0.099
-429.632	60.993	0.227	-0.223
-428.617	40.945	-0.343	0.307
-427.603	800.000	-0.085	0.316
-426.588	-121.774	0.015	0.003
-425.573	800.000	-0.042	-0.163
-424.559	45.118	-0.178	0.162
-423.544	54.952	0.178	-0.171
-422.530	17.105	-0.119	-0.094
-421.515	800.000	0.067	0.270
-420.500	36.930	0.168	-0.147
-419.486	242.732	0.056	0.092
-418.471	339.487	-0.148	0.287
-417.457	800.000	0.053	0.188
-416.442	582.746	0.055	0.134
-415.428	81.891	-0.136	0.146
-414.413	336.814	0.117	0.225
-413.398	-139.960	-0.078	0.008
-412.384	-200.000	-0.024	-0.188
-411.369	-80.205	0.208	-0.069
-410.355	-10.026	0.075	0.049
-409.340	-200.000	-0.001	0.230
-408.325	-200.000	-0.059	0.297
-407.311	465.923	0.061	-0.136
-406.296	-200.000	0.031	0.179
-405.282	185.104	-0.307	0.451
-404.267	221.790	0.072	-0.115
-403.252	-82.265	0.242	-0.078
-402.238	-135.322	0.372	-0.044
-401.223	129.016	-0.079	0.100
-400.209	800.000	-0.058	0.249
-399.194	568.505	-0.132	-0.318
-398.179	149.225	0.057	-0.076
-397.165	27.534	0.155	0.129
-396.150	-88.681	-0.068	-0.020
-395.136	95.891	-0.115	0.130
-394.121	-0.764	-0.490	0.344
-393.106	-31.971	-0.096	-0.053
-392.092	-146.809	0.236	0.020
-391.077	-82.840	0.212	-0.068
-390.063	-31.987	0.276	-0.153
-389.048	-106.064	-0.060	-0.013
-388.033	800.000	0.026	-0.083
-387.019	-200.000	0.014	-0.217
-386.004	-84.191	-0.149	0.047
-384.990	-200.000	-0.012	0.065
-383.975	-200.000	0.025	0.123
-382.960	-200.000	-0.018	0.100
-381.946	800.000	0.087	0.307
-380.931	-200.000	0.021	-0.214
-379.917	84.679	0.271	-0.293
-378.902	-88.394	0.363	0.107
-377.888	-119.588	0.336	-0.058
-376.873	-149.766	-0.083	-0.006
-375.858	-196.682	-0.226	-0.001
-374.844	-200.000	-0.048	0.375
-373.829	-200.000	-0.019	0.242
-372.815	-161.637	0.165	-0.008
-371.800	370.480	-0.031	-0.062
-370.785	313.353	-0.076	-0.141
-369.771	800.000	-0.124	-0.437
-368.756	32.600	0.224	-0.191
-367.742	198.144	-0.202	-0.305
-366.727	282.779	-0.158	0.280
-365.712	800.000	0.028	0.089
-364.698	-200.000	-0.019	-0.132
-363.683	-24.422	-0.141	-0.083
-362.669	-89.093	0.299	0.087
-361.654	-8.607	0.358	0.238
-360.639	311.023	0.146	-0.271
-359.625	-200.000	0.005	-0.359
-358.610	800.000	-0.053	-0.181
-357.596	-165.890	0.046	-0.002
-356.581	170.608	-0.013	0.018
-355.566	-200.000	0.002	0.293
-354.552	800.000	-0.014	-0.053
-353.537	-146.679	0.299	0.026
-352.523	-59.802	-0.124	-0.053
-351.508	800.000	0.065	0.221
-350.493	-200.000	-0.023	0.129
-349.479	-28.094	0.222	-0.127
-348.464	-98.376	-0.258	-0.065
-347.450	-171.171	0.116	-0.004
-346.435	-88.785	0.356	0.104
-345.420	-200.000	-0.019	-0.153
-344.406	14.564	0.160	0.124
-343.391	-200.000	-0.005	-0.059
-342.377	59.159	0.064	0.063
-341.362	-200.000	-0.025	-0.222
-340.348	13.301	-0.140	-0.107
-339.333	-200.000	0.033	-0.243
-338.318	330.544	0.113	-0.215
-337.304	101.235	-0.075	0.086
-336.289	-139.673	-0.165	0.017
-335.275	-145.404	0.148	0.013
-334.260	-0.161	-0.290	-0.204
-333.245	800.000	-0.127	-0.364
-332.231	-157.755	-0.116	0.007
-331.216	800.000	0.015	-0.050
-330.202	-51.525	-0.153	0.070
-329.187	-200.000	0.024	0.154
-328.172	-160.674	0.136	-0.007
-327.158	-116.046	-0.360	0.066
-326.143	800.000	0.060	0.166
-325.129	-200.000	0.009	0.081
-324.114	-200.000	0.057	0.390
-323.099	390.935	-0.054	-0.111
-322.085	800.000	-0.074	-0.212
-321.070	310.938	-0.195	-0.360
-320.056	432.447	0.093	0.199
-319.041	456.125	-0.155	0.339
-318.026	-200.000	0.017	0.074
-317.012	516.234	0.071	0.164
-315.997	8.409	-0.177	-0.131
-314.983	800.000	0.027	-0.084
-313.968	-130.255	-0.293	0.039
-312.953	800.000	-0.089	-0.295
-311.939	141.898	0.289	-0.378
-310.924	-94.615	-0.107	0.029
-309.910	-93.504	-0.547	0.149
-308.895	-200.000	-0.016	-0.105
-307.880	-87.837	0.256	0.076
-306.866	-5.909	-0.081	-0.055
-305.851	-200.000	0.035	-0.287
-304.837	405.247	-0.158	0.329
-303.822	-200.000	-0.001	-0.432
-302.807	22.358	0.191	-0.154
-301.793	-103.530	0.227	-0.053
-300.778	-32.631	0.178	-0.098
-299.764	800.000	0.043	0.127
-298.749	-166.258	-0.175	-0.007
-297.735	-200.000	0.008	-0.271
-296.720	116.149	0.053	0.064
-295.705	328.190	-0.100	-0.189
-294.691	17.303	-0.222	-0.174
-293.676	-195.168	0.084	-0.001
-292.662	150.556	0.170	-0.228
-291.647	-158.095	-0.348	0.020
-290.632	281.952	-0.039	0.069
-289.618	-200.000	0.005	0.138
-288.603	-115.195	0.270	0.050
-287.589	800.000	-0.019	0.055
-286.574	800.000	-0.060	0.216
-285.559	-119.676	-0.275	-0.047
-284.545	800.000	-0.045	0.127
-283.530	800.000	-0.091	-0.381
-282.516	800.000	0.074	-0.315
-281.501	245.677	-0.115	0.190
-280.486	-200.000	0.020	-0.148
-279.472	24.836	-0.159	0.130
-278.457	800.000	-0.129	-0.457
-277.443	-21.469	-0.044	-0.026
-276.428	-85.987	0.184	0.056
-275.413	-122.138	0.207	0.033
-274.399	-65.855	0.112	-0.044
-273.384	800.000	0.078	-0.216
-272.370	800.000	-0.085	0.344
-271.355	112.503	-0.257	0.306
-270.340	406.084	-0.045	-0.093
-269.326	7.560	0.149	-0.110
-268.311	-66.013	0.266	0.105
-267.297	357.891	-0.062	0.122
-266.282	-200.000	0.018	0.102
-265.267	-200.000	-0.061	0.391
-264.253	74.841	0.134	-0.139
-263.238	-130.110	0.164	-0.022
-262.224	207.848	-0.111	-0.171
-261.209	-99.865	-0.214	0.053
-260.195	-200.000	0.026	0.288
-259.180	-137.379	-0.235	0.026
-258.165	398.021	0.098	-0.202
-257.151	-104.605	-0.113	0.026
-256.136	311.600	-0.165	0.304
-255.122	800.000	0.012	0.042
-254.107	8.445	0.248	0.184
-253.092	-69.612	0.191	-0.072
-252.078	-80.982	-0.018	0.006
-251.063	-24.683	0.294	-0.172
-250.049	-200.000	-0.048	-0.296
-249.034	-170.965	-0.098	-0.003
-248.019	-200.000	0.018	0.090
-247.005	-72.716	0.094	-0.034
-245.990	-6.823	0.366	-0.245
-244.976	-110.265	-0.239	0.049
-243.961	192.243	-0.112	0.166
-242.946	250.304	-0.049	-0.081
-241.932	-16.864	0.137	0.085
-240.917	-200.000	-0.012	0.316
-239.903	-64.251	-0.267	0.107
-238.888	-93.428	0.251	-0.068
-237.873	69.691	-0.298	-0.303
-236.859	-175.102	0.131	-0.004
-235.844	-91.232	0.388	0.109
-234.830	800.000	0.045	0.155
-233.815	-121.158	0.074	0.012
-232.800	-104.750	0.644	0.146
-231.786	-138.382	-0.197	0.021
-230.771	-5.394	-0.104	-0.070
-229.757	800.000	0.053	-0.210
-228.742	-76.353	-0.210	-0.073
-227.727	-38.502	-0.168	-0.087
-226.713	-200.000	0.039	0.361
-225.698	5.814	0.094	-0.068
-224.684	800.000	0.083	0.321
-223.669	-150.302	-0.344	-0.026
-222.655	-18.293	0.386	0.238
-221.640	141.105	0.070	0.091
-220.625	-155.640	-0.039	0.002
-219.611	-5.182	0.347	-0.235
-218.596	-86.605	-0.034	-0.010
-217.582	-101.370	-0.220	0.053
-216.567	-48.566	0.159	0.075
-215.552	-98.880	0.383	-0.096
-214.538	800.000	-0.113	-0.434
-213.523	363.317	-0.018	-0.035
-212.509	146.880	0.044	0.058
-211.494	-164.452	0.258	-0.012
-210.479	-200.000	0.003	-0.143
-209.465	-118.442	-0.319	0.056
-208.450	-82.176	0.360	-0.115
-207.436	39.564	-0.188	0.165
-206.421	-149.501	-0.508	0.040
-205.406	128.082	-0.132	0.165
-204.392	550.818	0.036	0.084
-203.377	236.875	0.051	-0.084
-202.363	-161.347	-0.196	-0.010
-201.348	-200.000	-0.019	0.157
-200.333	284.399	0.081	-0.143
-199.319	1.385	0.253	0.179
-198.304	99.644	0.147	-0.168
-197.290	-68.241	-0.180	-0.069
-196.275	-103.624	-0.329	-0.076
-195.260	-41.417	0.286	-0.145
-194.246	4.052	0.090	-0.065
-193.231	-200.000	-0.019	-0.216
-192.217	800.000	0.053	-0.159
-191.202	-73.927	0.300	0.107
-190.187	148.226	0.216	0.287
-189.173	221.097	-0.124	-0.195
-188.158	800.000	0.064	0.217
-187.144	-37.119	0.197	-0.104
-186.129	545.337	-0.117	0.274
-185.114	24.381	-0.015	0.012
-184.100	800.000	0.024	-0.101
-183.085	75.003	0.169	-0.175
-182.071	-135.153	0.335	0.040
-181.056	133.517	0.114	-0.145
-180.042	-200.000	-0.016	0.116
-179.027	269.157	-0.100	0.173
-178.012	-43.621	0.141	-0.070
-176.998	-26.740	-0.266	-0.153
-175.983	363.843	0.011	-0.022
-174.969	-200.000	0.030	-0.242
-173.954	174.389	-0.175	-0.249
-172.939	-87.596	0.149	0.044
-171.925	-200.000	0.007	-0.193
-170.910	-135.790	-0.236	-0.027
-169.896	-200.000	-0.038	-0.287
-168.881	-3.669	-0.048	0.033
-167.866	-102.536	-0.155	0.036
-166.852	525.838	0.138	0.320
-165.837	-154.348	0.164	0.011
-164.823	-17.175	-0.101	0.063
-163.808	-200.000	0.002	0.159
-162.793	272.309	0.033	0.057
-161.779	-34.608	0.160	0.086
-160.764	101.802	0.093	0.106
-159.750	365.638	0.158	0.312
-158.735	-138.899	-0.253	0.027
-157.720	87.551	-0.255	0.277
-156.706	126.409	-0.133	-0.165
-155.691	390.374	-0.177	-0.359
-154.677	800.000	-0.035	-0.099
-153.662	-88.018	-0.130	0.038
-152.647	15.064	0.282	0.217
-151.633	-173.747	-0.047	-0.001
-150.618	538.462	0.050	-0.117
-149.604	800.000	-0.029	0.108
-148.589	52.196	0.234	0.219
-147.574	184.483	-0.067	-0.098
-146.560	-200.000	0.047	0.473
-145.545	-200.000	0.028	-0.270
-144.531	153.644	-0.080	-0.108
-143.516	271.385	-0.219	-0.379
-142.502	-134.177	0.050	-0.006
-141.487	98.527	-0.066	0.075
-140.472	3.178	0.491	0.350
-139.458	800.000	0.071	-0.286
-138.443	-200.000	-0.055	0.262
-137.429	-200.000	0.092	-0.472
-136.414	-64.244	-0.036	-0.014
-135.399	-134.786	-0.410	0.049
-134.385	-42.452	0.169	-0.085
-133.370	119.419	0.038	0.047
-132.356	96.328	-0.303	0.340
-131.341	184.254	-0.251	-0.364
-130.326	-200.000	-0.003	0.343
-129.312	-98.746	-0.127	-0.032
-128.297	-89.465	0.119	0.034
-127.283	-54.210	-0.099	0.044
-126.268	-113.715	-0.314	0.060
-125.253	-9.482	0.287	-0.187
-124.239	18.730	0.193	-0.152
-123.224	-80.529	-0.358	0.117
-122.210	-34.368	0.289	0.155
