DTS Sentinel unit serial number:	SN413079Multiplexer serial number:	ORYXHardware model number:	OX4-SRSoftware version number:	ORYX F/W v4.00 Oryx Data Collector v3.7.2.0data status	okinstallation	princeton_trtdifferential loss correction	single-endedforward channel	channel 2reverse channel	N/Adate	2019/09/13time	03:07:34forward acquisition time	60.00reverse acquisition time	0.00gamma	496.2192k internal	0.2334k external	0.2334temperature offset calibration	1.0192default loss term (dB/km)	0.3790temperature slope calibration	1.0000multiplexer offset coefficient	1.0000multiplexer slope coefficient	1.0000fibre end	0.00T internal ref (°C)	27.39T ext. ref 1 (°C)	4.07T ext. ref 2 (°C)	22.17length (m)	temperature (°C)	Stokes	anti-Stokes-747.200	-0.598	-0.210	-0.150
-746.185	414.081	-0.164	0.350
-745.171	444.907	-0.082	-0.182
-744.156	102.303	0.091	-0.107
-743.142	205.017	-0.076	0.119
-742.127	275.856	-0.165	0.295
-741.112	800.000	0.045	-0.192
-740.098	5.028	0.251	0.186
-739.083	-93.130	0.212	-0.059
-738.069	128.801	-0.103	0.132
-737.054	-200.000	0.020	0.110
-736.039	-27.164	-0.170	-0.100
-735.025	-47.865	0.126	-0.061
-734.010	497.455	0.146	-0.338
-732.996	-84.563	-0.177	0.056
-731.981	564.814	0.028	-0.069
-730.966	-200.000	-0.003	-0.068
-729.952	-60.530	-0.265	-0.113
-728.937	130.386	-0.153	-0.197
-727.923	12.433	0.074	-0.057
-726.908	28.886	-0.227	-0.193
-725.894	-200.000	0.298	0.001
-724.879	476.916	-0.131	0.298
-723.864	-29.850	0.227	0.130
-722.850	-152.506	0.175	0.013
-721.835	-200.000	-0.101	-0.453
-720.821	22.171	-0.142	0.117
-719.806	129.181	-0.092	0.117
-718.791	174.107	-0.194	0.281
-717.777	155.671	0.102	-0.140
-716.762	-200.000	0.049	-0.346
-715.748	152.295	0.083	-0.114
-714.733	-90.452	0.104	-0.030
-713.718	88.425	-0.142	-0.158
-712.704	445.365	0.092	-0.204
-711.689	-200.000	-0.010	-0.258
-710.675	-31.943	0.141	-0.079
-709.660	-160.974	-0.436	0.023
-708.645	-74.803	-0.408	-0.147
-707.631	22.843	-0.090	-0.074
-706.616	-5.145	-0.435	-0.300
-705.602	586.108	-0.123	-0.305
-704.587	180.331	-0.129	-0.190
-703.572	183.720	-0.253	-0.375
-702.558	90.677	0.104	-0.117
-701.543	162.164	-0.085	0.120
-700.529	-119.040	0.191	-0.034
-699.514	-200.000	0.013	-0.102
-698.499	468.461	0.053	-0.119
-697.485	-187.992	-0.263	-0.003
-696.470	-3.974	0.157	0.109
-695.456	-33.588	-0.162	0.090
-694.441	193.285	-0.166	0.252
-693.426	455.082	-0.065	0.145
-692.412	-200.000	-0.019	-0.158
-691.397	-200.000	0.001	-0.225
-690.383	-146.080	-0.169	-0.015
-689.368	-200.000	-0.024	0.393
-688.354	673.057	0.032	-0.084
-687.339	800.000	0.029	-0.086
-686.324	612.035	0.143	-0.359
-685.310	800.000	-0.063	-0.276
-684.295	-34.802	0.090	-0.049
-683.281	110.866	-0.084	0.101
-682.266	531.310	0.108	-0.256
-681.251	335.525	-0.216	-0.419
-680.237	-200.000	-0.045	-0.208
-679.222	-200.000	-0.070	-0.313
-678.208	-200.000	-0.007	0.097
-677.193	-200.000	0.034	-0.394
-676.178	-165.920	-0.200	0.009
-675.164	-200.000	-0.025	-0.134
-674.149	260.203	0.073	-0.127
-673.135	-96.247	-0.301	-0.080
-672.120	311.774	0.062	-0.117
-671.105	-10.722	0.249	-0.165
-670.091	88.867	-0.229	-0.255
-669.076	-200.000	-0.036	0.177
-668.062	111.515	-0.106	-0.128
-667.047	-131.755	-0.045	-0.006
-666.032	-200.000	0.011	0.071
-665.018	162.607	-0.189	0.266
-664.003	258.411	0.216	0.373
-662.989	475.377	0.120	-0.271
-661.974	7.358	0.194	-0.145
-660.959	-40.417	-0.133	0.069
-659.945	-95.233	-0.244	0.066
-658.930	86.799	-0.088	-0.097
-657.916	-74.894	0.241	0.087
-656.901	-172.307	-0.301	-0.010
-655.886	692.905	0.060	0.157
-654.872	-128.554	0.172	-0.024
-653.857	-150.266	-0.224	0.017
-652.843	800.000	0.053	-0.230
-651.828	-200.000	-0.024	-0.289
-650.814	195.890	0.079	0.121
-649.799	-105.016	0.175	-0.040
-648.784	800.000	0.071	-0.248
-647.770	12.432	0.362	-0.280
-646.755	-200.000	0.003	-0.039
-645.741	79.769	-0.147	-0.158
-644.726	-125.656	-0.341	-0.052
-643.711	-20.112	0.196	0.121
-642.697	800.000	0.026	0.094
-641.682	17.196	0.176	-0.140
-640.668	258.511	-0.276	-0.476
-639.653	158.575	-0.223	-0.310
-638.638	-71.856	0.155	0.058
-637.624	-0.443	-0.101	-0.072
-636.609	135.266	0.078	-0.102
-635.595	35.992	0.207	-0.182
-634.580	800.000	-0.078	-0.226
-633.565	116.279	0.138	0.169
-632.551	7.681	0.214	-0.160
-631.536	71.486	-0.070	-0.073
-630.522	-85.554	-0.117	-0.036
-629.507	50.308	0.120	-0.113
-628.492	-35.874	0.190	0.103
-627.478	-200.000	-0.021	0.356
-626.463	-79.528	-0.042	0.014
-625.449	800.000	0.092	-0.265
-624.434	88.777	-0.135	0.151
-623.419	-52.507	-0.341	0.158
-622.405	-82.336	0.232	0.076
-621.390	800.000	0.061	0.197
-620.376	-200.000	-0.046	0.223
-619.361	415.725	0.033	-0.071
-618.346	-66.282	-0.146	-0.058
-617.332	-46.246	0.248	-0.122
-616.317	-97.451	0.304	0.079
-615.303	-82.286	-0.103	-0.033
-614.288	118.517	0.042	-0.052
-613.273	35.255	-0.152	-0.133
-612.259	-163.593	-0.223	0.011
-611.244	-37.682	0.145	0.077
-610.230	139.133	-0.214	0.281
-609.215	-57.485	-0.139	-0.061
-608.201	-53.089	-0.554	-0.254
-607.186	800.000	0.065	0.219
-606.171	1.568	-0.175	-0.126
-605.157	161.409	-0.080	-0.112
-604.142	8.260	-0.173	0.130
-603.128	27.139	-0.227	0.191
-602.113	-41.878	0.109	-0.056
-601.098	800.000	-0.061	-0.259
-600.084	-20.640	-0.125	0.077
-599.069	155.536	-0.189	-0.261
-598.055	120.198	0.182	-0.226
-597.040	251.039	-0.148	-0.252
-596.025	-200.000	0.030	-0.243
-595.011	64.762	-0.149	0.151
-593.996	-200.000	0.027	0.254
-592.982	175.145	0.088	-0.127
-591.967	-200.000	0.003	-0.147
-590.952	-74.857	-0.293	-0.105
-589.938	20.267	0.369	0.297
-588.923	800.000	-0.105	-0.399
-587.909	428.514	-0.089	0.192
-586.894	-42.785	0.230	-0.117
-585.879	89.346	0.083	0.092
-584.865	-19.016	0.248	0.154
-583.850	1.013	0.200	-0.143
-582.836	-25.104	-0.422	-0.250
-581.821	-200.000	-0.039	-0.220
-580.806	-200.000	0.040	0.227
-579.792	455.875	-0.073	-0.161
-578.777	-14.385	-0.274	0.176
-577.763	45.846	0.116	-0.107
-576.748	199.923	0.107	0.164
-575.733	428.159	-0.077	-0.167
-574.719	800.000	0.054	-0.223
-573.704	-133.572	-0.536	0.067
-572.690	800.000	-0.015	-0.062
-571.675	128.342	0.263	-0.334
-570.661	800.000	-0.008	0.026
-569.646	-200.000	-0.019	-0.139
-568.631	796.219	-0.032	0.087
-567.617	-6.709	-0.275	-0.187
-566.602	-138.333	-0.202	0.022
-565.588	62.183	-0.146	-0.145
-564.573	-70.036	-0.123	0.047
-563.558	49.818	-0.168	-0.158
-562.544	35.846	-0.328	-0.288
-561.529	-19.926	-0.106	0.065
-560.515	393.555	-0.096	-0.199
-559.500	-111.047	-0.456	0.093
-558.485	-125.688	-0.222	-0.034
-557.471	65.570	0.106	0.108
-556.456	-15.569	0.085	-0.054
-555.442	-170.041	-0.263	-0.009
-554.427	800.000	0.067	-0.194
-553.412	432.629	-0.081	-0.175
-552.398	174.193	0.151	-0.218
-551.383	499.019	-0.031	0.070
-550.369	344.496	-0.088	0.172
-549.354	642.148	0.128	0.326
-548.339	-20.643	-0.370	0.227
-547.325	-90.678	0.094	-0.027
-546.310	278.699	0.107	0.190
-545.296	-54.064	0.225	0.102
-544.281	52.738	0.153	0.146
-543.266	800.000	-0.112	-0.463
-542.252	274.754	-0.141	-0.249
-541.237	71.949	-0.138	-0.143
-540.223	-200.000	0.017	0.119
-539.208	366.245	0.136	-0.273
-538.193	108.648	-0.096	0.115
-537.179	57.890	-0.172	0.167
-536.164	-19.679	0.172	-0.106
-535.150	-200.000	0.055	0.436
-534.135	-58.637	0.145	0.063
-533.121	-118.866	-0.053	0.009
-532.106	-177.854	-0.191	0.005
-531.091	-120.107	0.184	0.031
-530.077	-80.824	0.293	0.097
-529.062	-73.252	0.178	0.065
-528.048	70.436	0.126	0.130
-527.033	294.575	-0.109	0.198
-526.018	139.565	0.127	-0.166
-525.004	-93.258	0.161	0.045
-523.989	-18.041	-0.122	0.076
-522.975	-115.339	0.451	0.085
-521.960	-200.000	-0.026	-0.333
-520.945	59.966	-0.124	-0.122
-519.931	-200.000	0.001	0.394
-518.916	16.267	0.076	-0.060
-517.902	-73.452	0.054	0.020
-516.887	470.087	0.078	-0.175
-515.872	800.000	0.046	-0.131
-514.858	-200.000	-0.026	0.201
-513.843	-11.587	0.210	-0.137
-512.829	-200.000	0.019	-0.280
-511.814	-104.832	-0.114	-0.026
-510.799	-26.331	0.202	-0.118
-509.785	299.613	0.185	0.339
-508.770	-81.804	0.081	0.026
-507.756	274.579	-0.057	0.101
-506.741	358.370	0.187	-0.371
-505.726	-49.499	0.197	-0.094
-504.712	-200.000	0.007	-0.124
-503.697	-197.834	0.219	0.001
-502.683	-200.000	-0.105	0.000
-501.668	-9.258	0.045	-0.030
-500.653	119.883	-0.133	0.164
-499.639	-200.000	0.040	0.209
-498.624	137.979	-0.152	0.199
-497.610	-200.000	0.086	-0.453
-496.595	-101.134	0.134	-0.033
-495.581	297.205	-0.056	0.103
-494.566	-200.000	0.009	-0.117
-493.551	-71.639	0.081	-0.030
-492.537	-37.629	0.131	0.069
-491.522	676.317	-0.064	-0.166
-490.508	-180.898	-0.413	-0.008
-489.493	-39.246	0.235	0.123
-488.478	64.578	-0.129	-0.130
-487.464	-200.000	0.070	-0.372
-486.449	-23.114	-0.290	0.174
-485.435	-200.000	0.002	0.255
-484.420	-68.374	-0.086	-0.033
-483.405	-77.018	0.293	0.102
-482.391	-23.558	0.357	0.213
-481.376	-200.000	0.032	0.327
-480.362	-122.080	0.173	-0.028
-479.347	96.131	0.153	0.174
-478.332	14.000	-0.129	-0.100
-477.318	-81.124	-0.210	0.069
-476.303	800.000	0.024	0.068
-475.289	71.384	-0.154	-0.159
-474.274	-32.096	-0.092	-0.051
-473.259	-180.703	0.264	-0.005
-472.245	-200.000	-0.009	0.161
-471.230	1.616	-0.102	0.073
-470.216	-178.418	-0.230	-0.005
-469.201	-87.247	0.146	0.044
-468.186	-35.928	0.088	-0.048
-467.172	431.385	-0.014	-0.031
-466.157	-200.000	0.002	-0.160
-465.143	60.341	0.204	0.200
-464.128	-149.837	0.211	-0.016
-463.113	472.199	0.069	0.155
-462.099	758.877	0.069	0.185
-461.084	-200.000	-0.027	0.267
-460.070	-50.309	-0.579	0.272
-459.055	-200.000	-0.018	0.199
-458.040	-153.829	0.214	0.015
-457.026	266.401	-0.087	0.152
-456.011	800.000	0.046	-0.192
-454.997	107.388	-0.091	-0.107
-453.982	-44.605	0.226	0.112
-452.968	-97.147	-0.130	-0.034
-451.953	-139.352	0.345	0.037
-450.938	-200.000	0.045	0.275
-449.924	119.419	-0.169	0.208
-448.909	123.626	0.111	-0.139
-447.895	572.357	-0.095	0.230
-446.880	-200.000	-0.005	-0.043
-445.865	92.217	-0.155	0.174
-444.851	-193.195	-0.391	-0.003
-443.836	-162.558	0.318	-0.016
-442.822	275.596	-0.194	-0.341
-441.807	-141.739	-0.288	-0.029
-440.792	-200.000	-0.028	-0.298
-439.778	-156.211	-0.228	0.014
-438.763	103.107	-0.353	-0.411
-437.749	242.173	0.310	-0.514
-436.734	-118.271	-0.269	0.047
-435.719	-51.059	-0.185	0.086
-434.705	-80.877	0.071	0.023
-433.690	-147.313	-0.116	0.010
-432.676	323.533	-0.047	0.089
-431.661	31.912	-0.260	0.223
-430.646	-36.448	0.075	-0.040
-429.632	470.818	-0.022	-0.049
-428.617	-200.000	-0.034	0.325
-427.603	-62.808	-0.219	-0.090
-426.588	-54.484	0.162	-0.073
-425.573	-24.550	-0.090	0.053
-424.559	-200.000	0.020	0.193
-423.544	-177.602	0.178	0.004
-422.530	-42.167	-0.427	-0.217
-421.515	-200.000	-0.021	-0.101
-420.500	-110.779	-0.112	0.023
-419.486	399.266	0.120	0.249
-418.471	585.485	-0.093	0.226
-417.457	800.000	0.075	0.263
-416.442	-27.528	0.127	-0.073
-415.428	-101.937	-0.082	0.020
-414.413	-200.000	-0.040	0.273
-413.398	400.766	0.186	-0.388
-412.384	-46.912	0.284	-0.138
-411.369	-200.000	-0.001	-0.223
-410.355	-69.274	0.318	-0.121
-409.340	-82.154	0.033	0.011
-408.325	-128.424	0.135	0.019
-407.311	56.575	-0.161	0.156
-406.296	-200.000	0.008	-0.192
-405.282	-7.394	-0.193	-0.130
-404.267	150.248	-0.082	0.110
-403.252	-5.329	0.200	-0.137
-402.238	668.709	0.033	0.085
-401.223	-200.000	0.020	-0.134
-400.209	18.573	0.262	0.208
-399.194	30.986	-0.174	-0.148
-398.179	70.561	0.126	0.129
-397.165	-200.000	0.023	0.225
-396.150	333.088	-0.033	0.063
-395.136	-91.180	0.317	0.090
-394.121	-200.000	0.066	0.547
-393.106	96.743	0.339	0.385
-392.092	285.713	-0.131	0.234
-391.077	207.515	-0.032	-0.049
-390.063	-44.565	-0.227	0.113
-389.048	67.347	0.228	0.231
-388.033	98.520	-0.076	-0.087
-387.019	-3.746	0.106	0.073
-386.004	305.176	0.166	0.305
-384.990	-37.925	-0.261	0.137
-383.975	-20.413	-0.072	0.044
-382.960	-200.000	-0.028	0.181
-381.946	-53.309	0.355	0.161
-380.931	-173.565	0.224	0.007
-379.917	70.422	0.274	0.281
-378.902	26.862	0.370	0.307
-377.888	-72.609	0.235	0.086
-376.873	-79.870	0.329	0.109
-375.858	-89.809	0.106	0.031
-374.844	-46.108	-0.082	-0.040
-373.829	149.504	-0.005	0.007
-372.815	353.755	0.180	0.354
-371.800	615.562	0.071	-0.176
-370.785	-127.380	-0.140	0.020
-369.771	800.000	0.047	0.191
-368.756	19.192	0.146	0.116
-367.742	151.753	-0.166	0.225
-366.727	800.000	-0.058	-0.233
-365.712	14.990	-0.090	-0.070
-364.698	36.062	0.091	0.079
-363.683	-200.000	0.020	-0.152
-362.669	138.393	-0.084	0.109
-361.654	-175.778	0.224	-0.006
-360.639	251.382	-0.064	0.108
-359.625	-200.000	0.004	0.307
-358.610	-15.175	0.114	0.073
-357.596	-200.000	-0.067	-0.470
-356.581	-200.000	0.035	-0.182
-355.566	800.000	-0.067	-0.219
-354.552	155.191	0.213	0.291
-353.537	136.281	0.031	-0.040
-352.523	194.408	-0.027	-0.041
-351.508	-124.629	0.164	-0.025
-350.493	528.718	0.064	-0.149
-349.479	20.486	-0.165	-0.132
-348.464	669.179	0.123	-0.316
-347.450	-117.209	0.208	-0.037
-346.435	-48.110	-0.129	-0.062
-345.420	-113.400	-0.087	0.017
-344.406	409.327	0.069	-0.145
-343.391	-51.843	-0.255	0.117
-342.377	-200.000	-0.024	0.128
-341.362	-119.700	-0.235	0.040
-340.348	-200.000	0.066	-0.394
-339.333	-141.351	0.122	0.012
-338.318	313.905	-0.124	0.232
-337.304	131.268	-0.223	-0.284
-336.289	57.878	-0.246	0.238
-335.275	117.493	-0.142	0.173
-334.260	516.179	-0.075	-0.174
-333.245	63.639	-0.075	-0.075
-332.231	100.809	-0.119	0.137
-331.216	-4.184	0.025	0.017
-330.202	-200.000	-0.036	0.163
-329.187	514.904	-0.076	-0.175
-328.172	-23.516	-0.275	-0.163
-327.158	2.933	0.247	-0.178
-326.143	-200.000	0.001	-0.190
-325.129	185.341	-0.126	-0.185
-324.114	428.244	0.068	0.144
-323.099	800.000	0.014	0.054
-322.085	-200.000	0.004	0.127
-321.070	-93.829	0.437	-0.119
-320.056	-10.287	-0.219	0.144
-319.041	-9.402	-0.095	-0.063
-318.026	-71.221	0.307	0.114
-317.012	-151.091	-0.174	-0.013
-315.997	33.096	-0.100	0.085
-314.983	-200.000	0.074	0.373
-313.968	-177.407	-0.244	-0.006
-312.953	-86.765	-0.052	0.016
-311.939	-141.189	0.109	0.011
-310.924	93.353	-0.096	0.107
-309.910	566.870	0.059	0.143
-308.895	-58.131	-0.140	-0.060
-307.880	55.124	-0.286	-0.273
-306.866	110.460	0.040	-0.048
-305.851	158.184	0.174	0.238
-304.837	800.000	0.055	0.235
-303.822	-200.000	0.020	0.119
-302.807	332.018	0.137	0.262
-301.793	208.982	-0.148	0.229
-300.778	-152.173	-0.386	-0.028
-299.764	422.107	0.058	0.122
-298.749	-139.950	-0.227	0.024
-297.735	-64.925	-0.147	-0.059
-296.720	11.630	-0.070	-0.053
-295.705	-14.979	0.068	0.043
-294.691	16.563	-0.040	-0.031
-293.676	-142.858	-0.617	-0.059
-292.662	-200.000	-0.044	-0.323
-291.647	28.248	0.218	0.181
-290.632	149.776	-0.127	-0.170
-289.618	-56.370	0.189	-0.083
-288.603	1.412	-0.158	0.112
-287.589	212.060	0.166	-0.259
-286.574	-111.574	0.229	-0.046
-285.559	-22.815	-0.157	-0.093
-284.545	51.618	0.082	-0.077
-283.530	68.063	-0.187	0.189
-282.516	125.295	-0.099	-0.123
-281.501	-126.270	-0.034	-0.005
-280.486	-3.716	-0.243	-0.166
-279.472	800.000	-0.076	-0.220
-278.457	40.980	-0.214	-0.191
-277.443	-31.505	0.193	0.107
-276.428	111.936	0.140	0.166
-275.413	-26.048	0.086	0.050
-274.399	-39.842	0.243	0.125
-273.384	-23.500	-0.151	-0.089
-272.370	-39.351	-0.170	-0.088
-271.355	53.236	-0.160	-0.151
-270.340	-200.000	-0.060	-0.377
-269.326	800.000	-0.046	-0.147
-268.311	14.129	0.147	0.113
-267.297	-193.144	-0.323	0.003
-266.282	623.841	0.029	0.073
-265.267	528.402	0.097	-0.225
-264.253	800.000	-0.022	0.093
-263.238	-200.000	-0.013	0.118
-262.224	755.762	0.087	-0.231
-261.209	6.862	-0.281	-0.206
-260.195	-94.750	-0.220	-0.059
-259.180	-105.778	0.192	-0.043
-258.165	-24.763	-0.186	0.109
-257.151	-3.365	-0.236	-0.162
-256.136	49.110	-0.329	-0.305
-255.122	107.670	-0.132	-0.155
-254.107	-200.000	0.037	-0.534
-253.092	116.418	0.100	0.121
-252.078	52.407	-0.110	0.103
-251.063	30.353	0.064	0.054
-250.049	-49.525	0.166	-0.078
-249.034	-49.083	0.192	0.091
-248.019	-82.399	0.216	-0.069
-247.005	-23.695	0.242	0.143
-245.990	33.032	0.292	0.249
-244.976	790.387	-0.056	-0.151
-243.961	800.000	-0.062	-0.215
-242.946	-170.251	0.192	-0.007
-241.932	0.347	0.186	0.131
-240.917	-138.110	-0.263	0.029
-239.903	176.517	0.246	-0.353
-238.888	-119.990	0.168	0.028
-237.873	70.225	-0.077	0.079
-236.859	-200.000	-0.025	-0.113
-235.844	120.122	-0.029	0.036
-234.830	-79.473	-0.161	0.054
-233.815	136.788	-0.092	-0.119
-232.800	800.000	-0.019	0.058
-231.786	800.000	0.041	0.166
-230.771	-63.591	0.330	0.133
-229.757	-109.410	0.213	-0.044
-228.742	96.361	0.178	0.201
-227.727	-62.277	-0.127	0.052
-226.713	-200.000	-0.025	0.246
-225.698	279.002	-0.187	0.329
-224.684	-107.581	0.103	0.022
-223.669	-69.548	-0.017	-0.006
-222.655	-200.000	0.001	-0.288
-221.640	240.699	-0.104	0.171
-220.625	232.990	-0.085	0.138
-219.611	-75.488	-0.196	0.069
-218.596	-111.606	0.316	-0.063
-217.582	79.676	-0.211	0.223
-216.567	-133.251	0.370	0.046
-215.552	736.782	0.042	0.112
-214.538	-102.498	0.242	-0.057
-213.523	-200.000	0.095	0.417
-212.509	-129.156	0.129	-0.018
-211.494	97.397	0.211	0.239
-210.479	-44.147	0.277	0.137
-209.465	144.692	0.129	0.169
-208.450	-15.705	-0.158	0.099
-207.436	77.926	0.092	0.097
-206.421	-134.698	-0.058	-0.007
-205.406	-50.359	0.433	-0.201
-204.392	67.338	-0.220	0.221
-203.377	152.529	-0.046	0.062
-202.363	63.341	0.008	0.008
-201.348	335.410	-0.155	0.295
-200.333	185.659	0.198	-0.289
-199.319	800.000	-0.039	-0.165
-198.304	-200.000	-0.013	-0.058
-197.290	189.332	0.195	0.288
-196.275	-0.898	-0.238	-0.165
-195.260	483.122	0.132	0.295
-194.246	282.416	-0.012	0.020
-193.231	186.455	-0.098	0.143
-192.217	3.646	-0.177	0.127
-191.202	-91.722	0.175	0.049
-190.187	800.000	0.110	-0.452
-189.173	195.622	-0.235	-0.351
-188.158	-95.685	0.205	-0.054
-187.144	-10.798	-0.168	0.109
-186.129	-83.636	-0.084	-0.026
-185.114	370.793	-0.214	-0.426
-184.100	-17.430	0.103	0.063
-183.085	-109.542	0.194	0.040
-182.071	-17.031	0.114	-0.071
-181.056	800.000	-0.061	0.264
-180.042	-155.753	-0.427	0.027
-179.027	214.206	0.111	0.173
-178.012	-90.275	0.372	0.106
-176.998	-200.000	-0.022	-0.298
-175.983	800.000	-0.077	-0.252
-174.969	229.571	-0.146	-0.234
-173.954	-200.000	-0.068	0.301
-172.939	16.346	0.140	-0.108
-171.925	103.214	-0.370	-0.427
-170.910	747.447	0.081	0.214
-169.896	-10.052	0.074	0.048
-168.881	89.401	0.162	0.178
-167.866	-152.768	0.236	-0.016
-166.852	800.000	0.106	-0.372
-165.837	-63.422	0.266	-0.108
-164.823	-200.000	-0.007	-0.264
-163.808	-200.000	0.009	0.079
-162.793	295.397	-0.070	0.126
-161.779	-97.859	0.186	-0.047
-160.764	-172.589	-0.287	0.009
-159.750	-81.947	0.044	-0.014
-158.735	-200.000	0.003	0.100
-157.720	9.422	0.361	0.268
-156.706	-64.409	-0.235	-0.094
-155.691	-118.705	-0.316	0.055
-154.677	-88.360	0.542	-0.159
-153.662	-151.818	0.049	0.004
-152.647	-200.000	0.016	-0.137
-151.633	52.828	-0.066	0.062
-150.618	125.832	0.023	0.029
-149.604	297.362	0.026	0.047
-148.589	-181.171	-0.084	-0.002
-147.574	87.072	0.193	0.209
-146.560	56.724	-0.328	0.313
-145.545	-112.109	0.196	-0.039
-144.531	800.000	0.067	-0.247
-143.516	116.775	0.064	-0.077
-142.502	-17.127	0.024	0.015
-141.487	-200.000	-0.008	-0.326
-140.472	318.213	0.148	-0.275
-139.458	-130.678	0.274	-0.036
-138.443	270.144	-0.226	-0.390
-137.429	-19.569	-0.105	-0.064
-136.414	-158.185	-0.165	0.009
-135.399	-79.080	0.204	0.068
-134.385	143.365	0.213	0.278
-133.370	800.000	-0.113	0.375
-132.356	229.877	-0.084	-0.135
-131.341	81.965	-0.129	0.137
-130.326	-200.000	0.072	0.602
-129.312	-49.388	0.171	-0.080
-128.297	-106.980	0.307	0.067
-127.283	-200.000	0.002	-0.191
-126.268	-22.434	0.138	-0.082
-125.253	-123.735	-0.225	0.035
-124.239	-77.680	0.092	0.031
-123.224	-200.000	-0.008	-0.086
-122.210	355.810	0.083	0.163
-121.195	-200.000	-0.007	0.219
