DTS Sentinel unit serial number:	SN413079Multiplexer serial number:	ORYXHardware model number:	OX4-SRSoftware version number:	ORYX F/W v4.00 Oryx Data Collector v3.7.2.0data status	okinstallation	princeton_trtdifferential loss correction	single-endedforward channel	channel 2reverse channel	N/Adate	2019/09/18time	22:27:35forward acquisition time	60.00reverse acquisition time	0.00gamma	496.2192k internal	0.2349k external	0.2349temperature offset calibration	1.0022default loss term (dB/km)	0.3790temperature slope calibration	1.0000multiplexer offset coefficient	1.0000multiplexer slope coefficient	1.0000fibre end	0.00T internal ref (°C)	24.25T ext. ref 1 (°C)	0.80T ext. ref 2 (°C)	17.94length (m)	temperature (°C)	Stokes	anti-Stokes-747.200	189.859	-0.156	-0.234
-746.185	245.385	0.065	-0.109
-745.171	-117.894	-0.258	0.046
-744.156	194.606	0.190	0.289
-743.142	-109.699	0.218	-0.046
-742.127	-31.312	-0.202	-0.114
-741.112	800.000	-0.076	0.223
-740.098	40.203	-0.222	0.199
-739.083	-194.454	-0.268	0.002
-738.069	-56.005	-0.342	-0.152
-737.054	278.853	-0.102	-0.182
-736.039	-91.423	-0.272	-0.078
-735.025	-92.527	-0.092	-0.026
-734.010	800.000	-0.098	-0.274
-732.996	-46.662	-0.347	-0.170
-731.981	-200.000	0.025	0.161
-730.966	-0.995	-0.257	0.182
-729.952	244.289	0.066	0.110
-728.937	-99.397	-0.033	-0.008
-727.923	-200.000	0.011	-0.116
-726.908	-200.000	-0.034	-0.151
-725.894	-200.000	-0.050	-0.296
-724.879	23.007	-0.058	0.047
-723.864	-135.864	-0.245	0.029
-722.850	-72.686	0.492	-0.181
-721.835	44.722	0.189	-0.173
-720.821	-183.325	0.174	0.003
-719.806	15.814	0.293	0.230
-718.791	-53.069	-0.289	-0.132
-717.777	275.322	-0.049	-0.087
-716.762	39.754	0.169	-0.152
-715.748	706.854	0.113	0.297
-714.733	119.836	-0.165	-0.204
-713.718	61.380	0.043	0.042
-712.704	-44.778	-0.193	0.096
-711.689	105.524	-0.162	0.191
-710.675	109.492	-0.038	0.046
-709.660	-200.000	-0.003	-0.404
-708.645	-24.956	0.264	-0.156
-707.631	777.483	0.086	-0.233
-706.616	273.101	0.207	-0.365
-705.602	-140.833	-0.154	0.016
-704.587	800.000	-0.012	-0.041
-703.572	-93.581	-0.237	-0.065
-702.558	-112.502	0.338	0.067
-701.543	800.000	-0.068	0.282
-700.529	89.040	-0.186	-0.206
-699.514	100.377	0.113	0.131
-698.499	-125.627	-0.229	0.035
-697.485	-5.398	-0.221	-0.151
-696.470	113.123	-0.101	-0.122
-695.456	-200.000	0.069	-0.308
-694.441	21.250	0.152	0.123
-693.426	203.962	0.029	0.045
-692.412	11.912	-0.192	0.147
-691.397	-200.000	-0.012	-0.179
-690.383	21.646	0.242	0.196
-689.368	-200.000	-0.333	0.001
-688.354	-200.000	-0.060	0.316
-687.339	800.000	-0.034	-0.116
-686.324	-200.000	-0.040	0.287
-685.310	741.979	0.130	-0.348
-684.295	-200.000	0.019	-0.222
-683.281	438.161	-0.097	-0.211
-682.266	-76.850	0.064	-0.022
-681.251	208.574	0.040	0.062
-680.237	-93.140	-0.397	-0.110
-679.222	-67.093	0.130	-0.051
-678.208	4.800	0.190	-0.139
-677.193	800.000	-0.053	0.205
-676.178	258.943	-0.116	0.199
-675.164	207.158	0.045	0.070
-674.149	-50.503	-0.232	0.109
-673.135	-200.000	-0.037	-0.207
-672.120	106.190	-0.077	-0.091
-671.105	271.937	-0.123	0.216
-670.091	800.000	0.051	-0.175
-669.076	264.290	-0.034	0.058
-668.062	483.584	0.078	0.177
-667.047	188.424	-0.211	0.314
-666.032	130.557	-0.128	0.164
-665.018	800.000	0.022	0.071
-664.003	-200.000	0.036	-0.412
-662.989	-17.995	-0.339	-0.212
-661.974	4.823	0.266	-0.195
-660.959	-74.063	0.088	0.032
-659.945	35.141	-0.219	0.191
-658.930	127.384	-0.214	-0.270
-657.916	449.433	0.067	-0.148
-656.901	-200.000	-0.169	0.000
-655.886	-161.596	0.097	0.005
-654.872	10.566	-0.123	-0.094
-653.857	-104.254	0.166	-0.038
-652.843	-9.200	0.021	-0.014
-651.828	800.000	0.067	-0.265
-650.814	-72.864	-0.227	-0.083
-649.799	-170.944	-0.487	0.017
-648.784	-161.502	-0.216	-0.011
-647.770	328.619	0.048	-0.091
-646.755	295.827	0.149	-0.272
-645.741	-200.000	0.004	-0.032
-644.726	-56.137	-0.315	-0.140
-643.711	-200.000	0.023	-0.160
-642.697	800.000	-0.053	-0.179
-641.682	800.000	0.058	0.213
-640.668	18.133	-0.199	-0.158
-639.653	-81.173	0.408	-0.134
-638.638	27.905	-0.195	-0.163
-637.624	102.654	0.041	-0.048
-636.609	800.000	-0.056	0.199
-635.595	274.929	-0.084	-0.148
-634.580	-34.059	-0.212	-0.116
-633.565	-55.861	0.257	-0.114
-632.551	-58.093	-0.237	0.103
-631.536	-29.906	-0.264	0.150
-630.522	323.282	-0.007	-0.013
-629.507	157.609	0.083	-0.114
-628.492	-13.745	0.279	0.180
-627.478	-150.287	0.241	0.018
-626.463	209.130	0.059	0.092
-625.449	-200.000	-0.078	-0.437
-624.434	71.427	-0.034	-0.035
-623.419	-152.885	0.166	0.012
-622.405	-21.030	0.064	-0.039
-621.390	-17.302	0.095	0.060
-620.376	60.180	-0.152	0.149
-619.361	165.055	0.229	0.322
-618.346	800.000	-0.099	0.303
-617.332	-17.471	-0.105	0.066
-616.317	307.458	-0.124	0.231
-615.303	-90.395	-0.238	0.069
-614.288	800.000	-0.060	0.213
-613.273	12.794	0.101	0.078
-612.259	485.552	-0.117	-0.264
-611.244	88.318	-0.110	0.121
-610.230	45.914	0.128	-0.117
-609.215	-200.000	0.002	0.109
-608.201	141.399	0.150	-0.197
-607.186	-61.925	-0.231	0.096
-606.171	-20.876	-0.292	-0.178
-605.157	19.083	-0.126	-0.100
-604.142	238.142	0.088	-0.145
-603.128	-200.000	-0.003	-0.126
-602.113	-200.000	0.023	0.306
-601.098	-60.391	0.014	-0.006
-600.084	28.681	-0.061	-0.051
-599.069	-66.340	-0.231	0.091
-598.055	-108.134	0.250	-0.054
-597.040	-200.000	-0.028	-0.486
-596.025	-200.000	-0.018	0.132
-595.011	-105.868	-0.067	-0.015
-593.996	800.000	0.087	0.314
-592.982	-195.182	0.249	-0.002
-591.967	117.364	-0.096	0.117
-590.952	41.324	0.226	0.203
-589.938	-110.830	0.490	-0.100
-588.923	225.437	-0.108	0.174
-587.909	-69.979	-0.348	-0.131
-586.894	134.389	0.064	0.083
-585.879	488.808	-0.134	-0.305
-584.865	800.000	-0.092	0.292
-583.850	-93.591	0.209	-0.057
-582.836	-80.990	0.415	-0.136
-581.821	-103.841	0.120	-0.028
-580.806	-105.395	-0.358	-0.081
-579.792	800.000	-0.011	-0.040
-578.777	56.768	0.192	0.186
-577.763	800.000	0.134	-0.396
-576.748	178.369	0.194	0.282
-575.733	800.000	-0.094	0.323
-574.719	-200.000	-0.034	-0.207
-573.704	88.451	-0.150	-0.166
-572.690	-131.877	0.345	0.045
-571.675	-200.000	-0.014	-0.328
-570.661	82.789	0.174	-0.187
-569.646	800.000	-0.038	0.165
-568.631	-186.212	0.284	-0.004
-567.617	-200.000	-0.047	0.213
-566.602	-200.000	0.031	-0.243
-565.588	-4.539	0.396	0.271
-564.573	425.053	-0.131	-0.279
-563.558	80.028	-0.295	0.314
-562.544	638.551	-0.036	-0.091
-561.529	-87.227	-0.246	0.074
-560.515	-162.206	0.124	0.006
-559.500	709.846	0.065	0.171
-558.485	7.413	0.081	0.060
-557.471	-138.052	-0.088	0.010
-556.456	-113.282	0.182	0.035
-555.442	-25.585	0.099	0.058
-554.427	-200.000	0.025	0.166
-553.412	-152.477	0.250	0.018
-552.398	-189.267	0.145	0.002
-551.383	-200.000	-0.008	-0.079
-550.369	800.000	0.066	-0.268
-549.354	67.338	-0.164	0.166
-548.339	184.081	0.050	0.074
-547.325	-98.611	-0.265	0.067
-546.310	69.622	0.272	-0.278
-545.296	513.314	-0.017	0.039
-544.281	193.693	-0.039	0.059
-543.266	45.314	0.077	-0.070
-542.252	-200.000	-0.016	0.231
-541.237	-94.308	0.195	0.053
-540.223	800.000	-0.079	-0.332
-539.208	-13.253	0.041	-0.027
-538.193	-200.000	0.014	0.206
-537.179	-200.000	0.043	0.251
-536.164	335.502	-0.091	-0.174
-535.150	63.913	-0.126	0.125
-534.135	795.889	-0.163	0.446
-533.121	123.459	-0.068	-0.085
-532.106	-46.951	0.251	0.121
-531.091	800.000	-0.048	0.146
-530.077	129.664	0.078	-0.099
-529.062	-73.282	-0.349	-0.127
-528.048	49.868	0.266	-0.248
-527.033	-53.789	0.139	0.063
-526.018	800.000	0.044	0.136
-525.004	-200.000	0.016	-0.232
-523.989	31.292	-0.345	-0.293
-522.975	-18.966	0.395	-0.243
-521.960	-82.797	-0.135	-0.043
-520.945	182.898	-0.035	-0.051
-519.931	269.314	0.074	-0.129
-518.916	38.804	-0.354	0.313
-517.902	-200.000	0.015	-0.161
-516.887	-45.232	0.088	0.043
-515.872	332.428	0.127	-0.242
-514.858	-127.265	-0.076	-0.011
-513.843	-116.656	-0.119	0.022
-512.829	-20.981	0.113	-0.069
-511.814	-3.427	0.176	0.121
-510.799	-106.597	0.227	0.050
-509.785	-140.984	-0.305	0.031
-508.770	-37.208	-0.134	0.071
-507.756	111.713	0.214	-0.255
-506.741	-124.936	-0.180	-0.027
-505.726	195.022	0.088	0.132
-504.712	-28.973	0.082	-0.046
-503.697	800.000	0.029	0.109
-502.683	800.000	-0.022	-0.081
-501.668	-200.000	-0.008	-0.171
-500.653	-32.915	-0.152	0.083
-499.639	800.000	0.063	0.213
-498.624	-200.000	-0.015	0.088
-497.610	-28.803	0.252	-0.143
-496.595	169.560	-0.021	0.030
-495.581	59.824	0.029	0.029
-494.566	76.681	-0.261	0.274
-493.551	-11.468	-0.372	0.242
-492.537	-200.000	0.010	0.119
-491.522	93.747	-0.080	-0.089
-490.508	-63.320	0.157	0.064
-489.493	-35.468	0.094	-0.051
-488.478	-162.611	-0.289	0.014
-487.464	-200.000	0.022	0.244
-486.449	-200.000	-0.007	-0.054
-485.435	-130.133	0.151	0.020
-484.420	25.704	-0.016	-0.014
-483.405	101.009	-0.185	0.212
-482.391	159.781	0.133	0.183
-481.376	48.492	-0.132	0.122
-480.362	156.709	-0.030	0.041
-479.347	-145.452	-0.126	-0.011
-478.332	184.352	0.057	0.084
-477.318	-55.524	-0.043	0.019
-476.303	-157.281	0.222	-0.013
-475.289	251.543	-0.105	0.177
-474.274	46.182	0.138	-0.126
-473.259	97.815	0.085	0.097
-472.245	-127.053	-0.037	0.005
-471.230	237.775	-0.176	-0.288
-470.216	276.055	-0.133	0.233
-469.201	-200.000	-0.014	0.137
-468.186	43.279	0.045	-0.040
-467.172	800.000	0.043	-0.178
-466.157	-95.431	-0.210	-0.056
-465.143	126.746	0.218	0.273
-464.128	132.558	0.169	0.216
-463.113	-53.121	0.106	0.048
-462.099	313.124	0.135	-0.251
-461.084	800.000	-0.039	0.113
-460.070	-92.878	-0.191	-0.053
-459.055	7.674	0.380	-0.281
-458.040	-3.283	0.153	-0.105
-457.026	-26.965	-0.199	0.115
-456.011	79.687	-0.277	-0.293
-454.997	697.330	0.082	-0.213
-453.982	-93.385	0.422	-0.115
-452.968	-118.415	-0.200	-0.035
-451.953	-47.279	0.148	-0.071
-450.938	-103.457	-0.501	0.116
-449.924	-23.186	-0.320	-0.190
-448.909	-200.000	-0.026	-0.190
-447.895	45.825	0.131	-0.119
-446.880	-20.438	0.083	0.050
-445.865	800.000	-0.093	-0.255
-444.851	519.726	-0.088	-0.205
-443.836	161.383	-0.066	-0.091
-442.822	-200.000	-0.011	-0.124
-441.807	-95.110	-0.037	0.010
-440.792	-51.856	-0.366	-0.168
-439.778	20.222	-0.224	-0.179
-438.763	33.165	-0.138	-0.118
-437.749	-11.760	-0.139	-0.090
-436.734	800.000	-0.126	0.412
-435.719	54.318	-0.186	0.177
-434.705	800.000	-0.107	-0.308
-433.690	-46.891	0.265	-0.128
-432.676	-93.771	-0.316	0.086
-431.661	-200.000	-0.019	-0.219
-430.646	-37.122	0.140	-0.074
-429.632	487.076	0.118	0.266
-428.617	138.566	0.307	0.398
-427.603	-13.416	0.069	-0.044
-426.588	-25.909	-0.088	0.051
-425.573	-124.498	-0.114	0.017
-424.559	-71.145	-0.211	0.078
-423.544	-98.789	0.268	0.067
-422.530	581.769	-0.098	0.238
-421.515	151.811	-0.113	-0.152
-420.500	45.222	0.188	0.171
-419.486	-200.000	0.049	-0.308
-418.471	771.158	-0.107	-0.287
-417.457	23.905	0.038	-0.031
-416.442	-200.000	0.019	0.370
-415.428	-2.526	0.138	0.096
-414.413	145.079	-0.196	-0.259
-413.398	307.091	-0.208	-0.382
-412.384	-200.000	-0.006	-0.311
-411.369	41.185	0.115	-0.103
-410.355	94.723	-0.085	0.096
-409.340	-200.000	0.049	0.514
-408.325	57.596	0.112	0.108
-407.311	-33.540	-0.144	0.078
-406.296	800.000	0.038	0.158
-405.282	139.529	0.048	-0.062
-404.267	-200.000	0.009	0.061
-403.252	586.196	0.080	0.193
-402.238	55.235	0.330	0.314
-401.223	-69.308	0.608	0.230
-400.209	-113.950	0.163	0.031
-399.194	800.000	0.037	-0.114
-398.179	324.125	-0.132	-0.247
-397.165	40.060	-0.309	0.274
-396.150	209.473	0.042	0.064
-395.136	-200.000	-0.009	-0.137
-394.121	-200.000	-0.019	-0.175
-393.106	235.304	0.093	-0.152
-392.092	-200.000	-0.026	0.251
-391.077	800.000	0.055	-0.216
-390.063	414.507	-0.120	-0.251
-389.048	800.000	-0.047	0.131
-388.033	4.777	0.110	0.080
-387.019	99.164	-0.076	0.086
-386.004	-200.000	0.016	-0.285
-384.990	-142.631	0.136	-0.013
-383.975	800.000	-0.127	-0.516
-382.960	62.260	0.220	-0.216
-381.946	-200.000	0.005	-0.229
-380.931	-200.000	0.005	0.048
-379.917	800.000	0.080	0.314
-378.902	-156.236	-0.140	0.009
-377.888	-12.770	-0.224	0.144
-376.873	-96.655	0.135	-0.035
-375.858	-21.828	-0.136	-0.081
-374.844	26.883	-0.102	-0.085
-373.829	-82.101	0.189	-0.061
-372.815	345.661	-0.092	-0.178
-371.800	-28.476	-0.037	0.021
-370.785	426.930	-0.033	0.070
-369.771	800.000	-0.135	-0.389
-368.756	-121.927	0.355	-0.058
-367.742	-117.089	0.283	-0.051
-366.727	-104.994	0.304	0.069
-365.712	-126.374	-0.376	-0.055
-364.698	530.406	-0.207	0.482
-363.683	-200.000	-0.012	0.199
-362.669	-200.000	0.038	-0.259
-361.654	-51.669	0.218	-0.100
-360.639	800.000	-0.062	0.248
-359.625	116.407	0.102	0.123
-358.610	149.894	-0.110	0.147
-357.596	537.008	0.113	0.264
-356.581	296.738	0.120	0.216
-355.566	-143.123	-0.206	-0.020
-354.552	270.404	0.043	0.074
-353.537	522.012	0.046	-0.107
-352.523	800.000	0.085	0.263
-351.508	-118.477	0.168	0.029
-350.493	-165.258	-0.193	-0.008
-349.479	24.879	0.231	0.188
-348.464	20.502	-0.304	0.241
-347.450	-200.000	-0.020	0.170
-346.435	-37.067	0.290	0.153
-345.420	65.112	0.152	-0.151
-344.406	-87.295	-0.099	-0.029
-343.391	109.199	0.143	-0.169
-342.377	143.180	-0.173	-0.226
-341.362	800.000	-0.052	-0.162
-340.348	-40.128	-0.237	-0.121
-339.333	-150.091	-0.285	0.022
-338.318	544.237	0.079	0.184
-337.304	-200.000	-0.033	-0.182
-336.289	-192.330	-0.377	0.003
-335.275	-200.000	0.030	0.145
-334.260	285.427	0.068	-0.120
-333.245	800.000	0.088	0.321
-332.231	69.684	-0.202	-0.205
-331.216	-175.182	-0.598	0.016
-330.202	-200.000	-0.029	0.129
-329.187	405.999	0.261	0.540
-328.172	-134.934	0.259	0.031
-327.158	-200.000	0.005	-0.345
-326.143	-147.085	-0.183	0.015
-325.129	-111.053	-0.225	0.045
-324.114	615.544	-0.065	-0.161
-323.099	578.988	-0.157	0.378
-322.085	256.411	-0.121	0.203
-321.070	3.018	0.146	0.104
-320.056	69.580	0.171	0.173
-319.041	67.609	0.237	0.238
-318.026	53.246	0.162	-0.153
-317.012	800.000	0.038	0.111
-315.997	640.117	0.096	0.239
-314.983	-32.033	-0.144	0.079
-313.968	-2.134	-0.145	-0.100
-312.953	-200.000	0.004	-0.447
-311.939	1.142	-0.193	-0.136
-310.924	800.000	0.051	0.171
-309.910	106.228	-0.110	0.129
-308.895	800.000	-0.027	-0.078
-307.880	-17.308	-0.441	-0.273
-306.866	-85.805	0.166	-0.051
-305.851	176.645	0.170	0.243
-304.837	-65.260	0.032	0.013
-303.822	-67.472	0.181	0.070
-302.807	743.727	0.076	0.200
-301.793	-74.821	0.256	-0.090
-300.778	-104.820	-0.329	-0.074
-299.764	78.942	0.169	0.177
-298.749	-56.901	-0.264	0.114
-297.735	83.775	0.112	-0.120
-296.720	246.056	0.171	0.283
-295.705	45.652	0.048	0.044
-294.691	-200.000	0.044	0.268
-293.676	564.375	0.068	0.162
-292.662	-38.039	-0.061	-0.032
-291.647	88.581	-0.243	-0.265
-290.632	-200.000	0.004	-0.020
-289.618	-143.476	0.246	-0.023
-288.603	4.438	0.109	-0.079
-287.589	52.548	0.224	0.210
-286.574	506.711	-0.080	0.182
-285.559	-200.000	0.053	-0.306
-284.545	-200.000	0.016	-0.182
-283.530	-98.679	0.370	-0.092
-282.516	185.412	-0.191	0.278
-281.501	567.127	-0.061	0.146
-280.486	52.258	-0.079	0.074
-279.472	95.555	0.056	-0.062
-278.457	-85.840	-0.313	0.095
-277.443	-185.559	0.114	-0.002
-276.428	145.873	-0.210	0.276
-275.413	16.148	-0.040	0.031
-274.399	-21.570	0.106	0.063
-273.384	96.937	0.180	-0.202
-272.370	-143.336	-0.266	-0.025
-271.355	41.645	0.144	-0.128
-270.340	-30.945	-0.257	-0.142
-269.326	-89.488	0.164	0.047
-268.311	-123.145	-0.074	-0.012
-267.297	800.000	-0.091	0.251
-266.282	-5.562	-0.228	0.153
-265.267	800.000	-0.104	-0.387
-264.253	-82.163	-0.269	0.086
-263.238	-25.113	0.238	0.138
-262.224	-59.118	-0.068	-0.029
-261.209	-150.754	-0.204	-0.015
-260.195	-200.000	0.017	-0.077
-259.180	679.708	0.041	-0.105
-258.165	-200.000	-0.002	-0.133
-257.151	-200.000	0.010	0.135
-256.136	-109.244	0.276	0.057
-255.122	800.000	0.110	-0.298
-254.107	-200.000	-0.062	-0.303
-253.092	73.306	0.187	-0.192
-252.078	800.000	-0.031	0.089
-251.063	443.097	0.079	0.171
-250.049	509.251	0.071	-0.162
-249.034	405.668	0.151	-0.312
-248.019	-5.230	0.223	-0.150
-247.005	-53.721	-0.411	-0.184
-245.990	8.523	0.441	-0.325
-244.976	56.511	0.161	0.153
-243.961	547.188	-0.113	0.264
-242.946	800.000	0.023	-0.076
-241.932	519.914	-0.106	0.243
-240.917	-170.450	-0.415	0.014
-239.903	45.024	0.236	-0.213
-238.888	800.000	-0.059	0.194
-237.873	82.779	0.209	0.222
-236.859	-92.961	-0.302	-0.082
-235.844	-200.000	-0.028	-0.257
-234.830	135.455	-0.031	-0.039
-233.815	-182.589	0.154	-0.003
-232.800	-200.000	-0.013	0.088
-231.786	224.264	-0.024	0.037
-230.771	330.383	0.084	-0.159
-229.757	138.175	0.219	0.281
-228.742	3.527	-0.074	0.053
-227.727	800.000	0.081	-0.270
-226.713	11.201	-0.116	-0.087
-225.698	-158.272	0.204	-0.012
-224.684	621.949	0.083	-0.203
-223.669	-39.210	-0.280	-0.144
-222.655	-200.000	-0.033	0.514
-221.640	513.017	-0.107	-0.243
-220.625	800.000	-0.043	-0.135
-219.611	395.254	0.195	0.397
-218.596	-200.000	-0.004	-0.097
-217.582	72.768	-0.080	0.082
-216.567	-157.083	-0.093	-0.006
-215.552	138.129	0.253	-0.324
-214.538	129.038	0.112	0.139
-213.523	323.979	-0.071	0.133
-212.509	-124.436	0.256	0.039
-211.494	267.295	-0.037	0.064
-210.479	54.403	-0.276	-0.260
-209.465	-100.701	-0.340	-0.082
-208.450	308.150	-0.135	-0.246
-207.436	-200.000	0.069	0.352
-206.421	-200.000	-0.308	0.001
-205.406	-70.979	0.145	-0.053
-204.392	261.425	0.204	0.346
-203.377	-17.187	0.155	-0.096
-202.363	-200.000	0.062	0.352
-201.348	800.000	0.065	0.249
-200.333	-122.443	0.391	-0.062
-199.319	187.879	-0.097	0.142
-198.304	800.000	0.114	-0.351
-197.290	105.924	0.117	-0.135
-196.275	-18.460	0.442	-0.270
-195.260	13.015	-0.134	0.102
-194.246	-200.000	0.001	0.049
-193.231	236.193	0.128	-0.208
-192.217	68.423	-0.118	0.118
-191.202	147.319	0.106	-0.139
-190.187	80.092	-0.112	-0.117
-189.173	106.246	-0.200	-0.232
-188.158	-36.914	-0.138	-0.072
-187.144	136.742	0.303	-0.387
-186.129	125.051	0.083	0.102
-185.114	145.876	-0.162	-0.212
-184.100	-114.083	-0.083	0.016
-183.085	-29.381	-0.060	0.034
-182.071	-200.000	0.006	0.111
-181.056	446.963	0.118	0.253
-180.042	-17.496	0.162	-0.100
-179.027	331.226	-0.165	0.310
-178.012	-200.000	-0.067	-0.394
-176.998	-96.119	-0.134	-0.035
-175.983	83.831	0.211	0.224
-174.969	52.857	-0.105	0.098
-173.954	17.593	-0.077	0.060
-172.939	403.402	0.038	0.079
-171.925	39.799	0.035	0.031
-170.910	130.719	0.241	-0.302
-169.896	-94.696	-0.202	0.054
-168.881	232.745	-0.041	-0.066
-167.866	-24.141	0.203	-0.119
-166.852	97.046	-0.166	-0.185
-165.837	352.738	0.143	0.277
-164.823	-200.000	-0.045	-0.208
-163.808	354.252	0.048	0.092
-162.793	302.121	-0.050	-0.090
-161.779	-45.801	0.360	0.174
-160.764	-76.650	0.240	-0.082
-159.750	-200.000	0.021	0.099
-158.735	88.187	-0.099	0.107
-157.720	-200.000	0.001	-0.024
-156.706	329.883	-0.110	-0.207
-155.691	-58.821	-0.157	0.066
-154.677	165.793	-0.115	0.159
-153.662	-40.853	-0.074	0.037
-152.647	417.280	0.027	0.056
-151.633	42.562	-0.248	-0.220
-150.618	583.575	-0.141	0.338
-149.604	-200.000	-0.017	-0.260
-148.589	43.549	0.303	-0.270
-147.574	-200.000	-0.048	0.212
-146.560	63.446	0.116	-0.113
-145.545	-101.522	0.248	0.059
-144.531	247.516	-0.099	-0.164
-143.516	183.017	-0.243	0.350
-142.502	-133.623	-0.133	0.016
-141.487	49.060	0.088	0.080
-140.472	2.738	0.319	0.226
-139.458	-200.000	0.080	0.409
-138.443	50.063	0.324	-0.299
-137.429	4.883	-0.112	-0.080
-136.414	-105.419	0.206	0.046
-135.399	800.000	0.094	0.299
-134.385	800.000	0.055	0.221
-133.370	-200.000	-0.041	0.198
-132.356	-200.000	0.048	-0.270
-131.341	-200.000	-0.002	-0.080
-130.326	-40.372	0.207	-0.105
-129.312	9.344	-0.237	-0.175
-128.297	-200.000	0.008	-0.046
-127.283	195.153	-0.100	0.148
-126.268	-200.000	-0.017	-0.089
-125.253	-7.903	0.181	0.119
-124.239	58.085	0.048	-0.046
-123.224	142.365	0.046	-0.059
-122.210	-179.131	-0.201	-0.004
-121.195	-59.323	-0.175	0.073
-120.180	800.000	0.078	0.214
