DTS Sentinel unit serial number:	SN413079Multiplexer serial number:	ORYXHardware model number:	OX4-SRSoftware version number:	ORYX F/W v4.00 Oryx Data Collector v3.7.2.0data status	okinstallation	princeton_trtdifferential loss correction	single-endedforward channel	channel 2reverse channel	N/Adate	2019/09/15time	22:27:34forward acquisition time	60.00reverse acquisition time	0.00gamma	496.2192k internal	0.2335k external	0.2335temperature offset calibration	0.9945default loss term (dB/km)	0.3790temperature slope calibration	1.0000multiplexer offset coefficient	1.0000multiplexer slope coefficient	1.0000fibre end	0.00T internal ref (°C)	29.19T ext. ref 1 (°C)	8.72T ext. ref 2 (°C)	22.65length (m)	temperature (°C)	Stokes	anti-Stokes-747.200	75.860	-0.113	0.120
-746.185	-118.147	-0.277	0.050
-745.171	-88.201	0.162	0.049
-744.156	521.322	0.098	-0.230
-743.142	-156.353	0.120	-0.008
-742.127	-108.773	0.084	0.018
-741.112	-93.070	-0.217	0.061
-740.098	-200.000	0.014	0.381
-739.083	44.629	-0.300	0.277
-738.069	-58.195	-0.056	-0.025
-737.054	307.311	-0.161	-0.301
-736.039	643.907	0.056	0.142
-735.025	800.000	0.081	0.335
-734.010	133.522	-0.236	-0.307
-732.996	800.000	0.057	0.217
-731.981	-134.127	0.204	-0.025
-730.966	171.076	-0.072	0.103
-729.952	800.000	-0.022	0.070
-728.937	218.825	-0.035	0.056
-727.923	166.405	-0.164	-0.234
-726.908	-55.292	-0.267	0.121
-725.894	107.843	-0.247	-0.296
-724.879	800.000	-0.095	-0.297
-723.864	-95.083	0.011	-0.003
-722.850	-128.213	-0.190	0.027
-721.835	5.472	0.174	0.129
-720.821	-75.751	0.213	-0.076
-719.806	-58.315	0.368	0.161
-718.791	-94.009	-0.172	-0.047
-717.777	86.611	0.200	-0.221
-716.762	-53.889	-0.173	-0.079
-715.748	250.408	0.216	0.368
-714.733	429.594	-0.216	0.468
-713.718	449.841	-0.127	-0.281
-712.704	-124.997	-0.137	0.021
-711.689	17.725	-0.024	-0.019
-710.675	-68.104	-0.081	-0.032
-709.660	-157.498	0.139	-0.008
-708.645	121.077	-0.111	-0.138
-707.631	-114.930	-0.267	-0.051
-706.616	-89.127	-0.199	0.059
-705.602	466.206	0.102	-0.230
-704.587	-156.028	-0.061	0.004
-703.572	147.390	-0.239	0.323
-702.558	62.148	0.055	0.055
-701.543	784.538	-0.085	-0.235
-700.529	-198.476	-0.181	-0.001
-699.514	-200.000	-0.012	0.129
-698.499	-200.000	0.026	0.215
-697.485	-200.000	0.011	0.168
-696.470	-91.708	-0.338	0.097
-695.456	-8.742	-0.082	-0.055
-694.441	438.534	0.076	0.166
-693.426	631.724	0.182	0.461
-692.412	130.952	-0.103	-0.132
-691.397	331.403	-0.100	-0.194
-690.383	-200.000	-0.069	0.467
-689.368	800.000	0.047	0.160
-688.354	-200.000	-0.007	-0.235
-687.339	114.221	-0.068	0.083
-686.324	265.673	0.137	-0.239
-685.310	32.774	0.120	0.104
-684.295	-200.000	0.027	-0.305
-683.281	302.754	-0.113	0.209
-682.266	121.462	-0.140	-0.175
-681.251	-9.408	0.090	-0.060
-680.237	-200.000	-0.002	-0.025
-679.222	800.000	0.103	-0.303
-678.208	-200.000	-0.213	-0.001
-677.193	247.957	-0.192	-0.326
-676.178	-55.642	-0.356	0.160
-675.164	-7.883	0.188	0.127
-674.149	92.788	0.149	0.169
-673.135	35.883	0.169	0.149
-672.120	-29.480	-0.094	-0.054
-671.105	235.591	-0.213	-0.353
-670.091	-200.000	-0.007	0.382
-669.076	74.053	0.166	0.175
-668.062	87.771	-0.082	-0.091
-667.047	695.724	0.208	0.547
-666.032	-200.000	-0.022	-0.218
-665.018	-200.000	0.009	-0.067
-664.003	425.608	0.079	-0.170
-662.989	-30.050	0.149	0.085
-661.974	192.393	-0.096	0.146
-660.959	-58.763	0.162	-0.070
-659.945	127.216	0.172	0.219
-658.930	659.897	0.057	-0.148
-657.916	-165.449	0.511	0.022
-656.901	29.790	0.094	-0.080
-655.886	58.254	0.152	-0.149
-654.872	-40.972	-0.175	-0.091
-653.857	800.000	-0.135	-0.376
-652.843	800.000	0.047	0.166
-651.828	-64.541	-0.187	-0.076
-650.814	79.703	0.151	-0.163
-649.799	-90.862	-0.196	0.057
-648.784	206.719	0.084	-0.130
-647.770	378.797	0.068	-0.139
-646.755	-73.100	-0.221	-0.081
-645.741	-61.857	-0.156	0.065
-644.726	-200.000	-0.042	-0.194
-643.711	-200.000	0.021	-0.166
-642.697	-200.000	0.023	-0.246
-641.682	-200.000	0.018	-0.121
-640.668	-200.000	0.036	-0.225
-639.653	-162.974	-0.199	-0.010
-638.638	162.180	-0.096	-0.135
-637.624	29.514	-0.209	-0.178
-636.609	31.462	0.102	0.088
-635.595	67.701	-0.123	0.126
-634.580	102.831	0.123	-0.145
-633.565	800.000	0.031	-0.114
-632.551	-15.209	-0.091	0.059
-631.536	81.742	0.247	-0.268
-630.522	147.537	0.111	-0.149
-629.507	-66.793	-0.231	-0.091
-628.492	201.079	0.256	0.395
-627.478	-63.085	-0.512	-0.211
-626.463	288.778	-0.132	-0.239
-625.449	-51.789	0.346	-0.161
-624.434	628.028	-0.064	0.162
-623.419	-200.000	0.041	-0.300
-622.405	-200.000	-0.016	-0.187
-621.390	-8.685	-0.382	0.256
-620.376	-115.920	-0.406	0.076
-619.361	-92.398	0.220	0.062
-618.346	-104.412	0.218	0.050
-617.332	800.000	-0.038	-0.125
-616.317	-200.000	-0.012	0.288
-615.303	800.000	0.037	-0.139
-614.288	-200.000	-0.028	0.253
-613.273	-125.524	-0.130	0.020
-612.259	324.387	-0.125	0.240
-611.244	-109.947	0.240	0.050
-610.230	429.729	0.062	-0.134
-609.215	75.690	0.300	-0.316
-608.201	-29.082	0.316	-0.181
-607.186	76.297	-0.075	0.080
-606.171	58.194	0.177	-0.173
-605.157	-2.231	0.217	0.152
-604.142	-200.000	0.031	0.151
-603.128	-82.303	-0.397	0.129
-602.113	-14.600	0.170	0.109
-601.098	-13.638	-0.394	-0.255
-600.084	-93.456	0.368	-0.102
-599.069	67.742	-0.110	0.112
-598.055	-200.000	-0.033	-0.276
-597.040	218.583	0.079	-0.126
-596.025	-163.069	-0.045	-0.002
-595.011	580.616	-0.129	0.316
-593.996	-55.310	-0.361	-0.162
-592.982	340.905	0.171	-0.333
-591.967	-115.262	0.507	-0.096
-590.952	-39.377	-0.352	0.184
-589.938	-200.000	-0.045	-0.446
-588.923	-15.555	0.191	0.122
-587.909	-97.486	-0.467	0.121
-586.894	-161.213	0.311	-0.016
-585.879	103.053	-0.349	-0.408
-584.865	321.518	-0.126	-0.240
-583.850	-110.597	0.168	0.035
-582.836	74.273	0.216	-0.227
-581.821	433.056	-0.026	0.056
-580.806	122.508	-0.420	0.524
-579.792	-200.000	-0.004	-0.250
-578.777	-192.541	-0.400	0.004
-577.763	-44.766	-0.400	-0.199
-576.748	420.681	-0.199	-0.426
-575.733	800.000	0.068	-0.239
-574.719	-96.307	-0.342	-0.090
-573.704	-44.328	0.114	0.057
-572.690	266.403	0.093	-0.162
-571.675	-134.696	-0.156	0.019
-570.661	-98.272	-0.215	0.055
-569.646	-59.938	0.209	-0.089
-568.631	8.364	0.305	0.229
-567.617	-166.445	-0.250	0.010
-566.602	-98.562	0.062	-0.016
-565.588	-78.271	-0.065	-0.022
-564.573	-39.197	-0.283	0.148
-563.558	-70.724	0.235	0.089
-562.544	24.826	0.264	-0.218
-561.529	73.926	-0.243	-0.255
-560.515	-68.989	0.113	0.043
-559.500	-49.174	-0.457	0.218
-558.485	-90.145	-0.119	-0.035
-557.471	-45.119	0.204	-0.101
-556.456	336.709	0.205	0.396
-555.442	-200.000	-0.046	0.226
-554.427	-97.637	-0.097	-0.025
-553.412	-200.000	-0.004	0.138
-552.398	-169.786	-0.128	-0.005
-551.383	-200.000	-0.000	-0.173
-550.369	-154.573	0.194	0.013
-549.354	508.794	0.040	-0.093
-548.339	491.926	-0.146	-0.334
-547.325	378.353	0.018	-0.036
-546.310	-127.122	-0.307	0.045
-545.296	557.487	-0.042	-0.102
-544.281	16.660	0.176	0.139
-543.266	57.706	-0.134	0.131
-542.252	-84.263	-0.302	0.096
-541.237	800.000	0.030	-0.088
-540.223	381.326	0.088	-0.180
-539.208	212.605	0.123	0.193
-538.193	-200.000	-0.053	0.320
-537.179	-99.330	-0.178	0.045
-536.164	196.284	-0.115	0.174
-535.150	-200.000	0.068	0.327
-534.135	800.000	0.027	-0.117
-533.121	-200.000	-0.024	0.413
-532.106	-51.208	-0.517	-0.241
-531.091	59.812	0.022	-0.021
-530.077	113.446	-0.148	0.179
-529.062	-200.000	0.037	-0.202
-528.048	53.910	0.345	-0.331
-527.033	-200.000	0.050	0.219
-526.018	-65.736	0.207	-0.083
-525.004	800.000	-0.066	-0.192
-523.989	163.412	-0.181	-0.253
-522.975	-177.244	0.483	0.012
-521.960	334.788	0.145	-0.279
-520.945	-45.514	0.237	0.117
-519.931	521.108	0.055	-0.129
-518.916	170.414	-0.063	-0.091
-517.902	265.735	0.165	0.287
-516.887	313.436	-0.123	0.231
-515.872	123.761	0.213	-0.266
-514.858	150.731	-0.032	-0.043
-513.843	-200.000	0.001	-0.088
-512.829	-200.000	-0.099	0.446
-511.814	800.000	-0.039	0.160
-510.799	-200.000	0.014	-0.323
-509.785	-200.000	-0.032	0.190
-508.770	115.929	-0.240	0.292
-507.756	-200.000	0.043	-0.232
-506.741	-13.846	0.258	-0.166
-505.726	800.000	-0.014	0.043
-504.712	-200.000	0.002	-0.102
-503.697	-104.631	-0.193	0.044
-502.683	-29.939	0.177	-0.100
-501.668	162.803	-0.191	0.267
-500.653	-200.000	-0.010	0.045
-499.639	282.222	-0.084	0.151
-498.624	260.813	-0.013	-0.023
-497.610	14.220	0.262	-0.203
-496.595	-34.553	0.089	0.049
-495.581	200.055	0.116	0.177
-494.566	25.410	-0.136	-0.113
-493.551	251.275	-0.191	0.324
-492.537	-200.000	0.005	-0.326
-491.522	-90.099	0.028	-0.008
-490.508	800.000	-0.027	0.103
-489.493	529.740	-0.072	-0.170
-488.478	58.674	-0.095	0.093
-487.464	11.023	-0.139	-0.106
-486.449	-151.686	0.379	0.028
-485.435	-155.256	-0.206	-0.013
-484.420	69.433	-0.212	-0.217
-483.405	800.000	0.057	0.167
-482.391	-77.816	0.364	0.125
-481.376	-200.000	-0.032	0.185
-480.362	23.415	-0.107	0.088
-479.347	-200.000	-0.020	-0.096
-478.332	72.794	0.103	0.107
-477.318	-180.912	-0.148	0.003
-476.303	800.000	0.099	-0.322
-475.289	-200.000	-0.002	0.144
-474.274	37.319	0.129	-0.114
-473.259	-98.379	-0.108	0.027
-472.245	83.003	0.143	-0.155
-471.230	800.000	0.087	-0.344
-470.216	-46.865	0.219	-0.106
-469.201	-22.016	-0.169	0.102
-468.186	-96.631	0.435	0.114
-467.172	-123.145	-0.191	-0.030
-466.157	-18.587	0.540	0.335
-465.143	51.319	-0.159	-0.150
-464.128	-40.096	-0.160	0.083
-463.113	380.886	0.100	-0.204
-462.099	-110.464	0.289	-0.060
-461.084	46.569	-0.203	-0.187
-460.070	800.000	0.026	-0.102
-459.055	-44.878	0.341	0.169
-458.040	-49.756	0.144	-0.068
-457.026	12.414	0.141	0.108
-456.011	-200.000	0.044	0.218
-454.997	293.662	0.037	0.067
-453.982	-200.000	0.001	0.124
-452.968	-46.198	-0.357	0.175
-451.953	662.605	0.015	-0.039
-450.938	800.000	0.086	-0.262
-449.924	339.645	0.055	-0.106
-448.909	-54.305	0.460	-0.207
-447.895	-101.495	-0.143	0.035
-446.880	-18.560	0.211	0.131
-445.865	197.228	-0.296	0.448
-444.851	487.927	0.191	0.433
-443.836	-110.061	-0.356	0.074
-442.822	800.000	0.118	0.386
-441.807	-161.796	0.154	0.008
-440.792	48.836	0.102	0.095
-439.778	-200.000	0.011	-0.050
-438.763	30.851	-0.162	-0.138
-437.749	120.656	-0.233	0.288
-436.734	573.173	-0.107	0.258
-435.719	-200.000	-0.004	0.150
-434.705	-74.945	0.251	0.089
-433.690	172.530	-0.140	-0.200
-432.676	447.789	0.178	-0.389
-431.661	-200.000	-0.043	-0.316
-430.646	126.456	0.336	-0.422
-429.632	-70.427	-0.296	-0.111
-428.617	-200.000	-0.018	0.177
-427.603	486.421	0.101	0.229
-426.588	-147.472	-0.271	0.023
-425.573	25.855	0.235	0.194
-424.559	-90.366	0.118	-0.034
-423.544	-99.173	-0.298	-0.075
-422.530	800.000	-0.004	-0.012
-421.515	-112.768	-0.197	0.039
-420.500	85.644	0.328	-0.358
-419.486	-31.793	-0.116	-0.064
-418.471	-175.158	0.221	-0.006
-417.457	-96.776	-0.373	-0.097
-416.442	-200.000	0.040	0.189
-415.428	-200.000	0.025	-0.235
-414.413	55.820	0.139	-0.133
-413.398	-200.000	-0.026	0.418
-412.384	-87.191	-0.174	0.052
-411.369	15.987	-0.123	0.096
-410.355	242.160	0.182	-0.302
-409.340	-200.000	0.015	-0.113
-408.325	-117.780	-0.364	-0.065
-407.311	-142.862	-0.402	-0.039
-406.296	-82.632	-0.177	0.057
-405.282	-49.212	-0.185	0.088
-404.267	-200.000	-0.017	0.274
-403.252	-105.342	0.090	-0.020
-402.238	800.000	-0.104	-0.331
-401.223	-21.577	0.217	0.131
-400.209	-179.012	-0.046	-0.001
-399.194	-42.745	-0.230	0.116
-398.179	179.198	0.111	0.161
-397.165	1.170	-0.138	0.098
-396.150	-61.604	0.212	-0.088
-395.136	-155.095	-0.271	-0.018
-394.121	-200.000	-0.012	0.064
-393.106	-44.677	0.291	0.144
-392.092	569.492	-0.131	0.317
-391.077	-200.000	-0.020	-0.161
-390.063	60.579	0.136	0.133
-389.048	318.248	0.081	0.151
-388.033	-88.206	-0.287	-0.085
-387.019	-200.000	-0.028	0.298
-386.004	455.081	0.104	0.228
-384.990	36.537	-0.248	-0.217
-383.975	79.836	-0.167	-0.178
-382.960	84.168	-0.097	-0.106
-381.946	1.418	0.208	0.148
-380.931	-85.327	0.375	-0.116
-379.917	-200.000	0.093	-0.443
-378.902	-60.321	0.240	-0.101
-377.888	296.361	0.062	-0.112
-376.873	-148.447	-0.213	-0.017
-375.858	-200.000	0.264	-0.001
-374.844	-15.923	-0.156	-0.098
-373.829	336.690	0.135	0.259
-372.815	256.887	-0.223	0.380
-371.800	124.173	0.101	-0.126
-370.785	-95.613	-0.254	0.067
-369.771	-200.000	-0.057	0.398
-368.756	-65.165	0.478	-0.191
-367.742	-200.000	0.003	0.208
-366.727	22.009	-0.151	-0.122
-365.712	-22.828	-0.171	0.102
-364.698	-200.000	0.012	-0.265
-363.683	-107.882	-0.067	0.014
-362.669	121.566	-0.187	0.230
-361.654	54.232	0.232	-0.221
-360.639	-141.353	0.131	0.013
-359.625	126.941	0.156	0.196
-358.610	-108.963	-0.205	0.043
-357.596	-200.000	-0.046	-0.238
-356.581	-45.201	-0.245	-0.120
-355.566	156.532	-0.088	-0.120
-354.552	624.468	-0.025	-0.063
-353.537	54.505	0.137	-0.130
-352.523	-200.000	0.008	-0.376
-351.508	472.595	-0.163	-0.364
-350.493	-82.294	-0.546	-0.176
-349.479	96.469	0.048	-0.055
-348.464	54.296	0.104	-0.099
-347.450	-162.705	-0.260	-0.013
-346.435	-34.501	-0.231	-0.125
-345.420	-200.000	0.009	-0.131
-344.406	800.000	0.071	-0.273
-343.391	192.600	0.072	0.107
-342.377	-50.141	-0.127	0.059
-341.362	319.464	-0.143	0.269
-340.348	-124.245	0.309	-0.048
-339.333	-90.758	0.183	0.052
-338.318	-200.000	-0.033	0.213
-337.304	21.018	0.221	-0.177
-336.289	516.683	-0.133	-0.308
-335.275	-0.049	0.246	0.173
-334.260	-200.000	0.050	0.412
-333.245	-200.000	-0.004	0.223
-332.231	-15.381	0.171	0.108
-331.216	-157.994	-0.293	0.017
-330.202	285.617	0.368	-0.657
-329.187	800.000	0.035	-0.145
-328.172	216.978	-0.108	0.170
-327.158	177.226	0.086	0.124
-326.143	-165.432	0.338	-0.015
-325.129	-50.105	0.198	0.093
-324.114	-107.714	-0.185	0.040
-323.099	136.963	-0.203	-0.262
-322.085	183.076	0.120	0.176
-321.070	63.245	0.235	0.233
-320.056	-200.000	-0.004	0.180
-319.041	-166.872	0.175	0.007
-318.026	-31.771	-0.157	-0.087
-317.012	800.000	-0.054	-0.148
-315.997	-129.699	0.182	0.025
-314.983	-200.000	0.005	0.230
-313.968	-102.237	0.076	-0.018
-312.953	-31.425	-0.253	-0.141
-311.939	-156.150	0.215	0.013
-310.924	-200.000	0.069	-0.306
-309.910	-38.906	0.116	-0.061
-308.895	11.114	-0.229	-0.173
-307.880	196.007	0.057	0.086
-306.866	19.245	0.127	0.101
-305.851	-134.453	-0.279	-0.034
-304.837	-142.805	0.238	0.023
-303.822	442.625	-0.056	0.122
-302.807	369.903	-0.137	0.274
-301.793	-2.713	-0.223	-0.154
-300.778	-6.522	-0.083	0.056
-299.764	800.000	-0.044	-0.189
-298.749	263.782	-0.141	0.243
-297.735	30.185	-0.319	0.269
-296.720	-57.246	-0.072	-0.031
-295.705	-200.000	-0.003	-0.047
-294.691	800.000	-0.121	-0.410
-293.676	18.736	0.116	-0.092
-292.662	-2.398	-0.390	-0.270
-291.647	800.000	-0.075	0.276
-290.632	-98.769	0.119	-0.030
-289.618	74.239	0.277	0.287
-288.603	-200.000	-0.063	0.311
-287.589	42.543	0.086	0.078
-286.574	317.873	0.117	0.219
-285.559	800.000	-0.022	-0.074
-284.545	303.565	0.121	0.222
-283.530	-89.654	-0.167	-0.048
-282.516	407.795	0.121	0.252
-281.501	-144.655	-0.228	0.021
-280.486	99.627	-0.123	-0.140
-279.472	-80.472	-0.161	0.053
-278.457	331.395	0.028	-0.054
-277.443	-200.000	0.013	0.086
-276.428	-200.000	0.000	-0.074
-275.413	-45.926	-0.243	0.118
-274.399	-167.292	0.078	0.003
-273.384	92.913	-0.159	-0.177
-272.370	-13.055	0.205	-0.132
-271.355	-61.418	0.427	0.177
-270.340	-24.918	-0.164	0.096
-269.326	-138.140	0.212	-0.023
-268.311	-200.000	0.003	0.110
-267.297	-77.534	0.192	-0.066
-266.282	-32.382	-0.231	0.127
-265.267	-200.000	-0.257	0.001
-264.253	97.370	0.175	-0.198
-263.238	294.901	-0.154	0.278
-262.224	800.000	0.103	-0.297
-261.209	52.918	0.323	-0.304
-260.195	153.594	0.306	0.413
-259.180	-58.866	-0.243	0.104
-258.165	800.000	-0.109	-0.306
-257.151	38.027	-0.078	-0.068
-256.136	198.277	-0.011	0.017
-255.122	-105.872	-0.386	0.086
-254.107	40.483	0.161	0.143
-253.092	-61.470	0.130	-0.054
-252.078	26.769	-0.223	0.184
-251.063	128.018	0.218	0.274
-250.049	-93.115	0.079	-0.022
-249.034	267.320	-0.213	0.368
-248.019	-11.972	-0.261	0.169
-247.005	188.043	0.109	0.161
-245.990	198.457	-0.059	0.089
-244.976	707.146	-0.049	-0.126
-243.961	-121.182	-0.058	0.010
-242.946	-200.000	0.009	0.288
-241.932	219.046	0.268	0.423
-240.917	-200.000	0.051	-0.547
-239.903	360.432	-0.063	-0.124
-238.888	34.530	0.166	0.143
-237.873	-200.000	-0.016	0.078
-236.859	2.789	0.241	0.173
-235.844	-36.220	0.428	0.228
-234.830	-63.907	0.223	-0.090
-233.815	-75.739	0.013	0.005
-232.800	-200.000	0.023	0.132
-231.786	-40.545	-0.051	0.026
-230.771	49.169	-0.115	-0.106
-229.757	-110.236	-0.050	0.010
-228.742	800.000	0.050	-0.208
-227.727	800.000	0.044	0.146
-226.713	174.317	0.168	-0.240
-225.698	579.156	0.176	-0.425
-224.684	144.147	-0.040	0.053
-223.669	131.847	0.129	0.163
-222.655	91.351	0.071	0.079
-221.640	-123.916	-0.022	0.003
-220.625	164.542	-0.266	0.369
-219.611	40.971	-0.167	0.148
-218.596	330.502	0.109	-0.206
-217.582	472.278	0.119	-0.263
-216.567	-160.500	0.373	0.020
-215.552	-200.000	0.050	0.291
-214.538	253.038	0.196	0.329
-213.523	124.103	-0.090	0.111
-212.509	606.224	-0.078	0.191
-211.494	800.000	0.058	-0.158
-210.479	-14.097	-0.139	-0.088
-209.465	800.000	-0.146	-0.446
-208.450	-176.946	-0.374	0.009
-207.436	-40.946	0.162	0.083
-206.421	36.690	-0.120	0.104
-205.406	800.000	-0.027	0.090
-204.392	718.134	0.141	0.369
-203.377	225.483	0.157	0.250
-202.363	42.333	0.420	0.375
-201.348	-109.147	-0.267	-0.056
-200.333	56.505	-0.180	-0.173
-199.319	-26.807	-0.170	-0.098
-198.304	24.803	0.285	-0.232
-197.290	496.350	-0.094	-0.213
-196.275	363.719	0.191	-0.378
-195.260	-54.315	0.457	0.204
-194.246	-200.000	-0.004	-0.171
-193.231	-8.150	-0.030	-0.020
-192.217	-22.690	0.267	0.159
-191.202	-200.000	-0.022	0.134
-190.187	-200.000	-0.008	0.171
-189.173	70.642	0.190	-0.193
-188.158	-200.000	-0.043	0.240
-187.144	286.360	-0.126	0.224
-186.129	-182.336	0.102	0.002
-185.114	215.210	-0.110	0.171
-184.100	-38.361	0.338	0.176
-183.085	-200.000	0.010	-0.196
-182.071	-76.920	-0.137	0.047
-181.056	597.369	0.061	-0.148
-180.042	-9.950	0.310	-0.203
-179.027	-200.000	-0.029	0.159
-178.012	119.337	-0.222	0.270
-176.998	456.417	0.110	0.240
-175.983	219.117	0.023	0.037
-174.969	790.486	0.114	0.307
-173.954	-46.407	0.243	-0.117
-172.939	159.863	0.188	0.257
-171.925	-120.554	-0.207	-0.034
-170.910	88.663	-0.016	0.017
-169.896	441.559	-0.183	-0.393
-168.881	800.000	0.053	-0.202
-167.866	-24.073	0.190	-0.111
-166.852	-125.699	-0.197	0.029
-165.837	-55.045	-0.125	-0.055
-164.823	48.829	-0.046	-0.042
-163.808	-86.751	0.155	0.047
-162.793	220.155	-0.072	0.114
-161.779	-76.324	-0.300	0.104
-160.764	98.038	0.109	-0.124
-159.750	-200.000	-0.003	-0.155
-158.735	-67.843	0.314	0.121
-157.720	-200.000	-0.028	0.167
-156.706	-200.000	0.076	-0.370
-155.691	43.139	0.199	-0.178
-154.677	133.730	-0.099	0.126
-153.662	-113.506	-0.162	0.031
-152.647	27.669	0.128	-0.106
-151.633	-200.000	-0.023	-0.190
-150.618	80.726	0.242	0.256
-149.604	-200.000	0.023	0.112
-148.589	-105.478	-0.130	-0.029
-147.574	800.000	-0.153	0.552
-146.560	228.366	0.285	0.456
-145.545	-200.000	0.008	-0.127
-144.531	-200.000	0.005	-0.043
-143.516	-165.142	0.050	0.002
-142.502	-15.576	-0.100	0.063
-141.487	-200.000	0.007	0.042
-140.472	800.000	-0.094	0.333
-139.458	800.000	0.116	-0.420
-138.443	30.558	-0.174	-0.146
-137.429	-109.877	0.181	0.037
-136.414	89.873	0.070	-0.077
-135.399	-170.208	-0.242	-0.008
-134.385	114.620	-0.116	0.139
-133.370	800.000	-0.058	0.212
-132.356	220.495	0.091	-0.143
-131.341	162.158	0.213	-0.292
-130.326	118.560	-0.065	-0.079
-129.312	82.966	0.090	0.096
-128.297	-55.564	0.395	0.174
-127.283	-200.000	0.057	-0.263
-126.268	800.000	0.081	0.312
-125.253	800.000	0.022	0.061
-124.239	134.675	-0.137	-0.174
-123.224	-151.594	0.083	0.006
-122.210	-56.091	0.352	0.154
-121.195	312.414	0.103	0.190
