DTS Sentinel unit serial number:	SN413079Multiplexer serial number:	ORYXHardware model number:	OX4-SRSoftware version number:	ORYX F/W v4.00 Oryx Data Collector v3.7.2.0data status	okinstallation	princeton_trtdifferential loss correction	single-endedforward channel	channel 2reverse channel	N/Adate	2019/09/12time	12:33:11forward acquisition time	60.00reverse acquisition time	0.00gamma	496.2192k internal	0.2299k external	0.2299temperature offset calibration	1.0078default loss term (dB/km)	0.3790temperature slope calibration	1.0000multiplexer offset coefficient	1.0000multiplexer slope coefficient	1.0000fibre end	0.00T internal ref (°C)	40.50T ext. ref 1 (°C)	2.03T ext. ref 2 (°C)	35.60length (m)	temperature (°C)	Stokes	anti-Stokes-747.200	-200.000	0.029	0.142
-746.185	134.928	0.176	0.233
-745.171	36.214	-0.326	0.293
-744.156	-168.693	0.154	0.006
-743.142	277.405	0.145	-0.263
-742.127	1.137	-0.258	0.189
-741.112	-134.056	-0.395	0.050
-740.098	43.609	-0.196	0.183
-739.083	-147.083	0.147	0.013
-738.069	9.913	0.209	-0.162
-737.054	-15.566	0.298	-0.194
-736.039	164.180	-0.035	-0.051
-735.025	800.000	-0.030	-0.126
-734.010	-126.657	-0.062	-0.009
-732.996	174.551	-0.041	-0.060
-731.981	246.369	0.112	0.193
-730.966	-118.943	-0.224	0.040
-729.952	44.114	-0.044	-0.041
-728.937	-176.860	-0.151	-0.004
-727.923	-10.870	-0.295	-0.199
-726.908	126.610	0.015	-0.019
-725.894	-108.217	-0.258	0.057
-724.879	39.786	0.170	-0.156
-723.864	222.993	-0.130	-0.214
-722.850	601.015	-0.015	0.039
-721.835	10.460	-0.159	-0.123
-720.821	177.715	-0.104	-0.155
-719.806	-7.649	-0.244	0.168
-718.791	37.882	-0.037	0.034
-717.777	-42.180	-0.362	0.189
-716.762	-93.045	-0.137	0.039
-715.748	-80.545	-0.267	0.091
-714.733	88.965	-0.086	-0.097
-713.718	-111.531	-0.210	0.044
-712.704	800.000	0.115	-0.481
-711.689	-122.765	-0.291	0.048
-710.675	-52.906	0.070	0.033
-709.660	35.606	0.155	0.139
-708.645	-97.916	0.328	-0.086
-707.631	-200.000	-0.008	-0.096
-706.616	-200.000	-0.089	0.467
-705.602	-200.000	-0.035	0.156
-704.587	-90.581	0.190	-0.056
-703.572	42.904	0.096	-0.089
-702.558	521.401	0.048	0.115
-701.543	-51.476	-0.094	-0.045
-700.529	30.747	-0.249	-0.217
-699.514	113.416	-0.103	-0.127
-698.499	-28.029	-0.174	-0.103
-697.485	-25.344	0.292	0.176
-696.470	23.167	-0.436	-0.364
-695.456	27.720	-0.303	-0.260
-694.441	-200.000	-0.020	0.150
-693.426	223.456	-0.161	-0.264
-692.412	307.934	-0.045	-0.085
-691.397	746.406	-0.189	0.517
-690.383	101.145	0.043	-0.051
-689.368	-23.805	-0.171	-0.104
-688.354	-200.000	-0.007	0.211
-687.339	-200.000	-0.060	0.322
-686.324	-200.000	0.041	0.265
-685.310	114.806	0.073	0.090
-684.295	120.341	-0.194	-0.246
-683.281	39.333	-0.264	-0.240
-682.266	164.027	0.194	-0.278
-681.251	-73.872	0.165	0.061
-680.237	147.030	0.078	0.107
-679.222	-81.692	0.042	0.014
-678.208	-18.811	-0.143	-0.091
-677.193	-200.000	0.019	-0.466
-676.178	-200.000	-0.028	-0.591
-675.164	45.074	-0.179	0.167
-674.149	800.000	-0.030	0.115
-673.135	-30.834	-0.371	-0.213
-672.120	65.227	-0.192	0.198
-671.105	800.000	-0.082	-0.353
-670.091	-200.000	0.016	-0.191
-669.076	362.086	-0.063	-0.128
-668.062	79.306	-0.140	-0.153
-667.047	800.000	0.041	-0.139
-666.032	-127.102	0.181	0.027
-665.018	258.525	0.047	0.083
-664.003	-103.077	-0.285	0.069
-662.989	29.359	0.255	-0.220
-661.974	482.403	0.064	-0.148
-660.959	142.912	0.197	-0.266
-659.945	129.500	-0.220	-0.286
-658.930	800.000	0.040	-0.152
-657.916	347.947	-0.119	-0.239
-656.901	405.023	0.015	-0.031
-655.886	623.149	-0.131	0.336
-654.872	800.000	0.123	0.354
-653.857	201.068	-0.108	0.169
-652.843	188.174	-0.114	-0.173
-651.828	-80.210	0.166	0.056
-650.814	84.848	0.068	0.076
-649.799	-147.490	-0.370	-0.032
-648.784	196.169	-0.018	-0.027
-647.770	800.000	0.059	-0.198
-646.755	351.576	0.040	0.080
-645.741	-0.656	0.120	-0.086
-644.726	-200.000	-0.201	0.000
-643.711	-200.000	0.021	0.184
-642.697	241.551	-0.054	-0.092
-641.682	95.488	-0.347	0.402
-640.668	-54.697	-0.108	0.049
-639.653	-182.120	0.359	-0.007
-638.638	94.924	0.180	0.209
-637.624	15.269	-0.088	-0.070
-636.609	-200.000	-0.046	0.230
-635.595	-92.290	-0.210	-0.060
-634.580	32.654	0.165	0.145
-633.565	-17.880	-0.198	0.126
-632.551	-55.352	-0.177	0.081
-631.536	-109.142	-0.150	-0.032
-630.522	19.768	-0.118	-0.096
-629.507	-200.000	0.048	0.262
-628.492	-123.801	-0.331	0.053
-627.478	-200.000	0.035	-0.265
-626.463	14.799	-0.118	-0.094
-625.449	-200.000	-0.003	-0.088
-624.434	-138.145	0.110	-0.012
-623.419	61.617	-0.123	-0.125
-622.405	-72.490	-0.326	-0.122
-621.390	80.798	0.041	-0.045
-620.376	800.000	-0.040	0.139
-619.361	-49.417	0.232	0.112
-618.346	-147.619	-0.215	-0.018
-617.332	-124.941	-0.197	-0.031
-616.317	-161.253	0.096	0.005
-615.303	502.733	-0.105	0.246
-614.288	-10.701	-0.111	0.075
-613.273	-149.610	-0.246	0.020
-612.259	240.153	-0.074	0.125
-611.244	1.941	-0.144	-0.105
-610.230	-26.480	0.113	-0.067
-609.215	-125.642	-0.257	0.040
-608.201	191.834	-0.097	-0.149
-607.186	1.939	0.023	0.017
-606.171	-20.002	0.097	0.061
-605.157	-166.717	-0.147	0.006
-604.142	800.000	-0.052	-0.183
-603.128	-200.000	-0.005	0.055
-602.113	-200.000	0.010	0.066
-601.098	-126.502	0.131	-0.020
-600.084	39.577	-0.045	-0.041
-599.069	370.615	-0.159	0.327
-598.055	-134.617	-0.272	-0.034
-597.040	-80.173	0.369	-0.126
-596.025	-15.376	0.041	-0.027
-595.011	-112.969	-0.305	-0.061
-593.996	1.697	0.145	0.106
-592.982	73.467	0.147	-0.156
-591.967	-45.915	0.372	-0.186
-590.952	-67.550	-0.014	0.006
-589.938	134.017	0.108	-0.142
-588.923	199.942	-0.090	0.141
-587.909	-67.807	-0.264	0.105
-586.894	800.000	0.086	-0.320
-585.879	-37.472	-0.030	-0.016
-584.865	392.498	0.140	0.295
-583.850	-200.000	-0.069	0.506
-582.836	195.619	0.172	0.265
-581.821	17.828	-0.069	0.055
-580.806	-103.955	-0.277	-0.065
-579.792	-200.000	0.005	0.181
-578.777	-75.801	-0.181	0.065
-577.763	800.000	-0.028	-0.091
-576.748	-12.014	0.235	-0.156
-575.733	800.000	-0.045	-0.168
-574.719	305.486	-0.089	-0.167
-573.704	61.702	0.151	0.152
-572.690	-144.335	-0.416	-0.039
-571.675	383.697	0.081	0.170
-570.661	124.256	-0.146	0.186
-569.646	-200.000	0.021	0.108
-568.631	103.722	-0.156	0.186
-567.617	81.643	0.152	-0.167
-566.602	800.000	-0.067	0.259
-565.588	22.093	-0.043	0.035
-564.573	-200.000	-0.045	-0.341
-563.558	202.802	0.034	-0.054
-562.544	45.417	0.271	-0.253
-561.529	-200.000	0.009	-0.393
-560.515	-200.000	-0.045	-0.288
-559.500	-169.750	0.227	-0.008
-558.485	-25.536	-0.170	0.102
-557.471	159.586	0.111	0.156
-556.456	-93.977	-0.435	-0.121
-555.442	218.643	0.192	0.311
-554.427	-90.909	0.331	0.096
-553.412	800.000	-0.122	0.382
-552.398	-62.829	0.197	-0.082
-551.383	199.607	-0.190	-0.295
-550.369	-61.849	-0.050	0.021
-549.354	-15.532	0.254	0.164
-548.339	-5.722	0.226	-0.157
-547.325	-200.000	-0.023	0.105
-546.310	24.739	0.166	-0.139
-545.296	-9.190	0.113	0.076
-544.281	-12.482	0.136	0.090
-543.266	67.211	0.069	-0.071
-542.252	108.415	0.206	-0.249
-541.237	116.974	-0.186	-0.231
-540.223	-19.371	0.057	0.036
-539.208	56.087	-0.094	0.093
-538.193	151.913	0.073	0.101
-537.179	-200.000	0.081	-0.367
-536.164	-23.632	-0.162	-0.098
-535.150	109.547	-0.168	-0.204
-534.135	-147.990	0.183	0.015
-533.121	167.428	0.267	-0.384
-532.106	-200.000	0.017	-0.142
-531.091	-45.690	-0.407	-0.203
-530.077	-200.000	-0.023	-0.190
-529.062	-200.000	-0.007	0.065
-528.048	64.354	0.233	0.237
-527.033	-19.578	0.114	-0.072
-526.018	-67.195	-0.305	0.122
-525.004	410.606	-0.186	-0.399
-523.989	13.528	0.105	-0.082
-522.975	-200.000	-0.031	-0.188
-521.960	-157.248	-0.090	-0.006
-520.945	-37.379	-0.194	0.105
-519.931	-116.070	0.199	0.037
-518.916	722.782	-0.061	-0.163
-517.902	-59.088	0.098	0.043
-516.887	-95.640	0.148	-0.040
-515.872	377.664	0.047	0.097
-514.858	-200.000	-0.005	0.101
-513.843	91.821	-0.074	-0.084
-512.829	-124.001	-0.105	0.017
-511.814	16.283	0.332	-0.265
-510.799	687.298	0.044	-0.116
-509.785	10.340	0.117	0.090
-508.770	-102.692	0.114	-0.027
-507.756	-200.000	0.090	-0.410
-506.741	580.497	0.112	-0.277
-505.726	-51.212	0.071	0.033
-504.712	-200.000	-0.049	-0.241
-503.697	-115.462	0.158	0.030
-502.683	800.000	0.041	0.145
-501.668	-84.327	0.077	-0.025
-500.653	-146.837	-0.098	-0.009
-499.639	-61.998	0.055	-0.023
-498.624	210.032	0.118	-0.187
-497.610	-100.370	-0.097	0.024
-496.595	-99.237	-0.142	-0.036
-495.581	345.564	0.078	0.156
-494.566	30.994	-0.212	0.183
-493.551	104.064	0.099	-0.118
-492.537	-83.576	0.224	-0.072
-491.522	-17.247	0.254	0.161
-490.508	-200.000	-0.000	-0.136
-489.493	-96.412	0.295	-0.079
-488.478	52.863	-0.145	0.140
-487.464	-130.216	-0.140	0.019
-486.449	374.773	-0.074	0.151
-485.435	-108.066	-0.185	-0.041
-484.420	115.514	-0.281	0.347
-483.405	800.000	-0.056	-0.244
-482.391	800.000	0.049	0.209
-481.376	99.919	-0.109	-0.127
-480.362	-200.000	0.057	0.385
-479.347	-111.860	0.123	0.025
-478.332	148.879	-0.111	-0.151
-477.318	-61.469	0.206	-0.088
-476.303	-30.233	0.332	0.191
-475.289	-14.663	0.104	-0.068
-474.274	-113.959	-0.332	0.065
-473.259	155.358	0.215	0.299
-472.245	-146.192	0.275	-0.024
-471.230	-53.344	-0.125	-0.058
-470.216	-77.121	-0.134	0.047
-469.201	17.794	0.270	0.217
-468.186	7.969	-0.099	-0.075
-467.172	-113.464	-0.266	-0.053
-466.157	-168.892	-0.446	-0.017
-465.143	-139.299	0.117	0.013
-464.128	-200.000	0.038	-0.213
-463.113	-185.797	0.135	0.002
-462.099	-110.495	0.155	-0.032
-461.084	-22.379	-0.135	-0.082
-460.070	712.800	-0.061	0.162
-459.055	-126.557	-0.057	0.009
-458.040	800.000	-0.137	0.432
-457.026	4.623	-0.033	0.024
-456.011	136.974	-0.220	-0.290
-454.997	-76.641	0.063	-0.022
-453.982	800.000	-0.071	-0.207
-452.968	-52.948	-0.187	-0.087
-451.953	-200.000	0.046	-0.212
-450.938	152.576	-0.194	-0.268
-449.924	-200.000	0.000	-0.137
-448.909	-200.000	0.034	-0.338
-447.895	-79.132	-0.206	0.071
-446.880	60.177	0.222	0.222
-445.865	-20.864	-0.088	-0.054
-444.851	201.691	-0.125	-0.195
-443.836	62.549	0.153	-0.154
-442.822	111.714	-0.192	-0.233
-441.807	48.692	0.278	-0.263
-440.792	-145.020	0.046	-0.004
-439.778	70.432	0.137	0.143
-438.763	269.097	0.127	-0.225
-437.749	37.200	-0.157	0.140
-436.734	800.000	0.044	-0.172
-435.719	-35.711	0.179	-0.098
-434.705	108.373	0.079	-0.095
-433.690	-200.000	0.018	-0.179
-432.676	800.000	0.081	-0.241
-431.661	-200.000	-0.033	0.191
-430.646	125.144	-0.310	0.394
-429.632	800.000	0.041	0.137
-428.617	645.395	-0.046	-0.120
-427.603	-60.320	0.303	-0.130
-426.588	12.663	0.151	-0.117
-425.573	255.655	0.121	0.209
-424.559	655.665	0.008	-0.020
-423.544	-164.891	-0.200	-0.009
-422.530	30.987	0.035	-0.030
-421.515	800.000	-0.061	-0.261
-420.500	-200.000	-0.008	0.181
-419.486	-22.420	0.262	0.160
-418.471	-85.085	0.124	-0.039
-417.457	-25.238	0.159	0.095
-416.442	-98.436	0.280	-0.072
-415.428	-69.953	0.100	-0.039
-414.413	202.662	0.058	0.090
-413.398	-26.466	0.138	-0.081
-412.384	-200.000	0.004	0.021
-411.369	800.000	-0.047	0.133
-410.355	105.017	-0.193	0.229
-409.340	-43.993	0.178	-0.090
-408.325	-62.542	-0.144	0.060
-407.311	-200.000	0.067	0.329
-406.296	162.230	-0.146	-0.205
-405.282	25.640	0.408	0.342
-404.267	36.270	0.311	0.276
-403.252	-200.000	0.035	-0.209
-402.238	-200.000	0.006	-0.030
-401.223	125.165	-0.141	-0.179
-400.209	109.988	0.176	-0.213
-399.194	129.901	-0.139	-0.180
-398.179	-111.351	-0.148	-0.030
-397.165	-115.588	0.318	-0.060
-396.150	800.000	0.037	0.129
-395.136	-51.280	-0.363	0.171
-394.121	800.000	-0.025	-0.088
-393.106	372.342	0.177	-0.362
-392.092	1.617	-0.242	0.175
-391.077	193.603	0.047	0.072
-390.063	-38.133	-0.092	0.049
-389.048	23.140	0.232	0.191
-388.033	-200.000	-0.006	-0.104
-387.019	-200.000	-0.020	-0.420
-386.004	-8.128	-0.331	0.224
-384.990	0.966	0.119	0.086
-383.975	-77.595	0.089	0.031
-382.960	423.225	0.124	0.268
-381.946	-58.798	0.360	0.157
-380.931	800.000	-0.020	-0.069
-379.917	80.993	0.226	-0.245
-378.902	591.573	0.064	-0.158
-377.888	-200.000	0.016	0.191
-376.873	800.000	0.107	-0.309
-375.858	-65.101	-0.095	-0.039
-374.844	65.837	-0.134	-0.137
-373.829	-200.000	0.045	-0.217
-372.815	66.591	-0.050	-0.051
-371.800	222.388	0.142	0.230
-370.785	-168.562	0.054	-0.002
-369.771	464.693	-0.040	-0.089
-368.756	-16.879	0.389	-0.247
-367.742	-200.000	-0.006	-0.317
-366.727	-200.000	0.011	0.110
-365.712	-91.946	-0.175	0.050
-364.698	-136.545	-0.136	-0.016
-363.683	367.968	-0.120	-0.244
-362.669	800.000	-0.062	-0.212
-361.654	273.724	-0.022	-0.040
-360.639	171.193	0.057	-0.082
-359.625	-72.368	0.192	-0.071
-358.610	77.524	-0.102	0.109
-357.596	-2.753	-0.079	-0.056
-356.581	-48.526	0.113	-0.055
-355.566	-164.176	0.231	-0.011
-354.552	303.533	-0.097	-0.180
-353.537	75.798	-0.148	-0.157
-352.523	-116.442	-0.378	0.070
-351.508	180.086	0.087	0.129
-350.493	-49.952	-0.372	0.177
-349.479	-119.647	-0.156	-0.027
-348.464	310.167	-0.073	-0.136
-347.450	-100.550	0.127	-0.031
-346.435	91.176	-0.145	0.164
-345.420	541.199	-0.049	-0.117
-344.406	-34.689	-0.120	0.066
-343.391	-140.536	-0.222	-0.023
-342.377	30.258	-0.081	-0.069
-341.362	255.921	-0.098	-0.168
-340.348	800.000	-0.083	-0.361
-339.333	-125.217	-0.243	0.037
-338.318	-200.000	0.003	0.196
-337.304	800.000	-0.105	0.324
-336.289	374.645	0.062	-0.128
-335.275	-200.000	-0.046	0.336
-334.260	800.000	-0.024	0.087
-333.245	-200.000	0.140	0.664
-332.231	-18.393	0.125	-0.078
-331.216	-116.353	-0.192	-0.036
-330.202	523.767	-0.132	0.312
-329.187	-200.000	-0.041	0.212
-328.172	-200.000	0.013	-0.243
-327.158	268.743	-0.174	-0.306
-326.143	800.000	0.060	-0.179
-325.129	104.883	-0.253	-0.299
-324.114	-22.845	0.211	0.128
-323.099	-182.889	0.162	0.003
-322.085	800.000	-0.057	0.176
-321.070	-200.000	-0.008	0.126
-320.056	35.714	-0.168	-0.148
-319.041	-200.000	0.013	-0.108
-318.026	10.620	-0.029	-0.022
-317.012	224.363	0.315	-0.511
-315.997	-200.000	0.047	0.413
-314.983	259.885	-0.126	-0.219
-313.968	-8.663	-0.240	0.162
-312.953	-129.645	0.134	-0.019
-311.939	-158.413	0.311	0.018
-310.924	-200.000	-0.028	0.187
-309.910	74.923	-0.342	-0.362
-308.895	-200.000	-0.023	0.319
-307.880	441.583	0.041	0.091
-306.866	1.602	-0.290	-0.210
-305.851	-108.017	0.434	-0.094
-304.837	-88.546	-0.060	-0.018
-303.822	-36.443	0.057	-0.031
-302.807	-75.917	-0.059	0.021
-301.793	-149.787	-0.135	-0.011
-300.778	-200.000	0.056	0.384
-299.764	-97.032	-0.151	0.040
-298.749	-200.000	-0.026	0.216
-297.735	-165.814	0.200	0.009
-296.720	800.000	-0.015	0.057
-295.705	-89.235	0.145	-0.043
-294.691	-127.109	0.033	-0.005
-293.676	84.399	-0.287	0.315
-292.662	800.000	-0.044	0.150
-291.647	-20.362	0.205	-0.126
-290.632	-16.718	0.285	-0.181
-289.618	-129.145	0.231	0.032
-288.603	-200.000	-0.001	-0.073
-287.589	-15.486	0.310	0.199
-286.574	-15.514	-0.146	-0.094
-285.559	-31.941	0.183	0.103
-284.545	543.172	0.130	0.311
-283.530	-21.838	-0.264	0.161
-282.516	103.596	-0.117	-0.137
-281.501	-167.186	0.113	-0.005
-280.486	800.000	-0.098	-0.284
-279.472	-200.000	-0.022	-0.195
-278.457	-66.833	-0.169	-0.067
-277.443	-3.856	0.146	-0.102
-276.428	-99.458	0.088	0.022
-275.413	800.000	-0.011	0.032
-274.399	-200.000	0.007	-0.141
-273.384	-11.985	-0.096	-0.063
-272.370	137.023	0.092	-0.120
-271.355	-51.700	-0.029	0.014
-270.340	-157.216	-0.206	-0.012
-269.326	-97.263	0.278	0.073
-268.311	-200.000	0.388	-0.001
-267.297	-200.000	0.009	-0.061
-266.282	-23.939	-0.097	-0.058
-265.267	-200.000	-0.013	-0.111
-264.253	30.467	-0.057	0.049
-263.238	800.000	0.151	-0.462
-262.224	68.250	0.145	0.149
-261.209	179.608	-0.059	-0.087
-260.195	-126.916	0.067	0.010
-259.180	800.000	-0.061	-0.233
-258.165	20.749	0.246	-0.200
-257.151	-200.000	0.042	0.321
-256.136	-131.175	-0.392	-0.052
-255.122	52.161	0.078	-0.074
-254.107	-178.938	0.290	-0.007
-253.092	800.000	0.059	0.177
-252.078	-4.274	0.071	-0.049
-251.063	629.526	-0.075	0.189
-250.049	-182.342	0.170	-0.003
-249.034	-200.000	0.027	-0.191
-248.019	358.863	0.162	-0.324
-247.005	800.000	0.151	0.448
-245.990	-56.412	-0.088	0.039
-244.976	64.630	0.049	-0.050
-243.961	-200.000	-0.010	0.348
-242.946	1.757	0.232	0.167
-241.932	268.417	0.084	-0.147
-240.917	-28.135	0.106	0.061
-239.903	624.391	0.084	0.213
-238.888	800.000	-0.160	0.455
-237.873	-200.000	0.003	0.122
-236.859	-90.006	0.091	0.027
-235.844	-84.380	0.345	0.109
-234.830	138.549	-0.408	0.536
-233.815	-200.000	0.024	0.314
-232.800	-167.635	0.097	-0.004
-231.786	-200.000	-0.019	0.388
-230.771	-51.588	-0.581	0.271
-229.757	-200.000	-0.031	-0.320
-228.742	-200.000	0.002	-0.164
-227.727	-39.350	0.156	-0.082
-226.713	79.894	-0.195	0.209
-225.698	-38.333	-0.254	-0.135
-224.684	547.110	0.168	-0.402
-223.669	-136.133	-0.396	0.046
-222.655	-200.000	-0.008	-0.154
-221.640	24.377	-0.355	0.294
-220.625	-79.735	-0.078	-0.026
-219.611	-118.583	0.241	-0.043
-218.596	-45.711	0.118	-0.058
-217.582	-63.047	0.271	-0.112
-216.567	63.875	0.262	0.263
-215.552	-200.000	-0.002	0.336
-214.538	19.373	-0.265	0.213
-213.523	-17.450	0.150	-0.094
-212.509	761.134	-0.079	0.214
-211.494	-200.000	-0.007	0.087
-210.479	202.311	-0.150	-0.231
-209.465	-122.270	0.260	0.043
-208.450	-200.000	0.020	-0.298
-207.436	-200.000	-0.002	-0.013
-206.421	800.000	-0.095	-0.313
-205.406	-14.885	0.106	0.068
-204.392	27.359	0.055	-0.046
-203.377	102.536	0.125	-0.146
-202.363	407.134	-0.152	0.322
-201.348	248.666	-0.196	0.331
-200.333	-200.000	-0.048	-0.336
-199.319	-110.562	-0.263	-0.054
-198.304	269.117	-0.069	-0.120
-197.290	-200.000	0.021	0.406
-196.275	500.782	-0.118	-0.272
-195.260	-161.258	-0.138	-0.007
-194.246	-84.615	-0.202	-0.063
-193.231	546.650	-0.076	0.182
-192.217	53.917	0.294	0.282
-191.202	-200.000	-0.009	0.191
-190.187	-12.793	0.154	0.100
-189.173	50.869	0.061	-0.058
-188.158	-113.589	-0.274	-0.054
-187.144	800.000	-0.060	-0.255
-186.129	610.057	-0.008	0.019
-185.114	800.000	-0.099	-0.290
-184.100	15.891	-0.168	0.132
-183.085	-200.000	0.041	-0.287
-182.071	-200.000	-0.016	0.175
-181.056	170.217	-0.155	0.221
-180.042	248.934	0.169	0.286
-179.027	-83.730	0.068	0.022
-178.012	56.983	-0.105	-0.102
-176.998	-130.054	0.251	0.034
-175.983	739.313	0.139	-0.373
-174.969	800.000	0.032	0.137
-173.954	-100.118	-0.162	0.040
-172.939	-141.516	0.164	-0.017
-171.925	-112.367	0.143	-0.029
-170.910	244.755	0.234	0.393
-169.896	572.229	-0.112	0.273
-168.881	308.719	-0.214	0.398
-167.866	800.000	-0.071	-0.230
-166.852	800.000	-0.057	0.226
-165.837	459.108	0.157	0.348
-164.823	-10.001	-0.107	0.071
-163.808	-119.930	0.296	0.051
-162.793	17.339	-0.161	0.127
-161.779	-200.000	-0.045	0.289
-160.764	-126.893	0.311	0.046
-159.750	-34.091	-0.064	-0.035
-158.735	2.193	-0.170	-0.123
-157.720	-142.201	0.261	-0.026
-156.706	75.625	-0.094	-0.099
-155.691	-57.841	0.353	0.154
-154.677	-175.884	-0.381	-0.010
-153.662	-200.000	-0.019	-0.135
-152.647	295.398	0.060	-0.110
-151.633	-2.802	0.138	-0.097
-150.618	2.981	-0.283	0.205
-149.604	258.723	0.186	-0.320
-148.589	25.800	-0.113	-0.094
-147.574	-27.787	-0.237	0.137
-146.560	-49.924	0.036	0.017
-145.545	-184.789	0.225	0.004
-144.531	462.489	0.135	-0.301
-143.516	56.315	0.344	-0.333
-142.502	-200.000	0.000	-0.004
-141.487	800.000	-0.064	0.219
-140.472	-192.414	-0.052	-0.000
-139.458	-145.897	0.367	-0.032
-138.443	-19.182	0.122	0.076
-137.429	-80.507	-0.070	-0.023
-136.414	518.132	-0.095	0.222
-135.399	-114.267	0.035	0.007
-134.385	-50.725	0.414	0.194
-133.370	203.238	-0.115	0.177
-132.356	24.999	-0.185	0.153
-131.341	-28.127	-0.324	0.186
-130.326	-144.497	0.237	-0.022
-129.312	-114.149	0.253	0.049
-128.297	-21.242	0.258	0.157
-127.283	225.900	0.114	0.184
-126.268	-86.175	-0.205	-0.063
-125.253	-69.187	-0.133	-0.051
-124.239	-72.240	-0.144	0.053
-123.224	-66.749	0.100	-0.039
-122.210	-19.708	0.181	0.112
