DTS Sentinel unit serial number:	SN413079Multiplexer serial number:	ORYXHardware model number:	OX4-SRSoftware version number:	ORYX F/W v4.00 Oryx Data Collector v3.7.2.0data status	okinstallation	princeton_trtdifferential loss correction	single-endedforward channel	channel 2reverse channel	N/Adate	2019/09/13time	03:47:34forward acquisition time	60.00reverse acquisition time	0.00gamma	496.2192k internal	0.2335k external	0.2335temperature offset calibration	1.0193default loss term (dB/km)	0.3790temperature slope calibration	1.0000multiplexer offset coefficient	1.0000multiplexer slope coefficient	1.0000fibre end	0.00T internal ref (°C)	27.12T ext. ref 1 (°C)	4.07T ext. ref 2 (°C)	21.43length (m)	temperature (°C)	Stokes	anti-Stokes-747.200	-77.641	0.338	-0.118
-746.185	-145.852	0.111	-0.010
-745.171	-200.000	-0.054	-0.253
-744.156	100.587	-0.104	0.121
-743.142	-57.990	0.145	-0.063
-742.127	800.000	-0.029	0.101
-741.112	304.319	-0.183	0.342
-740.098	-58.237	0.160	0.070
-739.083	-169.775	-0.260	0.009
-738.069	-200.000	-0.026	-0.149
-737.054	-95.263	0.408	-0.110
-736.039	-84.373	-0.424	0.135
-735.025	3.737	0.408	0.299
-734.010	48.358	-0.078	-0.073
-732.996	-152.380	-0.308	0.022
-731.981	-75.893	-0.110	-0.039
-730.966	-200.000	0.026	-0.161
-729.952	373.784	-0.135	0.276
-728.937	12.106	-0.122	-0.095
-727.923	13.751	0.055	0.043
-726.908	-102.153	-0.026	-0.006
-725.894	-9.838	-0.052	0.035
-724.879	19.919	0.346	-0.280
-723.864	36.469	-0.169	0.150
-722.850	-45.983	0.076	0.038
-721.835	137.366	0.187	-0.246
-720.821	-144.074	0.437	0.041
-719.806	-137.004	0.206	-0.024
-718.791	-200.000	0.004	-0.367
-717.777	-136.396	-0.232	0.027
-716.762	-144.775	0.353	-0.033
-715.748	40.094	0.207	0.187
-714.733	350.177	0.085	0.168
-713.718	39.243	-0.075	-0.067
-712.704	-37.551	-0.331	-0.177
-711.689	-200.000	0.005	0.119
-710.675	-46.190	0.153	-0.076
-709.660	800.000	0.101	-0.292
-708.645	176.821	0.041	0.061
-707.631	-110.551	-0.278	-0.058
-706.616	-27.954	0.141	-0.082
-705.602	-127.918	0.111	0.016
-704.587	212.936	-0.247	-0.392
-703.572	-66.317	-0.330	-0.132
-702.558	-122.218	0.229	0.038
-701.543	-200.000	-0.033	-0.220
-700.529	-200.000	0.010	0.070
-699.514	-54.187	-0.478	0.218
-698.499	800.000	-0.030	0.083
-697.485	378.704	-0.097	-0.199
-696.470	-58.918	-0.145	-0.063
-695.456	-200.000	-0.016	-0.086
-694.441	-200.000	-0.003	-0.030
-693.426	-89.435	-0.327	-0.096
-692.412	-90.148	0.171	0.050
-691.397	131.153	-0.092	0.118
-690.383	800.000	0.051	-0.151
-689.368	-91.094	-0.101	0.029
-688.354	-200.000	0.070	0.428
-687.339	99.914	-0.229	-0.266
-686.324	-35.269	0.075	0.041
-685.310	-108.294	-0.156	0.034
-684.295	-54.384	-0.183	-0.083
-683.281	800.000	0.063	-0.203
-682.266	-153.230	0.191	0.013
-681.251	-200.000	-0.045	0.226
-680.237	-200.000	-0.043	-0.257
-679.222	550.013	-0.091	-0.218
-678.208	7.126	0.032	-0.024
-677.193	43.230	0.148	-0.136
-676.178	-200.000	-0.035	-0.216
-675.164	-93.844	-0.215	0.059
-674.149	-82.248	0.247	-0.081
-673.135	-13.091	0.145	-0.094
-672.120	-131.728	-0.224	-0.029
-671.105	194.017	-0.102	0.156
-670.091	-87.168	0.256	0.078
-669.076	-152.705	0.239	-0.017
-668.062	138.498	0.079	-0.104
-667.047	2.558	0.266	0.193
-666.032	583.079	0.126	-0.309
-665.018	-98.074	-0.087	-0.023
-664.003	-149.595	-0.140	-0.011
-662.989	800.000	0.029	0.101
-661.974	568.904	0.047	-0.115
-660.959	200.856	-0.140	-0.215
-659.945	-189.845	0.230	-0.003
-658.930	240.732	0.034	-0.056
-657.916	100.786	0.152	0.177
-656.901	238.820	-0.192	0.320
-655.886	800.000	-0.068	0.283
-654.872	-200.000	-0.014	0.095
-653.857	-52.625	0.338	-0.156
-652.843	701.765	0.066	-0.175
-651.828	-52.889	-0.442	-0.204
-650.814	-200.000	0.042	-0.225
-649.799	-200.000	-0.031	-0.326
-648.784	640.664	0.052	-0.132
-647.770	-68.184	-0.159	0.062
-646.755	-54.589	-0.055	0.025
-645.741	-64.003	0.141	-0.057
-644.726	-200.000	-0.082	-0.378
-643.711	115.535	-0.327	-0.401
-642.697	800.000	-0.054	-0.189
-641.682	115.743	0.163	-0.200
-640.668	-46.445	-0.379	-0.186
-639.653	203.345	-0.194	-0.300
-638.638	-200.000	0.031	0.215
-637.624	98.821	0.118	-0.137
-636.609	-81.962	0.462	-0.151
-635.595	-163.202	0.252	-0.012
-634.580	174.805	0.126	0.183
-633.565	-25.968	-0.286	-0.169
-632.551	271.825	-0.154	-0.272
-631.536	-39.190	0.115	0.061
-630.522	-33.000	0.281	-0.156
-629.507	800.000	0.048	0.174
-628.492	90.387	-0.209	0.233
-627.478	370.722	0.089	0.180
-626.463	190.337	0.177	0.266
-625.449	-26.771	0.087	-0.051
-624.434	212.395	0.048	-0.075
-623.419	124.475	0.122	0.153
-622.405	800.000	0.110	-0.359
-621.390	-69.922	0.102	0.039
-620.376	-63.558	0.146	-0.060
-619.361	75.599	0.023	-0.025
-618.346	800.000	0.091	-0.302
-617.332	800.000	-0.067	-0.284
-616.317	-34.381	-0.212	0.116
-615.303	-109.760	0.330	0.069
-614.288	-160.000	0.038	-0.002
-613.273	-200.000	-0.004	0.310
-612.259	-52.924	-0.123	0.057
-611.244	110.687	0.102	-0.123
-610.230	-200.000	0.002	0.069
-609.215	62.308	0.080	-0.080
-608.201	-167.341	-0.313	-0.013
-607.186	-70.673	-0.108	-0.041
-606.171	-44.773	-0.165	0.082
-605.157	244.443	-0.183	0.308
-604.142	187.974	0.233	-0.348
-603.128	-48.678	-0.288	0.138
-602.113	-41.466	0.391	-0.201
-601.098	180.013	-0.233	0.341
-600.084	624.107	-0.069	0.175
-599.069	-200.000	0.019	0.083
-598.055	-145.665	0.462	0.041
-597.040	-200.000	-0.016	0.384
-596.025	19.969	-0.253	-0.204
-595.011	516.528	-0.128	-0.299
-593.996	157.880	-0.268	-0.371
-592.982	-200.000	-0.011	0.236
-591.967	-34.896	-0.391	-0.213
-590.952	-200.000	-0.016	0.177
-589.938	624.941	0.039	-0.099
-588.923	800.000	-0.164	0.590
-587.909	-14.388	0.320	-0.206
-586.894	-28.111	0.171	0.099
-585.879	800.000	-0.055	-0.211
-584.865	-118.940	-0.241	0.042
-583.850	-200.000	0.023	-0.247
-582.836	-182.627	-0.231	0.004
-581.821	473.404	0.046	0.103
-580.806	-200.000	-0.065	-0.353
-579.792	-87.648	-0.132	0.040
-578.777	-30.789	0.236	-0.133
-577.763	395.662	-0.160	0.334
-576.748	-200.000	-0.093	-0.425
-575.733	-200.000	0.051	-0.234
-574.719	-200.000	0.006	-0.071
-573.704	-80.537	0.341	0.113
-572.690	800.000	-0.010	-0.031
-571.675	-91.116	-0.222	0.064
-570.661	339.245	0.132	0.257
-569.646	79.607	0.186	0.199
-568.631	800.000	0.024	0.098
-567.617	-22.141	-0.332	0.201
-566.602	-32.683	-0.095	-0.053
-565.588	293.834	-0.108	-0.197
-564.573	376.112	0.082	0.166
-563.558	-200.000	-0.015	-0.156
-562.544	-77.971	-0.096	-0.033
-561.529	-60.744	0.502	-0.212
-560.515	-28.164	0.225	-0.130
-559.500	800.000	0.067	-0.196
-558.485	172.635	-0.084	-0.120
-557.471	-148.915	-0.337	-0.027
-556.456	24.188	0.301	-0.248
-555.442	51.009	0.062	0.059
-554.427	-26.406	-0.214	-0.125
-553.412	127.746	0.048	-0.061
-552.398	-19.135	0.187	0.116
-551.383	568.312	-0.074	-0.180
-550.369	-90.959	-0.240	0.069
-549.354	-98.022	0.229	-0.059
-548.339	4.129	-0.290	-0.212
-547.325	545.671	0.026	0.062
-546.310	124.978	0.114	-0.144
-545.296	501.646	-0.069	0.160
-544.281	695.984	-0.082	0.214
-543.266	-200.000	0.023	0.214
-542.252	-200.000	-0.016	0.248
-541.237	60.672	0.132	0.131
-540.223	800.000	0.129	-0.554
-539.208	197.387	-0.146	-0.223
-538.193	800.000	-0.079	-0.227
-537.179	163.002	-0.082	0.115
-536.164	361.995	0.061	0.123
-535.150	-200.000	0.023	0.147
-534.135	-120.656	0.173	-0.029
-533.121	-200.000	0.008	0.152
-532.106	-65.042	-0.135	0.054
-531.091	-148.044	-0.328	-0.027
-530.077	165.247	-0.171	0.241
-529.062	-200.000	-0.045	0.202
-528.048	133.253	-0.134	0.172
-527.033	9.423	-0.177	-0.133
-526.018	-30.573	0.302	0.171
-525.004	-200.000	0.047	-0.223
-523.989	57.934	0.240	-0.234
-522.975	797.063	0.058	-0.159
-521.960	-148.091	0.199	-0.016
-520.945	-200.000	-0.041	-0.238
-519.931	506.430	0.079	0.183
-518.916	14.446	0.244	0.190
-517.902	226.453	0.207	0.335
-516.887	620.961	0.111	-0.278
-515.872	-25.713	0.210	-0.123
-514.858	270.506	0.140	-0.244
-513.843	-64.062	0.160	0.065
-512.829	-20.101	-0.083	-0.051
-511.814	800.000	0.034	0.144
-510.799	14.636	0.304	0.236
-509.785	242.244	0.128	-0.213
-508.770	605.244	-0.091	0.225
-507.756	800.000	-0.059	0.178
-506.741	-156.508	-0.440	0.027
-505.726	747.909	-0.066	0.176
-504.712	-17.223	0.175	-0.110
-503.697	124.813	0.152	0.191
-502.683	-103.995	-0.306	0.071
-501.668	800.000	-0.051	-0.163
-500.653	-200.000	-0.006	-0.203
-499.639	86.923	-0.074	-0.081
-498.624	-200.000	-0.029	-0.234
-497.610	115.240	-0.130	-0.158
-496.595	-41.929	-0.207	-0.106
-495.581	-148.061	0.378	0.031
-494.566	800.000	-0.059	-0.239
-493.551	206.847	-0.275	-0.426
-492.537	-10.279	-0.222	0.147
-491.522	506.681	-0.010	0.022
-490.508	-95.757	0.472	0.125
-489.493	361.582	0.057	-0.114
-488.478	-68.936	-0.145	0.056
-487.464	461.069	-0.109	-0.241
-486.449	15.877	0.083	-0.065
-485.435	525.069	-0.013	0.030
-484.420	633.055	-0.029	-0.072
-483.405	333.210	-0.019	-0.036
-482.391	-31.713	0.276	0.154
-481.376	-200.000	0.005	0.272
-480.362	139.572	0.125	-0.164
-479.347	-173.189	-0.202	0.006
-478.332	47.387	0.151	0.140
-477.318	231.513	-0.126	0.206
-476.303	26.362	0.121	0.101
-475.289	-200.000	0.019	0.159
-474.274	-17.108	-0.245	0.154
-473.259	-79.907	0.183	-0.061
-472.245	-111.386	0.560	0.114
-471.230	-9.922	-0.235	-0.156
-470.216	-200.000	-0.002	0.053
-469.201	-183.548	-0.222	-0.004
-468.186	800.000	0.171	0.567
-467.172	-90.009	0.133	-0.039
-466.157	46.302	-0.153	0.141
-465.143	413.236	-0.072	-0.152
-464.128	-69.441	0.267	-0.102
-463.113	-87.780	-0.343	0.103
-462.099	800.000	-0.067	0.185
-461.084	115.202	0.029	-0.035
-460.070	233.794	0.099	-0.162
-459.055	-200.000	0.005	-0.258
-458.040	-62.094	0.224	0.093
-457.026	112.055	-0.090	0.108
-456.011	93.013	0.189	-0.212
-454.997	800.000	0.085	-0.287
-453.982	-93.231	0.266	0.074
-452.968	452.496	-0.143	-0.313
-451.953	-200.000	0.033	0.376
-450.938	78.384	0.305	0.324
-449.924	800.000	0.056	0.180
-448.909	-100.821	0.255	0.062
-447.895	-111.627	-0.371	0.075
-446.880	-52.515	0.346	-0.159
-445.865	-63.706	-0.276	-0.113
-444.851	331.365	-0.094	-0.180
-443.836	22.622	-0.307	-0.249
-442.822	278.011	-0.135	0.238
-441.807	-56.471	-0.030	-0.013
-440.792	-84.298	-0.313	0.098
-439.778	179.251	-0.065	-0.095
-438.763	-200.000	0.008	-0.115
-437.749	-135.681	-0.440	-0.052
-436.734	-86.119	-0.294	0.090
-435.719	-111.820	0.208	0.042
-434.705	-45.666	0.116	0.057
-433.690	88.266	-0.084	0.093
-432.676	260.039	0.072	-0.124
-431.661	217.893	0.197	0.312
-430.646	-59.658	0.341	-0.145
-429.632	-74.203	-0.130	-0.047
-428.617	48.128	0.281	0.261
-427.603	-3.287	0.208	-0.144
-426.588	-33.595	-0.241	-0.132
-425.573	79.078	0.059	-0.063
-424.559	390.385	0.076	0.156
-423.544	-200.000	-0.025	0.136
-422.530	-37.643	0.208	-0.110
-421.515	-80.216	-0.163	0.054
-420.500	-200.000	-0.011	0.048
-419.486	27.812	0.169	-0.141
-418.471	800.000	-0.047	-0.145
-417.457	27.671	-0.037	-0.031
-416.442	10.532	-0.143	0.108
-415.428	-200.000	-0.036	0.412
-414.413	-123.221	-0.296	-0.047
-413.398	-200.000	0.009	-0.168
-412.384	-54.771	0.160	0.072
-411.369	-60.382	-0.025	-0.011
-410.355	-200.000	-0.072	-0.381
-409.340	800.000	0.062	0.227
-408.325	-139.605	-0.193	0.020
-407.311	-37.331	-0.151	-0.080
-406.296	52.622	-0.233	0.221
-405.282	580.346	0.042	0.102
-404.267	800.000	0.058	-0.204
-403.252	41.435	-0.194	0.174
-402.238	752.398	0.087	0.232
-401.223	-164.244	0.055	-0.003
-400.209	538.691	0.054	-0.126
-399.194	-143.995	-0.080	-0.007
-398.179	222.598	-0.154	-0.245
-397.165	-59.569	-0.225	0.096
-396.150	-104.267	0.145	-0.033
-395.136	800.000	0.025	-0.070
-394.121	272.227	-0.089	-0.156
-393.106	-74.433	0.354	-0.126
-392.092	161.603	0.188	0.261
-391.077	336.225	-0.107	0.206
-390.063	-200.000	-0.039	0.329
-389.048	-93.075	-0.330	0.091
-388.033	-155.991	0.121	0.008
-387.019	27.279	-0.141	-0.117
-386.004	-200.000	-0.023	-0.199
-384.990	-115.168	-0.115	-0.021
-383.975	800.000	0.040	0.128
-382.960	-88.030	-0.337	0.100
-381.946	-91.893	0.171	-0.048
-380.931	37.130	-0.064	0.056
-379.917	17.784	0.047	-0.037
-378.902	58.137	0.069	0.067
-377.888	800.000	0.038	-0.114
-376.873	-132.216	-0.267	0.034
-375.858	800.000	-0.072	-0.262
-374.844	419.806	-0.157	0.333
-373.829	-136.239	-0.427	0.049
-372.815	3.915	0.132	0.096
-371.800	-114.997	0.136	-0.026
-370.785	-111.464	-0.066	-0.013
-369.771	227.061	-0.101	0.162
-368.756	-200.000	-0.047	-0.000
-367.742	315.392	-0.081	0.152
-366.727	-107.620	0.198	-0.043
-365.712	-165.431	0.279	-0.012
-364.698	327.326	0.058	0.110
-363.683	-114.489	-0.192	-0.037
-362.669	156.537	0.174	0.238
-361.654	800.000	0.043	-0.118
-360.639	-147.412	-0.138	-0.012
-359.625	575.810	-0.054	0.131
-358.610	56.195	0.110	-0.106
-357.596	-110.621	0.201	0.041
-356.581	-175.195	0.466	0.013
-355.566	-200.000	0.021	0.258
-354.552	19.325	-0.216	0.172
-353.537	-200.000	0.046	0.355
-352.523	800.000	-0.104	-0.405
-351.508	92.691	0.256	-0.286
-350.493	73.158	-0.149	-0.154
-349.479	-26.657	-0.137	-0.079
-348.464	135.811	-0.039	-0.051
-347.450	305.016	0.094	0.173
-346.435	-200.000	0.008	0.081
-345.420	187.230	0.220	0.325
-344.406	-200.000	-0.081	-0.368
-343.391	-200.000	0.031	-0.171
-342.377	-80.764	-0.436	-0.143
-341.362	217.948	-0.065	0.103
-340.348	329.353	-0.016	-0.030
-339.333	800.000	-0.077	-0.284
-338.318	40.865	-0.076	-0.068
-337.304	-135.048	0.134	0.016
-336.289	180.394	0.084	-0.122
-335.275	-77.189	-0.206	0.071
-334.260	107.786	-0.304	0.358
-333.245	-127.832	0.117	0.017
-332.231	-200.000	0.061	0.356
-331.216	-200.000	0.022	-0.229
-330.202	3.623	0.172	0.124
-329.187	-113.611	0.198	0.038
-328.172	371.544	0.057	0.114
-327.158	-81.384	0.267	-0.087
-326.143	800.000	-0.057	-0.186
-325.129	-52.194	0.258	-0.118
-324.114	-200.000	0.035	0.188
-323.099	-98.599	0.026	-0.006
-322.085	113.461	-0.269	0.323
-321.070	477.597	-0.078	-0.174
-320.056	-45.872	0.133	0.065
-319.041	176.943	-0.120	-0.172
-318.026	108.439	-0.054	-0.064
-317.012	346.093	-0.091	0.177
-315.997	-200.000	0.019	0.383
-314.983	-84.900	0.117	0.036
-313.968	-200.000	0.050	-0.225
-312.953	-200.000	0.063	0.291
-311.939	43.098	-0.139	0.125
-310.924	5.984	0.265	0.194
-309.910	-27.113	-0.444	0.256
-308.895	662.010	-0.045	-0.116
-307.880	31.482	0.051	0.043
-306.866	-200.000	-0.010	0.085
-305.851	44.174	-0.090	-0.082
-304.837	800.000	0.064	-0.266
-303.822	479.617	-0.064	-0.144
-302.807	50.775	-0.230	-0.216
-301.793	-200.000	0.076	0.407
-300.778	57.864	-0.065	0.063
-299.764	-54.203	-0.065	0.029
-298.749	142.261	0.119	-0.156
-297.735	-17.876	-0.362	-0.224
-296.720	-200.000	-0.054	0.264
-295.705	-143.096	0.316	-0.030
-294.691	-86.899	-0.207	-0.063
-293.676	-200.000	-0.019	0.248
-292.662	-109.870	-0.220	-0.046
-291.647	383.101	-0.167	-0.339
-290.632	-154.296	-0.315	0.021
-289.618	800.000	-0.103	0.374
-288.603	-43.801	-0.148	-0.073
-287.589	800.000	-0.064	0.212
-286.574	263.681	-0.154	0.263
-285.559	35.144	0.182	-0.157
-284.545	-14.851	-0.033	-0.021
-283.530	57.465	-0.079	-0.076
-282.516	-73.276	-0.187	0.067
-281.501	14.246	0.108	0.083
-280.486	28.690	0.067	-0.056
-279.472	-149.577	0.095	-0.007
-278.457	-12.271	-0.357	-0.231
-277.443	-151.971	-0.023	-0.002
-276.428	-101.814	0.193	-0.046
-275.413	-200.000	0.050	-0.361
-274.399	48.219	-0.165	0.152
-273.384	396.028	-0.019	-0.039
-272.370	-70.208	-0.039	0.015
-271.355	-48.170	-0.232	-0.110
-270.340	-56.977	0.331	-0.144
-269.326	-14.021	-0.241	0.153
-268.311	-200.000	-0.045	0.478
-267.297	576.071	0.076	0.183
-266.282	-158.763	-0.201	-0.011
-265.267	800.000	-0.080	0.256
-264.253	-122.073	-0.343	0.056
-263.238	-148.642	0.066	-0.005
-262.224	-75.551	-0.145	0.051
-261.209	97.396	0.305	-0.346
-260.195	-160.577	0.215	0.011
-259.180	12.990	0.144	-0.110
-258.165	-67.987	-0.066	0.026
-257.151	-200.000	-0.062	0.315
-256.136	26.197	0.278	-0.229
-255.122	174.485	-0.068	0.097
-254.107	-2.954	0.035	0.024
-253.092	53.256	0.304	-0.287
-252.078	-43.637	-0.226	-0.112
-251.063	-200.000	0.009	0.081
-250.049	-104.201	0.205	0.047
-249.034	30.625	0.066	0.056
-248.019	-10.661	-0.398	-0.260
-247.005	-200.000	0.077	0.484
-245.990	708.744	0.032	0.084
-244.976	-200.000	0.018	0.449
-243.961	202.076	-0.121	0.184
-242.946	112.650	-0.054	0.065
-241.932	331.811	0.099	0.189
-240.917	105.469	-0.161	-0.187
-239.903	289.284	-0.133	-0.238
-238.888	498.356	0.095	-0.216
-237.873	800.000	-0.025	0.095
-236.859	-147.841	0.440	-0.036
-235.844	-200.000	0.028	-0.139
-234.830	367.994	0.104	-0.207
-233.815	-20.386	-0.329	0.199
-232.800	-81.736	0.148	-0.048
-231.786	800.000	0.081	-0.252
-230.771	91.390	0.204	-0.226
-229.757	48.728	0.214	0.198
-228.742	43.456	0.261	-0.235
-227.727	3.399	0.223	0.160
-226.713	138.430	-0.068	-0.088
-225.698	-96.547	-0.061	-0.016
-224.684	641.911	-0.160	0.401
-223.669	-92.274	0.210	-0.058
-222.655	-88.482	0.291	0.086
-221.640	-200.000	0.020	0.108
-220.625	-114.927	-0.101	0.019
-219.611	110.944	0.139	0.165
-218.596	13.627	0.160	-0.123
-217.582	-21.505	0.218	-0.131
-216.567	-76.675	-0.130	0.045
-215.552	-57.872	0.132	0.057
-214.538	-5.498	0.148	-0.100
-213.523	-200.000	0.013	0.090
-212.509	71.635	0.265	-0.271
-211.494	-64.921	0.107	0.042
-210.479	70.334	-0.174	-0.177
-209.465	800.000	0.084	-0.350
-208.450	-9.087	0.065	-0.043
-207.436	-68.859	0.189	-0.072
-206.421	-164.753	0.181	-0.008
-205.406	340.624	0.094	0.181
-204.392	775.136	-0.151	0.404
-203.377	-200.000	0.011	0.144
-202.363	78.338	0.095	0.099
-201.348	240.878	0.027	0.045
-200.333	-118.551	0.379	0.066
-199.319	57.621	0.036	0.035
-198.304	-41.555	-0.177	-0.090
-197.290	800.000	-0.055	0.223
-196.275	-76.642	0.200	-0.069
-195.260	386.434	-0.078	-0.158
-194.246	-200.000	-0.014	0.065
-193.231	103.217	0.201	0.232
-192.217	-89.204	-0.261	0.076
-191.202	38.230	0.252	0.220
-190.187	-102.874	-0.189	0.044
-189.173	800.000	0.060	-0.170
-188.158	-200.000	-0.008	0.068
-187.144	59.840	0.053	0.051
-186.129	-31.702	-0.156	0.086
-185.114	12.920	-0.353	-0.269
-184.100	-200.000	0.036	-0.221
-183.085	-176.815	0.218	-0.005
-182.071	47.734	-0.038	0.035
-181.056	-60.804	0.347	0.144
-180.042	-97.115	0.203	0.052
-179.027	-108.921	-0.198	-0.042
-178.012	-200.000	0.020	-0.197
-176.998	-64.070	-0.310	0.124
-175.983	-20.039	0.125	-0.076
-174.969	-53.683	-0.062	-0.028
-173.954	187.311	0.139	-0.204
-172.939	42.997	-0.086	-0.078
-171.925	368.900	0.153	-0.305
-170.910	162.129	-0.067	-0.092
-169.896	98.090	-0.054	0.061
-168.881	57.047	0.043	-0.041
-167.866	-200.000	0.034	-0.239
-166.852	97.555	-0.150	-0.170
-165.837	35.183	0.136	0.117
-164.823	-200.000	-0.038	-0.190
-163.808	434.339	-0.111	0.237
-162.793	31.314	-0.224	0.189
-161.779	371.297	0.074	-0.148
-160.764	-186.097	-0.200	0.003
-159.750	8.889	-0.183	0.136
-158.735	95.791	-0.081	-0.091
-157.720	107.805	-0.240	-0.281
-156.706	-54.178	0.021	0.009
-155.691	-44.883	-0.119	0.058
-154.677	-163.317	0.121	0.006
-153.662	-74.936	0.314	0.111
-152.647	393.886	0.102	0.209
-151.633	-142.791	-0.161	0.015
-150.618	-47.195	0.075	-0.036
-149.604	-200.000	-0.017	0.291
-148.589	800.000	0.051	0.197
-147.574	154.384	0.044	-0.059
-146.560	-200.000	0.050	-0.242
-145.545	45.215	-0.160	-0.144
-144.531	277.198	-0.179	-0.313
-143.516	266.735	-0.144	-0.247
-142.502	-183.225	0.478	-0.008
-141.487	-200.000	0.018	-0.304
-140.472	800.000	-0.028	-0.092
-139.458	93.258	0.096	0.107
-138.443	133.083	-0.124	0.158
-137.429	-200.000	-0.033	0.181
-136.414	-200.000	-0.013	-0.229
-135.399	298.450	-0.036	0.065
-134.385	-200.000	0.076	-0.370
-133.370	-200.000	0.003	-0.121
-132.356	-87.711	-0.353	0.104
-131.341	-30.211	-0.175	-0.098
-130.326	800.000	0.031	-0.115
-129.312	37.211	-0.284	0.247
-128.297	-200.000	0.008	-0.059
-127.283	-0.830	0.168	0.116
-126.268	186.229	0.085	0.124
-125.253	-25.602	-0.048	-0.028
-124.239	38.619	0.131	0.115
-123.224	110.541	-0.082	0.097
-122.210	-55.163	-0.461	0.204
-121.195	202.669	0.064	-0.097
