DTS Sentinel unit serial number:	SN413079Multiplexer serial number:	ORYXHardware model number:	OX4-SRSoftware version number:	ORYX F/W v4.00 Oryx Data Collector v3.7.2.0data status	okinstallation	princeton_trtdifferential loss correction	single-endedforward channel	channel 2reverse channel	N/Adate	2019/09/18time	14:39:35forward acquisition time	60.00reverse acquisition time	0.00gamma	496.2192k internal	0.2318k external	0.2318temperature offset calibration	0.9997default loss term (dB/km)	0.3790temperature slope calibration	1.0000multiplexer offset coefficient	1.0000multiplexer slope coefficient	1.0000fibre end	0.00T internal ref (°C)	34.67T ext. ref 1 (°C)	0.70T ext. ref 2 (°C)	32.51length (m)	temperature (°C)	Stokes	anti-Stokes-747.200	-157.583	0.454	-0.027
-746.185	-88.687	0.049	-0.015
-745.171	505.119	0.121	0.283
-744.156	-200.000	-0.075	0.353
-743.142	-144.192	0.152	-0.014
-742.127	-176.042	0.340	0.009
-741.112	-200.000	0.056	-0.276
-740.098	-200.000	0.022	0.471
-739.083	-56.698	0.395	0.177
-738.069	-200.000	0.020	0.351
-737.054	-200.000	-0.006	0.233
-736.039	138.513	-0.138	0.183
-735.025	-200.000	-0.054	-0.244
-734.010	260.560	-0.224	-0.393
-732.996	51.914	-0.094	-0.091
-731.981	171.071	-0.066	-0.096
-730.966	-200.000	0.008	-0.379
-729.952	-100.659	-0.151	-0.038
-728.937	119.042	-0.082	0.103
-727.923	-33.497	-0.254	0.142
-726.908	-5.631	-0.259	-0.179
-725.894	-102.453	0.154	0.037
-724.879	781.535	-0.104	-0.287
-723.864	-20.711	-0.157	0.098
-722.850	14.103	-0.272	-0.214
-721.835	-200.000	-0.010	-0.096
-720.821	130.237	-0.246	-0.319
-719.806	-17.273	0.334	0.213
-718.791	72.369	-0.377	-0.397
-717.777	56.277	-0.259	0.254
-716.762	-175.144	0.137	0.004
-715.748	1.196	0.203	-0.147
-714.733	-8.109	-0.120	0.082
-713.718	-200.000	0.037	-0.192
-712.704	-55.359	0.119	0.054
-711.689	-200.000	0.018	-0.277
-710.675	67.987	-0.153	0.158
-709.660	800.000	-0.085	-0.273
-708.645	800.000	0.081	-0.244
-707.631	800.000	0.011	0.040
-706.616	333.525	0.108	0.212
-705.602	157.442	-0.056	-0.079
-704.587	-200.000	-0.079	-0.443
-703.572	-59.826	-0.088	-0.038
-702.558	585.924	0.091	-0.225
-701.543	143.809	-0.156	0.210
-700.529	94.787	0.182	-0.210
-699.514	800.000	0.060	0.263
-698.499	421.497	0.068	0.148
-697.485	-23.375	0.066	0.040
-696.470	-52.274	0.168	0.078
-695.456	143.777	-0.115	-0.155
-694.441	203.344	0.069	-0.107
-693.426	226.002	0.039	-0.065
-692.412	-48.602	-0.161	-0.078
-691.397	-116.015	-0.236	-0.044
-690.383	-6.119	-0.140	0.096
-689.368	-4.373	0.217	-0.152
-688.354	587.180	-0.105	0.261
-687.339	187.558	-0.165	-0.249
-686.324	-3.763	0.180	0.126
-685.310	-92.715	-0.079	-0.022
-684.295	-130.564	0.175	-0.024
-683.281	-74.194	-0.204	-0.074
-682.266	-76.437	-0.089	-0.031
-681.251	39.760	0.069	0.062
-680.237	-200.000	0.036	0.174
-679.222	-200.000	-0.037	0.336
-678.208	-7.712	-0.231	0.157
-677.193	43.601	0.234	0.216
-676.178	-200.000	0.024	-0.139
-675.164	800.000	0.040	0.159
-674.149	231.357	-0.099	-0.164
-673.135	800.000	0.053	-0.199
-672.120	270.091	0.111	-0.197
-671.105	-54.085	-0.344	0.158
-670.091	8.109	-0.432	0.327
-669.076	800.000	0.100	0.304
-668.062	-97.355	-0.306	-0.080
-667.047	-108.987	-0.216	0.047
-666.032	10.377	-0.437	-0.336
-665.018	151.821	0.293	-0.403
-664.003	-140.012	-0.461	0.049
-662.989	-200.000	-0.015	-0.301
-661.974	-154.916	-0.293	-0.019
-660.959	-200.000	0.009	-0.183
-659.945	800.000	0.105	-0.356
-658.930	24.193	0.224	-0.187
-657.916	191.735	0.247	0.376
-656.901	800.000	-0.027	0.085
-655.886	-200.000	-0.006	-0.173
-654.872	105.712	-0.341	-0.406
-653.857	55.556	-0.034	-0.033
-652.843	19.879	0.038	-0.031
-651.828	-200.000	0.002	0.108
-650.814	-200.000	-0.033	0.161
-649.799	-200.000	0.068	0.330
-648.784	800.000	-0.074	0.218
-647.770	52.797	-0.113	-0.109
-646.755	-117.699	0.185	0.034
-645.741	-200.000	0.008	0.140
-644.726	-141.563	-0.199	-0.020
-643.711	-88.855	-0.229	0.068
-642.697	135.344	-0.263	0.345
-641.682	800.000	-0.121	-0.484
-640.668	73.584	0.052	-0.055
-639.653	-200.000	-0.012	0.149
-638.638	113.926	0.058	-0.071
-637.624	-168.663	0.108	0.004
-636.609	800.000	0.119	-0.348
-635.595	-13.591	-0.081	-0.053
-634.580	640.325	-0.081	0.208
-633.565	182.369	0.275	0.409
-632.551	-15.493	0.229	0.148
-631.536	-30.407	0.206	-0.118
-630.522	-96.888	-0.178	0.047
-629.507	-200.000	0.003	-0.277
-628.492	-124.996	-0.231	0.036
-627.478	800.000	-0.064	0.280
-626.463	-116.482	0.318	-0.059
-625.449	-136.263	-0.156	0.018
-624.434	740.483	0.059	-0.159
-623.419	-108.348	0.182	-0.040
-622.405	141.793	-0.080	-0.106
-621.390	-79.767	-0.152	0.051
-620.376	151.415	-0.195	0.267
-619.361	800.000	0.010	0.030
-618.346	109.459	0.025	-0.030
-617.332	-39.728	0.378	-0.199
-616.317	-14.098	-0.231	-0.150
-615.303	800.000	-0.035	0.125
-614.288	78.341	-0.174	0.187
-613.273	-57.593	0.037	0.016
-612.259	423.642	0.096	-0.208
-611.244	105.717	-0.289	-0.344
-610.230	800.000	-0.104	-0.323
-609.215	376.305	0.029	0.060
-608.201	88.715	0.158	0.177
-607.186	-79.458	0.175	0.060
-606.171	208.528	-0.073	0.115
-605.157	49.866	0.059	-0.056
-604.142	608.449	-0.024	-0.061
-603.128	-16.858	0.128	-0.081
-602.113	154.236	-0.076	-0.105
-601.098	-76.008	-0.302	0.108
-600.084	-200.000	-0.030	-0.139
-599.069	-88.563	0.226	-0.068
-598.055	800.000	0.102	-0.351
-597.040	600.158	-0.056	-0.140
-596.025	800.000	-0.078	-0.242
-595.011	75.972	-0.179	-0.190
-593.996	800.000	-0.126	-0.535
-592.982	-200.000	-0.045	-0.293
-591.967	-98.600	-0.121	0.031
-590.952	-40.936	-0.198	0.103
-589.938	111.129	0.251	-0.304
-588.923	18.034	-0.192	0.154
-587.909	-29.988	-0.220	-0.126
-586.894	-178.110	0.313	-0.007
-585.879	-182.165	-0.089	0.002
-584.865	504.667	0.088	-0.205
-583.850	-200.000	-0.036	-0.197
-582.836	-200.000	-0.060	-0.327
-581.821	-11.210	-0.264	-0.175
-580.806	760.607	-0.026	-0.070
-579.792	82.757	-0.150	0.164
-578.777	8.340	0.048	0.037
-577.763	32.342	-0.117	-0.101
-576.748	-92.899	-0.157	-0.044
-575.733	250.406	-0.079	-0.135
-574.719	-183.869	0.220	-0.004
-573.704	-153.437	-0.274	-0.019
-572.690	23.240	0.184	-0.152
-571.675	695.370	0.205	0.541
-570.661	-167.142	0.065	0.003
-569.646	534.209	-0.161	0.383
-568.631	158.383	-0.131	0.183
-567.617	-80.862	0.207	-0.069
-566.602	-200.000	-0.026	-0.177
-565.588	-24.773	-0.206	0.123
-564.573	573.618	0.095	0.234
-563.558	62.606	-0.147	-0.148
-562.544	4.488	-0.253	-0.187
-561.529	-200.000	0.009	0.050
-560.515	646.239	-0.170	0.436
-559.500	13.639	-0.009	-0.007
-558.485	-100.490	-0.117	0.029
-557.471	-200.000	-0.016	-0.160
-556.456	-200.000	0.016	0.324
-555.442	-137.449	0.440	0.050
-554.427	280.847	0.040	0.073
-553.412	-200.000	-0.008	-0.085
-552.398	-170.365	0.227	0.008
-551.383	33.720	0.023	-0.020
-550.369	41.570	0.073	-0.066
-549.354	-182.674	0.322	-0.006
-548.339	-200.000	0.000	0.080
-547.325	75.148	-0.022	-0.023
-546.310	209.471	-0.171	-0.269
-545.296	406.687	-0.134	-0.285
-544.281	77.961	0.056	-0.060
-543.266	-77.764	-0.090	0.031
-542.252	-200.000	0.010	-0.107
-541.237	743.597	0.116	-0.313
-540.223	-23.285	-0.247	0.149
-539.208	596.465	-0.109	0.271
-538.193	800.000	0.030	-0.088
-537.179	293.746	-0.125	-0.229
-536.164	800.000	-0.005	0.017
-535.150	92.591	0.194	0.220
-534.135	267.461	0.089	-0.156
-533.121	55.847	0.074	-0.072
-532.106	-200.000	-0.014	0.094
-531.091	144.331	-0.229	-0.306
-530.077	-127.701	0.017	-0.002
-529.062	-104.789	-0.061	-0.014
-528.048	220.337	-0.063	0.101
-527.033	407.583	-0.021	0.045
-526.018	-55.012	0.166	0.075
-525.004	-100.792	-0.325	-0.080
-523.989	-125.796	0.186	-0.028
-522.975	-33.604	0.350	0.194
-521.960	-38.958	0.314	0.166
-520.945	271.503	0.028	0.050
-519.931	247.341	0.099	0.168
-518.916	800.000	0.015	-0.058
-517.902	5.915	-0.204	-0.151
-516.887	84.308	-0.077	0.085
-515.872	-200.000	0.013	0.124
-514.858	34.233	0.099	0.087
-513.843	-200.000	-0.005	-0.283
-512.829	-89.735	0.183	-0.054
-511.814	-72.551	-0.295	-0.109
-510.799	-200.000	-0.055	0.286
-509.785	-114.527	0.117	-0.022
-508.770	-100.240	0.255	-0.064
-507.756	319.909	-0.089	0.170
-506.741	800.000	0.076	0.231
-505.726	136.738	-0.144	0.189
-504.712	130.230	0.121	0.156
-503.697	-116.268	-0.150	-0.028
-502.683	-55.912	0.264	-0.118
-501.668	125.038	-0.121	-0.153
-500.653	-37.325	0.152	-0.082
-499.639	307.538	-0.182	-0.341
-498.624	800.000	-0.052	0.173
-497.610	-42.152	-0.142	0.073
-496.595	-76.798	0.101	-0.036
-495.581	193.356	0.105	-0.159
-494.566	-68.121	-0.079	0.031
-493.551	-126.354	0.130	-0.019
-492.537	33.153	0.056	0.049
-491.522	-200.000	-0.016	-0.095
-490.508	185.967	0.144	0.215
-489.493	800.000	0.012	-0.043
-488.478	181.192	0.101	-0.149
-487.464	-188.766	-0.123	-0.002
-486.449	789.357	0.031	-0.086
-485.435	196.680	0.154	0.236
-484.420	-16.126	0.171	-0.109
-483.405	34.562	-0.118	-0.103
-482.391	28.175	0.066	0.056
-481.376	159.172	-0.042	-0.058
-480.362	17.719	0.136	0.108
-479.347	181.364	0.072	0.105
-478.332	-200.000	0.030	-0.159
-477.318	-30.233	-0.055	-0.031
-476.303	-28.926	-0.296	0.170
-475.289	-67.717	0.253	0.099
-474.274	48.591	0.270	-0.253
-473.259	305.804	0.063	-0.118
-472.245	163.371	-0.066	-0.093
-471.230	800.000	0.079	-0.304
-470.216	782.302	0.070	-0.193
-469.201	-200.000	-0.006	0.070
-468.186	16.716	-0.234	0.185
-467.172	-24.829	-0.162	0.096
-466.157	-200.000	0.011	-0.138
-465.143	-131.903	-0.132	-0.017
-464.128	-200.000	0.006	0.281
-463.113	-184.505	0.519	0.008
-462.099	-196.932	-0.031	0.000
-461.084	800.000	0.091	-0.323
-460.070	-87.346	0.244	-0.074
-459.055	346.482	-0.110	-0.217
-458.040	-200.000	-0.040	-0.271
-457.026	800.000	0.081	0.237
-456.011	36.670	-0.061	0.054
-454.997	-200.000	-0.025	0.231
-453.982	7.381	-0.060	-0.045
-452.968	-200.000	0.076	0.462
-451.953	-62.608	0.185	-0.077
-450.938	-118.361	-0.252	0.045
-449.924	3.874	-0.167	0.122
-448.909	800.000	-0.116	-0.378
-447.895	68.677	0.202	0.208
-446.880	485.128	-0.119	-0.272
-445.865	800.000	-0.083	-0.267
-444.851	-158.678	-0.143	-0.008
-443.836	-128.273	-0.169	-0.024
-442.822	-90.730	0.070	0.020
-441.807	-51.394	0.133	-0.062
-440.792	800.000	-0.109	0.400
-439.778	4.897	0.195	-0.143
-438.763	800.000	0.039	-0.163
-437.749	-200.000	0.024	-0.146
-436.734	591.463	-0.095	-0.235
-435.719	-200.000	0.085	-0.378
-434.705	800.000	0.107	0.443
-433.690	69.708	-0.123	0.127
-432.676	-200.000	0.003	0.254
-431.661	626.059	-0.034	0.085
-430.646	-15.007	-0.124	-0.079
-429.632	800.000	0.058	0.166
-428.617	-200.000	0.039	-0.289
-427.603	23.099	-0.221	0.181
-426.588	-109.787	-0.208	0.044
-425.573	-90.451	0.243	-0.070
-424.559	-66.761	-0.129	0.051
-423.544	1.342	0.127	-0.091
-422.530	-120.626	-0.109	0.019
-421.515	-200.000	0.028	-0.228
-420.500	5.671	-0.140	0.103
-419.486	-51.809	0.254	-0.118
-418.471	-104.830	0.246	-0.056
-417.457	126.614	-0.203	-0.257
-416.442	574.004	0.095	0.231
-415.428	-129.011	0.228	0.032
-414.413	-31.814	-0.312	-0.175
-413.398	-102.020	0.175	0.042
-412.384	-165.581	-0.236	-0.010
-411.369	259.168	-0.149	0.256
-410.355	800.000	0.023	0.096
-409.340	-200.000	-0.045	-0.262
-408.325	-200.000	0.024	0.107
-407.311	-45.338	0.194	0.096
-406.296	-117.690	-0.138	0.025
-405.282	-108.484	-0.043	0.009
-404.267	394.007	-0.048	-0.101
-403.252	-200.000	-0.008	0.278
-402.238	800.000	0.011	-0.034
-401.223	-136.451	0.135	0.016
-400.209	800.000	0.032	-0.094
-399.194	-144.432	-0.078	-0.007
-398.179	-65.186	0.132	0.053
-397.165	-200.000	0.039	0.223
-396.150	-96.208	0.087	0.023
-395.136	6.708	-0.166	0.123
-394.121	-200.000	-0.005	-0.023
-393.106	38.271	-0.188	-0.167
-392.092	148.319	-0.173	-0.233
-391.077	-93.506	0.120	-0.033
-390.063	800.000	0.063	0.232
-389.048	76.187	0.195	-0.206
-388.033	199.768	0.107	-0.164
-387.019	436.416	0.013	-0.027
-386.004	31.972	-0.034	0.029
-384.990	472.658	-0.199	-0.448
-383.975	24.770	-0.167	-0.138
-382.960	587.321	-0.090	0.221
-381.946	132.804	-0.109	-0.140
-380.931	-200.000	-0.006	0.098
-379.917	-174.910	-0.328	0.009
-378.902	16.032	0.039	0.030
-377.888	110.962	0.142	0.170
-376.873	39.550	0.029	0.026
-375.858	562.318	0.144	0.347
-374.844	197.786	-0.171	0.260
-373.829	-104.700	0.099	0.023
-372.815	5.665	-0.348	0.257
-371.800	-200.000	-0.020	0.144
-370.785	-29.434	0.264	0.150
-369.771	105.755	-0.204	-0.241
-368.756	340.734	-0.100	-0.195
-367.742	-145.859	0.339	-0.030
-366.727	-191.608	0.129	-0.001
-365.712	193.085	-0.136	-0.205
-364.698	-44.012	0.214	-0.107
-363.683	800.000	0.113	-0.320
-362.669	-133.160	0.280	0.035
-361.654	-49.072	-0.339	-0.162
-360.639	-52.703	-0.214	0.099
-359.625	-119.031	0.450	-0.079
-358.610	-134.913	-0.382	0.046
-357.596	-200.000	0.016	0.071
-356.581	-89.433	0.169	-0.050
-355.566	-81.525	0.489	-0.160
-354.552	46.559	0.300	-0.278
-353.537	800.000	0.087	-0.269
-352.523	-41.024	0.142	0.073
-351.508	2.686	0.142	0.102
-350.493	-200.000	-0.004	0.223
-349.479	2.280	-0.048	-0.035
-348.464	135.784	0.019	0.025
-347.450	393.302	-0.054	-0.113
-346.435	19.757	0.211	-0.169
-345.420	207.805	-0.129	0.202
-344.406	-19.714	0.273	0.168
-343.391	-200.000	-0.051	0.453
-342.377	390.202	-0.077	-0.159
-341.362	-8.466	-0.139	-0.093
-340.348	-200.000	0.011	-0.098
-339.333	30.204	0.250	0.212
-338.318	800.000	0.059	0.192
-337.304	-169.332	0.311	0.011
-336.289	-34.454	0.202	-0.111
-335.275	-64.456	-0.266	-0.108
-334.260	35.508	0.242	-0.211
-333.245	800.000	-0.081	0.271
-332.231	800.000	-0.087	0.284
-331.216	-113.154	0.110	-0.022
-330.202	-157.367	-0.239	-0.014
-329.187	293.857	0.086	-0.156
-328.172	-80.563	-0.063	0.021
-327.158	-69.215	0.075	-0.029
-326.143	317.383	-0.050	0.095
-325.129	74.453	0.252	0.264
-324.114	497.252	0.087	-0.198
-323.099	-200.000	-0.017	0.129
-322.085	-115.192	-0.098	-0.018
-321.070	29.290	0.303	-0.256
-320.056	-88.919	0.119	0.035
-319.041	8.393	-0.381	0.285
-318.026	176.505	-0.220	0.318
-317.012	-100.014	0.276	-0.069
-315.997	800.000	-0.082	0.271
-314.983	356.049	-0.101	0.200
-313.968	-121.326	-0.355	-0.059
-312.953	190.543	-0.072	-0.108
-311.939	-200.000	-0.006	0.059
-310.924	-1.046	0.262	-0.184
-309.910	25.190	0.181	0.150
-308.895	-76.728	-0.158	0.055
-307.880	-200.000	-0.006	0.149
-306.866	503.695	-0.058	0.134
-305.851	205.508	-0.083	0.128
-304.837	-113.541	0.120	-0.023
-303.822	288.518	-0.102	-0.183
-302.807	-200.000	-0.061	-0.297
-301.793	180.764	0.107	0.156
-300.778	238.539	0.157	0.259
-299.764	-200.000	-0.032	-0.267
-298.749	-102.399	-0.457	0.109
-297.735	434.298	0.126	0.271
-296.720	-82.463	0.339	0.110
-295.705	325.094	-0.146	0.277
-294.691	15.569	0.146	0.114
-293.676	791.326	-0.112	-0.306
-292.662	800.000	0.035	0.154
-291.647	-200.000	-0.039	-0.313
-290.632	-13.661	0.072	-0.046
-289.618	-117.882	-0.546	-0.097
-288.603	-181.798	0.640	-0.012
-287.589	800.000	-0.083	-0.273
-286.574	-32.203	0.176	-0.098
-285.559	800.000	0.037	0.136
-284.545	-106.204	-0.299	-0.067
-283.530	-200.000	-0.037	-0.380
-282.516	-200.000	0.035	0.164
-281.501	800.000	-0.060	-0.253
-280.486	57.374	-0.077	-0.075
-279.472	-81.124	-0.201	0.066
-278.457	617.222	-0.123	-0.306
-277.443	417.749	0.190	0.404
-276.428	-76.744	-0.388	-0.135
-275.413	70.377	0.035	0.036
-274.399	-100.394	0.344	0.085
-273.384	102.636	-0.242	-0.282
-272.370	-200.000	-0.026	-0.260
-271.355	263.798	-0.079	0.136
-270.340	-108.889	-0.190	0.040
-269.326	800.000	-0.059	0.185
-268.311	529.337	-0.095	-0.223
-267.297	125.412	-0.089	-0.112
-266.282	-65.579	0.236	0.094
-265.267	431.706	0.095	0.204
-264.253	256.186	-0.182	0.310
-263.238	271.460	-0.152	0.266
-262.224	800.000	0.041	-0.127
-261.209	-200.000	-0.001	0.226
-260.195	-103.123	-0.422	-0.099
-259.180	195.616	0.044	0.066
-258.165	-25.183	-0.219	0.129
-257.151	258.113	-0.109	0.187
-256.136	6.558	-0.258	0.191
-255.122	-121.724	0.262	0.043
-254.107	-200.000	0.020	0.124
-253.092	-200.000	0.029	-0.289
-252.078	121.546	0.105	0.129
-251.063	170.489	0.100	0.143
-250.049	800.000	-0.141	-0.415
-249.034	600.662	-0.092	-0.227
-248.019	-98.745	-0.251	-0.064
-247.005	-21.996	0.164	-0.099
-245.990	35.834	-0.174	-0.152
-244.976	-200.000	0.005	0.092
-243.961	57.359	0.224	0.217
-242.946	800.000	-0.128	-0.438
-241.932	184.167	0.038	0.056
-240.917	96.622	-0.149	0.170
-239.903	78.530	0.209	0.222
-238.888	17.214	0.242	-0.191
-237.873	592.187	0.021	-0.052
-236.859	-200.000	-0.022	-0.203
-235.844	-56.472	0.151	0.067
-234.830	-132.370	-0.276	0.035
-233.815	-78.069	0.131	0.045
-232.800	-106.719	-0.169	0.037
-231.786	-154.777	0.289	-0.019
-230.771	-160.613	0.106	-0.006
-229.757	-109.102	0.183	0.039
-228.742	-0.882	0.071	0.050
-227.727	-200.000	-0.009	-0.202
-226.713	509.585	0.071	-0.164
-225.698	-27.586	0.257	0.148
-224.684	-127.653	0.334	-0.048
-223.669	-56.864	-0.033	0.015
-222.655	-200.000	0.102	0.451
-221.640	-63.324	-0.208	0.085
-220.625	-143.006	0.083	-0.008
-219.611	-95.338	-0.355	0.095
-218.596	-160.142	-0.164	-0.009
-217.582	60.374	-0.178	-0.175
-216.567	61.230	0.244	0.241
-215.552	800.000	0.093	0.291
-214.538	800.000	-0.044	-0.133
-213.523	-106.827	-0.273	0.060
-212.509	-3.670	0.163	0.112
-211.494	-36.840	0.424	-0.226
-210.479	142.505	0.236	0.310
-209.465	-32.481	0.061	0.034
-208.450	-72.375	-0.168	0.062
-207.436	337.041	0.038	-0.072
-206.421	-14.518	0.182	-0.116
-205.406	-200.000	-0.005	-0.035
-204.392	-54.695	0.343	0.154
-203.377	-185.802	-0.309	0.005
-202.363	-200.000	0.015	-0.071
-201.348	-200.000	-0.010	-0.228
-200.333	-200.000	0.026	-0.118
-199.319	115.727	0.104	-0.126
-198.304	147.089	-0.038	-0.050
-197.290	-166.866	0.211	0.009
-196.275	-144.954	0.189	0.017
-195.260	-95.291	0.263	0.070
-194.246	-34.866	0.255	0.138
-193.231	-78.911	0.037	0.012
-192.217	-200.000	-0.030	-0.313
-191.202	147.878	0.210	0.280
-190.187	-95.897	0.194	-0.051
-189.173	354.570	0.005	0.011
-188.158	-160.610	-0.482	0.025
-187.144	139.029	-0.211	0.275
-186.129	92.760	-0.271	0.303
-185.114	126.054	0.055	0.069
-184.100	-110.034	-0.122	-0.025
-183.085	-200.000	0.021	0.098
-182.071	257.083	-0.106	-0.181
-181.056	-112.500	-0.119	0.023
-180.042	139.814	-0.205	0.268
-179.027	-200.000	-0.026	0.205
-178.012	-111.358	0.139	-0.028
-176.998	191.878	-0.118	-0.176
-175.983	-125.872	0.266	0.040
-174.969	-40.051	-0.253	-0.130
-173.954	-152.527	0.259	-0.018
-172.939	800.000	-0.052	0.154
-171.925	800.000	-0.090	0.297
-170.910	-200.000	0.011	-0.077
-169.896	-200.000	-0.013	0.176
-168.881	-170.603	0.143	-0.005
-167.866	55.224	-0.212	0.203
-166.852	800.000	-0.010	0.036
-165.837	800.000	0.084	-0.230
-164.823	72.563	-0.265	0.274
-163.808	-88.508	-0.387	-0.114
-162.793	-5.006	0.140	-0.096
-161.779	-143.575	-0.265	0.025
-160.764	-162.615	0.354	-0.017
-159.750	-200.000	0.022	0.162
-158.735	-36.686	-0.218	-0.116
-157.720	184.656	-0.151	0.221
-156.706	142.918	0.162	-0.213
-155.691	-200.000	-0.005	-0.173
-154.677	-139.079	0.016	0.002
-153.662	522.794	0.073	0.170
-152.647	-128.663	-0.182	0.026
-151.633	102.645	-0.201	0.232
-150.618	-81.860	-0.093	-0.030
-149.604	-48.396	-0.306	0.146
-148.589	-200.000	-0.034	0.171
-147.574	-3.721	-0.115	0.079
-146.560	-169.202	0.074	-0.003
-145.545	86.180	0.279	0.304
-144.531	461.442	-0.046	0.102
-143.516	-143.755	-0.135	0.013
-142.502	800.000	0.073	0.237
-141.487	800.000	0.015	-0.050
-140.472	-200.000	0.020	-0.104
-139.458	-40.969	-0.243	-0.124
-138.443	-60.542	-0.162	-0.068
-137.429	418.677	-0.079	-0.167
-136.414	409.810	0.180	-0.376
-135.399	24.098	0.021	0.017
-134.385	44.699	-0.027	-0.024
-133.370	210.619	0.015	-0.023
-132.356	135.339	0.061	0.078
-131.341	-134.656	-0.336	0.040
-130.326	-39.096	0.263	-0.137
-129.312	-122.004	0.182	-0.029
-128.297	-62.621	-0.376	0.154
-127.283	203.125	-0.053	0.081
-126.268	-200.000	-0.044	0.487
-125.253	-200.000	-0.038	0.171
-124.239	117.400	0.231	0.281
-123.224	95.807	-0.079	0.089
-122.210	-200.000	-0.013	0.198
