DTS Sentinel unit serial number:	SN413079Multiplexer serial number:	ORYXHardware model number:	OX4-SRSoftware version number:	ORYX F/W v4.00 Oryx Data Collector v3.7.2.0data status	okinstallation	princeton_trtdifferential loss correction	single-endedforward channel	channel 2reverse channel	N/Adate	2019/09/16time	18:39:35forward acquisition time	60.00reverse acquisition time	0.00gamma	496.2192k internal	0.2322k external	0.2322temperature offset calibration	0.9962default loss term (dB/km)	0.3790temperature slope calibration	1.0000multiplexer offset coefficient	1.0000multiplexer slope coefficient	1.0000fibre end	0.00T internal ref (°C)	36.31T ext. ref 1 (°C)	0.05T ext. ref 2 (°C)	29.72length (m)	temperature (°C)	Stokes	anti-Stokes-747.200	-115.956	-0.163	0.031
-746.185	-112.132	-0.314	-0.064
-745.171	-200.000	0.001	-0.174
-744.156	-100.161	-0.273	0.069
-743.142	549.761	0.118	-0.285
-742.127	144.289	-0.299	0.403
-741.112	800.000	-0.039	0.110
-740.098	-20.851	0.118	-0.073
-739.083	195.510	-0.267	-0.410
-738.069	27.116	0.195	-0.165
-737.054	117.051	0.112	0.139
-736.039	-142.695	-0.213	-0.021
-735.025	106.410	-0.039	0.046
-734.010	71.560	0.129	0.135
-732.996	-99.086	-0.215	-0.055
-731.981	-99.502	0.426	-0.108
-730.966	-8.117	0.048	-0.033
-729.952	-20.781	-0.285	0.176
-728.937	-141.855	-0.354	0.036
-727.923	15.128	-0.202	-0.160
-726.908	-200.000	0.026	-0.286
-725.894	-83.203	-0.191	0.062
-724.879	476.901	-0.153	-0.350
-723.864	438.396	-0.098	-0.215
-722.850	-10.455	0.206	-0.138
-721.835	800.000	-0.056	-0.200
-720.821	-165.337	0.269	0.012
-719.806	93.639	-0.153	-0.175
-718.791	-95.988	0.151	-0.041
-717.777	501.788	-0.095	-0.222
-716.762	163.036	0.150	0.213
-715.748	59.455	0.123	0.122
-714.733	-200.000	0.008	0.172
-713.718	64.907	0.074	-0.075
-712.704	-13.513	0.189	-0.123
-711.689	109.006	0.186	0.225
-710.675	-90.080	-0.472	-0.139
-709.660	800.000	-0.008	0.028
-708.645	-14.191	-0.203	0.132
-707.631	-200.000	-0.015	-0.190
-706.616	413.615	-0.031	0.067
-705.602	159.936	-0.304	-0.427
-704.587	-4.613	0.103	-0.072
-703.572	81.384	0.283	-0.309
-702.558	-56.416	0.131	-0.059
-701.543	800.000	-0.057	0.225
-700.529	800.000	0.074	0.219
-699.514	361.323	0.199	-0.402
-698.499	-200.000	-0.000	0.117
-697.485	800.000	0.044	-0.136
-696.470	147.038	-0.056	-0.077
-695.456	-88.958	-0.145	-0.043
-694.441	-3.359	-0.086	0.060
-693.426	121.823	-0.087	0.110
-692.412	-160.727	0.112	-0.006
-691.397	-180.899	-0.379	0.008
-690.383	-200.000	-0.012	0.131
-689.368	2.645	-0.152	0.111
-688.354	-42.478	0.132	0.068
-687.339	37.738	0.116	-0.104
-686.324	9.315	0.133	0.101
-685.310	-65.741	0.155	-0.062
-684.295	698.200	0.111	0.295
-683.281	-86.639	0.256	0.079
-682.266	-101.812	-0.101	-0.025
-681.251	-156.376	-0.398	0.025
-680.237	65.030	0.101	0.103
-679.222	-79.345	-0.146	-0.050
-678.208	-200.000	-0.039	0.282
-677.193	-88.693	0.320	0.096
-676.178	-147.413	0.189	0.016
-675.164	24.239	-0.353	0.294
-674.149	194.633	0.085	-0.131
-673.135	45.613	-0.226	-0.210
-672.120	-20.509	0.014	-0.009
-671.105	277.693	0.154	-0.277
-670.091	-51.640	-0.275	-0.129
-669.076	-117.734	-0.382	-0.069
-668.062	425.413	0.040	-0.086
-667.047	-102.393	-0.430	0.104
-666.032	-107.062	0.196	-0.044
-665.018	148.220	-0.074	-0.101
-664.003	-67.674	-0.092	0.036
-662.989	-143.190	-0.083	0.008
-661.974	506.313	0.043	0.099
-660.959	80.683	0.094	-0.102
-659.945	-140.427	-0.245	0.026
-658.930	-98.317	-0.338	-0.087
-657.916	10.171	0.450	-0.344
-656.901	-104.626	-0.227	-0.053
-655.886	800.000	-0.074	-0.316
-654.872	-71.964	0.089	0.033
-653.857	-62.622	-0.427	0.179
-652.843	800.000	0.039	0.138
-651.828	149.444	0.078	-0.106
-650.814	124.155	-0.219	0.277
-649.799	178.111	0.153	0.225
-648.784	-17.612	-0.278	0.176
-647.770	385.494	0.086	0.178
-646.755	-58.252	0.076	0.033
-645.741	185.808	0.186	0.278
-644.726	-200.000	0.038	0.264
-643.711	32.056	-0.169	-0.147
-642.697	211.416	0.066	0.105
-641.682	107.307	-0.090	0.108
-640.668	-90.806	-0.104	-0.030
-639.653	-162.128	-0.201	-0.010
-638.638	-86.914	-0.329	0.101
-637.624	-200.000	-0.039	-0.259
-636.609	713.604	0.062	-0.166
-635.595	-113.395	-0.232	0.046
-634.580	555.815	-0.102	-0.247
-633.565	-159.801	0.331	-0.018
-632.551	800.000	0.062	-0.223
-631.536	-62.976	0.016	-0.007
-630.522	-9.143	0.134	-0.090
-629.507	441.920	-0.107	0.236
-628.492	-145.057	-0.248	0.023
-627.478	-12.320	0.124	0.081
-626.463	36.291	-0.086	-0.076
-625.449	205.972	0.189	-0.296
-624.434	-51.342	-0.127	-0.060
-623.419	-116.601	-0.087	0.016
-622.405	335.062	-0.166	0.324
-621.390	175.028	0.031	-0.045
-620.376	483.631	-0.142	0.324
-619.361	-185.085	0.174	0.003
-618.346	-200.000	-0.024	0.231
-617.332	40.939	-0.169	-0.153
-616.317	-42.250	0.269	-0.138
-615.303	-19.319	-0.034	-0.021
-614.288	79.465	-0.325	0.351
-613.273	-71.885	-0.301	0.112
-612.259	-37.618	-0.281	0.150
-611.244	-131.442	-0.245	-0.033
-610.230	-31.982	-0.154	0.086
-609.215	-63.054	0.160	0.066
-608.201	-200.000	-0.007	0.091
-607.186	800.000	0.072	0.222
-606.171	59.783	0.213	-0.211
-605.157	-118.915	-0.324	-0.057
-604.142	17.627	0.120	-0.096
-603.128	-79.037	0.157	0.054
-602.113	-105.967	-0.142	-0.032
-601.098	-162.052	0.286	-0.014
-600.084	-99.219	-0.327	0.083
-599.069	-98.377	0.222	-0.057
-598.055	800.000	0.017	0.062
-597.040	372.724	0.069	-0.141
-596.025	800.000	-0.081	0.319
-595.011	11.852	-0.218	0.169
-593.996	-44.551	0.181	-0.091
-592.982	-43.152	-0.482	0.245
-591.967	188.529	-0.136	0.204
-590.952	156.243	0.020	0.028
-589.938	25.667	-0.062	-0.052
-588.923	289.651	-0.082	-0.149
-587.909	-156.718	0.378	-0.023
-586.894	139.203	-0.027	0.036
-585.879	-109.033	0.324	0.069
-584.865	-36.622	0.175	-0.094
-583.850	-52.717	-0.242	0.112
-582.836	-38.780	-0.187	-0.099
-581.821	109.753	-0.129	0.156
-580.806	345.820	-0.160	-0.316
-579.792	-59.585	0.230	-0.099
-578.777	95.940	0.060	-0.069
-577.763	49.310	-0.062	-0.059
-576.748	800.000	0.019	0.074
-575.733	15.875	0.153	-0.121
-574.719	-101.281	0.192	0.047
-573.704	-89.617	-0.183	-0.054
-572.690	-42.092	-0.189	-0.097
-571.675	-79.854	-0.192	-0.065
-570.661	237.993	-0.267	0.445
-569.646	-200.000	-0.032	-0.222
-568.631	313.303	-0.065	-0.123
-567.617	-200.000	0.039	-0.262
-566.602	-200.000	0.107	0.000
-565.588	-184.241	0.091	0.002
-564.573	-162.594	-0.335	0.017
-563.558	-44.535	-0.269	0.135
-562.544	735.461	0.152	0.409
-561.529	-10.937	0.318	-0.210
-560.515	170.531	0.132	-0.190
-559.500	102.635	0.169	-0.198
-558.485	-200.000	0.016	0.130
-557.471	69.325	-0.211	-0.218
-556.456	-42.359	-0.289	0.148
-555.442	-5.051	-0.165	-0.114
-554.427	139.639	0.082	-0.108
-553.412	-10.619	0.208	-0.138
-552.398	57.846	-0.128	-0.126
-551.383	748.161	0.045	0.122
-550.369	660.812	-0.081	0.208
-549.354	127.310	-0.159	-0.203
-548.339	-114.855	-0.251	-0.048
-547.325	108.495	0.164	-0.196
-546.310	-57.806	-0.345	0.151
-545.296	186.403	-0.111	0.166
-544.281	-6.948	-0.321	-0.219
-543.266	67.965	0.266	0.273
-542.252	-44.901	-0.124	0.062
-541.237	-200.000	0.049	-0.225
-540.223	20.079	0.189	-0.153
-539.208	-66.937	0.319	0.126
-538.193	800.000	0.064	-0.213
-537.179	-32.258	-0.364	-0.204
-536.164	-11.215	0.289	-0.191
-535.150	800.000	0.032	-0.109
-534.135	32.771	-0.183	0.159
-533.121	-96.758	-0.388	0.102
-532.106	11.675	0.147	-0.113
-531.091	-200.000	-0.018	0.244
-530.077	-143.218	0.133	0.013
-529.062	800.000	-0.096	-0.276
-528.048	-200.000	-0.004	-0.119
-527.033	302.043	0.081	-0.149
-526.018	378.764	0.057	-0.116
-525.004	514.770	0.058	0.135
-523.989	138.248	-0.186	-0.244
-522.975	36.483	-0.335	-0.296
-521.960	57.308	-0.022	-0.021
-520.945	-39.570	-0.180	-0.094
-519.931	800.000	-0.033	0.125
-518.916	800.000	0.089	0.293
-517.902	-200.000	0.003	-0.192
-516.887	141.782	-0.126	0.168
-515.872	-73.889	0.171	0.062
-514.858	138.648	-0.092	0.121
-513.843	-110.181	-0.142	0.030
-512.829	-27.049	0.175	0.102
-511.814	-55.402	0.532	0.239
-510.799	-200.000	-0.011	-0.159
-509.785	-200.000	-0.015	0.137
-508.770	-40.191	0.247	0.129
-507.756	-157.416	0.112	0.007
-506.741	-112.863	-0.095	-0.019
-505.726	-200.000	0.019	-0.209
-504.712	-66.213	0.077	0.031
-503.697	-48.207	0.254	0.123
-502.683	-200.000	-0.019	0.247
-501.668	60.704	0.194	-0.192
-500.653	800.000	-0.044	-0.124
-499.639	105.113	-0.224	-0.264
-498.624	140.557	-0.182	0.241
-497.610	166.040	0.106	0.150
-496.595	376.912	0.031	0.063
-495.581	800.000	-0.082	-0.348
-494.566	800.000	0.087	-0.342
-493.551	45.828	0.075	0.069
-492.537	-200.000	-0.018	0.117
-491.522	-122.764	0.153	0.025
-490.508	335.229	0.066	-0.128
-489.493	169.204	0.117	-0.167
-488.478	800.000	0.052	0.175
-487.464	-85.124	0.092	0.029
-486.449	-20.048	-0.291	-0.179
-485.435	-200.000	0.019	0.106
-484.420	-168.160	0.416	-0.016
-483.405	47.167	-0.236	-0.220
-482.391	56.390	-0.352	0.342
-481.376	-112.240	0.349	0.070
-480.362	216.746	0.154	-0.245
-479.347	800.000	0.059	0.211
-478.332	150.614	-0.134	0.181
-477.318	-160.777	-0.116	0.006
-476.303	652.681	-0.094	0.241
-475.289	60.143	0.162	0.161
-474.274	-123.235	0.113	0.018
-473.259	36.824	-0.030	-0.026
-472.245	-174.713	-0.052	-0.001
-471.230	-200.000	0.003	0.055
-470.216	45.590	0.219	0.202
-469.201	-143.645	0.124	-0.012
-468.186	-125.138	-0.290	0.045
-467.172	-11.364	-0.169	-0.111
-466.157	-103.330	-0.098	0.023
-465.143	-35.237	0.174	-0.095
-464.128	9.503	0.128	0.097
-463.113	39.150	0.166	-0.148
-462.099	187.257	0.179	-0.267
-461.084	105.601	-0.196	-0.232
-460.070	-154.311	-0.108	-0.007
-459.055	423.557	-0.035	-0.075
-458.040	-79.519	0.477	-0.161
-457.026	693.120	0.052	0.137
-456.011	-2.062	0.178	-0.125
-454.997	-53.164	-0.301	-0.138
-453.982	304.487	0.162	0.301
-452.968	18.908	-0.294	0.236
-451.953	24.737	-0.255	-0.211
-450.938	35.894	0.194	-0.170
-449.924	84.592	0.222	-0.242
-448.909	-117.851	0.200	0.036
-447.895	-200.000	-0.012	-0.179
-446.880	226.025	-0.184	-0.298
-445.865	-36.312	-0.109	-0.059
-444.851	385.786	-0.122	0.252
-443.836	800.000	-0.038	-0.129
-442.822	-99.412	0.285	0.072
-441.807	-200.000	-0.041	-0.402
-440.792	-72.532	-0.361	-0.133
-439.778	-200.000	-0.010	-0.291
-438.763	87.700	-0.063	-0.069
-437.749	111.705	0.093	-0.112
-436.734	-200.000	0.029	-0.149
-435.719	9.325	-0.210	-0.159
-434.705	168.669	0.244	0.347
-433.690	-200.000	-0.050	-0.454
-432.676	-200.000	-0.020	-0.181
-431.661	800.000	-0.041	-0.116
-430.646	-29.193	0.245	0.140
-429.632	152.725	0.030	0.040
-428.617	-122.497	0.267	0.043
-427.603	-200.000	-0.016	0.186
-426.588	-100.778	0.134	0.033
-425.573	743.336	0.039	-0.105
-424.559	-140.150	-0.398	0.042
-423.544	617.420	-0.082	-0.206
-422.530	-200.000	0.030	0.184
-421.515	-200.000	0.022	0.278
-420.500	118.215	0.250	0.307
-419.486	164.614	0.153	0.215
-418.471	559.554	-0.123	0.297
-417.457	-162.843	0.156	0.008
-416.442	-123.582	-0.164	0.026
-415.428	35.378	-0.200	-0.175
-414.413	800.000	0.085	-0.362
-413.398	-88.759	-0.176	0.052
-412.384	46.911	0.329	0.305
-411.369	-115.504	0.277	-0.052
-410.355	800.000	-0.060	-0.243
-409.340	392.714	-0.034	-0.071
-408.325	323.244	-0.086	-0.163
-407.311	-200.000	0.044	0.258
-406.296	-183.621	0.230	-0.004
-405.282	-25.217	-0.184	0.108
-404.267	-30.275	0.215	0.122
-403.252	-148.789	0.180	0.015
-402.238	12.250	-0.197	-0.151
-401.223	37.028	-0.243	0.214
-400.209	-54.926	0.145	-0.065
-399.194	-200.000	0.023	-0.363
-398.179	-200.000	-0.009	0.222
-397.165	-93.108	-0.095	-0.026
-396.150	800.000	0.061	-0.234
-395.136	23.712	-0.277	-0.227
-394.121	-30.864	0.188	-0.106
-393.106	2.333	0.172	0.124
-392.092	-147.148	-0.125	0.011
-391.077	679.763	-0.054	-0.141
-390.063	-120.312	0.087	-0.015
-389.048	-96.468	-0.034	0.009
-388.033	800.000	0.042	-0.166
-387.019	-100.690	-0.121	-0.030
-386.004	800.000	-0.062	-0.210
-384.990	39.415	0.230	-0.205
-383.975	89.049	0.170	-0.189
-382.960	-200.000	-0.032	0.271
-381.946	-118.494	0.229	-0.040
-380.931	-153.305	-0.243	-0.017
-379.917	239.361	0.177	0.294
-378.902	63.348	0.165	0.164
-377.888	800.000	0.054	0.156
-376.873	800.000	0.048	-0.163
-375.858	-200.000	-0.022	0.139
-374.844	-12.978	-0.175	0.113
-373.829	800.000	0.110	-0.410
-372.815	79.216	0.216	0.230
-371.800	-110.152	-0.133	-0.028
-370.785	53.537	0.193	0.185
-369.771	-200.000	-0.039	0.329
-368.756	208.585	-0.276	0.430
-367.742	174.082	-0.158	-0.227
-366.727	-4.557	0.117	0.080
-365.712	79.494	-0.248	0.265
-364.698	256.888	0.165	0.283
-363.683	-14.739	-0.062	0.040
-362.669	-166.685	-0.363	-0.015
-361.654	-33.283	0.270	-0.149
-360.639	107.349	-0.138	-0.163
-359.625	-37.328	-0.225	-0.120
-358.610	207.558	-0.197	-0.306
-357.596	178.757	0.075	-0.109
-356.581	285.562	-0.080	-0.143
-355.566	-200.000	-0.016	0.181
-354.552	-200.000	-0.014	0.280
-353.537	-167.694	-0.420	-0.017
-352.523	155.169	-0.075	-0.103
-351.508	800.000	0.142	0.489
-350.493	-51.030	-0.389	-0.181
-349.479	-146.230	0.468	0.041
-348.464	-200.000	-0.115	-0.519
-347.450	800.000	-0.122	-0.369
-346.435	-68.973	-0.365	0.140
-345.420	-60.205	-0.220	0.093
-344.406	705.669	-0.100	0.262
-343.391	57.076	0.161	0.156
-342.377	473.661	0.132	-0.296
-341.362	192.676	-0.267	0.401
-340.348	-35.134	-0.157	-0.085
-339.333	-200.000	-0.000	0.162
-338.318	-3.024	0.233	0.162
-337.304	-200.000	-0.053	0.441
-336.289	800.000	0.049	-0.172
-335.275	634.792	0.161	-0.406
-334.260	248.762	0.097	-0.163
-333.245	-200.000	0.019	-0.149
-332.231	-200.000	0.082	0.369
-331.216	437.849	0.029	-0.064
-330.202	110.949	0.203	0.243
-329.187	-200.000	0.012	-0.071
-328.172	70.038	0.088	-0.090
-327.158	-29.021	-0.121	-0.069
-326.143	-200.000	-0.001	0.213
-325.129	142.474	-0.179	-0.236
-324.114	-162.666	-0.173	-0.008
-323.099	-64.964	-0.172	-0.069
-322.085	-200.000	-0.046	-0.206
-321.070	-200.000	0.004	0.279
-320.056	-80.144	0.218	-0.073
-319.041	-30.829	0.054	0.030
-318.026	37.781	0.121	0.106
-317.012	-200.000	-0.059	0.421
-315.997	21.964	-0.224	-0.181
-314.983	-127.895	-0.272	-0.039
-313.968	-200.000	0.213	-0.001
-312.953	-64.996	-0.037	0.015
-311.939	-169.571	0.230	0.008
-310.924	193.548	-0.234	0.352
-309.910	-200.000	-0.077	-0.342
-308.895	10.103	-0.033	0.025
-307.880	-69.915	-0.299	-0.113
-306.866	-44.728	0.155	-0.077
-305.851	37.080	-0.098	-0.086
-304.837	-75.965	-0.153	-0.054
-303.822	-33.523	0.120	0.066
-302.807	-200.000	-0.040	0.381
-301.793	204.722	-0.179	-0.276
-300.778	73.122	0.110	0.115
-299.764	555.912	0.100	0.239
-298.749	-158.958	-0.304	-0.017
-297.735	-15.405	0.128	0.081
-296.720	-1.791	-0.191	0.133
-295.705	-143.306	-0.063	0.006
-294.691	590.045	-0.125	0.307
-293.676	-40.030	-0.052	-0.027
-292.662	-200.000	-0.084	-0.554
-291.647	-41.423	-0.259	-0.132
-290.632	239.263	-0.041	0.068
-289.618	457.884	0.105	0.232
-288.603	108.903	0.105	0.125
-287.589	94.371	-0.108	0.122
-286.574	-200.000	-0.054	0.433
-285.559	800.000	0.026	0.081
-284.545	-97.853	0.091	0.023
-283.530	800.000	-0.055	-0.179
-282.516	-200.000	0.005	-0.161
-281.501	-200.000	-0.020	-0.147
-280.486	-67.268	0.105	0.041
-279.472	-60.806	-0.202	0.085
-278.457	-95.328	-0.249	0.066
-277.443	53.677	0.101	0.096
-276.428	-17.422	0.207	0.129
-275.413	-71.161	0.378	0.141
-274.399	262.089	0.139	-0.238
-273.384	139.504	0.337	-0.441
-272.370	32.725	-0.163	-0.140
-271.355	66.232	0.112	-0.112
-270.340	-79.860	-0.250	-0.083
-269.326	12.821	-0.198	-0.152
-268.311	20.238	-0.287	-0.230
-267.297	400.200	-0.086	-0.179
-266.282	-200.000	-0.005	-0.303
-265.267	800.000	0.032	-0.105
-264.253	130.839	-0.230	0.293
-263.238	220.312	0.071	0.113
-262.224	273.413	0.107	0.187
-261.209	-84.556	0.051	0.016
-260.195	-33.564	0.173	-0.095
-259.180	-5.843	-0.213	0.144
-258.165	544.732	0.142	0.337
-257.151	-132.736	0.047	0.006
-256.136	-183.550	0.161	-0.003
-255.122	-164.046	0.223	0.010
-254.107	800.000	-0.039	0.161
-253.092	800.000	-0.015	-0.064
-252.078	-200.000	0.062	-0.443
-251.063	-20.102	0.194	0.118
-250.049	-31.817	-0.056	-0.031
-249.034	-200.000	-0.021	-0.179
-248.019	99.506	-0.137	-0.158
-247.005	-112.287	0.235	-0.047
-245.990	25.868	0.206	0.170
-244.976	174.393	0.189	0.271
-243.961	5.318	0.139	0.102
-242.946	527.013	0.123	0.287
-241.932	-110.688	-0.114	-0.023
-240.917	-35.740	0.377	-0.203
-239.903	-179.207	0.084	0.002
-238.888	77.698	-0.265	-0.280
-237.873	-200.000	-0.119	-0.553
-236.859	-154.285	0.169	0.011
-235.844	20.507	0.082	0.066
-234.830	114.922	0.168	-0.203
-233.815	-94.462	-0.146	0.040
-232.800	139.292	-0.153	-0.199
-231.786	423.718	-0.052	-0.110
-230.771	-104.284	0.139	0.032
-229.757	-50.682	0.222	-0.104
-228.742	-200.000	0.031	-0.307
-227.727	800.000	0.061	-0.185
-226.713	2.543	0.209	0.150
-225.698	62.197	-0.150	0.148
-224.684	157.193	-0.276	0.378
-223.669	364.523	0.072	0.144
-222.655	103.699	0.192	0.224
-221.640	38.874	-0.107	-0.094
-220.625	701.384	0.033	-0.085
-219.611	-147.646	0.126	-0.010
-218.596	-200.000	-0.086	0.529
-217.582	-12.337	-0.093	0.060
-216.567	-133.339	0.408	-0.051
-215.552	498.166	-0.120	-0.273
-214.538	-4.515	-0.260	0.178
-213.523	311.208	-0.198	-0.367
-212.509	-183.373	-0.033	-0.001
-211.494	193.176	-0.204	-0.305
-210.479	-96.723	0.075	0.020
-209.465	800.000	0.142	0.514
-208.450	190.494	0.134	0.200
-207.436	-69.413	0.054	0.020
-206.421	-22.211	0.118	0.071
-205.406	-137.536	0.088	-0.010
-204.392	-5.609	-0.138	0.094
-203.377	-192.830	-0.075	-0.001
-202.363	72.563	-0.074	0.076
-201.348	-56.900	0.125	0.055
-200.333	-200.000	-0.017	0.154
-199.319	-75.173	0.210	0.074
-198.304	124.087	-0.132	0.164
-197.290	106.486	0.300	-0.351
-196.275	169.167	0.181	0.256
-195.260	-26.394	0.105	-0.061
-194.246	619.617	-0.050	0.123
-193.231	222.160	0.056	0.089
-192.217	-68.801	0.177	0.068
-191.202	-200.000	-0.001	-0.452
-190.187	-125.027	0.462	-0.070
-189.173	652.400	-0.102	-0.260
-188.158	598.229	-0.042	0.103
-187.144	-200.000	0.033	0.169
-186.129	-112.130	0.512	-0.102
-185.114	-73.376	0.142	0.051
-184.100	24.389	0.179	-0.146
-183.085	34.554	0.335	0.289
-182.071	246.095	-0.066	0.111
-181.056	-175.390	0.096	-0.003
-180.042	-3.902	0.050	0.034
-179.027	-89.070	0.054	-0.016
-178.012	129.956	-0.156	0.198
-176.998	-200.000	0.028	-0.279
-175.983	-96.424	0.049	0.013
-174.969	-200.000	0.030	0.259
-173.954	-156.310	-0.222	-0.014
-172.939	763.028	-0.145	0.389
-171.925	-39.536	-0.263	0.136
-170.910	-200.000	-0.036	-0.233
-169.896	276.583	0.121	0.212
-168.881	-81.527	0.096	-0.031
-167.866	-63.610	-0.347	-0.141
-166.852	-152.450	-0.359	-0.025
-165.837	-200.000	0.053	-0.257
-164.823	-14.180	-0.184	-0.117
-163.808	-83.948	0.307	-0.097
-162.793	-200.000	-0.001	0.126
-161.779	347.223	0.033	-0.064
-160.764	-78.623	0.260	0.088
-159.750	-90.407	0.240	-0.069
-158.735	-200.000	0.314	0.001
-157.720	61.933	0.059	0.058
-156.706	145.912	-0.094	0.124
-155.691	-45.702	0.099	-0.048
-154.677	425.196	0.116	-0.247
-153.662	-50.407	-0.080	-0.038
-152.647	-200.000	0.038	0.206
-151.633	800.000	-0.057	0.158
-150.618	-156.104	0.303	0.019
-149.604	498.735	-0.038	-0.086
-148.589	-127.516	-0.203	-0.029
-147.574	-14.279	0.088	-0.056
-146.560	443.377	-0.152	-0.330
-145.545	800.000	0.113	0.484
-144.531	596.343	0.041	0.100
-143.516	190.190	-0.019	-0.028
-142.502	-130.959	-0.588	0.077
-141.487	150.861	0.172	-0.231
-140.472	102.820	0.167	-0.193
-139.458	209.149	-0.052	0.081
-138.443	-100.129	-0.110	0.027
-137.429	-106.321	0.243	0.054
-136.414	3.308	0.186	0.134
-135.399	-112.952	-0.333	0.065
-134.385	-6.189	0.197	0.133
-133.370	-51.532	-0.081	0.037
-132.356	139.224	-0.117	-0.151
-131.341	-200.000	0.011	0.139
-130.326	-49.637	0.201	-0.094
-129.312	347.935	0.075	-0.145
-128.297	-60.780	0.223	0.093
-127.283	-95.057	0.079	-0.021
-126.268	800.000	-0.107	-0.311
-125.253	66.807	0.129	-0.130
-124.239	-25.792	0.242	0.141
-123.224	800.000	0.021	-0.061
-122.210	800.000	0.034	0.141
-121.195	6.243	-0.081	-0.060
