DTS Sentinel unit serial number:	SN413079Multiplexer serial number:	ORYXHardware model number:	OX4-SRSoftware version number:	ORYX F/W v4.00 Oryx Data Collector v3.7.2.0data status	okinstallation	princeton_trtdifferential loss correction	single-endedforward channel	channel 2reverse channel	N/Adate	2019/09/12time	06:49:10forward acquisition time	60.00reverse acquisition time	0.00gamma	496.2192k internal	0.2324k external	0.2324temperature offset calibration	1.0064default loss term (dB/km)	0.3790temperature slope calibration	1.0000multiplexer offset coefficient	1.0000multiplexer slope coefficient	1.0000fibre end	0.00T internal ref (°C)	32.12T ext. ref 1 (°C)	1.58T ext. ref 2 (°C)	27.34length (m)	temperature (°C)	Stokes	anti-Stokes-747.200	-200.000	-0.021	0.273
-746.185	-63.756	0.166	0.069
-745.171	509.969	-0.067	-0.156
-744.156	800.000	-0.035	-0.126
-743.142	-22.711	-0.144	0.088
-742.127	-111.740	-0.139	-0.028
-741.112	-152.478	0.050	0.004
-740.098	-123.486	-0.116	0.019
-739.083	207.218	0.134	0.212
-738.069	365.836	-0.119	0.241
-737.054	-131.818	0.368	0.049
-736.039	55.329	0.066	-0.065
-735.025	196.174	-0.183	0.282
-734.010	-171.161	-0.273	0.009
-732.996	-117.400	-0.220	-0.040
-731.981	194.104	-0.139	-0.212
-730.966	159.666	-0.136	0.191
-729.952	119.380	-0.004	-0.005
-728.937	-124.596	0.175	-0.027
-727.923	-142.379	-0.296	0.029
-726.908	-45.217	0.016	0.008
-725.894	-120.192	0.023	-0.004
-724.879	-111.741	-0.386	-0.079
-723.864	-4.985	0.173	-0.120
-722.850	-66.521	-0.239	-0.096
-721.835	-200.000	-0.031	0.306
-720.821	342.452	0.029	0.057
-719.806	-162.349	0.243	-0.012
-718.791	800.000	-0.060	0.193
-717.777	-124.382	-0.125	0.020
-716.762	-200.000	0.047	-0.538
-715.748	-121.101	-0.398	-0.067
-714.733	127.049	-0.266	-0.340
-713.718	-110.035	0.265	-0.056
-712.704	-109.234	0.267	-0.057
-711.689	-200.000	0.054	-0.338
-710.675	-145.223	-0.119	0.011
-709.660	175.551	0.189	-0.276
-708.645	376.192	0.106	-0.217
-707.631	-19.814	-0.191	0.119
-706.616	-57.345	-0.107	-0.048
-705.602	277.012	0.147	-0.264
-704.587	-66.393	-0.146	0.058
-703.572	117.361	-0.275	-0.341
-702.558	-164.072	-0.259	-0.012
-701.543	37.855	0.269	0.241
-700.529	172.323	0.045	0.065
-699.514	-200.000	0.010	0.104
-698.499	-200.000	-0.043	0.242
-697.485	-114.009	0.388	0.076
-696.470	51.915	0.063	0.061
-695.456	-105.907	-0.112	0.025
-694.441	196.328	0.023	-0.035
-693.426	-100.768	0.176	0.044
-692.412	-119.507	0.062	-0.011
-691.397	-158.393	-0.043	0.002
-690.383	-87.862	0.275	0.083
-689.368	-47.552	0.154	0.075
-688.354	800.000	-0.067	0.293
-687.339	-69.380	0.255	-0.099
-686.324	-141.149	-0.112	-0.011
-685.310	95.046	0.146	-0.167
-684.295	12.867	-0.378	-0.294
-683.281	-149.185	0.344	-0.028
-682.266	800.000	0.029	0.091
-681.251	-50.799	-0.171	-0.081
-680.237	160.693	-0.101	-0.141
-679.222	372.289	-0.063	0.130
-678.208	73.848	-0.174	0.183
-677.193	-108.155	0.109	-0.024
-676.178	-177.641	-0.179	0.004
-675.164	19.775	-0.064	0.052
-674.149	280.450	-0.198	0.356
-673.135	604.206	0.043	-0.108
-672.120	165.656	-0.285	-0.405
-671.105	387.692	-0.183	-0.381
-670.091	-4.592	-0.325	-0.226
-669.076	521.310	0.160	-0.377
-668.062	-61.983	0.177	-0.075
-667.047	-13.286	0.153	-0.100
-666.032	-6.353	-0.209	0.143
-665.018	241.455	0.204	-0.343
-664.003	800.000	-0.034	-0.143
-662.989	-63.263	0.141	0.058
-661.974	-156.048	-0.399	-0.025
-660.959	757.747	-0.081	-0.221
-659.945	63.973	0.159	-0.161
-658.930	-163.636	0.479	-0.023
-657.916	119.460	0.191	-0.238
-656.901	202.054	-0.117	-0.182
-655.886	-93.942	-0.140	0.039
-654.872	237.448	-0.090	0.149
-653.857	-200.000	-0.033	0.198
-652.843	-88.102	-0.387	-0.117
-651.828	800.000	-0.041	-0.129
-650.814	185.462	-0.216	-0.323
-649.799	-90.639	0.362	-0.105
-648.784	6.569	-0.446	-0.333
-647.770	-29.281	-0.133	0.077
-646.755	-54.554	0.098	-0.045
-645.741	362.135	-0.035	0.070
-644.726	-79.906	0.187	0.063
-643.711	500.319	-0.123	0.285
-642.697	-98.078	-0.099	-0.026
-641.682	25.641	-0.185	0.155
-640.668	155.173	0.098	0.136
-639.653	-82.484	0.158	0.052
-638.638	77.729	-0.286	-0.306
-637.624	143.116	-0.011	0.014
-636.609	380.036	-0.077	0.158
-635.595	-200.000	-0.026	-0.207
-634.580	800.000	-0.097	0.281
-633.565	442.205	0.035	-0.078
-632.551	-82.980	-0.218	0.071
-631.536	-200.000	-0.040	0.226
-630.522	-200.000	-0.051	-0.248
-629.507	158.332	-0.077	0.107
-628.492	-200.000	-0.060	-0.381
-627.478	800.000	-0.020	-0.083
-626.463	-72.558	0.165	0.061
-625.449	354.893	0.093	-0.185
-624.434	-200.000	-0.011	0.178
-623.419	-50.325	0.386	0.183
-622.405	-90.224	-0.224	0.066
-621.390	606.749	-0.108	-0.272
-620.376	73.266	0.208	-0.218
-619.361	-200.000	0.030	0.131
-618.346	74.741	0.150	0.159
-617.332	78.955	0.139	-0.149
-616.317	-200.000	0.037	0.214
-615.303	800.000	0.047	0.184
-614.288	51.217	0.168	0.160
-613.273	81.927	-0.075	-0.081
-612.259	-200.000	-0.003	-0.118
-611.244	-179.025	-0.495	-0.011
-610.230	224.602	-0.062	-0.100
-609.215	800.000	0.071	-0.238
-608.201	146.805	-0.026	0.035
-607.186	-122.992	-0.332	0.054
-606.171	-31.721	-0.204	-0.115
-605.157	291.636	-0.165	-0.301
-604.142	-138.551	-0.081	-0.009
-603.128	225.987	0.077	-0.126
-602.113	-90.507	0.106	0.031
-601.098	800.000	0.096	-0.281
-600.084	374.654	-0.155	-0.317
-599.069	-109.552	0.239	-0.051
-598.055	-200.000	-0.071	-0.321
-597.040	28.658	-0.128	0.109
-596.025	-142.179	-0.181	-0.018
-595.011	92.851	-0.047	0.053
-593.996	49.665	-0.125	-0.118
-592.982	-200.000	-0.003	-0.100
-591.967	-45.584	-0.177	0.088
-590.952	172.498	0.165	-0.239
-589.938	81.890	0.060	0.065
-588.923	800.000	-0.033	0.110
-587.909	800.000	0.147	0.422
-586.894	-75.164	0.220	-0.079
-585.879	444.896	-0.086	-0.190
-584.865	424.822	0.065	0.141
-583.850	104.041	-0.087	0.103
-582.836	-200.000	-0.043	0.211
-581.821	-4.257	-0.084	-0.059
-580.806	-132.097	-0.178	-0.023
-579.792	246.924	0.144	0.244
-578.777	-181.337	0.184	0.004
-577.763	69.057	0.237	-0.245
-576.748	-200.000	0.057	-0.276
-575.733	324.764	-0.042	0.080
-574.719	-200.000	-0.007	0.109
-573.704	253.167	0.164	0.281
-572.690	35.145	-0.107	-0.094
-571.675	194.028	-0.226	0.344
-570.661	-73.977	-0.118	0.043
-569.646	-200.000	0.018	-0.368
-568.631	121.119	0.072	0.089
-567.617	-121.281	-0.626	0.105
-566.602	94.779	-0.263	-0.300
-565.588	-80.104	0.324	-0.109
-564.573	-135.014	-0.131	-0.016
-563.558	-200.000	-0.002	-0.214
-562.544	-94.369	-0.229	-0.063
-561.529	800.000	-0.062	0.255
-560.515	799.472	0.051	-0.140
-559.500	-200.000	-0.019	-0.462
-558.485	-200.000	0.007	-0.035
-557.471	-154.389	-0.234	-0.016
-556.456	-49.426	0.248	-0.118
-555.442	-131.744	0.039	0.005
-554.427	412.793	-0.124	-0.265
-553.412	2.615	-0.229	-0.166
-552.398	161.375	-0.114	0.160
-551.383	-200.000	0.015	-0.238
-550.369	8.488	0.080	-0.061
-549.354	-91.968	-0.209	0.059
-548.339	-200.000	-0.001	-0.182
-547.325	-200.000	-0.037	0.211
-546.310	-93.012	-0.316	0.088
-545.296	-10.334	0.345	-0.229
-544.281	800.000	0.046	-0.200
-543.266	77.693	0.291	-0.311
-542.252	-98.378	-0.318	-0.081
-541.237	-167.902	-0.080	-0.003
-540.223	-200.000	0.084	-0.370
-539.208	115.650	-0.082	0.100
-538.193	234.049	0.144	0.237
-537.179	-82.216	-0.067	-0.022
-536.164	112.354	0.215	-0.261
-535.150	689.348	0.051	-0.133
-534.135	374.905	0.099	-0.202
-533.121	-113.631	-0.254	0.050
-532.106	323.345	-0.062	-0.118
-531.091	90.642	0.046	0.052
-530.077	337.851	0.110	0.214
-529.062	-200.000	0.008	0.070
-528.048	-0.819	-0.034	0.024
-527.033	201.430	0.066	-0.101
-526.018	800.000	-0.068	-0.219
-525.004	44.082	0.178	-0.163
-523.989	-200.000	0.037	-0.339
-522.975	96.478	0.178	0.204
-521.960	-79.026	-0.527	-0.179
-520.945	-37.369	-0.095	-0.051
-519.931	-24.232	-0.289	-0.173
-518.916	14.816	0.226	-0.177
-517.902	-200.000	-0.004	0.171
-516.887	72.858	-0.300	-0.314
-515.872	-82.392	0.137	-0.044
-514.858	58.221	0.254	0.249
-513.843	-155.879	-0.201	-0.013
-512.829	203.596	0.250	0.387
-511.814	-70.658	-0.416	0.157
-510.799	168.763	-0.089	-0.128
-509.785	-200.000	0.024	-0.279
-508.770	-40.683	-0.017	-0.009
-507.756	-60.091	-0.183	0.078
-506.741	61.999	-0.101	-0.100
-505.726	-104.613	0.076	0.018
-504.712	78.395	0.202	0.216
-503.697	-113.621	-0.201	0.039
-502.683	-180.854	-0.170	-0.003
-501.668	800.000	0.087	-0.260
-500.653	11.536	0.219	0.168
-499.639	-124.696	0.339	0.052
-498.624	140.080	-0.075	0.099
-497.610	800.000	-0.097	-0.279
-496.595	156.531	0.087	-0.121
-495.581	46.388	-0.431	0.399
-494.566	800.000	0.046	-0.146
-493.551	-200.000	-0.017	0.413
-492.537	-77.955	-0.123	0.042
-491.522	-61.017	0.197	0.083
-490.508	792.690	0.108	-0.297
-489.493	-115.322	0.414	0.078
-488.478	-200.000	0.025	-0.263
-487.464	-17.621	-0.334	0.210
-486.449	185.789	-0.087	-0.129
-485.435	31.839	0.067	0.058
-484.420	-62.480	-0.510	-0.212
-483.405	800.000	0.073	0.228
-482.391	800.000	0.028	0.103
-481.376	126.202	-0.215	-0.272
-480.362	-88.821	0.224	-0.066
-479.347	-84.111	-0.027	-0.009
-478.332	332.959	-0.050	0.097
-477.318	84.287	-0.237	0.259
-476.303	49.872	0.096	-0.091
-475.289	-169.348	-0.341	0.013
-474.274	308.640	0.092	0.172
-473.259	-26.817	-0.300	0.175
-472.245	-200.000	-0.036	0.328
-471.230	33.493	0.044	0.038
-470.216	-200.000	-0.009	-0.068
-469.201	141.561	0.092	-0.122
-468.186	-120.682	0.066	0.011
-467.172	-39.026	0.079	0.042
-466.157	-15.434	0.380	0.243
-465.143	-133.203	-0.251	-0.032
-464.128	-200.000	0.041	0.247
-463.113	1.396	-0.223	0.160
-462.099	800.000	0.042	-0.129
-461.084	-103.207	-0.172	0.041
-460.070	-44.117	-0.260	-0.130
-459.055	-39.465	0.109	-0.057
-458.040	-23.379	0.207	0.124
-457.026	-200.000	0.009	0.116
-456.011	-200.000	0.002	0.357
-454.997	-28.824	-0.112	0.064
-453.982	217.999	-0.191	-0.304
-452.968	-10.232	0.062	-0.041
-451.953	-47.132	-0.222	0.108
-450.938	-117.023	-0.296	-0.054
-449.924	-95.243	0.285	0.076
-448.909	-71.913	0.112	-0.042
-447.895	-200.000	-0.009	-0.138
-446.880	-200.000	-0.044	-0.261
-445.865	-168.098	0.102	0.004
-444.851	-200.000	0.008	-0.168
-443.836	-100.197	0.098	-0.024
-442.822	-102.056	0.253	-0.061
-441.807	-200.000	-0.038	0.195
-440.792	-200.000	0.011	-0.172
-439.778	-200.000	0.052	-0.257
-438.763	178.484	0.145	-0.212
-437.749	106.703	0.198	0.234
-436.734	-200.000	0.059	0.359
-435.719	134.070	0.083	0.107
-434.705	-200.000	0.011	0.222
-433.690	800.000	-0.030	-0.116
-432.676	444.243	-0.190	-0.416
-431.661	800.000	0.027	-0.106
-430.646	-109.030	-0.089	0.019
-429.632	-200.000	-0.059	-0.263
-428.617	-112.895	-0.175	0.034
-427.603	181.704	-0.147	-0.216
-426.588	-68.514	-0.173	-0.067
-425.573	-5.507	-0.090	0.062
-424.559	-165.770	-0.153	-0.007
-423.544	-11.398	0.194	0.127
-422.530	-200.000	0.003	-0.412
-421.515	-156.549	0.155	0.010
-420.500	-170.450	-0.079	-0.003
-419.486	-43.003	-0.120	-0.061
-418.471	21.679	-0.082	0.067
-417.457	134.936	-0.147	0.191
-416.442	-200.000	-0.045	0.304
-415.428	-74.389	0.165	-0.059
-414.413	68.126	-0.046	-0.047
-413.398	-141.449	-0.199	-0.020
-412.384	-200.000	0.033	0.297
-411.369	-200.000	-0.007	0.034
-410.355	-11.659	0.156	-0.102
-409.340	148.357	-0.186	-0.250
-408.325	18.745	-0.103	-0.082
-407.311	412.518	0.029	-0.061
-406.296	-78.841	0.172	0.059
-405.282	-93.887	-0.072	0.020
-404.267	-69.925	0.257	0.098
-403.252	95.551	-0.261	-0.297
-402.238	-63.556	0.265	-0.108
-401.223	-142.803	0.346	-0.034
-400.209	-18.787	-0.139	-0.086
-399.194	4.834	-0.114	0.083
-398.179	-88.518	0.025	0.007
-397.165	196.494	0.087	-0.132
-396.150	-42.101	0.118	-0.060
-395.136	-200.000	0.013	0.136
-394.121	-200.000	0.011	0.098
-393.106	-130.508	-0.330	-0.044
-392.092	-108.996	-0.129	0.027
-391.077	16.334	0.262	-0.206
-390.063	-53.359	0.052	0.024
-389.048	-200.000	0.018	0.267
-388.033	-200.000	0.032	0.213
-387.019	227.892	-0.052	0.084
-386.004	-153.277	0.242	-0.017
-384.990	-150.811	-0.373	-0.028
-383.975	-131.107	-0.096	0.013
-382.960	-36.187	-0.313	-0.168
-381.946	-114.443	0.207	-0.040
-380.931	63.017	0.247	-0.246
-379.917	341.331	0.062	-0.121
-378.902	-170.181	0.304	-0.011
-377.888	-200.000	0.013	0.181
-376.873	800.000	-0.068	0.188
-375.858	-89.661	0.445	0.130
-374.844	171.960	0.228	0.325
-373.829	800.000	0.084	-0.245
-372.815	305.763	0.139	0.258
-371.800	243.633	-0.098	-0.164
-370.785	-200.000	-0.032	0.278
-369.771	546.789	-0.104	-0.247
-368.756	47.354	-0.144	-0.133
-367.742	800.000	0.061	0.209
-366.727	-66.329	0.156	-0.062
-365.712	-200.000	0.025	-0.283
-364.698	-111.642	-0.353	-0.071
-363.683	119.047	0.082	0.101
-362.669	-200.000	0.011	0.077
-361.654	136.372	-0.050	0.064
-360.639	-20.326	0.233	-0.143
-359.625	-200.000	-0.023	0.199
-358.610	413.960	0.084	0.179
-357.596	-87.546	0.048	-0.014
-356.581	279.730	-0.078	-0.139
-355.566	-52.364	0.192	0.088
-354.552	476.966	-0.012	0.027
-353.537	800.000	0.035	0.134
-352.523	220.308	0.105	0.168
-351.508	-95.942	0.316	0.084
-350.493	262.901	0.064	0.111
-349.479	-156.343	-0.349	0.022
-348.464	800.000	0.011	0.035
-347.450	-200.000	0.043	0.220
-346.435	-195.279	0.414	0.003
-345.420	72.414	-0.046	-0.048
-344.406	-200.000	-0.019	0.196
-343.391	-200.000	0.008	0.137
-342.377	154.399	0.139	0.190
-341.362	-200.000	0.020	-0.165
-340.348	82.966	0.109	-0.118
-339.333	800.000	0.143	-0.484
-338.318	165.245	-0.318	-0.447
-337.304	31.369	0.124	-0.106
-336.289	-36.694	0.312	0.167
-335.275	98.548	-0.190	-0.217
-334.260	171.115	-0.112	-0.160
-333.245	82.965	0.182	0.196
-332.231	-200.000	0.050	-0.267
-331.216	800.000	-0.054	0.234
-330.202	130.533	0.144	-0.183
-329.187	-28.330	0.465	0.267
-328.172	-97.434	0.209	0.054
-327.158	-43.878	-0.070	-0.035
-326.143	-42.442	-0.176	0.089
-325.129	91.452	0.197	-0.220
-324.114	800.000	0.035	-0.113
-323.099	-200.000	-0.222	0.001
-322.085	282.289	0.089	0.158
-321.070	351.213	-0.042	0.083
-320.056	-79.219	0.372	-0.125
-319.041	-200.000	-0.039	-0.195
-318.026	-200.000	-0.019	-0.089
-317.012	223.432	0.079	0.127
-315.997	121.027	-0.159	0.196
-314.983	115.512	-0.139	0.168
-313.968	-6.981	-0.086	-0.058
-312.953	64.185	0.219	-0.219
-311.939	37.834	0.060	0.053
-310.924	225.831	0.004	0.006
-309.910	-7.478	-0.155	0.104
-308.895	83.738	0.153	-0.166
-307.880	39.295	-0.241	-0.214
-306.866	-56.510	-0.159	-0.070
-305.851	800.000	-0.043	0.130
-304.837	-200.000	0.014	0.061
-303.822	-68.901	-0.156	-0.060
-302.807	243.844	0.294	0.490
-301.793	438.631	-0.078	0.168
-300.778	-66.087	-0.332	-0.131
-299.764	-66.483	0.362	-0.143
-298.749	-66.448	-0.076	-0.030
-297.735	584.489	0.065	-0.158
-296.720	-123.100	0.199	-0.032
-295.705	-6.986	0.292	0.197
-294.691	135.649	0.246	-0.317
-293.676	-200.000	-0.004	-0.354
-292.662	-39.916	0.276	-0.143
-291.647	-53.596	0.274	0.124
-290.632	-53.385	0.122	0.055
-289.618	132.342	-0.169	0.216
-288.603	92.276	0.199	0.222
-287.589	-131.414	0.227	0.030
-286.574	677.339	-0.067	0.172
-285.559	299.269	-0.020	-0.036
-284.545	-200.000	-0.012	0.127
-283.530	-99.762	0.327	0.081
-282.516	-200.000	0.066	0.428
-281.501	-200.000	-0.004	0.129
-280.486	-131.797	0.173	-0.022
-279.472	-62.749	0.136	0.056
-278.457	44.085	0.212	0.193
-277.443	57.752	0.178	-0.173
-276.428	-10.176	0.118	-0.077
-275.413	311.798	0.063	-0.117
-274.399	-200.000	0.032	0.277
-273.384	-62.596	0.313	0.129
-272.370	-200.000	0.005	-0.106
-271.355	-8.649	-0.208	0.139
-270.340	41.250	0.204	0.183
-269.326	-82.396	-0.389	-0.125
-268.311	380.127	-0.029	0.059
-267.297	255.598	0.095	0.161
-266.282	-6.179	0.068	0.046
-265.267	43.584	-0.053	0.048
-264.253	127.334	0.104	0.131
-263.238	80.527	0.133	-0.142
-262.224	21.891	-0.358	0.289
-261.209	115.481	-0.061	-0.073
-260.195	800.000	0.030	-0.089
-259.180	216.797	-0.090	-0.142
-258.165	204.599	0.268	0.412
-257.151	189.365	-0.257	0.382
-256.136	-200.000	0.001	-0.175
-255.122	-23.065	0.396	-0.236
-254.107	290.270	-0.134	0.241
-253.092	99.883	-0.177	0.203
-252.078	689.588	-0.140	0.363
-251.063	-105.473	-0.373	-0.084
-250.049	-41.873	-0.346	-0.176
-249.034	-84.754	-0.230	-0.072
-248.019	-35.446	-0.267	-0.144
-247.005	132.529	-0.097	0.124
-245.990	-200.000	0.015	0.093
-244.976	81.048	-0.222	-0.238
-243.961	-50.364	-0.026	-0.012
-242.946	-125.645	-0.210	-0.031
-241.932	299.455	-0.190	-0.346
-240.917	17.792	-0.290	-0.229
-239.903	45.144	0.317	0.289
-238.888	688.114	0.052	0.134
-237.873	127.859	0.066	-0.084
-236.859	-157.040	0.499	-0.030
-235.844	-83.729	0.088	0.028
-234.830	-105.363	0.066	-0.015
-233.815	14.787	-0.307	-0.237
-232.800	-200.000	0.051	0.259
-231.786	-192.829	0.238	-0.002
-230.771	274.199	0.112	0.196
-229.757	63.248	0.167	0.166
-228.742	48.892	-0.169	0.157
-227.727	-69.472	0.130	0.049
-226.713	155.920	-0.160	0.219
-225.698	-45.460	0.136	0.067
-224.684	-96.942	-0.380	0.098
-223.669	143.667	0.060	0.079
-222.655	75.502	0.129	-0.134
-221.640	-117.007	0.316	-0.057
-220.625	-119.631	0.206	-0.035
-219.611	463.953	0.154	0.341
-218.596	-9.383	0.356	-0.235
-217.582	-115.608	0.400	-0.074
-216.567	800.000	-0.076	0.257
-215.552	-200.000	-0.041	-0.223
-214.538	-70.215	0.078	0.029
-213.523	-21.156	-0.193	-0.117
-212.509	-53.686	0.085	0.038
-211.494	97.766	0.251	0.285
-210.479	-200.000	-0.011	0.303
-209.465	559.055	-0.094	0.225
-208.450	5.886	-0.261	0.191
-207.436	24.411	-0.092	-0.075
-206.421	-108.979	-0.309	0.065
-205.406	-200.000	0.036	-0.244
-204.392	-200.000	0.001	-0.013
-203.377	-97.053	-0.166	0.043
-202.363	312.662	-0.199	-0.369
-201.348	65.576	0.141	0.141
-200.333	23.825	0.080	-0.065
-199.319	800.000	-0.044	0.186
-198.304	4.314	0.158	-0.115
-197.290	800.000	0.047	0.150
-196.275	277.809	0.135	0.237
-195.260	-114.893	-0.287	-0.054
-194.246	99.110	0.067	0.076
-193.231	800.000	0.067	0.214
-192.217	800.000	0.065	-0.209
-191.202	5.968	-0.266	-0.194
-190.187	-61.101	-0.211	-0.088
-189.173	-60.968	-0.381	0.159
-188.158	572.575	0.100	-0.242
-187.144	-85.610	-0.274	-0.084
-186.129	-168.462	-0.246	0.009
-185.114	-30.993	0.182	0.101
-184.100	-200.000	0.030	0.169
-183.085	800.000	0.015	0.046
-182.071	18.362	0.249	0.197
-181.056	-39.118	0.235	-0.122
-180.042	93.287	0.118	-0.132
-179.027	-104.224	-0.264	0.060
-178.012	-6.949	-0.263	0.176
-176.998	-106.764	-0.184	-0.040
-175.983	800.000	-0.072	0.298
-174.969	-86.731	-0.131	-0.040
-173.954	-153.650	-0.259	0.018
-172.939	24.930	-0.073	-0.059
-171.925	-86.367	0.122	0.037
-170.910	-82.964	0.083	0.026
-169.896	-200.000	0.014	0.096
-168.881	-200.000	-0.018	0.197
-167.866	-200.000	0.002	-0.079
-166.852	-73.918	0.448	0.161
-165.837	-200.000	0.023	0.149
-164.823	-150.587	-0.117	0.009
-163.808	-200.000	-0.006	0.246
-162.793	172.484	-0.126	-0.179
-161.779	800.000	-0.028	0.100
-160.764	333.546	0.123	-0.235
-159.750	-83.779	-0.160	-0.050
-158.735	131.964	0.024	0.030
-157.720	26.156	0.127	0.105
-156.706	6.701	-0.111	-0.081
-155.691	242.931	-0.079	-0.131
-154.677	135.230	0.171	-0.219
-153.662	-144.158	0.253	-0.023
-152.647	-61.357	0.150	-0.062
-151.633	-25.739	0.156	-0.091
-150.618	127.031	-0.210	0.262
-149.604	800.000	0.126	0.415
-148.589	550.596	0.075	-0.177
-147.574	800.000	0.012	0.040
-146.560	-45.828	-0.259	0.126
-145.545	104.681	0.120	-0.140
-144.531	102.902	0.185	-0.214
-143.516	800.000	0.037	0.147
-142.502	179.673	0.111	-0.160
-141.487	-200.000	0.011	0.241
-140.472	800.000	-0.065	-0.192
-139.458	-15.803	-0.235	0.148
-138.443	125.373	0.271	0.337
-137.429	-200.000	-0.027	0.244
-136.414	354.830	0.093	0.183
-135.399	-117.820	0.017	0.003
-134.385	-162.689	-0.097	0.005
-133.370	-118.997	0.327	-0.057
-132.356	800.000	-0.121	0.361
-131.341	-184.179	0.392	-0.006
-130.326	-2.244	0.289	-0.200
-129.312	65.468	0.270	-0.269
-128.297	329.324	-0.137	0.259
-127.283	68.041	-0.210	-0.212
-126.268	-70.141	0.330	-0.124
-125.253	62.487	0.143	0.141
-124.239	38.644	0.107	-0.094
-123.224	162.396	0.211	-0.291
-122.210	94.227	-0.122	0.136
-121.195	328.748	0.014	0.026
