DTS Sentinel unit serial number:	SN413079Multiplexer serial number:	ORYXHardware model number:	OX4-SRSoftware version number:	ORYX F/W v4.00 Oryx Data Collector v3.7.2.0data status	okinstallation	princeton_trtdifferential loss correction	single-endedforward channel	channel 2reverse channel	N/Adate	2019/09/18time	20:07:35forward acquisition time	60.00reverse acquisition time	0.00gamma	496.2192k internal	0.2335k external	0.2335temperature offset calibration	1.0025default loss term (dB/km)	0.3790temperature slope calibration	1.0000multiplexer offset coefficient	1.0000multiplexer slope coefficient	1.0000fibre end	0.00T internal ref (°C)	29.84T ext. ref 1 (°C)	0.87T ext. ref 2 (°C)	20.41length (m)	temperature (°C)	Stokes	anti-Stokes-747.200	120.293	0.163	0.203
-746.185	414.939	-0.182	0.389
-745.171	-116.293	-0.044	-0.008
-744.156	-200.000	-0.015	0.184
-743.142	75.985	0.098	0.104
-742.127	142.673	-0.184	0.245
-741.112	-200.000	-0.081	0.370
-740.098	-62.394	0.284	0.119
-739.083	-69.919	0.446	0.171
-738.069	124.937	-0.111	0.140
-737.054	125.860	-0.024	-0.030
-736.039	-95.875	-0.377	-0.101
-735.025	87.033	0.184	0.205
-734.010	800.000	0.097	-0.276
-732.996	-200.000	-0.048	0.232
-731.981	-97.918	0.376	0.097
-730.966	-200.000	0.035	0.411
-729.952	-108.715	-0.306	-0.066
-728.937	180.736	-0.171	0.253
-727.923	-33.348	0.077	-0.043
-726.908	319.962	-0.110	-0.209
-725.894	90.561	0.376	-0.422
-724.879	-40.081	-0.135	-0.071
-723.864	-200.000	0.023	-0.105
-722.850	-139.181	0.140	-0.015
-721.835	800.000	-0.110	-0.436
-720.821	-97.156	0.105	-0.028
-719.806	-32.508	0.310	-0.173
-718.791	-24.554	-0.196	-0.117
-717.777	102.526	0.125	0.147
-716.762	31.153	-0.173	-0.149
-715.748	66.674	-0.166	0.169
-714.733	-45.208	-0.192	-0.096
-713.718	-200.000	-0.038	0.172
-712.704	-9.600	-0.261	0.175
-711.689	-31.592	0.033	0.019
-710.675	-200.000	0.051	-0.251
-709.660	152.139	0.097	0.132
-708.645	335.098	-0.076	0.147
-707.631	800.000	0.056	0.160
-706.616	63.920	-0.064	0.064
-705.602	-200.000	-0.005	0.106
-704.587	53.291	0.148	0.142
-703.572	-128.017	-0.175	0.025
-702.558	-84.380	-0.197	-0.063
-701.543	303.904	0.119	-0.221
-700.529	-142.844	0.152	-0.015
-699.514	-61.983	0.323	-0.135
-698.499	-143.367	0.375	0.036
-697.485	262.181	-0.183	-0.318
-696.470	94.583	-0.110	0.125
-695.456	800.000	0.030	0.108
-694.441	-103.934	0.159	0.037
-693.426	800.000	-0.037	-0.151
-692.412	-175.275	-0.168	-0.005
-691.397	-64.204	-0.070	0.028
-690.383	70.250	0.284	0.294
-689.368	800.000	0.085	-0.345
-688.354	-200.000	0.042	0.342
-687.339	-82.360	-0.313	-0.102
-686.324	-200.000	-0.010	-0.205
-685.310	176.204	0.253	0.368
-684.295	112.599	0.081	0.098
-683.281	94.917	-0.149	-0.170
-682.266	196.256	0.227	-0.347
-681.251	-126.097	-0.262	-0.039
-680.237	-200.000	-0.018	-0.165
-679.222	-99.122	-0.301	-0.076
-678.208	-93.746	-0.289	0.080
-677.193	289.952	0.042	0.077
-676.178	-200.000	0.047	-0.261
-675.164	-26.678	0.113	0.066
-674.149	-61.474	-0.192	-0.081
-673.135	154.082	-0.159	0.218
-672.120	-38.124	0.025	-0.013
-671.105	-53.650	-0.089	0.041
-670.091	-24.222	0.232	-0.139
-669.076	-1.169	-0.208	-0.147
-668.062	-67.312	-0.195	0.077
-667.047	-71.549	0.132	0.049
-666.032	6.171	-0.156	0.116
-665.018	327.630	0.041	-0.079
-664.003	-61.593	-0.099	-0.042
-662.989	-200.000	0.017	-0.220
-661.974	203.442	-0.076	0.117
-660.959	-54.831	-0.173	0.078
-659.945	-10.164	-0.159	-0.106
-658.930	94.081	-0.103	0.117
-657.916	-200.000	0.024	-0.300
-656.901	231.820	0.078	-0.129
-655.886	-88.161	-0.495	0.149
-654.872	-96.479	0.061	0.016
-653.857	-86.439	0.100	-0.031
-652.843	-200.000	0.037	0.299
-651.828	39.199	-0.214	0.192
-650.814	-14.672	0.108	-0.070
-649.799	-200.000	-0.022	0.139
-648.784	-13.073	0.013	-0.008
-647.770	-75.935	-0.070	-0.025
-646.755	-91.889	-0.118	0.033
-645.741	-32.088	0.054	0.030
-644.726	-36.548	-0.163	-0.088
-643.711	800.000	-0.088	0.326
-642.697	34.273	0.041	0.036
-641.682	117.297	0.194	-0.239
-640.668	-57.458	-0.143	-0.063
-639.653	19.332	-0.206	0.165
-638.638	-173.179	0.274	0.008
-637.624	-0.565	0.100	-0.071
-636.609	-200.000	-0.010	-0.198
-635.595	800.000	-0.065	0.184
-634.580	60.714	0.150	0.149
-633.565	-48.429	-0.247	-0.119
-632.551	-53.573	0.303	-0.139
-631.536	13.964	-0.264	-0.206
-630.522	-89.580	-0.303	-0.089
-629.507	345.984	-0.103	0.203
-628.492	-200.000	-0.021	0.389
-627.478	-7.504	-0.323	-0.218
-626.463	149.281	-0.027	0.036
-625.449	-176.343	-0.135	0.004
-624.434	-76.170	-0.244	-0.086
-623.419	448.175	0.139	-0.306
-622.405	-200.000	0.052	0.259
-621.390	-115.880	0.197	0.037
-620.376	624.860	0.081	-0.203
-619.361	-200.000	-0.031	-0.204
-618.346	-180.016	-0.197	-0.004
-617.332	184.761	0.300	0.444
-616.317	-168.999	-0.174	0.006
-615.303	-200.000	-0.013	0.152
-614.288	116.426	-0.087	0.107
-613.273	121.589	-0.224	-0.279
-612.259	375.568	-0.066	-0.135
-611.244	164.275	-0.101	0.142
-610.230	41.297	-0.105	0.095
-609.215	-94.750	-0.134	0.036
-608.201	-93.760	-0.266	0.073
-607.186	-200.000	0.001	0.060
-606.171	-133.166	0.347	-0.044
-605.157	800.000	0.059	0.170
-604.142	800.000	0.136	0.488
-603.128	-93.466	-0.306	-0.085
-602.113	417.428	-0.058	0.124
-601.098	-46.385	-0.036	-0.018
-600.084	81.272	0.166	-0.179
-599.069	-59.286	0.210	-0.090
-598.055	-200.000	0.045	-0.259
-597.040	-200.000	0.026	-0.123
-596.025	-17.451	-0.347	-0.218
-595.011	3.374	0.135	0.098
-593.996	-200.000	0.074	0.348
-592.982	-88.446	-0.174	0.052
-591.967	-191.822	-0.041	0.000
-590.952	800.000	0.135	-0.478
-589.938	-52.538	0.256	0.118
-588.923	-127.002	-0.268	0.039
-587.909	800.000	0.050	0.163
-586.894	-33.766	0.166	-0.092
-585.879	49.934	0.153	-0.144
-584.865	-43.200	-0.151	-0.077
-583.850	-94.364	-0.041	0.011
-582.836	43.463	-0.060	0.055
-581.821	-200.000	0.044	0.233
-580.806	722.052	-0.089	-0.236
-579.792	7.967	-0.090	-0.067
-578.777	29.086	0.319	-0.270
-577.763	85.775	0.164	-0.180
-576.748	-200.000	-0.041	-0.227
-575.733	373.011	-0.212	-0.431
-574.719	-52.928	0.197	-0.091
-573.704	-126.104	0.367	-0.055
-572.690	87.696	-0.027	-0.030
-571.675	800.000	-0.113	-0.447
-570.661	800.000	0.020	-0.061
-569.646	-18.809	0.186	0.116
-568.631	-200.000	-0.029	0.175
-567.617	-26.497	-0.199	0.116
-566.602	800.000	-0.085	0.335
-565.588	108.659	0.039	0.047
-564.573	-7.837	-0.030	0.020
-563.558	257.501	-0.149	0.255
-562.544	-21.421	0.285	-0.174
-561.529	277.188	-0.241	-0.427
-560.515	277.359	-0.155	-0.276
-559.500	-154.014	-0.116	-0.008
-558.485	-118.110	0.423	0.075
-557.471	-103.021	-0.474	0.112
-556.456	800.000	-0.031	-0.089
-555.442	-200.000	0.055	-0.345
-554.427	604.404	-0.092	-0.229
-553.412	-49.957	0.062	0.029
-552.398	-135.683	-0.333	0.039
-551.383	72.374	-0.134	0.140
-550.369	466.793	0.050	0.112
-549.354	-88.971	-0.289	-0.085
-548.339	-119.370	0.175	-0.030
-547.325	-83.392	-0.236	-0.076
-546.310	33.577	0.073	-0.063
-545.296	130.006	-0.148	0.189
-544.281	277.858	-0.056	-0.100
-543.266	199.627	-0.089	0.137
-542.252	-81.140	-0.143	0.047
-541.237	37.864	-0.070	-0.062
-540.223	-164.568	-0.155	-0.007
-539.208	-104.997	0.431	0.098
-538.193	-143.197	-0.105	0.010
-537.179	37.465	0.248	0.220
-536.164	182.979	0.080	0.118
-535.150	132.138	0.088	0.113
-534.135	-192.384	-0.391	0.004
-533.121	413.002	-0.086	0.182
-532.106	-200.000	0.012	-0.236
-531.091	249.209	0.147	-0.248
-530.077	-110.815	-0.520	0.107
-529.062	800.000	0.069	0.204
-528.048	-200.000	0.030	0.173
-527.033	800.000	0.029	-0.096
-526.018	71.718	-0.260	-0.269
-525.004	-200.000	-0.039	-0.257
-523.989	12.553	-0.141	0.109
-522.975	800.000	0.063	-0.240
-521.960	791.886	0.100	0.275
-520.945	14.479	-0.108	-0.084
-519.931	-127.983	-0.254	0.036
-518.916	53.072	-0.178	-0.170
-517.902	-13.771	0.233	-0.150
-516.887	79.338	0.267	-0.285
-515.872	81.774	-0.142	0.153
-514.858	-85.806	0.427	0.132
-513.843	-62.005	-0.410	-0.170
-512.829	-200.000	0.008	-0.264
-511.814	240.037	-0.105	-0.174
-510.799	800.000	-0.027	0.092
-509.785	197.080	0.044	0.068
-508.770	-134.432	0.224	-0.027
-507.756	66.546	0.056	0.056
-506.741	-200.000	-0.010	0.162
-505.726	-1.388	-0.311	-0.218
-504.712	-200.000	0.071	-0.334
-503.697	-200.000	0.023	-0.295
-502.683	800.000	0.043	0.139
-501.668	-113.854	-0.094	-0.018
-500.653	-39.068	-0.130	0.068
-499.639	471.956	0.055	0.122
-498.624	-69.450	-0.135	-0.052
-497.610	389.270	-0.064	0.133
-496.595	-156.523	0.101	-0.006
-495.581	-200.000	-0.007	0.122
-494.566	-118.529	-0.210	0.037
-493.551	-200.000	-0.006	0.068
-492.537	445.541	0.130	0.284
-491.522	-26.859	-0.109	0.063
-490.508	-39.838	-0.047	0.024
-489.493	174.315	0.064	-0.093
-488.478	-200.000	0.021	-0.094
-487.464	-200.000	-0.032	0.188
-486.449	514.329	-0.106	0.246
-485.435	-152.038	0.157	0.011
-484.420	402.930	-0.083	0.174
-483.405	60.255	0.160	0.157
-482.391	-38.945	0.077	-0.040
-481.376	366.462	-0.091	0.184
-480.362	-94.007	-0.327	0.089
-479.347	-136.300	0.122	0.014
-478.332	-200.000	0.024	0.170
-477.318	800.000	0.057	-0.208
-476.303	800.000	-0.019	-0.063
-475.289	-200.000	0.035	0.161
-474.274	210.671	-0.063	-0.098
-473.259	-141.025	0.163	-0.017
-472.245	-160.914	0.129	0.007
-471.230	-200.000	0.043	0.298
-470.216	-122.199	0.532	0.087
-469.201	203.924	0.138	-0.212
-468.186	-140.034	0.128	0.013
-467.172	800.000	-0.055	-0.167
-466.157	800.000	-0.027	0.077
-465.143	-61.617	-0.273	0.114
-464.128	425.312	0.075	0.160
-463.113	698.043	0.081	0.212
-462.099	225.563	0.110	0.177
-461.084	-112.264	-0.139	0.028
-460.070	-53.809	0.182	0.083
-459.055	113.350	-0.216	-0.261
-458.040	-107.931	-0.108	0.023
-457.026	-200.000	0.019	0.123
-456.011	-117.339	0.357	-0.064
-454.997	143.587	-0.043	0.057
-453.982	-100.230	0.276	-0.068
-452.968	-200.000	-0.014	-0.279
-451.953	204.562	-0.127	-0.196
-450.938	800.000	0.085	0.352
-449.924	-115.407	0.182	-0.034
-448.909	562.641	0.038	0.091
-447.895	800.000	0.056	-0.169
-446.880	110.837	-0.104	-0.124
-445.865	-200.000	-0.015	-0.205
-444.851	800.000	0.104	0.307
-443.836	66.773	0.277	-0.280
-442.822	-22.917	-0.163	-0.098
-441.807	800.000	0.134	0.393
-440.792	-104.246	-0.055	-0.013
-439.778	-43.386	-0.283	0.142
-438.763	207.928	-0.017	-0.026
-437.749	240.251	-0.094	-0.156
-436.734	407.833	-0.163	-0.343
-435.719	-71.812	0.087	-0.032
-434.705	-200.000	0.058	-0.358
-433.690	1.629	-0.340	-0.243
-432.676	800.000	-0.061	-0.244
-431.661	-84.551	-0.331	0.104
-430.646	587.517	0.133	0.325
-429.632	-131.625	-0.551	-0.072
-428.617	-64.979	-0.221	0.089
-427.603	434.782	0.146	-0.315
-426.588	-200.000	0.014	0.265
-425.573	217.234	0.199	-0.315
-424.559	-200.000	0.046	-0.302
-423.544	-88.087	0.152	-0.045
-422.530	-36.785	0.060	-0.032
-421.515	-200.000	0.000	0.082
-420.500	-200.000	0.015	-0.097
-419.486	278.751	-0.097	-0.171
-418.471	418.460	-0.012	0.025
-417.457	-200.000	-0.030	-0.157
-416.442	123.313	0.103	-0.128
-415.428	-200.000	-0.017	-0.159
-414.413	589.409	0.145	0.354
-413.398	5.668	-0.263	0.193
-412.384	21.146	0.233	-0.187
-411.369	35.190	-0.229	-0.199
-410.355	-13.926	0.303	-0.194
-409.340	18.739	0.052	-0.041
-408.325	-60.971	-0.153	0.064
-407.311	87.357	-0.145	0.159
-406.296	-1.797	0.173	-0.121
-405.282	-131.242	-0.313	-0.041
-404.267	-164.912	-0.048	-0.002
-403.252	-64.418	0.125	0.051
-402.238	-33.835	0.055	0.030
-401.223	26.469	0.113	0.094
-400.209	-104.243	-0.124	0.028
-399.194	800.000	0.056	0.187
-398.179	800.000	-0.096	0.283
-397.165	-54.175	-0.356	0.160
-396.150	188.879	-0.224	0.332
-395.136	-116.071	0.163	0.030
-394.121	-185.044	-0.260	-0.004
-393.106	16.286	0.171	0.134
-392.092	43.366	-0.132	0.120
-391.077	89.524	0.010	-0.011
-390.063	223.815	-0.183	-0.293
-389.048	800.000	-0.093	0.256
-388.033	57.601	-0.169	-0.163
-387.019	-150.143	0.251	-0.019
-386.004	-82.532	-0.116	0.037
-384.990	32.440	0.272	0.233
-383.975	-105.396	0.228	0.051
-382.960	-200.000	0.017	-0.209
-381.946	-45.223	0.232	-0.114
-380.931	-20.724	0.039	0.024
-379.917	25.277	0.210	0.173
-378.902	26.316	0.124	0.103
-377.888	112.684	0.107	0.128
-376.873	800.000	-0.035	-0.109
-375.858	-200.000	0.004	-0.130
-374.844	-200.000	-0.003	-0.454
-373.829	656.981	0.034	0.088
-372.815	12.563	0.249	-0.190
-371.800	-2.446	-0.189	0.131
-370.785	-21.942	0.345	0.208
-369.771	-91.253	0.129	-0.037
-368.756	99.178	-0.135	0.155
-367.742	18.770	-0.087	0.069
-366.727	68.497	-0.022	-0.023
-365.712	296.569	0.202	0.368
-364.698	-200.000	-0.060	-0.270
-363.683	-200.000	0.037	0.285
-362.669	-200.000	0.002	0.098
-361.654	26.452	0.170	-0.141
-360.639	-154.892	0.111	0.007
-359.625	316.196	0.158	-0.295
-358.610	-45.729	0.170	-0.083
-357.596	-60.340	0.270	-0.114
-356.581	-60.812	-0.483	-0.202
-355.566	-200.000	0.003	0.123
-354.552	-150.339	-0.206	0.016
-353.537	641.558	0.087	-0.218
-352.523	69.992	0.107	-0.109
-351.508	407.687	-0.052	-0.109
-350.493	-28.902	-0.081	0.046
-349.479	326.818	-0.126	0.239
-348.464	-200.000	0.015	-0.146
-347.450	-48.178	0.320	-0.153
-346.435	-200.000	0.021	0.229
-345.420	800.000	0.031	-0.129
-344.406	-52.152	-0.133	-0.061
-343.391	-43.917	0.167	-0.083
-342.377	380.440	-0.102	0.207
-341.362	-107.412	-0.136	-0.030
-340.348	510.381	0.035	-0.081
-339.333	-68.976	-0.101	0.039
-338.318	-24.137	-0.221	-0.131
-337.304	-42.282	-0.125	-0.063
-336.289	-37.411	-0.097	-0.051
-335.275	376.266	0.094	0.190
-334.260	-200.000	0.032	0.280
-333.245	-46.418	0.255	-0.124
-332.231	-200.000	-0.017	0.224
-331.216	-100.308	-0.128	-0.031
-330.202	-200.000	0.010	-0.080
-329.187	-2.759	-0.135	0.093
-328.172	637.537	-0.106	0.265
-327.158	772.891	-0.025	0.067
-326.143	-160.233	0.245	-0.013
-325.129	-126.527	0.260	0.038
-324.114	163.459	-0.088	0.122
-323.099	82.839	-0.063	0.068
-322.085	-169.449	0.399	-0.014
-321.070	149.865	0.109	0.146
-320.056	-30.416	-0.210	-0.117
-319.041	41.599	0.293	0.262
-318.026	38.805	-0.140	0.124
-317.012	800.000	0.049	0.179
-315.997	581.894	0.106	0.258
-314.983	-200.000	0.007	-0.170
-313.968	511.656	-0.086	0.198
-312.953	193.429	0.123	0.184
-311.939	-144.759	-0.081	-0.007
-310.924	161.003	0.173	0.239
-309.910	130.540	0.074	0.094
-308.895	425.917	0.109	-0.231
-307.880	-200.000	-0.016	-0.131
-306.866	-200.000	0.078	-0.379
-305.851	320.788	0.086	0.161
-304.837	268.913	0.076	-0.132
-303.822	473.306	0.091	-0.202
-302.807	-107.553	-0.270	0.058
-301.793	-128.251	0.394	-0.056
-300.778	-100.737	0.134	-0.033
-299.764	-79.623	-0.325	-0.108
-298.749	-200.000	-0.028	0.177
-297.735	-19.638	0.068	0.042
-296.720	800.000	-0.129	-0.464
-295.705	-200.000	-0.001	0.050
-294.691	-176.046	-0.220	0.006
-293.676	696.037	-0.068	-0.175
-292.662	153.413	-0.146	0.198
-291.647	-108.647	0.131	-0.028
-290.632	-86.779	0.430	-0.130
-289.618	208.549	-0.152	-0.235
-288.603	270.728	-0.150	0.261
-287.589	59.886	0.134	-0.130
-286.574	-104.469	0.152	-0.035
-285.559	49.007	-0.165	0.153
-284.545	-200.000	0.281	0.001
-283.530	2.801	-0.127	-0.091
-282.516	159.810	0.065	-0.090
-281.501	-200.000	0.022	0.279
-280.486	-46.954	-0.089	-0.043
-279.472	185.095	-0.272	-0.398
-278.457	800.000	-0.016	0.068
-277.443	254.171	0.048	0.082
-276.428	-129.224	0.152	-0.021
-275.413	124.088	-0.232	-0.288
-274.399	-200.000	0.022	0.450
-273.384	-105.291	0.327	-0.074
-272.370	495.267	0.069	0.157
-271.355	82.757	0.015	-0.016
-270.340	33.529	-0.198	-0.170
-269.326	413.608	-0.114	0.239
-268.311	586.147	0.132	0.321
-267.297	800.000	-0.053	0.167
-266.282	79.148	0.163	-0.172
-265.267	-200.000	0.027	0.284
-264.253	800.000	-0.070	-0.249
-263.238	48.594	0.054	-0.050
-262.224	-95.002	0.199	-0.053
-261.209	-166.144	-0.029	-0.001
-260.195	-119.327	0.291	0.050
-259.180	396.391	0.044	0.092
-258.165	800.000	-0.013	0.046
-257.151	389.410	0.089	0.182
-256.136	-103.690	-0.204	0.047
-255.122	-200.000	-0.039	-0.195
-254.107	-10.781	-0.195	-0.127
-253.092	-200.000	0.015	-0.111
-252.078	214.401	0.139	-0.217
-251.063	800.000	0.049	0.206
-250.049	-7.786	0.148	0.098
-249.034	340.493	0.108	0.207
-248.019	-100.514	-0.162	0.039
-247.005	53.741	0.196	-0.185
-245.990	-200.000	-0.034	-0.217
-244.976	800.000	-0.016	0.064
-243.961	740.076	0.151	0.399
-242.946	120.842	0.070	0.085
-241.932	143.733	-0.168	-0.221
-240.917	6.629	0.114	-0.083
-239.903	800.000	0.067	-0.222
-238.888	-17.913	-0.291	-0.179
-237.873	-91.876	0.149	0.042
-236.859	-91.689	0.050	-0.014
-235.844	-200.000	-0.037	-0.189
-234.830	800.000	0.097	-0.290
-233.815	-200.000	-0.011	0.344
-232.800	-128.883	0.086	0.012
-231.786	-200.000	0.009	-0.217
-230.771	77.836	-0.035	0.037
-229.757	22.931	-0.168	0.136
-228.742	-86.579	-0.184	0.056
-227.727	-200.000	0.027	-0.202
-226.713	241.735	-0.088	0.145
-225.698	-33.173	-0.015	0.008
-224.684	251.134	-0.093	-0.156
-223.669	-200.000	0.008	-0.114
-222.655	-104.150	-0.158	-0.036
-221.640	800.000	-0.113	0.316
-220.625	-200.000	-0.006	0.117
-219.611	-5.909	0.174	-0.117
-218.596	60.156	-0.132	-0.128
-217.582	-109.682	-0.239	-0.050
-216.567	-160.821	0.178	-0.009
-215.552	-200.000	0.031	0.159
-214.538	-20.419	0.254	0.154
-213.523	-200.000	0.058	0.460
-212.509	174.191	-0.105	0.149
-211.494	-200.000	-0.012	-0.061
-210.479	-32.769	0.203	-0.111
-209.465	457.279	0.070	-0.154
-208.450	-2.478	-0.089	0.062
-207.436	-112.898	0.582	-0.113
-206.421	70.777	-0.066	-0.067
-205.406	-80.695	0.250	0.082
-204.392	434.777	-0.063	-0.135
-203.377	-93.313	-0.252	0.069
-202.363	286.237	0.161	0.286
-201.348	-200.000	-0.043	-0.204
-200.333	20.044	0.282	0.223
-199.319	-98.167	0.113	0.029
-198.304	-142.873	-0.218	-0.021
-197.290	159.074	-0.234	0.321
-196.275	550.446	0.061	0.144
-195.260	-74.039	-0.189	-0.068
-194.246	-52.263	-0.041	0.019
-193.231	55.397	0.231	0.220
-192.217	204.546	-0.210	-0.320
-191.202	-40.635	0.153	-0.078
-190.187	-88.416	0.442	-0.130
-189.173	155.260	-0.113	-0.153
-188.158	-83.952	-0.138	-0.043
-187.144	-68.975	0.081	-0.031
-186.129	-200.000	0.017	-0.092
-185.114	449.624	0.062	-0.134
-184.100	95.505	0.202	0.226
-183.085	104.520	0.055	-0.063
-182.071	-34.072	0.197	-0.106
-181.056	43.830	-0.134	0.121
-180.042	36.935	0.113	0.098
-179.027	115.175	0.104	0.125
-178.012	343.745	-0.090	0.173
-176.998	-200.000	0.020	0.226
-175.983	-41.519	0.129	-0.065
-174.969	-107.263	-0.087	0.019
-173.954	277.998	-0.047	-0.082
-172.939	-200.000	-0.055	-0.552
-171.925	56.075	0.123	0.117
-170.910	-52.290	0.288	0.131
-169.896	-14.618	0.161	-0.102
-168.881	133.387	-0.138	-0.175
-167.866	121.505	-0.111	-0.136
-166.852	230.909	-0.147	0.236
-165.837	-200.000	-0.014	0.203
-164.823	511.951	-0.097	0.223
-163.808	541.216	-0.048	-0.113
-162.793	620.034	0.080	-0.197
-161.779	-200.000	-0.065	0.000
-160.764	-133.389	0.094	0.012
-159.750	-23.917	-0.131	0.077
-158.735	800.000	-0.047	0.168
-157.720	191.099	0.125	0.185
-156.706	549.204	0.074	-0.175
-155.691	94.383	-0.072	0.080
-154.677	-90.000	0.109	0.031
-153.662	414.480	-0.161	0.337
-152.647	71.636	-0.175	0.178
-151.633	71.901	-0.302	-0.308
-150.618	186.544	-0.203	0.296
-149.604	-200.000	-0.042	-0.345
-148.589	-4.298	-0.044	0.030
-147.574	-141.790	-0.298	0.029
-146.560	800.000	-0.014	0.059
-145.545	-118.930	0.316	-0.054
-144.531	88.901	0.081	-0.088
-143.516	-200.000	-0.032	0.174
-142.502	800.000	-0.048	-0.203
-141.487	-98.959	0.482	-0.120
-140.472	-115.690	-0.238	0.044
-139.458	365.989	0.307	-0.608
-138.443	170.999	0.031	0.043
-137.429	7.521	-0.203	0.149
-136.414	309.061	-0.104	0.191
-135.399	-161.794	0.179	-0.009
-134.385	25.168	-0.189	0.154
-133.370	332.973	0.098	-0.186
-132.356	624.774	0.051	0.125
-131.341	589.988	-0.136	-0.330
-130.326	-13.042	-0.243	-0.155
-129.312	-200.000	-0.010	-0.190
-128.297	-102.984	-0.125	0.029
-127.283	-11.586	-0.232	0.149
-126.268	-119.860	-0.177	0.030
-125.253	-200.000	0.014	0.184
-124.239	453.811	-0.104	0.227
-123.224	-200.000	0.033	-0.216
-122.210	800.000	-0.051	0.194
-121.195	-200.000	0.369	0.001
