DTS Sentinel unit serial number:	SN413079Multiplexer serial number:	ORYXHardware model number:	OX4-SRSoftware version number:	ORYX F/W v4.00 Oryx Data Collector v3.7.2.0data status	okinstallation	princeton_trtdifferential loss correction	single-endedforward channel	channel 2reverse channel	N/Adate	2019/09/13time	06:43:35forward acquisition time	60.00reverse acquisition time	0.00gamma	496.2192k internal	0.2338k external	0.2338temperature offset calibration	1.0194default loss term (dB/km)	0.3790temperature slope calibration	1.0000multiplexer offset coefficient	1.0000multiplexer slope coefficient	1.0000fibre end	0.00T internal ref (°C)	26.00T ext. ref 1 (°C)	4.11T ext. ref 2 (°C)	20.65length (m)	temperature (°C)	Stokes	anti-Stokes-747.200	800.000	0.048	0.163
-746.185	-200.000	0.007	-0.219
-745.171	11.006	-0.307	-0.236
-744.156	-200.000	-0.036	0.188
-743.142	-33.483	0.226	-0.125
-742.127	-200.000	0.020	0.198
-741.112	-99.081	0.219	0.056
-740.098	800.000	-0.063	0.263
-739.083	-146.041	0.311	-0.028
-738.069	-200.000	-0.019	0.308
-737.054	-181.511	-0.149	0.003
-736.039	-58.441	-0.339	0.148
-735.025	-115.457	0.398	0.075
-734.010	-108.807	-0.217	-0.047
-732.996	-23.272	0.145	0.088
-731.981	-17.047	-0.045	0.028
-730.966	-200.000	-0.015	-0.119
-729.952	-85.159	0.157	0.049
-728.937	-141.294	0.296	-0.030
-727.923	-31.145	-0.329	0.186
-726.908	-49.886	-0.303	-0.144
-725.894	57.674	0.194	0.190
-724.879	199.417	-0.156	0.239
-723.864	249.013	0.074	-0.126
-722.850	247.699	-0.137	-0.232
-721.835	148.027	-0.066	0.090
-720.821	-200.000	-0.050	-0.496
-719.806	52.087	-0.177	-0.169
-718.791	-49.505	-0.130	-0.062
-717.777	800.000	0.041	-0.116
-716.762	-120.317	0.074	-0.013
-715.748	134.344	-0.076	-0.099
-714.733	105.409	0.185	-0.219
-713.718	556.957	-0.114	0.275
-712.704	235.770	-0.115	0.190
-711.689	-145.577	-0.253	-0.023
-710.675	116.106	-0.051	0.063
-709.660	-20.301	0.396	0.244
-708.645	-200.000	0.012	0.054
-707.631	4.634	0.217	0.160
-706.616	800.000	0.065	-0.192
-705.602	-115.607	0.146	-0.027
-704.587	-200.000	-0.013	0.265
-703.572	547.675	-0.101	-0.243
-702.558	800.000	-0.031	-0.101
-701.543	-144.741	-0.085	-0.008
-700.529	312.509	0.166	-0.311
-699.514	182.836	0.239	-0.354
-698.499	-114.077	0.215	0.042
-697.485	312.411	-0.323	-0.607
-696.470	62.229	0.144	-0.144
-695.456	1.209	-0.118	-0.085
-694.441	-84.964	0.141	-0.044
-693.426	202.701	-0.010	-0.015
-692.412	-200.000	0.016	0.091
-691.397	310.936	-0.025	0.047
-690.383	800.000	-0.100	-0.335
-689.368	37.632	-0.139	0.123
-688.354	-200.000	-0.024	-0.121
-687.339	134.578	-0.198	0.258
-686.324	-44.197	0.164	-0.082
-685.310	-200.000	-0.032	0.341
-684.295	181.173	-0.044	0.064
-683.281	81.126	0.125	-0.135
-682.266	-189.110	-0.206	0.002
-681.251	65.476	0.033	-0.033
-680.237	800.000	0.050	0.181
-679.222	62.638	-0.042	0.042
-678.208	444.239	0.073	0.161
-677.193	-81.489	-0.315	-0.104
-676.178	-200.000	-0.045	-0.238
-675.164	467.188	0.077	0.172
-674.149	-121.725	-0.073	0.012
-673.135	-66.022	-0.127	-0.051
-672.120	21.487	-0.094	-0.076
-671.105	324.790	0.162	-0.309
-670.091	730.775	-0.075	-0.202
-669.076	180.634	-0.144	0.212
-668.062	15.770	-0.251	-0.198
-667.047	317.413	0.082	0.155
-666.032	518.683	0.104	0.242
-665.018	60.059	-0.173	-0.171
-664.003	64.008	-0.086	-0.087
-662.989	421.499	0.075	-0.160
-661.974	-200.000	-0.026	0.212
-660.959	201.431	-0.026	0.040
-659.945	103.462	-0.214	-0.252
-658.930	8.300	-0.279	-0.209
-657.916	-200.000	0.005	-0.074
-656.901	47.325	0.129	0.120
-655.886	5.599	0.265	-0.196
-654.872	-12.548	0.120	0.078
-653.857	95.259	0.253	0.289
-652.843	220.441	0.083	-0.133
-651.828	-94.801	0.098	-0.026
-650.814	-91.459	-0.115	-0.033
-649.799	800.000	0.048	-0.196
-648.784	800.000	0.053	-0.223
-647.770	-200.000	0.026	0.126
-646.755	-92.570	0.211	0.059
-645.741	-58.734	-0.173	-0.075
-644.726	66.137	-0.165	0.168
-643.711	-5.938	0.167	0.114
-642.697	72.144	0.164	-0.171
-641.682	-200.000	0.005	0.176
-640.668	-50.599	-0.265	0.125
-639.653	33.625	-0.306	-0.266
-638.638	-131.528	-0.017	-0.002
-637.624	487.448	0.181	0.413
-636.609	800.000	-0.066	0.242
-635.595	17.703	0.054	0.043
-634.580	-67.408	-0.116	-0.045
-633.565	58.351	-0.224	0.219
-632.551	90.985	-0.273	0.305
-631.536	-58.008	-0.325	0.142
-630.522	-28.513	0.209	0.120
-629.507	-200.000	-0.114	0.001
-628.492	424.265	0.097	0.209
-627.478	-35.436	-0.099	-0.054
-626.463	-200.000	0.013	0.177
-625.449	-200.000	0.029	0.171
-624.434	-39.001	0.184	-0.097
-623.419	800.000	0.130	-0.381
-622.405	706.104	0.062	-0.162
-621.390	-125.932	0.327	0.049
-620.376	34.778	0.080	0.070
-619.361	77.198	0.093	0.099
-618.346	-70.339	-0.191	-0.072
-617.332	-72.623	0.468	-0.172
-616.317	414.030	-0.101	0.215
-615.303	-75.386	0.270	0.096
-614.288	-77.219	-0.227	-0.079
-613.273	-200.000	-0.002	0.033
-612.259	-200.000	0.023	0.113
-611.244	-200.000	-0.008	0.065
-610.230	-200.000	-0.066	-0.532
-609.215	-89.184	-0.050	-0.015
-608.201	-200.000	-0.020	0.181
-607.186	67.514	-0.277	-0.282
-606.171	-98.370	-0.221	-0.056
-605.157	169.436	-0.275	-0.393
-604.142	-135.728	-0.046	-0.005
-603.128	298.154	0.074	-0.136
-602.113	413.650	0.056	0.119
-601.098	-97.511	0.166	0.043
-600.084	-200.000	-0.025	-0.198
-599.069	384.309	-0.039	-0.080
-598.055	-119.991	-0.192	0.033
-597.040	800.000	-0.012	-0.048
-596.025	800.000	-0.113	-0.345
-595.011	-200.000	0.062	0.273
-593.996	-84.822	-0.278	0.087
-592.982	-15.949	-0.010	-0.007
-591.967	-97.783	0.149	-0.038
-590.952	800.000	0.020	-0.078
-589.938	75.471	0.278	-0.293
-588.923	-200.000	-0.025	0.191
-587.909	108.534	0.138	-0.164
-586.894	-200.000	-0.014	0.077
-585.879	101.641	0.138	-0.160
-584.865	211.904	0.072	0.114
-583.850	-106.142	-0.189	0.042
-582.836	-154.801	-0.053	-0.003
-581.821	-105.167	0.317	-0.072
-580.806	133.255	-0.056	0.073
-579.792	-200.000	0.018	0.119
-578.777	269.143	-0.106	0.186
-577.763	800.000	0.166	-0.496
-576.748	-147.204	-0.123	-0.010
-575.733	800.000	-0.074	-0.293
-574.719	-200.000	-0.041	-0.464
-573.704	15.937	-0.270	0.212
-572.690	-200.000	-0.002	0.420
-571.675	5.918	-0.177	-0.131
-570.661	460.137	0.059	0.130
-569.646	-200.000	0.007	0.171
-568.631	-167.717	-0.367	0.014
-567.617	800.000	0.088	-0.340
-566.602	291.033	0.083	-0.150
-565.588	753.770	-0.072	0.193
-564.573	799.179	0.111	-0.306
-563.558	2.066	-0.147	-0.106
-562.544	-200.000	-0.016	-0.149
-561.529	-200.000	0.015	0.223
-560.515	463.500	-0.070	-0.156
-559.500	800.000	0.117	0.429
-558.485	800.000	-0.062	-0.193
-557.471	-155.252	-0.069	0.004
-556.456	274.778	0.034	0.059
-555.442	-21.558	0.092	0.056
-554.427	-51.958	-0.421	0.195
-553.412	279.574	-0.264	-0.469
-552.398	27.150	0.096	-0.080
-551.383	111.818	-0.154	-0.185
-550.369	21.409	-0.056	0.046
-549.354	-95.187	-0.040	0.011
-548.339	-77.737	0.051	-0.017
-547.325	118.441	-0.095	0.117
-546.310	-0.359	-0.267	-0.189
-545.296	-100.020	-0.110	-0.027
-544.281	18.111	0.100	0.079
-543.266	-133.423	-0.142	-0.018
-542.252	-127.253	-0.317	0.046
-541.237	800.000	-0.035	-0.106
-540.223	-200.000	-0.031	0.320
-539.208	-200.000	0.011	0.378
-538.193	-200.000	-0.027	-0.167
-537.179	-135.143	0.224	0.027
-536.164	-8.373	0.114	-0.076
-535.150	-64.105	-0.212	-0.086
-534.135	-28.190	-0.177	-0.102
-533.121	256.712	0.111	0.189
-532.106	-200.000	0.044	-0.368
-531.091	220.521	-0.124	-0.198
-530.077	204.415	-0.031	-0.048
-529.062	62.004	0.250	0.248
-528.048	800.000	0.144	-0.427
-527.033	800.000	-0.090	0.301
-526.018	1.122	0.267	-0.191
-525.004	198.479	-0.206	-0.313
-523.989	-53.706	0.138	0.063
-522.975	-198.339	-0.356	-0.002
-521.960	290.193	0.046	0.082
-520.945	-200.000	-0.045	0.297
-519.931	-200.000	0.015	0.195
-518.916	-200.000	0.072	0.596
-517.902	722.114	0.069	0.182
-516.887	186.371	-0.107	-0.158
-515.872	-92.773	-0.094	-0.026
-514.858	-58.066	-0.328	0.142
-513.843	-200.000	0.006	0.157
-512.829	-200.000	-0.014	0.084
-511.814	-200.000	-0.013	0.081
-510.799	800.000	0.069	0.222
-509.785	196.273	-0.119	-0.180
-508.770	255.687	-0.082	-0.140
-507.756	244.136	-0.017	0.029
-506.741	-54.825	-0.033	-0.015
-505.726	-136.420	0.220	-0.025
-504.712	454.965	0.135	-0.298
-503.697	65.284	0.097	-0.097
-502.683	-137.171	-0.403	0.046
-501.668	431.406	-0.162	-0.349
-500.653	-198.324	-0.356	-0.002
-499.639	-69.986	-0.382	0.145
-498.624	-4.306	-0.238	0.163
-497.610	-85.576	0.063	-0.019
-496.595	221.035	-0.087	-0.138
-495.581	-64.387	-0.143	-0.058
-494.566	606.855	0.177	-0.438
-493.551	-6.324	-0.087	0.059
-492.537	534.388	0.161	-0.378
-491.522	-58.985	0.476	-0.204
-490.508	114.255	-0.079	0.095
-489.493	-200.000	-0.048	-0.361
-488.478	-165.648	-0.228	0.010
-487.464	-1.749	0.219	0.153
-486.449	-68.317	0.276	-0.107
-485.435	-33.185	-0.183	0.101
-484.420	-110.338	-0.175	-0.036
-483.405	800.000	-0.022	-0.066
-482.391	367.340	-0.237	-0.476
-481.376	-94.403	0.140	0.038
-480.362	14.390	-0.090	0.069
-479.347	-98.533	-0.200	0.051
-478.332	-134.166	0.343	-0.042
-477.318	107.638	-0.223	0.264
-476.303	800.000	0.078	-0.247
-475.289	89.426	0.059	-0.065
-474.274	-200.000	-0.015	0.128
-473.259	-134.925	-0.046	0.006
-472.245	453.084	0.158	-0.347
-471.230	407.199	-0.124	-0.260
-470.216	199.101	-0.132	-0.201
-469.201	395.974	0.098	0.203
-468.186	-185.468	-0.198	0.003
-467.172	293.607	0.009	0.016
-466.157	100.019	0.220	0.254
-465.143	-66.019	-0.274	-0.109
-464.128	-130.358	0.274	0.037
-463.113	74.267	0.082	-0.085
-462.099	686.090	0.128	-0.332
-461.084	-97.174	-0.331	0.086
-460.070	800.000	-0.071	-0.220
-459.055	-138.952	-0.486	-0.052
-458.040	115.685	0.139	0.168
-457.026	-32.881	0.164	-0.090
-456.011	-165.378	0.146	-0.006
-454.997	-82.400	0.219	0.071
-453.982	-91.507	0.296	0.084
-452.968	-200.000	0.021	0.155
-451.953	23.953	0.195	0.159
-450.938	304.946	0.067	0.124
-449.924	351.608	0.077	0.151
-448.909	55.085	0.084	-0.081
-447.895	-14.319	-0.093	-0.059
-446.880	202.754	0.068	0.104
-445.865	497.532	0.140	-0.320
-444.851	-71.012	0.148	-0.055
-443.836	-139.535	-0.195	0.021
-442.822	-130.687	0.122	-0.016
-441.807	84.161	-0.342	0.370
-440.792	293.822	-0.064	0.116
-439.778	-32.884	0.081	0.045
-438.763	-19.124	0.180	-0.111
-437.749	-200.000	0.017	0.112
-436.734	-200.000	-0.023	0.165
-435.719	-200.000	0.014	-0.256
-434.705	27.825	0.171	-0.143
-433.690	800.000	0.046	-0.137
-432.676	800.000	0.104	0.331
-431.661	123.200	0.085	0.105
-430.646	800.000	-0.051	-0.177
-429.632	-200.000	-0.004	-0.080
-428.617	267.831	-0.133	0.231
-427.603	-9.934	0.063	-0.041
-426.588	367.142	-0.180	0.360
-425.573	-130.010	0.385	0.052
-424.559	426.018	-0.052	-0.111
-423.544	7.165	0.237	-0.175
-422.530	-35.248	-0.270	-0.146
-421.515	800.000	0.041	0.153
-420.500	-55.795	-0.068	-0.030
-419.486	3.013	-0.293	-0.211
-418.471	-200.000	-0.024	0.146
-417.457	800.000	0.040	0.111
-416.442	19.371	0.180	0.143
-415.428	-83.276	0.232	-0.074
-414.413	359.311	0.118	0.233
-413.398	-88.465	0.316	-0.094
-412.384	116.271	-0.116	0.141
-411.369	509.398	-0.029	-0.066
-410.355	-86.109	0.196	0.060
-409.340	-73.593	0.231	-0.084
-408.325	-177.242	-0.329	-0.008
-407.311	-200.000	0.030	-0.157
-406.296	-82.184	0.191	-0.062
-405.282	-200.000	-0.027	-0.251
-404.267	656.341	-0.024	0.062
-403.252	-200.000	0.041	0.205
-402.238	800.000	-0.025	0.084
-401.223	-76.969	-0.295	-0.102
-400.209	-104.640	0.296	-0.067
-399.194	353.596	-0.138	-0.272
-398.179	152.909	-0.086	0.116
-397.165	-65.389	0.284	0.113
-396.150	259.373	0.022	-0.037
-395.136	103.648	-0.142	0.165
-394.121	-19.837	0.106	-0.065
-393.106	-53.286	-0.065	-0.030
-392.092	-200.000	-0.002	0.237
-391.077	-43.613	0.304	0.152
-390.063	-193.189	0.160	-0.001
-389.048	329.143	0.080	0.152
-388.033	-200.000	-0.003	0.129
-387.019	-34.399	0.242	0.131
-386.004	346.824	-0.137	-0.266
-384.990	139.754	0.150	0.196
-383.975	-21.029	0.268	-0.163
-382.960	-101.422	0.492	0.119
-381.946	440.678	0.032	-0.070
-380.931	38.470	0.138	-0.122
-379.917	-200.000	-0.030	-0.139
-378.902	800.000	0.137	-0.496
-377.888	-200.000	-0.002	0.104
-376.873	124.528	0.090	0.112
-375.858	-44.819	-0.042	0.021
-374.844	-34.393	-0.183	-0.099
-373.829	-25.074	-0.043	-0.025
-372.815	-39.329	-0.150	0.078
-371.800	453.194	0.059	0.129
-370.785	291.625	-0.088	-0.158
-369.771	222.177	0.057	0.091
-368.756	-12.835	0.119	-0.077
-367.742	-83.728	-0.163	-0.051
-366.727	-83.449	0.245	0.078
-365.712	154.131	0.114	0.155
-364.698	-92.861	0.083	0.023
-363.683	-200.000	-0.038	-0.232
-362.669	64.977	-0.119	-0.119
-361.654	-118.481	-0.119	-0.021
-360.639	-115.281	-0.231	-0.043
-359.625	69.908	0.134	0.136
-358.610	49.944	-0.151	0.141
-357.596	582.517	0.162	0.393
-356.581	-97.676	0.086	-0.022
-355.566	245.009	-0.079	-0.131
-354.552	-200.000	-0.011	0.072
-353.537	507.210	0.042	-0.097
-352.523	800.000	-0.110	-0.407
-351.508	-200.000	0.008	-0.158
-350.493	-200.000	0.005	0.087
-349.479	-45.257	-0.279	-0.137
-348.464	9.221	-0.142	0.106
-347.450	-117.494	0.208	0.037
-346.435	-8.319	-0.061	0.041
-345.420	18.233	-0.393	-0.310
-344.406	-200.000	0.064	0.338
-343.391	-52.785	0.042	-0.019
-342.377	-71.171	-0.309	0.115
-341.362	149.146	0.186	0.248
-340.348	27.519	0.167	0.139
-339.333	-38.985	-0.131	0.068
-338.318	84.807	-0.113	0.122
-337.304	597.805	0.129	0.316
-336.289	-66.189	0.145	-0.057
-335.275	604.360	-0.079	0.194
-334.260	32.956	0.256	-0.219
-333.245	-200.000	-0.049	-0.236
-332.231	800.000	-0.058	0.171
-331.216	91.636	-0.044	-0.049
-330.202	245.344	-0.117	0.194
-329.187	-9.193	-0.209	-0.138
-328.172	74.388	-0.249	-0.258
-327.158	-26.026	0.381	-0.221
-326.143	-200.000	0.050	0.289
-325.129	-200.000	0.040	0.465
-324.114	-31.039	-0.098	0.055
-323.099	800.000	-0.064	-0.227
-322.085	-55.936	0.099	0.044
-321.070	395.644	-0.026	-0.054
-320.056	-149.946	0.207	0.016
-319.041	-200.000	0.012	0.368
-318.026	-36.853	-0.459	0.243
-317.012	-200.000	-0.009	-0.355
-315.997	-182.530	0.367	-0.007
-314.983	-53.067	-0.043	-0.020
-313.968	-200.000	-0.068	-0.298
-312.953	687.289	0.072	0.185
-311.939	-200.000	-0.064	-0.428
-310.924	37.529	-0.176	-0.154
-309.910	53.140	0.153	-0.145
-308.895	-2.547	-0.164	0.113
-307.880	732.694	-0.106	0.279
-306.866	75.477	-0.207	-0.216
-305.851	-40.418	0.277	-0.142
-304.837	800.000	0.073	0.209
-303.822	-18.130	0.150	-0.093
-302.807	-200.000	-0.043	-0.231
-301.793	123.417	-0.078	-0.096
-300.778	137.685	0.129	0.166
-299.764	48.637	-0.141	0.130
-298.749	-200.000	-0.005	0.056
-297.735	20.442	0.369	0.294
-296.720	68.677	0.068	-0.069
-295.705	204.965	0.125	-0.191
-294.691	64.222	0.267	-0.265
-293.676	-200.000	-0.035	-0.173
-292.662	800.000	-0.048	-0.142
-291.647	-94.153	0.148	-0.040
-290.632	72.462	-0.206	-0.212
-289.618	-200.000	-0.011	-0.094
-288.603	-141.783	-0.142	0.014
-287.589	-113.952	-0.517	0.099
-286.574	800.000	-0.080	-0.225
-285.559	-89.689	-0.178	-0.051
-284.545	-61.820	0.285	0.117
-283.530	-68.551	-0.155	-0.059
-282.516	36.214	-0.139	-0.121
-281.501	-3.060	-0.058	0.040
-280.486	-113.501	-0.143	0.028
-279.472	800.000	0.146	0.437
-278.457	405.779	0.012	0.026
-277.443	105.986	0.091	-0.106
-276.428	-200.000	0.043	0.336
-275.413	-101.530	-0.300	0.072
-274.399	-38.111	0.291	-0.152
-273.384	91.370	-0.087	0.096
-272.370	166.129	-0.113	0.158
-271.355	-200.000	-0.025	0.127
-270.340	-55.031	-0.231	-0.102
-269.326	373.220	-0.109	0.219
-268.311	-135.967	0.054	-0.006
-267.297	-125.798	0.168	0.025
-266.282	310.960	0.205	-0.378
-265.267	-200.000	0.273	-0.000
-264.253	-93.603	0.056	0.015
-263.238	303.916	-0.109	-0.198
-262.224	303.490	-0.041	0.075
-261.209	-88.788	0.298	0.087
-260.195	-54.996	-0.178	0.079
-259.180	29.379	-0.181	0.151
-258.165	-136.393	0.111	0.013
-257.151	-95.675	-0.272	-0.072
-256.136	-165.805	0.300	0.013
-255.122	94.547	-0.196	-0.219
-254.107	-20.671	-0.076	0.046
-253.092	-200.000	-0.077	0.382
-252.078	294.056	-0.122	0.219
-251.063	-10.844	-0.209	-0.136
-250.049	-200.000	-0.002	0.096
-249.034	-143.285	0.470	-0.044
-248.019	-159.578	0.227	-0.012
-247.005	-127.618	-0.046	-0.006
-245.990	-22.819	-0.063	-0.037
-244.976	800.000	0.148	0.461
-243.961	-200.000	0.014	0.101
-242.946	568.525	0.101	-0.241
-241.932	11.450	-0.175	-0.132
-240.917	800.000	-0.101	-0.308
-239.903	142.083	0.280	0.365
-238.888	-200.000	-0.018	-0.125
-237.873	-200.000	-0.062	-0.295
-236.859	7.672	-0.107	-0.079
-235.844	255.221	0.118	0.198
-234.830	85.784	0.237	0.257
-233.815	-200.000	-0.022	-0.300
-232.800	-200.000	0.000	0.072
-231.786	-107.554	0.317	-0.068
-230.771	-115.978	-0.119	0.022
-229.757	-153.931	-0.130	0.009
-228.742	-5.498	-0.100	0.068
-227.727	800.000	-0.061	-0.208
-226.713	560.679	-0.056	-0.134
-225.698	75.391	0.347	0.360
-224.684	301.532	-0.203	0.369
-223.669	105.851	-0.038	-0.044
-222.655	117.215	0.144	-0.174
-221.640	70.614	0.082	-0.083
-220.625	341.064	0.010	0.020
-219.611	205.608	-0.057	0.087
-218.596	-86.598	0.112	0.034
-217.582	144.371	0.177	0.232
-216.567	27.366	0.369	0.305
-215.552	30.423	-0.251	-0.211
-214.538	-57.232	-0.268	-0.116
-213.523	-13.924	-0.111	0.071
-212.509	9.280	0.116	-0.086
-211.494	270.096	0.220	0.380
-210.479	345.693	0.132	-0.254
-209.465	179.439	0.134	-0.193
-208.450	472.033	0.095	-0.211
-207.436	2.426	0.253	-0.180
-206.421	-13.078	-0.113	0.072
-205.406	-75.590	0.250	-0.087
-204.392	-171.699	-0.134	0.004
-203.377	-200.000	-0.010	0.057
-202.363	-44.081	-0.129	0.064
-201.348	95.559	-0.115	0.129
-200.333	-34.604	-0.392	0.211
-199.319	18.811	0.342	-0.269
-198.304	-146.967	0.140	-0.012
-197.290	1.857	-0.505	-0.358
-196.275	102.352	0.272	-0.312
-195.260	-78.124	0.176	-0.060
-194.246	417.752	-0.036	-0.075
-193.231	74.643	-0.129	0.133
-192.217	264.139	0.116	0.198
-191.202	10.676	0.229	0.172
-190.187	9.460	-0.139	-0.103
-189.173	-90.785	-0.179	-0.051
-188.158	5.042	0.143	0.103
-187.144	-69.834	-0.275	0.103
-186.129	800.000	-0.032	0.121
-185.114	253.571	0.101	0.170
-184.100	38.876	-0.102	0.090
-183.085	-113.153	0.306	0.059
-182.071	-103.394	0.131	0.030
-181.056	545.120	-0.044	-0.102
-180.042	450.633	0.112	0.242
-179.027	18.779	0.125	-0.098
-178.012	-74.459	0.134	0.048
-176.998	517.926	0.090	0.208
-175.983	-200.000	-0.002	-0.166
-174.969	800.000	0.055	0.212
-173.954	-200.000	-0.014	0.240
-172.939	110.350	-0.093	0.109
-171.925	-200.000	0.027	0.342
-170.910	170.700	0.123	0.172
-169.896	-200.000	-0.017	0.145
-168.881	800.000	-0.136	-0.386
-167.866	-21.760	0.181	0.108
-166.852	54.879	-0.068	0.065
-165.837	-200.000	0.017	-0.191
-164.823	800.000	-0.098	0.328
-163.808	800.000	0.081	0.255
-162.793	370.113	-0.086	-0.172
-161.779	56.555	-0.055	0.052
-160.764	-102.181	0.099	0.023
-159.750	800.000	0.012	-0.042
-158.735	132.691	0.067	-0.085
-157.720	104.012	-0.082	-0.095
-156.706	-82.756	-0.315	0.100
-155.691	316.684	-0.147	0.272
-154.677	800.000	0.103	-0.315
-153.662	-58.847	0.214	0.091
-152.647	-200.000	-0.023	0.112
-151.633	800.000	0.044	-0.175
-150.618	-147.078	-0.252	-0.021
-149.604	19.257	0.146	0.115
-148.589	123.440	0.234	0.288
-147.574	-61.382	0.118	0.049
-146.560	163.116	-0.075	-0.103
-145.545	-96.080	-0.253	-0.066
-144.531	62.601	0.245	-0.240
-143.516	-200.000	-0.003	-0.068
-142.502	-130.615	-0.286	0.038
-141.487	-200.000	-0.002	0.112
-140.472	800.000	0.047	-0.195
-139.458	91.527	0.163	-0.179
-138.443	-6.434	-0.063	0.042
-137.429	86.837	0.195	0.211
-136.414	-102.913	0.316	0.073
-135.399	-74.367	0.212	-0.075
-134.385	38.729	0.241	0.210
-133.370	-149.865	-0.192	0.015
-132.356	-76.391	-0.176	-0.060
-131.341	800.000	-0.038	0.157
-130.326	0.500	0.253	0.177
-129.312	-20.141	0.379	0.229
-128.297	4.729	-0.080	-0.057
-127.283	800.000	0.135	-0.454
-126.268	-97.840	-0.218	0.055
-125.253	800.000	0.048	-0.130
-124.239	800.000	-0.067	-0.255
-123.224	-69.284	-0.174	0.065
-122.210	241.167	-0.121	-0.199
-121.195	-154.631	-0.018	-0.001
