DTS Sentinel unit serial number:	SN413079Multiplexer serial number:	ORYXHardware model number:	OX4-SRSoftware version number:	ORYX F/W v4.00 Oryx Data Collector v3.7.2.0data status	okinstallation	princeton_trtdifferential loss correction	single-endedforward channel	channel 2reverse channel	N/Adate	2019/09/14time	11:39:35forward acquisition time	60.00reverse acquisition time	0.00gamma	496.2192k internal	0.2311k external	0.2311temperature offset calibration	1.0152default loss term (dB/km)	0.3790temperature slope calibration	1.0000multiplexer offset coefficient	1.0000multiplexer slope coefficient	1.0000fibre end	0.00T internal ref (°C)	36.92T ext. ref 1 (°C)	4.59T ext. ref 2 (°C)	33.54length (m)	temperature (°C)	Stokes	anti-Stokes-747.200	-39.754	-0.005	0.003
-746.185	384.150	-0.181	0.379
-745.171	565.012	-0.076	-0.188
-744.156	494.188	0.131	0.304
-743.142	800.000	-0.054	0.203
-742.127	800.000	0.054	0.219
-741.112	-200.000	-0.003	-0.017
-740.098	65.085	0.258	0.264
-739.083	-57.498	0.128	0.057
-738.069	252.729	0.044	0.076
-737.054	-200.000	0.010	0.320
-736.039	162.072	-0.107	0.153
-735.025	-200.000	-0.006	0.135
-734.010	-200.000	0.071	0.363
-732.996	124.329	-0.048	-0.061
-731.981	-91.883	-0.273	0.079
-730.966	52.544	-0.161	0.156
-729.952	-58.000	-0.261	0.115
-728.937	-76.308	0.142	0.051
-727.923	102.703	0.048	-0.057
-726.908	-141.460	-0.260	-0.027
-725.894	457.017	-0.068	-0.153
-724.879	-16.318	-0.236	0.152
-723.864	-14.909	-0.466	0.303
-722.850	-200.000	-0.045	0.368
-721.835	-68.437	-0.105	0.041
-720.821	98.232	0.074	-0.086
-719.806	-116.437	-0.139	0.026
-718.791	800.000	-0.107	-0.402
-717.777	1.441	-0.049	-0.036
-716.762	-74.586	0.212	-0.077
-715.748	-65.391	-0.074	0.030
-714.733	172.503	0.219	0.320
-713.718	135.831	0.195	0.257
-712.704	-200.000	0.004	-0.123
-711.689	270.976	0.160	-0.285
-710.675	-15.341	0.067	0.043
-709.660	-200.000	0.001	-0.076
-708.645	-156.764	0.078	-0.005
-707.631	-112.695	0.219	0.044
-706.616	-200.000	0.004	-0.157
-705.602	-132.086	-0.087	0.011
-704.587	-200.000	-0.010	-0.072
-703.572	15.221	-0.092	0.073
-702.558	800.000	-0.030	0.112
-701.543	145.716	0.085	-0.115
-700.529	237.675	0.083	0.140
-699.514	-166.231	-0.090	0.004
-698.499	-200.000	-0.016	-0.179
-697.485	12.663	0.047	0.037
-696.470	159.978	0.113	0.159
-695.456	-71.522	0.104	-0.039
-694.441	107.615	-0.072	-0.087
-693.426	-194.680	-0.334	-0.003
-692.412	62.480	-0.188	0.190
-691.397	73.604	0.163	0.173
-690.383	-126.549	-0.391	-0.059
-689.368	-101.432	0.096	0.024
-688.354	689.860	0.152	0.404
-687.339	59.349	-0.079	-0.079
-686.324	-7.679	-0.037	0.025
-685.310	60.960	0.250	0.251
-684.295	487.240	-0.039	0.091
-683.281	-165.437	0.237	-0.011
-682.266	50.792	0.062	-0.059
-681.251	137.677	-0.140	0.185
-680.237	-200.000	0.022	0.141
-679.222	20.489	-0.248	-0.203
-678.208	274.249	0.093	0.167
-677.193	169.393	0.067	0.097
-676.178	70.730	0.199	0.208
-675.164	-144.543	-0.225	0.021
-674.149	-55.385	-0.399	-0.181
-673.135	2.767	0.213	0.157
-672.120	-12.929	-0.107	-0.070
-671.105	-142.571	-0.078	0.008
-670.091	31.092	0.348	0.302
-669.076	-104.469	-0.157	0.037
-668.062	298.985	0.205	-0.381
-667.047	-36.836	0.224	-0.121
-666.032	512.972	-0.065	-0.154
-665.018	-19.686	-0.296	0.185
-664.003	-200.000	0.006	0.074
-662.989	-17.869	-0.167	0.106
-661.974	800.000	0.090	-0.317
-660.959	-57.088	0.167	0.074
-659.945	800.000	0.087	0.298
-658.930	276.627	-0.032	0.057
-657.916	-34.619	-0.236	0.130
-656.901	-200.000	0.006	0.131
-655.886	800.000	-0.019	-0.053
-654.872	62.518	-0.193	-0.195
-653.857	522.922	0.171	-0.406
-652.843	-57.492	-0.307	-0.136
-651.828	-149.864	0.069	0.005
-650.814	-12.903	0.104	0.069
-649.799	257.036	-0.067	-0.116
-648.784	434.997	-0.068	0.149
-647.770	-78.317	-0.021	-0.007
-646.755	488.410	-0.129	0.298
-645.741	-106.955	0.438	0.098
-644.726	320.699	0.131	-0.252
-643.711	800.000	-0.066	-0.187
-642.697	147.187	-0.241	-0.327
-641.682	-200.000	0.016	0.077
-640.668	-143.338	0.346	-0.034
-639.653	-31.371	-0.467	0.265
-638.638	445.420	0.119	-0.265
-637.624	-87.785	0.285	0.087
-636.609	-2.955	-0.165	0.117
-635.595	266.361	0.191	-0.337
-634.580	-105.770	-0.278	0.064
-633.565	126.673	-0.078	0.100
-632.551	-24.857	-0.368	-0.221
-631.536	-13.904	0.146	-0.096
-630.522	-132.796	0.226	-0.029
-629.507	429.649	0.161	-0.353
-628.492	-47.181	-0.019	0.010
-627.478	-103.490	-0.083	0.020
-626.463	-24.964	0.192	-0.115
-625.449	-200.000	-0.003	-0.107
-624.434	189.928	0.113	0.172
-623.419	26.514	0.074	-0.062
-622.405	-112.192	0.089	0.018
-621.390	-25.664	0.310	-0.185
-620.376	-200.000	0.003	-0.065
-619.361	-200.000	0.004	-0.213
-618.346	800.000	-0.104	-0.354
-617.332	111.878	0.154	-0.188
-616.317	-100.294	-0.228	-0.057
-615.303	-200.000	-0.011	0.106
-614.288	34.681	0.091	-0.080
-613.273	-37.360	0.233	-0.126
-612.259	275.611	-0.155	-0.278
-611.244	-6.519	0.106	-0.073
-610.230	-200.000	-0.310	-0.001
-609.215	255.671	0.171	0.296
-608.201	634.818	-0.081	0.206
-607.186	47.150	-0.159	0.150
-606.171	-119.382	0.371	-0.065
-605.157	579.500	-0.127	0.315
-604.142	-116.527	-0.181	0.034
-603.128	25.486	0.223	0.187
-602.113	13.536	-0.062	-0.049
-601.098	-200.000	0.057	-0.263
-600.084	-200.000	-0.024	0.203
-599.069	-200.000	-0.012	-0.148
-598.055	293.066	0.097	-0.178
-597.040	-162.672	0.225	0.011
-596.025	155.403	-0.099	0.138
-595.011	-200.000	0.045	0.364
-593.996	-161.242	-0.497	-0.026
-592.982	-3.794	0.240	0.168
-591.967	-32.756	0.044	-0.024
-590.952	117.858	-0.251	0.312
-589.938	-49.252	-0.243	-0.117
-588.923	-200.000	0.041	-0.319
-587.909	-32.111	-0.204	0.115
-586.894	224.972	0.102	-0.166
-585.879	62.306	0.196	0.198
-584.865	800.000	0.051	-0.169
-583.850	-189.816	0.271	-0.003
-582.836	23.490	-0.073	-0.061
-581.821	-137.940	-0.179	-0.020
-580.806	37.756	-0.020	0.018
-579.792	-88.408	-0.466	-0.140
-578.777	271.700	0.207	0.367
-577.763	732.790	0.159	0.429
-576.748	-200.000	0.000	-0.025
-575.733	-99.295	0.210	0.053
-574.719	780.133	-0.081	0.225
-573.704	0.104	0.453	-0.326
-572.690	-29.978	0.145	-0.083
-571.675	-133.796	-0.162	0.020
-570.661	602.013	-0.020	0.051
-569.646	278.850	-0.076	0.137
-568.631	323.913	0.096	0.184
-567.617	-116.197	0.187	-0.035
-566.602	-13.268	0.078	-0.051
-565.588	178.975	-0.034	0.051
-564.573	-74.685	0.163	0.059
-563.558	-145.704	-0.304	0.027
-562.544	481.000	0.097	-0.222
-561.529	64.981	-0.174	0.178
-560.515	-117.855	0.189	-0.034
-559.500	-200.000	-0.049	-0.224
-558.485	162.692	-0.129	0.183
-557.471	-45.381	-0.107	-0.054
-556.456	166.297	-0.169	0.241
-555.442	178.097	-0.125	-0.184
-554.427	-73.069	-0.411	-0.152
-553.412	800.000	0.075	0.293
-552.398	49.528	-0.101	-0.095
-551.383	145.157	-0.108	0.145
-550.369	-53.403	-0.171	-0.079
-549.354	-197.557	-0.284	-0.002
-548.339	45.583	0.111	-0.103
-547.325	-200.000	0.007	0.393
-546.310	-116.441	0.302	-0.056
-545.296	69.795	-0.155	0.161
-544.281	800.000	-0.046	-0.152
-543.266	-134.191	-0.081	-0.010
-542.252	-55.237	0.198	-0.089
-541.237	-142.532	-0.212	-0.021
-540.223	42.368	0.099	-0.090
-539.208	104.098	0.104	-0.123
-538.193	-200.000	0.001	-0.045
-537.179	-103.499	-0.125	-0.030
-536.164	-68.394	-0.217	0.085
-535.150	-133.180	0.441	-0.056
-534.135	-164.711	0.147	0.007
-533.121	-57.426	0.017	-0.007
-532.106	-41.567	-0.114	-0.059
-531.091	-200.000	-0.032	-0.415
-530.077	-121.002	0.253	-0.043
-529.062	36.483	0.208	-0.185
-528.048	-7.023	0.173	-0.119
-527.033	-87.002	0.089	-0.027
-526.018	9.962	-0.191	-0.146
-525.004	-200.000	0.058	0.274
-523.989	-200.000	0.002	-0.089
-522.975	-130.218	0.238	0.033
-521.960	272.766	-0.252	-0.447
-520.945	-87.813	-0.365	-0.111
-519.931	394.639	-0.077	0.161
-518.916	-46.174	-0.192	-0.095
-517.902	800.000	-0.140	-0.406
-516.887	-40.867	0.260	0.136
-515.872	-2.612	0.121	0.085
-514.858	-160.801	-0.248	0.013
-513.843	499.813	0.077	0.179
-512.829	58.862	0.063	0.063
-511.814	800.000	0.031	-0.117
-510.799	-200.000	-0.017	-0.125
-509.785	310.136	-0.153	0.289
-508.770	231.377	0.133	0.220
-507.756	406.327	-0.127	-0.269
-506.741	-20.870	0.193	0.119
-505.726	-80.242	-0.368	0.124
-504.712	20.294	-0.292	0.237
-503.697	-162.438	0.229	-0.011
-502.683	800.000	0.088	0.250
-501.668	-155.134	0.122	0.008
-500.653	-153.580	0.177	-0.012
-499.639	-171.955	-0.177	0.006
-498.624	10.871	0.301	0.231
-497.610	-120.618	0.188	0.032
-496.595	-200.000	-0.086	-0.437
-495.581	707.465	0.030	-0.080
-494.566	-81.691	0.383	-0.126
-493.551	-121.055	0.333	-0.056
-492.537	-121.720	-0.377	-0.063
-491.522	-45.593	0.029	0.014
-490.508	-200.000	-0.021	-0.199
-489.493	654.258	-0.044	-0.112
-488.478	-36.624	0.108	-0.059
-487.464	7.099	0.081	0.060
-486.449	-200.000	-0.038	0.316
-485.435	-180.086	0.097	-0.002
-484.420	186.573	-0.189	0.283
-483.405	100.050	-0.196	0.228
-482.391	148.116	-0.118	0.159
-481.376	-105.871	-0.308	0.070
-480.362	389.861	0.214	-0.446
-479.347	-125.884	0.339	0.051
-478.332	-200.000	-0.000	0.047
-477.318	800.000	-0.066	-0.184
-476.303	-200.000	0.045	-0.231
-475.289	-64.755	-0.203	-0.083
-474.274	-130.214	-0.089	-0.012
-473.259	-128.177	-0.046	0.007
-472.245	-200.000	-0.006	-0.110
-471.230	385.041	0.069	-0.143
-470.216	594.860	-0.046	-0.114
-469.201	778.736	0.037	0.101
-468.186	-62.646	0.057	-0.024
-467.172	-63.887	-0.073	0.030
-466.157	-79.501	0.370	0.126
-465.143	507.252	-0.127	0.295
-464.128	383.744	0.094	-0.193
-463.113	114.102	-0.126	0.154
-462.099	89.957	0.231	-0.259
-461.084	-89.554	-0.057	0.017
-460.070	-79.247	-0.376	0.128
-459.055	743.432	0.093	-0.252
-458.040	122.285	0.037	0.046
-457.026	-45.129	0.075	0.038
-456.011	800.000	-0.059	-0.233
-454.997	-33.835	-0.382	-0.211
-453.982	-200.000	0.007	-0.107
-452.968	163.397	-0.031	-0.043
-451.953	-90.151	0.086	0.025
-450.938	-167.435	0.291	-0.012
-449.924	-200.000	0.001	0.371
-448.909	-200.000	-0.014	-0.083
-447.895	800.000	-0.081	0.312
-446.880	-58.521	-0.312	-0.136
-445.865	800.000	0.160	0.465
-444.851	-67.904	-0.121	0.047
-443.836	-28.886	-0.301	0.173
-442.822	800.000	-0.123	-0.370
-441.807	0.299	0.321	0.230
-440.792	111.084	-0.150	0.181
-439.778	-32.346	0.056	0.031
-438.763	616.146	0.182	0.458
-437.749	800.000	-0.067	-0.228
-436.734	-31.258	0.201	-0.113
-435.719	627.584	-0.068	-0.173
-434.705	-139.307	-0.223	0.024
-433.690	603.007	0.076	0.190
-432.676	-200.000	-0.072	0.360
-431.661	-53.846	-0.198	-0.091
-430.646	-40.758	0.061	0.032
-429.632	-131.213	0.165	0.022
-428.617	102.987	0.096	-0.113
-427.603	-111.229	0.098	0.020
-426.588	-10.468	-0.102	-0.067
-425.573	82.925	0.135	0.147
-424.559	316.254	0.089	-0.168
-423.544	-21.117	0.038	-0.023
-422.530	800.000	-0.043	0.180
-421.515	18.441	-0.204	-0.163
-420.500	95.735	-0.215	-0.246
-419.486	758.069	0.050	-0.135
-418.471	-70.854	-0.209	-0.079
-417.457	-0.725	0.142	-0.101
-416.442	-49.475	-0.063	-0.030
-415.428	-200.000	0.019	-0.116
-414.413	-200.000	0.050	0.404
-413.398	226.538	-0.070	0.114
-412.384	565.519	-0.179	-0.434
-411.369	-148.098	0.345	-0.029
-410.355	138.739	0.143	0.188
-409.340	232.154	-0.219	-0.361
-408.325	-151.582	0.236	-0.017
-407.311	-84.068	0.087	0.028
-406.296	-89.535	-0.245	0.072
-405.282	-123.790	0.359	0.057
-404.267	0.081	-0.455	-0.325
-403.252	730.702	0.139	0.373
-402.238	-200.000	-0.037	0.278
-401.223	106.011	0.154	-0.182
-400.209	-39.334	-0.314	0.165
-399.194	13.507	0.082	0.064
-398.179	-57.564	-0.234	-0.103
-397.165	-38.975	0.306	-0.161
-396.150	316.318	0.083	-0.157
-395.136	-102.543	-0.099	-0.024
-394.121	-40.064	-0.234	0.122
-393.106	-67.204	-0.199	0.078
-392.092	-200.000	-0.040	-0.222
-391.077	-200.000	-0.016	-0.260
-390.063	800.000	-0.042	-0.172
-389.048	12.806	-0.222	-0.171
-388.033	-133.251	0.318	-0.040
-387.019	-61.940	-0.491	0.205
-386.004	-128.744	-0.130	0.018
-384.990	388.252	0.107	-0.221
-383.975	639.686	0.058	-0.148
-382.960	-121.072	0.370	0.062
-381.946	9.707	-0.087	0.066
-380.931	26.976	-0.050	0.042
-379.917	-200.000	0.243	0.001
-378.902	-2.777	-0.182	0.127
-377.888	569.001	-0.018	-0.044
-376.873	-52.939	0.349	0.161
-375.858	-34.079	-0.070	-0.038
-374.844	800.000	0.029	0.120
-373.829	409.021	0.187	0.397
-372.815	-91.400	-0.447	-0.128
-371.800	800.000	-0.131	-0.382
-370.785	162.560	0.179	-0.252
-369.771	-193.207	0.184	-0.002
-368.756	184.104	-0.094	-0.139
-367.742	-200.000	0.002	0.107
-366.727	-104.556	-0.191	-0.044
-365.712	-9.517	-0.129	0.086
-364.698	307.882	-0.093	0.173
-363.683	800.000	-0.087	-0.352
-362.669	178.672	0.097	-0.142
-361.654	265.332	0.220	-0.384
-360.639	-3.252	-0.055	-0.038
-359.625	-125.238	-0.118	0.018
-358.610	96.257	0.145	0.166
-357.596	-50.902	0.126	-0.059
-356.581	-64.246	0.209	0.085
-355.566	800.000	0.057	-0.163
-354.552	160.374	0.084	-0.116
-353.537	-200.000	0.020	0.188
-352.523	-200.000	-0.004	0.196
-351.508	800.000	0.042	-0.155
-350.493	19.732	0.127	-0.102
-349.479	45.140	-0.073	0.067
-348.464	218.829	-0.270	0.431
-347.450	92.623	-0.105	-0.118
-346.435	-94.847	0.312	0.085
-345.420	397.604	0.169	-0.352
-344.406	-91.841	-0.066	0.019
-343.391	409.935	-0.044	-0.094
-342.377	-61.337	-0.332	-0.140
-341.362	-6.602	-0.374	-0.255
-340.348	-15.497	-0.350	-0.223
-339.333	68.940	-0.131	0.134
-338.318	26.135	0.231	0.193
-337.304	73.136	-0.170	-0.178
-336.289	267.523	0.118	-0.206
-335.275	191.025	0.256	-0.385
-334.260	471.276	0.036	0.081
-333.245	-200.000	-0.015	0.106
-332.231	256.272	0.073	-0.125
-331.216	-144.210	-0.164	0.015
-330.202	11.387	0.218	0.167
-329.187	-147.643	0.336	0.028
-328.172	-63.167	0.294	0.121
-327.158	253.393	0.130	-0.222
-326.143	-24.088	0.217	0.130
-325.129	-200.000	0.023	-0.165
-324.114	520.143	-0.112	0.263
-323.099	-73.938	0.542	-0.197
-322.085	-46.239	-0.145	-0.071
-321.070	800.000	-0.109	0.348
-320.056	-44.028	0.248	0.124
-319.041	-146.058	0.071	0.006
-318.026	-200.000	-0.007	-0.190
-317.012	-52.278	-0.239	0.111
-315.997	-5.933	0.294	0.201
-314.983	-200.000	-0.016	-0.218
-313.968	-21.634	-0.183	0.111
-312.953	-140.317	0.378	0.039
-311.939	-42.845	-0.102	-0.052
-310.924	104.839	0.089	0.105
-309.910	101.218	0.118	0.137
-308.895	800.000	0.037	0.110
-307.880	647.829	0.100	0.255
-306.866	-140.465	0.343	0.036
-305.851	510.795	-0.057	0.132
-304.837	-28.892	0.174	-0.100
-303.822	29.685	-0.235	0.200
-302.807	93.962	0.245	-0.277
-301.793	4.001	-0.224	-0.163
-300.778	-117.167	0.242	-0.044
-299.764	-8.876	-0.470	-0.314
-298.749	800.000	-0.028	0.086
-297.735	18.272	-0.165	-0.131
-296.720	194.499	-0.239	-0.361
-295.705	226.421	-0.241	-0.390
-294.691	95.443	-0.100	0.113
-293.676	-97.705	-0.077	0.020
-292.662	-27.427	0.186	-0.108
-291.647	-167.579	0.124	0.005
-290.632	-80.442	-0.316	0.105
-289.618	-148.945	0.245	-0.020
-288.603	-200.000	-0.050	0.426
-287.589	-138.368	0.160	-0.018
-286.574	4.959	-0.270	0.198
-285.559	-200.000	-0.036	-0.184
-284.545	76.395	-0.235	0.248
-283.530	-137.462	0.206	-0.023
-282.516	-158.108	-0.200	-0.012
-281.501	-21.092	-0.081	0.049
-280.486	239.518	-0.077	-0.128
-279.472	-117.179	-0.472	0.086
-278.457	-47.411	0.084	-0.041
-277.443	98.109	0.231	0.265
-276.428	181.343	0.082	0.120
-275.413	117.656	0.020	-0.025
-274.399	52.347	-0.090	0.085
-273.384	-31.790	0.091	-0.051
-272.370	20.629	-0.068	0.055
-271.355	-108.488	-0.095	-0.020
-270.340	-200.000	0.023	-0.236
-269.326	-14.522	0.199	0.127
-268.311	-200.000	-0.010	0.089
-267.297	-138.949	-0.310	-0.034
-266.282	164.778	0.133	0.187
-265.267	-8.928	0.391	0.261
-264.253	-93.483	-0.188	0.052
-263.238	-122.111	0.085	-0.014
-262.224	-118.787	-0.279	-0.049
-261.209	800.000	-0.031	0.119
-260.195	800.000	-0.004	-0.014
-259.180	131.199	0.098	-0.126
-258.165	-200.000	0.019	-0.388
-257.151	-200.000	-0.020	-0.154
-256.136	-83.890	-0.210	-0.067
-255.122	-200.000	0.017	-0.212
-254.107	390.721	0.020	0.041
-253.092	-22.486	0.203	-0.122
-252.078	5.238	-0.169	0.124
-251.063	-73.164	-0.170	0.062
-250.049	212.901	0.049	0.076
-249.034	-82.605	-0.143	0.046
-248.019	-200.000	0.013	0.211
-247.005	-59.483	-0.472	-0.202
-245.990	150.807	0.092	0.124
-244.976	-100.196	0.038	0.009
-243.961	-154.370	0.235	-0.016
-242.946	-200.000	-0.040	0.496
-241.932	581.119	-0.046	0.112
-240.917	800.000	0.074	-0.259
-239.903	67.821	-0.205	0.209
-238.888	-114.665	0.268	-0.051
-237.873	142.087	0.100	0.132
-236.859	-137.017	0.172	0.020
-235.844	258.592	-0.122	-0.209
-234.830	548.752	0.044	0.105
-233.815	-106.145	0.433	0.097
-232.800	-200.000	0.008	0.303
-231.786	71.537	-0.085	-0.088
-230.771	-140.772	0.106	0.011
-229.757	768.834	0.044	0.120
-228.742	-200.000	0.008	0.182
-227.727	760.053	0.151	0.407
-226.713	733.425	-0.062	0.164
-225.698	-200.000	-0.030	-0.217
-224.684	800.000	-0.064	0.204
-223.669	560.943	0.094	0.227
-222.655	800.000	0.021	0.063
-221.640	134.041	-0.012	-0.015
-220.625	-4.654	-0.075	0.052
-219.611	313.042	-0.190	-0.355
-218.596	245.346	0.100	-0.168
-217.582	-20.004	-0.264	-0.162
-216.567	-200.000	0.059	-0.263
-215.552	-92.745	-0.139	-0.039
-214.538	169.880	-0.195	-0.277
-213.523	-119.891	0.242	0.041
-212.509	-200.000	0.010	-0.077
-211.494	469.131	-0.259	0.578
-210.479	-114.007	0.156	0.030
-209.465	192.183	0.046	-0.069
-208.450	800.000	-0.012	-0.047
-207.436	543.953	0.077	0.183
-206.421	116.993	0.168	-0.205
-205.406	257.752	0.189	0.324
-204.392	475.321	-0.076	-0.171
-203.377	54.325	0.203	-0.195
-202.363	236.273	0.065	-0.106
-201.348	243.987	-0.065	0.109
-200.333	731.677	0.069	-0.184
-199.319	-46.526	0.094	0.046
-198.304	-103.790	0.124	0.029
-197.290	190.971	0.043	0.064
-196.275	-115.153	0.138	0.026
-195.260	-42.025	0.223	-0.113
-194.246	-53.171	0.130	-0.059
-193.231	-200.000	0.002	0.362
-192.217	-149.619	-0.102	0.008
-191.202	-17.392	-0.220	0.137
-190.187	-34.681	-0.305	-0.166
-189.173	141.748	-0.070	0.092
-188.158	123.514	-0.153	0.191
-187.144	191.015	-0.048	-0.072
-186.129	23.213	0.114	-0.093
-185.114	-200.000	0.015	0.210
-184.100	-200.000	0.019	0.248
-183.085	-26.123	0.090	-0.053
-182.071	-200.000	-0.015	-0.234
-181.056	-87.967	-0.076	0.023
-180.042	612.833	0.120	-0.299
-179.027	-200.000	0.023	0.153
-178.012	391.758	-0.054	-0.111
-176.998	-3.697	-0.111	-0.077
-175.983	-200.000	-0.016	-0.230
-174.969	-135.680	-0.319	0.038
-173.954	-72.926	-0.174	-0.063
-172.939	-138.200	0.372	0.041
-171.925	800.000	0.157	0.440
-170.910	105.776	-0.102	0.119
-169.896	148.182	0.130	0.175
-168.881	442.998	0.149	0.325
-167.866	105.193	0.089	-0.104
-166.852	741.473	-0.155	0.413
-165.837	-45.197	0.168	0.083
-164.823	264.341	-0.098	-0.170
-163.808	73.044	-0.039	-0.041
-162.793	-58.072	-0.115	0.050
-161.779	-78.418	0.246	0.084
-160.764	800.000	0.042	0.124
-159.750	-200.000	-0.037	0.258
-158.735	382.669	0.063	0.129
-157.720	-134.602	-0.297	0.036
-156.706	617.685	-0.094	0.233
-155.691	393.208	-0.115	-0.238
-154.677	800.000	-0.036	-0.115
-153.662	-5.485	-0.287	-0.196
-152.647	363.532	0.025	0.050
-151.633	-200.000	0.040	0.379
-150.618	-179.116	-0.161	0.004
-149.604	-34.554	-0.179	-0.097
-148.589	114.912	0.028	-0.034
-147.574	98.166	0.195	0.222
-146.560	9.193	0.060	0.045
-145.545	800.000	0.112	0.354
-144.531	800.000	0.089	0.282
-143.516	-200.000	-0.058	0.323
-142.502	29.359	0.162	-0.136
-141.487	28.628	0.135	-0.114
-140.472	-200.000	-0.060	0.355
-139.458	-82.854	0.278	-0.089
-138.443	-31.163	0.223	0.125
-137.429	-200.000	-0.048	-0.216
-136.414	5.638	0.010	-0.007
-135.399	-69.270	-0.269	-0.102
-134.385	50.676	0.142	0.133
-133.370	-47.861	-0.236	0.113
-132.356	657.632	0.081	0.208
-131.341	-128.421	-0.287	0.040
-130.326	-200.000	0.045	0.230
-129.312	-200.000	0.064	-0.345
-128.297	-137.756	-0.183	0.020
-127.283	400.920	-0.146	0.303
-126.268	27.871	0.173	0.144
-125.253	-49.470	0.183	0.087
-124.239	-44.968	0.322	0.159
-123.224	-200.000	-0.057	0.326
-122.210	143.746	0.098	0.130
-121.195	-143.997	0.112	0.010
