DTS Sentinel unit serial number:	SN413079Multiplexer serial number:	ORYXHardware model number:	OX4-SRSoftware version number:	ORYX F/W v4.00 Oryx Data Collector v3.7.2.0data status	okinstallation	princeton_trtdifferential loss correction	single-endedforward channel	channel 2reverse channel	N/Adate	2019/09/13time	01:31:34forward acquisition time	60.00reverse acquisition time	0.00gamma	496.2192k internal	0.2334k external	0.2334temperature offset calibration	1.0171default loss term (dB/km)	0.3790temperature slope calibration	1.0000multiplexer offset coefficient	1.0000multiplexer slope coefficient	1.0000fibre end	0.00T internal ref (°C)	27.81T ext. ref 1 (°C)	3.73T ext. ref 2 (°C)	22.43length (m)	temperature (°C)	Stokes	anti-Stokes-747.200	-200.000	-0.010	-0.269
-746.185	-17.089	-0.267	0.169
-745.171	-200.000	-0.036	-0.181
-744.156	-95.081	0.350	-0.095
-743.142	-152.815	0.223	-0.016
-742.127	600.733	-0.102	0.255
-741.112	-56.939	0.227	-0.101
-740.098	377.364	-0.014	-0.029
-739.083	800.000	0.166	0.528
-738.069	800.000	0.130	0.426
-737.054	-142.339	0.313	-0.031
-736.039	-6.564	0.059	-0.040
-735.025	409.781	-0.047	-0.100
-734.010	9.262	-0.062	0.047
-732.996	-200.000	0.006	0.046
-731.981	231.509	-0.214	0.353
-730.966	-55.604	0.292	0.131
-729.952	-86.004	-0.182	0.056
-728.937	-8.613	0.076	0.051
-727.923	-89.222	-0.071	0.021
-726.908	-200.000	0.032	0.191
-725.894	-17.704	-0.332	-0.209
-724.879	800.000	0.029	-0.079
-723.864	-200.000	0.003	0.169
-722.850	800.000	-0.005	-0.022
-721.835	19.396	0.077	0.062
-720.821	-188.942	-0.015	-0.000
-719.806	-145.495	-0.332	0.030
-718.791	141.922	-0.147	0.196
-717.777	-52.168	0.236	0.110
-716.762	-8.125	0.324	0.219
-715.748	-190.897	-0.380	-0.004
-714.733	-37.186	-0.364	0.195
-713.718	62.693	-0.160	-0.161
-712.704	800.000	0.022	0.074
-711.689	-72.179	-0.170	0.063
-710.675	-200.000	-0.047	-0.227
-709.660	-200.000	-0.009	-0.112
-708.645	297.671	-0.145	-0.267
-707.631	-87.067	-0.130	0.040
-706.616	-169.189	-0.219	0.008
-705.602	-99.191	0.218	0.055
-704.587	631.656	0.099	-0.251
-703.572	-46.323	0.065	-0.032
-702.558	800.000	0.145	0.565
-701.543	-103.657	-0.401	0.094
-700.529	23.457	0.188	0.155
-699.514	-20.553	0.109	0.067
-698.499	-200.000	0.013	-0.610
-697.485	-164.653	0.340	-0.015
-696.470	800.000	-0.047	0.192
-695.456	336.206	-0.190	-0.369
-694.441	800.000	0.053	0.180
-693.426	51.567	0.121	-0.115
-692.412	-98.745	-0.255	0.065
-691.397	-200.000	0.020	-0.110
-690.383	-200.000	0.064	-0.506
-689.368	-27.871	-0.318	0.185
-688.354	-189.966	-0.042	-0.000
-687.339	-95.392	-0.238	-0.064
-686.324	800.000	0.066	0.266
-685.310	-104.350	-0.235	-0.055
-684.295	33.183	-0.061	-0.053
-683.281	-99.956	-0.134	-0.034
-682.266	-100.761	-0.245	-0.061
-681.251	-149.532	-0.273	0.022
-680.237	391.184	-0.133	0.278
-679.222	-140.850	0.306	0.032
-678.208	571.938	-0.098	0.240
-677.193	212.064	-0.156	0.246
-676.178	-154.366	-0.091	-0.006
-675.164	-153.513	-0.299	0.021
-674.149	-71.006	0.099	0.037
-673.135	335.583	-0.055	0.107
-672.120	-141.402	0.418	-0.042
-671.105	-200.000	-0.008	0.167
-670.091	800.000	0.046	-0.137
-669.076	-73.473	0.132	0.048
-668.062	-200.000	0.033	-0.384
-667.047	-200.000	0.073	-0.000
-666.032	209.547	-0.119	-0.187
-665.018	387.017	-0.108	-0.223
-664.003	163.479	-0.164	0.230
-662.989	193.851	0.122	-0.185
-661.974	-200.000	-0.007	-0.401
-660.959	-200.000	0.042	-0.449
-659.945	-53.300	0.284	0.130
-658.930	40.032	-0.153	-0.137
-657.916	173.185	0.196	0.282
-656.901	-109.129	0.072	0.015
-655.886	738.575	-0.075	-0.202
-654.872	-200.000	0.045	0.383
-653.857	-85.809	-0.128	-0.040
-652.843	800.000	0.089	0.313
-651.828	-200.000	-0.001	-0.228
-650.814	271.454	0.170	-0.301
-649.799	-24.280	-0.317	0.189
-648.784	-85.494	-0.264	0.082
-647.770	6.621	0.149	-0.111
-646.755	-200.000	-0.003	-0.044
-645.741	0.162	0.216	0.154
-644.726	-200.000	0.002	0.102
-643.711	-88.937	0.091	-0.027
-642.697	-27.570	-0.084	0.049
-641.682	-39.286	0.149	-0.078
-640.668	283.082	0.101	-0.182
-639.653	-70.431	0.091	-0.034
-638.638	531.261	0.076	-0.179
-637.624	-200.000	-0.031	-0.339
-636.609	-77.113	0.200	0.070
-635.595	-23.659	-0.242	0.145
-634.580	53.818	-0.119	-0.114
-633.565	172.679	0.092	-0.132
-632.551	-46.547	-0.081	0.040
-631.536	371.838	0.164	-0.334
-630.522	-25.846	0.079	-0.046
-629.507	-79.781	0.158	0.053
-628.492	144.013	-0.196	0.261
-627.478	-33.322	0.246	0.136
-626.463	133.896	-0.091	-0.118
-625.449	-69.669	0.077	0.030
-624.434	2.394	-0.194	-0.141
-623.419	26.756	-0.242	0.202
-622.405	-115.467	0.077	0.015
-621.390	51.587	-0.029	-0.027
-620.376	42.411	0.174	-0.158
-619.361	-28.785	0.167	-0.096
-618.346	-20.060	-0.143	-0.088
-617.332	480.610	0.129	-0.293
-616.317	-17.215	0.180	0.114
-615.303	-35.850	-0.143	-0.077
-614.288	-200.000	-0.068	0.311
-613.273	-102.443	0.208	-0.050
-612.259	234.151	-0.102	-0.168
-611.244	-197.361	-0.383	-0.002
-610.230	-7.610	0.316	-0.214
-609.215	-200.000	0.004	-0.364
-608.201	276.743	-0.052	-0.092
-607.186	66.262	0.214	-0.217
-606.171	80.104	-0.275	-0.295
-605.157	3.193	0.042	-0.030
-604.142	-24.880	0.289	0.171
-603.128	-114.205	-0.377	-0.073
-602.113	-200.000	0.007	0.069
-601.098	-63.541	0.081	0.033
-600.084	-115.377	-0.274	-0.052
-599.069	-65.353	-0.136	0.055
-598.055	242.852	0.082	0.137
-597.040	177.142	-0.042	0.061
-596.025	-65.210	-0.323	0.130
-595.011	-200.000	0.021	0.097
-593.996	27.537	-0.219	0.184
-592.982	-200.000	-0.051	0.305
-591.967	-200.000	-0.030	0.175
-590.952	-73.679	0.410	-0.149
-589.938	83.380	-0.148	-0.161
-588.923	-19.766	-0.327	-0.202
-587.909	48.013	0.123	0.115
-586.894	409.798	-0.056	0.119
-585.879	-135.281	0.191	-0.023
-584.865	-200.000	-0.001	0.098
-583.850	180.922	-0.104	-0.152
-582.836	-200.000	0.004	-0.117
-581.821	99.877	0.083	0.096
-580.806	25.498	-0.251	-0.209
-579.792	-51.191	-0.055	-0.026
-578.777	48.927	0.192	-0.180
-577.763	-64.535	-0.234	-0.095
-576.748	238.862	0.011	-0.018
-575.733	800.000	-0.043	0.174
-574.719	146.339	0.180	0.241
-573.704	-68.877	0.313	-0.121
-572.690	-200.000	0.066	0.341
-571.675	-200.000	-0.003	0.072
-570.661	296.081	-0.172	0.314
-569.646	14.429	0.090	-0.070
-568.631	800.000	0.029	0.099
-567.617	274.507	-0.043	-0.077
-566.602	-176.533	-0.235	0.006
-565.588	95.047	-0.143	0.162
-564.573	-83.105	-0.107	-0.034
-563.558	248.098	-0.033	0.055
-562.544	694.137	0.039	-0.101
-561.529	800.000	-0.012	-0.048
-560.515	-104.208	0.310	0.072
-559.500	-200.000	-0.007	0.312
-558.485	87.152	-0.109	-0.120
-557.471	739.351	-0.071	-0.190
-556.456	-66.627	0.101	-0.040
-555.442	-174.820	0.095	0.003
-554.427	-200.000	0.010	-0.084
-553.412	-27.269	-0.023	-0.013
-552.398	-180.156	-0.132	0.003
-551.383	-200.000	-0.048	0.245
-550.369	-140.770	-0.409	-0.042
-549.354	800.000	-0.030	0.095
-548.339	-64.779	-0.172	-0.069
-547.325	800.000	-0.035	0.121
-546.310	-200.000	0.031	0.164
-545.296	-134.550	-0.326	-0.040
-544.281	-200.000	0.013	-0.149
-543.266	-121.623	-0.155	-0.026
-542.252	97.096	-0.075	-0.085
-541.237	193.062	0.178	-0.269
-540.223	-71.711	-0.294	-0.109
-539.208	800.000	-0.063	-0.200
-538.193	-62.955	0.109	0.045
-537.179	-53.272	-0.233	-0.106
-536.164	253.855	-0.077	-0.132
-535.150	17.411	0.028	-0.023
-534.135	-200.000	0.003	-0.340
-533.121	-200.000	-0.056	0.301
-532.106	-125.081	0.228	0.035
-531.091	-153.373	-0.287	-0.020
-530.077	-0.816	-0.089	-0.063
-529.062	-200.000	0.000	0.014
-528.048	-62.291	-0.119	-0.049
-527.033	-19.072	0.261	0.162
-526.018	265.921	-0.043	-0.076
-525.004	-200.000	0.019	0.458
-523.989	-86.226	0.296	-0.091
-522.975	6.289	0.186	0.137
-521.960	-5.654	-0.097	-0.066
-520.945	99.596	-0.180	-0.208
-519.931	-34.588	-0.163	-0.089
-518.916	-150.395	-0.135	0.010
-517.902	49.486	-0.200	0.187
-516.887	-129.606	0.288	0.040
-515.872	382.227	0.163	-0.334
-514.858	-123.277	-0.238	-0.038
-513.843	800.000	-0.009	0.031
-512.829	322.631	0.098	0.187
-511.814	29.836	0.131	0.111
-510.799	-70.191	0.137	0.052
-509.785	-167.076	0.193	0.008
-508.770	-34.305	0.235	-0.128
-507.756	800.000	0.112	-0.419
-506.741	-200.000	-0.013	0.176
-505.726	-87.351	-0.575	0.174
-504.712	-152.005	-0.033	0.002
-503.697	-98.766	0.177	-0.045
-502.683	501.583	-0.102	-0.235
-501.668	-67.487	0.030	0.012
-500.653	254.660	0.016	-0.027
-499.639	-49.565	0.202	-0.096
-498.624	-200.000	-0.073	-0.548
-497.610	99.990	-0.272	0.314
-496.595	-126.538	0.219	-0.032
-495.581	422.477	-0.037	0.079
-494.566	694.714	-0.046	0.120
-493.551	316.001	0.215	0.405
-492.537	-161.828	-0.200	-0.010
-491.522	123.242	0.226	-0.281
-490.508	-200.000	0.048	0.221
-489.493	-137.858	-0.159	-0.018
-488.478	800.000	-0.053	-0.213
-487.464	444.290	-0.119	0.260
-486.449	-15.924	-0.110	-0.069
-485.435	173.771	-0.115	0.165
-484.420	-113.795	0.525	0.102
-483.405	-200.000	-0.039	0.569
-482.391	4.206	-0.222	0.161
-481.376	-200.000	-0.003	0.091
-480.362	76.982	-0.202	-0.214
-479.347	800.000	-0.113	-0.470
-478.332	-200.000	-0.020	-0.252
-477.318	59.284	0.213	0.209
-476.303	388.339	0.087	-0.178
-475.289	-8.984	-0.376	0.250
-474.274	234.353	0.194	0.318
-473.259	-52.229	-0.136	-0.063
-472.245	191.890	0.154	0.231
-471.230	-200.000	-0.057	-0.289
-470.216	800.000	-0.119	0.507
-469.201	257.885	0.044	-0.075
-468.186	-200.000	0.012	0.449
-467.172	-137.802	-0.349	-0.039
-466.157	-22.616	-0.109	0.065
-465.143	-200.000	-0.023	-0.222
-464.128	800.000	-0.044	-0.190
-463.113	-200.000	0.011	0.170
-462.099	28.014	0.091	0.076
-461.084	800.000	-0.083	0.340
-460.070	8.124	0.124	-0.093
-459.055	-145.982	-0.282	-0.025
-458.040	289.205	-0.096	-0.173
-457.026	513.087	0.062	0.145
-456.011	696.313	-0.040	-0.104
-454.997	15.544	0.266	0.208
-453.982	399.636	-0.027	0.056
-452.968	232.240	0.024	-0.039
-451.953	102.148	-0.214	-0.249
-450.938	800.000	0.139	-0.489
-449.924	465.237	-0.066	-0.146
-448.909	-163.226	-0.093	0.004
-447.895	-200.000	0.078	-0.383
-446.880	800.000	0.053	0.166
-445.865	-35.410	-0.151	-0.081
-444.851	800.000	0.073	-0.247
-443.836	800.000	0.071	0.278
-442.822	-182.348	0.195	-0.004
-441.807	-139.944	0.236	-0.025
-440.792	-8.875	0.281	0.187
-439.778	-56.027	0.220	0.097
-438.763	-64.046	0.502	-0.204
-437.749	76.192	0.171	-0.179
-436.734	71.927	-0.096	-0.100
-435.719	-167.393	-0.308	0.012
-434.705	670.693	-0.125	-0.323
-433.690	800.000	0.022	0.076
-432.676	254.112	-0.161	-0.274
-431.661	-33.245	-0.174	-0.096
-430.646	-200.000	-0.047	0.279
-429.632	776.833	0.143	0.386
-428.617	-55.497	-0.030	0.013
-427.603	302.013	0.152	0.280
-426.588	364.623	-0.087	-0.174
-425.573	-200.000	-0.020	0.331
-424.559	158.021	0.007	-0.009
-423.544	-158.637	-0.197	0.011
-422.530	306.804	-0.069	-0.127
-421.515	104.562	-0.156	-0.183
-420.500	-200.000	0.047	0.229
-419.486	-200.000	0.022	0.111
-418.471	-17.866	-0.294	-0.183
-417.457	-200.000	-0.015	-0.136
-416.442	-200.000	0.059	-0.345
-415.428	-57.852	0.256	-0.111
-414.413	-136.362	-0.112	-0.013
-413.398	-139.858	-0.013	-0.001
-412.384	-175.635	0.181	0.005
-411.369	95.409	-0.034	0.038
-410.355	-135.419	-0.131	0.016
-409.340	-71.560	0.214	-0.079
-408.325	-107.306	0.342	0.075
-407.311	-200.000	-0.015	0.177
-406.296	786.769	0.129	-0.352
-405.282	77.367	0.189	0.199
-404.267	-102.348	0.050	-0.012
-403.252	49.335	0.099	0.093
-402.238	261.646	-0.150	0.258
-401.223	-200.000	-0.033	-0.237
-400.209	-148.018	0.162	-0.013
-399.194	-187.477	-0.336	-0.004
-398.179	741.160	0.134	-0.358
-397.165	575.808	-0.115	-0.279
-396.150	715.231	0.120	-0.315
-395.136	-199.727	0.177	-0.001
-394.121	-200.000	0.013	-0.135
-393.106	-200.000	-0.018	-0.299
-392.092	134.920	0.164	0.212
-391.077	316.027	0.195	-0.365
-390.063	-40.393	-0.214	-0.110
-389.048	-131.786	0.061	0.008
-388.033	530.380	-0.070	-0.163
-387.019	509.037	-0.126	0.290
-386.004	-116.461	-0.419	-0.077
-384.990	89.119	0.219	0.241
-383.975	206.976	-0.095	-0.146
-382.960	-200.000	-0.025	-0.155
-381.946	-106.816	0.045	-0.010
-380.931	-83.197	0.330	-0.105
-379.917	-200.000	0.048	0.293
-378.902	-96.495	-0.125	-0.033
-377.888	181.685	-0.127	-0.186
-376.873	110.287	-0.169	0.202
-375.858	800.000	-0.023	-0.086
-374.844	660.408	-0.178	-0.453
-373.829	-200.000	0.012	-0.111
-372.815	6.016	0.052	-0.038
-371.800	-19.853	-0.046	0.028
-370.785	-200.000	-0.010	-0.079
-369.771	-200.000	0.033	0.164
-368.756	54.130	-0.132	0.126
-367.742	461.425	-0.098	0.216
-366.727	-72.896	0.226	-0.082
-365.712	-200.000	0.019	0.206
-364.698	-151.902	-0.256	-0.019
-363.683	-158.108	-0.206	0.012
-362.669	-200.000	0.009	0.294
-361.654	-200.000	0.038	0.217
-360.639	-200.000	0.057	0.293
-359.625	-30.690	-0.145	0.081
-358.610	183.808	0.048	0.071
-357.596	-80.706	0.161	-0.053
-356.581	127.937	-0.069	-0.087
-355.566	70.632	0.053	0.054
-354.552	43.288	0.113	0.102
-353.537	-0.268	-0.205	-0.144
-352.523	20.672	0.019	0.016
-351.508	-173.258	0.085	-0.003
-350.493	-47.367	-0.257	-0.124
-349.479	-116.822	0.204	0.037
-348.464	-105.187	0.025	0.006
-347.450	-200.000	0.017	0.374
-346.435	102.324	-0.221	-0.256
-345.420	24.382	0.108	-0.088
-344.406	49.045	0.101	-0.094
-343.391	-178.378	0.288	0.007
-342.377	800.000	0.020	-0.079
-341.362	-27.118	0.053	0.031
-340.348	7.834	0.278	0.206
-339.333	-42.063	0.241	0.122
-338.318	-134.215	-0.222	-0.027
-337.304	-88.238	-0.203	-0.060
-336.289	318.601	0.031	-0.057
-335.275	800.000	0.045	-0.142
-334.260	800.000	0.062	-0.217
-333.245	-28.257	-0.370	-0.211
-332.231	172.790	0.145	-0.206
-331.216	-131.892	-0.270	-0.035
-330.202	190.256	-0.040	0.059
-329.187	-178.132	0.230	-0.005
-328.172	-83.407	-0.235	-0.074
-327.158	-86.825	0.243	0.074
-326.143	-22.320	0.080	0.048
-325.129	751.419	-0.082	0.220
-324.114	-71.257	0.214	0.079
-323.099	-200.000	-0.013	0.264
-322.085	-59.287	-0.302	-0.128
-321.070	-64.332	0.285	-0.115
-320.056	41.118	-0.369	-0.329
-319.041	-144.518	-0.257	-0.023
-318.026	330.925	0.108	0.205
-317.012	-27.575	0.349	0.201
-315.997	-107.328	0.303	-0.066
-314.983	-16.726	-0.213	-0.133
-313.968	-200.000	0.067	0.342
-312.953	-11.363	-0.440	0.286
-311.939	-48.514	0.127	0.060
-310.924	110.856	-0.170	-0.202
-309.910	-131.826	-0.116	0.015
-308.895	-179.744	-0.207	0.004
-307.880	79.318	-0.350	0.371
-306.866	800.000	-0.082	-0.349
-305.851	-127.061	-0.549	-0.080
-304.837	-121.456	0.242	-0.040
-303.822	216.056	-0.124	0.195
-302.807	800.000	0.029	-0.087
-301.793	-200.000	0.044	-0.279
-300.778	98.481	-0.191	0.218
-299.764	-200.000	0.036	0.211
-298.749	800.000	0.077	0.239
-297.735	435.826	-0.071	0.152
-296.720	-105.737	0.143	0.032
-295.705	-71.297	0.211	0.078
-294.691	800.000	0.034	0.116
-293.676	-15.783	0.120	0.076
-292.662	614.464	-0.160	-0.395
-291.647	413.418	-0.010	0.022
-290.632	-169.505	-0.178	-0.006
-289.618	-0.745	0.143	-0.100
-288.603	688.461	-0.100	-0.258
-287.589	757.639	0.060	0.161
-286.574	353.891	0.171	0.336
-285.559	-89.524	-0.186	0.054
-284.545	-70.443	0.249	0.093
-283.530	-200.000	0.011	0.310
-282.516	-200.000	-0.037	-0.332
-281.501	443.567	0.004	0.010
-280.486	349.485	-0.059	-0.116
-279.472	-99.163	0.218	0.054
-278.457	-200.000	-0.008	0.158
-277.443	800.000	0.072	-0.234
-276.428	-119.222	0.263	-0.045
-275.413	-200.000	-0.017	0.230
-274.399	-109.075	0.103	-0.022
-273.384	-6.321	-0.294	-0.198
-272.370	-37.640	0.275	-0.144
-271.355	87.193	-0.041	-0.045
-270.340	800.000	-0.087	0.317
-269.326	-16.363	0.144	-0.090
-268.311	-200.000	0.020	-0.230
-267.297	61.178	0.103	-0.101
-266.282	327.769	0.106	0.200
-265.267	306.338	-0.057	-0.104
-264.253	-200.000	0.004	-0.033
-263.238	336.307	-0.090	0.173
-262.224	-200.000	0.012	0.101
-261.209	-200.000	0.055	-0.296
-260.195	396.669	-0.186	0.383
-259.180	-134.180	0.121	0.015
-258.165	-91.716	-0.100	-0.028
-257.151	-30.112	0.099	0.055
-256.136	800.000	0.074	0.248
-255.122	-116.867	0.239	-0.043
-254.107	490.217	-0.072	0.161
-253.092	-77.327	-0.183	0.063
-252.078	102.452	0.058	0.067
-251.063	236.164	-0.057	0.094
-250.049	51.552	-0.144	0.134
-249.034	-46.914	0.142	-0.069
-248.019	-70.298	0.211	-0.079
-247.005	800.000	0.113	-0.392
-245.990	-108.514	-0.067	0.014
-244.976	19.817	-0.097	0.077
-243.961	-3.666	0.092	0.063
-242.946	800.000	-0.092	-0.285
-241.932	-119.699	-0.288	0.049
-240.917	380.520	0.084	0.169
-239.903	-200.000	0.094	0.508
-238.888	-200.000	-0.039	0.213
-237.873	-200.000	-0.029	-0.190
-236.859	270.937	0.083	0.144
-235.844	-113.895	0.080	0.015
-234.830	800.000	0.075	-0.241
-233.815	-200.000	0.001	0.112
-232.800	41.754	0.332	-0.297
-231.786	-200.000	0.063	0.276
-230.771	-143.335	-0.261	0.025
-229.757	361.818	-0.130	-0.256
-228.742	-82.449	0.073	-0.023
-227.727	-127.711	-0.333	-0.047
-226.713	7.424	0.168	-0.124
-225.698	8.155	0.308	0.228
-224.684	43.591	0.239	0.215
-223.669	-90.625	0.216	-0.061
-222.655	-143.788	0.052	0.005
-221.640	-23.452	-0.302	0.178
-220.625	223.829	0.037	-0.059
-219.611	-66.597	-0.275	-0.107
-218.596	800.000	0.157	0.539
-217.582	-162.633	-0.096	-0.005
-216.567	121.939	-0.110	-0.136
-215.552	210.812	0.036	-0.055
-214.538	341.842	-0.026	0.049
-213.523	282.636	-0.154	0.272
-212.509	70.757	0.086	-0.088
-211.494	-63.570	0.242	0.098
-210.479	-200.000	0.059	-0.380
-209.465	109.391	-0.134	0.158
-208.450	-163.074	0.331	-0.016
-207.436	-72.365	0.233	-0.085
-206.421	-12.779	0.204	0.131
-205.406	580.982	0.033	0.080
-204.392	-200.000	-0.003	-0.137
-203.377	800.000	0.021	0.089
-202.363	-1.568	0.066	0.046
-201.348	122.530	-0.280	0.344
-200.333	-73.441	0.167	0.060
-199.319	800.000	-0.022	0.087
-198.304	-0.935	0.037	-0.026
-197.290	132.599	0.209	0.265
-196.275	-200.000	0.072	-0.577
-195.260	243.254	-0.081	-0.134
-194.246	-200.000	-0.010	-0.268
-193.231	152.843	0.202	-0.271
-192.217	64.197	-0.237	0.234
-191.202	-20.949	0.162	-0.097
-190.187	-200.000	0.012	-0.096
-189.173	638.824	0.043	0.108
-188.158	-154.630	-0.145	-0.009
-187.144	54.396	0.250	-0.237
-186.129	-200.000	0.035	-0.203
-185.114	800.000	-0.062	0.181
-184.100	212.795	0.083	-0.129
-183.085	-13.973	0.109	0.070
-182.071	45.350	-0.109	0.098
-181.056	800.000	0.144	-0.408
-180.042	-200.000	-0.016	0.123
-179.027	-66.256	0.335	-0.131
-178.012	800.000	-0.006	-0.020
-176.998	-65.277	-0.089	0.035
-175.983	-192.977	0.370	-0.003
-174.969	-200.000	-0.023	-0.296
-173.954	-200.000	0.049	-0.321
-172.939	-200.000	-0.025	0.118
-171.925	-15.600	0.329	0.206
-170.910	-63.072	0.214	0.087
-169.896	-119.778	-0.488	-0.083
-168.881	800.000	-0.021	-0.072
-167.866	-144.928	0.188	0.017
-166.852	800.000	-0.099	0.331
-165.837	-8.342	0.104	-0.069
-164.823	-90.671	0.054	-0.015
-163.808	45.702	-0.150	0.136
-162.793	425.968	-0.132	0.280
-161.779	-163.367	0.139	0.007
-160.764	122.587	0.105	-0.129
-159.750	436.685	-0.135	0.289
-158.735	-130.408	0.010	-0.001
-157.720	469.717	0.108	0.237
-156.706	162.497	0.267	-0.368
-155.691	-97.259	-0.178	0.046
-154.677	96.665	-0.065	0.074
-153.662	178.370	0.020	-0.029
-152.647	-200.000	0.041	0.239
-151.633	-89.090	-0.434	0.126
-150.618	79.391	-0.137	0.144
-149.604	-102.032	0.050	-0.012
-148.589	-125.577	0.035	-0.005
-147.574	-63.001	0.452	0.183
-146.560	800.000	0.045	0.187
-145.545	800.000	-0.073	0.201
-144.531	285.472	0.051	0.090
-143.516	-158.357	-0.338	0.019
-142.502	-8.570	-0.073	-0.048
-141.487	467.855	-0.165	-0.363
-140.472	17.090	0.072	0.056
-139.458	-60.441	-0.344	-0.144
-138.443	800.000	0.062	0.197
-137.429	23.534	0.072	-0.058
-136.414	331.865	-0.102	-0.194
-135.399	183.064	-0.219	0.317
-134.385	-142.948	0.308	0.029
-133.370	686.943	-0.144	0.369
-132.356	-200.000	-0.006	0.321
-131.341	800.000	-0.104	0.331
-130.326	506.882	-0.157	-0.357
-129.312	-25.686	0.339	0.196
-128.297	42.271	0.271	-0.241
-127.283	-25.139	0.077	0.044
-126.268	373.383	0.101	-0.201
-125.253	-72.392	-0.366	-0.133
-124.239	-26.139	0.135	0.078
-123.224	-143.869	0.069	-0.006
-122.210	209.944	0.061	-0.094
