DTS Sentinel unit serial number:	SN413079Multiplexer serial number:	ORYXHardware model number:	OX4-SRSoftware version number:	ORYX F/W v4.00 Oryx Data Collector v3.7.2.0data status	okinstallation	princeton_trtdifferential loss correction	single-endedforward channel	channel 2reverse channel	N/Adate	2019/09/15time	02:15:35forward acquisition time	60.00reverse acquisition time	0.00gamma	496.2192k internal	0.2325k external	0.2325temperature offset calibration	1.0034default loss term (dB/km)	0.3790temperature slope calibration	1.0000multiplexer offset coefficient	1.0000multiplexer slope coefficient	1.0000fibre end	0.00T internal ref (°C)	31.62T ext. ref 1 (°C)	4.55T ext. ref 2 (°C)	26.18length (m)	temperature (°C)	Stokes	anti-Stokes-747.200	-200.000	0.014	-0.117
-746.185	-42.878	-0.187	-0.096
-745.171	72.600	-0.085	0.090
-744.156	74.230	0.161	-0.171
-743.142	800.000	0.017	-0.067
-742.127	121.120	0.217	0.273
-741.112	-200.000	0.086	-0.488
-740.098	-200.000	0.023	0.263
-739.083	-108.243	0.090	0.020
-738.069	800.000	0.039	0.160
-737.054	800.000	-0.123	-0.359
-736.039	-87.732	0.238	-0.072
-735.025	2.431	0.069	-0.051
-734.010	-47.410	0.103	-0.051
-732.996	-63.869	-0.202	0.083
-731.981	-46.955	-0.198	-0.098
-730.966	344.477	-0.117	-0.232
-729.952	800.000	0.087	-0.293
-728.937	377.999	-0.121	0.249
-727.923	224.655	-0.054	-0.087
-726.908	158.987	-0.190	-0.266
-725.894	800.000	0.062	0.251
-724.879	-200.000	0.036	0.163
-723.864	-200.000	0.290	0.001
-722.850	133.277	-0.180	-0.234
-721.835	-42.324	0.240	0.123
-720.821	279.829	0.105	-0.188
-719.806	86.873	-0.135	0.151
-718.791	-47.688	-0.134	-0.065
-717.777	-91.043	-0.394	0.114
-716.762	-167.583	-0.198	0.008
-715.748	-57.904	0.084	-0.037
-714.733	110.590	-0.108	-0.131
-713.718	-133.305	-0.137	-0.017
-712.704	197.414	-0.112	-0.173
-711.689	86.547	0.093	-0.103
-710.675	-200.000	-0.014	0.104
-709.660	-10.023	0.105	-0.070
-708.645	-101.821	0.122	-0.030
-707.631	-20.791	-0.262	-0.162
-706.616	24.782	-0.112	0.094
-705.602	-25.371	0.104	0.062
-704.587	-186.704	-0.143	0.002
-703.572	211.171	0.088	0.140
-702.558	34.925	0.015	0.013
-701.543	-137.595	-0.126	-0.014
-700.529	155.157	0.154	0.214
-699.514	-29.422	-0.346	-0.199
-698.499	-50.410	-0.146	-0.069
-697.485	387.102	0.046	-0.096
-696.470	63.606	0.172	-0.174
-695.456	46.232	0.249	-0.232
-694.441	132.261	-0.145	0.188
-693.426	476.735	-0.043	0.097
-692.412	-147.341	-0.145	0.012
-691.397	70.519	-0.034	-0.035
-690.383	147.353	-0.113	0.153
-689.368	800.000	-0.091	-0.395
-688.354	-200.000	-0.009	-0.395
-687.339	-200.000	-0.080	-0.395
-686.324	113.968	-0.015	-0.018
-685.310	-37.815	-0.068	-0.036
-684.295	-63.483	0.361	-0.149
-683.281	269.237	0.226	-0.398
-682.266	40.185	-0.125	0.113
-681.251	226.642	-0.137	-0.223
-680.237	71.786	-0.156	-0.163
-679.222	-200.000	-0.027	-0.141
-678.208	170.440	0.178	-0.256
-677.193	397.695	-0.082	-0.173
-676.178	58.496	-0.178	0.175
-675.164	96.516	0.125	-0.144
-674.149	16.768	0.065	0.052
-673.135	-43.185	-0.314	-0.160
-672.120	30.960	0.058	-0.050
-671.105	2.741	-0.168	-0.122
-670.091	-108.156	-0.118	-0.026
-669.076	-117.240	-0.209	0.038
-668.062	-200.000	0.006	0.055
-667.047	56.900	0.048	0.047
-666.032	-170.828	-0.444	-0.015
-665.018	-168.653	-0.027	0.001
-664.003	380.671	-0.068	-0.141
-662.989	-114.199	0.324	0.063
-661.974	-200.000	0.015	0.256
-660.959	-104.427	-0.293	-0.068
-659.945	104.302	0.139	-0.164
-658.930	-66.027	-0.147	0.059
-657.916	-200.000	-0.001	-0.292
-656.901	87.990	0.072	-0.080
-655.886	800.000	-0.021	-0.090
-654.872	-30.738	-0.377	0.215
-653.857	55.054	0.035	0.034
-652.843	-176.038	-0.172	0.005
-651.828	800.000	0.125	-0.362
-650.814	378.025	-0.164	-0.337
-649.799	800.000	0.017	-0.075
-648.784	-200.000	0.031	0.223
-647.770	-35.465	0.501	-0.274
-646.755	-111.288	-0.066	-0.014
-645.741	-6.230	-0.366	0.251
-644.726	-200.000	0.070	-0.356
-643.711	-33.455	-0.311	0.173
-642.697	-177.888	0.105	-0.003
-641.682	-135.589	-0.334	-0.040
-640.668	-74.442	0.405	0.147
-639.653	-70.166	0.230	-0.088
-638.638	-200.000	0.024	0.118
-637.624	-127.434	0.307	-0.045
-636.609	-60.995	-0.230	0.098
-635.595	-71.256	-0.093	-0.035
-634.580	134.966	-0.203	-0.266
-633.565	-190.553	-0.073	-0.001
-632.551	-19.508	0.114	0.071
-631.536	-64.070	0.471	0.193
-630.522	381.170	0.013	0.026
-629.507	800.000	0.057	-0.230
-628.492	-186.173	-0.264	-0.004
-627.478	-34.433	-0.138	-0.076
-626.463	35.563	-0.175	-0.155
-625.449	-200.000	0.026	-0.191
-624.434	-28.342	-0.132	0.077
-623.419	-89.776	0.023	0.007
-622.405	-35.059	0.367	-0.201
-621.390	0.212	-0.338	-0.242
-620.376	-19.544	-0.264	0.164
-619.361	772.881	0.074	0.202
-618.346	174.948	-0.038	-0.055
-617.332	446.994	0.069	0.153
-616.317	-88.347	0.187	-0.056
-615.303	389.639	0.028	-0.059
-614.288	-155.679	0.168	-0.011
-613.273	-146.457	-0.392	-0.034
-612.259	-9.975	0.245	0.164
-611.244	388.575	0.093	0.193
-610.230	-168.494	-0.228	0.009
-609.215	-200.000	0.067	0.347
-608.201	59.065	0.288	-0.284
-607.186	800.000	-0.037	-0.161
-606.171	-61.353	-0.296	0.125
-605.157	-169.548	-0.287	0.010
-604.142	-52.013	-0.271	-0.127
-603.128	800.000	-0.105	-0.367
-602.113	800.000	-0.032	-0.099
-601.098	10.260	-0.322	-0.246
-600.084	-97.916	0.145	0.038
-599.069	380.751	0.087	-0.180
-598.055	2.205	-0.260	0.189
-597.040	369.473	0.064	-0.130
-596.025	47.498	0.194	0.181
-595.011	-90.648	-0.173	0.050
-593.996	-200.000	-0.005	-0.186
-592.982	258.504	-0.080	-0.138
-591.967	-200.000	-0.004	0.137
-590.952	-176.482	-0.168	-0.004
-589.938	-200.000	0.024	0.163
-588.923	-142.470	0.204	-0.020
-587.909	142.984	-0.230	0.307
-586.894	-28.251	0.232	0.134
-585.879	-88.016	0.383	-0.115
-584.865	-53.949	-0.340	0.155
-583.850	85.627	0.218	-0.240
-582.836	234.738	0.182	-0.302
-581.821	-200.000	0.007	-0.106
-580.806	104.061	-0.060	0.071
-579.792	-141.283	-0.281	-0.029
-578.777	800.000	0.052	-0.180
-577.763	-10.003	-0.135	0.090
-576.748	144.982	-0.196	-0.263
-575.733	-64.410	-0.156	-0.064
-574.719	-134.011	0.269	0.033
-573.704	800.000	0.090	-0.262
-572.690	-200.000	0.021	-0.167
-571.675	-200.000	-0.017	-0.111
-570.661	-98.291	0.158	0.041
-569.646	-34.315	-0.128	0.070
-568.631	757.013	0.021	-0.056
-567.617	-200.000	-0.025	-0.180
-566.602	468.322	0.104	0.235
-565.588	-167.275	-0.088	0.004
-564.573	-162.319	0.103	0.005
-563.558	-3.871	0.146	-0.102
-562.544	-136.211	-0.177	0.021
-561.529	-200.000	-0.036	-0.236
-560.515	64.719	-0.081	-0.081
-559.500	61.483	0.211	-0.211
-558.485	800.000	0.063	-0.207
-557.471	-159.233	0.092	-0.005
-556.456	-200.000	-0.027	0.263
-555.442	84.383	-0.040	-0.043
-554.427	-145.113	-0.365	0.033
-553.412	-197.020	0.204	0.001
-552.398	-24.233	0.209	-0.125
-551.383	35.407	-0.113	0.100
-550.369	221.889	-0.173	-0.278
-549.354	134.367	-0.061	0.079
-548.339	119.915	-0.135	0.167
-547.325	52.263	-0.308	0.294
-546.310	800.000	-0.048	0.169
-545.296	800.000	-0.044	0.155
-544.281	376.258	-0.037	0.075
-543.266	-102.080	-0.190	0.046
-542.252	-200.000	-0.070	0.333
-541.237	71.159	0.069	0.071
-540.223	-66.594	0.278	0.110
-539.208	800.000	-0.024	0.097
-538.193	12.238	-0.148	-0.114
-537.179	536.999	-0.051	-0.120
-536.164	-200.000	-0.063	-0.332
-535.150	555.550	-0.098	0.236
-534.135	-13.359	-0.146	-0.095
-533.121	148.701	-0.163	-0.220
-532.106	800.000	0.101	-0.312
-531.091	800.000	-0.087	0.276
-530.077	462.136	0.064	-0.143
-529.062	33.729	-0.260	-0.226
-528.048	-65.921	0.111	0.044
-527.033	-200.000	-0.076	0.415
-526.018	-131.316	0.506	0.067
-525.004	170.381	-0.182	-0.260
-523.989	291.641	0.259	-0.471
-522.975	-65.478	-0.195	-0.078
-521.960	-103.559	0.132	-0.031
-520.945	130.171	0.024	0.031
-519.931	-18.645	-0.270	0.169
-518.916	22.253	-0.184	0.150
-517.902	659.356	0.123	0.318
-516.887	-78.137	-0.165	-0.057
-515.872	468.448	-0.004	-0.009
-514.858	222.264	-0.071	-0.114
-513.843	105.066	0.171	-0.202
-512.829	-20.113	0.315	0.194
-511.814	800.000	0.027	-0.100
-510.799	-200.000	0.032	0.168
-509.785	310.051	-0.087	0.162
-508.770	-145.158	-0.224	0.020
-507.756	133.934	0.118	0.153
-506.741	-200.000	0.028	0.230
-505.726	97.831	0.239	0.275
-504.712	348.564	-0.107	0.211
-503.697	-46.105	-0.349	-0.172
-502.683	-2.039	0.093	0.065
-501.668	800.000	0.031	-0.102
-500.653	62.807	0.247	-0.247
-499.639	-84.609	-0.026	-0.008
-498.624	-200.000	-0.017	-0.485
-497.610	-200.000	0.041	-0.403
-496.595	-200.000	0.035	0.183
-495.581	-154.839	-0.362	-0.024
-494.566	800.000	-0.028	0.117
-493.551	-200.000	-0.009	-0.060
-492.537	-162.950	0.120	-0.006
-491.522	800.000	-0.103	-0.309
-490.508	268.208	-0.066	-0.116
-489.493	-200.000	0.014	0.144
-488.478	-156.311	0.173	-0.011
-487.464	10.460	-0.070	-0.053
-486.449	-200.000	-0.004	0.075
-485.435	395.543	0.136	0.283
-484.420	800.000	-0.103	0.353
-483.405	134.312	-0.172	0.223
-482.391	-8.851	-0.114	0.076
-481.376	150.677	-0.131	-0.177
-480.362	-200.000	-0.003	-0.253
-479.347	3.417	-0.089	0.064
-478.332	-17.252	-0.141	0.089
-477.318	800.000	-0.024	-0.077
-476.303	-200.000	-0.011	0.108
-475.289	-200.000	0.021	0.116
-474.274	412.085	-0.076	0.161
-473.259	21.311	0.026	0.021
-472.245	-200.000	0.019	-0.219
-471.230	-38.021	-0.318	-0.169
-470.216	190.050	0.198	0.297
-469.201	20.625	-0.180	0.146
-468.186	-200.000	-0.004	0.032
-467.172	-197.816	0.106	-0.001
-466.157	-57.478	0.303	-0.133
-465.143	64.866	-0.162	0.163
-464.128	-200.000	0.047	-0.331
-463.113	339.778	0.056	0.108
-462.099	-190.983	-0.272	-0.003
-461.084	-200.000	-0.084	-0.371
-460.070	763.510	0.048	-0.131
-459.055	110.982	-0.050	-0.060
-458.040	800.000	-0.040	-0.113
-457.026	800.000	-0.021	0.067
-456.011	-200.000	0.021	0.166
-454.997	800.000	-0.033	0.118
-453.982	4.844	0.172	-0.126
-452.968	-200.000	0.029	-0.225
-451.953	800.000	-0.060	-0.243
-450.938	-200.000	-0.002	0.333
-449.924	236.530	0.149	-0.245
-448.909	248.652	-0.118	0.200
-447.895	471.519	0.058	-0.130
-446.880	-200.000	-0.005	-0.186
-445.865	-200.000	0.013	-0.411
-444.851	-86.048	0.062	-0.019
-443.836	-74.140	-0.066	0.024
-442.822	-200.000	0.031	0.437
-441.807	281.837	-0.037	0.066
-440.792	727.097	0.145	0.387
-439.778	800.000	-0.034	0.135
-438.763	-176.004	0.257	0.007
-437.749	-52.211	-0.050	-0.023
-436.734	163.764	0.109	-0.153
-435.719	78.817	-0.263	0.281
-434.705	100.168	-0.049	-0.057
-433.690	-200.000	0.015	0.280
-432.676	374.326	0.084	0.171
-431.661	-102.342	-0.469	0.112
-430.646	-189.240	0.285	0.003
-429.632	-104.472	-0.192	0.044
-428.617	151.223	-0.131	0.178
-427.603	-147.844	0.075	0.006
-426.588	378.475	-0.109	0.222
-425.573	-59.589	0.373	-0.159
-424.559	265.590	-0.022	0.038
-423.544	-123.637	0.119	-0.019
-422.530	800.000	0.054	0.229
-421.515	234.496	-0.128	-0.209
-420.500	800.000	-0.062	-0.175
-419.486	-200.000	-0.047	-0.260
-418.471	800.000	0.036	0.103
-417.457	800.000	0.047	-0.147
-416.442	275.747	0.037	0.066
-415.428	471.145	-0.047	-0.105
-414.413	348.474	0.128	-0.252
-413.398	-85.889	-0.083	0.026
-412.384	-33.055	0.170	-0.094
-411.369	800.000	0.052	0.145
-410.355	86.989	-0.225	-0.247
-409.340	145.746	-0.095	-0.127
-408.325	182.436	0.131	0.192
-407.311	-178.267	0.266	0.006
-406.296	-66.821	-0.292	-0.115
-405.282	-106.523	-0.207	0.046
-404.267	623.801	0.060	-0.150
-403.252	130.720	-0.140	-0.178
-402.238	800.000	0.024	0.096
-401.223	-200.000	0.023	-0.136
-400.209	-67.527	-0.136	0.053
-399.194	-118.039	0.195	0.035
-398.179	-106.208	-0.271	-0.060
-397.165	-200.000	0.010	0.052
-396.150	-10.498	0.351	0.232
-395.136	-84.677	0.366	-0.115
-394.121	800.000	0.027	-0.095
-393.106	-106.133	-0.309	0.069
-392.092	-200.000	-0.082	0.449
-391.077	-200.000	0.033	0.224
-390.063	330.400	-0.126	0.242
-389.048	-58.119	0.120	-0.052
-388.033	-45.306	-0.121	-0.060
-387.019	-200.000	-0.022	-0.220
-386.004	-45.081	0.176	0.087
-384.990	-53.285	-0.164	0.075
-383.975	-19.104	0.114	-0.071
-382.960	-107.736	0.273	0.059
-381.946	800.000	-0.041	-0.135
-380.931	-33.881	0.100	-0.055
-379.917	-78.267	0.259	-0.089
-378.902	-45.394	-0.294	-0.145
-377.888	68.609	-0.315	0.321
-376.873	-74.430	-0.183	0.066
-375.858	-81.508	0.069	-0.022
-374.844	443.083	-0.096	-0.208
-373.829	516.592	-0.131	-0.304
-372.815	-111.142	-0.071	-0.014
-371.800	538.762	0.075	-0.177
-370.785	-32.022	0.092	-0.051
-369.771	767.148	-0.046	-0.124
-368.756	-53.198	-0.018	0.008
-367.742	-200.000	0.025	-0.171
-366.727	75.674	0.020	-0.021
-365.712	-140.901	-0.010	0.001
-364.698	-114.789	0.481	0.091
-363.683	343.605	-0.030	0.058
-362.669	158.093	0.128	0.177
-361.654	-151.931	-0.124	0.009
-360.639	-61.774	0.212	0.088
-359.625	-100.609	-0.047	0.012
-358.610	-149.479	0.190	-0.015
-357.596	171.496	0.190	-0.271
-356.581	29.354	0.131	0.111
-355.566	75.419	0.192	0.202
-354.552	-151.219	-0.265	0.020
-353.537	55.809	0.230	0.221
-352.523	-122.568	0.213	0.034
-351.508	111.664	0.201	0.241
-350.493	1.807	-0.304	-0.218
-349.479	-200.000	-0.034	-0.242
-348.464	42.144	-0.074	0.067
-347.450	-77.724	0.267	-0.092
-346.435	-200.000	-0.069	0.541
-345.420	800.000	0.108	0.305
-344.406	-200.000	-0.017	0.246
-343.391	222.810	-0.112	0.180
-342.377	393.214	-0.115	-0.238
-341.362	-82.903	-0.157	0.050
-340.348	24.199	-0.214	-0.176
-339.333	-200.000	-0.040	-0.321
-338.318	-105.916	0.394	0.088
-337.304	262.708	-0.123	-0.213
-336.289	-73.657	-0.226	-0.082
-335.275	411.333	0.117	-0.246
-334.260	39.853	-0.143	-0.127
-333.245	-200.000	-0.012	0.126
-332.231	-34.113	-0.281	0.153
-331.216	-200.000	0.048	0.299
-330.202	800.000	-0.033	0.104
-329.187	-200.000	0.009	-0.122
-328.172	539.694	-0.077	0.181
-327.158	-98.884	-0.187	0.047
-326.143	-200.000	-0.019	0.226
-325.129	-200.000	0.072	0.456
-324.114	-200.000	0.016	0.427
-323.099	177.685	0.064	-0.092
-322.085	191.491	0.054	-0.080
-321.070	-80.812	-0.409	0.135
-320.056	60.595	0.206	0.203
-319.041	800.000	0.089	0.248
-318.026	800.000	0.039	-0.158
-317.012	222.934	-0.025	0.039
-315.997	97.194	0.111	0.126
-314.983	313.300	-0.090	0.167
-313.968	14.110	-0.233	0.180
-312.953	-200.000	-0.028	0.295
-311.939	-63.471	-0.131	-0.053
-310.924	-200.000	0.083	-0.476
-309.910	-138.020	0.227	-0.025
-308.895	-55.032	0.191	0.085
-307.880	-131.374	0.100	0.013
-306.866	521.189	-0.281	0.654
-305.851	-15.919	0.172	0.109
-304.837	-153.655	0.190	0.013
-303.822	-149.562	-0.136	-0.011
-302.807	-200.000	0.013	0.145
-301.793	-75.361	0.219	0.077
-300.778	68.404	-0.270	-0.274
-299.764	-194.250	0.164	0.001
-298.749	721.638	0.034	0.091
-297.735	442.365	-0.107	-0.232
-296.720	113.868	0.015	-0.018
-295.705	-129.567	0.197	-0.027
-294.691	-200.000	0.036	0.259
-293.676	-200.000	-0.007	0.218
-292.662	360.420	0.149	0.296
-291.647	101.912	0.213	0.247
-290.632	-200.000	-0.002	-0.218
-289.618	726.147	-0.025	0.065
-288.603	84.492	0.091	-0.099
-287.589	-53.170	0.199	-0.090
-286.574	24.047	-0.206	0.168
-285.559	50.720	-0.160	-0.150
-284.545	-200.000	-0.009	-0.056
-283.530	-34.346	-0.253	-0.137
-282.516	-200.000	-0.004	-0.243
-281.501	480.692	0.122	0.275
-280.486	548.214	-0.032	0.075
-279.472	800.000	0.062	-0.181
-278.457	32.985	-0.137	-0.118
-277.443	-40.683	0.388	-0.199
-276.428	-166.386	-0.208	-0.009
-275.413	48.542	-0.167	-0.155
-274.399	134.457	-0.216	0.278
-273.384	489.135	-0.126	0.285
-272.370	-200.000	-0.013	-0.107
-271.355	-193.695	0.231	-0.002
-270.340	-7.732	0.121	0.081
-269.326	-89.201	0.241	0.070
-268.311	-143.270	-0.123	0.012
-267.297	45.681	-0.147	0.134
-266.282	-127.374	-0.266	0.038
-265.267	71.428	0.157	0.161
-264.253	180.485	-0.008	0.012
-263.238	125.037	-0.114	0.142
-262.224	240.614	0.119	-0.197
-261.209	712.432	-0.065	0.171
-260.195	-96.155	0.152	-0.040
-259.180	-200.000	0.023	-0.141
-258.165	85.548	-0.131	0.142
-257.151	10.955	-0.249	0.188
-256.136	800.000	-0.087	0.258
-255.122	800.000	-0.050	0.189
-254.107	-120.196	-0.192	-0.033
-253.092	246.729	-0.158	-0.263
-252.078	331.749	-0.077	-0.146
-251.063	-200.000	0.040	-0.390
-250.049	-103.883	0.068	-0.016
-249.034	113.449	-0.182	-0.218
-248.019	-153.370	-0.357	0.025
-247.005	-38.176	0.076	0.040
-245.990	383.840	0.106	0.217
-244.976	537.599	0.084	-0.197
-243.961	-19.588	0.443	-0.271
-242.946	-86.219	-0.315	0.096
-241.932	226.976	-0.159	-0.256
-240.917	-87.961	0.281	0.084
-239.903	18.238	-0.061	-0.049
-238.888	-200.000	0.003	0.303
-237.873	11.589	0.048	0.037
-236.859	17.499	0.081	-0.063
-235.844	154.215	0.100	-0.135
-234.830	-44.118	-0.224	-0.111
-233.815	-37.690	-0.147	-0.077
-232.800	32.515	0.168	-0.143
-231.786	246.675	-0.070	-0.117
-230.771	-0.405	0.143	-0.100
-229.757	3.302	0.093	0.067
-228.742	-102.175	0.335	0.080
-227.727	-179.986	0.199	-0.004
-226.713	-106.853	0.091	-0.020
-225.698	-65.770	-0.133	0.053
-224.684	229.195	0.037	-0.060
-223.669	-47.193	-0.386	0.186
-222.655	-200.000	0.084	0.388
-221.640	2.764	0.168	0.120
-220.625	70.517	0.044	0.045
-219.611	-88.980	0.166	-0.049
-218.596	-165.862	-0.398	0.017
-217.582	-200.000	0.006	-0.394
-216.567	-200.000	-0.019	-0.123
-215.552	89.874	0.045	-0.050
-214.538	-10.860	-0.093	0.061
-213.523	574.154	0.092	-0.222
-212.509	-162.067	-0.248	-0.012
-211.494	-28.790	-0.243	-0.138
-210.479	-135.384	0.252	0.030
-209.465	-104.293	0.190	0.044
-208.450	-140.073	-0.354	0.037
-207.436	-110.660	0.454	0.093
-206.421	6.837	0.295	-0.217
-205.406	-63.952	0.312	-0.126
-204.392	-200.000	0.006	-0.040
-203.377	-200.000	-0.010	0.211
-202.363	-200.000	0.042	0.242
-201.348	-110.058	0.087	0.018
-200.333	-82.627	0.260	-0.083
-199.319	800.000	-0.044	-0.138
-198.304	-200.000	0.005	-0.237
-197.290	20.705	0.252	0.202
-196.275	-94.786	0.168	-0.045
-195.260	373.527	-0.194	0.389
-194.246	288.754	0.184	0.328
-193.231	-129.376	0.136	-0.019
-192.217	-22.427	0.036	-0.021
-191.202	318.719	0.265	-0.496
-190.187	-36.268	-0.124	-0.066
-189.173	14.952	-0.090	-0.070
-188.158	-130.529	0.227	-0.030
-187.144	-142.826	0.170	-0.016
-186.129	-200.000	-0.141	0.618
-185.114	266.769	-0.186	0.320
-184.100	176.372	-0.061	-0.087
-183.085	-21.866	0.280	-0.168
-182.071	-200.000	-0.003	-0.185
-181.056	278.989	-0.149	-0.262
-180.042	113.635	-0.093	0.112
-179.027	85.125	0.171	-0.185
-178.012	800.000	0.077	-0.214
-176.998	-141.264	0.224	0.023
-175.983	-200.000	-0.016	-0.332
-174.969	115.514	0.057	-0.068
-173.954	14.369	0.097	-0.074
-172.939	-200.000	0.006	-0.259
-171.925	757.481	-0.015	0.041
-170.910	-70.217	0.326	0.122
-169.896	79.974	0.188	-0.200
-168.881	12.104	-0.029	0.022
-167.866	64.824	0.179	-0.178
-166.852	226.905	-0.053	0.085
-165.837	-131.539	0.139	-0.018
-164.823	-172.997	-0.198	0.006
-163.808	306.481	-0.040	-0.073
-162.793	800.000	-0.015	-0.054
-161.779	-36.610	0.260	0.138
-160.764	-114.263	-0.243	0.046
-159.750	399.170	0.094	-0.193
-158.735	339.925	-0.090	0.173
-157.720	31.365	-0.116	0.098
-156.706	-200.000	0.021	0.092
-155.691	-65.691	-0.048	-0.019
-154.677	-1.382	0.196	0.137
-153.662	800.000	-0.082	-0.294
-152.647	72.740	0.152	-0.157
-151.633	-134.113	-0.248	0.030
-150.618	-162.152	-0.380	0.019
-149.604	61.053	0.119	-0.117
-148.589	-83.668	0.181	-0.057
-147.574	-137.401	0.352	-0.039
-146.560	436.855	0.070	-0.150
-145.545	-125.499	-0.072	-0.011
-144.531	-200.000	0.012	-0.228
-143.516	737.366	0.105	-0.277
-142.502	225.873	0.138	0.220
-141.487	65.835	0.212	0.212
-140.472	69.050	-0.130	0.131
-139.458	183.436	0.108	-0.158
-138.443	-12.899	0.225	0.145
-137.429	108.790	0.279	0.328
-136.414	90.225	0.045	0.050
-135.399	800.000	0.098	0.272
-134.385	-6.827	-0.124	0.083
-133.370	-111.092	-0.190	-0.038
-132.356	41.017	-0.153	-0.137
-131.341	532.857	0.044	-0.104
-130.326	280.082	0.076	-0.134
-129.312	128.546	0.089	-0.112
-128.297	-181.413	0.440	-0.009
-127.283	-200.000	0.035	0.211
-126.268	111.822	-0.122	0.146
-125.253	569.246	-0.092	0.221
-124.239	448.541	-0.164	-0.355
-123.224	-40.168	-0.159	-0.081
-122.210	-121.197	0.143	0.024
