DTS Sentinel unit serial number:	SN413079Multiplexer serial number:	ORYXHardware model number:	OX4-SRSoftware version number:	ORYX F/W v4.00 Oryx Data Collector v3.7.2.0data status	okinstallation	princeton_trtdifferential loss correction	single-endedforward channel	channel 2reverse channel	N/Adate	2019/09/12time	14:45:11forward acquisition time	60.00reverse acquisition time	0.00gamma	496.2192k internal	0.2301k external	0.2301temperature offset calibration	1.0087default loss term (dB/km)	0.3790temperature slope calibration	1.0000multiplexer offset coefficient	1.0000multiplexer slope coefficient	1.0000fibre end	0.00T internal ref (°C)	40.19T ext. ref 1 (°C)	2.30T ext. ref 2 (°C)	37.04length (m)	temperature (°C)	Stokes	anti-Stokes-747.200	350.430	0.089	0.180
-746.185	32.170	0.195	0.171
-745.171	-4.587	-0.208	-0.146
-744.156	395.558	-0.138	0.294
-743.142	48.954	-0.219	0.210
-742.127	-1.973	-0.312	0.224
-741.112	192.453	-0.098	0.151
-740.098	528.607	-0.095	-0.228
-739.083	-200.000	0.025	-0.176
-738.069	237.003	-0.077	0.129
-737.054	103.027	-0.260	0.311
-736.039	211.575	-0.122	-0.195
-735.025	-0.534	0.220	0.159
-734.010	75.305	-0.145	0.156
-732.996	-121.647	-0.271	0.046
-731.981	800.000	-0.127	0.413
-730.966	800.000	0.043	-0.141
-729.952	-72.786	-0.066	-0.025
-728.937	-33.272	-0.112	0.063
-727.923	-103.242	-0.067	0.016
-726.908	218.802	-0.225	0.367
-725.894	310.048	-0.232	0.442
-724.879	-140.631	0.353	-0.037
-723.864	54.749	0.143	-0.140
-722.850	121.153	-0.162	-0.205
-721.835	687.319	0.022	0.060
-720.821	48.262	-0.128	0.122
-719.806	-130.708	-0.391	0.054
-718.791	597.877	0.125	-0.317
-717.777	-178.175	0.224	0.005
-716.762	587.297	0.188	-0.472
-715.748	-70.354	0.130	0.050
-714.733	156.451	0.016	0.023
-713.718	-200.000	0.055	0.352
-712.704	259.237	-0.173	-0.304
-711.689	-44.922	0.165	-0.084
-710.675	-61.203	0.067	0.029
-709.660	-36.384	0.095	0.052
-708.645	44.594	-0.235	0.220
-707.631	-38.995	-0.121	-0.065
-706.616	-8.386	-0.240	-0.165
-705.602	534.641	-0.046	0.112
-704.587	765.668	0.080	0.222
-703.572	631.120	-0.062	-0.161
-702.558	61.864	-0.019	0.020
-701.543	-30.198	0.242	-0.140
-700.529	-125.581	-0.301	-0.046
-699.514	-90.411	-0.247	-0.073
-698.499	-74.538	0.144	0.053
-697.485	176.924	-0.082	0.121
-696.470	-92.835	0.145	0.041
-695.456	192.659	-0.068	-0.104
-694.441	-83.456	-0.207	0.068
-693.426	277.370	0.096	-0.174
-692.412	175.682	0.289	-0.426
-691.397	-200.000	-0.001	-0.028
-690.383	119.575	-0.087	0.110
-689.368	-22.301	0.192	0.119
-688.354	-200.000	-0.011	0.070
-687.339	-200.000	0.006	0.205
-686.324	301.393	-0.105	0.198
-685.310	-200.000	-0.038	0.411
-684.295	-7.268	-0.101	-0.070
-683.281	27.989	-0.339	-0.291
-682.266	800.000	-0.122	-0.369
-681.251	-47.455	-0.140	0.069
-680.237	52.093	-0.054	0.052
-679.222	-82.571	0.155	0.051
-678.208	-92.697	0.137	0.039
-677.193	-123.568	-0.321	-0.052
-676.178	-120.103	-0.212	0.037
-675.164	-71.695	0.170	0.065
-674.149	-200.000	-0.001	0.018
-673.135	-142.228	-0.228	-0.023
-672.120	83.069	0.045	0.050
-671.105	20.114	0.220	-0.181
-670.091	-183.712	0.215	0.004
-669.076	-35.115	0.268	0.148
-668.062	-200.000	0.011	0.055
-667.047	-85.942	0.358	-0.112
-666.032	381.874	0.114	-0.237
-665.018	-200.000	0.079	-0.375
-664.003	-200.000	-0.009	0.070
-662.989	0.627	-0.283	0.205
-661.974	-67.398	-0.199	-0.079
-660.959	258.040	0.072	0.127
-659.945	-164.408	-0.223	-0.010
-658.930	-29.268	0.277	0.161
-657.916	-200.000	-0.078	-0.486
-656.901	-200.000	-0.015	0.142
-655.886	-200.000	0.035	-0.287
-654.872	-72.976	-0.278	-0.104
-653.857	491.135	0.061	0.143
-652.843	-23.851	0.198	0.120
-651.828	800.000	0.037	0.150
-650.814	129.771	-0.163	-0.212
-649.799	17.001	-0.117	0.094
-648.784	-101.107	-0.097	-0.024
-647.770	-200.000	0.013	0.161
-646.755	-200.000	0.016	-0.250
-645.741	-200.000	-0.060	-0.442
-644.726	-35.246	0.048	-0.027
-643.711	-117.666	-0.344	0.063
-642.697	-200.000	0.023	0.188
-641.682	800.000	0.038	0.138
-640.668	-200.000	0.067	0.343
-639.653	800.000	0.092	0.386
-638.638	800.000	0.026	-0.090
-637.624	-200.000	-0.008	-0.057
-636.609	-188.513	0.302	-0.004
-635.595	800.000	0.047	0.188
-634.580	-25.413	0.031	-0.019
-633.565	-145.776	0.303	-0.027
-632.551	357.129	-0.094	0.190
-631.536	-200.000	0.027	0.183
-630.522	-200.000	0.004	0.210
-629.507	-119.147	-0.243	0.043
-628.492	222.384	0.195	0.318
-627.478	4.102	-0.042	0.031
-626.463	-75.332	-0.382	0.138
-625.449	-200.000	0.023	0.241
-624.434	-84.266	0.218	0.070
-623.419	-178.413	-0.139	0.003
-622.405	-71.936	-0.142	-0.054
-621.390	70.863	0.115	0.121
-620.376	86.413	-0.101	0.113
-619.361	736.896	-0.133	-0.363
-618.346	-173.923	-0.329	0.010
-617.332	529.160	0.137	-0.329
-616.317	10.416	0.204	0.157
-615.303	-35.837	-0.241	-0.133
-614.288	44.985	0.143	-0.134
-613.273	12.596	-0.219	-0.172
-612.259	-130.023	0.237	-0.033
-611.244	-200.000	-0.011	0.135
-610.230	418.554	0.064	-0.138
-609.215	61.247	0.079	-0.080
-608.201	-87.102	-0.302	-0.093
-607.186	-52.852	-0.101	-0.047
-606.171	30.642	0.023	0.020
-605.157	-151.201	-0.045	-0.003
-604.142	187.051	0.129	-0.195
-603.128	-123.994	0.287	0.046
-602.113	-96.982	0.411	0.109
-601.098	37.973	-0.231	0.208
-600.084	47.924	0.306	0.290
-599.069	800.000	0.047	-0.189
-598.055	219.845	0.147	0.238
-597.040	-200.000	0.067	0.335
-596.025	-131.071	-0.206	-0.028
-595.011	69.719	-0.102	0.107
-593.996	-200.000	0.048	-0.257
-592.982	-200.000	-0.011	0.072
-591.967	-109.113	-0.103	0.022
-590.952	-19.051	-0.091	0.057
-589.938	-200.000	-0.024	0.167
-588.923	471.990	-0.078	-0.177
-587.909	-200.000	0.059	-0.318
-586.894	51.508	0.106	0.102
-585.879	150.279	-0.041	0.057
-584.865	-2.749	-0.181	0.129
-583.850	-200.000	-0.018	-0.096
-582.836	-200.000	-0.007	0.137
-581.821	-7.569	0.148	-0.102
-580.806	800.000	-0.025	-0.082
-579.792	139.294	0.275	-0.367
-578.777	109.306	0.076	-0.092
-577.763	800.000	-0.051	0.208
-576.748	-200.000	0.050	0.268
-575.733	-113.191	-0.216	0.043
-574.719	-200.000	0.056	-0.324
-573.704	-200.000	-0.044	-0.368
-572.690	354.931	-0.174	0.350
-571.675	-200.000	-0.023	-0.309
-570.661	90.840	0.115	0.130
-569.646	202.250	0.174	0.271
-568.631	231.158	-0.083	-0.138
-567.617	-6.467	-0.109	0.075
-566.602	-149.810	-0.203	-0.016
-565.588	13.995	0.099	-0.078
-564.573	-200.000	-0.035	-0.472
-563.558	-42.348	-0.258	-0.134
-562.544	13.044	0.118	-0.092
-561.529	116.677	-0.089	-0.111
-560.515	-152.527	0.363	0.026
-559.500	-200.000	-0.016	0.113
-558.485	-196.426	-0.155	0.001
-557.471	486.291	0.117	0.270
-556.456	800.000	0.073	0.260
-555.442	257.361	0.120	-0.210
-554.427	254.664	0.180	-0.312
-553.412	110.871	-0.064	-0.078
-552.398	-136.069	-0.250	0.030
-551.383	40.290	-0.170	0.155
-550.369	299.912	-0.124	0.231
-549.354	22.093	0.096	-0.079
-548.339	-90.075	0.079	0.023
-547.325	-125.563	0.318	-0.049
-546.310	35.460	0.112	0.099
-545.296	-139.466	-0.298	-0.032
-544.281	-200.000	-0.045	0.215
-543.266	-200.000	0.024	0.408
-542.252	800.000	0.071	0.246
-541.237	143.836	0.035	0.047
-540.223	-127.802	-0.141	0.021
-539.208	243.541	0.147	-0.250
-538.193	-200.000	-0.016	0.118
-537.179	800.000	-0.075	0.233
-536.164	-200.000	0.016	-0.253
-535.150	-134.208	-0.386	-0.048
-534.135	-86.038	-0.165	0.052
-533.121	-200.000	0.009	0.239
-532.106	-21.689	-0.159	-0.098
-531.091	277.062	0.080	-0.145
-530.077	-32.606	0.178	-0.100
-529.062	82.195	0.292	-0.320
-528.048	-104.255	-0.078	-0.018
-527.033	-200.000	0.047	0.261
-526.018	-107.165	-0.076	0.017
-525.004	800.000	0.087	0.256
-523.989	-200.000	0.023	-0.146
-522.975	257.366	-0.098	-0.170
-521.960	-178.006	-0.106	0.003
-520.945	800.000	-0.085	-0.311
-519.931	261.486	0.161	0.282
-518.916	-200.000	0.013	0.206
-517.902	9.652	-0.077	-0.059
-516.887	-200.000	0.000	0.019
-515.872	-97.929	0.192	0.050
-514.858	-116.420	0.120	-0.022
-513.843	-139.656	0.303	-0.033
-512.829	-184.636	0.472	-0.008
-511.814	246.948	-0.040	0.067
-510.799	296.677	-0.051	-0.094
-509.785	83.485	-0.167	0.184
-508.770	800.000	-0.098	-0.328
-507.756	-34.465	0.414	0.229
-506.741	56.752	-0.156	-0.154
-505.726	4.629	0.104	0.077
-504.712	298.111	-0.209	0.388
-503.697	4.295	0.184	0.136
-502.683	180.036	-0.248	-0.367
-501.668	68.275	0.041	0.042
-500.653	-58.406	0.379	-0.166
-499.639	660.554	-0.021	-0.053
-498.624	18.468	0.251	0.202
-497.610	-86.275	0.372	0.116
-496.595	-48.728	0.126	-0.061
-495.581	-38.812	0.197	-0.105
-494.566	101.299	-0.198	0.233
-493.551	-40.216	-0.122	0.064
-492.537	-200.000	0.004	-0.169
-491.522	-200.000	0.011	-0.139
-490.508	800.000	-0.036	-0.118
-489.493	-125.151	0.340	-0.053
-488.478	613.359	-0.108	-0.272
-487.464	-117.055	-0.124	0.023
-486.449	-200.000	0.009	0.340
-485.435	-200.000	-0.027	0.298
-484.420	138.597	0.044	-0.058
-483.405	-157.758	0.236	0.014
-482.391	-84.877	-0.067	0.021
-481.376	-42.976	-0.325	0.166
-480.362	60.192	-0.314	-0.313
-479.347	800.000	0.084	0.325
-478.332	76.189	-0.160	-0.171
-477.318	-8.523	0.299	0.203
-476.303	-90.686	0.081	-0.024
-475.289	-116.879	0.190	0.035
-474.274	-86.332	0.232	0.072
-473.259	419.129	0.062	-0.134
-472.245	800.000	-0.091	-0.313
-471.230	750.110	0.048	-0.130
-470.216	-200.000	0.033	-0.162
-469.201	239.056	-0.094	0.158
-468.186	800.000	-0.080	0.266
-467.172	-137.200	0.158	0.018
-466.157	-34.350	0.130	-0.072
-465.143	-167.056	0.093	-0.004
-464.128	7.945	0.035	0.027
-463.113	-200.000	0.073	-0.353
-462.099	-149.132	-0.181	0.015
-461.084	376.783	-0.075	-0.155
-460.070	489.376	-0.053	-0.122
-459.055	443.154	0.117	-0.258
-458.040	-25.948	0.202	-0.120
-457.026	800.000	-0.060	-0.212
-456.011	-37.232	-0.147	0.079
-454.997	-42.364	0.131	0.068
-453.982	-88.201	-0.159	0.048
-452.968	422.791	-0.077	-0.166
-451.953	274.808	-0.038	-0.067
-450.938	-9.105	0.121	-0.082
-449.924	172.876	-0.078	-0.113
-448.909	147.577	0.092	-0.125
-447.895	-107.185	-0.081	-0.018
-446.880	-71.533	-0.115	-0.043
-445.865	-200.000	-0.024	-0.292
-444.851	-125.541	0.219	-0.034
-443.836	158.582	-0.130	0.181
-442.822	-82.260	-0.094	-0.031
-441.807	-200.000	0.011	0.049
-440.792	-200.000	0.003	-0.024
-439.778	800.000	-0.111	-0.314
-438.763	520.724	-0.099	-0.233
-437.749	189.609	0.036	-0.054
-436.734	800.000	0.083	0.261
-435.719	-62.678	-0.251	-0.105
-434.705	-200.000	0.054	-0.239
-433.690	373.215	0.133	-0.273
-432.676	-71.900	-0.239	-0.090
-431.661	-133.623	0.260	-0.033
-430.646	-190.589	-0.236	0.003
-429.632	35.330	0.214	0.189
-428.617	-29.251	-0.080	0.046
-427.603	-14.922	0.053	-0.034
-426.588	-200.000	0.038	0.185
-425.573	786.762	-0.128	-0.353
-424.559	-200.000	-0.016	-0.203
-423.544	678.848	0.124	-0.326
-422.530	800.000	-0.128	-0.356
-421.515	-200.000	-0.023	-0.146
-420.500	-34.275	0.344	0.190
-419.486	-200.000	0.003	-0.230
-418.471	405.550	-0.150	0.318
-417.457	800.000	-0.089	0.302
-416.442	800.000	0.096	-0.305
-415.428	-82.379	0.180	0.059
-414.413	-200.000	0.035	0.173
-413.398	268.217	-0.091	-0.160
-412.384	800.000	0.058	0.163
-411.369	282.070	0.075	-0.135
-410.355	62.218	0.088	0.088
-409.340	-8.834	0.135	0.091
-408.325	-200.000	-0.070	-0.386
-407.311	105.039	-0.077	0.092
-406.296	-113.733	0.357	-0.070
-405.282	800.000	0.031	-0.112
-404.267	52.571	-0.236	0.227
-403.252	-93.092	0.307	0.086
-402.238	-28.981	-0.237	0.137
-401.223	114.121	-0.084	0.102
-400.209	471.416	-0.212	0.481
-399.194	-128.128	0.171	-0.025
-398.179	240.891	0.148	0.248
-397.165	745.185	0.123	-0.332
-396.150	-123.763	-0.235	0.037
-395.136	126.968	-0.128	0.163
-394.121	-173.966	0.134	-0.004
-393.106	340.324	-0.072	-0.142
-392.092	-58.128	0.238	0.104
-391.077	-151.518	0.119	-0.009
-390.063	602.243	-0.139	0.349
-389.048	195.791	-0.067	-0.103
-388.033	-45.116	-0.077	0.039
-387.019	138.356	0.220	0.290
-386.004	24.569	-0.150	0.125
-384.990	-200.000	0.000	-0.021
-383.975	53.474	0.156	0.150
-382.960	-35.058	0.308	0.169
-381.946	-104.600	0.249	-0.058
-380.931	-98.237	-0.334	0.086
-379.917	-125.141	0.084	0.013
-378.902	121.149	-0.104	0.130
-377.888	48.415	0.222	-0.209
-376.873	541.761	-0.126	-0.302
-375.858	566.712	0.106	-0.258
-374.844	-200.000	-0.026	0.131
-373.829	-44.771	-0.214	0.107
-372.815	266.132	0.211	-0.370
-371.800	-200.000	-0.061	-0.281
-370.785	477.315	0.065	0.148
-369.771	-36.825	-0.242	-0.131
-368.756	-104.964	0.279	0.064
-367.742	-14.829	-0.322	0.208
-366.727	-51.558	-0.166	0.078
-365.712	-22.244	-0.132	0.080
-364.698	38.456	0.164	-0.147
-363.683	-15.219	0.185	-0.119
-362.669	393.234	-0.126	-0.264
-361.654	437.960	0.020	0.044
-360.639	-98.217	0.181	0.047
-359.625	253.836	0.071	0.121
-358.610	204.332	-0.155	-0.241
-357.596	-200.000	0.056	-0.357
-356.581	-145.953	-0.026	0.002
-355.566	531.481	-0.043	0.102
-354.552	-180.878	0.195	-0.004
-353.537	-200.000	0.016	-0.263
-352.523	99.652	-0.188	0.218
-351.508	-101.380	-0.336	-0.082
-350.493	56.339	0.023	0.023
-349.479	30.152	0.139	-0.119
-348.464	-8.125	0.120	0.081
-347.450	194.970	-0.140	0.213
-346.435	800.000	0.077	0.279
-345.420	-157.425	-0.406	0.025
-344.406	-200.000	-0.002	-0.252
-343.391	800.000	-0.073	-0.315
-342.377	-200.000	-0.019	-0.089
-341.362	110.380	0.103	0.124
-340.348	170.090	0.154	0.221
-339.333	750.571	0.065	-0.177
-338.318	21.324	-0.240	0.196
-337.304	800.000	-0.072	-0.265
-336.289	800.000	-0.058	-0.241
-335.275	201.918	-0.177	-0.274
-334.260	800.000	0.084	-0.306
-333.245	-11.209	-0.335	-0.221
-332.231	-46.221	0.196	-0.097
-331.216	-146.801	-0.269	0.023
-330.202	133.782	0.109	-0.141
-329.187	-122.308	-0.213	-0.035
-328.172	-200.000	-0.004	0.128
-327.158	-12.623	-0.307	0.201
-326.143	-107.410	0.079	-0.017
-325.129	-113.007	0.255	0.051
-324.114	-16.680	0.126	-0.080
-323.099	800.000	-0.048	-0.180
-322.085	133.015	-0.144	0.186
-321.070	152.617	0.156	0.213
-320.056	-19.043	-0.088	0.055
-319.041	28.796	0.144	0.122
-318.026	410.374	0.120	0.256
-317.012	330.102	-0.093	0.179
-315.997	331.472	0.166	0.320
-314.983	800.000	0.020	0.085
-313.968	141.439	-0.090	0.119
-312.953	26.140	0.152	-0.127
-311.939	309.059	0.053	0.098
-310.924	-200.000	0.029	-0.343
-309.910	-13.249	-0.186	0.121
-308.895	355.138	0.053	0.105
-307.880	-200.000	-0.009	-0.326
-306.866	62.152	-0.230	0.230
-305.851	800.000	-0.054	0.231
-304.837	-200.000	-0.010	0.241
-303.822	800.000	-0.086	0.345
-302.807	-87.916	-0.510	-0.154
-301.793	-173.547	-0.258	0.008
-300.778	535.635	0.080	-0.191
-299.764	-200.000	0.030	-0.180
-298.749	-200.000	0.034	0.250
-297.735	-22.909	0.291	0.176
-296.720	4.145	-0.023	0.017
-295.705	-200.000	-0.006	0.039
-294.691	-25.411	-0.198	-0.117
-293.676	800.000	-0.145	0.433
-292.662	-102.756	-0.238	-0.057
-291.647	13.842	0.138	-0.107
-290.632	32.595	0.173	-0.150
-289.618	-110.935	0.160	-0.033
-288.603	800.000	-0.040	-0.172
-287.589	-3.595	-0.333	-0.232
-286.574	52.225	0.234	-0.223
-285.559	573.886	0.034	-0.082
-284.545	-178.563	0.365	-0.008
-283.530	-45.603	-0.143	0.071
-282.516	-200.000	-0.009	-0.263
-281.501	800.000	-0.102	0.288
-280.486	-200.000	0.008	-0.051
-279.472	-157.130	-0.159	0.010
-278.457	-184.489	0.436	-0.007
-277.443	-13.364	-0.353	0.229
-276.428	-118.106	0.325	0.058
-275.413	5.596	0.062	-0.046
-274.399	-200.000	-0.057	-0.385
-273.384	-7.828	-0.211	-0.142
-272.370	-127.974	0.164	-0.024
-271.355	-200.000	-0.050	0.255
-270.340	-48.112	-0.058	0.028
-269.326	-200.000	-0.025	-0.327
-268.311	-65.840	-0.179	-0.072
-267.297	800.000	-0.090	-0.278
-266.282	179.403	0.075	0.110
-265.267	-177.735	-0.354	-0.009
-264.253	69.850	0.165	0.170
-263.238	10.425	-0.200	-0.153
-262.224	86.232	-0.137	-0.151
-261.209	136.883	0.175	0.228
-260.195	83.936	-0.165	0.181
-259.180	529.714	0.124	0.294
-258.165	-116.012	-0.216	-0.040
-257.151	-99.142	0.198	-0.050
-256.136	-79.791	-0.220	-0.074
-255.122	-122.319	-0.197	-0.032
-254.107	5.112	0.145	-0.107
-253.092	39.804	0.050	0.045
-252.078	-200.000	0.005	-0.105
-251.063	-200.000	0.002	0.049
-250.049	800.000	-0.117	-0.410
-249.034	105.389	0.099	-0.117
-248.019	116.344	-0.245	-0.300
-247.005	-25.575	-0.210	-0.124
-245.990	800.000	0.053	0.186
-244.976	-83.936	0.180	0.057
-243.961	-127.574	-0.232	0.034
-242.946	-145.298	0.219	0.020
-241.932	31.702	-0.122	0.105
-240.917	800.000	-0.121	-0.353
-239.903	125.336	0.050	-0.063
-238.888	-200.000	0.050	0.331
-237.873	700.269	-0.079	0.208
-236.859	800.000	-0.089	0.372
-235.844	-126.392	-0.122	0.018
-234.830	800.000	-0.064	0.193
-233.815	800.000	-0.085	0.245
-232.800	11.944	-0.108	-0.083
-231.786	11.418	-0.128	-0.098
-230.771	-43.312	-0.060	-0.030
-229.757	-56.665	-0.093	-0.041
-228.742	19.691	-0.347	0.279
-227.727	-98.891	-0.343	-0.087
-226.713	800.000	-0.074	0.290
-225.698	-65.451	-0.161	0.064
-224.684	69.242	0.148	-0.152
-223.669	-200.000	-0.033	-0.379
-222.655	800.000	-0.152	-0.520
-221.640	114.000	-0.071	0.086
-220.625	82.111	0.141	-0.152
-219.611	800.000	0.061	0.210
-218.596	-200.000	-0.078	0.366
-217.582	-200.000	0.002	0.265
-216.567	274.818	0.147	0.261
-215.552	89.872	0.093	0.104
-214.538	-63.110	-0.116	0.048
-213.523	-200.000	-0.032	-0.238
-212.509	-200.000	0.025	0.144
-211.494	8.376	0.074	0.056
-210.479	800.000	0.118	0.395
-209.465	-101.530	0.228	0.055
-208.450	-200.000	-0.032	0.340
-207.436	-81.895	0.182	-0.059
-206.421	800.000	-0.029	-0.117
-205.406	125.700	0.074	0.093
-204.392	-200.000	-0.024	0.164
-203.377	-5.259	0.251	-0.172
-202.363	-66.767	0.404	0.159
-201.348	-200.000	0.014	0.220
-200.333	-115.811	-0.296	0.055
-199.319	-36.925	0.154	-0.082
-198.304	-31.145	-0.149	0.084
-197.290	-31.217	-0.100	-0.056
-196.275	194.205	0.092	0.139
-195.260	41.705	0.140	0.127
-194.246	-57.718	-0.170	-0.074
-193.231	106.047	-0.136	-0.161
-192.217	-71.835	-0.331	-0.123
-191.202	100.385	-0.136	-0.157
-190.187	92.566	-0.106	0.119
-189.173	-200.000	0.006	-0.322
-188.158	40.407	-0.151	0.136
-187.144	-133.840	0.225	-0.028
-186.129	-40.149	-0.406	-0.211
-185.114	18.954	-0.146	-0.117
-184.100	-143.973	0.281	-0.026
-183.085	-200.000	0.010	-0.053
-182.071	336.060	0.129	0.249
-181.056	-140.740	-0.389	0.040
-180.042	-105.590	-0.216	-0.049
-179.027	-116.302	0.244	-0.045
-178.012	127.709	0.158	-0.200
-176.998	-105.114	0.131	-0.030
-175.983	-31.868	0.161	-0.090
-174.969	73.493	0.372	0.388
-173.954	541.281	0.074	-0.176
-172.939	70.764	0.283	0.292
-171.925	52.604	0.146	0.139
-170.910	-49.322	0.161	0.077
-169.896	189.733	0.141	0.212
-168.881	-138.637	-0.057	0.006
-167.866	-200.000	-0.032	-0.335
-166.852	-116.826	0.149	-0.027
-165.837	-17.343	0.246	-0.154
-164.823	-48.158	0.322	-0.155
-163.808	800.000	-0.019	-0.073
-162.793	-140.263	-0.234	0.024
-161.779	136.027	-0.121	-0.157
-160.764	385.647	-0.083	0.171
-159.750	-41.251	0.291	0.150
-158.735	14.098	0.177	0.138
-157.720	-200.000	0.003	-0.295
-156.706	-200.000	0.003	0.125
-155.691	-94.883	-0.393	-0.106
-154.677	800.000	0.065	-0.201
-153.662	613.078	0.172	0.428
-152.647	202.401	0.064	0.098
-151.633	-76.449	-0.088	-0.031
-150.618	800.000	-0.049	0.210
-149.604	308.737	-0.141	-0.262
-148.589	101.744	-0.115	-0.134
-147.574	374.633	0.129	0.261
-146.560	-88.278	-0.518	-0.155
-145.545	800.000	-0.026	-0.114
-144.531	-44.639	-0.263	-0.131
-143.516	80.779	-0.078	-0.084
-142.502	38.707	0.083	-0.073
-141.487	-200.000	0.006	0.308
-140.472	-110.426	0.106	0.022
-139.458	800.000	-0.089	-0.333
-138.443	84.816	0.349	0.380
-137.429	194.487	-0.185	0.280
-136.414	800.000	0.038	0.106
-135.399	800.000	-0.077	0.261
-134.385	800.000	-0.048	0.205
-133.370	800.000	-0.009	-0.029
-132.356	-200.000	0.019	0.170
-131.341	180.475	0.064	0.093
-130.326	377.755	-0.203	-0.414
-129.312	-98.778	0.294	-0.074
-128.297	-95.098	0.020	0.005
-127.283	-86.920	-0.202	0.061
-126.268	40.650	-0.088	0.079
-125.253	-124.440	0.045	0.007
-124.239	-200.000	-0.108	0.000
-123.224	157.110	0.318	-0.438
-122.210	-167.939	0.129	-0.005
-121.195	-54.231	0.208	-0.094
