DTS Sentinel unit serial number:	SN413079Multiplexer serial number:	ORYXHardware model number:	OX4-SRSoftware version number:	ORYX F/W v4.00 Oryx Data Collector v3.7.2.0data status	okinstallation	princeton_trtdifferential loss correction	single-endedforward channel	channel 2reverse channel	N/Adate	2019/09/19time	08:23:34forward acquisition time	60.00reverse acquisition time	0.00gamma	496.2192k internal	0.2352k external	0.2352temperature offset calibration	1.0006default loss term (dB/km)	0.3790temperature slope calibration	1.0000multiplexer offset coefficient	1.0000multiplexer slope coefficient	1.0000fibre end	0.00T internal ref (°C)	20.47T ext. ref 1 (°C)	0.57T ext. ref 2 (°C)	16.08length (m)	temperature (°C)	Stokes	anti-Stokes-747.200	233.216	0.154	-0.252
-746.185	-75.429	-0.233	-0.083
-745.171	-193.238	0.448	-0.004
-744.156	-43.356	-0.238	0.120
-743.142	239.027	0.302	0.500
-742.127	392.160	-0.035	0.072
-741.112	328.943	-0.129	0.247
-740.098	-73.438	-0.155	-0.056
-739.083	-37.435	0.351	-0.187
-738.069	-21.991	-0.144	-0.087
-737.054	-160.003	0.296	0.016
-736.039	34.374	-0.295	0.256
-735.025	-149.971	0.217	-0.017
-734.010	96.601	0.068	0.077
-732.996	-144.858	-0.173	-0.016
-731.981	-146.981	-0.100	0.009
-730.966	-151.059	0.203	-0.015
-729.952	198.736	0.086	0.132
-728.937	-175.370	-0.241	0.007
-727.923	-122.265	-0.125	0.020
-726.908	52.273	-0.151	-0.144
-725.894	-48.581	-0.530	-0.254
-724.879	-23.359	0.219	-0.131
-723.864	23.005	-0.111	-0.091
-722.850	-110.297	-0.404	-0.084
-721.835	293.411	0.074	-0.135
-720.821	66.593	-0.316	0.320
-719.806	800.000	-0.073	-0.307
-718.791	-75.821	-0.326	-0.115
-717.777	800.000	0.068	0.203
-716.762	-97.270	-0.161	0.042
-715.748	16.531	-0.188	0.148
-714.733	107.304	0.175	0.207
-713.718	305.570	0.135	0.249
-712.704	-200.000	0.029	-0.167
-711.689	34.525	-0.116	0.101
-710.675	734.859	0.112	-0.298
-709.660	-137.515	0.127	-0.014
-708.645	-54.818	-0.106	0.048
-707.631	-79.929	0.360	0.121
-706.616	-128.132	-0.339	0.048
-705.602	73.648	0.146	0.152
-704.587	-50.247	0.174	-0.082
-703.572	-3.440	0.167	-0.116
-702.558	800.000	-0.063	-0.183
-701.543	-200.000	-0.017	-0.225
-700.529	-132.539	-0.116	0.015
-699.514	800.000	0.131	-0.547
-698.499	-200.000	-0.029	0.129
-697.485	-156.834	-0.153	-0.009
-696.470	57.052	0.118	-0.115
-695.456	-200.000	0.038	-0.226
-694.441	800.000	-0.051	-0.222
-693.426	-109.623	0.254	-0.053
-692.412	21.056	-0.111	-0.090
-691.397	-200.000	0.002	-0.318
-690.383	277.231	0.141	-0.250
-689.368	798.650	-0.114	0.312
-688.354	800.000	0.022	-0.082
-687.339	-200.000	-0.032	-0.207
-686.324	-200.000	-0.155	0.000
-685.310	1.674	-0.153	0.110
-684.295	-200.000	0.013	-0.198
-683.281	-200.000	-0.014	0.305
-682.266	-91.299	-0.229	-0.065
-681.251	-177.863	0.334	0.008
-680.237	-200.000	0.020	0.269
-679.222	399.333	-0.052	-0.108
-678.208	-200.000	0.038	-0.189
-677.193	-200.000	-0.036	0.181
-676.178	41.141	-0.037	-0.033
-675.164	65.473	0.192	0.193
-674.149	86.997	0.137	0.151
-673.135	-200.000	0.041	-0.220
-672.120	-200.000	-0.055	-0.298
-671.105	2.850	-0.074	0.054
-670.091	131.667	-0.164	-0.210
-669.076	-21.941	-0.076	-0.046
-668.062	-10.725	0.068	-0.045
-667.047	-200.000	-0.013	0.097
-666.032	-60.917	0.175	0.074
-665.018	-200.000	0.018	0.154
-664.003	-27.717	-0.265	-0.153
-662.989	57.431	-0.241	0.234
-661.974	-91.506	-0.117	0.033
-660.959	70.678	0.174	0.179
-659.945	222.341	-0.121	-0.194
-658.930	25.782	-0.318	-0.264
-657.916	800.000	-0.013	-0.045
-656.901	-196.621	-0.264	0.002
-655.886	-9.293	0.241	-0.160
-654.872	-131.031	0.215	-0.028
-653.857	-44.611	0.172	-0.086
-652.843	-38.868	0.145	0.076
-651.828	4.729	-0.254	0.185
-650.814	-60.242	0.127	-0.054
-649.799	-109.491	0.330	-0.069
-648.784	96.727	0.043	0.048
-647.770	-171.617	0.273	-0.009
-646.755	79.624	0.020	-0.022
-645.741	320.769	0.093	-0.176
-644.726	-29.903	-0.137	0.077
-643.711	-150.479	-0.077	-0.006
-642.697	-104.485	-0.246	-0.057
-641.682	259.835	-0.072	-0.123
-640.668	771.590	-0.094	-0.255
-639.653	-15.971	-0.259	-0.164
-638.638	90.432	-0.208	-0.231
-637.624	800.000	-0.035	0.125
-636.609	298.178	0.150	0.274
-635.595	185.165	0.088	0.130
-634.580	-9.390	-0.184	0.122
-633.565	-19.207	0.179	0.111
-632.551	104.343	-0.096	-0.112
-631.536	-200.000	0.005	-0.048
-630.522	-15.713	-0.453	-0.287
-629.507	-41.654	-0.377	-0.192
-628.492	-3.581	-0.298	-0.206
-627.478	97.869	0.111	-0.127
-626.463	-153.367	0.260	-0.018
-625.449	-42.143	-0.340	-0.173
-624.434	165.570	0.156	-0.219
-623.419	16.876	0.377	0.297
-622.405	800.000	0.088	0.269
-621.390	-200.000	0.049	0.401
-620.376	800.000	0.108	0.348
-619.361	24.485	-0.266	-0.219
-618.346	-108.967	-0.269	0.057
-617.332	283.881	0.156	-0.278
-616.317	-179.614	0.242	-0.005
-615.303	-103.151	0.372	-0.087
-614.288	94.425	0.070	-0.079
-613.273	76.007	0.091	-0.096
-612.259	161.712	-0.228	0.316
-611.244	800.000	-0.012	0.042
-610.230	-145.679	0.161	-0.014
-609.215	-5.824	-0.327	0.222
-608.201	-60.395	-0.137	0.058
-607.186	-86.344	-0.197	-0.060
-606.171	800.000	-0.075	-0.287
-605.157	-200.000	0.021	-0.234
-604.142	-79.511	0.454	0.152
-603.128	47.367	-0.161	-0.149
-602.113	20.553	0.096	-0.077
-601.098	-44.110	0.005	0.003
-600.084	-37.629	0.124	0.065
-599.069	445.572	0.068	0.149
-598.055	431.542	0.056	0.121
-597.040	179.586	-0.235	-0.341
-596.025	401.530	-0.033	-0.069
-595.011	-57.361	-0.367	-0.160
-593.996	-69.042	-0.195	-0.074
-592.982	26.840	0.142	-0.118
-591.967	-51.457	-0.314	-0.145
-590.952	-200.000	-0.056	0.261
-589.938	-5.733	-0.157	0.106
-588.923	-127.496	-0.453	-0.065
-587.909	6.738	-0.284	0.209
-586.894	-200.000	0.031	0.326
-585.879	-44.417	-0.301	-0.149
-584.865	365.709	0.143	-0.286
-583.850	800.000	-0.039	0.149
-582.836	-200.000	0.020	-0.217
-581.821	-66.537	-0.145	-0.057
-580.806	800.000	-0.060	-0.229
-579.792	34.252	-0.241	-0.208
-578.777	800.000	0.070	0.222
-577.763	-105.097	-0.137	0.031
-576.748	-142.610	-0.215	-0.021
-575.733	-90.158	0.291	0.084
-574.719	-85.101	-0.199	-0.062
-573.704	101.480	0.094	-0.109
-572.690	169.698	-0.079	0.112
-571.675	201.863	0.055	0.085
-570.661	-200.000	-0.066	0.372
-569.646	175.525	-0.029	-0.042
-568.631	-114.379	0.112	-0.021
-567.617	799.747	0.091	-0.248
-566.602	760.511	0.118	-0.316
-565.588	277.952	-0.067	-0.118
-564.573	281.163	-0.153	0.271
-563.558	-74.339	0.228	0.082
-562.544	-4.626	-0.144	0.098
-561.529	-128.091	0.295	0.042
-560.515	37.727	0.176	0.155
-559.500	217.468	-0.102	-0.162
-558.485	800.000	-0.076	-0.248
-557.471	-110.794	0.250	0.051
-556.456	30.546	0.272	0.231
-555.442	49.953	-0.213	0.199
-554.427	97.461	-0.060	0.068
-553.412	9.519	0.383	-0.287
-552.398	-90.110	0.359	0.103
-551.383	-73.622	-0.185	0.067
-550.369	-78.231	0.129	-0.044
-549.354	-115.061	-0.206	0.039
-548.339	507.714	0.039	-0.090
-547.325	-200.000	0.019	0.088
-546.310	-74.886	-0.282	0.100
-545.296	800.000	-0.062	-0.184
-544.281	-61.863	-0.147	-0.061
-543.266	-65.137	0.205	-0.082
-542.252	-165.259	-0.505	-0.022
-541.237	-59.523	-0.108	0.046
-540.223	10.935	0.057	-0.043
-539.208	70.099	-0.201	0.206
-538.193	-200.000	-0.014	0.064
-537.179	-96.408	0.349	0.091
-536.164	800.000	0.057	0.226
-535.150	-40.174	0.319	-0.164
-534.135	-83.186	0.328	0.104
-533.121	113.427	-0.334	0.401
-532.106	-76.910	0.177	0.061
-531.091	-29.288	0.256	-0.145
-530.077	-200.000	0.024	0.122
-529.062	-200.000	-0.065	0.305
-528.048	82.501	-0.162	-0.174
-527.033	800.000	-0.053	-0.191
-526.018	42.397	0.258	-0.232
-525.004	-15.353	-0.154	0.097
-523.989	-99.735	0.120	0.030
-522.975	-1.494	0.205	-0.143
-521.960	-23.283	-0.141	0.084
-520.945	484.047	0.112	-0.253
-519.931	800.000	0.043	0.143
-518.916	-200.000	-0.029	0.147
-517.902	526.446	-0.145	0.337
-516.887	199.369	0.102	0.154
-515.872	-53.993	-0.276	0.124
-514.858	-104.687	0.311	0.071
-513.843	51.420	-0.219	-0.206
-512.829	11.986	-0.270	-0.205
-511.814	588.869	-0.057	0.139
-510.799	9.433	0.206	0.154
-509.785	233.458	-0.134	0.218
-508.770	55.871	0.146	-0.140
-507.756	122.231	-0.223	-0.275
-506.741	-102.650	0.372	0.088
-505.726	-150.474	-0.142	-0.011
-504.712	-56.942	-0.094	-0.041
-503.697	-89.310	0.394	-0.115
-502.683	-42.689	-0.069	-0.035
-501.668	-200.000	0.024	-0.201
-500.653	118.316	-0.064	0.078
-499.639	407.630	-0.191	-0.399
-498.624	-79.075	0.094	-0.031
-497.610	-39.130	0.291	0.151
-496.595	511.709	-0.104	0.240
-495.581	-119.524	0.214	-0.037
-494.566	-108.136	-0.299	0.064
-493.551	108.308	-0.099	0.117
-492.537	-8.635	0.104	0.069
-491.522	-20.795	0.108	-0.065
-490.508	-116.669	-0.035	0.006
-489.493	-92.731	-0.179	-0.050
-488.478	-108.908	0.046	0.010
-487.464	-200.000	0.036	-0.303
-486.449	-101.473	0.048	-0.011
-485.435	643.380	-0.057	-0.143
-484.420	800.000	-0.072	-0.224
-483.405	32.118	0.166	-0.141
-482.391	-200.000	-0.016	-0.090
-481.376	-200.000	0.040	0.456
-480.362	-2.968	0.035	0.024
-479.347	41.708	0.103	0.092
-478.332	-200.000	0.020	-0.195
-477.318	112.073	-0.057	-0.068
-476.303	10.876	0.210	0.159
-475.289	217.210	0.094	-0.147
-474.274	-200.000	-0.005	0.044
-473.259	85.145	-0.199	0.215
-472.245	169.913	-0.082	-0.115
-471.230	746.052	-0.074	0.196
-470.216	-113.452	-0.151	0.029
-469.201	154.458	0.066	-0.089
-468.186	321.400	0.109	-0.205
-467.172	19.634	-0.154	-0.122
-466.157	-43.277	0.321	0.160
-465.143	-93.276	0.188	-0.051
-464.128	-200.000	0.004	-0.048
-463.113	-163.244	-0.324	0.015
-462.099	-148.891	0.448	0.036
-461.084	365.547	-0.074	-0.148
-460.070	-200.000	0.019	-0.257
-459.055	-68.278	0.246	0.094
-458.040	800.000	-0.078	-0.310
-457.026	173.663	0.191	-0.273
-456.011	81.369	0.202	0.215
-454.997	97.040	-0.147	-0.166
-453.982	800.000	0.049	-0.160
-452.968	162.255	0.184	0.254
-451.953	-200.000	-0.032	-0.161
-450.938	408.339	-0.058	-0.121
-449.924	-200.000	0.024	0.518
-448.909	735.627	-0.014	0.038
-447.895	-113.146	-0.324	0.063
-446.880	800.000	-0.034	0.102
-445.865	450.343	0.139	-0.301
-444.851	329.321	-0.108	0.205
-443.836	656.399	0.205	-0.518
-442.822	-200.000	-0.042	-0.287
-441.807	-66.265	0.261	0.102
-440.792	-200.000	-0.009	0.242
-439.778	-121.458	0.307	-0.050
-438.763	134.300	0.170	0.217
-437.749	800.000	-0.053	-0.187
-436.734	531.506	-0.139	-0.323
-435.719	347.741	-0.151	-0.294
-434.705	-60.962	0.246	-0.102
-433.690	12.091	-0.507	-0.385
-432.676	45.818	0.171	0.156
-431.661	-44.607	-0.108	0.053
-430.646	397.218	0.179	0.368
-429.632	-85.940	-0.664	0.202
-428.617	216.708	-0.124	0.195
-427.603	-29.405	-0.085	-0.048
-426.588	-45.519	0.178	-0.087
-425.573	560.940	0.036	0.086
-424.559	-57.265	0.134	0.058
-423.544	45.552	-0.142	-0.129
-422.530	528.131	-0.065	0.150
-421.515	130.163	0.186	0.235
-420.500	-181.777	0.419	0.008
-419.486	-46.901	-0.352	-0.169
-418.471	800.000	0.082	0.259
-417.457	-200.000	-0.026	0.461
-416.442	217.845	0.109	0.172
-415.428	-39.144	-0.409	0.211
-414.413	42.704	-0.048	0.043
-413.398	-200.000	0.011	-0.094
-412.384	226.515	-0.083	-0.133
-411.369	-77.305	-0.196	-0.067
-410.355	-200.000	-0.053	-0.372
-409.340	115.387	-0.253	-0.304
-408.325	-81.132	-0.141	0.046
-407.311	-57.151	0.165	-0.072
-406.296	-34.821	-0.282	-0.151
-405.282	-26.275	0.362	0.209
-404.267	-13.616	-0.131	0.083
-403.252	329.621	-0.128	0.241
-402.238	-200.000	0.025	0.130
-401.223	-133.232	0.093	0.012
-400.209	-122.530	-0.251	-0.040
-399.194	117.333	-0.171	-0.206
-398.179	800.000	0.056	-0.183
-397.165	-69.680	-0.179	-0.068
-396.150	19.290	0.118	-0.093
-395.136	-23.937	0.113	0.066
-394.121	441.041	-0.134	-0.289
-393.106	-163.672	-0.137	0.006
-392.092	78.156	0.306	-0.321
-391.077	-200.000	-0.027	-0.354
-390.063	47.179	0.363	-0.332
-389.048	800.000	-0.074	0.218
-388.033	24.197	-0.108	0.088
-387.019	133.672	0.094	-0.119
-386.004	295.152	-0.028	0.051
-384.990	180.904	-0.167	0.242
-383.975	71.105	0.209	0.213
-382.960	-42.494	-0.348	0.174
-381.946	692.477	-0.116	0.300
-380.931	531.672	-0.011	0.024
-379.917	128.724	0.101	-0.127
-378.902	74.676	0.012	0.012
-377.888	-48.572	-0.237	-0.112
-376.873	213.432	0.088	-0.137
-375.858	-8.882	-0.291	-0.191
-374.844	363.101	-0.076	0.150
-373.829	-81.371	-0.465	-0.151
-372.815	750.297	-0.005	-0.013
-371.800	47.424	0.141	0.129
-370.785	-200.000	0.006	0.219
-369.771	105.888	-0.053	0.062
-368.756	-73.077	0.099	-0.036
-367.742	93.195	0.118	-0.131
-366.727	-52.877	0.095	-0.043
-365.712	-13.925	-0.173	-0.110
-364.698	111.928	-0.186	-0.221
-363.683	-200.000	0.040	-0.191
-362.669	-93.751	0.444	-0.120
-361.654	5.341	-0.045	-0.033
-360.639	800.000	-0.108	0.294
-359.625	7.034	-0.167	-0.122
-358.610	-200.000	0.025	-0.143
-357.596	-137.147	0.390	-0.044
-356.581	-200.000	-0.024	-0.136
-355.566	-111.667	-0.353	-0.070
-354.552	800.000	0.013	-0.039
-353.537	85.796	0.104	0.113
-352.523	-200.000	-0.011	0.065
-351.508	49.641	-0.183	0.169
-350.493	194.585	-0.087	-0.130
-349.479	800.000	0.025	0.095
-348.464	101.513	0.198	-0.227
-347.450	525.325	0.069	-0.159
-346.435	-200.000	0.012	0.088
-345.420	-200.000	-0.081	-0.477
-344.406	25.494	-0.036	-0.030
-343.391	20.966	-0.182	-0.145
-342.377	425.195	0.091	0.192
-341.362	568.964	-0.022	0.053
-340.348	800.000	0.039	0.117
-339.333	-119.801	0.066	0.011
-338.318	133.282	0.180	0.228
-337.304	-126.158	-0.060	-0.009
-336.289	-91.463	0.191	-0.054
-335.275	-200.000	0.041	-0.193
-334.260	248.302	-0.055	0.092
-333.245	52.528	0.317	-0.297
-332.231	-102.185	0.136	-0.032
-331.216	797.882	0.046	0.124
-330.202	-150.771	0.147	0.011
-329.187	-55.068	0.259	0.114
-328.172	-112.407	0.268	-0.053
-327.158	800.000	0.089	0.303
-326.143	-200.000	-0.065	0.343
-325.129	-66.563	-0.226	-0.088
-324.114	-200.000	0.037	0.271
-323.099	-46.558	0.370	0.178
-322.085	-200.000	-0.009	-0.400
-321.070	-200.000	-0.021	-0.224
-320.056	71.891	-0.368	-0.376
-319.041	-199.370	-0.217	-0.001
-318.026	-167.780	0.283	0.011
-317.012	155.530	0.102	-0.137
-315.997	-38.907	-0.131	-0.068
-314.983	-200.000	0.027	0.222
-313.968	21.408	-0.341	0.272
-312.953	43.989	-0.036	0.032
-311.939	-200.000	0.072	0.421
-310.924	-100.450	0.553	0.134
-309.910	-29.772	-0.464	0.259
-308.895	-164.124	-0.165	-0.007
-307.880	-96.770	0.129	0.033
-306.866	-159.423	0.137	0.007
-305.851	-110.218	-0.165	0.034
-304.837	129.632	-0.125	-0.157
-303.822	41.534	0.245	-0.218
-302.807	-24.564	-0.305	-0.178
-301.793	67.818	0.072	-0.072
-300.778	-112.179	-0.101	0.020
-299.764	800.000	0.070	-0.265
-298.749	800.000	0.140	-0.409
-297.735	-7.938	-0.038	-0.025
-296.720	410.594	0.022	0.045
-295.705	-133.381	-0.091	0.011
-294.691	34.874	-0.075	-0.065
-293.676	-115.041	-0.342	0.064
-292.662	141.091	-0.203	0.263
-291.647	779.981	0.053	0.141
-290.632	388.964	-0.110	-0.224
-289.618	-200.000	-0.117	-0.506
-288.603	-77.713	0.438	0.149
-287.589	-108.823	0.434	-0.091
-286.574	-47.966	0.173	-0.082
-285.559	-43.119	-0.383	-0.190
-284.545	-20.781	0.343	-0.206
-283.530	-42.036	-0.145	0.073
-282.516	32.563	-0.204	0.172
-281.501	299.745	0.203	-0.366
-280.486	224.141	-0.026	-0.042
-279.472	27.186	0.094	0.077
-278.457	276.993	0.116	0.202
-277.443	47.025	0.198	-0.180
-276.428	139.858	-0.163	0.210
-275.413	-127.289	0.253	0.036
-274.399	440.115	0.128	0.273
-273.384	-151.342	-0.167	-0.012
-272.370	75.433	0.300	0.310
-271.355	-200.000	-0.004	-0.213
-270.340	-115.683	0.257	-0.047
-269.326	143.031	0.218	-0.283
-268.311	-200.000	0.032	-0.161
-267.297	-47.758	-0.082	0.039
-266.282	163.106	-0.308	0.424
-265.267	89.824	0.239	0.261
-264.253	-66.660	0.428	-0.166
-263.238	-86.120	0.134	-0.040
-262.224	-200.000	-0.010	0.097
-261.209	82.805	-0.303	-0.322
-260.195	-69.385	-0.123	-0.046
-259.180	-200.000	0.032	0.261
-258.165	-200.000	-0.019	0.524
-257.151	125.344	0.197	0.243
-256.136	160.197	-0.105	-0.144
-255.122	-48.598	0.325	-0.153
-254.107	204.449	-0.317	0.482
-253.092	54.765	0.214	-0.202
-252.078	-85.801	-0.188	0.057
-251.063	87.561	0.196	0.212
-250.049	-52.230	-0.156	0.071
-249.034	-116.675	0.351	0.063
-248.019	-33.466	0.246	-0.133
-247.005	176.944	-0.192	-0.273
-245.990	-181.101	-0.117	0.002
-244.976	13.934	0.174	-0.133
-243.961	-9.823	0.249	0.162
-242.946	-84.457	0.117	-0.036
-241.932	-200.000	0.018	0.193
-240.917	-61.356	-0.045	0.018
-239.903	-200.000	0.080	0.406
-238.888	-149.094	0.420	-0.033
-237.873	-200.000	0.023	0.248
-236.859	-19.928	-0.083	-0.050
-235.844	34.659	-0.242	-0.207
-234.830	230.793	-0.098	-0.157
-233.815	290.371	-0.143	-0.254
-232.800	-99.867	-0.363	0.089
-231.786	-200.000	0.016	0.100
-230.771	-30.835	-0.200	0.110
-229.757	-77.679	-0.187	-0.063
-228.742	-200.000	-0.052	0.489
-227.727	304.980	-0.094	0.171
-226.713	25.053	0.231	0.187
-225.698	276.520	0.111	-0.193
-224.684	147.659	0.075	0.099
-223.669	27.916	0.173	0.143
-222.655	-136.638	-0.235	0.027
-221.640	-78.808	0.155	-0.052
-220.625	47.058	-0.137	0.125
-219.611	62.596	-0.110	-0.108
-218.596	65.790	-0.107	0.106
-217.582	-200.000	-0.024	0.318
-216.567	28.994	-0.129	0.107
-215.552	-200.000	-0.004	-0.133
-214.538	-51.907	0.384	0.175
-213.523	800.000	-0.055	0.210
-212.509	338.559	-0.103	-0.197
-211.494	69.667	-0.197	-0.198
-210.479	7.038	-0.167	-0.121
-209.465	-6.289	-0.292	0.194
-208.450	-112.126	0.269	0.053
-207.436	753.865	-0.015	-0.038
-206.421	261.573	0.148	-0.250
-205.406	658.478	-0.070	-0.177
-204.392	314.686	0.058	-0.107
-203.377	-8.263	0.259	-0.170
-202.363	-172.663	0.579	0.018
-201.348	-60.995	-0.286	-0.118
-200.333	800.000	-0.085	-0.262
-199.319	800.000	-0.092	0.268
-198.304	81.813	-0.126	-0.133
-197.290	-112.290	-0.257	0.050
-196.275	-200.000	0.015	0.428
-195.260	-200.000	0.095	-0.549
-194.246	201.262	-0.082	0.123
-193.231	244.128	-0.118	0.193
-192.217	-200.000	0.006	0.399
-191.202	-62.871	-0.229	-0.092
-190.187	127.302	0.176	0.218
-189.173	-36.574	0.098	-0.052
-188.158	463.211	-0.188	0.410
-187.144	-137.673	0.394	-0.043
-186.129	-76.521	-0.234	0.080
-185.114	-108.222	-0.247	-0.052
-184.100	-148.046	0.068	-0.006
-183.085	-200.000	-0.019	0.112
-182.071	-200.000	-0.026	0.159
-181.056	-102.234	0.487	0.114
-180.042	762.989	0.086	0.228
-179.027	-75.434	0.229	-0.080
-178.012	-200.000	-0.029	-0.276
-176.998	800.000	0.045	0.175
-175.983	220.215	0.160	0.250
-174.969	-200.000	0.033	-0.221
-173.954	402.850	-0.024	-0.050
-172.939	85.413	0.106	-0.113
-171.925	800.000	0.054	-0.161
-170.910	-200.000	-0.097	0.418
-169.896	-14.488	0.264	0.166
-168.881	-200.000	0.024	0.197
-167.866	-159.982	-0.429	-0.023
-166.852	-200.000	-0.012	0.148
-165.837	-145.482	0.226	0.020
-164.823	778.592	0.204	-0.543
-163.808	267.319	-0.045	-0.076
-162.793	800.000	-0.057	-0.235
-161.779	1.210	-0.109	0.076
-160.764	-59.444	0.381	-0.160
-159.750	-126.452	-0.259	0.038
-158.735	116.726	-0.112	0.133
-157.720	8.739	-0.169	0.124
-156.706	-200.000	0.039	0.272
-155.691	39.558	-0.145	-0.127
-154.677	-200.000	0.011	0.144
-153.662	95.557	0.065	0.072
-152.647	-200.000	-0.004	0.147
-151.633	-93.978	-0.066	0.018
-150.618	45.193	0.179	0.161
-149.604	-123.932	0.310	-0.048
-148.589	-91.899	-0.227	0.063
-147.574	135.829	-0.021	0.027
-146.560	443.009	0.102	0.219
-145.545	25.699	-0.226	-0.183
-144.531	141.038	0.240	-0.309
-143.516	-145.427	-0.209	0.018
-142.502	-200.000	0.004	0.316
-141.487	800.000	-0.098	0.374
-140.472	366.770	0.127	0.250
-139.458	-107.500	0.331	-0.071
-138.443	-116.062	-0.145	0.026
-137.429	215.006	-0.030	0.047
-136.414	-70.479	-0.164	-0.060
-135.399	272.237	-0.040	-0.068
-134.385	800.000	-0.028	-0.095
-133.370	-140.883	0.299	-0.030
-132.356	136.495	-0.123	-0.156
-131.341	279.601	0.157	-0.272
-130.326	-18.848	-0.365	0.221
-129.312	-103.894	0.341	0.078
-128.297	243.959	0.100	-0.163
-127.283	18.290	-0.138	-0.107
-126.268	-10.883	0.093	-0.060
-125.253	217.286	-0.152	0.235
-124.239	76.077	-0.190	-0.196
-123.224	-161.755	0.421	0.021
-122.210	-108.200	-0.096	0.020
-121.195	-200.000	-0.060	-0.521
