DTS Sentinel unit serial number:	SN413079Multiplexer serial number:	ORYXHardware model number:	OX4-SRSoftware version number:	ORYX F/W v4.00 Oryx Data Collector v3.7.2.0data status	okinstallation	princeton_trtdifferential loss correction	single-endedforward channel	channel 2reverse channel	N/Adate	2019/09/18time	14:55:34forward acquisition time	60.00reverse acquisition time	0.00gamma	496.2192k internal	0.2319k external	0.2319temperature offset calibration	1.0001default loss term (dB/km)	0.3790temperature slope calibration	1.0000multiplexer offset coefficient	1.0000multiplexer slope coefficient	1.0000fibre end	0.00T internal ref (°C)	35.19T ext. ref 1 (°C)	0.73T ext. ref 2 (°C)	30.19length (m)	temperature (°C)	Stokes	anti-Stokes-747.200	-81.820	-0.085	0.028
-746.185	-15.452	0.048	0.031
-745.171	-153.764	-0.261	-0.018
-744.156	-166.939	-0.203	0.008
-743.142	523.551	0.028	0.067
-742.127	-17.700	-0.306	0.194
-741.112	-180.563	0.061	0.001
-740.098	-22.696	0.110	-0.067
-739.083	91.242	-0.216	0.245
-738.069	-25.265	-0.023	-0.014
-737.054	163.816	0.193	0.275
-736.039	-200.000	-0.272	0.001
-735.025	81.875	0.114	-0.125
-734.010	49.701	-0.110	-0.105
-732.996	115.662	-0.191	-0.236
-731.981	-200.000	0.037	-0.323
-730.966	147.366	-0.141	0.192
-729.952	-200.000	-0.061	0.485
-728.937	17.055	0.070	0.056
-727.923	511.009	-0.035	-0.083
-726.908	800.000	-0.015	-0.051
-725.894	800.000	0.037	-0.110
-724.879	-161.596	0.213	-0.011
-723.864	800.000	-0.019	0.060
-722.850	354.404	0.030	0.060
-721.835	-118.320	0.269	-0.048
-720.821	-200.000	-0.023	0.125
-719.806	-167.226	-0.590	0.024
-718.791	295.759	-0.185	-0.342
-717.777	-200.000	0.029	0.369
-716.762	-200.000	-0.021	-0.169
-715.748	-48.663	0.290	-0.141
-714.733	-200.000	0.078	-0.415
-713.718	-48.534	0.480	0.233
-712.704	130.948	-0.149	0.193
-711.689	-97.145	-0.136	0.036
-710.675	-24.642	-0.221	-0.133
-709.660	39.942	-0.025	-0.023
-708.645	-64.156	-0.345	-0.142
-707.631	246.708	-0.067	-0.115
-706.616	-200.000	0.020	0.130
-705.602	-200.000	0.048	-0.404
-704.587	-200.000	-0.037	-0.229
-703.572	800.000	-0.073	0.205
-702.558	800.000	0.134	-0.585
-701.543	239.812	-0.107	0.179
-700.529	-47.757	-0.403	-0.198
-699.514	-20.352	0.149	-0.093
-698.499	120.272	0.139	-0.174
-697.485	800.000	0.057	-0.191
-696.470	653.055	0.194	-0.503
-695.456	-117.317	0.068	-0.013
-694.441	-200.000	-0.067	-0.389
-693.426	-25.925	0.365	0.217
-692.412	-200.000	-0.041	-0.212
-691.397	800.000	0.012	-0.039
-690.383	-65.460	0.109	-0.044
-689.368	-13.702	0.347	-0.227
-688.354	-130.416	0.109	-0.015
-687.339	47.693	0.321	0.302
-686.324	-104.696	0.081	0.019
-685.310	-189.502	0.262	0.003
-684.295	145.953	-0.064	0.087
-683.281	299.565	-0.074	-0.137
-682.266	-57.673	-0.294	-0.130
-681.251	-200.000	0.004	-0.029
-680.237	272.271	0.067	0.119
-679.222	-96.272	0.192	-0.051
-678.208	135.026	-0.360	-0.472
-677.193	401.829	-0.094	-0.199
-676.178	5.988	-0.068	0.051
-675.164	-62.037	-0.321	-0.135
-674.149	-152.750	0.250	0.018
-673.135	-96.356	-0.043	-0.012
-672.120	-88.581	0.180	0.054
-671.105	-5.195	0.161	0.112
-670.091	-29.545	-0.212	-0.122
-669.076	-85.262	0.230	0.073
-668.062	219.965	-0.142	-0.229
-667.047	-127.168	0.262	-0.039
-666.032	-126.813	0.112	-0.017
-665.018	-126.639	0.364	0.054
-664.003	53.437	-0.238	-0.231
-662.989	-103.244	-0.170	-0.041
-661.974	-24.171	0.276	-0.166
-660.959	-200.000	0.020	0.147
-659.945	-59.150	0.292	0.127
-658.930	800.000	-0.094	-0.315
-657.916	182.048	-0.054	-0.080
-656.901	-85.944	-0.185	0.058
-655.886	275.672	-0.091	-0.162
-654.872	-200.000	0.023	-0.136
-653.857	14.771	0.173	-0.136
-652.843	36.464	-0.049	0.043
-651.828	-111.531	0.089	-0.018
-650.814	57.641	-0.117	0.115
-649.799	15.180	-0.345	0.272
-648.784	-200.000	0.018	0.406
-647.770	-77.819	0.246	0.086
-646.755	-76.823	-0.181	-0.064
-645.741	-200.000	0.074	-0.431
-644.726	-127.951	-0.116	-0.017
-643.711	800.000	-0.090	-0.252
-642.697	-157.471	0.278	-0.017
-641.682	-152.371	0.087	-0.006
-640.668	-87.596	-0.099	0.030
-639.653	-152.097	0.293	0.021
-638.638	-134.022	0.213	0.027
-637.624	395.820	-0.187	-0.392
-636.609	110.969	0.075	-0.091
-635.595	75.415	0.116	-0.123
-634.580	-19.051	-0.285	-0.178
-633.565	497.096	0.100	-0.231
-632.551	-200.000	0.001	-0.014
-631.536	-1.726	0.403	-0.286
-630.522	-200.000	-0.007	-0.175
-629.507	-49.098	-0.079	-0.038
-628.492	299.211	0.008	-0.014
-627.478	429.985	-0.065	0.142
-626.463	-14.242	0.238	-0.154
-625.449	376.607	0.103	0.211
-624.434	-90.805	-0.183	-0.053
-623.419	-192.461	0.089	0.001
-622.405	800.000	-0.025	-0.103
-621.390	-53.980	0.180	0.083
-620.376	-200.000	0.030	-0.197
-619.361	554.727	-0.040	-0.097
-618.346	-104.807	0.030	-0.007
-617.332	65.588	-0.103	0.105
-616.317	372.001	0.095	-0.195
-615.303	14.800	-0.174	-0.137
-614.288	800.000	0.039	0.117
-613.273	118.838	-0.077	-0.096
-612.259	449.130	-0.086	0.190
-611.244	280.493	-0.140	0.252
-610.230	470.890	0.067	-0.152
-609.215	160.072	0.197	0.276
-608.201	639.717	-0.039	-0.100
-607.186	-54.679	0.135	0.061
-606.171	800.000	0.131	-0.423
-605.157	-152.730	-0.124	0.009
-604.142	-200.000	-0.012	-0.416
-603.128	13.747	-0.164	-0.128
-602.113	8.716	-0.044	0.033
-601.098	-14.110	0.280	0.182
-600.084	800.000	-0.064	0.201
-599.069	0.743	0.222	-0.160
-598.055	-111.323	-0.145	-0.030
-597.040	564.789	-0.051	0.123
-596.025	248.642	-0.089	-0.151
-595.011	213.578	-0.068	0.109
-593.996	-119.071	0.116	-0.020
-592.982	-38.868	-0.134	0.071
-591.967	-87.025	0.215	-0.066
-590.952	-85.829	-0.272	-0.085
-589.938	-98.721	-0.225	0.058
-588.923	89.811	-0.135	0.151
-587.909	205.672	-0.078	-0.122
-586.894	-95.055	0.071	-0.019
-585.879	-42.182	-0.324	0.167
-584.865	-25.486	-0.240	-0.143
-583.850	96.492	0.114	0.131
-582.836	-16.019	-0.316	0.202
-581.821	246.477	0.066	-0.112
-580.806	-49.185	-0.339	0.163
-579.792	-96.774	0.467	0.123
-578.777	49.510	0.358	-0.339
-577.763	-200.000	0.054	-0.364
-576.748	-43.353	-0.289	0.147
-575.733	-200.000	-0.011	0.184
-574.719	162.897	-0.145	0.204
-573.704	224.285	0.097	-0.158
-572.690	-200.000	0.039	0.179
-571.675	128.271	-0.078	0.100
-570.661	-29.688	-0.292	-0.167
-569.646	-35.118	-0.183	-0.100
-568.631	-200.000	-0.039	-0.250
-567.617	70.492	0.066	-0.069
-566.602	-29.775	0.173	0.099
-565.588	-200.000	-0.020	-0.117
-564.573	58.320	-0.178	-0.176
-563.558	-200.000	-0.003	-0.199
-562.544	-172.623	0.100	-0.003
-561.529	248.661	-0.052	0.088
-560.515	76.032	0.133	-0.142
-559.500	-11.279	0.090	-0.059
-558.485	800.000	0.090	0.358
-557.471	156.716	-0.246	-0.341
-556.456	25.821	0.213	-0.178
-555.442	-200.000	0.063	-0.315
-554.427	-200.000	0.002	-0.043
-553.412	-84.294	0.081	-0.026
-552.398	260.833	-0.080	0.139
-551.383	600.638	-0.117	0.292
-550.369	-200.000	-0.004	-0.212
-549.354	-5.884	-0.165	-0.113
-548.339	-200.000	-0.009	0.182
-547.325	295.289	-0.059	-0.109
-546.310	-50.480	0.179	-0.085
-545.296	-200.000	-0.016	-0.117
-544.281	-71.668	0.136	-0.051
-543.266	-200.000	0.021	0.231
-542.252	-118.283	-0.537	-0.096
-541.237	-41.533	0.286	0.147
-540.223	-200.000	-0.054	0.351
-539.208	-155.709	0.163	0.010
-538.193	72.974	-0.041	-0.042
-537.179	154.766	-0.099	-0.136
-536.164	-100.475	0.103	0.025
-535.150	-115.300	-0.145	0.027
-534.135	418.363	-0.040	0.086
-533.121	800.000	-0.109	-0.304
-532.106	113.777	-0.225	0.274
-531.091	-200.000	0.001	0.053
-530.077	254.818	-0.053	0.091
-529.062	221.071	-0.128	-0.206
-528.048	-73.283	0.271	0.099
-527.033	-110.300	-0.240	-0.050
-526.018	-152.512	-0.247	0.018
-525.004	2.647	-0.099	-0.072
-523.989	-200.000	-0.012	-0.378
-522.975	-67.647	-0.247	-0.097
-521.960	-200.000	-0.034	0.247
-520.945	165.553	-0.114	-0.162
-519.931	-150.215	-0.150	0.012
-518.916	-141.192	0.348	0.036
-517.902	-200.000	-0.013	0.305
-516.887	-28.519	-0.252	-0.146
-515.872	2.323	-0.316	-0.229
-514.858	-200.000	0.309	0.000
-513.843	272.649	-0.098	0.173
-512.829	-38.142	0.136	-0.073
-511.814	-45.467	0.064	0.032
-510.799	-145.722	-0.122	-0.011
-509.785	305.880	0.104	0.194
-508.770	-20.747	0.179	0.110
-507.756	364.409	0.074	-0.150
-506.741	800.000	0.064	-0.277
-505.726	800.000	-0.042	-0.166
-504.712	-165.874	-0.496	0.021
-503.697	-200.000	-0.061	0.269
-502.683	-69.870	-0.446	0.170
-501.668	86.800	-0.184	-0.204
-500.653	225.106	0.051	0.083
-499.639	65.342	0.116	0.117
-498.624	800.000	-0.146	0.558
-497.610	-45.071	-0.118	-0.059
-496.595	-54.559	-0.062	0.028
-495.581	800.000	0.069	0.231
-494.566	-16.167	-0.289	-0.184
-493.551	55.468	0.204	-0.198
-492.537	307.546	0.140	0.262
-491.522	800.000	0.101	0.297
-490.508	106.043	0.036	0.042
-489.493	314.722	0.062	-0.118
-488.478	61.016	-0.190	0.189
-487.464	-200.000	0.015	0.356
-486.449	-200.000	0.021	0.204
-485.435	-191.572	0.109	-0.001
-484.420	-41.771	0.237	0.122
-483.405	18.527	-0.163	0.130
-482.391	7.110	-0.128	-0.096
-481.376	-137.715	0.138	-0.015
-480.362	740.211	-0.115	-0.309
-479.347	-109.963	0.113	-0.024
-478.332	55.906	-0.048	0.047
-477.318	-123.793	-0.152	-0.024
-476.303	-200.000	-0.007	-0.057
-475.289	800.000	0.054	0.199
-474.274	78.624	-0.052	0.056
-473.259	-49.382	0.231	0.110
-472.245	-62.608	-0.409	-0.170
-471.230	134.136	0.166	-0.215
-470.216	250.135	-0.145	0.247
-469.201	-124.502	-0.565	0.088
-468.186	-74.923	-0.212	0.076
-467.172	109.176	0.273	-0.328
-466.157	-1.417	0.140	0.099
-465.143	579.159	0.131	0.321
-464.128	-132.455	-0.175	0.023
-463.113	17.201	-0.277	0.220
-462.099	-106.989	0.204	-0.045
-461.084	800.000	0.029	-0.089
-460.070	800.000	0.067	-0.185
-459.055	222.524	0.162	-0.260
-458.040	-150.902	0.170	0.013
-457.026	-200.000	-0.015	0.082
-456.011	-200.000	-0.004	-0.134
-454.997	113.763	-0.197	0.240
-453.982	-200.000	0.020	-0.091
-452.968	-87.214	-0.217	-0.066
-451.953	800.000	-0.036	0.132
-450.938	-200.000	0.020	0.258
-449.924	-76.849	-0.356	0.125
-448.909	-22.063	-0.080	0.049
-447.895	44.877	-0.082	-0.075
-446.880	-32.383	0.144	0.080
-445.865	107.828	0.217	0.259
-444.851	344.549	-0.105	0.205
-443.836	107.829	-0.188	0.224
-442.822	135.566	-0.075	0.097
-441.807	-23.342	0.137	0.082
-440.792	327.748	-0.162	-0.310
-439.778	163.328	-0.151	0.212
-438.763	157.607	0.225	0.311
-437.749	800.000	0.080	0.347
-436.734	800.000	-0.036	-0.117
-435.719	37.633	0.302	-0.268
-434.705	-75.305	-0.201	0.072
-433.690	-16.577	-0.092	-0.058
-432.676	-149.611	0.255	-0.020
-431.661	27.529	0.310	0.260
-430.646	-34.767	-0.333	-0.182
-429.632	706.232	-0.071	0.188
-428.617	-102.975	0.166	0.039
-427.603	-137.182	-0.200	0.023
-426.588	-83.302	0.126	0.040
-425.573	81.697	-0.274	0.297
-424.559	3.128	0.414	-0.301
-423.544	-200.000	0.007	-0.185
-422.530	800.000	-0.094	-0.281
-421.515	435.353	0.082	0.179
-420.500	46.391	0.190	0.176
-419.486	800.000	-0.053	-0.227
-418.471	800.000	-0.058	0.235
-417.457	-7.241	-0.073	-0.049
-416.442	800.000	0.069	-0.288
-415.428	213.389	-0.134	0.211
-414.413	800.000	-0.117	-0.355
-413.398	-200.000	0.020	-0.235
-412.384	-33.787	0.078	0.043
-411.369	800.000	-0.079	0.301
-410.355	-142.042	-0.555	0.055
-409.340	41.319	0.157	0.141
-408.325	-45.114	-0.008	-0.004
-407.311	-40.235	0.213	-0.111
-406.296	-93.977	0.166	-0.045
-405.282	-54.834	0.280	0.126
-404.267	-34.459	-0.154	0.085
-403.252	-200.000	-0.038	-0.217
-402.238	-200.000	0.013	0.154
-401.223	521.063	-0.047	-0.110
-400.209	-60.255	0.282	0.120
-399.194	26.583	0.025	-0.021
-398.179	-163.064	0.290	-0.014
-397.165	185.476	-0.121	-0.179
-396.150	-200.000	-0.008	0.092
-395.136	-54.791	0.016	0.007
-394.121	-200.000	0.028	0.197
-393.106	-23.571	-0.100	-0.060
-392.092	-126.441	-0.065	-0.010
-391.077	-200.000	-0.029	0.258
-390.063	84.721	0.215	-0.235
-389.048	-200.000	-0.034	-0.712
-388.033	-200.000	0.050	0.271
-387.019	-200.000	-0.003	-0.103
-386.004	203.846	-0.107	-0.165
-384.990	159.217	0.268	0.372
-383.975	112.145	-0.079	0.095
-382.960	-61.149	-0.246	0.104
-381.946	-74.647	-0.426	0.153
-380.931	167.650	0.281	0.398
-379.917	-114.902	-0.453	0.086
-378.902	139.713	0.068	-0.090
-377.888	-61.550	-0.294	-0.123
-376.873	-87.699	0.302	0.091
-375.858	208.511	0.190	0.297
-374.844	-25.307	-0.182	0.108
-373.829	-200.000	-0.007	-0.143
-372.815	-94.956	0.155	0.042
-371.800	-55.085	0.133	0.060
-370.785	-29.291	0.208	-0.119
-369.771	-34.107	-0.049	-0.027
-368.756	800.000	-0.079	0.311
-367.742	-130.991	0.136	-0.018
-366.727	-200.000	0.001	0.316
-365.712	15.261	0.112	0.087
-364.698	77.003	0.032	0.034
-363.683	6.345	0.068	-0.050
-362.669	-68.280	0.351	0.136
-361.654	800.000	0.046	0.190
-360.639	-98.374	0.221	0.056
-359.625	191.738	0.271	-0.406
-358.610	-91.893	-0.208	0.059
-357.596	-104.360	0.133	0.031
-356.581	11.012	0.243	-0.185
-355.566	800.000	-0.077	-0.243
-354.552	-143.117	0.215	-0.021
-353.537	-200.000	0.046	-0.348
-352.523	-35.280	0.128	0.069
-351.508	497.211	0.154	0.352
-350.493	-64.661	0.146	0.059
-349.479	800.000	-0.093	0.275
-348.464	268.764	0.072	0.126
-347.450	-133.276	0.219	0.028
-346.435	-39.691	-0.076	-0.039
-345.420	-142.554	-0.271	-0.026
-344.406	716.974	0.130	0.344
-343.391	-200.000	-0.014	0.119
-342.377	-191.851	-0.300	0.003
-341.362	28.184	-0.142	0.120
-340.348	-101.586	0.129	0.031
-339.333	-40.544	-0.148	-0.076
-338.318	112.417	-0.235	0.283
-337.304	800.000	-0.050	0.200
-336.289	-200.000	-0.017	0.181
-335.275	-70.513	0.041	0.015
-334.260	-71.023	0.140	0.053
-333.245	-111.556	-0.335	-0.068
-332.231	-171.774	0.174	-0.006
-331.216	800.000	-0.016	-0.045
-330.202	49.172	0.074	0.069
-329.187	55.123	-0.214	-0.206
-328.172	-200.000	-0.018	0.125
-327.158	-151.677	-0.292	0.021
-326.143	41.646	0.137	-0.123
-325.129	-200.000	0.017	0.112
-324.114	800.000	-0.082	-0.330
-323.099	-200.000	-0.057	-0.266
-322.085	-6.465	0.261	-0.177
-321.070	-44.599	-0.204	-0.101
-320.056	-92.357	0.422	-0.118
-319.041	-118.326	-0.412	0.073
-318.026	-200.000	-0.016	0.089
-317.012	531.841	-0.100	0.234
-315.997	36.318	-0.027	0.024
-314.983	283.720	0.128	0.228
-313.968	252.958	-0.113	-0.191
-312.953	142.508	-0.197	0.260
-311.939	179.738	-0.163	-0.237
-310.924	213.147	0.053	0.083
-309.910	-200.000	0.093	0.504
-308.895	130.326	0.190	-0.242
-307.880	800.000	-0.034	0.119
-306.866	317.899	-0.151	0.284
-305.851	401.939	0.126	0.263
-304.837	-29.795	-0.110	0.062
-303.822	185.740	-0.170	-0.252
-302.807	27.054	-0.155	-0.129
-301.793	37.793	0.107	0.095
-300.778	-92.290	0.174	0.049
-299.764	-41.075	0.146	-0.075
-298.749	617.206	0.077	-0.192
-297.735	-200.000	0.040	-0.317
-296.720	-59.310	0.101	-0.043
-295.705	4.581	0.315	0.230
-294.691	-39.043	-0.103	0.054
-293.676	309.682	0.166	0.308
-292.662	42.478	0.210	0.190
-291.647	280.957	-0.160	0.285
-290.632	-31.815	0.193	0.108
-289.618	-200.000	0.028	-0.169
-288.603	-38.364	0.056	-0.030
-287.589	162.590	0.004	0.005
-286.574	-31.927	0.297	-0.165
-285.559	0.317	-0.124	-0.088
-284.545	-148.718	-0.245	-0.020
-283.530	130.638	-0.142	-0.181
-282.516	317.541	-0.087	-0.164
-281.501	800.000	0.044	0.128
-280.486	-129.064	0.387	-0.054
-279.472	-37.646	-0.362	0.192
-278.457	99.441	0.323	0.371
-277.443	385.310	0.045	0.093
-276.428	800.000	0.019	-0.079
-275.413	-73.251	0.172	0.062
-274.399	393.909	0.144	-0.297
-273.384	203.263	-0.202	0.311
-272.370	4.673	0.221	-0.161
-271.355	51.179	0.210	-0.198
-270.340	-76.281	0.175	0.061
-269.326	71.717	0.105	0.108
-268.311	-200.000	-0.022	0.185
-267.297	417.466	-0.157	0.334
-266.282	554.539	0.082	0.196
-265.267	-28.637	0.144	0.082
-264.253	-95.978	0.278	0.073
-263.238	-137.134	0.140	-0.016
-262.224	800.000	0.042	-0.115
-261.209	54.040	0.173	-0.165
-260.195	-54.404	0.127	-0.057
-259.180	800.000	0.053	-0.209
-258.165	-138.552	0.049	0.005
-257.151	-111.824	-0.291	-0.058
-256.136	-31.207	-0.060	-0.033
-255.122	142.329	-0.178	0.235
-254.107	449.729	-0.089	-0.194
-253.092	717.570	-0.116	-0.306
-252.078	311.325	0.058	0.107
-251.063	359.037	0.074	0.146
-250.049	187.464	0.170	-0.251
-249.034	441.008	-0.085	-0.185
-248.019	-141.862	-0.234	-0.023
-247.005	193.291	0.095	-0.142
-245.990	800.000	-0.018	0.052
-244.976	-79.925	0.238	0.079
-243.961	70.107	0.218	0.224
-242.946	-111.047	0.185	-0.038
-241.932	-114.015	0.153	0.029
-240.917	391.826	-0.030	0.063
-239.903	-200.000	-0.112	-0.545
-238.888	307.964	-0.037	-0.068
-237.873	-104.558	0.176	-0.040
-236.859	-95.299	-0.024	-0.006
-235.844	542.160	0.176	-0.416
-234.830	75.552	0.034	0.036
-233.815	-77.925	0.191	0.065
-232.800	-114.177	-0.229	-0.044
-231.786	800.000	-0.122	-0.394
-230.771	12.551	0.330	-0.253
-229.757	56.742	0.165	0.159
-228.742	94.909	0.140	0.158
-227.727	227.105	0.096	-0.155
-226.713	-108.062	0.330	-0.071
-225.698	75.231	-0.135	0.141
-224.684	-87.689	-0.530	-0.159
-223.669	751.032	0.073	-0.196
-222.655	-200.000	0.027	0.237
-221.640	191.440	0.186	-0.277
-220.625	138.122	0.220	-0.287
-219.611	-86.961	-0.062	-0.019
-218.596	-200.000	-0.172	0.000
-217.582	19.311	0.073	-0.058
-216.567	-45.778	0.270	-0.132
-215.552	-73.916	-0.104	0.037
-214.538	430.869	0.057	0.122
-213.523	-166.066	-0.174	-0.007
-212.509	132.679	0.024	-0.031
-211.494	256.677	0.022	0.037
-210.479	-117.606	-0.071	-0.013
-209.465	498.255	-0.032	-0.073
-208.450	6.638	0.045	0.033
-207.436	41.660	-0.037	-0.033
-206.421	-200.000	0.030	0.146
-205.406	360.065	-0.099	0.196
-204.392	86.680	-0.128	-0.140
-203.377	-200.000	0.019	0.088
-202.363	6.222	-0.110	0.081
-201.348	-200.000	0.016	0.313
-200.333	-67.102	-0.305	-0.119
-199.319	139.618	-0.067	-0.087
-198.304	211.789	-0.106	0.165
-197.290	4.906	-0.072	-0.052
-196.275	-200.000	0.014	0.254
-195.260	800.000	-0.060	-0.203
-194.246	-99.499	-0.048	0.012
-193.231	70.976	0.065	-0.067
-192.217	-55.124	-0.117	-0.052
-191.202	12.382	0.047	-0.036
-190.187	-81.820	-0.098	0.032
-189.173	675.630	-0.117	-0.300
-188.158	-106.331	0.533	0.118
-187.144	-127.071	0.211	0.031
-186.129	-68.792	-0.335	0.128
-185.114	31.463	0.227	0.193
-184.100	-169.668	0.266	-0.010
-183.085	-65.168	0.273	0.109
-182.071	154.240	0.108	-0.146
-181.056	-139.459	-0.141	-0.015
-180.042	406.451	-0.071	-0.149
-179.027	-14.662	-0.118	-0.075
-178.012	-200.000	-0.011	0.425
-176.998	104.833	-0.100	0.117
-175.983	800.000	-0.069	-0.252
-174.969	800.000	-0.023	-0.078
-173.954	-45.201	-0.209	-0.103
-172.939	-200.000	-0.002	0.169
-171.925	800.000	-0.129	-0.523
-170.910	8.846	0.021	-0.016
-169.896	-200.000	0.025	0.132
-168.881	-200.000	0.048	-0.361
-167.866	-48.498	0.302	-0.144
-166.852	800.000	0.041	-0.176
-165.837	23.013	0.018	0.015
-164.823	216.497	-0.141	-0.222
-163.808	166.534	0.239	-0.334
-162.793	-5.774	0.153	-0.104
-161.779	-112.154	0.287	0.057
-160.764	-131.065	0.330	0.044
-159.750	-85.297	-0.055	-0.017
-158.735	-7.156	-0.249	-0.167
-157.720	-34.538	-0.335	-0.181
-156.706	45.781	0.068	0.062
-155.691	-117.068	-0.243	0.044
-154.677	-19.581	-0.063	-0.038
-153.662	-180.228	-0.373	-0.008
-152.647	-89.099	-0.124	-0.036
-151.633	103.748	-0.036	-0.042
-150.618	-200.000	-0.074	-0.324
-149.604	-56.747	-0.194	0.085
-148.589	-104.905	0.162	-0.037
-147.574	13.720	0.233	0.179
-146.560	-67.447	-0.180	0.070
-145.545	-200.000	0.003	-0.082
-144.531	-63.383	0.283	0.115
-143.516	-131.892	0.144	0.019
-142.502	131.634	-0.236	0.300
-141.487	-154.797	0.322	0.021
-140.472	-133.356	0.285	0.035
-139.458	-104.131	-0.133	0.031
-138.443	54.047	0.279	-0.265
-137.429	-200.000	-0.016	-0.100
-136.414	150.522	-0.101	-0.136
-135.399	-165.013	-0.099	-0.004
-134.385	-122.515	-0.233	0.037
-133.370	-104.518	-0.135	-0.031
-132.356	9.723	-0.221	0.166
-131.341	-164.360	0.149	-0.007
-130.326	589.052	-0.067	0.163
-129.312	435.240	0.057	-0.121
-128.297	90.789	0.082	-0.091
-127.283	-34.114	-0.181	0.098
-126.268	-59.482	-0.141	-0.060
-125.253	-163.255	0.165	0.008
-124.239	-64.278	-0.304	-0.122
-123.224	-95.270	0.194	-0.052
-122.210	-81.139	-0.158	-0.052
-121.195	12.259	0.108	-0.082
