DTS Sentinel unit serial number:	SN413079Multiplexer serial number:	ORYXHardware model number:	OX4-SRSoftware version number:	ORYX F/W v4.00 Oryx Data Collector v3.7.2.0data status	okinstallation	princeton_trtdifferential loss correction	single-endedforward channel	channel 2reverse channel	N/Adate	2019/09/13time	02:07:35forward acquisition time	60.00reverse acquisition time	0.00gamma	496.2192k internal	0.2333k external	0.2333temperature offset calibration	1.0181default loss term (dB/km)	0.3790temperature slope calibration	1.0000multiplexer offset coefficient	1.0000multiplexer slope coefficient	1.0000fibre end	0.00T internal ref (°C)	27.56T ext. ref 1 (°C)	3.89T ext. ref 2 (°C)	22.23length (m)	temperature (°C)	Stokes	anti-Stokes-747.200	444.428	0.030	-0.067
-746.185	26.176	0.219	0.184
-745.171	-200.000	0.079	0.351
-744.156	-31.434	0.230	0.130
-743.142	-65.627	0.087	-0.035
-742.127	800.000	-0.065	0.277
-741.112	-52.660	0.129	0.060
-740.098	-133.249	-0.164	-0.021
-739.083	-200.000	0.048	0.476
-738.069	644.691	-0.048	-0.124
-737.054	226.082	0.089	0.145
-736.039	800.000	0.044	-0.171
-735.025	59.256	0.063	0.062
-734.010	-200.000	0.016	-0.319
-732.996	-200.000	-0.023	0.267
-731.981	-175.219	0.134	0.004
-730.966	-126.942	-0.264	-0.039
-729.952	-50.527	0.120	0.057
-728.937	-200.000	-0.073	0.406
-727.923	591.476	0.017	-0.042
-726.908	367.709	-0.153	-0.311
-725.894	143.877	-0.119	0.159
-724.879	144.958	0.073	0.098
-723.864	-139.881	-0.577	0.061
-722.850	-87.140	0.360	-0.110
-721.835	-200.000	0.047	-0.226
-720.821	42.134	0.123	-0.112
-719.806	-47.652	-0.274	0.133
-718.791	-48.097	-0.168	-0.081
-717.777	-200.000	-0.038	-0.372
-716.762	-200.000	-0.004	-0.209
-715.748	24.018	-0.162	-0.135
-714.733	-200.000	0.001	0.121
-713.718	800.000	0.078	0.281
-712.704	2.390	0.182	0.132
-711.689	-200.000	-0.013	-0.195
-710.675	-157.034	0.198	0.012
-709.660	59.495	0.150	-0.148
-708.645	800.000	-0.107	-0.326
-707.631	267.469	-0.188	0.331
-706.616	800.000	0.049	-0.147
-705.602	164.874	-0.194	-0.275
-704.587	-96.450	-0.148	0.039
-703.572	800.000	0.115	-0.333
-702.558	-121.179	0.235	0.039
-701.543	-6.012	-0.192	-0.132
-700.529	67.258	-0.153	-0.157
-699.514	-75.274	-0.176	0.063
-698.499	-97.424	0.057	-0.015
-697.485	-200.000	-0.007	0.086
-696.470	94.653	0.175	-0.200
-695.456	-67.782	0.186	0.073
-694.441	-99.683	-0.338	0.085
-693.426	103.720	-0.088	-0.104
-692.412	800.000	-0.099	-0.336
-691.397	551.943	0.036	-0.086
-690.383	-200.000	0.025	0.130
-689.368	-200.000	0.032	0.183
-688.354	800.000	-0.051	-0.211
-687.339	800.000	0.055	0.235
-686.324	-119.014	-0.046	-0.008
-685.310	20.493	0.247	0.200
-684.295	-54.972	0.338	-0.153
-683.281	800.000	-0.045	-0.130
-682.266	800.000	0.076	0.328
-681.251	42.716	0.189	-0.173
-680.237	800.000	-0.054	-0.199
-679.222	204.744	0.041	-0.064
-678.208	2.355	-0.325	-0.236
-677.193	800.000	0.139	-0.396
-676.178	-33.898	0.261	-0.144
-675.164	349.356	-0.083	0.164
-674.149	105.882	0.150	-0.178
-673.135	3.380	-0.116	0.085
-672.120	-36.688	0.181	-0.098
-671.105	95.512	-0.278	0.318
-670.091	352.801	0.154	0.306
-669.076	157.166	0.126	0.175
-668.062	-17.204	-0.228	0.144
-667.047	-13.497	0.066	-0.043
-666.032	-56.892	0.093	-0.041
-665.018	-53.666	-0.313	0.143
-664.003	-109.421	-0.078	0.017
-662.989	-84.602	0.053	-0.017
-661.974	107.650	-0.216	0.258
-660.959	-200.000	-0.021	-0.464
-659.945	-103.262	-0.116	0.028
-658.930	243.734	-0.029	-0.048
-657.916	16.955	0.177	0.141
-656.901	151.205	-0.153	-0.208
-655.886	69.308	0.273	0.281
-654.872	-200.000	-0.001	0.135
-653.857	-15.167	0.262	0.168
-652.843	479.025	-0.063	0.143
-651.828	-200.000	0.008	-0.122
-650.814	-2.562	0.144	-0.101
-649.799	437.145	0.296	-0.646
-648.784	-142.667	-0.368	-0.036
-647.770	-135.498	-0.156	-0.019
-646.755	123.740	0.177	-0.223
-645.741	800.000	0.119	-0.442
-644.726	-45.012	0.118	-0.059
-643.711	-89.349	-0.106	-0.031
-642.697	-99.470	-0.314	-0.079
-641.682	-41.176	-0.189	0.098
-640.668	120.769	-0.172	-0.214
-639.653	496.054	-0.172	0.395
-638.638	247.833	-0.105	0.178
-637.624	-200.000	-0.039	-0.333
-636.609	-200.000	-0.002	-0.116
-635.595	-42.979	-0.192	-0.098
-634.580	-117.148	0.497	0.091
-633.565	-200.000	-0.043	-0.189
-632.551	11.338	-0.197	0.151
-631.536	-129.920	0.298	-0.041
-630.522	37.183	-0.130	-0.115
-629.507	501.505	-0.077	-0.178
-628.492	-90.329	0.153	0.044
-627.478	-116.992	-0.270	-0.049
-626.463	-200.000	-0.044	-0.207
-625.449	-200.000	0.030	-0.348
-624.434	-48.337	0.023	-0.011
-623.419	-84.021	0.175	-0.056
-622.405	25.839	0.137	-0.114
-621.390	-81.989	0.405	0.132
-620.376	-4.250	0.060	0.042
-619.361	-52.098	-0.133	0.062
-618.346	-200.000	0.033	0.163
-617.332	308.212	0.050	-0.093
-616.317	-16.069	-0.347	0.220
-615.303	-200.000	-0.012	-0.081
-614.288	386.283	-0.129	0.267
-613.273	-126.424	0.087	-0.013
-612.259	742.038	-0.064	0.171
-611.244	-41.140	0.189	0.098
-610.230	-74.034	-0.381	-0.138
-609.215	82.671	0.279	0.303
-608.201	-4.172	0.023	-0.016
-607.186	-111.574	-0.201	-0.041
-606.171	565.562	0.060	0.144
-605.157	123.991	-0.140	0.175
-604.142	-200.000	0.031	-0.160
-603.128	-146.753	0.187	0.016
-602.113	28.702	-0.041	0.035
-601.098	-138.284	-0.403	-0.045
-600.084	-200.000	-0.005	-0.139
-599.069	-92.988	0.154	0.043
-598.055	-22.784	0.095	0.057
-597.040	800.000	0.066	-0.196
-596.025	-200.000	0.029	-0.293
-595.011	-130.732	0.025	0.003
-593.996	-200.000	-0.189	0.899
-592.982	-200.000	-0.014	0.130
-591.967	-169.756	0.152	-0.005
-590.952	-146.848	0.336	0.029
-589.938	327.711	0.121	0.232
-588.923	174.318	0.208	-0.301
-587.909	-200.000	0.057	0.272
-586.894	-200.000	-0.008	-0.155
-585.879	-200.000	0.019	-0.260
-584.865	800.000	-0.041	-0.141
-583.850	-200.000	0.011	-0.079
-582.836	-52.607	0.238	0.110
-581.821	-41.760	0.214	-0.110
-580.806	58.387	0.069	0.068
-579.792	-47.848	0.185	-0.089
-578.777	-90.373	-0.250	-0.072
-577.763	-24.797	0.357	0.212
-576.748	-129.698	-0.261	-0.036
-575.733	305.957	-0.095	0.177
-574.719	800.000	0.062	0.229
-573.704	29.384	0.173	-0.147
-572.690	-200.000	-0.025	-0.254
-571.675	39.593	0.070	-0.063
-570.661	-200.000	-0.039	0.248
-569.646	-176.401	-0.320	-0.008
-568.631	-33.074	-0.498	-0.276
-567.617	-28.172	-0.285	0.165
-566.602	117.162	0.249	-0.306
-565.588	-200.000	0.090	-0.000
-564.573	-84.642	-0.248	-0.078
-563.558	-200.000	-0.050	0.317
-562.544	92.121	0.271	0.304
-561.529	800.000	-0.023	-0.074
-560.515	56.098	-0.369	0.358
-559.500	800.000	0.037	-0.132
-558.485	249.561	-0.066	0.112
-557.471	-24.714	0.086	-0.051
-556.456	-200.000	0.005	0.091
-555.442	171.559	-0.018	0.025
-554.427	294.391	-0.068	0.125
-553.412	-120.707	0.128	-0.022
-552.398	-200.000	0.013	-0.188
-551.383	-200.000	-0.022	0.385
-550.369	-49.764	-0.223	0.106
-549.354	62.637	0.077	-0.077
-548.339	800.000	0.152	-0.423
-547.325	-55.396	-0.209	0.094
-546.310	-200.000	-0.002	-0.045
-545.296	-52.303	-0.019	-0.009
-544.281	-200.000	-0.032	0.294
-543.266	-184.132	-0.323	0.005
-542.252	-200.000	0.062	-0.400
-541.237	-200.000	0.032	-0.260
-540.223	-87.721	0.102	-0.031
-539.208	800.000	0.027	0.076
-538.193	-57.762	-0.208	0.091
-537.179	38.969	-0.098	-0.087
-536.164	-117.658	-0.118	-0.021
-535.150	-200.000	0.095	0.551
-534.135	249.594	-0.068	0.115
-533.121	-200.000	0.007	-0.307
-532.106	488.899	-0.071	-0.162
-531.091	-129.315	-0.134	0.019
-530.077	-48.012	-0.255	0.123
-529.062	-126.038	-0.340	0.051
-528.048	-89.190	0.214	0.063
-527.033	-53.848	0.219	0.100
-526.018	273.702	0.057	0.100
-525.004	-84.335	-0.196	-0.062
-523.989	165.049	-0.121	0.170
-522.975	711.861	0.234	-0.618
-521.960	225.324	0.054	0.086
-520.945	-61.443	-0.059	0.025
-519.931	-136.837	0.210	-0.024
-518.916	-200.000	-0.017	-0.195
-517.902	-161.284	-0.217	0.011
-516.887	-17.194	0.250	0.157
-515.872	3.787	-0.133	0.096
-514.858	-72.535	-0.105	0.039
-513.843	800.000	0.080	0.257
-512.829	140.752	0.227	0.299
-511.814	208.539	-0.148	0.230
-510.799	282.592	0.125	-0.223
-509.785	74.099	0.105	-0.110
-508.770	-200.000	-0.010	0.352
-507.756	82.644	-0.128	0.139
-506.741	-200.000	-0.015	-0.383
-505.726	-200.000	0.016	0.181
-504.712	6.713	-0.329	-0.244
-503.697	800.000	-0.070	-0.296
-502.683	16.612	-0.076	0.060
-501.668	291.737	-0.100	-0.182
-500.653	186.151	0.079	-0.117
-499.639	-64.655	-0.362	-0.146
-498.624	-14.693	-0.269	-0.172
-497.610	-37.062	0.246	-0.131
-496.595	-7.010	0.234	0.158
-495.581	-8.939	0.185	0.123
-494.566	-200.000	0.013	0.248
-493.551	-14.253	0.245	0.157
-492.537	131.290	0.265	0.339
-491.522	-121.979	0.163	-0.027
-490.508	-200.000	0.007	0.118
-489.493	-46.464	0.076	0.037
-488.478	-134.922	0.088	0.011
-487.464	81.804	0.142	-0.153
-486.449	-200.000	-0.019	0.286
-485.435	-200.000	0.006	0.032
-484.420	17.286	-0.281	-0.222
-483.405	-121.197	-0.305	0.051
-482.391	-200.000	-0.011	0.057
-481.376	-95.175	0.178	0.048
-480.362	-19.618	-0.192	-0.118
-479.347	119.939	-0.207	-0.255
-478.332	-49.169	-0.492	0.234
-477.318	800.000	0.096	0.362
-476.303	77.747	0.096	-0.102
-475.289	-109.543	0.185	-0.039
-474.274	-145.378	0.198	-0.018
-473.259	621.255	-0.054	-0.134
-472.245	-10.321	0.182	0.120
-471.230	-112.472	-0.165	-0.033
-470.216	181.767	-0.178	0.260
-469.201	320.849	0.260	0.491
-468.186	41.365	0.132	0.119
-467.172	-81.207	0.203	0.067
-466.157	-8.469	-0.109	0.073
-465.143	800.000	0.046	-0.135
-464.128	-148.496	-0.259	-0.021
-463.113	47.791	-0.181	0.168
-462.099	-56.114	-0.145	-0.064
-461.084	-74.390	0.085	-0.030
-460.070	-96.696	0.104	0.027
-459.055	187.492	-0.100	0.149
-458.040	41.155	0.209	-0.188
-457.026	31.087	-0.230	-0.196
-456.011	-114.788	0.438	0.083
-454.997	252.557	-0.152	0.258
-453.982	800.000	-0.028	-0.102
-452.968	800.000	0.051	-0.172
-451.953	-200.000	0.084	-0.381
-450.938	-161.685	-0.400	0.020
-449.924	800.000	-0.053	-0.197
-448.909	64.478	0.317	-0.317
-447.895	123.475	0.065	-0.082
-446.880	800.000	0.061	-0.205
-445.865	286.678	0.202	0.362
-444.851	-200.000	-0.029	0.230
-443.836	43.656	0.273	-0.248
-442.822	-200.000	-0.021	0.204
-441.807	418.057	-0.088	-0.188
-440.792	800.000	-0.068	-0.280
-439.778	-120.575	-0.238	0.040
-438.763	-200.000	-0.018	-0.136
-437.749	129.964	0.091	0.116
-436.734	796.494	0.051	0.140
-435.719	-200.000	0.034	-0.376
-434.705	637.282	-0.078	0.198
-433.690	-200.000	0.003	0.298
-432.676	-149.581	0.019	-0.002
-431.661	236.788	0.101	0.167
-430.646	-118.120	-0.344	-0.061
-429.632	41.550	-0.084	-0.075
-428.617	-200.000	0.022	-0.308
-427.603	175.453	0.097	0.139
-426.588	57.931	-0.210	-0.204
-425.573	-84.712	0.115	-0.036
-424.559	24.860	-0.120	0.099
-423.544	233.780	0.289	-0.472
-422.530	-200.000	-0.011	0.062
-421.515	-150.958	0.117	-0.009
-420.500	89.814	-0.161	0.179
-419.486	9.822	0.141	-0.106
-418.471	460.131	0.162	-0.358
-417.457	-3.443	-0.229	0.158
-416.442	-106.772	0.253	0.056
-415.428	-200.000	0.014	0.140
-414.413	-175.288	-0.254	0.007
-413.398	275.154	-0.050	0.088
-412.384	203.176	-0.232	-0.355
-411.369	-200.000	-0.023	-0.313
-410.355	-37.983	-0.081	-0.043
-409.340	204.336	-0.200	0.307
-408.325	-37.076	0.294	0.156
-407.311	20.017	0.147	-0.117
-406.296	241.286	0.169	0.280
-405.282	-42.125	0.328	0.166
-404.267	-109.513	0.316	-0.066
-403.252	110.534	-0.307	-0.366
-402.238	-161.310	0.226	-0.012
-401.223	-45.381	-0.173	0.085
-400.209	-9.978	-0.396	-0.261
-399.194	141.007	-0.139	0.183
-398.179	-30.034	0.190	0.107
-397.165	-200.000	-0.022	0.301
-396.150	-164.466	-0.032	0.001
-395.136	-135.285	0.122	-0.015
-394.121	2.076	-0.164	0.118
-393.106	50.163	-0.134	0.126
-392.092	-154.626	0.285	0.019
-391.077	-200.000	-0.032	-0.299
-390.063	-92.936	0.273	0.076
-389.048	800.000	0.059	-0.179
-388.033	-200.000	0.040	0.225
-387.019	-51.109	-0.115	0.054
-386.004	143.139	0.178	0.235
-384.990	581.387	0.089	-0.217
-383.975	-15.097	-0.190	-0.121
-382.960	-150.362	-0.223	-0.017
-381.946	-200.000	0.058	-0.549
-380.931	7.690	-0.225	-0.167
-379.917	-119.709	-0.074	0.013
-378.902	-86.585	-0.230	-0.070
-377.888	-93.574	-0.468	0.128
-376.873	-123.383	-0.569	0.090
-375.858	-200.000	-0.004	-0.097
-374.844	-90.793	0.263	0.075
-373.829	-56.699	0.339	-0.149
-372.815	-45.988	-0.194	-0.095
-371.800	186.094	0.188	0.276
-370.785	-25.334	-0.046	-0.027
-369.771	-143.888	0.306	0.029
-368.756	-163.270	0.200	-0.009
-367.742	108.412	-0.111	0.132
-366.727	7.971	0.114	0.085
-365.712	-200.000	0.021	0.220
-364.698	-200.000	-0.059	-0.299
-363.683	-200.000	0.040	0.211
-362.669	800.000	0.037	-0.125
-361.654	-200.000	0.003	-0.078
-360.639	-198.159	-0.177	-0.001
-359.625	-200.000	-0.036	-0.166
-358.610	45.895	-0.107	0.098
-357.596	-40.167	0.139	0.071
-356.581	-200.000	-0.029	-0.260
-355.566	-115.879	0.017	-0.003
-354.552	74.242	0.185	0.193
-353.537	-200.000	-0.103	-0.000
-352.523	503.228	0.083	0.191
-351.508	-200.000	0.015	-0.272
-350.493	244.555	-0.102	-0.169
-349.479	-118.693	0.251	0.044
-348.464	145.663	0.221	0.294
-347.450	-94.603	-0.192	0.052
-346.435	-148.986	0.212	-0.017
-345.420	-7.257	0.043	-0.029
-344.406	450.213	-0.135	-0.295
-343.391	800.000	0.100	-0.285
-342.377	3.157	-0.147	0.106
-341.362	800.000	0.046	0.141
-340.348	27.550	-0.353	-0.294
-339.333	800.000	-0.035	0.151
-338.318	180.084	0.167	-0.242
-337.304	-200.000	0.033	-0.193
-336.289	111.098	-0.201	0.239
-335.275	-200.000	-0.014	-0.168
-334.260	117.699	0.049	0.060
-333.245	177.275	0.176	-0.253
-332.231	115.297	0.045	0.054
-331.216	-119.540	0.205	0.035
-330.202	-143.828	-0.134	0.012
-329.187	39.601	-0.088	0.078
-328.172	-110.083	-0.309	0.064
-327.158	-97.999	-0.121	-0.031
-326.143	316.741	-0.158	-0.294
-325.129	-27.234	-0.296	0.170
-324.114	-9.339	0.142	0.094
-323.099	-105.721	0.183	-0.041
-322.085	-29.691	-0.234	0.132
-321.070	6.725	-0.276	-0.203
-320.056	436.438	-0.108	0.233
-319.041	5.010	-0.182	0.132
-318.026	800.000	-0.047	-0.162
-317.012	-92.723	0.132	0.037
-315.997	159.726	-0.281	0.387
-314.983	-94.554	-0.064	0.017
-313.968	133.755	-0.077	-0.099
-312.953	276.780	-0.057	-0.100
-311.939	5.759	0.118	-0.086
-310.924	-25.751	-0.066	0.038
-309.910	679.334	-0.067	0.173
-308.895	-39.101	0.212	-0.110
-307.880	64.719	-0.138	-0.138
-306.866	800.000	-0.069	0.235
-305.851	800.000	-0.055	-0.151
-304.837	61.550	-0.169	0.166
-303.822	-200.000	0.024	-0.143
-302.807	-160.355	0.241	-0.013
-301.793	-141.103	-0.257	-0.026
-300.778	60.761	-0.106	-0.104
-299.764	-111.013	0.216	0.044
-298.749	57.152	0.091	0.088
-297.735	-134.604	0.319	-0.038
-296.720	13.544	0.220	0.169
-295.705	291.066	0.108	0.194
-294.691	800.000	-0.052	0.192
-293.676	800.000	-0.059	0.244
-292.662	290.273	0.122	0.219
-291.647	243.331	0.053	-0.088
-290.632	109.145	-0.052	0.062
-289.618	-11.306	0.157	0.102
-288.603	800.000	-0.065	-0.204
-287.589	236.249	-0.074	-0.121
-286.574	88.880	0.070	0.077
-285.559	191.144	0.053	-0.079
-284.545	211.037	0.076	0.119
-283.530	471.757	0.122	0.271
-282.516	-200.000	0.057	-0.262
-281.501	-88.329	0.211	-0.062
-280.486	49.300	0.069	0.064
-279.472	-32.993	-0.231	-0.127
-278.457	-11.642	0.347	0.225
-277.443	455.289	0.081	0.178
-276.428	-24.071	-0.178	-0.105
-275.413	-143.028	0.277	0.026
-274.399	448.003	-0.074	0.162
-273.384	-116.298	-0.256	-0.047
-272.370	-57.227	-0.274	0.119
-271.355	45.493	0.183	-0.167
-270.340	112.786	-0.059	-0.070
-269.326	423.602	-0.126	0.267
-268.311	413.028	0.086	0.180
-267.297	35.196	0.120	-0.104
-266.282	-146.669	-0.077	-0.007
-265.267	-126.656	-0.233	-0.034
-264.253	-53.115	-0.158	-0.072
-263.238	92.714	-0.209	-0.233
-262.224	-119.825	-0.071	0.012
-261.209	536.677	0.103	-0.242
-260.195	-200.000	-0.019	-0.084
-259.180	-153.170	-0.013	0.001
-258.165	-200.000	-0.038	-0.224
-257.151	194.872	0.168	0.252
-256.136	-200.000	0.000	-0.265
-255.122	-83.744	-0.049	0.015
-254.107	-29.514	0.064	0.036
-253.092	-24.340	0.243	-0.143
-252.078	-175.470	-0.090	-0.002
-251.063	547.239	0.076	0.180
-250.049	347.710	-0.137	-0.266
-249.034	146.312	-0.049	0.065
-248.019	203.189	0.141	-0.214
-247.005	-200.000	0.003	-0.051
-245.990	800.000	0.030	-0.090
-244.976	-36.493	0.419	-0.223
-243.961	-200.000	0.008	-0.413
-242.946	635.066	0.022	-0.055
-241.932	533.862	-0.196	0.458
-240.917	-6.225	-0.138	0.093
-239.903	89.632	0.164	-0.180
-238.888	0.382	-0.121	0.085
-237.873	-128.881	0.335	-0.046
-236.859	-200.000	-0.008	-0.241
-235.844	-200.000	0.005	0.291
-234.830	-97.849	0.191	0.049
-233.815	-4.090	0.027	-0.018
-232.800	-157.590	0.509	-0.030
-231.786	-200.000	0.003	0.066
-230.771	-200.000	-0.013	0.131
-229.757	-200.000	0.060	0.284
-228.742	-49.840	0.063	0.029
-227.727	97.906	0.042	0.047
-226.713	800.000	0.030	0.101
-225.698	-12.968	0.193	-0.124
-224.684	11.377	0.104	-0.078
-223.669	-102.342	0.111	-0.026
-222.655	259.294	0.067	-0.113
-221.640	-164.389	-0.134	0.006
-220.625	80.206	0.325	-0.344
-219.611	-67.851	-0.297	-0.114
-218.596	-87.696	-0.113	-0.034
-217.582	-106.274	-0.277	-0.061
-216.567	-60.855	-0.119	-0.050
-215.552	-200.000	-0.041	-0.192
-214.538	-79.284	0.212	-0.071
-213.523	-200.000	0.017	0.396
-212.509	-35.602	-0.050	-0.027
-211.494	-169.138	-0.164	-0.006
-210.479	305.425	-0.088	0.160
-209.465	-129.482	0.428	-0.058
-208.450	237.215	-0.202	-0.330
-207.436	-200.000	0.038	0.296
-206.421	-12.880	-0.091	0.058
-205.406	331.840	0.013	-0.025
-204.392	105.659	0.273	-0.318
-203.377	-55.973	-0.043	0.019
-202.363	64.423	0.093	0.092
-201.348	-200.000	0.048	0.276
-200.333	452.701	-0.084	0.182
-199.319	-147.084	0.397	-0.033
-198.304	350.465	0.103	0.200
-197.290	-57.084	0.162	0.070
-196.275	130.510	0.194	-0.244
-195.260	83.677	0.184	0.197
-194.246	-56.949	-0.126	0.055
-193.231	-32.965	-0.138	-0.075
-192.217	800.000	-0.024	0.066
-191.202	-200.000	0.022	0.163
-190.187	-152.312	0.215	-0.015
-189.173	24.326	-0.066	0.054
-188.158	488.677	0.071	0.160
-187.144	-97.432	0.244	0.062
-186.129	-88.024	0.142	0.042
-185.114	-150.587	-0.096	0.007
-184.100	-15.785	0.287	0.180
-183.085	31.853	-0.203	0.172
-182.071	154.748	0.104	0.141
-181.056	-25.881	-0.091	-0.052
-180.042	346.989	-0.103	0.198
-179.027	-6.192	-0.154	0.104
-178.012	-29.347	-0.119	-0.067
-176.998	-200.000	-0.038	0.249
-175.983	-81.866	0.350	0.113
-174.969	719.732	-0.045	0.118
-173.954	-9.801	-0.272	-0.178
-172.939	800.000	0.045	0.158
-171.925	41.049	-0.196	-0.174
-170.910	179.525	0.024	0.035
-169.896	-51.425	0.116	0.053
-168.881	-200.000	0.028	-0.167
-167.866	424.953	-0.079	0.167
-166.852	44.500	0.109	0.099
-165.837	-155.687	0.245	0.015
-164.823	-200.000	-0.013	0.119
-163.808	-200.000	0.023	0.379
-162.793	-118.283	-0.218	-0.038
-161.779	14.026	0.109	-0.083
-160.764	320.635	-0.098	0.183
-159.750	800.000	-0.131	0.423
-158.735	-153.770	0.048	0.003
-157.720	-200.000	0.014	-0.181
-156.706	28.164	0.211	-0.175
-155.691	-108.113	-0.123	0.026
-154.677	292.915	-0.190	-0.340
-153.662	-200.000	-0.093	-0.406
-152.647	144.788	-0.112	-0.147
-151.633	800.000	-0.124	-0.348
-150.618	-84.565	0.139	0.043
-149.604	-20.065	0.221	0.134
-148.589	-200.000	-0.017	0.158
-147.574	61.688	-0.078	-0.077
-146.560	65.374	0.134	-0.133
-145.545	-0.002	-0.272	0.190
-144.531	800.000	0.073	0.222
-143.516	797.312	-0.066	0.179
-142.502	800.000	-0.081	-0.224
-141.487	81.463	0.184	-0.196
-140.472	-50.454	-0.187	-0.087
-139.458	800.000	0.043	0.175
-138.443	-77.663	-0.261	0.089
-137.429	124.614	0.096	0.118
-136.414	-28.366	-0.051	-0.029
-135.399	73.462	-0.114	-0.117
-134.385	800.000	0.049	0.158
-133.370	800.000	0.068	0.288
-132.356	-132.493	0.322	0.041
-131.341	800.000	-0.066	-0.272
-130.326	51.151	-0.287	0.267
-129.312	-78.687	-0.225	0.075
-128.297	-200.000	0.131	0.000
-127.283	-200.000	-0.015	-0.126
-126.268	-200.000	-0.017	-0.351
-125.253	168.959	-0.109	0.153
-124.239	10.805	-0.098	-0.073
-123.224	-200.000	-0.026	0.247
-122.210	250.762	0.112	0.186
-121.195	146.391	-0.300	-0.396
