DTS Sentinel unit serial number:	SN413079Multiplexer serial number:	ORYXHardware model number:	OX4-SRSoftware version number:	ORYX F/W v4.00 Oryx Data Collector v3.7.2.0data status	okinstallation	princeton_trtdifferential loss correction	single-endedforward channel	channel 2reverse channel	N/Adate	2019/09/16time	03:31:35forward acquisition time	60.00reverse acquisition time	0.00gamma	496.2192k internal	0.2334k external	0.2334temperature offset calibration	0.9970default loss term (dB/km)	0.3790temperature slope calibration	1.0000multiplexer offset coefficient	1.0000multiplexer slope coefficient	1.0000fibre end	0.00T internal ref (°C)	27.67T ext. ref 1 (°C)	10.56T ext. ref 2 (°C)	21.61length (m)	temperature (°C)	Stokes	anti-Stokes-747.200	-38.188	-0.118	-0.063
-746.185	251.811	0.106	0.182
-745.171	800.000	0.077	0.244
-744.156	800.000	0.041	0.117
-743.142	-57.132	-0.181	-0.080
-742.127	-200.000	0.032	0.158
-741.112	-200.000	-0.001	0.073
-740.098	800.000	0.051	0.180
-739.083	8.227	-0.274	0.207
-738.069	-134.755	-0.184	0.022
-737.054	-200.000	-0.101	0.588
-736.039	-153.306	-0.479	0.034
-735.025	-39.358	0.245	-0.129
-734.010	-133.339	-0.261	-0.033
-732.996	-200.000	-0.022	-0.457
-731.981	800.000	-0.055	0.166
-730.966	-60.406	-0.159	0.068
-729.952	200.789	-0.080	0.123
-728.937	9.098	-0.211	-0.160
-727.923	15.358	-0.277	-0.219
-726.908	-196.989	0.411	-0.003
-725.894	140.666	-0.124	0.165
-724.879	70.120	0.043	-0.044
-723.864	197.423	-0.140	-0.214
-722.850	-200.000	-0.002	0.191
-721.835	-111.655	0.126	-0.026
-720.821	-167.506	-0.403	0.016
-719.806	70.045	-0.147	0.153
-718.791	800.000	0.043	-0.152
-717.777	20.042	-0.476	-0.385
-716.762	-200.000	0.017	-0.215
-715.748	-200.000	0.004	-0.573
-714.733	800.000	-0.038	-0.150
-713.718	105.971	0.113	-0.134
-712.704	658.009	0.121	-0.312
-711.689	333.549	0.229	0.444
-710.675	800.000	-0.036	0.125
-709.660	8.011	-0.070	0.053
-708.645	-87.188	-0.368	0.112
-707.631	-14.715	-0.118	0.076
-706.616	-14.610	0.306	0.197
-705.602	-200.000	-0.071	-0.375
-704.587	-81.984	-0.189	-0.062
-703.572	-74.160	0.042	-0.015
-702.558	-68.547	0.075	0.029
-701.543	107.468	-0.084	0.100
-700.529	-26.600	-0.271	0.159
-699.514	-143.993	0.053	-0.005
-698.499	553.183	0.029	-0.071
-697.485	-152.749	-0.239	-0.017
-696.470	-200.000	-0.035	-0.224
-695.456	-200.000	0.016	0.283
-694.441	-3.715	-0.080	0.055
-693.426	152.151	-0.033	0.045
-692.412	-7.460	0.374	-0.254
-691.397	-2.271	-0.248	0.174
-690.383	-163.816	-0.139	-0.007
-689.368	-89.931	-0.338	0.099
-688.354	800.000	0.086	0.248
-687.339	-121.746	-0.515	0.085
-686.324	-65.641	-0.071	-0.028
-685.310	-200.000	0.020	-0.160
-684.295	-94.216	0.245	-0.067
-683.281	397.329	-0.059	-0.125
-682.266	-200.000	-0.064	-0.363
-681.251	149.947	0.140	-0.191
-680.237	87.884	0.219	0.243
-679.222	127.821	-0.039	-0.049
-678.208	-200.000	0.016	-0.420
-677.193	-13.557	0.091	-0.059
-676.178	-200.000	-0.054	-0.405
-675.164	800.000	0.020	0.059
-674.149	282.050	-0.099	0.179
-673.135	-20.701	0.308	0.190
-672.120	-99.010	0.525	-0.133
-671.105	12.220	-0.028	0.022
-670.091	-29.147	0.249	-0.143
-669.076	214.609	-0.063	-0.100
-668.062	800.000	0.022	-0.096
-667.047	54.952	-0.245	-0.237
-666.032	-200.000	0.003	-0.465
-665.018	-124.749	0.138	-0.021
-664.003	-24.801	-0.291	0.173
-662.989	-81.141	0.364	-0.121
-661.974	-200.000	0.021	-0.213
-660.959	244.688	-0.102	0.171
-659.945	-147.590	-0.193	0.016
-658.930	13.409	0.151	0.117
-657.916	-110.639	-0.042	0.009
-656.901	-151.773	0.457	-0.034
-655.886	7.426	0.248	-0.186
-654.872	158.188	0.159	-0.220
-653.857	141.963	0.069	-0.091
-652.843	-8.295	0.122	0.082
-651.828	-200.000	-0.010	-0.072
-650.814	149.874	-0.056	-0.076
-649.799	-200.000	-0.039	-0.368
-648.784	453.585	-0.179	-0.397
-647.770	-200.000	0.013	-0.214
-646.755	58.373	-0.148	0.145
-645.741	72.325	-0.036	-0.037
-644.726	-79.370	0.172	-0.058
-643.711	-15.329	0.270	-0.173
-642.697	-141.495	-0.017	-0.002
-641.682	-3.474	0.185	0.129
-640.668	800.000	0.031	-0.104
-639.653	-95.613	0.086	-0.023
-638.638	-200.000	0.050	0.238
-637.624	-128.414	0.061	0.009
-636.609	-87.795	0.199	-0.060
-635.595	-70.633	0.212	-0.080
-634.580	-200.000	0.025	-0.258
-633.565	20.652	0.096	0.077
-632.551	134.728	0.147	-0.191
-631.536	167.549	-0.067	0.095
-630.522	45.899	0.022	-0.021
-629.507	-200.000	-0.004	-0.221
-628.492	97.619	0.094	-0.108
-627.478	51.389	-0.309	-0.293
-626.463	-200.000	0.012	-0.072
-625.449	-102.524	0.149	-0.036
-624.434	15.059	0.220	-0.172
-623.419	-200.000	0.047	0.315
-622.405	-101.866	0.137	-0.033
-621.390	-77.135	0.228	0.079
-620.376	-165.365	0.415	-0.018
-619.361	140.027	-0.083	0.109
-618.346	-11.662	0.197	-0.130
-617.332	196.088	0.053	-0.081
-616.317	267.767	-0.085	-0.150
-615.303	45.710	0.110	-0.102
-614.288	-169.771	-0.275	-0.010
-613.273	6.240	0.308	-0.229
-612.259	62.310	-0.069	0.069
-611.244	-151.899	-0.152	0.011
-610.230	-34.361	0.409	-0.224
-609.215	438.298	-0.160	-0.348
-608.201	-106.929	0.066	0.015
-607.186	258.102	-0.016	-0.027
-606.171	-123.297	-0.095	0.015
-605.157	-170.586	-0.333	0.012
-604.142	800.000	-0.083	0.239
-603.128	-109.935	-0.176	0.037
-602.113	-198.238	-0.185	0.001
-601.098	223.728	-0.076	0.123
-600.084	-76.203	0.094	-0.033
-599.069	98.037	0.114	-0.131
-598.055	-200.000	-0.001	0.080
-597.040	-200.000	0.013	-0.108
-596.025	-200.000	0.027	0.232
-595.011	540.939	0.135	-0.322
-593.996	406.282	-0.116	-0.245
-592.982	1.277	-0.252	0.181
-591.967	-119.144	0.237	-0.041
-590.952	442.525	0.054	-0.119
-589.938	-74.073	-0.233	-0.084
-588.923	-111.869	0.296	0.060
-587.909	-200.000	0.096	0.446
-586.894	-200.000	-0.040	0.562
-585.879	-66.659	-0.039	-0.015
-584.865	-90.660	-0.376	0.109
-583.850	-52.994	-0.113	0.052
-582.836	-52.132	-0.133	-0.062
-581.821	-141.492	0.282	-0.028
-580.806	-68.926	-0.227	0.088
-579.792	-10.463	-0.315	0.208
-578.777	-161.443	0.288	-0.015
-577.763	800.000	0.028	-0.095
-576.748	-82.129	-0.042	-0.014
-575.733	77.069	0.303	0.322
-574.719	203.026	-0.038	-0.059
-573.704	-69.791	-0.108	-0.041
-572.690	567.149	-0.051	-0.125
-571.675	104.261	-0.049	0.057
-570.661	239.367	0.099	-0.164
-569.646	314.151	0.179	-0.337
-568.631	800.000	0.011	-0.047
-567.617	-200.000	-0.014	-0.128
-566.602	104.547	-0.159	0.187
-565.588	-175.050	-0.343	0.010
-564.573	-200.000	-0.003	0.034
-563.558	800.000	-0.108	-0.308
-562.544	-134.418	0.162	0.020
-561.529	22.779	-0.378	0.309
-560.515	-97.300	-0.077	0.020
-559.500	120.175	-0.204	-0.253
-558.485	743.799	-0.145	0.390
-557.471	420.301	0.078	0.167
-556.456	-44.121	0.145	-0.073
-555.442	281.092	-0.194	-0.347
-554.427	-7.170	0.236	0.160
-553.412	-112.312	-0.187	0.037
-552.398	-27.262	0.143	-0.083
-551.383	718.160	0.171	-0.453
-550.369	178.561	0.289	0.421
-549.354	221.147	0.012	-0.019
-548.339	655.079	0.140	-0.360
-547.325	-110.300	0.313	-0.065
-546.310	-136.703	0.285	-0.033
-545.296	79.578	-0.115	-0.123
-544.281	-28.698	-0.092	-0.053
-543.266	474.453	-0.122	0.274
-542.252	-171.976	0.229	0.007
-541.237	800.000	0.047	0.157
-540.223	-200.000	-0.021	-0.185
-539.208	-181.953	0.213	0.004
-538.193	377.565	-0.070	-0.143
-537.179	800.000	-0.070	0.194
-536.164	-102.369	0.326	0.078
-535.150	40.455	-0.029	0.026
-534.135	800.000	-0.087	0.247
-533.121	300.451	0.140	-0.257
-532.106	800.000	0.086	0.365
-531.091	-193.336	-0.260	0.002
-530.077	12.153	-0.235	-0.180
-529.062	66.966	-0.045	-0.046
-528.048	-63.249	-0.170	-0.070
-527.033	-200.000	0.009	0.118
-526.018	-200.000	0.003	-0.101
-525.004	-200.000	-0.050	-0.223
-523.989	-125.670	-0.093	-0.014
-522.975	19.428	0.118	-0.095
-521.960	180.013	0.049	-0.072
-520.945	89.879	-0.163	0.182
-519.931	-154.287	-0.327	0.022
-518.916	-107.772	-0.493	-0.107
-517.902	800.000	0.119	-0.400
-516.887	24.650	0.072	-0.059
-515.872	3.806	-0.089	0.065
-514.858	-190.408	-0.489	-0.005
-513.843	800.000	-0.047	0.181
-512.829	-98.731	0.399	0.101
-511.814	-200.000	-0.041	0.214
-510.799	532.237	0.076	-0.179
-509.785	106.366	0.247	-0.292
-508.770	357.182	-0.153	-0.303
-507.756	-73.233	-0.377	-0.137
-506.741	-135.280	-0.386	0.046
-505.726	-200.000	0.051	-0.240
-504.712	348.233	0.228	0.448
-503.697	83.645	0.094	0.102
-502.683	56.748	0.129	0.125
-501.668	800.000	-0.025	0.083
-500.653	-38.721	0.069	-0.036
-499.639	-200.000	-0.008	0.190
-498.624	-100.976	-0.152	-0.037
-497.610	697.369	-0.099	0.259
-496.595	126.548	0.329	0.415
-495.581	132.534	0.148	0.190
-494.566	-82.354	-0.217	0.070
-493.551	-45.272	-0.290	0.143
-492.537	519.826	-0.058	0.135
-491.522	150.720	0.215	-0.291
-490.508	-79.500	0.511	-0.172
-489.493	-111.831	-0.311	-0.063
-488.478	-169.964	-0.107	-0.004
-487.464	-161.478	-0.168	-0.009
-486.449	-144.081	-0.151	0.014
-485.435	292.889	0.070	0.127
-484.420	-200.000	0.025	0.131
-483.405	-200.000	-0.001	0.421
-482.391	800.000	0.036	-0.144
-481.376	-126.417	0.253	0.038
-480.362	-112.864	0.228	0.045
-479.347	-21.837	-0.159	-0.096
-478.332	-41.323	0.139	-0.071
-477.318	222.022	0.024	-0.038
-476.303	100.404	0.176	-0.204
-475.289	104.891	0.082	-0.096
-474.274	131.231	-0.078	0.099
-473.259	-80.169	0.051	-0.017
-472.245	241.419	-0.184	-0.306
-471.230	547.970	0.058	0.138
-470.216	675.802	-0.066	0.171
-469.201	286.817	0.072	-0.129
-468.186	539.872	0.145	0.344
-467.172	61.631	0.191	0.189
-466.157	99.268	0.128	0.148
-465.143	-200.000	-0.092	-0.414
-464.128	800.000	-0.094	-0.379
-463.113	-200.000	-0.045	0.266
-462.099	431.677	-0.042	-0.090
-461.084	-51.695	0.151	0.070
-460.070	90.914	-0.148	-0.165
-459.055	800.000	-0.026	-0.113
-458.040	459.877	0.072	-0.160
-457.026	-54.986	-0.288	0.129
-456.011	-14.517	-0.112	-0.072
-454.997	-59.249	-0.152	0.065
-453.982	800.000	0.073	-0.254
-452.968	122.297	-0.043	-0.053
-451.953	127.033	-0.135	-0.170
-450.938	696.207	-0.052	-0.135
-449.924	72.990	-0.193	-0.200
-448.909	63.265	0.161	-0.160
-447.895	-91.679	0.313	0.089
-446.880	221.277	-0.020	0.032
-445.865	-188.259	0.038	0.000
-444.851	-59.161	0.121	-0.052
-443.836	506.109	0.100	0.231
-442.822	-26.626	0.226	-0.132
-441.807	-58.570	-0.058	0.025
-440.792	43.128	0.113	0.103
-439.778	-107.113	-0.370	0.081
-438.763	207.766	0.173	0.269
-437.749	-77.854	-0.481	-0.165
-436.734	162.994	-0.057	-0.079
-435.719	427.824	-0.060	-0.129
-434.705	16.090	-0.132	0.103
-433.690	-73.100	0.248	0.090
-432.676	-21.623	-0.324	0.196
-431.661	208.324	0.112	-0.174
-430.646	-89.813	-0.077	-0.022
-429.632	438.781	-0.020	0.042
-428.617	-100.440	-0.094	-0.023
-427.603	381.456	-0.012	0.024
-426.588	-14.272	-0.301	-0.193
-425.573	-200.000	0.056	-0.606
-424.559	404.948	-0.098	0.204
-423.544	333.154	-0.010	-0.019
-422.530	117.029	0.114	-0.139
-421.515	-152.233	-0.183	-0.013
-420.500	800.000	-0.069	0.239
-419.486	353.631	0.035	-0.069
-418.471	-200.000	-0.002	-0.313
-417.457	-200.000	-0.011	-0.375
-416.442	16.640	0.286	0.224
-415.428	236.242	-0.172	0.282
-414.413	-157.464	-0.286	-0.017
-413.398	26.904	-0.065	0.054
-412.384	-200.000	0.003	0.130
-411.369	-156.240	0.248	0.015
-410.355	479.903	0.103	-0.231
-409.340	-162.789	-0.039	-0.002
-408.325	-115.244	-0.197	0.037
-407.311	-84.295	0.104	-0.033
-406.296	-200.000	-0.013	0.252
-405.282	-200.000	0.021	0.098
-404.267	800.000	-0.077	-0.235
-403.252	-33.791	0.177	-0.097
-402.238	-0.744	-0.082	-0.057
-401.223	800.000	-0.115	-0.442
-400.209	27.575	-0.275	-0.230
-399.194	221.927	-0.219	0.350
-398.179	65.423	0.159	-0.160
-397.165	-200.000	0.005	-0.106
-396.150	-174.001	-0.112	0.003
-395.136	-23.831	0.185	0.110
-394.121	89.976	0.086	-0.096
-393.106	-126.712	0.092	-0.013
-392.092	800.000	-0.036	-0.100
-391.077	-72.735	-0.355	-0.130
-390.063	712.423	0.127	0.334
-389.048	-124.322	0.224	-0.035
-388.033	17.633	0.120	-0.095
-387.019	602.087	0.106	0.260
-386.004	115.295	-0.081	-0.098
-384.990	265.624	0.121	-0.210
-383.975	-200.000	-0.001	-0.045
-382.960	800.000	0.123	0.441
-381.946	-18.505	0.161	-0.100
-380.931	-132.205	0.459	-0.059
-379.917	263.680	0.084	0.145
-378.902	-112.007	0.186	-0.037
-377.888	218.791	0.059	-0.093
-376.873	564.787	-0.096	0.231
-375.858	-34.290	0.038	-0.021
-374.844	18.914	-0.269	0.213
-373.829	-106.015	0.202	-0.045
-372.815	-200.000	-0.006	-0.246
-371.800	587.664	0.095	0.231
-370.785	-184.139	0.223	-0.004
-369.771	299.364	-0.062	0.113
-368.756	-114.793	0.163	-0.031
-367.742	800.000	-0.084	0.359
-366.727	-200.000	-0.002	0.138
-365.712	502.372	-0.091	-0.209
-364.698	12.604	0.146	0.112
-363.683	-66.689	0.309	-0.121
-362.669	-140.997	-0.071	-0.007
-361.654	87.291	-0.168	-0.183
-360.639	271.619	0.102	-0.177
-359.625	800.000	0.075	0.223
-358.610	800.000	-0.102	-0.313
-357.596	14.320	-0.162	-0.125
-356.581	31.963	-0.190	0.162
-355.566	164.875	0.362	0.505
-354.552	-200.000	0.047	0.382
-353.537	-0.885	-0.533	0.374
-352.523	300.444	-0.170	-0.310
-351.508	-64.796	-0.305	0.122
-350.493	800.000	0.035	-0.125
-349.479	47.479	0.254	0.234
-348.464	-159.121	0.172	-0.010
-347.450	-200.000	-0.029	0.368
-346.435	-77.184	0.392	0.135
-345.420	-31.543	-0.154	0.086
-344.406	800.000	-0.086	0.283
-343.391	-97.831	-0.517	0.132
-342.377	800.000	-0.109	0.304
-341.362	-200.000	0.013	-0.116
-340.348	23.888	-0.166	-0.135
-339.333	72.150	-0.263	0.271
-338.318	-163.930	0.437	-0.020
-337.304	55.239	-0.111	0.106
-336.289	149.197	-0.077	0.103
-335.275	433.341	-0.067	0.144
-334.260	186.198	0.226	-0.333
-333.245	18.986	-0.293	0.232
-332.231	5.041	-0.072	-0.052
-331.216	-200.000	-0.058	0.344
-330.202	800.000	-0.113	0.350
-329.187	-200.000	0.019	0.223
-328.172	-49.419	0.212	0.100
-327.158	-111.826	0.369	0.074
-326.143	-109.046	-0.240	0.051
-325.129	-109.089	0.090	-0.019
-324.114	-112.794	-0.382	-0.075
-323.099	-109.376	-0.069	-0.014
-322.085	36.054	0.089	-0.078
-321.070	-129.025	-0.248	-0.034
-320.056	131.204	-0.238	-0.303
-319.041	-61.130	0.365	0.152
-318.026	280.374	0.099	-0.175
-317.012	800.000	-0.051	-0.219
-315.997	-200.000	0.158	0.767
-314.983	-200.000	-0.040	0.198
-313.968	-46.659	0.124	0.060
-312.953	31.724	0.237	0.202
-311.939	-138.343	0.360	0.039
-310.924	-179.105	0.087	0.002
-309.910	302.151	-0.120	0.218
-308.895	-200.000	0.039	-0.291
-307.880	76.071	0.087	-0.091
-306.866	572.884	-0.028	0.066
-305.851	-200.000	-0.040	0.225
-304.837	-58.083	-0.381	-0.164
-303.822	-144.412	0.244	-0.022
-302.807	175.524	0.069	-0.099
-301.793	104.376	0.107	0.124
-300.778	541.520	-0.098	-0.232
-299.764	-101.584	0.133	0.032
-298.749	335.372	0.130	-0.249
-297.735	800.000	0.067	-0.218
-296.720	-26.193	-0.303	-0.176
-295.705	-113.061	0.293	-0.057
-294.691	179.631	-0.096	0.140
-293.676	-200.000	0.041	-0.181
-292.662	271.711	0.092	-0.160
-291.647	-200.000	0.005	0.145
-290.632	-200.000	-0.065	-0.291
-289.618	-152.261	-0.100	0.007
-288.603	-160.097	-0.152	0.008
-287.589	117.171	-0.048	0.058
-286.574	-116.300	-0.185	0.034
-285.559	800.000	-0.075	0.216
-284.545	-200.000	0.015	0.123
-283.530	443.263	0.044	0.095
-282.516	-147.611	0.266	0.022
-281.501	-66.497	-0.307	0.120
-280.486	33.280	-0.190	-0.162
-279.472	-200.000	0.020	0.290
-278.457	-21.389	0.066	0.040
-277.443	-31.279	-0.140	-0.078
-276.428	800.000	0.089	-0.285
-275.413	-200.000	-0.010	0.162
-274.399	-139.582	0.224	-0.024
-273.384	-91.280	-0.055	0.015
-272.370	162.298	-0.046	-0.064
-271.355	-200.000	0.012	-0.223
-270.340	208.069	-0.282	-0.435
-269.326	-114.125	-0.264	0.050
-268.311	-200.000	0.006	0.269
-267.297	800.000	0.042	0.155
-266.282	800.000	0.059	-0.253
-265.267	-200.000	-0.018	-0.078
-264.253	-79.198	-0.134	-0.045
-263.238	-16.409	-0.138	0.086
-262.224	42.593	0.156	0.140
-261.209	-47.245	0.074	-0.035
-260.195	-200.000	-0.017	0.239
-259.180	-159.312	0.069	-0.004
-258.165	159.581	-0.162	0.223
-257.151	-134.716	-0.353	-0.042
-256.136	-200.000	0.012	-0.118
-255.122	-14.137	0.198	-0.126
-254.107	150.179	-0.270	0.361
-253.092	19.650	-0.028	0.022
-252.078	800.000	-0.029	-0.097
-251.063	-200.000	-0.018	0.380
-250.049	590.400	-0.135	0.327
-249.034	156.970	-0.035	-0.048
-248.019	602.766	0.035	-0.086
-247.005	-3.971	0.140	0.096
-245.990	122.021	0.123	0.152
-244.976	237.243	0.098	0.160
-243.961	-200.000	0.050	-0.283
-242.946	-86.762	-0.388	-0.117
-241.932	681.596	-0.002	-0.006
-240.917	800.000	-0.061	-0.247
-239.903	-200.000	-0.061	0.276
-238.888	301.126	0.157	0.285
-237.873	126.396	-0.102	0.127
-236.859	429.895	-0.163	0.348
-235.844	-68.627	0.415	-0.158
-234.830	258.055	-0.163	-0.276
-233.815	4.180	0.090	0.065
-232.800	272.114	-0.202	0.350
-231.786	152.045	0.163	0.219
-230.771	149.615	-0.103	-0.137
-229.757	-163.219	0.263	0.012
-228.742	-146.367	0.263	-0.023
-227.727	-57.690	-0.184	-0.079
-226.713	-1.689	0.070	-0.049
-225.698	354.713	0.197	-0.385
-224.684	228.129	-0.193	-0.309
-223.669	122.696	-0.173	0.213
-222.655	-200.000	0.050	0.437
-221.640	-94.721	0.141	0.038
-220.625	162.011	0.185	0.256
-219.611	-200.000	0.062	-0.428
-218.596	258.873	-0.182	0.309
-217.582	-139.056	0.281	0.030
-216.567	800.000	-0.096	-0.372
-215.552	-200.000	-0.008	-0.084
-214.538	-77.954	0.156	-0.053
-213.523	-6.607	-0.066	-0.044
-212.509	-200.000	0.003	-0.107
-211.494	116.118	0.148	-0.179
-210.479	325.784	0.080	0.150
-209.465	-200.000	-0.004	0.024
-208.450	800.000	-0.062	-0.179
-207.436	10.181	-0.174	-0.130
-206.421	32.226	0.076	0.065
-205.406	184.031	0.155	-0.226
-204.392	317.647	0.070	0.131
-203.377	20.031	-0.091	0.072
-202.363	-166.170	-0.148	-0.006
-201.348	-77.482	0.598	0.204
-200.333	41.459	0.236	-0.210
-199.319	-200.000	0.008	0.104
-198.304	202.588	-0.133	0.201
-197.290	-200.000	-0.025	-0.353
-196.275	107.344	-0.187	0.219
-195.260	-175.702	0.179	0.005
-194.246	-29.396	-0.334	-0.188
-193.231	-200.000	0.031	0.179
-192.217	362.204	-0.107	0.211
-191.202	-30.654	-0.303	-0.169
-190.187	222.634	-0.156	-0.248
-189.173	23.319	-0.166	-0.134
-188.158	800.000	0.072	-0.201
-187.144	-39.106	0.110	0.057
-186.129	670.272	-0.054	-0.138
-185.114	204.449	-0.192	-0.292
-184.100	-106.962	-0.256	-0.056
-183.085	-6.194	0.105	-0.071
-182.071	101.286	0.206	0.236
-181.056	-200.000	-0.032	0.185
-180.042	-28.517	0.111	0.063
-179.027	57.314	-0.352	0.338
-178.012	661.848	0.119	0.302
-176.998	211.970	-0.111	-0.173
-175.983	-78.923	-0.151	-0.050
-174.969	-18.033	0.141	-0.087
-173.954	-8.830	0.106	-0.070
-172.939	163.419	-0.018	-0.025
-171.925	-40.764	0.029	0.015
-170.910	58.892	0.155	-0.150
-169.896	-200.000	-0.008	-0.096
-168.881	-200.000	0.025	0.250
-167.866	423.372	0.110	-0.232
-166.852	-88.298	0.138	-0.041
-165.837	270.464	-0.124	0.214
-164.823	535.478	0.033	-0.078
-163.808	567.515	0.043	0.102
-162.793	-97.314	-0.071	-0.018
-161.779	-30.556	-0.125	0.069
-160.764	-68.883	-0.277	-0.105
-159.750	744.421	0.067	-0.178
-158.735	-200.000	0.013	0.158
-157.720	-91.763	0.068	0.019
-156.706	-28.324	0.218	0.124
-155.691	-38.675	0.111	-0.057
-154.677	785.094	0.142	-0.382
-153.662	-4.503	-0.167	0.114
-152.647	-28.364	0.422	-0.239
-151.633	-180.560	0.141	0.003
-150.618	80.086	0.110	0.116
-149.604	321.247	-0.097	-0.180
-148.589	50.472	0.126	0.117
-147.574	455.419	0.023	0.050
-146.560	-35.035	-0.124	0.067
-145.545	74.676	0.202	-0.208
-144.531	14.700	0.058	-0.044
-143.516	800.000	0.074	-0.302
-142.502	269.481	-0.057	0.098
-141.487	81.446	0.140	-0.148
-140.472	162.377	0.157	-0.217
-139.458	-200.000	0.010	-0.110
-138.443	139.452	0.186	0.241
-137.429	33.295	0.128	0.109
-136.414	800.000	-0.025	-0.073
-135.399	67.883	0.075	-0.075
-134.385	353.712	-0.081	0.159
-133.370	108.702	0.137	0.161
-132.356	274.594	-0.086	-0.149
-131.341	345.232	0.061	-0.118
-130.326	47.672	-0.113	-0.104
-129.312	204.164	-0.125	0.190
-128.297	-70.034	0.204	0.076
-127.283	-119.385	0.278	0.047
-126.268	36.794	-0.265	0.230
-125.253	-200.000	-0.020	-0.147
-124.239	36.767	-0.093	-0.081
-123.224	-61.150	0.353	-0.146
-122.210	-98.062	0.333	0.084
