DTS Sentinel unit serial number:	SN413079Multiplexer serial number:	ORYXHardware model number:	OX4-SRSoftware version number:	ORYX F/W v4.00 Oryx Data Collector v3.7.2.0data status	okinstallation	princeton_trtdifferential loss correction	single-endedforward channel	channel 2reverse channel	N/Adate	2019/09/15time	07:19:35forward acquisition time	60.00reverse acquisition time	0.00gamma	496.2192k internal	0.2325k external	0.2325temperature offset calibration	1.0030default loss term (dB/km)	0.3790temperature slope calibration	1.0000multiplexer offset coefficient	1.0000multiplexer slope coefficient	1.0000fibre end	0.00T internal ref (°C)	30.55T ext. ref 1 (°C)	4.86T ext. ref 2 (°C)	25.83length (m)	temperature (°C)	Stokes	anti-Stokes-747.200	-50.857	0.286	-0.136
-746.185	800.000	0.176	0.495
-745.171	-37.405	0.092	-0.049
-744.156	-59.755	0.317	0.137
-743.142	-82.628	-0.138	-0.045
-742.127	-200.000	-0.006	0.158
-741.112	770.729	0.052	0.142
-740.098	563.013	0.044	-0.106
-739.083	800.000	0.048	-0.151
-738.069	-200.000	-0.006	0.231
-737.054	524.081	0.091	0.215
-736.039	385.368	-0.085	-0.177
-735.025	139.852	0.265	0.352
-734.010	-177.656	-0.126	0.003
-732.996	-118.176	-0.148	-0.027
-731.981	-96.924	0.270	-0.071
-730.966	45.074	0.292	0.271
-729.952	12.347	0.256	-0.199
-728.937	68.509	0.243	-0.251
-727.923	32.542	0.019	0.016
-726.908	24.243	-0.307	-0.256
-725.894	-200.000	0.017	-0.328
-724.879	-118.516	-0.266	0.048
-723.864	800.000	-0.072	0.314
-722.850	159.232	-0.097	-0.136
-721.835	367.507	-0.091	-0.185
-720.821	75.333	-0.121	-0.129
-719.806	-55.495	0.185	0.084
-718.791	14.051	0.093	-0.073
-717.777	800.000	0.024	0.094
-716.762	31.863	-0.066	0.057
-715.748	476.516	0.181	-0.413
-714.733	800.000	0.028	0.092
-713.718	-62.490	-0.107	-0.045
-712.704	18.211	-0.317	-0.255
-711.689	4.611	0.206	-0.152
-710.675	-94.035	-0.087	-0.024
-709.660	-14.738	-0.043	0.028
-708.645	25.837	0.222	-0.186
-707.631	272.837	-0.089	0.158
-706.616	315.569	0.016	0.031
-705.602	118.548	-0.183	0.228
-704.587	-84.534	0.257	-0.082
-703.572	136.181	-0.134	0.176
-702.558	-200.000	0.003	-0.183
-701.543	7.234	-0.084	0.063
-700.529	28.609	-0.073	0.062
-699.514	-156.071	-0.322	-0.021
-698.499	-112.955	-0.124	-0.025
-697.485	-200.000	0.015	0.240
-696.470	137.824	-0.138	-0.182
-695.456	111.058	-0.150	-0.182
-694.441	-200.000	-0.021	-0.145
-693.426	-133.221	-0.428	-0.054
-692.412	-138.610	0.202	-0.022
-691.397	-92.011	0.342	0.098
-690.383	-7.312	-0.204	-0.139
-689.368	107.913	0.138	-0.165
-688.354	431.643	-0.028	-0.060
-687.339	447.790	0.123	-0.273
-686.324	20.736	-0.089	0.072
-685.310	56.351	-0.061	-0.060
-684.295	-200.000	0.020	0.283
-683.281	-137.386	0.116	-0.013
-682.266	-39.287	0.306	-0.162
-681.251	800.000	-0.045	-0.150
-680.237	796.712	0.071	-0.197
-679.222	-125.731	0.107	0.016
-678.208	76.124	0.042	0.044
-677.193	800.000	0.132	-0.416
-676.178	-200.000	-0.024	0.306
-675.164	-200.000	-0.005	-0.200
-674.149	-200.000	0.078	0.516
-673.135	373.871	-0.173	0.354
-672.120	-51.224	-0.121	0.057
-671.105	-164.752	-0.277	0.013
-670.091	508.635	-0.010	0.022
-669.076	-38.472	-0.225	0.120
-668.062	-99.954	-0.210	-0.053
-667.047	-71.567	0.238	-0.089
-666.032	71.749	-0.110	-0.115
-665.018	-98.363	0.183	0.047
-664.003	-85.637	-0.211	-0.066
-662.989	-200.000	0.027	-0.436
-661.974	27.573	-0.199	-0.168
-660.959	-200.000	0.011	-0.225
-659.945	-57.996	-0.234	0.103
-658.930	-200.000	0.003	-0.220
-657.916	75.804	-0.157	0.167
-656.901	165.222	-0.181	-0.257
-655.886	218.468	0.077	-0.124
-654.872	-200.000	-0.053	-0.247
-653.857	666.014	0.105	-0.272
-652.843	-200.000	0.012	0.441
-651.828	205.049	-0.073	0.114
-650.814	-13.103	0.274	-0.179
-649.799	-187.977	0.222	0.003
-648.784	47.436	-0.097	0.091
-647.770	83.139	0.139	0.153
-646.755	285.246	-0.078	0.142
-645.741	-5.262	0.033	-0.023
-644.726	6.575	-0.187	0.140
-643.711	436.702	0.057	0.124
-642.697	800.000	-0.106	0.329
-641.682	-89.270	-0.120	-0.036
-640.668	-111.166	-0.054	0.011
-639.653	-97.502	-0.134	0.035
-638.638	197.136	-0.172	0.264
-637.624	-75.920	-0.024	-0.009
-636.609	-6.936	0.088	-0.060
-635.595	295.397	-0.036	-0.066
-634.580	-200.000	-0.008	0.212
-633.565	-200.000	0.004	-0.191
-632.551	-56.150	0.275	0.123
-631.536	-89.534	0.165	-0.049
-630.522	7.215	-0.330	0.247
-629.507	-200.000	0.040	-0.232
-628.492	-4.605	-0.095	-0.066
-627.478	-200.000	0.029	-0.358
-626.463	174.518	-0.091	0.132
-625.449	-143.952	0.142	-0.013
-624.434	110.766	-0.135	-0.164
-623.419	35.446	-0.158	0.139
-622.405	724.061	0.097	0.259
-621.390	-68.614	0.152	0.059
-620.376	-44.369	0.232	-0.117
-619.361	-107.947	-0.036	-0.008
-618.346	800.000	-0.057	-0.224
-617.332	800.000	-0.049	0.196
-616.317	-95.056	0.176	-0.048
-615.303	51.609	0.119	0.114
-614.288	587.627	-0.045	-0.112
-613.273	-169.157	-0.205	0.008
-612.259	-85.827	-0.211	-0.066
-611.244	800.000	-0.074	-0.205
-610.230	-21.129	0.096	-0.059
-609.215	-85.668	-0.083	-0.026
-608.201	-95.890	-0.192	-0.051
-607.186	-107.377	-0.085	0.019
-606.171	-96.779	0.100	0.026
-605.157	-22.017	-0.494	-0.301
-604.142	-20.327	0.204	-0.126
-603.128	598.730	-0.108	-0.268
-602.113	800.000	-0.062	0.180
-601.098	-10.462	-0.085	0.056
-600.084	175.468	0.172	-0.249
-599.069	-147.190	0.266	0.023
-598.055	86.427	-0.175	0.193
-597.040	-35.725	-0.235	0.128
-596.025	-200.000	0.002	-0.051
-595.011	800.000	0.062	0.256
-593.996	42.037	-0.164	0.150
-592.982	96.513	-0.134	-0.154
-591.967	800.000	0.059	-0.257
-590.952	-66.379	-0.121	0.048
-589.938	-200.000	0.015	-0.369
-588.923	226.640	-0.080	-0.130
-587.909	94.853	0.147	-0.168
-586.894	-8.004	0.230	0.156
-585.879	-133.079	-0.066	0.008
-584.865	200.211	-0.105	0.161
-583.850	-200.000	0.003	-0.329
-582.836	-200.000	-0.002	0.050
-581.821	-141.286	0.080	0.008
-580.806	75.596	-0.123	-0.130
-579.792	-124.515	0.287	-0.045
-578.777	94.025	0.066	-0.076
-577.763	318.582	0.011	-0.020
-576.748	-63.415	0.284	0.117
-575.733	97.547	-0.106	-0.122
-574.719	-200.000	-0.054	0.310
-573.704	313.945	0.052	-0.099
-572.690	-32.628	-0.110	-0.062
-571.675	-53.547	0.351	-0.161
-570.661	-200.000	-0.010	0.321
-569.646	271.917	-0.124	0.219
-568.631	144.018	0.066	-0.088
-567.617	201.239	-0.052	0.080
-566.602	-200.000	-0.049	-0.229
-565.588	-200.000	0.013	0.196
-564.573	-200.000	0.000	0.080
-563.558	-124.993	-0.086	0.013
-562.544	-83.409	-0.187	0.060
-561.529	-200.000	-0.011	-0.118
-560.515	-83.750	0.163	-0.052
-559.500	-109.566	0.204	0.043
-558.485	-108.851	-0.387	0.083
-557.471	63.704	0.024	0.024
-556.456	-125.593	0.125	0.019
-555.442	191.508	-0.035	-0.052
-554.427	-17.670	0.310	-0.195
-553.412	318.089	0.078	0.148
-552.398	-92.127	-0.312	0.088
-551.383	498.317	0.109	-0.252
-550.369	-98.506	0.236	-0.060
-549.354	-9.739	-0.097	-0.065
-548.339	14.222	0.293	0.229
-547.325	-13.623	-0.117	-0.076
-546.310	133.003	-0.149	-0.193
-545.296	17.375	-0.201	-0.160
-544.281	77.035	0.097	-0.103
-543.266	800.000	0.060	0.232
-542.252	295.842	-0.193	0.355
-541.237	73.647	0.078	-0.082
-540.223	-120.072	-0.467	0.080
-539.208	-200.000	-0.048	-0.238
-538.193	-185.942	-0.635	0.009
-537.179	-200.000	-0.033	0.226
-536.164	-110.303	0.124	-0.026
-535.150	-147.455	0.475	0.040
-534.135	-41.869	-0.200	0.103
-533.121	52.266	0.240	0.229
-532.106	-160.505	0.140	0.007
-531.091	-35.209	0.081	-0.044
-530.077	-138.726	-0.200	-0.022
-529.062	39.592	0.203	0.182
-528.048	800.000	-0.016	-0.069
-527.033	-200.000	-0.007	-0.066
-526.018	-103.855	0.380	0.089
-525.004	-200.000	-0.005	0.045
-523.989	-200.000	0.023	0.108
-522.975	-87.221	-0.138	0.042
-521.960	127.201	0.075	0.095
-520.945	-165.922	0.351	-0.015
-519.931	-106.130	0.523	0.117
-518.916	-123.217	-0.171	-0.027
-517.902	-77.815	0.035	-0.012
-516.887	-122.757	-0.297	0.048
-515.872	-66.432	0.251	0.100
-514.858	295.729	0.142	-0.260
-513.843	-28.042	-0.145	-0.084
-512.829	283.484	-0.156	0.281
-511.814	-200.000	0.017	0.262
-510.799	49.886	-0.215	-0.202
-509.785	72.036	0.100	0.104
-508.770	20.432	-0.110	0.089
-507.756	-19.017	0.209	0.130
-506.741	-0.703	0.139	-0.099
-505.726	-48.445	-0.268	-0.129
-504.712	-103.641	0.440	-0.103
-503.697	15.259	0.105	0.082
-502.683	-37.144	-0.158	-0.085
-501.668	-200.000	-0.058	-0.291
-500.653	41.126	-0.113	-0.102
-499.639	800.000	0.045	-0.131
-498.624	532.802	-0.016	-0.037
-497.610	800.000	0.159	-0.500
-496.595	79.200	0.104	-0.111
-495.581	276.615	-0.079	-0.139
-494.566	-116.494	0.320	-0.059
-493.551	-111.510	-0.078	0.016
-492.537	-200.000	-0.022	0.106
-491.522	-4.980	0.237	-0.163
-490.508	-62.106	-0.144	0.060
-489.493	800.000	0.068	0.282
-488.478	-40.142	0.229	0.119
-487.464	-200.000	0.005	0.104
-486.449	-92.408	0.111	-0.031
-485.435	-88.313	0.219	0.065
-484.420	-112.908	-0.142	0.028
-483.405	800.000	-0.042	-0.129
-482.391	-150.533	0.257	-0.020
-481.376	172.676	0.228	0.327
-480.362	347.042	-0.042	0.083
-479.347	744.814	-0.105	-0.281
-478.332	-10.824	0.165	-0.109
-477.318	-45.412	-0.206	-0.102
-476.303	37.950	0.157	0.139
-475.289	-3.837	0.153	-0.106
-474.274	-200.000	-0.038	-0.377
-473.259	18.768	-0.245	0.196
-472.245	183.532	0.030	0.044
-471.230	-140.041	-0.287	0.030
-470.216	-100.929	-0.232	-0.057
-469.201	148.228	0.235	-0.316
-468.186	18.672	0.437	0.349
-467.172	-200.000	-0.008	0.246
-466.157	18.643	-0.167	0.133
-465.143	407.965	-0.050	-0.105
-464.128	-200.000	-0.048	0.699
-463.113	-200.000	0.009	0.344
-462.099	-163.591	-0.046	0.002
-461.084	674.031	-0.067	-0.175
-460.070	120.064	-0.248	-0.307
-459.055	-75.557	0.307	-0.109
-458.040	580.465	0.048	-0.118
-457.026	-92.157	-0.272	0.077
-456.011	192.312	-0.097	0.146
-454.997	800.000	-0.062	-0.183
-453.982	97.431	0.323	-0.369
-452.968	-140.893	0.163	0.017
-451.953	13.176	-0.191	-0.147
-450.938	-200.000	-0.009	0.328
-449.924	-0.742	0.189	0.133
-448.909	161.375	-0.127	0.177
-447.895	35.931	-0.204	0.179
-446.880	-128.193	0.278	0.040
-445.865	-22.853	0.125	0.075
-444.851	-94.038	0.124	-0.034
-443.836	-200.000	0.010	0.223
-442.822	1.991	0.120	0.087
-441.807	58.571	-0.164	0.161
-440.792	-37.189	0.275	0.147
-439.778	800.000	-0.108	-0.312
-438.763	-200.000	-0.011	-0.230
-437.749	-200.000	-0.013	0.278
-436.734	800.000	0.019	0.053
-435.719	-65.468	-0.186	-0.074
-434.705	318.277	0.183	-0.345
-433.690	-200.000	0.246	0.000
-432.676	-200.000	-0.536	0.002
-431.661	-152.462	0.339	0.024
-430.646	-158.890	-0.171	-0.010
-429.632	-36.353	0.197	-0.106
-428.617	800.000	-0.049	-0.157
-427.603	-23.606	-0.108	-0.065
-426.588	-179.680	-0.107	-0.002
-425.573	314.757	0.084	-0.157
-424.559	178.478	0.121	-0.176
-423.544	-73.052	-0.307	-0.112
-422.530	685.181	0.061	0.159
-421.515	-200.000	0.019	0.387
-420.500	-29.422	0.345	0.196
-419.486	140.986	0.104	-0.136
-418.471	178.443	-0.193	-0.281
-417.457	-200.000	0.007	-0.049
-416.442	104.721	-0.127	-0.149
-415.428	800.000	-0.108	-0.310
-414.413	10.631	0.404	0.307
-413.398	-96.706	-0.177	-0.046
-412.384	-96.008	-0.170	0.045
-411.369	52.190	0.331	0.314
-410.355	471.129	0.170	0.381
-409.340	-147.187	0.543	0.046
-408.325	-96.596	-0.297	-0.078
-407.311	218.729	0.077	-0.122
-406.296	-16.310	0.165	-0.104
-405.282	-200.000	-0.007	-0.179
-404.267	800.000	0.065	0.241
-403.252	78.383	0.056	0.060
-402.238	-154.046	-0.371	0.025
-401.223	130.955	-0.036	-0.046
-400.209	-138.096	-0.137	-0.015
-399.194	360.059	0.088	0.176
-398.179	444.652	-0.046	0.100
-397.165	81.967	0.179	-0.193
-396.150	-20.203	-0.079	-0.049
-395.136	-147.493	-0.148	0.012
-394.121	-71.563	-0.013	-0.005
-393.106	-98.627	0.106	0.027
-392.092	-52.353	0.013	-0.006
-391.077	800.000	0.045	-0.147
-390.063	92.488	0.021	-0.024
-389.048	191.217	-0.033	-0.050
-388.033	2.673	0.158	0.114
-387.019	-62.317	-0.063	0.026
-386.004	-200.000	-0.029	0.133
-384.990	-200.000	0.022	0.218
-383.975	800.000	0.038	-0.146
-382.960	321.579	0.140	0.265
-381.946	587.298	-0.112	0.274
-380.931	-85.026	0.146	-0.046
-379.917	160.399	-0.200	-0.278
-378.902	642.180	-0.031	-0.079
-377.888	15.212	-0.177	-0.138
-376.873	629.497	0.104	0.262
-375.858	-14.381	0.213	-0.137
-374.844	495.978	0.086	-0.195
-373.829	252.937	-0.127	-0.216
-372.815	-200.000	-0.004	0.192
-371.800	-79.363	-0.222	0.075
-370.785	-125.607	-0.239	0.036
-369.771	-49.517	-0.193	-0.092
-368.756	131.765	0.170	-0.218
-367.742	800.000	0.078	0.337
-366.727	-125.623	-0.380	-0.057
-365.712	-50.625	-0.264	-0.124
-364.698	-52.648	-0.209	0.096
-363.683	-200.000	0.034	0.171
-362.669	-75.903	0.145	0.051
-361.654	800.000	-0.046	-0.134
-360.639	-12.547	-0.210	-0.136
-359.625	-51.616	0.078	-0.036
-358.610	-200.000	-0.026	0.140
-357.596	219.796	-0.004	0.007
-356.581	-32.706	0.026	0.014
-355.566	-9.992	-0.327	-0.216
-354.552	93.610	0.128	0.144
-353.537	400.587	-0.223	-0.465
-352.523	-75.533	-0.271	0.096
-351.508	-27.529	0.164	0.095
-350.493	64.339	-0.143	0.143
-349.479	41.139	0.142	0.127
-348.464	-200.000	0.005	-0.413
-347.450	483.884	0.124	-0.280
-346.435	-200.000	0.019	-0.144
-345.420	164.313	-0.317	-0.444
-344.406	-200.000	0.009	0.329
-343.391	-200.000	0.003	-0.103
-342.377	11.521	-0.193	-0.147
-341.362	800.000	-0.084	0.270
-340.348	303.200	0.065	-0.119
-339.333	-97.363	-0.126	-0.033
-338.318	38.635	0.092	-0.081
-337.304	-156.086	0.316	-0.020
-336.289	102.268	-0.233	-0.271
-335.275	-24.768	-0.246	-0.145
-334.260	36.286	0.140	-0.122
-333.245	226.190	-0.180	0.291
-332.231	800.000	0.038	-0.137
-331.216	144.477	-0.077	0.102
-330.202	52.929	0.131	-0.124
-329.187	73.533	0.125	-0.130
-328.172	-168.822	0.388	0.014
-327.158	-200.000	0.008	-0.090
-326.143	-61.614	-0.097	0.041
-325.129	25.913	0.221	-0.183
-324.114	800.000	-0.041	0.143
-323.099	-95.741	-0.196	-0.052
-322.085	22.154	-0.205	-0.166
-321.070	-142.417	0.165	-0.016
-320.056	-144.415	-0.281	0.026
-319.041	63.594	0.099	-0.098
-318.026	-80.910	-0.130	-0.043
-317.012	415.308	-0.057	-0.120
-315.997	741.100	0.096	0.256
-314.983	-134.187	-0.233	0.029
-313.968	-26.873	-0.141	0.082
-312.953	751.217	-0.063	-0.169
-311.939	93.760	0.230	0.258
-310.924	74.135	0.105	0.110
-309.910	-40.761	0.290	-0.149
-308.895	-35.122	0.022	0.012
-307.880	-200.000	-0.000	-0.107
-306.866	-77.547	-0.050	0.017
-305.851	156.481	-0.079	-0.108
-304.837	-24.459	-0.117	0.069
-303.822	44.829	-0.116	0.106
-302.807	-101.145	-0.420	-0.102
-301.793	-195.601	-0.211	-0.002
-300.778	800.000	0.044	0.168
-299.764	204.346	0.111	0.171
-298.749	800.000	-0.082	0.240
-297.735	193.758	0.104	0.156
-296.720	-88.026	-0.153	0.046
-295.705	-170.943	-0.356	-0.012
-294.691	-102.753	0.375	0.088
-293.676	-200.000	0.048	0.492
-292.662	-82.546	0.204	0.065
-291.647	20.571	-0.203	-0.163
-290.632	38.748	0.097	-0.086
-289.618	800.000	0.031	0.085
-288.603	386.788	-0.037	0.076
-287.589	-28.682	-0.141	0.081
-286.574	-41.664	0.146	0.074
-285.559	-85.646	-0.045	-0.014
-284.545	-200.000	-0.015	-0.205
-283.530	-131.096	-0.375	0.049
-282.516	262.264	-0.139	-0.239
-281.501	-200.000	-0.009	0.327
-280.486	651.027	0.059	0.151
-279.472	-200.000	-0.005	0.220
-278.457	-87.257	0.093	-0.028
-277.443	10.240	0.335	0.252
-276.428	-154.237	0.196	-0.013
-275.413	178.005	0.058	0.083
-274.399	95.647	-0.166	0.188
-273.384	-176.725	0.257	0.006
-272.370	-69.665	0.240	-0.091
-271.355	-137.480	-0.205	0.023
-270.340	-128.498	0.039	-0.005
-269.326	50.657	0.118	0.111
-268.311	311.937	-0.075	-0.140
-267.297	-200.000	-0.023	-0.171
-266.282	-93.151	0.139	0.038
-265.267	-71.454	-0.282	-0.105
-264.253	-200.000	-0.033	0.176
-263.238	-121.864	0.282	-0.046
-262.224	-147.303	0.115	0.010
-261.209	-200.000	0.045	-0.388
-260.195	66.364	0.189	-0.190
-259.180	441.861	-0.095	-0.206
-258.165	-151.114	0.352	0.026
-257.151	-83.035	-0.346	0.110
-256.136	85.848	-0.088	0.096
-255.122	-35.403	0.101	-0.054
-254.107	-142.849	-0.252	-0.024
-253.092	-115.252	0.352	0.066
-252.078	-108.547	0.098	0.021
-251.063	800.000	-0.069	-0.222
-250.049	545.275	0.117	0.277
-249.034	800.000	0.040	-0.171
-248.019	3.055	0.206	-0.148
-247.005	-4.306	-0.026	-0.018
-245.990	-13.401	-0.084	0.054
-244.976	-51.454	-0.170	-0.079
-243.961	-200.000	-0.022	-0.376
-242.946	-200.000	-0.031	-0.136
-241.932	-200.000	0.008	0.384
-240.917	-146.852	-0.150	-0.013
-239.903	65.856	0.068	0.068
-238.888	305.845	-0.127	-0.233
-237.873	78.210	-0.044	0.047
-236.859	171.756	-0.115	-0.163
-235.844	-200.000	-0.066	-0.303
-234.830	56.002	0.165	0.159
-233.815	800.000	0.045	-0.184
-232.800	26.128	0.102	0.084
-231.786	-200.000	-0.019	0.085
-230.771	-200.000	0.005	0.137
-229.757	-93.686	-0.063	0.017
-228.742	131.827	-0.117	-0.148
-227.727	-141.384	-0.038	0.004
-226.713	-37.724	-0.220	0.116
-225.698	-118.233	-0.304	0.053
-224.684	116.155	-0.124	0.150
-223.669	-111.290	-0.245	-0.049
-222.655	267.529	-0.162	-0.279
-221.640	35.962	-0.171	0.149
-220.625	-200.000	0.008	-0.442
-219.611	44.925	0.294	0.268
-218.596	-2.137	-0.186	0.129
-217.582	-111.468	-0.308	0.062
-216.567	57.661	0.094	-0.091
-215.552	-76.869	0.321	-0.111
-214.538	-108.797	-0.456	0.097
-213.523	-59.664	0.242	0.103
-212.509	220.339	0.114	-0.181
-211.494	45.717	-0.277	0.253
-210.479	-34.530	-0.208	-0.113
-209.465	424.596	0.127	0.271
-208.450	-135.237	0.120	0.014
-207.436	-141.927	0.467	-0.046
-206.421	-200.000	-0.029	-0.290
-205.406	800.000	-0.072	-0.298
-204.392	-33.369	0.252	-0.138
-203.377	-200.000	0.019	-0.252
-202.363	6.619	-0.314	-0.230
-201.348	160.911	0.147	0.203
-200.333	800.000	-0.015	-0.064
-199.319	366.743	0.077	-0.153
-198.304	-122.737	0.433	-0.069
-197.290	-113.151	0.277	0.054
-196.275	429.589	0.116	0.248
-195.260	42.233	-0.152	-0.136
-194.246	-200.000	-0.003	0.375
-193.231	-200.000	-0.009	-0.083
-192.217	800.000	0.050	-0.147
-191.202	-105.917	0.036	0.008
-190.187	44.480	0.205	-0.186
-189.173	222.113	0.043	0.069
-188.158	-120.448	-0.070	0.012
-187.144	-20.235	0.221	0.134
-186.129	-145.085	-0.279	0.025
-185.114	-154.147	0.429	0.029
-184.100	-42.535	-0.211	0.106
-183.085	97.780	0.219	-0.249
-182.071	-39.425	0.008	-0.004
-181.056	-86.115	-0.078	0.024
-180.042	-83.757	-0.257	-0.081
-179.027	-14.619	0.295	0.187
-178.012	-167.752	0.189	0.007
-176.998	-79.348	-0.254	-0.085
-175.983	30.902	-0.186	0.157
-174.969	-44.455	-0.129	0.064
-173.954	800.000	0.100	0.298
-172.939	-200.000	-0.035	-0.163
-171.925	-200.000	-0.057	0.261
-170.910	800.000	0.048	-0.144
-169.896	-130.882	-0.245	-0.032
-168.881	-91.497	-0.063	-0.018
-167.866	800.000	0.103	-0.353
-166.852	39.354	0.175	-0.154
-165.837	800.000	0.057	0.158
-164.823	-200.000	0.021	0.163
-163.808	800.000	0.065	0.215
-162.793	-20.796	-0.193	-0.117
-161.779	-105.937	-0.006	-0.001
-160.764	287.616	0.065	0.116
-159.750	-64.449	0.030	-0.012
-158.735	800.000	0.033	0.094
-157.720	800.000	0.072	-0.252
-156.706	-47.563	-0.132	-0.063
-155.691	90.286	-0.099	0.109
-154.677	-169.393	-0.055	0.002
-153.662	-48.835	0.203	0.096
-152.647	800.000	-0.133	0.511
-151.633	458.294	0.113	0.248
-150.618	163.928	-0.253	-0.351
-149.604	220.574	0.117	0.184
-148.589	-48.286	0.192	-0.091
-147.574	800.000	-0.095	-0.263
-146.560	260.602	-0.077	-0.131
-145.545	-200.000	0.008	-0.148
-144.531	-61.485	-0.275	-0.114
-143.516	-81.044	-0.208	0.068
-142.502	321.735	0.063	-0.117
-141.487	800.000	-0.061	0.167
-140.472	800.000	-0.128	0.362
-139.458	800.000	0.153	0.518
-138.443	-138.380	-0.512	-0.056
-137.429	174.877	0.067	-0.096
-136.414	78.567	0.155	-0.163
-135.399	-131.914	-0.106	0.014
-134.385	13.122	0.095	0.072
-133.370	-77.342	0.137	-0.047
-132.356	-200.000	0.030	-0.298
-131.341	106.380	-0.258	-0.301
-130.326	58.548	0.123	-0.119
-129.312	-75.927	0.374	0.130
-128.297	20.228	-0.134	0.107
-127.283	-99.739	-0.070	-0.017
-126.268	56.890	-0.104	0.099
-125.253	33.703	-0.296	0.253
-124.239	-78.243	0.142	0.048
-123.224	-99.465	0.216	-0.053
-122.210	46.837	-0.152	0.139
-121.195	29.087	0.335	-0.279
