DTS Sentinel unit serial number:	SN413079Multiplexer serial number:	ORYXHardware model number:	OX4-SRSoftware version number:	ORYX F/W v4.00 Oryx Data Collector v3.7.2.0data status	okinstallation	princeton_trtdifferential loss correction	single-endedforward channel	channel 2reverse channel	N/Adate	2019/09/13time	08:07:34forward acquisition time	60.00reverse acquisition time	0.00gamma	496.2192k internal	0.2334k external	0.2334temperature offset calibration	1.0190default loss term (dB/km)	0.3790temperature slope calibration	1.0000multiplexer offset coefficient	1.0000multiplexer slope coefficient	1.0000fibre end	0.00T internal ref (°C)	27.00T ext. ref 1 (°C)	4.26T ext. ref 2 (°C)	23.22length (m)	temperature (°C)	Stokes	anti-Stokes-747.200	800.000	-0.117	-0.327
-746.185	-200.000	0.011	0.156
-745.171	10.884	0.084	-0.064
-744.156	-200.000	-0.010	0.295
-743.142	-10.905	-0.112	0.074
-742.127	-123.232	-0.315	-0.051
-741.112	274.299	-0.031	0.056
-740.098	24.503	-0.243	0.202
-739.083	26.864	0.149	0.126
-738.069	-200.000	-0.050	0.484
-737.054	800.000	-0.044	0.129
-736.039	-115.939	-0.422	0.079
-735.025	-131.444	0.343	-0.046
-734.010	-200.000	-0.044	-0.299
-732.996	-20.516	-0.207	0.128
-731.981	-123.189	-0.198	0.032
-730.966	-34.348	0.286	-0.158
-729.952	-96.943	-0.397	-0.105
-728.937	-69.775	-0.446	0.171
-727.923	-79.367	0.256	0.087
-726.908	-29.564	-0.193	0.111
-725.894	-200.000	0.014	0.134
-724.879	182.978	-0.109	-0.162
-723.864	108.163	-0.085	-0.102
-722.850	-198.472	-0.151	0.001
-721.835	-150.431	-0.127	0.010
-720.821	-200.000	0.038	-0.181
-719.806	70.203	-0.232	-0.241
-718.791	-200.000	-0.012	0.305
-717.777	130.224	0.115	-0.148
-716.762	241.967	-0.136	0.228
-715.748	-200.000	0.027	0.131
-714.733	781.775	-0.045	0.124
-713.718	-200.000	0.040	0.195
-712.704	76.459	0.134	-0.143
-711.689	172.341	-0.032	-0.046
-710.675	-200.000	-0.052	0.295
-709.660	-200.000	0.026	0.319
-708.645	-58.730	-0.131	0.057
-707.631	33.773	-0.086	-0.075
-706.616	-181.678	-0.075	0.001
-705.602	-112.745	0.149	0.030
-704.587	207.445	-0.063	-0.098
-703.572	36.133	-0.033	0.029
-702.558	-40.722	0.248	-0.129
-701.543	-200.000	-0.047	0.284
-700.529	48.499	-0.243	0.228
-699.514	14.623	-0.066	0.052
-698.499	146.151	0.142	0.191
-697.485	-96.254	-0.412	0.110
-696.470	104.288	-0.180	0.212
-695.456	12.276	0.150	0.116
-694.441	-79.598	-0.166	0.056
-693.426	-65.522	0.184	-0.074
-692.412	-86.731	-0.156	0.048
-691.397	128.394	0.045	-0.058
-690.383	291.593	-0.083	0.152
-689.368	10.847	0.161	0.123
-688.354	-55.492	-0.295	0.133
-687.339	-17.890	-0.169	-0.106
-686.324	371.870	-0.095	0.193
-685.310	-200.000	-0.017	0.313
-684.295	-117.975	-0.344	0.062
-683.281	-200.000	-0.037	0.167
-682.266	98.104	0.019	-0.022
-681.251	67.592	0.088	-0.091
-680.237	399.534	-0.100	0.210
-679.222	-126.507	-0.188	-0.028
-678.208	-31.487	-0.189	-0.107
-677.193	718.422	0.187	-0.497
-676.178	800.000	-0.099	0.274
-675.164	-45.576	-0.260	-0.129
-674.149	-116.348	-0.235	-0.044
-673.135	800.000	0.030	-0.129
-672.120	87.308	-0.243	-0.270
-671.105	-169.969	0.240	-0.009
-670.091	-200.000	0.053	0.336
-669.076	280.473	0.193	-0.345
-668.062	-200.000	-0.074	0.560
-667.047	-122.937	0.225	0.036
-666.032	-150.534	-0.286	-0.022
-665.018	800.000	0.038	-0.145
-664.003	262.346	-0.071	0.123
-662.989	-27.328	0.218	0.127
-661.974	-17.459	-0.149	-0.094
-660.959	-145.804	-0.231	-0.021
-659.945	-134.103	0.209	-0.026
-658.930	-110.389	-0.210	-0.044
-657.916	-145.479	0.083	-0.007
-656.901	335.138	0.020	-0.039
-655.886	251.136	-0.079	0.135
-654.872	122.022	0.101	0.126
-653.857	-61.515	-0.252	-0.106
-652.843	131.844	-0.154	-0.198
-651.828	800.000	-0.048	0.196
-650.814	690.787	-0.073	0.190
-649.799	-200.000	-0.023	0.141
-648.784	13.655	0.145	0.113
-647.770	135.706	-0.055	0.071
-646.755	-200.000	-0.018	-0.171
-645.741	800.000	-0.047	-0.169
-644.726	-200.000	0.026	-0.204
-643.711	-1.976	0.259	-0.182
-642.697	89.512	0.219	-0.245
-641.682	-86.397	-0.329	0.101
-640.668	-81.054	0.481	0.159
-639.653	-200.000	-0.021	0.190
-638.638	115.322	-0.136	0.166
-637.624	234.315	0.028	-0.046
-636.609	-200.000	-0.008	-0.141
-635.595	-114.513	-0.381	-0.073
-634.580	-89.202	0.171	0.051
-633.565	485.498	-0.070	0.160
-632.551	-200.000	-0.001	-0.111
-631.536	-136.986	-0.330	0.038
-630.522	-34.990	0.181	-0.099
-629.507	800.000	-0.039	0.128
-628.492	50.941	0.260	0.246
-627.478	107.469	-0.210	-0.250
-626.463	-200.000	0.107	-0.507
-625.449	24.320	0.196	-0.162
-624.434	234.335	-0.148	0.244
-623.419	-36.879	-0.021	-0.011
-622.405	93.404	-0.077	-0.087
-621.390	800.000	-0.015	0.056
-620.376	-40.690	0.166	-0.086
-619.361	90.021	0.059	0.066
-618.346	-35.299	-0.177	-0.096
-617.332	-103.066	0.088	0.021
-616.317	-33.118	-0.081	0.045
-615.303	115.760	0.249	0.305
-614.288	800.000	-0.087	0.281
-613.273	175.982	-0.238	0.345
-612.259	-159.713	-0.172	-0.009
-611.244	800.000	0.048	-0.187
-610.230	93.199	-0.129	0.145
-609.215	-200.000	0.017	-0.519
-608.201	-95.683	-0.138	0.037
-607.186	-33.334	0.049	0.027
-606.171	85.597	0.110	-0.121
-605.157	27.067	0.378	-0.317
-604.142	-54.609	0.218	0.099
-603.128	-147.960	-0.176	0.015
-602.113	-72.666	0.435	0.160
-601.098	63.143	0.092	-0.092
-600.084	-11.468	0.221	0.145
-599.069	-200.000	0.028	0.131
-598.055	7.558	-0.310	-0.232
-597.040	-34.793	0.111	-0.061
-596.025	615.191	-0.034	0.085
-595.011	-35.098	-0.312	0.170
-593.996	266.364	-0.156	0.273
-592.982	-200.000	-0.069	0.304
-591.967	-175.829	0.072	-0.002
-590.952	-96.209	-0.136	0.036
-589.938	800.000	0.059	-0.168
-588.923	-200.000	-0.005	0.082
-587.909	-102.434	-0.115	0.027
-586.894	204.588	-0.049	-0.077
-585.879	432.406	-0.061	0.133
-584.865	117.597	0.256	0.314
-583.850	800.000	-0.057	-0.175
-582.836	470.201	0.133	0.298
-581.821	706.838	-0.021	0.056
-580.806	-40.093	0.368	-0.192
-579.792	-26.277	-0.254	0.149
-578.777	-200.000	0.019	-0.137
-577.763	-111.449	0.087	-0.018
-576.748	-199.076	0.307	-0.002
-575.733	-125.736	0.067	-0.010
-574.719	-200.000	0.037	0.415
-573.704	458.641	0.103	0.228
-572.690	-162.285	-0.336	0.017
-571.675	800.000	0.068	0.253
-570.661	489.113	-0.056	-0.127
-569.646	-82.190	0.319	0.104
-568.631	-72.815	-0.224	-0.082
-567.617	800.000	0.096	-0.283
-566.602	91.029	-0.150	-0.168
-565.588	-129.990	0.275	0.038
-564.573	17.630	-0.136	0.108
-563.558	33.293	0.297	0.258
-562.544	800.000	-0.006	0.024
-561.529	800.000	-0.017	0.052
-560.515	-200.000	-0.079	0.352
-559.500	222.146	0.056	-0.091
-558.485	-77.322	-0.206	-0.071
-557.471	11.306	-0.201	0.154
-556.456	242.689	0.142	0.238
-555.442	413.319	0.055	-0.116
-554.427	556.517	0.081	-0.195
-553.412	329.709	-0.122	-0.235
-552.398	296.008	0.045	-0.082
-551.383	-172.448	0.399	0.013
-550.369	800.000	-0.126	0.432
-549.354	388.827	0.050	0.104
-548.339	-46.778	-0.454	0.222
-547.325	-34.041	0.103	0.057
-546.310	456.355	0.059	0.131
-545.296	-200.000	-0.006	0.080
-544.281	-113.303	-0.072	0.014
-543.266	481.272	0.036	0.082
-542.252	800.000	0.020	0.082
-541.237	74.196	-0.211	-0.221
-540.223	800.000	-0.045	0.150
-539.208	-5.671	-0.355	0.243
-538.193	125.697	-0.127	-0.160
-537.179	-36.431	-0.235	0.126
-536.164	-112.126	0.543	-0.109
-535.150	-200.000	0.016	0.081
-534.135	-200.000	-0.004	0.131
-533.121	12.195	0.045	-0.035
-532.106	-200.000	-0.009	0.119
-531.091	800.000	0.069	0.191
-530.077	-200.000	0.022	-0.364
-529.062	-100.915	-0.403	-0.099
-528.048	-200.000	0.011	-0.073
-527.033	-77.590	0.156	0.054
-526.018	94.500	-0.129	0.146
-525.004	100.660	-0.035	0.041
-523.989	-118.224	0.269	-0.048
-522.975	-121.115	-0.286	-0.048
-521.960	-122.200	-0.103	0.017
-520.945	336.356	-0.091	-0.176
-519.931	643.536	-0.060	-0.153
-518.916	-13.273	-0.379	-0.245
-517.902	-200.000	0.014	0.144
-516.887	-105.902	-0.026	-0.006
-515.872	-176.351	-0.136	0.004
-514.858	-200.000	0.008	0.097
-513.843	537.029	-0.092	0.218
-512.829	-200.000	-0.067	-0.386
-511.814	800.000	-0.026	-0.094
-510.799	800.000	0.050	-0.172
-509.785	-13.408	0.201	0.130
-508.770	242.738	-0.017	0.028
-507.756	-200.000	-0.061	0.390
-506.741	421.352	-0.041	-0.088
-505.726	561.164	0.064	-0.154
-504.712	-119.377	0.305	-0.053
-503.697	155.693	-0.247	-0.338
-502.683	195.128	-0.112	0.169
-501.668	-111.760	-0.209	0.042
-500.653	-140.333	-0.200	0.021
-499.639	798.651	-0.151	-0.414
-498.624	-200.000	-0.051	0.232
-497.610	-154.330	0.336	0.023
-496.595	-121.237	0.333	0.055
-495.581	29.653	-0.083	0.071
-494.566	-45.739	-0.214	-0.105
-493.551	-50.101	0.013	-0.006
-492.537	-180.012	-0.393	0.008
-491.522	-200.000	-0.024	-0.225
-490.508	91.497	0.084	-0.094
-489.493	800.000	0.036	-0.135
-488.478	12.475	0.112	0.086
-487.464	-200.000	-0.031	0.193
-486.449	-69.264	-0.197	0.075
-485.435	-119.995	0.228	-0.039
-484.420	-97.813	0.296	-0.076
-483.405	374.183	0.062	-0.125
-482.391	-159.916	-0.183	0.010
-481.376	-137.316	-0.301	-0.034
-480.362	-87.172	0.119	0.036
-479.347	129.320	0.188	0.239
-478.332	170.959	-0.044	0.062
-477.318	213.204	-0.129	0.203
-476.303	-58.187	0.273	-0.118
-475.289	-13.022	-0.264	-0.171
-474.274	-174.234	-0.118	-0.003
-473.259	-200.000	0.014	-0.317
-472.245	212.772	-0.228	0.358
-471.230	-164.670	0.082	0.004
-470.216	-92.047	-0.230	-0.065
-469.201	-91.371	-0.232	0.066
-468.186	180.990	0.059	0.087
-467.172	26.941	0.279	-0.233
-466.157	-200.000	0.003	-0.171
-465.143	147.169	0.164	-0.220
-464.128	82.352	0.234	0.253
-463.113	12.954	-0.120	-0.092
-462.099	-66.531	-0.266	0.105
-461.084	120.802	-0.310	-0.383
-460.070	-200.000	0.033	0.316
-459.055	-200.000	-0.015	0.148
-458.040	-200.000	0.065	-0.413
-457.026	800.000	-0.051	-0.161
-456.011	800.000	0.085	-0.260
-454.997	6.870	-0.368	0.272
-453.982	-165.239	0.105	0.005
-452.968	120.703	0.170	0.210
-451.953	113.125	0.091	0.109
-450.938	275.205	-0.103	0.182
-449.924	-116.822	-0.201	-0.037
-448.909	141.682	0.312	-0.411
-447.895	-111.988	0.099	-0.020
-446.880	-67.070	0.158	0.062
-445.865	618.173	-0.131	0.326
-444.851	367.036	-0.043	-0.087
-443.836	54.631	0.245	-0.235
-442.822	-200.000	-0.028	0.225
-441.807	724.073	-0.040	0.106
-440.792	-200.000	0.016	-0.080
-439.778	-88.713	-0.060	-0.018
-438.763	-44.367	0.202	-0.101
-437.749	-200.000	0.034	-0.432
-436.734	-56.056	-0.242	0.107
-435.719	-200.000	-0.025	-0.361
-434.705	-87.382	-0.143	0.043
-433.690	5.635	-0.141	0.104
-432.676	-12.412	0.133	-0.086
-431.661	-110.743	-0.274	-0.056
-430.646	800.000	-0.029	0.104
-429.632	50.356	-0.112	0.105
-428.617	-200.000	0.003	-0.179
-427.603	234.216	0.118	0.193
-426.588	-174.290	-0.130	-0.004
-425.573	800.000	0.083	-0.267
-424.559	-97.772	0.108	0.028
-423.544	105.264	-0.204	-0.239
-422.530	-200.000	-0.014	-0.075
-421.515	-200.000	-0.038	-0.394
-420.500	78.720	-0.114	-0.121
-419.486	-129.896	0.401	0.055
-418.471	92.041	0.174	0.194
-417.457	-178.065	0.415	-0.010
-416.442	517.113	-0.136	-0.315
-415.428	-6.629	0.123	0.083
-414.413	-169.009	0.513	-0.019
-413.398	-129.166	-0.191	0.026
-412.384	-188.517	-0.106	0.001
-411.369	754.325	-0.069	-0.185
-410.355	-174.477	0.225	-0.006
-409.340	-47.387	-0.276	0.133
-408.325	-200.000	0.023	0.465
-407.311	-62.696	-0.163	-0.067
-406.296	800.000	0.072	0.233
-405.282	191.173	0.138	0.206
-404.267	-100.481	0.190	0.047
-403.252	-114.443	-0.172	-0.033
-402.238	-200.000	-0.015	-0.090
-401.223	216.628	0.144	-0.227
-400.209	271.552	0.097	0.170
-399.194	-100.198	-0.100	0.025
-398.179	83.590	-0.143	-0.155
-397.165	-121.715	0.186	0.031
-396.150	-178.457	-0.375	-0.009
-395.136	-11.357	-0.123	-0.081
-394.121	-134.837	-0.275	-0.033
-393.106	800.000	-0.053	-0.199
-392.092	-98.678	-0.152	0.039
-391.077	-148.990	-0.245	0.020
-390.063	158.820	0.091	0.125
-389.048	-200.000	0.012	0.549
-388.033	165.641	0.228	-0.320
-387.019	753.315	-0.118	0.317
-386.004	32.049	-0.204	0.174
-384.990	311.071	0.122	-0.226
-383.975	12.390	-0.016	0.012
-382.960	49.040	-0.081	-0.075
-381.946	-51.780	-0.161	0.074
-380.931	484.842	0.076	0.172
-379.917	365.663	0.063	-0.126
-378.902	-41.918	0.126	-0.064
-377.888	-82.811	-0.190	-0.061
-376.873	-87.309	0.130	0.039
-375.858	93.915	-0.118	0.132
-374.844	185.056	-0.175	0.257
-373.829	-72.469	-0.216	-0.079
-372.815	-135.715	-0.267	0.031
-371.800	51.383	-0.130	-0.122
-370.785	-42.689	-0.223	-0.112
-369.771	31.155	0.345	0.293
-368.756	-55.601	0.161	-0.071
-367.742	-200.000	-0.018	0.186
-366.727	-200.000	0.019	-0.273
-365.712	175.522	0.131	0.188
-364.698	-15.051	0.210	-0.133
-363.683	193.684	-0.171	-0.256
-362.669	-13.959	-0.392	0.251
-361.654	-69.329	0.238	0.091
-360.639	-98.956	-0.134	0.034
-359.625	225.467	-0.051	0.082
-358.610	-50.346	0.262	-0.123
-357.596	-117.391	0.091	0.016
-356.581	394.230	0.074	0.152
-355.566	-123.161	0.325	-0.052
-354.552	-26.362	-0.419	0.243
-353.537	1.408	0.491	-0.350
-352.523	35.373	-0.048	-0.042
-351.508	-125.357	-0.250	-0.038
-350.493	-85.852	0.253	-0.078
-349.479	78.503	-0.134	-0.142
-348.464	-139.144	-0.155	-0.017
-347.450	800.000	-0.035	-0.131
-346.435	-173.364	0.243	0.007
-345.420	31.655	0.142	0.121
-344.406	800.000	0.056	0.183
-343.391	-36.589	0.232	-0.124
-342.377	800.000	-0.032	-0.136
-341.362	-47.490	0.221	-0.106
-340.348	-157.648	-0.361	-0.021
-339.333	800.000	-0.061	-0.223
-338.318	800.000	-0.134	-0.371
-337.304	-96.278	0.067	0.018
-336.289	553.487	-0.155	-0.369
-335.275	800.000	0.039	-0.162
-334.260	32.977	-0.132	0.113
-333.245	-177.795	0.111	0.003
-332.231	-24.876	0.373	0.219
-331.216	-127.917	0.086	0.012
-330.202	-137.037	-0.157	0.018
-329.187	-77.784	0.269	0.092
-328.172	-30.489	0.231	-0.130
-327.158	285.315	0.042	-0.074
-326.143	365.000	0.081	0.160
-325.129	800.000	0.051	0.178
-324.114	-200.000	0.007	0.040
-323.099	165.744	0.165	-0.231
-322.085	-123.293	-0.086	0.014
-321.070	-16.781	0.118	-0.074
-320.056	-120.392	0.092	-0.016
-319.041	166.079	0.238	-0.334
-318.026	-200.000	-0.057	0.462
-317.012	49.718	0.341	0.318
-315.997	126.432	-0.108	0.136
-314.983	204.488	0.039	0.059
-313.968	-200.000	-0.002	-0.032
-312.953	800.000	-0.083	-0.228
-311.939	800.000	-0.084	-0.274
-310.924	-200.000	-0.006	-0.056
-309.910	-8.048	0.185	0.123
-308.895	439.885	-0.071	0.153
-307.880	14.457	-0.127	-0.098
-306.866	-29.382	-0.276	-0.156
-305.851	-141.258	-0.266	0.027
-304.837	-200.000	0.006	0.026
-303.822	57.284	-0.185	0.179
-302.807	15.158	-0.093	0.072
-301.793	447.488	-0.100	-0.218
-300.778	-14.594	0.270	-0.171
-299.764	-102.048	-0.361	0.086
-298.749	-115.757	-0.201	-0.037
-297.735	239.355	0.073	0.120
-296.720	-26.873	0.219	0.126
-295.705	353.203	-0.108	0.211
-294.691	-178.962	0.167	-0.004
-293.676	-200.000	0.013	-0.293
-292.662	-152.357	0.065	-0.005
-291.647	-102.370	-0.081	-0.019
-290.632	136.369	0.206	-0.266
-289.618	-200.000	-0.006	0.156
-288.603	-41.300	-0.239	0.121
-287.589	-50.833	0.238	-0.111
-286.574	101.751	-0.149	-0.172
-285.559	-87.414	0.313	-0.094
-284.545	-163.794	-0.196	-0.009
-283.530	-62.243	0.059	0.024
-282.516	-83.696	-0.110	-0.035
-281.501	30.055	0.220	-0.185
-280.486	71.871	-0.302	-0.310
-279.472	-151.297	-0.209	0.015
-278.457	133.133	0.086	-0.110
-277.443	347.896	0.127	-0.248
-276.428	-64.560	-0.064	0.025
-275.413	-56.380	-0.230	0.101
-274.399	78.674	0.297	-0.314
-273.384	262.328	-0.050	-0.086
-272.370	50.610	0.088	-0.082
-271.355	-60.163	0.106	-0.045
-270.340	538.368	-0.058	0.137
-269.326	800.000	0.048	-0.187
-268.311	-200.000	-0.014	0.226
-267.297	156.944	0.282	-0.384
-266.282	55.309	-0.086	-0.082
-265.267	-53.838	0.121	-0.054
-264.253	-200.000	0.008	0.209
-263.238	-38.926	0.357	-0.185
-262.224	92.807	-0.068	-0.076
-261.209	-200.000	-0.020	-0.178
-260.195	-77.713	0.052	-0.018
-259.180	9.933	0.128	0.096
-258.165	21.849	-0.359	0.289
-257.151	505.408	0.137	-0.313
-256.136	71.783	0.144	0.148
-255.122	800.000	-0.075	0.249
-254.107	73.679	0.204	-0.211
-253.092	-140.222	0.262	-0.027
-252.078	0.889	-0.251	0.177
-251.063	91.600	0.158	0.175
-250.049	-150.352	-0.278	-0.021
-249.034	-162.664	-0.068	0.003
-248.019	90.711	0.052	-0.058
-247.005	-145.712	0.086	-0.008
-245.990	-3.799	-0.088	0.060
-244.976	-18.368	0.281	-0.173
-243.961	159.524	-0.050	0.069
-242.946	-102.734	0.123	0.029
-241.932	218.362	0.103	0.161
-240.917	47.137	-0.218	0.200
-239.903	-120.090	-0.152	0.026
-238.888	-200.000	-0.029	0.235
-237.873	238.756	0.117	0.192
-236.859	-110.619	0.237	-0.048
-235.844	-125.384	0.242	0.036
-234.830	-193.938	-0.273	0.002
-233.815	-200.000	0.020	0.109
-232.800	-23.754	-0.217	-0.128
-231.786	-92.911	-0.282	0.078
-230.771	-64.930	-0.170	-0.068
-229.757	125.871	0.278	0.346
-228.742	-134.501	-0.341	-0.041
-227.727	-200.000	0.040	-0.251
-226.713	-60.387	0.207	-0.087
-225.698	715.069	-0.068	-0.178
-224.684	427.365	-0.107	0.228
-223.669	800.000	-0.062	-0.229
-222.655	30.918	0.180	0.152
-221.640	-200.000	0.021	0.220
-220.625	-198.294	-0.153	-0.001
-219.611	-200.000	0.041	-0.318
-218.596	800.000	-0.046	0.191
-217.582	-168.612	0.167	-0.006
-216.567	-47.376	0.215	-0.103
-215.552	-91.164	0.277	-0.078
-214.538	800.000	-0.098	-0.398
-213.523	-150.259	0.338	-0.026
-212.509	-128.488	-0.150	-0.021
-211.494	-91.410	-0.298	0.084
-210.479	-61.941	0.131	-0.054
-209.465	-200.000	0.003	0.182
-208.450	265.175	0.167	-0.287
-207.436	-69.094	0.173	0.066
-206.421	-13.318	0.278	0.178
-205.406	-123.607	-0.309	-0.048
-204.392	-170.926	-0.406	0.014
-203.377	461.624	0.110	0.241
-202.363	16.555	-0.100	0.078
-201.348	-200.000	-0.023	-0.208
-200.333	-91.866	0.161	-0.045
-199.319	395.257	-0.069	0.141
-198.304	-142.555	-0.320	-0.031
-197.290	-149.678	-0.218	0.017
-196.275	14.710	0.135	-0.103
-195.260	800.000	0.029	-0.104
-194.246	-200.000	0.006	-0.156
-193.231	371.956	-0.087	-0.173
-192.217	73.173	-0.255	-0.262
-191.202	-100.585	-0.241	-0.058
-190.187	-135.469	-0.097	-0.011
-189.173	-20.438	0.121	-0.073
-188.158	-18.104	-0.082	0.050
-187.144	632.394	0.104	-0.258
-186.129	-200.000	-0.024	0.402
-185.114	186.406	-0.098	0.143
-184.100	-200.000	-0.011	-0.058
-183.085	-200.000	0.019	0.179
-182.071	52.320	0.145	0.136
-181.056	-21.179	-0.269	0.162
-180.042	-200.000	0.068	0.487
-179.027	-200.000	-0.051	0.242
-178.012	162.556	-0.211	0.291
-176.998	161.804	0.081	0.111
-175.983	-47.295	-0.257	-0.123
-174.969	4.029	0.027	-0.020
-173.954	-71.202	0.192	0.071
-172.939	23.897	0.057	0.047
-171.925	-152.456	0.248	0.018
-170.910	-26.815	-0.186	0.107
-169.896	800.000	-0.046	0.149
-168.881	-164.464	-0.350	0.016
-167.866	800.000	0.064	0.204
-166.852	-75.331	0.242	-0.085
-165.837	-71.816	0.271	0.099
-164.823	-200.000	-0.052	-0.359
-163.808	332.396	-0.125	0.236
-162.793	333.319	0.063	0.120
-161.779	-130.825	0.111	-0.015
-160.764	-131.005	0.315	0.041
-159.750	222.933	0.123	-0.195
-158.735	300.350	0.068	0.124
-157.720	800.000	0.061	-0.259
-156.706	-96.593	0.088	-0.023
-155.691	201.908	0.094	-0.142
-154.677	128.249	0.130	0.163
-153.662	172.490	0.183	0.258
-152.647	-200.000	0.061	-0.277
-151.633	-36.615	-0.073	0.038
-150.618	-41.715	-0.044	-0.022
-149.604	-67.392	-0.277	-0.107
-148.589	-200.000	0.016	-0.223
-147.574	800.000	0.026	0.092
-146.560	176.944	-0.073	0.104
-145.545	305.846	-0.153	-0.279
-144.531	-200.000	0.014	0.222
-143.516	-35.759	-0.024	-0.013
-142.502	258.055	-0.049	0.082
-141.487	-96.181	0.508	0.132
-140.472	-129.153	-0.096	0.013
-139.458	-133.200	-0.201	0.025
-138.443	195.196	-0.133	-0.198
-137.429	-200.000	0.064	0.296
-136.414	-102.320	0.105	0.025
-135.399	-189.521	-0.262	0.003
-134.385	18.727	-0.191	-0.150
-133.370	360.894	-0.098	-0.193
-132.356	-200.000	-0.004	0.101
-131.341	70.561	-0.211	0.214
-130.326	628.660	0.056	-0.138
-129.312	130.612	0.110	0.139
-128.297	181.283	0.087	-0.126
-127.283	232.634	0.087	0.140
-126.268	572.397	-0.057	0.135
-125.253	-200.000	-0.057	0.454
-124.239	-132.885	0.335	0.042
-123.224	-94.703	0.265	-0.071
