DTS Sentinel unit serial number:	SN413079Multiplexer serial number:	ORYXHardware model number:	OX4-SRSoftware version number:	ORYX F/W v4.00 Oryx Data Collector v3.7.2.0data status	okinstallation	princeton_trtdifferential loss correction	single-endedforward channel	channel 2reverse channel	N/Adate	2019/09/11time	22:13:11forward acquisition time	60.00reverse acquisition time	0.00gamma	496.2192k internal	0.2325k external	0.2325temperature offset calibration	1.0070default loss term (dB/km)	0.3790temperature slope calibration	1.0000multiplexer offset coefficient	1.0000multiplexer slope coefficient	1.0000fibre end	0.00T internal ref (°C)	35.31T ext. ref 1 (°C)	1.73T ext. ref 2 (°C)	29.76length (m)	temperature (°C)	Stokes	anti-Stokes-747.200	-23.386	0.130	-0.079
-746.185	68.116	0.232	0.240
-745.171	-200.000	-0.016	-0.257
-744.156	-142.524	-0.127	0.013
-743.142	-139.418	-0.126	-0.014
-742.127	19.568	0.263	0.214
-741.112	-94.245	-0.258	-0.071
-740.098	11.942	0.283	0.219
-739.083	-182.968	0.262	0.005
-738.069	154.523	-0.021	0.029
-737.054	-200.000	-0.014	0.131
-736.039	800.000	-0.089	-0.308
-735.025	800.000	0.052	0.200
-734.010	-121.933	-0.149	-0.025
-732.996	-60.852	-0.155	0.066
-731.981	155.952	-0.269	0.375
-730.966	800.000	0.038	-0.157
-729.952	-52.859	-0.113	0.052
-728.937	-30.790	-0.243	-0.138
-727.923	238.845	-0.097	-0.162
-726.908	158.747	0.210	-0.294
-725.894	-200.000	0.054	0.376
-724.879	-3.515	0.239	0.167
-723.864	-200.000	0.021	0.099
-722.850	468.990	0.103	0.232
-721.835	85.844	-0.307	0.340
-720.821	15.632	0.071	0.056
-719.806	-172.880	-0.229	-0.007
-718.791	-200.000	-0.515	-0.002
-717.777	236.577	-0.113	0.189
-716.762	-200.000	0.008	0.385
-715.748	-200.000	-0.089	-0.000
-714.733	224.168	0.119	-0.194
-713.718	-40.031	-0.102	0.053
-712.704	-166.745	0.309	0.013
-711.689	-54.525	-0.202	-0.092
-710.675	-27.598	-0.231	-0.135
-709.660	-200.000	0.004	-0.188
-708.645	-200.000	-0.043	0.193
-707.631	153.436	0.050	-0.069
-706.616	40.389	0.187	0.170
-705.602	-200.000	-0.037	-0.281
-704.587	55.158	0.113	-0.110
-703.572	800.000	-0.047	0.180
-702.558	-200.000	-0.003	0.051
-701.543	-164.564	0.093	0.004
-700.529	205.845	0.182	0.285
-699.514	-200.000	-0.010	-0.165
-698.499	-58.889	-0.264	-0.115
-697.485	800.000	-0.175	0.612
-696.470	119.409	-0.079	0.099
-695.456	-200.000	-0.053	-0.311
-694.441	-200.000	0.017	-0.168
-693.426	499.022	-0.088	-0.205
-692.412	-55.429	0.124	-0.056
-691.397	-60.386	0.161	-0.069
-690.383	-200.000	0.046	-0.280
-689.368	165.742	-0.263	-0.374
-688.354	50.892	0.174	-0.166
-687.339	-55.148	0.272	-0.123
-686.324	176.925	0.173	-0.254
-685.310	-122.231	0.188	-0.031
-684.295	-100.338	-0.229	-0.057
-683.281	-60.331	0.152	0.065
-682.266	800.000	-0.022	0.082
-681.251	226.076	0.104	0.170
-680.237	49.367	-0.252	0.239
-679.222	-161.780	0.190	0.010
-678.208	16.929	-0.386	0.308
-677.193	173.515	0.091	-0.132
-676.178	406.884	0.035	0.074
-675.164	-147.119	0.272	0.023
-674.149	-59.239	0.128	0.055
-673.135	346.428	0.111	-0.220
-672.120	-200.000	-0.030	-0.567
-671.105	-200.000	0.052	-0.302
-670.091	-14.671	0.260	-0.168
-669.076	-200.000	-0.011	0.218
-668.062	131.412	-0.291	-0.376
-667.047	-100.848	0.147	0.036
-666.032	-150.223	-0.301	-0.023
-665.018	218.944	-0.088	0.142
-664.003	-200.000	0.004	0.034
-662.989	-83.234	0.127	-0.041
-661.974	-181.926	-0.200	0.004
-660.959	601.618	0.033	-0.082
-659.945	-112.824	0.122	0.024
-658.930	-200.000	0.029	0.155
-657.916	-200.000	0.003	0.075
-656.901	-117.639	-0.068	0.012
-655.886	1.833	-0.144	0.105
-654.872	800.000	0.067	0.195
-653.857	69.509	-0.141	0.146
-652.843	-200.000	-0.052	-0.261
-651.828	153.538	0.011	0.015
-650.814	-140.493	-0.599	0.063
-649.799	-200.000	-0.012	-0.181
-648.784	78.439	-0.218	-0.234
-647.770	-125.808	0.130	-0.020
-646.755	305.825	0.080	-0.149
-645.741	-200.000	0.016	-0.351
-644.726	290.881	-0.070	0.129
-643.711	-145.068	0.344	-0.031
-642.697	200.936	0.071	-0.109
-641.682	-93.050	0.220	0.062
-640.668	55.043	0.115	-0.112
-639.653	-5.804	0.097	-0.067
-638.638	-200.000	0.054	-0.289
-637.624	185.762	-0.133	-0.199
-636.609	-200.000	-0.014	-0.114
-635.595	-133.632	0.162	0.020
-634.580	-200.000	0.007	0.211
-633.565	-200.000	-0.016	0.144
-632.551	-92.514	-0.109	0.031
-631.536	107.608	-0.138	0.165
-630.522	800.000	0.059	0.193
-629.507	-114.688	0.130	-0.025
-628.492	-126.237	-0.372	-0.056
-627.478	-141.130	-0.256	0.026
-626.463	-37.770	-0.430	0.230
-625.449	33.445	0.229	-0.200
-624.434	280.230	0.126	-0.225
-623.419	-162.364	0.038	0.002
-622.405	-199.329	0.428	-0.002
-621.390	-200.000	0.024	-0.205
-620.376	189.089	-0.135	0.202
-619.361	-72.116	0.211	0.079
-618.346	80.889	0.101	-0.109
-617.332	-200.000	-0.029	-0.333
-616.317	83.509	0.186	-0.204
-615.303	-200.000	0.017	-0.399
-614.288	-127.017	0.153	0.022
-613.273	429.842	0.114	0.247
-612.259	93.316	0.213	0.242
-611.244	-33.037	0.241	0.134
-610.230	-40.707	-0.151	-0.079
-609.215	-73.658	0.300	0.110
-608.201	-24.118	0.198	-0.119
-607.186	-86.880	0.021	0.007
-606.171	-200.000	0.031	-0.172
-605.157	-117.971	-0.182	0.033
-604.142	-200.000	0.004	-0.039
-603.128	-78.696	-0.302	0.103
-602.113	51.332	-0.147	0.140
-601.098	-200.000	-0.034	0.355
-600.084	-200.000	-0.054	0.336
-599.069	331.709	0.194	-0.376
-598.055	-200.000	-0.264	0.000
-597.040	-75.773	0.304	0.108
-596.025	207.568	-0.142	-0.223
-595.011	800.000	-0.056	-0.162
-593.996	-106.841	0.206	-0.046
-592.982	800.000	0.090	0.358
-591.967	-137.368	0.249	0.028
-590.952	-79.946	0.223	0.075
-589.938	800.000	-0.086	0.295
-588.923	24.566	0.094	0.078
-587.909	-66.005	-0.225	-0.090
-586.894	12.150	0.243	0.188
-585.879	-140.371	0.314	0.033
-584.865	16.047	0.182	0.144
-583.850	-200.000	-0.015	-0.100
-582.836	-200.000	0.054	-0.465
-581.821	-58.367	0.056	0.024
-580.806	-25.882	-0.199	0.117
-579.792	-78.831	0.374	0.128
-578.777	-58.701	0.149	-0.065
-577.763	-200.000	0.000	-0.176
-576.748	-84.736	0.112	-0.035
-575.733	-72.625	-0.095	0.035
-574.719	800.000	-0.048	0.133
-573.704	-116.711	-0.181	0.033
-572.690	-41.756	-0.305	0.157
-571.675	-84.490	-0.242	-0.077
-570.661	800.000	0.065	-0.211
-569.646	-200.000	-0.011	-0.257
-568.631	-51.743	-0.205	0.096
-567.617	-73.166	-0.113	0.042
-566.602	-75.155	0.053	0.019
-565.588	-200.000	0.011	0.068
-564.573	47.457	0.198	-0.185
-563.558	745.509	-0.141	-0.381
-562.544	-60.888	0.295	-0.125
-561.529	59.829	-0.110	-0.109
-560.515	39.339	0.229	-0.206
-559.500	272.980	0.174	0.309
-558.485	-52.131	0.186	-0.086
-557.471	0.433	-0.230	0.165
-556.456	217.991	0.114	-0.182
-555.442	97.451	-0.134	-0.154
-554.427	-200.000	-0.031	-0.229
-553.412	69.152	-0.223	-0.230
-552.398	-73.781	-0.082	-0.030
-551.383	-94.631	-0.193	0.053
-550.369	-200.000	0.026	-0.113
-549.354	272.180	-0.061	-0.108
-548.339	800.000	0.049	-0.154
-547.325	-200.000	-0.021	-0.307
-546.310	-152.736	-0.064	0.005
-545.296	-200.000	0.001	0.395
-544.281	-68.045	0.332	-0.130
-543.266	-200.000	0.006	-0.125
-542.252	800.000	-0.121	0.379
-541.237	121.789	0.120	-0.150
-540.223	1.403	-0.137	0.099
-539.208	798.493	0.033	-0.092
-538.193	229.686	0.028	0.045
-537.179	-163.599	0.225	0.011
-536.164	-200.000	-0.004	0.018
-535.150	800.000	-0.044	-0.160
-534.135	-162.680	-0.233	-0.011
-533.121	63.783	0.067	-0.067
-532.106	-58.885	0.167	-0.072
-531.091	301.742	0.173	0.320
-530.077	800.000	0.034	0.098
-529.062	-68.655	-0.268	0.104
-528.048	-63.568	0.043	-0.018
-527.033	-61.151	0.370	-0.156
-526.018	-200.000	0.021	0.167
-525.004	571.517	-0.090	-0.218
-523.989	-185.139	-0.154	-0.002
-522.975	-88.255	-0.234	0.070
-521.960	359.327	-0.077	-0.155
-520.945	-50.362	0.077	0.036
-519.931	215.609	-0.042	-0.067
-518.916	-45.860	-0.289	-0.143
-517.902	383.689	0.128	-0.264
-516.887	800.000	0.054	-0.187
-515.872	696.718	0.114	0.298
-514.858	221.270	0.112	-0.181
-513.843	-19.162	-0.261	-0.162
-512.829	-200.000	0.005	-0.059
-511.814	-119.673	-0.299	0.052
-510.799	62.987	-0.054	0.054
-509.785	10.499	0.055	-0.042
-508.770	-200.000	0.004	-0.146
-507.756	800.000	-0.064	0.220
-506.741	103.021	-0.031	-0.037
-505.726	221.435	0.097	0.155
-504.712	800.000	-0.071	-0.302
-503.697	800.000	-0.046	0.153
-502.683	-51.419	-0.222	-0.104
-501.668	-84.324	0.267	0.085
-500.653	528.698	0.111	0.262
-499.639	245.258	-0.263	0.443
-498.624	30.580	0.313	0.267
-497.610	432.899	-0.063	0.137
-496.595	-185.877	-0.282	-0.004
-495.581	-200.000	-0.069	-0.434
-494.566	-100.560	0.173	0.043
-493.551	-104.780	-0.295	0.068
-492.537	38.750	0.366	-0.327
-491.522	44.619	0.034	-0.032
-490.508	-146.312	-0.185	-0.016
-489.493	-167.689	-0.202	0.008
-488.478	164.503	-0.122	-0.172
-487.464	798.629	-0.088	-0.242
-486.449	517.965	-0.064	-0.151
-485.435	-34.380	0.257	0.141
-484.420	800.000	0.072	-0.309
-483.405	-200.000	0.065	0.306
-482.391	94.076	-0.148	0.168
-481.376	238.979	-0.221	-0.367
-480.362	-12.157	0.033	-0.022
-479.347	-8.772	0.022	-0.015
-478.332	12.360	0.132	-0.101
-477.318	-156.075	-0.249	0.016
-476.303	-142.926	-0.209	0.020
-475.289	113.093	0.203	-0.245
-474.274	800.000	-0.071	0.205
-473.259	-80.730	-0.265	0.088
-472.245	-157.493	0.463	-0.028
-471.230	-93.777	0.132	-0.036
-470.216	-78.928	0.113	-0.038
-469.201	-26.861	0.177	0.103
-468.186	541.863	0.102	-0.242
-467.172	-200.000	-0.367	0.001
-466.157	-136.888	0.130	-0.015
-465.143	-89.898	-0.332	-0.097
-464.128	-200.000	0.023	0.154
-463.113	-152.734	0.161	-0.011
-462.099	-130.458	-0.158	-0.021
-461.084	-3.512	0.352	0.245
-460.070	653.740	0.137	-0.352
-459.055	-39.355	-0.121	0.064
-458.040	-57.025	0.277	-0.122
-457.026	465.393	0.075	-0.168
-456.011	-166.243	0.291	0.012
-454.997	-200.000	0.076	-0.464
-453.982	149.028	-0.040	0.053
-452.968	-170.642	-0.102	0.004
-451.953	65.409	0.123	0.125
-450.938	286.701	0.220	0.397
-449.924	-85.915	0.312	-0.096
-448.909	-100.890	-0.088	-0.022
-447.895	-200.000	0.044	-0.240
-446.880	414.081	-0.082	0.173
-445.865	-142.700	0.227	-0.022
-444.851	323.484	0.134	0.256
-443.836	800.000	0.052	-0.214
-442.822	196.909	-0.132	0.200
-441.807	800.000	0.066	0.211
-440.792	79.525	-0.110	0.117
-439.778	-0.417	0.205	-0.145
-438.763	36.840	0.298	0.263
-437.749	-144.725	-0.152	-0.014
-436.734	51.909	0.064	-0.061
-435.719	-200.000	0.033	0.231
-434.705	-200.000	-0.048	-0.351
-433.690	30.919	-0.154	0.132
-432.676	-119.086	-0.070	0.012
-431.661	53.552	0.075	0.072
-430.646	-185.589	-0.283	0.004
-429.632	-200.000	-0.017	-0.166
-428.617	100.676	-0.169	-0.196
-427.603	53.343	-0.223	-0.213
-426.588	366.920	0.230	-0.464
-425.573	-39.824	-0.116	-0.060
-424.559	800.000	0.095	-0.302
-423.544	330.085	0.037	-0.070
-422.530	800.000	-0.132	-0.402
-421.515	-90.563	-0.289	-0.083
-420.500	43.780	-0.056	0.051
-419.486	800.000	0.100	-0.309
-418.471	-31.984	0.205	0.114
-417.457	800.000	-0.008	0.026
-416.442	-200.000	0.004	-0.218
-415.428	140.042	-0.058	-0.076
-414.413	-151.759	-0.160	-0.012
-413.398	800.000	0.082	0.279
-412.384	435.832	0.011	-0.023
-411.369	-36.425	-0.108	-0.058
-410.355	-37.923	0.250	-0.132
-409.340	14.686	0.266	0.207
-408.325	-75.806	0.159	0.056
-407.311	137.519	0.071	0.093
-406.296	800.000	0.028	-0.100
-405.282	-200.000	0.016	0.152
-404.267	735.457	-0.099	0.265
-403.252	-124.013	-0.263	0.041
-402.238	-122.605	-0.469	0.076
-401.223	-200.000	0.025	0.184
-400.209	-150.798	-0.300	0.023
-399.194	282.927	0.180	0.321
-398.179	379.592	-0.063	0.128
-397.165	-118.966	-0.221	0.039
-396.150	248.514	0.047	-0.078
-395.136	-30.891	-0.064	0.036
-394.121	-49.969	0.155	0.073
-393.106	-8.930	0.150	0.100
-392.092	222.520	-0.111	0.178
-391.077	-93.299	0.190	0.053
-390.063	-200.000	0.020	0.172
-389.048	-76.467	-0.200	0.070
-388.033	141.778	-0.148	0.196
-387.019	-200.000	0.012	0.325
-386.004	-135.173	0.131	0.016
-384.990	65.371	0.131	0.132
-383.975	-200.000	-0.018	0.146
-382.960	80.409	-0.245	-0.263
-381.946	131.420	-0.119	0.152
-380.931	136.446	-0.179	-0.232
-379.917	-200.000	-0.038	0.363
-378.902	800.000	0.014	0.044
-377.888	175.710	-0.074	-0.106
-376.873	-71.660	-0.170	0.063
-375.858	374.770	-0.057	-0.116
-374.844	233.208	-0.081	0.132
-373.829	662.047	-0.148	0.380
-372.815	1.268	0.209	0.150
-371.800	-200.000	-0.022	0.111
-370.785	-200.000	0.024	-0.341
-369.771	-44.367	0.209	0.104
-368.756	178.380	-0.042	-0.061
-367.742	-143.950	0.307	0.029
-366.727	285.968	0.146	-0.262
-365.712	107.155	-0.190	0.224
-364.698	-200.000	0.011	-0.210
-363.683	-2.079	-0.069	-0.048
-362.669	-200.000	0.019	-0.244
-361.654	44.927	-0.133	-0.122
-360.639	-62.581	0.133	0.055
-359.625	2.593	-0.181	0.130
-358.610	800.000	-0.068	-0.262
-357.596	237.416	-0.222	-0.365
-356.581	-79.602	-0.203	-0.068
-355.566	30.853	-0.298	-0.254
-354.552	118.859	0.155	0.190
-353.537	-29.934	-0.321	0.182
-352.523	-200.000	-0.054	-0.272
-351.508	-13.235	0.171	-0.110
-350.493	105.707	-0.117	0.138
-349.479	800.000	0.091	-0.317
-348.464	38.472	0.197	0.175
-347.450	-146.436	0.342	0.030
-346.435	-200.000	0.025	0.164
-345.420	-46.764	-0.256	0.125
-344.406	191.685	-0.058	0.086
-343.391	91.951	-0.141	0.158
-342.377	-28.771	-0.351	0.201
-341.362	800.000	0.030	-0.107
-340.348	-10.314	-0.203	-0.134
-339.333	-76.947	0.077	-0.027
-338.318	-35.950	0.053	-0.029
-337.304	173.268	0.170	0.243
-336.289	-129.193	0.108	0.015
-335.275	-35.524	-0.134	0.072
-334.260	800.000	-0.046	0.137
-333.245	561.526	0.100	0.241
-332.231	-171.479	-0.176	-0.006
-331.216	-106.379	-0.363	-0.081
-330.202	44.578	0.256	-0.233
-329.187	18.449	-0.281	0.223
-328.172	-200.000	-0.033	0.244
-327.158	46.168	0.188	-0.173
-326.143	-145.134	-0.408	-0.037
-325.129	-200.000	-0.011	-0.127
-324.114	160.965	-0.076	0.105
-323.099	8.132	0.164	0.122
-322.085	-8.706	0.138	-0.092
-321.070	-52.674	-0.113	-0.052
-320.056	-200.000	0.001	0.409
-319.041	800.000	-0.073	0.258
-318.026	28.557	-0.277	0.233
-317.012	-57.831	-0.296	-0.129
-315.997	-200.000	-0.011	-0.104
-314.983	115.209	-0.029	0.035
-313.968	48.188	0.029	0.027
-312.953	-86.514	0.166	-0.050
-311.939	-31.614	-0.485	-0.270
-310.924	4.244	0.183	0.133
-309.910	-155.626	-0.143	-0.009
-308.895	-129.649	0.390	0.053
-307.880	54.769	0.181	0.173
-306.866	51.391	0.180	0.170
-305.851	800.000	-0.136	0.376
-304.837	800.000	-0.041	0.141
-303.822	-24.288	-0.077	0.045
-302.807	-200.000	0.040	-0.218
-301.793	800.000	-0.060	-0.226
-300.778	-81.249	0.322	0.105
-299.764	75.798	-0.133	0.140
-298.749	306.745	0.140	0.258
-297.735	800.000	-0.001	0.003
-296.720	170.993	-0.048	-0.068
-295.705	-200.000	-0.005	0.142
-294.691	800.000	0.083	0.343
-293.676	17.480	0.192	0.152
-292.662	97.466	-0.160	0.182
-291.647	630.039	0.053	-0.134
-290.632	-62.316	-0.347	0.143
-289.618	-185.836	-0.153	-0.002
-288.603	128.479	-0.121	0.152
-287.589	-1.955	0.228	0.159
-286.574	534.510	-0.119	-0.280
-285.559	800.000	0.065	0.193
-284.545	-56.428	-0.194	-0.085
-283.530	-104.947	0.305	0.069
-282.516	58.690	0.057	0.056
-281.501	-106.569	0.252	0.056
-280.486	528.216	-0.072	0.169
-279.472	-89.840	0.174	-0.050
-278.457	432.892	-0.090	0.193
-277.443	-200.000	-0.047	0.550
-276.428	22.016	0.347	0.280
-275.413	-200.000	0.053	-0.374
-274.399	800.000	0.046	-0.151
-273.384	-200.000	0.031	0.246
-272.370	-59.001	-0.409	0.175
-271.355	-28.194	0.074	-0.043
-270.340	-200.000	0.033	-0.266
-269.326	102.344	-0.106	-0.123
-268.311	89.495	0.081	-0.089
-267.297	243.963	-0.159	0.264
-266.282	12.108	-0.176	-0.134
-265.267	800.000	0.084	0.240
-264.253	-108.057	-0.242	0.052
-263.238	-80.380	-0.123	-0.041
-262.224	-200.000	0.000	-0.182
-261.209	62.196	0.031	-0.030
-260.195	223.545	0.029	0.047
-259.180	89.671	-0.052	-0.058
-258.165	-200.000	-0.041	0.237
-257.151	-41.211	-0.175	-0.089
-256.136	83.636	0.357	-0.386
-255.122	-200.000	-0.025	0.390
-254.107	-200.000	-0.044	-0.370
-253.092	-68.132	0.346	-0.134
-252.078	12.714	0.069	0.053
-251.063	-30.475	-0.149	0.084
-250.049	71.533	0.210	0.216
-249.034	48.445	0.118	0.109
-248.019	800.000	0.041	-0.121
-247.005	65.688	-0.080	0.080
-245.990	-141.839	0.071	-0.007
-244.976	-68.547	0.061	0.024
-243.961	227.964	0.110	-0.177
-242.946	-12.332	-0.104	0.067
-241.932	-200.000	-0.019	0.115
-240.917	94.434	0.176	-0.198
-239.903	800.000	0.058	-0.170
-238.888	127.415	-0.100	0.125
-237.873	-200.000	-0.037	-0.236
-236.859	-88.590	-0.167	-0.049
-235.844	158.570	0.082	0.112
-234.830	-125.466	-0.161	0.024
-233.815	-77.840	-0.098	0.034
-232.800	-26.154	-0.213	0.124
-231.786	-200.000	0.018	0.327
-230.771	-200.000	0.021	0.359
-229.757	-200.000	-0.003	0.263
-228.742	75.228	-0.074	0.077
-227.727	-200.000	0.009	0.437
-226.713	3.208	0.045	0.033
-225.698	-200.000	-0.354	0.001
-224.684	262.733	-0.075	-0.129
-223.669	-22.561	0.189	0.113
-222.655	-200.000	-0.002	0.152
-221.640	-114.609	0.248	-0.047
-220.625	-200.000	-0.066	0.404
-219.611	162.010	-0.033	0.046
-218.596	84.020	-0.149	-0.161
-217.582	800.000	0.022	-0.080
-216.567	-54.233	0.431	0.193
-215.552	-200.000	-0.015	-0.193
-214.538	-200.000	-0.013	-0.113
-213.523	397.885	0.078	0.162
-212.509	331.606	-0.173	0.329
-211.494	-200.000	-0.019	-0.293
-210.479	-59.236	-0.355	-0.151
-209.465	600.413	0.144	-0.354
-208.450	-200.000	0.031	0.180
-207.436	72.015	0.124	0.128
-206.421	-63.082	0.324	-0.132
-205.406	-141.800	0.205	-0.020
-204.392	800.000	-0.043	0.143
-203.377	-99.527	-0.181	0.045
-202.363	-125.601	0.475	0.071
-201.348	111.293	-0.029	-0.034
-200.333	800.000	0.039	0.159
-199.319	-65.284	0.242	-0.096
-198.304	-19.444	0.187	-0.114
-197.290	-134.539	-0.284	0.034
-196.275	-200.000	-0.032	0.237
-195.260	-166.687	-0.472	-0.019
-194.246	-30.102	0.314	0.176
-193.231	-200.000	-0.009	-0.152
-192.217	442.780	-0.031	-0.068
-191.202	-200.000	0.045	0.000
-190.187	125.110	-0.108	-0.134
-189.173	356.609	0.217	-0.426
-188.158	114.273	-0.099	-0.119
-187.144	-200.000	0.007	0.202
-186.129	-200.000	0.027	0.166
-185.114	-53.664	-0.128	0.058
-184.100	42.700	0.217	-0.195
-183.085	99.914	-0.153	-0.175
-182.071	124.834	-0.036	0.044
-181.056	36.686	0.165	0.144
-180.042	800.000	-0.127	-0.430
-179.027	-200.000	0.003	-0.039
-178.012	4.851	-0.218	-0.159
-176.998	597.667	0.117	0.286
-175.983	-200.000	0.001	0.190
-174.969	800.000	0.040	-0.133
-173.954	-200.000	-0.045	-0.383
-172.939	633.562	0.061	0.154
-171.925	33.018	-0.132	0.113
-170.910	35.716	-0.205	-0.178
-169.896	800.000	0.037	0.128
-168.881	-200.000	0.043	-0.239
-167.866	-139.941	0.207	-0.022
-166.852	-200.000	-0.041	0.228
-165.837	2.683	0.084	0.060
-164.823	800.000	-0.091	0.375
-163.808	-200.000	0.424	0.000
-162.793	-200.000	0.083	-0.455
-161.779	-8.211	0.033	-0.022
-160.764	-24.868	-0.163	-0.095
-159.750	-16.466	0.100	0.062
-158.735	138.888	-0.104	-0.135
-157.720	800.000	-0.078	-0.287
-156.706	195.512	-0.124	-0.186
-155.691	-85.443	-0.190	0.058
-154.677	-200.000	0.021	-0.224
-153.662	141.538	-0.204	-0.267
-152.647	98.666	-0.131	-0.149
-151.633	523.985	0.018	-0.042
-150.618	17.565	0.365	0.286
-149.604	-155.326	0.239	-0.015
-148.589	-120.100	-0.252	0.043
-147.574	-152.695	-0.263	0.018
-146.560	-200.000	0.002	-0.072
-145.545	-49.162	-0.152	0.072
-144.531	-78.449	0.240	-0.081
-143.516	89.634	-0.271	-0.299
-142.502	-54.582	-0.137	0.061
-141.487	24.274	0.158	-0.128
-140.472	163.719	0.207	-0.287
-139.458	81.204	-0.127	0.136
-138.443	-200.000	-0.001	0.046
-137.429	-99.376	0.131	-0.033
-136.414	-145.442	0.199	0.018
-135.399	-57.367	0.069	0.030
-134.385	-51.160	0.421	-0.194
-133.370	-71.560	-0.178	0.066
-132.356	-76.167	-0.136	0.047
-131.341	-158.620	0.310	0.018
-130.326	84.645	-0.357	-0.385
-129.312	-200.000	-0.019	0.124
-128.297	-102.155	0.231	0.055
-127.283	-37.122	-0.166	0.087
-126.268	389.043	0.098	0.201
-125.253	121.113	-0.101	0.124
-124.239	-162.483	-0.074	-0.004
-123.224	-3.666	0.043	-0.029
-122.210	800.000	-0.067	-0.279
-121.195	57.572	-0.309	-0.297
