DTS Sentinel unit serial number:	SN413079Multiplexer serial number:	ORYXHardware model number:	OX4-SRSoftware version number:	ORYX F/W v4.00 Oryx Data Collector v3.7.2.0data status	okinstallation	princeton_trtdifferential loss correction	single-endedforward channel	channel 2reverse channel	N/Adate	2019/09/12time	19:09:48forward acquisition time	15.00reverse acquisition time	0.00gamma	496.2192k internal	0.2324k external	0.2324temperature offset calibration	1.0152default loss term (dB/km)	0.3790temperature slope calibration	1.0000multiplexer offset coefficient	1.0000multiplexer slope coefficient	1.0000fibre end	0.00T internal ref (°C)	32.62T ext. ref 1 (°C)	3.23T ext. ref 2 (°C)	27.21length (m)	temperature (°C)	Stokes	anti-Stokes-747.200	-115.997	0.979	-0.184
-746.185	231.110	0.173	-0.285
-745.171	800.000	-0.208	0.700
-744.156	241.561	-0.216	0.364
-743.142	275.066	-0.116	0.208
-742.127	800.000	0.218	0.651
-741.112	-39.442	-0.121	-0.064
-740.098	-20.694	-0.326	-0.202
-739.083	609.164	0.102	-0.256
-738.069	35.734	-0.143	-0.127
-737.054	-52.477	0.222	-0.104
-736.039	5.922	-0.389	0.291
-735.025	32.887	0.611	-0.534
-734.010	-32.482	-0.056	0.032
-732.996	-84.891	0.778	0.246
-731.981	27.130	-0.234	-0.198
-730.966	96.406	-0.243	-0.281
-729.952	744.736	-0.051	-0.138
-728.937	192.452	0.136	-0.207
-727.923	330.546	-0.162	0.315
-726.908	-91.333	-0.637	-0.184
-725.894	163.233	-0.339	0.480
-724.879	70.014	0.800	0.832
-723.864	-120.380	0.183	-0.031
-722.850	303.318	-0.181	0.338
-721.835	800.000	0.136	0.525
-720.821	106.806	-0.385	0.461
-719.806	33.900	0.397	-0.349
-718.791	-67.292	-0.487	-0.193
-717.777	59.902	0.288	-0.287
-716.762	-200.000	-0.174	-0.894
-715.748	260.045	0.209	0.364
-714.733	45.645	-0.312	0.290
-713.718	800.000	0.098	0.383
-712.704	-69.534	0.750	-0.290
-711.689	-35.476	0.352	0.193
-710.675	-200.000	-0.142	0.925
-709.660	24.686	-0.590	0.493
-708.645	-149.896	-0.273	-0.021
-707.631	-44.346	-0.406	-0.205
-706.616	-200.000	0.063	0.323
-705.602	71.140	-0.616	-0.644
-704.587	-3.217	-0.202	0.142
-703.572	118.396	-0.240	0.299
-702.558	239.012	0.295	0.495
-701.543	-76.624	-0.621	0.219
-700.529	73.796	0.601	-0.635
-699.514	800.000	-0.179	0.644
-698.499	36.755	-0.130	0.116
-697.485	116.455	-0.536	0.662
-696.470	-200.000	0.110	-0.672
-695.456	59.571	-0.239	0.237
-694.441	-58.660	-0.795	-0.347
-693.426	69.863	0.625	-0.649
-692.412	-200.000	0.054	0.790
-691.397	-200.000	0.158	1.179
-690.383	800.000	-0.172	0.675
-689.368	-174.714	-0.359	0.010
-688.354	151.370	-0.359	0.493
-687.339	-38.438	0.705	-0.375
-686.324	24.289	-0.756	-0.629
-685.310	-200.000	-0.046	-0.833
-684.295	-200.000	0.016	-0.583
-683.281	-53.610	0.771	-0.355
-682.266	218.202	-0.330	0.530
-681.251	-200.000	0.029	-0.177
-680.237	-200.000	-0.098	-0.437
-679.222	-84.936	-0.529	-0.167
-678.208	-74.508	-0.626	0.227
-677.193	-147.820	-0.255	0.021
-676.178	-9.590	-0.624	-0.418
-675.164	124.221	-0.401	0.507
-674.149	479.076	0.296	-0.675
-673.135	186.849	-0.330	0.495
-672.120	-200.000	0.081	-0.601
-671.105	-98.170	-0.444	0.115
-670.091	344.855	-0.255	0.505
-669.076	170.023	-0.365	-0.525
-668.062	360.109	-0.104	0.208
-667.047	-200.000	0.033	0.495
-666.032	-169.525	-0.337	0.012
-665.018	-176.280	0.475	0.012
-664.003	-200.000	-0.072	-0.355
-662.989	408.631	0.190	0.405
-661.974	-128.088	0.548	0.079
-660.959	-200.000	0.102	0.893
-659.945	349.985	-0.470	-0.934
-658.930	-106.908	0.790	-0.176
-657.916	24.102	-0.234	-0.194
-656.901	-12.193	0.268	-0.176
-655.886	-68.418	0.610	-0.238
-654.872	-15.516	-0.663	-0.426
-653.857	800.000	-0.103	0.453
-652.843	-80.507	0.912	0.306
-651.828	800.000	-0.113	0.336
-650.814	226.794	0.328	0.536
-649.799	800.000	-0.066	-0.202
-648.784	1.039	0.460	-0.331
-647.770	-78.478	0.851	-0.293
-646.755	-200.000	-0.008	-0.073
-645.741	85.043	-0.763	-0.841
-644.726	48.595	0.244	0.230
-643.711	-31.452	0.700	0.396
-642.697	800.000	-0.299	-0.855
-641.682	83.671	-0.141	-0.154
-640.668	-58.143	0.663	0.291
-639.653	70.390	-0.692	-0.719
-638.638	-118.905	-0.858	0.151
-637.624	-79.743	0.071	-0.024
-636.609	22.429	-0.371	0.305
-635.595	256.812	-0.191	-0.330
-634.580	-122.598	0.444	0.072
-633.565	2.813	-0.120	-0.088
-632.551	-200.000	-0.078	-0.354
-631.536	343.697	-0.147	0.289
-630.522	205.243	0.474	0.740
-629.507	77.479	0.265	0.283
-628.492	800.000	-0.164	0.702
-627.478	122.765	0.317	-0.398
-626.463	21.228	0.543	-0.443
-625.449	-69.653	0.751	0.288
-624.434	-90.989	-0.931	0.269
-623.419	44.509	-0.160	-0.148
-622.405	-133.486	-1.073	-0.135
-621.390	105.177	-0.475	0.563
-620.376	-160.468	-0.377	0.020
-619.361	276.850	0.028	0.050
-618.346	-96.425	-0.271	-0.072
-617.332	-200.000	-0.019	-0.672
-616.317	177.759	0.471	-0.689
-615.303	572.865	-0.172	-0.421
-614.288	-200.000	0.079	-0.584
-613.273	22.529	0.652	-0.535
-612.259	2.952	0.520	-0.379
-611.244	61.572	-0.344	0.344
-610.230	800.000	0.344	-1.178
-609.215	91.441	-0.458	-0.517
-608.201	-115.429	-0.175	0.033
-607.186	149.171	0.328	0.446
-606.171	-90.221	-0.607	0.177
-605.157	375.779	-0.436	-0.893
-604.142	59.541	-0.656	-0.649
-603.128	-46.526	1.022	0.503
-602.113	142.278	-0.430	0.573
-601.098	800.000	0.218	-0.954
-600.084	-192.993	0.653	-0.006
-599.069	800.000	0.166	0.516
-598.055	8.071	-0.941	-0.708
-597.040	128.172	-0.522	-0.667
-596.025	98.888	0.598	0.693
-595.011	-172.600	0.243	0.008
-593.996	-48.820	-0.294	-0.141
-592.982	-200.000	-0.051	-0.590
-591.967	14.220	-1.149	-0.898
-590.952	-112.882	-0.128	-0.025
-589.938	15.940	0.448	0.354
-588.923	612.079	-0.258	0.648
-587.909	-65.125	1.167	-0.472
-586.894	-140.520	-0.600	0.063
-585.879	189.099	0.233	0.350
-584.865	-200.000	0.073	0.370
-583.850	-200.000	-0.013	-0.270
-582.836	800.000	-0.224	0.785
-581.821	800.000	-0.041	-0.145
-580.806	74.575	-0.246	-0.260
-579.792	800.000	-0.101	0.357
-578.777	-118.765	0.774	-0.137
-577.763	-141.334	-0.997	-0.101
-576.748	-68.354	0.506	-0.197
-575.733	-53.520	-0.500	-0.229
-574.719	-66.385	-0.189	0.075
-573.704	800.000	-0.144	0.564
-572.690	-85.601	-0.282	-0.088
-571.675	287.593	-0.304	0.551
-570.661	-33.736	0.809	0.447
-569.646	31.810	0.369	-0.318
-568.631	120.090	-0.202	0.252
-567.617	-144.978	-0.952	0.087
-566.602	-159.621	-0.040	0.002
-565.588	-158.234	-0.774	0.045
-564.573	-11.865	0.553	0.364
-563.558	-45.638	-0.371	-0.184
-562.544	359.615	0.121	0.242
-561.529	277.221	-0.366	0.652
-560.515	31.034	0.505	0.434
-559.500	-82.513	-0.707	0.230
-558.485	527.593	-0.200	-0.471
-557.471	-153.579	-1.023	-0.071
-556.456	35.599	0.226	0.199
-555.442	14.004	0.727	0.567
-554.427	298.141	0.574	-1.057
-553.412	496.036	0.475	-1.095
-552.398	430.152	-0.317	0.688
-551.383	793.571	-0.014	0.038
-550.369	-89.132	-0.257	-0.076
-549.354	-200.000	0.006	0.511
-548.339	75.856	-0.274	-0.290
-547.325	-70.077	0.448	-0.171
-546.310	-172.680	-0.708	-0.022
-545.296	13.040	-0.657	-0.510
-544.281	280.126	-0.406	-0.726
-543.266	-108.182	-0.308	-0.067
-542.252	-74.182	0.294	0.107
-541.237	800.000	-0.204	0.724
-540.223	-135.807	0.793	-0.094
-539.208	46.233	-0.702	-0.651
-538.193	-97.439	-0.862	-0.224
-537.179	38.783	-0.340	0.304
-536.164	-164.041	0.616	-0.029
-535.150	800.000	0.286	-1.212
-534.135	-34.106	0.489	-0.269
-533.121	-133.485	-0.462	-0.058
-532.106	324.757	-0.136	-0.261
-531.091	-31.386	0.795	-0.448
-530.077	-6.992	0.734	0.499
-529.062	8.922	-0.255	0.193
-528.048	459.725	-0.430	0.959
-527.033	-167.757	-0.447	-0.018
-526.018	241.014	-0.288	-0.481
-525.004	-126.132	-0.622	-0.093
-523.989	-200.000	-0.194	0.922
-522.975	-22.020	-0.247	-0.150
-521.960	144.428	-0.415	0.555
-520.945	-39.097	0.903	0.475
-519.931	150.369	0.032	0.044
-518.916	-73.029	0.741	-0.272
-517.902	-92.779	0.459	0.129
-516.887	-200.000	0.087	-0.457
-515.872	126.453	-0.809	-1.024
-514.858	-52.772	-0.595	0.274
-513.843	592.263	-0.304	-0.752
-512.829	-83.181	0.545	0.175
-511.814	-200.000	0.054	-0.395
-510.799	-85.190	-0.181	-0.057
-509.785	550.525	-0.391	-0.938
-508.770	-200.000	-0.020	0.256
-507.756	-32.688	0.753	0.419
-506.741	-200.000	-0.014	0.076
-505.726	405.434	0.106	-0.224
-504.712	800.000	-0.071	0.280
-503.697	-130.151	0.477	0.065
-502.683	507.462	0.120	-0.279
-501.668	-146.109	-0.867	-0.076
-500.653	259.564	-0.155	0.268
-499.639	-200.000	0.043	-0.320
-498.624	-113.008	0.125	-0.025
-497.610	-22.291	0.695	0.421
-496.595	80.137	-0.585	-0.629
-495.581	800.000	0.168	-0.597
-494.566	-200.000	0.106	0.530
-493.551	-18.005	-0.141	0.088
-492.537	-200.000	-0.005	0.088
-491.522	-0.433	-1.522	1.081
-490.508	-41.713	0.414	0.212
-489.493	24.502	0.384	-0.317
-488.478	370.446	0.469	0.950
-487.464	-59.931	-0.854	0.365
-486.449	-76.055	-0.583	-0.206
-485.435	-82.992	-1.271	0.409
-484.420	-99.384	0.305	0.077
-483.405	800.000	0.132	0.504
-482.391	19.383	0.304	0.244
-481.376	-200.000	-0.007	-0.214
-480.362	131.406	0.432	0.555
-479.347	414.814	-0.194	0.413
-478.332	534.548	0.058	0.137
-477.318	-200.000	-0.069	-0.407
-476.303	-99.790	0.472	0.118
-475.289	-121.318	-0.824	-0.137
-474.274	800.000	-0.082	-0.325
-473.259	187.833	-0.295	-0.440
-472.245	-200.000	0.046	0.590
-471.230	-50.643	-0.459	-0.216
-470.216	-110.102	0.395	-0.082
-469.201	156.849	-0.696	-0.960
-468.186	150.568	-0.236	0.320
-467.172	-139.096	0.238	0.026
-466.157	131.375	0.244	0.313
-465.143	-54.153	0.501	0.227
-464.128	-31.472	0.507	0.285
-463.113	48.750	-0.365	0.342
-462.099	-169.905	0.470	0.017
-461.084	231.251	-0.105	0.172
-460.070	83.795	0.245	-0.267
-459.055	-8.750	-0.276	-0.185
-458.040	651.795	-0.234	-0.598
-457.026	800.000	0.361	1.081
-456.011	-200.000	-0.068	-0.893
-454.997	800.000	0.245	-0.883
-453.982	-10.174	-0.822	0.545
-452.968	-107.907	0.388	0.084
-451.953	-36.334	-0.448	0.241
-450.938	-98.658	0.460	-0.117
-449.924	22.170	0.126	0.103
-448.909	-96.518	0.888	-0.234
-447.895	41.734	0.052	-0.047
-446.880	-147.642	0.373	-0.031
-445.865	32.938	0.311	0.269
-444.851	-200.000	-0.165	1.058
-443.836	60.580	0.269	0.266
-442.822	-71.700	0.360	0.134
-441.807	-200.000	0.005	0.065
-440.792	-89.612	0.521	-0.152
-439.778	42.619	-0.335	-0.304
-438.763	100.601	-0.273	0.317
-437.749	-200.000	0.169	0.867
-436.734	-200.000	-0.006	0.401
-435.719	-89.911	0.220	0.064
-434.705	129.579	0.677	0.863
-433.690	-26.626	0.514	-0.300
-432.676	21.310	-0.472	0.382
-431.661	-200.000	0.017	-0.335
-430.646	-63.912	0.327	0.133
-429.632	800.000	-0.224	-0.714
-428.617	146.908	-0.186	0.250
-427.603	517.919	0.142	0.331
-426.588	186.987	-0.598	0.889
-425.573	-52.445	-0.412	-0.190
-424.559	800.000	0.246	0.685
-423.544	-200.000	-0.001	-0.113
-422.530	-104.490	1.268	-0.292
-421.515	56.558	0.393	0.381
-420.500	-70.172	-0.979	-0.371
-419.486	182.889	0.226	0.333
-418.471	800.000	-0.307	1.246
-417.457	70.932	0.245	-0.253
-416.442	155.786	-0.376	0.516
-415.428	-140.797	0.270	-0.028
-414.413	-45.634	0.669	-0.330
-413.398	583.808	0.209	0.512
-412.384	-94.174	-0.702	0.192
-411.369	-200.000	0.049	0.590
-410.355	800.000	0.173	0.527
-409.340	487.792	0.260	-0.591
-408.325	-136.572	-0.302	0.035
-407.311	-200.000	0.038	0.456
-406.296	9.565	-0.408	0.308
-405.282	245.011	-0.524	0.877
-404.267	-83.592	0.635	-0.202
-403.252	-200.000	-0.030	-0.511
-402.238	37.777	0.299	-0.265
-401.223	-200.000	0.002	-0.169
-400.209	192.489	-0.141	0.212
-399.194	-115.377	-0.587	0.110
-398.179	-59.693	-0.325	-0.139
-397.165	-144.687	-0.364	0.033
-396.150	-107.484	0.496	-0.108
-395.136	281.916	-0.265	-0.472
-394.121	-200.000	-0.158	0.693
-393.106	10.490	0.386	0.293
-392.092	-149.414	-0.459	-0.036
-391.077	-200.000	0.139	0.611
-390.063	-124.194	1.378	0.215
-389.048	55.946	0.217	-0.209
-388.033	-101.967	0.987	0.237
-387.019	-200.000	0.138	-0.620
-386.004	30.657	-0.209	0.178
-384.990	800.000	-0.117	-0.465
-383.975	-200.000	-0.214	-1.230
-382.960	-7.741	-0.258	-0.174
-381.946	-147.210	-0.496	0.042
-380.931	23.764	-0.320	0.262
-379.917	800.000	0.281	-0.896
-378.902	-200.000	0.088	0.481
-377.888	-150.635	0.141	0.011
-376.873	238.117	0.377	-0.622
-375.858	-200.000	-0.041	-1.479
-374.844	50.242	0.273	-0.257
-373.829	165.361	0.060	-0.085
-372.815	132.147	0.555	-0.711
-371.800	-88.352	-0.618	-0.184
-370.785	-76.911	-0.594	-0.207
-369.771	-60.150	-0.101	-0.043
-368.756	-120.079	-0.483	0.082
-367.742	108.091	-0.262	-0.311
-366.727	-8.069	0.283	0.190
-365.712	24.995	0.603	-0.498
-364.698	160.695	-0.170	-0.236
-363.683	-200.000	1.203	0.001
-362.669	-166.191	0.479	0.020
-361.654	79.876	-0.150	0.160
-360.639	-13.632	0.245	-0.158
-359.625	518.546	0.147	-0.342
-358.610	126.046	-0.243	-0.305
-357.596	-122.811	-0.672	0.108
-356.581	-170.801	-0.760	0.026
-355.566	-200.000	-0.034	0.907
-354.552	-67.528	-0.511	-0.199
-353.537	800.000	-0.124	0.400
-352.523	23.345	0.697	-0.569
-351.508	800.000	-0.279	-0.891
-350.493	-149.811	-0.187	-0.015
-349.479	173.554	0.138	-0.198
-348.464	800.000	-0.113	-0.407
-347.450	-200.000	-0.025	-0.682
-346.435	-67.125	-0.354	0.139
-345.420	235.829	-0.361	-0.593
-344.406	-86.962	0.928	0.281
-343.391	-22.799	-0.313	0.188
-342.377	164.699	0.548	-0.768
-341.362	265.163	-0.094	-0.163
-340.348	-53.402	-0.471	0.214
-339.333	-96.923	-0.740	0.193
-338.318	-200.000	-0.031	0.866
-337.304	102.872	-0.321	-0.373
-336.289	-71.241	0.537	-0.200
-335.275	521.333	0.155	0.362
-334.260	-200.000	-0.021	0.212
-333.245	-75.182	0.416	0.148
-332.231	395.820	-0.142	0.294
-331.216	502.688	-0.195	0.448
-330.202	800.000	0.097	0.293
-329.187	-28.568	0.574	0.328
-328.172	-6.235	-0.574	0.389
-327.158	26.841	-0.367	0.305
-326.143	56.856	0.401	-0.388
-325.129	38.555	0.262	0.232
-324.114	-96.759	0.476	0.124
-323.099	-134.196	-0.419	-0.051
-322.085	26.334	0.412	0.342
-321.070	800.000	0.116	0.488
-320.056	-200.000	-0.024	-0.464
-319.041	800.000	0.313	-0.865
-318.026	476.678	0.105	0.236
-317.012	-155.563	-0.367	-0.023
-315.997	-50.456	-0.427	0.200
-314.983	-47.161	0.491	-0.238
-313.968	103.701	0.043	0.050
-312.953	-100.154	0.403	0.100
-311.939	-200.000	0.016	-0.120
-310.924	69.989	0.549	-0.562
-309.910	67.925	-0.377	-0.382
-308.895	525.655	-0.179	-0.418
-307.880	-86.315	0.535	-0.163
-306.866	-200.000	0.104	0.957
-305.851	800.000	0.130	0.436
-304.837	11.807	0.448	0.342
-303.822	-84.904	0.765	0.238
-302.807	800.000	-0.079	-0.295
-301.793	800.000	-0.027	-0.088
-300.778	-65.394	0.517	0.206
-299.764	740.665	-0.221	0.588
-298.749	49.356	0.553	0.516
-297.735	4.482	-0.591	0.430
-296.720	117.687	-0.420	-0.513
-295.705	-4.782	0.600	0.411
-294.691	257.962	-0.090	-0.154
-293.676	188.536	-0.177	-0.262
-292.662	-200.000	0.077	0.367
-291.647	-152.212	-0.310	-0.022
-290.632	-200.000	0.037	0.229
-289.618	49.015	0.449	0.418
-288.603	-200.000	0.149	0.954
-287.589	-35.811	-0.448	0.240
-286.574	-30.761	0.318	0.178
-285.559	-48.261	0.286	-0.137
-284.545	-87.204	0.681	-0.205
-283.530	-38.714	-0.435	-0.227
-282.516	-97.772	-0.431	0.110
-281.501	249.767	-0.194	-0.327
-280.486	800.000	-0.224	0.613
-279.472	-64.952	0.317	0.127
-278.457	-151.607	-0.275	-0.020
-277.443	-32.101	0.545	-0.302
-276.428	199.909	-0.071	0.109
-275.413	-200.000	0.032	1.185
-274.399	-137.538	-0.262	-0.029
-273.384	-117.253	0.175	0.032
-272.370	-68.595	0.572	0.220
-271.355	700.951	-0.197	0.515
-270.340	-83.135	-0.530	0.169
-269.326	93.614	-0.316	0.355
-268.311	-106.481	-0.689	0.152
-267.297	207.415	-0.162	-0.251
-266.282	-54.578	1.125	-0.504
-265.267	630.424	0.184	-0.460
-264.253	-93.787	0.631	-0.172
-263.238	738.617	-0.186	0.496
-262.224	800.000	0.167	-0.625
-261.209	-103.143	1.054	-0.247
-260.195	549.801	0.237	0.564
-259.180	800.000	0.029	-0.089
-258.165	-200.000	-0.109	-0.786
-257.151	-67.938	0.182	0.070
-256.136	6.231	-0.403	0.296
-255.122	544.789	-0.316	-0.747
-254.107	93.234	-0.036	-0.041
-253.092	-59.382	-1.085	-0.462
-252.078	-8.545	0.468	0.311
-251.063	-68.034	-0.398	0.154
-250.049	698.928	-0.125	0.326
-249.034	-34.193	-0.408	0.222
-248.019	571.811	0.153	-0.370
-247.005	-200.000	-0.129	0.612
-245.990	66.572	0.270	-0.272
-244.976	-159.148	-0.815	-0.046
-243.961	800.000	0.136	-0.571
-242.946	136.961	0.256	-0.331
-241.932	-200.000	-0.104	-0.462
-240.917	51.835	0.435	-0.409
-239.903	106.526	-0.699	0.820
-238.888	-124.840	-0.459	-0.070
-237.873	-141.392	0.654	0.066
-236.859	572.712	0.146	0.353
-235.844	67.721	0.259	-0.262
-234.830	800.000	0.231	-0.971
-233.815	-200.000	-0.159	-0.697
-232.800	-107.257	0.698	0.152
-231.786	226.359	0.144	-0.232
-230.771	-163.297	0.329	-0.016
-229.757	-93.989	-0.329	-0.089
-228.742	63.482	0.341	-0.338
-227.727	242.636	0.196	-0.325
-226.713	382.233	0.117	-0.238
-225.698	-76.746	-0.717	0.248
-224.684	-85.671	-0.317	0.097
-223.669	30.887	-0.308	-0.261
-222.655	298.933	-0.300	0.547
-221.640	-24.153	0.316	0.186
-220.625	-99.333	-0.804	-0.201
-219.611	-200.000	0.016	0.268
-218.596	-200.000	0.129	-0.592
-217.582	-79.199	-0.535	-0.179
-216.567	-169.688	0.367	0.013
-215.552	-16.610	0.957	0.599
-214.538	-17.509	-0.176	-0.110
-213.523	624.836	-0.067	-0.166
-212.509	117.973	-0.386	0.471
-211.494	-172.845	1.762	-0.054
-210.479	303.596	-0.096	0.175
-209.465	-200.000	-0.037	0.551
-208.450	-41.826	0.425	-0.215
-207.436	25.040	-0.342	0.280
-206.421	-65.102	-0.443	-0.177
-205.406	-26.734	0.283	0.164
-204.392	-200.000	0.069	-0.657
-203.377	-200.000	-0.001	0.174
-202.363	-137.025	0.370	0.042
-201.348	-200.000	-0.001	0.303
-200.333	212.173	0.053	-0.082
-199.319	652.080	-0.189	0.478
-198.304	800.000	0.038	-0.130
-197.290	-2.523	-0.946	0.654
-196.275	29.858	-0.601	-0.506
-195.260	84.910	0.191	0.207
-194.246	-200.000	-0.022	0.240
-193.231	-19.460	-0.396	-0.242
-192.217	-92.692	0.285	0.079
-191.202	800.000	0.236	-0.689
-190.187	22.235	0.283	0.228
-189.173	231.809	-0.154	0.250
-188.158	-200.000	0.089	-0.750
-187.144	-107.102	-0.187	-0.041
-186.129	-88.528	0.465	-0.137
-185.114	-62.777	0.480	-0.196
-184.100	296.486	-0.359	0.651
-183.085	406.740	-0.319	-0.664
-182.071	79.272	0.348	0.368
-181.056	286.043	0.369	-0.657
-180.042	-189.602	0.692	-0.008
-179.027	4.568	-0.411	0.298
-178.012	-157.110	0.368	-0.022
-176.998	-10.412	-0.918	-0.600
-175.983	-200.000	-0.063	0.427
-174.969	800.000	-0.137	-0.438
-173.954	71.471	0.553	0.567
-172.939	587.532	-0.109	0.264
-171.925	-120.624	1.216	0.203
-170.910	15.865	-0.249	0.193
-169.896	156.787	-0.151	0.205
-168.881	-200.000	0.020	-0.318
-167.866	241.099	-0.103	-0.170
-166.852	110.417	-0.084	0.100
-165.837	660.639	0.285	-0.725
-164.823	580.413	-0.389	0.941
-163.808	800.000	-0.067	-0.197
-162.793	-200.000	0.018	0.178
-161.779	114.066	0.535	0.642
-160.764	65.267	0.417	-0.416
-159.750	-45.344	0.474	0.232
-158.735	-145.842	-1.376	0.121
-157.720	-200.000	-0.004	0.194
-156.706	-200.000	0.002	0.354
-155.691	-68.855	-0.804	-0.306
-154.677	-127.056	-0.666	-0.096
-153.662	177.355	0.321	0.461
-152.647	-125.702	0.583	-0.087
-151.633	-153.184	0.227	-0.016
-150.618	-200.000	-0.051	0.714
-149.604	42.652	0.929	-0.834
-148.589	-94.910	-0.282	0.075
-147.574	-69.675	-1.089	-0.411
-146.560	71.430	0.312	0.319
-145.545	-46.001	-0.265	0.129
-144.531	239.743	-0.163	-0.268
-143.516	-30.145	0.328	0.184
-142.502	191.906	-0.392	-0.583
-141.487	163.408	0.463	0.642
-140.472	-200.000	-0.026	-0.554
-139.458	642.028	0.101	-0.254
-138.443	157.231	-0.283	0.386
-137.429	-59.168	0.199	0.084
-136.414	-21.032	0.393	-0.237
-135.399	92.813	-0.539	-0.600
-134.385	-7.112	-0.200	-0.133
-133.370	63.009	-0.179	-0.177
-132.356	-20.048	-0.238	-0.145
-131.341	43.604	0.254	0.229
-130.326	-49.251	0.336	-0.158
-129.312	800.000	-0.283	-0.797
-128.297	-135.071	-0.473	-0.056
-127.283	160.900	-0.156	-0.214
-126.268	-68.301	0.281	0.108
-125.253	-47.807	-0.392	0.187
-124.239	800.000	-0.064	0.258
-123.224	-90.697	-0.300	-0.085
-122.210	112.109	0.312	0.371
-121.195	-148.734	-0.472	-0.038
