DTS Sentinel unit serial number:	SN413079Multiplexer serial number:	ORYXHardware model number:	OX4-SRSoftware version number:	ORYX F/W v4.00 Oryx Data Collector v3.7.2.0data status	okinstallation	princeton_trtdifferential loss correction	single-endedforward channel	channel 2reverse channel	N/Adate	2019/09/11time	06:57:11forward acquisition time	60.00reverse acquisition time	0.00gamma	496.2192k internal	0.2327k external	0.2327temperature offset calibration	0.9938default loss term (dB/km)	0.3790temperature slope calibration	1.0000multiplexer offset coefficient	1.0000multiplexer slope coefficient	1.0000fibre end	0.00T internal ref (°C)	30.06T ext. ref 1 (°C)	-0.12T ext. ref 2 (°C)	25.52length (m)	temperature (°C)	Stokes	anti-Stokes-747.200	800.000	-0.032	-0.140
-746.185	123.125	-0.138	0.174
-745.171	-100.783	-0.269	-0.067
-744.156	10.630	0.107	0.083
-743.142	800.000	0.031	-0.124
-742.127	-133.236	0.168	0.021
-741.112	-57.386	-0.171	-0.076
-740.098	800.000	-0.035	-0.107
-739.083	-200.000	0.038	-0.209
-738.069	-136.531	-0.280	0.033
-737.054	-35.094	-0.075	0.041
-736.039	-1.458	-0.289	-0.205
-735.025	-200.000	-0.014	0.147
-734.010	182.019	0.198	0.294
-732.996	-69.627	-0.162	-0.063
-731.981	18.564	-0.105	-0.085
-730.966	-11.272	-0.309	0.205
-729.952	-116.367	-0.409	0.076
-728.937	-68.248	-0.334	-0.131
-727.923	40.718	-0.131	-0.119
-726.908	-159.270	-0.199	-0.011
-725.894	-30.030	-0.210	-0.120
-724.879	-124.010	-0.172	0.027
-723.864	-200.000	-0.027	-0.189
-722.850	639.664	-0.046	-0.119
-721.835	201.810	-0.151	-0.234
-720.821	-200.000	0.068	-0.392
-719.806	576.217	0.106	-0.261
-718.791	96.987	-0.139	-0.161
-717.777	-29.327	-0.138	-0.080
-716.762	89.285	0.120	-0.135
-715.748	-200.000	0.015	0.114
-714.733	-35.888	-0.256	-0.140
-713.718	-40.191	-0.277	-0.145
-712.704	83.671	0.296	-0.325
-711.689	63.389	0.193	-0.195
-710.675	-200.000	-0.007	0.292
-709.660	-128.694	-0.147	-0.021
-708.645	800.000	0.110	0.356
-707.631	118.358	-0.204	0.253
-706.616	369.570	0.075	-0.154
-705.602	800.000	-0.090	0.319
-704.587	234.302	-0.081	0.134
-703.572	29.795	0.141	0.121
-702.558	69.386	0.330	0.342
-701.543	15.068	0.111	-0.088
-700.529	800.000	-0.060	-0.257
-699.514	-128.589	-0.042	-0.006
-698.499	254.589	-0.267	-0.460
-697.485	73.203	-0.165	-0.173
-696.470	701.769	-0.078	-0.208
-695.456	245.454	-0.185	0.313
-694.441	93.169	-0.289	-0.329
-693.426	16.742	-0.085	-0.068
-692.412	639.623	-0.065	0.166
-691.397	295.752	-0.026	-0.047
-690.383	-160.113	0.385	-0.021
-689.368	-60.993	-0.342	0.146
-688.354	2.139	-0.110	-0.080
-687.339	65.211	0.078	-0.080
-686.324	-200.000	-0.068	-0.302
-685.310	-140.999	-0.174	0.018
-684.295	-200.000	-0.021	-0.144
-683.281	76.772	-0.122	-0.130
-682.266	800.000	0.017	-0.052
-681.251	103.520	-0.109	-0.128
-680.237	-163.327	0.046	-0.002
-679.222	-200.000	0.028	-0.310
-678.208	38.719	-0.158	0.142
-677.193	-18.349	0.570	-0.359
-676.178	40.553	-0.146	-0.132
-675.164	-200.000	0.006	0.407
-674.149	-51.017	0.192	0.091
-673.135	-104.591	-0.105	0.024
-672.120	14.924	-0.253	0.199
-671.105	46.227	-0.210	-0.195
-670.091	-61.065	0.208	-0.088
-669.076	91.051	-0.162	0.183
-668.062	800.000	0.088	-0.352
-667.047	549.489	-0.105	-0.252
-666.032	111.105	0.242	0.292
-665.018	204.421	0.079	-0.124
-664.003	296.248	-0.125	-0.230
-662.989	-200.000	0.010	-0.059
-661.974	6.655	0.154	-0.115
-660.959	-200.000	0.002	-0.056
-659.945	-200.000	-0.004	0.101
-658.930	0.935	0.082	0.059
-657.916	-151.815	-0.193	0.014
-656.901	-27.461	0.305	0.178
-655.886	-86.892	0.367	-0.113
-654.872	-59.642	-0.151	-0.065
-653.857	-40.245	-0.096	0.050
-652.843	230.425	-0.087	-0.142
-651.828	-200.000	-0.008	-0.048
-650.814	409.122	-0.073	-0.156
-649.799	-43.444	0.150	-0.076
-648.784	-19.595	0.140	-0.087
-647.770	119.771	-0.061	-0.076
-646.755	-182.545	0.381	0.007
-645.741	800.000	-0.138	-0.397
-644.726	-6.722	-0.249	0.170
-643.711	-200.000	0.008	0.168
-642.697	-200.000	0.041	0.408
-641.682	-102.146	-0.590	0.143
-640.668	800.000	0.050	0.220
-639.653	-30.626	0.259	0.148
-638.638	-200.000	0.041	-0.342
-637.624	-62.887	0.103	0.043
-636.609	85.843	-0.184	-0.203
-635.595	447.915	-0.059	0.130
-634.580	-60.793	0.071	0.030
-633.565	-112.561	-0.299	-0.060
-632.551	800.000	0.071	-0.278
-631.536	-200.000	-0.005	-0.068
-630.522	198.781	-0.124	0.190
-629.507	-139.449	-0.170	0.018
-628.492	-3.499	0.249	0.174
-627.478	-200.000	-0.012	-0.363
-626.463	-200.000	0.021	-0.097
-625.449	59.630	0.291	0.288
-624.434	176.584	0.045	0.066
-623.419	-105.280	0.321	0.073
-622.405	800.000	0.075	-0.264
-621.390	-200.000	-0.040	-0.405
-620.376	179.553	0.038	-0.055
-619.361	306.124	0.074	-0.138
-618.346	-20.561	0.174	-0.107
-617.332	-200.000	0.028	-0.250
-616.317	800.000	-0.045	-0.177
-615.303	-180.224	-0.148	-0.003
-614.288	144.999	0.216	0.290
-613.273	216.494	0.051	-0.082
-612.259	-115.716	-0.123	0.023
-611.244	594.780	-0.049	-0.122
-610.230	142.403	-0.038	0.051
-609.215	66.190	-0.192	-0.196
-608.201	-19.382	0.515	-0.320
-607.186	162.726	0.133	0.187
-606.171	99.613	-0.166	0.193
-605.157	-87.285	0.189	-0.058
-604.142	-111.631	0.250	-0.051
-603.128	-35.143	-0.253	0.138
-602.113	-15.588	-0.369	0.236
-601.098	-168.863	-0.334	-0.013
-600.084	81.055	0.043	-0.047
-599.069	-60.567	0.102	-0.044
-598.055	-200.000	-0.000	-0.128
-597.040	321.941	-0.143	-0.273
-596.025	-161.676	0.189	0.010
-595.011	-200.000	0.005	0.186
-593.996	800.000	-0.028	0.110
-592.982	-84.996	0.287	0.090
-591.967	-200.000	-0.053	-0.281
-590.952	-200.000	-0.032	0.220
-589.938	15.951	-0.101	0.079
-588.923	-158.056	-0.259	-0.015
-587.909	80.869	-0.277	-0.299
-586.894	126.930	-0.158	0.201
-585.879	-200.000	0.011	-0.056
-584.865	196.882	-0.191	0.291
-583.850	-84.758	0.070	0.022
-582.836	-200.000	-0.001	-0.019
-581.821	173.497	0.249	0.359
-580.806	185.571	-0.112	0.166
-579.792	-9.549	-0.139	-0.093
-578.777	416.096	0.138	-0.296
-577.763	170.349	0.142	0.204
-576.748	69.990	0.257	0.266
-575.733	-43.886	-0.150	-0.075
-574.719	161.266	-0.064	-0.090
-573.704	-119.783	-0.156	0.027
-572.690	60.500	-0.113	0.112
-571.675	-94.228	-0.367	-0.101
-570.661	-200.000	-0.004	0.190
-569.646	721.055	-0.050	-0.133
-568.631	-107.781	0.132	0.029
-567.617	124.617	0.113	0.143
-566.602	-200.000	-0.020	0.205
-565.588	-105.808	-0.240	-0.054
-564.573	273.179	-0.106	-0.187
-563.558	-81.549	0.138	-0.045
-562.544	-65.837	-0.134	-0.054
-561.529	800.000	0.030	-0.104
-560.515	-22.332	-0.176	-0.107
-559.500	-130.152	0.230	0.031
-558.485	-96.018	0.125	-0.033
-557.471	-94.478	-0.089	0.024
-556.456	-29.684	0.158	0.090
-555.442	26.192	0.118	-0.099
-554.427	-200.000	-0.004	0.118
-553.412	100.319	-0.238	-0.277
-552.398	-144.522	-0.304	0.028
-551.383	-121.314	-0.296	-0.049
-550.369	-200.000	0.021	0.221
-549.354	-6.162	0.278	-0.190
-548.339	800.000	0.064	0.188
-547.325	-48.723	-0.163	-0.078
-546.310	-130.965	0.199	0.027
-545.296	-200.000	-0.007	0.173
-544.281	-15.067	-0.218	-0.140
-543.266	-143.134	0.251	0.024
-542.252	0.518	-0.332	0.237
-541.237	52.236	0.104	0.099
-540.223	-148.699	0.274	-0.022
-539.208	3.854	-0.122	-0.089
-538.193	-200.000	-0.027	0.128
-537.179	316.187	-0.072	-0.135
-536.164	70.971	0.091	0.095
-535.150	-24.349	0.189	0.112
-534.135	-46.588	0.105	0.051
-533.121	800.000	-0.104	-0.433
-532.106	-126.037	0.118	-0.018
-531.091	167.119	0.112	0.158
-530.077	-35.033	-0.077	0.042
-529.062	-200.000	0.025	-0.245
-528.048	-200.000	-0.024	-0.282
-527.033	296.318	-0.124	0.228
-526.018	-124.221	-0.079	-0.012
-525.004	-67.191	-0.270	-0.106
-523.989	-200.000	0.049	-0.247
-522.975	77.822	0.121	-0.128
-521.960	273.654	-0.026	0.046
-520.945	-47.497	0.171	0.083
-519.931	-101.728	0.109	-0.026
-518.916	800.000	-0.064	0.268
-517.902	162.418	-0.041	0.057
-516.887	-82.653	-0.227	0.073
-515.872	151.534	-0.183	0.249
-514.858	25.056	-0.052	0.043
-513.843	800.000	0.053	0.202
-512.829	435.444	0.139	0.303
-511.814	20.352	-0.101	-0.082
-510.799	152.051	0.120	-0.163
-509.785	-92.854	-0.064	-0.018
-508.770	49.581	-0.140	0.132
-507.756	-7.900	0.195	-0.132
-506.741	-19.464	-0.254	0.157
-505.726	-16.531	-0.150	0.095
-504.712	-200.000	-0.015	0.091
-503.697	161.444	0.181	0.253
-502.683	405.650	-0.062	-0.131
-501.668	-109.415	-0.225	-0.047
-500.653	27.284	0.164	0.138
-499.639	-62.959	0.223	-0.092
-498.624	800.000	0.037	0.133
-497.610	800.000	-0.015	-0.057
-496.595	-73.165	0.167	-0.061
-495.581	800.000	0.033	-0.139
-494.566	48.835	0.334	-0.313
-493.551	130.639	0.056	-0.071
-492.537	-43.328	0.465	0.235
-491.522	4.211	-0.205	-0.150
-490.508	310.124	-0.093	0.173
-489.493	-22.725	0.175	0.106
-488.478	184.625	-0.310	-0.459
-487.464	108.300	0.149	-0.178
-486.449	111.509	0.173	0.208
-485.435	-81.701	-0.120	0.039
-484.420	591.098	-0.040	0.099
-483.405	23.874	-0.034	-0.028
-482.391	-126.338	-0.510	-0.076
-481.376	-130.032	-0.120	0.016
-480.362	92.595	-0.155	-0.174
-479.347	117.875	-0.109	-0.134
-478.332	-126.203	0.432	-0.064
-477.318	-102.179	0.091	0.022
-476.303	-161.503	0.086	-0.004
-475.289	523.126	0.058	0.137
-474.274	-114.853	0.022	-0.004
-473.259	-200.000	0.012	0.292
-472.245	800.000	-0.075	-0.293
-471.230	-200.000	0.050	0.261
-470.216	128.202	0.065	-0.083
-469.201	-200.000	-0.077	-0.397
-468.186	58.125	0.197	0.193
-467.172	562.920	-0.107	0.257
-466.157	561.783	0.075	-0.181
-465.143	-7.506	0.268	-0.181
-464.128	-143.914	0.201	-0.019
-463.113	81.075	0.192	0.207
-462.099	-172.997	0.186	-0.006
-461.084	272.960	0.090	0.158
-460.070	-98.040	-0.313	0.080
-459.055	-45.747	-0.272	-0.134
-458.040	-46.475	0.254	-0.124
-457.026	-200.000	-0.007	-0.148
-456.011	86.195	0.192	-0.211
-454.997	800.000	-0.031	0.128
-453.982	-64.922	-0.278	-0.112
-452.968	372.254	0.075	0.152
-451.953	-85.141	-0.296	0.092
-450.938	-1.262	0.171	0.121
-449.924	-200.000	-0.046	-0.351
-448.909	-70.496	0.255	0.096
-447.895	125.857	-0.112	-0.141
-446.880	-124.988	-0.188	0.029
-445.865	-72.241	-0.126	-0.046
-444.851	-135.800	-0.130	-0.015
-443.836	800.000	-0.051	-0.177
-442.822	429.795	0.098	-0.211
-441.807	121.000	0.097	0.120
-440.792	494.551	-0.032	0.074
-439.778	-34.128	-0.284	0.156
-438.763	-200.000	-0.054	-0.371
-437.749	-115.133	-0.143	0.027
-436.734	-9.594	-0.092	0.061
-435.719	-162.453	0.275	-0.014
-434.705	-102.752	0.200	0.047
-433.690	-23.570	-0.190	-0.114
-432.676	800.000	-0.037	-0.155
-431.661	-159.280	0.306	0.017
-430.646	-61.992	0.321	-0.134
-429.632	-80.267	0.138	0.046
-428.617	-111.556	-0.290	-0.059
-427.603	33.082	0.282	-0.243
-426.588	76.483	-0.128	0.135
-425.573	151.391	-0.131	-0.178
-424.559	-11.682	0.252	-0.165
-423.544	-73.540	-0.287	-0.104
-422.530	-72.926	0.279	0.102
-421.515	-48.219	0.091	0.044
-420.500	791.603	-0.068	-0.185
-419.486	-200.000	-0.015	0.263
-418.471	-200.000	0.003	0.146
-417.457	126.168	0.101	0.127
-416.442	-132.521	0.155	-0.020
-415.428	-69.075	-0.104	-0.040
-414.413	-93.878	-0.144	-0.039
-413.398	-37.155	-0.321	0.171
-412.384	-24.074	0.052	0.031
-411.369	800.000	-0.086	0.249
-410.355	-22.660	-0.182	-0.110
-409.340	88.680	-0.058	0.065
-408.325	700.099	0.056	0.148
-407.311	253.317	-0.232	0.394
-406.296	-200.000	-0.017	-0.300
-405.282	122.833	-0.032	-0.040
-404.267	-88.093	-0.400	-0.120
-403.252	160.850	0.057	-0.080
-402.238	-200.000	0.002	-0.074
-401.223	-16.927	0.077	0.048
-400.209	-4.854	0.064	-0.044
-399.194	-29.234	0.043	-0.025
-398.179	55.777	0.140	-0.135
-397.165	770.123	-0.127	0.344
-396.150	44.842	0.127	-0.117
-395.136	-23.560	0.265	0.158
-394.121	304.207	-0.063	-0.116
-393.106	-55.328	-0.297	-0.133
-392.092	225.056	-0.137	-0.220
-391.077	179.264	-0.142	-0.206
-390.063	-24.013	0.203	0.120
-389.048	27.633	-0.055	-0.046
-388.033	36.839	-0.308	-0.271
-387.019	137.568	0.282	-0.367
-386.004	-6.279	0.118	0.080
-384.990	712.746	0.078	-0.205
-383.975	-92.373	0.453	0.127
-382.960	-200.000	0.046	0.494
-381.946	800.000	-0.039	0.160
-380.931	313.220	-0.024	-0.044
-379.917	-200.000	0.027	-0.159
-378.902	29.404	0.095	-0.080
-377.888	-147.721	0.160	-0.013
-376.873	23.261	0.288	-0.235
-375.858	238.902	-0.067	0.110
-374.844	800.000	0.104	0.299
-373.829	530.455	0.128	0.301
-372.815	214.927	-0.133	-0.210
-371.800	-126.548	-0.357	0.053
-370.785	-200.000	-0.041	0.230
-369.771	183.772	0.093	0.137
-368.756	-200.000	-0.046	0.365
-367.742	91.554	0.144	-0.161
-366.727	-19.455	-0.185	0.114
-365.712	-200.000	-0.010	-0.191
-364.698	-200.000	-0.044	-0.296
-363.683	-200.000	-0.013	0.219
-362.669	800.000	-0.034	0.103
-361.654	560.226	-0.087	0.208
-360.639	288.269	-0.118	-0.213
-359.625	37.357	-0.114	-0.101
-358.610	-102.897	-0.097	-0.023
-357.596	424.795	-0.114	-0.243
-356.581	626.833	-0.026	-0.065
-355.566	-29.096	0.201	-0.115
-354.552	800.000	0.041	-0.123
-353.537	-152.229	0.318	0.023
-352.523	1.384	-0.152	0.109
-351.508	-128.221	-0.159	0.023
-350.493	85.489	0.142	0.155
-349.479	-2.564	-0.101	-0.070
-348.464	800.000	0.008	0.026
-347.450	-55.359	0.294	0.131
-346.435	-2.675	-0.179	-0.125
-345.420	-68.766	-0.342	0.131
-344.406	159.153	-0.130	-0.180
-343.391	-78.749	-0.134	-0.046
-342.377	18.567	0.150	0.119
-341.362	-2.809	-0.258	-0.179
-340.348	132.406	0.257	0.329
-339.333	800.000	-0.074	0.319
-338.318	571.896	0.133	0.321
-337.304	60.380	-0.243	-0.239
-336.289	-194.928	-0.168	-0.001
-335.275	362.194	0.024	-0.048
-334.260	-165.750	0.313	0.013
-333.245	-43.703	0.415	-0.207
-332.231	-82.330	-0.174	0.056
-331.216	-18.308	0.205	0.127
-330.202	-97.514	0.171	0.044
-329.187	196.135	-0.181	0.273
-328.172	220.790	0.128	-0.204
-327.158	-147.623	0.308	0.026
-326.143	-165.061	-0.216	0.010
-325.129	-200.000	-0.017	0.187
-324.114	24.025	-0.070	0.057
-323.099	800.000	0.010	-0.030
-322.085	-200.000	-0.036	0.177
-321.070	150.877	-0.062	-0.084
-320.056	0.784	0.094	-0.067
-319.041	-2.515	-0.171	0.119
-318.026	-181.017	-0.295	-0.006
-317.012	-50.963	0.323	0.150
-315.997	-11.960	0.228	0.148
-314.983	-37.420	-0.245	0.129
-313.968	800.000	-0.062	-0.223
-312.953	483.593	0.027	0.061
-311.939	-195.428	0.270	0.002
-310.924	-137.108	0.131	0.015
-309.910	-72.773	-0.109	0.040
-308.895	27.885	-0.088	0.073
-307.880	567.327	-0.123	0.296
-306.866	436.210	0.128	-0.277
-305.851	415.858	0.089	0.188
-304.837	233.749	0.060	-0.098
-303.822	-55.622	0.056	-0.025
-302.807	-120.772	-0.066	-0.011
-301.793	-200.000	0.030	-0.356
-300.778	38.399	-0.099	-0.088
-299.764	308.574	0.045	0.084
-298.749	306.723	-0.105	-0.194
-297.735	293.563	-0.181	-0.327
-296.720	-48.480	0.143	0.068
-295.705	-136.528	0.290	-0.033
-294.691	140.310	0.057	0.074
-293.676	139.490	0.138	-0.180
-292.662	-91.961	0.115	-0.032
-291.647	67.983	0.184	0.187
-290.632	-89.809	0.180	0.052
-289.618	-50.097	-0.341	0.160
-288.603	90.407	0.162	0.179
-287.589	62.407	0.054	-0.054
-286.574	117.273	-0.091	0.110
-285.559	-200.000	-0.043	-0.325
-284.545	-0.351	-0.376	-0.265
-283.530	-63.809	0.274	0.111
-282.516	463.997	-0.080	-0.178
-281.501	-200.000	-0.042	-0.372
-280.486	218.231	-0.047	0.075
-279.472	-56.982	0.047	0.021
-278.457	1.968	0.240	-0.172
-277.443	-113.787	-0.246	-0.047
-276.428	-130.324	-0.163	0.022
-275.413	-191.156	-0.256	-0.003
-274.399	-176.118	-0.404	0.011
-273.384	-126.210	0.165	-0.024
-272.370	-77.031	0.222	0.077
-271.355	-136.073	0.429	0.050
-270.340	-100.510	-0.311	-0.076
-269.326	-100.759	0.108	-0.026
-268.311	-200.000	0.008	-0.041
-267.297	-103.599	-0.010	0.002
-266.282	580.218	0.059	0.144
-265.267	-18.197	-0.197	0.122
-264.253	194.010	0.140	0.210
-263.238	800.000	0.022	0.060
-262.224	-152.470	-0.038	-0.003
-261.209	245.816	-0.111	0.185
-260.195	325.745	-0.227	0.429
-259.180	-58.302	0.255	-0.110
-258.165	4.058	0.100	0.073
-257.151	-139.837	0.206	-0.022
-256.136	23.900	-0.257	0.210
-255.122	42.720	-0.349	0.314
-254.107	-97.811	0.299	0.076
-253.092	800.000	-0.088	0.242
-252.078	-200.000	0.022	0.344
-251.063	405.975	0.047	-0.097
-250.049	163.930	-0.251	-0.349
-249.034	64.044	-0.169	0.168
-248.019	-175.323	0.267	-0.007
-247.005	-200.000	0.001	-0.168
-245.990	161.827	0.098	-0.136
-244.976	-200.000	0.000	-0.127
-243.961	-7.590	-0.086	0.058
-242.946	800.000	0.053	0.164
-241.932	480.497	0.137	-0.308
-240.917	10.213	-0.287	-0.216
-239.903	800.000	0.060	-0.189
-238.888	24.698	-0.245	0.201
-237.873	-31.169	-0.073	-0.041
-236.859	-142.665	0.316	-0.030
-235.844	17.589	-0.206	0.162
-234.830	-5.390	-0.152	0.103
-233.815	-28.861	-0.208	-0.118
-232.800	-93.206	0.087	0.024
-231.786	-200.000	-0.003	0.061
-230.771	-200.000	0.028	-0.124
-229.757	-200.000	0.011	-0.404
-228.742	276.592	0.150	-0.263
-227.727	-18.241	0.077	-0.047
-226.713	532.667	0.050	0.117
-225.698	-130.427	0.280	-0.038
-224.684	210.154	0.099	0.154
-223.669	800.000	0.050	0.214
-222.655	-200.000	-0.023	0.245
-221.640	20.758	0.025	-0.020
-220.625	-166.445	-0.139	-0.006
-219.611	-200.000	-0.011	0.453
-218.596	-106.287	-0.317	0.070
-217.582	691.386	-0.151	0.390
-216.567	-174.716	-0.263	-0.007
-215.552	-23.419	0.134	0.079
-214.538	-200.000	-0.067	-0.393
-213.523	-87.084	-0.099	-0.030
-212.509	114.124	-0.169	0.203
-211.494	108.429	-0.060	-0.070
-210.479	211.590	0.103	0.160
-209.465	-82.759	0.161	0.051
-208.450	106.903	0.131	0.154
-207.436	-153.789	-0.219	0.015
-206.421	-200.000	-0.016	0.109
-205.406	85.739	0.181	-0.196
-204.392	800.000	0.067	-0.242
-203.377	-200.000	0.025	-0.473
-202.363	-200.000	-0.038	-0.229
-201.348	-99.731	0.221	-0.055
-200.333	800.000	0.139	0.431
-199.319	37.156	0.189	0.165
-198.304	-200.000	0.047	0.511
-197.290	-7.036	0.284	-0.191
-196.275	-200.000	0.022	-0.144
-195.260	-82.831	-0.287	-0.092
-194.246	56.958	0.155	-0.149
-193.231	-46.328	-0.189	0.092
-192.217	-176.214	0.289	0.007
-191.202	-200.000	0.046	0.242
-190.187	166.962	0.086	0.120
-189.173	-200.000	-0.032	0.191
-188.158	800.000	-0.047	-0.156
-187.144	-97.807	-0.332	-0.085
-186.129	-11.505	-0.209	0.136
-185.114	-21.606	0.226	0.136
-184.100	165.304	-0.087	-0.121
-183.085	110.058	0.172	0.204
-182.071	-173.868	-0.151	-0.004
-181.056	100.007	0.225	-0.257
-180.042	94.197	-0.076	-0.085
-179.027	-104.322	0.117	0.027
-178.012	191.185	0.062	0.092
-176.998	-73.253	0.333	-0.120
-175.983	577.216	0.026	-0.064
-174.969	489.196	-0.046	-0.105
-173.954	128.773	-0.215	-0.270
-172.939	-88.054	-0.094	0.028
-171.925	-74.268	0.434	-0.155
-170.910	15.845	-0.323	0.251
-169.896	85.464	-0.159	0.173
-168.881	-200.000	-0.012	0.075
-167.866	-6.613	0.169	0.114
-166.852	-123.023	0.213	-0.034
-165.837	304.011	-0.147	0.269
-164.823	316.668	-0.074	-0.137
-163.808	274.305	-0.119	0.208
-162.793	-160.086	-0.075	-0.004
-161.779	99.105	-0.160	-0.182
-160.764	736.100	-0.057	-0.149
-159.750	25.524	0.213	0.175
-158.735	-41.017	-0.110	-0.056
-157.720	322.877	-0.092	-0.174
-156.706	170.728	0.177	-0.250
-155.691	-49.542	-0.251	-0.118
-154.677	9.747	0.067	0.050
-153.662	-88.533	0.163	-0.048
-152.647	-200.000	0.001	-0.285
-151.633	46.663	-0.163	-0.149
-150.618	-5.506	0.215	-0.145
-149.604	-2.694	0.396	0.273
-148.589	-47.933	-0.185	-0.088
-147.574	-84.867	-0.216	-0.067
-146.560	-41.760	0.125	-0.063
-145.545	-66.255	0.219	-0.086
-144.531	-120.970	0.150	-0.025
-143.516	-19.798	0.069	-0.042
-142.502	222.625	-0.211	-0.335
-141.487	19.333	0.164	0.130
-140.472	-90.055	0.265	0.076
-139.458	727.475	0.046	-0.121
-138.443	432.754	0.028	0.059
-137.429	654.341	0.189	-0.477
-136.414	-141.444	0.231	-0.023
-135.399	800.000	0.141	-0.386
-134.385	-72.768	-0.189	0.069
-133.370	800.000	-0.097	0.276
-132.356	-44.428	-0.075	-0.037
-131.341	-200.000	0.014	0.231
-130.326	14.730	-0.155	0.119
-129.312	-18.685	-0.232	-0.142
-128.297	-77.629	0.154	0.052
-127.283	252.419	-0.064	0.108
-126.268	-64.475	0.178	0.071
-125.253	-200.000	0.003	0.140
-124.239	51.120	-0.192	-0.180
-123.224	-157.902	0.024	0.001
-122.210	10.888	0.193	0.145
-121.195	25.923	0.094	0.077
