DTS Sentinel unit serial number:	SN413079Multiplexer serial number:	ORYXHardware model number:	OX4-SRSoftware version number:	ORYX F/W v4.00 Oryx Data Collector v3.7.2.0data status	okinstallation	princeton_trtdifferential loss correction	single-endedforward channel	channel 2reverse channel	N/Adate	2019/09/17time	05:03:34forward acquisition time	60.00reverse acquisition time	0.00gamma	496.2192k internal	0.2329k external	0.2329temperature offset calibration	0.9972default loss term (dB/km)	0.3790temperature slope calibration	1.0000multiplexer offset coefficient	1.0000multiplexer slope coefficient	1.0000fibre end	0.00T internal ref (°C)	29.48T ext. ref 1 (°C)	0.14T ext. ref 2 (°C)	23.93length (m)	temperature (°C)	Stokes	anti-Stokes-747.200	-200.000	0.024	-0.139
-746.185	-200.000	-0.087	0.422
-745.171	-58.572	-0.369	0.161
-744.156	99.692	0.161	-0.188
-743.142	-200.000	0.355	-0.002
-742.127	-1.944	-0.365	0.258
-741.112	-134.983	0.526	-0.064
-740.098	-200.000	0.043	0.276
-739.083	-200.000	0.001	0.066
-738.069	101.369	0.118	0.139
-737.054	-200.000	0.022	0.402
-736.039	-180.714	-0.286	-0.006
-735.025	-33.376	0.122	0.068
-734.010	-113.586	0.198	0.039
-732.996	-31.175	-0.280	-0.159
-731.981	-200.000	-0.007	-0.262
-730.966	-200.000	0.075	0.377
-729.952	10.789	-0.228	0.175
-728.937	800.000	-0.153	-0.520
-727.923	331.469	-0.082	-0.159
-726.908	-127.466	-0.217	-0.032
-725.894	-44.413	-0.248	-0.125
-724.879	-54.438	-0.124	0.057
-723.864	273.816	0.062	-0.111
-722.850	-146.160	-0.218	0.019
-721.835	80.764	-0.062	0.067
-720.821	184.596	-0.238	-0.355
-719.806	-200.000	0.073	0.472
-718.791	628.210	-0.074	-0.188
-717.777	-64.364	0.282	-0.115
-716.762	243.332	-0.107	-0.181
-715.748	204.915	0.220	-0.344
-714.733	800.000	0.042	-0.141
-713.718	557.570	-0.033	0.081
-712.704	-39.398	0.035	0.019
-711.689	45.287	0.234	0.217
-710.675	800.000	0.046	-0.167
-709.660	-133.166	-0.333	-0.042
-708.645	169.675	-0.207	-0.298
-707.631	-64.145	-0.313	-0.129
-706.616	218.372	-0.218	0.350
-705.602	146.268	-0.065	0.088
-704.587	35.548	-0.100	-0.088
-703.572	-31.438	-0.234	0.133
-702.558	56.856	0.207	-0.203
-701.543	-200.000	0.022	-0.130
-700.529	291.234	0.287	-0.524
-699.514	-49.816	0.082	-0.039
-698.499	-43.543	-0.243	-0.123
-697.485	-200.000	0.028	0.279
-696.470	-115.805	-0.498	-0.094
-695.456	-200.000	-0.268	0.000
-694.441	108.216	0.161	-0.193
-693.426	-167.401	-0.196	0.008
-692.412	-65.432	0.305	-0.123
-691.397	-200.000	0.003	0.068
-690.383	-125.649	-0.213	-0.032
-689.368	-101.592	0.151	0.037
-688.354	7.648	-0.341	0.257
-687.339	72.537	-0.161	0.169
-686.324	-30.702	-0.110	-0.062
-685.310	-142.751	0.287	-0.028
-684.295	-95.212	-0.343	-0.093
-683.281	26.677	-0.258	0.217
-682.266	-82.745	-0.131	0.043
-681.251	-200.000	-0.038	0.179
-680.237	-200.000	-0.039	0.209
-679.222	-200.000	0.023	0.226
-678.208	-41.103	-0.173	-0.090
-677.193	-187.602	0.218	-0.003
-676.178	430.347	0.197	0.428
-675.164	-102.620	-0.301	-0.072
-674.149	-17.665	-0.159	-0.100
-673.135	-119.103	-0.101	-0.018
-672.120	-74.105	0.411	0.149
-671.105	122.324	-0.041	-0.052
-670.091	-14.439	0.368	-0.238
-669.076	-17.059	0.301	-0.191
-668.062	-200.000	-0.040	-0.398
-667.047	340.715	-0.081	-0.159
-666.032	-80.784	-0.191	0.064
-665.018	-10.837	-0.163	0.108
-664.003	800.000	-0.083	-0.297
-662.989	157.473	-0.169	-0.235
-661.974	185.559	-0.254	-0.379
-660.959	-64.539	0.213	0.087
-659.945	10.039	0.013	0.010
-658.930	-44.896	0.045	-0.023
-657.916	-152.069	0.182	0.013
-656.901	-54.797	-0.321	0.146
-655.886	-28.448	-0.104	0.060
-654.872	-200.000	0.013	-0.220
-653.857	800.000	-0.070	-0.244
-652.843	-200.000	0.021	0.119
-651.828	-153.410	0.279	0.019
-650.814	-200.000	-0.043	0.230
-649.799	422.696	0.062	0.134
-648.784	-63.369	-0.292	0.120
-647.770	36.594	0.129	-0.114
-646.755	116.317	-0.231	-0.285
-645.741	-152.679	0.262	-0.019
-644.726	-107.546	-0.253	0.056
-643.711	569.605	0.053	-0.129
-642.697	-200.000	0.070	-0.417
-641.682	207.397	-0.098	-0.153
-640.668	-117.160	0.063	-0.012
-639.653	-74.710	0.235	-0.085
-638.638	329.953	-0.128	0.247
-637.624	-200.000	-0.008	0.054
-636.609	-124.890	-0.107	0.017
-635.595	800.000	-0.070	0.210
-634.580	480.650	-0.101	0.229
-633.565	-32.918	-0.288	-0.161
-632.551	41.169	0.272	0.247
-631.536	-68.624	-0.183	-0.071
-630.522	168.472	0.165	0.235
-629.507	800.000	0.083	-0.351
-628.492	205.504	-0.148	-0.230
-627.478	371.776	0.125	-0.254
-626.463	-200.000	0.022	0.254
-625.449	-75.883	-0.179	0.064
-624.434	13.150	-0.225	0.175
-623.419	-64.518	-0.226	-0.092
-622.405	-13.657	0.189	-0.123
-621.390	-200.000	-0.003	0.140
-620.376	210.804	-0.099	-0.157
-619.361	32.845	0.326	-0.283
-618.346	-45.117	-0.134	-0.067
-617.332	87.594	0.213	-0.236
-616.317	-14.504	-0.118	0.076
-615.303	-114.235	-0.283	-0.055
-614.288	800.000	0.040	0.122
-613.273	182.427	-0.186	0.275
-612.259	800.000	0.074	0.254
-611.244	800.000	-0.026	-0.094
-610.230	-34.800	-0.256	-0.140
-609.215	800.000	0.011	-0.041
-608.201	-5.987	-0.153	-0.105
-607.186	12.531	0.183	0.142
-606.171	-18.746	-0.361	0.225
-605.157	33.977	0.270	-0.236
-604.142	-150.233	0.179	0.014
-603.128	-75.453	-0.198	0.071
-602.113	6.920	0.162	0.121
-601.098	-105.565	0.146	-0.033
-600.084	-24.836	-0.255	-0.152
-599.069	-4.889	-0.135	0.093
-598.055	-200.000	-0.004	-0.026
-597.040	800.000	-0.101	0.293
-596.025	-21.534	-0.417	-0.255
-595.011	-90.498	-0.266	-0.077
-593.996	-200.000	0.038	-0.203
-592.982	18.180	0.130	-0.104
-591.967	-92.183	-0.261	0.074
-590.952	-2.388	-0.086	0.061
-589.938	529.834	-0.036	0.086
-588.923	-200.000	-0.038	-0.259
-587.909	590.917	-0.043	0.106
-586.894	-143.124	0.208	-0.020
-585.879	658.151	0.028	-0.071
-584.865	-138.550	-0.157	-0.017
-583.850	-45.043	0.317	-0.158
-582.836	-200.000	0.055	0.333
-581.821	-200.000	-0.008	-0.075
-580.806	257.233	-0.237	-0.408
-579.792	455.508	0.092	0.204
-578.777	10.780	0.114	-0.087
-577.763	800.000	-0.058	-0.225
-576.748	-133.750	-0.223	-0.028
-575.733	-35.074	-0.281	0.154
-574.719	-200.000	-0.009	0.064
-573.704	84.392	-0.169	-0.185
-572.690	90.393	0.080	-0.090
-571.675	-25.669	-0.185	0.109
-570.661	14.360	0.084	-0.065
-569.646	15.086	0.264	-0.207
-568.631	97.838	-0.163	-0.187
-567.617	-100.338	0.280	-0.069
-566.602	-63.918	-0.249	0.102
-565.588	-200.000	-0.002	-0.019
-564.573	-200.000	-0.014	-0.215
-563.558	-2.279	0.159	-0.111
-562.544	-45.946	0.235	-0.116
-561.529	-200.000	0.016	-0.090
-560.515	204.925	0.062	-0.097
-559.500	-64.607	0.224	-0.091
-558.485	-200.000	-0.013	-0.141
-557.471	-85.768	-0.075	-0.023
-556.456	-200.000	0.068	-0.303
-555.442	381.452	-0.146	0.300
-554.427	-200.000	-0.048	-0.247
-553.412	14.008	-0.146	0.114
-552.398	-64.091	-0.085	-0.035
-551.383	-122.299	-0.156	-0.025
-550.369	-148.263	-0.143	-0.012
-549.354	-141.038	0.236	-0.024
-548.339	-186.415	-0.316	-0.005
-547.325	800.000	-0.049	0.157
-546.310	-99.556	0.153	0.038
-545.296	272.282	-0.095	-0.168
-544.281	26.919	-0.164	0.137
-543.266	-150.982	0.233	-0.018
-542.252	-43.311	0.098	-0.049
-541.237	-23.644	0.233	-0.140
-540.223	-200.000	-0.022	0.174
-539.208	-200.000	-0.023	0.239
-538.193	291.071	-0.076	-0.139
-537.179	296.377	-0.159	-0.292
-536.164	800.000	-0.065	-0.264
-535.150	-142.151	0.228	0.023
-534.135	-179.963	-0.094	0.002
-533.121	247.365	0.177	-0.298
-532.106	800.000	-0.150	-0.516
-531.091	-77.626	-0.078	-0.027
-530.077	161.350	-0.095	-0.133
-529.062	315.482	0.113	-0.213
-528.048	252.959	-0.067	-0.115
-527.033	147.171	-0.156	0.210
-526.018	800.000	-0.044	-0.189
-525.004	34.860	-0.184	-0.161
-523.989	673.405	-0.040	0.103
-522.975	642.745	-0.062	0.157
-521.960	37.735	-0.170	-0.151
-520.945	-106.062	0.174	-0.039
-519.931	-151.638	0.283	-0.021
-518.916	273.325	-0.118	0.208
-517.902	130.356	0.216	0.276
-516.887	-105.236	0.120	-0.027
-515.872	-56.162	-0.154	0.068
-514.858	83.228	0.129	-0.140
-513.843	-3.192	0.131	0.091
-512.829	-111.724	-0.198	-0.040
-511.814	-79.635	-0.249	0.084
-510.799	96.454	0.096	-0.110
-509.785	-43.305	0.288	-0.146
-508.770	-78.353	0.517	0.177
-507.756	-200.000	0.063	-0.397
-506.741	-89.575	0.300	0.088
-505.726	-49.679	0.425	-0.202
-504.712	800.000	-0.060	0.219
-503.697	444.266	-0.081	-0.178
-502.683	800.000	0.108	-0.326
-501.668	-134.959	0.063	0.008
-500.653	-21.449	-0.104	-0.064
-499.639	303.173	-0.146	-0.269
-498.624	800.000	0.089	0.267
-497.610	152.893	-0.118	0.161
-496.595	-200.000	-0.005	-0.170
-495.581	-125.347	-0.155	0.024
-494.566	-7.038	0.166	-0.113
-493.551	393.071	-0.076	0.159
-492.537	-114.596	-0.365	-0.070
-491.522	-200.000	-0.037	-0.295
-490.508	-13.539	0.292	-0.189
-489.493	-126.270	-0.426	-0.064
-488.478	800.000	-0.094	0.283
-487.464	800.000	-0.111	0.345
-486.449	-118.407	-0.163	-0.029
-485.435	72.141	-0.163	0.169
-484.420	-200.000	-0.028	-0.289
-483.405	-200.000	0.036	0.340
-482.391	-145.762	0.100	-0.009
-481.376	-177.683	0.083	-0.002
-480.362	-0.750	-0.147	-0.104
-479.347	99.981	-0.058	0.067
-478.332	-78.408	-0.205	-0.070
-477.318	0.668	-0.070	0.050
-476.303	800.000	0.104	-0.312
-475.289	-142.368	0.192	-0.019
-474.274	176.124	0.180	0.260
-473.259	800.000	0.058	0.172
-472.245	35.532	-0.131	-0.115
-471.230	47.588	0.407	0.379
-470.216	800.000	-0.086	-0.353
-469.201	107.262	0.058	-0.069
-468.186	-112.306	-0.285	0.057
-467.172	800.000	0.099	-0.356
-466.157	-44.251	-0.248	0.124
-465.143	-200.000	-0.006	0.323
-464.128	292.300	0.163	-0.295
-463.113	440.608	-0.111	0.242
-462.099	-200.000	0.015	0.400
-461.084	800.000	-0.027	0.084
-460.070	-173.231	0.169	-0.005
-459.055	16.680	-0.159	0.125
-458.040	82.727	-0.170	-0.184
-457.026	37.525	-0.269	-0.238
-456.011	-200.000	-0.036	-0.194
-454.997	-140.523	-0.325	-0.034
-453.982	-41.625	0.105	0.054
-452.968	-5.650	0.374	0.255
-451.953	-71.239	-0.190	0.071
-450.938	20.517	-0.042	-0.034
-449.924	-200.000	-0.002	-0.415
-448.909	-122.752	-0.224	-0.036
-447.895	-81.271	-0.166	0.055
-446.880	321.083	-0.150	-0.283
-445.865	-132.567	-0.116	-0.015
-444.851	33.688	-0.306	0.265
-443.836	-200.000	0.057	0.300
-442.822	293.527	0.063	-0.115
-441.807	-36.228	0.512	0.275
-440.792	1.831	0.357	-0.256
-439.778	23.333	0.116	-0.095
-438.763	-108.878	-0.373	0.079
-437.749	-200.000	0.041	0.202
-436.734	67.130	-0.073	0.074
-435.719	-200.000	-0.012	0.233
-434.705	-200.000	-0.044	-0.222
-433.690	430.322	0.057	0.123
-432.676	-200.000	-0.031	0.357
-431.661	78.020	0.216	0.229
-430.646	-200.000	-0.066	-0.406
-429.632	800.000	-0.052	0.145
-428.617	129.377	0.167	-0.213
-427.603	91.791	0.086	-0.097
-426.588	800.000	-0.122	0.374
-425.573	-35.767	-0.210	-0.113
-424.559	50.168	-0.232	-0.218
-423.544	760.570	0.089	-0.241
-422.530	60.730	-0.266	0.262
-421.515	72.508	0.260	0.269
-420.500	67.992	-0.044	-0.045
-419.486	112.533	0.198	-0.238
-418.471	244.545	-0.121	-0.202
-417.457	-200.000	-0.007	0.165
-416.442	-110.585	0.164	0.034
-415.428	188.264	0.102	0.152
-414.413	-104.984	0.024	-0.006
-413.398	-200.000	-0.035	0.293
-412.384	-43.211	0.279	0.141
-411.369	90.235	0.355	-0.395
-410.355	-200.000	-0.038	0.222
-409.340	60.094	-0.133	-0.130
-408.325	7.630	0.298	0.222
-407.311	182.113	0.155	0.226
-406.296	-25.146	0.046	0.027
-405.282	-8.550	0.263	0.175
-404.267	-200.000	0.009	-0.189
-403.252	219.308	0.046	-0.073
-402.238	-143.588	0.219	0.021
-401.223	712.853	0.085	-0.223
-400.209	415.809	0.057	-0.121
-399.194	-44.270	-0.219	0.109
-398.179	293.680	-0.150	0.272
-397.165	-51.850	0.359	0.166
-396.150	-62.681	0.457	0.188
-395.136	-121.067	-0.298	0.050
-394.121	-2.429	0.298	-0.207
-393.106	278.378	-0.166	-0.294
-392.092	-200.000	0.038	-0.243
-391.077	800.000	0.094	0.359
-390.063	-77.858	-0.204	0.070
-389.048	-65.227	0.084	0.034
-388.033	399.830	-0.032	0.067
-387.019	773.205	0.046	0.125
-386.004	-200.000	0.050	0.226
-384.990	23.416	0.099	-0.081
-383.975	299.798	0.161	0.295
-382.960	800.000	0.132	-0.559
-381.946	-110.440	0.185	0.038
-380.931	143.812	0.184	-0.244
-379.917	800.000	0.030	-0.131
-378.902	142.083	-0.060	0.080
-377.888	137.287	-0.108	-0.141
-376.873	156.784	-0.060	-0.082
-375.858	-19.492	0.173	-0.106
-374.844	568.459	-0.033	0.080
-373.829	171.553	-0.102	-0.146
-372.815	303.595	-0.183	0.336
-371.800	-86.914	-0.275	0.083
-370.785	-200.000	0.036	-0.251
-369.771	379.466	0.066	0.134
-368.756	104.654	0.053	-0.062
-367.742	-78.068	0.237	0.081
-366.727	28.480	-0.412	0.345
-365.712	800.000	-0.022	-0.082
-364.698	-137.843	-0.396	-0.044
-363.683	-24.512	-0.093	-0.055
-362.669	647.934	0.089	-0.226
-361.654	627.468	-0.167	-0.418
-360.639	541.473	-0.112	-0.264
-359.625	37.468	0.081	-0.071
-358.610	96.848	-0.251	-0.286
-357.596	-120.206	0.117	-0.020
-356.581	107.560	-0.199	0.235
-355.566	800.000	0.023	0.072
-354.552	-128.851	-0.229	-0.032
-353.537	104.521	0.113	-0.131
-352.523	-167.982	-0.132	-0.005
-351.508	39.434	0.092	-0.082
-350.493	-34.201	-0.202	-0.110
-349.479	-121.681	-0.050	-0.008
-348.464	-200.000	0.000	0.047
-347.450	81.897	-0.092	0.099
-346.435	790.616	-0.130	0.353
-345.420	800.000	-0.025	0.084
-344.406	355.448	-0.108	-0.213
-343.391	-122.915	-0.169	-0.027
-342.377	800.000	-0.032	-0.112
-341.362	-7.246	0.280	0.188
-340.348	18.570	0.156	-0.124
-339.333	-44.647	0.202	0.100
-338.318	-100.612	-0.090	-0.022
-337.304	240.628	0.098	0.162
-336.289	800.000	0.013	-0.042
-335.275	75.233	-0.105	-0.110
-334.260	-200.000	-0.044	0.196
-333.245	-49.292	0.144	0.068
-332.231	-200.000	0.054	0.254
-331.216	207.546	-0.221	-0.341
-330.202	-200.000	-0.055	-0.278
-329.187	74.388	0.113	-0.118
-328.172	-75.291	0.194	-0.069
-327.158	134.522	-0.322	-0.415
-326.143	-92.916	0.272	0.075
-325.129	67.662	0.150	0.152
-324.114	-18.606	-0.097	-0.060
-323.099	-80.712	0.130	-0.043
-322.085	800.000	-0.109	0.355
-321.070	800.000	-0.030	-0.085
-320.056	44.993	0.091	-0.083
-319.041	184.312	0.066	-0.097
-318.026	-107.075	0.193	-0.042
-317.012	9.851	-0.268	0.201
-315.997	-20.231	-0.338	0.206
-314.983	-89.016	0.325	-0.095
-313.968	-200.000	-0.018	0.169
-312.953	-200.000	0.010	-0.046
-311.939	48.807	-0.083	0.077
-310.924	562.601	0.090	0.217
-309.910	-17.438	0.136	0.085
-308.895	-8.484	-0.134	-0.089
-307.880	-97.490	-0.248	0.064
-306.866	136.686	0.094	-0.121
-305.851	-75.291	0.205	0.072
-304.837	309.630	-0.025	0.046
-303.822	800.000	-0.037	-0.127
-302.807	78.652	-0.104	0.110
-301.793	77.529	0.139	-0.147
-300.778	-124.117	0.073	-0.011
-299.764	-200.000	-0.044	-0.229
-298.749	-45.514	0.331	-0.162
-297.735	-200.000	-0.022	0.392
-296.720	-42.098	-0.090	-0.045
-295.705	-91.721	-0.182	-0.051
-294.691	-46.215	-0.220	0.107
-293.676	-130.377	0.300	0.040
-292.662	-171.128	0.192	0.006
-291.647	-70.782	-0.205	0.076
-290.632	7.414	0.106	0.078
-289.618	61.314	-0.202	-0.198
-288.603	166.591	0.111	0.156
-287.589	75.803	0.091	0.096
-286.574	-200.000	0.055	0.457
-285.559	4.248	-0.147	0.107
-284.545	-90.974	0.270	0.077
-283.530	800.000	-0.090	-0.307
-282.516	-92.536	-0.174	0.048
-281.501	749.639	-0.109	0.290
-280.486	-34.490	-0.100	0.054
-279.472	-161.916	0.158	0.008
-278.457	-200.000	0.055	-0.253
-277.443	-38.187	0.117	0.061
-276.428	-144.815	0.120	0.011
-275.413	80.095	-0.066	0.070
-274.399	-200.000	0.020	0.109
-273.384	-200.000	0.001	-0.138
-272.370	91.380	-0.115	-0.128
-271.355	14.817	-0.086	0.067
-270.340	-148.919	0.328	0.026
-269.326	-200.000	-0.015	0.268
-268.311	-100.229	-0.179	0.044
-267.297	800.000	0.059	0.182
-266.282	217.320	-0.139	0.219
-265.267	234.532	0.159	-0.259
-264.253	44.952	0.078	0.071
-263.238	-150.077	0.346	0.027
-262.224	-175.067	-0.364	-0.010
-261.209	-42.162	-0.187	0.095
-260.195	-190.144	0.033	0.000
-259.180	273.428	-0.016	-0.028
-258.165	41.086	-0.106	-0.095
-257.151	781.367	0.070	-0.189
-256.136	-200.000	-0.038	0.190
-255.122	-12.661	0.259	0.167
-254.107	619.073	-0.072	0.179
-253.092	800.000	0.038	0.143
-252.078	-85.761	0.164	-0.050
-251.063	71.257	0.351	0.360
-250.049	-12.547	-0.245	-0.158
-249.034	-200.000	0.031	0.287
-248.019	383.066	0.187	0.380
-247.005	-62.234	0.078	0.032
-245.990	105.577	-0.170	0.198
-244.976	800.000	0.043	-0.141
-243.961	330.217	0.119	-0.227
-242.946	-44.977	-0.162	-0.080
-241.932	-108.946	-0.258	0.054
-240.917	211.122	-0.040	0.062
-239.903	22.968	-0.179	-0.145
-238.888	125.352	0.015	-0.019
-237.873	-200.000	-0.019	-0.251
-236.859	-148.072	-0.280	0.023
-235.844	466.979	0.120	0.266
-234.830	-200.000	0.015	-0.246
-233.815	-118.014	-0.308	-0.054
-232.800	-189.553	0.044	0.001
-231.786	117.801	-0.263	0.320
-230.771	4.866	0.096	-0.069
-229.757	-200.000	-0.012	0.301
-228.742	-200.000	0.022	-0.149
-227.727	427.013	-0.049	0.105
-226.713	24.458	0.192	0.157
-225.698	21.672	0.151	-0.122
-224.684	175.668	-0.073	0.104
-223.669	800.000	-0.111	0.351
-222.655	-83.859	0.269	0.085
-221.640	168.791	-0.057	-0.081
-220.625	-114.176	-0.093	0.018
-219.611	-181.968	-0.202	0.004
-218.596	-144.097	-0.328	0.030
-217.582	-200.000	0.031	-0.227
-216.567	-200.000	0.046	-0.467
-215.552	-44.944	0.086	0.042
-214.538	74.948	-0.191	-0.198
-213.523	-83.718	0.205	0.065
-212.509	800.000	0.049	-0.157
-211.494	-76.552	0.203	-0.070
-210.479	-200.000	0.006	0.197
-209.465	-93.452	0.241	0.066
-208.450	663.829	0.106	-0.270
-207.436	-95.132	0.116	-0.031
-206.421	31.839	0.184	-0.156
-205.406	-119.126	-0.198	-0.034
-204.392	-179.140	-0.219	-0.005
-203.377	-200.000	0.044	-0.272
-202.363	-200.000	-0.034	-0.152
-201.348	195.095	-0.151	0.227
-200.333	-200.000	-0.012	-0.164
-199.319	-200.000	-0.015	-0.165
-198.304	655.506	-0.072	-0.182
-197.290	800.000	-0.066	0.228
-196.275	195.555	-0.206	0.309
-195.260	7.723	0.125	0.093
-194.246	-200.000	-0.037	0.181
-193.231	171.189	0.133	-0.188
-192.217	60.141	0.202	-0.197
-191.202	-26.701	0.103	0.060
-190.187	19.037	-0.121	-0.095
-189.173	398.241	0.071	0.146
-188.158	-122.641	0.348	0.056
-187.144	800.000	0.065	0.186
-186.129	-78.101	0.476	-0.161
-185.114	41.974	0.034	0.030
-184.100	93.171	0.165	-0.184
-183.085	309.773	0.075	0.138
-182.071	-116.306	0.209	-0.038
-181.056	76.886	0.105	0.110
-180.042	-105.756	0.187	0.042
-179.027	-50.729	0.317	0.147
-178.012	81.430	-0.149	0.158
-176.998	-117.248	-0.046	-0.008
-175.983	-158.387	0.142	-0.008
-174.969	800.000	0.159	0.571
-173.954	-200.000	0.021	0.191
-172.939	290.326	0.101	0.181
-171.925	-200.000	-0.005	0.169
-170.910	-200.000	0.003	0.297
-169.896	800.000	-0.037	-0.103
-168.881	-3.224	-0.109	0.075
-167.866	-21.228	0.258	0.155
-166.852	-200.000	-0.017	0.215
-165.837	-200.000	-0.054	0.258
-164.823	-107.935	0.460	0.098
-163.808	-22.666	-0.295	0.176
-162.793	237.285	-0.225	-0.367
-161.779	80.347	0.082	0.087
-160.764	-149.341	0.071	0.006
-159.750	219.768	-0.097	-0.153
-158.735	-200.000	-0.053	0.283
-157.720	-200.000	-0.044	0.452
-156.706	238.044	0.189	0.309
-155.691	112.925	0.100	0.119
-154.677	353.572	-0.182	-0.355
-153.662	268.402	0.143	-0.246
-152.647	-200.000	0.001	-0.279
-151.633	-189.853	-0.164	0.002
-150.618	-19.368	-0.358	0.219
-149.604	539.418	0.075	0.176
-148.589	-200.000	0.020	0.204
-147.574	17.649	0.175	0.137
-146.560	-200.000	-0.039	0.385
-145.545	-46.178	0.258	0.125
-144.531	800.000	-0.020	0.063
-143.516	-61.938	0.142	0.058
-142.502	29.496	-0.209	0.175
-141.487	2.597	-0.102	0.072
-140.472	99.526	0.130	0.148
-139.458	274.554	0.076	0.132
-138.443	768.256	-0.075	-0.201
-137.429	486.965	-0.176	0.395
-136.414	-146.241	0.315	0.027
-135.399	227.396	-0.159	0.254
-134.385	138.823	-0.185	-0.239
-133.370	800.000	0.067	0.289
-132.356	224.433	0.167	-0.266
-131.341	90.247	-0.261	0.288
-130.326	-4.228	0.370	-0.252
-129.312	-119.101	0.422	-0.073
-128.297	800.000	-0.068	-0.207
-127.283	48.101	-0.161	0.148
-126.268	-85.675	-0.178	-0.054
-125.253	247.864	-0.179	0.298
-124.239	-200.000	-0.004	0.282
-123.224	45.898	0.201	-0.183
-122.210	194.839	0.163	0.243
