DTS Sentinel unit serial number:	SN413079Multiplexer serial number:	ORYXHardware model number:	OX4-SRSoftware version number:	ORYX F/W v4.00 Oryx Data Collector v3.7.2.0data status	okinstallation	princeton_trtdifferential loss correction	single-endedforward channel	channel 2reverse channel	N/Adate	2019/09/12time	20:09:49forward acquisition time	15.00reverse acquisition time	0.00gamma	496.2192k internal	0.2327k external	0.2327temperature offset calibration	1.0144default loss term (dB/km)	0.3790temperature slope calibration	1.0000multiplexer offset coefficient	1.0000multiplexer slope coefficient	1.0000fibre end	0.00T internal ref (°C)	31.62T ext. ref 1 (°C)	3.36T ext. ref 2 (°C)	26.24length (m)	temperature (°C)	Stokes	anti-Stokes-747.200	175.329	-0.109	-0.160
-746.185	-200.000	-0.095	0.527
-745.171	233.721	0.108	0.179
-744.156	-188.164	-0.560	-0.007
-743.142	-80.551	-0.479	-0.161
-742.127	81.587	0.204	-0.222
-741.112	359.803	-0.145	-0.293
-740.098	463.578	0.214	0.481
-739.083	800.000	0.080	0.243
-738.069	-38.282	0.074	-0.039
-737.054	22.518	0.480	0.396
-736.039	-187.278	-0.560	-0.008
-735.025	701.316	0.256	0.678
-734.010	800.000	0.028	-0.120
-732.996	800.000	-0.121	-0.371
-731.981	-160.922	-0.155	-0.008
-730.966	-200.000	-0.037	0.551
-729.952	-200.000	-0.202	-0.906
-728.937	-86.259	-0.927	0.288
-727.923	189.153	0.194	0.292
-726.908	-114.048	-0.705	-0.138
-725.894	-200.000	-0.100	0.507
-724.879	-144.749	-0.508	0.047
-723.864	142.786	-0.342	-0.458
-722.850	174.008	-0.304	-0.443
-721.835	-200.000	0.015	-0.819
-720.821	-85.817	-0.970	-0.303
-719.806	-50.558	-0.411	0.195
-718.791	-104.685	0.593	0.138
-717.777	-31.691	-0.427	-0.241
-716.762	104.276	-0.460	-0.545
-715.748	-58.984	-0.545	-0.237
-714.733	-200.000	-0.105	-1.013
-713.718	-105.731	0.897	0.204
-712.704	-47.236	0.704	-0.345
-711.689	320.914	0.428	0.818
-710.675	-200.000	-0.082	-0.441
-709.660	219.767	0.256	0.412
-708.645	-23.553	0.240	-0.145
-707.631	800.000	0.140	-0.439
-706.616	14.190	0.339	-0.266
-705.602	800.000	-0.078	0.218
-704.587	77.616	-0.473	-0.506
-703.572	-103.754	0.407	-0.096
-702.558	800.000	0.273	-0.899
-701.543	-95.526	-0.198	-0.053
-700.529	73.766	-0.597	-0.630
-699.514	498.965	-0.111	0.257
-698.499	247.320	-0.152	0.258
-697.485	-76.269	-0.495	0.176
-696.470	406.722	-0.411	-0.873
-695.456	-200.000	0.105	-0.536
-694.441	15.792	0.329	0.261
-693.426	-200.000	0.011	-0.290
-692.412	77.822	-0.469	-0.502
-691.397	124.618	0.310	0.392
-690.383	-145.359	1.550	-0.141
-689.368	188.954	-0.306	0.461
-688.354	326.717	0.645	1.242
-687.339	-126.728	0.316	0.047
-686.324	110.195	-0.426	0.514
-685.310	-179.772	-0.270	-0.006
-684.295	800.000	0.162	0.507
-683.281	15.988	-0.271	0.214
-682.266	-7.257	0.668	-0.455
-681.251	-81.683	-0.506	-0.167
-680.237	-146.844	-0.496	0.043
-679.222	361.460	0.130	-0.262
-678.208	-151.889	-0.079	-0.006
-677.193	212.477	-0.388	-0.615
-676.178	644.782	0.134	0.343
-675.164	800.000	0.174	0.504
-674.149	-52.478	-0.798	0.371
-673.135	-200.000	0.083	-0.987
-672.120	-117.751	-0.619	-0.112
-671.105	327.945	0.298	0.575
-670.091	-132.010	0.350	-0.046
-669.076	207.510	-0.883	-1.385
-668.062	-64.856	-0.340	0.138
-667.047	377.168	-0.089	-0.183
-666.032	260.579	0.126	0.219
-665.018	237.170	0.391	0.651
-664.003	-8.169	-0.771	0.522
-662.989	-75.321	-0.733	-0.263
-661.974	-37.392	0.335	0.180
-660.959	428.931	0.312	-0.677
-659.945	-146.366	-0.724	-0.064
-658.930	-36.656	-0.386	0.209
-657.916	-111.797	0.502	0.102
-656.901	-7.578	-0.230	0.156
-655.886	-85.825	1.094	0.341
-654.872	800.000	-0.189	0.677
-653.857	8.723	-0.564	0.427
-652.843	-6.345	-0.730	-0.500
-651.828	123.666	-0.546	0.688
-650.814	225.561	0.231	-0.375
-649.799	-133.401	0.494	0.062
-648.784	295.609	0.229	0.421
-647.770	9.105	-0.112	-0.085
-646.755	-200.000	-0.092	0.835
-645.741	-200.000	-0.102	-0.848
-644.726	-153.956	-0.549	-0.038
-643.711	349.344	0.119	0.237
-642.697	-200.000	-0.146	0.807
-641.682	-200.000	0.025	-0.572
-640.668	-76.069	-0.602	-0.214
-639.653	-162.156	-0.765	0.038
-638.638	44.361	0.644	-0.593
-637.624	-25.573	0.717	0.425
-636.609	-91.566	-0.285	0.082
-635.595	-173.181	0.297	-0.009
-634.580	-134.545	0.346	-0.042
-633.565	-26.020	-0.681	-0.402
-632.551	800.000	-0.126	-0.517
-631.536	113.925	-0.044	0.054
-630.522	77.793	-0.316	0.338
-629.507	800.000	0.149	-0.552
-628.492	-59.426	-0.543	0.234
-627.478	-140.659	0.337	0.035
-626.463	129.844	0.239	-0.307
-625.449	-92.082	-0.309	-0.088
-624.434	212.427	-0.064	0.102
-623.419	-89.476	0.377	0.111
-622.405	169.550	-0.545	-0.782
-621.390	800.000	-0.179	-0.618
-620.376	-24.341	-0.173	-0.104
-619.361	-139.972	0.464	-0.049
-618.346	-115.076	0.515	0.098
-617.332	160.961	0.410	0.574
-616.317	-200.000	0.057	-0.674
-615.303	-73.908	0.600	-0.219
-614.288	82.597	0.187	-0.204
-613.273	249.334	-0.247	0.421
-612.259	280.981	0.531	0.953
-611.244	-48.574	-0.218	0.105
-610.230	29.966	-0.196	-0.167
-609.215	-200.000	0.007	-0.566
-608.201	57.175	0.122	-0.119
-607.186	800.000	0.048	0.155
-606.171	767.218	-0.274	0.748
-605.157	-71.314	-0.389	-0.146
-604.142	-126.751	0.996	0.148
-603.128	29.836	0.142	-0.122
-602.113	800.000	-0.165	0.598
-601.098	728.565	-0.401	1.072
-600.084	0.124	-0.323	-0.231
-599.069	-200.000	0.031	0.374
-598.055	372.225	0.414	-0.843
-597.040	116.213	-0.189	0.233
-596.025	-124.748	0.639	0.099
-595.011	800.000	0.192	-0.613
-593.996	76.156	-0.410	0.435
-592.982	-75.509	-0.534	-0.190
-591.967	-200.000	-0.263	1.263
-590.952	211.412	-0.499	-0.787
-589.938	653.193	-0.141	0.362
-588.923	522.895	0.173	-0.407
-587.909	-23.699	0.802	-0.482
-586.894	-200.000	0.043	-0.193
-585.879	-106.077	0.167	-0.038
-584.865	93.199	-0.209	-0.236
-583.850	-171.653	0.374	-0.012
-582.836	175.644	0.318	0.462
-581.821	-200.000	-0.004	0.125
-580.806	-4.754	0.651	-0.450
-579.792	10.714	-0.210	0.160
-578.777	-68.263	0.499	-0.194
-577.763	137.509	0.254	-0.332
-576.748	32.289	-0.684	-0.591
-575.733	125.655	0.371	-0.469
-574.719	140.475	0.181	0.239
-573.704	-200.000	0.038	0.311
-572.690	80.161	-0.130	-0.140
-571.675	68.634	0.632	0.649
-570.661	-131.462	-0.569	0.075
-569.646	-75.239	0.640	0.229
-568.631	-72.603	-0.717	-0.265
-567.617	-103.857	0.248	-0.058
-566.602	-88.049	-0.412	0.124
-565.588	800.000	-0.075	0.262
-564.573	201.732	-0.255	0.394
-563.558	163.129	0.237	-0.333
-562.544	76.666	-0.358	0.381
-561.529	179.968	0.556	0.816
-560.515	561.833	0.282	-0.683
-559.500	197.790	-0.155	0.238
-558.485	-200.000	0.009	-0.438
-557.471	30.976	0.320	-0.274
-556.456	378.906	0.091	0.187
-555.442	91.110	0.124	-0.140
-554.427	-153.772	-1.074	0.074
-553.412	800.000	-0.102	0.446
-552.398	-120.413	-0.756	-0.129
-551.383	350.211	0.259	-0.512
-550.369	-200.000	0.049	0.567
-549.354	316.963	-0.290	-0.548
-548.339	-128.798	1.002	-0.141
-547.325	-7.722	-0.514	0.347
-546.310	245.811	0.254	0.428
-545.296	-121.639	0.473	0.078
-544.281	-2.284	0.279	0.196
-543.266	163.015	0.329	0.462
-542.252	103.427	-0.121	-0.141
-541.237	-63.150	-0.481	-0.199
-540.223	12.584	0.607	-0.468
-539.208	-200.000	0.036	0.319
-538.193	-51.944	-0.500	-0.233
-537.179	-85.046	0.123	0.039
-536.164	-200.000	-0.036	-0.510
-535.150	57.952	-0.454	-0.444
-534.135	-200.000	-0.012	0.320
-533.121	-22.587	-0.402	-0.243
-532.106	-43.632	-0.345	0.174
-531.091	19.449	-0.995	-0.799
-530.077	40.799	-0.193	-0.174
-529.062	133.648	-0.344	0.445
-528.048	-47.976	-0.109	0.053
-527.033	296.826	-0.380	-0.697
-526.018	-27.747	-0.629	-0.364
-525.004	-138.341	1.364	-0.150
-523.989	-200.000	0.010	0.076
-522.975	-99.192	0.213	-0.054
-521.960	-81.901	0.919	-0.301
-520.945	-200.000	-0.157	-0.992
-519.931	-199.337	-0.629	-0.003
-518.916	-67.168	0.891	0.351
-517.902	800.000	-0.208	-0.685
-516.887	-82.150	0.333	0.108
-515.872	289.057	0.152	-0.275
-514.858	-68.935	0.522	-0.201
-513.843	346.888	-0.248	-0.488
-512.829	24.952	-0.159	-0.131
-511.814	-40.995	0.783	0.404
-510.799	-58.161	-0.651	-0.283
-509.785	21.494	-0.353	-0.287
-508.770	537.787	-0.346	-0.820
-507.756	800.000	0.161	-0.554
-506.741	800.000	-0.184	0.525
-505.726	-83.665	-0.132	0.042
-504.712	-102.287	-0.435	-0.104
-503.697	-51.261	0.801	0.375
-502.683	-119.424	0.680	-0.118
-501.668	60.260	0.681	-0.673
-500.653	800.000	-0.142	0.464
-499.639	-100.583	-0.165	0.041
-498.624	-200.000	0.011	-0.401
-497.610	-200.000	0.148	-1.096
-496.595	340.905	0.211	-0.412
-495.581	800.000	-0.062	0.219
-494.566	-30.634	-0.749	-0.423
-493.551	224.720	-0.368	0.595
-492.537	54.044	-0.893	-0.857
-491.522	-70.153	0.364	0.138
-490.508	21.718	0.416	0.338
-489.493	65.868	-0.239	0.242
-488.478	612.977	-0.161	0.402
-487.464	9.910	-0.474	0.359
-486.449	-200.000	-0.025	-0.306
-485.435	60.606	-0.411	0.406
-484.420	41.964	0.495	0.448
-483.405	800.000	0.143	0.459
-482.391	552.606	0.094	0.224
-481.376	475.664	-0.243	0.547
-480.362	-82.340	0.406	0.132
-479.347	-34.803	0.295	-0.161
-478.332	144.929	-0.496	-0.661
-477.318	-200.000	0.030	-0.408
-476.303	197.632	-0.572	-0.872
-475.289	-109.667	0.692	0.145
-474.274	251.924	0.059	-0.101
-473.259	-70.593	-0.778	0.293
-472.245	-27.448	1.098	-0.637
-471.230	29.286	0.215	0.182
-470.216	7.538	-0.472	0.352
-469.201	-95.994	0.408	-0.108
-468.186	-71.149	0.538	-0.202
-467.172	-130.292	-0.065	-0.009
-466.157	800.000	0.067	-0.231
-465.143	402.754	0.211	0.443
-464.128	-200.000	0.045	0.412
-463.113	-200.000	-0.198	-0.876
-462.099	-200.000	0.043	0.328
-461.084	800.000	-0.121	0.491
-460.070	-44.147	0.744	0.372
-459.055	455.452	0.241	0.533
-458.040	692.966	0.141	-0.369
-457.026	184.770	0.190	0.281
-456.011	-45.860	-0.174	-0.086
-454.997	-30.243	0.046	-0.026
-453.982	-200.000	0.072	-0.439
-452.968	-56.594	0.716	-0.316
-451.953	-200.000	0.093	-0.466
-450.938	-129.557	-0.675	-0.093
-449.924	800.000	0.117	0.408
-448.909	800.000	0.115	0.330
-447.895	-137.675	0.419	0.047
-446.880	-200.000	0.073	-0.427
-445.865	173.369	-0.302	0.434
-444.851	66.810	-0.451	0.458
-443.836	46.396	-0.719	0.664
-442.822	100.210	0.360	-0.416
-441.807	-138.229	0.244	-0.027
-440.792	360.890	0.247	0.494
-439.778	-144.407	0.709	0.066
-438.763	-63.644	0.695	0.284
-437.749	-93.010	-0.717	-0.199
-436.734	-78.627	-0.358	0.122
-435.719	-200.000	-0.115	-0.826
-434.705	-200.000	-0.026	-0.155
-433.690	-200.000	0.072	0.371
-432.676	50.600	0.236	0.222
-431.661	604.518	-0.374	0.926
-430.646	265.764	-0.194	0.337
-429.632	49.167	-0.194	0.182
-428.617	-200.000	0.012	-0.220
-427.603	35.033	0.446	0.388
-426.588	-26.716	-0.910	-0.530
-425.573	428.580	0.354	0.761
-424.559	-32.553	0.335	0.186
-423.544	-2.464	0.156	-0.109
-422.530	-99.978	0.441	-0.110
-421.515	-200.000	-0.021	-0.598
-420.500	147.172	0.232	-0.310
-419.486	-116.813	-0.312	-0.057
-418.471	63.763	0.644	0.644
-417.457	119.004	-0.117	-0.144
-416.442	191.889	0.225	0.338
-415.428	-200.000	0.006	0.315
-414.413	-158.478	-0.501	0.029
-413.398	-176.268	-0.451	0.012
-412.384	71.962	0.815	0.843
-411.369	-12.933	-0.235	0.152
-410.355	-200.000	-0.007	0.740
-409.340	61.851	0.542	-0.537
-408.325	101.637	-0.337	-0.390
-407.311	32.785	-0.458	-0.394
-406.296	-18.449	0.836	-0.519
-405.282	-155.595	-0.458	0.029
-404.267	800.000	-0.221	0.684
-403.252	800.000	0.075	-0.235
-402.238	133.562	-0.359	-0.462
-401.223	-149.480	0.609	-0.048
-400.209	-200.000	-0.096	0.702
-399.194	-88.011	0.512	-0.153
-398.179	-12.531	0.073	-0.047
-397.165	-17.775	-0.446	0.278
-396.150	112.375	0.271	0.326
-395.136	485.786	-0.195	-0.442
-394.121	-200.000	-0.059	-0.522
-393.106	-157.962	-0.407	-0.024
-392.092	-200.000	0.044	0.211
-391.077	183.738	-0.218	0.320
-390.063	541.469	0.125	0.296
-389.048	617.845	0.119	0.296
-388.033	170.379	-0.625	-0.890
-387.019	-200.000	0.033	-0.859
-386.004	400.637	0.154	0.321
-384.990	385.118	-0.103	0.212
-383.975	-200.000	-0.087	0.460
-382.960	407.219	-0.199	-0.419
-381.946	-78.843	-0.821	0.278
-380.931	-20.714	-0.318	-0.194
-379.917	187.955	0.299	-0.444
-378.902	-137.641	-0.629	-0.070
-377.888	-158.346	-0.844	0.049
-376.873	-104.291	-0.120	-0.028
-375.858	-200.000	-0.110	-0.510
-374.844	-200.000	-0.025	0.201
-373.829	285.453	0.370	0.663
-372.815	84.406	-0.571	0.620
-371.800	127.683	-0.415	0.524
-370.785	-124.498	-0.710	0.110
-369.771	277.893	0.361	0.638
-368.756	-200.000	0.000	0.023
-367.742	610.876	0.289	0.717
-366.727	-82.979	1.003	-0.321
-365.712	-36.283	0.158	0.085
-364.698	292.115	0.151	-0.272
-363.683	184.569	-0.098	0.144
-362.669	-152.204	0.385	-0.028
-361.654	106.939	0.597	-0.705
-360.639	-71.812	0.833	0.308
-359.625	107.126	-0.751	0.887
-358.610	100.513	0.339	0.391
-357.596	-35.088	0.363	0.197
-356.581	262.435	-0.815	1.405
-355.566	452.531	-0.401	-0.879
-354.552	-145.214	-0.381	0.034
-353.537	800.000	0.036	-0.098
-352.523	9.446	0.501	0.376
-351.508	81.264	-0.331	0.355
-350.493	-7.139	-0.439	-0.296
-349.479	-200.000	0.095	-0.452
-348.464	-63.513	0.333	-0.136
-347.450	-95.444	-0.406	-0.108
-346.435	60.585	0.138	-0.136
-345.420	82.098	0.246	0.265
-344.406	-36.972	0.418	-0.223
-343.391	454.256	0.377	0.828
-342.377	-200.000	0.086	0.424
-341.362	-106.821	0.585	0.129
-340.348	-95.034	-0.427	0.115
-339.333	800.000	-0.251	0.965
-338.318	23.335	0.637	0.520
-337.304	-200.000	-0.071	1.057
-336.289	-104.841	-0.622	0.142
-335.275	21.596	0.329	-0.265
-334.260	-17.354	-0.273	-0.171
-333.245	-105.615	0.107	-0.024
-332.231	800.000	-0.117	-0.412
-331.216	-24.101	0.617	-0.366
-330.202	104.791	-0.321	-0.375
-329.187	-200.000	0.181	-1.380
-328.172	-29.618	0.416	-0.236
-327.158	800.000	0.188	-0.587
-326.143	471.559	0.085	0.190
-325.129	-91.045	-0.390	0.111
-324.114	14.927	-0.558	0.433
-323.099	800.000	-0.057	-0.163
-322.085	223.606	0.132	0.212
-321.070	800.000	-0.136	-0.548
-320.056	154.112	-0.143	-0.194
-319.041	-10.082	-0.322	-0.212
-318.026	299.799	0.222	-0.406
-317.012	-200.000	-0.018	0.294
-315.997	206.188	-0.483	-0.744
-314.983	800.000	-0.208	0.782
-313.968	357.714	0.404	0.799
-312.953	124.282	0.098	-0.122
-311.939	-20.096	0.419	0.256
-310.924	527.971	-0.275	-0.643
-309.910	-10.449	0.355	-0.233
-308.895	595.303	-0.285	-0.699
-307.880	58.059	-0.510	-0.495
-306.866	-61.738	0.392	0.163
-305.851	-14.580	-0.135	0.086
-304.837	-117.804	-0.263	-0.047
-303.822	-39.836	-0.998	0.516
-302.807	339.781	-0.113	0.219
-301.793	800.000	0.062	-0.206
-300.778	74.253	-0.457	0.475
-299.764	94.051	0.424	-0.476
-298.749	280.181	0.350	-0.620
-297.735	-78.983	0.537	0.181
-296.720	784.504	0.330	-0.897
-295.705	-24.503	0.273	-0.161
-294.691	-119.636	0.428	-0.073
-293.676	274.775	-0.414	0.727
-292.662	-20.176	0.591	0.361
-291.647	232.226	-0.426	-0.693
-290.632	117.770	0.289	0.352
-289.618	-48.483	-0.402	0.192
-288.603	193.452	0.021	-0.031
-287.589	162.522	-0.139	-0.193
-286.574	306.965	-0.024	0.043
-285.559	-40.395	-0.106	-0.055
-284.545	289.746	0.277	-0.498
-283.530	405.668	-0.097	0.203
-282.516	-200.000	0.038	0.264
-281.501	800.000	-0.113	0.428
-280.486	80.282	0.443	-0.472
-279.472	800.000	-0.071	0.228
-278.457	37.277	0.572	-0.502
-277.443	71.783	0.562	0.578
-276.428	800.000	0.246	-0.852
-275.413	-106.094	-0.271	0.060
-274.399	469.878	-0.041	-0.091
-273.384	-22.413	0.469	-0.281
-272.370	108.003	0.324	-0.382
-271.355	-160.860	0.484	0.025
-270.340	-64.097	-0.395	-0.159
-269.326	90.074	0.200	-0.221
-268.311	180.836	-0.321	0.466
-267.297	20.645	-0.412	0.330
-266.282	-200.000	0.075	-0.407
-265.267	41.490	0.845	-0.756
-264.253	90.152	-0.884	-0.978
-263.238	-200.000	0.133	-0.622
-262.224	393.970	-0.298	0.615
-261.209	-64.113	0.557	0.225
-260.195	-59.185	-0.239	-0.102
-259.180	-51.630	-0.407	-0.188
-258.165	-200.000	0.095	0.499
-257.151	121.434	0.428	-0.527
-256.136	-52.594	-0.378	0.173
-255.122	-75.274	-0.582	0.205
-254.107	-61.227	-0.485	-0.202
-253.092	12.025	-0.438	-0.333
-252.078	-92.939	-0.408	0.113
-251.063	-200.000	-0.045	-0.334
-250.049	-200.000	-0.008	-0.061
-249.034	124.441	0.276	-0.344
-248.019	582.727	-0.149	0.361
-247.005	59.228	0.243	-0.237
-245.990	-67.106	-0.375	-0.146
-244.976	-200.000	0.072	0.407
-243.961	800.000	-0.056	0.174
-242.946	463.864	-0.411	0.909
-241.932	75.519	0.564	0.589
-240.917	-77.020	0.381	-0.132
-239.903	-166.989	-0.531	-0.021
-238.888	272.024	0.210	-0.366
-237.873	25.683	0.937	0.771
-236.859	125.699	-0.409	-0.510
-235.844	-163.387	-0.626	0.030
-234.830	-200.000	-0.026	-0.568
-233.815	-38.061	-0.424	0.223
-232.800	438.373	-0.112	-0.241
-231.786	-200.000	-0.025	-0.196
-230.771	-25.039	-0.290	0.170
-229.757	183.517	0.364	-0.531
-228.742	147.818	-0.400	0.532
-227.727	-150.147	0.779	0.060
-226.713	139.570	0.198	0.258
-225.698	-71.157	0.641	0.238
-224.684	800.000	-0.053	0.225
-223.669	-200.000	-0.049	0.377
-222.655	-54.849	-0.020	0.009
-221.640	-25.908	-0.555	0.323
-220.625	-126.718	0.184	0.027
-219.611	-169.597	0.523	-0.019
-218.596	71.151	-0.530	-0.542
-217.582	800.000	-0.254	-0.709
-216.567	97.489	-0.365	-0.414
-215.552	-13.850	0.313	0.200
-214.538	588.299	0.437	1.062
-213.523	77.799	0.461	0.485
-212.509	-34.495	-0.206	-0.112
-211.494	463.702	0.411	0.907
-210.479	-96.595	-0.693	0.180
-209.465	-200.000	0.023	-0.400
-208.450	800.000	-0.121	-0.378
-207.436	753.233	-0.214	0.570
-206.421	-92.553	-0.677	0.188
-205.406	2.440	0.732	0.523
-204.392	24.833	-0.531	-0.434
-203.377	308.283	0.263	0.484
-202.363	-19.713	-0.565	-0.345
-201.348	-156.750	0.547	0.033
-200.333	-200.000	-0.037	-0.162
-199.319	-112.097	-0.737	-0.146
-198.304	-200.000	0.022	0.701
-197.290	742.386	0.106	0.281
-196.275	-142.614	-0.213	-0.021
-195.260	131.870	-0.320	-0.407
-194.246	-119.146	0.360	-0.062
-193.231	266.804	-0.194	-0.335
-192.217	32.342	0.069	0.059
-191.202	216.351	-0.206	0.323
-190.187	0.827	0.113	-0.080
-189.173	-29.704	0.238	-0.134
-188.158	-76.362	0.299	-0.104
-187.144	-48.076	0.549	0.262
-186.129	64.387	0.342	-0.340
-185.114	-85.170	-0.592	-0.183
-184.100	-70.690	-0.598	0.223
-183.085	508.729	-0.097	-0.222
-182.071	-200.000	0.214	1.074
-181.056	-200.000	0.017	0.593
-180.042	-144.540	-0.470	0.043
-179.027	800.000	-0.065	0.209
-178.012	-200.000	-0.092	-0.675
-176.998	-115.452	0.830	0.154
-175.983	-88.674	1.161	0.340
-174.969	-175.392	-0.318	-0.009
-173.954	-200.000	-0.117	-0.866
-172.939	-83.229	-0.447	-0.141
-171.925	491.961	-0.195	0.441
-170.910	6.619	-0.558	-0.409
-169.896	-200.000	0.004	0.396
-168.881	36.237	-0.570	-0.495
-167.866	86.401	0.578	0.628
-166.852	109.843	-0.460	0.544
-165.837	-15.843	-0.352	0.221
-164.823	-56.148	-0.477	0.209
-163.808	-200.000	-0.005	-0.714
-162.793	-13.665	-0.487	-0.311
-161.779	288.911	0.144	0.257
-160.764	263.224	0.377	-0.645
-159.750	-200.000	0.069	-0.531
-158.735	-135.085	-0.665	-0.079
-157.720	-84.445	0.327	0.102
-156.706	-200.000	-0.100	-0.736
-155.691	12.009	-0.817	0.619
-154.677	-76.313	0.434	0.151
-153.662	43.858	0.555	0.500
-152.647	-79.847	0.566	0.187
-151.633	1.416	0.159	0.113
-150.618	-200.000	0.041	0.538
-149.604	-174.468	-0.846	-0.024
-148.589	-86.514	0.442	-0.134
-147.574	82.440	0.107	0.114
-146.560	331.694	0.228	0.434
-145.545	496.370	-0.191	0.432
-144.531	-200.000	0.247	0.000
-143.516	-200.000	-0.085	0.450
-142.502	180.575	0.539	0.779
-141.487	436.329	-0.397	0.851
-140.472	115.338	-0.308	0.370
-139.458	216.251	0.165	0.258
-138.443	505.573	-0.178	0.406
-137.429	-162.297	-0.441	-0.022
-136.414	-55.609	1.374	-0.605
-135.399	518.944	0.053	0.122
-134.385	-128.008	0.548	0.077
-133.370	-5.140	-0.536	-0.363
-132.356	-200.000	-0.134	-0.744
-131.341	-200.000	-0.014	0.137
-130.326	-6.001	-0.360	0.242
-129.312	-2.339	0.229	-0.158
-128.297	-200.000	0.038	0.255
-127.283	-200.000	-0.103	-0.685
-126.268	-144.918	-0.531	-0.048
-125.253	-21.112	-0.221	0.133
-124.239	3.038	0.654	0.467
-123.224	-73.548	0.354	-0.127
-122.210	151.770	-0.237	0.317
-121.195	-63.305	-0.374	0.152
