DTS Sentinel unit serial number:	SN413079Multiplexer serial number:	ORYXHardware model number:	OX4-SRSoftware version number:	ORYX F/W v4.00 Oryx Data Collector v3.7.2.0data status	okinstallation	princeton_trtdifferential loss correction	single-endedforward channel	channel 2reverse channel	N/Adate	2019/09/18time	12:35:35forward acquisition time	60.00reverse acquisition time	0.00gamma	496.2192k internal	0.2323k external	0.2323temperature offset calibration	0.9989default loss term (dB/km)	0.3790temperature slope calibration	1.0000multiplexer offset coefficient	1.0000multiplexer slope coefficient	1.0000fibre end	0.00T internal ref (°C)	32.42T ext. ref 1 (°C)	0.53T ext. ref 2 (°C)	30.42length (m)	temperature (°C)	Stokes	anti-Stokes-747.200	800.000	-0.015	0.043
-746.185	-200.000	0.018	0.254
-745.171	17.999	0.171	-0.138
-744.156	-200.000	0.001	0.244
-743.142	-17.998	0.236	-0.149
-742.127	-69.827	-0.380	-0.147
-741.112	314.716	0.154	-0.292
-740.098	-60.315	-0.033	-0.014
-739.083	373.139	0.044	0.091
-738.069	266.713	0.018	0.031
-737.054	15.479	0.243	0.193
-736.039	166.378	-0.173	-0.247
-735.025	371.959	0.104	0.213
-734.010	765.593	-0.090	0.246
-732.996	-200.000	-0.010	0.131
-731.981	-105.476	-0.256	0.059
-730.966	-119.198	-0.192	-0.034
-729.952	800.000	-0.026	-0.104
-728.937	-168.673	-0.208	-0.008
-727.923	-180.100	0.248	-0.005
-726.908	-200.000	-0.031	-0.275
-725.894	-32.567	-0.140	0.079
-724.879	84.570	-0.169	-0.186
-723.864	579.535	-0.071	-0.174
-722.850	-200.000	0.017	-0.248
-721.835	-27.951	0.355	-0.207
-720.821	-138.894	0.135	0.015
-719.806	128.463	0.134	-0.173
-718.791	-93.338	-0.283	-0.079
-717.777	145.306	0.223	0.301
-716.762	-200.000	0.037	0.163
-715.748	124.128	-0.124	0.157
-714.733	-81.424	0.294	-0.098
-713.718	800.000	0.034	0.110
-712.704	93.921	-0.084	0.097
-711.689	-25.710	0.076	-0.045
-710.675	279.835	0.068	0.123
-709.660	-125.588	0.403	0.062
-708.645	224.456	0.080	-0.130
-707.631	-137.471	-0.070	-0.008
-706.616	-58.796	0.339	-0.148
-705.602	-130.880	-0.377	0.051
-704.587	65.323	-0.081	-0.082
-703.572	-79.752	0.274	-0.093
-702.558	-200.000	-0.023	0.145
-701.543	-200.000	-0.045	-0.250
-700.529	334.876	-0.120	-0.235
-699.514	376.994	-0.084	0.172
-698.499	-200.000	-0.032	-0.253
-697.485	576.397	0.089	-0.220
-696.470	67.096	-0.123	-0.127
-695.456	-29.865	-0.199	0.114
-694.441	50.845	-0.017	-0.016
-693.426	-200.000	-0.018	-0.175
-692.412	555.276	-0.094	-0.228
-691.397	36.018	0.137	0.122
-690.383	-200.000	0.009	0.199
-689.368	-126.926	0.136	0.020
-688.354	293.784	-0.200	0.368
-687.339	400.004	0.127	0.267
-686.324	594.940	-0.142	-0.354
-685.310	83.462	-0.272	0.299
-684.295	-200.000	-0.049	0.381
-683.281	-200.000	0.014	0.122
-682.266	-25.792	-0.359	-0.213
-681.251	-200.000	-0.014	-0.116
-680.237	-112.207	-0.226	-0.046
-679.222	158.486	0.054	-0.076
-678.208	-64.347	-0.170	0.070
-677.193	800.000	0.067	0.294
-676.178	-200.000	-0.024	-0.403
-675.164	244.756	0.126	-0.214
-674.149	702.233	-0.058	0.153
-673.135	119.820	0.178	-0.222
-672.120	-200.000	0.000	0.199
-671.105	190.463	-0.086	-0.131
-670.091	-74.461	0.108	0.039
-669.076	-132.503	-0.455	0.059
-668.062	-200.000	-0.038	0.185
-667.047	-80.530	0.265	0.089
-666.032	445.775	-0.061	0.135
-665.018	-200.000	-0.046	0.315
-664.003	503.351	-0.044	-0.102
-662.989	-130.832	0.376	-0.051
-661.974	-200.000	0.053	-0.320
-660.959	17.607	-0.319	-0.255
-659.945	57.725	-0.288	-0.284
-658.930	-200.000	0.012	0.133
-657.916	-50.434	-0.334	-0.159
-656.901	453.899	0.039	-0.086
-655.886	48.686	-0.306	-0.289
-654.872	137.963	-0.158	0.209
-653.857	-200.000	0.005	-0.100
-652.843	-200.000	0.032	-0.223
-651.828	315.461	0.121	0.229
-650.814	800.000	-0.065	0.243
-649.799	-84.714	0.256	0.081
-648.784	186.155	0.094	-0.141
-647.770	800.000	0.018	-0.070
-646.755	-67.058	-0.236	-0.094
-645.741	-39.811	-0.293	0.154
-644.726	-140.927	-0.163	-0.017
-643.711	-144.189	0.195	0.018
-642.697	-76.561	-0.205	0.072
-641.682	-200.000	-0.022	0.257
-640.668	19.506	-0.275	-0.223
-639.653	363.872	0.185	-0.375
-638.638	-117.494	0.202	-0.037
-637.624	-200.000	-0.005	-0.283
-636.609	-170.075	0.171	0.006
-635.595	-200.000	0.055	-0.284
-634.580	-19.012	-0.112	-0.070
-633.565	800.000	0.083	0.269
-632.551	-200.000	-0.007	-0.072
-631.536	-200.000	-0.040	-0.347
-630.522	-139.161	-0.285	0.031
-629.507	166.511	-0.239	-0.340
-628.492	-74.965	-0.125	-0.045
-627.478	-200.000	0.029	-0.373
-626.463	-200.000	0.004	0.199
-625.449	471.243	0.007	0.017
-624.434	18.709	0.221	-0.178
-623.419	11.160	0.245	0.188
-622.405	-200.000	-0.076	-0.544
-621.390	-60.981	-0.157	-0.067
-620.376	800.000	0.060	0.208
-619.361	-200.000	-0.050	-0.286
-618.346	-117.606	-0.136	-0.025
-617.332	-200.000	0.017	0.086
-616.317	800.000	-0.065	-0.226
-615.303	246.255	0.134	-0.227
-614.288	-57.095	-0.252	-0.112
-613.273	-2.465	0.172	-0.121
-612.259	38.463	-0.137	0.122
-611.244	-200.000	0.021	-0.204
-610.230	214.945	0.133	0.211
-609.215	-11.197	-0.320	0.212
-608.201	88.702	0.159	0.178
-607.186	64.394	-0.122	-0.123
-606.171	-200.000	0.034	-0.205
-605.157	50.027	-0.345	-0.327
-604.142	315.206	0.068	0.129
-603.128	-64.350	-0.253	-0.103
-602.113	-45.568	0.193	0.096
-601.098	-200.000	0.009	-0.076
-600.084	800.000	-0.047	0.173
-599.069	-32.573	0.211	0.118
-598.055	800.000	-0.074	-0.238
-597.040	97.693	-0.250	-0.288
-596.025	-113.428	0.520	-0.102
-595.011	-200.000	-0.005	0.295
-593.996	-57.749	-0.290	-0.128
-592.982	-57.128	-0.188	0.083
-591.967	-200.000	0.033	0.220
-590.952	-5.469	0.108	0.074
-589.938	52.309	0.115	-0.110
-588.923	-200.000	-0.007	0.081
-587.909	195.815	-0.059	-0.090
-586.894	96.100	0.071	-0.081
-585.879	17.865	0.048	0.038
-584.865	145.506	0.129	-0.173
-583.850	113.127	-0.115	-0.140
-582.836	4.352	-0.241	-0.178
-581.821	93.299	-0.259	0.294
-580.806	170.061	-0.180	0.259
-579.792	643.560	0.163	0.417
-578.777	-66.683	-0.229	0.091
-577.763	800.000	-0.027	-0.087
-576.748	-139.397	0.228	-0.025
-575.733	-23.830	-0.113	0.068
-574.719	-105.704	-0.095	-0.021
-573.704	165.281	0.142	-0.202
-572.690	-200.000	0.007	-0.112
-571.675	-200.000	-0.006	0.086
-570.661	-27.561	0.230	0.134
-569.646	-51.415	0.139	-0.065
-568.631	-99.981	-0.249	0.062
-567.617	48.055	0.027	0.025
-566.602	309.240	0.154	-0.288
-565.588	165.890	-0.210	0.298
-564.573	-116.460	0.127	-0.024
-563.558	-200.000	-0.034	0.208
-562.544	17.831	0.035	0.028
-561.529	-126.201	0.316	-0.047
-560.515	142.295	0.243	0.324
-559.500	800.000	0.038	-0.109
-558.485	800.000	0.046	-0.128
-557.471	-134.003	-0.077	0.010
-556.456	51.471	-0.048	0.045
-555.442	12.539	-0.144	-0.111
-554.427	-23.589	0.246	-0.148
-553.412	-105.029	0.269	-0.062
-552.398	-200.000	-0.006	0.102
-551.383	101.212	-0.222	-0.259
-550.369	-34.938	0.170	-0.093
-549.354	-200.000	-0.020	-0.251
-548.339	347.122	-0.066	-0.130
-547.325	-200.000	-0.013	-0.198
-546.310	78.620	-0.191	0.204
-545.296	-200.000	-0.002	0.341
-544.281	571.767	0.005	-0.013
-543.266	-108.642	0.123	-0.026
-542.252	-35.811	-0.150	0.081
-541.237	800.000	-0.046	-0.141
-540.223	173.934	-0.115	-0.166
-539.208	402.989	-0.137	-0.288
-538.193	86.587	0.169	-0.186
-537.179	-200.000	-0.087	-0.422
-536.164	-127.208	-0.083	-0.012
-535.150	337.521	0.158	0.308
-534.135	104.501	0.143	0.169
-533.121	800.000	-0.039	-0.168
-532.106	109.609	-0.325	0.390
-531.091	44.542	0.154	-0.142
-530.077	-101.935	-0.219	0.053
-529.062	-156.283	0.145	0.009
-528.048	-70.951	-0.330	0.124
-527.033	-200.000	0.013	0.230
-526.018	-18.722	0.152	0.095
-525.004	-39.577	-0.416	0.218
-523.989	-52.507	0.439	-0.203
-522.975	133.170	-0.244	0.316
-521.960	-197.562	-0.107	0.001
-520.945	-117.787	0.215	0.039
-519.931	-200.000	0.057	-0.339
-518.916	-37.306	0.176	-0.094
-517.902	800.000	0.049	-0.205
-516.887	-200.000	0.004	0.081
-515.872	-200.000	0.036	0.231
-514.858	-162.371	0.159	0.008
-513.843	401.592	-0.125	-0.263
-512.829	-200.000	-0.007	0.056
-511.814	70.552	0.398	0.412
-510.799	-28.751	-0.226	-0.130
-509.785	-200.000	-0.041	-0.210
-508.770	800.000	-0.019	-0.073
-507.756	-23.472	0.162	-0.098
-506.741	-22.757	-0.367	0.222
-505.726	-64.549	-0.208	0.085
-504.712	494.487	0.061	-0.140
-503.697	-40.018	-0.270	0.141
-502.683	-152.809	-0.275	0.019
-501.668	-59.940	-0.223	0.096
-500.653	-77.311	0.376	0.131
-499.639	80.823	-0.105	-0.113
-498.624	-81.091	0.332	-0.110
-497.610	-145.406	0.172	0.016
-496.595	-71.555	0.112	0.042
-495.581	140.807	0.224	0.296
-494.566	-134.425	-0.063	0.008
-493.551	-200.000	0.074	-0.358
-492.537	195.345	0.133	-0.202
-491.522	-53.022	0.302	-0.139
-490.508	-26.821	0.184	-0.107
-489.493	48.216	-0.274	-0.256
-488.478	-200.000	0.063	-0.284
-487.464	27.419	0.163	-0.137
-486.449	73.063	0.232	-0.242
-485.435	-39.634	0.198	-0.103
-484.420	195.600	0.239	0.363
-483.405	-2.189	-0.200	0.140
-482.391	-200.000	-0.071	0.498
-481.376	-169.712	0.651	-0.024
-480.362	800.000	0.055	-0.166
-479.347	-98.519	-0.210	0.054
-478.332	-118.332	-0.077	0.014
-477.318	377.873	-0.055	0.112
-476.303	211.217	0.128	-0.202
-475.289	-200.000	0.020	-0.144
-474.274	-47.460	0.126	-0.061
-473.259	-51.535	-0.117	0.055
-472.245	687.334	0.068	-0.178
-471.230	25.827	-0.215	-0.179
-470.216	-70.642	0.148	-0.056
-469.201	-170.894	0.059	-0.002
-468.186	-200.000	-0.039	0.246
-467.172	564.822	-0.174	0.422
-466.157	663.481	-0.088	-0.227
-465.143	113.828	0.065	-0.078
-464.128	38.523	0.055	-0.049
-463.113	-200.000	-0.008	0.318
-462.099	-108.562	0.100	0.022
-461.084	-57.863	0.402	-0.176
-460.070	-97.682	0.226	0.058
-459.055	22.723	-0.150	-0.123
-458.040	254.992	-0.076	-0.131
-457.026	800.000	0.033	0.130
-456.011	-122.043	0.262	0.043
-454.997	-200.000	0.019	0.088
-453.982	-101.691	0.211	-0.051
-452.968	83.634	-0.143	0.156
-451.953	338.358	-0.106	0.207
-450.938	54.204	-0.054	-0.052
-449.924	-28.488	-0.033	-0.019
-448.909	-6.918	-0.076	0.051
-447.895	-50.792	0.078	-0.037
-446.880	-60.930	-0.139	-0.059
-445.865	118.158	-0.131	-0.161
-444.851	-200.000	0.001	-0.176
-443.836	-92.016	-0.315	0.089
-442.822	-200.000	-0.017	0.140
-441.807	46.114	0.079	0.073
-440.792	427.246	0.036	-0.077
-439.778	-200.000	0.013	0.177
-438.763	-8.547	0.135	-0.090
-437.749	-104.358	-0.238	0.055
-436.734	-200.000	-0.005	-0.027
-435.719	319.129	0.124	-0.234
-434.705	355.422	0.041	-0.081
-433.690	175.919	0.112	-0.162
-432.676	37.658	-0.046	-0.040
-431.661	239.903	0.181	-0.301
-430.646	83.658	0.100	0.109
-429.632	-43.527	0.163	0.082
-428.617	325.118	-0.115	-0.219
-427.603	-181.257	-0.194	-0.004
-426.588	-200.000	0.015	0.167
-425.573	-66.245	-0.163	0.065
-424.559	206.938	0.033	0.051
-423.544	-149.479	0.140	-0.011
-422.530	-145.562	-0.142	-0.013
-421.515	44.699	0.162	0.148
-420.500	143.549	0.044	-0.058
-419.486	-120.439	-0.087	-0.015
-418.471	-200.000	0.011	0.096
-417.457	58.463	0.116	-0.113
-416.442	-44.947	0.030	0.015
-415.428	-108.502	-0.234	-0.050
-414.413	-200.000	-0.031	0.287
-413.398	-121.620	0.263	0.043
-412.384	-159.432	-0.143	-0.008
-411.369	487.664	-0.059	0.134
-410.355	-63.196	-0.297	0.122
-409.340	-200.000	0.020	0.157
-408.325	87.140	0.203	-0.224
-407.311	-133.892	0.132	-0.016
-406.296	-42.552	-0.166	-0.084
-405.282	800.000	0.013	0.041
-404.267	-200.000	0.075	-0.436
-403.252	800.000	0.044	-0.122
-402.238	-200.000	-0.006	-0.213
-401.223	25.199	-0.174	-0.144
-400.209	-90.024	-0.134	0.039
-399.194	207.150	-0.129	0.200
-398.179	-36.221	-0.235	-0.127
-397.165	-200.000	0.084	-0.451
-396.150	664.803	-0.120	0.308
-395.136	-145.470	-0.112	-0.010
-394.121	348.509	0.119	0.233
-393.106	224.282	-0.133	-0.214
-392.092	-174.046	0.267	-0.008
-391.077	-200.000	-0.034	-0.230
-390.063	-62.679	-0.089	-0.037
-389.048	-43.358	0.081	0.041
-388.033	-200.000	-0.042	0.341
-387.019	800.000	-0.108	0.314
-386.004	493.284	0.043	-0.099
-384.990	-200.000	-0.026	0.249
-383.975	-102.332	-0.070	0.017
-382.960	123.381	0.109	0.136
-381.946	204.243	-0.057	0.087
-380.931	-200.000	0.003	-0.031
-379.917	-165.894	-0.061	0.003
-378.902	-66.612	0.231	0.091
-377.888	98.711	-0.119	0.136
-376.873	-151.863	0.205	-0.015
-375.858	-13.296	0.063	0.041
-374.844	-200.000	-0.047	-0.304
-373.829	-37.123	0.209	0.112
-372.815	-200.000	0.003	0.176
-371.800	-200.000	0.010	0.075
-370.785	-49.273	0.169	0.080
-369.771	-200.000	-0.012	0.199
-368.756	-98.696	-0.117	-0.030
-367.742	-99.708	0.174	0.043
-366.727	-80.554	-0.104	0.034
-365.712	-200.000	0.011	0.398
-364.698	-200.000	0.018	-0.147
-363.683	32.797	-0.145	-0.124
-362.669	-106.514	-0.088	0.019
-361.654	-5.510	0.194	0.132
-360.639	-200.000	-0.006	0.152
-359.625	255.559	-0.110	0.187
-358.610	-162.335	0.113	-0.006
-357.596	-84.909	0.070	-0.022
-356.581	555.573	-0.161	0.386
-355.566	-77.107	0.229	-0.079
-354.552	111.945	-0.106	-0.128
-353.537	42.808	-0.076	0.069
-352.523	96.527	-0.208	0.236
-351.508	-139.423	-0.411	0.044
-350.493	-99.713	0.290	-0.072
-349.479	800.000	-0.062	0.180
-348.464	-200.000	0.431	0.001
-347.450	-142.882	-0.153	-0.015
-346.435	610.003	0.151	0.376
-345.420	-200.000	-0.003	-0.203
-344.406	-67.750	0.102	0.040
-343.391	172.412	0.057	-0.082
-342.377	-200.000	-0.052	0.399
-341.362	85.089	-0.034	0.037
-340.348	-200.000	0.020	0.182
-339.333	427.077	0.078	-0.168
-338.318	369.137	-0.224	0.452
-337.304	800.000	-0.124	0.472
-336.289	-84.263	-0.225	-0.071
-335.275	-56.078	0.292	0.130
-334.260	-200.000	0.034	-0.330
-333.245	-200.000	-0.045	-0.295
-332.231	69.761	-0.230	0.235
-331.216	-200.000	0.021	0.141
-330.202	4.363	0.199	0.145
-329.187	112.383	0.155	0.187
-328.172	141.621	0.097	0.127
-327.158	421.046	-0.105	0.223
-326.143	800.000	-0.085	0.250
-325.129	162.550	0.071	0.098
-324.114	-200.000	0.253	0.000
-323.099	258.946	-0.261	-0.447
-322.085	-12.221	0.317	0.206
-321.070	193.579	-0.091	-0.136
-320.056	130.461	0.091	-0.116
-319.041	-130.169	-0.082	-0.011
-318.026	-74.558	0.307	0.110
-317.012	-74.774	-0.051	-0.018
-315.997	506.965	0.041	-0.095
-314.983	-80.714	-0.226	0.075
-313.968	303.682	0.095	0.175
-312.953	-23.459	0.404	-0.241
-311.939	-73.913	-0.182	0.066
-310.924	148.998	0.042	0.056
-309.910	800.000	0.026	0.103
-308.895	-156.962	0.299	-0.018
-307.880	77.014	-0.126	-0.133
-306.866	-85.776	0.109	0.033
-305.851	12.552	-0.186	-0.142
-304.837	-146.835	0.249	-0.021
-303.822	367.129	0.060	-0.121
-302.807	107.694	0.056	0.067
-301.793	20.394	0.202	0.162
-300.778	673.157	-0.094	0.242
-299.764	49.831	-0.039	-0.036
-298.749	-116.584	-0.373	0.068
-297.735	-200.000	0.049	-0.304
-296.720	-200.000	0.026	0.119
-295.705	-39.459	-0.630	0.327
-294.691	87.889	0.184	-0.203
-293.676	222.416	-0.187	0.298
-292.662	800.000	0.094	0.260
-291.647	305.986	0.065	-0.120
-290.632	-114.399	-0.138	0.026
-289.618	-195.045	0.230	-0.002
-288.603	-200.000	0.036	0.232
-287.589	-48.702	-0.359	0.171
-286.574	-61.080	0.378	-0.158
-285.559	135.003	-0.163	0.210
-284.545	-149.634	0.208	-0.016
-283.530	215.395	-0.142	0.223
-282.516	800.000	-0.107	0.300
-281.501	800.000	-0.090	-0.285
-280.486	428.641	0.014	0.031
-279.472	304.065	-0.140	0.258
-278.457	-112.514	0.462	-0.091
-277.443	83.930	0.157	-0.169
-276.428	800.000	0.084	-0.292
-275.413	80.563	0.059	-0.063
-274.399	-102.673	-0.032	-0.008
-273.384	-127.829	0.131	0.019
-272.370	800.000	0.075	0.220
-271.355	-85.222	-0.187	0.058
-270.340	-64.542	-0.073	-0.029
-269.326	134.651	0.132	-0.170
-268.311	84.240	-0.207	-0.225
-267.297	800.000	-0.083	-0.268
-266.282	-200.000	0.003	0.138
-265.267	16.447	-0.270	0.211
-264.253	-97.643	0.111	-0.029
-263.238	-200.000	-0.027	-0.121
-262.224	11.675	-0.053	-0.040
-261.209	312.200	0.042	0.079
-260.195	-23.352	-0.140	-0.083
-259.180	800.000	0.014	-0.045
-258.165	-44.108	-0.108	-0.054
-257.151	88.461	0.077	-0.085
-256.136	800.000	-0.021	-0.067
-255.122	6.048	0.055	0.041
-254.107	230.830	0.106	0.172
-253.092	375.794	-0.078	-0.158
-252.078	800.000	0.083	-0.244
-251.063	-200.000	-0.058	-0.309
-250.049	-102.395	0.384	0.091
-249.034	55.488	-0.067	-0.065
-248.019	-83.630	0.223	0.071
-247.005	-141.805	0.477	-0.047
-245.990	800.000	0.203	0.582
-244.976	140.766	-0.050	0.065
-243.961	43.394	-0.355	0.321
-242.946	126.919	-0.159	-0.200
-241.932	-100.624	0.237	-0.058
-240.917	-129.835	-0.354	0.048
-239.903	-80.427	0.103	0.034
-238.888	-102.889	-0.125	-0.029
-237.873	-25.802	-0.251	0.146
-236.859	88.062	-0.087	-0.095
-235.844	67.275	0.215	-0.217
-234.830	800.000	0.020	-0.069
-233.815	177.522	0.192	-0.276
-232.800	-200.000	-0.027	0.163
-231.786	-95.367	0.146	0.039
-230.771	-100.809	-0.277	-0.068
-229.757	-140.306	0.263	-0.027
-228.742	-106.116	0.164	0.037
-227.727	373.209	0.094	-0.189
-226.713	-200.000	-0.034	-0.292
-225.698	-200.000	0.027	-0.168
-224.684	-200.000	0.021	-0.200
-223.669	268.211	-0.099	-0.171
-222.655	-77.451	-0.297	-0.102
-221.640	20.532	-0.269	-0.215
-220.625	800.000	0.079	-0.287
-219.611	-27.098	0.067	-0.039
-218.596	662.063	-0.045	0.114
-217.582	430.238	-0.091	-0.194
-216.567	286.959	-0.150	0.268
-215.552	800.000	0.066	0.196
-214.538	-106.464	0.153	0.034
-213.523	96.563	-0.208	-0.236
-212.509	-129.007	0.199	0.028
-211.494	-116.907	0.151	0.027
-210.479	434.640	-0.047	0.101
-209.465	-68.874	-0.385	-0.147
-208.450	6.646	0.133	-0.098
-207.436	-114.447	-0.338	-0.064
-206.421	-200.000	-0.077	0.420
-205.406	249.495	-0.048	0.081
-204.392	-200.000	-0.013	-0.150
-203.377	-200.000	0.010	-0.074
-202.363	168.578	0.160	-0.225
-201.348	123.885	-0.241	-0.299
-200.333	800.000	-0.146	-0.424
-199.319	140.324	-0.146	0.190
-198.304	-83.573	-0.175	0.055
-197.290	-20.877	-0.038	-0.023
-196.275	-200.000	-0.034	-0.274
-195.260	-110.371	-0.196	-0.040
-194.246	-58.857	-0.179	-0.077
-193.231	-81.124	0.013	-0.004
-192.217	187.253	-0.336	0.495
-191.202	135.787	0.091	-0.117
-190.187	280.385	0.044	0.078
-189.173	-86.341	-0.245	0.075
-188.158	800.000	0.055	0.154
-187.144	-200.000	0.003	-0.019
-186.129	554.946	0.092	0.218
-185.114	-102.221	-0.107	0.025
-184.100	800.000	-0.081	-0.274
-183.085	10.715	-0.208	-0.157
-182.071	800.000	0.007	-0.023
-181.056	-72.289	0.338	0.124
-180.042	-96.729	0.350	-0.091
-179.027	109.659	0.074	0.087
-178.012	58.901	-0.166	0.161
-176.998	141.309	0.293	0.383
-175.983	116.943	0.058	-0.070
-174.969	-200.000	0.039	0.235
-173.954	-73.916	-0.305	-0.110
-172.939	-142.852	0.155	-0.015
-171.925	285.761	-0.055	0.098
-170.910	800.000	0.059	0.215
-169.896	-200.000	-0.009	-0.079
-168.881	160.982	-0.174	-0.240
-167.866	165.591	0.228	0.318
-166.852	294.773	0.103	-0.186
-165.837	383.852	0.109	0.221
-164.823	285.518	-0.192	0.342
-163.808	72.182	-0.113	-0.116
-162.793	-199.820	-0.285	-0.001
-161.779	7.012	-0.090	-0.066
-160.764	-91.249	-0.169	0.048
-159.750	800.000	0.068	-0.253
-158.735	-135.971	0.107	-0.012
-157.720	74.851	0.184	0.191
-156.706	178.554	0.128	0.185
-155.691	-24.225	-0.214	-0.126
-154.677	18.789	-0.169	0.133
-153.662	105.331	0.161	-0.187
-152.647	-25.407	0.136	0.079
-151.633	382.821	0.097	0.196
-150.618	-200.000	-0.016	-0.168
-149.604	-96.438	0.266	0.069
-148.589	562.357	0.178	-0.425
-147.574	293.152	-0.022	-0.040
-146.560	-200.000	-0.038	-0.343
-145.545	209.915	-0.147	-0.228
-144.531	-135.684	0.272	-0.032
-143.516	-79.704	0.237	-0.079
-142.502	-37.328	-0.107	0.057
-141.487	-130.704	-0.397	0.053
-140.472	-200.000	0.033	-0.211
-139.458	800.000	0.057	-0.221
-138.443	-49.434	-0.126	-0.059
-137.429	800.000	-0.057	0.162
-136.414	175.709	0.184	-0.263
-135.399	75.991	-0.039	-0.041
-134.385	379.406	0.059	0.119
-133.370	-26.764	0.063	0.036
-132.356	36.784	0.322	0.280
-131.341	67.536	0.329	-0.331
-130.326	121.970	-0.071	-0.088
-129.312	7.896	-0.079	0.059
-128.297	-172.265	-0.125	-0.004
-127.283	-117.291	-0.227	0.041
-126.268	800.000	-0.031	0.093
-125.253	606.568	0.030	0.074
-124.239	-200.000	0.015	-0.155
-123.224	41.425	0.132	-0.117
