DTS Sentinel unit serial number:	SN413079Multiplexer serial number:	ORYXHardware model number:	OX4-SRSoftware version number:	ORYX F/W v4.00 Oryx Data Collector v3.7.2.0data status	okinstallation	princeton_trtdifferential loss correction	single-endedforward channel	channel 2reverse channel	N/Adate	2019/09/11time	12:01:11forward acquisition time	60.00reverse acquisition time	0.00gamma	496.2192k internal	0.2299k external	0.2299temperature offset calibration	0.9970default loss term (dB/km)	0.3790temperature slope calibration	1.0000multiplexer offset coefficient	1.0000multiplexer slope coefficient	1.0000fibre end	0.00T internal ref (°C)	39.28T ext. ref 1 (°C)	0.22T ext. ref 2 (°C)	37.05length (m)	temperature (°C)	Stokes	anti-Stokes-747.200	-121.838	0.475	-0.080
-746.185	243.161	0.055	-0.094
-745.171	800.000	-0.032	-0.092
-744.156	2.167	-0.119	0.087
-743.142	-132.973	-0.190	-0.025
-742.127	119.689	-0.174	0.219
-741.112	260.441	-0.135	0.238
-740.098	122.193	-0.187	0.239
-739.083	-68.055	0.186	-0.074
-738.069	-90.748	0.084	-0.025
-737.054	-21.931	0.056	0.035
-736.039	5.189	0.275	-0.207
-735.025	99.983	0.297	0.351
-734.010	800.000	0.082	0.305
-732.996	70.058	0.106	-0.112
-731.981	-139.183	0.253	-0.028
-730.966	-200.000	-0.035	-0.179
-729.952	415.264	-0.293	-0.636
-728.937	-122.548	-0.054	-0.009
-727.923	-94.839	0.130	0.036
-726.908	-200.000	0.012	-0.186
-725.894	-67.107	-0.187	0.075
-724.879	800.000	0.051	-0.209
-723.864	-200.000	-0.017	-0.113
-722.850	675.596	-0.079	0.210
-721.835	-69.871	-0.152	-0.059
-720.821	310.897	0.043	-0.083
-719.806	-144.298	-0.343	0.033
-718.791	2.966	0.129	-0.095
-717.777	-61.411	0.162	-0.070
-716.762	-36.121	0.168	-0.093
-715.748	-83.723	-0.531	-0.173
-714.733	-3.200	0.271	-0.193
-713.718	-184.249	0.234	0.004
-712.704	-112.694	0.175	0.035
-711.689	-180.326	-0.157	-0.003
-710.675	-200.000	0.017	-0.296
-709.660	-200.000	0.012	0.189
-708.645	80.302	0.085	-0.094
-707.631	148.683	-0.126	-0.174
-706.616	251.791	0.064	-0.111
-705.602	-77.955	-0.384	-0.135
-704.587	-12.098	-0.050	0.034
-703.572	-29.008	-0.151	-0.088
-702.558	800.000	-0.103	0.438
-701.543	-155.918	-0.194	0.013
-700.529	-79.699	-0.116	-0.040
-699.514	26.548	0.274	-0.233
-698.499	151.646	-0.134	0.185
-697.485	-200.000	0.005	0.134
-696.470	42.559	0.154	0.143
-695.456	-127.902	0.385	-0.056
-694.441	59.684	0.234	-0.235
-693.426	-114.095	-0.286	-0.056
-692.412	302.407	0.082	0.154
-691.397	800.000	-0.108	-0.454
-690.383	-102.561	0.189	-0.046
-689.368	382.969	0.150	-0.313
-688.354	-7.353	-0.016	-0.011
-687.339	53.376	0.318	-0.310
-686.324	-200.000	0.014	-0.097
-685.310	-151.778	0.130	-0.010
-684.295	-120.844	0.216	0.037
-683.281	-32.371	-0.210	-0.119
-682.266	50.710	0.087	-0.084
-681.251	-168.592	0.167	0.006
-680.237	-50.069	-0.128	-0.062
-679.222	172.251	0.094	0.138
-678.208	-118.540	-0.242	0.044
-677.193	417.541	0.020	0.043
-676.178	-86.590	-0.094	0.029
-675.164	-99.449	0.139	0.036
-674.149	-141.436	0.102	-0.011
-673.135	16.314	0.144	0.116
-672.120	-9.758	-0.284	0.192
-671.105	25.577	-0.095	-0.080
-670.091	205.305	-0.157	0.248
-669.076	-22.372	-0.084	0.052
-668.062	69.280	-0.048	0.050
-667.047	-13.624	-0.230	0.151
-666.032	130.015	-0.029	0.038
-665.018	-121.069	-0.060	-0.010
-664.003	307.738	-0.064	-0.121
-662.989	-146.298	-0.270	0.024
-661.974	-152.100	-0.508	0.038
-660.959	-46.788	-0.212	0.106
-659.945	-106.256	-0.138	0.031
-658.930	346.657	0.030	-0.060
-657.916	-200.000	0.010	0.063
-656.901	259.800	-0.105	-0.184
-655.886	-200.000	0.008	0.366
-654.872	800.000	0.079	-0.335
-653.857	-19.283	-0.192	0.121
-652.843	449.913	-0.080	-0.180
-651.828	-56.005	-0.184	0.083
-650.814	45.720	0.138	-0.130
-649.799	-200.000	-0.004	-0.403
-648.784	-71.704	0.221	-0.084
-647.770	-5.869	-0.166	-0.116
-646.755	-200.000	0.031	0.215
-645.741	-200.000	0.031	0.453
-644.726	-61.740	0.110	0.047
-643.711	220.048	0.157	0.255
-642.697	-91.009	0.222	-0.065
-641.682	-89.242	0.120	0.036
-640.668	-37.260	-0.204	0.111
-639.653	-116.461	-0.062	-0.012
-638.638	-176.040	0.091	-0.002
-637.624	2.856	0.257	0.189
-636.609	-173.745	-0.478	0.014
-635.595	-200.000	0.068	-0.434
-634.580	-200.000	-0.024	-0.120
-633.565	-119.097	-0.295	-0.052
-632.551	800.000	0.088	-0.271
-631.536	127.131	0.175	0.225
-630.522	189.964	-0.260	-0.396
-629.507	36.021	0.177	-0.158
-628.492	800.000	0.097	0.319
-627.478	800.000	0.073	0.252
-626.463	99.596	-0.267	0.314
-625.449	412.004	0.072	-0.156
-624.434	-92.823	-0.205	0.058
-623.419	-200.000	0.026	-0.369
-622.405	-200.000	-0.088	-0.439
-621.390	-125.357	-0.311	-0.048
-620.376	-200.000	0.003	-0.023
-619.361	800.000	0.068	0.220
-618.346	-7.813	0.076	0.052
-617.332	800.000	0.059	0.186
-616.317	-65.991	-0.347	-0.141
-615.303	-92.915	0.158	-0.045
-614.288	-200.000	0.042	-0.210
-613.273	84.661	0.113	0.126
-612.259	128.715	0.217	-0.281
-611.244	-200.000	-0.007	0.302
-610.230	-87.580	0.092	-0.028
-609.215	-200.000	0.042	0.428
-608.201	115.874	0.148	0.184
-607.186	20.735	-0.431	-0.354
-606.171	-68.523	-0.400	-0.158
-605.157	-90.207	-0.223	-0.066
-604.142	68.032	-0.262	-0.272
-603.128	-200.000	-0.012	-0.113
-602.113	-41.920	-0.095	-0.049
-601.098	-183.655	-0.113	0.002
-600.084	10.796	0.184	-0.143
-599.069	-200.000	-0.051	-0.270
-598.055	428.368	-0.202	-0.442
-597.040	-181.164	-0.288	0.006
-596.025	-56.756	-0.192	-0.086
-595.011	-46.508	-0.116	-0.058
-593.996	227.148	-0.037	0.062
-592.982	723.181	0.104	0.282
-591.967	-136.338	-0.176	-0.021
-590.952	800.000	0.044	0.163
-589.938	-44.863	-0.297	0.150
-588.923	155.266	-0.042	-0.058
-587.909	355.815	0.249	-0.503
-586.894	225.258	-0.112	0.184
-585.879	-192.452	0.070	0.001
-584.865	-156.348	0.066	0.004
-583.850	-113.219	-0.246	-0.049
-582.836	50.784	0.206	0.197
-581.821	-15.741	0.112	-0.072
-580.806	-70.911	0.188	0.072
-579.792	-200.000	-0.011	-0.327
-578.777	-173.363	-0.189	0.006
-577.763	-19.165	0.235	0.148
-576.748	-112.116	0.283	0.058
-575.733	-5.440	-0.107	-0.075
-574.719	9.309	0.148	0.114
-573.704	-145.776	-0.374	-0.034
-572.690	383.502	-0.043	0.090
-571.675	800.000	-0.028	0.117
-570.661	482.218	0.088	0.202
-569.646	-119.048	0.169	0.030
-568.631	-200.000	-0.034	-0.235
-567.617	800.000	0.029	0.101
-566.602	226.737	0.112	-0.185
-565.588	59.442	0.140	-0.140
-564.573	29.846	0.184	-0.159
-563.558	-200.000	0.032	0.309
-562.544	-138.654	-0.121	0.013
-561.529	-58.029	-0.131	-0.058
-560.515	-200.000	0.008	0.103
-559.500	32.259	0.069	0.060
-558.485	172.351	-0.098	-0.143
-557.471	-68.274	0.214	0.084
-556.456	-75.108	-0.260	-0.094
-555.442	80.397	0.211	0.230
-554.427	149.640	0.103	0.141
-553.412	-42.007	0.188	0.098
-552.398	6.687	-0.291	0.219
-551.383	-200.000	-0.004	0.074
-550.369	-62.185	0.396	-0.167
-549.354	166.181	-0.032	0.046
-548.339	800.000	-0.047	0.174
-547.325	-138.257	0.066	-0.007
-546.310	270.719	0.092	0.163
-545.296	-200.000	-0.019	-0.355
-544.281	-136.917	0.203	0.024
-543.266	-200.000	-0.000	0.037
-542.252	-200.000	0.034	0.164
-541.237	800.000	-0.045	-0.137
-540.223	-200.000	-0.019	-0.194
-539.208	141.308	-0.107	-0.143
-538.193	-200.000	-0.053	0.292
-537.179	-131.635	0.382	-0.051
-536.164	-200.000	-0.034	0.318
-535.150	800.000	0.132	0.567
-534.135	-83.143	0.182	0.059
-533.121	-200.000	0.029	0.141
-532.106	270.357	-0.122	0.217
-531.091	-200.000	-0.005	0.034
-530.077	800.000	0.066	-0.270
-529.062	800.000	-0.030	0.117
-528.048	173.224	-0.053	-0.077
-527.033	-150.052	0.082	0.006
-526.018	-200.000	0.024	-0.274
-525.004	32.387	0.161	-0.141
-523.989	42.727	0.336	0.310
-522.975	174.316	0.091	-0.133
-521.960	800.000	-0.087	0.272
-520.945	-184.190	0.483	0.008
-519.931	249.971	-0.058	-0.099
-518.916	198.783	0.101	0.156
-517.902	-200.000	-0.072	-0.471
-516.887	800.000	0.045	0.174
-515.872	162.938	-0.183	-0.260
-514.858	234.306	-0.126	0.210
-513.843	157.894	0.095	0.134
-512.829	800.000	0.124	0.396
-511.814	-131.479	0.141	0.019
-510.799	-23.753	-0.067	0.041
-509.785	134.179	-0.068	-0.089
-508.770	-66.787	-0.204	0.082
-507.756	-93.811	-0.241	-0.067
-506.741	12.716	0.290	0.226
-505.726	102.791	-0.079	0.094
-504.712	-200.000	-0.022	-0.129
-503.697	-143.929	0.458	-0.044
-502.683	461.285	0.108	-0.244
-501.668	54.264	0.098	0.096
-500.653	225.427	-0.122	0.199
-499.639	123.581	0.289	-0.366
-498.624	-115.901	-0.271	0.051
-497.610	-100.769	0.186	0.046
-496.595	81.667	0.112	0.123
-495.581	-200.000	0.003	-0.109
-494.566	-19.914	-0.078	0.049
-493.551	-9.979	-0.229	-0.154
-492.537	559.729	0.056	-0.137
-491.522	-200.000	0.007	-0.080
-490.508	301.093	0.155	0.288
-489.493	376.901	0.082	0.169
-488.478	-200.000	0.013	0.069
-487.464	-103.979	-0.086	0.020
-486.449	-200.000	-0.022	0.350
-485.435	68.776	0.091	-0.095
-484.420	-200.000	0.004	-0.052
-483.405	5.918	-0.185	-0.139
-482.391	-200.000	-0.005	-0.083
-481.376	100.739	-0.054	-0.064
-480.362	783.192	-0.061	-0.168
-479.347	643.072	-0.077	-0.198
-478.332	228.060	0.201	-0.330
-477.318	-200.000	-0.004	0.070
-476.303	-200.000	0.004	-0.067
-475.289	206.792	-0.024	0.037
-474.274	800.000	-0.098	-0.360
-473.259	466.393	0.085	-0.192
-472.245	-200.000	0.058	0.350
-471.230	-115.331	-0.102	-0.019
-470.216	-36.091	0.141	-0.077
-469.201	232.592	0.081	-0.135
-468.186	-96.004	-0.049	0.013
-467.172	-9.041	0.041	0.028
-466.157	-200.000	-0.013	0.140
-465.143	138.225	0.035	-0.046
-464.128	794.519	-0.039	0.109
-463.113	-200.000	0.018	-0.388
-462.099	-200.000	0.037	-0.392
-461.084	-46.053	-0.183	-0.091
-460.070	763.766	0.107	0.293
-459.055	800.000	-0.059	-0.172
-458.040	309.698	0.021	-0.039
-457.026	-53.038	-0.108	0.050
-456.011	279.244	0.121	-0.218
-454.997	-43.846	0.062	-0.032
-453.982	176.472	-0.137	0.201
-452.968	-34.772	0.111	-0.061
-451.953	-200.000	-0.057	-0.305
-450.938	-200.000	-0.018	-0.311
-449.924	52.594	0.168	-0.162
-448.909	-200.000	-0.010	0.180
-447.895	-1.964	-0.073	-0.052
-446.880	-200.000	0.010	-0.077
-445.865	-136.533	-0.289	-0.034
-444.851	101.137	0.207	0.243
-443.836	31.083	0.240	0.207
-442.822	219.386	0.030	-0.049
-441.807	372.537	-0.011	-0.023
-440.792	4.771	-0.108	-0.080
-439.778	180.175	-0.148	-0.219
-438.763	-137.841	0.100	0.011
-437.749	800.000	-0.003	0.012
-436.734	-200.000	0.003	-0.026
-435.719	-200.000	-0.017	-0.092
-434.705	-93.030	-0.219	-0.062
-433.690	-53.091	0.038	0.017
-432.676	-30.144	-0.262	-0.150
-431.661	-145.635	0.169	0.015
-430.646	-139.243	0.175	-0.019
-429.632	-200.000	-0.021	0.156
-428.617	11.258	0.206	0.159
-427.603	-200.000	-0.047	-0.244
-426.588	-43.595	-0.259	-0.132
-425.573	171.101	0.199	0.288
-424.559	26.233	-0.122	-0.103
-423.544	-179.398	0.284	0.006
-422.530	-200.000	-0.029	0.173
-421.515	-127.568	-0.059	0.009
-420.500	6.790	0.182	0.136
-419.486	800.000	0.027	0.090
-418.471	31.055	-0.112	0.097
-417.457	-200.000	0.023	0.135
-416.442	46.990	-0.097	-0.091
-415.428	-200.000	0.023	0.128
-414.413	-54.456	-0.083	0.038
-413.398	661.111	0.065	0.170
-412.384	23.325	-0.152	0.126
-411.369	-85.674	0.246	-0.077
-410.355	69.253	0.135	-0.140
-409.340	800.000	0.021	0.074
-408.325	-186.399	-0.330	0.005
-407.311	-200.000	-0.018	0.109
-406.296	-145.062	-0.280	-0.026
-405.282	-130.154	0.118	0.016
-404.267	-90.942	0.062	-0.018
-403.252	-84.449	0.079	-0.025
-402.238	139.326	-0.233	0.308
-401.223	-122.669	-0.178	-0.029
-400.209	-152.363	-0.110	-0.008
-399.194	-72.540	0.028	0.010
-398.179	128.675	-0.160	-0.206
-397.165	542.538	-0.119	-0.286
-396.150	227.073	-0.235	0.384
-395.136	158.619	0.036	-0.051
-394.121	498.053	0.043	0.100
-393.106	800.000	-0.076	-0.241
-392.092	188.781	-0.108	0.162
-391.077	165.075	-0.095	0.136
-390.063	-118.510	-0.182	-0.032
-389.048	132.910	0.129	0.168
-388.033	137.632	0.219	0.289
-387.019	110.844	-0.190	0.230
-386.004	-17.858	-0.187	-0.118
-384.990	322.905	0.144	0.276
-383.975	603.541	0.029	0.073
-382.960	-106.644	0.386	0.086
-381.946	136.333	0.199	-0.261
-380.931	82.893	0.265	-0.290
-379.917	-101.326	-0.172	-0.042
-378.902	-69.095	0.294	0.114
-377.888	-200.000	0.001	0.123
-376.873	219.813	-0.063	-0.102
-375.858	-6.316	0.144	0.099
-374.844	89.983	0.251	-0.282
-373.829	-199.861	0.200	-0.001
-372.815	-23.430	-0.037	-0.023
-371.800	311.522	-0.118	0.223
-370.785	-172.429	-0.142	-0.005
-369.771	5.212	-0.178	0.132
-368.756	-58.489	-0.100	-0.044
-367.742	30.598	-0.232	0.200
-366.727	37.837	-0.109	-0.097
-365.712	-200.000	0.006	-0.098
-364.698	-200.000	0.025	0.145
-363.683	800.000	0.023	-0.094
-362.669	657.323	-0.118	-0.306
-361.654	410.989	0.078	0.167
-360.639	-80.507	0.424	-0.142
-359.625	738.963	-0.096	0.259
-358.610	243.641	0.032	0.053
-357.596	162.385	-0.139	-0.196
-356.581	-200.000	-0.004	0.061
-355.566	787.883	0.036	0.098
-354.552	8.802	-0.047	0.036
-353.537	-141.873	0.055	0.006
-352.523	-200.000	0.002	0.086
-351.508	-200.000	-0.021	0.208
-350.493	80.859	-0.239	0.259
-349.479	361.318	-0.092	-0.185
-348.464	-200.000	0.033	0.257
-347.450	800.000	-0.037	0.129
-346.435	-146.754	0.100	-0.009
-345.420	-200.000	-0.016	0.084
-344.406	126.226	-0.091	0.116
-343.391	-45.589	0.128	0.064
-342.377	-149.610	0.265	0.021
-341.362	-20.606	0.080	0.049
-340.348	185.332	-0.070	-0.105
-339.333	31.569	0.144	-0.124
-338.318	-200.000	0.061	-0.321
-337.304	-126.663	0.510	0.076
-336.289	77.443	0.125	-0.134
-335.275	-74.050	0.281	0.102
-334.260	-190.604	-0.282	0.003
-333.245	-126.425	0.390	-0.058
-332.231	200.060	-0.104	0.160
-331.216	-15.286	0.025	0.016
-330.202	800.000	-0.078	-0.220
-329.187	135.709	0.080	0.105
-328.172	791.486	0.044	-0.120
-327.158	-77.701	-0.128	-0.045
-326.143	83.714	0.178	0.194
-325.129	-144.773	-0.273	-0.025
-324.114	-200.000	-0.024	0.223
-323.099	102.514	0.172	-0.202
-322.085	-200.000	-0.009	0.106
-321.070	226.263	0.245	-0.399
-320.056	24.626	-0.040	0.033
-319.041	81.351	0.117	-0.127
-318.026	-200.000	0.352	0.000
-317.012	-32.476	0.068	-0.038
-315.997	240.891	0.051	-0.086
-314.983	93.345	-0.248	0.281
-313.968	749.580	-0.042	-0.115
-312.953	-85.508	-0.194	0.061
-311.939	-45.768	0.280	0.139
-310.924	8.464	0.158	0.120
-309.910	141.347	-0.211	0.281
-308.895	-0.411	0.265	-0.189
-307.880	-148.558	-0.178	-0.015
-306.866	-119.772	-0.250	-0.043
-305.851	-200.000	0.007	-0.183
-304.837	696.149	0.021	0.054
-303.822	-65.146	-0.275	0.111
-302.807	117.733	-0.029	-0.036
-301.793	-125.991	-0.316	0.048
-300.778	-107.139	0.541	0.120
-299.764	-100.487	0.116	-0.029
-298.749	-69.822	-0.337	-0.129
-297.735	-200.000	-0.034	0.210
-296.720	227.182	-0.155	0.253
-295.705	287.586	0.031	0.056
-294.691	-4.961	0.215	0.149
-293.676	-108.563	0.385	-0.083
-292.662	51.203	0.062	-0.059
-291.647	-12.648	0.317	-0.207
-290.632	800.000	0.039	-0.161
-289.618	689.962	0.062	-0.163
-288.603	-12.622	-0.057	-0.037
-287.589	134.321	0.220	-0.286
-286.574	-200.000	0.046	-0.275
-285.559	-200.000	0.055	-0.327
-284.545	-102.077	-0.209	-0.050
-283.530	79.662	0.179	0.193
-282.516	-25.664	-0.072	-0.043
-281.501	800.000	-0.093	0.313
-280.486	-200.000	-0.005	-0.305
-279.472	-33.207	-0.065	-0.036
-278.457	179.946	0.238	-0.350
-277.443	-200.000	-0.438	0.001
-276.428	130.573	0.111	-0.143
-275.413	27.213	-0.201	-0.169
-274.399	170.233	-0.082	-0.118
-273.384	234.714	0.148	-0.245
-272.370	-142.897	-0.168	-0.016
-271.355	147.953	0.081	0.110
-270.340	-151.957	0.156	-0.011
-269.326	7.169	-0.122	0.091
-268.311	-98.598	0.274	-0.070
-267.297	749.684	-0.071	-0.191
-266.282	-10.817	-0.176	-0.116
-265.267	35.829	-0.152	-0.134
-264.253	-28.272	0.309	0.179
-263.238	496.746	0.119	0.274
-262.224	75.815	-0.202	-0.214
-261.209	-200.000	-0.036	0.219
-260.195	-200.000	-0.051	0.372
-259.180	-95.888	-0.215	0.057
-258.165	-200.000	0.005	-0.131
-257.151	778.640	-0.042	-0.114
-256.136	44.012	0.229	0.210
-255.122	611.061	0.128	-0.320
-254.107	74.708	0.177	-0.186
-253.092	586.293	0.059	0.146
-252.078	-68.348	-0.161	0.062
-251.063	-52.406	-0.219	-0.101
-250.049	242.814	0.033	0.055
-249.034	-200.000	-0.022	0.201
-248.019	-200.000	0.004	-0.121
-247.005	-200.000	0.024	0.318
-245.990	519.990	0.041	-0.096
-244.976	400.408	-0.056	0.118
-243.961	-96.931	0.059	0.015
-242.946	182.370	-0.123	0.182
-241.932	-200.000	0.040	0.265
-240.917	800.000	0.011	-0.044
-239.903	-106.451	-0.196	-0.044
-238.888	-200.000	0.036	-0.261
-237.873	84.099	-0.077	0.084
-236.859	111.824	-0.079	0.095
-235.844	387.842	0.066	-0.137
-234.830	-95.795	-0.064	0.017
-233.815	800.000	-0.050	-0.181
-232.800	800.000	-0.098	-0.372
-231.786	14.554	-0.097	0.076
-230.771	-44.610	-0.135	0.067
-229.757	63.933	-0.155	-0.156
-228.742	47.750	0.078	-0.073
-227.727	301.244	-0.182	-0.336
-226.713	-66.762	-0.422	0.167
-225.698	-146.281	-0.333	-0.029
-224.684	-38.669	0.152	0.080
-223.669	25.309	0.454	0.377
-222.655	244.287	0.041	0.069
-221.640	-89.186	0.335	0.099
-220.625	-142.194	-0.166	0.016
-219.611	-57.584	-0.118	0.052
-218.596	800.000	-0.095	0.332
-217.582	800.000	0.132	-0.383
-216.567	-127.210	-0.136	0.020
-215.552	-200.000	-0.023	0.279
-214.538	-200.000	-0.045	0.229
-213.523	-131.623	-0.137	0.018
-212.509	800.000	0.064	-0.221
-211.494	-9.688	-0.250	-0.166
-210.479	-200.000	-0.132	0.000
-209.465	220.068	0.097	-0.156
-208.450	110.247	0.098	0.118
-207.436	396.289	-0.233	0.487
-206.421	15.056	-0.197	0.154
-205.406	-200.000	0.012	-0.131
-204.392	-104.160	-0.070	0.016
-203.377	23.044	-0.208	-0.171
-202.363	147.304	-0.042	0.057
-201.348	41.386	0.211	0.191
-200.333	2.423	0.267	-0.193
-199.319	28.768	-0.133	-0.113
-198.304	-158.140	0.181	0.011
-197.290	-149.872	-0.178	-0.014
-196.275	-1.006	-0.154	0.109
-195.260	5.738	-0.042	-0.031
-194.246	45.531	0.121	-0.111
-193.231	-116.983	0.237	0.043
-192.217	-107.489	-0.431	0.094
-191.202	-55.136	-0.174	0.078
-190.187	-111.351	0.070	0.014
-189.173	100.796	0.110	-0.127
-188.158	14.131	0.120	-0.094
-187.144	305.465	-0.080	0.149
-186.129	309.656	0.022	-0.041
-185.114	-200.000	-0.007	0.315
-184.100	728.857	0.131	-0.349
-183.085	596.098	-0.048	-0.120
-182.071	-200.000	0.019	0.345
-181.056	574.059	0.033	0.080
-180.042	16.658	-0.103	-0.082
-179.027	-200.000	0.030	0.244
-178.012	7.093	-0.170	0.126
-176.998	251.431	0.107	-0.181
-175.983	-57.763	-0.272	-0.119
-174.969	35.682	0.237	0.208
-173.954	105.547	-0.212	0.250
-172.939	800.000	-0.141	-0.395
-171.925	-200.000	0.020	-0.138
-170.910	-80.945	0.395	-0.131
-169.896	352.350	-0.122	-0.242
-168.881	326.656	-0.237	-0.453
-167.866	-200.000	-0.025	-0.117
-166.852	-200.000	0.015	-0.173
-165.837	-94.734	-0.237	0.064
-164.823	506.923	-0.196	0.453
-163.808	800.000	0.054	0.156
-162.793	-147.895	-0.280	-0.023
-161.779	-174.032	-0.134	-0.004
-160.764	53.264	0.164	0.156
-159.750	-82.119	0.256	0.083
-158.735	-200.000	0.035	0.340
-157.720	-20.143	0.184	-0.113
-156.706	-196.984	-0.294	-0.002
-155.691	-200.000	0.032	-0.196
-154.677	800.000	0.047	-0.131
-153.662	-70.508	0.177	0.067
-152.647	800.000	0.087	0.271
-151.633	-107.732	-0.335	0.073
-150.618	191.258	0.051	-0.076
-149.604	289.499	0.052	0.094
-148.589	-8.581	0.330	-0.221
-147.574	149.429	0.148	0.200
-146.560	155.274	-0.026	-0.036
-145.545	724.781	0.206	-0.548
-144.531	-200.000	0.055	-0.277
-143.516	269.849	0.099	0.173
-142.502	-132.160	-0.079	-0.010
-141.487	-89.660	0.293	-0.086
-140.472	-59.708	0.171	0.073
-139.458	-10.414	0.326	0.215
-138.443	175.491	-0.013	-0.018
-137.429	-39.061	0.136	-0.071
-136.414	-115.165	-0.098	0.019
-135.399	128.343	0.091	0.116
-134.385	-200.000	0.016	-0.153
-133.370	-200.000	0.081	-0.423
-132.356	-50.677	0.327	-0.153
-131.341	169.674	-0.054	-0.076
-130.326	-200.000	0.030	-0.174
-129.312	-200.000	-0.068	0.449
-128.297	-21.964	0.197	0.119
-127.283	-150.226	0.070	-0.005
-126.268	210.443	0.004	-0.007
-125.253	-87.269	0.112	-0.034
-124.239	800.000	-0.063	-0.222
-123.224	-164.723	0.131	0.006
-122.210	-159.018	-0.242	0.014
