DTS Sentinel unit serial number:	SN413079Multiplexer serial number:	ORYXHardware model number:	OX4-SRSoftware version number:	ORYX F/W v4.00 Oryx Data Collector v3.7.2.0data status	okinstallation	princeton_trtdifferential loss correction	single-endedforward channel	channel 2reverse channel	N/Adate	2019/09/13time	08:27:35forward acquisition time	60.00reverse acquisition time	0.00gamma	496.2192k internal	0.2332k external	0.2332temperature offset calibration	1.0195default loss term (dB/km)	0.3790temperature slope calibration	1.0000multiplexer offset coefficient	1.0000multiplexer slope coefficient	1.0000fibre end	0.00T internal ref (°C)	27.41T ext. ref 1 (°C)	4.28T ext. ref 2 (°C)	24.08length (m)	temperature (°C)	Stokes	anti-Stokes-747.200	276.959	0.043	-0.077
-746.185	-117.737	0.221	-0.040
-745.171	800.000	-0.064	0.194
-744.156	800.000	-0.057	0.176
-743.142	779.013	0.016	-0.043
-742.127	-200.000	-0.020	0.363
-741.112	-192.621	0.264	0.002
-740.098	-200.000	-0.005	0.105
-739.083	-72.717	0.337	0.125
-738.069	-200.000	-0.037	0.213
-737.054	-154.178	-0.191	0.013
-736.039	-200.000	-0.002	-0.368
-735.025	75.686	0.166	0.176
-734.010	800.000	-0.094	-0.391
-732.996	112.210	-0.057	-0.069
-731.981	57.074	-0.121	0.119
-730.966	-200.000	0.002	0.039
-729.952	-69.797	-0.191	-0.073
-728.937	107.001	-0.089	0.106
-727.923	362.388	0.066	-0.132
-726.908	-186.147	-0.075	-0.001
-725.894	119.637	-0.083	0.104
-724.879	-200.000	0.003	-0.237
-723.864	-131.911	-0.266	-0.035
-722.850	800.000	-0.130	0.453
-721.835	800.000	0.036	-0.111
-720.821	7.258	0.142	-0.106
-719.806	136.319	-0.113	0.148
-718.791	227.313	-0.152	-0.249
-717.777	-114.764	-0.217	-0.042
-716.762	147.715	-0.166	-0.225
-715.748	-169.724	-0.165	0.006
-714.733	-39.196	0.410	-0.216
-713.718	74.387	0.109	-0.115
-712.704	800.000	-0.103	0.305
-711.689	-200.000	0.007	-0.038
-710.675	423.914	0.073	-0.158
-709.660	-200.000	0.026	0.218
-708.645	800.000	0.064	-0.246
-707.631	800.000	0.032	-0.110
-706.616	382.199	0.102	0.210
-705.602	-200.000	0.021	-0.129
-704.587	42.799	0.346	-0.317
-703.572	800.000	-0.092	0.261
-702.558	-34.043	-0.271	0.150
-701.543	26.344	0.311	0.261
-700.529	-66.007	0.112	-0.045
-699.514	170.884	0.007	0.011
-698.499	27.840	0.268	-0.227
-697.485	-9.153	-0.278	0.187
-696.470	-136.844	-0.164	-0.019
-695.456	-200.000	-0.024	-0.338
-694.441	-200.000	0.053	-0.240
-693.426	800.000	-0.026	0.107
-692.412	286.368	0.014	0.026
-691.397	-11.642	-0.211	-0.139
-690.383	-200.000	0.069	-0.338
-689.368	-181.804	0.073	0.001
-688.354	-98.120	0.257	-0.066
-687.339	81.139	-0.033	0.036
-686.324	-192.945	0.140	0.001
-685.310	-40.461	-0.124	-0.064
-684.295	-6.011	-0.092	-0.063
-683.281	-13.268	0.193	0.126
-682.266	-10.905	0.170	-0.112
-681.251	800.000	-0.031	0.114
-680.237	-43.630	-0.148	0.075
-679.222	92.595	0.073	0.083
-678.208	-200.000	0.025	0.171
-677.193	-95.353	-0.476	-0.128
-676.178	-33.919	0.221	-0.122
-675.164	-69.755	-0.266	0.102
-674.149	-5.601	-0.146	0.100
-673.135	800.000	-0.140	0.398
-672.120	800.000	0.055	0.187
-671.105	-95.109	-0.115	0.031
-670.091	-75.804	0.111	0.039
-669.076	11.778	-0.201	-0.155
-668.062	800.000	-0.041	0.168
-667.047	776.338	-0.031	0.086
-666.032	292.216	-0.169	-0.309
-665.018	-116.879	-0.273	-0.050
-664.003	800.000	-0.019	0.059
-662.989	-149.119	0.433	-0.035
-661.974	-30.368	-0.128	0.073
-660.959	39.220	0.137	-0.123
-659.945	-200.000	-0.035	0.292
-658.930	800.000	0.036	0.141
-657.916	101.372	0.190	0.222
-656.901	-200.000	-0.001	0.122
-655.886	800.000	-0.022	-0.077
-654.872	-200.000	-0.004	0.222
-653.857	77.969	0.120	0.128
-652.843	-140.041	-0.245	-0.026
-651.828	-130.345	0.136	0.018
-650.814	127.568	0.092	-0.118
-649.799	49.749	0.036	0.034
-648.784	184.292	-0.166	-0.247
-647.770	-101.304	-0.054	0.013
-646.755	341.456	-0.116	-0.228
-645.741	-20.042	-0.387	0.239
-644.726	-10.078	0.169	0.113
-643.711	-48.754	-0.184	-0.088
-642.697	-51.625	-0.156	0.073
-641.682	-89.491	-0.254	-0.075
-640.668	-200.000	0.029	-0.129
-639.653	-36.186	-0.166	0.090
-638.638	-200.000	-0.014	0.097
-637.624	-22.560	-0.182	-0.110
-636.609	-200.000	-0.050	-0.441
-635.595	800.000	0.051	-0.201
-634.580	-94.965	0.357	0.097
-633.565	229.514	0.011	0.017
-632.551	-102.782	0.142	-0.034
-631.536	-200.000	-0.020	-0.127
-630.522	-164.180	0.336	0.016
-629.507	44.297	-0.073	-0.067
-628.492	344.231	-0.090	-0.176
-627.478	-10.252	0.025	0.017
-626.463	-40.947	-0.157	-0.081
-625.449	190.702	0.021	0.032
-624.434	-53.467	-0.188	-0.086
-623.419	-76.085	0.233	-0.082
-622.405	-200.000	0.041	-0.266
-621.390	-11.884	-0.131	-0.086
-620.376	-200.000	0.043	-0.196
-619.361	-41.199	0.123	0.064
-618.346	-200.000	-0.026	0.290
-617.332	-45.785	0.176	-0.087
-616.317	79.441	-0.169	-0.182
-615.303	-154.156	-0.060	-0.004
-614.288	-78.242	-0.364	0.125
-613.273	-148.799	0.321	-0.026
-612.259	58.096	0.127	-0.124
-611.244	-169.417	-0.233	0.009
-610.230	-200.000	0.063	-0.394
-609.215	-46.038	-0.271	0.134
-608.201	-64.060	0.405	0.165
-607.186	159.586	0.282	-0.392
-606.171	212.182	-0.093	-0.146
-605.157	29.212	-0.356	-0.302
-604.142	-200.000	0.055	0.249
-603.128	-155.275	0.211	0.014
-602.113	-200.000	0.006	-0.205
-601.098	-49.906	-0.208	0.099
-600.084	-98.945	-0.367	0.093
-599.069	-42.223	-0.220	-0.112
-598.055	118.586	0.179	0.221
-597.040	47.086	-0.262	0.243
-596.025	-156.573	0.188	0.012
-595.011	-42.208	-0.261	0.134
-593.996	-70.481	0.049	-0.019
-592.982	-152.279	0.038	0.003
-591.967	-128.092	-0.365	-0.052
-590.952	-200.000	0.012	-0.240
-589.938	-48.586	0.117	0.056
-588.923	-200.000	0.024	-0.109
-587.909	-18.226	-0.141	-0.088
-586.894	-131.638	0.193	0.025
-585.879	154.130	-0.038	0.052
-584.865	352.741	-0.180	0.358
-583.850	139.733	0.292	-0.384
-582.836	-81.912	-0.193	-0.063
-581.821	-9.014	-0.184	-0.123
-580.806	-36.661	-0.392	-0.211
-579.792	-200.000	-0.032	-0.178
-578.777	-106.755	-0.127	0.028
-577.763	-131.277	-0.434	-0.057
-576.748	-200.000	-0.070	0.365
-575.733	75.697	0.046	0.048
-574.719	800.000	-0.028	0.101
-573.704	-89.933	-0.284	0.083
-572.690	800.000	0.056	0.176
-571.675	-2.086	-0.138	-0.097
-570.661	257.742	0.157	-0.271
-569.646	-26.546	0.166	-0.097
-568.631	800.000	-0.119	-0.374
-567.617	-200.000	-0.020	-0.282
-566.602	-55.903	-0.114	-0.051
-565.588	-138.409	0.273	-0.030
-564.573	423.841	0.036	-0.077
-563.558	800.000	0.059	-0.169
-562.544	9.862	0.139	0.105
-561.529	-98.070	0.247	-0.064
-560.515	-79.130	-0.174	-0.059
-559.500	-200.000	-0.017	0.168
-558.485	100.682	-0.074	0.086
-557.471	83.025	0.041	-0.045
-556.456	268.195	-0.120	-0.210
-555.442	61.965	-0.126	-0.125
-554.427	-200.000	-0.019	-0.093
-553.412	-5.683	0.171	-0.117
-552.398	-125.590	0.281	0.043
-551.383	-200.000	-0.005	0.146
-550.369	-147.929	0.375	-0.031
-549.354	196.636	0.028	-0.042
-548.339	-120.326	0.186	-0.032
-547.325	800.000	-0.073	0.318
-546.310	-105.884	0.132	0.030
-545.296	-133.694	0.236	0.029
-544.281	225.720	-0.069	-0.112
-543.266	-119.632	0.362	-0.063
-542.252	-108.771	-0.352	-0.075
-541.237	-118.945	-0.231	0.040
-540.223	-49.721	-0.174	0.083
-539.208	37.640	-0.392	-0.347
-538.193	-146.513	0.337	0.029
-537.179	800.000	-0.047	0.204
-536.164	-132.972	-0.235	0.030
-535.150	307.725	0.138	0.258
-534.135	87.967	-0.197	-0.218
-533.121	45.885	0.228	-0.211
-532.106	-117.397	-0.243	-0.044
-531.091	-126.592	-0.224	-0.033
-530.077	-200.000	-0.025	0.224
-529.062	56.484	-0.173	0.168
-528.048	-200.000	-0.031	-0.311
-527.033	291.453	0.073	-0.133
-526.018	41.993	-0.301	-0.272
-525.004	478.356	-0.012	-0.026
-523.989	-124.323	-0.148	-0.023
-522.975	73.603	-0.230	0.240
-521.960	-200.000	0.043	0.302
-520.945	630.020	-0.087	0.219
-519.931	415.482	0.105	-0.223
-518.916	800.000	0.076	-0.214
-517.902	-48.929	0.263	0.125
-516.887	-23.327	-0.283	0.170
-515.872	36.680	0.281	-0.247
-514.858	223.549	0.171	0.275
-513.843	-200.000	0.029	0.292
-512.829	112.097	0.078	-0.094
-511.814	-200.000	-0.065	0.317
-510.799	-80.664	0.196	0.065
-509.785	353.526	-0.066	0.131
-508.770	-61.501	-0.292	0.122
-507.756	299.794	-0.155	-0.285
-506.741	-124.371	0.250	-0.039
-505.726	-116.900	0.340	-0.062
-504.712	-200.000	0.059	0.262
-503.697	67.406	0.190	0.193
-502.683	-114.790	0.048	0.009
-501.668	-116.720	0.292	-0.053
-500.653	50.266	-0.174	0.164
-499.639	-35.061	-0.254	-0.138
-498.624	-90.502	-0.348	0.100
-497.610	-128.975	0.174	-0.024
-496.595	-134.341	0.277	0.034
-495.581	-145.924	-0.298	-0.026
-494.566	522.772	0.114	-0.267
-493.551	-17.453	0.201	0.126
-492.537	-105.694	-0.266	0.060
-491.522	800.000	-0.042	-0.124
-490.508	-200.000	-0.006	-0.075
-489.493	187.104	-0.020	0.030
-488.478	118.055	0.157	-0.192
-487.464	-80.728	0.197	0.065
-486.449	800.000	0.042	0.145
-485.435	108.034	-0.184	-0.219
-484.420	-56.253	0.148	-0.066
-483.405	105.389	-0.186	0.218
-482.391	109.822	-0.253	-0.302
-481.376	-54.309	0.120	0.054
-480.362	-103.319	0.189	-0.044
-479.347	15.444	0.097	-0.076
-478.332	-75.217	0.432	-0.154
-477.318	212.182	0.083	0.131
-476.303	-200.000	0.015	-0.197
-475.289	204.009	0.035	0.053
-474.274	-200.000	0.028	0.242
-473.259	-169.870	-0.210	0.007
-472.245	-67.382	-0.155	-0.061
-471.230	177.271	0.167	-0.242
-470.216	527.490	-0.024	0.057
-469.201	-142.967	-0.225	-0.022
-468.186	62.416	-0.097	0.096
-467.172	260.357	-0.100	-0.172
-466.157	-95.543	0.145	-0.039
-465.143	-4.427	0.154	0.106
-464.128	-194.717	-0.105	-0.001
-463.113	-180.648	-0.090	-0.002
-462.099	25.821	-0.160	0.132
-461.084	237.408	0.194	0.320
-460.070	188.206	0.397	0.590
-459.055	-50.901	0.105	-0.049
-458.040	-56.297	-0.245	0.108
-457.026	10.496	-0.194	-0.147
-456.011	-200.000	-0.002	0.055
-454.997	-53.472	0.127	0.058
-453.982	18.612	0.124	-0.099
-452.968	47.709	-0.084	-0.078
-451.953	-124.485	-0.194	-0.030
-450.938	-59.346	-0.120	0.051
-449.924	94.481	-0.065	0.073
-448.909	-200.000	0.008	-0.315
-447.895	92.983	0.203	-0.228
-446.880	-200.000	-0.027	0.209
-445.865	21.868	-0.214	-0.174
-444.851	-200.000	0.056	-0.282
-443.836	-110.232	-0.062	0.013
-442.822	-200.000	-0.008	0.044
-441.807	-74.977	0.315	-0.112
-440.792	141.209	-0.089	-0.117
-439.778	800.000	-0.098	0.341
-438.763	111.207	-0.167	0.200
-437.749	193.830	-0.111	-0.167
-436.734	800.000	-0.077	-0.314
-435.719	-80.596	-0.454	0.150
-434.705	-200.000	0.018	0.393
-433.690	-36.076	-0.121	-0.065
-432.676	109.645	0.005	0.006
-431.661	-144.389	-0.301	0.028
-430.646	711.643	0.055	-0.146
-429.632	-141.273	0.294	-0.030
-428.617	140.038	-0.175	-0.230
-427.603	47.371	-0.351	-0.325
-426.588	275.266	0.118	-0.207
-425.573	-91.976	0.182	-0.051
-424.559	800.000	-0.038	0.123
-423.544	800.000	-0.072	-0.266
-422.530	-152.306	0.080	0.006
-421.515	-88.564	-0.283	0.084
-420.500	-153.791	0.341	0.023
-419.486	-200.000	-0.058	-0.310
-418.471	-72.353	-0.118	0.043
-417.457	-12.931	0.093	-0.060
-416.442	-0.005	-0.163	0.116
-415.428	-82.238	-0.115	-0.037
-414.413	203.216	-0.120	0.184
-413.398	-200.000	-0.031	0.153
-412.384	-120.204	0.532	-0.090
-411.369	5.445	0.011	0.008
-410.355	468.648	-0.100	-0.222
-409.340	-40.582	-0.283	0.146
-408.325	689.323	-0.132	-0.343
-407.311	-122.698	0.288	-0.046
-406.296	332.114	-0.128	0.246
-405.282	-13.152	-0.134	0.086
-404.267	239.573	0.157	0.259
-403.252	800.000	0.108	0.304
-402.238	23.564	0.107	0.087
-401.223	710.227	-0.058	0.152
-400.209	-158.020	0.263	0.015
-399.194	338.673	0.064	-0.124
-398.179	56.271	0.117	-0.113
-397.165	32.962	-0.344	0.296
-396.150	-200.000	-0.029	0.219
-395.136	-85.920	-0.091	-0.028
-394.121	800.000	0.197	-0.611
-393.106	-200.000	-0.084	-0.369
-392.092	-200.000	-0.037	-0.257
-391.077	-6.329	0.091	-0.061
-390.063	-113.057	-0.046	0.009
-389.048	-156.878	-0.038	0.002
-388.033	317.527	0.128	0.241
-387.019	-200.000	-0.001	0.051
-386.004	-200.000	0.005	-0.039
-384.990	107.950	-0.097	0.115
-383.975	-117.036	0.075	0.014
-382.960	-98.674	0.125	0.032
-381.946	125.766	0.158	0.198
-380.931	-158.461	0.185	-0.011
-379.917	167.269	-0.091	0.128
-378.902	-200.000	-0.048	0.291
-377.888	191.287	0.167	-0.249
-376.873	-200.000	0.010	-0.136
-375.858	-200.000	-0.012	-0.103
-374.844	-63.040	-0.158	0.065
-373.829	78.949	0.089	-0.094
-372.815	144.298	0.161	-0.213
-371.800	184.467	0.056	-0.083
-370.785	-173.300	-0.145	-0.004
-369.771	800.000	0.021	0.073
-368.756	455.867	-0.079	-0.173
-367.742	-86.573	-0.092	-0.028
-366.727	-95.260	-0.104	0.028
-365.712	297.004	-0.023	0.043
-364.698	483.715	0.076	-0.171
-363.683	-7.788	0.132	0.088
-362.669	300.460	-0.134	-0.246
-361.654	197.927	0.131	-0.199
-360.639	-58.188	0.126	-0.055
-359.625	800.000	-0.072	0.294
-358.610	800.000	-0.091	-0.275
-357.596	-57.424	-0.141	0.061
-356.581	-144.421	0.290	-0.027
-355.566	586.038	0.117	-0.285
-354.552	38.452	-0.232	-0.205
-353.537	-200.000	0.023	0.243
-352.523	-200.000	0.057	-0.283
-351.508	-103.599	0.248	-0.058
-350.493	-23.585	0.019	0.011
-349.479	8.371	0.024	0.018
-348.464	-195.246	0.309	0.002
-347.450	-200.000	0.006	0.121
-346.435	131.656	0.168	0.214
-345.420	-138.065	-0.247	0.027
-344.406	-174.982	0.367	0.010
-343.391	-77.991	0.021	-0.007
-342.377	-87.547	0.291	0.087
-341.362	-200.000	-0.002	-0.172
-340.348	363.125	-0.143	-0.285
-339.333	-49.476	-0.053	-0.025
-338.318	800.000	0.045	-0.170
-337.304	-2.785	-0.115	-0.080
-336.289	202.875	-0.119	0.182
-335.275	5.759	-0.299	-0.219
-334.260	59.687	0.297	0.290
-333.245	16.239	0.060	-0.047
-332.231	295.585	0.146	0.265
-331.216	-10.138	0.224	-0.147
-330.202	386.418	-0.134	-0.273
-329.187	136.974	0.054	-0.070
-328.172	-200.000	0.005	-0.076
-327.158	-127.121	0.129	0.019
-326.143	-96.144	-0.283	0.074
-325.129	-200.000	0.005	-0.233
-324.114	422.955	0.108	-0.231
-323.099	-200.000	-0.017	-0.090
-322.085	-200.000	0.017	-0.114
-321.070	-130.279	0.325	-0.044
-320.056	-200.000	-0.022	0.273
-319.041	-200.000	0.020	-0.319
-318.026	234.964	-0.058	-0.095
-317.012	-41.998	0.184	0.093
-315.997	514.934	-0.110	0.253
-314.983	280.693	0.041	0.072
-313.968	128.057	0.243	0.306
-312.953	800.000	-0.105	-0.331
-311.939	-103.462	0.138	0.032
-310.924	301.788	0.178	0.325
-309.910	-200.000	0.001	-0.135
-308.895	134.447	-0.171	0.219
-307.880	-15.608	0.254	-0.160
-306.866	-200.000	0.019	-0.100
-305.851	-0.860	-0.426	-0.298
-304.837	-200.000	0.031	-0.200
-303.822	-200.000	-0.033	0.225
-302.807	-48.237	-0.120	-0.057
-301.793	-127.049	0.230	-0.033
-300.778	-200.000	-0.002	-0.038
-299.764	-157.288	-0.252	-0.015
-298.749	-190.096	-0.088	0.001
-297.735	-117.427	0.707	-0.126
-296.720	-53.124	-0.013	0.006
-295.705	26.848	-0.025	-0.021
-294.691	-81.787	0.186	-0.060
-293.676	-124.767	-0.183	0.028
-292.662	165.807	0.039	0.055
-291.647	800.000	0.087	0.262
-290.632	-111.789	0.364	-0.073
-289.618	-13.776	-0.227	0.145
-288.603	-80.058	-0.173	-0.057
-287.589	-200.000	-0.073	-0.339
-286.574	800.000	-0.148	-0.523
-285.559	-200.000	-0.026	-0.260
-284.545	145.782	-0.193	0.255
-283.530	498.264	0.053	-0.120
-282.516	-200.000	-0.004	0.128
-281.501	-200.000	0.044	0.228
-280.486	13.041	-0.228	0.174
-279.472	154.202	-0.030	0.040
-278.457	258.197	0.058	0.099
-277.443	40.990	-0.191	-0.170
-276.428	204.033	-0.052	0.079
-275.413	-140.917	0.521	0.053
-274.399	218.663	-0.150	0.236
-273.384	-78.352	-0.200	0.068
-272.370	800.000	-0.136	-0.408
-271.355	-109.285	0.174	0.036
-270.340	-14.527	0.255	0.162
-269.326	-133.298	0.309	-0.038
-268.311	800.000	0.019	0.068
-267.297	24.766	-0.085	0.069
-266.282	42.398	-0.034	-0.031
-265.267	-116.645	-0.206	-0.037
-264.253	42.395	0.093	-0.084
-263.238	-19.310	-0.282	-0.173
-262.224	-66.530	0.253	-0.099
-261.209	800.000	-0.053	0.178
-260.195	800.000	-0.020	-0.061
-259.180	-51.373	-0.258	0.119
-258.165	-200.000	0.039	0.356
-257.151	800.000	0.026	-0.104
-256.136	681.112	-0.049	-0.125
-255.122	-200.000	0.000	0.015
-254.107	205.762	-0.313	0.480
-253.092	-200.000	0.002	0.155
-252.078	800.000	0.058	0.162
-251.063	110.082	-0.108	0.128
-250.049	37.382	-0.055	0.048
-249.034	-200.000	0.031	-0.143
-248.019	-73.504	-0.190	0.068
-247.005	12.887	0.244	-0.186
-245.990	-7.605	0.214	-0.143
-244.976	69.183	0.292	0.296
-243.961	146.151	-0.239	0.316
-242.946	800.000	-0.097	0.337
-241.932	408.644	0.040	0.084
-240.917	229.057	-0.184	-0.296
-239.903	-126.445	-0.085	0.013
-238.888	-166.188	-0.328	-0.014
-237.873	-95.628	0.149	0.039
-236.859	74.213	0.055	-0.057
-235.844	-200.000	0.028	-0.123
-234.830	-200.000	0.063	-0.410
-233.815	-200.000	0.008	-0.049
-232.800	724.701	0.032	0.084
-231.786	-200.000	0.009	0.210
-230.771	-2.220	-0.079	-0.055
-229.757	-148.526	-0.172	0.014
-228.742	-200.000	0.004	0.164
-227.727	582.630	-0.098	0.237
-226.713	243.355	0.277	0.457
-225.698	150.341	0.262	0.351
-224.684	-200.000	-0.028	0.148
-223.669	267.353	-0.086	-0.149
-222.655	156.788	-0.171	0.233
-221.640	-41.313	-0.140	-0.071
-220.625	129.282	0.244	0.306
-219.611	-200.000	-0.020	0.329
-218.596	-200.000	-0.006	-0.110
-217.582	122.537	0.029	0.036
-216.567	33.963	0.451	0.387
-215.552	47.887	0.393	0.362
-214.538	18.229	0.155	0.122
-213.523	-34.669	0.163	0.088
-212.509	800.000	-0.114	0.379
-211.494	-200.000	0.054	0.241
-210.479	-89.761	0.188	-0.054
-209.465	-200.000	0.013	-0.202
-208.450	166.316	-0.062	0.087
-207.436	-40.518	0.212	0.108
-206.421	380.980	0.047	-0.096
-205.406	142.002	0.251	-0.328
-204.392	73.539	-0.047	-0.048
-203.377	800.000	-0.022	-0.086
-202.363	-200.000	-0.003	-0.186
-201.348	306.231	0.139	-0.255
-200.333	225.975	-0.079	0.125
-199.319	-89.285	0.228	0.066
-198.304	216.991	0.215	-0.337
-197.290	25.131	-0.139	-0.113
-196.275	800.000	-0.042	0.183
-195.260	-101.450	0.313	0.075
-194.246	371.385	0.129	0.257
-193.231	31.809	0.154	-0.131
-192.217	800.000	0.016	-0.067
-191.202	-51.588	-0.304	0.140
-190.187	-122.086	-0.266	0.043
-189.173	110.373	-0.045	-0.053
-188.158	442.361	0.151	-0.327
-187.144	-7.894	-0.206	0.137
-186.129	58.108	0.086	0.083
-185.114	800.000	-0.055	0.171
-184.100	745.922	-0.042	0.110
-183.085	-56.958	0.230	-0.100
-182.071	-126.937	-0.230	-0.033
-181.056	-200.000	-0.012	-0.076
-180.042	-112.353	0.155	-0.030
-179.027	54.763	0.138	0.131
-178.012	-13.906	0.213	-0.135
-176.998	29.281	-0.315	0.263
-175.983	-182.146	0.052	0.001
-174.969	800.000	0.059	0.171
-173.954	42.315	0.192	0.171
-172.939	-200.000	0.015	0.091
-171.925	52.905	-0.118	0.111
-170.910	-200.000	0.045	-0.213
-169.896	800.000	0.027	-0.074
-168.881	18.011	-0.207	0.162
-167.866	-200.000	0.013	0.266
-166.852	800.000	0.146	0.421
-165.837	127.885	-0.222	0.277
-164.823	99.217	-0.281	0.319
-163.808	115.830	-0.018	0.022
-162.793	35.972	0.043	0.037
-161.779	-200.000	-0.008	0.110
-160.764	-110.126	-0.071	0.015
-159.750	115.021	-0.265	0.318
-158.735	677.149	0.032	0.081
-157.720	-65.609	-0.103	-0.041
-156.706	-66.342	-0.013	-0.005
-155.691	-200.000	0.064	0.323
-154.677	-200.000	-0.019	-0.135
-153.662	549.074	0.115	-0.270
-152.647	-3.172	0.278	0.191
-151.633	800.000	-0.060	0.249
-150.618	164.902	-0.060	0.083
-149.604	-200.000	0.031	0.132
-148.589	-200.000	-0.079	-0.423
-147.574	-99.248	-0.178	-0.044
-146.560	-120.511	-0.122	-0.020
-145.545	26.176	-0.218	-0.179
-144.531	-114.414	-0.338	-0.064
-143.516	-200.000	0.025	0.123
-142.502	750.109	0.051	-0.136
-141.487	-30.120	0.181	0.101
-140.472	-116.548	-0.159	0.029
-139.458	-74.973	0.229	0.081
-138.443	63.522	0.338	-0.333
-137.429	611.432	0.064	-0.157
-136.414	216.741	-0.070	0.110
-135.399	17.354	0.038	-0.030
-134.385	-200.000	0.037	0.188
-133.370	111.308	0.254	0.301
-132.356	-63.603	-0.103	0.042
-131.341	-200.000	-0.016	-0.410
-130.326	-200.000	0.034	0.183
-129.312	-58.017	-0.164	0.070
-128.297	38.594	-0.064	-0.056
-127.283	77.564	0.174	-0.182
-126.268	-34.221	0.319	0.172
-125.253	-26.582	0.162	-0.093
-124.239	-133.062	-0.179	-0.022
-123.224	-200.000	0.061	-0.449
-122.210	-9.414	0.120	-0.079
