DTS Sentinel unit serial number:	SN413079Multiplexer serial number:	ORYXHardware model number:	OX4-SRSoftware version number:	ORYX F/W v4.00 Oryx Data Collector v3.7.2.0data status	okinstallation	princeton_trtdifferential loss correction	single-endedforward channel	channel 2reverse channel	N/Adate	2019/09/16time	12:23:35forward acquisition time	60.00reverse acquisition time	0.00gamma	496.2192k internal	0.2304k external	0.2304temperature offset calibration	0.9944default loss term (dB/km)	0.3790temperature slope calibration	1.0000multiplexer offset coefficient	1.0000multiplexer slope coefficient	1.0000fibre end	0.00T internal ref (°C)	39.39T ext. ref 1 (°C)	13.31T ext. ref 2 (°C)	36.54length (m)	temperature (°C)	Stokes	anti-Stokes-747.200	195.213	-0.120	-0.185
-746.185	409.426	0.141	0.305
-745.171	-200.000	-0.027	0.189
-744.156	-73.126	-0.257	-0.096
-743.142	-200.000	0.003	-0.214
-742.127	-22.796	0.055	0.034
-741.112	-200.000	-0.043	-0.252
-740.098	2.225	-0.070	-0.052
-739.083	647.912	-0.078	-0.204
-738.069	-19.648	-0.294	0.185
-737.054	323.897	-0.034	0.067
-736.039	-11.676	-0.137	-0.092
-735.025	-26.635	-0.213	-0.127
-734.010	-200.000	-0.048	-0.289
-732.996	-200.000	-0.012	0.180
-731.981	800.000	-0.053	-0.217
-730.966	373.296	-0.126	-0.261
-729.952	-114.053	-0.202	0.040
-728.937	145.923	0.187	0.255
-727.923	50.748	-0.302	-0.291
-726.908	29.899	0.237	0.206
-725.894	550.906	-0.046	0.112
-724.879	168.520	-0.124	0.180
-723.864	151.408	-0.290	-0.402
-722.850	-83.579	-0.311	-0.101
-721.835	-200.000	-0.000	-0.217
-720.821	25.802	0.112	0.095
-719.806	-200.000	-0.033	0.244
-718.791	800.000	-0.080	0.295
-717.777	530.685	0.088	-0.212
-716.762	-200.000	-0.023	0.279
-715.748	-200.000	-0.009	-0.314
-714.733	-150.624	-0.152	0.012
-713.718	479.731	-0.090	-0.208
-712.704	-31.161	-0.186	-0.106
-711.689	-200.000	-0.074	-0.466
-710.675	-117.307	0.384	-0.071
-709.660	-200.000	-0.001	0.262
-708.645	268.572	-0.147	-0.263
-707.631	800.000	-0.059	0.194
-706.616	-200.000	0.017	0.212
-705.602	139.876	-0.176	-0.236
-704.587	-38.785	-0.061	0.032
-703.572	17.339	0.311	-0.251
-702.558	-87.139	0.152	-0.047
-701.543	-124.919	0.071	-0.011
-700.529	516.994	-0.023	0.055
-699.514	-3.392	-0.198	-0.140
-698.499	-156.093	0.269	-0.017
-697.485	-200.000	-0.023	-0.162
-696.470	247.790	0.200	0.343
-695.456	-139.653	0.187	-0.020
-694.441	639.709	0.031	0.079
-693.426	28.490	-0.078	-0.067
-692.412	-200.000	0.016	0.223
-691.397	41.279	0.298	-0.274
-690.383	94.149	-0.223	-0.257
-689.368	758.109	-0.039	-0.108
-688.354	232.440	-0.079	-0.131
-687.339	800.000	0.032	0.106
-686.324	-98.052	-0.235	0.062
-685.310	800.000	-0.038	-0.109
-684.295	189.344	-0.058	0.089
-683.281	-200.000	-0.017	-0.342
-682.266	164.209	-0.032	-0.045
-681.251	195.301	-0.063	-0.097
-680.237	-116.285	0.441	0.083
-679.222	-11.189	-0.199	-0.133
-678.208	800.000	0.078	-0.232
-677.193	-49.148	-0.220	-0.107
-676.178	497.801	-0.080	0.188
-675.164	800.000	-0.070	-0.223
-674.149	-30.849	-0.110	0.063
-673.135	-200.000	-0.001	0.113
-672.120	-10.975	-0.212	-0.142
-671.105	-21.962	-0.287	-0.177
-670.091	-200.000	-0.037	-0.463
-669.076	442.169	0.032	-0.071
-668.062	-24.749	-0.234	-0.141
-667.047	-168.769	-0.137	-0.005
-666.032	-72.434	-0.184	0.069
-665.018	247.790	0.125	-0.215
-664.003	-40.503	0.130	0.069
-662.989	222.853	0.177	-0.289
-661.974	800.000	0.052	-0.182
-660.959	-200.000	0.013	0.060
-659.945	754.877	-0.098	0.270
-658.930	-59.717	0.264	-0.115
-657.916	-101.704	-0.113	0.028
-656.901	-100.764	-0.324	0.081
-655.886	183.186	0.105	0.157
-654.872	96.531	-0.203	0.236
-653.857	23.715	0.046	-0.038
-652.843	-200.000	0.018	-0.098
-651.828	64.883	-0.051	-0.052
-650.814	-200.000	0.041	-0.256
-649.799	-73.084	0.151	-0.056
-648.784	17.939	0.097	-0.078
-647.770	-21.306	0.133	-0.082
-646.755	19.697	0.290	0.237
-645.741	800.000	-0.042	-0.126
-644.726	-42.056	-0.150	0.078
-643.711	158.300	-0.180	0.253
-642.697	53.044	-0.244	-0.237
-641.682	247.516	-0.112	0.193
-640.668	41.890	0.059	-0.055
-639.653	-31.975	-0.044	0.025
-638.638	175.062	0.162	0.238
-637.624	-200.000	0.000	-0.043
-636.609	-200.000	-0.049	0.351
-635.595	-31.795	0.309	0.176
-634.580	-200.000	-0.006	0.355
-633.565	-50.615	0.069	0.033
-632.551	-178.926	-0.113	-0.003
-631.536	8.026	0.217	0.165
-630.522	-165.209	-0.191	0.009
-629.507	320.226	0.037	-0.071
-628.492	-174.166	-0.264	0.008
-627.478	-39.908	-0.213	-0.113
-626.463	-44.360	-0.101	-0.051
-625.449	-119.497	-0.216	0.038
-624.434	-200.000	0.003	0.112
-623.419	-169.377	0.246	0.009
-622.405	-200.000	-0.035	0.347
-621.390	47.623	0.018	-0.017
-620.376	432.912	-0.169	-0.372
-619.361	-7.732	-0.060	-0.041
-618.346	470.079	-0.091	-0.207
-617.332	665.377	0.081	0.212
-616.317	-114.778	0.212	0.041
-615.303	146.915	-0.154	0.210
-614.288	116.681	-0.179	-0.222
-613.273	19.864	-0.048	-0.039
-612.259	99.716	-0.201	-0.235
-611.244	68.726	0.201	0.209
-610.230	-126.348	0.269	0.041
-609.215	-200.000	-0.062	0.380
-608.201	217.372	0.188	-0.303
-607.186	-108.692	0.200	0.043
-606.171	115.407	0.194	0.240
-605.157	-58.080	-0.124	-0.055
-604.142	-116.461	0.151	-0.028
-603.128	75.706	-0.197	0.211
-602.113	-2.199	0.101	-0.072
-601.098	-47.626	0.179	-0.088
-600.084	-53.767	0.240	0.111
-599.069	-97.944	0.465	-0.122
-598.055	-200.000	0.014	0.259
-597.040	800.000	-0.062	0.181
-596.025	32.077	-0.293	0.256
-595.011	-116.301	-0.117	0.022
-593.996	511.836	0.034	-0.080
-592.982	-70.380	0.042	-0.016
-591.967	309.589	-0.093	-0.177
-590.952	228.987	-0.115	0.190
-589.938	-121.910	0.411	0.068
-588.923	-143.119	-0.152	-0.015
-587.909	53.319	0.134	-0.130
-586.894	77.665	-0.167	0.180
-585.879	800.000	0.038	0.127
-584.865	355.622	0.102	0.206
-583.850	-182.073	-0.214	0.004
-582.836	-100.921	0.080	0.020
-581.821	-53.284	0.204	-0.095
-580.806	-72.257	0.077	0.029
-579.792	160.426	-0.102	0.145
-578.777	708.041	0.088	0.235
-577.763	136.108	0.154	-0.203
-576.748	434.597	-0.094	0.207
-575.733	-200.000	0.006	-0.238
-574.719	800.000	-0.026	0.083
-573.704	-15.125	0.231	0.150
-572.690	-200.000	0.010	-0.137
-571.675	800.000	-0.136	0.407
-570.661	-200.000	0.011	0.487
-569.646	183.363	-0.096	0.144
-568.631	279.248	-0.088	0.159
-567.617	-29.760	-0.273	0.157
-566.602	-172.901	0.167	-0.005
-565.588	800.000	-0.099	0.372
-564.573	-37.905	0.159	0.086
-563.558	-8.607	0.243	-0.165
-562.544	201.610	-0.116	-0.181
-561.529	276.429	-0.144	-0.258
-560.515	-200.000	-0.075	-0.384
-559.500	-24.479	-0.288	0.173
-558.485	-110.351	-0.164	-0.034
-557.471	-156.760	0.203	-0.013
-556.456	800.000	-0.068	-0.261
-555.442	-126.958	0.082	-0.012
-554.427	-89.645	-0.197	0.058
-553.412	-107.615	0.109	0.024
-552.398	-33.951	-0.239	0.133
-551.383	-200.000	-0.041	0.203
-550.369	79.730	-0.035	-0.038
-549.354	-10.247	0.114	-0.077
-548.339	-184.494	0.233	0.004
-547.325	-87.173	0.214	-0.066
-546.310	51.464	0.046	0.044
-545.296	-127.374	-0.076	0.011
-544.281	43.079	0.187	-0.173
-543.266	-200.000	-0.019	-0.118
-542.252	48.643	0.229	-0.217
-541.237	-115.085	0.159	-0.030
-540.223	-81.925	-0.166	0.055
-539.208	362.596	-0.205	-0.415
-538.193	79.625	0.237	0.257
-537.179	-127.647	0.258	-0.038
-536.164	800.000	-0.048	-0.161
-535.150	2.426	-0.288	0.211
-534.135	-105.161	-0.165	-0.038
-533.121	288.221	0.100	-0.183
-532.106	-60.645	-0.107	-0.046
-531.091	-68.410	0.124	0.049
-530.077	-200.000	-0.067	0.320
-529.062	-200.000	-0.006	-0.245
-528.048	-79.221	0.175	0.060
-527.033	800.000	0.102	-0.306
-526.018	800.000	-0.064	-0.181
-525.004	62.294	-0.175	0.176
-523.989	-24.379	-0.022	-0.013
-522.975	-112.937	-0.372	-0.074
-521.960	-200.000	-0.009	-0.192
-520.945	-51.623	-0.335	0.158
-519.931	11.765	0.126	-0.098
-518.916	800.000	0.164	-0.563
-517.902	58.285	-0.181	-0.179
-516.887	-117.114	0.171	0.031
-515.872	800.000	0.102	0.335
-514.858	85.335	0.172	0.191
-513.843	-21.182	0.159	-0.098
-512.829	-82.039	0.252	-0.083
-511.814	-54.802	0.225	-0.102
-510.799	-179.717	-0.194	0.004
-509.785	-119.311	0.210	0.037
-508.770	-13.869	0.088	-0.057
-507.756	183.251	-0.096	-0.144
-506.741	98.507	-0.206	-0.240
-505.726	-87.475	0.273	-0.083
-504.712	628.763	-0.064	-0.162
-503.697	72.372	0.083	0.087
-502.683	-26.360	-0.120	-0.071
-501.668	800.000	-0.038	-0.122
-500.653	111.864	0.156	-0.191
-499.639	-108.790	0.418	0.090
-498.624	114.123	-0.201	0.246
-497.610	197.145	-0.194	0.298
-496.595	-74.783	-0.107	0.039
-495.581	-108.807	-0.119	-0.026
-494.566	35.326	-0.083	-0.074
-493.551	11.885	0.277	-0.214
-492.537	-121.658	0.159	-0.027
-491.522	-80.270	-0.290	-0.098
-490.508	-121.009	0.249	0.042
-489.493	-200.000	0.016	-0.084
-488.478	-69.996	-0.117	0.045
-487.464	95.304	0.050	0.057
-486.449	-200.000	0.033	-0.309
-485.435	30.140	0.100	0.086
-484.420	-200.000	0.014	-0.093
-483.405	-45.764	0.100	-0.050
-482.391	-79.938	0.158	-0.053
-481.376	-4.216	-0.357	0.249
-480.362	-21.734	0.294	-0.181
-479.347	43.115	-0.072	0.067
-478.332	-144.113	-0.158	0.015
-477.318	-74.705	0.295	-0.107
-476.303	-76.338	0.208	0.074
-475.289	-200.000	-0.005	0.251
-474.274	3.379	-0.167	-0.122
-473.259	317.981	-0.068	-0.130
-472.245	-98.376	0.078	-0.020
-471.230	96.340	0.088	0.102
-470.216	-17.889	0.420	0.265
-469.201	800.000	0.014	-0.042
-468.186	-200.000	0.025	-0.115
-467.172	-99.659	-0.328	0.083
-466.157	-48.961	-0.210	-0.102
-465.143	-51.811	0.037	-0.017
-464.128	38.924	0.065	0.059
-463.113	-200.000	-0.342	0.001
-462.099	31.464	-0.324	-0.281
-461.084	117.318	-0.031	0.038
-460.070	153.281	-0.234	-0.323
-459.055	800.000	-0.089	-0.276
-458.040	176.169	0.105	0.154
-457.026	-200.000	-0.032	-0.171
-456.011	-105.914	0.280	-0.064
-454.997	-28.335	0.302	0.176
-453.982	309.013	0.049	0.093
-452.968	-175.665	0.141	0.004
-451.953	-194.551	0.120	-0.001
-450.938	-200.000	-0.006	-0.185
-449.924	123.586	-0.220	-0.277
-448.909	-117.792	-0.172	-0.031
-447.895	116.912	0.109	0.135
-446.880	-15.972	-0.223	-0.143
-445.865	-200.000	0.016	-0.357
-444.851	800.000	-0.047	-0.179
-443.836	282.902	0.063	0.113
-442.822	-47.744	0.095	0.046
-441.807	800.000	0.029	-0.086
-440.792	100.626	0.220	-0.257
-439.778	-120.587	-0.295	0.050
-438.763	800.000	-0.072	0.242
-437.749	-35.230	0.255	0.139
-436.734	-133.783	0.302	-0.038
-435.719	119.054	0.138	0.172
-434.705	71.055	0.037	0.039
-433.690	-43.535	-0.337	-0.171
-432.676	56.694	0.202	0.197
-431.661	-65.384	-0.126	-0.051
-430.646	216.547	-0.023	0.038
-429.632	-60.247	0.167	-0.071
-428.617	-79.898	-0.322	-0.109
-427.603	-114.642	-0.260	-0.050
-426.588	800.000	-0.061	0.169
-425.573	-27.921	-0.369	0.215
-424.559	-45.282	-0.355	0.177
-423.544	-145.496	0.017	-0.002
-422.530	242.746	-0.127	0.214
-421.515	261.196	0.170	0.296
-420.500	377.806	0.033	-0.067
-419.486	-166.251	0.170	0.007
-418.471	470.594	-0.158	-0.358
-417.457	-4.774	0.379	0.263
-416.442	-200.000	0.061	-0.481
-415.428	-200.000	0.013	-0.074
-414.413	68.999	-0.028	-0.029
-413.398	800.000	0.079	0.241
-412.384	213.387	-0.200	-0.317
-411.369	84.830	-0.085	0.094
-410.355	160.965	0.172	-0.241
-409.340	-140.406	-0.380	-0.040
-408.325	-92.938	-0.227	0.064
-407.311	595.409	0.113	-0.282
-406.296	584.654	0.069	0.170
-405.282	151.115	-0.095	0.130
-404.267	800.000	0.087	0.289
-403.252	37.650	0.128	0.114
-402.238	-200.000	0.029	-0.141
-401.223	-200.000	0.006	0.137
-400.209	-75.542	0.066	0.024
-399.194	101.650	-0.173	0.202
-398.179	343.046	0.024	0.048
-397.165	-200.000	-0.037	0.232
-396.150	18.641	-0.127	-0.102
-395.136	67.442	0.200	0.205
-394.121	-200.000	0.018	-0.084
-393.106	-200.000	0.009	-0.054
-392.092	362.614	0.070	0.141
-391.077	800.000	0.123	0.345
-390.063	4.251	0.170	-0.125
-389.048	797.802	0.039	-0.109
-388.033	100.388	-0.140	-0.163
-387.019	-72.291	0.124	0.046
-386.004	339.365	0.039	0.076
-384.990	29.569	-0.173	0.148
-383.975	47.705	0.189	0.177
-382.960	-180.574	0.112	0.002
-381.946	-119.701	-0.257	-0.045
-380.931	-73.814	0.161	-0.059
-379.917	-200.000	0.006	-0.154
-378.902	-112.425	0.250	-0.050
-377.888	-101.848	0.376	0.091
-376.873	65.829	0.050	-0.051
-375.858	-65.522	-0.151	-0.061
-374.844	-22.617	-0.329	0.200
-373.829	-25.686	-0.070	-0.041
-372.815	-126.863	0.148	0.022
-371.800	380.513	0.133	-0.274
-370.785	76.821	-0.173	-0.185
-369.771	-149.418	-0.071	-0.006
-368.756	-31.413	-0.085	-0.048
-367.742	-200.000	-0.020	0.171
-366.727	-24.772	0.366	0.218
-365.712	-155.646	-0.217	-0.014
-364.698	20.593	-0.154	0.125
-363.683	24.515	0.189	0.157
-362.669	800.000	-0.024	0.096
-361.654	204.029	0.132	-0.205
-360.639	800.000	-0.129	-0.413
-359.625	403.048	-0.061	-0.129
-358.610	-34.433	0.188	-0.103
-357.596	79.539	0.313	0.337
-356.581	17.485	0.117	-0.093
-355.566	-112.140	0.369	0.074
-354.552	243.140	-0.198	-0.333
-353.537	-61.519	-0.242	-0.102
-352.523	800.000	0.082	0.283
-351.508	-200.000	0.011	0.293
-350.493	-121.262	-0.269	0.045
-349.479	20.465	-0.124	-0.100
-348.464	504.710	0.135	-0.312
-347.450	502.394	-0.026	0.059
-346.435	56.342	0.105	-0.102
-345.420	800.000	-0.024	-0.099
-344.406	-200.000	0.008	-0.166
-343.391	800.000	0.110	0.359
-342.377	-200.000	-0.017	0.360
-341.362	72.664	-0.188	-0.197
-340.348	-120.390	-0.185	-0.032
-339.333	800.000	0.039	-0.144
-338.318	-105.093	0.219	0.050
-337.304	-11.246	0.311	0.205
-336.289	-173.337	-0.353	-0.011
-335.275	-132.745	-0.408	-0.052
-334.260	31.834	0.303	0.261
-333.245	-104.500	-0.207	0.048
-332.231	-32.115	0.136	-0.076
-331.216	-140.764	0.102	0.010
-330.202	349.467	-0.141	0.278
-329.187	800.000	-0.007	-0.029
-328.172	120.100	0.045	0.055
-327.158	23.214	0.135	-0.111
-326.143	137.616	-0.188	0.247
-325.129	119.347	0.073	0.090
-324.114	-89.613	-0.145	0.043
-323.099	303.729	0.139	-0.258
-322.085	144.931	-0.195	-0.261
-321.070	800.000	0.084	-0.254
-320.056	6.523	0.263	0.196
-319.041	-200.000	0.002	-0.198
-318.026	25.027	0.354	0.294
-317.012	195.295	0.075	-0.114
-315.997	258.542	0.174	-0.301
-314.983	-200.000	0.083	-0.592
-313.968	327.825	-0.086	0.164
-312.953	47.593	-0.191	0.179
-311.939	-85.118	-0.061	0.019
-310.924	74.163	-0.207	-0.217
-309.910	-200.000	-0.001	0.045
-308.895	-93.824	-0.176	0.049
-307.880	-85.583	-0.267	-0.083
-306.866	-200.000	0.007	0.055
-305.851	207.265	0.130	0.203
-304.837	-200.000	0.007	-0.097
-303.822	-132.067	-0.179	-0.023
-302.807	-64.579	0.454	-0.184
-301.793	-200.000	0.045	-0.269
-300.778	-200.000	-0.058	0.398
-299.764	-200.000	-0.045	0.572
-298.749	800.000	-0.076	-0.227
-297.735	800.000	0.050	0.209
-296.720	-11.989	-0.211	0.139
-295.705	44.069	-0.088	0.081
-294.691	0.971	-0.227	0.163
-293.676	800.000	0.018	-0.074
-292.662	150.160	-0.113	0.154
-291.647	-200.000	-0.063	0.438
-290.632	-147.799	0.181	-0.015
-289.618	500.165	0.165	-0.380
-288.603	-17.161	-0.242	-0.153
-287.589	-200.000	-0.009	-0.070
-286.574	141.685	0.074	-0.098
-285.559	-16.048	-0.061	-0.039
-284.545	800.000	-0.051	0.153
-283.530	22.472	-0.133	0.109
-282.516	137.748	-0.059	-0.077
-281.501	-200.000	-0.016	-0.269
-280.486	-138.246	0.274	-0.030
-279.472	-125.887	-0.464	0.070
-278.457	52.104	-0.155	0.148
-277.443	-14.438	0.179	0.115
-276.428	-67.911	0.082	0.032
-275.413	-102.336	0.448	-0.108
-274.399	-89.928	-0.086	0.025
-273.384	-132.588	0.150	0.019
-272.370	-126.525	-0.108	-0.016
-271.355	-200.000	0.001	0.024
-270.340	314.128	0.116	0.218
-269.326	-69.878	0.138	-0.053
-268.311	-200.000	0.020	0.091
-267.297	195.137	0.185	0.281
-266.282	332.849	-0.077	-0.148
-265.267	-200.000	0.012	-0.320
-264.253	21.776	-0.140	-0.114
-263.238	-200.000	0.180	-0.001
-262.224	195.235	0.127	0.192
-261.209	53.608	-0.278	-0.267
-260.195	59.617	-0.187	0.184
-259.180	-62.762	-0.130	0.054
-258.165	-200.000	0.034	0.220
-257.151	377.765	-0.121	-0.247
-256.136	-91.741	-0.245	-0.069
-255.122	34.634	0.116	0.101
-254.107	-158.278	-0.113	-0.007
-253.092	120.043	-0.211	-0.262
-252.078	800.000	0.055	-0.186
-251.063	-129.644	-0.205	-0.028
-250.049	42.443	-0.055	-0.050
-249.034	-40.911	0.068	-0.035
-248.019	165.735	0.255	-0.360
-247.005	97.806	-0.228	0.262
-245.990	-151.005	0.037	0.003
-244.976	55.211	-0.176	-0.170
-243.961	-122.922	0.254	0.041
-242.946	265.379	-0.156	-0.271
-241.932	800.000	0.054	-0.226
-240.917	-43.817	-0.216	0.109
-239.903	736.771	-0.114	0.305
-238.888	27.017	0.136	-0.114
-237.873	-28.303	-0.139	-0.080
-236.859	56.480	0.112	-0.109
-235.844	244.672	-0.101	0.169
-234.830	-102.874	-0.242	0.058
-233.815	800.000	-0.065	-0.195
-232.800	-141.931	-0.343	-0.034
-231.786	-200.000	-0.007	-0.419
-230.771	81.477	0.217	-0.234
-229.757	-123.106	-0.078	0.012
-228.742	-196.833	0.304	-0.002
-227.727	-70.503	0.295	-0.112
-226.713	287.336	-0.104	0.188
-225.698	165.049	0.210	0.296
-224.684	-80.014	-0.320	-0.107
-223.669	-75.159	-0.130	0.046
-222.655	228.525	-0.191	-0.311
-221.640	-200.000	-0.005	-0.040
-220.625	-95.970	-0.237	0.063
-219.611	-54.789	-0.097	-0.044
-218.596	-200.000	0.030	-0.311
-217.582	-35.507	0.191	0.104
-216.567	800.000	-0.033	-0.140
-215.552	800.000	0.076	0.242
-214.538	-75.351	0.147	0.052
-213.523	158.132	0.216	-0.299
-212.509	800.000	-0.031	-0.086
-211.494	-34.913	-0.215	0.117
-210.479	296.592	0.111	0.202
-209.465	21.266	0.106	0.086
-208.450	800.000	-0.119	0.409
-207.436	800.000	-0.072	-0.269
-206.421	800.000	-0.018	-0.063
-205.406	268.344	0.072	0.127
-204.392	-72.956	-0.096	-0.035
-203.377	321.254	0.138	-0.261
-202.363	50.095	-0.108	0.102
-201.348	506.594	-0.081	0.187
-200.333	-160.939	0.052	-0.003
-199.319	-61.635	0.264	-0.111
-198.304	-200.000	-0.048	-0.477
-197.290	289.705	0.102	0.184
-196.275	-43.951	-0.094	-0.047
-195.260	-115.183	-0.175	0.033
-194.246	288.268	-0.043	-0.077
-193.231	-48.497	-0.136	-0.065
-192.217	-44.369	0.435	0.217
-191.202	159.460	0.159	0.220
-190.187	-80.997	-0.152	-0.050
-189.173	-90.788	-0.238	-0.068
-188.158	-15.171	0.435	0.277
-187.144	-150.921	-0.173	0.013
-186.129	99.774	-0.099	-0.115
-185.114	203.234	-0.187	-0.287
-184.100	191.728	-0.100	-0.151
-183.085	15.190	-0.210	-0.164
-182.071	521.188	-0.070	-0.164
-181.056	-131.876	-0.477	0.062
-180.042	178.404	-0.070	0.102
-179.027	-200.000	-0.004	0.189
-178.012	-200.000	-0.006	0.095
-176.998	47.652	0.292	0.271
-175.983	-200.000	0.029	0.365
-174.969	187.913	0.068	-0.102
-173.954	24.606	0.251	-0.207
-172.939	-94.147	0.154	0.042
-171.925	195.105	-0.073	0.110
-170.910	463.112	0.076	-0.170
-169.896	132.841	-0.073	0.094
-168.881	230.214	-0.075	0.121
-167.866	-119.081	0.349	0.061
-166.852	-200.000	-0.024	-0.243
-165.837	-126.996	0.411	0.060
-164.823	625.969	0.059	-0.148
-163.808	719.541	-0.052	0.137
-162.793	-107.017	-0.397	0.087
-161.779	-13.209	-0.128	0.083
-160.764	-17.623	0.107	0.067
-159.750	-8.965	-0.291	-0.194
-158.735	-43.992	0.180	-0.090
-157.720	-104.945	0.069	0.016
-156.706	-147.617	-0.261	-0.022
-155.691	-200.000	0.010	-0.147
-154.677	-190.171	0.091	0.001
-153.662	89.739	0.117	0.129
-152.647	710.850	0.043	0.112
-151.633	-144.458	-0.120	0.011
-150.618	17.038	0.173	0.137
-149.604	146.903	-0.130	-0.174
-148.589	-200.000	0.027	0.183
-147.574	-200.000	-0.000	0.327
-146.560	-99.553	-0.318	0.080
-145.545	13.910	-0.247	0.191
-144.531	-148.266	0.182	0.015
-143.516	-200.000	0.002	0.151
-142.502	-0.987	-0.263	0.185
-141.487	79.021	-0.249	0.265
-140.472	103.562	-0.182	-0.213
-139.458	-78.903	0.155	-0.052
-138.443	325.500	0.042	-0.080
-137.429	517.223	0.033	0.078
-136.414	-118.319	0.122	0.021
-135.399	6.289	-0.153	0.113
-134.385	45.783	-0.106	-0.098
-133.370	448.885	-0.127	0.278
-132.356	589.425	0.055	-0.135
-131.341	-200.000	0.022	-0.384
-130.326	-93.462	-0.352	0.097
-129.312	-116.042	0.194	0.036
-128.297	263.359	-0.184	-0.318
-127.283	11.576	0.337	-0.257
-126.268	-12.832	-0.208	-0.135
-125.253	429.208	0.028	-0.061
-124.239	145.209	-0.211	-0.281
-123.224	-200.000	0.016	-0.163
-122.210	800.000	0.053	0.201
