DTS Sentinel unit serial number:	SN413079Multiplexer serial number:	ORYXHardware model number:	OX4-SRSoftware version number:	ORYX F/W v4.00 Oryx Data Collector v3.7.2.0data status	okinstallation	princeton_trtdifferential loss correction	single-endedforward channel	channel 2reverse channel	N/Adate	2019/09/16time	11:35:35forward acquisition time	60.00reverse acquisition time	0.00gamma	496.2192k internal	0.2310k external	0.2310temperature offset calibration	0.9954default loss term (dB/km)	0.3790temperature slope calibration	1.0000multiplexer offset coefficient	1.0000multiplexer slope coefficient	1.0000fibre end	0.00T internal ref (°C)	37.83T ext. ref 1 (°C)	12.98T ext. ref 2 (°C)	35.63length (m)	temperature (°C)	Stokes	anti-Stokes-747.200	-109.805	-0.232	0.050
-746.185	170.626	0.182	0.265
-745.171	114.461	-0.282	0.348
-744.156	-200.000	0.047	0.234
-743.142	800.000	0.074	-0.259
-742.127	-200.000	0.043	0.482
-741.112	-79.652	-0.251	-0.086
-740.098	108.580	0.205	0.248
-739.083	104.319	-0.085	-0.102
-738.069	-200.000	0.016	0.088
-737.054	-117.362	0.074	0.014
-736.039	800.000	-0.031	0.087
-735.025	-89.442	0.328	-0.098
-734.010	-31.333	-0.191	0.109
-732.996	3.480	0.246	-0.182
-731.981	642.418	0.068	0.175
-730.966	-111.187	-0.297	0.062
-729.952	74.973	-0.054	0.058
-728.937	66.460	-0.271	0.280
-727.923	-26.449	0.213	-0.127
-726.908	-94.803	0.148	-0.041
-725.894	1.545	-0.127	-0.093
-724.879	186.649	0.059	0.089
-723.864	-200.000	0.009	-0.096
-722.850	190.794	-0.195	-0.297
-721.835	-166.151	-0.414	-0.018
-720.821	65.494	-0.244	-0.251
-719.806	-36.666	-0.378	-0.206
-718.791	-25.479	-0.170	-0.102
-717.777	55.292	0.114	-0.112
-716.762	505.862	-0.019	0.045
-715.748	-200.000	-0.056	0.333
-714.733	-66.150	0.347	0.140
-713.718	-120.187	-0.129	-0.022
-712.704	632.896	0.082	0.210
-711.689	-107.859	-0.185	-0.041
-710.675	-63.085	0.302	0.126
-709.660	-200.000	0.021	-0.115
-708.645	800.000	-0.038	0.134
-707.631	-51.374	0.136	0.065
-706.616	180.124	-0.133	0.198
-705.602	251.930	0.096	0.166
-704.587	-200.000	0.019	0.359
-703.572	553.535	0.107	0.261
-702.558	-166.485	0.308	-0.013
-701.543	800.000	0.142	0.400
-700.529	21.337	-0.188	-0.155
-699.514	-96.050	0.194	0.052
-698.499	-200.000	-0.042	0.249
-697.485	56.688	0.240	0.237
-696.470	-200.000	-0.008	-0.301
-695.456	142.616	0.095	-0.128
-694.441	-200.000	0.002	0.066
-693.426	761.761	-0.033	-0.091
-692.412	-127.987	-0.063	0.009
-691.397	18.413	-0.181	0.147
-690.383	-28.537	-0.271	-0.159
-689.368	-78.798	-0.316	0.109
-688.354	-105.741	-0.145	0.033
-687.339	-200.000	-0.009	-0.094
-686.324	135.099	0.308	-0.405
-685.310	-3.090	0.047	-0.033
-684.295	-119.977	0.150	-0.026
-683.281	-101.782	-0.203	0.050
-682.266	-41.543	-0.259	-0.135
-681.251	-67.624	-0.079	0.031
-680.237	576.560	-0.084	0.209
-679.222	-16.245	0.143	0.092
-678.208	125.935	0.281	-0.359
-677.193	-200.000	0.038	-0.231
-676.178	-200.000	-0.001	-0.088
-675.164	-129.491	0.123	-0.017
-674.149	-85.970	0.205	-0.064
-673.135	69.288	-0.217	-0.226
-672.120	-131.505	-0.369	-0.049
-671.105	621.162	0.075	0.191
-670.091	-200.000	-0.032	0.235
-669.076	-6.462	-0.326	-0.225
-668.062	171.625	0.166	-0.241
-667.047	800.000	-0.084	0.258
-666.032	800.000	-0.049	0.201
-665.018	38.220	-0.134	-0.120
-664.003	-200.000	-0.024	-0.209
-662.989	-200.000	0.038	-0.325
-661.974	84.248	0.086	-0.096
-660.959	-200.000	-0.010	-0.195
-659.945	-86.227	0.123	-0.038
-658.930	800.000	0.076	-0.266
-657.916	120.909	-0.048	0.060
-656.901	-147.522	0.198	0.017
-655.886	18.751	0.133	0.107
-654.872	-45.584	0.324	-0.162
-653.857	-200.000	-0.006	0.337
-652.843	18.685	-0.215	-0.174
-651.828	109.781	-0.112	-0.136
-650.814	-51.980	-0.069	-0.033
-649.799	-200.000	-0.046	-0.233
-648.784	-146.392	0.070	-0.006
-647.770	-139.329	0.023	-0.002
-646.755	17.528	-0.293	-0.236
-645.741	304.195	-0.156	-0.293
-644.726	-200.000	0.077	0.440
-643.711	-62.055	-0.083	-0.035
-642.697	19.389	0.130	-0.106
-641.682	-19.315	-0.104	0.065
-640.668	372.120	-0.120	0.246
-639.653	-2.479	-0.223	-0.158
-638.638	800.000	-0.064	-0.217
-637.624	-74.716	-0.140	0.051
-636.609	56.018	0.123	0.120
-635.595	-163.536	-0.363	0.017
-634.580	-200.000	-0.022	0.308
-633.565	-10.270	-0.172	-0.115
-632.551	43.429	-0.150	-0.139
-631.536	94.846	0.184	-0.211
-630.522	-90.980	-0.082	-0.024
-629.507	100.155	-0.148	-0.173
-628.492	-63.268	-0.148	-0.062
-627.478	-200.000	0.006	0.234
-626.463	-54.993	0.142	0.065
-625.449	-200.000	-0.034	-0.267
-624.434	-1.478	-0.098	0.070
-623.419	339.642	0.085	-0.168
-622.405	228.964	-0.154	0.254
-621.390	-200.000	-0.020	0.186
-620.376	-123.518	-0.405	0.065
-619.361	-114.708	0.070	0.014
-618.346	-10.221	-0.244	-0.164
-617.332	53.447	-0.044	0.042
-616.317	-18.339	-0.146	0.092
-615.303	-188.682	-0.145	0.002
-614.288	-158.420	0.317	0.019
-613.273	-62.841	-0.361	0.151
-612.259	-63.397	0.124	0.052
-611.244	51.378	-0.096	0.092
-610.230	-165.455	0.279	-0.012
-609.215	-168.133	0.396	-0.016
-608.201	-80.531	0.099	0.033
-607.186	724.196	0.015	0.039
-606.171	129.546	-0.125	0.162
-605.157	-144.722	-0.033	-0.003
-604.142	268.980	-0.022	-0.040
-603.128	352.090	-0.082	0.163
-602.113	-39.491	-0.229	0.121
-601.098	-34.164	-0.340	0.188
-600.084	-145.347	0.186	0.017
-599.069	10.791	-0.279	-0.215
-598.055	29.553	-0.123	0.105
-597.040	446.637	0.131	0.291
-596.025	-106.540	-0.076	-0.017
-595.011	-15.703	0.113	0.073
-593.996	-200.000	0.002	-0.010
-592.982	-34.975	-0.110	0.060
-591.967	-200.000	-0.022	-0.221
-590.952	-48.589	0.033	0.016
-589.938	-114.724	0.393	0.076
-588.923	800.000	-0.059	-0.253
-587.909	-101.443	-0.231	-0.057
-586.894	7.298	0.244	0.184
-585.879	-105.446	-0.217	0.050
-584.865	218.757	0.118	-0.190
-583.850	233.899	0.212	0.352
-582.836	161.829	-0.046	0.064
-581.821	26.759	-0.177	-0.150
-580.806	500.184	0.116	0.269
-579.792	268.079	-0.072	-0.127
-578.777	40.715	0.146	0.133
-577.763	800.000	-0.042	-0.118
-576.748	-53.241	-0.369	0.171
-575.733	151.034	-0.126	0.173
-574.719	-200.000	-0.001	0.337
-573.704	-200.000	0.003	0.034
-572.690	48.280	-0.210	0.198
-571.675	-51.244	0.292	-0.138
-570.661	-93.417	0.677	-0.189
-569.646	33.643	-0.103	0.091
-568.631	800.000	-0.021	-0.065
-567.617	-200.000	0.070	0.370
-566.602	-200.000	-0.000	-0.026
-565.588	758.666	-0.152	-0.415
-564.573	256.610	-0.250	-0.432
-563.558	-156.674	-0.321	0.020
-562.544	286.701	-0.107	0.196
-561.529	-11.781	0.081	-0.054
-560.515	-67.378	-0.171	0.068
-559.500	800.000	-0.034	0.128
-558.485	609.208	-0.047	0.119
-557.471	-61.915	0.181	0.076
-556.456	-167.916	0.350	0.014
-555.442	-60.355	-0.240	-0.103
-554.427	75.657	-0.098	0.105
-553.412	231.517	0.228	0.377
-552.398	-200.000	0.006	0.027
-551.383	-200.000	-0.087	0.445
-550.369	165.240	-0.172	0.245
-549.354	347.986	-0.092	0.182
-548.339	-21.056	-0.122	-0.075
-547.325	208.697	-0.114	0.180
-546.310	-72.931	-0.178	-0.066
-545.296	-200.000	-0.035	0.180
-544.281	-68.391	-0.319	0.125
-543.266	2.144	0.202	-0.147
-542.252	-53.714	0.254	0.117
-541.237	-90.141	-0.215	-0.063
-540.223	-19.027	-0.118	0.074
-539.208	-200.000	-0.002	0.080
-538.193	-200.000	-0.020	-0.099
-537.179	228.780	0.142	-0.232
-536.164	-200.000	-0.010	-0.199
-535.150	800.000	0.072	-0.238
-534.135	-83.627	0.135	-0.044
-533.121	28.658	0.121	0.103
-532.106	-9.755	-0.060	-0.040
-531.091	-77.079	0.159	0.056
-530.077	-200.000	-0.136	-0.000
-529.062	800.000	0.134	-0.387
-528.048	70.924	0.045	-0.047
-527.033	-200.000	-0.028	-0.133
-526.018	70.281	0.111	-0.115
-525.004	47.916	-0.182	-0.171
-523.989	-15.693	-0.060	-0.039
-522.975	-102.017	-0.222	-0.054
-521.960	-200.000	-0.002	0.267
-520.945	-17.903	-0.106	-0.067
-519.931	-4.760	0.323	-0.224
-518.916	-166.705	-0.168	0.007
-517.902	-200.000	0.016	0.220
-516.887	134.838	-0.069	-0.091
-515.872	66.534	0.148	0.151
-514.858	7.831	-0.194	0.147
-513.843	606.668	0.103	-0.258
-512.829	13.301	-0.123	-0.096
-511.814	438.850	0.058	-0.126
-510.799	-26.758	-0.041	0.024
-509.785	800.000	0.037	-0.110
-508.770	-200.000	0.079	-0.355
-507.756	800.000	0.075	0.260
-506.741	-69.894	0.130	-0.050
-505.726	800.000	-0.127	0.356
-504.712	56.521	-0.026	-0.025
-503.697	-104.865	0.344	-0.079
-502.683	99.587	-0.109	-0.126
-501.668	281.509	-0.060	0.108
-500.653	-200.000	0.028	-0.189
-499.639	-19.491	0.163	0.102
-498.624	72.137	0.049	-0.051
-497.610	-200.000	0.020	-0.194
-496.595	203.914	0.125	0.195
-495.581	471.675	-0.023	0.053
-494.566	62.835	0.181	0.182
-493.551	-57.798	-0.204	0.090
-492.537	-26.821	-0.173	-0.102
-491.522	-73.659	-0.148	0.054
-490.508	245.110	-0.058	0.098
-489.493	-80.719	0.138	0.046
-488.478	800.000	0.014	0.043
-487.464	197.793	0.226	0.347
-486.449	116.795	0.013	0.016
-485.435	-200.000	0.031	0.455
-484.420	382.656	-0.032	-0.067
-483.405	341.099	0.036	-0.070
-482.391	69.741	0.109	-0.113
-481.376	-131.066	0.157	0.021
-480.362	800.000	0.147	-0.573
-479.347	-109.512	0.211	-0.045
-478.332	-200.000	0.019	0.133
-477.318	-45.121	-0.187	-0.093
-476.303	207.549	0.172	0.270
-475.289	681.413	-0.090	0.235
-474.274	800.000	-0.016	-0.047
-473.259	19.995	-0.053	-0.043
-472.245	-200.000	0.016	0.120
-471.230	800.000	0.098	0.367
-470.216	-200.000	0.018	0.131
-469.201	123.164	0.300	0.377
-468.186	184.441	-0.160	0.238
-467.172	7.782	0.170	-0.128
-466.157	116.852	0.166	0.205
-465.143	73.760	0.175	0.184
-464.128	-200.000	0.038	-0.247
-463.113	-200.000	0.019	0.475
-462.099	-6.728	0.163	0.112
-461.084	149.335	-0.165	0.225
-460.070	52.193	-0.173	0.166
-459.055	800.000	0.026	0.095
-458.040	95.948	0.171	0.196
-457.026	-11.653	-0.136	-0.090
-456.011	396.165	-0.135	0.283
-454.997	-25.717	-0.217	-0.128
-453.982	5.492	-0.160	-0.119
-452.968	-200.000	-0.004	-0.169
-451.953	110.634	0.079	0.096
-450.938	-162.726	-0.513	-0.025
-449.924	-169.029	-0.309	-0.012
-448.909	12.549	-0.155	-0.120
-447.895	800.000	0.057	-0.190
-446.880	0.892	0.219	0.157
-445.865	0.343	0.118	0.085
-444.851	83.687	-0.364	-0.398
-443.836	-78.109	0.150	0.052
-442.822	-75.616	-0.323	0.115
-441.807	186.763	-0.198	-0.296
-440.792	80.458	0.021	0.023
-439.778	200.748	-0.195	0.302
-438.763	85.054	-0.255	-0.281
-437.749	147.825	0.090	0.122
-436.734	-137.614	0.024	0.003
-435.719	42.594	0.086	0.079
-434.705	-155.034	0.175	-0.012
-433.690	800.000	0.093	0.380
-432.676	800.000	0.160	0.567
-431.661	-84.330	-0.173	0.055
-430.646	-200.000	0.002	0.063
-429.632	-133.579	-0.123	-0.015
-428.617	-81.920	-0.294	-0.096
-427.603	46.485	0.153	0.142
-426.588	-200.000	-0.021	-0.125
-425.573	298.810	0.047	-0.087
-424.559	-87.296	0.086	0.026
-423.544	197.552	0.087	0.134
-422.530	15.025	-0.168	-0.132
-421.515	-80.525	-0.336	0.112
-420.500	225.652	-0.121	-0.196
-419.486	-24.441	0.186	-0.111
-418.471	56.496	0.165	0.161
-417.457	-79.910	0.061	-0.020
-416.442	-73.336	-0.399	-0.146
-415.428	-200.000	-0.003	0.030
-414.413	64.892	0.073	-0.074
-413.398	-96.390	0.288	0.076
-412.384	765.840	-0.020	0.055
-411.369	113.752	0.287	-0.350
-410.355	285.513	-0.110	-0.200
-409.340	-143.114	-0.154	0.015
-408.325	24.989	0.145	-0.121
-407.311	-151.623	-0.162	-0.012
-406.296	-159.943	0.146	-0.008
-405.282	7.964	0.173	-0.130
-404.267	800.000	-0.065	0.250
-403.252	-133.312	-0.333	0.042
-402.238	-100.675	-0.114	0.028
-401.223	-176.636	0.237	-0.006
-400.209	-200.000	0.042	-0.299
-399.194	251.281	-0.141	-0.240
-398.179	0.745	-0.170	0.122
-397.165	-200.000	0.024	-0.221
-396.150	-200.000	0.047	0.395
-395.136	-189.057	-0.087	0.001
-394.121	-200.000	0.012	-0.176
-393.106	-67.081	-0.347	0.137
-392.092	-200.000	0.008	0.079
-391.077	-77.108	0.111	0.039
-390.063	800.000	-0.109	0.322
-389.048	498.753	0.051	0.117
-388.033	84.172	-0.124	0.136
-387.019	168.826	0.230	0.328
-386.004	-69.741	-0.031	-0.012
-384.990	-200.000	0.062	-0.306
-383.975	-200.000	-0.014	-0.651
-382.960	88.772	0.073	0.081
-381.946	-76.496	0.079	0.028
-380.931	-200.000	0.045	-0.222
-379.917	270.455	0.058	0.102
-378.902	-200.000	0.000	-0.086
-377.888	-137.422	-0.098	0.011
-376.873	-103.165	-0.271	0.064
-375.858	56.898	-0.147	-0.144
-374.844	-26.388	0.266	0.156
-373.829	-200.000	0.018	0.150
-372.815	-47.385	-0.231	0.113
-371.800	62.590	0.017	-0.017
-370.785	-129.540	0.285	-0.039
-369.771	13.355	0.127	-0.099
-368.756	10.392	0.200	-0.152
-367.742	142.803	-0.160	0.213
-366.727	43.576	0.148	0.135
-365.712	183.919	0.153	-0.226
-364.698	-24.134	0.222	0.132
-363.683	244.115	-0.080	-0.134
-362.669	-140.004	0.312	-0.033
-361.654	-108.302	0.341	-0.074
-360.639	-41.009	-0.141	0.073
-359.625	-64.992	-0.354	-0.143
-358.610	-35.369	-0.133	0.072
-357.596	-19.094	0.109	0.068
-356.581	-125.799	-0.323	0.049
-355.566	253.889	-0.184	-0.314
-354.552	-200.000	0.019	-0.096
-353.537	800.000	0.044	0.182
-352.523	-200.000	-0.019	-0.411
-351.508	165.190	0.071	-0.101
-350.493	-60.844	0.119	0.050
-349.479	-82.337	-0.245	-0.080
-348.464	-200.000	0.023	0.228
-347.450	-200.000	0.002	0.121
-346.435	-143.612	-0.361	0.034
-345.420	-17.428	0.143	0.090
-344.406	-200.000	-0.001	0.195
-343.391	-107.000	0.330	-0.073
-342.377	-200.000	-0.017	0.136
-341.362	-60.319	0.221	0.094
-340.348	-50.604	0.137	0.065
-339.333	-200.000	-0.013	0.212
-338.318	46.536	0.068	0.063
-337.304	-68.896	0.206	-0.080
-336.289	-66.851	0.158	0.063
-335.275	-88.034	-0.143	0.043
-334.260	-200.000	0.002	-0.145
-333.245	476.043	-0.192	-0.434
-332.231	118.623	0.180	0.222
-331.216	6.765	0.124	0.093
-330.202	606.492	0.065	-0.161
-329.187	30.336	0.136	-0.116
-328.172	-102.085	0.365	0.088
-327.158	800.000	0.083	0.234
-326.143	86.372	-0.266	0.293
-325.129	-14.210	-0.323	0.208
-324.114	800.000	-0.066	0.214
-323.099	585.780	-0.093	-0.229
-322.085	-200.000	0.024	-0.252
-321.070	-134.483	0.492	-0.060
-320.056	-21.942	0.127	-0.077
-319.041	245.384	0.165	-0.277
-318.026	153.760	-0.205	-0.281
-317.012	367.503	0.063	-0.127
-315.997	-6.260	0.092	-0.063
-314.983	-114.160	0.186	-0.036
-313.968	-16.207	-0.266	-0.169
-312.953	79.527	-0.110	0.118
-311.939	206.841	0.136	0.212
-310.924	-22.479	-0.110	0.066
-309.910	-27.356	0.143	0.083
-308.895	800.000	-0.007	0.031
-307.880	-200.000	-0.020	-0.130
-306.866	-161.389	-0.270	-0.014
-305.851	-200.000	-0.001	-0.193
-304.837	-74.292	0.061	-0.022
-303.822	326.431	0.239	0.457
-302.807	-200.000	0.020	0.100
-301.793	-11.370	-0.141	0.092
-300.778	-31.511	0.185	-0.104
-299.764	-99.806	0.110	-0.027
-298.749	-200.000	0.003	-0.170
-297.735	-200.000	-0.018	0.210
-296.720	-19.268	-0.039	0.024
-295.705	-42.904	-0.344	-0.174
-294.691	-200.000	-0.038	-0.352
-293.676	11.989	0.250	0.191
-292.662	-4.727	-0.307	-0.211
-291.647	445.296	0.114	0.250
-290.632	475.312	-0.172	0.388
-289.618	132.721	-0.047	0.060
-288.603	-109.510	0.291	0.061
-287.589	-200.000	0.009	-0.406
-286.574	-80.319	-0.115	-0.038
-285.559	97.190	-0.166	0.190
-284.545	-1.704	-0.116	-0.081
-283.530	71.621	0.448	-0.464
-282.516	-18.034	0.230	-0.144
-281.501	630.583	0.107	0.269
-280.486	530.191	-0.041	0.096
-279.472	244.741	-0.049	-0.083
-278.457	158.587	0.249	0.345
-277.443	-60.173	0.172	-0.073
-276.428	-67.421	0.283	-0.111
-275.413	-200.000	-0.025	-0.120
-274.399	58.092	-0.137	-0.134
-273.384	40.058	-0.132	-0.119
-272.370	800.000	-0.049	-0.140
-271.355	54.360	0.020	0.019
-270.340	-115.801	0.314	-0.059
-269.326	-162.512	-0.286	0.014
-268.311	-51.751	-0.085	-0.039
-267.297	-200.000	-0.017	-0.093
-266.282	183.466	0.144	-0.212
-265.267	255.694	0.116	-0.198
-264.253	-82.835	0.229	-0.074
-263.238	-82.533	0.082	-0.026
-262.224	-66.982	0.343	-0.135
-261.209	-116.138	-0.567	-0.105
-260.195	65.379	-0.101	-0.102
-259.180	800.000	-0.034	-0.114
-258.165	-55.620	0.371	0.166
-257.151	-200.000	0.023	-0.150
-256.136	73.352	-0.155	-0.162
-255.122	-39.347	0.233	-0.122
-254.107	800.000	0.034	-0.141
-253.092	-13.116	-0.242	-0.157
-252.078	187.641	0.132	0.197
-251.063	-200.000	-0.002	0.184
-250.049	-135.592	0.529	-0.063
-249.034	-200.000	0.047	-0.265
-248.019	-200.000	0.052	-0.285
-247.005	131.548	-0.193	-0.247
-245.990	-66.126	-0.201	-0.080
-244.976	-200.000	-0.027	0.348
-243.961	-111.085	-0.060	0.012
-242.946	-40.433	-0.031	-0.016
-241.932	42.254	-0.272	-0.246
-240.917	71.749	0.083	-0.086
-239.903	197.132	-0.170	0.258
-238.888	203.900	0.177	0.273
-237.873	-59.591	-0.103	0.044
-236.859	-200.000	0.015	-0.197
-235.844	391.985	-0.029	-0.060
-234.830	-102.716	-0.178	-0.042
-233.815	800.000	-0.027	-0.101
-232.800	597.491	0.133	-0.327
-231.786	800.000	0.072	0.278
-230.771	-65.228	0.171	-0.069
-229.757	-126.128	0.115	0.017
-228.742	710.845	-0.058	0.152
-227.727	-200.000	0.025	-0.209
-226.713	-87.602	0.219	-0.066
-225.698	-111.257	0.263	-0.053
-224.684	57.524	0.104	-0.102
-223.669	93.732	-0.148	-0.167
-222.655	66.531	0.096	-0.097
-221.640	26.738	-0.336	-0.280
-220.625	296.858	-0.207	-0.378
-219.611	-146.977	0.234	-0.020
-218.596	43.891	-0.157	-0.143
-217.582	-200.000	-0.004	0.110
-216.567	-53.268	0.019	-0.009
-215.552	-181.585	0.109	0.002
-214.538	-79.887	0.442	0.148
-213.523	46.898	0.491	-0.454
-212.509	552.324	-0.061	-0.146
-211.494	-24.615	0.122	0.072
-210.479	-69.902	-0.392	0.149
-209.465	316.393	0.049	0.093
-208.450	209.034	-0.056	-0.087
-207.436	-200.000	0.019	0.125
-206.421	-66.596	0.428	-0.169
-205.406	-78.186	-0.146	0.050
-204.392	-44.618	-0.201	0.100
-203.377	-124.035	0.229	-0.036
-202.363	-90.852	0.234	-0.067
-201.348	-118.372	0.379	0.067
-200.333	-200.000	0.053	0.284
-199.319	-200.000	-0.020	0.335
-198.304	47.980	-0.219	0.203
-197.290	154.280	-0.182	-0.248
-196.275	263.949	0.097	0.167
-195.260	84.075	-0.209	0.227
-194.246	87.698	0.007	0.008
-193.231	544.554	-0.101	-0.240
-192.217	-40.604	0.251	0.130
-191.202	-200.000	0.008	-0.075
-190.187	800.000	0.084	0.340
-189.173	-57.733	0.307	0.133
-188.158	-90.193	-0.153	-0.044
-187.144	800.000	-0.157	-0.450
-186.129	-200.000	0.035	-0.190
-185.114	473.368	0.086	-0.193
-184.100	-200.000	-0.099	-0.473
-183.085	413.302	-0.053	-0.112
-182.071	309.917	0.180	-0.334
-181.056	315.655	-0.137	0.257
-180.042	-96.626	0.426	-0.111
-179.027	800.000	0.090	-0.285
-178.012	-83.308	-0.319	0.102
-176.998	-5.140	-0.122	-0.083
-175.983	-48.552	-0.316	-0.151
-174.969	-144.438	0.203	-0.019
-173.954	487.082	0.124	0.281
-172.939	-37.086	-0.272	-0.144
-171.925	357.515	0.022	-0.044
-170.910	-200.000	0.015	-0.246
-169.896	-76.578	0.245	-0.085
-168.881	-200.000	-0.013	0.244
-167.866	-148.241	0.180	0.015
-166.852	56.914	0.067	0.065
-165.837	-4.270	-0.081	-0.056
-164.823	110.091	-0.227	0.271
-163.808	131.344	0.215	-0.274
-162.793	108.346	0.042	-0.050
-161.779	-200.000	0.015	0.066
-160.764	-11.026	0.086	-0.056
-159.750	-79.076	-0.301	-0.102
-158.735	-146.296	0.169	-0.015
-157.720	-65.656	-0.108	-0.043
-156.706	-60.743	-0.219	-0.092
-155.691	-200.000	-0.027	-0.325
-154.677	332.787	0.101	0.194
-153.662	0.649	-0.168	0.119
-152.647	-200.000	0.057	0.754
-151.633	130.780	-0.117	0.148
-150.618	-58.355	-0.231	-0.100
-149.604	-77.698	0.037	-0.013
-148.589	417.669	0.105	0.222
-147.574	-200.000	-0.009	0.243
-146.560	468.860	-0.051	0.114
-145.545	-23.843	-0.075	-0.045
-144.531	-158.637	0.216	0.012
-143.516	800.000	-0.052	-0.200
-142.502	446.636	-0.055	-0.120
-141.487	-132.685	-0.182	-0.023
-140.472	81.181	-0.199	-0.213
-139.458	225.112	0.103	-0.165
-138.443	-20.248	0.170	0.104
-137.429	-82.129	0.147	0.048
-136.414	-89.103	0.280	0.082
-135.399	-200.000	-0.003	0.035
-134.385	-135.279	-0.048	0.006
-133.370	-62.616	0.207	0.085
-132.356	-200.000	-0.042	0.284
-131.341	-69.379	-0.203	0.077
-130.326	386.818	0.036	0.073
-129.312	-96.586	-0.001	-0.000
-128.297	471.870	-0.069	-0.153
-127.283	77.194	0.120	-0.127
-126.268	-146.874	0.221	0.019
-125.253	146.941	0.150	-0.201
-124.239	-200.000	0.030	0.346
-123.224	-10.663	0.388	0.254
-122.210	76.773	0.264	0.278
-121.195	-200.000	-0.037	0.479
