DTS Sentinel unit serial number:	SN413079Multiplexer serial number:	ORYXHardware model number:	OX4-SRSoftware version number:	ORYX F/W v4.00 Oryx Data Collector v3.7.2.0data status	okinstallation	princeton_trtdifferential loss correction	single-endedforward channel	channel 2reverse channel	N/Adate	2019/09/15time	02:43:35forward acquisition time	60.00reverse acquisition time	0.00gamma	496.2192k internal	0.2326k external	0.2326temperature offset calibration	1.0035default loss term (dB/km)	0.3790temperature slope calibration	1.0000multiplexer offset coefficient	1.0000multiplexer slope coefficient	1.0000fibre end	0.00T internal ref (°C)	31.37T ext. ref 1 (°C)	4.57T ext. ref 2 (°C)	25.79length (m)	temperature (°C)	Stokes	anti-Stokes-747.200	-200.000	-0.001	-0.160
-746.185	-200.000	-0.033	0.165
-745.171	-137.392	-0.154	0.018
-744.156	-200.000	-0.004	0.137
-743.142	-200.000	0.055	-0.365
-742.127	-200.000	-0.044	0.282
-741.112	524.861	0.077	-0.184
-740.098	-173.053	0.066	0.002
-739.083	-200.000	0.044	-0.276
-738.069	-79.045	0.170	0.058
-737.054	500.256	-0.098	-0.228
-736.039	-52.039	-0.165	-0.077
-735.025	-29.897	-0.077	-0.044
-734.010	-15.467	-0.404	-0.260
-732.996	-34.000	0.351	0.195
-731.981	-200.000	-0.003	-0.113
-730.966	241.937	-0.015	0.025
-729.952	34.440	0.247	0.218
-728.937	116.935	-0.164	-0.203
-727.923	242.865	-0.079	-0.134
-726.908	6.893	0.247	-0.185
-725.894	64.798	0.196	-0.199
-724.879	-134.859	-0.121	0.015
-723.864	265.705	0.101	0.178
-722.850	-30.774	-0.039	-0.022
-721.835	800.000	0.066	0.198
-720.821	37.447	-0.400	0.358
-719.806	-34.781	-0.130	-0.072
-718.791	-84.232	-0.297	-0.095
-717.777	-96.137	-0.083	-0.022
-716.762	33.168	-0.275	0.240
-715.748	-200.000	-0.037	0.260
-714.733	-101.753	0.171	-0.042
-713.718	439.344	-0.119	-0.261
-712.704	19.621	-0.133	-0.108
-711.689	800.000	0.097	-0.280
-710.675	-19.853	-0.282	0.176
-709.660	25.716	-0.203	0.170
-708.645	-29.928	0.267	0.153
-707.631	-112.438	0.246	-0.049
-706.616	-121.454	-0.197	0.033
-705.602	800.000	-0.065	0.191
-704.587	-200.000	-0.059	-0.367
-703.572	131.230	-0.150	-0.194
-702.558	16.960	0.164	-0.131
-701.543	-121.715	0.533	-0.089
-700.529	800.000	-0.018	0.055
-699.514	14.430	0.183	-0.144
-698.499	-67.193	-0.233	-0.093
-697.485	310.653	-0.017	0.033
-696.470	558.304	-0.100	-0.244
-695.456	618.761	-0.040	0.102
-694.441	-200.000	0.008	0.129
-693.426	800.000	0.083	-0.251
-692.412	84.479	0.062	0.069
-691.397	244.830	0.118	-0.200
-690.383	358.469	-0.197	-0.396
-689.368	-46.510	-0.208	0.103
-688.354	142.498	0.119	-0.159
-687.339	-98.251	-0.175	-0.045
-686.324	117.803	-0.069	0.086
-685.310	-102.286	0.148	-0.036
-684.295	-149.535	0.085	-0.007
-683.281	800.000	-0.059	0.219
-682.266	-99.529	0.164	0.041
-681.251	-179.448	0.136	-0.003
-680.237	260.383	-0.124	0.216
-679.222	-200.000	-0.233	-0.001
-678.208	-163.568	0.291	-0.014
-677.193	-200.000	-0.001	-0.055
-676.178	-152.711	-0.146	0.010
-675.164	800.000	-0.075	-0.251
-674.149	-151.905	-0.182	-0.013
-673.135	66.206	0.154	0.157
-672.120	-200.000	-0.004	0.167
-671.105	-200.000	0.034	-0.294
-670.091	156.757	0.052	0.072
-669.076	-200.000	0.019	-0.183
-668.062	-103.161	0.239	-0.057
-667.047	-167.690	-0.207	0.008
-666.032	800.000	0.036	-0.128
-665.018	-64.587	0.090	0.037
-664.003	-75.522	0.188	0.067
-662.989	-47.575	0.293	0.143
-661.974	-200.000	-0.044	0.209
-660.959	12.265	0.107	-0.083
-659.945	333.637	-0.169	-0.328
-658.930	-3.222	-0.305	-0.214
-657.916	-85.994	-0.301	-0.093
-656.901	-200.000	0.030	-0.267
-655.886	34.159	-0.031	0.027
-654.872	-143.969	-0.320	0.030
-653.857	-126.595	-0.198	-0.029
-652.843	-181.538	-0.230	-0.004
-651.828	-110.257	-0.375	-0.078
-650.814	-22.855	0.100	-0.060
-649.799	52.602	0.124	0.119
-648.784	-200.000	-0.002	-0.138
-647.770	-200.000	-0.057	0.340
-646.755	569.924	0.128	0.313
-645.741	211.305	-0.188	0.298
-644.726	513.483	0.074	0.174
-643.711	-40.749	-0.151	-0.079
-642.697	800.000	0.141	0.409
-641.682	741.409	-0.028	0.075
-640.668	128.528	-0.129	0.166
-639.653	-68.447	-0.146	-0.057
-638.638	800.000	-0.071	0.258
-637.624	472.350	0.086	0.194
-636.609	77.204	0.066	0.071
-635.595	680.225	-0.048	-0.126
-634.580	-31.647	-0.077	-0.043
-633.565	126.545	-0.150	-0.191
-632.551	46.209	0.195	-0.181
-631.536	-192.008	0.176	0.002
-630.522	100.113	-0.244	-0.284
-629.507	31.183	0.142	0.122
-628.492	418.629	-0.042	0.090
-627.478	145.849	-0.191	0.258
-626.463	118.181	-0.126	-0.156
-625.449	5.084	-0.232	0.172
-624.434	89.903	0.192	0.215
-623.419	800.000	0.126	0.354
-622.405	111.607	-0.111	-0.134
-621.390	-200.000	0.004	0.044
-620.376	-10.291	-0.220	0.147
-619.361	-200.000	0.016	0.100
-618.346	-73.817	0.213	0.078
-617.332	-200.000	-0.011	0.364
-616.317	-137.283	0.095	-0.011
-615.303	-200.000	-0.004	0.079
-614.288	-124.432	0.060	0.009
-613.273	182.626	-0.048	-0.071
-612.259	800.000	-0.063	-0.198
-611.244	222.037	0.327	-0.528
-610.230	28.580	-0.126	-0.107
-609.215	137.627	0.040	-0.053
-608.201	800.000	0.023	-0.091
-607.186	135.645	-0.065	0.085
-606.171	-200.000	0.097	0.510
-605.157	-69.767	0.110	0.042
-604.142	95.091	-0.053	0.061
-603.128	32.609	0.214	0.186
-602.113	-59.020	0.301	0.130
-601.098	-200.000	-0.008	0.057
-600.084	-76.110	-0.235	-0.083
-599.069	800.000	-0.068	0.250
-598.055	78.627	-0.297	-0.318
-597.040	765.865	-0.030	0.083
-596.025	-24.096	-0.296	-0.177
-595.011	-51.776	-0.201	0.094
-593.996	19.323	-0.316	-0.255
-592.982	800.000	-0.002	0.008
-591.967	800.000	0.132	0.383
-590.952	127.961	-0.098	0.125
-589.938	-6.011	-0.076	0.052
-588.923	178.050	0.183	-0.267
-587.909	-200.000	0.015	-0.099
-586.894	13.227	-0.213	-0.166
-585.879	-200.000	-0.001	-0.094
-584.865	-109.547	0.134	-0.028
-583.850	-140.906	-0.166	-0.017
-582.836	-200.000	0.038	0.165
-581.821	-7.562	-0.130	-0.088
-580.806	516.422	-0.054	-0.126
-579.792	-200.000	0.034	0.199
-578.777	-136.710	-0.337	0.039
-577.763	-158.524	-0.378	-0.022
-576.748	178.629	-0.048	0.071
-575.733	-200.000	-0.017	-0.211
-574.719	19.289	-0.108	0.087
-573.704	-68.901	-0.203	-0.079
-572.690	-64.816	-0.280	-0.114
-571.675	-63.510	0.180	0.074
-570.661	-161.792	-0.037	0.002
-569.646	224.076	-0.062	-0.101
-568.631	-200.000	-0.040	0.382
-567.617	-160.600	0.210	0.011
-566.602	-92.531	0.305	-0.086
-565.588	36.252	-0.045	0.040
-564.573	113.778	0.219	-0.266
-563.558	568.759	0.020	0.050
-562.544	60.367	0.381	-0.378
-561.529	-115.081	0.132	-0.025
-560.515	800.000	0.028	0.108
-559.500	-200.000	-0.003	-0.055
-558.485	761.614	0.029	-0.080
-557.471	800.000	0.102	-0.331
-556.456	-94.287	0.109	-0.030
-555.442	-74.956	-0.191	0.069
-554.427	-200.000	0.045	0.200
-553.412	250.400	0.214	-0.364
-552.398	-200.000	0.034	-0.190
-551.383	5.874	-0.224	-0.166
-550.369	251.349	-0.077	0.131
-549.354	-102.245	0.124	0.030
-548.339	209.747	-0.271	0.425
-547.325	86.197	0.102	-0.113
-546.310	-92.321	-0.269	0.076
-545.296	13.566	-0.132	0.103
-544.281	-188.255	-0.322	0.004
-543.266	-70.141	0.185	-0.070
-542.252	-60.944	-0.178	0.075
-541.237	108.812	0.144	-0.172
-540.223	-20.382	-0.181	-0.111
-539.208	326.726	-0.033	0.063
-538.193	800.000	0.041	0.143
-537.179	355.401	-0.071	0.141
-536.164	-4.557	0.084	-0.058
-535.150	-200.000	-0.010	0.097
-534.135	407.773	0.046	0.098
-533.121	-110.145	0.148	0.031
-532.106	22.479	0.156	-0.128
-531.091	291.706	-0.242	-0.440
-530.077	-57.074	0.083	-0.037
-529.062	-16.963	-0.120	0.076
-528.048	32.713	0.043	0.037
-527.033	260.784	-0.163	-0.283
-526.018	-66.560	-0.117	0.047
-525.004	385.739	-0.037	0.076
-523.989	-77.527	0.270	-0.094
-522.975	543.865	0.076	0.181
-521.960	44.373	-0.201	-0.185
-520.945	-169.058	0.166	0.006
-519.931	-104.089	-0.352	-0.082
-518.916	-104.540	-0.287	-0.066
-517.902	152.434	0.101	0.138
-516.887	-200.000	-0.059	0.343
-515.872	55.111	0.151	-0.146
-514.858	87.348	-0.137	-0.151
-513.843	-137.685	-0.286	-0.032
-512.829	87.933	-0.178	-0.197
-511.814	21.516	-0.097	-0.079
-510.799	-39.894	-0.146	0.076
-509.785	132.886	-0.239	0.309
-508.770	-181.913	0.267	-0.005
-507.756	-114.492	0.254	0.049
-506.741	-200.000	-0.025	-0.174
-505.726	68.665	0.115	0.118
-504.712	-96.749	0.169	0.044
-503.697	-200.000	-0.043	0.403
-502.683	471.475	0.037	-0.082
-501.668	-200.000	0.007	-0.036
-500.653	-200.000	-0.034	0.259
-499.639	21.080	-0.145	0.117
-498.624	37.079	0.030	0.027
-497.610	-200.000	0.051	-0.437
-496.595	1.226	-0.230	0.165
-495.581	-9.851	0.112	0.074
-494.566	553.032	-0.055	0.131
-493.551	69.916	0.223	-0.229
-492.537	-41.463	-0.301	-0.155
-491.522	120.583	-0.253	0.314
-490.508	187.869	-0.116	-0.173
-489.493	-140.066	0.138	-0.014
-488.478	-82.889	0.047	0.015
-487.464	26.340	-0.092	-0.077
-486.449	313.172	0.121	0.227
-485.435	32.622	-0.230	0.199
-484.420	97.853	-0.345	0.396
-483.405	72.865	0.210	-0.219
-482.391	-99.806	-0.248	0.062
-481.376	-141.466	-0.121	-0.012
-480.362	529.262	-0.136	0.321
-479.347	-57.394	0.308	0.135
-478.332	-200.000	0.023	0.207
-477.318	-200.000	-0.010	0.247
-476.303	-127.544	0.296	-0.043
-475.289	118.775	-0.132	-0.163
-474.274	248.883	-0.170	-0.288
-473.259	463.170	-0.126	0.280
-472.245	46.898	-0.209	0.194
-471.230	-200.000	-0.035	-0.175
-470.216	17.640	-0.111	0.088
-469.201	-46.841	0.180	-0.088
-468.186	333.326	-0.136	-0.262
-467.172	336.938	0.085	0.165
-466.157	703.907	0.145	0.381
-465.143	-81.297	-0.259	-0.085
-464.128	-64.255	0.249	-0.101
-463.113	247.765	0.233	-0.394
-462.099	-200.000	0.031	-0.432
-461.084	40.461	0.341	0.306
-460.070	-69.270	0.079	-0.030
-459.055	-200.000	-0.000	0.046
-458.040	250.860	0.064	0.109
-457.026	501.561	-0.084	-0.194
-456.011	81.069	-0.214	-0.230
-454.997	52.083	-0.268	0.255
-453.982	179.006	-0.257	0.375
-452.968	-200.000	-0.067	0.406
-451.953	205.209	-0.139	-0.215
-450.938	-200.000	0.018	0.227
-449.924	351.546	-0.118	0.234
-448.909	0.313	0.063	0.045
-447.895	-80.853	0.095	-0.032
-446.880	1.386	0.033	-0.024
-445.865	-200.000	0.006	-0.137
-444.851	-200.000	-0.020	0.298
-443.836	550.957	-0.152	-0.363
-442.822	-200.000	0.030	-0.199
-441.807	-200.000	0.011	0.271
-440.792	800.000	0.054	-0.234
-439.778	55.666	0.231	-0.223
-438.763	-76.988	-0.034	-0.012
-437.749	-200.000	-0.047	0.241
-436.734	-99.472	0.265	-0.067
-435.719	-200.000	0.039	0.309
-434.705	-39.462	0.183	-0.095
-433.690	501.587	-0.168	0.387
-432.676	-3.019	-0.212	-0.147
-431.661	-78.914	-0.102	-0.034
-430.646	-72.306	-0.137	-0.051
-429.632	145.902	0.202	0.270
-428.617	-67.205	-0.026	0.010
-427.603	128.164	0.049	-0.062
-426.588	-177.419	-0.288	-0.007
-425.573	-200.000	0.050	-0.242
-424.559	-200.000	-0.045	0.426
-423.544	35.543	-0.159	-0.139
-422.530	-3.134	-0.241	0.168
-421.515	-200.000	-0.044	-0.225
-420.500	-120.642	-0.282	0.048
-419.486	50.656	0.103	0.097
-418.471	761.154	-0.105	-0.283
-417.457	-17.980	0.231	0.144
-416.442	-200.000	0.027	0.245
-415.428	149.537	0.155	0.210
-414.413	-200.000	0.027	-0.224
-413.398	27.584	0.138	0.116
-412.384	800.000	0.041	-0.126
-411.369	-200.000	-0.009	0.134
-410.355	-200.000	0.039	-0.442
-409.340	-81.038	0.207	-0.068
-408.325	-200.000	-0.011	0.155
-407.311	-200.000	0.000	-0.098
-406.296	800.000	-0.052	0.203
-405.282	-200.000	0.024	-0.225
-404.267	-57.242	0.156	-0.068
-403.252	191.487	0.077	-0.116
-402.238	12.743	0.068	0.052
-401.223	-200.000	0.018	-0.204
-400.209	-113.744	-0.242	0.047
-399.194	33.120	0.123	-0.106
-398.179	-200.000	0.036	-0.366
-397.165	-200.000	0.003	-0.183
-396.150	144.331	0.037	0.050
-395.136	-200.000	-0.055	-0.299
-394.121	63.409	-0.055	-0.055
-393.106	-77.058	-0.315	0.109
-392.092	299.465	0.156	-0.285
-391.077	123.518	-0.229	-0.286
-390.063	79.912	-0.065	-0.070
-389.048	-200.000	0.007	-0.247
-388.033	315.487	-0.171	-0.321
-387.019	101.619	-0.127	-0.147
-386.004	395.903	0.109	0.226
-384.990	112.986	-0.138	-0.166
-383.975	-112.015	0.253	-0.051
-382.960	-200.000	0.041	0.190
-381.946	-19.041	0.255	0.158
-380.931	-78.822	-0.092	0.031
-379.917	204.432	0.146	-0.226
-378.902	684.600	-0.141	-0.365
-377.888	44.731	0.105	0.096
-376.873	264.211	0.079	0.137
-375.858	192.035	0.177	0.266
-374.844	800.000	-0.055	0.200
-373.829	-80.446	-0.371	-0.123
-372.815	-49.346	-0.169	0.080
-371.800	-21.613	0.080	-0.048
-370.785	-200.000	-0.014	-0.101
-369.771	-200.000	0.018	-0.185
-368.756	800.000	-0.132	-0.369
-367.742	346.679	0.027	0.054
-366.727	51.531	0.056	0.053
-365.712	-129.207	0.296	0.041
-364.698	800.000	0.086	-0.265
-363.683	360.876	-0.047	-0.094
-362.669	562.014	-0.132	0.318
-361.654	800.000	0.087	0.265
-360.639	189.923	0.084	-0.125
-359.625	-39.952	-0.412	0.214
-358.610	800.000	0.008	0.029
-357.596	-75.558	-0.362	0.128
-356.581	-200.000	0.033	0.316
-355.566	-18.958	-0.178	0.110
-354.552	186.405	0.188	-0.278
-353.537	374.057	0.159	0.322
-352.523	-5.569	-0.209	0.142
-351.508	-143.765	-0.126	0.012
-350.493	-37.781	-0.215	0.114
-349.479	28.066	-0.130	-0.109
-348.464	-136.182	0.174	-0.020
-347.450	-200.000	0.049	-0.329
-346.435	115.807	0.158	0.192
-345.420	179.001	0.097	-0.141
-344.406	469.276	-0.158	0.353
-343.391	-35.873	0.156	-0.084
-342.377	70.732	0.255	-0.262
-341.362	153.816	-0.058	-0.080
-340.348	126.688	0.126	0.159
-339.333	54.135	0.104	-0.099
-338.318	-13.718	0.101	-0.065
-337.304	-70.657	0.192	-0.072
-336.289	10.482	-0.350	-0.265
-335.275	-89.988	0.354	0.102
-334.260	800.000	0.007	-0.023
-333.245	-200.000	0.024	0.000
-332.231	23.454	-0.222	-0.182
-331.216	-200.000	0.039	-0.275
-330.202	-83.340	0.378	-0.120
-329.187	800.000	-0.012	0.047
-328.172	437.876	0.075	-0.163
-327.158	102.481	0.325	-0.377
-326.143	800.000	0.073	0.208
-325.129	-200.000	0.057	-0.260
-324.114	379.338	0.145	0.295
-323.099	155.434	-0.060	-0.082
-322.085	-25.872	-0.281	-0.164
-321.070	-200.000	0.027	-0.121
-320.056	-79.361	-0.260	-0.087
-319.041	296.791	-0.138	0.250
-318.026	-200.000	-0.021	-0.281
-317.012	100.639	0.141	0.162
-315.997	-37.305	-0.229	0.121
-314.983	319.153	0.062	-0.117
-313.968	536.272	-0.069	0.163
-312.953	-134.200	-0.197	-0.024
-311.939	-27.070	0.295	0.170
-310.924	-89.754	-0.088	0.026
-309.910	-117.150	0.247	0.045
-308.895	-70.372	-0.084	0.032
-307.880	-200.000	-0.009	0.186
-306.866	-187.806	0.189	0.002
-305.851	-138.314	0.226	0.025
-304.837	-200.000	-0.027	0.298
-303.822	-23.293	0.311	-0.186
-302.807	800.000	-0.021	-0.057
-301.793	800.000	0.042	-0.171
-300.778	-173.191	-0.110	0.003
-299.764	86.150	0.106	-0.116
-298.749	-200.000	-0.004	-0.165
-297.735	-200.000	-0.019	0.293
-296.720	33.478	0.222	0.192
-295.705	38.752	0.183	0.162
-294.691	-41.991	0.186	-0.094
-293.676	77.311	0.052	-0.054
-292.662	-200.000	-0.025	-0.167
-291.647	-63.317	0.017	0.007
-290.632	-147.171	-0.289	-0.024
-289.618	-70.558	-0.119	-0.045
-288.603	-200.000	-0.009	0.129
-287.589	-200.000	0.030	-0.132
-286.574	-140.621	-0.101	0.010
-285.559	-134.621	0.333	0.040
-284.545	-200.000	-0.013	0.104
-283.530	-200.000	0.043	0.329
-282.516	-200.000	-0.020	0.279
-281.501	106.187	0.055	-0.065
-280.486	60.830	-0.082	-0.081
-279.472	-200.000	0.011	0.267
-278.457	43.694	-0.279	-0.253
-277.443	345.297	0.078	-0.152
-276.428	30.371	-0.244	-0.206
-275.413	-200.000	-0.046	0.243
-274.399	-90.242	-0.102	0.029
-273.384	-157.496	0.146	-0.009
-272.370	73.219	-0.205	-0.212
-271.355	196.067	0.128	-0.192
-270.340	260.101	0.091	-0.155
-269.326	800.000	0.073	-0.210
-268.311	178.578	-0.032	0.047
-267.297	-29.681	-0.269	-0.152
-266.282	184.515	0.087	-0.128
-265.267	2.247	-0.035	0.025
-264.253	-127.498	-0.599	-0.086
-263.238	21.310	-0.122	0.098
-262.224	-88.912	-0.093	-0.027
-261.209	-152.848	0.305	-0.021
-260.195	399.344	0.090	-0.187
-259.180	-200.000	-0.020	0.200
-258.165	-84.754	0.302	0.094
-257.151	-62.571	0.302	-0.124
-256.136	-3.520	-0.186	-0.128
-255.122	-200.000	0.006	0.084
-254.107	519.863	0.072	0.166
-253.092	800.000	0.033	0.140
-252.078	38.944	0.038	-0.033
-251.063	316.713	-0.085	-0.159
-250.049	-200.000	-0.037	0.161
-249.034	35.477	-0.063	-0.055
-248.019	-12.201	0.175	-0.113
-247.005	146.215	0.228	0.303
-245.990	-62.605	0.185	0.076
-244.976	-70.335	-0.134	0.050
-243.961	-116.675	0.169	0.031
-242.946	-32.116	0.472	0.261
-241.932	260.972	0.085	0.146
-240.917	800.000	-0.115	0.332
-239.903	258.402	-0.053	-0.090
-238.888	-106.816	0.097	0.021
-237.873	718.762	-0.130	0.342
-236.859	-30.238	0.331	0.186
-235.844	-136.012	0.257	0.030
-234.830	-175.085	-0.266	-0.007
-233.815	225.612	-0.042	-0.068
-232.800	-130.724	0.080	0.011
-231.786	-200.000	-0.025	-0.347
-230.771	333.226	-0.108	-0.207
-229.757	-57.476	0.400	0.174
-228.742	800.000	-0.011	-0.031
-227.727	-181.728	-0.191	-0.004
-226.713	-30.618	0.352	0.197
-225.698	-200.000	-0.046	0.281
-224.684	175.798	0.038	-0.055
-223.669	-66.571	0.245	-0.096
-222.655	-200.000	0.024	-0.230
-221.640	-53.998	0.466	0.209
-220.625	-104.250	-0.075	-0.017
-219.611	-200.000	0.054	-0.468
-218.596	-66.329	0.097	0.038
-217.582	457.693	-0.022	0.049
-216.567	-90.173	0.174	-0.050
-215.552	800.000	0.019	0.072
-214.538	19.131	-0.238	0.189
-213.523	-116.877	-0.077	0.014
-212.509	-194.958	-0.181	-0.001
-211.494	263.870	-0.118	-0.204
-210.479	1.707	-0.228	-0.162
-209.465	-200.000	-0.028	-0.225
-208.450	694.543	-0.019	-0.050
-207.436	138.059	0.051	0.066
-206.421	-71.376	-0.009	-0.003
-205.406	-200.000	0.012	0.158
-204.392	-148.961	0.229	0.018
-203.377	23.438	0.086	0.070
-202.363	800.000	-0.042	-0.167
-201.348	-115.273	0.218	-0.041
-200.333	13.225	0.093	-0.071
-199.319	148.717	0.118	-0.158
-198.304	-65.881	-0.073	-0.029
-197.290	-200.000	0.033	-0.542
-196.275	218.207	0.148	0.234
-195.260	223.223	0.039	-0.062
-194.246	-42.741	0.176	0.088
-193.231	-170.226	0.096	0.003
-192.217	96.758	-0.199	-0.225
-191.202	-200.000	-0.035	-0.377
-190.187	-87.040	0.231	-0.070
-189.173	-136.579	0.259	0.030
-188.158	318.925	-0.125	0.235
-187.144	9.971	0.223	-0.167
-186.129	9.604	-0.130	0.097
-185.114	-132.709	-0.229	0.029
-184.100	-200.000	0.016	-0.216
-183.085	-91.790	-0.236	-0.066
-182.071	800.000	0.022	0.095
-181.056	-114.991	0.057	-0.011
-180.042	708.467	-0.110	-0.287
-179.027	34.691	-0.094	0.081
-178.012	800.000	0.043	0.118
-176.998	58.138	-0.083	0.080
-175.983	28.201	0.222	-0.185
-174.969	-200.000	0.032	-0.163
-173.954	-22.344	-0.145	-0.087
-172.939	124.735	-0.132	0.164
-171.925	-200.000	-0.008	-0.135
-170.910	-22.348	-0.210	0.126
-169.896	157.399	-0.270	0.369
-168.881	-5.453	0.366	0.248
-167.866	-76.813	-0.248	-0.086
-166.852	-97.529	0.583	-0.149
-165.837	-14.813	0.291	-0.184
-164.823	35.935	-0.095	-0.082
-163.808	-2.870	0.213	0.147
-162.793	-36.594	-0.097	-0.052
-161.779	-21.080	0.148	-0.089
-160.764	-96.753	0.151	-0.039
-159.750	-0.703	0.240	0.168
-158.735	-200.000	-0.000	0.017
-157.720	58.027	-0.094	0.090
-156.706	597.108	0.095	-0.231
-155.691	290.934	0.134	-0.240
-154.677	-106.349	-0.099	-0.022
-153.662	-200.000	0.009	0.047
-152.647	-110.777	-0.363	0.074
-151.633	-145.870	0.183	0.016
-150.618	-200.000	-0.054	0.292
-149.604	-87.459	-0.261	0.078
-148.589	374.021	-0.252	-0.505
-147.574	210.388	0.233	-0.361
-146.560	-168.075	0.153	0.006
-145.545	208.377	0.078	0.121
-144.531	800.000	0.085	0.241
-143.516	299.871	0.309	-0.561
-142.502	49.035	-0.119	0.110
-141.487	48.756	-0.176	0.162
-140.472	-200.000	-0.029	0.167
-139.458	-200.000	0.005	-0.234
-138.443	17.740	-0.112	-0.088
-137.429	46.275	-0.131	0.120
-136.414	304.830	-0.217	0.397
-135.399	279.560	0.053	0.093
-134.385	563.367	-0.052	-0.124
-133.370	-200.000	0.026	0.140
-132.356	-146.421	0.239	-0.021
-131.341	184.831	0.037	-0.055
-130.326	-72.049	0.039	0.014
-129.312	-45.133	0.208	0.102
-128.297	609.761	-0.064	0.157
-127.283	-141.411	0.382	0.038
-126.268	-108.095	-0.427	0.091
-125.253	800.000	0.012	-0.049
-124.239	-200.000	-0.054	-0.381
-123.224	357.763	-0.096	-0.188
-122.210	-131.512	-0.379	-0.049
