DTS Sentinel unit serial number:	SN413079Multiplexer serial number:	ORYXHardware model number:	OX4-SRSoftware version number:	ORYX F/W v4.00 Oryx Data Collector v3.7.2.0data status	okinstallation	princeton_trtdifferential loss correction	single-endedforward channel	channel 2reverse channel	N/Adate	2019/09/17time	22:19:35forward acquisition time	60.00reverse acquisition time	0.00gamma	496.2192k internal	0.2344k external	0.2344temperature offset calibration	0.9984default loss term (dB/km)	0.3790temperature slope calibration	1.0000multiplexer offset coefficient	1.0000multiplexer slope coefficient	1.0000fibre end	0.00T internal ref (°C)	25.56T ext. ref 1 (°C)	0.18T ext. ref 2 (°C)	18.60length (m)	temperature (°C)	Stokes	anti-Stokes-747.200	-23.346	0.047	-0.028
-746.185	-145.312	-0.130	0.012
-745.171	47.138	0.154	0.143
-744.156	-200.000	-0.015	0.197
-743.142	368.019	0.085	0.172
-742.127	216.766	0.072	0.115
-741.112	121.278	-0.004	-0.005
-740.098	800.000	0.125	0.419
-739.083	-200.000	-0.011	0.204
-738.069	54.480	-0.302	0.291
-737.054	-200.000	0.023	0.240
-736.039	800.000	-0.081	-0.341
-735.025	-80.085	-0.200	-0.067
-734.010	-70.521	-0.469	0.178
-732.996	-50.074	0.069	-0.033
-731.981	-200.000	-0.045	-0.229
-730.966	480.542	-0.134	0.305
-729.952	-200.000	0.011	0.142
-728.937	536.512	0.053	0.125
-727.923	-59.362	-0.233	0.100
-726.908	219.372	-0.178	0.285
-725.894	-108.562	0.170	-0.036
-724.879	-155.824	-0.135	-0.009
-723.864	231.573	0.118	-0.193
-722.850	-200.000	-0.022	0.237
-721.835	-109.149	0.492	-0.105
-720.821	-200.000	0.043	-0.364
-719.806	-143.414	0.120	0.011
-718.791	-177.923	-0.453	0.011
-717.777	-26.321	-0.290	0.170
-716.762	27.371	-0.233	-0.196
-715.748	13.957	0.131	-0.102
-714.733	-76.914	-0.101	-0.035
-713.718	800.000	0.076	0.225
-712.704	37.307	-0.185	0.164
-711.689	-200.000	-0.033	-0.429
-710.675	-27.574	-0.090	-0.052
-709.660	432.647	-0.059	-0.129
-708.645	-65.985	0.281	-0.112
-707.631	215.698	0.073	0.115
-706.616	-112.445	0.195	0.039
-705.602	-200.000	-0.019	0.114
-704.587	158.594	0.073	0.101
-703.572	-48.899	0.113	0.054
-702.558	-200.000	0.035	-0.165
-701.543	183.957	0.173	-0.255
-700.529	-155.198	0.198	0.013
-699.514	181.205	-0.056	-0.083
-698.499	459.953	-0.201	-0.447
-697.485	250.788	-0.132	0.224
-696.470	-50.758	-0.401	-0.188
-695.456	39.485	-0.224	-0.200
-694.441	191.944	0.074	0.111
-693.426	-0.456	-0.244	-0.173
-692.412	-57.369	0.269	-0.118
-691.397	34.754	0.162	-0.142
-690.383	-67.444	-0.248	0.097
-689.368	-200.000	0.067	-0.346
-688.354	800.000	0.024	0.092
-687.339	204.283	0.075	-0.117
-686.324	-161.069	0.247	0.013
-685.310	48.324	0.151	-0.141
-684.295	283.999	-0.204	0.366
-683.281	800.000	-0.060	-0.204
-682.266	-200.000	0.103	-0.492
-681.251	63.473	0.147	0.148
-680.237	-128.482	-0.451	0.064
-679.222	800.000	0.155	-0.471
-678.208	36.139	0.129	-0.114
-677.193	800.000	0.116	0.414
-676.178	800.000	-0.032	0.118
-675.164	213.990	-0.239	-0.378
-674.149	800.000	0.108	-0.318
-673.135	190.978	0.077	-0.116
-672.120	22.101	0.279	-0.228
-671.105	207.017	-0.257	0.400
-670.091	276.302	-0.042	0.075
-669.076	-62.066	0.135	0.056
-668.062	-61.202	-0.134	-0.056
-667.047	-178.376	0.024	-0.001
-666.032	140.131	0.322	0.424
-665.018	-32.943	0.076	0.042
-664.003	-29.585	-0.292	-0.166
-662.989	80.465	-0.078	0.084
-661.974	-159.813	-0.392	0.022
-660.959	94.508	-0.133	-0.151
-659.945	205.615	0.072	0.112
-658.930	168.229	-0.066	-0.093
-657.916	-33.089	-0.191	-0.105
-656.901	-200.000	0.047	-0.417
-655.886	-179.110	-0.505	0.011
-654.872	-200.000	0.010	0.051
-653.857	-62.533	-0.217	-0.090
-652.843	-200.000	0.063	-0.316
-651.828	76.710	-0.092	0.097
-650.814	-152.013	-0.143	0.010
-649.799	800.000	0.034	-0.099
-648.784	-93.501	0.198	-0.055
-647.770	800.000	-0.033	0.133
-646.755	616.896	0.101	0.252
-645.741	341.109	0.042	0.083
-644.726	605.069	0.049	0.122
-643.711	-118.156	-0.117	-0.021
-642.697	152.332	0.101	0.137
-641.682	-200.000	-0.023	-0.300
-640.668	580.440	-0.168	0.412
-639.653	209.202	0.100	-0.156
-638.638	-118.489	-0.230	-0.041
-637.624	-56.903	-0.401	-0.177
-636.609	-41.934	-0.342	0.175
-635.595	-95.586	-0.094	0.025
-634.580	1.551	-0.035	-0.025
-633.565	31.913	0.154	0.132
-632.551	778.145	0.091	-0.249
-631.536	-118.389	-0.149	-0.026
-630.522	438.807	-0.128	-0.279
-629.507	251.485	-0.089	-0.151
-628.492	-200.000	-0.037	-0.171
-627.478	800.000	0.133	0.420
-626.463	255.787	0.095	0.163
-625.449	161.411	-0.045	-0.062
-624.434	11.286	0.160	-0.122
-623.419	800.000	-0.056	0.169
-622.405	-79.958	0.362	0.121
-621.390	111.291	-0.081	0.098
-620.376	99.082	0.035	-0.040
-619.361	-35.214	0.233	-0.126
-618.346	-200.000	-0.029	-0.145
-617.332	800.000	-0.030	-0.117
-616.317	-200.000	0.040	-0.204
-615.303	305.545	0.085	-0.157
-614.288	-40.027	0.173	0.090
-613.273	5.524	0.277	0.204
-612.259	-79.371	-0.022	-0.008
-611.244	-124.555	-0.333	0.051
-610.230	-48.654	-0.277	0.133
-609.215	212.741	0.082	0.129
-608.201	-74.089	-0.250	-0.090
-607.186	800.000	-0.022	-0.062
-606.171	-129.949	-0.381	-0.052
-605.157	608.390	0.115	0.285
-604.142	-100.306	-0.333	0.082
-603.128	800.000	-0.056	0.161
-602.113	-200.000	-0.017	0.250
-601.098	613.366	0.186	0.464
-600.084	89.252	-0.373	0.414
-599.069	-21.417	-0.192	-0.117
-598.055	-200.000	-0.068	-0.432
-597.040	-97.120	-0.133	-0.035
-596.025	194.153	-0.030	0.046
-595.011	264.767	-0.171	0.297
-593.996	50.909	0.055	0.052
-592.982	-49.018	-0.097	0.046
-591.967	-134.725	-0.226	0.027
-590.952	-78.739	-0.095	0.032
-589.938	797.303	-0.128	-0.350
-588.923	242.684	0.149	-0.248
-587.909	-200.000	-0.027	0.355
-586.894	266.302	-0.239	0.414
-585.879	800.000	-0.053	-0.204
-584.865	606.910	0.044	0.110
-583.850	-200.000	-0.001	0.277
-582.836	800.000	-0.110	0.399
-581.821	-200.000	-0.006	-0.026
-580.806	76.522	-0.158	-0.166
-579.792	410.232	-0.083	0.175
-578.777	-52.196	0.264	-0.122
-577.763	48.202	-0.059	-0.055
-576.748	63.263	0.140	0.139
-575.733	-200.000	0.008	-0.301
-574.719	-2.862	0.061	-0.043
-573.704	23.181	-0.157	-0.128
-572.690	-200.000	-0.023	-0.194
-571.675	-18.911	-0.155	-0.096
-570.661	230.222	-0.145	-0.236
-569.646	-200.000	0.010	0.151
-568.631	490.176	-0.163	0.372
-567.617	800.000	0.063	-0.182
-566.602	80.885	-0.166	-0.178
-565.588	800.000	-0.075	-0.240
-564.573	800.000	0.091	0.317
-563.558	-13.094	-0.062	0.040
-562.544	-200.000	-0.066	-0.330
-561.529	-18.797	0.059	-0.037
-560.515	-200.000	0.001	0.055
-559.500	-200.000	0.033	0.203
-558.485	-144.943	-0.168	0.015
-557.471	-200.000	0.081	0.482
-556.456	800.000	-0.035	0.114
-555.442	-137.933	0.109	-0.012
-554.427	-69.526	0.179	0.068
-553.412	-200.000	-0.002	0.251
-552.398	-27.869	-0.301	-0.174
-551.383	-106.239	0.295	0.066
-550.369	641.333	-0.122	-0.309
-549.354	800.000	-0.043	0.129
-548.339	-80.746	0.013	0.004
-547.325	-106.167	-0.148	0.033
-546.310	-200.000	0.005	-0.074
-545.296	39.291	-0.073	0.065
-544.281	121.517	0.231	-0.286
-543.266	94.280	-0.192	0.217
-542.252	-16.748	0.228	0.143
-541.237	463.960	-0.166	-0.369
-540.223	60.347	-0.112	-0.111
-539.208	-59.212	0.073	0.031
-538.193	-72.319	-0.061	0.022
-537.179	119.864	0.108	-0.132
-536.164	-200.000	0.001	0.235
-535.150	-35.097	0.324	-0.175
-534.135	-131.537	-0.380	-0.050
-533.121	-144.108	-0.194	-0.018
-532.106	94.574	0.071	0.080
-531.091	32.427	0.096	0.082
-530.077	170.628	0.286	-0.406
-529.062	-83.598	-0.091	-0.029
-528.048	-144.878	-0.129	0.012
-527.033	800.000	0.037	-0.128
-526.018	800.000	-0.081	0.237
-525.004	13.435	0.218	-0.167
-523.989	-139.444	-0.283	-0.030
-522.975	-162.766	-0.125	-0.006
-521.960	284.622	-0.139	0.248
-520.945	394.187	-0.185	0.383
-519.931	71.452	-0.177	0.182
-518.916	-22.422	0.183	0.110
-517.902	-185.936	0.080	-0.001
-516.887	-32.005	-0.289	0.161
-515.872	-200.000	-0.031	-0.233
-514.858	-52.608	-0.105	-0.048
-513.843	142.713	-0.069	0.090
-512.829	24.013	0.274	-0.224
-511.814	18.443	-0.062	-0.049
-510.799	24.782	-0.361	-0.297
-509.785	800.000	0.112	-0.339
-508.770	128.190	0.115	-0.145
-507.756	64.319	-0.125	0.125
-506.741	498.647	-0.103	-0.236
-505.726	-200.000	0.037	-0.227
-504.712	260.543	0.143	0.245
-503.697	-30.616	-0.248	-0.139
-502.683	385.137	-0.044	-0.091
-501.668	122.878	0.246	-0.305
-500.653	84.187	0.115	0.125
-499.639	-159.068	0.248	-0.014
-498.624	800.000	-0.089	-0.264
-497.610	-200.000	-0.022	-0.259
-496.595	-66.087	0.096	-0.038
-495.581	-134.435	0.230	-0.028
-494.566	-200.000	0.016	-0.256
-493.551	-71.626	0.083	0.031
-492.537	-75.851	-0.337	-0.118
-491.522	-200.000	0.004	-0.187
-490.508	28.729	-0.082	0.069
-489.493	-200.000	-0.012	0.112
-488.478	800.000	-0.044	0.162
-487.464	-120.655	-0.135	-0.023
-486.449	-170.995	0.179	-0.006
-485.435	40.535	0.065	-0.058
-484.420	-200.000	-0.011	0.108
-483.405	-156.925	0.425	-0.026
-482.391	-200.000	0.019	-0.093
-481.376	800.000	-0.072	-0.264
-480.362	-149.370	0.292	0.023
-479.347	-173.499	0.283	0.008
-478.332	133.672	-0.111	0.142
-477.318	-200.000	0.006	0.045
-476.303	-200.000	0.008	0.164
-475.289	-112.451	-0.182	0.036
-474.274	-200.000	0.001	-0.005
-473.259	77.568	0.136	0.144
-472.245	132.623	0.079	0.100
-471.230	57.062	0.246	-0.238
-470.216	800.000	0.102	0.358
-469.201	-2.138	-0.093	0.065
-468.186	33.576	0.219	-0.188
-467.172	-74.841	-0.480	0.171
-466.157	420.259	0.052	-0.110
-465.143	114.375	-0.057	0.069
-464.128	31.016	-0.109	0.093
-463.113	586.310	-0.058	0.140
-462.099	72.256	0.246	0.254
-461.084	-22.605	0.365	-0.218
-460.070	-141.383	0.099	-0.010
-459.055	-84.189	-0.104	0.033
-458.040	800.000	-0.030	0.090
-457.026	23.042	0.110	-0.089
-456.011	46.309	-0.039	0.035
-454.997	-70.008	-0.115	0.043
-453.982	-30.229	0.359	-0.202
-452.968	281.094	0.106	-0.187
-451.953	-94.644	0.065	0.018
-450.938	800.000	0.084	0.281
-449.924	-74.284	-0.116	0.041
-448.909	21.539	0.306	0.247
-447.895	-91.390	-0.106	-0.030
-446.880	-200.000	0.055	-0.353
-445.865	-39.067	0.117	-0.061
-444.851	800.000	-0.084	0.258
-443.836	-200.000	-0.010	-0.062
-442.822	800.000	0.043	-0.151
-441.807	-83.632	-0.233	0.074
-440.792	800.000	0.030	0.114
-439.778	337.298	-0.106	0.204
-438.763	-200.000	0.008	0.120
-437.749	800.000	0.061	-0.222
-436.734	194.390	0.110	0.165
-435.719	358.486	0.117	0.232
-434.705	-200.000	0.056	0.278
-433.690	160.796	0.149	0.205
-432.676	-145.334	-0.319	-0.028
-431.661	-147.674	0.038	0.003
-430.646	-51.570	0.058	0.027
-429.632	-123.665	0.100	0.016
-428.617	-151.116	0.384	0.028
-427.603	492.339	-0.184	-0.418
-426.588	11.718	0.237	-0.180
-425.573	-61.619	0.258	-0.107
-424.559	233.966	-0.040	0.065
-423.544	-54.262	-0.177	-0.079
-422.530	317.890	0.064	-0.120
-421.515	294.100	-0.128	-0.231
-420.500	-73.429	-0.212	-0.077
-419.486	9.930	0.178	0.134
-418.471	23.176	-0.131	0.107
-417.457	158.951	-0.123	-0.169
-416.442	-15.592	-0.305	-0.193
-415.428	-1.468	-0.132	0.092
-414.413	-16.918	0.216	0.135
-413.398	-19.222	0.053	-0.033
-412.384	189.125	-0.164	-0.243
-411.369	30.508	0.164	0.138
-410.355	800.000	-0.130	0.392
-409.340	-178.950	-0.045	-0.001
-408.325	104.786	0.096	-0.111
-407.311	-8.702	-0.132	-0.087
-406.296	-4.764	0.114	-0.078
-405.282	-48.386	-0.127	0.061
-404.267	175.080	0.192	0.275
-403.252	458.784	-0.115	-0.252
-402.238	-100.413	-0.168	0.041
-401.223	-61.633	-0.028	0.012
-400.209	-7.015	-0.026	0.017
-399.194	800.000	-0.014	-0.051
-398.179	-200.000	0.083	-0.381
-397.165	14.925	-0.102	0.079
-396.150	456.783	0.055	-0.120
-395.136	-200.000	-0.042	0.205
-394.121	-80.610	-0.250	-0.082
-393.106	46.920	-0.304	-0.279
-392.092	800.000	-0.096	-0.312
-391.077	-52.324	0.463	-0.212
-390.063	13.441	0.296	0.227
-389.048	11.221	-0.113	0.085
-388.033	81.881	-0.062	-0.066
-387.019	-200.000	0.009	-0.127
-386.004	800.000	0.059	-0.183
-384.990	-200.000	-0.079	0.458
-383.975	-200.000	0.032	-0.195
-382.960	-200.000	-0.031	0.227
-381.946	29.478	0.132	-0.111
-380.931	-186.366	0.127	0.002
-379.917	-200.000	-0.026	0.141
-378.902	-104.444	0.066	0.015
-377.888	-200.000	-0.023	-0.249
-376.873	-47.722	-0.159	-0.076
-375.858	33.880	0.165	0.142
-374.844	-200.000	0.015	-0.191
-373.829	-95.278	-0.249	-0.066
-372.815	-69.959	0.196	-0.074
-371.800	-35.844	-0.252	-0.135
-370.785	31.196	-0.354	-0.299
-369.771	517.446	0.107	-0.247
-368.756	4.418	-0.341	-0.247
-367.742	-78.309	-0.199	0.068
-366.727	257.011	0.127	-0.215
-365.712	-69.011	0.207	-0.079
-364.698	800.000	-0.048	0.179
-363.683	-129.944	-0.292	-0.039
-362.669	90.771	0.259	0.287
-361.654	65.557	0.098	-0.098
-360.639	-65.488	0.294	0.116
-359.625	-85.578	0.082	-0.025
-358.610	35.735	0.148	0.128
-357.596	665.987	0.036	-0.093
-356.581	-200.000	0.049	-0.319
-355.566	-60.982	-0.411	-0.171
-354.552	109.518	0.116	0.137
-353.537	393.938	-0.201	-0.412
-352.523	-200.000	0.015	-0.159
-351.508	-40.876	-0.318	0.162
-350.493	5.559	0.247	0.180
-349.479	-119.568	0.208	-0.035
-348.464	-200.000	-0.056	-0.256
-347.450	651.527	0.057	0.143
-346.435	183.549	0.351	-0.511
-345.420	503.780	-0.089	-0.204
-344.406	282.443	0.103	-0.182
-343.391	265.975	-0.247	0.425
-342.377	800.000	-0.089	-0.243
-341.362	-200.000	-0.001	0.057
-340.348	412.778	0.074	-0.155
-339.333	77.433	0.227	0.238
-338.318	-200.000	-0.032	0.174
-337.304	599.787	-0.174	-0.424
-336.289	141.399	0.084	0.109
-335.275	-38.655	-0.335	0.174
-334.260	401.722	0.078	-0.161
-333.245	33.941	0.141	-0.121
-332.231	125.440	-0.155	0.192
-331.216	-89.362	-0.035	0.010
-330.202	-64.605	-0.208	0.083
-329.187	67.063	0.160	-0.161
-328.172	-59.753	-0.220	0.093
-327.158	0.445	-0.063	-0.044
-326.143	-8.434	0.152	-0.101
-325.129	190.204	-0.112	-0.166
-324.114	-15.174	0.191	0.120
-323.099	-200.000	0.009	-0.085
-322.085	-144.538	-0.230	0.021
-321.070	140.841	0.255	0.332
-320.056	74.010	-0.105	0.109
-319.041	-145.967	0.056	-0.005
-318.026	-45.605	0.221	0.108
-317.012	136.061	-0.099	0.127
-315.997	94.931	-0.138	-0.155
-314.983	551.074	0.118	-0.279
-313.968	-12.398	-0.126	0.081
-312.953	58.286	0.072	0.069
-311.939	-200.000	0.013	-0.070
-310.924	-200.000	0.060	0.000
-309.910	-114.281	-0.130	-0.025
-308.895	748.509	0.141	0.374
-307.880	-95.524	-0.288	0.076
-306.866	-200.000	0.026	0.288
-305.851	-83.281	-0.305	0.096
-304.837	800.000	-0.036	0.135
-303.822	-200.000	0.014	-0.152
-302.807	-18.501	-0.220	0.135
-301.793	-57.986	0.281	-0.121
-300.778	-200.000	-0.005	-0.305
-299.764	800.000	-0.059	0.204
-298.749	19.102	-0.178	-0.140
-297.735	80.358	-0.151	-0.160
-296.720	-200.000	-0.015	-0.099
-295.705	-101.175	0.115	-0.028
-294.691	-69.094	0.364	0.138
-293.676	800.000	0.053	0.197
-292.662	-200.000	0.048	0.300
-291.647	14.716	-0.131	-0.101
-290.632	-200.000	0.018	0.374
-289.618	-135.414	-0.263	-0.031
-288.603	-101.500	-0.279	0.067
-287.589	346.156	0.021	0.041
-286.574	432.969	-0.030	-0.064
-285.559	800.000	0.092	0.384
-284.545	-27.536	0.391	-0.223
-283.530	52.538	-0.118	0.110
-282.516	155.518	0.187	-0.253
-281.501	-5.747	-0.116	-0.078
-280.486	800.000	-0.090	-0.349
-279.472	-72.023	0.084	-0.031
-278.457	-200.000	0.019	-0.260
-277.443	-96.255	0.332	0.087
-276.428	222.525	0.084	-0.132
-275.413	-100.008	-0.065	-0.016
-274.399	-92.849	-0.105	-0.029
-273.384	477.459	0.079	0.175
-272.370	84.423	-0.059	-0.064
-271.355	78.375	-0.064	0.068
-270.340	-200.000	-0.101	0.000
-269.326	130.175	0.183	-0.230
-268.311	-200.000	-0.010	0.113
-267.297	-27.283	0.230	-0.131
-266.282	126.252	0.050	0.062
-265.267	172.334	-0.088	0.124
-264.253	229.755	0.183	0.293
-263.238	23.879	0.187	-0.151
-262.224	800.000	-0.051	-0.139
-261.209	477.600	0.089	-0.199
-260.195	800.000	0.019	0.064
-259.180	-200.000	0.013	0.057
-258.165	51.617	0.195	-0.182
-257.151	-17.877	0.019	-0.012
-256.136	-101.955	0.188	-0.044
-255.122	-125.909	0.175	0.026
-254.107	-179.508	0.290	0.006
-253.092	-200.000	0.005	0.111
-252.078	535.175	0.118	-0.274
-251.063	210.265	-0.098	-0.150
-250.049	42.691	0.364	0.325
-249.034	800.000	0.025	-0.076
-248.019	-45.695	-0.169	0.082
-247.005	-51.639	0.139	-0.063
-245.990	-200.000	0.016	0.158
-244.976	-67.022	0.208	0.081
-243.961	-200.000	-0.040	-0.255
-242.946	800.000	-0.016	0.044
-241.932	-112.165	-0.162	-0.032
-240.917	175.850	0.075	-0.106
-239.903	267.890	0.147	0.252
-238.888	800.000	0.099	0.300
-237.873	231.994	0.076	-0.123
-236.859	-41.539	-0.205	-0.103
-235.844	-200.000	-0.048	-0.276
-234.830	21.206	0.229	0.183
-233.815	-115.929	-0.192	-0.035
-232.800	-200.000	-0.024	0.292
-231.786	2.315	-0.218	-0.155
-230.771	82.336	-0.129	-0.137
-229.757	-200.000	0.065	0.557
-228.742	534.509	0.022	0.050
-227.727	21.277	-0.272	0.216
-226.713	505.899	-0.050	0.113
-225.698	579.576	0.057	0.138
-224.684	-200.000	0.020	-0.199
-223.669	-200.000	0.051	-0.303
-222.655	800.000	-0.037	-0.135
-221.640	-118.304	0.312	0.054
-220.625	34.430	-0.121	-0.103
-219.611	-34.680	0.322	-0.173
-218.596	99.457	0.113	-0.128
-217.582	-33.196	-0.461	0.250
-216.567	-200.000	0.052	0.366
-215.552	405.995	0.180	-0.373
-214.538	227.073	-0.104	0.165
-213.523	-25.118	0.213	-0.124
-212.509	41.584	-0.125	0.111
-211.494	-200.000	0.012	-0.055
-210.479	-200.000	-0.001	0.157
-209.465	-132.596	-0.053	0.007
-208.450	191.210	0.097	-0.143
-207.436	361.391	-0.153	0.300
-206.421	-167.121	-0.150	0.006
-205.406	42.539	-0.140	0.125
-204.392	2.365	0.292	-0.207
-203.377	378.661	-0.051	0.101
-202.363	-101.802	0.096	-0.023
-201.348	-133.287	-0.155	0.019
-200.333	52.167	-0.286	-0.267
-199.319	193.096	0.090	0.133
-198.304	476.624	-0.063	0.140
-197.290	140.927	-0.263	-0.340
-196.275	800.000	0.180	0.538
-195.260	319.064	0.167	0.310
-194.246	-67.015	0.272	-0.105
-193.231	88.513	-0.162	-0.177
-192.217	132.293	0.236	-0.298
-191.202	275.766	-0.148	0.257
-190.187	484.649	-0.042	0.093
-189.173	-186.401	0.506	0.007
-188.158	-200.000	-0.013	0.062
-187.144	-129.544	0.488	-0.066
-186.129	-92.718	-0.280	-0.077
-185.114	23.324	0.187	0.150
-184.100	403.726	-0.025	-0.052
-183.085	145.180	0.170	0.222
-182.071	340.430	-0.075	-0.143
-181.056	-89.692	0.466	-0.134
-180.042	760.672	-0.005	-0.014
-179.027	-106.166	0.209	0.046
-178.012	-59.103	-0.155	-0.065
-176.998	-200.000	0.004	0.132
-175.983	-200.000	0.008	0.127
-174.969	521.762	-0.153	0.352
-173.954	-200.000	0.006	0.027
-172.939	-26.174	-0.288	0.166
-171.925	-5.708	-0.195	0.131
-170.910	77.294	-0.094	0.098
-169.896	-98.476	0.192	-0.048
-168.881	620.965	0.068	0.167
-167.866	411.489	-0.072	-0.149
-166.852	50.801	-0.244	0.226
-165.837	-107.894	0.378	0.081
-164.823	-48.662	-0.181	0.085
-163.808	800.000	0.015	-0.057
-162.793	441.561	-0.140	-0.301
-161.779	-200.000	0.004	0.108
-160.764	20.419	-0.167	-0.132
-159.750	57.706	0.077	-0.074
-158.735	-6.158	-0.083	-0.055
-157.720	409.605	0.068	-0.141
-156.706	-167.730	0.153	-0.006
-155.691	82.882	0.163	0.173
-154.677	190.950	-0.042	0.061
-153.662	800.000	0.034	0.099
-152.647	-116.750	0.114	0.020
-151.633	-175.297	0.142	-0.004
-150.618	-117.479	0.197	0.035
-149.604	206.198	-0.173	0.263
-148.589	-200.000	0.004	-0.024
-147.574	343.706	-0.074	-0.142
-146.560	456.970	-0.044	0.096
-145.545	-134.663	-0.210	-0.025
-144.531	-200.000	-0.030	-0.279
-143.516	-19.438	-0.157	-0.095
-142.502	194.445	0.054	0.080
-141.487	-55.487	0.130	0.057
-140.472	800.000	0.095	-0.361
-139.458	-140.106	-0.345	0.035
-138.443	183.474	0.233	0.336
-137.429	-96.883	-0.269	-0.069
-136.414	-200.000	0.051	0.263
-135.399	-125.550	0.181	0.027
-134.385	800.000	-0.045	0.186
-133.370	144.970	-0.086	-0.112
-132.356	49.138	0.064	-0.058
-131.341	29.575	0.256	0.213
-130.326	-200.000	-0.022	0.192
-129.312	724.634	0.102	0.265
-128.297	434.775	0.075	0.160
-127.283	-76.800	0.114	-0.039
-126.268	800.000	-0.071	-0.232
-125.253	-7.695	-0.278	0.184
-124.239	-1.374	-0.054	0.037
-123.224	0.906	0.196	0.138
-122.210	142.739	-0.108	0.141
-121.195	720.456	-0.156	0.405
