DTS Sentinel unit serial number:	SN413079Multiplexer serial number:	ORYXHardware model number:	OX4-SRSoftware version number:	ORYX F/W v4.00 Oryx Data Collector v3.7.2.0data status	okinstallation	princeton_trtdifferential loss correction	single-endedforward channel	channel 2reverse channel	N/Adate	2019/09/14time	09:51:35forward acquisition time	60.00reverse acquisition time	0.00gamma	496.2192k internal	0.2321k external	0.2321temperature offset calibration	1.0133default loss term (dB/km)	0.3790temperature slope calibration	1.0000multiplexer offset coefficient	1.0000multiplexer slope coefficient	1.0000fibre end	0.00T internal ref (°C)	32.56T ext. ref 1 (°C)	3.97T ext. ref 2 (°C)	30.80length (m)	temperature (°C)	Stokes	anti-Stokes-747.200	800.000	0.061	-0.244
-746.185	45.115	0.130	0.121
-745.171	-80.188	-0.071	0.024
-744.156	-196.101	-0.176	-0.001
-743.142	800.000	-0.019	0.065
-742.127	800.000	0.053	0.202
-741.112	-117.766	-0.352	-0.064
-740.098	15.502	-0.189	0.150
-739.083	-65.397	-0.252	0.102
-738.069	-200.000	-0.052	-0.247
-737.054	800.000	0.104	0.377
-736.039	598.803	0.038	-0.096
-735.025	-200.000	0.029	0.358
-734.010	43.990	-0.293	-0.271
-732.996	-200.000	-0.011	-0.304
-731.981	752.971	-0.126	-0.345
-730.966	-110.539	0.141	-0.030
-729.952	87.740	-0.071	-0.079
-728.937	103.579	-0.046	-0.054
-727.923	-42.790	-0.188	-0.096
-726.908	-200.000	0.020	-0.229
-725.894	-99.356	-0.119	0.030
-724.879	-157.333	-0.050	0.003
-723.864	-200.000	-0.030	-0.336
-722.850	800.000	-0.048	-0.210
-721.835	-200.000	-0.014	-0.153
-720.821	800.000	-0.093	-0.375
-719.806	8.589	0.236	-0.180
-718.791	38.400	-0.065	-0.058
-717.777	-200.000	-0.013	0.113
-716.762	-108.023	-0.035	0.008
-715.748	800.000	0.121	0.361
-714.733	-200.000	-0.000	-0.045
-713.718	-200.000	0.034	-0.190
-712.704	-126.705	0.294	0.044
-711.689	-109.423	-0.213	-0.045
-710.675	121.963	0.209	0.263
-709.660	-89.751	-0.010	-0.003
-708.645	800.000	-0.034	-0.135
-707.631	-77.987	0.181	0.063
-706.616	-53.445	0.252	0.116
-705.602	702.063	0.189	-0.503
-704.587	177.520	-0.083	-0.122
-703.572	800.000	0.019	-0.079
-702.558	76.587	0.183	-0.196
-701.543	104.601	0.096	-0.114
-700.529	-35.821	-0.290	0.159
-699.514	-200.000	0.041	-0.204
-698.499	-103.030	-0.282	0.067
-697.485	800.000	-0.086	-0.370
-696.470	-200.000	0.000	-0.293
-695.456	800.000	0.054	-0.161
-694.441	800.000	0.061	0.224
-693.426	-131.615	-0.317	-0.042
-692.412	26.630	-0.295	-0.249
-691.397	-200.000	-0.036	-0.313
-690.383	246.335	0.057	0.098
-689.368	454.864	-0.114	-0.254
-688.354	-88.314	0.121	-0.036
-687.339	-70.406	0.105	0.040
-686.324	4.762	0.522	-0.387
-685.310	-185.387	-0.111	0.002
-684.295	-200.000	-0.041	-0.214
-683.281	386.410	-0.122	0.253
-682.266	-68.373	-0.318	-0.124
-681.251	-200.000	0.002	0.023
-680.237	-166.832	0.209	0.009
-679.222	-185.844	-0.065	0.001
-678.208	800.000	-0.065	-0.256
-677.193	140.659	-0.251	0.334
-676.178	80.759	-0.130	-0.141
-675.164	327.982	-0.084	-0.162
-674.149	32.162	-0.396	0.345
-673.135	-200.000	0.020	-0.096
-672.120	330.519	0.068	0.132
-671.105	-200.000	0.025	-0.112
-670.091	524.765	-0.033	-0.077
-669.076	4.134	-0.063	-0.047
-668.062	-86.580	-0.308	0.095
-667.047	-29.559	0.188	0.108
-666.032	269.340	-0.162	-0.287
-665.018	-114.312	0.058	0.011
-664.003	474.560	-0.057	0.129
-662.989	-4.761	-0.171	0.119
-661.974	-55.089	0.058	0.026
-660.959	-72.481	0.137	0.051
-659.945	-62.009	0.217	0.091
-658.930	21.145	0.313	0.256
-657.916	644.490	-0.085	0.218
-656.901	-40.363	-0.288	-0.151
-655.886	-98.650	-0.171	0.044
-654.872	-111.906	0.296	0.060
-653.857	-140.559	0.371	-0.039
-652.843	272.297	0.073	-0.130
-651.828	159.706	-0.119	-0.166
-650.814	228.914	-0.056	-0.092
-649.799	-19.895	-0.081	-0.050
-648.784	800.000	-0.143	0.486
-647.770	-200.000	-0.022	0.204
-646.755	25.191	0.317	0.265
-645.741	-47.722	-0.083	0.041
-644.726	428.340	0.114	-0.248
-643.711	-60.702	0.145	0.062
-642.697	-22.023	-0.357	0.219
-641.682	503.337	0.046	-0.106
-640.668	-146.005	0.300	-0.027
-639.653	239.894	-0.279	-0.467
-638.638	-109.388	-0.140	0.030
-637.624	7.313	0.292	-0.220
-636.609	130.623	-0.117	0.151
-635.595	-45.591	0.366	0.182
-634.580	52.617	0.177	0.170
-633.565	-200.000	0.003	-0.013
-632.551	507.017	-0.011	0.026
-631.536	-73.854	-0.063	-0.023
-630.522	42.282	-0.262	-0.240
-629.507	269.332	-0.080	-0.140
-628.492	285.699	-0.084	-0.153
-627.478	-200.000	0.016	-0.158
-626.463	24.414	-0.123	0.102
-625.449	-129.127	-0.116	0.016
-624.434	321.776	0.074	-0.142
-623.419	-200.000	-0.037	-0.506
-622.405	-200.000	0.016	0.166
-621.390	101.841	0.104	0.122
-620.376	-90.918	-0.226	0.065
-619.361	-200.000	0.002	0.193
-618.346	-128.813	-0.274	-0.039
-617.332	28.237	0.190	-0.162
-616.317	110.117	0.057	0.068
-615.303	-29.086	0.463	0.267
-614.288	8.606	-0.157	-0.119
-613.273	-162.121	0.166	0.008
-612.259	800.000	0.120	0.448
-611.244	-114.444	0.079	0.015
-610.230	70.466	-0.321	-0.334
-609.215	-34.420	0.048	-0.026
-608.201	111.181	0.171	-0.207
-607.186	-200.000	-0.013	0.173
-606.171	-51.120	0.168	-0.079
-605.157	170.112	0.184	0.265
-604.142	-134.670	-0.542	0.066
-603.128	-18.165	0.222	-0.139
-602.113	-200.000	-0.056	-0.314
-601.098	118.064	-0.153	-0.190
-600.084	800.000	-0.014	0.059
-599.069	-23.184	0.267	0.162
-598.055	-61.025	-0.058	-0.025
-597.040	-146.963	-0.269	0.023
-596.025	51.275	-0.097	-0.093
-595.011	68.209	0.121	-0.124
-593.996	7.698	-0.077	0.058
-592.982	667.939	-0.120	-0.313
-591.967	437.039	0.011	0.025
-590.952	22.039	-0.129	-0.106
-589.938	182.594	-0.106	-0.158
-588.923	134.362	-0.055	-0.072
-587.909	800.000	0.030	-0.120
-586.894	66.200	-0.179	-0.182
-585.879	38.399	0.244	-0.218
-584.865	10.480	-0.210	0.160
-583.850	-200.000	-0.012	-0.070
-582.836	237.207	-0.031	-0.052
-581.821	-200.000	0.014	-0.164
-580.806	-66.126	0.090	0.036
-579.792	-172.623	-0.308	0.010
-578.777	-159.968	0.074	-0.004
-577.763	8.116	0.067	0.051
-576.748	337.995	0.211	-0.413
-575.733	-30.630	0.258	0.147
-574.719	154.791	-0.108	-0.149
-573.704	135.922	-0.079	0.103
-572.690	-163.878	-0.182	-0.009
-571.675	-136.470	0.085	0.010
-570.661	-9.413	0.304	0.204
-569.646	146.004	-0.089	0.120
-568.631	-156.469	-0.359	0.022
-567.617	-176.124	-0.109	-0.003
-566.602	800.000	-0.023	-0.083
-565.588	81.593	0.130	0.141
-564.573	61.124	-0.132	-0.131
-563.558	0.791	0.128	0.092
-562.544	-200.000	0.031	-0.159
-561.529	268.721	-0.243	-0.427
-560.515	191.773	0.153	-0.232
-559.500	549.256	-0.055	-0.131
-558.485	-144.443	0.235	0.022
-557.471	-118.661	0.368	0.065
-556.456	800.000	-0.138	0.412
-555.442	-128.226	0.218	-0.031
-554.427	268.448	-0.183	0.321
-553.412	-83.553	-0.302	0.097
-552.398	-200.000	-0.005	-0.197
-551.383	155.269	0.073	0.101
-550.369	-56.251	0.101	0.045
-549.354	-200.000	0.018	0.238
-548.339	8.461	0.236	-0.178
-547.325	241.381	-0.070	-0.117
-546.310	-92.940	0.108	0.030
-545.296	181.775	0.141	-0.209
-544.281	17.594	-0.240	0.191
-543.266	-56.344	-0.135	-0.060
-542.252	-29.230	-0.302	0.173
-541.237	228.348	-0.257	-0.420
-540.223	180.608	-0.165	-0.243
-539.208	382.984	-0.126	-0.261
-538.193	-92.868	-0.221	0.062
-537.179	92.341	0.167	0.189
-536.164	686.189	-0.063	0.166
-535.150	-60.539	0.316	-0.135
-534.135	-200.000	0.048	-0.253
-533.121	-68.851	0.258	0.100
-532.106	-200.000	-0.072	0.327
-531.091	800.000	0.041	0.168
-530.077	800.000	0.080	0.317
-529.062	800.000	0.076	0.280
-528.048	430.055	-0.079	-0.171
-527.033	34.066	-0.116	0.101
-526.018	151.205	0.064	-0.087
-525.004	-184.205	0.283	0.005
-523.989	244.867	-0.138	-0.232
-522.975	-1.174	-0.205	0.145
-521.960	-76.169	0.073	0.026
-520.945	-105.147	0.145	-0.033
-519.931	-95.157	0.201	0.054
-518.916	750.625	0.028	-0.076
-517.902	-133.800	-0.412	-0.051
-516.887	-36.844	0.079	-0.043
-515.872	-107.870	0.171	0.037
-514.858	66.250	0.033	-0.034
-513.843	391.875	0.108	0.224
-512.829	-200.000	0.002	-0.070
-511.814	-50.288	0.105	0.050
-510.799	-116.768	-0.295	0.054
-509.785	12.166	0.096	0.074
-508.770	-5.139	-0.398	-0.274
-507.756	227.323	-0.181	0.295
-506.741	-200.000	-0.088	0.528
-505.726	-103.724	-0.118	0.028
-504.712	-69.468	0.178	0.068
-503.697	-106.452	-0.039	-0.009
-502.683	211.499	-0.142	-0.223
-501.668	-35.589	-0.376	0.204
-500.653	-57.898	-0.050	-0.022
-499.639	251.062	-0.021	0.036
-498.624	-200.000	-0.048	0.327
-497.610	-97.439	-0.210	0.055
-496.595	-200.000	-0.052	0.353
-495.581	-89.228	-0.108	-0.032
-494.566	-71.215	-0.286	0.107
-493.551	-200.000	0.051	0.333
-492.537	800.000	-0.022	-0.085
-491.522	800.000	0.048	0.189
-490.508	-48.339	-0.321	0.155
-489.493	-118.538	0.175	-0.031
-488.478	-200.000	0.016	0.125
-487.464	197.985	-0.093	-0.142
-486.449	759.275	0.091	-0.245
-485.435	104.629	-0.162	0.191
-484.420	-131.166	0.212	-0.028
-483.405	234.339	-0.108	-0.178
-482.391	150.226	0.078	0.106
-481.376	60.239	0.144	0.143
-480.362	645.158	0.098	-0.251
-479.347	393.669	0.052	-0.108
-478.332	493.621	0.066	0.152
-477.318	-32.587	-0.169	-0.094
-476.303	-200.000	0.075	-0.418
-475.289	-87.283	0.182	-0.055
-474.274	-38.805	-0.286	0.151
-473.259	-200.000	-0.040	-0.202
-472.245	-41.389	0.063	0.032
-471.230	-66.238	0.213	0.085
-470.216	-200.000	0.015	0.352
-469.201	196.578	-0.144	-0.220
-468.186	-194.225	-0.030	0.000
-467.172	4.572	-0.269	0.197
-466.157	-126.183	0.390	-0.058
-465.143	-55.727	-0.309	0.138
-464.128	-28.059	-0.113	-0.065
-463.113	-11.532	-0.396	-0.260
-462.099	-51.787	-0.221	-0.103
-461.084	800.000	-0.072	0.288
-460.070	-108.411	-0.333	-0.072
-459.055	9.392	-0.210	0.159
-458.040	120.724	0.080	0.099
-457.026	-110.377	0.094	-0.019
-456.011	-81.268	0.193	0.064
-454.997	-195.336	0.191	0.001
-453.982	-76.129	0.194	0.068
-452.968	671.883	-0.143	-0.371
-451.953	415.234	-0.032	-0.069
-450.938	166.670	0.090	-0.127
-449.924	-97.086	-0.052	-0.014
-448.909	-15.978	-0.247	0.157
-447.895	323.832	-0.058	-0.111
-446.880	168.645	0.064	-0.091
-445.865	674.393	-0.169	-0.438
-444.851	800.000	0.023	0.102
-443.836	13.712	0.054	-0.042
-442.822	14.476	-0.175	0.136
-441.807	121.200	-0.112	-0.140
-440.792	-25.195	-0.265	-0.157
-439.778	-10.297	0.236	0.156
-438.763	-30.800	0.343	0.193
-437.749	-200.000	0.006	0.038
-436.734	422.889	0.159	-0.342
-435.719	-164.279	-0.040	-0.002
-434.705	610.104	0.130	-0.324
-433.690	317.963	-0.176	0.333
-432.676	-185.390	0.364	0.006
-431.661	165.908	-0.037	-0.052
-430.646	122.912	-0.153	0.191
-429.632	110.844	0.217	-0.261
-428.617	-96.150	-0.309	0.082
-427.603	13.271	-0.132	0.102
-426.588	109.562	-0.072	0.086
-425.573	-117.020	-0.096	0.017
-424.559	-200.000	-0.001	-0.071
-423.544	-36.541	0.314	-0.169
-422.530	-200.000	0.037	0.215
-421.515	3.632	-0.027	0.020
-420.500	367.794	0.018	-0.037
-419.486	396.296	-0.066	0.138
-418.471	-26.803	0.263	-0.154
-417.457	-54.717	0.288	0.130
-416.442	17.026	0.292	0.231
-415.428	-122.898	-0.138	-0.022
-414.413	-99.138	0.186	0.047
-413.398	-34.422	0.400	0.219
-412.384	-84.401	-0.299	-0.094
-411.369	-123.987	0.337	0.053
-410.355	94.875	-0.188	0.213
-409.340	-30.731	0.124	0.070
-408.325	306.719	-0.214	0.397
-407.311	27.168	0.189	0.158
-406.296	65.820	-0.307	-0.310
-405.282	-160.748	0.080	0.004
-404.267	-174.443	0.065	0.002
-403.252	-200.000	-0.042	-0.233
-402.238	128.150	0.054	0.068
-401.223	183.320	0.154	-0.227
-400.209	-104.369	0.291	-0.067
-399.194	-200.000	0.003	0.213
-398.179	-176.482	0.078	0.002
-397.165	800.000	0.108	-0.333
-396.150	-200.000	0.022	0.129
-395.136	159.654	-0.209	0.290
-394.121	308.718	0.105	-0.196
-393.106	-200.000	0.036	0.210
-392.092	-82.876	0.353	-0.114
-391.077	-75.725	-0.103	-0.036
-390.063	-87.791	0.140	0.042
-389.048	26.484	0.223	0.186
-388.033	-152.875	0.117	0.008
-387.019	527.154	-0.050	-0.118
-386.004	-12.324	0.111	0.072
-384.990	-179.319	0.058	0.001
-383.975	390.049	-0.102	-0.211
-382.960	800.000	0.107	-0.376
-381.946	-77.850	0.156	0.054
-380.931	-67.143	0.052	0.020
-379.917	-200.000	0.011	-0.206
-378.902	493.109	0.038	0.088
-377.888	299.150	0.188	-0.345
-376.873	-200.000	0.033	-0.157
-375.858	-9.594	0.333	0.221
-374.844	-145.975	-0.307	0.027
-373.829	800.000	0.056	0.181
-372.815	-46.944	0.122	-0.059
-371.800	-65.780	0.132	-0.053
-370.785	-88.612	0.040	0.012
-369.771	77.859	0.043	0.046
-368.756	35.585	-0.313	-0.274
-367.742	216.064	-0.040	-0.064
-366.727	283.651	-0.029	-0.053
-365.712	67.799	0.203	0.207
-364.698	439.775	0.008	-0.017
-363.683	-32.069	0.133	0.074
-362.669	476.997	0.113	-0.255
-361.654	0.769	-0.091	0.065
-360.639	-74.575	-0.146	-0.052
-359.625	-6.604	-0.165	0.112
-358.610	-200.000	-0.028	-0.311
-357.596	-200.000	-0.000	0.010
-356.581	-108.896	-0.036	-0.008
-355.566	-75.352	0.184	-0.065
-354.552	-44.533	-0.144	0.072
-353.537	453.087	0.102	0.224
-352.523	-170.566	-0.239	0.008
-351.508	-133.207	-0.140	-0.018
-350.493	-31.726	-0.179	-0.100
-349.479	3.560	-0.130	0.094
-348.464	-123.663	0.139	-0.022
-347.450	-153.865	0.359	0.024
-346.435	70.345	0.208	-0.214
-345.420	-45.981	0.101	0.050
-344.406	-200.000	-0.046	-0.317
-343.391	800.000	0.033	-0.109
-342.377	-200.000	-0.022	-0.309
-341.362	54.992	0.119	-0.114
-340.348	469.818	-0.177	0.395
-339.333	184.142	0.165	-0.243
-338.318	-200.000	-0.008	0.080
-337.304	571.809	-0.075	0.181
-336.289	677.995	-0.050	0.129
-335.275	-72.510	-0.168	-0.062
-334.260	64.557	0.099	-0.099
-333.245	-59.742	-0.146	0.062
-332.231	109.289	-0.193	0.230
-331.216	-200.000	0.001	-0.088
-330.202	-118.886	-0.076	-0.013
-329.187	-200.000	0.046	-0.250
-328.172	430.383	-0.118	-0.254
-327.158	-200.000	0.019	0.094
-326.143	198.942	0.044	0.067
-325.129	238.231	-0.202	-0.334
-324.114	46.763	-0.142	-0.131
-323.099	-200.000	0.030	0.138
-322.085	416.678	-0.100	-0.212
-321.070	-192.845	0.502	0.005
-320.056	-200.000	0.015	-0.167
-319.041	-97.441	0.250	-0.065
-318.026	800.000	-0.078	-0.237
-317.012	-50.910	-0.257	0.120
-315.997	-200.000	-0.003	0.177
-314.983	-59.664	0.248	-0.106
-313.968	-145.428	-0.081	0.007
-312.953	-200.000	0.031	0.169
-311.939	83.526	-0.185	0.201
-310.924	31.903	-0.138	0.118
-309.910	-106.168	0.434	-0.097
-308.895	-200.000	-0.039	-0.224
-307.880	24.276	-0.325	0.267
-306.866	800.000	0.042	-0.119
-305.851	-193.595	0.046	0.000
-304.837	29.147	-0.047	-0.040
-303.822	-24.279	-0.185	-0.109
-302.807	-18.893	-0.176	0.109
-301.793	800.000	0.038	-0.126
-300.778	-129.297	0.243	0.034
-299.764	212.446	-0.095	0.149
-298.749	65.829	0.079	-0.080
-297.735	36.551	-0.170	0.149
-296.720	800.000	-0.012	-0.037
-295.705	-200.000	-0.101	0.458
-294.691	-40.481	0.336	0.173
-293.676	-70.263	-0.047	-0.018
-292.662	-200.000	-0.023	-0.110
-291.647	150.056	-0.075	-0.101
-290.632	-1.379	-0.205	0.144
-289.618	259.111	-0.191	0.327
-288.603	-120.662	0.143	0.024
-287.589	-85.639	0.266	0.082
-286.574	129.254	0.178	0.225
-285.559	-200.000	-0.005	-0.150
-284.545	-10.815	-0.072	-0.048
-283.530	-84.718	0.167	0.052
-282.516	-91.977	0.063	0.018
-281.501	-53.804	-0.070	0.032
-280.486	-200.000	0.015	-0.079
-279.472	-192.643	0.221	0.002
-278.457	68.888	0.036	-0.037
-277.443	-131.147	0.300	-0.040
-276.428	18.884	-0.155	0.123
-275.413	776.569	0.038	-0.104
-274.399	147.801	0.021	0.029
-273.384	79.569	0.150	-0.160
-272.370	55.245	-0.296	0.284
-271.355	-200.000	0.028	0.125
-270.340	-5.314	-0.036	0.025
-269.326	-32.641	-0.247	0.137
-268.311	-46.230	-0.245	0.120
-267.297	543.130	-0.025	0.060
-266.282	91.644	-0.144	0.161
-265.267	56.354	0.082	0.079
-264.253	-86.115	0.166	-0.051
-263.238	-200.000	-0.065	-0.367
-262.224	-14.410	-0.174	0.111
-261.209	748.175	-0.056	-0.148
-260.195	9.516	0.107	0.080
-259.180	120.133	-0.042	-0.052
-258.165	-55.651	0.306	-0.136
-257.151	-58.321	-0.119	-0.051
-256.136	48.144	-0.173	0.161
-255.122	800.000	0.009	0.038
-254.107	-91.191	-0.037	0.010
-253.092	800.000	0.112	0.336
-252.078	320.701	0.009	0.016
-251.063	-105.738	-0.244	0.055
-250.049	551.787	0.040	-0.096
-249.034	160.897	-0.257	-0.356
-248.019	544.177	-0.037	-0.087
-247.005	41.850	0.186	0.167
-245.990	143.644	0.088	-0.116
-244.976	-200.000	-0.014	-0.178
-243.961	33.804	-0.246	-0.212
-242.946	-49.390	0.058	0.027
-241.932	295.359	-0.085	0.154
-240.917	617.814	0.026	0.065
-239.903	143.001	-0.090	-0.119
-238.888	800.000	-0.049	0.142
-237.873	-200.000	0.054	-0.489
-236.859	-200.000	-0.045	0.197
-235.844	312.813	-0.319	0.593
-234.830	800.000	0.024	0.088
-233.815	-73.945	0.131	-0.047
-232.800	-49.747	-0.252	-0.119
-231.786	152.444	-0.164	-0.222
-230.771	-37.391	0.133	-0.070
-229.757	45.675	-0.259	0.237
-228.742	-129.583	0.161	0.022
-227.727	-200.000	0.030	-0.147
-226.713	383.497	-0.155	-0.315
-225.698	-83.260	-0.113	0.036
-224.684	362.100	-0.156	0.311
-223.669	-140.102	0.146	0.015
-222.655	386.726	0.164	0.335
-221.640	-200.000	-0.009	0.208
-220.625	-68.036	0.384	-0.148
-219.611	-200.000	-0.045	-0.234
-218.596	361.202	-0.055	-0.108
-217.582	-53.281	0.066	-0.030
-216.567	-200.000	-0.007	0.186
-215.552	-62.360	-0.349	0.144
-214.538	-66.504	0.320	0.126
-213.523	-153.841	-0.406	0.028
-212.509	31.895	0.162	0.138
-211.494	443.151	0.044	-0.095
-210.479	-46.872	0.092	-0.044
-209.465	-98.528	0.156	0.039
-208.450	-200.000	0.003	-0.090
-207.436	-43.759	0.150	-0.075
-206.421	-200.000	0.021	-0.173
-205.406	50.562	0.217	-0.204
-204.392	-30.809	-0.112	-0.063
-203.377	-67.799	0.260	-0.101
-202.363	77.932	-0.150	-0.159
-201.348	-0.984	-0.166	0.116
-200.333	800.000	-0.104	0.343
-199.319	-200.000	-0.034	-0.199
-198.304	-200.000	-0.009	0.220
-197.290	-133.939	-0.343	0.042
-196.275	26.909	0.249	0.206
-195.260	-92.189	-0.102	-0.028
-194.246	-51.550	0.069	-0.032
-193.231	-52.842	0.117	0.053
-192.217	-171.325	-0.207	-0.007
-191.202	96.752	-0.120	0.137
-190.187	-18.199	0.404	0.250
-189.173	-98.367	0.103	0.026
-188.158	-112.732	0.290	-0.057
-187.144	66.641	0.070	0.071
-186.129	87.967	-0.152	-0.166
-185.114	289.350	-0.118	-0.212
-184.100	-200.000	0.012	-0.187
-183.085	267.223	0.076	0.132
-182.071	-50.422	-0.175	0.082
-181.056	800.000	-0.102	0.299
-180.042	86.213	0.183	-0.199
-179.027	117.508	0.041	0.050
-178.012	-200.000	0.013	-0.134
-176.998	-79.534	0.134	-0.045
-175.983	249.755	0.178	0.299
-174.969	74.439	-0.262	-0.272
-173.954	139.796	0.080	-0.104
-172.939	38.914	0.201	-0.177
-171.925	4.330	0.315	0.228
-170.910	-200.000	0.007	-0.079
-169.896	800.000	0.018	0.059
-168.881	59.944	0.133	-0.130
-167.866	-200.000	0.016	0.179
-166.852	346.391	-0.116	0.226
-165.837	-166.778	-0.012	-0.000
-164.823	218.726	-0.101	0.159
-163.808	682.507	0.071	0.183
-162.793	74.761	0.147	-0.153
-161.779	-112.984	0.079	0.016
-160.764	800.000	-0.025	-0.086
-159.750	-96.896	-0.224	-0.058
-158.735	-200.000	-0.025	0.295
-157.720	114.595	0.414	-0.498
-156.706	-73.942	-0.094	-0.034
-155.691	-165.762	0.172	-0.007
-154.677	-5.116	0.125	-0.085
-153.662	30.614	-0.126	-0.107
-152.647	222.519	-0.032	-0.051
-151.633	-200.000	0.004	0.070
-150.618	714.989	0.092	-0.240
-149.604	-53.498	0.128	-0.058
-148.589	-200.000	-0.030	-0.220
-147.574	152.295	0.153	0.206
-146.560	311.828	-0.112	0.207
-145.545	548.222	-0.030	0.072
-144.531	468.048	-0.072	0.159
-143.516	314.148	0.092	-0.171
-142.502	35.860	0.154	0.134
-141.487	800.000	-0.058	0.230
-140.472	7.516	-0.284	0.210
-139.458	-176.793	-0.126	-0.003
-138.443	-59.471	0.139	-0.059
-137.429	-2.588	0.101	0.070
-136.414	-200.000	0.028	0.305
-135.399	-54.085	0.108	0.048
-134.385	-14.588	0.077	-0.049
-133.370	-127.429	0.240	-0.034
-132.356	92.368	-0.161	-0.179
-131.341	4.521	-0.345	-0.250
-130.326	144.096	-0.037	0.048
-129.312	414.757	0.206	0.433
-128.297	800.000	0.023	0.096
-127.283	-126.389	-0.293	0.043
-126.268	220.880	-0.159	0.252
-125.253	519.175	0.021	-0.048
-124.239	-111.264	-0.087	-0.018
-123.224	-4.196	-0.348	0.238
-122.210	-20.492	-0.270	0.164
-121.195	800.000	-0.092	0.312
-120.180	-197.500	0.422	-0.003
