DTS Sentinel unit serial number:	SN413079Multiplexer serial number:	ORYXHardware model number:	OX4-SRSoftware version number:	ORYX F/W v4.00 Oryx Data Collector v3.7.2.0data status	okinstallation	princeton_trtdifferential loss correction	single-endedforward channel	channel 2reverse channel	N/Adate	2019/09/14time	14:27:35forward acquisition time	60.00reverse acquisition time	0.00gamma	496.2192k internal	0.2301k external	0.2301temperature offset calibration	1.0149default loss term (dB/km)	0.3790temperature slope calibration	1.0000multiplexer offset coefficient	1.0000multiplexer slope coefficient	1.0000fibre end	0.00T internal ref (°C)	39.06T ext. ref 1 (°C)	5.12T ext. ref 2 (°C)	35.68length (m)	temperature (°C)	Stokes	anti-Stokes-747.200	-200.000	-0.096	0.540
-746.185	-114.557	0.072	0.014
-745.171	97.652	-0.096	0.113
-744.156	-25.421	-0.104	0.063
-743.142	412.091	-0.045	0.098
-742.127	-200.000	-0.013	0.155
-741.112	-177.024	-0.137	-0.003
-740.098	58.726	0.266	0.267
-739.083	84.774	-0.105	0.117
-738.069	204.824	-0.158	0.250
-737.054	-200.000	-0.023	-0.212
-736.039	-200.000	0.010	-0.211
-735.025	-200.000	-0.030	0.303
-734.010	155.442	0.112	0.156
-732.996	20.048	0.286	-0.235
-731.981	-200.000	-0.035	0.240
-730.966	800.000	-0.084	-0.278
-729.952	45.140	0.118	-0.111
-728.937	229.472	0.159	0.264
-727.923	69.459	0.105	-0.111
-726.908	-37.906	-0.050	0.027
-725.894	-30.214	-0.567	0.328
-724.879	6.401	-0.015	0.011
-723.864	3.547	-0.287	0.213
-722.850	-80.143	0.184	0.063
-721.835	348.512	-0.134	-0.270
-720.821	110.082	0.084	0.102
-719.806	40.595	0.215	-0.198
-718.791	-200.000	-0.008	-0.216
-717.777	17.629	-0.168	-0.136
-716.762	-146.688	-0.119	0.010
-715.748	-51.781	0.182	0.086
-714.733	800.000	-0.006	0.022
-713.718	354.984	-0.049	-0.099
-712.704	-132.512	-0.214	0.028
-711.689	800.000	0.085	-0.330
-710.675	-200.000	0.011	-0.216
-709.660	-184.499	-0.113	-0.002
-708.645	-22.067	-0.182	-0.112
-707.631	-76.078	0.118	-0.043
-706.616	800.000	-0.047	0.166
-705.602	-120.411	-0.139	-0.024
-704.587	88.798	-0.234	-0.265
-703.572	800.000	-0.107	0.327
-702.558	43.371	-0.097	-0.090
-701.543	-140.325	-0.249	0.027
-700.529	800.000	0.060	-0.176
-699.514	800.000	-0.075	0.217
-698.499	-200.000	-0.005	0.025
-697.485	64.244	-0.202	-0.207
-696.470	-200.000	-0.027	0.137
-695.456	-164.573	-0.092	-0.004
-694.441	-151.585	0.266	-0.020
-693.426	143.586	0.024	0.033
-692.412	-200.000	0.027	0.365
-691.397	527.464	0.047	-0.113
-690.383	-200.000	-0.045	-0.246
-689.368	24.738	0.059	0.050
-688.354	-107.363	0.273	0.061
-687.339	-164.945	0.417	-0.019
-686.324	39.384	-0.175	-0.159
-685.310	-200.000	0.012	0.123
-684.295	591.776	0.143	-0.360
-683.281	-19.101	-0.145	-0.092
-682.266	-1.076	0.139	0.100
-681.251	-200.000	0.006	0.238
-680.237	363.823	0.095	-0.195
-679.222	99.856	-0.083	-0.098
-678.208	484.571	0.101	0.234
-677.193	66.292	0.307	-0.317
-676.178	165.955	-0.031	0.044
-675.164	-150.427	-0.096	0.007
-674.149	715.334	-0.095	0.256
-673.135	-63.362	0.156	0.065
-672.120	8.209	-0.076	-0.058
-671.105	-48.429	-0.149	-0.073
-670.091	142.555	0.058	0.079
-669.076	-101.492	0.186	0.046
-668.062	-47.029	-0.378	-0.187
-667.047	156.045	-0.091	0.128
-666.032	-1.935	0.243	0.174
-665.018	-52.509	0.106	0.050
-664.003	122.162	-0.146	0.185
-662.989	-107.816	0.698	0.155
-661.974	800.000	-0.057	-0.229
-660.959	-60.659	0.183	-0.079
-659.945	-200.000	0.014	-0.338
-658.930	117.717	-0.031	0.039
-657.916	190.552	-0.120	-0.184
-656.901	-150.305	0.247	-0.019
-655.886	-200.000	0.045	-0.262
-654.872	-137.718	0.137	0.016
-653.857	38.517	0.155	-0.141
-652.843	263.609	-0.137	-0.242
-651.828	314.704	0.019	-0.037
-650.814	39.149	-0.284	0.258
-649.799	16.221	-0.105	0.084
-648.784	-13.225	-0.227	0.150
-647.770	8.127	0.123	-0.094
-646.755	465.782	0.202	0.459
-645.741	124.205	-0.193	0.246
-644.726	59.136	-0.191	-0.191
-643.711	145.003	0.244	0.332
-642.697	96.520	-0.044	-0.051
-641.682	-200.000	-0.001	0.126
-640.668	-200.000	0.027	-0.147
-639.653	14.963	0.254	-0.202
-638.638	-52.238	0.214	-0.101
-637.624	9.571	-0.359	-0.276
-636.609	-69.531	-0.116	0.045
-635.595	-69.228	0.304	-0.119
-634.580	232.953	0.015	-0.025
-633.565	135.024	-0.180	-0.238
-632.551	65.783	0.096	0.099
-631.536	126.149	-0.055	0.070
-630.522	181.163	-0.182	0.272
-629.507	6.952	-0.115	0.087
-628.492	800.000	0.055	-0.173
-627.478	-200.000	-0.315	0.001
-626.463	-4.925	-0.244	-0.171
-625.449	351.616	-0.036	-0.073
-624.434	-102.673	-0.265	-0.064
-623.419	-81.973	0.071	-0.024
-622.405	42.475	0.180	0.166
-621.390	-122.699	0.383	0.063
-620.376	-174.249	-0.291	-0.009
-619.361	386.003	-0.018	0.037
-618.346	103.642	-0.024	-0.028
-617.332	-200.000	0.002	-0.025
-616.317	-38.896	0.303	-0.162
-615.303	-18.126	0.146	0.093
-614.288	-3.981	-0.230	-0.162
-613.273	-200.000	0.006	-0.101
-612.259	800.000	-0.049	0.206
-611.244	-103.761	-0.195	0.046
-610.230	186.686	0.168	-0.253
-609.215	-14.765	0.168	0.109
-608.201	14.287	-0.094	0.074
-607.186	-81.049	-0.138	-0.046
-606.171	155.546	-0.083	0.116
-605.157	176.852	-0.063	0.093
-604.142	-67.009	-0.108	-0.043
-603.128	800.000	-0.039	-0.126
-602.113	-200.000	0.007	-0.153
-601.098	111.261	-0.174	-0.213
-600.084	216.085	0.057	-0.092
-599.069	800.000	0.101	0.325
-598.055	-43.082	-0.143	0.073
-597.040	-89.197	0.401	-0.120
-596.025	-6.958	-0.119	-0.082
-595.011	800.000	-0.030	-0.114
-593.996	394.452	0.085	-0.179
-592.982	-34.874	-0.239	0.132
-591.967	800.000	0.047	-0.176
-590.952	165.009	-0.025	-0.036
-589.938	9.798	-0.119	-0.091
-588.923	-200.000	0.075	0.416
-587.909	127.681	-0.112	0.144
-586.894	-162.964	-0.304	-0.015
-585.879	-85.727	-0.283	0.089
-584.865	-59.322	-0.226	-0.099
-583.850	-93.660	0.200	0.056
-582.836	-12.787	-0.185	-0.122
-581.821	-200.000	0.064	0.377
-580.806	37.326	-0.296	-0.266
-579.792	343.415	-0.186	0.368
-578.777	710.636	0.136	-0.364
-577.763	46.698	0.166	-0.156
-576.748	800.000	0.038	-0.161
-575.733	-73.302	0.151	0.056
-574.719	-63.244	-0.307	-0.128
-573.704	173.416	0.119	0.173
-572.690	-200.000	-0.004	0.334
-571.675	82.308	-0.189	0.207
-570.661	-200.000	0.024	0.305
-569.646	800.000	-0.050	0.182
-568.631	-142.540	0.113	0.011
-567.617	-148.868	-0.061	0.005
-566.602	108.271	-0.207	0.250
-565.588	424.923	0.064	0.140
-564.573	-131.748	0.139	0.018
-563.558	-76.683	0.208	0.074
-562.544	-65.161	-0.110	0.045
-561.529	-42.012	0.338	-0.175
-560.515	-133.078	-0.100	-0.013
-559.500	-104.814	-0.104	-0.024
-558.485	-200.000	0.006	-0.371
-557.471	800.000	-0.024	-0.094
-556.456	62.580	0.202	0.204
-555.442	152.341	-0.020	-0.027
-554.427	-1.614	0.132	0.094
-553.412	-131.400	0.260	0.035
-552.398	-1.949	0.413	-0.294
-551.383	-200.000	-0.001	0.038
-550.369	-30.943	-0.124	-0.071
-549.354	43.709	0.107	0.099
-548.339	-93.855	-0.072	-0.020
-547.325	-53.706	-0.137	-0.063
-546.310	-200.000	0.022	0.402
-545.296	-200.000	0.018	0.296
-544.281	-57.926	0.139	0.062
-543.266	-90.474	0.308	-0.090
-542.252	-197.145	-0.263	0.002
-541.237	-36.064	0.031	-0.017
-540.223	800.000	-0.079	-0.242
-539.208	800.000	0.063	-0.218
-538.193	-99.582	0.156	0.040
-537.179	602.358	0.079	-0.199
-536.164	-200.000	0.006	-0.168
-535.150	-126.439	0.148	-0.022
-534.135	-107.440	-0.140	-0.031
-533.121	-18.629	-0.308	-0.194
-532.106	-97.388	-0.418	-0.110
-531.091	-154.683	0.308	0.021
-530.077	287.536	-0.114	0.208
-529.062	3.298	0.056	-0.041
-528.048	800.000	-0.092	0.355
-527.033	-200.000	0.030	-0.295
-526.018	-200.000	-0.328	0.001
-525.004	-200.000	-0.038	0.000
-523.989	-54.833	-0.111	0.050
-522.975	-62.428	0.297	-0.125
-521.960	-200.000	0.023	0.378
-520.945	108.299	-0.076	-0.092
-519.931	56.308	-0.219	-0.215
-518.916	311.729	-0.024	0.046
-517.902	57.339	-0.283	0.279
-516.887	-200.000	-0.003	0.047
-515.872	800.000	0.057	-0.171
-514.858	-169.201	0.209	-0.008
-513.843	-200.000	-0.033	0.181
-512.829	-60.612	0.390	0.167
-511.814	800.000	0.016	0.047
-510.799	557.066	0.127	0.310
-509.785	-200.000	-0.010	0.091
-508.770	86.956	-0.179	0.199
-507.756	-200.000	0.025	0.137
-506.741	800.000	0.039	0.120
-505.726	16.678	0.148	-0.118
-504.712	-97.744	0.313	-0.082
-503.697	-81.549	-0.218	0.072
-502.683	160.216	-0.076	0.107
-501.668	-2.069	-0.177	0.126
-500.653	-146.136	-0.351	0.031
-499.639	285.547	0.019	0.035
-498.624	19.785	0.339	-0.276
-497.610	27.743	0.104	-0.088
-496.595	-200.000	0.005	-0.494
-495.581	327.493	-0.219	0.425
-494.566	-84.832	0.252	0.080
-493.551	-200.000	-0.003	-0.249
-492.537	299.141	0.070	0.129
-491.522	800.000	-0.006	-0.028
-490.508	-200.000	0.024	-0.300
-489.493	800.000	0.032	0.119
-488.478	-101.599	-0.174	0.043
-487.464	-200.000	-0.027	0.279
-486.449	-200.000	-0.015	0.275
-485.435	348.722	-0.113	0.225
-484.420	-41.350	0.072	-0.038
-483.405	50.201	-0.208	0.198
-482.391	-138.490	0.262	0.029
-481.376	511.324	-0.041	-0.096
-480.362	800.000	0.039	-0.171
-479.347	-54.325	0.359	0.164
-478.332	-83.873	-0.282	-0.091
-477.318	800.000	0.042	0.172
-476.303	-110.779	0.034	0.007
-475.289	-95.789	-0.124	-0.033
-474.274	147.423	0.131	-0.178
-473.259	800.000	-0.072	-0.292
-472.245	8.575	-0.301	0.228
-471.230	-59.257	0.225	0.098
-470.216	90.140	0.165	0.186
-469.201	-128.576	-0.188	-0.027
-468.186	774.556	-0.085	0.234
-467.172	56.163	0.233	0.228
-466.157	800.000	0.183	0.514
-465.143	714.914	-0.091	-0.242
-464.128	800.000	-0.025	-0.079
-463.113	13.022	0.227	-0.177
-462.099	-200.000	-0.007	0.376
-461.084	-129.823	-0.274	-0.038
-460.070	543.647	0.069	0.167
-459.055	800.000	0.086	-0.267
-458.040	-1.259	-0.307	0.219
-457.026	-19.089	0.201	0.126
-456.011	725.976	-0.158	-0.424
-454.997	117.339	-0.320	0.397
-453.982	-36.464	0.102	0.056
-452.968	119.122	0.246	0.306
-451.953	363.102	0.131	0.264
-450.938	-88.110	-0.077	-0.023
-449.924	-6.597	-0.069	-0.047
-448.909	-94.943	0.213	-0.058
-447.895	31.877	-0.008	0.007
-446.880	18.836	-0.110	-0.089
-445.865	-200.000	0.054	-0.446
-444.851	48.426	0.162	0.153
-443.836	-137.431	-0.401	-0.046
-442.822	800.000	0.042	0.185
-441.807	54.627	0.268	0.260
-440.792	231.176	-0.115	0.190
-439.778	-67.329	0.364	0.144
-438.763	154.377	-0.196	-0.271
-437.749	-55.915	-0.134	-0.060
-436.734	800.000	0.086	-0.359
-435.719	-150.344	0.458	-0.036
-434.705	-141.099	-0.083	0.009
-433.690	103.217	0.164	-0.194
-432.676	-200.000	0.087	-0.434
-431.661	121.015	0.216	-0.270
-430.646	85.338	-0.269	-0.298
-429.632	57.197	-0.210	0.207
-428.617	-188.585	0.160	0.002
-427.603	468.554	-0.100	-0.225
-426.588	-2.339	-0.028	-0.020
-425.573	-200.000	-0.001	-0.081
-424.559	238.498	-0.083	-0.139
-423.544	800.000	-0.055	0.230
-422.530	-52.001	0.138	-0.065
-421.515	103.956	0.144	0.170
-420.500	800.000	-0.028	0.123
-419.486	27.695	0.323	0.274
-418.471	800.000	0.065	-0.202
-417.457	-29.916	-0.173	-0.099
-416.442	-147.340	-0.227	-0.019
-415.428	-113.669	-0.282	0.055
-414.413	392.398	0.059	0.123
-413.398	-129.318	0.259	0.036
-412.384	-34.421	0.069	0.038
-411.369	800.000	0.095	0.273
-410.355	-200.000	-0.008	-0.191
-409.340	64.970	-0.187	-0.190
-408.325	109.409	-0.147	-0.177
-407.311	-155.470	-0.366	0.024
-406.296	86.999	-0.182	-0.202
-405.282	-200.000	0.020	0.127
-404.267	4.182	0.156	-0.115
-403.252	-57.750	0.246	0.108
-402.238	-200.000	-0.024	-0.142
-401.223	-113.924	0.126	0.025
-400.209	-99.324	-0.237	-0.060
-399.194	265.306	-0.115	0.202
-398.179	78.588	-0.102	-0.109
-397.165	-120.774	0.285	0.048
-396.150	-28.014	-0.358	-0.208
-395.136	800.000	-0.202	-0.637
-394.121	-134.267	-0.214	-0.027
-393.106	-200.000	-0.001	-0.085
-392.092	20.127	0.181	0.147
-391.077	28.237	-0.160	0.136
-390.063	20.252	-0.224	0.182
-389.048	-22.632	-0.116	-0.070
-388.033	232.534	-0.071	0.117
-387.019	-132.418	-0.300	-0.039
-386.004	169.392	-0.076	-0.109
-384.990	-35.985	-0.264	-0.144
-383.975	158.887	0.190	0.266
-382.960	-200.000	0.041	0.284
-381.946	732.339	0.146	0.392
-380.931	-49.504	-0.257	-0.123
-379.917	247.414	0.061	-0.103
-378.902	4.673	0.182	-0.135
-377.888	156.078	0.331	-0.459
-376.873	-52.613	0.070	-0.032
-375.858	-200.000	0.001	0.093
-374.844	671.348	-0.125	-0.325
-373.829	571.997	0.039	-0.096
-372.815	53.114	-0.139	-0.134
-371.800	659.982	-0.033	-0.085
-370.785	1.954	0.215	0.156
-369.771	800.000	0.043	0.167
-368.756	-200.000	0.015	0.246
-367.742	-200.000	-0.014	0.118
-366.727	-79.678	0.344	-0.117
-365.712	-175.572	-0.101	-0.003
-364.698	-7.247	-0.285	-0.194
-363.683	-38.477	-0.283	-0.150
-362.669	160.356	-0.082	-0.115
-361.654	-200.000	0.019	0.141
-360.639	15.946	0.183	-0.144
-359.625	800.000	0.042	0.162
-358.610	160.094	-0.179	0.251
-357.596	-149.010	-0.210	-0.017
-356.581	699.839	0.095	-0.251
-355.566	691.561	-0.054	-0.141
-354.552	53.622	-0.137	-0.132
-353.537	-200.000	0.057	0.269
-352.523	-133.234	-0.190	-0.024
-351.508	750.400	-0.084	0.227
-350.493	-200.000	0.000	-0.110
-349.479	316.295	-0.056	0.107
-348.464	111.376	-0.162	-0.196
-347.450	-102.817	0.242	-0.058
-346.435	74.131	0.256	-0.270
-345.420	557.202	0.071	0.171
-344.406	372.189	0.023	-0.047
-343.391	-200.000	-0.005	0.144
-342.377	-15.226	0.202	-0.130
-341.362	155.190	0.218	-0.300
-340.348	46.864	-0.207	-0.193
-339.333	-48.992	-0.081	-0.039
-338.318	-102.623	-0.095	-0.023
-337.304	73.403	0.123	0.129
-336.289	-77.138	0.251	-0.088
-335.275	-130.191	0.063	-0.009
-334.260	-94.853	-0.372	-0.101
-333.245	503.105	-0.034	0.078
-332.231	2.232	-0.105	0.076
-331.216	-200.000	0.004	0.050
-330.202	15.335	0.106	-0.084
-329.187	98.613	0.080	0.093
-328.172	724.247	-0.085	0.227
-327.158	-1.033	-0.203	0.144
-326.143	377.308	0.201	0.411
-325.129	-126.289	0.161	-0.024
-324.114	-55.822	0.194	-0.087
-323.099	-37.702	0.157	-0.084
-322.085	86.066	-0.072	-0.080
-321.070	-200.000	0.045	-0.265
-320.056	116.201	-0.063	-0.077
-319.041	-200.000	0.033	0.186
-318.026	516.802	0.047	0.111
-317.012	-93.551	0.203	-0.056
-315.997	58.089	0.253	0.248
-314.983	41.305	-0.050	-0.046
-313.968	-200.000	0.002	0.100
-312.953	635.551	0.075	-0.190
-311.939	-57.495	0.189	0.083
-310.924	800.000	0.045	-0.167
-309.910	-160.990	-0.219	-0.012
-308.895	2.021	0.262	0.190
-307.880	251.509	0.005	-0.008
-306.866	-75.162	0.290	0.104
-305.851	20.266	-0.119	0.096
-304.837	313.318	-0.174	-0.328
-303.822	-123.700	-0.139	0.022
-302.807	-200.000	-0.027	0.520
-301.793	800.000	0.106	-0.296
-300.778	-200.000	0.017	0.191
-299.764	289.126	-0.084	-0.152
-298.749	553.791	-0.182	0.438
-297.735	-4.733	-0.202	0.140
-296.720	-118.285	0.220	-0.039
-295.705	-145.110	-0.299	-0.027
-294.691	12.845	0.098	0.076
-293.676	-200.000	0.058	0.412
-292.662	-200.000	-0.037	-0.184
-291.647	122.058	0.188	-0.236
-290.632	-200.000	-0.009	0.171
-289.618	-200.000	-0.000	0.090
-288.603	800.000	-0.005	-0.019
-287.589	-73.817	-0.260	0.095
-286.574	61.258	0.101	-0.100
-285.559	800.000	-0.042	0.150
-284.545	-200.000	-0.014	-0.094
-283.530	-163.377	0.182	-0.009
-282.516	-96.093	0.224	-0.060
-281.501	-131.849	-0.158	-0.021
-280.486	-46.355	0.175	-0.086
-279.472	-200.000	0.009	-0.095
-278.457	800.000	0.064	-0.205
-277.443	45.944	0.079	0.074
-276.428	223.195	-0.150	0.241
-275.413	800.000	-0.067	-0.251
-274.399	280.315	0.035	0.063
-273.384	-174.364	-0.245	-0.007
-272.370	-99.999	-0.022	0.005
-271.355	-103.918	-0.345	-0.081
-270.340	621.350	-0.093	-0.233
-269.326	-200.000	0.009	-0.239
-268.311	-17.492	-0.134	-0.084
-267.297	312.868	0.075	0.140
-266.282	-31.196	-0.189	-0.107
-265.267	-76.199	-0.063	0.022
-264.253	-159.300	0.412	-0.023
-263.238	-189.407	0.452	-0.005
-262.224	62.910	0.178	-0.178
-261.209	-85.055	0.105	-0.033
-260.195	-63.028	-0.122	0.050
-259.180	-42.514	0.154	-0.079
-258.165	-101.963	0.026	0.006
-257.151	67.954	0.184	-0.188
-256.136	-200.000	-0.009	-0.157
-255.122	-93.797	0.164	0.045
-254.107	25.976	0.103	-0.086
-253.092	-75.697	0.075	-0.027
-252.078	-46.907	0.232	0.113
-251.063	-126.463	-0.092	0.014
-250.049	-200.000	0.002	-0.309
-249.034	-142.765	-0.391	0.038
-248.019	-82.921	0.485	0.156
-247.005	40.604	0.122	-0.110
-245.990	-58.625	-0.189	0.082
-244.976	-58.289	-0.259	0.113
-243.961	800.000	0.054	-0.172
-242.946	-200.000	-0.017	0.220
-241.932	752.562	0.040	-0.109
-240.917	-54.262	-0.252	0.114
-239.903	207.752	-0.077	-0.120
-238.888	275.672	0.028	0.050
-237.873	800.000	-0.084	0.275
-236.859	-104.496	-0.136	0.031
-235.844	-81.700	0.342	0.112
-234.830	-200.000	-0.027	0.225
-233.815	-119.773	-0.255	-0.044
-232.800	116.159	-0.080	0.098
-231.786	14.715	-0.234	-0.183
-230.771	148.653	0.091	0.122
-229.757	114.883	-0.165	-0.201
-228.742	92.234	-0.288	-0.325
-227.727	-200.000	0.000	-0.127
-226.713	-139.844	-0.203	-0.021
-225.698	-77.670	0.341	-0.118
-224.684	-50.167	0.100	-0.047
-223.669	525.408	0.047	0.110
-222.655	229.155	0.198	-0.323
-221.640	64.882	0.240	-0.242
-220.625	-187.705	0.368	-0.005
-219.611	-26.936	-0.060	-0.035
-218.596	475.170	0.168	0.378
-217.582	-200.000	0.011	0.288
-216.567	800.000	0.082	0.286
-215.552	-200.000	0.056	-0.424
-214.538	-78.412	-0.291	-0.099
-213.523	-116.597	-0.220	0.040
-212.509	-200.000	-0.006	-0.473
-211.494	-200.000	0.001	-0.086
-210.479	800.000	0.064	0.220
-209.465	668.767	0.043	0.112
-208.450	6.943	-0.201	0.150
-207.436	-35.430	-0.126	-0.068
-206.421	-94.242	0.070	0.019
-205.406	-200.000	0.023	-0.106
-204.392	405.291	-0.115	0.242
-203.377	800.000	0.114	-0.379
-202.363	800.000	-0.084	-0.241
-201.348	505.655	0.146	0.337
-200.333	2.136	0.169	-0.122
-199.319	800.000	-0.056	0.197
-198.304	98.997	0.094	0.108
-197.290	-200.000	-0.028	-0.306
-196.275	-145.659	0.264	-0.024
-195.260	87.587	0.140	0.154
-194.246	281.655	0.116	-0.208
-193.231	162.701	0.022	-0.031
-192.217	800.000	-0.039	-0.118
-191.202	-68.152	-0.129	0.050
-190.187	107.913	0.027	-0.032
-189.173	37.699	-0.219	-0.194
-188.158	800.000	-0.014	-0.040
-187.144	62.966	0.043	-0.043
-186.129	272.364	-0.069	0.121
-185.114	-50.634	-0.094	-0.044
-184.100	756.791	-0.019	-0.051
-183.085	-105.282	0.281	0.064
-182.071	800.000	-0.063	0.225
-181.056	207.377	-0.082	0.127
-180.042	-39.999	-0.330	0.172
-179.027	-102.450	0.122	-0.029
-178.012	800.000	0.127	-0.498
-176.998	800.000	-0.067	0.226
-175.983	-200.000	-0.016	-0.306
-174.969	217.703	0.048	-0.077
-173.954	5.896	0.148	0.109
-172.939	-200.000	0.043	0.197
-171.925	89.862	-0.050	0.056
-170.910	318.321	0.045	0.086
-169.896	-200.000	0.001	0.260
-168.881	-200.000	0.019	-0.223
-167.866	-200.000	0.004	-0.105
-166.852	372.986	0.010	-0.020
-165.837	-17.845	-0.050	-0.031
-164.823	332.777	0.134	-0.258
-163.808	-200.000	-0.043	-0.304
-162.793	-33.703	0.344	0.189
-161.779	-91.183	0.278	0.079
-160.764	-22.497	-0.169	-0.102
-159.750	21.324	-0.057	0.046
-158.735	-35.867	0.095	-0.051
-157.720	-60.361	-0.058	0.025
-156.706	-200.000	0.011	0.060
-155.691	125.579	0.074	-0.093
-154.677	-67.614	0.103	-0.040
-153.662	152.878	-0.248	0.338
-152.647	-93.773	0.319	0.088
-151.633	-138.682	-0.220	0.024
-150.618	94.768	0.175	-0.198
-149.604	-161.913	-0.125	0.006
-148.589	-112.693	-0.104	0.021
-147.574	365.875	0.093	0.188
-146.560	15.621	-0.017	-0.013
-145.545	-36.893	-0.165	-0.088
-144.531	-200.000	0.003	0.073
-143.516	-200.000	0.005	-0.379
-142.502	-200.000	0.038	0.219
-141.487	-200.000	-0.069	0.318
-140.472	-87.813	0.291	-0.087
-139.458	-200.000	-0.037	-0.274
-138.443	-200.000	-0.075	-0.525
-137.429	-126.751	-0.333	-0.049
-136.414	101.835	-0.246	-0.286
-135.399	800.000	-0.078	0.216
-134.385	-200.000	-0.012	0.443
-133.370	-200.000	-0.002	0.218
-132.356	-200.000	-0.003	-0.100
-131.341	-200.000	0.044	-0.413
-130.326	4.988	0.184	0.135
-129.312	206.854	-0.151	-0.234
-128.297	800.000	-0.143	-0.446
-127.283	-68.913	-0.226	-0.087
-126.268	339.717	-0.024	0.047
-125.253	-200.000	0.061	0.364
-124.239	149.218	0.088	0.119
-123.224	138.303	-0.158	0.207
-122.210	-200.000	-0.042	-0.505
-121.195	118.266	-0.057	0.070
