DTS Sentinel unit serial number:	SN413079Multiplexer serial number:	ORYXHardware model number:	OX4-SRSoftware version number:	ORYX F/W v4.00 Oryx Data Collector v3.7.2.0data status	okinstallation	princeton_trtdifferential loss correction	single-endedforward channel	channel 2reverse channel	N/Adate	2019/09/16time	20:07:35forward acquisition time	60.00reverse acquisition time	0.00gamma	496.2192k internal	0.2327k external	0.2327temperature offset calibration	0.9967default loss term (dB/km)	0.3790temperature slope calibration	1.0000multiplexer offset coefficient	1.0000multiplexer slope coefficient	1.0000fibre end	0.00T internal ref (°C)	33.19T ext. ref 1 (°C)	0.10T ext. ref 2 (°C)	26.62length (m)	temperature (°C)	Stokes	anti-Stokes-747.200	-158.334	-0.173	0.010
-746.185	-200.000	0.036	0.413
-745.171	17.870	0.046	0.037
-744.156	79.840	-0.158	0.171
-743.142	-180.208	-0.157	-0.003
-742.127	-93.271	-0.151	-0.042
-741.112	247.057	0.070	-0.118
-740.098	-78.108	-0.186	-0.065
-739.083	-118.480	-0.157	-0.028
-738.069	217.663	-0.203	0.327
-737.054	-120.605	0.066	0.011
-736.039	-72.972	-0.457	-0.169
-735.025	117.366	-0.178	0.220
-734.010	-85.056	-0.204	-0.064
-732.996	-200.000	-0.035	0.174
-731.981	50.265	0.112	-0.107
-730.966	-72.789	-0.227	0.084
-729.952	-5.558	-0.098	0.067
-728.937	-200.000	0.009	0.212
-727.923	-5.759	0.183	-0.127
-726.908	-200.000	-0.019	0.123
-725.894	-54.365	-0.270	0.124
-724.879	-72.012	-0.407	0.152
-723.864	211.004	0.122	0.193
-722.850	339.802	0.071	0.139
-721.835	-200.000	0.007	-0.076
-720.821	8.905	0.118	-0.089
-719.806	-56.070	0.166	0.075
-718.791	38.150	0.286	-0.256
-717.777	256.518	-0.097	-0.168
-716.762	3.077	-0.271	-0.198
-715.748	-160.060	0.439	0.024
-714.733	-200.000	0.042	0.207
-713.718	800.000	0.079	0.298
-712.704	-84.122	-0.148	-0.047
-711.689	-12.430	-0.184	-0.121
-710.675	-200.000	0.009	-0.127
-709.660	-91.670	-0.228	0.065
-708.645	-31.189	0.267	0.152
-707.631	43.254	0.065	-0.060
-706.616	800.000	0.048	0.155
-705.602	-200.000	0.004	-0.023
-704.587	81.896	-0.148	-0.161
-703.572	70.348	0.099	0.103
-702.558	-70.817	-0.094	0.036
-701.543	40.863	0.106	-0.096
-700.529	211.437	-0.116	-0.184
-699.514	-33.861	0.164	0.091
-698.499	-200.000	-0.003	0.043
-697.485	-134.822	-0.166	-0.020
-696.470	-55.607	0.369	-0.166
-695.456	-200.000	-0.014	0.084
-694.441	162.616	-0.162	-0.229
-693.426	-96.350	0.171	-0.046
-692.412	800.000	0.049	-0.209
-691.397	-159.409	0.394	0.022
-690.383	403.707	-0.210	-0.444
-689.368	-168.888	-0.321	-0.012
-688.354	4.770	-0.223	-0.165
-687.339	320.077	-0.084	-0.160
-686.324	-200.000	0.032	0.236
-685.310	-200.000	0.012	-0.133
-684.295	-100.694	-0.364	0.090
-683.281	-200.000	-0.044	0.445
-682.266	-43.100	0.319	-0.163
-681.251	-200.000	-0.059	0.347
-680.237	387.610	-0.154	0.320
-679.222	-25.759	-0.062	0.037
-678.208	234.679	0.135	-0.223
-677.193	362.393	-0.121	-0.245
-676.178	-132.469	-0.298	0.039
-675.164	250.728	-0.222	0.380
-674.149	70.592	0.138	0.144
-673.135	19.331	-0.117	0.095
-672.120	227.318	0.158	-0.258
-671.105	-158.434	0.303	-0.018
-670.091	-2.570	-0.383	-0.270
-669.076	-27.825	-0.270	0.157
-668.062	-49.428	-0.324	0.155
-667.047	-200.000	-0.059	0.498
-666.032	131.024	-0.221	0.286
-665.018	-12.927	-0.152	0.099
-664.003	-21.618	-0.233	0.142
-662.989	123.683	0.255	0.322
-661.974	-158.409	0.118	-0.007
-660.959	263.638	-0.020	0.035
-659.945	65.511	-0.198	-0.202
-658.930	227.396	-0.075	-0.123
-657.916	117.300	-0.387	0.477
-656.901	-135.687	-0.249	0.030
-655.886	-200.000	0.004	0.061
-654.872	4.154	-0.267	0.197
-653.857	62.346	0.116	0.116
-652.843	193.316	-0.101	-0.153
-651.828	75.966	0.193	-0.205
-650.814	-200.000	0.004	-0.033
-649.799	-115.622	-0.039	0.007
-648.784	-100.631	-0.201	-0.050
-647.770	63.604	0.095	0.096
-646.755	25.993	0.052	0.044
-645.741	29.236	-0.077	0.065
-644.726	-76.177	0.369	-0.131
-643.711	-49.192	0.175	-0.084
-642.697	-56.578	0.265	-0.118
-641.682	-116.266	-0.416	-0.077
-640.668	113.815	0.177	-0.216
-639.653	151.802	0.243	-0.332
-638.638	800.000	-0.048	-0.184
-637.624	-200.000	0.013	-0.084
-636.609	-200.000	0.038	-0.216
-635.595	213.511	-0.088	-0.140
-634.580	-90.921	-0.387	0.112
-633.565	-198.099	-0.540	0.003
-632.551	197.663	-0.251	-0.384
-631.536	748.264	-0.063	-0.170
-630.522	-161.279	0.034	-0.002
-629.507	800.000	0.089	-0.248
-628.492	-200.000	0.041	0.187
-627.478	800.000	-0.067	0.216
-626.463	190.501	-0.062	0.094
-625.449	-99.499	-0.100	0.025
-624.434	-102.970	0.131	-0.031
-623.419	71.656	-0.188	0.196
-622.405	176.558	-0.013	0.020
-621.390	-109.491	-0.057	0.012
-620.376	53.040	0.095	-0.091
-619.361	107.935	-0.225	0.268
-618.346	-41.175	0.076	0.039
-617.332	15.883	0.065	-0.051
-616.317	454.379	0.054	0.119
-615.303	324.677	-0.191	0.366
-614.288	265.795	0.150	0.262
-613.273	316.649	0.196	-0.371
-612.259	800.000	-0.077	-0.214
-611.244	36.228	0.131	0.116
-610.230	800.000	0.026	0.105
-609.215	-83.524	-0.231	-0.074
-608.201	-200.000	-0.023	-0.313
-607.186	22.982	0.186	-0.153
-606.171	-75.121	-0.267	-0.096
-605.157	-200.000	-0.039	0.287
-604.142	63.845	0.055	0.055
-603.128	-100.398	-0.323	0.080
-602.113	-103.790	-0.034	0.008
-601.098	800.000	-0.092	0.260
-600.084	-149.569	0.083	0.007
-599.069	-95.700	0.215	-0.058
-598.055	-200.000	-0.008	-0.285
-597.040	-200.000	0.018	0.104
-596.025	-98.775	-0.071	-0.018
-595.011	800.000	0.022	-0.088
-593.996	-112.610	0.087	-0.017
-592.982	-200.000	0.067	-0.345
-591.967	-200.000	0.058	0.266
-590.952	-165.898	0.071	-0.003
-589.938	42.472	0.136	0.124
-588.923	800.000	-0.144	-0.428
-587.909	-200.000	-0.044	-0.296
-586.894	800.000	0.044	0.188
-585.879	24.990	0.345	0.287
-584.865	-200.000	0.048	0.444
-583.850	-102.875	-0.343	0.082
-582.836	-173.185	0.191	-0.006
-581.821	-40.644	-0.391	-0.203
-580.806	371.092	-0.043	0.088
-579.792	-165.167	-0.083	-0.004
-578.777	-200.000	0.023	-0.264
-577.763	-91.798	0.062	-0.018
-576.748	-123.301	-0.329	-0.053
-575.733	-200.000	0.007	0.092
-574.719	-200.000	-0.035	0.266
-573.704	-33.170	-0.208	-0.116
-572.690	96.298	-0.193	0.221
-571.675	255.406	0.168	0.288
-570.661	91.354	0.361	-0.406
-569.646	-194.717	-0.305	0.002
-568.631	800.000	-0.051	-0.170
-567.617	425.849	0.064	-0.139
-566.602	800.000	-0.023	0.087
-565.588	52.754	0.217	0.208
-564.573	125.116	-0.071	-0.090
-563.558	-8.960	-0.256	0.171
-562.544	800.000	-0.053	-0.169
-561.529	800.000	-0.098	0.282
-560.515	-6.452	-0.118	0.081
-559.500	-148.364	0.268	-0.022
-558.485	-200.000	0.038	-0.187
-557.471	70.431	0.316	-0.327
-556.456	8.517	-0.132	-0.100
-555.442	-15.907	0.117	-0.075
-554.427	411.196	0.031	0.066
-553.412	800.000	-0.096	-0.367
-552.398	113.183	-0.158	0.191
-551.383	-200.000	0.005	-0.143
-550.369	209.662	-0.104	0.163
-549.354	298.129	0.074	0.136
-548.339	687.837	-0.073	0.191
-547.325	120.937	-0.258	-0.320
-546.310	-200.000	0.058	0.281
-545.296	-129.802	-0.347	0.048
-544.281	800.000	0.070	-0.277
-543.266	-150.488	0.070	0.005
-542.252	-111.949	0.091	0.018
-541.237	800.000	-0.032	0.108
-540.223	800.000	-0.077	0.244
-539.208	-55.065	-0.125	-0.056
-538.193	800.000	-0.115	-0.479
-537.179	-38.355	0.116	0.061
-536.164	54.712	-0.097	-0.093
-535.150	-29.402	0.293	-0.167
-534.135	-163.787	-0.388	0.018
-533.121	311.286	0.047	0.087
-532.106	390.279	0.040	0.083
-531.091	574.359	0.056	-0.137
-530.077	162.060	-0.048	0.068
-529.062	-200.000	0.004	-0.240
-528.048	800.000	0.042	-0.131
-527.033	-200.000	-0.055	0.278
-526.018	-84.041	-0.145	-0.046
-525.004	29.547	-0.068	-0.058
-523.989	-104.063	0.262	0.061
-522.975	26.383	-0.082	0.069
-521.960	43.107	-0.209	-0.190
-520.945	-103.042	0.135	-0.032
-519.931	800.000	-0.064	-0.210
-518.916	-200.000	0.004	0.039
-517.902	42.316	-0.389	-0.353
-516.887	531.494	-0.108	-0.255
-515.872	114.820	0.069	-0.084
-514.858	-75.654	0.214	0.076
-513.843	800.000	0.051	-0.191
-512.829	800.000	0.037	0.133
-511.814	-166.923	-0.317	0.013
-510.799	23.136	0.216	0.177
-509.785	238.577	0.161	-0.268
-508.770	-101.415	0.155	0.038
-507.756	710.934	0.109	0.287
-506.741	-50.435	0.366	0.173
-505.726	52.491	0.066	-0.063
-504.712	-200.000	0.066	0.312
-503.697	800.000	0.057	-0.229
-502.683	33.218	0.115	-0.099
-501.668	189.246	0.130	-0.194
-500.653	-128.688	0.060	0.008
-499.639	49.220	-0.119	0.111
-498.624	182.148	0.138	0.202
-497.610	-73.786	0.077	0.028
-496.595	55.100	0.107	-0.103
-495.581	446.480	0.024	-0.053
-494.566	139.711	0.228	0.300
-493.551	149.504	0.128	-0.173
-492.537	328.175	0.071	-0.135
-491.522	197.465	-0.091	0.138
-490.508	-148.255	-0.597	0.049
-489.493	-88.546	0.275	0.082
-488.478	288.537	0.062	-0.113
-487.464	-77.858	0.137	-0.047
-486.449	15.037	-0.151	-0.118
-485.435	-172.617	-0.097	0.003
-484.420	-164.351	0.253	-0.012
-483.405	216.053	-0.149	-0.236
-482.391	136.997	-0.144	0.188
-481.376	800.000	0.009	-0.030
-480.362	197.588	-0.071	0.108
-479.347	173.582	0.081	0.116
-478.332	54.493	-0.293	0.281
-477.318	800.000	-0.026	0.105
-476.303	526.696	0.131	-0.308
-475.289	-122.496	0.291	-0.047
-474.274	49.804	0.279	-0.262
-473.259	-46.480	0.102	-0.050
-472.245	224.938	-0.123	0.198
-471.230	299.546	-0.061	0.112
-470.216	-33.754	-0.144	0.079
-469.201	-103.122	0.044	-0.010
-468.186	-200.000	0.001	-0.160
-467.172	238.885	-0.183	-0.304
-466.157	77.115	0.251	0.266
-465.143	-0.549	-0.103	-0.073
-464.128	19.169	-0.333	-0.266
-463.113	-106.894	0.391	-0.086
-462.099	-9.320	0.167	-0.111
-461.084	-0.621	0.248	0.175
-460.070	800.000	0.087	0.329
-459.055	-41.834	0.103	-0.053
-458.040	190.953	-0.133	-0.199
-457.026	-94.776	0.206	0.056
-456.011	-40.359	-0.133	0.069
-454.997	-145.034	0.301	0.027
-453.982	55.072	0.286	-0.276
-452.968	-200.000	0.009	0.253
-451.953	-94.054	-0.295	-0.081
-450.938	-31.471	-0.138	-0.077
-449.924	-141.891	-0.269	-0.027
-448.909	-200.000	-0.030	0.231
-447.895	-129.870	-0.295	-0.040
-446.880	-33.528	0.239	-0.132
-445.865	14.532	0.341	0.265
-444.851	-200.000	-0.012	-0.389
-443.836	-157.155	-0.110	-0.007
-442.822	-200.000	0.008	-0.220
-441.807	91.071	0.075	0.084
-440.792	-82.110	-0.530	-0.172
-439.778	176.721	-0.072	-0.105
-438.763	-104.883	0.237	-0.054
-437.749	224.655	-0.082	-0.132
-436.734	-200.000	-0.016	-0.289
-435.719	95.568	-0.112	0.127
-434.705	-200.000	-0.012	0.091
-433.690	32.677	-0.098	0.084
-432.676	-200.000	-0.067	0.436
-431.661	22.697	0.162	0.132
-430.646	181.227	0.143	0.210
-429.632	245.751	0.166	-0.278
-428.617	717.037	0.208	-0.548
-427.603	212.350	0.079	0.124
-426.588	-200.000	-0.030	-0.159
-425.573	-89.204	0.245	-0.072
-424.559	-143.935	0.199	0.019
-423.544	-144.946	0.219	0.020
-422.530	1.300	0.252	-0.181
-421.515	-60.480	-0.422	-0.179
-420.500	-18.945	0.206	0.128
-419.486	694.224	-0.038	-0.099
-418.471	800.000	-0.028	-0.084
-417.457	-70.405	0.298	0.113
-416.442	-106.712	-0.291	0.064
-415.428	7.438	-0.110	0.082
-414.413	-43.263	0.057	0.029
-413.398	553.350	-0.140	-0.335
-412.384	-56.137	0.174	-0.077
-411.369	-154.209	-0.123	-0.008
-410.355	100.296	-0.193	0.223
-409.340	-1.797	0.134	0.094
-408.325	41.438	0.049	-0.044
-407.311	47.025	-0.184	-0.171
-406.296	-123.442	0.103	0.016
-405.282	11.256	0.115	-0.087
-404.267	92.996	-0.223	-0.251
-403.252	18.690	0.166	0.132
-402.238	693.769	-0.070	-0.182
-401.223	800.000	0.056	-0.196
-400.209	127.665	0.102	-0.129
-399.194	7.244	0.263	0.195
-398.179	-200.000	0.007	0.401
-397.165	21.350	0.293	-0.237
-396.150	535.357	-0.149	0.350
-395.136	175.175	-0.108	-0.156
-394.121	-200.000	0.016	0.252
-393.106	800.000	-0.044	-0.146
-392.092	-143.130	-0.118	-0.011
-391.077	-164.144	-0.449	0.021
-390.063	-1.547	0.196	-0.138
-389.048	139.966	0.127	-0.167
-388.033	-200.000	-0.036	0.284
-387.019	-36.758	-0.148	0.079
-386.004	606.323	0.064	-0.159
-384.990	401.862	-0.055	0.116
-383.975	-200.000	0.007	0.266
-382.960	614.556	0.024	-0.059
-381.946	800.000	0.086	-0.249
-380.931	158.454	-0.146	-0.201
-379.917	514.380	0.006	0.013
-378.902	-56.213	0.336	0.148
-377.888	299.249	-0.250	0.457
-376.873	-137.610	0.267	0.030
-375.858	71.170	0.260	-0.268
-374.844	-147.077	0.136	0.012
-373.829	80.840	-0.223	-0.239
-372.815	-155.989	-0.089	-0.006
-371.800	800.000	0.040	0.147
-370.785	800.000	-0.044	0.157
-369.771	-94.260	0.114	-0.031
-368.756	41.486	0.206	-0.186
-367.742	322.245	0.019	-0.037
-366.727	-200.000	-0.029	-0.210
-365.712	800.000	-0.089	0.263
-364.698	-107.563	-0.162	0.035
-363.683	132.436	0.094	0.120
-362.669	252.373	-0.052	-0.089
-361.654	443.151	-0.125	0.271
-360.639	-200.000	0.048	-0.309
-359.625	-200.000	0.059	0.358
-358.610	86.188	0.102	-0.112
-357.596	-200.000	0.032	0.188
-356.581	-139.725	-0.539	-0.057
-355.566	-42.354	0.151	-0.076
-354.552	549.401	0.131	0.313
-353.537	-92.784	0.271	0.075
-352.523	152.710	-0.124	-0.168
-351.508	800.000	0.081	0.222
-350.493	88.378	-0.129	-0.142
-349.479	147.522	0.128	0.171
-348.464	-105.145	-0.328	0.074
-347.450	-97.520	0.061	0.016
-346.435	39.807	0.123	-0.109
-345.420	291.331	0.099	0.179
-344.406	262.639	-0.151	0.259
-343.391	-86.599	-0.067	-0.020
-342.377	-9.758	0.256	0.169
-341.362	-30.107	0.309	-0.175
-340.348	-30.949	0.147	-0.082
-339.333	-200.000	-0.012	0.265
-338.318	212.969	-0.117	-0.183
-337.304	10.258	-0.322	0.243
-336.289	195.138	-0.062	0.093
-335.275	-154.122	0.184	0.012
-334.260	-143.949	-0.391	0.037
-333.245	-36.327	-0.293	-0.157
-332.231	20.213	0.321	0.257
-331.216	69.311	-0.274	0.280
-330.202	298.473	-0.013	-0.024
-329.187	-46.299	-0.082	-0.040
-328.172	800.000	-0.040	0.136
-327.158	34.335	0.208	0.180
-326.143	683.990	0.058	-0.149
-325.129	-121.902	0.150	0.025
-324.114	-56.957	0.205	0.090
-323.099	-98.057	0.193	0.049
-322.085	98.939	-0.093	-0.107
-321.070	-200.000	-0.023	0.289
-320.056	-48.945	0.245	-0.117
-319.041	-35.392	0.053	-0.028
-318.026	770.209	-0.074	-0.200
-317.012	43.317	-0.130	0.118
-315.997	2.416	-0.094	0.067
-314.983	-149.194	0.205	0.016
-313.968	800.000	-0.090	0.296
-312.953	118.809	0.225	0.275
-311.939	-41.846	-0.321	0.163
-310.924	-127.928	0.321	0.046
-309.910	-109.004	-0.309	-0.065
-308.895	189.952	0.052	-0.077
-307.880	-200.000	-0.009	-0.197
-306.866	-121.655	-0.328	-0.054
-305.851	-200.000	0.061	0.342
-304.837	-183.504	-0.013	-0.000
-303.822	-83.430	-0.275	-0.087
-302.807	432.670	-0.077	-0.165
-301.793	22.041	0.149	0.120
-300.778	-200.000	0.026	0.349
-299.764	-58.277	0.066	0.028
-298.749	-117.043	0.209	0.038
-297.735	-200.000	-0.008	-0.165
-296.720	10.297	0.069	-0.052
-295.705	-31.981	0.239	-0.132
-294.691	-156.393	0.339	-0.021
-293.676	-160.291	0.120	0.006
-292.662	-0.755	-0.309	-0.217
-291.647	-200.000	0.023	-0.255
-290.632	-140.844	-0.199	0.020
-289.618	-74.444	0.173	-0.062
-288.603	634.665	-0.111	0.280
-287.589	-200.000	-0.001	0.369
-286.574	139.216	-0.123	0.160
-285.559	156.873	-0.062	0.085
-284.545	81.112	-0.225	-0.241
-283.530	-116.683	-0.146	0.027
-282.516	-72.229	-0.226	-0.083
-281.501	-200.000	0.013	-0.159
-280.486	-55.100	0.444	-0.198
-279.472	29.077	0.073	0.062
-278.457	-200.000	-0.039	-0.236
-277.443	-200.000	0.007	-0.131
-276.428	66.774	-0.017	0.017
-275.413	-200.000	-0.013	0.293
-274.399	-200.000	-0.001	-0.074
-273.384	590.045	-0.122	0.297
-272.370	385.437	0.115	-0.234
-271.355	-200.000	0.015	0.122
-270.340	-129.742	-0.043	-0.006
-269.326	123.329	-0.165	0.204
-268.311	189.171	-0.112	0.166
-267.297	198.389	0.034	0.051
-266.282	-65.886	-0.407	0.161
-265.267	-200.000	0.057	0.462
-264.253	-68.221	-0.269	-0.104
-263.238	-71.352	0.088	-0.032
-262.224	-32.916	0.163	-0.090
-261.209	-200.000	0.017	-0.113
-260.195	800.000	0.107	-0.318
-259.180	-200.000	0.029	0.349
-258.165	212.015	0.088	-0.137
-257.151	562.752	-0.119	-0.284
-256.136	800.000	-0.008	0.033
-255.122	-112.196	-0.202	0.040
-254.107	-116.246	-0.165	-0.030
-253.092	266.311	-0.151	-0.261
-252.078	57.246	-0.212	0.204
-251.063	196.777	0.180	0.271
-250.049	-34.050	0.069	-0.037
-249.034	-115.792	-0.146	0.027
-248.019	186.343	0.103	0.151
-247.005	-119.476	0.202	0.035
-245.990	800.000	-0.030	-0.085
-244.976	161.392	-0.046	-0.064
-243.961	-84.145	-0.266	-0.084
-242.946	800.000	-0.066	0.226
-241.932	-36.592	0.065	0.035
-240.917	88.204	0.051	-0.056
-239.903	77.808	-0.139	-0.146
-238.888	151.662	-0.127	-0.171
-237.873	-200.000	0.006	0.064
-236.859	-52.906	-0.169	0.077
-235.844	37.192	0.191	0.167
-234.830	213.671	-0.119	-0.185
-233.815	109.001	-0.199	-0.235
-232.800	-200.000	-0.009	-0.083
-231.786	194.069	0.160	-0.240
-230.771	79.767	0.096	-0.102
-229.757	800.000	0.048	-0.160
-228.742	-200.000	0.020	-0.122
-227.727	-57.151	0.151	0.066
-226.713	126.812	-0.164	0.205
-225.698	-21.019	-0.430	0.260
-224.684	-76.551	-0.216	0.075
-223.669	-73.907	0.171	0.061
-222.655	-200.000	-0.007	0.159
-221.640	136.176	0.101	-0.130
-220.625	360.575	-0.069	-0.137
-219.611	800.000	-0.014	0.052
-218.596	-5.660	0.173	0.117
-217.582	332.264	0.109	-0.209
-216.567	-101.472	0.115	-0.028
-215.552	-200.000	-0.066	-0.416
-214.538	10.077	0.037	-0.027
-213.523	37.664	0.051	0.045
-212.509	674.065	0.117	0.299
-211.494	800.000	0.113	0.317
-210.479	-0.018	0.324	0.228
-209.465	436.669	0.083	-0.178
-208.450	58.717	-0.063	-0.061
-207.436	800.000	-0.050	0.195
-206.421	-200.000	0.043	0.198
-205.406	29.163	-0.126	-0.106
-204.392	-169.023	0.254	0.009
-203.377	-200.000	-0.062	0.275
-202.363	100.434	-0.177	0.202
-201.348	-128.856	0.404	0.056
-200.333	-56.024	-0.036	-0.016
-199.319	-129.768	0.107	0.014
-198.304	-200.000	-0.019	0.348
-197.290	458.042	-0.043	0.095
-196.275	-139.553	0.470	0.050
-195.260	-124.300	0.377	-0.058
-194.246	181.876	-0.138	-0.200
-193.231	9.402	0.096	-0.072
-192.217	-30.932	-0.105	-0.059
-191.202	-15.449	0.229	0.144
-190.187	162.905	0.078	-0.109
-189.173	411.753	0.132	0.277
-188.158	278.278	-0.052	0.091
-187.144	43.189	0.070	0.063
-186.129	-98.853	-0.102	0.026
-185.114	-150.985	-0.170	0.013
-184.100	800.000	-0.039	0.111
-183.085	430.508	-0.130	-0.278
-182.071	-157.660	-0.318	0.019
-181.056	29.305	-0.189	-0.158
-180.042	800.000	-0.050	-0.209
-179.027	-46.303	0.210	0.102
-178.012	-200.000	-0.015	0.332
-176.998	-189.122	0.132	-0.002
-175.983	800.000	-0.126	-0.390
-174.969	-110.403	-0.129	-0.026
-173.954	-200.000	-0.001	-0.083
-172.939	-200.000	-0.007	-0.319
-171.925	-94.591	-0.175	-0.047
-170.910	-200.000	0.017	-0.129
-169.896	-12.461	0.134	-0.086
-168.881	277.278	0.079	-0.139
-167.866	-121.279	0.132	-0.022
-166.852	-155.065	-0.162	-0.010
-165.837	426.885	0.100	0.212
-164.823	-128.921	-0.099	0.014
-163.808	-115.893	-0.296	-0.054
-162.793	44.207	0.054	0.049
-161.779	-155.337	0.234	-0.015
-160.764	-200.000	-0.002	0.151
-159.750	-179.044	0.175	0.004
-158.735	-44.463	-0.217	0.107
-157.720	-102.724	0.179	0.042
-156.706	800.000	-0.026	0.094
-155.691	-87.776	0.060	0.018
-154.677	418.380	-0.161	0.339
-153.662	-10.569	0.021	0.014
-152.647	-132.574	-0.132	0.017
-151.633	20.369	-0.152	-0.121
-150.618	204.745	-0.053	0.081
-149.604	-142.222	0.243	-0.024
-148.589	496.886	-0.116	-0.262
-147.574	-7.768	-0.317	0.211
-146.560	69.974	0.216	0.219
-145.545	380.697	-0.126	0.254
-144.531	39.282	-0.229	0.202
-143.516	264.552	0.117	0.200
-142.502	70.002	-0.148	0.150
-141.487	800.000	0.012	-0.033
-140.472	723.711	0.039	-0.102
-139.458	58.154	-0.125	-0.120
-138.443	-200.000	-0.035	0.381
-137.429	-56.922	0.157	0.068
-136.414	26.613	-0.139	0.115
-135.399	800.000	0.084	0.243
-134.385	-150.018	0.231	0.018
-133.370	-93.299	-0.439	-0.120
-132.356	259.701	0.122	-0.208
-131.341	-98.413	0.154	0.039
-130.326	216.716	0.132	0.207
-129.312	-50.889	0.136	0.063
-128.297	-65.495	0.268	-0.106
-127.283	-173.536	0.200	-0.006
-126.268	-33.356	-0.153	0.083
-125.253	10.678	-0.131	-0.098
-124.239	-30.915	-0.092	0.051
-123.224	279.219	0.067	0.118
-122.210	-151.526	-0.282	0.021
-121.195	800.000	-0.102	0.366
