DTS Sentinel unit serial number:	SN413079Multiplexer serial number:	ORYXHardware model number:	OX4-SRSoftware version number:	ORYX F/W v4.00 Oryx Data Collector v3.7.2.0data status	okinstallation	princeton_trtdifferential loss correction	single-endedforward channel	channel 2reverse channel	N/Adate	2019/09/18time	20:59:35forward acquisition time	60.00reverse acquisition time	0.00gamma	496.2192k internal	0.2342k external	0.2342temperature offset calibration	1.0029default loss term (dB/km)	0.3790temperature slope calibration	1.0000multiplexer offset coefficient	1.0000multiplexer slope coefficient	1.0000fibre end	0.00T internal ref (°C)	26.58T ext. ref 1 (°C)	0.94T ext. ref 2 (°C)	17.96length (m)	temperature (°C)	Stokes	anti-Stokes-747.200	-200.000	-0.001	-0.091
-746.185	-33.572	-0.245	0.136
-745.171	77.319	0.178	-0.189
-744.156	10.058	0.316	0.240
-743.142	-1.632	0.081	0.057
-742.127	-45.349	-0.289	-0.144
-741.112	57.447	0.182	0.178
-740.098	683.694	0.105	0.275
-739.083	276.775	-0.105	-0.187
-738.069	1.215	0.123	0.088
-737.054	119.694	-0.032	0.040
-736.039	-16.941	-0.239	-0.151
-735.025	20.597	0.183	-0.148
-734.010	-200.000	0.015	-0.156
-732.996	800.000	-0.016	-0.052
-731.981	123.417	-0.184	0.231
-730.966	233.149	-0.132	0.218
-729.952	-90.376	-0.259	-0.075
-728.937	749.224	0.181	0.490
-727.923	-132.767	0.250	0.032
-726.908	-147.173	-0.302	-0.026
-725.894	-126.346	-0.227	0.034
-724.879	547.678	-0.202	-0.485
-723.864	263.023	0.299	0.519
-722.850	468.351	0.055	0.125
-721.835	574.760	0.126	0.307
-720.821	-108.882	-0.249	0.053
-719.806	-89.979	-0.354	0.103
-718.791	-175.481	0.131	0.004
-717.777	-22.818	-0.065	-0.039
-716.762	337.415	-0.092	0.179
-715.748	-118.358	0.190	-0.034
-714.733	-32.778	0.204	-0.114
-713.718	-103.944	-0.381	-0.089
-712.704	125.568	-0.190	-0.240
-711.689	199.264	0.124	-0.190
-710.675	-110.542	-0.159	0.033
-709.660	800.000	-0.034	-0.141
-708.645	-23.928	0.252	-0.151
-707.631	32.203	-0.220	-0.190
-706.616	-24.897	0.214	-0.127
-705.602	650.102	0.011	0.029
-704.587	259.499	0.225	0.389
-703.572	190.973	-0.098	0.147
-702.558	-200.000	0.019	-0.210
-701.543	-118.222	0.414	-0.074
-700.529	-82.113	0.178	0.058
-699.514	-35.456	0.125	0.068
-698.499	-122.265	-0.023	-0.004
-697.485	-44.843	-0.340	-0.170
-696.470	-85.175	-0.092	0.029
-695.456	62.590	-0.241	0.241
-694.441	-59.786	0.142	0.061
-693.426	-99.804	-0.393	0.098
-692.412	-21.310	-0.206	-0.126
-691.397	-111.041	-0.211	-0.043
-690.383	-200.000	-0.001	-0.045
-689.368	-81.494	-0.441	-0.145
-688.354	611.752	-0.031	0.077
-687.339	-73.631	-0.092	0.034
-686.324	-76.312	0.156	-0.055
-685.310	46.153	0.190	0.176
-684.295	-21.974	-0.341	-0.207
-683.281	-200.000	-0.038	-0.210
-682.266	-157.793	-0.248	-0.015
-681.251	-180.884	0.302	-0.006
-680.237	-67.113	-0.104	0.041
-679.222	-69.382	0.122	0.047
-678.208	441.840	-0.103	0.226
-677.193	-114.356	0.159	0.031
-676.178	-77.405	-0.043	0.015
-675.164	306.569	0.160	0.299
-674.149	-200.000	0.011	0.163
-673.135	-154.879	0.083	0.005
-672.120	31.970	0.134	0.115
-671.105	-200.000	-0.004	0.031
-670.091	-141.240	0.045	0.005
-669.076	-53.160	-0.223	0.102
-668.062	4.264	0.378	-0.277
-667.047	410.783	-0.044	0.093
-666.032	-40.028	-0.083	-0.043
-665.018	133.147	0.136	0.176
-664.003	-26.212	0.244	-0.143
-662.989	66.360	-0.348	-0.353
-661.974	-142.823	0.033	-0.003
-660.959	-200.000	0.019	0.294
-659.945	-73.341	0.288	-0.105
-658.930	-64.148	-0.188	-0.076
-657.916	578.608	-0.112	0.274
-656.901	-200.000	-0.002	-0.182
-655.886	243.099	-0.127	0.212
-654.872	28.824	-0.053	0.045
-653.857	185.524	0.077	-0.114
-652.843	-200.000	-0.052	0.284
-651.828	-59.110	0.257	0.111
-650.814	23.463	-0.066	0.054
-649.799	97.192	0.122	0.140
-648.784	800.000	0.155	0.475
-647.770	369.451	-0.051	-0.104
-646.755	102.448	-0.270	0.315
-645.741	800.000	0.067	-0.282
-644.726	-200.000	-0.012	-0.109
-643.711	48.521	0.093	-0.087
-642.697	66.489	0.039	0.039
-641.682	-200.000	0.024	0.159
-640.668	800.000	-0.069	-0.199
-639.653	65.791	-0.351	-0.355
-638.638	-47.768	0.099	-0.048
-637.624	-200.000	0.052	-0.260
-636.609	-200.000	0.035	-0.413
-635.595	751.672	-0.082	-0.221
-634.580	-97.619	0.317	-0.082
-633.565	-200.000	-0.518	0.001
-632.551	-68.249	0.285	-0.110
-631.536	-109.417	0.037	0.008
-630.522	-160.849	0.070	0.004
-629.507	317.372	-0.098	-0.184
-628.492	-100.895	-0.087	0.021
-627.478	282.655	-0.040	-0.072
-626.463	-98.728	-0.153	-0.039
-625.449	-200.000	-0.006	-0.183
-624.434	-17.868	-0.179	-0.112
-623.419	-25.015	0.176	-0.104
-622.405	-200.000	0.045	-0.417
-621.390	-112.243	-0.156	0.031
-620.376	-153.154	-0.213	-0.015
-619.361	800.000	0.057	-0.171
-618.346	99.795	-0.183	0.212
-617.332	56.963	0.029	0.028
-616.317	800.000	-0.064	0.179
-615.303	-200.000	-0.030	-0.165
-614.288	-200.000	0.012	0.196
-613.273	-4.703	-0.195	-0.134
-612.259	800.000	0.043	-0.149
-611.244	800.000	-0.100	-0.307
-610.230	-200.000	0.086	-0.436
-609.215	-84.357	0.269	0.085
-608.201	800.000	-0.065	0.275
-607.186	-200.000	-0.009	0.132
-606.171	138.812	-0.131	0.171
-605.157	184.704	-0.111	-0.164
-604.142	-72.597	-0.159	-0.059
-603.128	26.910	0.264	0.221
-602.113	-200.000	-0.021	0.162
-601.098	110.362	-0.136	-0.163
-600.084	-91.638	-0.139	-0.039
-599.069	-68.924	0.086	-0.033
-598.055	13.141	-0.153	0.118
-597.040	-77.183	-0.324	0.112
-596.025	800.000	0.087	-0.351
-595.011	-200.000	-0.024	0.197
-593.996	-200.000	0.004	0.240
-592.982	386.463	0.083	-0.171
-591.967	11.530	-0.243	-0.186
-590.952	800.000	0.015	-0.066
-589.938	347.836	-0.062	-0.121
-588.923	-87.364	0.170	-0.051
-587.909	800.000	-0.039	-0.110
-586.894	-1.855	0.217	-0.152
-585.879	495.819	-0.169	-0.386
-584.865	11.688	0.192	0.146
-583.850	-112.601	0.282	0.056
-582.836	800.000	0.055	0.180
-581.821	-200.000	0.004	0.023
-580.806	232.438	-0.187	-0.306
-579.792	-98.653	0.329	0.083
-578.777	-20.224	-0.269	-0.165
-577.763	-13.896	0.096	0.062
-576.748	249.994	0.079	-0.134
-575.733	-147.053	0.291	0.025
-574.719	2.121	-0.107	-0.077
-573.704	-171.473	-0.153	-0.005
-572.690	7.518	-0.196	-0.146
-571.675	25.004	-0.077	0.063
-570.661	-118.672	-0.189	-0.033
-569.646	-86.008	0.120	-0.037
-568.631	268.017	0.103	-0.180
-567.617	66.756	0.249	-0.252
-566.602	17.593	0.046	0.036
-565.588	-45.368	-0.185	0.091
-564.573	-200.000	-0.050	0.237
-563.558	-55.672	-0.095	-0.042
-562.544	564.210	0.057	-0.137
-561.529	-129.041	-0.142	-0.020
-560.515	-200.000	-0.004	-0.124
-559.500	50.575	-0.100	-0.094
-558.485	-50.675	-0.142	-0.067
-557.471	-200.000	0.082	0.413
-556.456	-80.767	0.217	-0.072
-555.442	-37.592	-0.144	-0.076
-554.427	-122.815	0.110	0.018
-553.412	800.000	0.104	-0.290
-552.398	-85.409	-0.210	0.065
-551.383	72.601	0.127	0.132
-550.369	428.176	-0.144	-0.310
-549.354	-200.000	0.057	0.389
-548.339	800.000	0.059	-0.234
-547.325	434.782	0.117	-0.253
-546.310	800.000	0.081	0.227
-545.296	311.228	-0.053	-0.098
-544.281	-7.194	0.506	0.341
-543.266	-200.000	-0.030	0.381
-542.252	297.473	0.113	0.206
-541.237	158.648	-0.041	-0.057
-540.223	-31.627	0.160	-0.089
-539.208	-200.000	-0.018	-0.165
-538.193	-52.887	-0.492	-0.225
-537.179	-41.249	-0.439	-0.225
-536.164	800.000	0.055	-0.237
-535.150	6.987	-0.147	-0.109
-534.135	-47.405	-0.108	0.052
-533.121	-34.522	0.244	-0.133
-532.106	101.942	-0.043	0.050
-531.091	800.000	0.064	0.249
-530.077	46.789	0.335	0.309
-529.062	28.240	0.082	0.069
-528.048	-200.000	-0.033	-0.199
-527.033	-61.783	0.182	-0.076
-526.018	-61.365	0.209	0.087
-525.004	-200.000	0.001	-0.189
-523.989	-92.230	0.130	0.036
-522.975	94.766	0.049	-0.056
-521.960	-178.282	-0.166	0.004
-520.945	-200.000	-0.002	0.038
-519.931	286.437	0.149	0.267
-518.916	-200.000	0.006	0.051
-517.902	-109.520	0.258	-0.054
-516.887	-123.813	0.170	-0.027
-515.872	325.104	0.039	0.075
-514.858	-144.712	-0.241	-0.022
-513.843	-54.206	0.157	-0.071
-512.829	-88.588	-0.160	-0.047
-511.814	-200.000	-0.002	0.084
-510.799	-151.496	0.236	-0.017
-509.785	-46.626	0.173	0.084
-508.770	-70.354	-0.265	-0.100
-507.756	269.214	-0.013	0.022
-506.741	-77.708	0.066	-0.023
-505.726	-115.393	0.263	0.049
-504.712	-200.000	0.007	0.118
-503.697	-71.290	0.066	0.025
-502.683	9.531	-0.163	-0.122
-501.668	-45.053	-0.185	-0.092
-500.653	-36.038	-0.199	-0.107
-499.639	-58.405	-0.224	0.097
-498.624	-110.132	-0.032	-0.007
-497.610	99.610	0.136	-0.157
-496.595	22.214	0.158	-0.128
-495.581	-200.000	-0.007	0.173
-494.566	-200.000	-0.005	0.077
-493.551	800.000	-0.015	-0.055
-492.537	800.000	-0.012	0.044
-491.522	67.646	-0.151	0.153
-490.508	378.516	-0.157	-0.318
-489.493	-160.088	-0.159	-0.009
-488.478	-200.000	-0.108	-0.602
-487.464	278.958	-0.173	-0.306
-486.449	-200.000	0.027	-0.265
-485.435	131.971	-0.048	0.061
-484.420	-200.000	0.008	0.261
-483.405	40.153	-0.144	0.129
-482.391	-18.469	-0.145	0.090
-481.376	157.410	-0.248	-0.340
-480.362	-200.000	0.008	0.073
-479.347	247.039	0.192	-0.322
-478.332	-200.000	0.013	0.126
-477.318	-55.903	-0.055	-0.024
-476.303	153.758	0.154	0.209
-475.289	-119.961	-0.277	-0.047
-474.274	-46.832	0.272	0.132
-473.259	6.410	0.145	0.107
-472.245	-67.994	-0.307	0.119
-471.230	489.261	-0.120	0.272
-470.216	-114.606	0.076	0.014
-469.201	225.343	-0.128	-0.206
-468.186	438.460	-0.160	-0.347
-467.172	-107.432	0.051	-0.011
-466.157	-200.000	-0.020	-0.141
-465.143	-68.050	-0.279	-0.108
-464.128	405.149	-0.157	-0.328
-463.113	-17.969	-0.134	0.083
-462.099	116.065	-0.034	-0.042
-461.084	25.517	0.126	0.104
-460.070	-200.000	0.067	0.435
-459.055	-200.000	0.002	0.215
-458.040	-200.000	0.046	0.277
-457.026	1.720	0.276	-0.197
-456.011	157.717	-0.075	0.103
-454.997	-73.630	-0.236	-0.085
-453.982	51.704	-0.177	0.167
-452.968	800.000	-0.055	0.207
-451.953	-200.000	-0.020	-0.220
-450.938	103.220	0.024	-0.028
-449.924	-95.819	0.239	-0.063
-448.909	-41.409	0.212	-0.108
-447.895	9.695	0.273	-0.205
-446.880	24.314	-0.284	0.232
-445.865	-168.606	0.284	-0.011
-444.851	-144.208	-0.152	-0.014
-443.836	566.845	0.053	-0.127
-442.822	263.949	0.123	-0.212
-441.807	-97.201	0.377	0.097
-440.792	-150.649	0.313	0.024
-439.778	-108.591	-0.284	-0.060
-438.763	-42.892	-0.130	0.065
-437.749	182.569	0.135	-0.197
-436.734	-41.895	-0.341	0.173
-435.719	800.000	0.076	0.220
-434.705	-129.342	0.181	0.025
-433.690	23.384	0.119	-0.097
-432.676	8.595	0.123	-0.091
-431.661	-168.943	0.093	-0.003
-430.646	-0.076	0.208	0.146
-429.632	-25.136	0.082	-0.048
-428.617	800.000	-0.011	0.034
-427.603	-101.520	0.276	-0.067
-426.588	800.000	0.119	-0.336
-425.573	259.256	0.150	-0.255
-424.559	-74.470	-0.169	0.060
-423.544	-127.083	0.095	0.014
-422.530	-200.000	0.036	0.375
-421.515	87.680	0.054	-0.060
-420.500	800.000	-0.007	-0.021
-419.486	-200.000	-0.085	-0.383
-418.471	800.000	-0.098	-0.306
-417.457	583.268	-0.080	0.195
-416.442	73.086	0.095	0.098
-415.428	800.000	-0.099	-0.391
-414.413	-84.544	0.270	0.084
-413.398	800.000	0.034	0.092
-412.384	-166.180	0.418	-0.018
-411.369	800.000	0.012	-0.040
-410.355	71.081	-0.319	0.327
-409.340	800.000	0.044	0.185
-408.325	-22.683	-0.162	0.097
-407.311	-53.322	-0.171	-0.078
-406.296	531.983	0.068	-0.160
-405.282	-200.000	0.041	-0.197
-404.267	185.666	0.104	-0.153
-403.252	-29.030	-0.310	-0.176
-402.238	116.091	-0.073	0.088
-401.223	-200.000	-0.021	0.115
-400.209	4.118	-0.073	-0.053
-399.194	57.285	-0.038	0.037
-398.179	-88.492	-0.282	-0.083
-397.165	-137.532	-0.295	0.033
-396.150	-90.941	0.323	0.092
-395.136	59.845	-0.074	0.072
-394.121	-20.163	-0.116	0.070
-393.106	550.307	-0.091	0.215
-392.092	-174.237	0.269	-0.008
-391.077	156.548	-0.169	-0.231
-390.063	-53.966	0.168	0.076
-389.048	-44.152	-0.393	0.195
-388.033	153.664	0.254	-0.344
-387.019	-200.000	0.025	-0.137
-386.004	-112.561	0.195	-0.038
-384.990	-200.000	0.006	-0.162
-383.975	368.459	-0.051	-0.101
-382.960	-145.774	-0.122	-0.011
-381.946	800.000	0.047	-0.160
-380.931	-87.494	-0.162	-0.048
-379.917	-68.637	0.096	0.037
-378.902	-11.786	0.298	0.193
-377.888	-64.028	-0.165	0.066
-376.873	3.466	0.069	-0.050
-375.858	10.737	0.191	0.144
-374.844	231.524	0.006	-0.010
-373.829	-65.391	-0.347	0.138
-372.815	-200.000	-0.014	-0.187
-371.800	-200.000	0.025	-0.119
-370.785	218.758	-0.142	-0.224
-369.771	-35.389	0.255	0.137
-368.756	-29.366	0.133	0.075
-367.742	140.892	0.101	0.131
-366.727	-20.472	-0.365	-0.221
-365.712	-200.000	0.033	-0.255
-364.698	73.211	0.272	-0.281
-363.683	-200.000	0.040	-0.230
-362.669	-142.318	0.178	-0.017
-361.654	-200.000	0.003	-0.046
-360.639	800.000	-0.099	-0.290
-359.625	604.381	-0.045	-0.110
-358.610	27.927	-0.262	-0.218
-357.596	-64.945	-0.267	0.106
-356.581	87.649	0.180	0.197
-355.566	-155.193	0.226	-0.015
-354.552	-11.402	0.154	-0.100
-353.537	-200.000	0.009	-0.056
-352.523	800.000	0.049	0.208
-351.508	800.000	-0.038	-0.157
-350.493	800.000	0.060	0.190
-349.479	42.858	-0.264	-0.237
-348.464	800.000	0.040	0.127
-347.450	-129.657	0.219	0.030
-346.435	-200.000	0.028	0.266
-345.420	-52.040	0.169	0.078
-344.406	800.000	-0.021	0.085
-343.391	173.100	-0.201	0.286
-342.377	-200.000	0.009	0.098
-341.362	-200.000	0.000	0.209
-340.348	-200.000	-0.004	-0.199
-339.333	-137.160	-0.483	0.054
-338.318	96.711	0.251	-0.284
-337.304	800.000	0.006	0.021
-336.289	-82.851	0.388	-0.124
-335.275	71.154	-0.078	0.079
-334.260	-54.126	0.073	-0.033
-333.245	54.551	-0.148	-0.140
-332.231	-179.482	0.248	-0.005
-331.216	-200.000	0.027	0.152
-330.202	-39.566	0.221	-0.114
-329.187	800.000	0.067	-0.216
-328.172	-82.988	0.183	-0.058
-327.158	233.003	-0.062	0.100
-326.143	46.182	-0.081	-0.074
-325.129	100.615	-0.067	0.077
-324.114	-200.000	-0.037	0.389
-323.099	-141.840	0.161	0.016
-322.085	-200.000	-0.012	0.451
-321.070	-122.443	-0.075	0.012
-320.056	34.826	0.055	-0.047
-319.041	103.065	0.248	-0.287
-318.026	424.023	0.129	-0.273
-317.012	-17.860	0.158	0.097
-315.997	-20.290	-0.224	0.136
-314.983	-77.775	-0.165	0.056
-313.968	-200.000	-0.030	0.441
-312.953	-148.980	0.210	0.017
-311.939	-111.676	-0.139	-0.028
-310.924	-122.914	-0.115	-0.018
-309.910	291.179	-0.088	0.158
-308.895	94.829	-0.079	-0.089
-307.880	-97.311	0.268	0.069
-306.866	-33.106	0.312	0.170
-305.851	-18.832	-0.221	-0.135
-304.837	-200.000	-0.044	-0.344
-303.822	-200.000	0.032	0.237
-302.807	-60.936	-0.041	-0.017
-301.793	104.266	-0.153	0.177
-300.778	42.101	-0.224	0.201
-299.764	-67.714	0.344	-0.132
-298.749	310.726	-0.092	0.170
-297.735	79.814	-0.044	0.046
-296.720	-111.708	0.486	0.097
-295.705	-200.000	0.038	0.198
-294.691	552.236	-0.019	-0.044
-293.676	800.000	-0.131	0.498
-292.662	-64.134	-0.131	-0.053
-291.647	-200.000	0.014	-0.461
-290.632	-38.621	0.162	-0.084
-289.618	345.478	0.134	-0.259
-288.603	-115.990	-0.279	0.051
-287.589	281.687	0.122	-0.215
-286.574	564.263	-0.027	-0.065
-285.559	492.066	-0.046	0.104
-284.545	-121.250	0.066	0.011
-283.530	149.687	-0.123	0.164
-282.516	-45.568	-0.157	0.077
-281.501	-1.756	-0.398	0.276
-280.486	-36.422	-0.135	-0.072
-279.472	55.127	0.313	-0.298
-278.457	-9.430	-0.025	-0.017
-277.443	-200.000	-0.006	-0.108
-276.428	182.234	-0.214	-0.310
-275.413	794.041	-0.079	0.213
-274.399	-151.113	0.340	0.025
-273.384	800.000	0.059	0.215
-272.370	146.670	-0.065	0.086
-271.355	800.000	0.141	0.476
-270.340	261.034	-0.133	0.227
-269.326	-41.255	0.080	0.041
-268.311	-38.857	-0.113	0.059
-267.297	-200.000	0.071	-0.334
-266.282	-71.810	0.126	-0.046
-265.267	189.024	-0.206	0.304
-264.253	-200.000	-0.006	0.420
-263.238	-200.000	-0.002	0.114
-262.224	120.700	-0.197	0.241
-261.209	800.000	-0.020	-0.061
-260.195	244.640	-0.136	-0.225
-259.180	-93.664	-0.234	-0.064
-258.165	-200.000	-0.012	-0.509
-257.151	533.034	0.043	-0.099
-256.136	65.042	0.198	0.197
-255.122	65.446	0.117	0.116
-254.107	62.965	0.142	0.140
-253.092	800.000	-0.055	0.156
-252.078	-3.378	-0.264	-0.181
-251.063	140.125	0.263	0.341
-250.049	-103.848	-0.391	0.090
-249.034	-27.851	0.211	-0.120
-248.019	-107.215	0.423	0.092
-247.005	-95.674	0.374	-0.098
-245.990	-200.000	-0.012	-0.104
-244.976	-110.933	-0.171	-0.035
-243.961	-200.000	-0.015	0.152
-242.946	38.963	-0.063	-0.055
-241.932	79.968	0.075	-0.080
-240.917	-68.812	-0.128	0.049
-239.903	510.154	-0.145	0.331
-238.888	-200.000	0.010	0.332
-237.873	-172.914	0.453	-0.014
-236.859	207.461	-0.059	0.091
-235.844	28.978	-0.066	0.055
-234.830	311.058	-0.039	-0.071
-233.815	-200.000	-0.001	0.130
-232.800	-200.000	0.001	0.296
-231.786	-200.000	0.020	0.383
-230.771	-122.071	-0.179	0.029
-229.757	27.930	0.077	0.064
-228.742	800.000	0.108	0.307
-227.727	-154.298	-0.059	0.004
-226.713	-40.907	0.125	-0.064
-225.698	19.133	-0.257	0.202
-224.684	646.408	0.087	-0.218
-223.669	-122.194	-0.157	-0.025
-222.655	-17.770	-0.152	-0.094
-221.640	-59.570	-0.089	0.037
-220.625	800.000	-0.025	0.088
-219.611	800.000	0.092	0.329
-218.596	-200.000	-0.016	0.166
-217.582	122.017	-0.096	0.118
-216.567	409.457	-0.118	-0.245
-215.552	346.690	0.065	-0.125
-214.538	678.764	-0.100	0.255
-213.523	-200.000	0.114	-0.000
-212.509	29.410	-0.142	-0.118
-211.494	-63.444	-0.294	0.119
-210.479	115.260	-0.018	0.022
-209.465	29.457	0.131	0.109
-208.450	3.375	0.170	0.122
-207.436	800.000	0.033	-0.112
-206.421	-200.000	-0.025	-0.113
-205.406	800.000	-0.089	-0.311
-204.392	-102.270	0.238	0.056
-203.377	-200.000	0.001	0.194
-202.363	-128.301	0.179	0.025
-201.348	-130.803	0.239	0.031
-200.333	164.506	0.153	0.212
-199.319	-125.184	-0.239	-0.036
-198.304	89.755	-0.083	0.091
-197.290	-200.000	-0.041	-0.192
-196.275	112.921	-0.121	-0.144
-195.260	205.013	-0.138	0.210
-194.246	28.032	-0.140	0.116
-193.231	-200.000	0.020	0.217
-192.217	-200.000	-0.027	-0.118
-191.202	-116.113	0.205	0.037
-190.187	52.123	-0.234	-0.219
-189.173	-29.179	-0.183	0.103
-188.158	507.965	-0.105	0.239
-187.144	800.000	0.055	0.152
-186.129	289.976	0.164	0.292
-185.114	-200.000	0.005	-0.221
-184.100	-200.000	0.010	-0.450
-183.085	-200.000	-0.007	0.247
-182.071	-132.655	-0.193	-0.024
-181.056	98.298	-0.212	-0.240
-180.042	-200.000	0.044	-0.263
-179.027	430.820	-0.055	0.117
-178.012	-200.000	-0.004	0.027
-176.998	358.271	0.188	0.368
-175.983	208.232	-0.298	0.456
-174.969	39.538	0.109	-0.096
-173.954	10.420	-0.153	0.114
-172.939	-106.617	0.112	-0.024
-171.925	44.051	-0.073	0.065
-170.910	597.466	-0.091	0.221
-169.896	-45.870	0.269	0.130
-168.881	800.000	-0.140	0.449
-167.866	36.144	-0.310	0.268
-166.852	108.572	-0.021	0.024
-165.837	19.177	0.182	0.143
-164.823	-9.749	0.188	0.123
-163.808	-111.620	0.356	-0.071
-162.793	-99.838	0.112	0.027
-161.779	30.916	0.103	0.086
-160.764	-147.620	-0.031	0.003
-159.750	-200.000	0.007	-0.083
-158.735	-122.230	-0.159	-0.026
-157.720	-21.131	0.096	-0.058
-156.706	671.134	0.112	-0.284
-155.691	-119.348	-0.362	0.062
-154.677	-96.091	0.219	-0.057
-153.662	-200.000	-0.007	-0.313
-152.647	-148.781	0.415	0.033
-151.633	-200.000	-0.040	0.305
-150.618	-11.163	-0.106	0.068
-149.604	-0.700	-0.132	0.092
-148.589	13.411	-0.219	-0.166
-147.574	-165.294	-0.107	-0.005
-146.560	23.011	0.205	-0.164
-145.545	8.094	-0.118	0.087
-144.531	-95.492	0.156	0.041
-143.516	-200.000	-0.026	0.238
-142.502	-66.696	0.375	0.145
-141.487	68.967	0.220	0.221
-140.472	53.815	-0.154	-0.145
-139.458	800.000	0.047	0.149
-138.443	244.763	0.209	0.343
-137.429	3.321	-0.348	0.248
-136.414	-200.000	0.054	0.387
-135.399	141.279	-0.099	-0.129
-134.385	-200.000	0.021	0.141
-133.370	375.704	0.039	0.077
-132.356	800.000	-0.086	-0.274
-131.341	502.998	-0.014	0.032
-130.326	-148.264	0.234	0.019
-129.312	284.818	-0.106	0.186
-128.297	142.527	-0.184	0.239
-127.283	92.590	0.060	0.066
-126.268	-80.478	-0.229	0.075
-125.253	247.115	0.239	0.395
-124.239	-2.422	0.154	0.106
-123.224	-142.715	-0.190	-0.018
-122.210	-94.422	0.141	0.038
-121.195	-200.000	0.020	0.107
