DTS Sentinel unit serial number:	SN413079Multiplexer serial number:	ORYXHardware model number:	OX4-SRSoftware version number:	ORYX F/W v4.00 Oryx Data Collector v3.7.2.0data status	okinstallation	princeton_trtdifferential loss correction	single-endedforward channel	channel 2reverse channel	N/Adate	2019/09/16time	04:03:34forward acquisition time	60.00reverse acquisition time	0.00gamma	496.2192k internal	0.2334k external	0.2334temperature offset calibration	0.9977default loss term (dB/km)	0.3790temperature slope calibration	1.0000multiplexer offset coefficient	1.0000multiplexer slope coefficient	1.0000fibre end	0.00T internal ref (°C)	27.44T ext. ref 1 (°C)	10.73T ext. ref 2 (°C)	21.44length (m)	temperature (°C)	Stokes	anti-Stokes-747.200	182.587	-0.151	0.223
-746.185	-200.000	0.048	0.282
-745.171	-61.436	0.161	0.068
-744.156	-200.000	-0.007	0.040
-743.142	-146.476	0.083	0.007
-742.127	-180.454	-0.242	0.005
-741.112	-200.000	0.054	0.305
-740.098	91.129	-0.108	0.122
-739.083	546.335	0.067	0.161
-738.069	-200.000	0.017	-0.374
-737.054	8.123	0.254	-0.192
-736.039	147.881	0.028	-0.038
-735.025	109.163	-0.026	-0.031
-734.010	-74.841	-0.383	-0.138
-732.996	-89.025	-0.490	-0.146
-731.981	237.798	-0.059	-0.099
-730.966	-180.272	-0.580	0.012
-729.952	-200.000	0.010	-0.231
-728.937	-56.852	-0.349	-0.155
-727.923	-128.621	0.179	0.025
-726.908	32.391	0.155	-0.134
-725.894	386.192	0.122	-0.254
-724.879	270.085	-0.111	-0.196
-723.864	-65.985	-0.466	0.187
-722.850	800.000	0.113	-0.352
-721.835	800.000	-0.075	0.233
-720.821	213.607	-0.134	-0.213
-719.806	-94.643	-0.074	-0.020
-718.791	-21.429	0.128	0.078
-717.777	-110.191	-0.174	-0.036
-716.762	-200.000	-0.047	0.216
-715.748	68.296	-0.213	-0.219
-714.733	-19.897	0.272	0.169
-713.718	-120.783	0.210	0.036
-712.704	800.000	0.120	0.374
-711.689	-200.000	0.008	-0.405
-710.675	800.000	-0.029	-0.112
-709.660	-200.000	-0.032	-0.231
-708.645	56.889	0.164	0.160
-707.631	6.434	-0.126	0.094
-706.616	-106.718	-0.182	0.041
-705.602	-200.000	-0.033	-0.223
-704.587	-104.364	-0.208	-0.048
-703.572	-76.687	-0.465	-0.163
-702.558	165.866	0.335	-0.475
-701.543	-46.588	-0.176	-0.087
-700.529	4.194	-0.083	-0.061
-699.514	273.740	-0.139	-0.246
-698.499	-26.417	0.183	0.108
-697.485	-164.888	0.046	-0.002
-696.470	-200.000	-0.009	-0.282
-695.456	-82.137	-0.434	0.142
-694.441	800.000	-0.047	0.134
-693.426	-200.000	0.062	-0.273
-692.412	-99.019	-0.222	-0.056
-691.397	61.541	0.181	-0.180
-690.383	500.236	-0.108	0.250
-689.368	138.522	-0.029	0.038
-688.354	-47.593	0.082	-0.040
-687.339	262.850	-0.072	0.125
-686.324	-89.541	0.172	0.051
-685.310	-200.000	-0.002	-0.195
-684.295	800.000	-0.042	0.174
-683.281	-78.779	-0.073	-0.025
-682.266	23.386	0.208	-0.172
-681.251	-64.973	-0.342	-0.139
-680.237	158.824	0.084	0.116
-679.222	-172.521	-0.234	-0.007
-678.208	-200.000	0.021	0.449
-677.193	-86.201	-0.037	-0.011
-676.178	-43.491	0.404	-0.204
-675.164	-125.475	-0.166	-0.025
-674.149	489.920	-0.176	-0.403
-673.135	-8.546	-0.163	0.109
-672.120	-46.426	-0.296	0.146
-671.105	800.000	0.023	-0.069
-670.091	53.975	0.130	-0.125
-669.076	325.333	0.075	0.144
-668.062	127.041	-0.207	0.263
-667.047	435.084	-0.094	-0.205
-666.032	45.578	0.152	-0.140
-665.018	-200.000	-0.016	-0.088
-664.003	563.765	0.058	0.141
-662.989	-200.000	-0.003	-0.303
-661.974	114.491	0.130	0.159
-660.959	-22.797	-0.245	0.148
-659.945	800.000	0.082	-0.332
-658.930	-11.418	-0.259	0.171
-657.916	-109.395	-0.201	-0.043
-656.901	-59.252	-0.249	-0.107
-655.886	94.982	0.144	-0.164
-654.872	-26.952	-0.137	-0.080
-653.857	36.019	0.246	-0.216
-652.843	800.000	0.056	-0.176
-651.828	800.000	0.117	-0.364
-650.814	78.795	0.038	0.041
-649.799	800.000	-0.070	-0.233
-648.784	116.685	-0.083	-0.102
-647.770	800.000	-0.106	-0.367
-646.755	-57.624	-0.279	-0.122
-645.741	-41.797	-0.166	0.085
-644.726	-105.704	-0.278	0.063
-643.711	63.748	0.170	0.171
-642.697	-163.794	-0.398	-0.019
-641.682	13.026	-0.322	-0.249
-640.668	-200.000	-0.030	-0.294
-639.653	174.639	0.179	-0.259
-638.638	-8.529	-0.143	-0.096
-637.624	-85.727	0.180	0.056
-636.609	151.158	-0.279	-0.380
-635.595	-200.000	-0.046	-0.343
-634.580	-111.057	0.420	0.086
-633.565	179.387	-0.125	-0.184
-632.551	220.652	-0.036	0.058
-631.536	-46.529	0.255	-0.125
-630.522	-167.052	0.076	-0.003
-629.507	800.000	0.027	-0.101
-628.492	-101.633	0.383	-0.093
-627.478	800.000	0.052	-0.182
-626.463	106.192	-0.151	0.178
-625.449	-104.307	-0.304	0.070
-624.434	37.776	0.093	-0.082
-623.419	83.395	0.017	0.019
-622.405	-200.000	0.005	-0.072
-621.390	-200.000	0.000	-0.076
-620.376	-200.000	0.006	-0.144
-619.361	263.848	-0.119	0.207
-618.346	356.658	0.074	-0.148
-617.332	60.605	-0.204	0.202
-616.317	-90.847	-0.319	-0.092
-615.303	-152.130	0.134	-0.010
-614.288	-128.422	-0.255	0.036
-613.273	-108.025	-0.105	0.023
-612.259	-66.961	-0.151	0.060
-611.244	252.640	0.192	-0.328
-610.230	666.514	0.055	-0.143
-609.215	800.000	-0.096	0.296
-608.201	-98.442	-0.405	-0.104
-607.186	-34.643	-0.250	-0.137
-606.171	-200.000	0.043	-0.199
-605.157	28.979	0.116	-0.098
-604.142	-200.000	-0.307	-0.001
-603.128	92.791	0.028	0.032
-602.113	-123.030	0.122	-0.020
-601.098	-31.665	0.296	-0.166
-600.084	-196.113	0.191	-0.001
-599.069	67.710	0.279	-0.285
-598.055	-200.000	0.000	0.025
-597.040	-97.127	0.051	0.013
-596.025	800.000	0.036	0.146
-595.011	10.296	0.199	-0.151
-593.996	-124.539	0.329	-0.051
-592.982	800.000	-0.136	-0.528
-591.967	379.361	0.095	-0.194
-590.952	-200.000	0.004	-0.038
-589.938	-104.155	0.052	-0.012
-588.923	-126.805	0.222	-0.033
-587.909	-68.301	-0.337	-0.131
-586.894	37.380	0.123	-0.109
-585.879	170.043	0.101	-0.144
-584.865	12.729	-0.108	0.083
-583.850	-30.124	-0.177	-0.100
-582.836	306.748	-0.051	0.094
-581.821	-140.512	-0.279	0.029
-580.806	381.202	-0.009	0.019
-579.792	458.378	-0.142	-0.316
-578.777	41.070	0.267	0.241
-577.763	450.159	-0.053	-0.117
-576.748	-90.868	-0.240	-0.069
-575.733	655.642	-0.174	0.445
-574.719	61.261	0.336	-0.333
-573.704	-117.227	-0.207	0.038
-572.690	-200.000	0.002	0.202
-571.675	-200.000	0.002	-0.107
-570.661	201.342	0.033	-0.051
-569.646	55.794	-0.253	-0.245
-568.631	-200.000	0.043	0.551
-567.617	115.629	0.111	0.136
-566.602	323.723	-0.060	-0.114
-565.588	-8.509	0.221	0.148
-564.573	-131.326	-0.199	-0.026
-563.558	198.928	0.177	-0.270
-562.544	8.362	-0.082	-0.061
-561.529	-200.000	-0.043	0.404
-560.515	-200.000	0.005	-0.152
-559.500	121.106	0.013	0.016
-558.485	-200.000	0.045	-0.313
-557.471	7.768	0.195	0.146
-556.456	-67.627	-0.152	-0.059
-555.442	-100.481	-0.182	0.045
-554.427	33.014	0.090	0.078
-553.412	101.916	0.033	0.038
-552.398	-118.954	-0.292	-0.051
-551.383	-53.142	0.136	-0.062
-550.369	800.000	-0.022	0.073
-549.354	147.913	-0.159	-0.214
-548.339	-118.183	0.167	0.030
-547.325	214.204	0.129	0.204
-546.310	90.183	0.067	-0.074
-545.296	9.518	-0.190	0.143
-544.281	-123.691	-0.278	-0.044
-543.266	-200.000	-0.000	0.049
-542.252	-200.000	-0.042	-0.244
-541.237	262.999	-0.155	-0.268
-540.223	-169.089	-0.127	-0.005
-539.208	250.340	0.190	-0.322
-538.193	-112.531	0.065	-0.013
-537.179	-127.907	-0.309	-0.044
-536.164	-31.774	0.253	-0.141
-535.150	155.313	-0.037	0.051
-534.135	-200.000	0.071	-0.461
-533.121	-200.000	0.022	0.135
-532.106	-114.484	0.202	-0.039
-531.091	-78.019	0.252	-0.087
-530.077	254.910	-0.077	0.131
-529.062	-25.262	-0.108	0.064
-528.048	-3.363	-0.139	-0.097
-527.033	800.000	0.034	-0.127
-526.018	-27.994	0.312	0.180
-525.004	83.706	-0.216	0.235
-523.989	213.401	-0.193	-0.304
-522.975	-70.061	0.349	-0.132
-521.960	119.512	0.029	-0.036
-520.945	740.083	-0.061	0.162
-519.931	-112.977	-0.225	0.044
-518.916	-85.671	-0.238	0.074
-517.902	110.851	0.124	-0.149
-516.887	-200.000	0.022	0.131
-515.872	416.548	0.075	-0.160
-514.858	468.647	-0.072	0.161
-513.843	-200.000	0.007	0.174
-512.829	-137.015	0.168	-0.019
-511.814	-200.000	-0.027	-0.190
-510.799	-102.337	0.296	-0.071
-509.785	163.072	0.132	0.185
-508.770	-70.251	-0.090	-0.034
-507.756	-200.000	-0.039	-0.370
-506.741	-200.000	-0.021	0.243
-505.726	-63.301	-0.271	0.111
-504.712	-200.000	0.037	0.288
-503.697	-200.000	0.002	-0.090
-502.683	-61.889	-0.014	0.006
-501.668	800.000	0.052	0.181
-500.653	800.000	0.033	-0.115
-499.639	-17.740	-0.132	0.082
-498.624	800.000	0.065	0.260
-497.610	-200.000	0.070	-0.447
-496.595	-133.791	-0.178	0.022
-495.581	-91.750	-0.081	0.023
-494.566	294.021	0.115	0.210
-493.551	-200.000	0.006	0.122
-492.537	-40.076	0.176	-0.091
-491.522	321.394	-0.053	-0.100
-490.508	-119.334	-0.178	0.031
-489.493	-200.000	0.004	0.024
-488.478	-18.633	-0.103	-0.064
-487.464	-200.000	-0.033	-0.304
-486.449	-99.774	0.162	0.040
-485.435	-177.407	0.481	0.012
-484.420	-21.844	0.229	0.139
-483.405	-90.032	0.267	-0.078
-482.391	475.567	0.032	0.072
-481.376	313.606	0.141	-0.265
-480.362	-200.000	-0.077	0.609
-479.347	-200.000	0.049	0.559
-478.332	-48.484	-0.258	0.124
-477.318	-200.000	0.013	-0.201
-476.303	-200.000	-0.012	-0.210
-475.289	-89.683	0.126	0.037
-474.274	-200.000	0.002	0.257
-473.259	33.843	-0.120	0.104
-472.245	-200.000	0.016	-0.135
-471.230	343.473	0.081	-0.157
-470.216	-91.715	0.103	0.029
-469.201	274.842	-0.208	-0.366
-468.186	-53.807	-0.229	0.104
-467.172	-60.274	0.129	0.055
-466.157	-109.895	0.393	0.082
-465.143	-200.000	-0.021	-0.376
-464.128	-200.000	-0.003	-0.026
-463.113	164.937	-0.103	0.145
-462.099	-141.189	0.274	-0.028
-461.084	-93.753	-0.336	0.092
-460.070	144.618	0.116	-0.155
-459.055	-200.000	0.006	-0.101
-458.040	800.000	0.151	0.427
-457.026	-18.146	-0.256	0.159
-456.011	-200.000	0.020	0.096
-454.997	-41.288	-0.234	0.120
-453.982	264.201	0.136	-0.234
-452.968	6.012	0.175	-0.129
-451.953	-200.000	-0.039	-0.419
-450.938	-200.000	0.022	-0.213
-449.924	39.230	0.206	-0.183
-448.909	-185.087	-0.121	-0.002
-447.895	103.083	-0.222	-0.259
-446.880	-200.000	0.000	0.302
-445.865	800.000	-0.034	0.138
-444.851	24.256	0.094	-0.077
-443.836	87.727	0.067	-0.074
-442.822	529.211	0.051	-0.119
-441.807	165.393	-0.044	-0.062
-440.792	-28.222	-0.243	-0.140
-439.778	-58.543	-0.092	-0.039
-438.763	-38.251	-0.171	0.090
-437.749	-200.000	-0.024	0.176
-436.734	458.000	-0.089	-0.197
-435.719	248.434	-0.086	0.145
-434.705	194.659	-0.109	-0.165
-433.690	122.247	-0.091	-0.113
-432.676	-200.000	-0.061	0.329
-431.661	-131.310	0.204	-0.027
-430.646	-138.199	-0.369	-0.041
-429.632	-85.738	0.177	0.055
-428.617	11.701	0.245	0.187
-427.603	358.581	0.169	-0.335
-426.588	317.100	-0.089	-0.168
-425.573	-169.138	-0.338	0.012
-424.559	-107.868	0.558	0.121
-423.544	-145.821	-0.452	0.040
-422.530	-109.756	-0.180	-0.037
-421.515	-200.000	0.003	0.042
-420.500	-84.058	-0.063	0.020
-419.486	493.504	-0.070	0.158
-418.471	-200.000	-0.018	-0.167
-417.457	221.709	-0.153	-0.244
-416.442	770.998	-0.104	0.281
-415.428	77.563	-0.192	0.203
-414.413	-114.198	0.412	-0.079
-413.398	-67.918	-0.269	0.104
-412.384	-58.932	0.235	0.101
-411.369	-200.000	-0.006	0.140
-410.355	624.249	0.021	0.052
-409.340	-108.929	-0.262	0.055
-408.325	800.000	-0.115	-0.375
-407.311	-198.086	0.329	0.002
-406.296	-200.000	0.041	0.198
-405.282	71.984	0.034	-0.035
-404.267	26.952	-0.194	0.162
-403.252	-200.000	-0.071	0.316
-402.238	-41.578	0.216	-0.110
-401.223	800.000	-0.063	-0.188
-400.209	-81.775	-0.249	-0.081
-399.194	618.494	0.090	-0.225
-398.179	-53.173	0.189	0.086
-397.165	21.610	-0.217	-0.175
-396.150	60.336	0.337	-0.331
-395.136	-200.000	0.024	-0.200
-394.121	-200.000	0.061	0.291
-393.106	-98.483	-0.144	0.037
-392.092	800.000	-0.020	0.086
-391.077	-133.089	-0.021	0.003
-390.063	182.396	-0.164	0.239
-389.048	1.185	-0.048	0.034
-388.033	670.664	0.114	0.293
-387.019	270.328	-0.179	0.312
-386.004	332.624	0.068	0.131
-384.990	274.950	0.060	-0.105
-383.975	92.507	-0.191	0.213
-382.960	-170.174	0.220	0.008
-381.946	-119.179	-0.121	-0.021
-380.931	-116.451	-0.136	0.025
-379.917	-50.329	-0.254	-0.119
-378.902	-66.561	0.105	-0.041
-377.888	-118.643	0.141	0.025
-376.873	-145.685	-0.273	-0.024
-375.858	525.886	-0.111	0.258
-374.844	5.317	0.191	-0.139
-373.829	-177.540	0.292	-0.007
-372.815	27.625	0.158	0.132
-371.800	800.000	-0.044	-0.133
-370.785	602.904	-0.132	-0.326
-369.771	-54.490	-0.291	0.130
-368.756	249.531	0.075	0.126
-367.742	91.374	0.267	0.297
-366.727	-65.582	0.117	-0.046
-365.712	800.000	-0.088	0.297
-364.698	113.202	-0.074	0.089
-363.683	-200.000	0.021	-0.193
-362.669	116.928	-0.037	-0.045
-361.654	302.357	-0.031	0.056
-360.639	-40.611	0.293	-0.150
-359.625	-200.000	0.028	-0.295
-358.610	-170.353	-0.431	0.015
-357.596	-9.882	0.166	0.109
-356.581	34.589	0.161	-0.139
-355.566	-99.248	-0.401	0.100
-354.552	-117.229	0.096	0.017
-353.537	-36.813	-0.253	0.134
-352.523	25.580	0.380	0.313
-351.508	-58.525	0.542	0.233
-350.493	800.000	0.209	0.620
-349.479	-116.618	-0.240	0.044
-348.464	433.746	0.149	-0.320
-347.450	800.000	0.083	0.294
-346.435	-173.031	-0.160	0.005
-345.420	-14.960	0.298	0.189
-344.406	64.631	-0.144	-0.144
-343.391	235.851	0.154	0.252
-342.377	570.360	0.049	-0.119
-341.362	23.411	-0.151	-0.123
-340.348	261.602	0.232	-0.398
-339.333	10.665	-0.109	0.082
-338.318	-5.502	0.247	0.168
-337.304	-199.531	0.165	-0.001
-336.289	-137.648	0.119	-0.013
-335.275	-123.413	-0.096	0.015
-334.260	-200.000	-0.006	0.333
-333.245	-200.000	-0.018	0.211
-332.231	121.596	0.201	0.248
-331.216	294.921	0.227	-0.410
-330.202	-200.000	-0.072	0.472
-329.187	-78.157	0.213	0.073
-328.172	-100.996	-0.097	0.023
-327.158	232.142	-0.052	-0.084
-326.143	800.000	-0.025	0.080
-325.129	-40.071	0.244	-0.126
-324.114	800.000	-0.085	-0.252
-323.099	-200.000	0.042	-0.219
-322.085	-6.832	0.323	0.217
-321.070	72.196	-0.218	0.224
-320.056	-200.000	-0.063	-0.439
-319.041	-21.402	-0.379	0.228
-318.026	294.360	0.092	0.167
-317.012	-129.865	-0.053	0.007
-315.997	66.713	-0.179	-0.180
-314.983	59.932	-0.179	0.174
-313.968	-21.678	-0.068	0.041
-312.953	401.335	0.029	0.060
-311.939	-200.000	0.043	-0.357
-310.924	210.189	-0.112	-0.174
-309.910	-30.790	-0.241	0.135
-308.895	88.470	-0.037	0.040
-307.880	-200.000	-0.027	-0.217
-306.866	-200.000	0.051	0.269
-305.851	-57.161	-0.176	-0.077
-304.837	349.903	-0.110	0.216
-303.822	-116.153	-0.069	-0.013
-302.807	75.496	-0.053	0.055
-301.793	21.866	-0.196	-0.158
-300.778	391.323	0.083	0.170
-299.764	-5.193	-0.057	-0.039
-298.749	-200.000	0.008	-0.082
-297.735	111.709	-0.344	-0.410
-296.720	-54.036	0.222	0.100
-295.705	-150.057	-0.131	0.010
-294.691	-87.438	0.164	0.049
-293.676	520.017	0.137	-0.317
-292.662	79.622	0.141	-0.149
-291.647	-200.000	0.050	-0.294
-290.632	-157.220	0.288	0.017
-289.618	-87.865	-0.336	-0.100
-288.603	6.607	0.195	-0.143
-287.589	800.000	0.032	-0.093
-286.574	121.155	-0.077	0.095
-285.559	407.211	-0.115	0.240
-284.545	271.198	0.099	-0.172
-283.530	-200.000	0.005	0.084
-282.516	278.435	0.086	0.152
-281.501	302.662	0.084	0.154
-280.486	-83.526	0.423	0.134
-279.472	-13.542	0.179	0.114
-278.457	-173.579	-0.267	0.008
-277.443	735.542	-0.043	-0.113
-276.428	27.377	0.167	0.139
-275.413	180.337	0.167	0.242
-274.399	2.107	-0.267	0.190
-273.384	88.118	0.093	-0.102
-272.370	-180.562	0.173	-0.004
-271.355	-200.000	0.027	-0.251
-270.340	800.000	-0.017	-0.060
-269.326	-87.376	0.064	-0.019
-268.311	-200.000	0.003	0.045
-267.297	-77.167	0.361	0.124
-266.282	-200.000	-0.054	0.299
-265.267	800.000	0.033	0.106
-264.253	-167.488	-0.194	-0.008
-263.238	7.019	0.096	-0.071
-262.224	800.000	-0.039	-0.138
-261.209	12.917	-0.412	-0.314
-260.195	197.529	0.048	-0.072
-259.180	-58.261	0.053	0.023
-258.165	-32.193	-0.274	-0.151
-257.151	-137.868	0.294	-0.032
-256.136	-59.801	-0.433	-0.183
-255.122	800.000	-0.119	0.339
-254.107	209.264	-0.186	-0.287
-253.092	78.311	-0.185	-0.195
-252.078	230.767	-0.172	-0.278
-251.063	15.836	-0.361	-0.280
-250.049	33.677	0.173	0.148
-249.034	601.749	-0.016	0.040
-248.019	43.420	0.113	0.102
-247.005	141.000	0.174	-0.226
-245.990	4.372	-0.283	0.204
-244.976	-54.007	-0.399	0.179
-243.961	95.246	-0.157	0.177
-242.946	-96.327	0.164	-0.043
-241.932	-78.834	0.137	-0.046
-240.917	-43.415	0.101	0.050
-239.903	79.597	-0.050	0.052
-238.888	-200.000	0.009	0.293
-237.873	11.265	0.177	-0.133
-236.859	691.265	0.099	-0.257
-235.844	800.000	0.049	-0.193
-234.830	187.915	0.123	-0.181
-233.815	-200.000	0.014	0.309
-232.800	47.052	-0.160	0.147
-231.786	-200.000	0.049	0.274
-230.771	800.000	-0.051	0.207
-229.757	345.284	-0.095	0.184
-228.742	117.240	0.021	-0.025
-227.727	368.700	-0.162	0.323
-226.713	-78.053	0.443	-0.150
-225.698	72.741	0.222	-0.228
-224.684	800.000	0.114	0.418
-223.669	121.763	-0.028	-0.035
-222.655	-200.000	-0.010	-0.074
-221.640	33.127	-0.161	0.137
-220.625	515.299	0.142	-0.328
-219.611	216.060	0.057	0.090
-218.596	48.221	0.330	0.304
-217.582	87.570	-0.110	-0.120
-216.567	178.439	0.284	0.408
-215.552	-103.769	-0.231	0.053
-214.538	47.228	-0.214	0.196
-213.523	-174.259	0.168	0.005
-212.509	800.000	0.055	0.178
-211.494	-2.105	-0.042	0.029
-210.479	-122.194	0.315	-0.051
-209.465	-200.000	0.041	0.233
-208.450	800.000	-0.030	0.091
-207.436	-200.000	0.056	0.467
-206.421	-200.000	0.003	-0.104
-205.406	-200.000	0.011	0.095
-204.392	110.542	0.142	0.168
-203.377	-71.425	-0.501	-0.184
-202.363	-124.406	-0.134	0.021
-201.348	-4.187	-0.121	0.082
-200.333	-143.565	-0.279	0.026
-199.319	201.462	0.116	0.176
-198.304	800.000	0.098	0.317
-197.290	-128.210	0.159	0.022
-196.275	229.013	-0.061	0.097
-195.260	113.402	0.214	-0.255
-194.246	302.801	0.102	0.186
-193.231	329.489	-0.116	0.220
-192.217	-174.376	0.193	0.005
-191.202	85.430	-0.183	-0.197
-190.187	-200.000	0.011	0.130
-189.173	772.714	0.036	0.098
-188.158	-118.113	0.095	0.017
-187.144	-200.000	0.015	-0.163
-186.129	-195.500	-0.267	-0.002
-185.114	-112.090	0.183	-0.036
-184.100	35.915	0.193	0.167
-183.085	-200.000	0.075	0.464
-182.071	-200.000	-0.058	0.257
-181.056	354.196	0.054	-0.106
-180.042	-98.336	-0.142	0.036
-179.027	334.252	0.171	-0.326
-178.012	-80.308	0.092	0.030
-176.998	-84.525	0.124	-0.038
-175.983	-200.000	-0.060	-0.597
-174.969	-166.755	-0.056	0.002
-173.954	-163.980	0.136	-0.006
-172.939	-200.000	0.034	-0.242
-171.925	-200.000	-0.026	0.119
-170.910	422.419	0.079	0.167
-169.896	485.991	0.081	-0.182
-168.881	-200.000	-0.003	0.088
-167.866	-70.551	-0.114	0.042
-166.852	-200.000	0.002	-0.158
-165.837	134.759	0.126	0.160
-164.823	-200.000	0.006	-0.255
-163.808	23.911	0.193	0.156
-162.793	-200.000	0.011	0.065
-161.779	137.283	0.114	-0.147
-160.764	165.432	-0.149	0.206
-159.750	-200.000	0.003	0.160
-158.735	-6.080	-0.061	0.041
-157.720	271.841	-0.057	0.099
-156.706	-83.010	-0.236	0.075
-155.691	124.988	0.241	-0.299
-154.677	527.162	0.153	0.354
-153.662	40.395	0.172	0.152
-152.647	800.000	0.048	0.142
-151.633	12.871	0.298	-0.226
-150.618	14.347	0.054	-0.041
-149.604	172.527	-0.115	-0.162
-148.589	475.683	-0.068	0.151
-147.574	22.789	-0.293	-0.235
-146.560	10.896	0.089	0.067
-145.545	-62.332	0.152	0.062
-144.531	800.000	-0.042	0.178
-143.516	208.829	-0.127	-0.196
-142.502	324.340	-0.190	-0.356
-141.487	297.694	0.159	-0.287
-140.472	-200.000	-0.004	-0.021
-139.458	59.222	-0.217	-0.210
-138.443	-49.914	0.298	-0.139
-137.429	-19.503	-0.360	-0.219
-136.414	5.271	-0.065	-0.047
-135.399	-40.058	-0.396	-0.203
-134.385	198.530	-0.099	-0.148
-133.370	261.350	-0.119	-0.201
-132.356	-200.000	0.073	0.422
-131.341	7.932	-0.162	0.119
-130.326	321.636	-0.125	-0.233
-129.312	83.238	-0.213	0.227
-128.297	-152.760	-0.220	0.015
-127.283	292.131	0.254	0.454
-126.268	-200.000	-0.040	0.219
-125.253	-169.917	0.207	-0.007
-124.239	-6.795	0.151	-0.100
-123.224	-65.593	-0.395	-0.155
-122.210	38.794	0.198	-0.174
-121.195	17.309	0.146	0.114
