DTS Sentinel unit serial number:	SN413079Multiplexer serial number:	ORYXHardware model number:	OX4-SRSoftware version number:	ORYX F/W v4.00 Oryx Data Collector v3.7.2.0data status	okinstallation	princeton_trtdifferential loss correction	single-endedforward channel	channel 2reverse channel	N/Adate	2019/09/11time	09:37:10forward acquisition time	60.00reverse acquisition time	0.00gamma	496.2192k internal	0.2317k external	0.2317temperature offset calibration	0.9967default loss term (dB/km)	0.3790temperature slope calibration	1.0000multiplexer offset coefficient	1.0000multiplexer slope coefficient	1.0000fibre end	0.00T internal ref (°C)	34.81T ext. ref 1 (°C)	0.11T ext. ref 2 (°C)	31.20length (m)	temperature (°C)	Stokes	anti-Stokes-747.200	101.839	0.066	0.078
-746.185	-200.000	-0.025	0.304
-745.171	-66.238	0.437	0.176
-744.156	137.378	-0.130	0.172
-743.142	171.949	0.080	-0.117
-742.127	25.371	-0.503	0.424
-741.112	14.131	-0.098	0.077
-740.098	-200.000	0.018	-0.338
-739.083	-7.216	-0.020	0.014
-738.069	67.826	-0.346	0.358
-737.054	-59.118	0.060	0.026
-736.039	-29.836	0.357	0.206
-735.025	-45.336	0.366	0.184
-734.010	-103.571	-0.276	-0.066
-732.996	5.935	0.270	-0.202
-731.981	221.476	-0.198	-0.321
-730.966	332.815	-0.181	0.354
-729.952	-88.600	-0.278	-0.084
-728.937	-200.000	0.039	-0.202
-727.923	-39.735	-0.192	-0.102
-726.908	315.776	-0.080	-0.152
-725.894	134.213	0.265	-0.348
-724.879	-200.000	-0.002	0.277
-723.864	-7.676	-0.295	-0.201
-722.850	-28.981	0.111	0.065
-721.835	-120.981	-0.340	-0.058
-720.821	-200.000	0.017	-0.116
-719.806	-99.332	0.065	0.017
-718.791	355.130	0.185	-0.373
-717.777	248.367	0.082	-0.141
-716.762	-62.262	0.392	-0.165
-715.748	73.063	-0.138	-0.146
-714.733	-143.877	-0.509	0.049
-713.718	-19.513	0.098	-0.061
-712.704	50.978	0.067	0.064
-711.689	170.065	0.121	-0.174
-710.675	800.000	0.020	-0.080
-709.660	-181.774	0.243	0.005
-708.645	258.379	0.069	0.120
-707.631	-1.374	-0.158	0.113
-706.616	-99.635	0.146	0.037
-705.602	-127.889	0.058	-0.008
-704.587	-200.000	0.088	0.504
-703.572	800.000	0.036	-0.116
-702.558	56.058	-0.223	0.218
-701.543	-103.637	0.306	0.073
-700.529	272.902	-0.073	-0.130
-699.514	166.941	-0.232	-0.333
-698.499	-200.000	0.032	0.000
-697.485	-87.429	-0.210	-0.064
-696.470	800.000	0.099	-0.339
-695.456	-200.000	-0.008	-0.099
-694.441	-48.598	-0.073	0.036
-693.426	30.212	0.307	-0.265
-692.412	-22.951	-0.115	-0.070
-691.397	107.786	0.223	0.268
-690.383	431.017	0.053	0.116
-689.368	597.584	-0.018	0.046
-688.354	-200.000	-0.037	-0.166
-687.339	-200.000	0.044	-0.369
-686.324	-100.077	-0.256	-0.064
-685.310	-146.935	0.196	0.017
-684.295	-130.684	-0.210	-0.029
-683.281	-86.011	-0.487	0.152
-682.266	166.854	-0.128	0.183
-681.251	-169.767	0.217	-0.008
-680.237	-19.044	-0.206	0.129
-679.222	-200.000	-0.018	-0.098
-678.208	-134.193	0.051	0.006
-677.193	88.200	-0.095	-0.106
-676.178	-47.661	-0.116	-0.057
-675.164	-8.688	0.157	0.106
-674.149	-200.000	0.031	0.288
-673.135	-200.000	-0.049	0.239
-672.120	-200.000	0.007	-0.430
-671.105	-108.360	0.101	0.022
-670.091	-161.927	0.267	-0.014
-669.076	-166.762	-0.213	0.009
-668.062	800.000	-0.077	0.293
-667.047	224.174	-0.072	-0.118
-666.032	628.892	0.051	0.129
-665.018	-35.910	-0.232	-0.127
-664.003	-100.931	-0.329	-0.082
-662.989	259.613	-0.110	-0.193
-661.974	-200.000	0.013	-0.147
-660.959	800.000	-0.149	-0.441
-659.945	-57.277	-0.286	-0.127
-658.930	-67.510	-0.378	-0.150
-657.916	-200.000	-0.006	0.122
-656.901	4.939	-0.121	0.090
-655.886	16.494	-0.138	-0.110
-654.872	800.000	0.029	0.091
-653.857	-171.816	0.143	-0.005
-652.843	229.717	-0.222	-0.367
-651.828	90.128	-0.348	-0.393
-650.814	-135.060	0.259	-0.031
-649.799	45.424	0.136	-0.126
-648.784	-200.000	0.009	0.047
-647.770	-61.351	0.294	0.125
-646.755	29.508	0.196	-0.168
-645.741	77.242	0.119	-0.127
-644.726	282.901	-0.126	-0.228
-643.711	-87.030	-0.280	-0.086
-642.697	36.755	-0.201	0.179
-641.682	-153.321	0.160	-0.011
-640.668	-200.000	0.027	0.227
-639.653	189.189	-0.047	-0.071
-638.638	-131.372	0.071	0.009
-637.624	44.424	0.327	0.303
-636.609	800.000	0.009	-0.027
-635.595	-200.000	0.044	0.287
-634.580	399.657	-0.092	0.194
-633.565	-0.413	-0.070	-0.050
-632.551	-200.000	-0.031	-0.297
-631.536	392.084	-0.038	-0.079
-630.522	800.000	0.078	0.225
-629.507	34.657	-0.090	-0.080
-628.492	-81.454	0.017	-0.006
-627.478	-200.000	0.005	0.067
-626.463	63.116	0.183	-0.185
-625.449	-18.304	-0.446	0.281
-624.434	-200.000	0.012	-0.198
-623.419	484.589	-0.103	0.237
-622.405	-81.324	0.137	0.045
-621.390	-130.831	0.175	0.024
-620.376	800.000	0.057	-0.180
-619.361	-67.832	0.376	-0.148
-618.346	-14.047	0.100	-0.065
-617.332	634.755	-0.090	-0.231
-616.317	481.608	0.051	0.117
-615.303	125.302	0.087	-0.110
-614.288	-16.861	0.283	-0.180
-613.273	403.970	-0.175	-0.371
-612.259	29.295	0.138	-0.118
-611.244	177.582	-0.249	0.366
-610.230	353.638	-0.055	0.109
-609.215	738.618	-0.039	-0.105
-608.201	800.000	0.090	-0.289
-607.186	-114.264	-0.099	-0.019
-606.171	800.000	-0.036	-0.103
-605.157	800.000	0.058	0.212
-604.142	93.388	-0.038	0.043
-603.128	191.142	0.091	0.138
-602.113	-193.519	-0.072	-0.001
-601.098	73.594	0.082	0.087
-600.084	608.159	0.042	0.104
-599.069	-84.830	-0.277	-0.088
-598.055	-45.117	-0.158	-0.079
-597.040	-200.000	-0.040	-0.294
-596.025	-57.585	-0.082	-0.036
-595.011	-200.000	-0.042	0.194
-593.996	7.183	-0.070	0.052
-592.982	-200.000	0.002	-0.016
-591.967	-181.936	0.138	0.003
-590.952	-200.000	0.030	0.291
-589.938	-200.000	-0.006	0.307
-588.923	-200.000	0.004	0.123
-587.909	112.426	-0.213	-0.260
-586.894	82.206	0.054	-0.059
-585.879	43.368	0.131	0.121
-584.865	177.318	-0.119	0.175
-583.850	-200.000	-0.016	0.190
-582.836	-47.359	-0.105	-0.051
-581.821	-155.682	-0.106	-0.007
-580.806	-107.662	-0.339	0.074
-579.792	800.000	0.054	-0.184
-578.777	-158.524	-0.306	-0.018
-577.763	800.000	-0.143	-0.466
-576.748	-200.000	-0.060	0.341
-575.733	-20.611	-0.216	-0.133
-574.719	-137.278	-0.186	0.021
-573.704	16.841	-0.045	0.036
-572.690	-200.000	-0.020	-0.177
-571.675	-59.343	0.304	-0.132
-570.661	50.347	-0.117	0.112
-569.646	212.160	-0.097	-0.154
-568.631	-60.455	-0.214	-0.092
-567.617	-113.442	-0.144	-0.028
-566.602	-200.000	-0.146	0.000
-565.588	800.000	0.108	-0.314
-564.573	-79.355	0.151	0.051
-563.558	-107.640	0.351	0.077
-562.544	-102.100	0.324	-0.079
-561.529	202.273	0.074	-0.114
-560.515	800.000	-0.115	-0.425
-559.500	-38.523	-0.081	-0.043
-558.485	2.567	0.125	-0.091
-557.471	198.190	0.194	-0.298
-556.456	800.000	-0.029	-0.122
-555.442	-158.618	-0.444	-0.026
-554.427	76.676	-0.133	-0.142
-553.412	123.799	-0.117	-0.148
-552.398	-200.000	0.002	-0.262
-551.383	-87.499	-0.250	0.076
-550.369	800.000	0.053	-0.177
-549.354	-9.079	0.205	-0.138
-548.339	66.254	0.104	0.106
-547.325	-34.096	0.155	0.086
-546.310	800.000	0.072	0.284
-545.296	-80.317	-0.345	-0.116
-544.281	-24.753	0.140	-0.084
-543.266	281.291	-0.118	0.212
-542.252	-133.837	-0.274	-0.034
-541.237	-47.330	0.335	0.164
-540.223	-200.000	0.008	-0.089
-539.208	-90.964	-0.244	0.071
-538.193	-54.141	0.453	0.207
-537.179	-200.000	0.055	0.268
-536.164	703.455	-0.179	0.474
-535.150	98.516	-0.099	0.115
-534.135	800.000	0.080	0.350
-533.121	-127.071	-0.293	0.043
-532.106	-96.074	0.350	-0.094
-531.091	48.932	-0.087	-0.082
-530.077	-118.940	-0.191	0.034
-529.062	508.681	0.077	0.179
-528.048	-68.422	0.352	-0.137
-527.033	-96.145	-0.231	-0.062
-526.018	800.000	0.111	0.321
-525.004	7.147	-0.378	-0.283
-523.989	83.394	-0.263	-0.288
-522.975	190.873	0.159	-0.240
-521.960	83.071	-0.146	0.159
-520.945	-102.258	-0.300	0.072
-519.931	251.065	0.161	0.274
-518.916	-127.735	-0.125	-0.018
-517.902	-115.865	0.424	0.080
-516.887	323.049	0.092	-0.177
-515.872	-182.668	0.210	-0.004
-514.858	-12.029	-0.044	-0.029
-513.843	-67.539	-0.258	-0.101
-512.829	87.074	-0.046	0.051
-511.814	-28.576	0.222	0.128
-510.799	-151.342	0.159	-0.012
-509.785	-200.000	0.051	-0.403
-508.770	-127.660	0.113	-0.016
-507.756	570.596	0.078	0.191
-506.741	800.000	-0.077	-0.338
-505.726	-125.577	-0.198	-0.030
-504.712	-67.028	0.316	0.125
-503.697	-131.074	-0.330	0.044
-502.683	800.000	-0.029	-0.090
-501.668	800.000	-0.060	-0.209
-500.653	523.731	0.104	-0.245
-499.639	12.176	-0.253	0.195
-498.624	752.344	-0.042	0.114
-497.610	12.892	0.158	0.123
-496.595	13.108	-0.280	-0.217
-495.581	101.047	-0.064	-0.074
-494.566	-37.258	-0.368	-0.197
-493.551	-105.529	0.217	0.049
-492.537	85.470	-0.145	-0.160
-491.522	-46.588	-0.017	0.008
-490.508	22.883	0.320	0.263
-489.493	-51.577	0.190	-0.089
-488.478	134.463	0.213	0.277
-487.464	251.469	0.110	-0.188
-486.449	-65.391	-0.096	-0.039
-485.435	644.293	0.165	-0.421
-484.420	345.581	-0.086	-0.170
-483.405	-18.857	0.303	0.189
-482.391	-123.851	-0.326	-0.052
-481.376	-36.455	-0.189	-0.102
-480.362	-78.130	0.234	-0.081
-479.347	-200.000	0.130	-0.001
-478.332	3.501	0.035	-0.026
-477.318	-146.635	0.104	-0.009
-476.303	-102.825	0.307	0.073
-475.289	15.290	0.133	-0.105
-474.274	-114.696	-0.319	-0.061
-473.259	-132.148	0.172	-0.022
-472.245	335.468	-0.054	0.106
-471.230	65.327	0.170	0.172
-470.216	137.210	-0.100	-0.131
-469.201	-200.000	0.020	0.092
-468.186	-200.000	0.006	0.060
-467.172	-92.458	-0.327	0.092
-466.157	392.710	-0.074	-0.154
-465.143	503.718	0.030	-0.070
-464.128	-133.271	0.247	-0.031
-463.113	-200.000	0.033	-0.249
-462.099	-70.228	0.096	-0.037
-461.084	742.861	0.020	0.053
-460.070	11.292	-0.072	0.055
-459.055	387.093	-0.123	0.254
-458.040	58.067	-0.280	0.275
-457.026	32.256	-0.182	0.158
-456.011	124.969	-0.074	-0.094
-454.997	-62.265	-0.245	-0.102
-453.982	-160.305	-0.098	0.005
-452.968	-200.000	0.028	0.180
-451.953	50.155	0.211	-0.200
-450.938	800.000	0.064	-0.193
-449.924	5.642	-0.255	-0.188
-448.909	139.977	0.150	0.198
-447.895	800.000	0.041	-0.177
-446.880	-118.886	0.168	0.030
-445.865	30.519	-0.270	0.231
-444.851	-77.350	0.449	0.156
-443.836	0.265	0.272	-0.194
-442.822	99.299	0.097	0.112
-441.807	-200.000	-0.002	0.119
-440.792	113.455	0.103	-0.125
-439.778	-200.000	-0.034	0.203
-438.763	32.169	-0.203	0.175
-437.749	86.312	0.181	-0.199
-436.734	183.171	0.043	0.064
-435.719	-123.054	0.208	-0.033
-434.705	166.291	-0.136	-0.193
-433.690	77.474	-0.062	0.066
-432.676	8.154	0.130	-0.098
-431.661	212.644	-0.081	-0.128
-430.646	800.000	-0.077	-0.233
-429.632	124.462	-0.097	0.122
-428.617	124.538	0.168	-0.211
-427.603	-161.408	0.071	0.004
-426.588	-102.314	0.080	-0.019
-425.573	-91.824	0.105	-0.030
-424.559	-5.118	-0.253	0.174
-423.544	264.225	0.056	0.097
-422.530	800.000	-0.012	-0.048
-421.515	-105.666	-0.381	-0.086
-420.500	-58.892	-0.074	-0.032
-419.486	-200.000	-0.022	-0.158
-418.471	-25.315	-0.148	0.088
-417.457	-82.468	-0.270	0.088
-416.442	-186.490	0.185	-0.003
-415.428	-110.118	0.348	0.073
-414.413	-174.422	0.149	-0.004
-413.398	-139.769	-0.502	-0.053
-412.384	-200.000	0.069	-0.359
-411.369	-51.373	-0.307	-0.143
-410.355	288.019	0.025	-0.044
-409.340	-125.659	0.151	-0.023
-408.325	161.126	0.140	0.195
-407.311	800.000	-0.052	-0.221
-406.296	-129.140	0.383	0.053
-405.282	-200.000	0.075	-0.422
-404.267	-98.547	0.150	-0.038
-403.252	-200.000	-0.063	0.322
-402.238	31.325	0.061	0.053
-401.223	38.205	-0.191	0.170
-400.209	-200.000	-0.038	-0.263
-399.194	69.304	-0.182	-0.187
-398.179	116.642	-0.215	-0.263
-397.165	452.969	0.043	0.096
-396.150	-89.311	-0.106	0.031
-395.136	-145.459	-0.451	-0.041
-394.121	-200.000	0.031	0.154
-393.106	89.559	0.120	0.134
-392.092	-138.768	0.088	-0.010
-391.077	-200.000	0.008	0.163
-390.063	-130.372	-0.066	0.009
-389.048	-200.000	0.058	0.425
-388.033	-162.759	-0.322	0.016
-387.019	-200.000	0.005	0.196
-386.004	-114.798	-0.212	-0.040
-384.990	257.701	0.277	-0.475
-383.975	-101.786	0.308	-0.075
-382.960	800.000	0.043	0.147
-381.946	-32.898	-0.438	0.243
-380.931	-82.398	-0.126	0.041
-379.917	-82.427	0.051	0.016
-378.902	156.131	-0.016	-0.022
-377.888	139.816	-0.134	0.176
-376.873	-200.000	0.106	0.000
-375.858	800.000	0.045	0.157
-374.844	-38.229	-0.277	0.147
-373.829	800.000	-0.017	0.060
-372.815	-35.274	0.225	0.122
-371.800	-200.000	0.045	-0.269
-370.785	-190.521	0.250	-0.003
-369.771	800.000	0.030	0.122
-368.756	52.236	0.224	0.214
-367.742	-135.683	-0.122	0.014
-366.727	1.705	-0.126	0.090
-365.712	-103.756	-0.171	0.040
-364.698	800.000	-0.079	-0.299
-363.683	88.742	-0.119	-0.132
-362.669	-55.078	0.347	-0.156
-361.654	-87.067	0.101	0.031
-360.639	800.000	-0.123	-0.375
-359.625	-148.634	-0.358	0.029
-358.610	-65.613	-0.054	0.021
-357.596	80.333	0.376	-0.404
-356.581	170.880	-0.121	0.173
-355.566	-129.414	-0.179	-0.025
-354.552	-154.246	-0.309	-0.021
-353.537	-179.443	-0.285	0.006
-352.523	-144.047	0.275	0.026
-351.508	-128.660	0.039	0.006
-350.493	52.644	-0.112	-0.107
-349.479	-101.595	-0.219	-0.053
-348.464	-144.985	0.349	0.032
-347.450	-180.182	0.274	-0.006
-346.435	597.950	0.034	0.083
-345.420	47.444	0.039	0.036
-344.406	-159.857	-0.082	-0.004
-343.391	191.774	0.044	-0.066
-342.377	-200.000	0.027	-0.146
-341.362	521.995	-0.121	-0.283
-340.348	198.023	-0.166	0.253
-339.333	149.475	-0.272	0.367
-338.318	460.961	0.203	0.451
-337.304	-78.970	0.227	0.077
-336.289	-133.707	0.138	0.017
-335.275	-29.014	-0.105	0.060
-334.260	-200.000	-0.000	-0.326
-333.245	-128.687	0.128	-0.018
-332.231	-10.691	0.209	-0.138
-331.216	-141.359	-0.254	0.026
-330.202	-175.328	-0.261	-0.007
-329.187	-19.358	0.014	0.009
-328.172	-45.457	0.271	0.134
-327.158	226.733	0.085	-0.138
-326.143	-200.000	0.073	0.526
-325.129	-200.000	0.084	0.598
-324.114	-73.386	0.107	0.039
-323.099	457.212	-0.139	0.308
-322.085	-28.720	-0.085	0.049
-321.070	-31.850	-0.087	-0.049
-320.056	25.989	0.602	0.500
-319.041	-200.000	-0.024	-0.207
-318.026	-141.226	-0.304	-0.031
-317.012	-60.244	0.333	-0.141
-315.997	-0.055	0.106	0.075
-314.983	-200.000	-0.014	-0.177
-313.968	185.242	-0.163	-0.241
-312.953	800.000	0.057	-0.160
-311.939	115.498	0.169	0.205
-310.924	-200.000	0.008	-0.056
-309.910	558.473	-0.043	-0.102
-308.895	31.190	-0.205	0.175
-307.880	800.000	0.054	0.190
-306.866	-79.879	0.100	0.033
-305.851	-37.921	-0.147	0.078
-304.837	80.735	0.226	0.242
-303.822	-15.532	0.152	0.097
-302.807	104.208	0.109	-0.127
-301.793	-85.826	-0.076	-0.023
-300.778	800.000	0.055	-0.226
-299.764	-200.000	-0.019	0.320
-298.749	326.776	-0.156	-0.297
-297.735	129.501	-0.216	-0.275
-296.720	-59.582	-0.104	0.044
-295.705	-200.000	0.005	0.108
-294.691	-159.233	-0.210	0.012
-293.676	735.584	0.077	0.204
-292.662	398.141	0.097	-0.202
-291.647	-46.639	-0.414	-0.202
-290.632	-200.000	0.005	0.275
-289.618	97.500	0.060	0.068
-288.603	276.714	0.098	-0.172
-287.589	47.536	0.100	-0.093
-286.574	21.388	-0.182	-0.147
-285.559	-200.000	-0.125	-0.554
-284.545	800.000	0.045	0.141
-283.530	-52.911	0.101	0.046
-282.516	29.033	-0.033	0.028
-281.501	-108.149	0.255	0.055
-280.486	800.000	-0.004	0.015
-279.472	800.000	0.076	-0.283
-278.457	20.101	0.258	0.207
-277.443	-200.000	0.023	0.254
-276.428	12.736	-0.098	-0.075
-275.413	-142.870	-0.109	0.010
-274.399	-200.000	0.046	0.228
-273.384	504.583	-0.170	0.390
-272.370	-117.882	-0.193	-0.034
-271.355	-115.534	0.098	0.018
-270.340	-178.343	0.301	0.007
-269.326	82.974	0.149	0.161
-268.311	69.218	-0.290	-0.296
-267.297	-182.433	0.099	-0.002
-266.282	120.067	-0.015	-0.019
-265.267	800.000	0.032	-0.129
-264.253	-42.531	-0.244	0.124
-263.238	-50.663	0.239	-0.112
-262.224	507.010	0.096	0.221
-261.209	624.908	0.063	-0.158
-260.195	-100.386	-0.382	-0.094
-259.180	644.015	-0.206	0.522
-258.165	-159.607	-0.054	0.003
-257.151	-161.085	-0.270	0.014
-256.136	-39.332	-0.090	0.047
-255.122	-180.010	-0.577	-0.012
-254.107	4.176	-0.108	-0.079
-253.092	-125.577	0.315	0.048
-252.078	-29.976	-0.121	-0.069
-251.063	287.432	-0.165	0.296
-250.049	-200.000	-0.028	-0.210
-249.034	-82.557	-0.244	0.079
-248.019	107.808	0.267	0.316
-247.005	113.734	0.154	0.186
-245.990	-110.045	0.139	0.029
-244.976	76.447	0.046	-0.048
-243.961	326.464	0.128	0.243
-242.946	-104.924	0.357	0.081
-241.932	190.261	-0.173	0.257
-240.917	40.831	0.376	0.337
-239.903	800.000	0.033	-0.120
-238.888	-38.581	0.174	0.091
-237.873	-81.042	-0.029	0.010
-236.859	151.044	0.226	0.305
-235.844	252.883	-0.034	0.057
-234.830	800.000	0.090	0.270
-233.815	72.163	0.080	-0.082
-232.800	213.823	0.079	0.124
-231.786	19.771	0.174	0.139
-230.771	685.047	0.158	0.409
-229.757	-117.761	-0.289	-0.052
-228.742	85.776	0.160	0.175
-227.727	-35.543	-0.225	-0.121
-226.713	-200.000	-0.010	0.094
-225.698	-50.998	0.092	0.043
-224.684	208.880	-0.075	-0.116
-223.669	-176.361	0.292	-0.008
-222.655	-200.000	-0.014	-0.273
-221.640	-148.201	0.237	0.019
-220.625	-128.034	-0.346	0.049
-219.611	31.607	-0.269	-0.230
-218.596	27.175	0.081	-0.067
-217.582	80.932	-0.102	-0.110
-216.567	-11.611	0.299	-0.195
-215.552	-24.108	-0.317	-0.188
-214.538	-82.521	-0.427	-0.137
-213.523	14.338	0.327	0.253
-212.509	-137.125	0.240	0.027
-211.494	-110.845	-0.123	-0.025
-210.479	-129.236	0.076	-0.011
-209.465	-200.000	-0.010	0.045
-208.450	94.875	0.198	-0.223
-207.436	134.647	-0.180	0.232
-206.421	97.966	-0.213	0.243
-205.406	-200.000	0.008	-0.293
-204.392	-131.826	0.374	-0.049
-203.377	-8.357	0.202	0.135
-202.363	-22.936	-0.081	0.048
-201.348	21.847	-0.134	0.109
-200.333	50.900	0.132	-0.124
-199.319	-40.945	0.251	0.128
-198.304	-145.063	-0.153	-0.014
-197.290	608.648	0.038	-0.093
-196.275	-58.288	-0.091	0.039
-195.260	-38.746	0.216	0.113
-194.246	663.028	-0.011	0.027
-193.231	27.344	-0.125	0.104
-192.217	800.000	0.102	-0.321
-191.202	69.186	0.109	-0.111
-190.187	94.085	-0.170	-0.191
-189.173	800.000	0.135	-0.394
-188.158	-37.759	0.212	-0.112
-187.144	800.000	-0.077	0.265
-186.129	327.755	0.139	0.263
-185.114	424.798	-0.072	-0.154
-184.100	-46.856	-0.098	-0.047
-183.085	-200.000	0.021	0.189
-182.071	258.842	-0.132	0.225
-181.056	89.339	0.135	-0.149
-180.042	-161.595	-0.286	0.015
-179.027	-200.000	-0.008	0.123
-178.012	-200.000	-0.008	0.112
-176.998	800.000	0.016	0.063
-175.983	-200.000	-0.011	0.159
-174.969	-14.659	0.134	0.085
-173.954	-10.511	-0.098	-0.064
-172.939	524.804	-0.047	-0.109
-171.925	-111.916	-0.248	-0.050
-170.910	-200.000	0.029	-0.174
-169.896	-166.452	-0.167	0.007
-168.881	-122.569	0.405	0.065
-167.866	-53.933	0.110	-0.050
-166.852	345.147	-0.098	-0.190
-165.837	-43.019	0.045	-0.022
-164.823	-133.050	-0.103	-0.013
-163.808	34.330	0.186	0.161
-162.793	-93.267	0.077	0.021
-161.779	-63.927	0.211	-0.085
-160.764	179.598	-0.194	-0.281
-159.750	17.727	0.180	0.142
-158.735	73.640	-0.159	-0.165
-157.720	172.391	0.132	-0.188
-156.706	-200.000	-0.014	-0.173
-155.691	102.499	0.127	-0.147
-154.677	-17.756	0.195	-0.121
-153.662	800.000	0.037	-0.118
-152.647	-159.810	-0.196	-0.011
-151.633	-90.273	0.053	0.015
-150.618	120.946	0.199	0.245
-149.604	-180.870	-0.213	0.004
-148.589	201.566	-0.149	0.227
-147.574	704.664	-0.157	0.409
-146.560	250.522	0.074	-0.125
-145.545	152.192	-0.072	-0.097
-144.531	22.659	0.126	0.102
-143.516	298.563	0.071	-0.130
-142.502	800.000	0.076	-0.283
-141.487	50.011	-0.129	0.121
-140.472	800.000	0.013	-0.054
-139.458	326.644	0.092	0.175
-138.443	-86.506	0.027	0.008
-137.429	-197.997	0.197	0.001
-136.414	20.688	0.065	-0.052
-135.399	8.663	0.065	0.049
-134.385	-200.000	0.005	-0.150
-133.370	-54.587	0.173	-0.077
-132.356	242.783	0.134	-0.222
-131.341	83.659	-0.125	0.135
-130.326	-101.916	0.237	0.057
-129.312	-193.249	0.286	0.002
-128.297	87.349	0.111	-0.121
-127.283	-110.044	0.397	-0.082
-126.268	-200.000	0.074	-0.344
-125.253	800.000	0.091	-0.279
-124.239	323.084	0.101	-0.190
-123.224	-145.079	0.372	0.033
-122.210	-200.000	0.007	-0.133
-121.195	78.764	0.049	0.051
