DTS Sentinel unit serial number:	SN413079Multiplexer serial number:	ORYXHardware model number:	OX4-SRSoftware version number:	ORYX F/W v4.00 Oryx Data Collector v3.7.2.0data status	okinstallation	princeton_trtdifferential loss correction	single-endedforward channel	channel 2reverse channel	N/Adate	2019/09/17time	13:07:35forward acquisition time	60.00reverse acquisition time	0.00gamma	496.2192k internal	0.2318k external	0.2318temperature offset calibration	0.9985default loss term (dB/km)	0.3790temperature slope calibration	1.0000multiplexer offset coefficient	1.0000multiplexer slope coefficient	1.0000fibre end	0.00T internal ref (°C)	33.69T ext. ref 1 (°C)	0.41T ext. ref 2 (°C)	31.64length (m)	temperature (°C)	Stokes	anti-Stokes-747.200	800.000	0.060	0.180
-746.185	520.520	0.011	0.026
-745.171	-200.000	0.037	-0.244
-744.156	800.000	-0.052	0.186
-743.142	-76.141	-0.167	0.060
-742.127	-79.090	-0.091	0.031
-741.112	2.632	0.157	-0.115
-740.098	44.714	0.193	0.179
-739.083	-64.604	-0.058	0.024
-738.069	177.339	0.054	-0.080
-737.054	19.854	0.154	0.126
-736.039	274.577	0.105	0.188
-735.025	-87.580	-0.225	0.069
-734.010	800.000	0.078	0.231
-732.996	-200.000	-0.014	0.070
-731.981	-152.309	-0.287	0.021
-730.966	339.968	0.034	-0.068
-729.952	-20.852	-0.166	-0.103
-728.937	682.516	0.094	-0.248
-727.923	49.892	-0.213	-0.203
-726.908	-131.650	0.120	0.016
-725.894	34.261	-0.188	-0.166
-724.879	-76.883	-0.178	-0.063
-723.864	111.697	-0.158	0.193
-722.850	153.658	-0.174	0.242
-721.835	273.274	-0.112	0.200
-720.821	71.627	-0.232	-0.244
-719.806	282.758	-0.064	-0.116
-718.791	-5.430	-0.202	-0.140
-717.777	260.418	0.035	0.061
-716.762	25.006	-0.078	-0.065
-715.748	-55.121	0.373	-0.170
-714.733	-200.000	0.020	-0.253
-713.718	-200.000	0.015	0.399
-712.704	800.000	0.031	-0.110
-711.689	-73.772	-0.254	-0.094
-710.675	137.800	-0.132	-0.175
-709.660	-102.829	0.231	-0.055
-708.645	800.000	-0.063	-0.238
-707.631	800.000	0.071	0.205
-706.616	-200.000	-0.011	0.096
-705.602	-200.000	0.025	-0.151
-704.587	-96.201	0.214	0.057
-703.572	428.670	0.011	0.023
-702.558	-81.051	-0.207	0.069
-701.543	800.000	-0.057	-0.223
-700.529	-34.947	-0.266	-0.147
-699.514	92.262	-0.070	0.079
-698.499	800.000	0.076	-0.225
-697.485	-3.814	-0.120	0.084
-696.470	-117.274	0.102	-0.019
-695.456	111.277	-0.089	-0.109
-694.441	-200.000	-0.021	-0.288
-693.426	-76.005	-0.135	0.048
-692.412	-132.020	-0.170	-0.022
-691.397	494.402	-0.027	-0.063
-690.383	-200.000	-0.017	-0.178
-689.368	-143.226	-0.133	0.013
-688.354	12.272	0.155	-0.120
-687.339	-200.000	-0.048	0.313
-686.324	-48.059	-0.180	0.088
-685.310	168.552	0.164	-0.236
-684.295	800.000	-0.024	0.088
-683.281	181.835	0.035	-0.052
-682.266	800.000	-0.074	0.294
-681.251	760.175	0.090	-0.247
-680.237	68.632	-0.146	-0.151
-679.222	276.871	-0.100	0.180
-678.208	-24.154	-0.234	-0.141
-677.193	-105.708	0.099	-0.023
-676.178	-73.662	-0.047	-0.017
-675.164	-161.790	0.176	-0.009
-674.149	216.972	-0.099	-0.158
-673.135	253.019	0.075	0.129
-672.120	-200.000	0.027	-0.176
-671.105	-131.718	-0.218	-0.029
-670.091	-200.000	-0.120	0.590
-669.076	198.774	-0.211	0.326
-668.062	142.652	0.087	0.116
-667.047	-96.726	-0.324	-0.086
-666.032	-60.356	-0.374	-0.161
-665.018	248.820	0.046	-0.079
-664.003	4.312	-0.167	-0.124
-662.989	-90.387	-0.210	0.061
-661.974	79.968	0.047	-0.051
-660.959	-57.169	-0.222	0.099
-659.945	-75.629	-0.163	0.058
-658.930	-200.000	-0.004	-0.135
-657.916	-200.000	0.065	-0.423
-656.901	38.966	-0.054	-0.049
-655.886	-151.403	-0.272	0.020
-654.872	-200.000	0.019	0.091
-653.857	-200.000	0.047	-0.311
-652.843	167.935	-0.312	0.447
-651.828	-43.218	-0.347	-0.177
-650.814	200.406	0.138	0.213
-649.799	404.539	-0.144	-0.306
-648.784	1.191	-0.176	-0.127
-647.770	628.387	-0.041	-0.105
-646.755	-40.987	0.368	0.192
-645.741	-16.007	0.185	0.119
-644.726	-75.043	-0.211	-0.076
-643.711	-63.370	0.058	-0.024
-642.697	286.490	0.167	0.304
-641.682	216.248	0.046	0.074
-640.668	-87.164	-0.346	0.106
-639.653	-200.000	-0.039	-0.271
-638.638	100.774	-0.136	0.159
-637.624	9.932	-0.131	0.100
-636.609	78.925	0.147	0.158
-635.595	-122.143	0.312	0.052
-634.580	-104.553	-0.209	0.049
-633.565	-83.027	0.102	-0.033
-632.551	17.782	-0.230	-0.185
-631.536	-200.000	0.014	-0.364
-630.522	30.018	0.182	-0.157
-629.507	-1.102	-0.090	0.064
-628.492	25.731	-0.107	-0.090
-627.478	33.569	-0.245	0.215
-626.463	111.106	-0.251	-0.305
-625.449	-200.000	-0.019	-0.158
-624.434	104.392	-0.148	0.175
-623.419	-121.295	-0.227	0.038
-622.405	9.997	0.141	0.108
-621.390	339.956	0.035	-0.068
-620.376	-200.000	-0.040	-0.392
-619.361	159.596	0.090	-0.126
-618.346	518.995	-0.048	0.112
-617.332	-19.469	-0.376	-0.235
-616.317	-169.998	0.091	0.003
-615.303	800.000	-0.051	0.191
-614.288	80.295	-0.018	0.019
-613.273	-200.000	0.045	-0.282
-612.259	800.000	0.004	0.017
-611.244	-174.957	-0.060	-0.002
-610.230	-200.000	0.006	-0.190
-609.215	190.377	-0.204	-0.308
-608.201	-61.479	0.157	0.066
-607.186	19.221	-0.040	-0.032
-606.171	289.201	-0.083	-0.152
-605.157	-32.560	0.077	-0.043
-604.142	800.000	-0.017	0.067
-603.128	-200.000	0.019	0.112
-602.113	-3.697	-0.061	0.043
-601.098	-57.780	0.068	-0.030
-600.084	158.580	0.073	0.102
-599.069	-61.072	-0.248	0.105
-598.055	12.853	0.168	-0.131
-597.040	226.254	0.029	-0.047
-596.025	220.840	-0.018	0.028
-595.011	800.000	0.048	-0.138
-593.996	224.382	-0.054	-0.088
-592.982	-77.380	0.452	-0.158
-591.967	-72.631	-0.129	-0.048
-590.952	800.000	0.023	-0.087
-589.938	-81.293	0.081	-0.027
-588.923	106.144	-0.175	-0.209
-587.909	800.000	-0.039	-0.143
-586.894	-30.784	0.140	-0.080
-585.879	20.346	-0.086	-0.070
-584.865	-200.000	-0.026	0.159
-583.850	800.000	-0.085	0.341
-582.836	-83.298	0.438	-0.141
-581.821	-163.375	0.143	0.007
-580.806	-137.203	-0.420	-0.048
-579.792	41.973	0.126	-0.115
-578.777	-162.650	-0.332	0.016
-577.763	-165.015	0.496	-0.022
-576.748	33.391	0.153	0.134
-575.733	379.640	-0.096	-0.198
-574.719	-200.000	0.028	-0.359
-573.704	-6.337	0.191	-0.131
-572.690	135.198	0.077	-0.100
-571.675	-200.000	-0.028	-0.460
-570.661	-74.825	0.140	0.051
-569.646	800.000	-0.093	0.399
-568.631	800.000	-0.060	-0.235
-567.617	-1.331	0.384	0.273
-566.602	800.000	0.096	-0.298
-565.588	-99.731	-0.307	0.077
-564.573	-200.000	0.015	-0.222
-563.558	358.834	-0.039	0.078
-562.544	-162.320	-0.176	-0.009
-561.529	-200.000	-0.004	0.258
-560.515	-142.512	-0.087	0.009
-559.500	-25.808	-0.085	-0.050
-558.485	65.692	0.096	-0.097
-557.471	232.068	0.019	0.031
-556.456	1.505	-0.161	0.117
-555.442	-143.696	-0.047	0.004
-554.427	-200.000	-0.003	0.381
-553.412	221.842	-0.289	0.466
-552.398	-41.026	0.282	0.146
-551.383	800.000	-0.050	0.170
-550.369	-172.638	-0.128	-0.004
-549.354	43.100	-0.190	0.174
-548.339	800.000	-0.098	0.310
-547.325	146.470	-0.396	0.534
-546.310	180.270	-0.072	-0.105
-545.296	-129.051	-0.096	0.014
-544.281	167.042	0.147	0.210
-543.266	321.294	-0.129	0.247
-542.252	115.303	-0.099	-0.121
-541.237	147.872	-0.239	0.324
-540.223	415.175	-0.064	0.137
-539.208	-200.000	0.009	-0.048
-538.193	-115.928	-0.125	-0.023
-537.179	-172.234	0.359	-0.012
-536.164	-200.000	0.066	0.418
-535.150	-116.383	-0.220	0.041
-534.135	-69.051	-0.081	0.031
-533.121	-72.899	-0.027	-0.010
-532.106	-33.860	-0.485	-0.268
-531.091	614.393	0.092	0.231
-530.077	317.612	-0.158	0.300
-529.062	-44.861	-0.205	-0.103
-528.048	-73.057	-0.082	0.030
-527.033	-45.350	-0.421	0.210
-526.018	14.125	0.137	0.107
-525.004	800.000	0.029	0.105
-523.989	-200.000	0.009	0.399
-522.975	-108.740	-0.324	0.070
-521.960	209.307	0.123	0.193
-520.945	-107.737	0.333	-0.073
-519.931	800.000	-0.073	-0.250
-518.916	501.988	0.066	0.153
-517.902	-129.325	0.104	0.014
-516.887	-200.000	0.012	-0.143
-515.872	100.026	-0.125	-0.145
-514.858	250.192	-0.093	0.159
-513.843	-200.000	-0.042	-0.311
-512.829	-200.000	0.002	-0.058
-511.814	-200.000	-0.031	0.150
-510.799	-200.000	0.002	-0.163
-509.785	409.225	0.088	0.186
-508.770	-200.000	-0.019	-0.180
-507.756	225.501	0.041	-0.066
-506.741	-8.748	0.060	0.040
-505.726	62.447	0.175	0.175
-504.712	-29.875	0.269	-0.153
-503.697	383.166	0.070	-0.145
-502.683	800.000	-0.023	0.076
-501.668	-7.741	0.109	-0.074
-500.653	-46.528	-0.156	-0.077
-499.639	800.000	0.037	0.119
-498.624	-200.000	-0.032	-0.322
-497.610	-200.000	-0.044	-0.461
-496.595	-121.569	0.104	0.017
-495.581	-200.000	0.013	0.070
-494.566	-200.000	0.060	-0.347
-493.551	-129.001	-0.033	0.005
-492.537	-14.563	0.099	-0.064
-491.522	800.000	-0.073	0.277
-490.508	-50.083	0.215	-0.102
-489.493	291.356	0.078	-0.142
-488.478	192.039	-0.120	-0.182
-487.464	633.632	-0.054	0.137
-486.449	314.524	-0.051	0.096
-485.435	800.000	-0.020	-0.063
-484.420	-200.000	0.048	-0.277
-483.405	2.096	0.115	-0.083
-482.391	48.899	0.194	-0.183
-481.376	-200.000	0.021	0.128
-480.362	-74.672	-0.247	-0.089
-479.347	98.333	-0.161	-0.186
-478.332	16.533	0.072	0.057
-477.318	-121.224	0.267	-0.045
-476.303	-200.000	0.038	0.187
-475.289	-38.714	0.138	-0.073
-474.274	-200.000	0.043	-0.239
-473.259	23.270	0.195	-0.161
-472.245	-156.313	0.215	-0.013
-471.230	64.625	-0.112	0.113
-470.216	-174.717	-0.241	0.007
-469.201	603.434	-0.064	0.160
-468.186	-24.319	-0.153	-0.091
-467.172	175.318	0.080	0.116
-466.157	560.696	-0.192	0.465
-465.143	239.619	0.100	-0.166
-464.128	67.395	-0.349	-0.356
-463.113	-42.219	-0.295	0.151
-462.099	800.000	-0.124	0.481
-461.084	800.000	-0.072	0.239
-460.070	53.341	-0.171	0.164
-459.055	-12.012	0.153	0.101
-458.040	-122.270	-0.092	-0.015
-457.026	364.871	0.038	-0.076
-456.011	208.234	-0.180	0.282
-454.997	187.353	-0.065	0.098
-453.982	-131.117	0.313	-0.042
-452.968	-200.000	-0.008	-0.239
-451.953	-38.150	-0.123	-0.065
-450.938	800.000	0.062	-0.174
-449.924	800.000	-0.078	0.311
-448.909	80.924	-0.288	0.311
-447.895	-88.410	-0.261	0.078
-446.880	149.511	-0.143	0.194
-445.865	-200.000	-0.005	-0.035
-444.851	-200.000	-0.046	0.346
-443.836	-65.209	-0.351	-0.141
-442.822	552.167	-0.088	-0.212
-441.807	-134.855	0.137	0.017
-440.792	-106.789	-0.189	0.042
-439.778	49.907	-0.100	-0.094
-438.763	-130.752	-0.124	-0.017
-437.749	-152.941	-0.031	-0.002
-436.734	5.194	-0.193	0.142
-435.719	-200.000	-0.003	0.058
-434.705	-200.000	-0.002	0.130
-433.690	5.912	0.165	-0.122
-432.676	800.000	0.113	-0.375
-431.661	-186.789	-0.105	-0.001
-430.646	89.262	0.132	0.148
-429.632	216.666	-0.124	-0.198
-428.617	-200.000	-0.034	-0.169
-427.603	709.273	0.052	-0.138
-426.588	-200.000	0.035	-0.242
-425.573	72.643	-0.301	0.314
-424.559	-23.888	0.105	0.063
-423.544	-170.786	-0.310	-0.011
-422.530	-200.000	-0.034	-0.470
-421.515	71.950	-0.015	-0.015
-420.500	58.741	-0.095	0.093
-419.486	-26.826	-0.088	0.052
-418.471	60.589	-0.216	0.214
-417.457	68.363	-0.092	-0.094
-416.442	-56.847	0.333	-0.147
-415.428	38.537	0.115	-0.102
-414.413	77.092	-0.075	-0.080
-413.398	40.602	0.252	-0.227
-412.384	-42.060	0.187	0.095
-411.369	-200.000	0.013	-0.088
-410.355	-143.548	0.090	0.009
-409.340	-200.000	0.028	0.345
-408.325	-78.860	-0.174	-0.059
-407.311	-87.872	-0.361	0.108
-406.296	55.798	0.062	0.060
-405.282	60.071	0.184	0.182
-404.267	54.826	0.113	-0.109
-403.252	241.957	0.046	0.077
-402.238	-58.905	0.183	0.079
-401.223	-140.003	-0.140	0.015
-400.209	-41.233	-0.109	0.056
-399.194	-200.000	-0.003	-0.130
-398.179	-119.962	0.166	-0.029
-397.165	-42.452	0.115	0.058
-396.150	-15.157	-0.073	-0.046
-395.136	-130.146	0.333	-0.045
-394.121	54.731	-0.183	0.176
-393.106	99.067	-0.249	-0.287
-392.092	800.000	-0.126	0.468
-391.077	800.000	0.029	0.125
-390.063	98.213	-0.159	-0.182
-389.048	-70.488	0.277	0.105
-388.033	-86.463	0.116	0.036
-387.019	-180.640	-0.088	0.002
-386.004	88.386	0.224	0.248
-384.990	-200.000	-0.019	-0.230
-383.975	46.998	-0.049	0.045
-382.960	-129.826	0.147	-0.020
-381.946	800.000	0.095	-0.387
-380.931	-10.829	0.190	0.125
-379.917	144.981	0.394	0.525
-378.902	-32.256	-0.127	-0.071
-377.888	-40.371	-0.165	-0.086
-376.873	113.531	0.137	-0.166
-375.858	298.192	-0.054	-0.099
-374.844	43.265	-0.148	-0.135
-373.829	15.337	-0.053	-0.042
-372.815	45.497	-0.261	0.240
-371.800	186.639	-0.117	-0.173
-370.785	147.869	0.097	-0.130
-369.771	656.976	-0.041	0.105
-368.756	800.000	0.119	0.470
-367.742	226.710	-0.172	0.278
-366.727	-125.830	-0.016	0.002
-365.712	-133.700	0.268	0.033
-364.698	-99.203	-0.172	-0.043
-363.683	-142.870	-0.241	-0.023
-362.669	11.733	0.137	0.105
-361.654	-138.533	0.052	0.006
-360.639	-200.000	0.001	-0.316
-359.625	-44.845	0.063	0.032
-358.610	800.000	0.072	0.302
-357.596	-200.000	-0.031	0.216
-356.581	-139.426	0.163	0.017
-355.566	-200.000	-0.017	0.203
-354.552	-200.000	0.048	0.436
-353.537	-154.737	0.129	0.009
-352.523	-39.801	-0.085	-0.044
-351.508	101.597	0.104	-0.121
-350.493	-33.833	0.188	-0.103
-349.479	-87.211	0.323	-0.098
-348.464	569.257	-0.044	0.106
-347.450	413.552	-0.105	-0.223
-346.435	-102.126	0.494	-0.118
-345.420	-200.000	0.003	0.226
-344.406	23.570	0.471	0.386
-343.391	-27.362	0.256	-0.149
-342.377	38.692	-0.239	0.213
-341.362	-47.098	0.072	0.035
-340.348	-200.000	-0.003	0.051
-339.333	-200.000	0.031	0.351
-338.318	-200.000	-0.003	-0.052
-337.304	359.536	-0.078	-0.156
-336.289	800.000	-0.065	0.228
-335.275	800.000	-0.048	0.200
-334.260	194.345	-0.145	0.219
-333.245	800.000	-0.031	-0.130
-332.231	-200.000	-0.036	0.204
-331.216	800.000	0.049	-0.195
-330.202	-47.494	0.305	0.148
-329.187	39.491	0.203	0.181
-328.172	-112.373	-0.419	-0.083
-327.158	153.292	0.063	0.086
-326.143	217.467	0.060	-0.096
-325.129	-149.189	0.277	0.022
-324.114	1.350	-0.079	0.057
-323.099	-135.335	0.511	-0.061
-322.085	410.759	-0.021	0.045
-321.070	800.000	-0.144	0.442
-320.056	-68.708	-0.307	-0.118
-319.041	-200.000	-0.015	0.127
-318.026	52.133	0.329	0.313
-317.012	775.223	-0.135	-0.368
-315.997	-60.652	0.413	0.174
-314.983	78.515	0.116	0.124
-313.968	64.288	-0.079	0.079
-312.953	590.044	0.007	-0.017
-311.939	-114.813	0.286	0.054
-310.924	-109.445	-0.367	0.077
-309.910	-60.918	-0.186	0.078
-308.895	107.778	-0.100	0.118
-307.880	-37.650	-0.093	-0.049
-306.866	-101.586	0.145	-0.035
-305.851	107.018	0.157	0.185
-304.837	800.000	-0.120	-0.356
-303.822	69.220	0.140	-0.143
-302.807	-200.000	-0.008	-0.127
-301.793	253.057	-0.142	-0.241
-300.778	-91.225	0.447	0.127
-299.764	-32.177	-0.012	-0.007
-298.749	-8.295	0.102	-0.068
-297.735	-27.947	-0.160	-0.092
-296.720	-68.300	0.148	-0.057
-295.705	107.682	0.128	0.152
-294.691	48.736	-0.150	-0.139
-293.676	149.341	0.204	-0.274
-292.662	56.475	0.198	0.192
-291.647	396.160	0.109	-0.226
-290.632	-29.415	-0.448	0.255
-289.618	800.000	0.062	-0.249
-288.603	-76.856	0.090	-0.031
-287.589	592.157	0.248	0.609
-286.574	-200.000	-0.009	-0.133
-285.559	-175.831	-0.362	-0.010
-284.545	20.961	0.235	-0.189
-283.530	447.342	0.052	-0.114
-282.516	31.037	-0.056	0.048
-281.501	-6.627	-0.290	0.197
-280.486	-200.000	0.018	-0.112
-279.472	-113.622	0.144	-0.028
-278.457	20.095	-0.217	0.174
-277.443	-200.000	-0.024	-0.386
-276.428	16.521	0.276	0.217
-275.413	800.000	0.086	-0.303
-274.399	-138.124	0.135	0.015
-273.384	800.000	-0.019	0.073
-272.370	196.384	-0.045	-0.069
-271.355	73.719	-0.072	-0.075
-270.340	450.759	-0.097	0.212
-269.326	-47.867	-0.121	0.058
-268.311	-140.528	-0.126	-0.013
-267.297	-200.000	0.042	0.302
-266.282	183.910	-0.037	-0.054
-265.267	-200.000	-0.009	-0.117
-264.253	-102.674	-0.152	-0.036
-263.238	-200.000	-0.001	0.137
-262.224	-104.961	-0.201	-0.046
-261.209	-58.822	0.103	0.044
-260.195	89.902	-0.051	0.056
-259.180	-58.941	0.135	0.058
-258.165	-200.000	0.036	0.378
-257.151	-200.000	-0.006	-0.060
-256.136	-51.264	-0.178	-0.083
-255.122	194.740	-0.067	-0.101
-254.107	-200.000	-0.053	0.276
-253.092	-18.948	0.173	0.107
-252.078	-115.341	0.285	0.053
-251.063	-6.005	-0.092	-0.062
-250.049	523.838	0.048	-0.112
-249.034	800.000	-0.076	-0.223
-248.019	-132.786	-0.192	-0.024
-247.005	-200.000	0.043	-0.481
-245.990	-95.125	0.120	-0.032
-244.976	239.941	0.032	-0.052
-243.961	172.728	0.110	-0.158
-242.946	-42.404	0.162	-0.082
-241.932	-133.906	-0.128	-0.016
-240.917	174.279	0.243	0.349
-239.903	-164.051	-0.092	0.004
-238.888	-200.000	-0.032	0.218
-237.873	800.000	0.040	0.150
-236.859	90.259	-0.123	-0.136
-235.844	-200.000	-0.007	-0.054
-234.830	151.657	-0.128	-0.173
-233.815	270.205	-0.127	0.222
-232.800	800.000	0.049	-0.193
-231.786	800.000	-0.177	-0.520
-230.771	172.437	-0.124	-0.176
-229.757	302.299	0.119	0.218
-228.742	-200.000	-0.007	-0.266
-227.727	246.123	0.051	0.086
-226.713	-125.334	-0.064	0.010
-225.698	194.567	-0.081	0.122
-224.684	57.833	-0.126	-0.122
-223.669	800.000	-0.020	0.068
-222.655	-143.151	-0.070	0.007
-221.640	-65.272	-0.027	-0.011
-220.625	51.470	0.185	-0.174
-219.611	-200.000	0.012	0.123
-218.596	-33.253	-0.254	-0.139
-217.582	-146.790	0.167	-0.014
-216.567	-50.998	0.180	0.084
-215.552	-1.503	-0.179	0.125
-214.538	-110.344	0.229	0.047
-213.523	517.370	-0.104	0.241
-212.509	22.801	-0.337	-0.273
-211.494	-26.864	0.184	0.107
-210.479	58.331	0.254	0.247
-209.465	-23.206	0.214	-0.128
-208.450	-91.402	-0.310	0.088
-207.436	-180.923	0.183	0.004
-206.421	-35.931	0.162	0.087
-205.406	247.863	0.085	0.143
-204.392	-137.736	0.263	-0.029
-203.377	-141.855	0.108	-0.011
-202.363	-200.000	0.030	0.199
-201.348	-124.770	0.112	0.017
-200.333	-39.905	0.240	-0.124
-199.319	-200.000	-0.006	-0.144
-198.304	-110.476	0.105	0.022
-197.290	-136.491	-0.228	0.026
-196.275	15.425	0.286	-0.223
-195.260	205.591	0.116	0.179
-194.246	-200.000	-0.042	-0.257
-193.231	800.000	-0.022	-0.087
-192.217	254.106	0.126	-0.214
-191.202	-200.000	0.031	-0.157
-190.187	509.843	0.230	-0.530
-189.173	71.264	0.274	-0.281
-188.158	-65.794	0.244	0.097
-187.144	-181.382	0.081	0.002
-186.129	-200.000	0.038	0.178
-185.114	-7.046	-0.227	-0.153
-184.100	39.945	0.367	-0.327
-183.085	76.696	0.005	0.006
-182.071	800.000	0.084	-0.254
-181.056	-200.000	0.028	-0.196
-180.042	233.622	0.197	-0.322
-179.027	423.084	-0.158	0.336
-178.012	435.117	-0.090	0.195
-176.998	133.684	-0.007	0.008
-175.983	212.477	-0.165	-0.257
-174.969	-118.368	-0.168	0.029
-173.954	-82.370	0.152	-0.049
-172.939	-200.000	0.115	-0.523
-171.925	204.544	-0.038	-0.059
-170.910	92.012	-0.079	-0.088
-169.896	-110.354	0.234	0.048
-168.881	-75.161	-0.339	0.120
-167.866	492.402	-0.100	-0.227
-166.852	92.383	-0.107	-0.119
-165.837	-161.533	-0.088	0.004
-164.823	117.570	0.149	-0.181
-163.808	-200.000	-0.003	0.050
-162.793	-1.695	-0.116	-0.081
-161.779	418.400	0.199	0.422
-160.764	-102.158	-0.216	0.051
-159.750	-75.412	0.277	0.098
-158.735	49.814	-0.057	-0.053
-157.720	-70.794	-0.285	-0.106
-156.706	230.365	0.075	-0.121
-155.691	2.109	0.149	-0.106
-154.677	-54.508	0.267	0.120
-153.662	-80.802	-0.259	0.085
-152.647	268.772	0.026	-0.046
-151.633	-200.000	-0.036	-0.168
-150.618	-48.658	-0.182	0.086
-149.604	-93.090	-0.347	0.096
-148.589	29.470	0.169	-0.142
-147.574	151.801	-0.070	0.094
-146.560	279.888	-0.155	-0.274
-145.545	380.881	-0.134	-0.273
-144.531	-135.881	-0.283	0.033
-143.516	45.877	0.322	0.295
-142.502	-92.963	0.384	0.106
-141.487	-179.210	0.377	-0.008
-140.472	-160.502	-0.382	-0.020
-139.458	-88.771	-0.179	0.053
-138.443	-167.417	0.156	0.006
-137.429	-200.000	-0.018	-0.304
-136.414	470.554	-0.113	-0.251
-135.399	-141.557	0.173	0.017
-134.385	-157.847	0.457	-0.027
-133.370	3.637	-0.063	0.046
-132.356	800.000	-0.066	0.236
-131.341	474.069	0.014	-0.030
-130.326	-200.000	-0.029	0.164
-129.312	556.875	0.110	0.263
-128.297	-103.923	0.156	-0.036
-127.283	-26.568	0.208	-0.120
-126.268	-200.000	0.004	-0.152
-125.253	-200.000	0.097	0.473
-124.239	41.439	-0.085	0.076
-123.224	-177.143	0.084	-0.002
-122.210	369.178	0.137	0.274
