DTS Sentinel unit serial number:	SN413079Multiplexer serial number:	ORYXHardware model number:	OX4-SRSoftware version number:	ORYX F/W v4.00 Oryx Data Collector v3.7.2.0data status	okinstallation	princeton_trtdifferential loss correction	single-endedforward channel	channel 2reverse channel	N/Adate	2019/09/18time	07:55:35forward acquisition time	60.00reverse acquisition time	0.00gamma	496.2192k internal	0.2347k external	0.2347temperature offset calibration	0.9977default loss term (dB/km)	0.3790temperature slope calibration	1.0000multiplexer offset coefficient	1.0000multiplexer slope coefficient	1.0000fibre end	0.00T internal ref (°C)	23.50T ext. ref 1 (°C)	0.20T ext. ref 2 (°C)	19.35length (m)	temperature (°C)	Stokes	anti-Stokes-747.200	173.456	-0.069	0.100
-746.185	609.151	-0.132	-0.330
-745.171	-105.542	-0.176	0.040
-744.156	319.351	0.056	0.106
-743.142	-81.277	-0.544	0.179
-742.127	94.780	-0.418	0.476
-741.112	217.040	-0.144	0.229
-740.098	-151.457	-0.355	0.026
-739.083	37.722	0.181	0.161
-738.069	189.196	-0.032	-0.048
-737.054	-200.000	-0.008	0.183
-736.039	158.556	-0.088	-0.123
-735.025	-84.394	0.331	-0.105
-734.010	-126.596	0.079	0.012
-732.996	-72.235	-0.370	-0.137
-731.981	800.000	-0.034	0.114
-730.966	-1.190	0.057	-0.041
-729.952	186.841	-0.201	0.299
-728.937	-44.493	-0.089	0.045
-727.923	20.411	-0.033	0.027
-726.908	-83.730	-0.109	0.035
-725.894	-200.000	-0.038	0.264
-724.879	-200.000	-0.029	0.160
-723.864	79.694	0.231	-0.248
-722.850	-94.396	0.049	0.013
-721.835	-45.657	-0.277	-0.137
-720.821	109.700	-0.217	0.260
-719.806	-200.000	-0.001	-0.076
-718.791	-55.037	-0.310	-0.139
-717.777	-50.347	0.220	0.104
-716.762	45.204	0.055	-0.051
-715.748	800.000	0.052	-0.220
-714.733	-167.013	-0.292	0.012
-713.718	434.567	-0.041	-0.089
-712.704	117.664	0.051	0.062
-711.689	800.000	0.123	0.392
-710.675	800.000	0.090	-0.307
-709.660	800.000	0.060	-0.193
-708.645	800.000	-0.076	0.276
-707.631	58.763	-0.119	-0.116
-706.616	73.089	0.157	0.164
-705.602	660.538	0.077	-0.197
-704.587	800.000	-0.045	0.164
-703.572	47.308	-0.132	-0.122
-702.558	-17.145	0.118	-0.074
-701.543	-12.586	-0.215	-0.140
-700.529	42.021	-0.132	-0.120
-699.514	800.000	0.042	0.123
-698.499	800.000	-0.088	0.336
-697.485	179.869	-0.059	-0.087
-696.470	-81.995	-0.269	-0.088
-695.456	-93.875	-0.383	-0.105
-694.441	27.448	0.058	-0.048
-693.426	-200.000	0.014	0.159
-692.412	-72.770	0.190	-0.070
-691.397	-66.757	-0.182	-0.072
-690.383	-78.716	-0.297	-0.101
-689.368	-83.566	0.489	-0.156
-688.354	-127.582	0.099	-0.014
-687.339	-200.000	0.033	0.245
-686.324	104.024	-0.208	0.244
-685.310	-26.279	0.076	0.045
-684.295	95.174	-0.267	0.303
-683.281	-85.893	0.093	-0.029
-682.266	-200.000	-0.039	-0.251
-681.251	-55.356	-0.025	-0.011
-680.237	-154.331	-0.066	-0.004
-679.222	-26.613	0.044	0.026
-678.208	-23.974	0.319	0.190
-677.193	72.856	-0.230	-0.239
-676.178	800.000	0.069	0.291
-675.164	-135.436	0.180	0.021
-674.149	-126.201	-0.260	0.039
-673.135	38.245	-0.202	0.180
-672.120	-3.910	0.216	-0.149
-671.105	712.541	-0.160	-0.421
-670.091	-61.707	-0.170	-0.071
-669.076	-94.763	-0.174	-0.047
-668.062	-200.000	0.018	-0.110
-667.047	84.763	0.094	0.103
-666.032	77.704	0.206	-0.219
-665.018	705.522	-0.051	0.133
-664.003	99.292	-0.181	0.209
-662.989	800.000	-0.028	-0.088
-661.974	-172.566	-0.141	-0.004
-660.959	1.609	-0.234	-0.168
-659.945	33.346	-0.369	-0.319
-658.930	0.455	-0.103	-0.073
-657.916	55.657	0.113	-0.109
-656.901	-39.665	0.106	-0.055
-655.886	69.203	-0.133	-0.137
-654.872	-200.000	0.129	-0.600
-653.857	71.907	0.113	-0.117
-652.843	-121.526	-0.407	0.067
-651.828	40.394	0.116	-0.104
-650.814	-94.326	0.270	0.073
-649.799	193.632	-0.263	0.396
-648.784	-200.000	0.046	0.209
-647.770	-26.531	-0.052	0.030
-646.755	-13.335	-0.089	0.057
-645.741	197.131	-0.017	0.025
-644.726	-200.000	0.110	0.492
-643.711	115.449	-0.117	-0.143
-642.697	-130.985	-0.138	-0.018
-641.682	-166.380	-0.111	0.005
-640.668	-39.974	-0.126	-0.066
-639.653	-49.014	0.369	-0.176
-638.638	800.000	0.026	-0.091
-637.624	57.513	0.101	-0.098
-636.609	47.508	-0.077	-0.071
-635.595	-30.490	0.316	-0.178
-634.580	-20.750	-0.189	-0.115
-633.565	-71.674	-0.308	0.115
-632.551	-155.165	0.129	-0.008
-631.536	800.000	0.052	-0.216
-630.522	-164.172	0.276	-0.013
-629.507	-67.944	-0.107	-0.042
-628.492	-86.326	0.129	0.039
-627.478	80.839	-0.093	-0.100
-626.463	-200.000	-0.035	0.288
-625.449	-27.106	-0.112	-0.065
-624.434	-54.794	-0.311	0.140
-623.419	-200.000	0.033	0.286
-622.405	544.526	0.038	-0.090
-621.390	-77.632	-0.295	-0.102
-620.376	64.958	0.160	-0.160
-619.361	800.000	0.041	-0.169
-618.346	-83.425	-0.262	0.083
-617.332	-116.212	0.112	0.021
-616.317	-58.297	0.193	-0.084
-615.303	-89.705	-0.245	0.071
-614.288	-79.654	-0.180	-0.060
-613.273	51.905	0.179	0.170
-612.259	-57.751	-0.107	-0.046
-611.244	-55.605	-0.121	0.054
-610.230	176.593	-0.131	0.189
-609.215	-42.864	0.033	-0.016
-608.201	11.588	-0.087	-0.066
-607.186	118.123	0.013	-0.016
-606.171	800.000	-0.053	-0.175
-605.157	235.596	0.188	0.308
-604.142	33.501	0.200	0.173
-603.128	249.370	-0.134	-0.226
-602.113	800.000	0.049	-0.184
-601.098	-84.831	-0.129	-0.040
-600.084	3.773	0.059	0.043
-599.069	800.000	-0.066	0.252
-598.055	515.004	-0.142	-0.330
-597.040	4.477	0.179	-0.130
-596.025	99.028	0.193	0.221
-595.011	23.990	-0.140	0.115
-593.996	-200.000	-0.019	-0.217
-592.982	360.085	0.045	0.090
-591.967	-172.178	-0.323	0.010
-590.952	376.671	-0.130	-0.263
-589.938	-70.406	0.408	0.154
-588.923	193.585	-0.189	-0.285
-587.909	-19.834	-0.279	-0.171
-586.894	329.825	0.061	0.117
-585.879	-28.067	0.210	-0.121
-584.865	-45.690	0.024	-0.012
-583.850	466.930	-0.087	0.195
-582.836	6.041	0.185	-0.136
-581.821	-118.971	0.179	0.031
-580.806	-12.041	-0.276	0.179
-579.792	86.425	-0.225	-0.246
-578.777	291.668	-0.085	-0.153
-577.763	-77.419	-0.181	0.062
-576.748	-200.000	-0.044	-0.357
-575.733	-124.623	0.334	-0.051
-574.719	-14.334	-0.224	0.143
-573.704	-6.466	0.208	0.141
-572.690	588.632	0.078	-0.190
-571.675	-106.167	0.019	0.004
-570.661	-200.000	-0.062	-0.280
-569.646	596.469	0.117	-0.289
-568.631	508.499	0.162	-0.373
-567.617	-80.762	-0.300	0.099
-566.602	-127.125	-0.055	-0.008
-565.588	-200.000	-0.064	-0.462
-564.573	-200.000	-0.070	0.313
-563.558	-22.127	-0.167	-0.101
-562.544	800.000	-0.088	-0.245
-561.529	-200.000	-0.037	0.276
-560.515	-200.000	-0.018	-0.420
-559.500	93.859	0.186	-0.210
-558.485	800.000	-0.032	-0.105
-557.471	32.917	0.128	0.110
-556.456	-58.467	-0.194	0.084
-555.442	46.808	-0.241	-0.222
-554.427	714.702	-0.164	-0.430
-553.412	78.928	0.177	-0.188
-552.398	-37.348	-0.162	0.086
-551.383	-200.000	-0.040	-0.320
-550.369	-2.040	-0.145	0.101
-549.354	3.557	0.222	0.160
-548.339	800.000	0.065	-0.224
-547.325	-89.597	0.352	-0.103
-546.310	-51.413	-0.092	-0.043
-545.296	765.084	-0.093	0.251
-544.281	10.709	0.045	-0.034
-543.266	-200.000	-0.012	-0.228
-542.252	-125.935	0.085	-0.013
-541.237	800.000	-0.142	0.483
-540.223	-62.964	-0.273	0.112
-539.208	19.236	-0.381	0.303
-538.193	-200.000	-0.015	0.163
-537.179	-131.174	0.280	0.037
-536.164	-107.649	-0.124	0.027
-535.150	598.794	0.093	-0.229
-534.135	34.243	0.176	0.152
-533.121	-89.437	-0.248	-0.072
-532.106	10.043	-0.137	-0.103
-531.091	-200.000	-0.021	0.327
-530.077	-111.345	-0.070	0.014
-529.062	114.325	-0.303	0.366
-528.048	-49.852	0.352	-0.166
-527.033	211.759	0.078	-0.121
-526.018	245.094	0.085	-0.142
-525.004	-48.014	-0.088	0.042
-523.989	800.000	0.058	-0.172
-522.975	-200.000	-0.025	-0.113
-521.960	-200.000	-0.043	-0.248
-520.945	593.436	0.067	-0.165
-519.931	800.000	0.047	0.158
-518.916	134.004	0.167	-0.214
-517.902	-200.000	-0.074	-0.407
-516.887	-44.235	0.193	0.096
-515.872	-142.999	-0.221	-0.021
-514.858	-100.854	0.170	0.042
-513.843	41.413	-0.388	0.348
-512.829	179.289	0.072	0.104
-511.814	298.802	-0.115	-0.211
-510.799	-200.000	-0.039	-0.237
-509.785	445.163	-0.164	-0.356
-508.770	-200.000	0.017	-0.123
-507.756	35.346	-0.160	0.139
-506.741	800.000	0.046	0.170
-505.726	-153.141	0.426	0.030
-504.712	-10.648	-0.255	-0.167
-503.697	-75.044	-0.387	-0.137
-502.683	-103.627	-0.049	0.011
-501.668	707.401	0.045	0.119
-500.653	-161.218	0.410	-0.021
-499.639	-88.608	0.141	-0.042
-498.624	-62.985	-0.347	-0.142
-497.610	-85.867	0.320	0.098
-496.595	231.526	-0.015	0.025
-495.581	154.974	0.038	0.052
-494.566	-81.743	-0.145	-0.047
-493.551	151.508	0.045	0.060
-492.537	250.087	0.074	-0.125
-491.522	-200.000	0.013	0.194
-490.508	-107.883	-0.215	0.046
-489.493	-200.000	0.043	-0.191
-488.478	67.726	0.130	-0.131
-487.464	134.656	-0.066	-0.085
-486.449	-53.056	-0.188	-0.085
-485.435	-155.764	-0.249	0.016
-484.420	419.607	-0.023	-0.048
-483.405	533.035	0.100	0.235
-482.391	182.594	0.178	-0.260
-481.376	-194.215	0.188	0.002
-480.362	-97.242	-0.053	0.014
-479.347	800.000	-0.095	0.329
-478.332	201.651	0.087	-0.133
-477.318	-200.000	0.007	0.291
-476.303	-18.723	-0.126	0.078
-475.289	-150.996	-0.067	-0.005
-474.274	-64.436	0.224	0.090
-473.259	-106.099	0.192	0.043
-472.245	273.305	-0.055	-0.096
-471.230	73.228	0.166	-0.171
-470.216	242.852	0.017	-0.029
-469.201	67.514	-0.098	0.099
-468.186	-97.396	-0.429	-0.111
-467.172	-21.218	0.059	-0.036
-466.157	-91.640	-0.092	0.026
-465.143	-15.455	0.131	0.083
-464.128	606.238	0.145	0.357
-463.113	41.515	0.224	-0.201
-462.099	202.503	-0.236	-0.360
-461.084	81.906	-0.140	-0.150
-460.070	-69.317	0.276	0.105
-459.055	-200.000	-0.018	0.397
-458.040	800.000	0.050	-0.145
-457.026	-200.000	0.026	-0.335
-456.011	389.204	0.046	-0.094
-454.997	800.000	-0.028	0.117
-453.982	62.145	-0.108	-0.107
-452.968	449.126	-0.007	-0.015
-451.953	214.601	0.116	-0.182
-450.938	-119.831	0.178	-0.030
-449.924	20.568	-0.152	-0.122
-448.909	-97.114	-0.103	-0.027
-447.895	-55.937	0.503	-0.222
-446.880	-84.056	-0.302	-0.095
-445.865	354.884	0.077	-0.152
-444.851	-46.854	-0.169	-0.081
-443.836	239.560	-0.098	0.161
-442.822	800.000	-0.057	-0.209
-441.807	184.741	0.092	0.135
-440.792	-101.910	-0.118	0.028
-439.778	-200.000	0.000	-0.004
-438.763	104.198	0.041	0.048
-437.749	-200.000	-0.011	0.072
-436.734	-200.000	0.039	0.349
-435.719	289.409	-0.128	-0.229
-434.705	459.457	-0.128	-0.282
-433.690	210.699	-0.039	0.061
-432.676	-35.279	-0.226	0.122
-431.661	-165.736	0.297	-0.013
-430.646	195.843	-0.086	-0.130
-429.632	21.334	0.158	0.127
-428.617	71.483	-0.156	0.160
-427.603	-75.670	0.454	-0.159
-426.588	442.578	0.139	0.301
-425.573	-200.000	0.041	-0.210
-424.559	-19.221	0.267	0.164
-423.544	-79.223	0.062	-0.021
-422.530	33.109	-0.270	0.231
-421.515	-20.756	-0.328	0.199
-420.500	31.753	-0.169	-0.143
-419.486	-200.000	0.008	0.116
-418.471	-91.017	-0.460	-0.130
-417.457	-200.000	-0.001	-0.049
-416.442	175.635	-0.101	0.145
-415.428	800.000	0.014	-0.049
-414.413	192.485	0.111	-0.165
-413.398	290.011	0.081	-0.146
-412.384	401.772	-0.186	-0.386
-411.369	800.000	0.043	-0.145
-410.355	178.985	0.078	0.113
-409.340	-200.000	-0.020	-0.101
-408.325	-113.384	0.173	0.033
-407.311	342.382	0.022	0.042
-406.296	310.713	-0.078	-0.144
-405.282	-200.000	0.022	-0.145
-404.267	-200.000	-0.038	0.332
-403.252	-46.070	0.214	0.104
-402.238	-200.000	-0.058	-0.289
-401.223	-33.703	-0.063	0.034
-400.209	800.000	-0.082	0.224
-399.194	-200.000	0.048	-0.310
-398.179	-187.274	-0.336	0.004
-397.165	-135.267	0.193	0.023
-396.150	800.000	0.037	0.114
-395.136	-15.393	0.228	-0.144
-394.121	800.000	0.029	-0.104
-393.106	-56.948	-0.261	-0.114
-392.092	-100.805	0.303	0.074
-391.077	800.000	-0.028	0.077
-390.063	-128.931	0.220	-0.030
-389.048	483.549	-0.094	0.211
-388.033	-13.525	0.154	-0.098
-387.019	-74.102	0.245	0.087
-386.004	-170.796	-0.393	-0.013
-384.990	-18.148	0.169	-0.104
-383.975	29.677	-0.161	0.135
-382.960	800.000	-0.054	0.210
-381.946	-17.275	0.124	-0.077
-380.931	-122.685	0.255	0.041
-379.917	-15.655	0.206	0.129
-378.902	-171.876	0.154	-0.005
-377.888	-178.348	0.089	-0.002
-376.873	32.273	-0.182	0.155
-375.858	-17.485	0.160	0.099
-374.844	-39.693	0.163	0.084
-373.829	-88.515	0.141	-0.042
-372.815	593.845	-0.111	0.271
-371.800	488.833	0.012	0.026
-370.785	-46.223	-0.070	0.034
-369.771	-74.912	0.194	-0.069
-368.756	-51.570	-0.086	0.039
-367.742	84.423	-0.145	0.156
-366.727	-200.000	-0.025	0.189
-365.712	344.184	-0.132	-0.256
-364.698	-170.700	0.181	-0.006
-363.683	-35.699	0.138	-0.074
-362.669	375.436	-0.076	-0.152
-361.654	-6.626	0.255	0.171
-360.639	80.137	-0.195	-0.206
-359.625	800.000	0.068	-0.200
-358.610	-200.000	0.008	0.318
-357.596	-200.000	-0.051	0.227
-356.581	25.025	-0.071	-0.058
-355.566	-111.578	-0.110	-0.022
-354.552	800.000	0.055	0.178
-353.537	-200.000	0.060	-0.365
-352.523	-48.705	-0.141	0.066
-351.508	207.267	0.197	0.303
-350.493	-39.874	0.247	0.127
-349.479	-142.921	-0.361	0.034
-348.464	-200.000	-0.048	0.233
-347.450	-82.706	0.143	0.045
-346.435	256.325	-0.071	0.119
-345.420	-200.000	0.037	0.177
-344.406	156.042	0.274	-0.372
-343.391	149.023	0.104	0.139
-342.377	270.099	-0.113	0.195
-341.362	-12.390	-0.173	0.111
-340.348	122.147	0.292	0.358
-339.333	302.414	-0.156	-0.284
-338.318	57.631	0.131	0.126
-337.304	12.810	0.314	0.238
-336.289	47.478	-0.203	-0.186
-335.275	-125.504	0.277	-0.041
-334.260	-200.000	-0.029	-0.196
-333.245	800.000	-0.053	-0.197
-332.231	237.613	-0.124	-0.202
-331.216	-200.000	-0.075	0.372
-330.202	8.455	-0.113	0.084
-329.187	22.406	-0.238	-0.191
-328.172	2.118	-0.076	-0.054
-327.158	170.948	0.329	0.464
-326.143	-200.000	0.010	0.279
-325.129	800.000	0.106	-0.448
-324.114	162.635	0.125	-0.173
-323.099	393.531	-0.044	0.089
-322.085	42.822	0.108	-0.097
-321.070	-61.520	-0.242	-0.100
-320.056	18.475	0.229	-0.180
-319.041	437.077	-0.106	0.228
-318.026	-19.967	0.134	-0.081
-317.012	272.014	-0.034	-0.059
-315.997	42.888	-0.072	-0.064
-314.983	800.000	0.128	0.359
-313.968	-33.955	-0.229	0.124
-312.953	44.600	-0.144	0.130
-311.939	-20.507	-0.142	-0.086
-310.924	28.641	0.031	-0.026
-309.910	16.129	-0.275	0.213
-308.895	760.888	-0.160	0.427
-307.880	-10.453	-0.415	-0.270
-306.866	-89.369	0.150	0.044
-305.851	485.404	0.048	0.107
-304.837	-200.000	0.023	0.194
-303.822	-106.471	-0.216	-0.047
-302.807	55.285	0.118	-0.112
-301.793	-47.630	-0.314	-0.150
-300.778	274.443	0.025	0.044
-299.764	14.194	0.211	0.161
-298.749	253.394	0.160	0.269
-297.735	47.118	-0.222	0.203
-296.720	36.767	-0.459	0.398
-295.705	800.000	0.065	0.181
-294.691	800.000	0.153	-0.451
-293.676	-52.670	-0.326	-0.148
-292.662	-42.843	-0.089	-0.044
-291.647	506.779	0.114	0.259
-290.632	-200.000	-0.001	-0.103
-289.618	221.859	0.063	-0.099
-288.603	2.739	0.159	-0.113
-287.589	-138.024	0.188	-0.021
-286.574	-177.657	0.042	-0.001
-285.559	-200.000	0.005	0.023
-284.545	51.763	0.095	0.089
-283.530	-200.000	0.037	0.280
-282.516	302.429	-0.162	0.294
-281.501	115.517	-0.090	-0.108
-280.486	-23.924	0.201	-0.118
-279.472	101.701	-0.166	0.190
-278.457	244.262	-0.175	0.288
-277.443	-200.000	-0.018	-0.115
-276.428	74.968	0.074	0.077
-275.413	800.000	0.048	-0.134
-274.399	2.594	0.270	-0.192
-273.384	800.000	0.048	-0.156
-272.370	-108.406	0.012	-0.002
-271.355	607.841	0.076	-0.186
-270.340	719.009	-0.006	-0.016
-269.326	401.189	0.026	-0.055
-268.311	328.643	0.143	-0.270
-267.297	204.960	0.130	0.198
-266.282	-37.645	0.297	-0.155
-265.267	-200.000	-0.006	0.144
-264.253	-200.000	0.071	-0.399
-263.238	125.282	-0.108	0.133
-262.224	-117.786	-0.247	-0.043
-261.209	-200.000	0.049	0.230
-260.195	800.000	-0.087	-0.240
-259.180	459.363	-0.037	-0.082
-258.165	-31.671	-0.237	0.131
-257.151	72.348	-0.141	0.144
-256.136	94.076	0.319	-0.355
-255.122	-79.640	-0.250	0.083
-254.107	-200.000	0.008	0.073
-253.092	800.000	0.056	-0.193
-252.078	-51.149	-0.225	0.103
-251.063	-109.839	-0.124	-0.025
-250.049	-200.000	0.024	0.326
-249.034	-55.555	0.419	-0.184
-248.019	-92.974	0.061	0.017
-247.005	505.139	-0.047	0.107
-245.990	-11.165	-0.397	0.256
-244.976	-74.239	0.105	-0.037
-243.961	54.047	-0.106	-0.100
-242.946	-200.000	0.040	-0.211
-241.932	178.632	0.123	-0.176
-240.917	800.000	-0.069	0.255
-239.903	-0.224	-0.198	0.138
-238.888	-200.000	0.023	0.183
-237.873	-62.082	0.229	0.094
-236.859	-114.920	-0.276	-0.052
-235.844	273.747	0.214	0.371
-234.830	-111.878	0.107	0.021
-233.815	-110.426	0.133	-0.027
-232.800	44.561	-0.279	0.252
-231.786	-75.480	0.334	0.116
-230.771	193.763	-0.063	-0.094
-229.757	408.674	-0.179	0.372
-228.742	-150.555	0.147	-0.011
-227.727	-179.019	0.234	-0.005
-226.713	-148.043	0.408	-0.033
-225.698	-117.051	-0.108	0.019
-224.684	-200.000	-0.059	-0.283
-223.669	268.734	-0.089	-0.152
-222.655	-39.141	0.019	0.010
-221.640	-35.674	-0.234	-0.124
-220.625	-131.966	0.079	0.010
-219.611	97.103	0.167	0.188
-218.596	-49.218	-0.442	0.207
-217.582	-84.752	-0.313	-0.096
-216.567	-174.557	-0.210	0.006
-215.552	356.373	0.107	0.208
-214.538	104.685	-0.203	-0.235
-213.523	-137.983	0.668	0.073
-212.509	82.953	-0.098	0.105
-211.494	-157.502	-0.192	-0.011
-210.479	800.000	0.075	-0.206
-209.465	-80.873	0.230	0.075
-208.450	51.153	-0.119	-0.111
-207.436	-75.024	0.441	-0.155
-206.421	-22.561	-0.195	-0.116
-205.406	-200.000	0.026	0.117
-204.392	-66.295	-0.086	-0.033
-203.377	12.433	-0.135	0.102
-202.363	532.167	-0.065	0.149
-201.348	-135.976	0.265	0.030
-200.333	-200.000	0.007	0.068
-199.319	170.765	0.053	-0.074
-198.304	-105.411	0.219	0.049
-197.290	-2.735	-0.406	0.278
-196.275	-163.758	-0.244	0.011
-195.260	-151.303	-0.102	0.007
-194.246	-200.000	0.055	0.469
-193.231	90.048	0.227	0.248
-192.217	-95.367	0.263	-0.069
-191.202	-13.347	-0.107	-0.068
-190.187	-117.120	0.071	0.013
-189.173	220.826	-0.178	0.280
-188.158	-200.000	-0.042	0.212
-187.144	66.296	0.231	0.230
-186.129	-200.000	0.024	-0.290
-185.114	369.265	-0.157	-0.311
-184.100	205.703	0.215	0.327
-183.085	800.000	-0.123	-0.433
-182.071	-69.806	0.118	0.044
-181.056	-200.000	-0.016	0.087
-180.042	303.268	-0.133	-0.241
-179.027	-82.780	0.371	-0.117
-178.012	-200.000	0.016	-0.247
-176.998	370.879	-0.070	0.140
-175.983	541.739	0.156	0.363
-174.969	-18.831	0.150	0.091
-173.954	431.249	-0.057	-0.120
-172.939	-143.111	0.159	0.015
-171.925	462.576	-0.079	0.171
-170.910	-200.000	0.011	0.062
-169.896	-7.235	0.187	0.124
-168.881	210.671	0.134	-0.206
-167.866	-1.044	-0.155	0.107
-166.852	62.156	0.128	-0.125
-165.837	417.862	-0.058	0.120
-164.823	16.262	0.151	-0.116
-163.808	-145.838	-0.215	0.019
-162.793	-63.016	0.260	0.105
-161.779	-27.712	-0.103	0.058
-160.764	-42.957	0.360	-0.178
-159.750	39.657	0.163	0.143
-158.735	27.796	-0.182	-0.150
-157.720	-166.035	0.441	0.018
-156.706	-48.847	-0.118	-0.056
-155.691	-200.000	0.044	-0.207
-154.677	-95.511	0.277	0.072
-153.662	101.743	-0.114	0.130
-152.647	-200.000	0.059	-0.273
-151.633	-69.433	0.156	0.059
-150.618	800.000	-0.062	0.194
-149.604	30.345	0.313	-0.261
-148.589	800.000	-0.083	-0.313
-147.574	-40.347	0.151	0.077
-146.560	-200.000	0.027	0.125
-145.545	-125.931	-0.109	0.016
-144.531	60.840	-0.174	-0.169
-143.516	45.568	0.306	-0.276
-142.502	689.566	0.118	0.302
-141.487	-127.583	0.177	0.025
-140.472	64.239	-0.056	0.055
-139.458	-108.923	0.143	0.030
-138.443	800.000	0.064	-0.192
-137.429	-133.483	0.339	-0.041
-136.414	-200.000	-0.080	0.428
-135.399	800.000	-0.018	-0.055
-134.385	800.000	0.088	-0.257
-133.370	266.637	-0.083	0.142
-132.356	800.000	-0.136	0.417
-131.341	137.258	0.158	0.202
-130.326	800.000	-0.041	0.148
-129.312	13.054	-0.329	-0.248
-128.297	21.386	-0.287	0.228
-127.283	56.301	0.123	0.116
-126.268	190.735	0.145	-0.213
-125.253	58.513	-0.124	-0.119
-124.239	-22.862	-0.252	-0.149
-123.224	-200.000	-0.004	-0.144
-122.210	-103.439	0.187	0.043
-121.195	800.000	-0.101	0.354
