DTS Sentinel unit serial number:	SN413079Multiplexer serial number:	ORYXHardware model number:	OX4-SRSoftware version number:	ORYX F/W v4.00 Oryx Data Collector v3.7.2.0data status	okinstallation	princeton_trtdifferential loss correction	single-endedforward channel	channel 2reverse channel	N/Adate	2019/09/13time	13:07:35forward acquisition time	60.00reverse acquisition time	0.00gamma	496.2192k internal	0.2314k external	0.2314temperature offset calibration	1.0209default loss term (dB/km)	0.3790temperature slope calibration	1.0000multiplexer offset coefficient	1.0000multiplexer slope coefficient	1.0000fibre end	0.00T internal ref (°C)	34.81T ext. ref 1 (°C)	4.57T ext. ref 2 (°C)	31.44length (m)	temperature (°C)	Stokes	anti-Stokes-747.200	74.922	-0.124	0.132
-746.185	150.239	-0.228	0.314
-745.171	1.426	-0.223	0.162
-744.156	800.000	0.071	0.279
-743.142	-87.924	-0.113	0.034
-742.127	-200.000	-0.070	0.338
-741.112	-52.540	-0.194	-0.091
-740.098	-95.085	0.253	0.069
-739.083	-28.594	-0.295	-0.172
-738.069	787.656	0.107	0.297
-737.054	15.116	0.223	0.177
-736.039	11.957	-0.187	0.145
-735.025	-163.334	0.164	0.008
-734.010	-200.000	-0.019	-0.171
-732.996	-81.499	0.269	-0.090
-731.981	596.789	-0.059	0.147
-730.966	524.128	0.116	0.277
-729.952	800.000	0.076	-0.231
-728.937	-121.813	-0.327	0.055
-727.923	-200.000	0.010	-0.125
-726.908	-200.000	-0.058	0.398
-725.894	183.927	-0.093	-0.139
-724.879	41.751	0.129	-0.119
-723.864	441.555	-0.178	0.395
-722.850	-200.000	0.006	-0.292
-721.835	105.135	0.121	-0.144
-720.821	800.000	0.062	-0.261
-719.806	-200.000	0.010	-0.350
-718.791	-200.000	-0.027	-0.260
-717.777	-98.231	-0.399	-0.104
-716.762	800.000	0.021	-0.081
-715.748	-29.515	-0.157	0.091
-714.733	-40.242	-0.388	0.204
-713.718	141.944	0.100	0.135
-712.704	661.016	-0.103	-0.268
-711.689	-79.746	-0.356	-0.121
-710.675	611.114	0.073	-0.185
-709.660	241.501	-0.081	0.138
-708.645	-200.000	0.033	0.269
-707.631	-200.000	-0.022	0.104
-706.616	298.093	-0.182	0.338
-705.602	-29.495	-0.049	-0.028
-704.587	800.000	-0.059	-0.193
-703.572	-141.952	0.153	0.015
-702.558	-21.250	-0.362	0.224
-701.543	30.679	0.336	0.291
-700.529	263.873	-0.111	-0.196
-699.514	-51.300	0.232	0.110
-698.499	352.514	0.059	0.119
-697.485	-100.581	-0.047	-0.012
-696.470	-106.390	-0.068	0.015
-695.456	-98.689	-0.278	-0.072
-694.441	800.000	-0.080	-0.229
-693.426	-200.000	-0.031	-0.233
-692.412	-200.000	-0.152	0.000
-691.397	116.173	0.438	0.543
-690.383	-146.544	0.181	0.016
-689.368	-160.985	0.073	-0.004
-688.354	-152.782	-0.164	0.012
-687.339	75.813	0.206	-0.220
-686.324	-60.797	0.167	0.071
-685.310	-142.054	0.245	0.025
-684.295	800.000	0.031	-0.089
-683.281	-72.834	-0.122	0.046
-682.266	-14.544	-0.115	-0.075
-681.251	-54.006	0.179	0.082
-680.237	205.992	0.072	-0.113
-679.222	800.000	0.024	-0.086
-678.208	565.425	-0.089	0.218
-677.193	412.035	-0.081	0.175
-676.178	187.325	-0.300	0.452
-675.164	-168.245	-0.285	-0.011
-674.149	174.385	0.110	0.161
-673.135	51.439	0.084	0.081
-672.120	-200.000	-0.006	-0.085
-671.105	-200.000	-0.003	0.075
-670.091	358.981	0.020	-0.040
-669.076	-85.970	-0.058	-0.018
-668.062	-200.000	-0.006	-0.153
-667.047	-200.000	0.017	0.293
-666.032	-95.903	0.210	0.056
-665.018	13.123	-0.062	-0.048
-664.003	-200.000	-0.076	0.557
-662.989	625.177	-0.070	0.178
-661.974	582.074	0.050	-0.124
-660.959	-80.032	-0.139	0.047
-659.945	45.870	-0.221	0.207
-658.930	-200.000	-0.029	0.142
-657.916	-200.000	0.025	-0.123
-656.901	-200.000	-0.008	0.167
-655.886	285.868	-0.129	0.235
-654.872	-71.192	0.042	0.016
-653.857	-200.000	-0.007	-0.087
-652.843	-80.554	-0.261	-0.088
-651.828	157.701	0.134	0.188
-650.814	-73.560	-0.023	0.008
-649.799	-110.561	-0.200	0.042
-648.784	83.631	-0.238	0.262
-647.770	-175.455	-0.429	-0.012
-646.755	-0.774	-0.274	0.196
-645.741	-113.253	-0.027	0.005
-644.726	84.538	0.041	-0.045
-643.711	12.372	-0.267	0.208
-642.697	422.744	-0.103	-0.224
-641.682	219.771	0.135	-0.219
-640.668	665.727	-0.030	-0.078
-639.653	-88.535	-0.075	-0.023
-638.638	403.825	-0.120	0.256
-637.624	-180.575	-0.119	-0.002
-636.609	-200.000	0.012	-0.363
-635.595	333.042	0.083	0.162
-634.580	-139.785	0.287	-0.031
-633.565	222.619	-0.219	-0.356
-632.551	-10.438	-0.211	-0.141
-631.536	-137.029	-0.155	-0.018
-630.522	-0.742	-0.233	-0.167
-629.507	-125.351	-0.039	-0.006
-628.492	155.404	0.209	-0.290
-627.478	-200.000	-0.004	-0.107
-626.463	800.000	0.005	0.015
-625.449	92.324	-0.099	-0.113
-624.434	175.495	-0.083	-0.121
-623.419	-187.223	-0.202	-0.003
-622.405	-35.425	0.256	-0.140
-621.390	-200.000	-0.033	-0.289
-620.376	220.202	-0.035	-0.057
-619.361	-65.079	0.433	-0.176
-618.346	-96.198	-0.375	-0.100
-617.332	-161.885	-0.321	-0.016
-616.317	-134.696	0.138	-0.017
-615.303	176.246	-0.065	-0.095
-614.288	800.000	-0.133	0.501
-613.273	-200.000	0.036	-0.234
-612.259	186.748	-0.051	-0.077
-611.244	-4.021	-0.038	-0.027
-610.230	-200.000	0.035	0.362
-609.215	-114.205	-0.212	-0.041
-608.201	454.888	-0.094	-0.211
-607.186	248.038	0.146	-0.249
-606.171	-87.186	0.345	0.106
-605.157	-200.000	-0.039	0.380
-604.142	27.127	-0.160	-0.135
-603.128	-200.000	0.008	-0.096
-602.113	68.399	-0.146	-0.151
-601.098	-33.604	0.354	-0.197
-600.084	-151.175	-0.122	-0.009
-599.069	-3.515	0.227	-0.159
-598.055	-200.000	-0.004	-0.147
-597.040	526.493	-0.047	0.112
-596.025	66.205	-0.125	-0.128
-595.011	-200.000	-0.028	0.129
-593.996	-27.974	0.310	-0.181
-592.982	799.970	-0.020	0.056
-591.967	800.000	-0.030	-0.111
-590.952	29.552	0.349	-0.299
-589.938	-109.514	0.037	0.008
-588.923	108.158	-0.129	-0.155
-587.909	-148.099	-0.294	-0.025
-586.894	231.494	0.029	-0.048
-585.879	-200.000	-0.010	-0.046
-584.865	800.000	0.041	-0.119
-583.850	160.770	-0.145	0.203
-582.836	510.645	0.045	0.105
-581.821	-54.541	-0.057	0.026
-580.806	274.925	0.152	-0.271
-579.792	-109.315	0.134	0.029
-578.777	-93.975	-0.381	0.105
-577.763	204.597	-0.100	-0.157
-576.748	-128.036	0.130	-0.019
-575.733	-200.000	-0.036	-0.228
-574.719	-180.815	0.082	0.002
-573.704	800.000	-0.018	0.053
-572.690	-200.000	-0.016	0.272
-571.675	33.930	-0.091	-0.080
-570.661	-200.000	-0.034	-0.367
-569.646	800.000	-0.087	-0.325
-568.631	138.356	0.130	0.172
-567.617	-200.000	-0.032	-0.279
-566.602	-155.625	0.146	-0.009
-565.588	0.845	-0.160	0.115
-564.573	12.632	0.197	-0.153
-563.558	800.000	0.078	0.220
-562.544	134.669	-0.249	0.326
-561.529	-68.126	-0.126	0.050
-560.515	-177.184	0.233	0.006
-559.500	-111.534	-0.149	-0.030
-558.485	124.791	0.081	-0.103
-557.471	-146.603	0.136	-0.012
-556.456	-43.558	0.226	0.115
-555.442	-200.000	0.030	-0.217
-554.427	32.036	-0.072	0.063
-553.412	24.807	0.221	-0.184
-552.398	48.929	0.070	-0.066
-551.383	800.000	0.052	-0.208
-550.369	-200.000	-0.010	0.133
-549.354	-200.000	-0.024	0.273
-548.339	38.570	0.270	-0.243
-547.325	150.908	0.169	-0.231
-546.310	-64.559	-0.183	-0.075
-545.296	-200.000	0.003	-0.080
-544.281	296.049	-0.015	-0.028
-543.266	-99.547	-0.147	-0.037
-542.252	-102.360	0.258	0.062
-541.237	-167.188	0.418	0.017
-540.223	-158.643	0.043	-0.002
-539.208	323.886	0.124	-0.238
-538.193	-200.000	-0.010	-0.173
-537.179	-200.000	0.009	0.202
-536.164	230.089	-0.158	-0.259
-535.150	-200.000	0.024	0.185
-534.135	800.000	0.050	-0.205
-533.121	162.322	-0.125	0.176
-532.106	-97.096	-0.145	0.038
-531.091	-71.254	-0.217	0.082
-530.077	-19.973	0.397	0.246
-529.062	-111.209	-0.382	0.079
-528.048	-110.829	-0.410	-0.085
-527.033	18.056	-0.086	0.069
-526.018	191.900	-0.140	-0.213
-525.004	-200.000	-0.457	-0.002
-523.989	800.000	-0.082	0.250
-522.975	117.461	-0.034	0.042
-521.960	-43.347	0.222	-0.113
-520.945	324.179	-0.171	-0.329
-519.931	148.477	0.094	0.128
-518.916	-200.000	0.012	0.207
-517.902	102.716	-0.071	-0.083
-516.887	-13.834	-0.118	0.076
-515.872	800.000	-0.107	-0.311
-514.858	-40.335	-0.123	0.064
-513.843	227.156	0.078	0.128
-512.829	800.000	0.056	-0.184
-511.814	29.370	-0.247	-0.210
-510.799	-200.000	-0.078	-0.397
-509.785	-200.000	-0.015	-0.154
-508.770	-21.781	-0.181	0.111
-507.756	42.091	0.277	0.253
-506.741	-11.812	-0.165	0.109
-505.726	-200.000	-0.009	-0.057
-504.712	51.794	-0.035	-0.033
-503.697	-200.000	-0.033	0.392
-502.683	800.000	0.115	0.382
-501.668	178.589	-0.143	0.210
-500.653	48.007	-0.293	0.275
-499.639	36.683	-0.364	0.323
-498.624	-200.000	0.032	0.148
-497.610	-87.629	0.072	0.022
-496.595	217.973	-0.044	0.071
-495.581	-50.517	-0.262	-0.124
-494.566	-200.000	-0.008	0.080
-493.551	-50.479	0.109	-0.052
-492.537	-85.793	0.261	-0.081
-491.522	-169.679	-0.186	-0.007
-490.508	208.152	-0.034	-0.053
-489.493	152.450	-0.067	-0.092
-488.478	-97.990	-0.404	-0.105
-487.464	239.400	0.029	-0.048
-486.449	-171.691	-0.068	-0.002
-485.435	256.399	0.202	0.348
-484.420	-23.452	0.110	-0.066
-483.405	800.000	0.017	0.055
-482.391	800.000	0.007	-0.025
-481.376	-200.000	-0.016	-0.121
-480.362	-131.763	0.234	0.031
-479.347	235.071	-0.081	-0.134
-478.332	109.060	0.218	-0.262
-477.318	-151.723	-0.145	0.011
-476.303	337.240	-0.097	-0.189
-475.289	800.000	0.062	0.194
-474.274	247.552	0.147	0.249
-473.259	800.000	0.047	0.132
-472.245	-53.409	0.287	-0.132
-471.230	8.281	-0.193	-0.145
-470.216	132.284	-0.106	0.137
-469.201	-86.475	-0.027	-0.008
-468.186	-37.349	-0.153	-0.082
-467.172	800.000	-0.024	-0.074
-466.157	460.177	0.054	-0.121
-465.143	800.000	0.033	-0.140
-464.128	-69.539	-0.266	-0.102
-463.113	-187.336	-0.303	-0.004
-462.099	-85.112	0.326	-0.102
-461.084	1.240	-0.092	-0.066
-460.070	-60.135	0.193	0.083
-459.055	17.158	0.152	-0.120
-458.040	113.038	0.234	0.284
-457.026	248.772	0.040	-0.069
-456.011	191.970	0.115	-0.174
-454.997	800.000	0.024	-0.069
-453.982	23.052	0.116	-0.096
-452.968	-63.715	0.191	-0.078
-451.953	-200.000	-0.018	-0.136
-450.938	137.050	-0.067	0.087
-449.924	-156.234	-0.168	-0.011
-448.909	287.197	-0.097	0.176
-447.895	83.573	-0.264	-0.289
-446.880	408.432	-0.222	0.471
-445.865	-112.199	-0.238	-0.048
-444.851	17.937	-0.389	0.310
-443.836	378.174	0.015	0.032
-442.822	-200.000	-0.069	-0.306
-441.807	16.315	-0.058	-0.046
-440.792	-182.714	-0.332	-0.006
-439.778	-118.200	0.024	-0.004
-438.763	262.822	0.081	-0.141
-437.749	-29.906	-0.196	-0.112
-436.734	147.148	-0.042	0.057
-435.719	490.057	0.018	0.042
-434.705	67.829	-0.152	0.155
-433.690	-85.766	0.180	0.056
-432.676	89.424	0.136	0.151
-431.661	-33.765	-0.311	0.172
-430.646	36.280	-0.101	0.089
-429.632	91.278	-0.010	-0.011
-428.617	-111.937	0.254	-0.051
-427.603	-60.565	0.274	-0.117
-426.588	-200.000	-0.003	-0.047
-425.573	-15.391	0.242	-0.155
-424.559	6.138	-0.115	0.086
-423.544	-200.000	-0.050	-0.413
-422.530	12.072	-0.116	0.089
-421.515	6.497	0.045	0.034
-420.500	550.100	-0.058	-0.139
-419.486	-90.335	0.059	-0.017
-418.471	141.186	-0.283	0.375
-417.457	-24.123	0.127	-0.076
-416.442	-200.000	-0.004	0.077
-415.428	-63.618	-0.239	-0.098
-414.413	-27.126	-0.050	0.029
-413.398	-3.173	0.186	-0.130
-412.384	-37.711	0.192	0.102
-411.369	-200.000	-0.017	0.146
-410.355	-162.398	-0.130	-0.006
-409.340	-200.000	-0.007	0.036
-408.325	-10.732	0.215	-0.142
-407.311	452.120	-0.041	-0.091
-406.296	-68.970	0.125	-0.048
-405.282	800.000	0.101	-0.359
-404.267	-30.096	-0.055	-0.031
-403.252	68.310	-0.236	0.241
-402.238	-200.000	-0.022	-0.394
-401.223	86.408	-0.166	0.183
-400.209	-150.624	-0.269	0.021
-399.194	-154.252	0.220	-0.015
-398.179	-69.806	0.298	-0.114
-397.165	44.185	-0.023	0.021
-396.150	-57.979	-0.113	0.049
-395.136	503.822	0.138	0.319
-394.121	747.257	0.023	-0.063
-393.106	-16.323	-0.320	-0.203
-392.092	800.000	-0.069	0.268
-391.077	106.598	0.258	0.305
-390.063	-150.507	0.505	-0.039
-389.048	-69.688	-0.185	0.071
-388.033	38.372	-0.118	0.105
-387.019	72.122	0.192	0.200
-386.004	286.782	0.171	0.309
-384.990	-70.749	0.249	0.094
-383.975	-22.590	0.175	0.106
-382.960	798.979	0.098	0.269
-381.946	-200.000	-0.061	-0.313
-380.931	-60.559	-0.226	0.096
-379.917	800.000	0.058	-0.241
-378.902	210.117	-0.026	0.041
-377.888	185.061	-0.086	0.127
-376.873	-200.000	0.011	0.195
-375.858	-200.000	0.013	0.154
-374.844	-19.285	-0.108	0.067
-373.829	-81.911	0.290	-0.095
-372.815	385.466	0.077	-0.159
-371.800	-65.806	-0.314	0.125
-370.785	-158.993	0.272	0.015
-369.771	-155.404	-0.187	-0.012
-368.756	-54.312	-0.517	-0.234
-367.742	97.557	-0.236	-0.271
-366.727	158.891	-0.039	0.054
-365.712	-35.325	0.367	0.200
-364.698	260.189	-0.050	-0.087
-363.683	-66.256	-0.181	-0.072
-362.669	-130.263	0.097	0.013
-361.654	88.136	-0.042	-0.047
-360.639	-200.000	0.013	-0.242
-359.625	747.038	-0.087	0.235
-358.610	-116.305	0.160	0.030
-357.596	104.214	-0.053	-0.063
-356.581	-58.270	-0.228	0.099
-355.566	-200.000	0.003	0.103
-354.552	70.547	0.222	0.229
-353.537	43.995	-0.187	-0.171
-352.523	177.423	0.132	-0.192
-351.508	-200.000	0.024	0.363
-350.493	66.274	0.052	-0.053
-349.479	78.412	0.055	0.058
-348.464	-36.406	0.093	0.050
-347.450	-126.218	-0.202	-0.030
-346.435	-200.000	0.007	0.164
-345.420	-37.484	0.152	-0.081
-344.406	21.021	-0.232	-0.188
-343.391	-80.157	-0.216	-0.072
-342.377	-14.961	0.352	-0.225
-341.362	-61.751	0.258	0.108
-340.348	-55.701	-0.116	-0.052
-339.333	-58.441	0.303	-0.131
-338.318	-71.636	0.116	0.043
-337.304	100.510	-0.084	-0.097
-336.289	800.000	0.062	-0.208
-335.275	-10.708	0.303	0.200
-334.260	-157.213	-0.385	0.023
-333.245	-200.000	0.011	0.108
-332.231	-3.698	-0.106	-0.073
-331.216	156.617	0.138	0.190
-330.202	165.603	-0.168	-0.238
-329.187	233.719	0.194	-0.319
-328.172	800.000	0.072	-0.231
-327.158	800.000	0.080	0.246
-326.143	147.825	-0.108	-0.145
-325.129	-156.101	-0.260	0.016
-324.114	-41.578	0.273	0.140
-323.099	118.583	-0.201	-0.247
-322.085	800.000	0.132	0.424
-321.070	-93.590	-0.217	0.060
-320.056	-96.569	0.221	0.058
-319.041	-72.116	0.209	0.077
-318.026	255.916	0.116	0.198
-317.012	101.555	-0.102	-0.118
-315.997	-150.129	-0.303	0.023
-314.983	-47.128	0.159	-0.077
-313.968	226.839	-0.073	0.118
-312.953	-200.000	-0.055	0.242
-311.939	-173.790	-0.215	0.006
-310.924	800.000	-0.039	-0.140
-309.910	14.756	-0.258	0.201
-308.895	320.689	-0.056	-0.106
-307.880	800.000	-0.025	0.080
-306.866	-28.382	0.020	0.012
-305.851	-82.418	-0.191	0.062
-304.837	-200.000	0.018	0.115
-303.822	-56.022	0.316	-0.140
-302.807	800.000	-0.067	0.212
-301.793	168.850	-0.043	-0.060
-300.778	-73.976	0.122	0.044
-299.764	-200.000	0.028	0.310
-298.749	-200.000	-0.021	-0.147
-297.735	-200.000	-0.019	0.085
-296.720	668.095	-0.049	0.125
-295.705	-166.984	0.084	-0.003
-294.691	97.535	-0.041	-0.047
-293.676	-200.000	-0.021	-0.151
-292.662	82.494	-0.137	-0.148
-291.647	-160.582	0.120	0.006
-290.632	-50.400	0.209	-0.098
-289.618	152.324	0.235	0.320
-288.603	300.574	0.058	0.107
-287.589	-52.661	0.147	-0.068
-286.574	-200.000	0.015	0.196
-285.559	179.538	-0.208	-0.303
-284.545	800.000	-0.017	-0.056
-283.530	249.741	-0.160	-0.271
-282.516	-15.944	0.127	0.081
-281.501	6.471	-0.178	-0.132
-280.486	732.927	-0.043	0.116
-279.472	67.580	0.094	0.095
-278.457	253.369	-0.035	0.059
-277.443	-200.000	-0.010	0.098
-276.428	-200.000	0.016	0.330
-275.413	97.028	-0.013	-0.015
-274.399	800.000	0.077	-0.227
-273.384	378.688	-0.088	0.178
-272.370	18.865	0.079	-0.063
-271.355	152.970	0.321	0.437
-270.340	79.449	-0.204	0.218
-269.326	-138.556	-0.079	0.009
-268.311	-32.086	-0.246	-0.137
-267.297	-163.972	0.129	-0.006
-266.282	-59.737	-0.305	-0.130
-265.267	-139.267	-0.287	0.031
-264.253	-133.739	0.234	0.029
-263.238	-200.000	0.017	-0.414
-262.224	800.000	-0.070	-0.280
-261.209	105.211	0.090	-0.106
-260.195	180.336	-0.195	-0.285
-259.180	-44.777	0.129	0.064
-258.165	-85.811	0.334	-0.103
-257.151	-117.171	-0.312	-0.056
-256.136	71.142	-0.199	-0.205
-255.122	367.577	0.130	-0.262
-254.107	-34.561	0.196	-0.107
-253.092	212.505	-0.123	0.192
-252.078	7.251	-0.099	0.074
-251.063	-68.187	-0.158	0.061
-250.049	-121.750	-0.115	0.019
-249.034	109.926	0.177	-0.211
-248.019	-200.000	-0.028	0.241
-247.005	-128.428	0.164	0.023
-245.990	-150.405	0.227	-0.017
-244.976	399.527	0.217	0.452
-243.961	-197.917	-0.291	-0.002
-242.946	-16.217	-0.133	-0.084
-241.932	433.390	-0.057	-0.123
-240.917	287.734	0.088	-0.158
-239.903	-200.000	-0.032	-0.174
-238.888	17.012	0.099	-0.078
-237.873	134.754	0.032	-0.041
-236.859	56.375	-0.151	0.146
-235.844	800.000	0.087	-0.265
-234.830	369.042	0.059	0.118
-233.815	97.789	-0.226	-0.258
-232.800	-132.474	0.203	-0.026
-231.786	-90.995	-0.218	-0.062
-230.771	292.580	0.085	0.155
-229.757	46.460	0.120	0.111
-228.742	-200.000	-0.004	0.220
-227.727	-84.700	0.379	0.119
-226.713	23.257	0.163	0.133
-225.698	-144.231	0.182	-0.017
-224.684	75.167	-0.297	0.311
-223.669	91.211	0.115	0.129
-222.655	800.000	0.121	0.361
-221.640	376.287	-0.113	0.229
-220.625	675.276	0.080	0.206
-219.611	207.346	-0.121	-0.188
-218.596	61.576	-0.093	-0.091
-217.582	-200.000	0.038	0.305
-216.567	-200.000	0.102	0.567
-215.552	-111.662	-0.198	-0.040
-214.538	-42.487	0.280	-0.141
-213.523	140.485	0.085	-0.112
-212.509	-56.252	0.138	0.061
-211.494	-121.832	0.370	-0.061
-210.479	-106.065	-0.161	0.036
-209.465	24.927	-0.213	-0.175
-208.450	-76.873	-0.129	0.045
-207.436	384.392	0.115	-0.235
-206.421	284.365	-0.129	0.229
-205.406	-28.195	-0.005	0.003
-204.392	-200.000	-0.011	0.220
-203.377	100.235	0.290	0.334
-202.363	112.628	0.055	-0.066
-201.348	32.578	0.354	0.303
-200.333	-64.719	-0.177	-0.071
-199.319	102.875	0.052	-0.060
-198.304	-140.615	0.125	0.013
-197.290	208.341	0.111	0.173
-196.275	8.499	-0.016	0.012
-195.260	800.000	-0.055	0.209
-194.246	800.000	-0.080	0.339
-193.231	119.248	0.019	-0.023
-192.217	-79.419	0.385	0.129
-191.202	517.474	0.046	0.106
-190.187	-171.427	0.189	-0.006
-189.173	101.618	0.207	-0.239
-188.158	-122.563	-0.188	-0.030
-187.144	-118.030	0.318	-0.056
-186.129	23.488	0.080	-0.065
-185.114	-154.891	-0.498	0.033
-184.100	800.000	0.011	0.041
-183.085	331.715	0.166	-0.317
-182.071	37.532	-0.258	-0.227
-181.056	-200.000	-0.014	0.131
-180.042	800.000	-0.064	0.276
-179.027	800.000	0.040	0.119
-178.012	-200.000	-0.026	0.160
-176.998	-44.845	0.190	-0.094
-175.983	-13.257	-0.086	-0.055
-174.969	100.088	-0.077	0.088
-173.954	-128.350	0.052	-0.007
-172.939	711.049	-0.065	0.170
-171.925	-176.235	0.316	-0.008
-170.910	274.302	-0.080	0.141
-169.896	-20.837	0.071	0.043
-168.881	-144.162	0.184	-0.017
-167.866	-88.402	0.425	-0.126
-166.852	-25.799	0.288	-0.168
-165.837	-87.159	0.301	0.091
-164.823	139.266	-0.320	0.418
-163.808	-82.627	0.285	-0.091
-162.793	-180.859	0.062	0.001
-161.779	7.490	0.035	0.026
-160.764	-101.716	0.247	-0.059
-159.750	-200.000	-0.081	-0.510
-158.735	-104.724	0.419	0.096
-157.720	-86.187	0.388	0.118
-156.706	-200.000	-0.048	0.352
-155.691	-150.742	-0.284	-0.021
-154.677	403.734	0.029	0.059
-153.662	49.796	0.318	-0.297
-152.647	0.888	0.237	0.168
-151.633	-128.541	0.331	-0.046
-150.618	-200.000	0.006	-0.211
-149.604	-167.152	0.166	0.007
-148.589	-200.000	0.014	-0.123
-147.574	-151.532	-0.238	0.017
-146.560	-105.256	-0.408	0.092
-145.545	-136.762	-0.326	0.037
-144.531	-29.078	0.227	-0.129
-143.516	-163.419	0.009	0.000
-142.502	-3.874	0.391	-0.269
-141.487	800.000	0.055	-0.227
-140.472	30.851	0.169	-0.143
-139.458	64.037	-0.232	0.231
-138.443	-84.724	-0.111	-0.035
-137.429	321.311	-0.076	-0.143
-136.414	-133.579	0.124	0.015
-135.399	-63.472	-0.234	-0.095
-134.385	76.546	-0.152	0.159
-133.370	129.194	0.108	-0.137
-132.356	505.658	0.201	0.462
-131.341	313.986	0.112	-0.208
-130.326	-164.860	-0.168	0.007
-129.312	24.536	0.365	-0.299
-128.297	-75.959	-0.269	-0.094
-127.283	216.352	0.023	0.036
-126.268	-123.551	0.049	0.008
-125.253	660.506	-0.089	-0.226
-124.239	-140.463	-0.315	0.032
-123.224	-98.944	0.231	0.058
-122.210	139.767	0.074	-0.097
