DTS Sentinel unit serial number:	SN413079Multiplexer serial number:	ORYXHardware model number:	OX4-SRSoftware version number:	ORYX F/W v4.00 Oryx Data Collector v3.7.2.0data status	okinstallation	princeton_trtdifferential loss correction	single-endedforward channel	channel 2reverse channel	N/Adate	2019/09/14time	21:07:34forward acquisition time	60.00reverse acquisition time	0.00gamma	496.2192k internal	0.2323k external	0.2323temperature offset calibration	1.0082default loss term (dB/km)	0.3790temperature slope calibration	1.0000multiplexer offset coefficient	1.0000multiplexer slope coefficient	1.0000fibre end	0.00T internal ref (°C)	33.06T ext. ref 1 (°C)	4.75T ext. ref 2 (°C)	27.83length (m)	temperature (°C)	Stokes	anti-Stokes-747.200	800.000	0.053	0.206
-746.185	546.313	0.032	-0.078
-745.171	243.670	0.079	0.134
-744.156	78.221	0.230	0.248
-743.142	209.105	0.212	0.335
-742.127	-169.075	-0.364	0.014
-741.112	565.423	0.094	0.230
-740.098	91.276	0.224	0.254
-739.083	592.595	0.059	-0.146
-738.069	-54.173	0.237	-0.109
-737.054	6.801	0.292	0.220
-736.039	-200.000	-0.046	-0.417
-735.025	71.946	0.317	0.333
-734.010	-33.440	-0.143	0.080
-732.996	-15.582	0.319	0.205
-731.981	-20.596	-0.239	0.148
-730.966	43.121	-0.257	-0.236
-729.952	-16.184	-0.124	-0.080
-728.937	-9.276	-0.136	-0.092
-727.923	-51.510	0.252	-0.119
-726.908	799.471	-0.096	-0.268
-725.894	198.006	0.112	-0.173
-724.879	27.122	-0.117	-0.099
-723.864	-72.136	-0.330	0.123
-722.850	-77.794	0.043	0.015
-721.835	-86.097	-0.155	-0.048
-720.821	411.845	-0.111	-0.237
-719.806	-200.000	-0.008	-0.190
-718.791	-127.637	0.085	-0.012
-717.777	207.807	-0.017	-0.026
-716.762	8.806	0.210	0.160
-715.748	341.147	0.101	0.199
-714.733	-95.394	-0.295	-0.080
-713.718	-147.995	0.070	-0.006
-712.704	-6.764	-0.215	0.147
-711.689	29.501	0.107	-0.092
-710.675	506.129	-0.017	0.039
-709.660	-200.000	0.027	0.151
-708.645	194.167	-0.068	-0.103
-707.631	-200.000	0.051	-0.541
-706.616	83.406	0.118	0.130
-705.602	215.154	-0.134	-0.214
-704.587	-20.478	0.036	-0.022
-703.572	800.000	-0.081	0.324
-702.558	-163.343	-0.218	-0.010
-701.543	505.546	0.034	0.080
-700.529	800.000	-0.091	-0.278
-699.514	146.301	-0.180	0.243
-698.499	-200.000	0.066	-0.505
-697.485	-15.412	-0.285	-0.184
-696.470	436.211	0.130	-0.285
-695.456	-63.891	-0.387	0.160
-694.441	-43.662	-0.146	-0.074
-693.426	-44.174	0.112	-0.057
-692.412	800.000	-0.119	0.382
-691.397	41.410	-0.097	-0.089
-690.383	-140.802	0.181	-0.019
-689.368	-200.000	-0.022	-0.098
-688.354	-120.597	0.177	-0.030
-687.339	-95.207	-0.163	0.044
-686.324	-123.936	0.252	0.040
-685.310	-97.067	-0.326	-0.086
-684.295	-89.350	-0.290	-0.086
-683.281	91.979	0.162	-0.184
-682.266	-200.000	-0.017	0.256
-681.251	289.855	0.107	-0.195
-680.237	76.446	-0.249	-0.266
-679.222	-200.000	-0.011	-0.240
-678.208	13.267	0.193	-0.151
-677.193	-98.152	0.435	0.113
-676.178	269.379	-0.152	-0.269
-675.164	-200.000	0.003	0.361
-674.149	84.794	0.226	0.250
-673.135	39.148	0.046	-0.042
-672.120	-6.311	0.287	-0.197
-671.105	-119.187	-0.259	-0.045
-670.091	-200.000	0.031	0.136
-669.076	246.600	-0.109	-0.185
-668.062	-40.506	-0.184	0.096
-667.047	243.530	0.087	-0.148
-666.032	-200.000	0.054	0.313
-665.018	-92.254	0.349	-0.099
-664.003	-65.683	-0.399	-0.161
-662.989	800.000	0.114	0.317
-661.974	316.180	-0.076	0.145
-660.959	-138.671	-0.380	0.042
-659.945	71.420	-0.342	-0.357
-658.930	334.690	0.103	0.200
-657.916	186.341	0.104	-0.155
-656.901	-157.481	-0.205	0.012
-655.886	800.000	0.055	-0.199
-654.872	800.000	-0.129	-0.468
-653.857	45.430	0.218	0.202
-652.843	-200.000	-0.015	-0.225
-651.828	-34.923	-0.382	0.210
-650.814	800.000	0.028	-0.107
-649.799	-168.183	0.423	0.017
-648.784	-19.169	0.341	-0.213
-647.770	-106.754	-0.182	-0.041
-646.755	800.000	-0.092	-0.386
-645.741	-70.759	0.241	0.092
-644.726	-200.000	0.033	-0.254
-643.711	-200.000	0.011	-0.052
-642.697	-78.474	0.108	0.037
-641.682	800.000	0.067	-0.267
-640.668	-38.653	-0.179	-0.095
-639.653	538.744	-0.148	0.353
-638.638	-101.474	0.373	0.091
-637.624	-13.566	-0.191	0.124
-636.609	800.000	-0.051	-0.158
-635.595	-73.532	-0.135	-0.050
-634.580	-200.000	0.033	0.188
-633.565	64.474	-0.183	-0.185
-632.551	3.757	-0.102	0.075
-631.536	-112.681	-0.224	-0.045
-630.522	-63.985	0.352	-0.145
-629.507	-144.017	-0.226	-0.021
-628.492	215.011	-0.114	-0.182
-627.478	-130.784	0.210	0.028
-626.463	203.832	0.116	-0.181
-625.449	-83.170	-0.305	0.099
-624.434	167.605	0.153	-0.218
-623.419	707.800	-0.062	-0.166
-622.405	-78.955	0.150	0.051
-621.390	-163.123	-0.130	0.006
-620.376	-138.546	-0.307	0.034
-619.361	-140.288	0.342	-0.036
-618.346	151.822	-0.085	0.116
-617.332	-18.345	-0.188	-0.118
-616.317	-200.000	0.259	0.001
-615.303	-21.246	-0.242	0.149
-614.288	-200.000	-0.026	0.000
-613.273	-87.032	0.292	-0.089
-612.259	-200.000	-0.054	0.527
-611.244	-200.000	0.038	0.192
-610.230	-95.934	0.197	-0.053
-609.215	-135.078	0.084	0.010
-608.201	36.986	0.051	0.045
-607.186	489.231	-0.051	-0.117
-606.171	113.087	0.201	-0.244
-605.157	-144.593	0.384	0.036
-604.142	-200.000	0.016	-0.083
-603.128	-172.764	-0.261	0.008
-602.113	38.498	-0.381	-0.341
-601.098	-16.365	0.244	-0.156
-600.084	77.070	-0.047	-0.050
-599.069	-61.062	-0.366	0.155
-598.055	-49.741	0.184	-0.088
-597.040	-150.389	0.262	0.020
-596.025	67.108	-0.046	-0.047
-595.011	800.000	0.104	0.301
-593.996	727.421	0.047	-0.127
-592.982	-122.953	-0.187	0.030
-591.967	129.118	-0.103	0.132
-590.952	800.000	-0.036	0.154
-589.938	701.545	-0.088	0.233
-588.923	-146.243	0.117	0.010
-587.909	709.331	0.102	0.271
-586.894	-160.943	-0.108	0.006
-585.879	-200.000	0.007	-0.311
-584.865	-200.000	0.030	-0.178
-583.850	-200.000	0.024	0.208
-582.836	-200.000	-0.017	0.202
-581.821	119.344	-0.044	0.054
-580.806	-32.558	-0.014	0.008
-579.792	-200.000	0.010	-0.110
-578.777	-160.349	-0.275	0.015
-577.763	-200.000	-0.006	0.170
-576.748	-200.000	-0.050	0.219
-575.733	-200.000	0.000	0.344
-574.719	7.303	0.250	0.188
-573.704	-143.954	0.186	-0.018
-572.690	-22.744	0.304	0.184
-571.675	-200.000	0.019	0.354
-570.661	52.590	-0.076	-0.073
-569.646	219.007	0.306	0.491
-568.631	800.000	0.048	0.158
-567.617	221.233	-0.061	-0.098
-566.602	-200.000	-0.006	0.104
-565.588	7.332	-0.198	-0.148
-564.573	186.106	0.137	0.205
-563.558	-93.717	-0.398	-0.110
-562.544	-200.000	0.157	0.000
-561.529	86.354	-0.106	-0.117
-560.515	-51.797	0.070	0.033
-559.500	67.220	-0.220	-0.224
-558.485	-200.000	-0.014	0.203
-557.471	611.674	0.032	-0.081
-556.456	173.744	0.114	-0.165
-555.442	-165.654	0.227	-0.010
-554.427	-51.604	-0.215	0.100
-553.412	-60.363	0.250	-0.106
-552.398	24.971	-0.090	-0.075
-551.383	-75.439	0.204	0.073
-550.369	800.000	-0.036	-0.112
-549.354	-57.932	-0.278	-0.122
-548.339	-200.000	-0.050	-0.523
-547.325	389.712	0.066	-0.137
-546.310	247.362	-0.078	-0.132
-545.296	562.451	0.129	0.313
-544.281	-163.811	0.131	0.006
-543.266	-33.780	-0.070	0.039
-542.252	49.237	-0.318	-0.300
-541.237	287.581	0.088	-0.160
-540.223	105.713	-0.095	0.112
-539.208	-63.466	-0.146	0.060
-538.193	135.149	-0.290	-0.378
-537.179	800.000	0.089	-0.301
-536.164	254.827	0.118	-0.202
-535.150	-1.614	-0.326	0.230
-534.135	-67.075	-0.215	-0.085
-533.121	152.902	0.185	0.253
-532.106	84.591	-0.167	-0.183
-531.091	521.079	0.035	-0.083
-530.077	-22.527	-0.183	-0.111
-529.062	-200.000	-0.002	-0.082
-528.048	-23.743	0.207	0.124
-527.033	-77.219	-0.086	-0.030
-526.018	-67.659	0.204	0.080
-525.004	-2.820	-0.111	0.077
-523.989	-78.384	-0.093	-0.032
-522.975	-200.000	0.002	0.018
-521.960	12.883	-0.289	-0.224
-520.945	-158.787	0.237	-0.014
-519.931	-200.000	-0.024	-0.165
-518.916	535.839	0.141	0.335
-517.902	-168.105	-0.009	0.000
-516.887	551.823	-0.115	-0.276
-515.872	-89.308	-0.235	0.069
-514.858	27.615	0.224	0.189
-513.843	243.279	-0.049	-0.082
-512.829	-99.391	-0.153	0.039
-511.814	153.260	-0.180	0.247
-510.799	-200.000	-0.007	0.266
-509.785	-200.000	-0.006	0.275
-508.770	-6.854	0.203	-0.138
-507.756	-200.000	-0.020	0.105
-506.741	-200.000	0.028	-0.244
-505.726	-92.286	-0.046	-0.013
-504.712	-130.696	0.282	0.038
-503.697	-200.000	0.050	-0.336
-502.683	-29.256	-0.202	-0.116
-501.668	253.145	-0.130	0.222
-500.653	404.167	-0.106	0.224
-499.639	-200.000	-0.021	0.254
-498.624	243.329	0.068	0.114
-497.610	118.765	-0.107	0.132
-496.595	-193.683	0.325	-0.003
-495.581	-6.152	-0.202	-0.138
-494.566	-48.252	-0.237	-0.114
-493.551	800.000	-0.059	0.217
-492.537	-161.373	0.314	0.016
-491.522	800.000	-0.074	0.252
-490.508	251.807	0.103	-0.175
-489.493	137.074	-0.195	-0.255
-488.478	800.000	0.055	-0.217
-487.464	-116.204	-0.095	0.018
-486.449	-68.329	-0.239	-0.093
-485.435	-200.000	0.004	0.076
-484.420	-200.000	-0.044	0.209
-483.405	-156.051	-0.149	-0.009
-482.391	26.699	-0.223	-0.187
-481.376	-200.000	-0.009	-0.124
-480.362	-200.000	-0.046	-0.254
-479.347	-55.761	0.097	-0.043
-478.332	43.605	-0.233	0.213
-477.318	-200.000	0.040	-0.441
-476.303	724.450	0.093	-0.247
-475.289	-86.467	0.192	-0.059
-474.274	-99.284	0.309	0.078
-473.259	473.835	0.050	-0.114
-472.245	86.085	-0.151	0.166
-471.230	800.000	0.031	-0.113
-470.216	-200.000	0.017	0.081
-469.201	-200.000	0.019	0.093
-468.186	-14.386	0.250	0.161
-467.172	247.803	0.135	0.228
-466.157	85.899	-0.087	-0.096
-465.143	-200.000	-0.008	-0.263
-464.128	125.359	-0.223	-0.281
-463.113	-11.857	0.188	-0.123
-462.099	191.688	-0.196	-0.295
-461.084	-128.680	-0.116	0.016
-460.070	-11.052	0.110	0.073
-459.055	151.276	-0.052	0.070
-458.040	-4.689	0.201	-0.139
-457.026	0.264	-0.109	0.078
-456.011	364.736	0.125	-0.251
-454.997	616.574	0.026	0.066
-453.982	-59.524	-0.031	-0.013
-452.968	-79.549	0.131	-0.044
-451.953	-133.216	-0.153	0.019
-450.938	270.381	-0.027	-0.047
-449.924	-195.554	0.114	-0.001
-448.909	-23.761	0.080	-0.048
-447.895	6.330	-0.031	0.023
-446.880	-24.884	-0.250	-0.148
-445.865	-200.000	0.078	-0.496
-444.851	-22.190	0.282	0.171
-443.836	-98.383	0.142	-0.036
-442.822	800.000	0.087	0.313
-441.807	345.073	-0.052	-0.102
-440.792	240.227	0.166	-0.276
-439.778	-97.033	-0.378	0.099
-438.763	183.487	-0.049	-0.072
-437.749	-10.237	-0.312	0.206
-436.734	210.712	-0.077	-0.121
-435.719	132.688	-0.053	-0.069
-434.705	-17.722	0.310	-0.194
-433.690	-200.000	0.019	0.181
-432.676	97.685	0.007	-0.008
-431.661	267.968	0.025	0.044
-430.646	-184.828	0.022	0.000
-429.632	-115.484	0.094	-0.018
-428.617	207.638	-0.052	0.081
-427.603	-178.500	0.216	-0.005
-426.588	160.900	0.085	-0.118
-425.573	359.647	0.086	0.172
-424.559	-200.000	-0.045	0.305
-423.544	-51.409	-0.210	0.098
-422.530	505.732	-0.078	-0.181
-421.515	72.717	-0.153	0.159
-420.500	412.857	0.082	-0.173
-419.486	-144.149	-0.020	-0.002
-418.471	142.403	-0.308	0.408
-417.457	49.299	-0.259	0.243
-416.442	112.854	-0.304	-0.367
-415.428	45.059	-0.213	-0.195
-414.413	-200.000	0.051	0.328
-413.398	-200.000	-0.017	-0.129
-412.384	-45.028	-0.260	0.129
-411.369	-116.459	-0.346	-0.064
-410.355	-109.879	0.052	0.011
-409.340	106.046	0.314	0.371
-408.325	543.233	0.019	-0.046
-407.311	-21.309	0.098	0.059
-406.296	40.080	-0.224	-0.201
-405.282	-200.000	0.004	0.294
-404.267	27.688	-0.103	0.087
-403.252	238.146	0.142	-0.235
-402.238	-112.029	0.163	0.033
-401.223	-57.195	-0.512	-0.225
-400.209	-125.191	0.175	0.027
-399.194	673.894	-0.054	-0.140
-398.179	-51.913	-0.356	0.165
-397.165	-41.896	-0.267	0.136
-396.150	55.488	-0.112	0.108
-395.136	-64.142	0.167	-0.068
-394.121	-200.000	-0.038	-0.195
-393.106	336.006	-0.067	0.130
-392.092	21.946	-0.192	0.156
-391.077	177.815	0.054	-0.078
-390.063	-200.000	0.013	0.118
-389.048	800.000	-0.062	0.182
-388.033	-200.000	-0.005	-0.439
-387.019	-30.713	0.022	-0.012
-386.004	45.776	-0.169	-0.156
-384.990	-31.771	-0.038	-0.021
-383.975	-73.566	0.317	0.115
-382.960	-94.105	0.255	-0.069
-381.946	-200.000	0.001	0.083
-380.931	-34.021	-0.148	0.081
-379.917	142.674	0.094	0.124
-378.902	-200.000	-0.004	0.165
-377.888	-200.000	-0.019	0.225
-376.873	-130.299	-0.097	-0.013
-375.858	-200.000	-0.048	-0.266
-374.844	-31.290	0.170	-0.095
-373.829	-200.000	-0.045	-0.287
-372.815	800.000	0.135	-0.436
-371.800	-71.168	-0.170	0.063
-370.785	4.251	0.246	0.179
-369.771	-159.041	-0.061	0.003
-368.756	-130.790	0.091	0.012
-367.742	-58.697	-0.015	0.006
-366.727	-69.282	0.076	0.029
-365.712	60.605	-0.061	0.061
-364.698	800.000	0.050	0.183
-363.683	800.000	-0.092	0.310
-362.669	100.262	-0.075	0.087
-361.654	-90.285	0.384	-0.111
-360.639	-200.000	-0.005	0.050
-359.625	-200.000	-0.014	0.345
-358.610	-122.268	-0.076	-0.012
-357.596	-177.106	0.133	0.003
-356.581	-18.608	-0.077	-0.048
-355.566	-200.000	-0.004	-0.169
-354.552	-200.000	-0.015	-0.104
-353.537	-43.279	0.043	0.022
-352.523	-200.000	-0.025	0.224
-351.508	-18.237	-0.136	0.084
-350.493	-200.000	-0.043	-0.190
-349.479	-200.000	0.030	-0.144
-348.464	196.333	0.219	0.331
-347.450	-200.000	0.001	0.443
-346.435	480.255	0.158	-0.356
-345.420	364.441	-0.057	-0.114
-344.406	-200.000	-0.002	0.198
-343.391	-200.000	0.017	0.091
-342.377	-28.431	-0.106	0.061
-341.362	-9.180	-0.142	0.095
-340.348	-200.000	-0.010	0.201
-339.333	31.196	0.161	0.137
-338.318	-103.667	0.099	0.023
-337.304	75.205	0.165	0.173
-336.289	-200.000	-0.051	0.270
-335.275	-200.000	-0.040	-0.312
-334.260	69.656	0.140	0.144
-333.245	-170.174	-0.103	0.004
-332.231	-200.000	0.054	0.259
-331.216	-200.000	0.020	0.192
-330.202	-200.000	0.001	-0.098
-329.187	597.852	0.011	-0.028
-328.172	-117.355	0.283	-0.051
-327.158	37.257	0.283	0.249
-326.143	-200.000	0.050	-0.484
-325.129	-37.310	0.189	0.100
-324.114	173.840	-0.134	0.192
-323.099	-200.000	0.026	-0.188
-322.085	-200.000	-0.007	-0.068
-321.070	-143.587	-0.083	-0.008
-320.056	-104.473	-0.197	-0.045
-319.041	-71.782	0.102	-0.038
-318.026	-200.000	-0.032	-0.251
-317.012	-200.000	0.018	-0.222
-315.997	800.000	0.080	0.257
-314.983	53.388	0.258	0.246
-313.968	-200.000	0.005	0.240
-312.953	216.277	-0.227	-0.358
-311.939	-11.765	-0.055	0.036
-310.924	55.166	-0.131	-0.126
-309.910	-200.000	-0.011	-0.137
-308.895	198.654	0.114	0.173
-307.880	19.766	0.088	0.070
-306.866	-200.000	0.005	0.384
-305.851	6.316	0.139	-0.102
-304.837	72.337	-0.105	-0.109
-303.822	-200.000	-0.022	0.291
-302.807	67.991	-0.087	0.088
-301.793	64.405	-0.049	0.049
-300.778	132.118	0.150	-0.192
-299.764	-112.134	0.271	-0.054
-298.749	-106.490	0.015	-0.003
-297.735	-53.963	0.170	0.077
-296.720	-200.000	0.030	-0.341
-295.705	105.053	-0.062	0.073
-294.691	220.485	-0.227	-0.362
-293.676	355.414	-0.238	-0.469
-292.662	-6.834	0.264	-0.178
-291.647	-55.385	-0.216	0.096
-290.632	-200.000	0.035	0.251
-289.618	-176.109	-0.218	0.006
-288.603	-47.841	-0.125	-0.060
-287.589	-80.445	0.465	-0.154
-286.574	-85.037	-0.104	0.032
-285.559	-165.935	-0.172	0.007
-284.545	38.569	0.259	-0.229
-283.530	-60.504	-0.199	0.084
-282.516	156.293	0.069	0.094
-281.501	161.367	0.068	0.094
-280.486	123.752	0.188	0.233
-279.472	-100.876	-0.084	0.020
-278.457	-55.783	-0.362	0.161
-277.443	209.783	0.120	0.186
-276.428	-120.055	-0.254	-0.043
-275.413	-64.032	-0.205	-0.083
-274.399	800.000	0.074	0.311
-273.384	-131.326	-0.180	0.024
-272.370	360.547	-0.122	0.243
-271.355	-141.681	-0.131	0.013
-270.340	-164.118	0.150	0.007
-269.326	800.000	-0.039	0.135
-268.311	224.895	0.031	-0.050
-267.297	-26.569	-0.341	0.198
-266.282	118.132	-0.070	0.085
-265.267	425.280	-0.071	0.152
-264.253	-200.000	0.043	0.252
-263.238	-144.892	-0.254	0.023
-262.224	-1.066	0.389	0.272
-261.209	380.157	0.053	-0.108
-260.195	34.524	0.326	0.282
-259.180	800.000	-0.058	0.207
-258.165	363.009	-0.047	0.094
-257.151	800.000	-0.030	-0.122
-256.136	800.000	-0.025	-0.076
-255.122	146.879	-0.068	-0.090
-254.107	670.561	0.060	0.155
-253.092	-200.000	0.021	-0.095
-252.078	156.307	0.167	-0.229
-251.063	31.601	-0.093	-0.079
-250.049	-200.000	-0.014	-0.289
-249.034	115.295	-0.021	-0.025
-248.019	-27.438	0.099	-0.057
-247.005	380.849	0.300	0.610
-245.990	689.566	0.109	-0.283
-244.976	14.683	0.100	0.077
-243.961	-200.000	0.082	0.438
-242.946	800.000	0.075	-0.268
-241.932	-44.625	-0.134	0.066
-240.917	-200.000	0.039	0.291
-239.903	383.519	-0.177	-0.361
-238.888	75.430	-0.109	0.114
-237.873	800.000	-0.035	-0.123
-236.859	-200.000	-0.037	-0.288
-235.844	-200.000	0.013	0.091
-234.830	-200.000	-0.025	0.197
-233.815	40.844	0.166	0.148
-232.800	-200.000	0.037	-0.240
-231.786	62.975	-0.141	-0.140
-230.771	31.298	0.283	0.240
-229.757	800.000	0.107	-0.318
-228.742	516.922	0.071	-0.164
-227.727	100.092	-0.003	0.004
-226.713	163.837	-0.208	-0.290
-225.698	-7.928	0.310	-0.207
-224.684	-80.457	-0.179	-0.059
-223.669	207.123	0.147	0.227
-222.655	800.000	0.078	0.255
-221.640	347.402	0.330	-0.643
-220.625	800.000	-0.099	-0.300
-219.611	-82.155	0.317	-0.102
-218.596	21.729	0.267	0.215
-217.582	80.271	-0.209	0.222
-216.567	-6.222	0.290	-0.196
-215.552	-111.293	0.215	0.043
-214.538	-153.082	0.163	0.011
-213.523	-99.074	-0.274	0.069
-212.509	153.942	-0.140	0.190
-211.494	407.944	0.016	0.033
-210.479	0.924	-0.204	0.145
-209.465	-53.811	0.493	0.223
-208.450	-102.450	-0.347	-0.082
-207.436	-200.000	0.023	0.155
-206.421	23.713	0.149	0.121
-205.406	214.011	0.109	0.171
-204.392	110.917	0.075	-0.089
-203.377	413.548	0.159	-0.335
-202.363	-149.628	-0.393	-0.031
-201.348	112.623	0.169	-0.203
-200.333	207.389	-0.125	0.193
-199.319	-113.864	0.141	0.027
-198.304	-171.978	-0.339	0.011
-197.290	-200.000	0.000	-0.107
-196.275	90.980	-0.109	0.121
-195.260	49.328	0.191	0.177
-194.246	-200.000	0.025	0.219
-193.231	32.446	0.071	-0.061
-192.217	-200.000	0.036	-0.191
-191.202	-53.125	0.225	-0.102
-190.187	-200.000	0.032	0.265
-189.173	-37.166	-0.137	-0.072
-188.158	172.854	-0.174	-0.247
-187.144	13.732	-0.274	-0.211
-186.129	10.329	0.213	-0.161
-185.114	-146.573	0.099	0.009
-184.100	48.546	0.096	-0.089
-183.085	-41.284	-0.352	-0.179
-182.071	-200.000	0.077	-0.448
-181.056	-200.000	-0.026	-0.288
-180.042	-200.000	-0.042	-0.255
-179.027	-200.000	0.028	0.484
-178.012	25.365	-0.109	-0.090
-176.998	800.000	-0.042	0.160
-175.983	-83.114	-0.186	0.059
-174.969	-122.170	0.176	-0.028
-173.954	20.815	0.114	0.092
-172.939	66.012	-0.113	-0.113
-171.925	-92.915	0.170	-0.047
-170.910	-101.709	0.158	-0.038
-169.896	347.618	-0.017	-0.032
-168.881	-40.678	-0.526	-0.269
-167.866	145.350	-0.144	0.191
-166.852	776.243	-0.041	-0.109
-165.837	-102.135	0.078	-0.019
-164.823	-200.000	-0.006	0.186
-163.808	-172.154	0.082	-0.003
-162.793	271.664	-0.033	0.058
-161.779	-172.758	0.247	0.008
-160.764	267.095	0.161	-0.278
-159.750	54.011	0.041	0.039
-158.735	273.477	0.072	0.125
-157.720	-162.659	0.322	0.016
-156.706	121.825	0.208	-0.256
-155.691	-113.717	0.127	-0.024
-154.677	474.536	-0.190	0.422
-153.662	342.707	-0.076	-0.148
-152.647	313.447	-0.119	0.221
-151.633	-69.545	-0.126	-0.048
-150.618	12.710	0.046	0.035
-149.604	127.712	0.082	0.103
-148.589	-200.000	-0.001	0.123
-147.574	56.265	0.147	0.141
-146.560	387.342	0.116	0.236
-145.545	-200.000	-0.020	-0.295
-144.531	-53.508	0.137	-0.062
-143.516	-200.000	-0.001	-0.327
-142.502	332.675	-0.136	-0.259
-141.487	800.000	0.026	0.100
-140.472	-61.485	0.263	-0.109
-139.458	-116.032	-0.416	-0.076
-138.443	800.000	0.028	-0.092
-137.429	-139.871	0.226	0.024
-136.414	-200.000	0.024	0.161
-135.399	-200.000	0.046	-0.253
-134.385	800.000	0.055	0.199
-133.370	800.000	-0.036	-0.122
-132.356	-200.000	-0.043	0.217
-131.341	-117.814	0.271	-0.048
-130.326	-38.463	0.158	0.083
-129.312	-69.618	-0.260	0.098
-128.297	-97.360	-0.078	0.020
-127.283	800.000	-0.024	-0.067
-126.268	-103.215	-0.193	-0.045
-125.253	137.356	0.231	-0.298
-124.239	-95.033	0.210	-0.056
-123.224	178.975	-0.195	-0.282
-122.210	-30.137	-0.221	0.124
