DTS Sentinel unit serial number:	SN413079Multiplexer serial number:	ORYXHardware model number:	OX4-SRSoftware version number:	ORYX F/W v4.00 Oryx Data Collector v3.7.2.0data status	okinstallation	princeton_trtdifferential loss correction	single-endedforward channel	channel 2reverse channel	N/Adate	2019/09/14time	18:11:35forward acquisition time	60.00reverse acquisition time	0.00gamma	496.2192k internal	0.2315k external	0.2315temperature offset calibration	1.0106default loss term (dB/km)	0.3790temperature slope calibration	1.0000multiplexer offset coefficient	1.0000multiplexer slope coefficient	1.0000fibre end	0.00T internal ref (°C)	37.12T ext. ref 1 (°C)	4.94T ext. ref 2 (°C)	31.32length (m)	temperature (°C)	Stokes	anti-Stokes-747.200	-6.454	0.173	-0.119
-746.185	-13.806	-0.203	-0.133
-745.171	-69.913	-0.144	-0.056
-744.156	-12.963	-0.180	0.119
-743.142	154.487	-0.071	0.098
-742.127	241.121	0.128	-0.217
-741.112	-48.115	0.072	0.035
-740.098	800.000	0.034	0.117
-739.083	-39.294	-0.353	-0.187
-738.069	380.027	-0.032	-0.066
-737.054	777.927	0.041	-0.115
-736.039	-145.414	-0.478	0.044
-735.025	-72.950	0.362	0.135
-734.010	-199.261	-0.580	-0.003
-732.996	15.890	-0.085	0.067
-731.981	-200.000	-0.015	0.172
-730.966	288.769	0.120	-0.220
-729.952	745.092	0.088	-0.240
-728.937	-60.486	0.198	-0.085
-727.923	-64.232	0.056	-0.023
-726.908	41.767	0.217	0.199
-725.894	-172.689	-0.089	0.003
-724.879	-78.568	-0.230	-0.080
-723.864	-1.745	-0.213	-0.152
-722.850	-118.047	-0.300	0.054
-721.835	-200.000	-0.018	-0.147
-720.821	239.615	-0.143	-0.242
-719.806	599.681	-0.135	0.340
-718.791	-137.741	-0.312	-0.035
-717.777	-135.435	0.128	0.015
-716.762	800.000	-0.097	-0.431
-715.748	-185.508	-0.183	-0.003
-714.733	-48.143	-0.236	-0.115
-713.718	800.000	0.073	0.222
-712.704	-200.000	-0.018	-0.158
-711.689	800.000	0.091	0.281
-710.675	257.798	0.049	0.085
-709.660	-200.000	-0.008	-0.176
-708.645	-40.570	-0.092	0.048
-707.631	281.094	0.102	-0.184
-706.616	-63.107	0.395	-0.165
-705.602	-120.110	0.050	0.009
-704.587	-200.000	-0.040	-0.179
-703.572	-200.000	-0.006	-0.232
-702.558	-200.000	-0.056	0.258
-701.543	-49.488	0.173	0.083
-700.529	-200.000	-0.070	-0.366
-699.514	-200.000	-0.040	0.223
-698.499	57.178	-0.085	0.084
-697.485	-141.115	-0.409	-0.042
-696.470	-53.627	-0.275	0.127
-695.456	-7.480	-0.118	-0.081
-694.441	-183.701	0.217	-0.004
-693.426	-200.000	-0.015	-0.210
-692.412	-127.196	0.366	0.054
-691.397	310.833	-0.014	0.026
-690.383	-200.000	-0.258	0.001
-689.368	-200.000	-0.063	-0.325
-688.354	359.511	-0.018	-0.037
-687.339	-107.025	-0.157	-0.035
-686.324	-200.000	-0.036	-0.338
-685.310	228.225	-0.138	-0.228
-684.295	-9.021	0.125	0.085
-683.281	-95.342	0.074	-0.020
-682.266	-163.354	-0.190	0.009
-681.251	382.925	0.101	-0.210
-680.237	800.000	-0.089	-0.350
-679.222	33.425	-0.215	-0.189
-678.208	-17.872	-0.234	0.148
-677.193	-117.486	0.131	-0.024
-676.178	551.903	-0.122	0.295
-675.164	40.914	-0.345	-0.314
-674.149	-10.463	0.028	0.019
-673.135	17.833	-0.147	0.118
-672.120	-142.559	0.120	-0.012
-671.105	-46.570	0.109	-0.054
-670.091	-200.000	-0.053	0.250
-669.076	113.002	0.138	-0.169
-668.062	-200.000	-0.060	-0.394
-667.047	-52.983	-0.056	0.026
-666.032	179.140	-0.057	-0.085
-665.018	-200.000	0.001	-0.081
-664.003	675.532	0.103	-0.271
-662.989	76.999	0.106	0.114
-661.974	420.947	0.068	0.146
-660.959	800.000	-0.114	0.352
-659.945	224.641	0.130	0.213
-658.930	219.598	-0.109	-0.176
-657.916	225.466	0.063	0.103
-656.901	123.027	0.083	-0.105
-655.886	262.109	0.076	0.133
-654.872	-200.000	0.007	-0.184
-653.857	196.295	0.063	-0.096
-652.843	-200.000	-0.030	0.248
-651.828	-72.924	0.203	-0.075
-650.814	5.521	0.184	0.137
-649.799	-32.043	-0.377	0.213
-648.784	-108.209	0.307	0.067
-647.770	58.724	-0.107	-0.106
-646.755	-35.171	0.239	-0.131
-645.741	359.744	-0.144	-0.290
-644.726	389.299	0.091	-0.189
-643.711	67.027	0.275	-0.282
-642.697	-83.292	0.083	-0.027
-641.682	-145.806	0.358	0.032
-640.668	-200.000	-0.005	0.056
-639.653	-90.756	0.129	-0.037
-638.638	-47.492	-0.165	-0.081
-637.624	90.229	-0.230	-0.259
-636.609	328.053	-0.163	-0.317
-635.595	-45.288	-0.086	0.043
-634.580	193.533	-0.059	-0.090
-633.565	-39.992	-0.241	-0.127
-632.551	6.644	-0.238	-0.179
-631.536	358.529	-0.115	-0.231
-630.522	-19.044	-0.345	-0.216
-629.507	-200.000	0.018	0.239
-628.492	-17.060	0.215	-0.137
-627.478	-158.698	0.178	-0.010
-626.463	266.531	-0.084	0.148
-625.449	-129.236	-0.506	0.071
-624.434	-89.122	-0.135	-0.040
-623.419	-138.676	0.234	-0.026
-622.405	-84.158	-0.435	-0.139
-621.390	91.803	0.047	0.054
-620.376	-200.000	0.002	-0.085
-619.361	-167.457	0.340	0.014
-618.346	63.223	0.214	0.216
-617.332	91.415	0.037	0.042
-616.317	-27.836	0.051	-0.030
-615.303	-109.781	-0.191	-0.040
-614.288	-200.000	0.002	0.026
-613.273	109.727	0.141	0.171
-612.259	53.689	-0.264	-0.255
-611.244	721.643	-0.119	-0.320
-610.230	158.465	-0.124	0.174
-609.215	-113.789	-0.163	-0.032
-608.201	-152.872	-0.087	0.006
-607.186	-200.000	0.024	-0.187
-606.171	-9.620	0.177	0.119
-605.157	-104.560	-0.133	-0.031
-604.142	-71.039	-0.117	0.044
-603.128	-133.020	0.218	0.028
-602.113	122.588	0.031	0.039
-601.098	413.964	0.064	-0.136
-600.084	-200.000	0.024	0.187
-599.069	-200.000	-0.019	-0.090
-598.055	5.243	-0.232	-0.172
-597.040	360.296	0.131	-0.265
-596.025	676.150	-0.055	0.143
-595.011	-144.579	-0.373	-0.035
-593.996	17.127	-0.009	0.007
-592.982	-81.642	0.168	-0.056
-591.967	195.858	-0.175	-0.269
-590.952	146.334	0.220	-0.298
-589.938	277.838	0.085	0.152
-588.923	-142.637	-0.202	-0.020
-587.909	711.876	-0.147	-0.392
-586.894	-200.000	0.007	0.113
-585.879	-30.212	-0.112	0.064
-584.865	-200.000	-0.030	-0.163
-583.850	443.719	0.143	-0.316
-582.836	-200.000	-0.017	0.125
-581.821	-73.492	0.206	0.076
-580.806	-22.818	0.116	0.071
-579.792	-184.017	0.396	0.007
-578.777	800.000	-0.028	-0.109
-577.763	5.531	-0.193	0.143
-576.748	12.232	-0.140	-0.109
-575.733	-52.004	0.114	0.054
-574.719	800.000	-0.033	-0.097
-573.704	-198.953	0.188	0.001
-572.690	256.818	-0.207	0.358
-571.675	49.387	-0.018	0.017
-570.661	220.711	0.069	0.111
-569.646	-80.976	0.108	0.036
-568.631	800.000	0.084	0.255
-567.617	-116.375	-0.336	0.063
-566.602	49.184	-0.242	0.229
-565.588	668.014	-0.113	-0.295
-564.573	800.000	0.030	-0.087
-563.558	-34.565	-0.196	0.108
-562.544	-120.654	0.120	0.020
-561.529	61.257	-0.114	-0.114
-560.515	103.893	0.255	0.301
-559.500	684.814	-0.034	-0.090
-558.485	-200.000	0.040	-0.369
-557.471	-200.000	0.032	-0.178
-556.456	100.811	0.040	0.047
-555.442	486.739	-0.188	0.432
-554.427	337.284	0.081	0.159
-553.412	253.208	-0.179	0.307
-552.398	-103.876	-0.228	0.054
-551.383	325.399	0.132	0.255
-550.369	-65.019	0.190	-0.077
-549.354	-200.000	-0.003	-0.200
-548.339	353.544	0.117	-0.233
-547.325	481.802	0.021	0.047
-546.310	349.150	-0.061	-0.122
-545.296	-184.095	0.230	-0.004
-544.281	-37.841	-0.160	0.086
-543.266	-59.486	-0.349	-0.151
-542.252	-200.000	0.032	-0.203
-541.237	-200.000	0.005	-0.165
-540.223	-155.041	0.145	0.010
-539.208	56.985	0.232	-0.227
-538.193	-200.000	-0.036	0.320
-537.179	-200.000	0.045	0.282
-536.164	800.000	0.034	0.146
-535.150	46.036	-0.056	0.052
-534.135	104.405	-0.090	0.107
-533.121	-200.000	0.001	-0.103
-532.106	22.447	-0.231	0.190
-531.091	800.000	-0.051	-0.203
-530.077	-133.856	-0.177	-0.022
-529.062	-200.000	0.055	-0.450
-528.048	-130.632	0.160	-0.022
-527.033	-49.395	-0.119	-0.057
-526.018	-127.013	-0.121	-0.018
-525.004	-200.000	0.015	0.110
-523.989	64.852	0.091	-0.092
-522.975	-8.741	-0.263	0.177
-521.960	-200.000	0.032	0.198
-520.945	351.097	0.102	0.203
-519.931	-111.403	0.143	-0.029
-518.916	-178.989	-0.327	0.007
-517.902	-51.210	0.163	-0.077
-516.887	-2.587	-0.204	0.143
-515.872	151.996	0.115	0.157
-514.858	44.244	-0.169	0.156
-513.843	87.956	-0.232	0.258
-512.829	-200.000	0.575	0.002
-511.814	53.667	0.021	0.020
-510.799	-169.253	-0.168	-0.006
-509.785	-17.857	0.129	0.082
-508.770	254.693	0.057	-0.098
-507.756	-127.509	-0.247	-0.036
-506.741	39.686	-0.123	0.110
-505.726	132.682	0.252	-0.326
-504.712	31.498	0.071	-0.061
-503.697	-27.905	0.202	0.117
-502.683	112.140	-0.027	0.033
-501.668	-200.000	0.011	-0.144
-500.653	-92.175	0.172	0.049
-499.639	800.000	0.114	0.345
-498.624	64.519	0.196	0.198
-497.610	-8.520	0.304	0.205
-496.595	-200.000	0.051	0.580
-495.581	-166.679	0.383	-0.016
-494.566	-77.632	0.039	0.014
-493.551	164.849	-0.183	0.259
-492.537	-89.796	-0.203	-0.060
-491.522	67.347	-0.115	0.118
-490.508	10.370	-0.202	0.154
-489.493	-189.130	0.108	0.001
-488.478	435.497	-0.165	-0.361
-487.464	800.000	-0.073	0.282
-486.449	117.031	-0.099	-0.122
-485.435	-30.762	-0.448	-0.254
-484.420	6.467	0.176	-0.131
-483.405	-135.244	-0.283	0.034
-482.391	66.980	-0.244	-0.249
-481.376	69.576	0.106	-0.109
-480.362	-200.000	0.074	0.360
-479.347	-112.992	-0.117	-0.023
-478.332	-200.000	0.020	-0.162
-477.318	-107.583	-0.121	-0.027
-476.303	34.387	0.166	-0.145
-475.289	-200.000	0.044	-0.405
-474.274	131.875	0.177	-0.228
-473.259	-66.146	-0.201	0.080
-472.245	-50.190	-0.349	0.166
-471.230	-24.912	-0.075	-0.045
-470.216	186.302	-0.196	0.293
-469.201	93.481	-0.195	-0.221
-468.186	800.000	-0.051	0.164
-467.172	-129.898	-0.309	-0.042
-466.157	-139.632	0.061	0.007
-465.143	77.427	-0.085	-0.091
-464.128	-101.957	0.077	-0.019
-463.113	175.259	0.238	0.346
-462.099	106.312	0.249	0.296
-461.084	182.341	-0.069	-0.102
-460.070	-200.000	-0.011	-0.054
-459.055	75.208	-0.132	0.140
-458.040	-120.409	-0.064	-0.011
-457.026	-200.000	-0.021	-0.213
-456.011	-75.887	0.178	-0.063
-454.997	130.206	-0.134	0.172
-453.982	-4.671	-0.019	-0.013
-452.968	-95.739	0.515	-0.138
-451.953	800.000	-0.116	-0.350
-450.938	800.000	-0.035	-0.119
-449.924	367.986	0.022	-0.045
-448.909	-105.802	0.069	0.016
-447.895	245.308	0.073	-0.123
-446.880	-166.367	-0.295	0.012
-445.865	280.235	0.084	-0.151
-444.851	-7.884	0.126	-0.085
-443.836	-127.472	-0.039	-0.006
-442.822	50.147	-0.117	-0.111
-441.807	-7.242	0.103	0.070
-440.792	100.835	0.211	-0.246
-439.778	242.394	-0.150	0.251
-438.763	-200.000	0.033	0.202
-437.749	800.000	0.089	-0.268
-436.734	-92.400	-0.066	-0.019
-435.719	800.000	0.144	-0.513
-434.705	59.907	0.123	-0.122
-433.690	800.000	-0.086	-0.294
-432.676	555.905	0.095	-0.228
-431.661	34.970	-0.237	0.207
-430.646	-150.553	0.337	-0.026
-429.632	-171.621	0.278	-0.009
-428.617	-32.217	-0.184	0.103
-427.603	-200.000	0.075	0.403
-426.588	-83.132	-0.102	-0.033
-425.573	-113.208	-0.376	0.074
-424.559	-200.000	-0.101	0.000
-423.544	-114.952	-0.085	0.016
-422.530	-89.935	-0.144	0.042
-421.515	-132.569	-0.166	0.021
-420.500	46.670	0.075	0.070
-419.486	6.324	0.280	-0.208
-418.471	205.972	-0.078	0.122
-417.457	37.141	0.098	0.087
-416.442	-146.565	0.264	0.023
-415.428	154.142	-0.035	-0.048
-414.413	-200.000	0.010	-0.222
-413.398	237.186	0.292	0.484
-412.384	56.237	0.167	0.162
-411.369	10.895	0.016	0.012
-410.355	-9.549	-0.305	0.204
-409.340	-186.257	0.521	0.008
-408.325	7.447	0.119	-0.089
-407.311	436.746	0.036	0.079
-406.296	-200.000	0.022	0.147
-405.282	-200.000	-0.030	-0.159
-404.267	-20.596	-0.319	-0.196
-403.252	-37.772	-0.057	0.030
-402.238	106.582	-0.156	-0.185
-401.223	725.842	0.026	-0.070
-400.209	11.861	-0.109	-0.084
-399.194	760.725	0.102	0.275
-398.179	635.242	-0.122	-0.308
-397.165	62.866	0.164	-0.164
-396.150	-118.415	-0.102	0.018
-395.136	-77.744	0.090	-0.031
-394.121	800.000	-0.049	-0.140
-393.106	10.675	-0.096	0.073
-392.092	-200.000	-0.025	-0.188
-391.077	-123.765	-0.242	0.038
-390.063	-92.919	0.157	0.044
-389.048	529.084	0.051	-0.120
-388.033	256.720	0.195	0.335
-387.019	-200.000	0.009	0.094
-386.004	-200.000	0.009	0.232
-384.990	160.497	-0.109	0.151
-383.975	-57.471	-0.167	-0.073
-382.960	800.000	0.075	-0.212
-381.946	-200.000	0.007	0.222
-380.931	24.558	-0.240	0.198
-379.917	35.210	-0.279	-0.244
-378.902	-115.442	0.272	0.051
-377.888	245.853	-0.111	-0.187
-376.873	35.881	-0.285	-0.250
-375.858	198.974	0.145	-0.222
-374.844	800.000	-0.026	-0.088
-373.829	193.451	0.140	-0.212
-372.815	-48.358	-0.354	0.170
-371.800	-200.000	-0.041	0.325
-370.785	143.350	0.255	0.338
-369.771	800.000	-0.040	0.142
-368.756	20.133	0.064	-0.051
-367.742	800.000	0.065	0.219
-366.727	-200.000	0.048	0.211
-365.712	-103.063	0.164	-0.039
-364.698	366.112	-0.143	-0.288
-363.683	61.233	-0.127	-0.126
-362.669	-114.324	-0.070	-0.013
-361.654	-200.000	0.037	-0.320
-360.639	-55.250	0.242	0.109
-359.625	140.883	-0.036	-0.048
-358.610	239.796	0.040	0.066
-357.596	-200.000	0.064	0.501
-356.581	394.243	-0.149	0.309
-355.566	-96.180	-0.418	0.111
-354.552	153.716	0.147	0.200
-353.537	56.149	0.139	0.134
-352.523	16.005	-0.285	0.224
-351.508	3.694	-0.406	0.296
-350.493	-40.775	-0.175	0.091
-349.479	18.820	-0.175	-0.140
-348.464	146.663	0.218	-0.292
-347.450	-12.790	0.179	-0.117
-346.435	-96.429	-0.204	0.054
-345.420	-49.901	-0.066	-0.031
-344.406	397.427	0.079	-0.165
-343.391	-58.383	-0.181	-0.078
-342.377	179.516	-0.086	-0.125
-341.362	800.000	0.045	-0.186
-340.348	2.749	0.295	-0.213
-339.333	140.518	0.179	0.236
-338.318	51.751	-0.244	0.232
-337.304	49.464	0.176	0.165
-336.289	304.074	0.106	0.196
-335.275	-180.137	-0.117	0.002
-334.260	800.000	-0.065	-0.276
-333.245	492.067	-0.108	-0.247
-332.231	800.000	0.049	0.185
-331.216	800.000	-0.121	-0.405
-330.202	-127.782	0.250	-0.036
-329.187	101.562	-0.293	-0.340
-328.172	-109.449	0.311	0.066
-327.158	-200.000	-0.025	0.134
-326.143	102.503	0.132	0.154
-325.129	15.632	-0.200	-0.157
-324.114	-200.000	-0.004	0.074
-323.099	31.605	-0.331	0.284
-322.085	319.082	0.097	0.183
-321.070	67.791	-0.331	-0.337
-320.056	80.358	-0.036	0.039
-319.041	498.008	0.069	0.157
-318.026	-2.560	0.270	-0.188
-317.012	-200.000	-0.060	0.436
-315.997	394.673	-0.138	0.286
-314.983	-118.662	-0.350	0.061
-313.968	-111.437	0.042	0.008
-312.953	88.451	0.072	0.080
-311.939	-80.714	0.228	-0.075
-310.924	395.825	0.095	-0.198
-309.910	-85.467	0.121	-0.038
-308.895	-10.582	0.071	0.047
-307.880	39.117	0.217	-0.193
-306.866	-142.899	0.388	-0.038
-305.851	-64.808	0.374	-0.151
-304.837	-200.000	0.006	-0.172
-303.822	39.132	-0.066	-0.058
-302.807	72.438	0.047	0.048
-301.793	32.952	-0.363	-0.313
-300.778	800.000	0.141	-0.567
-299.764	521.726	-0.136	-0.319
-298.749	-23.715	0.174	0.104
-297.735	15.125	0.193	0.151
-296.720	-200.000	0.006	-0.335
-295.705	-0.599	-0.077	0.055
-294.691	-103.518	-0.257	0.060
-293.676	301.515	0.104	0.191
-292.662	-200.000	-0.013	0.084
-291.647	-23.651	0.129	0.077
-290.632	30.334	0.136	-0.116
-289.618	-200.000	0.037	-0.170
-288.603	-200.000	0.048	0.326
-287.589	75.615	-0.199	0.209
-286.574	253.091	-0.171	0.291
-285.559	-200.000	0.004	0.043
-284.545	-10.360	0.179	0.118
-283.530	-99.943	-0.160	0.040
-282.516	169.017	0.098	-0.139
-281.501	234.727	0.175	0.287
-280.486	-200.000	-0.051	-0.386
-279.472	-59.319	-0.217	-0.093
-278.457	276.392	0.090	0.158
-277.443	-87.516	-0.081	-0.024
-276.428	800.000	0.075	-0.264
-275.413	-129.005	0.362	-0.050
-274.399	138.940	0.112	0.147
-273.384	-40.583	-0.284	0.146
-272.370	-60.018	-0.330	0.140
-271.355	133.617	-0.114	-0.147
-270.340	56.737	0.035	-0.034
-269.326	800.000	0.095	0.286
-268.311	-12.609	0.398	0.258
-267.297	70.808	-0.078	-0.081
-266.282	-81.703	0.215	0.070
-265.267	-200.000	0.017	0.142
-264.253	-200.000	0.047	-0.234
-263.238	231.525	-0.180	0.294
-262.224	88.264	-0.118	0.130
-261.209	385.246	0.078	0.160
-260.195	322.795	0.169	0.319
-259.180	-122.091	0.255	-0.042
-258.165	128.364	0.225	0.285
-257.151	427.937	0.123	-0.264
-256.136	117.037	0.107	-0.131
-255.122	-200.000	-0.033	0.158
-254.107	-100.772	0.362	-0.089
-253.092	-200.000	0.025	-0.111
-252.078	-184.186	0.267	0.004
-251.063	-84.751	0.186	-0.058
-250.049	-77.840	-0.083	-0.029
-249.034	-50.829	0.113	-0.053
-248.019	33.094	-0.415	0.357
-247.005	-101.325	-0.248	-0.060
-245.990	-118.133	0.086	-0.015
-244.976	282.216	0.032	0.056
-243.961	28.449	0.130	0.109
-242.946	93.680	0.031	-0.035
-241.932	17.845	-0.053	0.042
-240.917	-200.000	0.003	-0.431
-239.903	-85.647	0.206	-0.064
-238.888	17.361	-0.147	0.116
-237.873	-107.290	0.259	-0.057
-236.859	71.754	0.024	-0.025
-235.844	800.000	0.068	-0.202
-234.830	-122.590	0.242	-0.039
-233.815	17.216	-0.167	-0.132
-232.800	-180.228	0.149	-0.003
-231.786	574.571	-0.188	0.457
-230.771	70.713	0.108	-0.111
-229.757	-200.000	-0.019	-0.161
-228.742	49.701	-0.167	-0.156
-227.727	369.644	0.212	0.427
-226.713	228.425	0.219	-0.354
-225.698	-174.575	0.159	-0.004
-224.684	737.724	0.086	-0.230
-223.669	645.474	-0.059	0.150
-222.655	-187.571	0.371	-0.005
-221.640	-200.000	0.015	0.238
-220.625	-96.270	0.125	0.033
-219.611	12.857	-0.066	0.051
-218.596	4.704	0.216	-0.157
-217.582	-92.660	-0.265	-0.074
-216.567	-200.000	0.016	-0.182
-215.552	-5.178	-0.159	-0.108
-214.538	800.000	-0.051	-0.203
-213.523	-98.962	0.230	-0.058
-212.509	-200.000	-0.006	0.215
-211.494	-36.500	0.162	0.087
-210.479	250.116	0.384	0.647
-209.465	-118.838	0.273	0.048
-208.450	-166.121	-0.095	-0.004
-207.436	-31.661	-0.151	-0.084
-206.421	800.000	0.085	0.248
-205.406	-26.492	0.289	0.168
-204.392	-86.763	0.220	-0.067
-203.377	-200.000	-0.043	-0.366
-202.363	-94.960	-0.145	-0.039
-201.348	-200.000	0.000	0.215
-200.333	-139.650	0.044	-0.005
-199.319	30.258	0.141	-0.119
-198.304	-161.787	-0.438	0.022
-197.290	-200.000	0.005	0.147
-196.275	-124.736	0.211	-0.032
-195.260	-200.000	0.016	0.101
-194.246	-62.598	-0.245	0.101
-193.231	-151.873	-0.125	-0.009
-192.217	298.480	-0.069	-0.125
-191.202	-200.000	0.001	0.019
-190.187	0.813	-0.114	-0.081
-189.173	-92.454	0.198	0.055
-188.158	81.789	-0.159	0.171
-187.144	254.354	-0.037	0.062
-186.129	515.671	0.135	0.313
-185.114	-84.485	-0.176	-0.055
-184.100	16.082	0.160	-0.125
-183.085	-73.545	-0.206	0.075
-182.071	-8.064	-0.178	0.119
-181.056	-28.909	0.215	0.123
-180.042	-31.702	0.146	-0.081
-179.027	-167.880	0.140	0.005
-178.012	-153.676	-0.443	-0.030
-176.998	102.915	0.077	0.089
-175.983	-200.000	0.040	0.255
-174.969	-105.584	0.125	0.028
-173.954	-200.000	0.010	0.128
-172.939	-200.000	0.009	0.242
-171.925	-162.891	0.105	0.005
-170.910	788.938	-0.064	-0.174
-169.896	226.454	-0.092	-0.148
-168.881	-200.000	0.018	0.098
-167.866	16.918	-0.245	-0.192
-166.852	156.435	-0.056	-0.077
-165.837	325.443	0.051	0.097
-164.823	86.667	0.067	0.073
-163.808	234.147	-0.206	-0.336
-162.793	-45.084	0.115	0.057
-161.779	-140.717	-0.252	0.026
-160.764	365.588	-0.213	-0.424
-159.750	800.000	-0.023	0.094
-158.735	-7.396	0.278	-0.186
-157.720	165.810	-0.160	-0.225
-156.706	-87.463	0.226	0.068
-155.691	418.976	0.118	0.251
-154.677	6.750	-0.335	0.247
-153.662	77.003	-0.080	-0.084
-152.647	48.283	0.189	-0.175
-151.633	417.349	0.071	0.149
-150.618	28.944	0.204	-0.171
-149.604	-142.833	0.022	-0.002
-148.589	315.633	-0.198	-0.370
-147.574	-200.000	0.016	0.071
-146.560	-188.798	-0.119	0.001
-145.545	-79.004	0.140	-0.047
-144.531	-113.968	-0.297	0.057
-143.516	-101.840	0.484	0.116
-142.502	245.312	0.092	-0.154
-141.487	234.502	-0.112	-0.183
-140.472	244.726	-0.247	0.411
-139.458	-11.367	-0.155	0.101
-138.443	46.919	-0.057	-0.053
-137.429	-4.305	0.235	-0.161
-136.414	4.440	0.229	0.166
-135.399	19.026	0.124	0.098
-134.385	-18.231	0.079	-0.049
-133.370	479.390	-0.160	-0.359
-132.356	109.069	0.297	-0.352
-131.341	800.000	0.097	-0.348
-130.326	800.000	-0.027	-0.085
-129.312	-47.554	-0.115	-0.055
-128.297	-149.787	0.169	-0.013
-127.283	-167.089	0.254	0.010
-126.268	-200.000	0.011	0.104
-125.253	-5.797	-0.076	-0.052
-124.239	38.540	0.205	0.181
-123.224	322.535	-0.107	0.201
-122.210	800.000	0.062	0.248
-121.195	14.834	0.329	0.255
-120.180	-54.081	0.194	0.087
