DTS Sentinel unit serial number:	SN413079Multiplexer serial number:	ORYXHardware model number:	OX4-SRSoftware version number:	ORYX F/W v4.00 Oryx Data Collector v3.7.2.0data status	okinstallation	princeton_trtdifferential loss correction	single-endedforward channel	channel 2reverse channel	N/Adate	2019/09/13time	22:35:35forward acquisition time	60.00reverse acquisition time	0.00gamma	496.2192k internal	0.2335k external	0.2335temperature offset calibration	1.0134default loss term (dB/km)	0.3790temperature slope calibration	1.0000multiplexer offset coefficient	1.0000multiplexer slope coefficient	1.0000fibre end	0.00T internal ref (°C)	27.69T ext. ref 1 (°C)	3.24T ext. ref 2 (°C)	21.97length (m)	temperature (°C)	Stokes	anti-Stokes-747.200	-77.133	-0.204	-0.071
-746.185	-27.666	0.269	-0.157
-745.171	-78.811	-0.270	0.092
-744.156	162.284	-0.111	0.156
-743.142	800.000	0.082	0.300
-742.127	-200.000	-0.011	0.305
-741.112	-85.138	0.175	0.055
-740.098	68.863	-0.403	-0.415
-739.083	108.501	-0.164	-0.196
-738.069	-200.000	0.001	-0.035
-737.054	103.086	-0.149	-0.176
-736.039	-56.519	-0.353	0.157
-735.025	-56.964	0.466	0.207
-734.010	-85.110	0.007	0.002
-732.996	241.879	-0.021	0.035
-731.981	137.572	-0.046	-0.060
-730.966	-95.590	-0.136	0.037
-729.952	169.344	-0.164	-0.235
-728.937	-26.068	-0.142	-0.084
-727.923	-54.546	-0.126	-0.057
-726.908	-109.543	0.510	-0.108
-725.894	118.621	0.175	-0.217
-724.879	369.738	-0.142	-0.289
-723.864	-200.000	0.002	0.050
-722.850	-1.382	-0.172	-0.122
-721.835	-200.000	-0.044	-0.312
-720.821	800.000	0.068	0.211
-719.806	800.000	-0.040	0.138
-718.791	60.317	-0.212	-0.210
-717.777	10.050	0.087	0.066
-716.762	800.000	-0.070	-0.277
-715.748	-44.923	-0.392	0.196
-714.733	-19.829	-0.139	0.086
-713.718	225.404	-0.088	0.143
-712.704	-45.020	-0.291	-0.146
-711.689	3.146	-0.077	-0.056
-710.675	-200.000	-0.016	-0.259
-709.660	-139.414	-0.203	-0.022
-708.645	281.308	0.062	-0.111
-707.631	66.317	0.104	-0.106
-706.616	-39.478	-0.418	0.220
-705.602	-151.052	-0.185	0.014
-704.587	-200.000	0.042	0.203
-703.572	-61.062	0.488	0.207
-702.558	-171.739	-0.375	0.012
-701.543	176.454	0.195	0.285
-700.529	260.514	-0.104	-0.180
-699.514	-64.739	0.472	-0.192
-698.499	303.596	-0.080	-0.149
-697.485	-32.277	-0.276	0.155
-696.470	658.285	-0.026	-0.066
-695.456	67.927	0.129	-0.132
-694.441	-33.750	-0.092	-0.051
-693.426	27.971	-0.189	0.160
-692.412	-200.000	-0.052	0.292
-691.397	31.662	0.182	-0.157
-690.383	54.250	0.123	0.119
-689.368	-76.976	-0.134	-0.047
-688.354	-130.826	-0.184	-0.025
-687.339	86.405	-0.096	-0.106
-686.324	-200.000	0.040	-0.187
-685.310	89.947	0.143	-0.160
-684.295	-118.947	-0.242	0.042
-683.281	13.377	0.277	-0.215
-682.266	-31.853	0.255	0.143
-681.251	92.056	0.119	0.135
-680.237	109.560	0.206	-0.248
-679.222	-200.000	-0.016	0.391
-678.208	592.159	-0.036	-0.090
-677.193	-200.000	-0.023	0.191
-676.178	-122.912	0.130	0.021
-675.164	-200.000	0.019	-0.091
-674.149	800.000	0.109	-0.325
-673.135	-103.341	-0.120	-0.028
-672.120	290.316	0.070	-0.127
-671.105	-200.000	0.009	0.156
-670.091	122.181	-0.197	0.246
-669.076	-72.289	-0.149	-0.055
-668.062	254.513	0.114	-0.196
-667.047	-60.528	0.074	-0.032
-666.032	-55.906	0.102	-0.046
-665.018	44.218	0.146	-0.134
-664.003	-47.264	0.202	-0.098
-662.989	181.190	-0.245	-0.361
-661.974	192.604	0.111	-0.167
-660.959	10.570	0.218	-0.166
-659.945	36.156	-0.097	0.086
-658.930	-148.253	0.127	-0.011
-657.916	46.495	0.228	0.212
-656.901	130.892	0.168	-0.216
-655.886	524.042	-0.143	0.336
-654.872	-200.000	0.008	-0.035
-653.857	-200.000	-0.053	-0.288
-652.843	-200.000	0.014	0.063
-651.828	-200.000	0.080	-0.413
-650.814	-46.772	-0.149	0.073
-649.799	110.107	0.104	-0.125
-648.784	-26.690	-0.038	-0.022
-647.770	281.125	-0.102	0.183
-646.755	-88.928	-0.205	0.061
-645.741	-176.908	-0.114	0.003
-644.726	-15.898	-0.148	0.095
-643.711	-140.291	-0.500	-0.052
-642.697	-136.497	-0.270	0.031
-641.682	-13.133	-0.045	0.030
-640.668	150.098	0.136	0.185
-639.653	-4.811	0.364	0.251
-638.638	-146.530	0.082	0.007
-637.624	643.853	-0.086	0.219
-636.609	-175.030	-0.245	0.007
-635.595	-117.245	-0.070	0.013
-634.580	9.980	-0.198	-0.150
-633.565	543.388	-0.099	-0.237
-632.551	214.432	-0.078	-0.124
-631.536	24.587	-0.214	0.177
-630.522	-200.000	0.330	0.001
-629.507	402.588	-0.031	0.064
-628.492	-200.000	0.017	-0.173
-627.478	79.733	-0.353	0.379
-626.463	-200.000	0.033	-0.164
-625.449	-200.000	-0.081	-0.406
-624.434	-18.347	-0.038	-0.024
-623.419	-17.162	-0.107	-0.068
-622.405	800.000	-0.071	-0.269
-621.390	800.000	0.044	-0.125
-620.376	48.017	0.094	0.088
-619.361	72.098	0.036	0.038
-618.346	-200.000	0.001	0.226
-617.332	-131.687	0.352	-0.046
-616.317	-34.454	0.298	0.163
-615.303	-88.525	0.087	0.026
-614.288	-66.935	0.237	-0.094
-613.273	96.742	-0.136	-0.156
-612.259	-17.165	-0.152	0.096
-611.244	-200.000	-0.016	-0.202
-610.230	-200.000	-0.006	0.109
-609.215	35.246	-0.193	0.169
-608.201	-73.954	-0.159	-0.058
-607.186	-200.000	0.018	-0.200
-606.171	400.525	-0.050	-0.104
-605.157	-22.239	0.153	0.093
-604.142	-63.634	-0.090	-0.037
-603.128	-70.784	-0.159	0.060
-602.113	-124.182	-0.037	0.006
-601.098	-90.332	0.273	0.079
-600.084	-22.771	-0.280	-0.169
-599.069	-7.394	-0.255	-0.172
-598.055	-62.774	-0.218	0.090
-597.040	-111.649	-0.130	-0.026
-596.025	800.000	0.106	0.294
-595.011	308.929	-0.165	0.307
-593.996	-104.370	0.265	0.061
-592.982	-37.658	0.030	-0.016
-591.967	-14.013	0.143	-0.093
-590.952	-200.000	-0.059	-0.263
-589.938	281.827	-0.074	-0.133
-588.923	657.347	0.026	-0.066
-587.909	-200.000	0.031	-0.339
-586.894	164.600	0.056	0.079
-585.879	80.880	0.033	0.036
-584.865	62.370	0.100	0.100
-583.850	-153.759	-0.303	-0.021
-582.836	-94.347	-0.162	-0.044
-581.821	6.201	0.134	0.099
-580.806	14.378	-0.228	-0.178
-579.792	-50.874	-0.371	0.174
-578.777	279.287	-0.238	-0.425
-577.763	-174.077	-0.229	0.007
-576.748	433.803	0.057	-0.124
-575.733	1.138	0.011	0.008
-574.719	698.675	-0.121	0.317
-573.704	-81.497	-0.309	0.101
-572.690	-176.340	0.209	-0.005
-571.675	-200.000	0.017	-0.175
-570.661	27.742	0.139	0.117
-569.646	800.000	-0.083	0.348
-568.631	15.464	0.072	-0.057
-567.617	-110.981	0.137	-0.028
-566.602	-3.464	0.048	-0.034
-565.588	-153.028	-0.017	0.001
-564.573	-200.000	0.017	0.099
-563.558	-200.000	0.027	-0.499
-562.544	-97.672	-0.440	0.114
-561.529	-85.489	-0.249	-0.077
-560.515	109.642	0.036	-0.043
-559.500	-200.000	-0.010	-0.087
-558.485	-110.979	0.176	0.036
-557.471	-58.557	0.326	0.141
-556.456	-200.000	-0.031	0.225
-555.442	-200.000	-0.023	0.258
-554.427	-49.392	0.278	-0.132
-553.412	-44.189	0.382	-0.191
-552.398	800.000	-0.102	0.415
-551.383	800.000	-0.149	-0.520
-550.369	-200.000	-0.028	-0.149
-549.354	-200.000	-0.002	-0.139
-548.339	147.054	-0.163	-0.218
-547.325	700.624	-0.047	-0.122
-546.310	-49.468	-0.404	-0.192
-545.296	153.652	0.097	0.133
-544.281	116.603	0.219	-0.267
-543.266	800.000	-0.098	-0.301
-542.252	800.000	-0.060	0.245
-541.237	800.000	0.049	-0.186
-540.223	-84.261	-0.158	0.050
-539.208	26.004	-0.088	-0.073
-538.193	800.000	-0.076	-0.254
-537.179	127.563	-0.109	0.138
-536.164	72.939	0.200	-0.208
-535.150	-110.454	-0.286	-0.059
-534.135	800.000	-0.087	0.350
-533.121	169.544	0.022	-0.032
-532.106	-200.000	0.009	0.045
-531.091	-186.110	0.122	0.002
-530.077	-200.000	-0.007	-0.529
-529.062	8.926	-0.176	-0.133
-528.048	-43.408	0.242	0.122
-527.033	162.088	0.054	-0.075
-526.018	149.158	0.154	-0.207
-525.004	-66.751	0.099	0.039
-523.989	173.165	0.075	0.107
-522.975	94.280	-0.271	-0.306
-521.960	4.078	-0.170	-0.124
-520.945	124.444	0.051	-0.063
-519.931	366.008	-0.049	-0.099
-518.916	-159.448	-0.198	0.011
-517.902	106.310	-0.152	-0.179
-516.887	800.000	-0.148	-0.569
-515.872	201.513	0.101	-0.155
-514.858	43.038	-0.279	-0.253
-513.843	-42.229	-0.057	-0.029
-512.829	-44.567	-0.169	0.084
-511.814	9.283	0.228	-0.172
-510.799	-200.000	-0.021	0.190
-509.785	-38.321	0.071	-0.037
-508.770	29.594	-0.243	0.206
-507.756	57.599	0.192	0.187
-506.741	31.569	-0.221	-0.189
-505.726	-127.017	0.160	0.023
-504.712	-196.143	-0.300	0.002
-503.697	49.248	0.148	0.138
-502.683	135.349	-0.057	0.074
-501.668	800.000	-0.105	-0.321
-500.653	-56.559	0.080	0.035
-499.639	555.574	-0.057	0.137
-498.624	69.279	-0.060	-0.062
-497.610	213.358	0.074	-0.116
-496.595	800.000	0.041	-0.127
-495.581	213.269	-0.141	-0.222
-494.566	403.583	0.132	-0.277
-493.551	-5.680	-0.227	-0.155
-492.537	-200.000	0.002	-0.194
-491.522	-43.369	-0.258	0.130
-490.508	66.786	-0.256	-0.260
-489.493	53.293	0.041	0.039
-488.478	-83.596	0.095	0.030
-487.464	800.000	0.013	-0.041
-486.449	9.783	0.128	0.097
-485.435	761.117	-0.075	-0.203
-484.420	137.713	-0.155	0.202
-483.405	800.000	0.043	0.176
-482.391	86.652	-0.158	0.174
-481.376	0.415	0.226	-0.160
-480.362	-76.749	-0.264	0.092
-479.347	-55.218	0.195	-0.087
-478.332	-197.926	-0.300	0.002
-477.318	-94.298	0.157	-0.043
-476.303	-159.398	0.107	-0.006
-475.289	311.507	0.192	0.357
-474.274	1.684	0.187	-0.134
-473.259	-200.000	-0.002	0.034
-472.245	-157.811	-0.377	-0.022
-471.230	-200.000	0.005	0.053
-470.216	-200.000	-0.048	0.277
-469.201	800.000	0.051	-0.152
-468.186	461.727	-0.083	-0.184
-467.172	368.112	-0.056	0.112
-466.157	456.219	-0.100	-0.220
-465.143	-153.688	0.186	-0.013
-464.128	-114.139	0.207	-0.040
-463.113	28.471	0.264	-0.222
-462.099	-69.048	-0.181	0.069
-461.084	-119.107	-0.209	0.036
-460.070	-200.000	-0.018	-0.213
-459.055	-1.266	0.319	0.224
-458.040	117.478	0.191	-0.233
-457.026	-4.853	0.270	-0.185
-456.011	-59.099	0.269	0.115
-454.997	103.827	0.142	0.166
-453.982	-15.102	-0.097	0.062
-452.968	-138.272	-0.171	-0.019
-451.953	242.292	0.083	0.139
-450.938	65.134	-0.083	-0.083
-449.924	-200.000	0.104	-0.746
-448.909	-200.000	0.003	-0.014
-447.895	-151.264	-0.198	-0.015
-446.880	-200.000	0.022	0.246
-445.865	-186.403	0.312	-0.004
-444.851	-4.467	0.190	0.130
-443.836	87.627	-0.113	-0.124
-442.822	800.000	-0.057	0.225
-441.807	99.115	0.097	-0.111
-440.792	113.234	0.052	-0.062
-439.778	323.073	-0.062	-0.117
-438.763	13.618	-0.295	0.227
-437.749	39.158	0.182	0.162
-436.734	-86.574	-0.136	0.041
-435.719	-56.962	0.169	-0.074
-434.705	609.859	0.039	-0.097
-433.690	-119.786	0.169	-0.029
-432.676	-17.475	-0.096	0.060
-431.661	1.899	-0.213	-0.153
-430.646	84.120	0.074	0.080
-429.632	0.255	-0.187	0.132
-428.617	800.000	-0.044	-0.155
-427.603	65.733	0.145	-0.146
-426.588	-25.697	0.096	0.056
-425.573	-200.000	-0.014	0.070
-424.559	-88.546	-0.245	-0.072
-423.544	49.530	0.037	0.035
-422.530	105.278	-0.156	0.183
-421.515	-200.000	-0.001	-0.020
-420.500	146.849	0.044	0.058
-419.486	285.629	-0.080	0.143
-418.471	-129.259	-0.407	-0.056
-417.457	-89.231	0.454	0.133
-416.442	800.000	0.031	0.093
-415.428	-200.000	0.001	0.058
-414.413	-200.000	-0.038	-0.186
-413.398	-200.000	-0.002	0.029
-412.384	355.712	-0.277	0.548
-411.369	355.638	0.024	-0.048
-410.355	-133.476	-0.189	-0.024
-409.340	-141.210	-0.249	0.025
-408.325	-111.263	-0.366	-0.074
-407.311	-200.000	0.015	0.119
-406.296	120.555	0.271	0.333
-405.282	-83.739	-0.196	0.062
-404.267	-11.228	0.258	-0.169
-403.252	57.918	0.183	-0.178
-402.238	179.215	0.136	-0.197
-401.223	61.659	0.396	-0.391
-400.209	10.302	0.062	0.046
-399.194	800.000	0.071	-0.265
-398.179	-33.980	-0.152	0.083
-397.165	-51.206	0.211	0.098
-396.150	800.000	0.017	-0.052
-395.136	-13.885	0.193	-0.124
-394.121	-200.000	0.004	0.176
-393.106	136.989	-0.027	0.036
-392.092	-156.113	0.171	0.011
-391.077	-200.000	0.007	0.125
-390.063	-200.000	-0.010	0.094
-389.048	-43.446	0.059	0.029
-388.033	-200.000	0.036	0.192
-387.019	80.486	0.253	0.270
-386.004	17.503	-0.061	-0.048
-384.990	-101.580	0.169	0.041
-383.975	16.148	0.166	-0.129
-382.960	-5.611	0.275	0.187
-381.946	-25.536	0.173	-0.101
-380.931	24.028	0.286	0.234
-379.917	502.600	0.215	-0.492
-378.902	-34.228	0.342	-0.186
-377.888	84.527	0.094	-0.102
-376.873	-135.463	0.219	0.026
-375.858	255.339	-0.064	0.109
-374.844	-133.733	-0.430	0.053
-373.829	-200.000	0.031	-0.175
-372.815	-200.000	-0.063	-0.352
-371.800	17.630	0.094	0.074
-370.785	-76.137	-0.167	-0.058
-369.771	-200.000	-0.021	0.203
-368.756	-200.000	0.058	0.377
-367.742	131.785	-0.084	0.107
-366.727	-64.425	0.510	0.205
-365.712	103.243	0.114	0.132
-364.698	524.562	0.084	0.195
-363.683	-2.864	-0.530	-0.367
-362.669	-120.105	-0.052	0.009
-361.654	-200.000	0.080	-0.361
-360.639	28.532	0.166	-0.139
-359.625	94.558	-0.129	-0.145
-358.610	-200.000	-0.173	0.000
-357.596	257.313	-0.098	-0.167
-356.581	-28.935	-0.220	-0.125
-355.566	-200.000	0.018	0.096
-354.552	-159.564	-0.130	-0.007
-353.537	800.000	-0.187	0.543
-352.523	419.187	-0.083	-0.175
-351.508	100.609	-0.094	-0.107
-350.493	-155.350	0.249	-0.016
-349.479	-23.490	-0.199	-0.118
-348.464	-43.739	-0.246	-0.123
-347.450	-200.000	0.049	-0.335
-346.435	800.000	0.044	0.151
-345.420	-126.785	0.213	-0.031
-344.406	173.114	0.113	-0.162
-343.391	18.132	-0.400	0.316
-342.377	-200.000	0.033	0.191
-341.362	400.306	-0.133	-0.276
-340.348	64.453	-0.181	0.181
-339.333	-59.366	0.195	-0.083
-338.318	800.000	-0.083	0.352
-337.304	-3.868	0.251	0.172
-336.289	121.991	0.056	0.069
-335.275	36.488	-0.149	-0.130
-334.260	-170.972	-0.282	-0.009
-333.245	-42.846	-0.103	0.052
-332.231	-200.000	0.028	0.220
-331.216	100.790	0.247	-0.284
-330.202	129.637	0.062	-0.078
-329.187	-85.435	-0.331	-0.102
-328.172	-200.000	-0.011	-0.102
-327.158	-88.027	0.231	-0.068
-326.143	503.777	0.027	0.061
-325.129	96.083	0.309	0.349
-324.114	-94.048	0.203	-0.055
-323.099	-118.238	0.153	-0.027
-322.085	-200.000	0.022	-0.205
-321.070	77.523	-0.114	0.120
-320.056	-200.000	0.001	0.284
-319.041	-200.000	0.048	0.364
-318.026	67.272	0.141	0.142
-317.012	-131.794	-0.291	-0.038
-315.997	-200.000	0.060	0.422
-314.983	39.933	0.221	0.196
-313.968	366.268	-0.107	0.213
-312.953	-200.000	-0.007	-0.045
-311.939	-32.515	0.117	0.064
-310.924	800.000	0.066	-0.216
-309.910	800.000	0.122	-0.394
-308.895	42.994	-0.030	0.027
-307.880	-200.000	-0.006	0.237
-306.866	-88.029	-0.173	-0.051
-305.851	447.574	0.035	0.076
-304.837	-184.095	-0.195	-0.003
-303.822	-190.933	-0.172	0.002
-302.807	19.414	0.205	0.163
-301.793	-103.155	-0.091	-0.021
-300.778	20.889	-0.201	0.161
-299.764	-140.495	0.121	-0.012
-298.749	148.354	0.234	-0.312
-297.735	-200.000	-0.037	0.299
-296.720	-200.000	-0.004	0.049
-295.705	-89.275	-0.274	0.080
-294.691	-200.000	0.024	0.284
-293.676	800.000	-0.050	0.160
-292.662	138.531	-0.058	0.075
-291.647	66.212	0.301	0.301
-290.632	131.495	0.109	0.139
-289.618	149.014	0.172	0.230
-288.603	100.965	-0.170	0.196
-287.589	378.264	0.196	-0.395
-286.574	-156.661	-0.184	-0.011
-285.559	601.251	-0.102	-0.250
-284.545	78.089	-0.101	0.106
-283.530	-55.426	0.290	0.128
-282.516	213.647	0.045	0.070
-281.501	-91.699	0.233	0.065
-280.486	-198.169	-0.376	-0.002
-279.472	-200.000	-0.003	0.113
-278.457	79.542	-0.169	0.179
-277.443	760.541	-0.031	-0.084
-276.428	-200.000	0.001	0.028
-275.413	-159.293	-0.284	-0.016
-274.399	132.337	0.011	0.014
-273.384	-62.826	-0.189	-0.077
-272.370	323.471	-0.142	0.267
-271.355	291.334	-0.091	0.164
-270.340	-200.000	-0.016	0.164
-269.326	-200.000	0.011	0.059
-268.311	800.000	-0.026	0.077
-267.297	-98.175	-0.230	-0.058
-266.282	165.632	-0.129	0.179
-265.267	800.000	0.006	0.023
-264.253	60.281	-0.210	-0.205
-263.238	-77.844	0.218	0.074
-262.224	-200.000	0.062	-0.332
-261.209	294.203	0.200	0.361
-260.195	10.573	-0.024	-0.018
-259.180	-33.935	0.133	0.072
-258.165	-116.947	-0.167	-0.030
-257.151	-200.000	0.009	-0.101
-256.136	-125.332	-0.492	0.074
-255.122	-156.890	-0.346	-0.021
-254.107	-136.391	0.413	0.047
-253.092	51.499	0.240	-0.225
-252.078	800.000	-0.073	-0.202
-251.063	-200.000	0.064	0.364
-250.049	800.000	0.101	-0.311
-249.034	-40.228	-0.147	-0.075
-248.019	111.529	-0.154	0.183
-247.005	-200.000	-0.041	0.229
-245.990	-185.785	0.235	0.003
-244.976	-65.060	-0.063	-0.025
-243.961	136.736	0.131	0.169
-242.946	441.161	-0.033	0.071
-241.932	-46.154	-0.323	-0.157
-240.917	-56.283	0.069	0.030
-239.903	-54.020	0.262	0.118
-238.888	-110.625	0.115	0.023
-237.873	-192.715	0.219	0.002
-236.859	-200.000	0.017	0.142
-235.844	32.391	0.251	-0.213
-234.830	-122.988	0.154	0.024
-233.815	-63.761	0.478	-0.193
-232.800	483.964	0.029	0.066
-231.786	-200.000	-0.015	0.364
-230.771	-78.406	0.193	0.065
-229.757	-43.822	-0.203	0.101
-228.742	-62.494	-0.053	0.022
-227.727	33.538	-0.098	-0.084
-226.713	-97.191	-0.050	-0.013
-225.698	-65.670	-0.277	0.109
-224.684	800.000	-0.078	-0.302
-223.669	34.105	0.256	-0.220
-222.655	-56.787	-0.121	0.053
-221.640	-54.509	-0.167	-0.075
-220.625	-143.005	0.188	0.018
-219.611	130.241	0.175	0.221
-218.596	267.762	-0.167	0.289
-217.582	-40.592	-0.181	-0.092
-216.567	-75.697	0.174	-0.061
-215.552	-113.615	0.115	-0.022
-214.538	27.402	-0.081	-0.067
-213.523	407.762	0.035	-0.072
-212.509	-31.570	0.211	-0.117
-211.494	-138.932	0.314	0.034
-210.479	800.000	0.012	0.042
-209.465	-77.425	0.368	-0.126
-208.450	-64.254	-0.280	0.112
-207.436	-126.466	0.232	-0.034
-206.421	101.698	0.165	0.189
-205.406	288.603	-0.094	0.167
-204.392	301.742	-0.150	-0.272
-203.377	-69.384	-0.064	-0.024
-202.363	-142.940	0.078	0.007
-201.348	119.823	0.048	-0.058
-200.333	470.247	0.095	0.210
-199.319	9.126	0.387	0.288
-198.304	-200.000	-0.045	-0.202
-197.290	145.069	-0.040	-0.052
-196.275	51.408	-0.138	-0.129
-195.260	750.147	0.092	0.244
-194.246	150.398	-0.070	-0.093
-193.231	-200.000	0.039	0.360
-192.217	-110.544	-0.495	-0.101
-191.202	672.686	-0.139	-0.355
-190.187	48.646	0.141	-0.130
-189.173	371.771	-0.059	0.119
-188.158	-117.629	0.252	0.045
-187.144	-93.523	-0.064	0.017
-186.129	800.000	0.106	0.363
-185.114	-105.431	0.371	0.083
-184.100	-62.168	-0.166	0.068
-183.085	-200.000	0.016	-0.226
-182.071	-32.950	0.262	-0.143
-181.056	800.000	0.142	-0.504
-180.042	69.350	-0.153	-0.155
-179.027	69.228	-0.043	-0.043
-178.012	49.273	0.089	0.082
-176.998	-116.692	-0.118	-0.021
-175.983	-200.000	-0.000	0.195
-174.969	-107.588	0.285	-0.061
-173.954	2.451	-0.186	0.132
-172.939	-200.000	-0.014	-0.107
-171.925	104.352	0.070	0.081
-170.910	142.748	0.186	-0.242
-169.896	-172.725	0.270	0.008
-168.881	-58.844	0.339	0.144
-167.866	22.987	0.213	0.172
-166.852	-122.320	0.279	0.045
-165.837	-73.458	0.073	0.026
-164.823	-123.465	0.071	-0.011
-163.808	12.712	-0.084	0.063
-162.793	-21.030	-0.202	0.122
-161.779	-99.123	-0.211	0.052
-160.764	-88.753	0.261	0.076
-159.750	27.846	0.149	-0.124
-158.735	38.629	-0.242	0.212
-157.720	-120.192	0.430	0.072
-156.706	800.000	0.049	0.136
-155.691	-8.520	-0.216	-0.143
-154.677	309.925	0.096	-0.176
-153.662	319.358	0.181	0.338
-152.647	96.509	-0.125	0.140
-151.633	-192.571	0.115	0.001
-150.618	-200.000	0.046	-0.490
-149.604	55.310	-0.265	-0.252
-148.589	-200.000	0.062	-0.278
-147.574	-200.000	0.006	0.138
-146.560	-26.755	0.284	0.163
-145.545	621.561	-0.031	0.077
-144.531	-179.867	0.150	0.003
-143.516	31.454	-0.175	0.148
-142.502	-13.828	0.107	0.068
-141.487	-90.818	-0.200	0.057
-140.472	-200.000	-0.039	0.283
-139.458	-3.201	0.432	-0.296
-138.443	800.000	-0.152	-0.458
-137.429	-123.147	-0.136	-0.021
-136.414	800.000	0.022	0.079
-135.399	259.292	0.116	0.196
-134.385	50.893	0.095	0.088
-133.370	-37.522	-0.098	0.051
-132.356	800.000	0.074	0.252
-131.341	297.382	-0.143	0.257
-130.326	-200.000	-0.063	0.329
-129.312	165.957	-0.146	0.202
-128.297	-200.000	0.005	-0.201
-127.283	-200.000	0.059	0.268
-126.268	-54.323	0.188	-0.083
-125.253	-99.071	-0.238	0.059
-124.239	-10.228	0.252	0.164
-123.224	568.525	0.030	-0.073
-122.210	-115.621	0.090	-0.017
-121.195	-172.585	0.393	-0.012
-120.180	-4.868	-0.337	-0.228
