DTS Sentinel unit serial number:	SN413079Multiplexer serial number:	ORYXHardware model number:	OX4-SRSoftware version number:	ORYX F/W v4.00 Oryx Data Collector v3.7.2.0data status	okinstallation	princeton_trtdifferential loss correction	single-endedforward channel	channel 2reverse channel	N/Adate	2019/09/18time	21:15:35forward acquisition time	60.00reverse acquisition time	0.00gamma	496.2192k internal	0.2343k external	0.2343temperature offset calibration	1.0021default loss term (dB/km)	0.3790temperature slope calibration	1.0000multiplexer offset coefficient	1.0000multiplexer slope coefficient	1.0000fibre end	0.00T internal ref (°C)	25.83T ext. ref 1 (°C)	0.84T ext. ref 2 (°C)	18.12length (m)	temperature (°C)	Stokes	anti-Stokes-747.200	-56.829	-0.231	0.102
-746.185	800.000	-0.124	0.369
-745.171	-28.876	0.411	0.236
-744.156	446.957	0.004	-0.008
-743.142	217.501	0.259	-0.413
-742.127	111.800	0.144	0.174
-741.112	-45.989	-0.139	-0.069
-740.098	-200.000	0.025	0.173
-739.083	-146.640	0.353	-0.031
-738.069	-112.139	-0.274	-0.055
-737.054	47.891	0.213	-0.200
-736.039	182.894	-0.198	0.292
-735.025	-141.826	0.126	-0.013
-734.010	26.229	-0.087	-0.073
-732.996	-33.848	-0.326	-0.180
-731.981	15.568	-0.170	0.134
-730.966	-200.000	-0.010	-0.096
-729.952	800.000	0.085	-0.276
-728.937	-17.117	-0.149	-0.094
-727.923	800.000	0.031	-0.133
-726.908	253.812	0.063	0.108
-725.894	199.864	0.190	0.292
-724.879	140.144	0.126	0.166
-723.864	-128.139	-0.360	0.052
-722.850	-40.653	-0.093	0.048
-721.835	-30.009	-0.428	-0.244
-720.821	-85.913	-0.225	-0.070
-719.806	-200.000	-0.049	-0.283
-718.791	-200.000	-0.028	-0.277
-717.777	411.228	-0.110	-0.233
-716.762	561.005	0.095	0.230
-715.748	-200.000	-0.006	-0.041
-714.733	87.289	-0.216	-0.239
-713.718	-200.000	-0.006	-0.070
-712.704	610.917	-0.127	-0.317
-711.689	230.975	-0.164	-0.268
-710.675	800.000	-0.097	-0.390
-709.660	-126.252	0.089	-0.013
-708.645	2.819	-0.098	0.071
-707.631	-35.446	-0.380	-0.206
-706.616	-123.723	-0.239	-0.038
-705.602	52.368	0.080	0.077
-704.587	-17.200	-0.160	-0.101
-703.572	-132.379	0.172	0.022
-702.558	-142.723	-0.077	0.008
-701.543	-83.827	0.125	0.040
-700.529	83.409	-0.260	-0.284
-699.514	415.104	0.034	0.073
-698.499	-49.434	0.253	0.121
-697.485	-16.069	0.162	-0.103
-696.470	800.000	0.039	-0.155
-695.456	-63.990	-0.476	0.194
-694.441	29.510	-0.263	-0.223
-693.426	800.000	0.016	-0.056
-692.412	-88.049	0.340	0.102
-691.397	75.025	-0.183	-0.193
-690.383	-28.670	0.284	-0.164
-689.368	-200.000	0.024	-0.438
-688.354	64.562	0.191	0.192
-687.339	800.000	0.044	0.136
-686.324	-35.517	0.214	0.116
-685.310	13.435	-0.068	0.052
-684.295	800.000	-0.043	0.174
-683.281	-109.654	0.258	0.054
-682.266	-200.000	-0.044	-0.337
-681.251	6.810	-0.161	0.119
-680.237	427.665	-0.054	-0.117
-679.222	-145.597	0.414	0.037
-678.208	197.265	0.019	-0.029
-677.193	487.318	-0.035	0.080
-676.178	800.000	0.059	-0.229
-675.164	-139.414	-0.272	0.029
-674.149	71.075	-0.326	0.337
-673.135	66.105	0.050	-0.050
-672.120	-200.000	-0.007	-0.043
-671.105	-200.000	-0.006	0.080
-670.091	196.481	-0.154	-0.234
-669.076	82.764	-0.095	-0.103
-668.062	601.709	0.049	0.122
-667.047	178.473	0.092	-0.134
-666.032	-52.551	0.328	-0.151
-665.018	-100.828	-0.148	0.036
-664.003	-122.418	0.162	-0.026
-662.989	-121.675	0.164	0.027
-661.974	-27.793	0.333	-0.193
-660.959	800.000	0.134	0.473
-659.945	96.466	-0.102	0.117
-658.930	20.866	0.067	-0.054
-657.916	-16.071	0.063	0.040
-656.901	89.730	0.185	0.207
-655.886	800.000	-0.031	0.129
-654.872	-65.133	-0.190	-0.077
-653.857	211.072	0.168	0.263
-652.843	9.646	-0.166	0.126
-651.828	-7.339	-0.195	-0.132
-650.814	-17.822	-0.287	-0.180
-649.799	649.456	0.109	-0.277
-648.784	-114.971	0.283	0.054
-647.770	-200.000	-0.023	0.195
-646.755	67.748	-0.092	-0.094
-645.741	-74.062	-0.184	-0.066
-644.726	438.269	0.119	0.259
-643.711	153.268	-0.163	0.223
-642.697	-200.000	-0.012	-0.077
-641.682	-133.336	-0.287	0.036
-640.668	-200.000	0.016	-0.337
-639.653	-67.266	-0.188	-0.074
-638.638	-133.981	-0.191	-0.024
-637.624	50.542	-0.223	0.210
-636.609	-184.429	0.162	-0.003
-635.595	-196.550	0.380	-0.003
-634.580	591.782	0.023	0.056
-633.565	-46.135	-0.528	-0.259
-632.551	-112.257	-0.322	-0.064
-631.536	164.928	-0.125	0.175
-630.522	194.411	-0.243	-0.367
-629.507	-115.051	-0.010	-0.002
-628.492	-67.683	-0.161	0.063
-627.478	-134.266	0.263	0.032
-626.463	-200.000	0.014	0.089
-625.449	-89.274	-0.158	0.046
-624.434	-200.000	-0.005	-0.261
-623.419	-174.836	0.133	-0.004
-622.405	729.546	0.006	0.015
-621.390	427.635	-0.134	0.287
-620.376	-1.185	0.134	-0.095
-619.361	606.643	-0.099	-0.246
-618.346	-200.000	0.021	0.098
-617.332	-132.555	-0.295	0.038
-616.317	800.000	-0.049	0.175
-615.303	-200.000	0.005	-0.263
-614.288	-53.711	-0.073	0.033
-613.273	424.730	-0.043	-0.092
-612.259	-153.731	0.246	0.017
-611.244	3.976	0.207	-0.151
-610.230	-188.280	0.091	-0.001
-609.215	-1.648	-0.164	-0.115
-608.201	-200.000	0.020	0.119
-607.186	800.000	-0.100	-0.284
-606.171	-58.848	-0.048	0.021
-605.157	800.000	-0.144	-0.436
-604.142	133.511	0.130	-0.168
-603.128	-194.359	-0.275	0.002
-602.113	278.954	0.152	-0.270
-601.098	172.387	-0.131	-0.187
-600.084	800.000	-0.117	0.435
-599.069	-24.778	-0.196	0.116
-598.055	408.187	0.039	0.082
-597.040	-108.453	0.071	0.015
-596.025	-61.977	0.111	-0.046
-595.011	-147.418	-0.386	0.033
-593.996	-166.103	-0.199	-0.008
-592.982	-62.151	0.301	0.125
-591.967	200.942	0.181	0.277
-590.952	56.080	-0.332	-0.321
-589.938	-22.231	-0.302	0.182
-588.923	72.690	0.075	-0.078
-587.909	-98.139	-0.264	-0.068
-586.894	-104.188	0.362	-0.084
-585.879	800.000	-0.018	-0.065
-584.865	7.294	0.090	0.067
-583.850	-17.452	-0.218	-0.137
-582.836	-200.000	-0.028	0.142
-581.821	395.873	0.007	0.015
-580.806	609.433	-0.111	0.276
-579.792	-95.876	0.130	-0.035
-578.777	36.557	-0.216	0.190
-577.763	73.544	0.278	0.290
-576.748	-155.721	-0.149	0.009
-575.733	70.157	-0.138	-0.142
-574.719	-153.562	-0.130	-0.009
-573.704	-175.248	-0.327	0.009
-572.690	800.000	-0.074	-0.277
-571.675	-34.122	-0.258	-0.141
-570.661	800.000	0.096	-0.362
-569.646	-200.000	0.059	0.297
-568.631	54.126	-0.144	-0.137
-567.617	94.207	-0.079	0.089
-566.602	355.685	-0.089	0.176
-565.588	-118.460	0.370	0.065
-564.573	800.000	-0.108	-0.356
-563.558	473.391	0.032	-0.071
-562.544	-200.000	0.004	-0.192
-561.529	540.010	0.132	-0.312
-560.515	61.846	-0.243	-0.241
-559.500	-27.478	0.195	0.113
-558.485	-111.833	0.392	0.079
-557.471	-89.819	0.286	-0.083
-556.456	-25.338	-0.079	-0.046
-555.442	-200.000	0.048	-0.000
-554.427	-200.000	0.015	0.093
-553.412	-109.911	0.229	0.048
-552.398	-68.326	-0.338	-0.130
-551.383	-40.143	0.203	-0.105
-550.369	40.325	0.174	0.155
-549.354	122.858	-0.127	0.158
-548.339	-200.000	0.005	-0.157
-547.325	25.716	0.469	-0.388
-546.310	-200.000	0.043	0.197
-545.296	77.082	0.054	0.056
-544.281	-200.000	-0.043	-0.239
-543.266	-104.736	0.162	-0.037
-542.252	-200.000	0.002	0.168
-541.237	47.162	0.129	-0.119
-540.223	-200.000	0.023	-0.257
-539.208	130.371	-0.225	-0.287
-538.193	94.673	0.144	0.162
-537.179	-100.592	-0.277	-0.068
-536.164	-21.108	0.039	0.024
-535.150	-42.293	0.096	-0.049
-534.135	-10.173	0.121	-0.080
-533.121	-200.000	-0.028	-0.306
-532.106	-184.137	-0.335	-0.006
-531.091	-126.601	-0.337	-0.050
-530.077	-47.590	0.097	-0.047
-529.062	-23.903	0.097	-0.058
-528.048	-129.197	0.163	-0.023
-527.033	-200.000	0.016	-0.214
-526.018	800.000	0.034	-0.110
-525.004	-200.000	-0.034	-0.241
-523.989	-111.793	0.160	0.032
-522.975	319.884	-0.200	0.378
-521.960	187.547	0.214	0.317
-520.945	-60.655	-0.321	0.135
-519.931	800.000	0.095	0.306
-518.916	7.389	-0.128	-0.095
-517.902	800.000	-0.011	-0.032
-516.887	206.571	0.013	0.019
-515.872	-200.000	-0.041	-0.354
-514.858	252.254	-0.123	-0.208
-513.843	-58.456	-0.116	0.050
-512.829	-38.489	0.366	0.192
-511.814	800.000	0.059	0.218
-510.799	154.224	0.108	-0.147
-509.785	800.000	-0.079	-0.290
-508.770	1.965	0.308	0.221
-507.756	-47.174	0.145	0.070
-506.741	-62.018	0.093	0.038
-505.726	800.000	-0.081	-0.304
-504.712	-95.197	0.120	0.032
-503.697	130.601	-0.246	0.313
-502.683	-135.915	-0.086	0.010
-501.668	37.259	0.401	-0.352
-500.653	-53.395	0.196	-0.089
-499.639	41.222	-0.085	0.076
-498.624	-146.142	-0.071	-0.006
-497.610	-31.181	0.342	0.191
-496.595	-69.072	0.041	0.016
-495.581	143.031	-0.250	0.329
-494.566	-200.000	-0.012	-0.203
-493.551	-80.325	0.104	0.035
-492.537	106.753	-0.306	0.360
-491.522	59.056	-0.117	0.114
-490.508	-69.725	0.055	0.021
-489.493	-45.908	0.188	-0.092
-488.478	-110.266	0.052	-0.011
-487.464	-103.405	-0.222	0.052
-486.449	108.932	-0.067	0.080
-485.435	265.966	0.178	-0.307
-484.420	-75.036	-0.350	-0.124
-483.405	38.913	-0.017	-0.015
-482.391	-69.498	0.236	0.090
-481.376	-73.266	-0.088	-0.032
-480.362	457.558	-0.036	-0.080
-479.347	247.868	-0.066	-0.111
-478.332	178.321	-0.123	-0.178
-477.318	64.775	-0.050	-0.050
-476.303	414.232	-0.084	-0.176
-475.289	-0.783	-0.102	-0.072
-474.274	-21.682	-0.262	-0.158
-473.259	-109.651	-0.290	-0.060
-472.245	800.000	-0.050	-0.191
-471.230	-113.090	0.188	0.037
-470.216	23.200	0.156	0.127
-469.201	-200.000	0.047	0.234
-468.186	-138.212	0.276	-0.030
-467.172	-183.267	0.195	0.003
-466.157	800.000	0.048	0.188
-465.143	58.996	-0.128	0.125
-464.128	-144.944	-0.168	0.015
-463.113	800.000	0.077	0.294
-462.099	800.000	0.036	0.137
-461.084	-174.411	-0.380	0.011
-460.070	126.337	-0.291	-0.364
-459.055	-151.633	-0.090	-0.007
-458.040	242.531	-0.054	-0.090
-457.026	-200.000	0.084	-0.439
-456.011	-200.000	-0.003	0.168
-454.997	-68.347	-0.093	0.036
-453.982	-200.000	-0.001	-0.005
-452.968	52.715	-0.265	0.251
-451.953	27.879	-0.061	0.051
-450.938	-200.000	-0.005	-0.054
-449.924	448.175	0.116	0.254
-448.909	-107.577	-0.195	-0.042
-447.895	800.000	-0.014	0.040
-446.880	-64.401	0.117	0.047
-445.865	233.747	0.087	-0.142
-444.851	612.711	-0.047	-0.116
-443.836	145.182	-0.231	-0.306
-442.822	68.924	-0.160	0.163
-441.807	-119.179	0.172	-0.030
-440.792	-6.872	0.052	0.035
-439.778	418.095	0.146	0.309
-438.763	-200.000	0.062	0.304
-437.749	-50.966	-0.074	-0.034
-436.734	-98.149	-0.086	0.022
-435.719	-6.586	-0.225	-0.151
-434.705	-200.000	-0.037	-0.408
-433.690	-200.000	0.008	0.042
-432.676	193.510	0.183	-0.273
-431.661	328.517	-0.068	-0.128
-430.646	-28.406	0.161	-0.092
-429.632	-200.000	0.054	0.370
-428.617	-156.833	0.300	0.018
-427.603	174.659	-0.042	-0.061
-426.588	-113.517	-0.112	-0.022
-425.573	85.411	0.211	-0.229
-424.559	459.790	0.061	-0.134
-423.544	40.472	-0.139	0.123
-422.530	130.555	0.167	0.212
-421.515	-200.000	0.016	0.247
-420.500	-82.361	-0.349	-0.112
-419.486	-34.917	0.258	-0.139
-418.471	94.824	0.247	0.278
-417.457	169.737	0.139	-0.196
-416.442	800.000	0.049	0.143
-415.428	-56.993	-0.316	-0.138
-414.413	-136.570	-0.134	-0.015
-413.398	-116.106	0.155	-0.028
-412.384	206.688	0.201	-0.310
-411.369	-200.000	-0.013	0.061
-410.355	-200.000	-0.019	-0.404
-409.340	800.000	-0.030	-0.109
-408.325	295.997	0.095	0.173
-407.311	-51.320	0.267	0.124
-406.296	-84.473	-0.195	-0.061
-405.282	-72.093	-0.234	-0.086
-404.267	-67.667	0.207	0.080
-403.252	778.086	-0.083	-0.224
-402.238	37.157	-0.115	0.101
-401.223	-86.643	-0.151	-0.046
-400.209	-200.000	0.065	-0.399
-399.194	-200.000	-0.046	0.297
-398.179	-21.330	-0.244	0.147
-397.165	-15.027	0.028	0.017
-396.150	-200.000	0.032	0.167
-395.136	-4.523	-0.240	-0.164
-394.121	-92.917	0.103	0.028
-393.106	76.428	0.243	0.254
-392.092	139.426	-0.271	0.352
-391.077	800.000	0.109	0.371
-390.063	117.157	0.103	-0.125
-389.048	92.932	-0.133	0.149
-388.033	800.000	0.098	-0.272
-387.019	-75.725	-0.169	0.059
-386.004	-23.896	0.360	-0.213
-384.990	82.073	-0.197	0.210
-383.975	-126.148	0.198	0.029
-382.960	170.762	-0.251	0.355
-381.946	416.409	-0.134	0.281
-380.931	-200.000	-0.012	-0.074
-379.917	-25.353	-0.298	0.174
-378.902	331.345	0.164	-0.311
-377.888	40.501	0.163	0.145
-376.873	471.879	0.076	0.169
-375.858	-20.532	-0.083	-0.050
-374.844	24.587	-0.407	0.332
-373.829	-200.000	-0.015	0.135
-372.815	103.552	-0.166	-0.193
-371.800	-81.373	-0.077	-0.025
-370.785	208.771	0.060	0.093
-369.771	177.255	-0.164	0.235
-368.756	-200.000	0.004	-0.267
-367.742	89.382	0.154	-0.169
-366.727	-200.000	-0.002	-0.032
-365.712	-200.000	-0.015	0.331
-364.698	-83.807	-0.106	-0.033
-363.683	-200.000	0.068	-0.417
-362.669	-200.000	-0.016	-0.076
-361.654	-20.843	0.125	-0.076
-360.639	-19.753	0.258	-0.157
-359.625	81.087	-0.234	-0.249
-358.610	604.992	0.091	-0.223
-357.596	-110.475	-0.195	0.040
-356.581	128.151	0.108	0.135
-355.566	-61.917	0.176	-0.073
-354.552	-32.076	-0.234	-0.129
-353.537	-90.097	0.094	-0.027
-352.523	88.421	0.169	0.185
-351.508	26.361	-0.176	-0.145
-350.493	-114.032	0.360	0.069
-349.479	18.239	-0.333	-0.262
-348.464	23.924	-0.192	0.156
-347.450	-13.084	-0.100	-0.064
-346.435	-200.000	0.030	-0.334
-345.420	3.672	0.316	-0.227
-344.406	-71.730	0.246	0.090
-343.391	146.882	0.063	-0.084
-342.377	-90.467	0.518	0.148
-341.362	-51.102	0.322	0.149
-340.348	23.345	-0.224	0.181
-339.333	107.754	-0.116	-0.137
-338.318	-17.061	-0.241	0.150
-337.304	800.000	0.061	0.179
-336.289	165.531	-0.214	0.298
-335.275	-200.000	-0.325	0.000
-334.260	800.000	0.046	0.179
-333.245	-137.062	0.207	0.023
-332.231	-200.000	-0.019	-0.159
-331.216	258.118	0.075	0.127
-330.202	-5.588	-0.142	0.096
-329.187	443.073	-0.098	0.211
-328.172	38.285	0.069	0.060
-327.158	800.000	0.038	0.153
-326.143	-200.000	-0.068	-0.410
-325.129	-132.928	-0.426	-0.053
-324.114	14.468	0.375	0.288
-323.099	-200.000	-0.064	0.341
-322.085	150.163	-0.075	-0.100
-321.070	-200.000	-0.002	-0.161
-320.056	-200.000	0.088	0.411
-319.041	4.410	0.046	-0.033
-318.026	-49.877	0.245	0.115
-317.012	-200.000	-0.032	0.357
-315.997	14.571	0.044	0.034
-314.983	-48.646	0.263	-0.124
-313.968	107.929	-0.277	-0.325
-312.953	-185.365	0.453	-0.007
-311.939	116.053	-0.087	-0.105
-310.924	-50.486	-0.042	-0.019
-309.910	800.000	-0.082	0.270
-308.895	-38.581	0.221	-0.115
-307.880	-65.067	0.334	-0.133
-306.866	240.924	-0.116	0.191
-305.851	-92.306	-0.105	0.029
-304.837	-134.701	0.046	0.005
-303.822	-200.000	-0.006	0.234
-302.807	-103.507	-0.045	-0.010
-301.793	55.457	-0.064	0.061
-300.778	800.000	-0.018	-0.068
-299.764	477.062	-0.134	-0.299
-298.749	800.000	-0.042	0.150
-297.735	-108.715	0.123	0.026
-296.720	-200.000	-0.018	-0.211
-295.705	72.226	0.193	0.198
-294.691	206.262	0.161	-0.246
-293.676	-117.983	0.167	0.029
-292.662	-200.000	0.032	0.281
-291.647	-3.794	-0.120	0.082
-290.632	-33.059	0.195	-0.106
-289.618	800.000	0.066	-0.282
-288.603	-81.048	0.071	-0.023
-287.589	-200.000	-0.014	-0.176
-286.574	82.692	0.044	0.047
-285.559	-87.600	0.075	-0.022
-284.545	-121.330	-0.337	-0.055
-283.530	-90.919	0.281	-0.080
-282.516	-24.989	-0.235	-0.137
-281.501	147.610	0.182	-0.241
-280.486	800.000	-0.063	-0.263
-279.472	111.409	0.066	0.078
-278.457	46.300	-0.119	0.109
-277.443	27.369	-0.344	0.284
-276.428	-145.541	0.327	-0.029
-275.413	296.044	0.223	-0.402
-274.399	76.292	0.041	-0.043
-273.384	40.609	-0.177	-0.157
-272.370	-36.055	-0.265	-0.141
-271.355	239.074	-0.084	-0.137
-270.340	-200.000	-0.034	0.236
-269.326	-200.000	0.009	0.141
-268.311	-200.000	0.081	0.456
-267.297	-44.099	0.199	0.098
-266.282	-190.515	-0.422	-0.004
-265.267	-78.473	0.210	0.071
-264.253	-200.000	-0.001	-0.195
-263.238	63.395	-0.218	0.215
-262.224	578.145	-0.034	-0.081
-261.209	474.453	0.013	-0.029
-260.195	-200.000	-0.008	-0.254
-259.180	-25.213	0.196	0.114
-258.165	-162.183	-0.118	-0.006
-257.151	-38.512	-0.142	-0.073
-256.136	531.535	-0.063	-0.147
-255.122	-88.519	-0.079	0.023
-254.107	800.000	-0.107	0.318
-253.092	-55.035	-0.270	-0.119
-252.078	-63.733	-0.057	0.023
-251.063	-99.303	0.105	0.026
-250.049	-26.033	0.092	0.053
-249.034	800.000	0.108	-0.409
-248.019	800.000	0.075	0.250
-247.005	-133.090	0.156	-0.019
-245.990	800.000	0.146	0.431
-244.976	-200.000	-0.007	0.276
-243.961	-46.426	0.091	0.044
-242.946	-52.784	0.098	0.044
-241.932	-71.150	-0.185	0.068
-240.917	63.407	0.179	-0.177
-239.903	-22.025	-0.015	-0.009
-238.888	516.822	-0.184	-0.421
-237.873	-32.377	0.285	0.156
-236.859	56.052	0.086	-0.082
-235.844	-40.497	0.209	0.106
-234.830	-59.471	-0.309	-0.130
-233.815	-32.923	0.091	0.049
-232.800	800.000	0.050	0.137
-231.786	-57.610	0.259	-0.111
-230.771	69.930	0.146	0.148
-229.757	27.333	0.246	0.203
-228.742	86.961	0.190	-0.206
-227.727	182.491	0.164	-0.238
-226.713	-200.000	-0.043	-0.218
-225.698	103.285	0.266	-0.306
-224.684	800.000	-0.054	0.154
-223.669	-51.842	-0.176	-0.080
-222.655	-53.984	0.076	-0.034
-221.640	800.000	0.024	-0.076
-220.625	-9.151	-0.215	-0.141
-219.611	49.723	0.276	0.255
-218.596	28.815	0.152	-0.127
-217.582	450.324	0.100	-0.217
-216.567	-89.747	0.181	0.052
-215.552	676.257	-0.103	0.263
-214.538	-200.000	0.013	0.233
-213.523	-32.872	-0.147	0.080
-212.509	157.684	-0.145	0.196
-211.494	-93.708	0.155	0.042
-210.479	15.822	-0.090	-0.069
-209.465	800.000	-0.022	-0.074
-208.450	-200.000	0.004	-0.163
-207.436	215.702	0.129	0.201
-206.421	200.342	0.069	0.103
-205.406	-200.000	-0.032	0.736
-204.392	47.861	-0.024	0.022
-203.377	-200.000	-0.002	0.158
-202.363	0.323	-0.126	-0.088
-201.348	-82.291	0.567	0.181
-200.333	-102.786	-0.060	-0.014
-199.319	-58.253	-0.258	-0.110
-198.304	800.000	0.114	0.390
-197.290	180.987	-0.014	0.020
-196.275	-97.943	0.178	-0.045
-195.260	502.558	0.109	0.246
-194.246	-16.473	0.030	0.019
-193.231	-127.000	0.099	0.014
-192.217	15.156	-0.104	-0.080
-191.202	-61.529	0.242	0.099
-190.187	95.667	-0.081	0.091
-189.173	45.635	0.120	-0.108
-188.158	-58.801	0.223	-0.095
-187.144	68.537	-0.085	0.085
-186.129	322.755	-0.098	0.183
-185.114	-200.000	0.028	0.303
-184.100	303.719	-0.108	0.196
-183.085	94.938	-0.192	-0.214
-182.071	9.899	0.236	-0.175
-181.056	-200.000	0.034	0.150
-180.042	406.600	0.135	0.279
-179.027	-200.000	-0.013	0.206
-178.012	-200.000	-0.068	0.431
-176.998	-87.246	-0.154	0.046
-175.983	-200.000	0.027	0.144
-174.969	152.083	0.100	0.134
-173.954	-200.000	-0.016	0.449
-172.939	-200.000	0.023	-0.327
-171.925	9.434	-0.116	-0.086
-170.910	245.775	0.228	-0.375
-169.896	-114.397	-0.255	-0.048
-168.881	783.753	0.034	-0.092
-167.866	800.000	-0.186	-0.533
-166.852	-20.956	0.335	-0.201
-165.837	71.386	0.112	0.114
-164.823	207.504	0.204	-0.312
-163.808	-128.592	-0.179	0.025
-162.793	-200.000	-0.012	0.311
-161.779	-189.307	-0.087	-0.001
-160.764	17.558	0.046	-0.036
-159.750	800.000	0.012	-0.044
-158.735	-45.087	0.212	0.103
-157.720	800.000	0.017	0.066
-156.706	122.858	-0.084	-0.103
-155.691	-200.000	-0.009	-0.262
-154.677	800.000	0.113	0.323
-153.662	-71.900	-0.243	-0.089
-152.647	-23.118	-0.048	0.028
-151.633	800.000	-0.120	0.396
-150.618	800.000	-0.128	-0.400
-149.604	-98.758	0.250	-0.062
-148.589	-164.809	-0.355	-0.016
-147.574	-150.037	-0.134	-0.010
-146.560	-200.000	-0.031	-0.246
-145.545	125.176	-0.064	-0.079
-144.531	25.547	-0.109	0.089
-143.516	-93.239	0.288	-0.078
-142.502	-200.000	-0.022	0.108
-141.487	-200.000	0.060	0.437
-140.472	-200.000	-0.020	0.157
-139.458	-80.800	0.310	-0.101
-138.443	379.630	-0.015	0.030
-137.429	-152.136	-0.104	-0.007
-136.414	134.862	0.065	-0.082
-135.399	800.000	-0.021	-0.066
-134.385	-186.266	-0.439	0.006
-133.370	-116.530	0.115	-0.021
-132.356	800.000	0.057	-0.200
-131.341	310.259	0.091	-0.166
-130.326	68.420	0.117	-0.118
-129.312	334.439	-0.051	-0.096
-128.297	-5.242	0.038	-0.026
-127.283	221.011	0.199	-0.313
-126.268	-200.000	-0.063	0.481
-125.253	-144.563	-0.124	0.011
-124.239	-89.895	0.445	-0.127
-123.224	-80.448	0.177	-0.058
-122.210	-93.240	0.294	-0.080
-121.195	354.500	0.100	0.195
