DTS Sentinel unit serial number:	SN413079Multiplexer serial number:	ORYXHardware model number:	OX4-SRSoftware version number:	ORYX F/W v4.00 Oryx Data Collector v3.7.2.0data status	okinstallation	princeton_trtdifferential loss correction	single-endedforward channel	channel 2reverse channel	N/Adate	2019/09/16time	10:31:35forward acquisition time	60.00reverse acquisition time	0.00gamma	496.2192k internal	0.2318k external	0.2318temperature offset calibration	0.9957default loss term (dB/km)	0.3790temperature slope calibration	1.0000multiplexer offset coefficient	1.0000multiplexer slope coefficient	1.0000fibre end	0.00T internal ref (°C)	35.36T ext. ref 1 (°C)	12.57T ext. ref 2 (°C)	33.76length (m)	temperature (°C)	Stokes	anti-Stokes-747.200	121.485	-0.168	0.212
-746.185	-127.444	0.184	-0.027
-745.171	-200.000	0.033	-0.169
-744.156	510.262	0.042	-0.098
-743.142	202.825	0.079	-0.124
-742.127	-51.812	-0.359	-0.169
-741.112	440.155	0.036	-0.080
-740.098	-77.465	0.139	0.049
-739.083	-159.690	0.200	0.011
-738.069	-79.429	0.090	0.031
-737.054	-92.868	0.251	-0.071
-736.039	800.000	-0.108	-0.316
-735.025	-73.987	0.332	0.122
-734.010	800.000	0.056	0.195
-732.996	-63.380	-0.208	0.086
-731.981	-115.571	-0.073	0.014
-730.966	800.000	-0.035	-0.138
-729.952	32.321	0.037	-0.032
-728.937	-70.664	-0.293	-0.112
-727.923	-38.738	-0.391	-0.209
-726.908	-73.897	0.324	0.119
-725.894	75.657	0.277	-0.296
-724.879	376.538	-0.044	0.092
-723.864	-139.972	0.329	-0.035
-722.850	-74.101	0.069	-0.025
-721.835	6.138	0.427	-0.320
-720.821	-200.000	-0.008	-0.388
-719.806	-200.000	-0.010	-0.085
-718.791	212.739	0.091	-0.145
-717.777	146.987	0.150	-0.204
-716.762	115.596	-0.283	0.350
-715.748	-200.000	-0.019	-0.235
-714.733	-115.019	-0.191	0.037
-713.718	74.379	-0.149	0.158
-712.704	-187.375	-0.201	-0.003
-711.689	-108.104	-0.151	0.033
-710.675	800.000	-0.030	0.111
-709.660	602.876	0.022	0.056
-708.645	-181.449	0.274	0.005
-707.631	698.620	-0.094	-0.249
-706.616	86.120	-0.128	-0.142
-705.602	-200.000	0.023	0.256
-704.587	503.464	-0.057	0.133
-703.572	-200.000	-0.054	-0.266
-702.558	383.780	0.122	0.253
-701.543	96.156	0.143	0.165
-700.529	92.850	-0.047	0.054
-699.514	189.547	-0.038	0.058
-698.499	275.832	-0.056	0.101
-697.485	-36.504	0.021	-0.011
-696.470	-84.499	0.058	-0.019
-695.456	800.000	0.091	0.269
-694.441	-200.000	0.046	0.437
-693.426	-200.000	0.082	0.370
-692.412	-22.052	-0.479	0.294
-691.397	-91.354	0.213	-0.062
-690.383	17.444	-0.102	-0.082
-689.368	-86.971	-0.286	-0.088
-688.354	35.264	0.014	-0.013
-687.339	-200.000	0.024	-0.153
-686.324	800.000	-0.030	-0.101
-685.310	27.687	-0.339	-0.288
-684.295	-23.708	-0.198	-0.120
-683.281	800.000	0.054	0.212
-682.266	12.425	0.093	0.072
-681.251	-200.000	-0.032	0.149
-680.237	800.000	0.060	-0.194
-679.222	-77.527	-0.403	0.141
-678.208	-46.173	0.295	0.146
-677.193	-141.050	-0.091	0.009
-676.178	772.053	0.084	-0.231
-675.164	26.810	-0.061	-0.052
-674.149	-127.403	0.120	-0.018
-673.135	45.132	0.145	-0.135
-672.120	7.612	-0.410	0.310
-671.105	800.000	0.035	-0.110
-670.091	800.000	0.052	-0.193
-669.076	15.602	0.255	-0.202
-668.062	-200.000	0.034	-0.179
-667.047	-164.805	-0.293	-0.013
-666.032	-200.000	0.023	-0.326
-665.018	-200.000	-0.033	0.350
-664.003	-180.754	-0.198	-0.004
-662.989	261.014	0.237	-0.414
-661.974	421.060	-0.101	0.217
-660.959	800.000	0.105	0.376
-659.945	704.186	-0.141	-0.376
-658.930	800.000	-0.103	-0.309
-657.916	-3.945	0.324	0.227
-656.901	14.710	-0.178	-0.141
-655.886	-72.275	0.163	-0.061
-654.872	-200.000	-0.048	0.336
-653.857	373.934	-0.151	0.310
-652.843	800.000	-0.037	0.107
-651.828	-107.069	-0.070	-0.016
-650.814	56.444	0.232	0.227
-649.799	-200.000	-0.037	-0.266
-648.784	140.072	-0.265	-0.352
-647.770	51.222	-0.316	0.303
-646.755	42.837	-0.113	0.103
-645.741	-200.000	-0.018	-0.251
-644.726	-61.927	0.225	0.095
-643.711	73.481	0.177	0.187
-642.697	-122.615	0.295	0.048
-641.682	-40.422	-0.230	0.120
-640.668	800.000	0.084	0.317
-639.653	-91.389	0.115	-0.033
-638.638	545.229	-0.045	-0.107
-637.624	800.000	0.064	0.259
-636.609	-132.325	-0.206	-0.027
-635.595	800.000	0.044	0.141
-634.580	-119.230	0.295	0.052
-633.565	63.649	-0.036	-0.036
-632.551	-200.000	-0.028	-0.203
-631.536	6.351	-0.147	-0.110
-630.522	-100.445	-0.275	0.069
-629.507	-130.161	0.315	-0.043
-628.492	-35.527	0.199	0.109
-627.478	285.101	-0.072	-0.130
-626.463	32.191	-0.314	-0.273
-625.449	-50.148	-0.146	0.070
-624.434	-78.009	0.355	-0.123
-623.419	-65.022	0.197	0.080
-622.405	191.336	-0.224	0.340
-621.390	-28.967	0.110	0.064
-620.376	-151.558	-0.174	0.013
-619.361	592.843	-0.101	-0.250
-618.346	162.094	0.094	0.132
-617.332	129.170	-0.046	0.059
-616.317	19.729	0.242	-0.197
-615.303	800.000	0.048	-0.166
-614.288	-66.710	0.075	0.030
-613.273	-25.710	-0.233	0.138
-612.259	-153.860	-0.307	0.021
-611.244	-108.590	-0.206	0.045
-610.230	-200.000	0.004	0.045
-609.215	-92.854	-0.319	0.090
-608.201	-60.702	-0.191	0.081
-607.186	41.643	-0.160	0.146
-606.171	-23.858	-0.201	0.121
-605.157	37.461	-0.173	-0.154
-604.142	-200.000	0.036	-0.418
-603.128	399.503	-0.175	0.368
-602.113	800.000	-0.033	-0.108
-601.098	706.166	0.094	-0.250
-600.084	404.081	0.081	0.173
-599.069	-8.202	-0.065	0.044
-598.055	-86.381	-0.332	0.103
-597.040	-118.167	0.267	-0.048
-596.025	-87.278	-0.146	-0.044
-595.011	-40.837	0.273	-0.142
-593.996	140.229	0.081	-0.107
-592.982	28.204	0.259	0.220
-591.967	196.378	0.057	-0.087
-590.952	5.527	-0.250	-0.186
-589.938	187.741	-0.082	-0.124
-588.923	304.624	0.122	0.228
-587.909	-67.195	-0.205	-0.081
-586.894	258.630	-0.018	0.032
-585.879	71.414	-0.191	-0.199
-584.865	800.000	0.116	-0.383
-583.850	-27.732	-0.127	-0.074
-582.836	-74.397	-0.468	0.170
-581.821	800.000	-0.098	-0.353
-580.806	54.203	-0.281	-0.272
-579.792	-200.000	0.034	-0.277
-578.777	413.088	0.022	0.048
-577.763	68.434	0.046	0.047
-576.748	249.803	-0.097	-0.165
-575.733	163.532	-0.174	-0.246
-574.719	-148.946	0.169	0.014
-573.704	246.505	0.099	0.168
-572.690	288.502	0.065	0.118
-571.675	-64.697	0.441	0.180
-570.661	-131.058	0.282	-0.038
-569.646	800.000	0.039	0.153
-568.631	-80.552	-0.345	0.116
-567.617	-17.962	-0.417	-0.263
-566.602	-37.932	-0.116	0.062
-565.588	257.915	-0.166	0.287
-564.573	-200.000	0.004	0.096
-563.558	-67.737	0.192	-0.075
-562.544	-79.640	-0.069	-0.023
-561.529	-200.000	-0.052	-0.242
-560.515	-200.000	0.030	-0.244
-559.500	-200.000	-0.066	-0.380
-558.485	800.000	-0.048	-0.136
-557.471	276.474	0.042	-0.074
-556.456	265.960	-0.111	-0.195
-555.442	641.294	-0.032	-0.081
-554.427	-160.379	0.295	0.016
-553.412	34.124	-0.136	-0.119
-552.398	558.524	0.053	-0.130
-551.383	-200.000	-0.035	0.201
-550.369	800.000	-0.036	-0.119
-549.354	325.756	-0.071	-0.137
-548.339	48.735	-0.133	-0.125
-547.325	61.114	0.404	0.403
-546.310	800.000	-0.070	0.272
-545.296	-200.000	0.014	0.105
-544.281	800.000	-0.145	0.532
-543.266	-200.000	0.025	-0.118
-542.252	175.335	-0.147	0.213
-541.237	325.966	-0.056	0.108
-540.223	-65.755	-0.190	-0.076
-539.208	-53.119	0.117	0.054
-538.193	488.703	0.087	0.199
-537.179	800.000	0.065	-0.209
-536.164	-51.654	0.375	0.176
-535.150	-33.687	0.060	0.033
-534.135	-12.252	-0.086	0.056
-533.121	-70.895	0.202	0.076
-532.106	-200.000	0.013	-0.136
-531.091	244.851	0.135	0.228
-530.077	-88.827	0.116	-0.034
-529.062	-58.314	-0.114	-0.050
-528.048	-84.376	0.071	-0.023
-527.033	-200.000	-0.033	0.329
-526.018	-103.379	0.266	0.063
-525.004	-153.916	0.192	-0.013
-523.989	-145.994	0.186	0.017
-522.975	578.030	-0.124	0.304
-521.960	64.485	-0.145	-0.147
-520.945	315.936	-0.126	-0.238
-519.931	80.201	-0.146	0.157
-518.916	9.097	-0.112	0.085
-517.902	205.791	0.074	-0.116
-516.887	-200.000	-0.049	0.273
-515.872	47.021	0.042	0.039
-514.858	-200.000	-0.000	0.064
-513.843	-140.811	-0.232	-0.024
-512.829	111.858	0.103	-0.125
-511.814	26.961	0.213	0.179
-510.799	-181.397	-0.095	-0.002
-509.785	-13.616	0.189	0.123
-508.770	800.000	-0.040	-0.155
-507.756	50.578	0.191	-0.181
-506.741	-200.000	-0.007	-0.059
-505.726	-100.855	-0.147	0.036
-504.712	42.082	0.260	0.237
-503.697	67.058	0.103	-0.105
-502.683	420.286	-0.166	-0.357
-501.668	630.448	-0.126	-0.319
-500.653	3.375	0.280	-0.204
-499.639	121.700	0.185	-0.231
-498.624	412.556	0.048	-0.101
-497.610	-70.875	-0.132	-0.050
-496.595	-104.098	0.112	-0.026
-495.581	-150.006	0.221	-0.017
-494.566	488.597	0.145	0.333
-493.551	391.284	0.047	0.098
-492.537	202.287	-0.193	0.299
-491.522	461.770	-0.014	-0.031
-490.508	-81.235	0.199	-0.066
-489.493	800.000	-0.050	-0.207
-488.478	47.564	-0.339	0.316
-487.464	-101.209	-0.402	0.098
-486.449	800.000	0.092	-0.255
-485.435	-131.637	-0.207	0.027
-484.420	79.598	-0.182	0.196
-483.405	-78.942	0.090	-0.031
-482.391	-73.742	-0.395	0.144
-481.376	-200.000	-0.024	-0.343
-480.362	5.856	-0.194	0.144
-479.347	127.076	0.073	-0.093
-478.332	-200.000	0.004	0.109
-477.318	-200.000	-0.005	0.096
-476.303	-40.730	-0.276	-0.143
-475.289	-91.684	-0.392	-0.112
-474.274	-76.006	0.169	0.060
-473.259	-55.356	0.153	0.069
-472.245	800.000	0.101	-0.340
-471.230	5.529	0.291	0.215
-470.216	-74.628	0.305	-0.110
-469.201	-54.278	-0.084	0.038
-468.186	174.301	-0.213	0.308
-467.172	-200.000	-0.008	-0.080
-466.157	-55.655	0.374	0.168
-465.143	800.000	-0.052	0.217
-464.128	234.329	0.146	0.240
-463.113	251.795	0.041	-0.070
-462.099	-67.756	0.210	-0.082
-461.084	-77.779	-0.478	-0.165
-460.070	-105.543	-0.054	0.012
-459.055	-42.213	0.217	-0.111
-458.040	-200.000	0.020	0.137
-457.026	96.288	-0.005	-0.006
-456.011	-42.105	-0.153	0.079
-454.997	48.371	0.103	0.097
-453.982	800.000	-0.078	0.269
-452.968	22.538	0.276	-0.226
-451.953	546.162	0.123	-0.295
-450.938	-200.000	0.021	0.267
-449.924	156.079	0.082	-0.114
-448.909	-68.589	0.249	-0.096
-447.895	-200.000	-0.005	-0.149
-446.880	-200.000	-0.012	0.116
-445.865	-99.802	0.463	-0.116
-444.851	-200.000	-0.044	0.257
-443.836	800.000	-0.120	0.353
-442.822	58.274	-0.139	-0.136
-441.807	62.525	-0.150	0.150
-440.792	-8.209	-0.016	-0.011
-439.778	134.700	0.133	0.172
-438.763	-109.087	-0.166	0.035
-437.749	800.000	0.134	0.508
-436.734	335.793	0.062	0.120
-435.719	-127.532	-0.042	0.006
-434.705	697.716	-0.138	-0.364
-433.690	-200.000	-0.055	0.309
-432.676	70.871	-0.201	0.208
-431.661	173.202	-0.284	-0.409
-430.646	-38.871	-0.391	-0.206
-429.632	155.081	0.168	-0.231
-428.617	-200.000	0.014	0.069
-427.603	53.360	0.261	0.250
-426.588	209.152	0.114	0.179
-425.573	50.939	0.164	-0.155
-424.559	573.159	-0.138	-0.336
-423.544	13.836	0.262	-0.204
-422.530	800.000	0.080	-0.316
-421.515	19.810	-0.241	-0.194
-420.500	-37.039	-0.056	0.030
-419.486	164.731	0.217	0.306
-418.471	-200.000	-0.019	0.229
-417.457	-110.555	-0.182	0.038
-416.442	-200.000	0.000	0.152
-415.428	-19.310	0.118	0.073
-414.413	-18.435	-0.208	-0.130
-413.398	-39.536	0.187	0.098
-412.384	-11.204	-0.159	0.105
-411.369	152.570	0.105	-0.143
-410.355	-11.703	0.044	-0.029
-409.340	-20.985	0.267	-0.163
-408.325	193.174	0.094	-0.141
-407.311	800.000	0.060	-0.245
-406.296	88.351	0.220	0.245
-405.282	-122.208	-0.145	0.024
-404.267	-19.113	0.044	0.027
-403.252	16.207	-0.020	0.016
-402.238	152.509	-0.153	0.209
-401.223	110.533	0.141	0.169
-400.209	-75.116	0.310	-0.111
-399.194	-98.705	-0.203	0.052
-398.179	-15.516	-0.280	-0.178
-397.165	-4.912	-0.341	-0.235
-396.150	246.161	0.115	0.193
-395.136	325.722	-0.141	-0.269
-394.121	-134.641	-0.186	-0.023
-393.106	183.227	-0.160	-0.236
-392.092	-2.679	-0.306	-0.214
-391.077	-100.114	-0.115	-0.029
-390.063	-99.153	0.307	0.078
-389.048	-49.500	0.200	-0.095
-388.033	-101.825	-0.351	0.085
-387.019	-55.002	0.118	0.053
-386.004	-200.000	-0.009	-0.511
-384.990	800.000	0.127	0.396
-383.975	35.093	0.227	0.199
-382.960	800.000	0.062	0.179
-381.946	-82.498	0.203	-0.066
-380.931	-48.167	0.246	-0.119
-379.917	-94.859	0.455	-0.123
-378.902	-117.957	0.481	0.086
-377.888	-107.144	-0.040	0.009
-376.873	800.000	0.059	0.172
-375.858	-200.000	-0.048	-0.270
-374.844	439.961	-0.025	-0.055
-373.829	7.273	-0.172	-0.128
-372.815	191.007	0.268	0.402
-371.800	-110.108	0.076	0.016
-370.785	-63.029	0.090	-0.037
-369.771	-138.350	-0.056	-0.006
-368.756	-200.000	-0.011	-0.244
-367.742	-146.726	-0.138	0.012
-366.727	-145.402	0.176	-0.016
-365.712	-187.196	-0.082	0.001
-364.698	800.000	0.019	-0.055
-363.683	-200.000	-0.035	0.196
-362.669	7.251	-0.196	-0.146
-361.654	-200.000	0.081	0.405
-360.639	31.603	-0.096	-0.082
-359.625	40.580	-0.162	0.145
-358.610	53.217	0.203	0.194
-357.596	-147.758	0.243	0.020
-356.581	-128.371	-0.216	0.031
-355.566	-129.273	0.458	0.064
-354.552	131.501	-0.169	-0.216
-353.537	-200.000	0.022	0.251
-352.523	188.859	-0.081	-0.121
-351.508	-200.000	-0.013	-0.109
-350.493	148.523	0.101	-0.136
-349.479	-18.136	0.227	-0.141
-348.464	186.662	-0.118	0.175
-347.450	265.815	-0.137	-0.239
-346.435	-59.685	0.380	-0.162
-345.420	800.000	-0.082	-0.287
-344.406	522.684	0.109	-0.256
-343.391	800.000	0.140	-0.401
-342.377	-74.671	-0.026	0.009
-341.362	-200.000	0.003	0.092
-340.348	-121.179	-0.108	0.018
-339.333	800.000	0.041	-0.114
-338.318	6.524	0.154	0.114
-337.304	800.000	-0.070	-0.222
-336.289	17.960	-0.201	-0.159
-335.275	-175.465	0.145	0.004
-334.260	800.000	-0.072	0.242
-333.245	238.047	0.060	0.098
-332.231	800.000	0.020	0.070
-331.216	800.000	-0.117	0.380
-330.202	231.586	0.250	0.408
-329.187	800.000	0.038	0.124
-328.172	-2.869	-0.160	-0.111
-327.158	38.708	-0.108	-0.096
-326.143	153.694	-0.058	0.079
-325.129	800.000	0.180	0.501
-324.114	38.940	-0.115	0.102
-323.099	183.307	-0.104	0.152
-322.085	23.809	-0.163	0.134
-321.070	10.832	-0.123	-0.094
-320.056	324.032	-0.133	0.253
-319.041	-146.791	0.172	0.015
-318.026	-31.235	0.116	0.065
-317.012	87.155	-0.209	0.230
-315.997	800.000	0.038	-0.111
-314.983	-200.000	-0.001	0.252
-313.968	-78.786	-0.243	0.083
-312.953	800.000	-0.092	0.352
-311.939	11.556	-0.200	0.152
-310.924	-69.656	0.300	-0.114
-309.910	103.222	0.064	0.074
-308.895	-200.000	0.056	0.429
-307.880	223.115	0.050	-0.081
-306.866	103.214	-0.072	0.084
-305.851	249.077	-0.073	0.123
-304.837	-83.568	-0.114	0.036
-303.822	702.246	0.069	-0.180
-302.807	-200.000	-0.011	0.067
-301.793	-35.965	-0.037	0.020
-300.778	230.990	-0.190	-0.309
-299.764	-91.953	-0.193	0.054
-298.749	251.275	-0.092	0.155
-297.735	548.684	-0.094	-0.224
-296.720	-159.497	0.264	0.015
-295.705	-10.376	-0.474	-0.312
-294.691	-200.000	0.015	0.156
-293.676	35.099	0.141	0.123
-292.662	39.710	0.209	-0.186
-291.647	800.000	0.021	-0.063
-290.632	-170.046	0.392	-0.014
-289.618	-200.000	-0.020	0.121
-288.603	67.239	0.140	0.142
-287.589	274.564	-0.036	0.063
-286.574	189.923	0.182	-0.271
-285.559	196.051	-0.211	-0.319
-284.545	-181.767	-0.455	0.009
-283.530	-127.591	0.457	-0.066
-282.516	274.573	0.150	-0.265
-281.501	-73.317	-0.170	-0.062
-280.486	-200.000	-0.002	-0.056
-279.472	-200.000	0.053	0.303
-278.457	-146.374	-0.194	-0.017
-277.443	-76.912	0.131	0.046
-276.428	-200.000	0.012	0.232
-275.413	-57.275	-0.242	-0.106
-274.399	80.157	0.082	0.088
-273.384	98.446	0.168	0.192
-272.370	258.060	-0.194	-0.332
-271.355	-200.000	-0.023	-0.215
-270.340	-143.258	-0.150	0.014
-269.326	-200.000	0.084	0.516
-268.311	30.603	-0.383	0.326
-267.297	-94.984	-0.212	0.057
-266.282	-49.421	0.418	0.198
-265.267	800.000	0.102	-0.284
-264.253	69.211	0.014	-0.015
-263.238	128.726	-0.165	0.209
-262.224	800.000	-0.123	-0.390
-261.209	61.234	-0.096	0.095
-260.195	241.733	0.113	-0.188
-259.180	206.684	0.187	-0.289
-258.165	111.589	0.025	0.030
-257.151	674.803	-0.103	-0.266
-256.136	-64.585	-0.290	-0.117
-255.122	-51.968	-0.044	-0.020
-254.107	23.327	0.351	0.287
-253.092	55.716	0.182	0.175
-252.078	-200.000	-0.016	0.419
-251.063	-200.000	0.025	0.159
-250.049	-39.313	-0.287	-0.150
-249.034	-186.759	0.110	0.002
-248.019	-66.163	-0.037	0.015
-247.005	-80.904	0.297	-0.098
-245.990	-83.873	0.195	-0.062
-244.976	-85.570	-0.134	0.041
-243.961	551.599	0.035	-0.083
-242.946	-11.751	-0.352	-0.229
-241.932	-33.103	0.284	-0.156
-240.917	76.015	0.068	-0.071
-239.903	-102.035	-0.175	-0.042
-238.888	-32.562	-0.175	0.097
-237.873	800.000	0.042	-0.123
-236.859	-200.000	-0.002	-0.174
-235.844	-159.025	0.186	-0.010
-234.830	-18.574	-0.108	-0.067
-233.815	-10.108	-0.089	-0.059
-232.800	-47.976	-0.282	-0.136
-231.786	249.972	-0.076	0.128
-230.771	-79.077	0.293	-0.099
-229.757	-200.000	-0.004	0.046
-228.742	-200.000	-0.067	0.324
-227.727	-200.000	-0.001	-0.067
-226.713	-96.171	0.441	0.116
-225.698	-90.682	0.184	0.053
-224.684	-101.130	0.203	0.049
-223.669	800.000	0.105	-0.298
-222.655	33.814	-0.034	0.030
-221.640	-200.000	0.005	0.138
-220.625	101.198	0.090	0.104
-219.611	-161.939	-0.229	0.012
-218.596	-60.669	-0.212	-0.089
-217.582	-200.000	-0.021	0.099
-216.567	-200.000	-0.035	0.205
-215.552	-1.040	-0.122	-0.085
-214.538	-84.095	-0.106	0.033
-213.523	212.857	-0.199	0.311
-212.509	-41.878	0.112	-0.057
-211.494	-38.523	0.145	0.076
-210.479	800.000	0.064	0.203
-209.465	-200.000	-0.054	0.264
-208.450	-0.717	0.216	-0.152
-207.436	-22.623	0.470	-0.281
-206.421	800.000	-0.024	0.086
-205.406	301.641	-0.067	0.122
-204.392	-200.000	0.017	0.281
-203.377	-200.000	0.034	-0.167
-202.363	800.000	-0.051	-0.202
-201.348	800.000	0.135	-0.435
-200.333	-140.581	-0.187	-0.019
-199.319	800.000	0.064	0.258
-198.304	-200.000	-0.045	-0.231
-197.290	200.008	0.045	-0.069
-196.275	-43.418	-0.160	-0.080
-195.260	-71.711	0.235	0.087
-194.246	482.983	-0.023	0.051
-193.231	800.000	-0.143	0.450
-192.217	-200.000	-0.010	-0.047
-191.202	-108.292	0.357	0.076
-190.187	118.480	-0.280	-0.342
-189.173	-117.559	-0.197	0.035
-188.158	-121.278	0.390	0.064
-187.144	-70.766	-0.211	0.079
-186.129	-200.000	-0.011	0.068
-185.114	-200.000	0.038	-0.241
-184.100	800.000	0.044	-0.131
-183.085	142.207	-0.107	0.141
-182.071	-57.066	0.095	-0.042
-181.056	-63.712	-0.215	-0.087
-180.042	69.984	-0.092	0.094
-179.027	800.000	0.119	0.357
-178.012	75.605	-0.099	0.103
-176.998	800.000	0.073	-0.281
-175.983	150.271	-0.130	-0.175
-174.969	-79.336	0.303	0.102
-173.954	-200.000	0.011	-0.260
-172.939	379.027	0.072	-0.145
-171.925	-132.532	0.150	0.019
-170.910	35.711	0.203	-0.176
-169.896	103.068	-0.215	-0.250
-168.881	109.742	-0.230	-0.273
-167.866	-29.689	0.205	0.116
-166.852	-200.000	0.029	0.168
-165.837	-200.000	-0.040	-0.364
-164.823	214.054	0.065	-0.102
-163.808	46.868	0.073	0.067
-162.793	323.621	0.100	-0.190
-161.779	-55.820	-0.140	-0.062
-160.764	-200.000	-0.029	-0.156
-159.750	61.655	0.118	-0.116
-158.735	617.283	-0.047	-0.116
-157.720	800.000	0.071	0.219
-156.706	388.520	0.169	0.346
-155.691	-117.173	0.043	0.008
-154.677	124.287	-0.257	-0.320
-153.662	122.121	-0.127	0.156
-152.647	317.023	-0.020	-0.038
-151.633	30.964	-0.107	-0.091
-150.618	94.024	0.175	0.196
-149.604	-36.507	0.164	-0.087
-148.589	41.840	0.119	-0.107
-147.574	-129.258	0.183	0.025
-146.560	-169.233	-0.237	-0.009
-145.545	-200.000	-0.150	-0.001
-144.531	-200.000	0.067	0.564
-143.516	-200.000	-0.037	0.345
-142.502	158.201	-0.118	-0.162
-141.487	800.000	-0.055	0.198
-140.472	-152.500	0.183	0.013
-139.458	566.558	-0.140	-0.336
-138.443	175.502	-0.079	-0.114
-137.429	-15.675	0.306	0.193
-136.414	-58.777	-0.274	0.117
-135.399	800.000	-0.031	-0.105
-134.385	-61.684	0.277	0.115
-133.370	800.000	0.076	0.231
-132.356	95.153	-0.054	-0.061
-131.341	16.702	-0.225	0.176
-130.326	-77.794	-0.355	0.121
-129.312	102.596	-0.066	0.076
-128.297	800.000	0.091	0.347
-127.283	-174.155	0.234	0.007
-126.268	-200.000	-0.021	0.242
-125.253	262.628	0.057	0.098
-124.239	-5.782	0.325	0.220
-123.224	800.000	0.052	0.184
-122.210	-156.603	0.120	-0.007
-121.195	-106.067	-0.082	0.018
