DTS Sentinel unit serial number:	SN413079Multiplexer serial number:	ORYXHardware model number:	OX4-SRSoftware version number:	ORYX F/W v4.00 Oryx Data Collector v3.7.2.0data status	okinstallation	princeton_trtdifferential loss correction	single-endedforward channel	channel 2reverse channel	N/Adate	2019/09/13time	22:43:35forward acquisition time	60.00reverse acquisition time	0.00gamma	496.2192k internal	0.2336k external	0.2336temperature offset calibration	1.0130default loss term (dB/km)	0.3790temperature slope calibration	1.0000multiplexer offset coefficient	1.0000multiplexer slope coefficient	1.0000fibre end	0.00T internal ref (°C)	27.61T ext. ref 1 (°C)	3.22T ext. ref 2 (°C)	21.66length (m)	temperature (°C)	Stokes	anti-Stokes-747.200	-70.161	0.037	-0.014
-746.185	-200.000	-0.057	0.269
-745.171	64.399	-0.260	0.263
-744.156	-64.995	-0.263	0.107
-743.142	-68.344	0.155	0.061
-742.127	800.000	0.110	0.364
-741.112	800.000	0.039	0.165
-740.098	26.942	-0.049	0.041
-739.083	-27.933	-0.250	0.146
-738.069	-128.558	-0.091	0.013
-737.054	538.316	0.112	0.268
-736.039	151.708	-0.198	-0.271
-735.025	6.978	0.228	0.170
-734.010	-70.212	-0.142	-0.054
-732.996	-200.000	-0.042	0.310
-731.981	188.343	-0.114	-0.171
-730.966	90.046	0.197	0.222
-729.952	-146.356	-0.149	-0.013
-728.937	-115.378	-0.230	-0.044
-727.923	-200.000	0.013	-0.087
-726.908	248.453	0.169	0.287
-725.894	167.304	0.094	0.134
-724.879	216.503	0.111	0.178
-723.864	253.844	-0.132	-0.227
-722.850	-200.000	0.025	-0.149
-721.835	-200.000	0.013	0.388
-720.821	-62.073	-0.108	-0.045
-719.806	70.350	0.218	0.226
-718.791	41.799	0.132	0.120
-717.777	231.720	-0.112	-0.185
-716.762	106.347	-0.073	-0.087
-715.748	-200.000	-0.021	0.164
-714.733	-91.754	0.077	-0.022
-713.718	40.196	0.065	0.058
-712.704	472.345	0.110	0.248
-711.689	-200.000	-0.089	-0.402
-710.675	-122.343	0.151	-0.025
-709.660	-57.877	0.251	-0.110
-708.645	-36.431	-0.168	-0.091
-707.631	800.000	0.019	0.080
-706.616	-133.907	-0.017	0.002
-705.602	68.817	-0.153	-0.157
-704.587	800.000	0.076	-0.215
-703.572	573.911	-0.181	-0.442
-702.558	524.658	-0.059	-0.139
-701.543	-112.193	-0.267	-0.054
-700.529	-43.828	-0.201	-0.102
-699.514	-6.938	-0.218	-0.149
-698.499	800.000	-0.076	0.310
-697.485	-31.917	0.150	-0.084
-696.470	-81.866	-0.267	-0.088
-695.456	285.641	-0.089	-0.162
-694.441	-200.000	0.000	-0.402
-693.426	74.934	-0.227	0.239
-692.412	-72.707	-0.117	0.043
-691.397	-76.401	0.212	-0.075
-690.383	-55.201	0.449	-0.202
-689.368	431.563	-0.012	-0.026
-688.354	108.487	0.059	-0.070
-687.339	-112.583	-0.260	0.052
-686.324	800.000	0.092	-0.268
-685.310	-200.000	0.007	-0.089
-684.295	-200.000	0.015	-0.187
-683.281	-24.596	-0.378	0.225
-682.266	-87.540	-0.094	-0.029
-681.251	-200.000	0.003	-0.074
-680.237	-200.000	-0.018	0.151
-679.222	-200.000	-0.176	0.000
-678.208	-76.332	0.124	0.044
-677.193	48.027	-0.125	-0.117
-676.178	-8.248	0.215	-0.145
-675.164	-128.977	-0.210	-0.030
-674.149	-90.720	0.099	-0.029
-673.135	-37.716	0.145	0.077
-672.120	260.401	0.109	-0.190
-671.105	-123.494	0.220	0.035
-670.091	-186.768	-0.363	-0.005
-669.076	-136.796	-0.170	0.020
-668.062	-76.957	0.020	0.007
-667.047	71.458	0.039	0.040
-666.032	-41.984	0.099	0.051
-665.018	149.757	-0.052	-0.071
-664.003	6.221	-0.095	0.070
-662.989	-154.532	0.144	0.010
-661.974	-200.000	0.010	-0.249
-660.959	-131.047	-0.053	-0.007
-659.945	16.803	0.134	0.106
-658.930	641.550	0.176	0.449
-657.916	-116.580	0.123	-0.023
-656.901	800.000	0.031	-0.121
-655.886	-91.850	0.382	0.109
-654.872	-200.000	-0.047	-0.346
-653.857	-68.822	0.240	-0.093
-652.843	144.883	0.234	-0.313
-651.828	677.509	-0.057	-0.147
-650.814	-200.000	0.032	-0.144
-649.799	800.000	-0.026	0.097
-648.784	-10.861	0.156	0.103
-647.770	-97.743	0.273	0.071
-646.755	-129.041	-0.599	-0.084
-645.741	800.000	0.047	-0.156
-644.726	181.432	-0.012	-0.017
-643.711	-200.000	-0.019	-0.303
-642.697	-74.082	-0.103	0.037
-641.682	104.466	-0.144	-0.169
-640.668	-55.451	-0.234	0.105
-639.653	90.148	0.084	0.094
-638.638	800.000	-0.109	0.446
-637.624	55.935	0.083	0.080
-636.609	-7.599	-0.139	0.094
-635.595	115.144	0.092	-0.112
-634.580	4.274	-0.265	-0.194
-633.565	-116.642	-0.133	-0.025
-632.551	-93.127	0.075	0.021
-631.536	-42.004	-0.047	0.024
-630.522	-200.000	-0.001	-0.108
-629.507	-200.000	0.036	0.274
-628.492	800.000	-0.076	0.242
-627.478	-94.004	-0.250	0.069
-626.463	-74.164	0.102	0.037
-625.449	306.420	0.127	0.236
-624.434	71.204	-0.198	0.206
-623.419	-200.000	0.035	-0.163
-622.405	800.000	-0.091	-0.389
-621.390	-63.828	0.073	0.030
-620.376	-200.000	-0.015	0.172
-619.361	-200.000	-0.010	-0.238
-618.346	-200.000	-0.050	-0.281
-617.332	-42.009	-0.214	-0.109
-616.317	158.270	-0.228	0.316
-615.303	-64.514	0.126	-0.051
-614.288	167.448	-0.036	-0.050
-613.273	-200.000	-0.002	0.147
-612.259	-103.078	0.178	0.042
-611.244	-48.477	-0.094	-0.045
-610.230	-149.962	-0.180	0.014
-609.215	-100.438	-0.357	-0.088
-608.201	800.000	0.074	-0.259
-607.186	489.345	0.095	-0.217
-606.171	-200.000	0.008	0.125
-605.157	800.000	-0.100	0.321
-604.142	-174.784	-0.125	0.004
-603.128	-123.693	-0.052	-0.008
-602.113	197.775	0.186	-0.283
-601.098	800.000	0.080	0.325
-600.084	-85.891	-0.353	-0.109
-599.069	-200.000	-0.005	-0.067
-598.055	-200.000	-0.001	0.071
-597.040	7.295	0.136	-0.102
-596.025	800.000	-0.118	-0.444
-595.011	283.332	0.108	-0.194
-593.996	230.719	0.251	-0.411
-592.982	152.243	-0.116	0.158
-591.967	-66.478	-0.254	0.101
-590.952	-95.773	0.356	-0.095
-589.938	27.001	0.298	-0.249
-588.923	-99.351	0.327	0.082
-587.909	800.000	0.080	-0.257
-586.894	800.000	0.072	0.263
-585.879	-114.672	-0.222	0.042
-584.865	164.023	0.126	0.177
-583.850	-120.573	0.092	-0.016
-582.836	-100.243	0.073	-0.018
-581.821	19.814	0.182	-0.146
-580.806	-200.000	0.064	0.384
-579.792	131.564	0.118	0.151
-578.777	-165.856	0.289	0.012
-577.763	-95.623	-0.227	-0.061
-576.748	800.000	0.031	0.122
-575.733	-59.017	-0.116	-0.050
-574.719	-200.000	-0.005	-0.111
-573.704	-200.000	-0.059	-0.335
-572.690	177.632	0.066	-0.096
-571.675	-112.696	0.198	-0.039
-570.661	-90.550	-0.144	0.041
-569.646	318.553	-0.114	-0.216
-568.631	-200.000	-0.034	0.259
-567.617	-114.247	0.164	-0.032
-566.602	-111.793	-0.307	-0.062
-565.588	-148.107	0.063	-0.005
-564.573	-160.753	-0.296	0.016
-563.558	-200.000	0.039	0.173
-562.544	390.210	0.085	0.176
-561.529	800.000	0.018	-0.074
-560.515	-200.000	-0.088	0.423
-559.500	-79.195	0.238	-0.081
-558.485	418.730	-0.189	-0.402
-557.471	-125.881	0.282	0.042
-556.456	-44.632	0.141	-0.070
-555.442	-52.847	0.222	0.102
-554.427	663.519	0.032	-0.083
-553.412	105.398	-0.304	-0.358
-552.398	-16.693	0.082	-0.052
-551.383	-200.000	0.014	-0.188
-550.369	133.694	0.075	-0.097
-549.354	-200.000	0.052	0.401
-548.339	800.000	-0.035	-0.123
-547.325	42.442	0.170	-0.154
-546.310	-38.885	-0.134	0.071
-545.296	15.527	0.165	0.129
-544.281	-127.350	-0.183	-0.027
-543.266	-200.000	0.040	0.211
-542.252	274.607	0.129	-0.227
-541.237	92.947	0.290	0.327
-540.223	-34.317	0.270	0.148
-539.208	-97.818	0.234	0.060
-538.193	-175.474	0.370	0.010
-537.179	143.912	0.163	0.216
-536.164	205.336	0.224	0.346
-535.150	293.189	0.187	-0.339
-534.135	-75.409	0.203	0.072
-533.121	-200.000	-0.040	0.347
-532.106	-175.279	0.085	0.002
-531.091	-200.000	-0.007	-0.177
-530.077	-140.690	0.441	0.045
-529.062	-200.000	-0.024	0.356
-528.048	628.518	0.083	0.209
-527.033	243.153	-0.216	-0.360
-526.018	2.355	0.136	-0.098
-525.004	8.976	-0.178	0.134
-523.989	-27.557	0.261	0.151
-522.975	-47.666	-0.291	-0.141
-521.960	-104.821	0.138	-0.032
-520.945	800.000	0.055	-0.163
-519.931	-90.165	-0.147	0.043
-518.916	-158.097	-0.337	0.020
-517.902	-74.866	0.362	0.129
-516.887	373.032	0.179	0.363
-515.872	13.072	0.101	0.078
-514.858	-131.096	0.286	-0.038
-513.843	-200.000	-0.005	-0.203
-512.829	-117.655	-0.145	-0.026
-511.814	-124.918	-0.402	-0.062
-510.799	-200.000	-0.003	-0.278
-509.785	-146.262	-0.378	-0.033
-508.770	-105.526	0.303	0.068
-507.756	464.932	-0.236	-0.527
-506.741	-200.000	0.041	-0.446
-505.726	600.751	-0.142	-0.351
-504.712	-87.456	0.119	0.036
-503.697	-162.970	-0.168	0.008
-502.683	-27.703	0.243	-0.140
-501.668	378.120	-0.064	0.131
-500.653	308.527	-0.078	0.146
-499.639	621.361	0.071	0.178
-498.624	175.646	-0.140	0.202
-497.610	-200.000	0.001	0.044
-496.595	46.792	0.144	0.133
-495.581	595.477	0.021	-0.050
-494.566	-81.638	0.140	-0.046
-493.551	-200.000	-0.016	-0.118
-492.537	-125.325	0.229	0.035
-491.522	130.675	0.228	0.290
-490.508	-115.474	-0.142	-0.027
-489.493	-33.816	0.171	0.094
-488.478	484.129	-0.073	0.166
-487.464	470.414	0.079	-0.177
-486.449	800.000	-0.040	-0.115
-485.435	95.789	0.227	-0.258
-484.420	483.106	-0.030	-0.068
-483.405	92.674	-0.068	0.076
-482.391	-154.201	-0.170	0.011
-481.376	-26.715	0.076	0.044
-480.362	800.000	0.050	0.173
-479.347	231.039	-0.179	0.291
-478.332	-167.787	-0.208	-0.008
-477.318	800.000	0.084	0.359
-476.303	-133.908	0.274	0.034
-475.289	-200.000	-0.031	-0.257
-474.274	13.111	-0.271	-0.209
-473.259	-142.287	-0.167	0.016
-472.245	-200.000	0.015	-0.257
-471.230	-123.282	-0.182	-0.029
-470.216	228.288	0.158	-0.256
-469.201	5.274	-0.143	-0.105
-468.186	566.079	0.094	0.226
-467.172	724.074	-0.073	-0.193
-466.157	44.232	-0.115	-0.105
-465.143	126.449	0.040	-0.050
-464.128	-22.168	0.148	0.089
-463.113	121.894	0.258	0.320
-462.099	-45.594	0.204	0.100
-461.084	-80.036	0.232	-0.077
-460.070	-22.139	-0.069	0.041
-459.055	-190.357	-0.264	-0.003
-458.040	-93.599	-0.318	0.087
-457.026	404.735	-0.112	0.234
-456.011	800.000	0.092	0.268
-454.997	-143.491	-0.167	0.016
-453.982	-111.517	0.228	-0.046
-452.968	-132.765	0.314	-0.040
-451.953	350.045	0.111	0.217
-450.938	800.000	0.047	-0.184
-449.924	1.712	0.134	0.096
-448.909	800.000	0.129	-0.423
-447.895	68.359	-0.071	0.072
-446.880	-200.000	-0.008	0.173
-445.865	603.506	-0.090	-0.222
-444.851	2.482	-0.082	-0.059
-443.836	-10.405	0.203	0.133
-442.822	14.767	0.069	0.054
-441.807	398.790	0.165	0.342
-440.792	-154.420	0.021	-0.001
-439.778	363.942	0.145	0.290
-438.763	-82.131	0.120	-0.039
-437.749	-14.437	-0.092	-0.059
-436.734	260.131	-0.221	-0.378
-435.719	-137.827	0.248	0.028
-434.705	163.985	-0.159	0.222
-433.690	482.880	0.057	0.128
-432.676	80.186	0.120	0.128
-431.661	81.767	0.025	0.027
-430.646	-114.283	0.230	-0.044
-429.632	182.018	-0.278	0.407
-428.617	124.370	-0.096	0.119
-427.603	17.769	0.244	0.193
-426.588	-175.108	0.056	-0.002
-425.573	-153.209	-0.145	0.010
-424.559	800.000	0.070	0.203
-423.544	380.226	-0.128	-0.260
-422.530	48.985	-0.218	0.203
-421.515	-93.023	-0.196	0.054
-420.500	203.888	0.203	-0.312
-419.486	-11.811	0.250	-0.163
-418.471	657.400	0.110	-0.281
-417.457	-134.130	-0.204	-0.025
-416.442	-200.000	0.007	-0.091
-415.428	800.000	0.083	-0.267
-414.413	-200.000	-0.044	-0.327
-413.398	-200.000	0.015	0.403
-412.384	-27.062	0.224	-0.129
-411.369	-50.042	-0.374	0.176
-410.355	28.493	-0.249	0.209
-409.340	322.871	-0.220	0.416
-408.325	-28.320	-0.245	-0.140
-407.311	-89.798	0.220	-0.064
-406.296	151.728	0.183	0.247
-405.282	800.000	0.112	0.441
-404.267	-200.000	-0.016	-0.123
-403.252	322.453	0.060	-0.114
-402.238	78.876	-0.067	-0.072
-401.223	653.133	-0.039	0.099
-400.209	-38.280	-0.121	-0.064
-399.194	-200.000	0.054	-0.235
-398.179	201.344	-0.158	0.241
-397.165	-35.149	-0.009	-0.005
-396.150	-149.631	0.029	-0.002
-395.136	19.308	0.184	0.146
-394.121	-38.989	0.128	0.067
-393.106	-44.295	0.237	-0.118
-392.092	221.977	0.151	-0.240
-391.077	800.000	-0.102	0.311
-390.063	-122.094	-0.362	0.059
-389.048	-85.686	0.177	-0.054
-388.033	53.778	0.130	0.123
-387.019	-0.281	0.416	0.293
-386.004	239.084	-0.175	-0.289
-384.990	-101.904	0.125	-0.030
-383.975	-41.081	0.091	0.047
-382.960	-75.617	-0.127	-0.045
-381.946	62.102	0.191	-0.189
-380.931	-200.000	-0.021	-0.107
-379.917	800.000	-0.020	-0.068
-378.902	-73.197	0.210	-0.076
-377.888	-17.766	-0.087	-0.054
-376.873	-200.000	-0.026	-0.259
-375.858	800.000	-0.014	-0.039
-374.844	-200.000	-0.068	0.325
-373.829	-200.000	-0.009	0.378
-372.815	546.085	-0.032	-0.075
-371.800	-137.087	-0.296	-0.033
-370.785	-55.132	0.239	0.106
-369.771	383.041	-0.025	0.052
-368.756	101.395	-0.070	0.081
-367.742	-45.178	0.188	-0.092
-366.727	-200.000	-0.002	0.146
-365.712	5.734	-0.079	-0.058
-364.698	-200.000	-0.004	-0.131
-363.683	800.000	0.062	-0.194
-362.669	39.982	-0.054	0.048
-361.654	-200.000	0.017	0.294
-360.639	771.999	-0.056	0.150
-359.625	-94.579	-0.348	0.094
-358.610	-200.000	-0.012	-0.163
-357.596	168.045	0.224	-0.315
-356.581	-127.307	0.255	-0.037
-355.566	-28.183	0.096	0.055
-354.552	-137.542	0.125	-0.014
-353.537	-37.817	0.099	0.052
-352.523	800.000	0.020	-0.079
-351.508	11.243	-0.207	0.157
-350.493	15.573	0.179	0.139
-349.479	-52.080	-0.169	-0.078
-348.464	800.000	0.167	-0.479
-347.450	164.132	0.136	0.190
-346.435	-200.000	0.010	-0.200
-345.420	-128.188	-0.234	0.033
-344.406	-125.752	-0.214	-0.032
-343.391	800.000	0.051	0.181
-342.377	-131.199	0.445	0.058
-341.362	139.980	-0.167	-0.218
-340.348	-80.221	-0.142	0.047
-339.333	17.148	-0.205	-0.161
-338.318	800.000	-0.104	-0.447
-337.304	-200.000	0.002	0.039
-336.289	527.100	-0.181	0.421
-335.275	87.392	-0.011	0.012
-334.260	-6.602	0.097	0.065
-333.245	-77.479	-0.449	0.154
-332.231	-28.666	-0.176	0.100
-331.216	372.443	0.072	-0.144
-330.202	457.051	-0.069	0.152
-329.187	-200.000	0.023	-0.144
-328.172	-200.000	0.043	-0.270
-327.158	-60.263	-0.187	0.079
-326.143	-114.076	-0.170	-0.032
-325.129	355.930	0.187	-0.368
-324.114	215.258	0.132	0.207
-323.099	-41.026	-0.112	-0.057
-322.085	112.666	0.027	0.032
-321.070	20.715	-0.094	-0.076
-320.056	304.330	0.069	0.127
-319.041	86.306	0.190	-0.206
-318.026	137.954	-0.122	-0.158
-317.012	-132.235	0.076	0.010
-315.997	-200.000	0.017	-0.381
-314.983	-45.543	-0.064	0.032
-313.968	647.645	-0.031	-0.079
-312.953	212.283	0.249	0.388
-311.939	-12.034	-0.100	-0.065
-310.924	-144.143	-0.211	0.020
-309.910	-200.000	0.019	0.187
-308.895	36.739	-0.161	0.140
-307.880	16.292	0.163	-0.127
-306.866	-46.571	-0.258	-0.125
-305.851	-200.000	0.012	-0.130
-304.837	-100.825	0.178	-0.043
-303.822	-72.010	-0.122	-0.045
-302.807	-15.025	-0.229	-0.145
-301.793	-200.000	0.033	0.205
-300.778	-43.408	-0.206	-0.103
-299.764	-31.344	-0.176	0.098
-298.749	-3.747	-0.281	0.192
-297.735	420.055	0.115	-0.243
-296.720	-31.423	0.288	0.160
-295.705	-120.578	-0.220	0.037
-294.691	669.155	-0.149	0.380
-293.676	-200.000	-0.023	-0.186
-292.662	566.274	-0.053	-0.128
-291.647	800.000	-0.062	-0.226
-290.632	-132.879	-0.122	-0.015
-289.618	391.272	0.189	-0.388
-288.603	-71.776	-0.116	0.043
-287.589	42.529	0.048	-0.043
-286.574	229.130	-0.080	0.130
-285.559	86.993	-0.299	-0.326
-284.545	-111.018	-0.076	0.015
-283.530	375.168	-0.094	0.188
-282.516	-200.000	0.036	-0.202
-281.501	80.997	-0.201	-0.214
-280.486	-200.000	0.034	0.285
-279.472	-200.000	0.035	-0.514
-278.457	76.051	0.279	-0.292
-277.443	670.453	-0.041	0.104
-276.428	-51.198	0.119	0.055
-275.413	611.769	0.067	0.166
-274.399	-158.245	-0.161	0.009
-273.384	-200.000	-0.019	-0.299
-272.370	-190.945	-0.455	0.005
-271.355	405.325	0.168	0.350
-270.340	800.000	-0.012	0.044
-269.326	694.929	-0.083	-0.214
-268.311	800.000	-0.042	0.118
-267.297	5.177	-0.091	-0.066
-266.282	137.337	-0.174	0.224
-265.267	626.869	-0.123	-0.305
-264.253	172.794	-0.158	0.224
-263.238	777.640	0.037	-0.099
-262.224	658.086	0.047	0.119
-261.209	727.735	-0.016	0.043
-260.195	376.689	-0.121	0.244
-259.180	-69.334	0.122	0.046
-258.165	-91.232	0.296	0.083
-257.151	37.598	-0.049	0.043
-256.136	107.934	0.192	-0.226
-255.122	6.436	-0.160	-0.117
-254.107	800.000	-0.038	0.109
-253.092	-35.540	0.315	0.169
-252.078	-53.728	-0.144	-0.065
-251.063	-200.000	0.030	0.184
-250.049	54.984	0.162	-0.154
-249.034	-97.228	0.057	0.015
-248.019	-99.484	-0.298	0.074
-247.005	238.871	-0.164	0.269
-245.990	-122.417	0.208	-0.033
-244.976	13.086	0.176	0.134
-243.961	129.758	0.103	0.130
-242.946	-81.363	-0.273	-0.089
-241.932	-50.351	-0.279	0.130
-240.917	173.169	0.226	0.320
-239.903	-200.000	-0.001	-0.257
-238.888	-15.481	0.200	0.126
-237.873	26.292	-0.198	0.163
-236.859	228.172	0.162	-0.260
-235.844	-43.457	0.197	0.098
-234.830	-70.507	0.104	0.039
-233.815	-63.299	-0.337	-0.137
-232.800	800.000	0.038	0.149
-231.786	800.000	0.025	-0.080
-230.771	-171.554	-0.078	-0.003
-229.757	-114.195	-0.107	0.020
-228.742	210.689	-0.044	-0.068
-227.727	-70.476	-0.224	-0.084
-226.713	-68.439	-0.425	0.162
-225.698	31.021	0.155	-0.131
-224.684	-16.816	0.239	0.149
-223.669	60.692	0.076	0.074
-222.655	-150.613	-0.030	-0.002
-221.640	-171.118	-0.131	-0.004
-220.625	-52.464	-0.400	-0.182
-219.611	136.630	0.071	-0.091
-218.596	53.452	0.138	-0.130
-217.582	15.673	0.146	-0.113
-216.567	-10.866	-0.073	0.048
-215.552	-4.658	0.097	0.066
-214.538	545.513	0.086	0.202
-213.523	-200.000	0.029	-0.162
-212.509	-160.352	0.086	0.005
-211.494	-56.828	-0.072	-0.031
-210.479	800.000	-0.075	-0.217
-209.465	189.937	0.143	-0.211
-208.450	-200.000	0.011	0.518
-207.436	533.688	0.041	0.094
-206.421	149.294	-0.293	0.390
-205.406	-47.209	0.106	-0.051
-204.392	800.000	-0.074	-0.310
-203.377	759.536	0.059	0.158
-202.363	354.021	0.189	-0.370
-201.348	-40.976	0.325	-0.165
-200.333	211.773	0.163	-0.253
-199.319	-61.299	0.243	-0.101
-198.304	68.418	0.109	-0.110
-197.290	-164.077	0.233	0.011
-196.275	800.000	0.049	0.153
-195.260	142.545	-0.141	-0.184
-194.246	-200.000	-0.001	0.380
-193.231	579.300	0.056	0.134
-192.217	219.904	-0.285	0.449
-191.202	-200.000	-0.002	0.132
-190.187	-55.961	-0.095	0.042
-189.173	7.139	0.164	0.121
-188.158	-41.756	0.233	-0.117
-187.144	-200.000	0.041	-0.257
-186.129	230.191	-0.239	-0.385
-185.114	800.000	-0.137	-0.408
-184.100	-102.669	-0.086	0.020
-183.085	-124.615	0.199	-0.030
-182.071	-112.289	-0.221	-0.043
-181.056	115.615	0.136	-0.164
-180.042	80.006	-0.110	-0.116
-179.027	9.090	-0.128	0.095
-178.012	800.000	-0.049	-0.149
-176.998	-21.887	-0.101	0.060
-175.983	4.804	0.176	-0.127
-174.969	-63.408	0.141	-0.057
-173.954	424.341	-0.167	-0.352
-172.939	-200.000	-0.066	-0.476
-171.925	389.517	-0.049	0.100
-170.910	-104.885	0.074	-0.017
-169.896	-200.000	-0.003	-0.180
-168.881	21.032	-0.224	0.178
-167.866	262.598	0.085	-0.144
-166.852	51.222	0.145	0.135
-165.837	-75.321	-0.172	0.060
-164.823	-200.000	0.019	-0.248
-163.808	115.442	0.075	0.089
-162.793	-95.007	-0.297	-0.079
-161.779	800.000	-0.096	0.279
-160.764	-24.523	0.242	0.141
-159.750	-146.523	-0.231	0.020
-158.735	-61.443	0.174	0.072
-157.720	385.120	-0.146	0.296
-156.706	-200.000	0.019	0.179
-155.691	-92.211	-0.227	0.063
-154.677	-97.410	-0.327	0.083
-153.662	566.125	0.131	0.312
-152.647	800.000	0.147	0.410
-151.633	-200.000	0.010	-0.094
-150.618	-177.195	-0.241	0.006
-149.604	668.310	0.097	-0.246
-148.589	-92.186	0.303	0.084
-147.574	0.658	0.250	0.175
-146.560	-200.000	-0.002	0.033
-145.545	-30.479	-0.115	-0.064
-144.531	220.646	0.174	-0.273
-143.516	-126.898	-0.173	0.025
-142.502	-25.548	0.050	0.029
-141.487	-80.459	0.146	0.048
-140.472	-148.479	0.335	0.027
-139.458	-38.624	-0.050	0.026
-138.443	-200.000	-0.018	0.343
-137.429	800.000	0.116	0.326
-136.414	150.817	-0.156	0.208
-135.399	-24.679	0.129	-0.075
-134.385	800.000	-0.145	-0.407
-133.370	-52.387	-0.056	0.025
-132.356	-6.200	0.187	0.125
-131.341	-39.727	0.266	-0.137
-130.326	356.783	-0.084	0.165
-129.312	-63.332	-0.062	-0.025
-128.297	42.377	0.166	0.148
-127.283	61.463	-0.080	-0.078
-126.268	-200.000	-0.030	0.134
-125.253	333.205	-0.129	0.245
-124.239	157.448	0.121	0.165
-123.224	180.305	-0.077	-0.111
-122.210	113.098	0.237	-0.282
-121.195	-200.000	0.036	-0.155
