DTS Sentinel unit serial number:	SN413079Multiplexer serial number:	ORYXHardware model number:	OX4-SRSoftware version number:	ORYX F/W v4.00 Oryx Data Collector v3.7.2.0data status	okinstallation	princeton_trtdifferential loss correction	single-endedforward channel	channel 2reverse channel	N/Adate	2019/09/17time	11:55:34forward acquisition time	60.00reverse acquisition time	0.00gamma	496.2192k internal	0.2322k external	0.2322temperature offset calibration	0.9990default loss term (dB/km)	0.3790temperature slope calibration	1.0000multiplexer offset coefficient	1.0000multiplexer slope coefficient	1.0000fibre end	0.00T internal ref (°C)	31.02T ext. ref 1 (°C)	0.42T ext. ref 2 (°C)	27.08length (m)	temperature (°C)	Stokes	anti-Stokes-747.200	91.662	0.235	0.267
-746.185	-9.927	-0.297	0.200
-745.171	295.795	-0.073	-0.135
-744.156	-123.505	-0.290	0.047
-743.142	-200.000	-0.020	0.124
-742.127	42.312	-0.159	0.146
-741.112	-200.000	0.041	0.413
-740.098	-31.094	0.104	0.059
-739.083	289.120	0.055	0.100
-738.069	-124.132	-0.151	0.024
-737.054	-73.773	-0.115	-0.042
-736.039	-200.000	0.005	-0.046
-735.025	60.366	0.290	0.290
-734.010	-134.334	-0.321	-0.040
-732.996	-200.000	-0.011	-0.193
-731.981	247.417	0.040	-0.068
-730.966	-68.757	-0.044	0.017
-729.952	-54.847	-0.117	0.053
-728.937	-95.459	-0.124	0.034
-727.923	-87.097	-0.140	0.043
-726.908	-12.480	0.300	-0.198
-725.894	65.734	-0.123	0.126
-724.879	-200.000	-0.026	0.387
-723.864	116.708	-0.131	-0.163
-722.850	-200.000	0.040	-0.201
-721.835	-38.821	0.229	0.122
-720.821	800.000	0.112	-0.385
-719.806	-147.205	-0.395	0.034
-718.791	-58.269	-0.119	-0.052
-717.777	491.827	-0.155	0.359
-716.762	-103.890	-0.606	0.143
-715.748	-87.924	0.201	-0.061
-714.733	13.992	-0.204	0.160
-713.718	28.331	0.216	-0.184
-712.704	-200.000	-0.064	0.379
-711.689	-141.667	-0.246	-0.025
-710.675	261.332	-0.075	0.131
-709.660	402.791	-0.119	-0.252
-708.645	-131.859	-0.098	0.013
-707.631	13.317	-0.254	0.198
-706.616	-200.000	-0.013	-0.076
-705.602	-163.534	-0.059	-0.003
-704.587	-37.304	0.129	-0.070
-703.572	339.296	0.026	0.051
-702.558	-77.846	0.164	-0.057
-701.543	800.000	-0.081	0.246
-700.529	22.567	-0.151	-0.124
-699.514	800.000	-0.057	-0.220
-698.499	800.000	0.089	0.313
-697.485	153.233	-0.084	0.116
-696.470	-177.520	0.021	-0.001
-695.456	-36.353	-0.109	0.059
-694.441	264.988	-0.027	-0.048
-693.426	248.034	-0.195	-0.332
-692.412	-200.000	0.017	-0.100
-691.397	170.145	0.081	0.117
-690.383	24.115	-0.193	0.161
-689.368	34.814	-0.107	0.094
-688.354	800.000	-0.064	0.181
-687.339	547.698	-0.088	0.211
-686.324	-200.000	0.030	-0.195
-685.310	-68.019	-0.276	-0.108
-684.295	-200.000	0.047	0.258
-683.281	-161.329	-0.253	-0.013
-682.266	144.787	-0.129	0.174
-681.251	-79.240	-0.254	0.087
-680.237	-141.557	0.131	0.013
-679.222	38.478	-0.063	0.056
-678.208	62.187	0.248	0.249
-677.193	-47.621	-0.181	-0.089
-676.178	-125.208	0.257	0.040
-675.164	-132.885	0.273	0.035
-674.149	-46.255	-0.086	-0.043
-673.135	-112.706	-0.038	-0.008
-672.120	-142.966	-0.239	-0.023
-671.105	-126.616	-0.136	-0.020
-670.091	-123.255	-0.197	-0.032
-669.076	-72.810	0.401	-0.149
-668.062	-200.000	-0.052	-0.260
-667.047	-22.358	-0.121	-0.074
-666.032	154.448	0.227	-0.314
-665.018	-41.640	-0.115	0.059
-664.003	127.280	-0.145	0.185
-662.989	-9.936	-0.094	0.063
-661.974	-25.612	-0.259	0.154
-660.959	199.970	-0.132	-0.204
-659.945	297.460	-0.219	0.406
-658.930	9.473	-0.069	0.053
-657.916	800.000	0.071	-0.224
-656.901	-11.571	0.322	0.213
-655.886	1.236	-0.101	0.073
-654.872	800.000	0.064	-0.270
-653.857	-104.245	-0.359	-0.084
-652.843	-2.275	-0.287	0.202
-651.828	-24.612	-0.331	-0.198
-650.814	-10.541	0.248	-0.165
-649.799	-114.896	0.129	0.025
-648.784	-25.723	0.152	0.090
-647.770	369.551	0.067	0.136
-646.755	-45.827	-0.070	-0.035
-645.741	185.337	0.164	0.245
-644.726	27.680	0.046	0.039
-643.711	-175.437	-0.105	-0.003
-642.697	-109.187	0.328	-0.070
-641.682	-86.062	-0.256	-0.079
-640.668	374.086	-0.081	-0.166
-639.653	-108.501	0.109	-0.023
-638.638	-83.338	-0.148	-0.048
-637.624	-158.533	-0.348	-0.020
-636.609	-89.905	-0.402	-0.118
-635.595	1.550	-0.354	-0.256
-634.580	194.054	0.044	-0.067
-633.565	103.331	-0.136	-0.160
-632.551	-46.958	-0.112	0.055
-631.536	800.000	0.064	0.223
-630.522	-200.000	-0.015	-0.533
-629.507	800.000	0.047	0.167
-628.492	800.000	0.094	-0.347
-627.478	800.000	0.129	-0.378
-626.463	323.258	-0.212	0.406
-625.449	64.175	-0.155	0.157
-624.434	238.393	-0.103	0.172
-623.419	-41.183	0.294	0.153
-622.405	525.717	0.110	0.260
-621.390	-82.359	-0.060	-0.020
-620.376	90.447	-0.072	-0.081
-619.361	-122.211	-0.211	0.035
-618.346	40.561	-0.400	-0.363
-617.332	-79.968	0.216	-0.073
-616.317	-200.000	-0.026	-0.144
-615.303	49.720	-0.251	-0.238
-614.288	-28.546	0.221	-0.128
-613.273	-166.674	-0.076	-0.003
-612.259	68.853	0.185	0.191
-611.244	-77.239	-0.204	0.071
-610.230	-7.901	-0.161	-0.109
-609.215	-12.323	-0.207	-0.136
-608.201	800.000	-0.025	0.102
-607.186	202.776	-0.250	-0.389
-606.171	93.897	0.104	-0.118
-605.157	101.821	-0.294	0.345
-604.142	-200.000	0.015	0.078
-603.128	-96.946	0.403	0.106
-602.113	-136.450	0.111	-0.013
-601.098	86.167	-0.245	-0.271
-600.084	562.843	0.063	-0.154
-599.069	-133.899	0.103	-0.013
-598.055	-148.639	-0.138	-0.011
-597.040	800.000	-0.070	0.240
-596.025	-119.019	-0.076	-0.013
-595.011	524.454	0.166	0.392
-593.996	-131.534	0.130	-0.017
-592.982	676.511	0.094	-0.245
-591.967	58.927	-0.163	-0.161
-590.952	-6.592	0.114	-0.078
-589.938	800.000	0.058	-0.228
-588.923	-200.000	0.004	0.027
-587.909	800.000	0.061	0.183
-586.894	-157.844	-0.161	-0.010
-585.879	5.704	-0.164	-0.122
-584.865	151.168	0.111	0.151
-583.850	-80.740	-0.036	-0.012
-582.836	134.449	-0.116	0.151
-581.821	-200.000	-0.010	-0.414
-580.806	727.743	0.023	0.061
-579.792	298.757	-0.115	-0.213
-578.777	-200.000	-0.058	-0.346
-577.763	-76.017	0.155	-0.055
-576.748	445.893	-0.112	-0.247
-575.733	-24.841	-0.354	0.211
-574.719	-107.557	0.151	0.033
-573.704	370.317	-0.115	0.235
-572.690	-159.823	-0.050	-0.003
-571.675	-72.765	0.296	0.109
-570.661	-160.144	-0.200	0.011
-569.646	77.782	0.327	-0.350
-568.631	-115.115	-0.150	0.029
-567.617	-200.000	-0.021	0.316
-566.602	-88.246	0.141	-0.042
-565.588	-112.343	-0.094	0.019
-564.573	-61.888	0.296	0.124
-563.558	-84.976	-0.297	-0.093
-562.544	-66.148	-0.371	0.148
-561.529	52.453	-0.365	0.349
-560.515	-200.000	-0.005	0.103
-559.500	-200.000	0.011	0.328
-558.485	-119.430	-0.170	-0.030
-557.471	-82.490	0.081	-0.026
-556.456	204.502	0.128	0.199
-555.442	-200.000	0.024	-0.517
-554.427	57.148	-0.214	-0.209
-553.412	117.433	-0.124	0.153
-552.398	339.634	-0.143	0.279
-551.383	109.634	-0.177	-0.212
-550.369	20.524	0.078	0.063
-549.354	-200.000	0.049	-0.342
-548.339	198.516	-0.108	-0.166
-547.325	191.963	0.060	-0.091
-546.310	-140.126	0.306	-0.032
-545.296	-145.024	-0.305	-0.028
-544.281	268.581	0.172	-0.303
-543.266	-86.750	-0.177	-0.054
-542.252	-89.592	-0.168	0.049
-541.237	-119.572	-0.255	0.044
-540.223	-89.705	0.252	-0.074
-539.208	-91.514	0.345	-0.099
-538.193	62.994	-0.067	0.067
-537.179	221.912	-0.079	-0.128
-536.164	79.521	-0.198	-0.213
-535.150	-200.000	0.033	-0.209
-534.135	358.573	0.089	0.177
-533.121	-22.058	0.108	-0.065
-532.106	-99.852	0.055	-0.014
-531.091	-113.011	0.346	0.069
-530.077	269.820	-0.051	0.090
-529.062	561.537	0.170	0.413
-528.048	-159.976	-0.313	0.017
-527.033	-175.961	0.195	0.005
-526.018	90.997	0.218	-0.245
-525.004	-62.691	-0.042	0.017
-523.989	800.000	-0.038	-0.163
-522.975	76.260	-0.304	0.322
-521.960	322.165	-0.104	0.199
-520.945	-200.000	-0.013	-0.065
-519.931	800.000	0.079	0.268
-518.916	-93.830	-0.246	-0.068
-517.902	501.720	0.035	-0.082
-516.887	548.081	0.009	-0.021
-515.872	800.000	-0.062	-0.231
-514.858	-200.000	-0.061	-0.289
-513.843	171.963	0.251	0.361
-512.829	800.000	-0.014	0.043
-511.814	-200.000	-0.049	0.260
-510.799	267.589	0.166	0.291
-509.785	800.000	0.065	-0.216
-508.770	-70.158	0.139	0.053
-507.756	-16.327	0.112	0.071
-506.741	-2.713	-0.277	0.194
-505.726	531.869	-0.049	0.117
-504.712	373.762	-0.069	0.141
-503.697	-200.000	0.032	0.269
-502.683	513.283	-0.121	0.282
-501.668	800.000	-0.065	-0.272
-500.653	800.000	0.123	-0.456
-499.639	258.475	-0.064	-0.110
-498.624	-113.900	-0.249	0.048
-497.610	-28.940	0.102	-0.059
-496.595	-200.000	0.008	0.210
-495.581	-94.269	-0.248	-0.068
-494.566	55.659	-0.153	-0.148
-493.551	800.000	-0.200	0.582
-492.537	5.117	0.155	-0.114
-491.522	-66.703	-0.254	-0.101
-490.508	-16.915	-0.077	-0.048
-489.493	-200.000	0.003	0.281
-488.478	113.286	0.014	-0.017
-487.464	35.513	-0.193	-0.169
-486.449	-41.061	-0.071	0.037
-485.435	-44.042	-0.224	0.112
-484.420	29.520	-0.279	0.237
-483.405	550.368	0.085	0.203
-482.391	147.919	0.205	0.276
-481.376	-109.719	-0.189	0.040
-480.362	110.949	0.088	0.106
-479.347	201.774	-0.051	0.078
-478.332	44.712	0.213	-0.196
-477.318	-70.941	0.147	-0.055
-476.303	116.219	0.133	0.163
-475.289	-58.411	0.078	0.034
-474.274	-122.738	-0.087	-0.014
-473.259	94.011	-0.126	-0.143
-472.245	-88.498	0.059	0.018
-471.230	6.584	0.042	-0.032
-470.216	-78.472	-0.239	-0.082
-469.201	800.000	0.032	-0.101
-468.186	-200.000	0.082	0.000
-467.172	194.495	-0.042	-0.063
-466.157	-60.864	-0.266	-0.112
-465.143	-103.275	0.125	0.029
-464.128	800.000	0.029	0.116
-463.113	-88.047	-0.097	0.029
-462.099	-200.000	-0.022	0.121
-461.084	-86.504	0.107	-0.033
-460.070	62.937	0.192	0.192
-459.055	573.656	0.138	0.337
-458.040	36.881	-0.389	0.343
-457.026	48.501	-0.163	0.152
-456.011	-17.167	-0.254	-0.160
-454.997	-20.286	-0.063	0.038
-453.982	-1.499	0.035	0.025
-452.968	-167.989	-0.320	-0.013
-451.953	-200.000	0.092	0.460
-450.938	12.757	0.066	-0.051
-449.924	81.499	0.195	0.210
-448.909	361.849	0.151	0.301
-447.895	-100.335	0.167	0.041
-446.880	177.010	-0.027	0.039
-445.865	-16.809	-0.344	0.217
-444.851	-163.171	-0.088	0.004
-443.836	222.617	-0.087	0.139
-442.822	52.571	0.077	0.074
-441.807	1.977	-0.012	-0.009
-440.792	800.000	-0.044	-0.155
-439.778	800.000	-0.055	0.212
-438.763	-200.000	0.263	-0.001
-437.749	-200.000	0.035	-0.308
-436.734	22.226	-0.111	0.091
-435.719	218.520	0.173	0.275
-434.705	142.048	-0.204	0.270
-433.690	517.975	-0.032	-0.074
-432.676	388.588	-0.168	-0.346
-431.661	-19.476	-0.130	-0.081
-430.646	-33.043	-0.162	-0.089
-429.632	-200.000	-0.020	-0.123
-428.617	-14.484	-0.108	-0.069
-427.603	-200.000	-0.021	-0.271
-426.588	800.000	-0.065	-0.222
-425.573	-133.753	0.044	0.005
-424.559	-28.905	-0.156	-0.089
-423.544	-82.261	0.063	-0.020
-422.530	-77.812	0.271	0.094
-421.515	800.000	-0.009	0.035
-420.500	179.224	0.058	-0.085
-419.486	179.900	0.195	0.285
-418.471	191.242	0.093	0.140
-417.457	53.115	-0.342	-0.326
-416.442	-31.949	0.215	0.120
-415.428	-41.841	-0.207	0.106
-414.413	-200.000	0.050	-0.240
-413.398	800.000	0.098	-0.389
-412.384	2.107	0.209	-0.151
-411.369	300.345	0.127	-0.234
-410.355	128.834	-0.129	-0.164
-409.340	72.330	-0.046	-0.048
-408.325	-193.539	0.027	0.000
-407.311	-89.370	-0.118	-0.035
-406.296	800.000	-0.099	0.357
-405.282	-61.815	-0.264	0.110
-404.267	-81.522	0.522	0.171
-403.252	506.720	-0.127	0.294
-402.238	90.832	-0.232	-0.259
-401.223	731.772	-0.097	-0.260
-400.209	38.087	-0.138	0.122
-399.194	482.976	0.112	0.254
-398.179	-200.000	0.028	0.157
-397.165	232.678	-0.267	-0.437
-396.150	800.000	-0.080	0.256
-395.136	-10.321	0.299	-0.198
-394.121	137.432	0.251	-0.328
-393.106	-200.000	-0.018	-0.092
-392.092	-115.319	0.477	-0.090
-391.077	83.215	0.245	0.266
-390.063	-4.539	0.112	0.077
-389.048	396.106	0.119	0.248
-388.033	800.000	-0.037	-0.105
-387.019	800.000	0.121	0.449
-386.004	-78.290	-0.207	-0.071
-384.990	800.000	0.079	0.299
-383.975	-200.000	0.054	-0.297
-382.960	-39.658	0.277	0.144
-381.946	-67.671	-0.095	-0.037
-380.931	242.721	-0.065	-0.108
-379.917	573.630	0.060	-0.145
-378.902	382.087	0.058	-0.119
-377.888	-200.000	-0.000	-0.021
-376.873	-58.133	-0.146	-0.063
-375.858	-96.115	-0.152	-0.040
-374.844	-78.167	-0.409	0.140
-373.829	800.000	-0.033	0.139
-372.815	20.647	0.307	-0.247
-371.800	-11.906	0.218	0.142
-370.785	59.193	0.030	0.030
-369.771	-200.000	0.033	0.279
-368.756	-196.751	-0.047	-0.000
-367.742	696.631	-0.028	-0.073
-366.727	-8.733	0.057	-0.038
-365.712	370.610	-0.020	0.040
-364.698	800.000	0.047	-0.194
-363.683	575.332	-0.058	0.142
-362.669	800.000	-0.013	0.045
-361.654	-1.600	0.011	-0.007
-360.639	-52.319	0.131	-0.060
-359.625	704.908	-0.046	-0.120
-358.610	-49.762	-0.240	-0.114
-357.596	-200.000	-0.008	-0.123
-356.581	255.549	0.087	-0.148
-355.566	-102.215	0.544	-0.130
-354.552	-193.233	-0.185	0.002
-353.537	-200.000	-0.019	0.209
-352.523	710.609	0.134	-0.353
-351.508	277.389	-0.004	-0.007
-350.493	566.878	-0.049	0.119
-349.479	-73.680	-0.241	0.087
-348.464	-200.000	0.007	-0.246
-347.450	55.934	0.086	-0.083
-346.435	800.000	-0.019	0.081
-345.420	87.868	-0.014	-0.015
-344.406	-200.000	0.030	0.168
-343.391	800.000	0.066	0.287
-342.377	321.387	0.098	0.186
-341.362	-50.946	0.215	0.100
-340.348	219.340	0.100	0.159
-339.333	137.417	-0.106	0.138
-338.318	-131.321	0.264	-0.035
-337.304	157.020	-0.059	-0.081
-336.289	377.448	-0.098	0.199
-335.275	251.688	-0.106	-0.179
-334.260	-185.594	0.247	-0.004
-333.245	188.489	-0.112	0.166
-332.231	-115.191	-0.200	0.038
-331.216	-29.352	-0.172	0.098
-330.202	49.776	-0.063	0.059
-329.187	800.000	-0.054	-0.224
-328.172	-200.000	-0.036	0.333
-327.158	478.475	0.050	0.112
-326.143	14.084	0.268	-0.207
-325.129	345.915	-0.041	-0.079
-324.114	-78.485	-0.279	-0.095
-323.099	800.000	-0.042	0.173
-322.085	-94.485	-0.110	0.030
-321.070	209.139	-0.189	-0.294
-320.056	-39.284	0.104	-0.054
-319.041	171.030	0.105	0.150
-318.026	71.172	-0.162	0.167
-317.012	212.423	0.169	0.264
-315.997	-182.819	0.100	-0.002
-314.983	344.529	0.126	0.245
-313.968	56.936	0.250	0.242
-312.953	73.089	-0.118	-0.122
-311.939	-4.330	0.070	0.048
-310.924	-119.716	-0.266	0.046
-309.910	-200.000	-0.009	0.402
-308.895	118.393	0.103	-0.126
-307.880	-182.456	-0.234	0.004
-306.866	6.755	-0.166	0.122
-305.851	-200.000	0.009	0.075
-304.837	-200.000	-0.034	0.222
-303.822	17.574	-0.447	-0.353
-302.807	-109.950	-0.415	0.086
-301.793	1.104	0.095	-0.068
-300.778	-80.092	0.113	0.038
-299.764	509.434	-0.096	-0.222
-298.749	-81.084	0.287	-0.094
-297.735	-135.589	-0.109	-0.013
-296.720	-8.166	0.352	-0.235
-295.705	-122.665	0.133	0.021
-294.691	-33.499	-0.165	0.091
-293.676	-200.000	-0.009	-0.332
-292.662	800.000	-0.037	0.138
-291.647	-42.747	0.066	-0.033
-290.632	-82.046	-0.151	0.049
-289.618	152.457	0.116	0.157
-288.603	800.000	-0.033	0.100
-287.589	156.769	0.168	0.231
-286.574	-22.978	0.061	0.037
-285.559	56.799	0.272	-0.263
-284.545	31.235	0.217	0.185
-283.530	-200.000	0.013	0.107
-282.516	-85.064	-0.322	0.100
-281.501	-20.403	0.218	-0.133
-280.486	-73.588	-0.259	-0.094
-279.472	-200.000	0.024	0.324
-278.457	-65.610	0.262	0.104
-277.443	800.000	0.022	0.074
-276.428	196.839	-0.090	-0.136
-275.413	-200.000	-0.040	0.466
-274.399	293.144	-0.104	-0.188
-273.384	224.025	0.029	0.047
-272.370	142.576	0.098	-0.130
-271.355	48.185	0.133	0.124
-270.340	96.948	0.144	-0.163
-269.326	-200.000	-0.014	0.085
-268.311	-53.781	0.255	0.115
-267.297	360.465	0.139	-0.277
-266.282	313.373	0.165	-0.308
-265.267	306.962	0.123	-0.227
-264.253	-79.509	-0.191	-0.064
-263.238	-4.826	0.148	-0.101
-262.224	18.592	-0.153	-0.121
-261.209	800.000	0.087	-0.249
-260.195	-200.000	0.000	0.281
-259.180	-200.000	0.023	-0.250
-258.165	-60.727	0.031	0.013
-257.151	-141.490	-0.401	-0.040
-256.136	-104.697	0.331	-0.076
-255.122	87.050	-0.191	-0.209
-254.107	-25.235	-0.108	-0.063
-253.092	-200.000	-0.075	0.396
-252.078	-66.417	0.188	-0.074
-251.063	-200.000	0.002	-0.267
-250.049	-200.000	0.038	-0.279
-249.034	28.796	0.081	-0.068
-248.019	800.000	-0.045	-0.159
-247.005	-41.579	0.145	-0.074
-245.990	-8.982	-0.113	0.075
-244.976	53.245	0.128	-0.121
-243.961	800.000	0.045	0.147
-242.946	-200.000	-0.001	-0.092
-241.932	-200.000	0.002	-0.289
-240.917	800.000	0.116	-0.323
-239.903	-198.237	-0.221	0.001
-238.888	-36.193	0.183	-0.098
-237.873	269.605	0.112	-0.195
-236.859	800.000	-0.076	-0.252
-235.844	95.679	0.149	-0.168
-234.830	-200.000	0.041	-0.213
-233.815	43.057	-0.245	0.221
-232.800	-200.000	0.033	0.334
-231.786	800.000	0.026	-0.094
-230.771	-92.978	0.390	-0.108
-229.757	-165.195	0.243	0.011
-228.742	646.590	-0.075	-0.189
-227.727	396.119	-0.134	-0.277
-226.713	800.000	0.080	-0.251
-225.698	72.987	0.050	-0.052
-224.684	-96.156	-0.196	0.052
-223.669	-182.744	-0.260	-0.005
-222.655	-101.524	-0.258	-0.062
-221.640	234.713	0.129	0.211
-220.625	-11.247	0.288	0.188
-219.611	-73.211	0.250	-0.091
-218.596	148.703	0.114	-0.152
-217.582	800.000	-0.022	-0.073
-216.567	-177.712	0.112	-0.003
-215.552	-180.417	0.105	0.002
-214.538	100.140	-0.068	0.078
-213.523	-115.824	-0.226	-0.042
-212.509	-200.000	-0.050	-0.315
-211.494	15.553	-0.182	-0.142
-210.479	-200.000	-0.009	-0.089
-209.465	-58.727	0.114	-0.049
-208.450	623.397	-0.035	-0.088
-207.436	445.288	-0.087	0.189
-206.421	-54.933	-0.255	-0.114
-205.406	-10.511	-0.081	-0.053
-204.392	800.000	0.074	0.290
-203.377	-200.000	0.010	0.091
-202.363	156.587	-0.084	0.115
-201.348	-92.346	0.350	0.098
-200.333	-200.000	0.063	-0.315
-199.319	47.310	0.085	0.078
-198.304	285.716	0.088	-0.157
-197.290	-200.000	0.394	0.001
-196.275	-200.000	-0.028	0.265
-195.260	87.349	-0.083	0.091
-194.246	276.882	0.119	0.208
-193.231	-200.000	0.080	-0.411
-192.217	44.272	0.187	0.170
-191.202	-1.994	0.355	0.247
-190.187	-15.403	0.207	0.130
-189.173	-200.000	0.011	-0.243
-188.158	-129.089	-0.213	0.030
-187.144	206.371	-0.095	-0.146
-186.129	800.000	0.035	-0.134
-185.114	-45.445	0.057	0.028
-184.100	41.273	-0.219	0.195
-183.085	-97.128	0.106	-0.027
-182.071	-66.898	-0.089	-0.035
-181.056	-62.101	0.167	0.069
-180.042	-126.071	0.099	0.015
-179.027	16.150	-0.179	0.140
-178.012	-200.000	0.008	0.139
-176.998	-77.509	-0.431	-0.148
-175.983	369.922	0.137	0.274
-174.969	77.462	0.077	0.081
-173.954	800.000	-0.070	-0.297
-172.939	1.183	0.242	-0.172
-171.925	144.893	-0.125	0.165
-170.910	-48.130	-0.116	0.055
-169.896	-81.576	0.378	-0.123
-168.881	-200.000	-0.025	0.207
-167.866	200.503	-0.066	0.100
-166.852	118.482	0.206	0.251
-165.837	121.753	0.311	0.383
-164.823	-200.000	-0.007	-0.240
-163.808	-200.000	-0.030	0.222
-162.793	-46.911	0.230	-0.111
-161.779	-69.282	0.390	0.148
-160.764	-200.000	-0.021	-0.203
-159.750	800.000	-0.093	0.345
-158.735	-179.833	0.360	0.008
-157.720	-200.000	-0.004	-0.117
-156.706	800.000	0.019	0.071
-155.691	-7.312	0.151	0.101
-154.677	-50.791	0.197	0.091
-153.662	88.870	0.057	0.063
-152.647	120.200	0.333	-0.408
-151.633	55.999	-0.122	-0.117
-150.618	-180.226	0.182	-0.004
-149.604	-200.000	0.024	0.211
-148.589	27.329	0.109	-0.090
-147.574	-127.087	0.086	-0.012
-146.560	-8.057	-0.063	-0.042
-145.545	-1.548	0.335	-0.233
-144.531	800.000	-0.025	-0.090
-143.516	-200.000	-0.048	0.303
-142.502	-74.157	0.183	0.065
-141.487	-122.936	0.160	0.025
-140.472	630.898	-0.008	0.020
-139.458	-84.615	-0.305	0.095
-138.443	0.461	0.282	-0.198
-137.429	-60.835	-0.386	-0.161
-136.414	-100.816	0.037	-0.009
-135.399	152.196	-0.068	-0.091
-134.385	-200.000	0.044	-0.365
-133.370	-65.883	0.338	0.133
-132.356	-109.857	-0.268	0.055
-131.341	-5.077	-0.099	-0.067
-130.326	-49.719	0.179	-0.084
-129.312	241.042	-0.069	-0.114
-128.297	202.486	0.249	0.379
-127.283	-200.000	-0.017	-0.123
-126.268	307.712	0.090	0.166
-125.253	67.844	0.218	0.220
-124.239	-108.274	0.230	0.049
-123.224	68.036	-0.102	-0.103
-122.210	510.064	0.053	0.121
-121.195	-94.618	0.298	0.080
