DTS Sentinel unit serial number:	SN413079Multiplexer serial number:	ORYXHardware model number:	OX4-SRSoftware version number:	ORYX F/W v4.00 Oryx Data Collector v3.7.2.0data status	okinstallation	princeton_trtdifferential loss correction	single-endedforward channel	channel 2reverse channel	N/Adate	2019/09/14time	07:23:35forward acquisition time	60.00reverse acquisition time	0.00gamma	496.2192k internal	0.2338k external	0.2338temperature offset calibration	1.0135default loss term (dB/km)	0.3790temperature slope calibration	1.0000multiplexer offset coefficient	1.0000multiplexer slope coefficient	1.0000fibre end	0.00T internal ref (°C)	26.19T ext. ref 1 (°C)	3.45T ext. ref 2 (°C)	20.98length (m)	temperature (°C)	Stokes	anti-Stokes-747.200	-128.123	-0.107	0.015
-746.185	5.515	-0.385	0.285
-745.171	-101.773	0.319	0.078
-744.156	-89.889	0.097	0.029
-743.142	602.665	-0.056	-0.140
-742.127	-200.000	-0.006	0.181
-741.112	800.000	0.027	0.084
-740.098	-168.262	-0.100	0.004
-739.083	85.973	-0.178	0.197
-738.069	-42.105	-0.297	-0.152
-737.054	393.797	0.028	-0.058
-736.039	-129.821	-0.284	0.039
-735.025	32.986	-0.215	0.187
-734.010	426.794	-0.057	-0.123
-732.996	-200.000	-0.047	0.220
-731.981	13.152	-0.161	-0.125
-730.966	-200.000	-0.030	0.169
-729.952	-118.126	0.102	0.018
-728.937	168.096	-0.277	-0.395
-727.923	4.150	-0.250	-0.184
-726.908	800.000	0.048	0.188
-725.894	-80.196	-0.168	0.057
-724.879	800.000	-0.033	-0.109
-723.864	56.211	-0.197	-0.192
-722.850	99.531	-0.150	-0.174
-721.835	800.000	-0.110	-0.313
-720.821	-105.615	-0.266	-0.060
-719.806	207.405	-0.100	0.157
-718.791	205.450	-0.289	-0.450
-717.777	-28.051	-0.097	0.056
-716.762	1.621	0.028	0.020
-715.748	13.457	0.203	-0.158
-714.733	-78.730	0.177	-0.061
-713.718	-130.334	-0.329	0.045
-712.704	-78.213	-0.219	-0.076
-711.689	-130.316	-0.138	-0.019
-710.675	800.000	-0.055	-0.202
-709.660	123.509	-0.073	-0.092
-708.645	-79.330	-0.166	-0.056
-707.631	-76.097	-0.149	0.053
-706.616	47.026	0.231	0.215
-705.602	526.401	0.059	0.138
-704.587	372.660	-0.075	0.153
-703.572	87.578	-0.132	-0.146
-702.558	-42.422	-0.119	0.061
-701.543	85.591	0.114	0.126
-700.529	1.674	0.156	-0.113
-699.514	-76.558	-0.354	-0.125
-698.499	-193.746	0.099	0.001
-697.485	800.000	0.016	-0.069
-696.470	-27.312	-0.092	-0.054
-695.456	800.000	-0.052	0.149
-694.441	-52.343	0.033	0.015
-693.426	235.914	0.159	-0.263
-692.412	800.000	-0.142	-0.478
-691.397	101.736	-0.099	-0.116
-690.383	318.487	-0.010	0.018
-689.368	-2.204	-0.295	0.207
-688.354	18.027	0.117	0.093
-687.339	11.425	0.281	-0.215
-686.324	59.785	0.060	0.059
-685.310	-140.464	0.162	-0.017
-684.295	122.122	-0.079	0.099
-683.281	39.657	-0.171	-0.153
-682.266	38.317	-0.178	0.159
-681.251	-75.496	-0.164	0.058
-680.237	397.326	-0.184	-0.386
-679.222	-139.556	-0.404	0.043
-678.208	-71.171	0.106	0.040
-677.193	178.318	-0.260	0.380
-676.178	-76.784	-0.102	0.036
-675.164	-54.897	0.226	-0.102
-674.149	-110.816	-0.133	-0.027
-673.135	394.394	-0.124	0.259
-672.120	175.840	0.192	-0.279
-671.105	-200.000	-0.035	-0.165
-670.091	-77.270	0.139	0.048
-669.076	486.186	0.038	0.086
-668.062	800.000	-0.050	-0.199
-667.047	193.144	0.248	0.375
-666.032	-67.694	0.064	-0.025
-665.018	800.000	0.104	0.343
-664.003	-67.045	0.360	-0.142
-662.989	800.000	-0.072	0.235
-661.974	48.535	-0.060	-0.056
-660.959	544.180	-0.079	-0.189
-659.945	-49.463	-0.182	-0.087
-658.930	562.538	-0.045	-0.110
-657.916	-200.000	0.048	0.370
-656.901	-97.434	0.220	0.057
-655.886	32.927	0.081	-0.070
-654.872	-132.061	0.373	0.049
-653.857	-85.329	-0.362	-0.113
-652.843	0.678	-0.137	-0.098
-651.828	-35.695	0.029	-0.016
-650.814	-127.997	0.124	-0.018
-649.799	562.441	-0.081	0.195
-648.784	35.071	0.334	0.293
-647.770	128.368	-0.105	0.134
-646.755	-199.571	0.093	0.000
-645.741	-199.005	-0.154	0.001
-644.726	260.210	0.117	0.202
-643.711	-59.156	0.238	0.103
-642.697	633.453	-0.057	-0.146
-641.682	-82.557	-0.181	-0.059
-640.668	37.353	0.186	0.165
-639.653	-62.343	-0.197	-0.082
-638.638	0.436	-0.126	0.090
-637.624	-37.071	-0.204	0.109
-636.609	-101.136	-0.127	-0.031
-635.595	-96.060	0.137	-0.036
-634.580	-91.447	-0.170	0.048
-633.565	-200.000	0.021	0.322
-632.551	18.368	0.212	0.170
-631.536	-42.763	0.179	-0.091
-630.522	692.816	-0.044	-0.116
-629.507	54.790	-0.405	-0.391
-628.492	-119.816	-0.186	0.032
-627.478	479.351	0.078	0.176
-626.463	-109.535	0.073	0.015
-625.449	68.726	-0.163	-0.167
-624.434	800.000	-0.130	0.504
-623.419	134.456	-0.219	0.283
-622.405	-200.000	-0.005	-0.042
-621.390	158.970	0.029	-0.040
-620.376	192.916	0.165	-0.249
-619.361	-130.477	-0.118	-0.016
-618.346	123.695	0.172	-0.215
-617.332	162.714	0.086	-0.121
-616.317	-200.000	-0.004	0.085
-615.303	800.000	-0.057	-0.186
-614.288	-88.470	-0.121	0.036
-613.273	58.936	-0.092	-0.091
-612.259	84.926	0.034	0.037
-611.244	-127.689	-0.213	0.031
-610.230	-30.592	-0.231	-0.131
-609.215	-148.510	-0.389	-0.032
-608.201	-74.035	-0.172	0.062
-607.186	-131.323	0.061	0.008
-606.171	190.263	0.153	0.229
-605.157	102.966	-0.116	-0.136
-604.142	56.902	-0.061	0.059
-603.128	-115.073	-0.368	-0.070
-602.113	-200.000	-0.098	0.529
-601.098	-84.480	-0.312	0.098
-600.084	374.590	0.072	-0.146
-599.069	-74.723	0.371	-0.133
-598.055	-1.029	0.425	0.300
-597.040	42.227	0.292	-0.264
-596.025	26.921	-0.156	-0.130
-595.011	-83.142	-0.418	0.134
-593.996	-104.436	0.295	-0.068
-592.982	-134.676	0.102	-0.012
-591.967	296.848	-0.054	-0.099
-590.952	-155.910	0.157	-0.010
-589.938	-200.000	0.022	-0.109
-588.923	-200.000	-0.065	-0.301
-587.909	800.000	-0.095	-0.369
-586.894	137.486	0.029	0.038
-585.879	-5.708	-0.246	-0.168
-584.865	-98.450	-0.149	0.038
-583.850	93.126	-0.293	0.330
-582.836	402.279	0.097	-0.203
-581.821	-101.318	-0.327	0.080
-580.806	181.340	0.162	-0.237
-579.792	154.818	-0.113	-0.154
-578.777	800.000	0.059	-0.189
-577.763	266.078	0.128	-0.223
-576.748	-116.201	0.088	-0.016
-575.733	193.733	0.177	0.268
-574.719	-113.016	-0.239	-0.047
-573.704	-200.000	0.045	-0.202
-572.690	35.159	0.266	0.232
-571.675	-14.227	-0.227	-0.146
-570.661	-200.000	0.003	-0.310
-569.646	16.853	-0.103	-0.081
-568.631	-75.566	-0.501	-0.177
-567.617	-104.386	0.269	-0.062
-566.602	-71.168	-0.321	-0.120
-565.588	-54.415	0.088	-0.040
-564.573	-36.818	0.238	0.127
-563.558	-200.000	-0.029	0.196
-562.544	322.024	-0.119	0.225
-561.529	554.354	0.058	0.138
-560.515	800.000	0.059	-0.222
-559.500	800.000	-0.038	-0.138
-558.485	-152.798	0.255	-0.018
-557.471	747.717	-0.141	0.379
-556.456	593.324	-0.060	-0.147
-555.442	29.229	0.289	-0.245
-554.427	24.679	0.240	-0.198
-553.412	180.009	-0.026	0.038
-552.398	-94.505	0.295	-0.080
-551.383	-135.900	0.302	-0.035
-550.369	800.000	0.123	-0.347
-549.354	-61.015	-0.358	0.151
-548.339	-41.745	-0.060	-0.031
-547.325	-73.694	-0.093	-0.034
-546.310	46.663	0.222	-0.206
-545.296	-88.734	0.259	-0.077
-544.281	-44.342	-0.184	-0.092
-543.266	72.660	-0.100	-0.104
-542.252	-81.078	-0.059	0.020
-541.237	262.508	-0.200	0.346
-540.223	270.294	-0.126	-0.221
-539.208	414.560	-0.230	-0.487
-538.193	105.149	-0.037	-0.044
-537.179	-35.312	-0.204	0.110
-536.164	472.401	-0.074	0.165
-535.150	-106.318	-0.176	-0.039
-534.135	58.110	0.232	-0.227
-533.121	-7.592	-0.172	-0.116
-532.106	-54.575	0.178	0.080
-531.091	131.397	-0.147	0.187
-530.077	-30.585	-0.302	-0.170
-529.062	138.685	-0.033	-0.043
-528.048	-73.566	0.227	0.082
-527.033	-110.352	-0.162	0.034
-526.018	800.000	-0.018	-0.077
-525.004	200.577	-0.058	-0.089
-523.989	-79.847	0.364	0.122
-522.975	40.368	0.173	-0.155
-521.960	-200.000	-0.022	0.153
-520.945	-94.892	-0.224	-0.060
-519.931	-43.208	0.261	0.132
-518.916	800.000	-0.009	-0.027
-517.902	-128.079	0.043	0.006
-516.887	-142.491	-0.176	0.017
-515.872	197.686	0.131	-0.198
-514.858	-84.560	0.275	-0.086
-513.843	-200.000	-0.021	0.111
-512.829	505.178	0.081	0.186
-511.814	-200.000	0.000	-0.054
-510.799	17.304	-0.142	-0.112
-509.785	2.340	-0.068	0.049
-508.770	-121.443	0.058	-0.010
-507.756	-116.903	-0.465	0.085
-506.741	283.790	0.119	-0.212
-505.726	0.347	0.116	-0.082
-504.712	750.972	-0.005	0.014
-503.697	-17.317	-0.151	0.094
-502.683	-11.399	0.166	-0.109
-501.668	-24.669	-0.036	0.021
-500.653	-3.662	0.248	-0.172
-499.639	-141.253	-0.134	-0.014
-498.624	162.772	-0.200	0.279
-497.610	-113.880	-0.240	0.046
-496.595	-50.194	0.292	-0.137
-495.581	8.574	0.115	-0.086
-494.566	800.000	-0.055	-0.163
-493.551	345.536	-0.141	-0.274
-492.537	-67.823	0.332	-0.129
-491.522	-58.577	-0.192	0.083
-490.508	-97.611	-0.180	-0.046
-489.493	-56.132	0.342	-0.151
-488.478	-18.016	-0.212	-0.132
-487.464	-200.000	0.050	0.312
-486.449	-200.000	0.046	0.353
-485.435	-159.135	0.221	0.012
-484.420	-59.408	0.231	-0.099
-483.405	800.000	0.133	-0.396
-482.391	-200.000	0.077	0.424
-481.376	800.000	-0.036	-0.126
-480.362	-85.326	-0.285	0.088
-479.347	-133.732	0.237	-0.029
-478.332	316.252	-0.125	-0.234
-477.318	10.075	0.146	-0.110
-476.303	-16.016	-0.316	-0.200
-475.289	-50.625	0.094	-0.044
-474.274	462.244	-0.106	0.235
-473.259	-67.299	0.078	-0.031
-472.245	252.552	-0.025	0.042
-471.230	-14.756	0.156	0.099
-470.216	220.752	-0.231	-0.367
-469.201	-84.496	0.346	-0.109
-468.186	800.000	-0.080	0.305
-467.172	94.868	0.118	-0.133
-466.157	-56.423	0.326	-0.144
-465.143	-200.000	-0.038	-0.172
-464.128	-174.037	-0.332	0.010
-463.113	370.408	0.073	-0.146
-462.099	-200.000	0.004	-0.079
-461.084	32.905	0.058	-0.050
-460.070	-89.589	-0.082	0.024
-459.055	12.707	-0.209	-0.160
-458.040	208.038	0.091	-0.141
-457.026	5.329	-0.193	0.141
-456.011	331.755	0.102	0.195
-454.997	-200.000	0.001	0.022
-453.982	-120.888	0.315	-0.053
-452.968	-158.104	-0.549	0.032
-451.953	-123.602	-0.271	0.043
-450.938	-117.307	-0.304	0.055
-449.924	-200.000	-0.014	0.257
-448.909	-7.126	0.072	-0.049
-447.895	-34.708	0.185	0.100
-446.880	-110.365	-0.297	-0.061
-445.865	225.549	0.120	-0.193
-444.851	800.000	0.051	0.171
-443.836	-135.413	-0.566	0.067
-442.822	-76.176	0.344	0.121
-441.807	-180.038	-0.048	-0.001
-440.792	531.429	0.186	-0.437
-439.778	-24.364	0.406	-0.240
-438.763	556.938	-0.052	0.124
-437.749	-200.000	-0.006	-0.373
-436.734	-72.805	-0.160	-0.058
-435.719	44.459	0.202	0.184
-434.705	-200.000	-0.041	-0.269
-433.690	177.880	0.067	0.097
-432.676	-78.558	-0.079	-0.027
-431.661	-98.708	0.161	0.041
-430.646	-109.651	-0.069	0.014
-429.632	132.947	-0.166	0.212
-428.617	246.395	-0.171	0.286
-427.603	-135.773	0.410	-0.048
-426.588	-200.000	-0.023	0.102
-425.573	-176.656	-0.095	0.002
-424.559	3.871	0.357	0.259
-423.544	-127.885	-0.266	0.038
-422.530	-124.205	-0.070	0.011
-421.515	-101.234	-0.272	-0.066
-420.500	683.535	-0.063	0.163
-419.486	72.226	-0.242	-0.250
-418.471	-35.796	-0.261	-0.140
-417.457	-200.000	-0.005	0.111
-416.442	-60.614	0.188	-0.079
-415.428	800.000	0.081	0.281
-414.413	78.262	-0.077	0.082
-413.398	794.526	-0.023	-0.063
-412.384	95.321	-0.132	0.149
-411.369	17.741	-0.098	0.077
-410.355	-105.960	-0.199	-0.044
-409.340	26.498	0.273	0.226
-408.325	595.097	0.115	0.281
-407.311	-20.442	0.302	0.184
-406.296	-45.757	-0.270	0.132
-405.282	-200.000	0.001	-0.306
-404.267	-200.000	0.011	-0.192
-403.252	-56.528	0.286	-0.126
-402.238	-200.000	0.022	0.102
-401.223	800.000	-0.057	-0.237
-400.209	169.941	0.108	-0.154
-399.194	31.660	-0.112	-0.095
-398.179	35.475	0.033	-0.029
-397.165	-93.890	-0.301	0.082
-396.150	413.653	0.144	0.303
-395.136	-5.050	-0.041	-0.028
-394.121	-200.000	-0.055	0.407
-393.106	25.060	0.071	0.058
-392.092	-127.601	0.351	-0.050
-391.077	800.000	-0.060	0.204
-390.063	-39.828	0.326	0.169
-389.048	16.201	-0.071	0.055
-388.033	66.403	-0.305	-0.307
-387.019	-16.642	0.186	-0.116
-386.004	-115.153	0.285	-0.053
-384.990	-81.953	-0.080	0.026
-383.975	43.270	-0.154	0.139
-382.960	506.619	0.084	0.192
-381.946	-135.963	-0.128	-0.015
-380.931	-200.000	0.021	-0.132
-379.917	55.425	-0.038	0.037
-378.902	103.719	0.128	-0.148
-377.888	146.981	0.128	0.170
-376.873	-80.474	-0.222	-0.073
-375.858	225.296	0.155	0.248
-374.844	-129.639	0.057	-0.008
-373.829	70.671	-0.107	0.110
-372.815	25.467	0.088	0.072
-371.800	205.028	-0.112	0.172
-370.785	-200.000	0.029	-0.151
-369.771	236.341	0.150	0.246
-368.756	175.479	-0.069	-0.099
-367.742	511.773	-0.119	0.273
-366.727	-19.108	0.001	-0.000
-365.712	-55.113	-0.279	-0.124
-364.698	-0.760	0.061	-0.043
-363.683	-52.401	0.276	-0.126
-362.669	-155.650	-0.248	0.016
-361.654	126.897	-0.169	-0.211
-360.639	800.000	0.041	0.119
-359.625	-200.000	-0.095	0.600
-358.610	-125.011	-0.379	-0.058
-357.596	-51.647	-0.113	0.052
-356.581	-198.066	0.375	-0.002
-355.566	145.492	-0.107	0.141
-354.552	321.385	0.069	-0.130
-353.537	-41.369	-0.066	-0.033
-352.523	616.495	-0.035	0.088
-351.508	390.031	-0.149	0.306
-350.493	42.780	0.067	-0.060
-349.479	20.091	0.159	0.127
-348.464	49.392	0.271	-0.252
-347.450	-1.531	0.351	0.245
-346.435	494.297	-0.082	0.186
-345.420	129.307	-0.217	-0.274
-344.406	-200.000	0.001	-0.166
-343.391	800.000	-0.077	-0.282
-342.377	712.727	0.105	0.276
-341.362	-48.395	0.137	-0.065
-340.348	760.346	-0.100	0.268
-339.333	-30.589	0.055	-0.031
-338.318	202.602	-0.062	-0.095
-337.304	-91.153	0.216	-0.061
-336.289	-60.798	-0.182	-0.076
-335.275	356.047	-0.096	0.189
-334.260	-200.000	0.023	0.178
-333.245	-200.000	-0.007	0.084
-332.231	800.000	0.086	-0.276
-331.216	-200.000	0.017	-0.325
-330.202	-200.000	-0.004	-0.043
-329.187	-62.116	-0.172	0.071
-328.172	41.416	0.328	-0.293
-327.158	-40.399	-0.187	-0.096
-326.143	-200.000	0.041	0.337
-325.129	-37.901	-0.272	-0.143
-324.114	-50.940	-0.235	0.109
-323.099	1.880	-0.253	0.180
-322.085	-96.742	0.136	0.035
-321.070	-79.672	-0.144	-0.048
-320.056	0.444	-0.097	0.069
-319.041	800.000	0.016	0.049
-318.026	-200.000	-0.055	-0.276
-317.012	149.965	-0.042	-0.057
-315.997	-200.000	-0.019	-0.165
-314.983	11.713	-0.420	0.318
-313.968	-112.944	0.155	-0.030
-312.953	800.000	-0.036	-0.113
-311.939	-9.101	0.327	-0.216
-310.924	519.303	0.057	-0.132
-309.910	-14.586	0.249	-0.158
-308.895	3.573	0.093	-0.067
-307.880	800.000	0.068	0.270
-306.866	-146.511	-0.132	-0.011
-305.851	777.892	0.072	-0.193
-304.837	88.441	0.120	0.131
-303.822	-159.135	-0.189	-0.010
-302.807	57.565	-0.189	0.182
-301.793	-142.192	0.261	-0.025
-300.778	175.312	0.137	0.196
-299.764	-200.000	0.001	-0.049
-298.749	-200.000	0.048	0.230
-297.735	-113.975	-0.093	0.018
-296.720	-200.000	0.027	-0.319
-295.705	193.152	0.056	-0.083
-294.691	461.986	0.073	0.162
-293.676	-107.893	-0.216	0.046
-292.662	182.829	-0.115	0.167
-291.647	-139.446	0.190	0.020
-290.632	-34.741	0.286	-0.154
-289.618	-110.364	0.189	-0.039
-288.603	57.370	0.129	0.125
-287.589	-165.437	0.302	-0.013
-286.574	11.610	0.305	0.231
-285.559	-129.089	-0.200	-0.028
-284.545	-200.000	-0.013	0.280
-283.530	699.473	0.102	0.265
-282.516	-63.986	0.159	0.064
-281.501	-200.000	0.011	0.073
-280.486	6.439	0.403	-0.295
-279.472	-19.541	-0.400	0.244
-278.457	-149.020	0.214	0.017
-277.443	12.264	-0.268	0.204
-276.428	-113.917	0.321	-0.061
-275.413	0.070	-0.229	0.161
-274.399	800.000	0.045	-0.181
-273.384	-20.349	-0.161	-0.098
-272.370	-50.416	0.322	0.150
-271.355	-200.000	0.001	0.256
-270.340	-115.786	-0.114	-0.021
-269.326	-200.000	-0.029	0.136
-268.311	10.762	0.322	0.242
-267.297	-154.085	-0.105	0.007
-266.282	83.587	-0.003	-0.004
-265.267	-68.132	-0.085	0.033
-264.253	-133.186	-0.258	0.032
-263.238	-200.000	-0.001	0.209
-262.224	84.430	0.171	-0.184
-261.209	-70.163	0.484	-0.181
-260.195	14.883	-0.299	-0.231
-259.180	19.720	-0.068	0.054
-258.165	800.000	-0.088	-0.307
-257.151	67.042	0.418	-0.419
-256.136	-66.622	-0.250	-0.098
-255.122	176.624	0.105	0.150
-254.107	-200.000	0.007	0.268
-253.092	165.763	0.135	0.188
-252.078	-30.518	-0.161	-0.090
-251.063	12.436	-0.239	0.181
-250.049	-200.000	-0.006	0.335
-249.034	-128.961	0.303	-0.042
-248.019	38.986	0.150	0.132
-247.005	389.855	-0.095	-0.194
-245.990	76.560	-0.043	-0.045
-244.976	410.706	0.147	0.306
-243.961	800.000	-0.049	-0.205
-242.946	-200.000	-0.035	0.212
-241.932	-75.146	0.098	-0.035
-240.917	425.650	-0.062	0.132
-239.903	70.872	-0.075	-0.077
-238.888	-116.046	-0.154	-0.028
-237.873	-69.926	0.136	-0.051
-236.859	-11.025	0.120	0.078
-235.844	137.954	0.153	-0.197
-234.830	-200.000	-0.063	-0.281
-233.815	63.221	0.154	0.152
-232.800	306.117	-0.060	0.110
-231.786	-28.434	0.145	-0.082
-230.771	53.550	0.228	-0.215
-229.757	-95.800	0.185	-0.049
-228.742	35.271	-0.153	0.132
-227.727	-7.910	0.043	-0.028
-226.713	-17.284	0.271	0.168
-225.698	800.000	-0.058	-0.208
-224.684	54.707	0.194	0.184
-223.669	-155.529	-0.060	0.004
-222.655	115.696	-0.119	0.143
-221.640	-25.163	0.236	-0.137
-220.625	175.862	-0.231	-0.329
-219.611	-200.000	-0.037	0.178
-218.596	-200.000	-0.053	-0.385
-217.582	70.892	-0.073	0.075
-216.567	105.061	0.178	-0.207
-215.552	-64.397	0.210	0.084
-214.538	27.474	0.081	-0.067
-213.523	-4.986	0.137	0.092
-212.509	800.000	-0.058	0.201
-211.494	-33.748	-0.058	-0.032
-210.479	183.485	-0.211	-0.307
-209.465	243.789	-0.076	0.126
-208.450	-34.450	-0.162	-0.087
-207.436	19.665	-0.095	0.075
-206.421	800.000	-0.073	0.254
-205.406	-200.000	-0.016	0.366
-204.392	800.000	0.078	0.320
-203.377	151.615	-0.154	0.206
-202.363	-26.724	0.344	-0.198
-201.348	104.912	0.215	0.250
-200.333	800.000	-0.048	0.131
-199.319	198.412	0.044	-0.066
-198.304	193.631	0.145	-0.215
-197.290	-200.000	-0.010	0.192
-196.275	17.936	-0.078	0.061
-195.260	136.468	-0.145	0.186
-194.246	800.000	-0.052	-0.222
-193.231	-104.073	-0.111	0.025
-192.217	800.000	-0.059	0.169
-191.202	284.350	-0.200	-0.354
-190.187	-200.000	0.045	0.349
-189.173	-200.000	0.022	-0.176
-188.158	-70.033	-0.261	0.098
-187.144	800.000	0.058	-0.235
-186.129	165.915	-0.098	-0.136
-185.114	-200.000	-0.039	0.380
-184.100	-81.019	0.101	0.033
-183.085	211.290	0.184	-0.285
-182.071	447.708	0.102	-0.220
-181.056	40.595	0.178	0.158
-180.042	-88.417	-0.168	0.049
-179.027	-200.000	-0.006	0.138
-178.012	-43.345	0.263	-0.131
-176.998	76.829	0.189	0.197
-175.983	-200.000	-0.017	0.171
-174.969	19.696	0.183	0.145
-173.954	-80.551	0.220	-0.072
-172.939	-200.000	-0.015	-0.268
-171.925	-32.954	-0.136	-0.074
-170.910	-111.101	0.314	-0.063
-169.896	-200.000	-0.001	0.103
-168.881	-119.902	-0.233	0.039
-167.866	617.855	0.049	0.120
-166.852	-115.200	-0.196	-0.036
-165.837	-65.189	0.099	-0.039
-164.823	-200.000	-0.023	-0.117
-163.808	-200.000	0.031	-0.568
-162.793	-200.000	-0.020	0.110
-161.779	-38.641	-0.132	0.068
-160.764	-35.477	0.062	-0.033
-159.750	404.536	-0.049	-0.100
-158.735	119.101	-0.119	-0.144
-157.720	158.506	0.118	0.160
-156.706	779.280	0.138	0.370
-155.691	-200.000	-0.027	-0.282
-154.677	800.000	-0.074	-0.214
-153.662	138.844	-0.172	0.222
-152.647	93.733	0.071	-0.079
-151.633	433.585	-0.110	-0.234
-150.618	800.000	0.032	0.115
-149.604	64.756	0.093	-0.092
-148.589	79.483	0.316	0.332
-147.574	-69.239	-0.514	-0.194
-146.560	-78.639	0.106	0.035
-145.545	-40.912	-0.210	0.106
-144.531	-8.828	0.378	-0.248
-143.516	800.000	-0.032	0.094
-142.502	-105.326	-0.135	0.030
-141.487	251.610	0.035	0.058
-140.472	10.449	-0.123	-0.092
-139.458	226.387	-0.110	0.175
-138.443	800.000	0.066	0.206
-137.429	-131.549	0.322	0.042
-136.414	-172.645	-0.215	0.007
-135.399	-102.099	0.299	0.070
-134.385	444.445	0.138	0.297
-133.370	-79.616	0.105	0.035
-132.356	-200.000	-0.020	0.200
-131.341	-161.893	-0.343	-0.017
-130.326	-120.121	0.088	0.015
-129.312	36.382	-0.054	-0.047
-128.297	720.302	0.103	0.268
-127.283	97.190	-0.401	0.451
-126.268	-71.893	0.230	-0.084
-125.253	264.960	0.149	-0.254
-124.239	-151.769	0.209	0.015
-123.224	-200.000	-0.027	-0.200
-122.210	-120.204	0.100	-0.017
-121.195	135.783	0.071	0.090
