DTS Sentinel unit serial number:	SN413079Multiplexer serial number:	ORYXHardware model number:	OX4-SRSoftware version number:	ORYX F/W v4.00 Oryx Data Collector v3.7.2.0data status	okinstallation	princeton_trtdifferential loss correction	single-endedforward channel	channel 2reverse channel	N/Adate	2019/09/17time	23:39:35forward acquisition time	60.00reverse acquisition time	0.00gamma	496.2192k internal	0.2349k external	0.2349temperature offset calibration	0.9982default loss term (dB/km)	0.3790temperature slope calibration	1.0000multiplexer offset coefficient	1.0000multiplexer slope coefficient	1.0000fibre end	0.00T internal ref (°C)	24.12T ext. ref 1 (°C)	0.17T ext. ref 2 (°C)	17.55length (m)	temperature (°C)	Stokes	anti-Stokes-747.200	92.716	-0.145	-0.164
-746.185	420.787	0.132	0.284
-745.171	-200.000	-0.043	-0.209
-744.156	-200.000	-0.056	0.496
-743.142	-200.000	0.025	0.345
-742.127	800.000	0.083	0.297
-741.112	-200.000	0.018	0.297
-740.098	126.821	-0.102	0.129
-739.083	800.000	0.077	-0.224
-738.069	-200.000	0.013	0.083
-737.054	-98.197	0.279	0.072
-736.039	800.000	-0.086	-0.286
-735.025	-200.000	-0.030	0.219
-734.010	-14.105	0.333	0.214
-732.996	-52.258	-0.256	-0.119
-731.981	-132.330	0.132	0.017
-730.966	-96.343	-0.126	0.033
-729.952	380.028	0.157	0.320
-728.937	143.071	-0.154	0.204
-727.923	304.294	-0.201	-0.372
-726.908	525.540	0.066	-0.155
-725.894	-67.522	0.121	-0.047
-724.879	-53.471	0.129	0.059
-723.864	96.976	-0.105	-0.120
-722.850	-35.199	0.172	-0.093
-721.835	-191.933	-0.129	-0.001
-720.821	-197.950	-0.407	-0.002
-719.806	-200.000	0.048	-0.331
-718.791	-112.858	0.306	-0.060
-717.777	-200.000	0.027	0.259
-716.762	-36.780	0.188	-0.101
-715.748	800.000	0.073	-0.246
-714.733	-50.111	0.025	0.012
-713.718	243.350	0.178	-0.298
-712.704	800.000	-0.142	-0.436
-711.689	138.974	0.105	0.138
-710.675	-169.323	0.216	-0.008
-709.660	160.654	0.055	0.077
-708.645	51.528	0.204	0.194
-707.631	-200.000	0.014	-0.098
-706.616	-68.590	-0.324	-0.125
-705.602	-126.736	-0.234	-0.035
-704.587	800.000	0.074	-0.242
-703.572	29.144	-0.192	-0.162
-702.558	152.047	-0.307	0.417
-701.543	-135.786	-0.287	0.034
-700.529	-200.000	-0.070	-0.425
-699.514	-200.000	-0.047	-0.313
-698.499	800.000	-0.036	-0.131
-697.485	731.598	0.023	0.062
-696.470	119.300	0.128	0.158
-695.456	494.251	0.076	0.173
-694.441	30.781	-0.284	-0.242
-693.426	106.197	0.230	-0.271
-692.412	34.148	0.265	-0.230
-691.397	123.465	-0.113	0.141
-690.383	800.000	-0.107	-0.352
-689.368	181.362	-0.095	0.139
-688.354	121.204	0.223	-0.277
-687.339	400.076	-0.033	0.068
-686.324	-0.719	0.328	0.231
-685.310	110.349	-0.201	-0.240
-684.295	800.000	-0.071	-0.296
-683.281	-87.742	0.241	-0.073
-682.266	-9.607	-0.241	-0.160
-681.251	-200.000	0.016	-0.109
-680.237	-103.127	0.233	-0.055
-679.222	281.314	-0.112	-0.199
-678.208	45.777	0.201	0.185
-677.193	279.410	0.134	0.238
-676.178	-200.000	0.043	-0.311
-675.164	-137.002	-0.363	-0.041
-674.149	-200.000	-0.199	0.000
-673.135	-200.000	0.036	-0.216
-672.120	-9.219	-0.222	0.148
-671.105	-53.920	0.204	-0.093
-670.091	-176.480	-0.221	-0.006
-669.076	246.513	-0.204	0.343
-668.062	92.988	0.199	-0.224
-667.047	122.400	0.119	-0.149
-666.032	800.000	-0.035	0.104
-665.018	-65.746	0.055	0.022
-664.003	-140.883	-0.134	-0.014
-662.989	-200.000	0.049	0.226
-661.974	-100.286	0.077	0.019
-660.959	128.365	-0.079	-0.100
-659.945	-67.962	0.251	-0.097
-658.930	-68.040	-0.308	0.119
-657.916	-200.000	0.179	0.000
-656.901	89.049	0.097	0.107
-655.886	800.000	-0.031	-0.085
-654.872	723.151	-0.052	0.137
-653.857	191.912	-0.069	-0.103
-652.843	115.477	0.069	0.084
-651.828	-129.938	-0.362	0.049
-650.814	-134.794	0.180	-0.022
-649.799	800.000	-0.150	-0.626
-648.784	120.124	-0.133	0.165
-647.770	-16.995	0.153	0.096
-646.755	86.187	-0.054	0.059
-645.741	75.230	0.246	0.258
-644.726	-200.000	0.039	0.177
-643.711	257.929	0.154	0.265
-642.697	1.871	-0.187	-0.134
-641.682	116.141	0.262	-0.320
-640.668	62.993	-0.235	-0.234
-639.653	73.763	0.045	-0.047
-638.638	-200.000	-0.023	-0.282
-637.624	-25.091	-0.297	-0.175
-636.609	177.670	0.193	-0.279
-635.595	321.743	0.185	0.350
-634.580	69.009	-0.242	0.247
-633.565	-130.781	0.471	0.063
-632.551	-8.581	0.062	-0.041
-631.536	-105.673	0.063	-0.014
-630.522	-75.206	-0.098	-0.035
-629.507	-200.000	-0.036	0.338
-628.492	-56.937	0.173	-0.076
-627.478	324.878	0.053	-0.101
-626.463	-41.847	-0.235	-0.120
-625.449	86.366	0.150	-0.165
-624.434	-153.850	-0.198	0.013
-623.419	-200.000	-0.072	-0.377
-622.405	349.957	0.147	0.288
-621.390	-37.436	-0.184	0.098
-620.376	-115.512	-0.086	-0.016
-619.361	313.703	-0.153	0.286
-618.346	-118.751	-0.172	0.030
-617.332	-11.081	-0.182	0.119
-616.317	483.733	0.110	-0.249
-615.303	-73.184	0.115	-0.042
-614.288	210.689	-0.138	-0.216
-613.273	-112.083	0.459	0.092
-612.259	800.000	-0.101	0.336
-611.244	-113.544	-0.194	-0.038
-610.230	-200.000	-0.005	0.358
-609.215	137.423	-0.171	0.223
-608.201	168.367	-0.108	-0.153
-607.186	324.899	-0.077	-0.146
-606.171	300.167	0.043	0.078
-605.157	69.617	-0.256	0.262
-604.142	-80.320	-0.239	-0.080
-603.128	-200.000	0.016	-0.436
-602.113	375.093	-0.071	0.145
-601.098	-200.000	-0.014	0.216
-600.084	3.212	0.286	0.207
-599.069	-200.000	-0.009	-0.077
-598.055	3.291	-0.093	-0.067
-597.040	-128.307	-0.183	0.026
-596.025	-200.000	0.041	0.217
-595.011	408.097	0.057	-0.120
-593.996	-115.179	-0.318	-0.060
-592.982	-51.797	-0.155	-0.072
-591.967	-100.404	0.393	-0.097
-590.952	88.166	0.019	0.021
-589.938	49.810	0.117	-0.109
-588.923	262.321	0.033	0.056
-587.909	-200.000	0.015	0.084
-586.894	-200.000	0.015	-0.102
-585.879	5.676	-0.036	0.026
-584.865	-126.285	-0.322	-0.048
-583.850	-128.364	0.147	0.021
-582.836	54.335	0.101	-0.096
-581.821	-5.605	-0.342	0.233
-580.806	-162.735	-0.106	0.005
-579.792	800.000	-0.064	0.229
-578.777	393.783	-0.050	-0.104
-577.763	-57.888	0.165	-0.071
-576.748	800.000	-0.058	-0.159
-575.733	100.795	0.114	0.131
-574.719	54.971	-0.269	0.257
-573.704	264.349	-0.209	-0.362
-572.690	800.000	-0.053	-0.202
-571.675	165.398	0.160	0.224
-570.661	-127.704	0.215	0.031
-569.646	412.404	0.041	-0.086
-568.631	-26.676	-0.087	0.050
-567.617	183.665	-0.173	0.254
-566.602	124.629	-0.120	0.149
-565.588	226.709	0.151	0.244
-564.573	-200.000	0.043	0.324
-563.558	-77.632	0.091	-0.031
-562.544	84.532	-0.265	0.288
-561.529	-161.590	0.241	-0.012
-560.515	-45.331	0.092	-0.045
-559.500	-171.095	-0.360	-0.012
-558.485	211.950	-0.224	-0.350
-557.471	234.950	-0.143	-0.233
-556.456	-176.199	0.162	-0.004
-555.442	800.000	0.042	0.147
-554.427	-48.223	-0.234	0.112
-553.412	176.281	-0.143	-0.206
-552.398	-200.000	-0.010	-0.081
-551.383	133.408	-0.195	-0.250
-550.369	260.834	-0.125	0.214
-549.354	-151.557	0.135	0.010
-548.339	800.000	-0.085	0.295
-547.325	-134.260	0.286	-0.035
-546.310	197.069	-0.154	0.233
-545.296	-200.000	0.043	0.219
-544.281	-200.000	0.014	-0.117
-543.266	337.101	-0.144	0.278
-542.252	127.699	0.268	-0.337
-541.237	-172.499	0.078	0.002
-540.223	800.000	-0.032	-0.098
-539.208	-200.000	0.001	0.178
-538.193	-200.000	-0.014	-0.070
-537.179	-32.929	0.087	-0.048
-536.164	494.654	0.155	-0.352
-535.150	-96.488	-0.156	-0.041
-534.135	800.000	-0.008	-0.035
-533.121	-102.752	0.250	0.059
-532.106	-129.174	-0.119	0.016
-531.091	258.960	-0.200	-0.342
-530.077	-200.000	-0.008	0.063
-529.062	-96.950	-0.112	0.029
-528.048	215.159	-0.072	0.114
-527.033	-12.498	-0.233	-0.150
-526.018	-200.000	-0.155	0.000
-525.004	-200.000	-0.005	0.156
-523.989	145.939	0.044	0.059
-522.975	-61.730	-0.256	0.106
-521.960	186.101	-0.084	0.124
-520.945	-200.000	-0.005	0.119
-519.931	800.000	0.065	-0.251
-518.916	800.000	-0.058	0.217
-517.902	-136.665	0.135	0.015
-516.887	-21.201	-0.227	-0.138
-515.872	403.319	0.089	-0.184
-514.858	-146.625	0.215	0.018
-513.843	101.597	-0.314	-0.362
-512.829	-176.377	-0.112	-0.003
-511.814	-200.000	0.034	-0.392
-510.799	-57.667	-0.222	0.096
-509.785	800.000	-0.039	0.140
-508.770	155.845	-0.216	-0.294
-507.756	-179.011	-0.031	0.001
-506.741	192.316	0.117	-0.175
-505.726	800.000	0.039	0.144
-504.712	7.600	-0.355	0.263
-503.697	226.001	-0.153	0.246
-502.683	110.368	-0.143	-0.170
-501.668	-152.486	-0.225	0.016
-500.653	96.797	-0.173	-0.196
-499.639	158.323	-0.157	-0.216
-498.624	-46.422	-0.354	0.172
-497.610	-119.149	0.370	0.064
-496.595	-102.616	-0.166	-0.039
-495.581	800.000	-0.101	-0.396
-494.566	800.000	-0.103	-0.320
-493.551	-36.058	-0.075	0.040
-492.537	-71.525	-0.279	-0.103
-491.522	-200.000	-0.030	0.259
-490.508	-45.668	0.171	-0.084
-489.493	46.721	0.213	0.195
-488.478	189.207	0.068	-0.100
-487.464	383.949	-0.122	-0.247
-486.449	-24.445	0.171	-0.101
-485.435	-99.466	0.289	-0.072
-484.420	6.935	-0.152	0.112
-483.405	-0.118	0.044	-0.031
-482.391	-118.703	-0.273	0.048
-481.376	-61.904	0.188	0.078
-480.362	122.141	-0.134	0.165
-479.347	-14.525	0.066	-0.042
-478.332	-94.859	0.423	-0.113
-477.318	-62.142	0.428	0.176
-476.303	55.157	-0.025	-0.024
-475.289	22.127	0.118	0.095
-474.274	-43.292	0.129	-0.064
-473.259	-101.692	0.344	0.082
-472.245	-79.749	0.415	-0.138
-471.230	135.167	-0.030	-0.039
-470.216	236.183	0.144	-0.236
-469.201	800.000	-0.084	-0.257
-468.186	800.000	0.073	0.221
-467.172	-91.869	-0.138	0.039
-466.157	-0.678	-0.360	-0.252
-465.143	348.025	0.080	0.155
-464.128	22.453	0.056	0.045
-463.113	800.000	-0.047	0.153
-462.099	-180.447	-0.105	-0.002
-461.084	800.000	0.080	0.238
-460.070	-87.082	-0.110	-0.033
-459.055	-200.000	0.001	-0.139
-458.040	140.142	-0.118	-0.154
-457.026	125.344	-0.078	-0.097
-456.011	-102.091	0.125	0.030
-454.997	399.791	0.078	0.161
-453.982	-200.000	-0.011	0.065
-452.968	95.093	-0.163	-0.184
-451.953	526.620	-0.072	0.167
-450.938	800.000	-0.043	0.156
-449.924	-159.529	-0.126	0.007
-448.909	-200.000	0.071	0.312
-447.895	201.343	-0.226	-0.343
-446.880	-99.915	0.130	0.032
-445.865	-200.000	-0.019	-0.093
-444.851	-34.636	0.274	-0.148
-443.836	-200.000	-0.005	-0.127
-442.822	-155.162	-0.048	0.003
-441.807	800.000	0.105	-0.293
-440.792	494.677	0.141	-0.320
-439.778	6.499	0.027	-0.020
-438.763	-76.006	-0.271	-0.095
-437.749	15.061	-0.264	-0.204
-436.734	800.000	-0.029	0.097
-435.719	30.608	-0.097	-0.082
-434.705	-200.000	0.008	-0.120
-433.690	-200.000	-0.025	0.144
-432.676	308.745	-0.066	-0.121
-431.661	77.755	-0.077	0.081
-430.646	26.589	0.146	-0.120
-429.632	770.006	0.036	-0.097
-428.617	-67.777	0.020	0.008
-427.603	-137.676	0.097	0.011
-426.588	31.354	-0.046	-0.039
-425.573	-200.000	0.016	-0.145
-424.559	-172.280	0.116	0.004
-423.544	-200.000	0.012	-0.083
-422.530	-60.147	0.181	-0.076
-421.515	-200.000	-0.067	-0.377
-420.500	800.000	-0.043	-0.128
-419.486	600.083	0.110	-0.268
-418.471	46.001	-0.093	0.085
-417.457	-29.267	0.050	-0.028
-416.442	15.270	0.198	0.153
-415.428	609.913	-0.080	-0.197
-414.413	213.446	0.019	0.029
-413.398	800.000	-0.061	0.233
-412.384	-200.000	0.008	0.177
-411.369	-115.469	-0.123	0.023
-410.355	100.762	-0.082	0.094
-409.340	-200.000	0.005	-0.124
-408.325	-200.000	0.006	0.136
-407.311	-12.059	0.119	-0.077
-406.296	800.000	0.094	0.265
-405.282	122.100	-0.118	0.145
-404.267	800.000	-0.118	0.426
-403.252	800.000	-0.085	0.268
-402.238	124.151	0.194	0.240
-401.223	389.467	0.076	-0.156
-400.209	-194.744	0.199	-0.002
-399.194	800.000	0.046	-0.151
-398.179	92.011	0.142	-0.158
-397.165	-81.065	0.138	0.045
-396.150	24.478	-0.139	0.113
-395.136	232.191	0.088	-0.143
-394.121	-28.527	-0.117	0.066
-393.106	800.000	0.034	-0.095
-392.092	-200.000	-0.003	0.258
-391.077	-200.000	0.016	0.104
-390.063	-200.000	-0.086	-0.519
-389.048	222.732	0.171	-0.272
-388.033	-200.000	0.025	-0.201
-387.019	-53.786	-0.320	-0.144
-386.004	-111.345	-0.192	-0.039
-384.990	-23.823	0.071	-0.042
-383.975	-136.183	0.327	0.038
-382.960	1.272	0.244	-0.172
-381.946	709.036	-0.093	0.241
-380.931	-49.045	0.152	0.072
-379.917	-5.531	-0.140	0.095
-378.902	-69.900	0.169	0.063
-377.888	-187.202	-0.192	-0.003
-376.873	26.233	-0.237	-0.195
-375.858	681.889	-0.126	-0.324
-374.844	-129.228	0.278	-0.038
-373.829	407.043	-0.014	-0.029
-372.815	-200.000	-0.000	-0.299
-371.800	-47.808	-0.147	-0.070
-370.785	800.000	0.102	-0.389
-369.771	-109.615	-0.080	-0.017
-368.756	77.471	-0.090	0.094
-367.742	14.855	-0.253	0.195
-366.727	683.003	0.189	0.484
-365.712	-134.368	-0.316	-0.038
-364.698	96.953	0.362	0.409
-363.683	156.384	0.090	-0.123
-362.669	13.163	0.031	0.024
-361.654	-114.832	-0.073	0.014
-360.639	708.362	0.048	-0.125
-359.625	-81.692	-0.059	0.019
-358.610	112.360	0.176	-0.209
-357.596	-30.358	0.240	0.134
-356.581	58.368	0.112	0.108
-355.566	-200.000	-0.070	0.374
-354.552	-174.695	0.141	0.004
-353.537	-200.000	0.035	0.496
-352.523	620.053	0.046	-0.115
-351.508	141.665	0.138	0.180
-350.493	-112.367	0.096	0.019
-349.479	52.412	0.202	0.190
-348.464	800.000	0.074	0.244
-347.450	-62.039	-0.088	-0.036
-346.435	44.855	0.288	-0.261
-345.420	-31.284	-0.094	0.052
-344.406	-80.628	-0.207	0.068
-343.391	-2.604	0.159	-0.109
-342.377	-69.075	-0.304	-0.115
-341.362	573.722	-0.074	-0.177
-340.348	800.000	-0.052	-0.184
-339.333	-97.977	0.190	-0.048
-338.318	-200.000	-0.012	-0.123
-337.304	-162.459	-0.172	-0.008
-336.289	619.471	0.062	-0.154
-335.275	-181.026	-0.201	0.004
-334.260	-92.512	0.216	-0.060
-333.245	80.115	0.370	-0.391
-332.231	-117.003	-0.062	-0.011
-331.216	800.000	-0.078	-0.273
-330.202	77.491	0.161	0.168
-329.187	215.722	0.143	-0.223
-328.172	-63.181	-0.222	0.090
-327.158	286.378	-0.054	-0.095
-326.143	17.960	-0.143	0.112
-325.129	-27.310	-0.142	-0.081
-324.114	61.258	0.165	-0.161
-323.099	-200.000	0.046	-0.356
-322.085	251.085	0.084	-0.141
-321.070	117.206	-0.002	0.002
-320.056	12.499	-0.197	0.149
-319.041	231.755	-0.184	-0.297
-318.026	-200.000	0.015	0.225
-317.012	51.482	0.145	-0.135
-315.997	155.566	0.128	0.173
-314.983	229.514	-0.055	0.088
-313.968	-200.000	0.003	-0.244
-312.953	800.000	-0.064	-0.269
-311.939	-33.629	-0.120	-0.065
-310.924	-84.901	0.206	-0.064
-309.910	4.939	0.085	-0.061
-308.895	354.772	0.048	-0.095
-307.880	-200.000	-0.038	-0.305
-306.866	-153.807	-0.057	0.004
-305.851	732.110	-0.118	0.309
-304.837	557.925	0.112	-0.265
-303.822	-75.870	-0.295	0.103
-302.807	-200.000	-0.018	-0.098
-301.793	-119.605	0.251	0.043
-300.778	117.063	-0.143	-0.172
-299.764	-80.601	-0.194	-0.063
-298.749	48.295	0.104	-0.096
-297.735	124.974	0.035	0.044
-296.720	411.167	-0.028	0.059
-295.705	-13.624	0.178	0.113
-294.691	48.498	0.103	0.094
-293.676	-200.000	0.055	0.324
-292.662	-38.172	-0.165	-0.086
-291.647	800.000	-0.062	-0.182
-290.632	-71.033	-0.085	0.031
-289.618	97.755	-0.039	0.044
-288.603	69.113	-0.084	-0.085
-287.589	51.100	-0.157	0.146
-286.574	800.000	0.025	0.102
-285.559	543.040	0.026	0.060
-284.545	-200.000	0.026	0.133
-283.530	-116.575	0.271	0.049
-282.516	154.359	-0.103	0.139
-281.501	87.198	-0.084	-0.091
-280.486	11.870	0.157	-0.118
-279.472	150.548	0.183	0.244
-278.457	32.266	-0.197	0.167
-277.443	72.011	-0.128	0.130
-276.428	-97.403	0.051	0.013
-275.413	-19.205	-0.141	0.086
-274.399	-97.065	0.317	0.081
-273.384	-153.306	-0.297	0.020
-272.370	-106.403	0.259	0.057
-271.355	-200.000	0.013	0.541
-270.340	-112.369	-0.372	-0.073
-269.326	476.899	-0.175	0.388
-268.311	3.436	0.057	-0.041
-267.297	-200.000	0.051	0.248
-266.282	-200.000	-0.084	0.438
-265.267	-110.148	0.256	-0.052
-264.253	-33.437	0.240	-0.130
-263.238	94.564	0.130	0.145
-262.224	-35.960	0.210	-0.112
-261.209	800.000	-0.163	0.524
-260.195	791.771	0.149	0.402
-259.180	28.077	0.236	-0.195
-258.165	71.790	0.197	-0.201
-257.151	-102.823	0.264	-0.062
-256.136	800.000	-0.106	0.297
-255.122	162.729	0.416	0.572
-254.107	1.707	0.082	0.058
-253.092	382.950	0.094	0.190
-252.078	145.284	0.179	-0.235
-251.063	170.245	-0.100	0.140
-250.049	-170.414	-0.270	-0.009
-249.034	182.614	0.200	0.290
-248.019	-28.510	0.178	0.100
-247.005	265.592	-0.163	-0.278
-245.990	-123.895	-0.221	-0.034
-244.976	-22.084	0.140	0.083
-243.961	-57.590	0.298	0.128
-242.946	9.791	-0.078	-0.058
-241.932	2.622	-0.283	-0.201
-240.917	-190.894	-0.137	0.001
-239.903	-200.000	0.010	-0.062
-238.888	-164.858	-0.157	0.007
-237.873	317.123	-0.087	0.161
-236.859	102.377	0.085	-0.097
-235.844	292.670	0.076	0.136
-234.830	632.189	0.044	-0.109
-233.815	129.713	-0.097	0.122
-232.800	-200.000	0.017	-0.277
-231.786	800.000	-0.062	0.202
-230.771	139.750	-0.190	0.245
-229.757	427.287	0.054	0.114
-228.742	-77.543	0.270	0.092
-227.727	-104.838	0.188	-0.042
-226.713	351.743	0.124	0.240
-225.698	-104.375	-0.230	0.052
-224.684	279.689	-0.107	-0.187
-223.669	317.965	0.071	0.131
-222.655	800.000	0.070	0.197
-221.640	141.148	-0.166	-0.215
-220.625	727.250	-0.121	-0.315
-219.611	187.576	-0.093	-0.136
-218.596	720.444	0.058	-0.150
-217.582	464.146	-0.190	-0.416
-216.567	-85.493	0.018	-0.006
-215.552	-72.544	0.150	-0.054
-214.538	800.000	-0.067	0.204
-213.523	-44.550	-0.141	-0.069
-212.509	-200.000	0.007	0.164
-211.494	464.200	-0.083	-0.182
-210.479	-71.948	0.184	0.067
-209.465	-90.014	0.124	-0.035
-208.450	23.485	0.207	0.166
-207.436	157.271	0.083	0.113
-206.421	-7.661	-0.204	0.135
-205.406	-200.000	-0.014	0.236
-204.392	211.476	0.046	-0.070
-203.377	-126.826	0.401	0.058
-202.363	576.234	-0.153	-0.365
-201.348	-40.782	0.186	0.094
-200.333	195.931	0.130	-0.193
-199.319	205.655	-0.190	-0.289
-198.304	98.776	0.086	-0.097
-197.290	-200.000	0.032	-0.152
-196.275	-153.258	0.055	-0.004
-195.260	-27.290	0.025	-0.014
-194.246	-53.496	0.323	-0.144
-193.231	-28.192	-0.105	-0.060
-192.217	-200.000	0.040	-0.201
-191.202	0.162	0.384	0.268
-190.187	363.203	0.091	0.179
-189.173	759.396	0.056	0.148
-188.158	171.359	0.125	-0.176
-187.144	35.369	-0.203	0.174
-186.129	-200.000	-0.026	0.180
-185.114	251.854	0.094	0.157
-184.100	474.300	0.069	0.152
-183.085	45.077	0.061	-0.055
-182.071	687.362	0.123	0.315
-181.056	93.006	0.182	0.201
-180.042	455.004	0.118	-0.256
-179.027	244.376	-0.041	0.067
-178.012	113.898	0.162	-0.192
-176.998	483.475	-0.015	0.034
-175.983	-200.000	0.004	0.047
-174.969	61.916	-0.127	0.123
-173.954	13.156	-0.076	-0.058
-172.939	-26.485	0.169	0.097
-171.925	-112.839	0.419	0.081
-170.910	14.153	-0.186	-0.142
-169.896	26.837	-0.173	0.141
-168.881	-200.000	0.021	-0.111
-167.866	62.589	0.058	0.057
-166.852	-74.108	-0.326	-0.115
-165.837	352.400	0.219	-0.424
-164.823	-80.636	-0.251	-0.081
-163.808	539.192	0.061	-0.143
-162.793	-161.306	-0.248	0.013
-161.779	-200.000	0.051	0.259
-160.764	124.551	0.152	-0.187
-159.750	-131.331	-0.103	-0.013
-158.735	800.000	0.035	0.142
-157.720	105.678	-0.005	0.006
-156.706	-64.686	-0.330	-0.131
-155.691	184.764	0.031	0.044
-154.677	-200.000	0.075	0.322
-153.662	414.249	-0.053	-0.109
-152.647	-71.085	0.185	0.068
-151.633	-200.000	-0.081	0.351
-150.618	-105.227	0.498	0.111
-149.604	-200.000	-0.023	-0.220
-148.589	800.000	-0.075	-0.316
-147.574	-142.237	-0.139	-0.013
-146.560	-199.294	-0.096	-0.000
-145.545	-157.853	0.076	-0.004
-144.531	436.229	0.172	0.366
-143.516	-29.231	0.341	0.191
-142.502	550.982	-0.124	-0.290
-141.487	121.151	-0.215	-0.260
-140.472	-135.474	0.203	0.024
-139.458	-200.000	0.022	-0.262
-138.443	-200.000	-0.003	0.232
-137.429	159.084	-0.207	0.280
-136.414	-200.000	-0.006	0.151
-135.399	24.104	-0.112	-0.090
-134.385	-200.000	-0.002	0.234
-133.370	-200.000	0.012	-0.060
-132.356	-98.062	0.379	0.095
-131.341	13.493	0.430	-0.326
-130.326	572.048	0.033	-0.077
-129.312	-200.000	-0.013	-0.181
-128.297	-0.276	-0.161	0.111
-127.283	164.711	0.061	0.084
-126.268	192.085	-0.112	0.165
-125.253	314.423	0.098	0.180
-124.239	-130.599	-0.084	-0.011
-123.224	-85.716	-0.197	0.059
-122.210	-200.000	-0.013	0.122
-121.195	800.000	0.037	0.150
