DTS Sentinel unit serial number:	SN413079Multiplexer serial number:	ORYXHardware model number:	OX4-SRSoftware version number:	ORYX F/W v4.00 Oryx Data Collector v3.7.2.0data status	okinstallation	princeton_trtdifferential loss correction	single-endedforward channel	channel 2reverse channel	N/Adate	2019/09/14time	11:43:35forward acquisition time	60.00reverse acquisition time	0.00gamma	496.2192k internal	0.2311k external	0.2311temperature offset calibration	1.0157default loss term (dB/km)	0.3790temperature slope calibration	1.0000multiplexer offset coefficient	1.0000multiplexer slope coefficient	1.0000fibre end	0.00T internal ref (°C)	36.97T ext. ref 1 (°C)	4.60T ext. ref 2 (°C)	33.58length (m)	temperature (°C)	Stokes	anti-Stokes-747.200	-45.277	-0.218	-0.110
-746.185	-200.000	-0.001	0.376
-745.171	89.022	0.221	-0.250
-744.156	-142.370	-0.382	-0.038
-743.142	189.128	-0.167	-0.254
-742.127	685.783	-0.034	-0.089
-741.112	-80.372	0.382	0.129
-740.098	-200.000	-0.022	0.331
-739.083	157.475	-0.107	0.151
-738.069	129.154	0.096	0.124
-737.054	-35.267	0.293	-0.162
-736.039	-100.674	-0.323	-0.081
-735.025	-32.429	0.374	0.211
-734.010	86.410	0.090	0.101
-732.996	-55.166	0.133	0.061
-731.981	800.000	-0.120	-0.399
-730.966	-155.816	-0.169	0.011
-729.952	-158.957	-0.326	0.019
-728.937	-181.556	-0.389	0.008
-727.923	-132.436	-0.145	-0.019
-726.908	-31.244	-0.207	-0.119
-725.894	132.941	-0.135	0.177
-724.879	253.958	-0.084	-0.145
-723.864	-173.696	-0.048	0.001
-722.850	-200.000	0.037	-0.202
-721.835	30.370	-0.189	0.164
-720.821	-33.065	0.113	-0.064
-719.806	310.559	-0.048	0.091
-718.791	356.339	0.211	0.426
-717.777	138.237	0.282	-0.375
-716.762	419.626	-0.107	-0.233
-715.748	-150.677	-0.303	-0.023
-714.733	162.792	-0.172	0.245
-713.718	81.346	0.158	-0.173
-712.704	800.000	0.184	-0.539
-711.689	800.000	-0.068	-0.261
-710.675	-95.152	-0.261	-0.072
-709.660	-110.793	0.176	-0.037
-708.645	-3.812	0.067	-0.047
-707.631	-200.000	-0.435	0.000
-706.616	-9.895	-0.322	-0.217
-705.602	-60.465	-0.524	-0.226
-704.587	-117.317	-0.105	-0.019
-703.572	-200.000	-0.017	-0.189
-702.558	-82.063	0.198	0.066
-701.543	-200.000	0.035	-0.331
-700.529	-107.751	0.116	-0.026
-699.514	-148.791	-0.509	0.042
-698.499	-85.996	0.346	-0.108
-697.485	-200.000	-0.008	0.096
-696.470	-47.255	0.318	-0.157
-695.456	-148.336	0.105	-0.009
-694.441	46.554	0.184	0.173
-693.426	-111.135	0.173	0.036
-692.412	-134.259	0.165	0.021
-691.397	-200.000	0.031	0.314
-690.383	-87.730	-0.036	0.011
-689.368	-36.289	-0.156	0.085
-688.354	-200.000	0.037	-0.282
-687.339	0.607	-0.279	-0.202
-686.324	-112.801	-0.265	0.053
-685.310	40.023	-0.109	-0.099
-684.295	54.452	-0.250	0.244
-683.281	204.326	0.096	-0.151
-682.266	-184.068	0.257	-0.004
-681.251	800.000	0.018	-0.064
-680.237	-66.322	0.235	0.095
-679.222	-129.475	0.176	-0.025
-678.208	0.118	-0.209	0.151
-677.193	-109.443	0.268	-0.057
-676.178	-147.234	-0.150	-0.013
-675.164	800.000	0.023	-0.097
-674.149	-56.371	0.242	-0.109
-673.135	800.000	-0.100	-0.306
-672.120	-20.787	-0.103	-0.064
-671.105	-99.470	-0.272	0.069
-670.091	141.411	0.082	0.109
-669.076	-77.589	-0.242	-0.085
-668.062	313.466	-0.054	-0.103
-667.047	213.022	-0.267	0.427
-666.032	800.000	0.013	-0.047
-665.018	36.387	-0.090	0.081
-664.003	54.067	0.335	0.326
-662.989	43.449	0.142	-0.131
-661.974	-80.677	0.209	-0.070
-660.959	-91.448	0.073	0.021
-659.945	16.490	-0.195	-0.156
-658.930	177.754	-0.144	-0.212
-657.916	92.908	0.210	-0.240
-656.901	-4.416	-0.122	0.085
-655.886	-16.082	0.184	-0.118
-654.872	-88.369	-0.251	-0.076
-653.857	-71.216	-0.424	0.161
-652.843	-161.429	-0.113	0.006
-651.828	769.178	0.060	-0.164
-650.814	-53.864	0.158	-0.073
-649.799	-43.746	-0.187	-0.095
-648.784	137.013	-0.026	-0.034
-647.770	225.255	0.122	-0.201
-646.755	696.015	-0.048	0.128
-645.741	-24.308	-0.513	-0.309
-644.726	800.000	-0.110	0.442
-643.711	800.000	0.024	0.068
-642.697	-144.064	0.119	-0.011
-641.682	415.695	0.082	0.177
-640.668	86.621	-0.135	-0.150
-639.653	187.095	-0.067	-0.101
-638.638	-42.115	-0.054	0.028
-637.624	8.331	0.051	0.039
-636.609	-190.464	0.336	0.004
-635.595	-200.000	-0.045	-0.281
-634.580	-9.273	-0.498	-0.336
-633.565	240.363	0.090	-0.152
-632.551	-54.101	-0.197	-0.090
-631.536	-50.113	-0.264	-0.127
-630.522	8.029	0.321	0.243
-629.507	86.173	-0.167	0.186
-628.492	253.337	0.149	-0.257
-627.478	-106.604	-0.660	-0.149
-626.463	-200.000	-0.020	-0.135
-625.449	-200.000	0.013	-0.094
-624.434	381.975	-0.157	0.326
-623.419	-176.311	-0.240	0.006
-622.405	-200.000	-0.008	-0.421
-621.390	19.198	0.185	-0.150
-620.376	297.152	-0.071	-0.133
-619.361	-200.000	0.037	0.253
-618.346	-54.507	0.097	0.044
-617.332	-30.179	-0.360	0.207
-616.317	-200.000	-0.007	0.249
-615.303	-200.000	0.014	0.197
-614.288	-64.757	0.166	0.068
-613.273	48.682	-0.111	0.105
-612.259	800.000	0.085	0.303
-611.244	70.138	-0.270	-0.281
-610.230	-35.815	0.146	-0.080
-609.215	-59.261	-0.264	-0.115
-608.201	567.269	0.104	-0.254
-607.186	66.284	0.239	-0.246
-606.171	-155.062	-0.186	0.012
-605.157	-135.819	-0.330	0.039
-604.142	-200.000	-0.077	-0.418
-603.128	-88.255	-0.288	-0.087
-602.113	319.747	0.102	0.196
-601.098	-69.812	-0.320	0.123
-600.084	-200.000	0.020	0.112
-599.069	-75.843	-0.192	0.069
-598.055	-13.706	-0.151	-0.099
-597.040	22.390	0.277	-0.229
-596.025	188.238	-0.067	-0.101
-595.011	-83.027	0.199	0.065
-593.996	44.810	0.131	0.122
-592.982	-200.000	0.020	-0.119
-591.967	-197.107	-0.202	0.001
-590.952	-121.713	0.141	0.024
-589.938	-121.347	0.249	0.042
-588.923	25.088	-0.130	-0.109
-587.909	348.615	-0.080	-0.160
-586.894	-42.443	0.070	0.036
-585.879	-15.121	0.196	-0.127
-584.865	-82.651	0.398	0.130
-583.850	-200.000	0.000	0.187
-582.836	63.754	0.120	0.122
-581.821	359.112	0.054	0.108
-580.806	100.479	0.208	-0.244
-579.792	-200.000	-0.016	-0.145
-578.777	-130.855	0.508	0.069
-577.763	472.330	0.042	0.094
-576.748	-7.675	-0.168	-0.114
-575.733	41.663	-0.125	-0.115
-574.719	-38.267	0.174	0.093
-573.704	84.422	0.378	-0.417
-572.690	83.847	0.106	0.117
-571.675	17.282	-0.101	-0.081
-570.661	161.434	0.127	0.179
-569.646	-26.753	0.111	0.066
-568.631	-104.867	0.049	-0.011
-567.617	-66.569	0.245	-0.098
-566.602	134.997	-0.171	-0.224
-565.588	361.788	0.069	-0.140
-564.573	2.886	0.078	-0.057
-563.558	-29.022	0.197	-0.114
-562.544	0.572	0.033	-0.024
-561.529	275.228	-0.063	-0.112
-560.515	-16.529	-0.228	-0.146
-559.500	-200.000	-0.008	-0.170
-558.485	-139.311	0.013	0.001
-557.471	-83.126	-0.360	0.117
-556.456	-46.654	-0.215	0.106
-555.442	-85.915	-0.327	-0.102
-554.427	-65.384	0.085	0.034
-553.412	-62.550	-0.228	-0.096
-552.398	14.664	0.098	0.077
-551.383	-200.000	0.003	0.164
-550.369	-36.171	0.359	0.195
-549.354	161.432	0.205	-0.289
-548.339	-200.000	0.031	-0.303
-547.325	-84.759	-0.138	-0.044
-546.310	-200.000	0.029	-0.149
-545.296	342.789	0.161	0.318
-544.281	-173.096	-0.341	-0.011
-543.266	-18.102	-0.052	0.033
-542.252	-200.000	-0.059	0.309
-541.237	-29.300	0.084	-0.049
-540.223	777.833	-0.001	-0.003
-539.208	-31.137	0.021	-0.012
-538.193	-79.954	-0.169	0.057
-537.179	29.494	0.125	0.107
-536.164	670.901	0.044	-0.114
-535.150	229.746	-0.128	0.211
-534.135	800.000	-0.049	-0.150
-533.121	-10.536	-0.059	-0.039
-532.106	92.476	-0.065	0.074
-531.091	92.657	-0.026	0.029
-530.077	-15.272	-0.128	0.082
-529.062	257.545	0.033	0.056
-528.048	-69.249	0.198	0.076
-527.033	43.536	-0.157	-0.144
-526.018	349.116	0.071	-0.141
-525.004	-81.435	0.354	0.117
-523.989	-200.000	-0.039	0.397
-522.975	-200.000	0.012	0.268
-521.960	-184.507	0.329	-0.005
-520.945	-200.000	0.008	-0.464
-519.931	90.131	-0.068	-0.076
-518.916	-144.856	0.094	-0.009
-517.902	47.987	0.090	0.084
-516.887	-63.577	0.274	0.113
-515.872	-49.157	-0.290	-0.139
-514.858	-200.000	0.009	-0.316
-513.843	483.876	-0.040	-0.092
-512.829	301.863	-0.190	-0.353
-511.814	200.560	0.161	-0.249
-510.799	800.000	0.025	0.071
-509.785	800.000	0.015	-0.059
-508.770	-42.709	-0.090	-0.046
-507.756	17.224	0.040	-0.032
-506.741	4.674	0.093	-0.069
-505.726	-164.381	0.281	-0.013
-504.712	217.208	-0.088	0.141
-503.697	-152.556	-0.071	-0.005
-502.683	66.167	-0.238	0.243
-501.668	390.916	0.022	-0.045
-500.653	-200.000	-0.093	-0.423
-499.639	-115.087	0.225	-0.043
-498.624	206.825	-0.123	0.193
-497.610	105.369	-0.287	-0.341
-496.595	800.000	-0.021	0.064
-495.581	179.959	0.160	-0.236
-494.566	335.617	-0.062	-0.121
-493.551	-127.139	-0.437	-0.064
-492.537	8.914	-0.233	-0.176
-491.522	67.181	0.107	0.109
-490.508	-85.377	0.310	0.097
-489.493	-100.788	-0.051	0.013
-488.478	110.414	-0.177	0.213
-487.464	-48.899	0.332	0.160
-486.449	-200.000	-0.029	0.166
-485.435	-200.000	0.035	-0.265
-484.420	581.211	0.047	0.115
-483.405	726.885	-0.264	-0.708
-482.391	200.476	-0.073	-0.113
-481.376	-200.000	-0.006	-0.264
-480.362	-200.000	-0.039	-0.307
-479.347	-71.340	-0.309	0.117
-478.332	-200.000	0.001	-0.242
-477.318	800.000	0.102	-0.283
-476.303	-11.686	-0.224	0.148
-475.289	-50.783	0.139	-0.066
-474.274	-190.808	0.156	-0.002
-473.259	-109.473	0.067	-0.014
-472.245	250.474	0.120	-0.204
-471.230	-3.644	0.077	-0.054
-470.216	157.338	0.233	0.324
-469.201	162.212	-0.020	-0.029
-468.186	244.712	0.069	0.116
-467.172	800.000	0.067	0.189
-466.157	-119.224	-0.229	0.040
-465.143	84.975	0.021	0.023
-464.128	313.366	0.073	0.138
-463.113	-95.858	0.279	-0.075
-462.099	800.000	0.027	0.114
-461.084	-42.778	-0.192	0.098
-460.070	61.770	0.156	0.156
-459.055	800.000	0.070	-0.303
-458.040	203.149	0.200	-0.310
-457.026	-200.000	0.009	0.119
-456.011	-61.209	-0.328	-0.139
-454.997	3.579	-0.452	0.331
-453.982	-174.592	0.130	-0.004
-452.968	800.000	0.046	-0.152
-451.953	-12.403	-0.195	-0.128
-450.938	7.052	-0.191	0.143
-449.924	-200.000	-0.016	-0.080
-448.909	-111.083	0.122	0.025
-447.895	613.084	-0.086	0.216
-446.880	-51.404	0.140	0.066
-445.865	-157.287	-0.317	0.019
-444.851	-92.840	0.202	0.057
-443.836	800.000	0.039	0.152
-442.822	-144.194	-0.056	-0.005
-441.807	230.703	0.085	0.139
-440.792	176.459	-0.208	-0.303
-439.778	-73.419	0.150	-0.055
-438.763	-200.000	0.040	0.260
-437.749	29.137	-0.154	0.131
-436.734	-200.000	-0.025	0.221
-435.719	317.006	-0.091	-0.173
-434.705	-60.607	-0.378	-0.161
-433.690	-200.000	-0.036	-0.204
-432.676	464.288	0.194	-0.436
-431.661	26.707	0.211	0.177
-430.646	-200.000	0.038	0.266
-429.632	388.868	0.089	0.185
-428.617	23.732	-0.078	0.064
-427.603	-119.101	-0.307	0.054
-426.588	40.911	0.051	-0.046
-425.573	-2.644	0.097	-0.068
-424.559	-200.000	0.020	-0.264
-423.544	-55.288	0.030	0.014
-422.530	12.299	0.193	0.149
-421.515	32.914	-0.193	0.167
-420.500	800.000	-0.107	-0.300
-419.486	25.682	-0.041	-0.034
-418.471	-45.854	0.256	0.127
-417.457	45.152	-0.047	0.044
-416.442	105.156	-0.283	0.335
-415.428	-18.644	-0.091	0.057
-414.413	800.000	0.033	-0.113
-413.398	66.166	-0.100	0.101
-412.384	-200.000	-0.021	-0.228
-411.369	-103.331	0.235	0.056
-410.355	175.114	-0.060	-0.087
-409.340	558.834	-0.102	-0.247
-408.325	100.458	0.119	0.138
-407.311	422.566	0.141	-0.304
-406.296	94.709	0.090	0.103
-405.282	283.050	0.119	0.214
-404.267	-57.476	-0.340	0.149
-403.252	270.846	-0.100	0.176
-402.238	18.423	-0.099	0.079
-401.223	-200.000	0.001	-0.293
-400.209	-200.000	0.029	0.334
-399.194	-18.654	0.195	-0.122
-398.179	480.606	0.070	0.160
-397.165	14.501	-0.138	0.108
-396.150	-151.326	-0.426	0.032
-395.136	-200.000	-0.051	-0.299
-394.121	120.661	0.146	0.182
-393.106	-8.350	0.315	0.212
-392.092	800.000	0.100	0.333
-391.077	800.000	-0.022	0.064
-390.063	86.115	0.189	0.209
-389.048	783.472	-0.019	-0.053
-388.033	53.586	0.064	0.062
-387.019	315.748	-0.183	-0.346
-386.004	326.620	0.060	-0.115
-384.990	143.102	-0.248	0.330
-383.975	32.379	0.159	-0.138
-382.960	-101.900	-0.339	0.082
-381.946	-200.000	-0.034	0.196
-380.931	-181.843	0.141	-0.003
-379.917	-36.876	-0.243	-0.131
-378.902	-21.454	0.083	-0.051
-377.888	-92.919	-0.317	0.088
-376.873	110.487	-0.061	-0.073
-375.858	129.925	0.130	-0.166
-374.844	-41.764	0.155	-0.080
-373.829	406.245	0.226	0.478
-372.815	-60.706	-0.161	0.068
-371.800	-200.000	0.030	0.243
-370.785	479.372	-0.050	-0.114
-369.771	143.184	0.186	0.247
-368.756	605.906	0.083	0.206
-367.742	-154.964	-0.226	-0.015
-366.727	-157.296	0.159	0.010
-365.712	-200.000	-0.006	-0.293
-364.698	67.767	-0.027	-0.027
-363.683	106.743	0.145	0.172
-362.669	-186.607	-0.295	-0.004
-361.654	37.350	0.037	-0.033
-360.639	-24.341	-0.270	0.161
-359.625	-200.000	0.008	0.122
-358.610	-95.153	0.188	0.051
-357.596	-138.745	-0.076	-0.008
-356.581	29.802	0.120	0.102
-355.566	-159.410	-0.428	-0.024
-354.552	756.328	-0.073	0.197
-353.537	-36.544	0.120	0.065
-352.523	-122.708	0.184	0.030
-351.508	621.196	0.066	0.167
-350.493	48.122	0.155	0.145
-349.479	800.000	-0.066	0.224
-348.464	88.380	-0.032	-0.036
-347.450	-64.846	-0.079	0.032
-346.435	87.369	0.082	-0.090
-345.420	18.998	0.142	-0.114
-344.406	-163.354	-0.088	-0.004
-343.391	261.488	0.180	0.312
-342.377	-128.658	-0.144	-0.020
-341.362	-32.347	0.051	0.028
-340.348	-54.630	0.112	-0.051
-339.333	-82.469	-0.112	0.036
-338.318	22.434	0.104	-0.085
-337.304	-126.084	-0.262	0.039
-336.289	513.195	-0.054	0.126
-335.275	126.222	-0.068	0.086
-334.260	800.000	-0.099	-0.323
-333.245	63.754	0.120	0.120
-332.231	800.000	-0.063	0.225
-331.216	-16.420	0.127	0.081
-330.202	-39.755	-0.134	-0.070
-329.187	294.994	-0.129	0.236
-328.172	94.913	0.310	-0.353
-327.158	98.108	0.315	-0.362
-326.143	-200.000	-0.023	0.115
-325.129	-119.081	0.226	0.039
-324.114	-173.922	0.122	-0.004
-323.099	800.000	0.045	0.169
-322.085	-200.000	-0.016	0.181
-321.070	-200.000	-0.058	-0.673
-320.056	582.259	-0.185	-0.452
-319.041	53.273	0.124	0.118
-318.026	130.623	0.058	-0.074
-317.012	800.000	-0.057	-0.158
-315.997	152.117	0.089	-0.121
-314.983	-76.424	-0.310	0.109
-313.968	274.759	-0.111	0.196
-312.953	-145.714	0.057	-0.005
-311.939	742.361	-0.087	-0.234
-310.924	-83.285	-0.263	0.084
-309.910	-134.362	-0.287	-0.035
-308.895	-9.703	0.159	0.106
-307.880	-200.000	0.019	0.150
-306.866	152.875	0.143	-0.195
-305.851	-36.203	-0.336	-0.181
-304.837	105.428	-0.101	-0.119
-303.822	800.000	0.041	0.176
-302.807	-200.000	0.043	-0.225
-301.793	194.001	0.051	0.078
-300.778	7.616	0.060	0.045
-299.764	-53.992	-0.362	-0.164
-298.749	81.673	0.239	-0.258
-297.735	-1.144	0.165	0.116
-296.720	355.868	0.056	-0.111
-295.705	-110.729	0.297	-0.061
-294.691	-95.616	-0.120	0.032
-293.676	-20.225	0.029	-0.018
-292.662	295.694	0.080	0.147
-291.647	301.465	0.093	0.171
-290.632	-200.000	-0.391	0.001
-289.618	-4.470	0.468	-0.322
-288.603	-45.214	0.184	-0.091
-287.589	-62.473	0.078	0.032
-286.574	-200.000	0.024	0.326
-285.559	-152.520	0.206	-0.015
-284.545	139.072	0.047	-0.062
-283.530	800.000	0.053	-0.222
-282.516	689.231	-0.092	0.240
-281.501	-3.453	0.048	-0.034
-280.486	82.902	-0.194	-0.210
-279.472	-55.901	-0.118	0.052
-278.457	800.000	0.039	-0.149
-277.443	581.502	0.054	0.133
-276.428	245.084	-0.282	-0.473
-275.413	-18.156	0.297	0.185
-274.399	131.226	-0.157	0.201
-273.384	-61.636	-0.367	0.153
-272.370	83.532	0.088	-0.096
-271.355	604.953	0.102	0.254
-270.340	800.000	0.013	0.038
-269.326	-99.534	0.164	0.041
-268.311	-200.000	0.034	0.149
-267.297	141.689	0.053	0.070
-266.282	-200.000	-0.005	-0.286
-265.267	-47.919	0.206	0.099
-264.253	-131.013	0.262	-0.035
-263.238	-200.000	0.003	-0.119
-262.224	80.322	0.104	0.112
-261.209	219.874	-0.264	0.421
-260.195	-200.000	0.012	-0.207
-259.180	-141.075	0.488	-0.050
-258.165	650.507	-0.093	0.238
-257.151	-200.000	-0.007	0.137
-256.136	800.000	0.076	0.265
-255.122	105.899	0.112	-0.132
-254.107	-107.792	0.431	-0.094
-253.092	800.000	-0.037	-0.122
-252.078	-91.452	0.208	-0.059
-251.063	-171.681	-0.112	0.004
-250.049	-200.000	-0.003	0.091
-249.034	-2.073	0.141	0.098
-248.019	-200.000	-0.071	0.505
-247.005	-200.000	-0.004	0.533
-245.990	462.105	0.161	0.357
-244.976	-9.268	-0.387	0.257
-243.961	-8.214	0.071	-0.048
-242.946	-200.000	-0.016	0.199
-241.932	17.602	-0.154	0.122
-240.917	517.033	0.054	-0.125
-239.903	5.712	-0.180	0.133
-238.888	439.944	-0.180	0.392
-237.873	0.268	-0.264	0.188
-236.859	-40.394	-0.237	-0.122
-235.844	-200.000	-0.043	-0.189
-234.830	64.888	-0.177	0.178
-233.815	-200.000	0.018	0.133
-232.800	21.627	0.079	0.064
-231.786	-120.356	0.322	0.055
-230.771	99.176	0.225	0.259
-229.757	117.079	0.082	0.100
-228.742	48.489	0.067	-0.063
-227.727	645.782	0.032	0.082
-226.713	58.012	0.226	0.220
-225.698	320.879	0.027	0.051
-224.684	-200.000	-0.091	0.486
-223.669	-120.598	0.078	-0.013
-222.655	154.712	-0.018	-0.024
-221.640	-200.000	0.010	-0.159
-220.625	32.305	-0.209	0.180
-219.611	-140.733	-0.179	-0.018
-218.596	252.823	0.168	-0.285
-217.582	100.369	0.272	-0.314
-216.567	-108.847	-0.326	0.069
-215.552	-200.000	0.005	0.030
-214.538	800.000	0.083	0.276
-213.523	326.783	0.069	-0.132
-212.509	-89.532	0.053	0.016
-211.494	-71.259	-0.200	0.075
-210.479	-128.276	0.155	-0.022
-209.465	-22.719	-0.080	0.048
-208.450	-54.210	-0.150	-0.068
-207.436	-14.390	0.262	0.168
-206.421	92.988	0.193	-0.216
-205.406	87.983	-0.120	-0.132
-204.392	800.000	0.017	-0.075
-203.377	14.419	-0.181	-0.140
-202.363	-200.000	-0.024	-0.286
-201.348	151.429	-0.140	0.189
-200.333	-200.000	-0.027	0.121
-199.319	-90.908	0.274	0.078
-198.304	-168.911	0.184	-0.007
-197.290	77.962	0.102	0.108
-196.275	-140.805	-0.165	-0.017
-195.260	-200.000	-0.002	-0.287
-194.246	-200.000	0.004	0.231
-193.231	-123.289	0.237	0.038
-192.217	98.740	-0.121	0.139
-191.202	-200.000	-0.031	0.218
-190.187	-110.688	0.243	0.050
-189.173	-113.626	-0.287	0.056
-188.158	-150.548	-0.388	-0.030
-187.144	-86.300	0.104	-0.032
-186.129	587.727	0.052	-0.128
-185.114	441.514	-0.083	0.180
-184.100	-200.000	-0.005	-0.100
-183.085	8.219	0.211	-0.157
-182.071	-200.000	-0.048	-0.232
-181.056	93.580	-0.221	-0.249
-180.042	308.996	-0.111	-0.206
-179.027	-171.132	0.268	0.009
-178.012	47.070	0.122	-0.113
-176.998	-61.613	0.192	0.080
-175.983	-41.314	-0.185	-0.094
-174.969	-121.423	0.234	-0.039
-173.954	-172.518	0.355	-0.011
-172.939	-59.034	-0.061	-0.026
-171.925	-98.539	0.075	0.019
-170.910	249.366	0.195	-0.328
-169.896	13.591	0.148	-0.114
-168.881	-113.730	-0.100	-0.019
-167.866	-2.504	-0.230	-0.160
-166.852	-200.000	0.035	-0.226
-165.837	-88.586	0.124	0.037
-164.823	-200.000	0.039	0.294
-163.808	-85.204	-0.192	-0.060
-162.793	439.723	0.088	0.190
-161.779	279.210	0.055	0.097
-160.764	458.677	-0.063	0.139
-159.750	-73.157	0.374	-0.136
-158.735	717.334	0.040	-0.106
-157.720	127.318	0.171	-0.215
-156.706	55.600	-0.071	0.068
-155.691	-36.521	-0.195	0.104
-154.677	-99.707	0.199	0.049
-153.662	70.598	-0.152	-0.156
-152.647	278.536	-0.037	-0.065
-151.633	-83.981	-0.090	0.028
-150.618	800.000	0.139	-0.391
-149.604	2.494	0.108	-0.077
-148.589	-149.688	-0.148	0.012
-147.574	-200.000	0.015	-0.158
-146.560	-118.772	0.104	0.018
-145.545	800.000	0.043	0.188
-144.531	-79.649	0.325	0.109
-143.516	-5.400	0.130	0.088
-142.502	593.666	0.032	-0.079
-141.487	3.504	0.254	-0.184
-140.472	53.071	0.133	-0.126
-139.458	36.278	0.262	-0.229
-138.443	424.535	0.112	-0.239
-137.429	-63.192	-0.301	-0.123
-136.414	-108.071	-0.103	-0.022
-135.399	800.000	0.074	0.205
-134.385	-69.588	-0.458	-0.174
-133.370	24.900	-0.144	-0.118
-132.356	-200.000	-0.010	-0.115
-131.341	-94.703	0.126	0.034
-130.326	800.000	-0.074	-0.317
-129.312	504.228	0.099	0.227
-128.297	202.876	0.133	0.204
-127.283	-200.000	-0.004	-0.255
-126.268	-12.758	-0.372	-0.240
-125.253	7.824	-0.278	-0.207
-124.239	-35.282	0.403	0.217
-123.224	-174.389	0.074	-0.002
-122.210	-200.000	0.010	0.182
-121.195	259.763	0.138	-0.236
-120.180	800.000	0.086	-0.340
