DTS Sentinel unit serial number:	SN413079Multiplexer serial number:	ORYXHardware model number:	OX4-SRSoftware version number:	ORYX F/W v4.00 Oryx Data Collector v3.7.2.0data status	okinstallation	princeton_trtdifferential loss correction	single-endedforward channel	channel 2reverse channel	N/Adate	2019/09/11time	16:13:11forward acquisition time	60.00reverse acquisition time	0.00gamma	496.2192k internal	0.2286k external	0.2286temperature offset calibration	1.0016default loss term (dB/km)	0.3790temperature slope calibration	1.0000multiplexer offset coefficient	1.0000multiplexer slope coefficient	1.0000fibre end	0.00T internal ref (°C)	43.31T ext. ref 1 (°C)	1.06T ext. ref 2 (°C)	39.69length (m)	temperature (°C)	Stokes	anti-Stokes-747.200	-200.000	-0.016	0.175
-746.185	800.000	0.103	0.339
-745.171	-157.758	0.379	-0.023
-744.156	185.458	-0.194	-0.295
-743.142	-102.012	0.185	-0.046
-742.127	-38.545	0.247	-0.134
-741.112	-45.394	-0.196	0.100
-740.098	-200.000	0.053	0.366
-739.083	77.475	0.090	-0.098
-738.069	4.419	0.240	0.180
-737.054	14.567	0.245	0.196
-736.039	239.139	-0.098	-0.167
-735.025	-106.728	0.432	0.098
-734.010	202.204	0.204	-0.322
-732.996	-150.966	-0.150	0.012
-731.981	245.931	-0.183	-0.317
-730.966	437.444	-0.179	-0.399
-729.952	-111.014	-0.147	0.031
-728.937	-56.316	-0.400	-0.182
-727.923	640.554	0.078	-0.203
-726.908	-200.000	0.047	0.241
-725.894	2.005	-0.170	0.126
-724.879	-200.000	0.040	0.202
-723.864	46.411	0.075	-0.071
-722.850	-200.000	-0.019	-0.106
-721.835	-200.000	-0.077	0.422
-720.821	-56.923	-0.228	0.103
-719.806	-48.583	0.138	-0.068
-718.791	-70.942	-0.185	0.071
-717.777	-200.000	-0.011	0.555
-716.762	-200.000	-0.014	-0.141
-715.748	-9.525	0.214	0.146
-714.733	800.000	-0.150	0.554
-713.718	422.576	-0.092	-0.202
-712.704	-200.000	-0.046	0.223
-711.689	-200.000	-0.010	0.126
-710.675	175.004	-0.141	-0.209
-709.660	93.420	0.091	-0.106
-708.645	112.826	-0.195	-0.242
-707.631	-43.259	-0.306	-0.158
-706.616	-173.520	-0.198	0.006
-705.602	800.000	0.129	-0.476
-704.587	-157.278	-0.208	-0.013
-703.572	52.160	-0.197	0.192
-702.558	136.398	0.185	-0.247
-701.543	-200.000	0.033	0.152
-700.529	-200.000	0.004	-0.138
-699.514	64.781	-0.105	0.108
-698.499	-200.000	0.014	0.184
-697.485	-80.060	0.161	0.055
-696.470	-200.000	-0.022	-0.199
-695.456	-101.753	-0.345	-0.085
-694.441	70.300	-0.197	0.209
-693.426	139.513	0.075	-0.101
-692.412	5.172	-0.133	-0.100
-691.397	-200.000	-0.064	-0.304
-690.383	-17.729	0.031	0.020
-689.368	-61.089	0.126	0.054
-688.354	88.059	0.188	-0.213
-687.339	69.644	0.258	-0.272
-686.324	-33.396	0.109	0.062
-685.310	-53.209	-0.292	0.137
-684.295	-200.000	-0.093	-0.465
-683.281	-200.000	0.001	-0.158
-682.266	123.627	0.117	0.150
-681.251	-151.086	-0.450	-0.035
-680.237	26.251	-0.115	-0.099
-679.222	353.780	0.092	0.186
-678.208	-99.103	-0.084	0.022
-677.193	-200.000	-0.009	-0.132
-676.178	225.937	-0.102	-0.169
-675.164	279.987	-0.076	-0.139
-674.149	-200.000	-0.034	-0.214
-673.135	545.530	0.096	-0.234
-672.120	-54.498	0.196	0.091
-671.105	-114.852	-0.044	0.009
-670.091	-102.872	-0.372	-0.090
-669.076	147.325	0.050	-0.069
-668.062	485.813	-0.101	-0.235
-667.047	-75.266	-0.252	-0.092
-666.032	-78.114	0.052	-0.018
-665.018	-68.647	0.154	-0.061
-664.003	-88.460	-0.166	0.051
-662.989	34.653	0.179	-0.160
-661.974	800.000	0.090	-0.312
-660.959	261.660	0.090	-0.159
-659.945	725.116	0.060	-0.163
-658.930	-200.000	-0.014	0.126
-657.916	117.868	0.167	-0.210
-656.901	-56.181	0.037	-0.017
-655.886	17.512	-0.108	0.088
-654.872	-87.061	0.072	0.022
-653.857	-157.769	-0.217	0.013
-652.843	-200.000	0.006	-0.133
-651.828	273.315	0.112	0.203
-650.814	10.645	0.153	-0.119
-649.799	800.000	0.082	-0.235
-648.784	-79.249	0.188	-0.065
-647.770	-1.479	-0.213	0.154
-646.755	-114.674	0.248	0.048
-645.741	337.626	-0.045	-0.090
-644.726	-120.910	-0.076	-0.013
-643.711	39.042	0.177	0.162
-642.697	800.000	0.035	-0.151
-641.682	800.000	-0.047	-0.182
-640.668	501.174	-0.033	0.079
-639.653	-130.135	0.172	0.024
-638.638	360.529	0.083	-0.171
-637.624	479.439	0.030	0.068
-636.609	-118.940	-0.177	-0.032
-635.595	-98.399	0.182	-0.048
-634.580	278.135	-0.095	0.174
-633.565	195.392	-0.042	0.065
-632.551	-200.000	-0.016	0.111
-631.536	-28.450	-0.148	0.087
-630.522	244.372	0.136	0.233
-629.507	25.207	-0.078	0.066
-628.492	-3.040	0.093	0.066
-627.478	-50.073	-0.026	0.013
-626.463	-200.000	-0.074	-0.000
-625.449	-200.000	0.003	0.277
-624.434	-150.261	0.343	-0.027
-623.419	472.988	-0.040	-0.093
-622.405	-116.417	-0.220	-0.042
-621.390	127.826	0.177	0.229
-620.376	-141.413	0.100	0.010
-619.361	12.644	-0.166	-0.131
-618.346	-36.921	0.046	-0.025
-617.332	800.000	0.024	0.072
-616.317	352.723	0.163	-0.330
-615.303	800.000	-0.010	-0.033
-614.288	-200.000	0.067	-0.367
-613.273	-46.823	-0.303	0.152
-612.259	12.792	-0.148	0.117
-611.244	-21.487	-0.088	-0.055
-610.230	59.998	-0.119	-0.120
-609.215	-103.574	-0.340	-0.081
-608.201	-200.000	-0.037	-0.422
-607.186	-200.000	-0.012	-0.419
-606.171	-16.614	0.245	-0.158
-605.157	265.016	-0.063	0.113
-604.142	-10.259	-0.274	-0.186
-603.128	-200.000	0.007	-0.256
-602.113	-61.372	-0.333	0.143
-601.098	218.618	-0.138	0.226
-600.084	-29.954	-0.243	0.141
-599.069	-71.738	-0.133	-0.051
-598.055	-200.000	0.021	0.390
-597.040	-47.602	0.350	-0.173
-596.025	-90.784	0.148	-0.044
-595.011	181.364	0.177	-0.265
-593.996	-148.904	0.165	-0.014
-592.982	-73.867	-0.224	0.083
-591.967	-69.563	-0.122	-0.048
-590.952	364.486	0.141	-0.289
-589.938	148.864	0.107	0.147
-588.923	17.575	-0.253	0.205
-587.909	-66.361	0.017	-0.007
-586.894	-64.838	-0.020	-0.008
-585.879	-200.000	0.015	-0.182
-584.865	-80.390	0.264	0.090
-583.850	-85.672	0.403	0.128
-582.836	-87.026	-0.199	0.062
-581.821	-54.185	0.138	-0.064
-580.806	-68.098	-0.121	-0.048
-579.792	9.049	0.257	0.198
-578.777	-200.000	-0.030	-0.142
-577.763	198.383	0.077	0.121
-576.748	-59.840	-0.105	-0.046
-575.733	82.134	0.198	0.219
-574.719	-200.000	0.004	0.031
-573.704	-200.000	-0.007	-0.147
-572.690	-174.816	-0.315	0.009
-571.675	117.455	-0.178	0.223
-570.661	682.911	-0.044	-0.117
-569.646	-200.000	-0.005	0.327
-568.631	267.273	0.017	-0.030
-567.617	-124.638	-0.127	-0.020
-566.602	-132.253	-0.314	0.041
-565.588	717.749	0.071	0.191
-564.573	666.228	-0.054	0.143
-563.558	-31.560	0.363	0.208
-562.544	-2.046	0.069	0.050
-561.529	549.310	-0.022	-0.054
-560.515	-200.000	-0.026	-0.137
-559.500	114.837	-0.190	-0.236
-558.485	233.830	0.136	-0.228
-557.471	75.925	0.137	0.147
-556.456	-200.000	-0.008	-0.280
-555.442	-148.301	-0.187	-0.016
-554.427	-200.000	0.056	0.261
-553.412	243.264	-0.101	0.173
-552.398	148.634	0.123	-0.169
-551.383	54.736	0.259	-0.254
-550.369	-7.518	0.142	0.098
-549.354	-200.000	0.022	0.236
-548.339	72.569	0.031	0.033
-547.325	-200.000	0.041	-0.285
-546.310	-200.000	0.041	0.324
-545.296	800.000	0.050	-0.166
-544.281	343.798	0.111	0.221
-543.266	128.813	-0.129	0.168
-542.252	-152.497	-0.154	-0.011
-541.237	232.351	0.203	0.339
-540.223	-145.528	0.234	-0.021
-539.208	-200.000	0.022	-0.107
-538.193	-3.399	-0.234	0.166
-537.179	-11.715	-0.156	-0.104
-536.164	485.679	0.143	0.331
-535.150	800.000	-0.095	-0.373
-534.135	-47.094	-0.171	-0.085
-533.121	-110.521	0.218	0.046
-532.106	-4.788	0.180	0.127
-531.091	-136.219	-0.112	-0.013
-530.077	-103.566	0.279	0.067
-529.062	-200.000	-0.017	-0.158
-528.048	20.400	0.204	-0.168
-527.033	5.716	0.038	-0.029
-526.018	-84.201	0.347	0.112
-525.004	99.339	0.199	-0.235
-523.989	-81.287	-0.420	0.141
-522.975	-21.917	-0.119	-0.073
-521.960	26.564	-0.130	-0.111
-520.945	-200.000	0.015	0.326
-519.931	273.091	-0.130	-0.233
-518.916	-39.384	0.125	0.067
-517.902	-200.000	-0.020	-0.121
-516.887	192.801	0.135	0.208
-515.872	-19.799	-0.220	-0.138
-514.858	-200.000	-0.033	-0.399
-513.843	32.204	-0.017	-0.015
-512.829	123.675	-0.090	-0.114
-511.814	-86.290	0.101	-0.032
-510.799	-124.733	0.309	0.049
-509.785	117.332	-0.043	0.054
-508.770	800.000	0.047	0.143
-507.756	534.554	0.148	0.356
-506.741	-89.420	0.271	0.081
-505.726	-35.572	-0.234	-0.129
-504.712	-60.815	0.345	-0.149
-503.697	154.155	0.162	-0.226
-502.683	226.603	-0.163	-0.269
-501.668	-200.000	-0.011	-0.173
-500.653	-142.325	0.290	0.029
-499.639	-16.353	-0.100	-0.064
-498.624	-112.241	0.115	0.023
-497.610	-127.404	-0.144	-0.021
-496.595	181.342	0.091	0.135
-495.581	-80.644	-0.306	-0.103
-494.566	140.730	-0.086	-0.116
-493.551	54.951	0.136	-0.133
-492.537	-19.467	-0.111	0.070
-491.522	-23.833	0.114	0.070
-490.508	800.000	-0.081	-0.235
-489.493	114.834	-0.193	-0.239
-488.478	-128.523	-0.166	-0.024
-487.464	-1.862	-0.187	-0.133
-486.449	561.782	-0.168	0.413
-485.435	-19.371	-0.087	-0.055
-484.420	63.021	-0.077	-0.078
-483.405	-58.433	0.320	-0.141
-482.391	-62.451	-0.392	-0.166
-481.376	460.381	0.046	0.103
-480.362	-39.846	0.133	-0.071
-479.347	-133.946	0.269	0.034
-478.332	800.000	0.101	0.284
-477.318	394.600	-0.093	-0.198
-476.303	-68.559	0.350	-0.138
-475.289	-161.005	0.334	0.018
-474.274	-7.081	-0.175	-0.120
-473.259	-129.453	-0.107	-0.015
-472.245	-44.538	0.203	-0.103
-471.230	173.622	0.127	0.186
-470.216	42.235	-0.119	-0.109
-469.201	178.908	0.006	0.008
-468.186	-56.966	-0.067	0.030
-467.172	-40.802	-0.522	-0.275
-466.157	636.311	-0.142	-0.366
-465.143	761.441	0.041	-0.113
-464.128	-53.629	0.452	0.209
-463.113	119.554	0.157	-0.198
-462.099	-77.693	-0.297	-0.104
-461.084	-97.038	-0.324	-0.086
-460.070	-97.778	-0.332	0.087
-459.055	-200.000	0.015	0.471
-458.040	-53.602	-0.346	-0.160
-457.026	-44.076	-0.244	0.124
-456.011	-140.005	-0.074	0.008
-454.997	800.000	-0.098	0.293
-453.982	-152.973	0.098	0.007
-452.968	-23.576	-0.126	0.077
-451.953	800.000	0.058	0.178
-450.938	-168.949	0.409	-0.016
-449.924	-8.755	0.097	0.066
-448.909	-106.601	0.374	-0.084
-447.895	-78.999	-0.181	0.062
-446.880	800.000	0.100	0.389
-445.865	-84.779	-0.056	0.018
-444.851	800.000	0.073	-0.241
-443.836	800.000	0.124	-0.349
-442.822	-200.000	-0.065	-0.347
-441.807	-22.836	0.162	0.099
-440.792	204.581	-0.138	0.217
-439.778	-133.777	-0.214	0.027
-438.763	159.656	-0.170	0.241
-437.749	-200.000	0.015	-0.083
-436.734	-200.000	0.065	0.371
-435.719	-131.380	-0.097	-0.013
-434.705	61.570	-0.142	0.143
-433.690	-181.011	-0.164	0.003
-432.676	-160.138	-0.153	-0.008
-431.661	-53.881	-0.181	0.084
-430.646	43.915	0.073	-0.068
-429.632	800.000	-0.022	-0.092
-428.617	-50.421	0.187	-0.090
-427.603	-142.067	-0.107	-0.011
-426.588	-112.341	-0.323	-0.066
-425.573	-200.000	0.007	0.057
-424.559	-108.608	0.215	-0.047
-423.544	324.981	-0.173	-0.335
-422.530	8.302	-0.168	-0.128
-421.515	-101.569	0.159	-0.039
-420.500	-14.883	0.369	-0.240
-419.486	-76.426	-0.229	0.082
-418.471	-123.869	-0.356	-0.057
-417.457	57.971	-0.148	-0.147
-416.442	274.866	-0.041	0.073
-415.428	133.131	-0.012	-0.016
-414.413	-200.000	0.081	-0.458
-413.398	800.000	-0.074	-0.239
-412.384	77.710	-0.199	-0.215
-411.369	-53.955	-0.161	0.074
-410.355	-73.512	-0.125	0.046
-409.340	726.493	-0.153	0.414
-408.325	-122.431	0.208	-0.034
-407.311	-200.000	-0.018	0.171
-406.296	328.959	-0.096	-0.186
-405.282	40.093	0.057	0.052
-404.267	-193.137	-0.134	0.001
-403.252	-150.422	0.098	-0.008
-402.238	31.590	-0.283	-0.246
-401.223	335.531	0.105	-0.205
-400.209	14.772	-0.295	0.234
-399.194	-200.000	-0.065	-0.299
-398.179	-135.596	0.249	0.030
-397.165	-41.336	0.475	-0.248
-396.150	-7.182	-0.085	-0.058
-395.136	6.739	0.142	-0.107
-394.121	-16.943	-0.127	0.081
-393.106	78.814	-0.087	0.095
-392.092	-80.985	0.195	-0.065
-391.077	-60.185	-0.255	0.110
-390.063	800.000	-0.233	0.695
-389.048	800.000	0.033	-0.116
-388.033	174.094	0.069	-0.101
-387.019	800.000	0.018	-0.058
-386.004	-200.000	0.012	-0.168
-384.990	-23.863	-0.253	0.153
-383.975	194.764	0.122	0.188
-382.960	-200.000	-0.032	0.295
-381.946	273.639	0.161	0.289
-380.931	-179.442	-0.264	-0.006
-379.917	-138.677	0.269	0.030
-378.902	113.676	-0.262	0.322
-377.888	20.422	0.113	-0.093
-376.873	800.000	-0.099	0.346
-375.858	-200.000	0.015	-0.121
-374.844	14.033	-0.303	-0.239
-373.829	-185.862	-0.088	-0.001
-372.815	-200.000	0.037	0.366
-371.800	120.524	0.070	0.088
-370.785	-134.105	-0.189	0.024
-369.771	-141.754	0.161	0.016
-368.756	-74.691	-0.121	-0.044
-367.742	800.000	0.045	-0.142
-366.727	-71.518	-0.127	-0.048
-365.712	800.000	-0.057	0.224
-364.698	-135.530	-0.161	-0.019
-363.683	551.026	-0.138	-0.334
-362.669	-131.572	0.064	-0.009
-361.654	79.774	-0.257	0.279
-360.639	91.449	0.092	-0.105
-359.625	426.467	0.108	0.236
-358.610	135.403	0.083	-0.109
-357.596	738.628	0.049	0.132
-356.581	95.590	0.089	-0.103
-355.566	736.004	-0.141	-0.381
-354.552	-66.450	-0.194	-0.078
-353.537	800.000	-0.005	0.015
-352.523	346.003	0.078	-0.154
-351.508	-192.618	-0.157	-0.001
-350.493	51.393	-0.118	-0.113
-349.479	-107.790	0.332	0.073
-348.464	800.000	0.023	-0.099
-347.450	336.501	-0.041	0.080
-346.435	699.898	-0.176	0.468
-345.420	800.000	0.080	0.334
-344.406	24.022	-0.207	0.172
-343.391	360.748	0.113	-0.228
-342.377	458.748	-0.017	0.038
-341.362	184.019	-0.162	0.242
-340.348	-70.483	-0.072	-0.028
-339.333	461.486	-0.085	-0.191
-338.318	-200.000	0.021	-0.113
-337.304	-92.769	-0.058	-0.016
-336.289	-200.000	-0.005	-0.024
-335.275	288.931	-0.144	-0.263
-334.260	-200.000	0.039	-0.287
-333.245	-81.024	-0.244	-0.082
-332.231	-89.377	0.165	-0.049
-331.216	-200.000	0.017	0.238
-330.202	247.454	-0.080	-0.137
-329.187	-9.243	0.128	0.086
-328.172	31.490	0.104	0.090
-327.158	328.449	0.020	0.038
-326.143	-200.000	-0.005	-0.280
-325.129	-200.000	0.004	-0.019
-324.114	-67.823	-0.260	-0.103
-323.099	-130.411	-0.203	-0.028
-322.085	26.955	0.177	0.150
-321.070	325.320	0.055	0.107
-320.056	-52.242	0.252	-0.118
-319.041	-21.337	0.093	0.057
-318.026	-80.536	0.105	-0.035
-317.012	-200.000	0.035	-0.304
-315.997	800.000	0.029	-0.107
-314.983	-105.222	-0.093	0.021
-313.968	88.198	0.186	0.208
-312.953	-31.915	0.297	-0.168
-311.939	-153.260	-0.298	-0.021
-310.924	-116.568	0.479	0.089
-309.910	187.467	-0.129	-0.195
-308.895	10.947	-0.264	0.203
-307.880	-200.000	0.069	0.323
-306.866	-153.541	-0.219	-0.015
-305.851	-200.000	-0.002	-0.032
-304.837	-200.000	-0.036	-0.377
-303.822	4.776	0.257	0.190
-302.807	46.140	0.362	0.338
-301.793	-170.307	-0.186	-0.007
-300.778	10.503	0.049	0.037
-299.764	41.007	-0.103	-0.094
-298.749	-124.240	-0.165	-0.026
-297.735	-30.550	-0.192	0.110
-296.720	133.687	0.087	0.113
-295.705	-103.910	-0.395	-0.093
-294.691	490.671	0.100	0.232
-293.676	-136.269	0.225	0.026
-292.662	-139.657	0.224	-0.024
-291.647	-77.406	0.334	-0.117
-290.632	235.266	0.237	0.395
-289.618	800.000	0.021	0.061
-288.603	418.034	-0.047	-0.102
-287.589	800.000	0.070	0.272
-286.574	11.235	0.043	0.034
-285.559	123.884	0.059	-0.075
-284.545	433.558	0.075	-0.163
-283.530	-33.750	0.256	-0.142
-282.516	89.226	0.319	0.358
-281.501	-139.503	0.276	0.030
-280.486	-148.494	-0.284	0.023
-279.472	-200.000	0.073	-0.445
-278.457	-200.000	0.039	0.199
-277.443	-200.000	-0.041	0.352
-276.428	-200.000	-0.020	0.113
-275.413	123.762	0.091	0.115
-274.399	-49.185	-0.115	0.055
-273.384	-200.000	0.040	0.178
-272.370	-11.163	0.094	0.063
-271.355	-45.902	-0.273	-0.136
-270.340	-200.000	-0.044	0.349
-269.326	-13.851	0.184	-0.120
-268.311	800.000	0.124	-0.394
-267.297	-200.000	0.039	0.194
-266.282	82.795	0.122	-0.133
-265.267	-42.279	0.066	-0.034
-264.253	-11.740	-0.196	-0.129
-263.238	800.000	0.072	0.211
-262.224	92.413	-0.115	0.131
-261.209	70.695	0.153	-0.159
-260.195	-133.112	0.167	-0.021
-259.180	800.000	-0.040	0.178
-258.165	-200.000	-0.012	-0.089
-257.151	-108.646	-0.179	0.039
-256.136	800.000	-0.074	0.207
-255.122	-11.761	0.069	0.045
-254.107	102.220	0.045	0.053
-253.092	369.857	0.119	-0.243
-252.078	-46.303	-0.210	0.104
-251.063	800.000	0.002	0.009
-250.049	55.465	0.191	-0.186
-249.034	735.378	-0.035	0.094
-248.019	318.632	0.110	0.209
-247.005	-1.242	-0.114	0.081
-245.990	31.040	0.211	0.182
-244.976	800.000	0.030	0.122
-243.961	190.500	-0.004	0.006
-242.946	-28.011	-0.320	-0.186
-241.932	-30.847	0.126	-0.072
-240.917	-79.231	-0.080	0.027
-239.903	-80.176	0.155	0.052
-238.888	172.062	-0.142	-0.205
-237.873	800.000	0.117	-0.456
-236.859	-35.362	0.423	-0.232
-235.844	-158.414	0.237	0.014
-234.830	-47.297	0.234	0.115
-233.815	479.914	0.023	-0.051
-232.800	241.777	-0.153	0.257
-231.786	267.994	-0.034	-0.060
-230.771	-116.274	0.191	0.036
-229.757	-23.222	0.282	0.170
-228.742	161.625	0.222	-0.313
-227.727	291.948	-0.093	0.170
-226.713	-32.446	0.233	-0.131
-225.698	80.595	0.327	-0.354
-224.684	-200.000	-0.004	0.301
-223.669	503.510	-0.017	0.040
-222.655	-45.881	-0.350	-0.174
-221.640	402.766	-0.060	0.128
-220.625	-155.965	-0.231	0.015
-219.611	800.000	0.017	0.051
-218.596	-76.976	-0.229	-0.080
-217.582	-15.229	-0.269	-0.173
-216.567	500.381	0.053	0.123
-215.552	275.150	-0.089	0.158
-214.538	-36.825	-0.232	0.125
-213.523	-120.295	-0.251	0.043
-212.509	55.334	0.063	0.061
-211.494	-105.673	0.205	-0.047
-210.479	-119.919	0.353	0.061
-209.465	168.558	0.123	-0.176
-208.450	-76.777	0.150	0.053
-207.436	800.000	-0.051	-0.172
-206.421	-18.240	0.007	0.004
-205.406	-17.734	-0.371	-0.234
-204.392	-200.000	0.051	-0.240
-203.377	-200.000	0.000	0.050
-202.363	187.584	-0.207	0.311
-201.348	-21.022	-0.061	-0.038
-200.333	382.431	0.055	0.113
-199.319	-200.000	-0.058	-0.310
-198.304	143.066	-0.030	0.041
-197.290	-124.254	0.239	0.038
-196.275	-200.000	-0.006	0.049
-195.260	-92.238	0.247	-0.070
-194.246	190.352	0.055	-0.082
-193.231	192.633	-0.097	-0.146
-192.217	-200.000	-0.013	0.145
-191.202	-14.748	0.192	0.124
-190.187	-71.418	-0.326	0.122
-189.173	15.666	0.177	-0.140
-188.158	-200.000	0.356	0.002
-187.144	-0.193	0.264	0.189
-186.129	-200.000	0.011	0.065
-185.114	-13.504	-0.158	0.103
-184.100	789.521	-0.097	-0.267
-183.085	-12.517	-0.269	-0.176
-182.071	54.225	-0.237	0.229
-181.056	91.030	0.246	0.277
-180.042	105.788	-0.148	0.176
-179.027	-181.566	-0.069	0.001
-178.012	-200.000	0.071	-0.338
-176.998	625.174	0.060	-0.152
-175.983	298.748	0.122	0.225
-174.969	74.987	0.028	0.030
-173.954	14.365	0.138	0.108
-172.939	27.525	0.124	-0.105
-171.925	20.256	-0.080	0.065
-170.910	89.739	0.167	-0.187
-169.896	213.399	0.079	0.125
-168.881	-100.874	0.141	0.035
-167.866	-87.479	0.048	0.015
-166.852	-17.286	0.024	0.015
-165.837	74.058	0.153	-0.161
-164.823	-46.117	-0.268	0.133
-163.808	-200.000	0.028	0.136
-162.793	-200.000	-0.021	0.459
-161.779	20.417	-0.252	0.205
-160.764	219.909	0.129	-0.208
-159.750	96.019	0.042	0.048
-158.735	134.397	-0.135	-0.175
-157.720	484.399	0.061	-0.140
-156.706	114.483	0.141	0.172
-155.691	800.000	0.094	0.295
-154.677	-145.254	-0.294	0.027
-153.662	800.000	-0.082	-0.349
-152.647	-116.368	-0.317	-0.059
-151.633	-200.000	-0.003	-0.016
-150.618	302.360	-0.073	0.136
-149.604	55.322	0.121	-0.117
-148.589	-107.409	0.106	-0.023
-147.574	-67.991	0.187	0.073
-146.560	-199.798	0.179	0.001
-145.545	-72.309	0.120	-0.045
-144.531	-62.868	-0.020	0.008
-143.516	517.885	0.057	-0.133
-142.502	-200.000	-0.002	-0.344
-141.487	-133.831	-0.131	-0.016
-140.472	-200.000	-0.044	-0.239
-139.458	-200.000	0.012	0.201
-138.443	86.844	-0.057	-0.063
-137.429	800.000	0.020	0.070
-136.414	84.215	0.128	0.140
-135.399	-165.368	0.032	0.001
-134.385	-200.000	0.021	0.485
-133.370	206.057	0.077	0.120
-132.356	10.919	-0.173	-0.132
-131.341	-92.831	0.133	0.037
-130.326	800.000	0.023	-0.076
-129.312	-67.422	0.287	-0.113
-128.297	127.634	0.128	0.163
-127.283	27.553	-0.163	-0.138
-126.268	-124.158	-0.162	0.025
-125.253	-22.732	0.075	0.045
-124.239	40.464	0.196	0.177
-123.224	85.682	-0.176	0.194
-122.210	-152.852	-0.282	0.020
-121.195	-200.000	0.025	-0.115
