DTS Sentinel unit serial number:	SN413079Multiplexer serial number:	ORYXHardware model number:	OX4-SRSoftware version number:	ORYX F/W v4.00 Oryx Data Collector v3.7.2.0data status	okinstallation	princeton_trtdifferential loss correction	single-endedforward channel	channel 2reverse channel	N/Adate	2019/09/11time	20:57:10forward acquisition time	60.00reverse acquisition time	0.00gamma	496.2192k internal	0.2322k external	0.2322temperature offset calibration	1.0067default loss term (dB/km)	0.3790temperature slope calibration	1.0000multiplexer offset coefficient	1.0000multiplexer slope coefficient	1.0000fibre end	0.00T internal ref (°C)	36.77T ext. ref 1 (°C)	1.62T ext. ref 2 (°C)	30.72length (m)	temperature (°C)	Stokes	anti-Stokes-747.200	120.964	0.065	-0.081
-746.185	-79.501	-0.065	-0.022
-745.171	-63.991	0.333	0.137
-744.156	77.693	-0.137	0.147
-743.142	252.073	0.029	-0.050
-742.127	-93.980	-0.153	-0.043
-741.112	92.222	0.248	-0.282
-740.098	101.287	-0.216	0.254
-739.083	-60.411	0.169	-0.073
-738.069	800.000	-0.037	-0.150
-737.054	-200.000	0.025	0.339
-736.039	-119.404	-0.531	0.093
-735.025	-119.438	0.018	0.003
-734.010	800.000	-0.089	0.320
-732.996	-16.193	0.253	0.163
-731.981	-39.051	-0.197	0.105
-730.966	-22.560	-0.267	-0.163
-729.952	-114.881	-0.205	0.039
-728.937	-41.547	-0.221	0.115
-727.923	-200.000	0.028	0.166
-726.908	53.562	-0.242	-0.235
-725.894	635.210	-0.076	-0.194
-724.879	-150.272	-0.131	0.010
-723.864	-128.092	-0.062	0.009
-722.850	-10.143	0.050	0.033
-721.835	-200.000	0.001	-0.325
-720.821	-149.090	-0.363	-0.029
-719.806	-132.966	-0.264	-0.034
-718.791	-1.468	0.142	-0.101
-717.777	69.458	0.149	-0.155
-716.762	192.294	-0.082	0.125
-715.748	800.000	-0.055	0.172
-714.733	-122.650	-0.177	-0.029
-713.718	-42.251	0.099	0.051
-712.704	-200.000	0.018	0.143
-711.689	38.537	-0.116	-0.105
-710.675	-65.535	-0.147	-0.059
-709.660	-27.351	-0.355	-0.209
-708.645	800.000	-0.102	0.298
-707.631	63.695	0.066	0.067
-706.616	157.319	-0.096	-0.134
-705.602	-22.947	0.198	-0.120
-704.587	551.261	0.119	-0.289
-703.572	-144.472	-0.087	0.008
-702.558	-41.751	0.122	-0.063
-701.543	-65.367	0.367	-0.149
-700.529	168.424	0.213	-0.306
-699.514	353.972	-0.231	-0.463
-698.499	297.010	-0.176	-0.325
-697.485	240.075	0.123	0.207
-696.470	74.311	0.120	-0.127
-695.456	594.538	0.173	-0.432
-694.441	-91.660	0.121	0.035
-693.426	800.000	-0.086	-0.291
-692.412	699.865	-0.058	0.153
-691.397	-200.000	-0.002	0.515
-690.383	146.634	-0.169	0.229
-689.368	-73.026	-0.103	-0.038
-688.354	-120.740	-0.169	-0.029
-687.339	41.539	-0.161	0.147
-686.324	-200.000	0.009	0.246
-685.310	-23.700	-0.130	-0.078
-684.295	-170.158	-0.528	-0.019
-683.281	621.557	-0.058	0.147
-682.266	-200.000	0.000	-0.071
-681.251	-24.949	-0.097	0.058
-680.237	640.733	0.107	0.273
-679.222	800.000	0.031	0.103
-678.208	800.000	0.079	0.284
-677.193	-121.878	0.079	0.013
-676.178	800.000	-0.140	0.555
-675.164	114.077	-0.055	-0.067
-674.149	-67.109	0.509	-0.202
-673.135	-127.220	-0.242	-0.036
-672.120	91.559	-0.187	-0.212
-671.105	188.681	-0.296	-0.447
-670.091	-200.000	-0.018	0.091
-669.076	350.678	-0.032	-0.065
-668.062	27.461	0.019	-0.016
-667.047	67.984	0.480	-0.494
-666.032	-15.111	0.431	-0.278
-665.018	21.777	-0.096	-0.079
-664.003	503.187	-0.059	0.138
-662.989	-200.000	0.017	-0.123
-661.974	-200.000	-0.065	0.301
-660.959	289.544	-0.024	-0.043
-659.945	800.000	0.148	-0.416
-658.930	679.904	-0.071	-0.187
-657.916	394.370	-0.132	0.276
-656.901	741.348	0.112	-0.303
-655.886	-24.692	0.047	-0.028
-654.872	-135.556	-0.202	0.024
-653.857	-200.000	-0.014	-0.230
-652.843	237.053	0.073	0.122
-651.828	398.428	-0.224	-0.472
-650.814	-110.679	-0.455	0.095
-649.799	-200.000	-0.027	0.311
-648.784	-89.509	-0.053	-0.016
-647.770	-200.000	-0.005	-0.028
-646.755	-1.724	0.284	0.201
-645.741	-200.000	-0.027	0.137
-644.726	-200.000	-0.038	0.191
-643.711	85.013	0.014	0.015
-642.697	800.000	-0.069	-0.211
-641.682	206.699	-0.188	0.295
-640.668	-104.557	-0.319	-0.074
-639.653	-83.587	-0.212	0.068
-638.638	35.532	0.272	-0.240
-637.624	-46.684	0.082	-0.040
-636.609	198.997	-0.192	0.296
-635.595	-18.340	-0.113	0.071
-634.580	150.589	-0.103	0.140
-633.565	-66.761	0.089	0.035
-632.551	725.786	0.170	0.455
-631.536	757.118	0.072	-0.195
-630.522	-200.000	0.013	-0.155
-629.507	-200.000	0.039	0.193
-628.492	-88.494	0.268	0.081
-627.478	-27.792	-0.264	-0.154
-626.463	149.353	0.133	-0.181
-625.449	-16.529	0.203	-0.129
-624.434	292.092	-0.063	-0.115
-623.419	12.978	-0.225	-0.175
-622.405	-54.165	0.193	0.088
-621.390	-41.752	-0.246	0.127
-620.376	28.752	0.074	0.063
-619.361	-200.000	-0.031	-0.203
-618.346	-164.800	-0.161	-0.007
-617.332	800.000	-0.111	-0.378
-616.317	14.599	0.124	-0.097
-615.303	-75.068	-0.261	-0.094
-614.288	299.383	0.068	0.126
-613.273	-200.000	0.018	0.239
-612.259	-7.200	0.191	-0.130
-611.244	62.903	-0.057	0.057
-610.230	-200.000	0.008	-0.059
-609.215	-110.976	-0.162	0.033
-608.201	646.452	-0.115	-0.296
-607.186	800.000	-0.057	-0.238
-606.171	-176.339	0.220	0.006
-605.157	451.609	0.172	0.382
-604.142	21.886	-0.164	-0.134
-603.128	525.124	0.064	-0.152
-602.113	-10.263	0.323	-0.215
-601.098	-87.731	0.132	0.040
-600.084	62.830	0.054	0.054
-599.069	-200.000	0.022	0.105
-598.055	-32.998	-0.053	0.029
-597.040	800.000	0.131	-0.371
-596.025	181.631	0.102	0.151
-595.011	800.000	-0.048	-0.134
-593.996	-20.843	0.249	0.153
-592.982	400.587	-0.069	-0.146
-591.967	-128.443	0.090	-0.013
-590.952	-200.000	0.040	0.232
-589.938	-200.000	0.003	-0.021
-588.923	-200.000	0.016	0.096
-587.909	509.299	-0.054	-0.126
-586.894	-200.000	0.069	0.000
-585.879	677.476	-0.007	-0.019
-584.865	-109.670	0.119	-0.025
-583.850	-104.641	0.364	-0.084
-582.836	-52.362	-0.110	-0.051
-581.821	7.658	-0.363	-0.273
-580.806	-163.071	0.294	-0.014
-579.792	216.709	-0.028	-0.045
-578.777	-36.900	0.215	-0.116
-577.763	778.205	-0.057	-0.156
-576.748	-103.528	0.139	0.033
-575.733	-4.976	0.043	-0.030
-574.719	-151.609	0.274	0.020
-573.704	-200.000	0.040	0.329
-572.690	-30.310	-0.076	-0.043
-571.675	-115.541	-0.410	-0.077
-570.661	-127.912	0.254	0.037
-569.646	167.115	0.248	-0.354
-568.631	-200.000	-0.002	-0.220
-567.617	-168.802	0.250	0.009
-566.602	59.488	0.216	-0.213
-565.588	111.487	-0.111	0.134
-564.573	153.373	0.096	-0.131
-563.558	469.038	0.038	-0.086
-562.544	-173.780	0.114	0.003
-561.529	67.008	0.121	0.124
-560.515	-165.089	0.149	0.007
-559.500	519.520	-0.111	-0.261
-558.485	-88.919	-0.197	0.059
-557.471	104.066	-0.108	0.128
-556.456	-200.000	-0.034	0.412
-555.442	43.927	-0.179	0.164
-554.427	-114.159	0.112	0.022
-553.412	342.507	-0.184	0.362
-552.398	800.000	0.154	0.563
-551.383	-102.857	-0.476	-0.113
-550.369	152.243	-0.165	-0.226
-549.354	400.230	-0.104	0.219
-548.339	-171.720	-0.199	-0.007
-547.325	149.875	0.106	-0.144
-546.310	149.655	0.199	-0.270
-545.296	-130.454	-0.282	0.038
-544.281	-62.807	0.148	-0.062
-543.266	176.980	0.158	-0.230
-542.252	178.460	-0.190	-0.278
-541.237	195.283	0.071	0.109
-540.223	415.131	0.050	0.108
-539.208	37.532	0.202	-0.179
-538.193	-131.165	0.238	0.032
-537.179	393.740	0.024	-0.050
-536.164	9.216	-0.281	0.213
-535.150	697.530	0.084	-0.220
-534.135	-47.719	-0.146	0.071
-533.121	800.000	0.073	0.207
-532.106	-157.346	-0.153	-0.009
-531.091	-127.220	0.036	-0.005
-530.077	-1.006	0.055	0.039
-529.062	-183.136	0.102	-0.002
-528.048	800.000	0.009	-0.027
-527.033	67.078	-0.080	-0.082
-526.018	-100.015	0.213	0.053
-525.004	-15.413	-0.141	0.090
-523.989	103.797	0.102	-0.120
-522.975	-27.961	0.130	-0.076
-521.960	-74.015	-0.297	0.108
-520.945	88.438	-0.202	-0.225
-519.931	-120.917	0.169	0.028
-518.916	125.790	0.134	0.169
-517.902	-200.000	0.028	-0.143
-516.887	406.451	-0.060	0.127
-515.872	-200.000	0.011	-0.083
-514.858	-200.000	0.031	-0.330
-513.843	800.000	-0.084	-0.365
-512.829	-93.501	0.124	-0.034
-511.814	57.339	-0.309	-0.302
-510.799	170.309	0.143	0.205
-509.785	29.068	-0.216	0.183
-508.770	43.248	0.124	-0.113
-507.756	210.278	0.196	0.309
-506.741	147.875	-0.135	-0.182
-505.726	-200.000	-0.060	-0.267
-504.712	552.936	-0.098	0.236
-503.697	-124.747	-0.147	-0.023
-502.683	-200.000	-0.027	0.154
-501.668	-83.238	-0.254	-0.082
-500.653	62.565	-0.142	0.142
-499.639	197.375	0.184	-0.281
-498.624	-200.000	0.004	0.080
-497.610	654.254	-0.043	-0.111
-496.595	-103.715	0.471	-0.110
-495.581	-200.000	-0.031	0.357
-494.566	-12.167	0.266	0.174
-493.551	67.815	-0.364	-0.373
-492.537	-92.551	-0.099	-0.028
-491.522	800.000	0.091	-0.339
-490.508	-200.000	0.063	-0.381
-489.493	-200.000	-0.000	-0.194
-488.478	301.529	-0.134	0.247
-487.464	800.000	-0.044	-0.132
-486.449	210.599	0.146	0.229
-485.435	-28.082	-0.430	0.249
-484.420	-200.000	0.019	-0.092
-483.405	562.669	-0.031	-0.075
-482.391	128.158	-0.071	-0.091
-481.376	-200.000	0.016	-0.083
-480.362	153.582	-0.085	0.116
-479.347	161.842	0.217	-0.304
-478.332	-35.613	0.112	0.060
-477.318	-6.790	0.205	0.139
-476.303	-200.000	0.013	-0.097
-475.289	141.482	-0.135	0.179
-474.274	265.936	0.201	-0.350
-473.259	-125.008	-0.144	-0.022
-472.245	-154.856	0.238	-0.016
-471.230	368.600	0.073	-0.148
-470.216	-27.449	0.253	-0.147
-469.201	35.714	0.216	0.190
-468.186	-200.000	0.001	0.198
-467.172	-130.953	-0.190	0.025
-466.157	-167.483	-0.192	0.008
-465.143	-200.000	-0.029	0.145
-464.128	459.590	0.030	-0.066
-463.113	-200.000	-0.010	-0.064
-462.099	-200.000	0.066	-0.392
-461.084	76.815	0.161	0.171
-460.070	-70.707	0.333	-0.126
-459.055	36.787	-0.322	-0.284
-458.040	279.768	-0.154	-0.274
-457.026	205.535	0.175	0.272
-456.011	-21.941	0.101	0.061
-454.997	-54.916	-0.066	0.030
-453.982	-2.002	-0.365	0.256
-452.968	367.255	0.064	0.129
-451.953	-64.106	0.275	-0.112
-450.938	-78.475	0.091	0.031
-449.924	-42.598	-0.094	0.048
-448.909	363.257	-0.047	-0.094
-447.895	-200.000	-0.010	-0.174
-446.880	-49.510	0.042	0.020
-445.865	-200.000	-0.008	-0.121
-444.851	-34.535	0.144	-0.079
-443.836	800.000	0.159	0.472
-442.822	-179.488	0.365	0.008
-441.807	-140.102	-0.189	0.020
-440.792	-55.768	-0.142	0.063
-439.778	800.000	-0.076	0.215
-438.763	-200.000	-0.046	0.301
-437.749	-200.000	0.003	0.300
-436.734	-72.437	-0.126	-0.046
-435.719	-200.000	-0.001	0.075
-434.705	-69.219	-0.146	-0.056
-433.690	800.000	-0.047	-0.189
-432.676	-200.000	-0.037	0.310
-431.661	-200.000	0.042	-0.200
-430.646	265.836	-0.070	-0.122
-429.632	-200.000	0.011	-0.139
-428.617	107.450	0.226	0.268
-427.603	-200.000	0.006	0.213
-426.588	-30.931	-0.105	-0.059
-425.573	-174.429	-0.275	-0.008
-424.559	-133.841	0.135	-0.017
-423.544	-31.120	0.163	-0.092
-422.530	-82.619	-0.098	-0.032
-421.515	-129.999	0.403	0.055
-420.500	800.000	0.107	0.337
-419.486	-200.000	0.031	0.320
-418.471	800.000	-0.035	0.118
-417.457	155.469	-0.091	0.124
-416.442	-131.199	0.215	0.028
-415.428	-68.669	-0.226	-0.087
-414.413	-92.425	0.341	-0.096
-413.398	335.744	-0.173	-0.334
-412.384	-200.000	0.568	0.001
-411.369	800.000	-0.048	0.162
-410.355	152.306	-0.070	0.095
-409.340	107.595	0.341	-0.405
-408.325	49.452	0.084	-0.079
-407.311	94.209	-0.207	-0.234
-406.296	2.231	0.146	0.105
-405.282	800.000	-0.065	0.274
-404.267	-200.000	0.006	0.264
-403.252	-200.000	-0.031	-0.157
-402.238	-1.924	0.137	-0.096
-401.223	-84.930	0.215	0.067
-400.209	581.979	0.110	-0.269
-399.194	-200.000	-0.019	0.266
-398.179	800.000	-0.032	-0.133
-397.165	-200.000	-0.017	0.165
-396.150	-64.314	-0.166	-0.067
-395.136	80.817	0.182	0.196
-394.121	800.000	-0.057	-0.208
-393.106	-197.803	-0.250	-0.002
-392.092	67.786	0.071	-0.072
-391.077	-157.613	-0.104	0.006
-390.063	-158.639	-0.328	0.019
-389.048	-149.287	-0.176	-0.014
-388.033	206.794	-0.031	0.048
-387.019	-17.965	-0.223	-0.139
-386.004	-200.000	0.006	-0.067
-384.990	113.218	-0.374	0.452
-383.975	-200.000	0.029	0.406
-382.960	-154.708	0.290	-0.019
-381.946	205.089	-0.157	-0.242
-380.931	-200.000	0.011	0.318
-379.917	107.334	-0.056	0.066
-378.902	-39.861	0.016	-0.008
-377.888	-28.002	0.243	-0.140
-376.873	126.699	-0.108	-0.136
-375.858	85.967	0.201	0.220
-374.844	35.303	-0.355	0.310
-373.829	131.221	0.283	-0.362
-372.815	11.554	-0.298	-0.227
-371.800	-200.000	-0.028	-0.152
-370.785	-6.192	-0.115	0.078
-369.771	-200.000	0.000	-0.173
-368.756	46.883	0.218	-0.202
-367.742	-86.432	0.224	-0.069
-366.727	22.085	0.338	0.275
-365.712	225.646	-0.101	0.163
-364.698	-83.890	-0.173	-0.055
-363.683	61.635	-0.147	-0.145
-362.669	-20.592	-0.085	0.052
-361.654	53.747	0.084	-0.080
-360.639	-19.833	-0.078	-0.048
-359.625	32.879	-0.139	0.120
-358.610	79.263	-0.105	-0.112
-357.596	-133.752	-0.096	-0.012
-356.581	47.330	-0.170	0.158
-355.566	687.051	0.026	0.069
-354.552	148.631	0.083	-0.112
-353.537	541.550	0.033	-0.078
-352.523	6.567	-0.117	-0.087
-351.508	-200.000	-0.094	-0.488
-350.493	-70.823	-0.176	-0.066
-349.479	56.250	-0.271	0.262
-348.464	-90.375	0.321	-0.093
-347.450	80.745	-0.171	-0.184
-346.435	-109.740	-0.340	-0.071
-345.420	-122.456	0.291	0.047
-344.406	123.107	0.173	-0.216
-343.391	206.115	-0.034	0.053
-342.377	-101.884	-0.017	-0.004
-341.362	622.400	0.096	-0.241
-340.348	7.884	-0.112	-0.084
-339.333	-137.320	-0.208	-0.023
-338.318	-88.966	-0.066	-0.019
-337.304	-21.111	0.213	0.129
-336.289	-35.258	-0.110	0.059
-335.275	-200.000	-0.003	-0.169
-334.260	685.683	-0.140	0.363
-333.245	-11.368	-0.108	0.070
-332.231	121.798	-0.172	-0.213
-331.216	458.362	-0.134	0.296
-330.202	-200.000	0.028	-0.176
-329.187	14.999	0.214	-0.167
-328.172	-117.983	-0.247	0.044
-327.158	-110.296	-0.106	0.022
-326.143	-200.000	-0.030	-0.182
-325.129	549.404	-0.079	-0.188
-324.114	800.000	-0.051	0.153
-323.099	-200.000	0.008	0.338
-322.085	48.541	0.069	-0.064
-321.070	800.000	0.038	-0.136
-320.056	-88.371	-0.185	0.055
-319.041	274.635	-0.121	0.213
-318.026	-23.176	-0.132	-0.079
-317.012	-200.000	0.006	0.102
-315.997	-16.038	-0.056	-0.035
-314.983	-102.859	-0.304	0.072
-313.968	-129.695	-0.420	-0.058
-312.953	747.216	0.034	-0.092
-311.939	223.240	-0.091	0.146
-310.924	800.000	-0.046	0.159
-309.910	-55.082	0.159	0.071
-308.895	-33.502	-0.129	-0.071
-307.880	800.000	-0.045	-0.180
-306.866	-156.955	-0.188	-0.011
-305.851	-129.131	0.129	0.018
-304.837	321.449	-0.090	0.169
-303.822	313.540	-0.049	0.092
-302.807	215.260	-0.104	-0.164
-301.793	-147.990	0.185	0.015
-300.778	800.000	-0.156	-0.533
-299.764	215.159	0.115	-0.180
-298.749	683.966	0.071	0.183
-297.735	-67.369	0.149	0.058
-296.720	207.016	0.080	-0.124
-295.705	800.000	0.069	-0.214
-294.691	150.789	-0.063	-0.085
-293.676	-9.340	0.192	0.128
-292.662	249.347	-0.144	-0.243
-291.647	3.835	-0.120	-0.087
-290.632	97.097	-0.174	-0.198
-289.618	41.682	-0.142	-0.128
-288.603	5.686	-0.255	0.187
-287.589	-66.144	-0.194	-0.077
-286.574	-155.502	0.401	-0.026
-285.559	474.908	-0.064	0.143
-284.545	-49.720	0.328	-0.155
-283.530	-200.000	-0.029	0.217
-282.516	-25.861	-0.152	-0.089
-281.501	80.361	0.133	0.142
-280.486	-155.772	-0.096	-0.006
-279.472	208.700	-0.135	0.210
-278.457	-200.000	-0.025	-0.111
-277.443	-160.663	-0.264	0.014
-276.428	-0.430	0.197	0.139
-275.413	57.104	-0.076	-0.073
-274.399	475.669	-0.121	-0.271
-273.384	800.000	-0.093	-0.255
-272.370	-65.350	0.247	0.099
-271.355	800.000	0.075	0.297
-270.340	37.320	-0.126	-0.111
-269.326	-11.027	0.391	-0.256
-268.311	150.787	0.169	-0.228
-267.297	-200.000	-0.036	0.260
-266.282	800.000	0.073	0.255
-265.267	184.575	-0.145	-0.214
-264.253	-111.184	-0.239	0.048
-263.238	-41.098	0.067	0.034
-262.224	800.000	0.078	0.336
-261.209	-46.956	-0.196	-0.095
-260.195	618.345	0.120	-0.300
-259.180	-92.675	-0.282	0.078
-258.165	92.508	0.070	-0.078
-257.151	218.579	0.005	-0.007
-256.136	74.652	0.233	-0.243
-255.122	800.000	-0.045	0.151
-254.107	800.000	-0.053	0.228
-253.092	162.328	0.104	-0.145
-252.078	-154.859	0.213	-0.014
-251.063	383.534	0.091	-0.185
-250.049	476.841	0.044	-0.099
-249.034	695.184	0.007	-0.019
-248.019	800.000	-0.065	-0.221
-247.005	800.000	-0.039	0.139
-245.990	-200.000	0.012	0.161
-244.976	-77.327	-0.258	-0.089
-243.961	-74.532	-0.162	-0.058
-242.946	7.201	0.123	-0.091
-241.932	-200.000	-0.013	-0.178
-240.917	437.524	-0.105	0.228
-239.903	15.158	-0.176	0.137
-238.888	669.268	-0.122	-0.312
-237.873	12.120	0.219	0.167
-236.859	-118.035	0.221	-0.039
-235.844	368.718	0.162	0.324
-234.830	-136.894	0.348	0.040
-233.815	324.582	-0.125	0.236
-232.800	800.000	0.052	-0.157
-231.786	55.126	-0.168	0.160
-230.771	299.473	0.057	0.105
-229.757	43.685	-0.159	0.144
-228.742	712.804	0.091	0.239
-227.727	-70.962	0.087	0.032
-226.713	-107.827	-0.048	0.010
-225.698	13.668	0.282	-0.217
-224.684	511.363	0.130	0.299
-223.669	-200.000	-0.010	-0.085
-222.655	-200.000	0.015	-0.103
-221.640	-149.084	0.109	-0.009
-220.625	-25.479	0.371	-0.217
-219.611	800.000	0.153	-0.534
-218.596	84.326	-0.156	-0.169
-217.582	-140.109	0.072	-0.007
-216.567	18.911	-0.168	0.133
-215.552	152.483	0.188	-0.254
-214.538	-28.631	0.078	0.045
-213.523	800.000	0.092	0.357
-212.509	524.817	-0.088	0.204
-211.494	800.000	-0.027	-0.116
-210.479	106.161	-0.229	-0.268
-209.465	-200.000	-0.102	0.613
-208.450	4.665	-0.264	0.191
-207.436	402.392	0.118	0.246
-206.421	-129.304	0.320	-0.044
-205.406	-200.000	-0.008	-0.051
-204.392	59.579	0.078	-0.076
-203.377	-200.000	0.014	0.535
-202.363	88.340	0.119	0.131
-201.348	157.934	0.164	-0.224
-200.333	800.000	0.029	0.096
-199.319	23.014	-0.180	0.146
-198.304	61.435	0.134	0.132
-197.290	-55.096	0.047	0.021
-196.275	163.406	0.106	0.147
-195.260	-73.573	0.503	0.181
-194.246	255.737	-0.081	0.138
-193.231	279.942	-0.163	0.288
-192.217	-102.110	0.064	0.015
-191.202	78.532	-0.293	-0.310
-190.187	-112.317	-0.099	0.020
-189.173	-95.924	-0.215	0.057
-188.158	-97.908	0.211	0.054
-187.144	-30.677	-0.368	0.206
-186.129	-165.796	-0.394	-0.017
-185.114	179.449	-0.321	0.465
-184.100	-130.746	-0.193	-0.026
-183.085	52.398	0.113	0.107
-182.071	73.803	0.234	0.243
-181.056	-91.854	0.216	-0.061
-180.042	18.500	-0.118	0.093
-179.027	800.000	0.079	0.219
-178.012	-200.000	0.005	0.244
-176.998	-102.009	-0.347	0.083
-175.983	-85.246	0.366	0.113
-174.969	-200.000	0.051	-0.228
-173.954	-200.000	-0.099	-0.436
-172.939	226.373	0.104	0.167
-171.925	-200.000	-0.011	-0.181
-170.910	313.957	0.103	0.191
-169.896	355.864	0.101	-0.199
-168.881	723.404	-0.030	0.080
-167.866	-38.694	-0.254	0.132
-166.852	-184.685	0.054	0.001
-165.837	478.169	0.147	-0.328
-164.823	448.277	-0.110	0.239
-163.808	125.946	0.190	0.237
-162.793	-187.288	0.046	-0.001
-161.779	-54.756	-0.111	-0.049
-160.764	800.000	0.042	-0.173
-159.750	-200.000	-0.028	0.155
-158.735	50.420	-0.126	-0.117
-157.720	-121.635	0.393	-0.064
-156.706	-128.555	-0.238	0.033
-155.691	139.840	0.094	0.122
-154.677	-200.000	-0.051	0.299
-153.662	-168.104	0.128	-0.005
-152.647	800.000	0.088	-0.327
-151.633	662.343	-0.038	-0.096
-150.618	-27.270	0.379	0.218
-149.604	618.192	-0.085	0.211
-148.589	-200.000	0.004	0.200
-147.574	-47.684	0.104	-0.050
-146.560	-50.831	-0.120	-0.056
-145.545	250.009	-0.036	0.060
-144.531	-96.455	0.076	0.020
-143.516	347.970	0.070	-0.135
-142.502	99.471	0.202	-0.231
-141.487	-40.280	-0.043	0.022
-140.472	-66.375	-0.222	-0.087
-139.458	522.794	-0.078	0.180
-138.443	298.268	-0.117	0.213
-137.429	263.842	0.202	-0.346
-136.414	800.000	-0.014	-0.038
-135.399	308.780	0.088	0.161
-134.385	-39.528	0.126	0.065
-133.370	-200.000	0.035	0.192
-132.356	93.781	0.138	-0.155
-131.341	-136.124	0.171	-0.020
-130.326	-200.000	0.080	0.372
-129.312	-200.000	0.019	0.138
-128.297	120.935	-0.034	-0.041
-127.283	292.109	-0.100	-0.180
-126.268	84.404	-0.239	-0.258
-125.253	-200.000	0.014	0.170
-124.239	-84.914	0.064	-0.020
-123.224	-84.349	0.197	0.062
-122.210	296.035	0.218	-0.394
