DTS Sentinel unit serial number:	SN413079Multiplexer serial number:	ORYXHardware model number:	OX4-SRSoftware version number:	ORYX F/W v4.00 Oryx Data Collector v3.7.2.0data status	okinstallation	princeton_trtdifferential loss correction	single-endedforward channel	channel 2reverse channel	N/Adate	2019/09/14time	23:59:34forward acquisition time	60.00reverse acquisition time	0.00gamma	496.2192k internal	0.2324k external	0.2324temperature offset calibration	1.0048default loss term (dB/km)	0.3790temperature slope calibration	1.0000multiplexer offset coefficient	1.0000multiplexer slope coefficient	1.0000fibre end	0.00T internal ref (°C)	32.25T ext. ref 1 (°C)	4.60T ext. ref 2 (°C)	27.17length (m)	temperature (°C)	Stokes	anti-Stokes-747.200	188.530	-0.030	0.046
-746.185	190.734	0.123	-0.187
-745.171	-200.000	-0.001	-0.015
-744.156	800.000	-0.079	0.230
-743.142	-107.896	0.431	-0.095
-742.127	800.000	-0.061	0.255
-741.112	509.839	-0.095	0.224
-740.098	-200.000	0.044	-0.198
-739.083	-200.000	0.005	-0.066
-738.069	72.086	0.123	0.130
-737.054	305.404	-0.039	-0.073
-736.039	-36.564	-0.139	-0.076
-735.025	147.122	0.277	0.377
-734.010	76.528	-0.339	-0.362
-732.996	110.272	-0.105	0.127
-731.981	-63.708	-0.117	0.048
-730.966	-61.959	0.197	0.083
-729.952	-56.735	-0.233	-0.104
-728.937	-110.489	-0.243	0.051
-727.923	285.586	0.172	-0.313
-726.908	168.689	-0.073	0.104
-725.894	-68.764	-0.196	0.076
-724.879	-42.986	-0.150	0.077
-723.864	171.431	0.213	-0.308
-722.850	-200.000	0.091	-0.458
-721.835	171.518	-0.171	-0.247
-720.821	-200.000	-0.034	-0.264
-719.806	-136.229	-0.323	-0.038
-718.791	-101.481	0.077	-0.019
-717.777	135.595	-0.207	0.272
-716.762	94.880	-0.291	-0.334
-715.748	0.052	0.202	-0.145
-714.733	-105.400	0.082	0.019
-713.718	-8.685	-0.103	0.069
-712.704	800.000	-0.042	-0.123
-711.689	-200.000	0.032	0.180
-710.675	-56.341	0.093	0.042
-709.660	-65.313	-0.092	-0.037
-708.645	-79.426	0.236	-0.081
-707.631	-72.500	0.178	0.066
-706.616	41.540	0.107	0.098
-705.602	800.000	0.019	0.077
-704.587	-129.466	-0.300	0.042
-703.572	34.700	-0.351	0.310
-702.558	800.000	-0.097	0.324
-701.543	339.078	-0.123	0.241
-700.529	-135.430	-0.153	0.018
-699.514	76.780	-0.176	-0.188
-698.499	-161.117	-0.318	0.017
-697.485	72.484	-0.068	-0.071
-696.470	-9.127	-0.288	-0.194
-695.456	297.121	-0.166	0.306
-694.441	75.282	-0.159	-0.169
-693.426	-3.654	0.144	-0.101
-692.412	-65.239	0.310	-0.126
-691.397	-127.831	-0.148	0.021
-690.383	529.280	0.060	-0.144
-689.368	-11.430	-0.182	-0.120
-688.354	510.632	0.054	-0.125
-687.339	-20.640	0.095	-0.059
-686.324	-78.621	-0.062	0.021
-685.310	120.932	0.127	0.159
-684.295	90.817	-0.071	-0.080
-683.281	-200.000	-0.019	0.312
-682.266	51.957	-0.112	0.107
-681.251	18.871	0.222	0.179
-680.237	800.000	0.056	0.208
-679.222	48.659	0.069	0.065
-678.208	-88.091	-0.399	-0.120
-677.193	800.000	-0.034	-0.137
-676.178	-200.000	-0.010	-0.180
-675.164	605.781	-0.127	-0.317
-674.149	-128.263	0.376	0.054
-673.135	157.589	0.087	0.121
-672.120	800.000	0.060	0.194
-671.105	-200.000	0.009	0.112
-670.091	77.085	-0.058	-0.062
-669.076	-168.104	0.184	-0.007
-668.062	471.305	0.139	-0.315
-667.047	800.000	0.041	0.147
-666.032	287.423	0.143	-0.260
-665.018	-40.500	0.348	0.182
-664.003	123.535	0.107	0.136
-662.989	-39.237	-0.142	-0.075
-661.974	-86.933	-0.197	0.060
-660.959	-200.000	-0.033	0.288
-659.945	-200.000	-0.073	0.371
-658.930	77.136	-0.159	-0.170
-657.916	523.973	0.021	-0.050
-656.901	-53.218	0.102	-0.047
-655.886	124.975	0.098	-0.124
-654.872	-16.854	-0.044	0.028
-653.857	122.401	0.205	0.258
-652.843	-129.723	0.079	-0.011
-651.828	-46.503	-0.230	0.114
-650.814	80.131	0.301	-0.326
-649.799	20.966	0.085	-0.069
-648.784	19.940	0.107	0.087
-647.770	-200.000	-0.029	-0.146
-646.755	2.305	-0.115	0.083
-645.741	800.000	-0.032	0.090
-644.726	103.746	0.084	-0.099
-643.711	-91.314	-0.125	0.036
-642.697	-33.061	0.130	0.073
-641.682	64.936	-0.323	0.328
-640.668	800.000	0.094	-0.272
-639.653	-33.573	-0.166	-0.092
-638.638	-30.502	-0.139	-0.079
-637.624	530.875	0.069	-0.164
-636.609	-200.000	-0.028	-0.262
-635.595	-200.000	-0.004	-0.400
-634.580	174.979	0.225	-0.327
-633.565	458.208	-0.098	-0.220
-632.551	19.713	-0.286	0.231
-631.536	346.990	0.071	0.140
-630.522	-200.000	-0.009	0.246
-629.507	89.916	0.230	0.258
-628.492	-125.900	0.101	-0.015
-627.478	-79.203	-0.077	0.026
-626.463	-67.891	-0.080	0.032
-625.449	-34.422	0.396	-0.218
-624.434	421.578	0.158	-0.341
-623.419	729.832	-0.101	-0.270
-622.405	46.343	0.065	-0.060
-621.390	145.556	-0.100	-0.135
-620.376	-46.573	0.155	0.076
-619.361	291.471	-0.061	-0.111
-618.346	-78.539	0.105	-0.036
-617.332	-34.046	-0.029	0.016
-616.317	374.326	0.107	-0.219
-615.303	-200.000	0.029	0.157
-614.288	-200.000	-0.021	-0.297
-613.273	-200.000	0.019	-0.193
-612.259	476.047	-0.135	-0.307
-611.244	-182.782	0.238	-0.004
-610.230	110.080	-0.077	0.093
-609.215	-55.318	-0.296	0.134
-608.201	-200.000	0.041	0.238
-607.186	800.000	-0.025	0.083
-606.171	227.738	0.127	-0.207
-605.157	165.862	-0.173	0.246
-604.142	47.284	0.066	0.062
-603.128	232.008	0.126	-0.208
-602.113	-129.384	0.203	-0.028
-601.098	800.000	0.059	-0.216
-600.084	127.238	-0.171	-0.218
-599.069	800.000	-0.028	-0.082
-598.055	800.000	0.050	0.203
-597.040	269.991	0.145	0.256
-596.025	110.358	0.141	0.169
-595.011	617.029	-0.126	-0.318
-593.996	-34.635	-0.093	-0.051
-592.982	-152.484	0.386	-0.028
-591.967	-110.069	-0.333	-0.070
-590.952	-200.000	0.038	0.334
-589.938	73.084	0.112	0.118
-588.923	-200.000	-0.008	0.100
-587.909	94.277	0.032	-0.036
-586.894	-116.965	-0.123	-0.023
-585.879	116.897	0.135	-0.166
-584.865	-195.416	-0.242	-0.002
-583.850	242.046	0.176	-0.295
-582.836	800.000	0.027	-0.098
-581.821	-86.331	0.204	0.063
-580.806	800.000	0.120	0.373
-579.792	-86.547	0.135	0.041
-578.777	800.000	0.042	-0.146
-577.763	-200.000	-0.004	-0.420
-576.748	194.752	0.231	-0.351
-575.733	16.908	0.068	-0.054
-574.719	800.000	0.057	-0.163
-573.704	-79.436	-0.241	0.082
-572.690	450.117	-0.094	0.207
-571.675	55.167	-0.067	-0.065
-570.661	393.500	0.080	0.166
-569.646	150.467	0.136	0.185
-568.631	782.582	-0.104	-0.285
-567.617	64.445	0.147	0.148
-566.602	800.000	0.090	-0.319
-565.588	654.247	-0.010	0.026
-564.573	-141.881	0.293	-0.029
-563.558	129.446	0.042	0.053
-562.544	-200.000	0.013	-0.195
-561.529	-138.292	0.445	0.049
-560.515	142.084	-0.095	0.126
-559.500	589.819	0.025	-0.061
-558.485	-79.065	-0.190	0.065
-557.471	-57.306	-0.258	0.114
-556.456	334.704	0.046	0.089
-555.442	142.650	-0.292	0.388
-554.427	615.924	0.055	0.138
-553.412	548.032	-0.083	-0.199
-552.398	86.667	0.221	-0.244
-551.383	100.542	0.097	-0.113
-550.369	800.000	0.071	0.239
-549.354	631.026	-0.054	0.137
-548.339	800.000	0.006	-0.023
-547.325	204.101	-0.156	-0.242
-546.310	-52.192	-0.394	-0.183
-545.296	73.169	0.138	-0.145
-544.281	-154.388	0.081	0.005
-543.266	800.000	-0.085	-0.259
-542.252	-2.549	0.163	0.115
-541.237	259.773	0.168	-0.290
-540.223	-64.557	0.132	0.054
-539.208	-82.615	-0.156	-0.050
-538.193	-8.643	-0.069	-0.046
-537.179	-61.933	-0.276	-0.115
-536.164	-168.224	-0.092	-0.004
-535.150	21.599	0.138	0.112
-534.135	-76.765	0.104	-0.037
-533.121	49.589	-0.373	0.351
-532.106	800.000	0.122	0.341
-531.091	609.679	0.110	-0.276
-530.077	-200.000	0.008	-0.358
-529.062	261.984	-0.158	0.273
-528.048	105.774	-0.073	-0.086
-527.033	249.724	0.137	0.232
-526.018	-78.313	0.153	0.053
-525.004	-72.969	0.341	-0.126
-523.989	-136.530	-0.266	-0.031
-522.975	-171.745	0.273	0.009
-521.960	108.514	-0.105	-0.126
-520.945	-54.844	-0.080	-0.036
-519.931	-19.859	0.087	-0.054
-518.916	-30.597	0.352	0.199
-517.902	-200.000	0.031	0.271
-516.887	-38.061	-0.262	0.139
-515.872	800.000	0.028	-0.108
-514.858	302.075	-0.110	0.204
-513.843	106.127	0.134	0.159
-512.829	7.895	0.160	0.120
-511.814	-200.000	0.050	0.267
-510.799	-65.657	0.072	0.029
-509.785	-62.104	-0.176	0.074
-508.770	800.000	0.118	0.355
-507.756	-95.799	0.321	-0.086
-506.741	44.242	-0.389	0.357
-505.726	-66.216	0.457	0.182
-504.712	-80.455	-0.354	-0.118
-503.697	264.500	0.144	-0.251
-502.683	-108.311	-0.230	-0.050
-501.668	45.146	0.225	0.208
-500.653	-200.000	-0.010	0.140
-499.639	4.885	-0.202	-0.148
-498.624	3.105	-0.122	-0.089
-497.610	800.000	0.091	0.260
-496.595	63.432	-0.214	0.214
-495.581	800.000	-0.049	-0.192
-494.566	25.101	0.058	-0.048
-493.551	259.351	-0.083	0.144
-492.537	57.517	-0.208	0.204
-491.522	800.000	0.075	0.212
-490.508	-18.886	-0.359	-0.224
-489.493	-94.603	0.045	-0.012
-488.478	122.080	-0.099	0.123
-487.464	-96.333	0.200	-0.053
-486.449	-40.726	-0.149	0.077
-485.435	-42.829	-0.123	0.063
-484.420	-46.966	0.203	-0.099
-483.405	-24.645	0.158	0.094
-482.391	-94.439	-0.045	-0.012
-481.376	-156.130	0.087	-0.006
-480.362	-149.686	0.244	-0.019
-479.347	-103.899	0.423	0.099
-478.332	92.856	0.053	-0.060
-477.318	137.541	0.084	0.110
-476.303	-53.865	0.157	-0.072
-475.289	452.527	0.119	-0.263
-474.274	304.427	0.091	-0.168
-473.259	-3.229	-0.479	-0.334
-472.245	216.692	-0.027	-0.043
-471.230	311.414	0.149	0.279
-470.216	-135.523	0.248	-0.029
-469.201	-79.351	-0.286	-0.097
-468.186	30.063	0.100	0.085
-467.172	-66.207	-0.173	-0.069
-466.157	34.557	-0.173	-0.151
-465.143	125.626	-0.060	-0.076
-464.128	-87.975	0.240	0.072
-463.113	800.000	-0.032	0.101
-462.099	118.568	0.130	0.160
-461.084	-200.000	0.002	0.117
-460.070	800.000	-0.053	-0.209
-459.055	-200.000	0.012	-0.155
-458.040	167.090	-0.103	-0.146
-457.026	-200.000	-0.289	0.000
-456.011	44.691	-0.197	0.181
-454.997	-155.213	-0.150	0.010
-453.982	-110.995	0.201	-0.041
-452.968	5.958	-0.340	0.251
-451.953	65.016	0.296	-0.298
-450.938	190.403	-0.073	0.110
-449.924	61.454	0.251	0.249
-448.909	-200.000	0.019	-0.129
-447.895	-29.613	-0.125	-0.071
-446.880	-200.000	0.021	0.114
-445.865	-120.868	-0.224	-0.038
-444.851	-1.942	-0.055	0.039
-443.836	-108.426	0.296	0.064
-442.822	-200.000	0.064	-0.282
-441.807	88.215	0.256	-0.283
-440.792	-101.294	0.096	0.023
-439.778	-29.028	-0.054	0.031
-438.763	112.821	-0.037	-0.045
-437.749	-49.873	0.161	-0.076
-436.734	-145.524	0.151	-0.014
-435.719	-172.247	0.095	-0.003
-434.705	-14.120	0.101	0.065
-433.690	-95.527	0.180	0.048
-432.676	-74.318	0.157	-0.057
-431.661	404.576	0.105	0.220
-430.646	57.239	0.062	0.060
-429.632	-200.000	-0.022	-0.145
-428.617	-86.758	0.119	0.036
-427.603	-200.000	0.056	-0.283
-426.588	-65.964	-0.211	0.084
-425.573	667.290	0.095	0.246
-424.559	82.784	-0.211	0.229
-423.544	31.144	0.115	0.098
-422.530	-177.728	0.141	0.003
-421.515	-66.106	0.234	0.093
-420.500	-200.000	0.028	0.165
-419.486	-166.695	-0.059	0.002
-418.471	-200.000	-0.011	-0.511
-417.457	81.025	-0.178	-0.192
-416.442	-32.241	-0.125	0.070
-415.428	39.341	0.025	0.022
-414.413	-125.012	-0.166	-0.025
-413.398	94.550	-0.219	0.247
-412.384	605.168	0.077	-0.191
-411.369	750.281	-0.057	-0.153
-410.355	-200.000	-0.024	0.282
-409.340	-81.386	0.146	-0.048
-408.325	800.000	-0.094	-0.349
-407.311	-161.689	0.299	0.015
-406.296	-103.461	-0.158	-0.037
-405.282	579.555	0.065	0.159
-404.267	800.000	0.057	-0.186
-403.252	-200.000	0.019	0.106
-402.238	800.000	-0.018	-0.050
-401.223	-0.764	0.141	-0.099
-400.209	36.143	-0.031	0.028
-399.194	-19.965	0.228	-0.140
-398.179	-128.535	-0.538	0.076
-397.165	-28.761	0.256	-0.147
-396.150	-200.000	-0.043	0.205
-395.136	722.057	-0.062	0.165
-394.121	-200.000	-0.017	0.108
-393.106	800.000	-0.114	-0.375
-392.092	116.253	0.232	-0.283
-391.077	-166.207	-0.354	0.015
-390.063	36.698	0.138	-0.121
-389.048	-200.000	-0.033	-0.261
-388.033	131.438	0.057	0.072
-387.019	-200.000	0.032	-0.211
-386.004	144.282	0.080	0.106
-384.990	37.842	0.208	0.184
-383.975	-69.185	0.419	-0.160
-382.960	800.000	0.111	-0.325
-381.946	278.176	0.164	-0.291
-380.931	-200.000	0.009	0.112
-379.917	48.465	-0.041	-0.038
-378.902	479.306	0.150	-0.339
-377.888	341.495	-0.163	-0.316
-376.873	74.179	-0.136	-0.142
-375.858	-72.573	0.321	0.118
-374.844	288.376	-0.186	-0.334
-373.829	-200.000	-0.010	0.282
-372.815	-66.529	-0.134	-0.053
-371.800	-200.000	-0.017	-0.123
-370.785	-200.000	0.079	-0.443
-369.771	80.566	0.128	0.137
-368.756	461.062	-0.070	-0.155
-367.742	40.384	-0.177	0.159
-366.727	-71.143	0.147	0.055
-365.712	800.000	-0.056	0.160
-364.698	113.368	0.184	-0.222
-363.683	152.634	0.078	0.107
-362.669	144.559	-0.111	0.148
-361.654	307.880	-0.077	-0.143
-360.639	-36.316	0.141	-0.075
-359.625	66.073	-0.153	-0.155
-358.610	271.969	0.014	-0.025
-357.596	-200.000	-0.043	-0.312
-356.581	92.792	-0.122	0.137
-355.566	-70.163	-0.122	-0.046
-354.552	549.848	0.092	0.220
-353.537	-200.000	-0.009	0.136
-352.523	-142.009	0.146	0.014
-351.508	283.077	0.079	-0.140
-350.493	26.284	-0.215	0.179
-349.479	-90.473	-0.145	-0.042
-348.464	111.568	-0.063	-0.075
-347.450	-147.525	-0.083	0.007
-346.435	-51.827	0.201	0.093
-345.420	68.314	0.082	-0.084
-344.406	-200.000	0.078	0.376
-343.391	-15.039	-0.048	-0.031
-342.377	-200.000	0.081	0.376
-341.362	79.860	-0.196	-0.209
-340.348	800.000	-0.015	-0.053
-339.333	-200.000	-0.002	0.157
-338.318	574.730	-0.102	0.246
-337.304	-122.112	-0.163	0.027
-336.289	-4.513	0.096	-0.066
-335.275	-34.088	0.179	-0.098
-334.260	22.674	-0.381	-0.310
-333.245	-187.209	-0.254	-0.003
-332.231	10.583	-0.103	-0.078
-331.216	553.872	0.086	-0.205
-330.202	-123.356	-0.176	-0.028
-329.187	81.156	-0.095	-0.101
-328.172	-85.584	0.312	0.096
-327.158	-162.830	0.104	0.005
-326.143	800.000	0.047	0.156
-325.129	-0.231	-0.251	0.177
-324.114	54.731	-0.070	0.067
-323.099	-200.000	0.060	0.313
-322.085	-96.221	-0.252	-0.066
-321.070	232.742	0.096	0.157
-320.056	-78.630	0.156	0.053
-319.041	800.000	0.090	0.251
-318.026	29.815	-0.123	0.104
-317.012	59.726	-0.238	-0.233
-315.997	50.787	0.097	0.091
-314.983	186.592	0.148	-0.219
-313.968	-200.000	-0.027	0.244
-312.953	-97.477	-0.280	0.072
-311.939	-63.013	-0.218	-0.089
-310.924	164.466	-0.071	0.100
-309.910	-40.983	-0.192	0.098
-308.895	133.858	0.219	-0.281
-307.880	-105.513	-0.110	0.025
-306.866	143.366	-0.108	-0.142
-305.851	-5.218	0.128	0.088
-304.837	-8.265	-0.165	0.110
-303.822	-50.596	-0.161	-0.075
-302.807	-33.652	-0.101	-0.055
-301.793	-18.171	-0.185	0.115
-300.778	-102.544	0.151	-0.036
-299.764	99.532	0.123	-0.142
-298.749	800.000	0.067	-0.193
-297.735	800.000	0.056	0.189
-296.720	-133.968	-0.235	0.029
-295.705	44.900	0.154	-0.140
-294.691	-63.412	0.297	0.121
-293.676	19.909	-0.324	-0.259
-292.662	-12.812	-0.111	-0.072
-291.647	-143.509	0.170	-0.016
-290.632	107.774	0.048	-0.057
-289.618	567.295	0.091	0.219
-288.603	85.948	-0.114	0.124
-287.589	-200.000	-0.004	0.047
-286.574	-87.880	-0.245	-0.073
-285.559	546.146	-0.075	-0.177
-284.545	-200.000	0.018	0.289
-283.530	-172.179	0.328	-0.010
-282.516	615.318	-0.038	0.094
-281.501	-200.000	0.129	0.000
-280.486	622.837	-0.023	-0.058
-279.472	-107.761	-0.336	0.073
-278.457	83.483	-0.103	0.112
-277.443	71.640	0.134	0.138
-276.428	143.660	0.245	0.323
-275.413	-15.965	-0.323	0.204
-274.399	-1.759	0.203	0.142
-273.384	-27.184	0.071	-0.041
-272.370	320.543	0.181	0.340
-271.355	655.963	0.037	-0.093
-270.340	800.000	-0.096	-0.382
-269.326	-200.000	-0.035	-0.435
-268.311	-120.193	-0.065	-0.011
-267.297	-183.976	0.281	0.005
-266.282	103.222	-0.028	0.033
-265.267	-181.501	0.180	0.003
-264.253	238.790	-0.206	0.340
-263.238	-54.144	-0.283	0.127
-262.224	-14.592	-0.244	-0.155
-261.209	-6.210	-0.289	0.195
-260.195	-52.626	0.275	0.126
-259.180	536.661	0.051	0.119
-258.165	-20.913	0.265	0.161
-257.151	800.000	0.036	-0.125
-256.136	38.396	-0.132	-0.117
-255.122	457.519	-0.149	-0.329
-254.107	65.215	-0.134	0.134
-253.092	-111.878	-0.144	-0.029
-252.078	357.089	-0.068	0.135
-251.063	-49.042	-0.209	0.099
-250.049	88.292	-0.024	-0.027
-249.034	34.618	0.219	0.189
-248.019	-117.526	-0.047	-0.008
-247.005	-200.000	0.009	-0.321
-245.990	457.070	-0.038	-0.084
-244.976	-200.000	0.033	0.262
-243.961	-25.403	0.042	0.025
-242.946	-19.262	-0.146	0.089
-241.932	255.975	0.181	0.308
-240.917	-49.366	0.375	0.177
-239.903	-39.258	-0.133	-0.069
-238.888	335.181	0.120	0.231
-237.873	-166.653	0.263	0.011
-236.859	-69.910	-0.251	0.095
-235.844	-48.031	-0.259	-0.124
-234.830	-145.826	-0.129	-0.011
-233.815	295.647	0.026	0.046
-232.800	173.332	0.124	-0.177
-231.786	-69.815	0.231	0.087
-230.771	-92.197	-0.386	-0.108
-229.757	800.000	-0.067	0.266
-228.742	-62.827	0.222	0.091
-227.727	-200.000	-0.018	0.112
-226.713	152.137	-0.216	0.291
-225.698	-107.188	-0.284	-0.062
-224.684	527.505	0.149	-0.346
-223.669	-200.000	0.047	-0.287
-222.655	-26.038	-0.235	-0.137
-221.640	20.819	-0.230	-0.185
-220.625	-200.000	-0.023	-0.179
-219.611	438.422	0.121	-0.262
-218.596	147.262	0.076	-0.101
-217.582	-44.977	-0.103	-0.051
-216.567	100.733	-0.079	-0.090
-215.552	-98.247	0.101	-0.026
-214.538	278.390	0.185	0.326
-213.523	-82.484	0.261	0.084
-212.509	800.000	-0.027	-0.084
-211.494	405.742	0.067	-0.141
-210.479	-13.299	-0.190	-0.122
-209.465	-53.901	0.183	0.083
-208.450	24.763	-0.284	0.233
-207.436	677.984	0.164	0.423
-206.421	107.860	-0.112	-0.132
-205.406	-139.130	-0.342	-0.037
-204.392	-73.880	0.204	0.073
-203.377	-200.000	0.014	-0.156
-202.363	507.677	-0.058	0.133
-201.348	-74.729	0.264	0.094
-200.333	-106.212	0.119	0.026
-199.319	-16.870	-0.202	-0.126
-198.304	-176.642	-0.225	0.006
-197.290	800.000	0.103	0.390
-196.275	135.195	0.091	0.117
-195.260	-200.000	-0.023	0.116
-194.246	-9.352	0.055	0.036
-193.231	-200.000	-0.009	-0.341
-192.217	36.182	-0.328	0.285
-191.202	372.313	0.038	0.076
-190.187	-200.000	0.048	-0.248
-189.173	-102.176	-0.183	0.044
-188.158	-15.612	-0.128	0.081
-187.144	-126.655	0.105	-0.015
-186.129	121.993	0.059	0.073
-185.114	-106.968	0.318	0.070
-184.100	-24.060	0.110	0.065
-183.085	-61.200	-0.261	0.109
-182.071	800.000	0.054	0.206
-181.056	35.497	-0.246	-0.213
-180.042	-200.000	-0.020	0.382
-179.027	750.721	0.166	0.442
-178.012	-200.000	-0.024	-0.304
-176.998	350.786	-0.251	0.491
-175.983	162.728	-0.088	0.122
-174.969	241.558	0.089	-0.147
-173.954	-89.117	-0.139	0.041
-172.939	390.599	-0.071	0.146
-171.925	3.798	0.071	-0.051
-170.910	-122.237	-0.335	-0.054
-169.896	-200.000	0.035	0.213
-168.881	649.325	-0.058	-0.147
-167.866	30.436	0.089	-0.075
-166.852	144.017	0.138	-0.182
-165.837	-131.421	-0.211	-0.028
-164.823	-166.245	0.170	0.007
-163.808	74.278	-0.228	0.236
-162.793	-200.000	-0.016	-0.176
-161.779	-128.030	-0.140	-0.020
-160.764	-30.443	0.072	-0.041
-159.750	-200.000	-0.031	-0.218
-158.735	170.642	0.171	-0.241
-157.720	128.673	0.032	-0.041
-156.706	-62.820	-0.171	0.070
-155.691	-15.753	-0.324	0.203
-154.677	133.396	0.241	0.307
-153.662	-25.794	0.390	0.227
-152.647	263.057	0.084	-0.144
-151.633	-13.137	-0.258	0.165
-150.618	7.953	-0.345	0.255
-149.604	-200.000	0.010	-0.326
-148.589	388.067	0.143	0.291
-147.574	-200.000	0.011	-0.154
-146.560	-200.000	0.108	-0.471
-145.545	321.426	0.170	-0.318
-144.531	-108.068	-0.014	0.003
-143.516	-200.000	-0.011	0.195
-142.502	-160.961	-0.180	0.009
-141.487	-158.771	-0.159	0.009
-140.472	-53.538	0.075	-0.034
-139.458	339.302	0.024	-0.045
-138.443	-29.217	-0.024	-0.014
-137.429	-116.079	-0.073	0.013
-136.414	-200.000	-0.016	0.172
-135.399	800.000	-0.035	0.124
-134.385	742.474	0.118	0.313
-133.370	176.651	0.183	-0.262
-132.356	-30.037	0.129	-0.073
-131.341	-200.000	-0.058	0.259
-130.326	-200.000	-0.005	0.197
-129.312	-200.000	-0.014	0.105
-128.297	29.055	0.272	0.227
-127.283	-180.357	0.206	0.004
-126.268	6.805	-0.221	0.162
-125.253	15.728	-0.140	-0.109
-124.239	194.548	-0.125	0.187
-123.224	758.583	-0.078	-0.209
-122.210	-200.000	0.036	0.440
-121.195	-199.607	0.307	0.002
-120.180	2.407	-0.083	-0.059
