DTS Sentinel unit serial number:	SN413079Multiplexer serial number:	ORYXHardware model number:	OX4-SRSoftware version number:	ORYX F/W v4.00 Oryx Data Collector v3.7.2.0data status	okinstallation	princeton_trtdifferential loss correction	single-endedforward channel	channel 2reverse channel	N/Adate	2019/09/13time	18:35:35forward acquisition time	60.00reverse acquisition time	0.00gamma	496.2192k internal	0.2322k external	0.2322temperature offset calibration	1.0190default loss term (dB/km)	0.3790temperature slope calibration	1.0000multiplexer offset coefficient	1.0000multiplexer slope coefficient	1.0000fibre end	0.00T internal ref (°C)	33.12T ext. ref 1 (°C)	4.22T ext. ref 2 (°C)	26.16length (m)	temperature (°C)	Stokes	anti-Stokes-747.200	-47.691	0.058	0.029
-746.185	144.573	-0.089	0.120
-745.171	677.644	0.016	-0.041
-744.156	14.519	-0.206	0.162
-743.142	-79.119	0.352	0.121
-742.127	166.272	-0.048	0.069
-741.112	665.120	-0.061	-0.158
-740.098	-200.000	-0.010	-0.221
-739.083	-127.231	0.183	0.027
-738.069	-109.323	-0.258	0.055
-737.054	334.887	-0.202	-0.395
-736.039	-83.511	-0.395	-0.128
-735.025	-200.000	0.059	-0.417
-734.010	55.007	0.116	0.113
-732.996	402.707	0.029	-0.063
-731.981	124.528	-0.019	-0.024
-730.966	16.810	-0.081	0.065
-729.952	800.000	0.077	-0.229
-728.937	-69.154	-0.083	0.032
-727.923	266.643	0.160	-0.282
-726.908	-60.802	-0.047	-0.020
-725.894	15.568	-0.217	0.172
-724.879	8.643	-0.107	-0.081
-723.864	-31.064	-0.166	-0.095
-722.850	488.786	0.117	0.270
-721.835	285.102	0.111	-0.202
-720.821	414.975	-0.097	-0.209
-719.806	39.536	0.172	-0.155
-718.791	-133.363	-0.155	-0.020
-717.777	-200.000	0.001	-0.078
-716.762	800.000	0.048	0.154
-715.748	-200.000	0.005	0.102
-714.733	729.627	-0.093	0.250
-713.718	-29.658	-0.307	-0.177
-712.704	800.000	0.050	0.209
-711.689	800.000	0.032	-0.131
-710.675	32.650	0.107	0.094
-709.660	800.000	0.030	0.121
-708.645	-147.380	-0.421	0.036
-707.631	-70.448	0.061	-0.023
-706.616	33.671	0.038	0.033
-705.602	148.264	0.215	0.293
-704.587	795.800	-0.062	-0.171
-703.572	800.000	-0.074	-0.258
-702.558	-200.000	0.080	0.358
-701.543	123.715	0.063	-0.080
-700.529	655.413	-0.031	-0.081
-699.514	73.451	-0.136	0.144
-698.499	289.911	-0.027	-0.049
-697.485	302.116	-0.050	0.094
-696.470	31.996	-0.279	-0.243
-695.456	-200.000	0.030	0.244
-694.441	-200.000	0.048	0.346
-693.426	25.936	-0.360	0.303
-692.412	-94.172	-0.325	0.090
-691.397	463.011	0.183	-0.411
-690.383	9.147	-0.217	-0.165
-689.368	800.000	-0.054	0.222
-688.354	86.363	0.118	-0.131
-687.339	93.793	-0.108	-0.124
-686.324	192.585	0.197	-0.300
-685.310	-200.000	0.028	-0.265
-684.295	237.854	-0.172	0.287
-683.281	-200.000	-0.023	0.243
-682.266	-143.285	-0.171	-0.017
-681.251	-72.374	-0.095	-0.035
-680.237	74.583	0.099	-0.105
-679.222	191.587	0.177	-0.269
-678.208	-67.092	-0.135	-0.054
-677.193	-146.528	-0.383	-0.034
-676.178	99.296	0.294	0.343
-675.164	303.065	-0.031	-0.058
-674.149	101.893	0.100	-0.117
-673.135	107.699	-0.181	-0.218
-672.120	313.427	-0.095	0.181
-671.105	800.000	-0.090	-0.300
-670.091	-119.987	-0.411	0.071
-669.076	-157.754	-0.082	-0.005
-668.062	-110.341	-0.058	-0.012
-667.047	-200.000	0.044	0.347
-666.032	-97.870	-0.160	-0.042
-665.018	-69.825	-0.021	-0.008
-664.003	-200.000	-0.066	-0.368
-662.989	-27.656	-0.107	0.063
-661.974	-200.000	0.013	0.132
-660.959	-111.701	-0.379	-0.077
-659.945	185.431	-0.109	0.164
-658.930	42.606	0.177	-0.162
-657.916	-90.299	-0.151	-0.044
-656.901	345.369	0.199	-0.394
-655.886	-72.159	-0.193	0.072
-654.872	29.996	-0.240	-0.206
-653.857	-0.673	0.217	0.155
-652.843	-63.202	0.240	0.100
-651.828	-61.971	-0.108	0.046
-650.814	329.057	0.094	0.183
-649.799	-200.000	-0.014	0.087
-648.784	383.356	-0.057	-0.117
-647.770	-84.695	0.253	-0.080
-646.755	-200.000	-0.007	-0.242
-645.741	-22.332	-0.211	-0.129
-644.726	98.217	0.377	0.437
-643.711	394.958	-0.223	-0.468
-642.697	-200.000	0.032	-0.339
-641.682	-58.946	-0.472	-0.205
-640.668	50.895	0.112	0.107
-639.653	-98.188	0.134	0.035
-638.638	800.000	-0.007	-0.030
-637.624	-134.745	0.140	-0.017
-636.609	-200.000	-0.043	-0.241
-635.595	764.659	-0.077	-0.210
-634.580	800.000	0.032	-0.136
-633.565	571.699	0.133	-0.326
-632.551	386.677	-0.061	-0.127
-631.536	343.618	0.166	0.327
-630.522	404.179	-0.064	0.136
-629.507	340.159	-0.066	0.129
-628.492	-200.000	-0.086	-0.385
-627.478	405.853	0.053	-0.112
-626.463	35.924	0.143	-0.127
-625.449	-91.106	0.206	-0.059
-624.434	452.037	-0.089	0.197
-623.419	-200.000	0.011	0.393
-622.405	-200.000	0.030	0.354
-621.390	-200.000	0.040	-0.328
-620.376	-96.369	0.142	-0.038
-619.361	-200.000	0.006	-0.283
-618.346	-89.109	-0.129	-0.038
-617.332	-200.000	-0.015	-0.176
-616.317	246.650	-0.097	0.164
-615.303	118.383	0.050	0.062
-614.288	147.299	0.095	-0.128
-613.273	-152.310	-0.431	-0.031
-612.259	-100.365	-0.261	-0.065
-611.244	-54.787	0.108	-0.049
-610.230	-8.633	-0.216	0.146
-609.215	44.906	-0.038	0.035
-608.201	-120.065	-0.306	-0.053
-607.186	800.000	-0.125	-0.447
-606.171	-75.258	-0.096	0.034
-605.157	203.817	-0.091	-0.142
-604.142	-105.090	-0.348	0.080
-603.128	212.873	0.174	0.276
-602.113	31.177	-0.106	0.092
-601.098	-1.289	-0.210	-0.149
-600.084	-121.728	0.217	-0.036
-599.069	-161.756	-0.225	0.011
-598.055	52.088	0.178	-0.171
-597.040	276.817	-0.115	0.205
-596.025	-50.108	-0.110	-0.053
-595.011	272.985	0.144	0.255
-593.996	-189.755	-0.245	-0.003
-592.982	-133.137	-0.254	0.032
-591.967	467.260	-0.101	0.226
-590.952	-36.128	-0.050	-0.027
-589.938	128.684	0.093	-0.119
-588.923	17.125	0.098	0.078
-587.909	-147.142	-0.199	0.017
-586.894	-125.162	-0.159	-0.024
-585.879	-98.461	0.215	0.055
-584.865	-49.423	-0.159	-0.076
-583.850	800.000	-0.105	-0.377
-582.836	-123.724	-0.083	-0.013
-581.821	190.038	0.057	-0.086
-580.806	125.528	-0.078	-0.099
-579.792	-126.054	0.224	0.034
-578.777	-79.178	0.268	0.091
-577.763	-150.512	-0.153	0.012
-576.748	193.714	-0.117	-0.178
-575.733	-94.305	-0.359	0.098
-574.719	-107.462	0.344	0.076
-573.704	-34.730	-0.193	-0.106
-572.690	737.862	0.035	0.095
-571.675	-200.000	-0.000	-0.150
-570.661	-200.000	-0.009	0.131
-569.646	-150.019	0.257	0.020
-568.631	169.906	0.151	0.217
-567.617	111.196	0.143	0.173
-566.602	435.317	0.123	0.269
-565.588	-200.000	0.016	-0.209
-564.573	-5.992	-0.148	0.101
-563.558	483.884	0.124	-0.283
-562.544	91.785	0.114	-0.129
-561.529	150.903	0.063	-0.086
-560.515	-139.115	0.421	-0.046
-559.500	-200.000	0.025	-0.183
-558.485	96.981	0.099	-0.114
-557.471	256.604	0.023	0.039
-556.456	101.314	0.176	0.205
-555.442	-8.795	0.113	-0.076
-554.427	800.000	-0.018	-0.077
-553.412	-83.216	-0.140	-0.045
-552.398	175.650	-0.048	-0.069
-551.383	97.887	0.143	-0.165
-550.369	-167.049	-0.492	0.020
-549.354	272.731	-0.165	0.292
-548.339	-124.846	-0.102	0.016
-547.325	64.735	-0.118	0.119
-546.310	800.000	-0.025	0.078
-545.296	-200.000	-0.012	-0.141
-544.281	-200.000	0.019	-0.096
-543.266	-29.451	-0.352	0.202
-542.252	-111.299	-0.266	-0.054
-541.237	-6.871	-0.157	0.107
-540.223	38.620	0.149	-0.133
-539.208	800.000	-0.055	-0.236
-538.193	800.000	-0.107	-0.323
-537.179	-131.062	-0.236	-0.031
-536.164	259.179	-0.114	0.198
-535.150	-200.000	0.035	0.161
-534.135	-65.132	-0.114	0.046
-533.121	8.383	-0.033	-0.025
-532.106	-80.775	-0.261	0.087
-531.091	423.215	-0.120	-0.257
-530.077	800.000	-0.062	-0.209
-529.062	-137.069	0.380	-0.044
-528.048	-163.673	-0.118	-0.006
-527.033	-114.285	-0.179	-0.035
-526.018	-118.241	-0.040	-0.007
-525.004	81.691	0.079	-0.086
-523.989	-19.083	-0.203	-0.127
-522.975	319.571	0.170	-0.323
-521.960	717.711	0.055	-0.145
-520.945	78.154	0.267	-0.285
-519.931	9.572	-0.400	0.304
-518.916	-63.869	-0.326	0.134
-517.902	-121.032	0.220	0.037
-516.887	-65.767	0.274	0.110
-515.872	-81.049	-0.151	-0.050
-514.858	-49.726	0.225	-0.107
-513.843	417.422	0.155	-0.331
-512.829	-80.768	0.330	-0.110
-511.814	276.002	-0.042	0.075
-510.799	-39.671	0.162	0.085
-509.785	46.340	-0.133	0.123
-508.770	104.929	-0.173	-0.205
-507.756	401.747	0.083	0.174
-506.741	-0.183	-0.226	0.161
-505.726	145.304	0.180	0.241
-504.712	-200.000	0.030	0.211
-503.697	800.000	0.065	-0.189
-502.683	-197.219	-0.282	0.002
-501.668	-56.417	-0.042	0.019
-500.653	800.000	0.017	-0.061
-499.639	45.211	-0.300	-0.276
-498.624	219.761	0.114	0.183
-497.610	-52.350	0.159	-0.074
-496.595	-10.524	0.103	0.068
-495.581	-176.011	-0.238	0.006
-494.566	690.267	-0.121	-0.317
-493.551	6.404	-0.063	0.047
-492.537	112.536	0.165	-0.200
-491.522	429.650	-0.093	-0.201
-490.508	-112.699	0.162	0.032
-489.493	162.939	-0.107	0.150
-488.478	-42.248	0.228	0.116
-487.464	-200.000	0.024	0.197
-486.449	40.188	-0.150	0.135
-485.435	-114.174	0.236	0.046
-484.420	-44.246	0.247	0.124
-483.405	612.704	-0.061	0.152
-482.391	-113.667	-0.126	0.025
-481.376	800.000	0.081	0.350
-480.362	229.417	-0.013	0.022
-479.347	37.210	0.014	-0.013
-478.332	-152.785	-0.289	0.021
-477.318	-200.000	0.023	-0.124
-476.303	600.452	-0.092	-0.228
-475.289	567.538	-0.103	-0.251
-474.274	-55.072	-0.185	-0.083
-473.259	-120.040	0.188	0.032
-472.245	211.125	0.203	-0.319
-471.230	345.445	0.019	0.037
-470.216	273.217	-0.155	0.275
-469.201	117.213	-0.111	-0.137
-468.186	-65.998	-0.108	-0.043
-467.172	-200.000	-0.022	-0.098
-466.157	-56.769	-0.228	-0.101
-465.143	30.833	-0.050	-0.043
-464.128	145.623	-0.111	0.149
-463.113	-2.357	-0.198	0.139
-462.099	-109.500	0.165	-0.035
-461.084	19.092	0.076	0.061
-460.070	742.594	0.080	-0.214
-459.055	-179.127	0.323	-0.007
-458.040	-154.896	-0.620	-0.041
-457.026	-97.251	-0.192	0.050
-456.011	136.258	0.077	-0.101
-454.997	291.166	-0.082	0.148
-453.982	25.942	0.226	0.188
-452.968	112.198	0.320	0.387
-451.953	-85.355	-0.289	0.090
-450.938	83.414	0.153	0.166
-449.924	-24.886	-0.167	-0.099
-448.909	101.632	0.203	0.236
-447.895	-122.594	0.198	0.032
-446.880	-200.000	-0.004	0.091
-445.865	124.920	0.283	0.356
-444.851	66.574	0.201	-0.204
-443.836	800.000	0.029	-0.115
-442.822	-83.875	0.441	0.140
-441.807	-7.229	-0.036	0.024
-440.792	800.000	0.065	-0.181
-439.778	-41.375	0.118	-0.061
-438.763	-200.000	-0.016	0.108
-437.749	-119.087	-0.064	0.011
-436.734	532.050	-0.109	-0.258
-435.719	-200.000	0.015	-0.102
-434.705	532.593	0.083	0.197
-433.690	-124.841	0.120	0.018
-432.676	40.077	-0.094	0.084
-431.661	-76.778	0.131	-0.046
-430.646	2.295	0.136	0.098
-429.632	223.227	0.261	0.420
-428.617	465.021	0.155	0.347
-427.603	452.161	-0.109	0.240
-426.588	-151.430	-0.610	-0.045
-425.573	122.678	0.072	0.090
-424.559	131.759	0.064	0.082
-423.544	212.883	-0.133	0.210
-422.530	-113.493	-0.357	0.070
-421.515	-200.000	-0.007	-0.222
-420.500	12.134	-0.219	0.168
-419.486	-2.098	-0.191	0.134
-418.471	4.850	0.215	-0.157
-417.457	705.175	-0.194	-0.511
-416.442	-200.000	-0.018	-0.249
-415.428	-114.188	-0.265	-0.051
-414.413	-200.000	-0.026	-0.213
-413.398	-9.086	-0.130	-0.087
-412.384	191.956	-0.095	-0.142
-411.369	519.574	0.086	0.202
-410.355	-4.481	-0.180	-0.124
-409.340	800.000	-0.111	-0.393
-408.325	-82.970	-0.292	0.094
-407.311	-33.086	-0.205	0.113
-406.296	-200.000	-0.020	0.097
-405.282	-42.986	0.147	-0.074
-404.267	-66.811	0.085	-0.034
-403.252	800.000	0.006	-0.019
-402.238	-7.320	-0.183	-0.124
-401.223	13.570	-0.252	-0.195
-400.209	25.279	0.255	0.211
-399.194	143.733	-0.094	0.124
-398.179	-48.914	-0.301	-0.144
-397.165	27.380	-0.165	0.138
-396.150	140.206	-0.072	0.094
-395.136	258.723	-0.119	-0.204
-394.121	-200.000	0.007	0.187
-393.106	223.510	0.243	0.391
-392.092	-97.527	-0.385	-0.100
-391.077	113.753	0.241	0.292
-390.063	104.612	0.231	-0.271
-389.048	-200.000	0.014	-0.306
-388.033	187.350	-0.020	0.029
-387.019	219.252	0.142	0.226
-386.004	241.683	0.061	-0.102
-384.990	85.372	0.196	-0.214
-383.975	78.161	0.108	0.115
-382.960	-200.000	-0.041	-0.200
-381.946	5.528	-0.176	-0.130
-380.931	161.749	-0.086	0.120
-379.917	180.538	-0.085	-0.124
-378.902	800.000	-0.069	0.192
-377.888	-55.141	-0.209	0.093
-376.873	487.679	0.191	0.435
-375.858	-24.734	0.107	-0.063
-374.844	19.989	0.051	-0.041
-373.829	20.750	0.082	-0.066
-372.815	283.966	0.117	-0.209
-371.800	88.635	-0.090	-0.100
-370.785	-200.000	0.010	0.050
-369.771	209.673	0.113	-0.176
-368.756	-99.740	-0.361	-0.090
-367.742	-43.770	0.267	0.134
-366.727	-48.739	0.385	0.184
-365.712	772.143	0.021	-0.056
-364.698	237.230	-0.137	-0.227
-363.683	-61.800	0.197	-0.082
-362.669	164.526	-0.156	-0.219
-361.654	32.231	0.132	-0.113
-360.639	640.675	-0.094	0.237
-359.625	331.673	0.053	-0.101
-358.610	-45.794	0.263	-0.129
-357.596	51.815	-0.073	0.069
-356.581	-135.672	-0.070	-0.008
-355.566	38.557	0.054	0.048
-354.552	-200.000	0.039	0.330
-353.537	-61.336	-0.088	-0.037
-352.523	-200.000	0.044	-0.203
-351.508	-21.323	0.090	-0.055
-350.493	-76.069	0.225	-0.079
-349.479	-200.000	0.044	0.250
-348.464	-51.486	0.293	-0.136
-347.450	418.524	0.118	-0.252
-346.435	-160.826	0.065	-0.003
-345.420	-164.767	-0.201	-0.009
-344.406	298.642	-0.061	0.111
-343.391	800.000	-0.107	-0.337
-342.377	3.075	-0.236	-0.171
-341.362	122.770	-0.209	-0.260
-340.348	-200.000	-0.021	0.096
-339.333	-90.768	-0.228	-0.065
-338.318	119.910	0.055	-0.067
-337.304	648.775	-0.081	-0.206
-336.289	427.345	-0.056	-0.121
-335.275	-200.000	-0.048	-0.311
-334.260	-79.373	0.240	-0.081
-333.245	-78.853	0.182	-0.062
-332.231	-137.180	0.312	-0.035
-331.216	230.118	-0.179	-0.291
-330.202	361.333	0.128	0.255
-329.187	-200.000	0.049	0.383
-328.172	-14.825	0.099	-0.063
-327.158	-200.000	-0.021	0.144
-326.143	-20.188	-0.279	0.171
-325.129	-189.010	0.104	0.001
-324.114	-94.938	0.388	-0.104
-323.099	-138.270	-0.102	-0.011
-322.085	800.000	-0.028	-0.103
-321.070	-71.675	0.222	0.082
-320.056	737.177	-0.076	-0.204
-319.041	800.000	-0.074	-0.216
-318.026	180.666	-0.146	-0.213
-317.012	800.000	0.097	0.343
-315.997	-123.844	0.254	-0.040
-314.983	252.478	0.083	0.141
-313.968	-72.116	0.103	-0.038
-312.953	-117.033	0.328	-0.059
-311.939	-200.000	-0.041	0.259
-310.924	168.924	0.155	-0.219
-309.910	-200.000	0.002	-0.241
-308.895	-200.000	0.041	0.266
-307.880	275.516	0.250	0.440
-306.866	393.342	0.098	0.203
-305.851	-3.789	-0.271	-0.187
-304.837	-200.000	0.033	0.168
-303.822	11.662	-0.248	0.189
-302.807	190.721	0.121	-0.181
-301.793	-189.251	0.140	0.002
-300.778	-22.312	0.218	0.131
-299.764	50.751	-0.181	0.170
-298.749	68.144	0.178	0.181
-297.735	-134.264	-0.380	-0.046
-296.720	-5.459	0.189	-0.129
-295.705	-200.000	0.042	0.218
-294.691	-12.274	0.100	-0.065
-293.676	-1.644	0.196	0.137
-292.662	130.938	0.045	0.057
-291.647	800.000	0.134	0.413
-290.632	-200.000	0.064	0.544
-289.618	-23.095	0.098	0.059
-288.603	-18.477	0.204	-0.126
-287.589	800.000	-0.023	-0.088
-286.574	88.829	0.105	0.116
-285.559	-87.581	0.027	-0.008
-284.545	-80.239	-0.322	0.107
-283.530	396.484	-0.107	0.222
-282.516	45.435	-0.019	-0.018
-281.501	800.000	-0.028	0.117
-280.486	95.360	0.076	0.086
-279.472	345.464	-0.125	0.244
-278.457	195.957	0.088	0.132
-277.443	800.000	0.048	0.158
-276.428	-91.576	-0.393	-0.111
-275.413	-200.000	-0.022	-0.384
-274.399	-113.447	-0.205	0.040
-273.384	160.306	0.164	-0.227
-272.370	-164.177	-0.145	-0.007
-271.355	250.298	0.155	-0.261
-270.340	-108.126	-0.249	-0.053
-269.326	-100.267	0.075	-0.019
-268.311	278.879	0.055	-0.097
-267.297	17.418	0.071	0.056
-266.282	-200.000	-0.020	0.163
-265.267	-83.189	0.271	-0.086
-264.253	-77.458	0.097	-0.034
-263.238	24.023	-0.259	0.212
-262.224	-177.053	0.313	0.008
-261.209	800.000	-0.062	0.251
-260.195	-21.020	0.112	-0.068
-259.180	-7.348	-0.164	0.110
-258.165	-104.980	-0.028	-0.006
-257.151	-91.615	-0.220	-0.062
-256.136	69.558	0.148	0.151
-255.122	-165.972	0.284	0.012
-254.107	110.620	0.101	-0.120
-253.092	-200.000	0.058	0.285
-252.078	31.418	-0.224	0.191
-251.063	800.000	0.068	0.235
-250.049	-60.576	-0.162	-0.068
-249.034	-119.633	0.264	0.045
-248.019	23.761	0.212	0.173
-247.005	195.200	0.240	-0.361
-245.990	372.859	-0.080	-0.161
-244.976	153.894	-0.099	-0.135
-243.961	-200.000	-0.034	-0.167
-242.946	-200.000	-0.003	-0.076
-241.932	132.025	0.061	0.078
-240.917	-148.118	0.076	-0.006
-239.903	800.000	0.162	0.466
-238.888	43.986	0.213	-0.194
-237.873	-39.444	0.118	-0.061
-236.859	255.052	-0.203	0.344
-235.844	-21.378	0.154	-0.093
-234.830	37.627	0.173	0.152
-233.815	204.746	0.125	-0.193
-232.800	-137.862	-0.221	0.025
-231.786	253.049	-0.064	-0.109
-230.771	-151.959	-0.134	0.010
-229.757	45.140	-0.237	0.216
-228.742	-1.253	0.141	-0.099
-227.727	-186.475	-0.111	-0.002
-226.713	-29.950	0.017	-0.010
-225.698	-200.000	-0.005	0.089
-224.684	564.134	0.118	-0.282
-223.669	-36.396	0.125	0.067
-222.655	381.046	0.017	-0.035
-221.640	60.624	0.078	0.077
-220.625	109.168	0.191	-0.227
-219.611	213.796	-0.080	-0.125
-218.596	800.000	-0.074	-0.204
-217.582	800.000	-0.148	0.540
-216.567	149.309	0.040	-0.053
-215.552	17.579	0.188	-0.148
-214.538	-130.671	-0.076	-0.010
-213.523	-200.000	0.005	0.024
-212.509	-119.514	0.178	0.031
-211.494	-32.898	-0.210	-0.116
-210.479	37.718	0.098	0.086
-209.465	-61.721	0.248	-0.103
-208.450	800.000	-0.022	0.096
-207.436	-40.196	0.121	-0.062
-206.421	701.014	-0.170	0.444
-205.406	-200.000	-0.031	-0.208
-204.392	800.000	-0.043	-0.132
-203.377	-175.008	0.299	-0.008
-202.363	-4.652	-0.265	0.181
-201.348	-82.384	0.211	0.068
-200.333	-78.980	-0.268	0.090
-199.319	36.124	-0.166	-0.144
-198.304	-200.000	-0.005	0.299
-197.290	79.173	0.084	0.089
-196.275	-0.050	0.144	-0.102
-195.260	21.915	-0.034	-0.027
-194.246	-200.000	0.001	-0.172
-193.231	-200.000	0.013	0.255
-192.217	-91.961	-0.305	-0.086
-191.202	42.568	-0.123	0.111
-190.187	60.829	0.138	0.135
-189.173	-10.046	-0.208	-0.137
-188.158	800.000	0.041	0.111
-187.144	181.967	0.111	0.162
-186.129	-200.000	0.024	0.224
-185.114	-16.608	0.179	-0.112
-184.100	-29.368	-0.015	-0.008
-183.085	-62.813	0.198	0.081
-182.071	133.477	0.133	-0.170
-181.056	35.370	-0.155	0.135
-180.042	-162.938	0.102	-0.005
-179.027	-200.000	-0.052	-0.237
-178.012	0.010	-0.124	0.087
-176.998	-4.849	0.360	-0.245
-175.983	204.598	0.150	0.230
-174.969	-176.640	0.249	0.006
-173.954	-17.946	0.265	0.164
-172.939	-200.000	0.035	0.195
-171.925	-35.098	-0.086	0.046
-170.910	-3.898	-0.149	-0.102
-169.896	-200.000	0.056	0.359
-168.881	-128.227	0.295	-0.042
-167.866	-25.366	-0.205	0.120
-166.852	-200.000	-0.327	0.000
-165.837	3.916	-0.106	-0.076
-164.823	-200.000	-0.017	-0.084
-163.808	-200.000	0.010	-0.086
-162.793	-19.403	-0.211	0.129
-161.779	362.699	0.126	-0.249
-160.764	94.621	-0.089	0.100
-159.750	-200.000	-0.071	0.376
-158.735	262.063	-0.282	0.482
-157.720	-69.072	-0.052	-0.020
-156.706	-16.744	0.248	-0.155
-155.691	3.358	0.186	-0.134
-154.677	45.092	-0.105	-0.096
-153.662	-82.528	0.115	-0.037
-152.647	-190.888	0.320	0.003
-151.633	93.224	-0.161	-0.179
-150.618	-100.305	0.286	-0.070
-149.604	42.900	0.100	-0.090
-148.589	-21.686	0.158	-0.095
-147.574	-33.995	0.250	0.136
-146.560	176.152	-0.064	-0.091
-145.545	732.958	0.084	-0.221
-144.531	-157.020	-0.306	0.018
-143.516	-51.419	0.054	0.025
-142.502	-124.120	0.245	0.038
-141.487	-62.197	-0.150	-0.062
-140.472	-74.133	0.180	-0.064
-139.458	-97.397	0.266	0.068
-138.443	-128.824	-0.119	-0.017
-137.429	57.794	-0.247	0.239
-136.414	35.809	-0.163	0.141
-135.399	161.239	-0.127	0.175
-134.385	160.209	0.183	-0.252
-133.370	-103.154	-0.549	0.128
-132.356	795.589	0.108	-0.292
-131.341	81.405	0.150	0.160
-130.326	-200.000	-0.034	0.335
-129.312	800.000	0.049	-0.194
-128.297	-163.383	0.277	-0.013
-127.283	-85.517	-0.058	0.018
-126.268	415.287	0.126	0.265
-125.253	-51.495	0.219	0.101
-124.239	12.456	0.071	-0.054
-123.224	313.882	0.073	-0.136
-122.210	-200.000	-0.050	0.233
-121.195	800.000	-0.052	0.187
