DTS Sentinel unit serial number:	SN413079Multiplexer serial number:	ORYXHardware model number:	OX4-SRSoftware version number:	ORYX F/W v4.00 Oryx Data Collector v3.7.2.0data status	okinstallation	princeton_trtdifferential loss correction	single-endedforward channel	channel 2reverse channel	N/Adate	2019/09/18time	09:31:35forward acquisition time	60.00reverse acquisition time	0.00gamma	496.2192k internal	0.2337k external	0.2337temperature offset calibration	0.9973default loss term (dB/km)	0.3790temperature slope calibration	1.0000multiplexer offset coefficient	1.0000multiplexer slope coefficient	1.0000fibre end	0.00T internal ref (°C)	26.44T ext. ref 1 (°C)	0.27T ext. ref 2 (°C)	23.42length (m)	temperature (°C)	Stokes	anti-Stokes-747.200	-96.813	0.161	0.042
-746.185	-67.592	-0.558	0.220
-745.171	-41.055	0.485	-0.252
-744.156	-91.913	0.081	-0.023
-743.142	209.504	0.017	-0.027
-742.127	-61.791	-0.164	0.069
-741.112	-200.000	0.040	-0.184
-740.098	121.329	-0.227	0.284
-739.083	789.660	-0.081	-0.222
-738.069	422.830	-0.071	0.153
-737.054	-73.185	-0.490	-0.180
-736.039	800.000	0.095	-0.368
-735.025	800.000	0.083	0.310
-734.010	242.869	-0.070	-0.117
-732.996	800.000	-0.033	-0.143
-731.981	-47.795	-0.086	-0.042
-730.966	26.255	-0.056	0.047
-729.952	-119.802	0.088	-0.015
-728.937	-160.771	-0.257	0.014
-727.923	57.138	-0.186	-0.182
-726.908	142.664	0.143	-0.191
-725.894	111.981	0.111	-0.134
-724.879	106.787	-0.222	-0.264
-723.864	208.739	0.083	-0.130
-722.850	20.427	-0.246	-0.200
-721.835	245.440	0.063	-0.106
-720.821	-16.850	0.085	0.054
-719.806	-123.314	-0.453	0.073
-718.791	22.715	0.154	-0.126
-717.777	56.758	-0.043	-0.042
-716.762	-62.428	-0.123	0.051
-715.748	-154.989	0.339	-0.022
-714.733	102.036	-0.127	0.148
-713.718	-175.707	-0.412	-0.011
-712.704	730.090	-0.091	-0.243
-711.689	333.453	-0.091	0.176
-710.675	-7.932	-0.268	-0.181
-709.660	-200.000	-0.018	-0.095
-708.645	85.783	0.224	0.247
-707.631	379.087	0.013	0.026
-706.616	-36.199	-0.177	-0.096
-705.602	429.437	0.043	0.093
-704.587	-33.874	-0.004	0.002
-703.572	47.792	0.227	0.213
-702.558	800.000	0.059	0.204
-701.543	800.000	0.097	0.304
-700.529	-158.186	0.083	-0.005
-699.514	108.723	-0.056	-0.067
-698.499	-152.262	-0.147	0.011
-697.485	457.974	0.065	0.144
-696.470	22.364	-0.204	0.167
-695.456	-90.379	0.165	-0.048
-694.441	227.530	-0.100	0.163
-693.426	-167.676	-0.373	0.015
-692.412	747.162	0.093	0.251
-691.397	518.626	-0.050	-0.118
-690.383	409.140	-0.103	-0.218
-689.368	-200.000	0.001	-0.084
-688.354	681.273	0.112	-0.292
-687.339	-200.000	-0.014	0.125
-686.324	-200.000	0.006	-0.099
-685.310	-48.326	0.053	0.025
-684.295	-135.068	-0.210	-0.025
-683.281	27.588	0.195	0.164
-682.266	76.298	0.154	-0.163
-681.251	-200.000	-0.024	-0.262
-680.237	-133.200	0.337	-0.043
-679.222	266.674	-0.109	0.191
-678.208	-133.189	0.297	-0.038
-677.193	-56.066	0.194	0.087
-676.178	102.200	-0.181	-0.212
-675.164	-81.488	0.172	-0.057
-674.149	96.039	-0.038	0.044
-673.135	800.000	-0.177	-0.583
-672.120	257.086	0.149	0.256
-671.105	289.434	0.060	-0.109
-670.091	-57.367	-0.099	0.043
-669.076	-200.000	-0.026	0.168
-668.062	123.785	0.108	-0.135
-667.047	800.000	0.019	0.074
-666.032	-200.000	0.012	-0.379
-665.018	222.471	-0.162	0.262
-664.003	70.752	0.012	0.013
-662.989	800.000	-0.025	0.101
-661.974	317.811	0.039	-0.074
-660.959	-105.511	0.089	0.020
-659.945	-200.000	0.065	-0.454
-658.930	800.000	0.079	-0.228
-657.916	196.202	0.070	-0.107
-656.901	9.540	-0.286	0.217
-655.886	800.000	-0.028	0.120
-654.872	-66.484	-0.197	0.078
-653.857	800.000	0.061	0.171
-652.843	662.238	-0.132	0.341
-651.828	189.177	-0.099	0.148
-650.814	17.395	0.104	-0.083
-649.799	-200.000	-0.005	-0.178
-648.784	-200.000	-0.040	-0.427
-647.770	383.736	0.140	-0.289
-646.755	-28.810	-0.067	-0.039
-645.741	-200.000	-0.020	0.225
-644.726	1.047	-0.116	-0.083
-643.711	800.000	0.014	-0.044
-642.697	-200.000	0.020	0.099
-641.682	800.000	-0.019	-0.072
-640.668	257.334	0.133	0.229
-639.653	69.554	0.119	0.123
-638.638	291.878	0.068	-0.124
-637.624	-200.000	-0.032	0.290
-636.609	-200.000	-0.017	0.084
-635.595	127.493	0.116	0.147
-634.580	237.061	0.049	0.080
-633.565	-151.024	0.085	-0.006
-632.551	-117.874	-0.082	-0.015
-631.536	-44.774	-0.278	-0.139
-630.522	-200.000	-0.018	-0.126
-629.507	800.000	0.024	-0.066
-628.492	-200.000	0.011	0.225
-627.478	-106.049	-0.163	-0.037
-626.463	-55.990	-0.147	0.065
-625.449	-144.597	-0.291	0.027
-624.434	-102.846	0.188	-0.045
-623.419	-137.390	0.069	0.008
-622.405	-150.217	-0.152	0.012
-621.390	-110.869	-0.181	0.037
-620.376	-9.531	-0.173	-0.115
-619.361	772.041	-0.033	0.089
-618.346	-53.425	-0.164	-0.075
-617.332	377.270	0.126	0.256
-616.317	-75.458	0.233	-0.083
-615.303	-128.169	0.461	0.066
-614.288	-200.000	0.037	-0.325
-613.273	397.007	0.170	-0.354
-612.259	-46.099	0.088	-0.043
-611.244	621.644	0.016	-0.039
-610.230	-200.000	0.012	-0.269
-609.215	-83.475	-0.325	0.104
-608.201	197.679	-0.179	0.273
-607.186	70.571	-0.144	-0.149
-606.171	294.518	0.046	-0.085
-605.157	-69.409	-0.228	0.087
-604.142	-114.839	0.222	-0.042
-603.128	-86.604	-0.114	-0.035
-602.113	800.000	-0.085	-0.240
-601.098	230.459	-0.106	-0.173
-600.084	800.000	0.078	0.329
-599.069	-200.000	-0.084	-0.382
-598.055	163.141	-0.015	0.021
-597.040	-0.821	-0.310	-0.219
-596.025	-137.510	0.193	-0.022
-595.011	195.408	-0.098	0.148
-593.996	345.515	-0.109	-0.213
-592.982	298.518	0.154	0.282
-591.967	-0.164	-0.144	0.102
-590.952	166.556	0.092	0.130
-589.938	-183.593	0.224	-0.004
-588.923	-200.000	-0.001	-0.293
-587.909	800.000	-0.126	-0.358
-586.894	-70.525	-0.229	-0.086
-585.879	279.813	-0.060	0.107
-584.865	43.419	0.121	-0.110
-583.850	-71.195	-0.445	-0.167
-582.836	43.780	-0.036	-0.033
-581.821	30.173	-0.154	-0.132
-580.806	32.804	0.097	0.083
-579.792	43.646	-0.334	-0.305
-578.777	-150.562	-0.338	0.026
-577.763	-135.530	0.189	0.022
-576.748	-87.157	0.161	0.049
-575.733	428.574	-0.095	-0.205
-574.719	154.273	-0.204	0.280
-573.704	-126.468	-0.254	-0.038
-572.690	198.924	0.121	-0.186
-571.675	14.523	0.228	-0.177
-570.661	68.558	0.078	0.080
-569.646	-148.284	-0.318	0.026
-568.631	-87.786	-0.071	-0.021
-567.617	44.117	-0.074	-0.068
-566.602	601.064	-0.072	0.179
-565.588	621.263	-0.093	0.234
-564.573	141.013	-0.045	-0.060
-563.558	184.442	0.095	0.141
-562.544	800.000	0.096	-0.327
-561.529	-200.000	0.024	-0.149
-560.515	-200.000	0.048	0.279
-559.500	-200.000	-0.005	0.074
-558.485	-57.107	-0.070	0.031
-557.471	85.018	0.150	0.164
-556.456	-189.259	-0.151	-0.002
-555.442	348.234	-0.074	-0.146
-554.427	-200.000	-0.060	0.349
-553.412	-118.252	0.462	0.082
-552.398	14.540	-0.122	-0.095
-551.383	-12.456	-0.320	-0.208
-550.369	-102.320	-0.177	0.042
-549.354	214.340	0.128	0.202
-548.339	-162.859	-0.217	-0.011
-547.325	-200.000	-0.042	0.211
-546.310	-30.015	0.123	-0.070
-545.296	800.000	-0.056	-0.242
-544.281	-4.842	-0.207	-0.142
-543.266	-200.000	0.009	-0.051
-542.252	800.000	0.148	-0.501
-541.237	340.522	-0.110	-0.215
-540.223	-132.836	-0.109	-0.014
-539.208	-43.304	-0.492	0.248
-538.193	-0.721	-0.033	-0.023
-537.179	-184.964	0.180	0.003
-536.164	-200.000	0.001	0.082
-535.150	7.987	-0.179	0.134
-534.135	-144.150	-0.095	0.009
-533.121	281.810	0.023	0.041
-532.106	21.954	0.119	0.097
-531.091	-81.629	-0.175	0.057
-530.077	468.703	-0.126	0.282
-529.062	130.196	-0.147	-0.187
-528.048	-67.544	0.342	0.133
-527.033	233.349	-0.080	-0.130
-526.018	105.003	-0.078	0.092
-525.004	-75.038	0.124	-0.044
-523.989	800.000	-0.030	-0.119
-522.975	-200.000	-0.042	-0.192
-521.960	-138.479	-0.284	0.031
-520.945	297.994	0.136	0.249
-519.931	-30.992	-0.212	-0.119
-518.916	800.000	0.078	-0.251
-517.902	133.956	-0.232	-0.299
-516.887	-200.000	0.001	-0.229
-515.872	113.345	-0.161	0.195
-514.858	-117.706	-0.214	-0.038
-513.843	178.222	-0.122	0.178
-512.829	-200.000	0.033	0.151
-511.814	300.579	-0.117	0.215
-510.799	-94.990	0.142	0.038
-509.785	-44.112	-0.124	-0.062
-508.770	-24.732	0.125	-0.074
-507.756	-200.000	-0.031	-0.293
-506.741	424.717	0.054	0.116
-505.726	-76.874	0.143	-0.050
-504.712	148.619	-0.253	-0.340
-503.697	78.204	0.159	-0.169
-502.683	-104.047	0.368	0.085
-501.668	544.236	-0.072	-0.171
-500.653	800.000	0.051	0.171
-499.639	-46.245	-0.315	-0.154
-498.624	405.289	0.145	0.304
-497.610	-70.380	0.063	-0.024
-496.595	69.594	0.077	-0.079
-495.581	320.061	0.107	-0.202
-494.566	12.952	-0.121	-0.093
-493.551	-200.000	0.008	0.339
-492.537	-102.523	-0.385	0.092
-491.522	-200.000	-0.043	0.454
-490.508	204.292	0.028	0.043
-489.493	800.000	0.117	0.397
-488.478	417.728	0.019	0.039
-487.464	132.771	-0.094	-0.121
-486.449	463.247	0.054	-0.120
-485.435	800.000	0.113	-0.463
-484.420	800.000	0.034	-0.143
-483.405	695.108	-0.037	-0.097
-482.391	116.939	-0.240	-0.293
-481.376	226.757	-0.109	-0.176
-480.362	17.946	0.095	-0.075
-479.347	735.292	-0.160	0.426
-478.332	-113.611	-0.147	-0.028
-477.318	-60.866	-0.249	-0.105
-476.303	-200.000	0.003	-0.089
-475.289	252.447	0.162	0.274
-474.274	-200.000	-0.029	0.149
-473.259	72.739	-0.213	0.221
-472.245	-200.000	0.028	0.332
-471.230	-90.150	0.451	-0.130
-470.216	123.457	-0.189	-0.236
-469.201	-144.627	0.330	-0.030
-468.186	-107.941	-0.295	-0.064
-467.172	-166.290	-0.025	0.001
-466.157	-154.887	-0.118	0.008
-465.143	102.503	-0.073	-0.084
-464.128	-200.000	0.029	-0.300
-463.113	-119.748	-0.400	0.069
-462.099	-69.701	-0.288	0.109
-461.084	-85.266	0.424	-0.132
-460.070	-102.910	-0.260	-0.061
-459.055	715.415	0.053	0.139
-458.040	198.465	-0.214	0.326
-457.026	145.778	0.152	-0.202
-456.011	244.595	-0.137	-0.229
-454.997	-200.000	0.027	-0.304
-453.982	-100.171	0.182	0.045
-452.968	-93.886	0.199	-0.054
-451.953	-200.000	-0.012	-0.145
-450.938	-98.282	-0.151	-0.038
-449.924	-169.614	0.481	-0.017
-448.909	800.000	0.072	-0.281
-447.895	40.876	0.018	-0.016
-446.880	-200.000	-0.028	-0.224
-445.865	-58.307	0.338	-0.146
-444.851	-0.760	0.102	0.072
-443.836	44.850	0.144	-0.132
-442.822	113.785	-0.112	-0.136
-441.807	-115.248	0.614	0.115
-440.792	13.310	-0.258	-0.198
-439.778	800.000	-0.049	-0.192
-438.763	757.949	0.097	0.259
-437.749	800.000	0.064	0.181
-436.734	-164.374	-0.402	-0.018
-435.719	-50.866	-0.096	0.045
-434.705	-5.266	0.333	0.227
-433.690	-131.334	0.466	-0.061
-432.676	-41.597	0.310	-0.158
-431.661	-200.000	0.075	0.000
-430.646	-102.241	0.212	-0.051
-429.632	-138.076	-0.225	0.025
-428.617	284.500	0.101	-0.181
-427.603	137.836	0.055	-0.072
-426.588	-200.000	0.035	-0.207
-425.573	-36.253	0.207	-0.111
-424.559	252.295	0.195	-0.330
-423.544	-16.974	0.269	-0.169
-422.530	800.000	-0.020	-0.059
-421.515	13.771	-0.181	-0.140
-420.500	-200.000	-0.004	-0.224
-419.486	800.000	0.086	-0.354
-418.471	-135.412	-0.277	0.033
-417.457	-200.000	-0.006	-0.328
-416.442	-111.937	0.083	-0.017
-415.428	-61.102	-0.199	0.083
-414.413	526.109	0.098	-0.229
-413.398	-25.338	-0.088	-0.051
-412.384	-86.615	0.240	0.073
-411.369	43.768	0.172	-0.156
-410.355	-7.637	-0.166	0.111
-409.340	-200.000	0.025	0.267
-408.325	-190.730	0.070	-0.001
-407.311	5.778	0.137	-0.100
-406.296	362.657	0.015	-0.029
-405.282	30.168	-0.288	0.243
-404.267	129.185	0.324	-0.410
-403.252	-200.000	0.015	0.467
-402.238	-200.000	-0.102	0.443
-401.223	-172.603	-0.143	0.004
-400.209	800.000	-0.125	0.469
-399.194	800.000	0.042	-0.144
-398.179	325.440	-0.145	0.274
-397.165	-200.000	0.029	0.125
-396.150	800.000	0.021	0.079
-395.136	-200.000	0.515	0.001
-394.121	-200.000	0.001	-0.188
-393.106	-37.685	-0.425	-0.224
-392.092	152.615	0.106	-0.144
-391.077	319.475	0.137	0.257
-390.063	-134.669	0.246	0.030
-389.048	-118.472	0.297	0.052
-388.033	800.000	-0.012	-0.037
-387.019	-31.707	-0.126	0.070
-386.004	800.000	-0.020	-0.085
-384.990	24.287	0.144	-0.118
-383.975	20.377	0.064	-0.051
-382.960	-200.000	-0.039	-0.241
-381.946	-200.000	-0.004	0.073
-380.931	-200.000	-0.018	0.364
-379.917	122.748	0.252	0.312
-378.902	-6.600	0.237	-0.160
-377.888	-200.000	0.018	-0.101
-376.873	-200.000	0.010	0.386
-375.858	-92.790	0.323	-0.089
-374.844	-137.931	-0.377	0.042
-373.829	800.000	0.071	-0.219
-372.815	-68.804	0.128	0.049
-371.800	98.927	-0.155	-0.177
-370.785	-200.000	-0.003	0.450
-369.771	156.990	0.192	-0.263
-368.756	-148.927	-0.256	-0.020
-367.742	-132.784	-0.067	0.008
-366.727	-200.000	-0.068	0.299
-365.712	215.693	-0.109	0.171
-364.698	61.366	0.146	-0.143
-363.683	-20.460	0.356	0.217
-362.669	352.493	0.078	0.152
-361.654	-156.251	-0.124	-0.008
-360.639	-125.559	-0.426	0.064
-359.625	-7.427	0.049	-0.033
-358.610	-167.709	-0.276	-0.011
-357.596	10.246	0.244	0.183
-356.581	-4.757	0.126	-0.086
-355.566	-157.043	-0.319	0.019
-354.552	564.465	0.066	0.157
-353.537	-200.000	-0.048	0.281
-352.523	-200.000	0.001	0.038
-351.508	800.000	0.101	0.333
-350.493	400.964	-0.189	-0.392
-349.479	-200.000	-0.011	0.130
-348.464	340.113	0.084	0.162
-347.450	285.706	0.107	0.191
-346.435	125.800	0.113	0.141
-345.420	-56.212	-0.396	0.174
-344.406	-72.038	-0.141	-0.052
-343.391	-200.000	0.006	0.049
-342.377	-5.512	-0.205	0.139
-341.362	-200.000	0.076	0.346
-340.348	800.000	-0.027	-0.115
-339.333	306.278	-0.116	0.213
-338.318	-33.736	-0.039	0.021
-337.304	-72.720	-0.223	0.081
-336.289	-31.264	-0.429	0.239
-335.275	292.495	0.200	0.361
-334.260	174.126	-0.097	0.139
-333.245	-102.495	-0.204	0.048
-332.231	-75.350	0.166	-0.058
-331.216	37.896	0.029	-0.026
-330.202	-8.829	0.094	0.062
-329.187	-151.152	-0.218	-0.016
-328.172	8.679	0.098	0.073
-327.158	-200.000	-0.008	-0.041
-326.143	-22.670	0.146	-0.087
-325.129	402.116	-0.118	0.245
-324.114	-200.000	-0.018	0.146
-323.099	-200.000	-0.002	-0.163
-322.085	735.446	0.126	-0.333
-321.070	-6.683	0.099	0.067
-320.056	-96.119	0.158	-0.041
-319.041	-67.970	-0.133	-0.051
-318.026	338.861	-0.034	-0.065
-317.012	-98.306	-0.274	-0.069
-315.997	371.131	-0.036	0.071
-314.983	-165.260	-0.041	-0.002
-313.968	200.994	0.254	-0.386
-312.953	-140.491	0.192	0.020
-311.939	6.131	-0.146	0.107
-310.924	282.230	-0.067	0.119
-309.910	-200.000	-0.030	0.235
-308.895	-75.162	0.384	-0.135
-307.880	244.144	-0.038	0.063
-306.866	-83.876	-0.374	0.118
-305.851	-200.000	-0.034	0.506
-304.837	10.736	-0.150	0.113
-303.822	-200.000	0.013	0.197
-302.807	-105.054	-0.137	-0.031
-301.793	-82.936	-0.107	0.034
-300.778	800.000	0.044	0.173
-299.764	800.000	0.042	0.156
-298.749	302.796	-0.061	0.111
-297.735	17.808	0.123	-0.097
-296.720	-81.249	0.342	0.111
-295.705	800.000	-0.087	0.275
-294.691	44.624	0.207	0.188
-293.676	-72.730	0.397	0.144
-292.662	-200.000	0.002	-0.055
-291.647	-200.000	0.009	0.214
-290.632	457.619	0.058	-0.127
-289.618	-200.000	0.034	-0.333
-288.603	-73.187	0.358	0.129
-287.589	-84.776	-0.065	0.020
-286.574	-200.000	-0.101	0.475
-285.559	-180.997	0.321	-0.006
-284.545	-158.077	-0.174	0.010
-283.530	-200.000	-0.020	-0.119
-282.516	-98.937	0.218	0.055
-281.501	-64.275	0.264	-0.106
-280.486	656.509	-0.132	-0.334
-279.472	253.756	0.105	0.176
-278.457	800.000	-0.037	0.141
-277.443	-42.248	-0.171	0.086
-276.428	-18.157	0.118	-0.073
-275.413	238.271	0.188	0.308
-274.399	322.918	-0.144	0.271
-273.384	-159.442	-0.113	-0.006
-272.370	268.926	0.156	-0.270
-271.355	375.318	-0.091	0.184
-270.340	97.585	0.158	-0.179
-269.326	117.900	0.136	-0.165
-268.311	-9.541	0.212	-0.139
-267.297	-200.000	0.020	0.302
-266.282	334.511	-0.047	0.089
-265.267	-3.825	0.139	0.095
-264.253	-86.225	-0.131	0.040
-263.238	-66.615	0.105	0.041
-262.224	-200.000	0.042	0.377
-261.209	-16.061	0.124	-0.078
-260.195	-154.201	0.370	-0.025
-259.180	462.898	0.060	0.132
-258.165	100.984	0.135	-0.155
-257.151	-164.767	0.354	-0.016
-256.136	-200.000	0.033	-0.316
-255.122	174.358	-0.099	0.142
-254.107	637.535	-0.060	0.149
-253.092	14.056	0.140	0.107
-252.078	-26.468	0.148	-0.085
-251.063	152.144	0.212	0.285
-250.049	-200.000	0.022	-0.168
-249.034	-3.697	0.359	-0.246
-248.019	197.465	-0.164	-0.247
-247.005	-130.292	0.100	0.013
-245.990	-98.870	-0.302	0.076
-244.976	-120.051	-0.103	0.017
-243.961	149.839	0.031	-0.041
-242.946	33.381	0.132	-0.113
-241.932	162.938	0.110	-0.153
-240.917	77.910	0.071	-0.074
-239.903	-200.000	0.014	-0.156
-238.888	735.538	-0.214	0.564
-237.873	-200.000	0.012	0.412
-236.859	-134.047	0.159	-0.019
-235.844	-200.000	-0.070	-0.356
-234.830	459.455	0.027	-0.059
-233.815	28.357	0.401	0.333
-232.800	-102.528	-0.347	0.082
-231.786	-200.000	0.041	0.350
-230.771	-200.000	0.038	0.366
-229.757	269.415	-0.167	-0.288
-228.742	320.248	-0.145	-0.270
-227.727	-99.812	-0.098	-0.024
-226.713	-40.885	-0.256	-0.130
-225.698	-200.000	-0.035	-0.165
-224.684	89.697	0.287	-0.315
-223.669	-32.107	-0.182	-0.100
-222.655	273.488	-0.125	-0.217
-221.640	-38.371	-0.158	-0.082
-220.625	-95.121	-0.006	0.002
-219.611	-200.000	-0.020	-0.086
-218.596	-131.998	0.262	0.034
-217.582	-112.813	-0.171	0.033
-216.567	99.689	0.287	0.327
-215.552	-200.000	0.032	0.278
-214.538	387.504	0.136	0.277
-213.523	2.877	0.164	0.117
-212.509	234.537	0.190	0.308
-211.494	800.000	0.082	0.299
-210.479	-86.233	-0.144	0.044
-209.465	-127.455	-0.026	-0.004
-208.450	-10.238	-0.243	-0.159
-207.436	-27.055	0.048	0.028
-206.421	325.952	-0.036	-0.067
-205.406	-200.000	-0.013	-0.272
-204.392	157.717	0.107	0.146
-203.377	-116.637	0.330	0.060
-202.363	-123.315	-0.299	-0.047
-201.348	-104.200	-0.065	-0.015
-200.333	142.673	-0.138	-0.181
-199.319	-95.788	0.059	0.016
-198.304	800.000	0.027	-0.082
-197.290	800.000	0.028	-0.107
-196.275	-187.911	-0.187	0.002
-195.260	-12.457	0.241	0.154
-194.246	212.683	0.099	-0.153
-193.231	-67.267	0.160	-0.062
-192.217	-35.738	0.148	-0.079
-191.202	543.222	0.053	-0.125
-190.187	-200.000	-0.048	-0.256
-189.173	-28.736	0.216	0.122
-188.158	-188.253	-0.406	0.005
-187.144	800.000	-0.033	-0.113
-186.129	-35.620	-0.118	0.063
-185.114	-200.000	-0.011	0.116
-184.100	-200.000	0.021	-0.164
-183.085	703.289	-0.174	-0.451
-182.071	621.823	0.086	-0.212
-181.056	59.988	-0.040	-0.039
-180.042	147.356	0.031	0.041
-179.027	-14.360	0.211	-0.133
-178.012	-93.834	-0.309	0.084
-176.998	491.001	0.051	-0.114
-175.983	-167.072	-0.333	-0.013
-174.969	-200.000	-0.006	0.039
-173.954	86.624	-0.138	-0.149
-172.939	-91.450	0.110	0.031
-171.925	-200.000	0.074	0.485
-170.910	345.581	0.121	0.234
-169.896	135.517	0.115	0.147
-168.881	129.646	0.052	0.066
-167.866	-175.342	0.165	-0.004
-166.852	-28.676	0.136	-0.077
-165.837	-56.607	-0.389	-0.169
-164.823	-200.000	-0.020	-0.228
-163.808	555.979	-0.096	-0.226
-162.793	-58.766	-0.252	-0.107
-161.779	800.000	0.089	-0.261
-160.764	-194.948	-0.039	0.000
-159.750	-200.000	-0.016	-0.367
-158.735	-200.000	0.014	-0.222
-157.720	86.549	0.195	0.211
-156.706	-200.000	0.020	0.260
-155.691	193.601	0.232	0.345
-154.677	-157.052	-0.136	-0.008
-153.662	92.542	0.241	-0.267
-152.647	103.949	-0.173	-0.200
-151.633	-200.000	-0.033	0.196
-150.618	454.683	-0.086	-0.188
-149.604	-197.029	0.162	-0.001
-148.589	201.040	0.118	0.178
-147.574	-2.156	0.111	-0.076
-146.560	-200.000	0.025	0.170
-145.545	-200.000	0.004	0.094
-144.531	123.537	-0.100	-0.123
-143.516	-1.902	0.034	0.023
-142.502	361.204	0.030	0.059
-141.487	269.635	0.115	0.197
-140.472	-37.072	0.180	0.094
-139.458	-182.137	-0.128	-0.002
-138.443	-145.464	-0.516	0.046
-137.429	800.000	0.132	-0.500
-136.414	-200.000	0.014	-0.227
-135.399	-106.627	-0.275	0.060
-134.385	309.941	-0.079	-0.146
-133.370	-144.381	-0.166	0.015
-132.356	-145.927	0.445	0.039
-131.341	723.202	0.148	0.386
-130.326	163.928	0.128	-0.177
-129.312	460.708	0.122	-0.266
-128.297	-200.000	0.004	0.095
-127.283	800.000	0.023	-0.092
-126.268	449.529	0.121	-0.262
-125.253	-26.730	0.349	0.200
-124.239	-200.000	0.007	0.147
-123.224	800.000	0.081	0.226
-122.210	44.988	-0.240	0.217
