DTS Sentinel unit serial number:	SN413079Multiplexer serial number:	ORYXHardware model number:	OX4-SRSoftware version number:	ORYX F/W v4.00 Oryx Data Collector v3.7.2.0data status	okinstallation	princeton_trtdifferential loss correction	single-endedforward channel	channel 2reverse channel	N/Adate	2019/09/16time	07:27:35forward acquisition time	60.00reverse acquisition time	0.00gamma	496.2192k internal	0.2334k external	0.2334temperature offset calibration	0.9976default loss term (dB/km)	0.3790temperature slope calibration	1.0000multiplexer offset coefficient	1.0000multiplexer slope coefficient	1.0000fibre end	0.00T internal ref (°C)	27.56T ext. ref 1 (°C)	11.62T ext. ref 2 (°C)	23.53length (m)	temperature (°C)	Stokes	anti-Stokes-747.200	-79.288	0.113	-0.039
-746.185	32.505	-0.013	0.011
-745.171	-14.034	0.131	-0.085
-744.156	692.377	-0.111	0.293
-743.142	-109.544	-0.107	-0.023
-742.127	67.327	-0.160	-0.165
-741.112	-137.822	-0.122	0.014
-740.098	123.616	-0.295	0.372
-739.083	-200.000	-0.002	0.165
-738.069	-99.265	0.288	0.073
-737.054	101.487	0.167	-0.196
-736.039	208.025	-0.250	-0.393
-735.025	94.529	0.058	-0.067
-734.010	-46.267	-0.165	-0.081
-732.996	23.288	-0.288	-0.238
-731.981	133.879	-0.162	-0.211
-730.966	-200.000	-0.032	-0.144
-729.952	-116.745	-0.233	0.043
-728.937	128.673	-0.177	0.227
-727.923	-83.998	-0.179	0.057
-726.908	72.272	-0.116	0.121
-725.894	-32.432	-0.210	-0.117
-724.879	61.566	0.019	0.019
-723.864	466.780	-0.123	-0.276
-722.850	-107.863	-0.231	-0.050
-721.835	800.000	-0.023	0.066
-720.821	29.000	-0.076	-0.065
-719.806	-61.826	0.413	-0.173
-718.791	-162.098	-0.092	-0.005
-717.777	-145.456	-0.416	0.038
-716.762	-75.989	-0.098	0.035
-715.748	160.251	-0.119	0.166
-714.733	9.855	0.097	-0.074
-713.718	800.000	-0.124	-0.367
-712.704	49.864	0.184	-0.174
-711.689	245.791	0.126	-0.213
-710.675	-81.511	0.094	0.031
-709.660	-200.000	0.038	0.242
-708.645	-200.000	0.016	-0.401
-707.631	-200.000	0.047	-0.447
-706.616	-200.000	-0.014	-0.282
-705.602	800.000	0.022	0.094
-704.587	187.800	0.199	-0.298
-703.572	-200.000	-0.055	0.332
-702.558	220.131	-0.135	0.217
-701.543	272.535	-0.091	-0.161
-700.529	37.124	0.137	-0.122
-699.514	-200.000	-0.023	0.201
-698.499	-34.026	-0.107	-0.059
-697.485	146.756	0.209	0.282
-696.470	-114.361	0.194	0.037
-695.456	-152.884	0.352	-0.025
-694.441	-200.000	0.003	0.329
-693.426	800.000	0.105	-0.376
-692.412	-60.941	-0.240	-0.102
-691.397	198.689	0.044	-0.068
-690.383	118.073	0.068	-0.084
-689.368	-88.962	0.290	-0.086
-688.354	231.672	-0.107	0.176
-687.339	294.358	0.125	0.228
-686.324	-102.155	0.241	0.058
-685.310	-12.272	0.193	-0.126
-684.295	228.788	0.088	-0.145
-683.281	336.788	-0.013	-0.026
-682.266	77.456	0.130	-0.139
-681.251	-31.965	-0.246	-0.138
-680.237	-200.000	-0.044	-0.212
-679.222	-200.000	-0.038	-0.301
-678.208	-200.000	-0.014	0.191
-677.193	-31.667	0.299	0.168
-676.178	-41.626	-0.170	-0.087
-675.164	-200.000	0.011	0.093
-674.149	212.269	0.045	0.072
-673.135	62.507	-0.364	-0.364
-672.120	363.910	-0.201	-0.404
-671.105	-28.648	0.252	-0.146
-670.091	-200.000	0.014	-0.171
-669.076	414.649	0.117	-0.249
-668.062	58.233	-0.049	0.048
-667.047	-55.071	0.360	0.162
-666.032	-10.352	0.180	-0.119
-665.018	-103.503	-0.281	-0.066
-664.003	-44.928	-0.209	-0.104
-662.989	122.485	-0.085	0.106
-661.974	-38.161	-0.146	0.078
-660.959	-43.390	0.222	0.112
-659.945	94.210	0.115	0.130
-658.930	149.606	0.165	0.225
-657.916	333.000	0.124	0.240
-656.901	209.800	-0.055	-0.087
-655.886	-95.391	0.298	-0.080
-654.872	-200.000	0.007	0.033
-653.857	179.770	0.231	-0.339
-652.843	272.277	0.120	-0.213
-651.828	-71.010	0.268	-0.101
-650.814	-64.446	0.271	0.110
-649.799	236.843	-0.080	-0.133
-648.784	345.233	0.095	0.187
-647.770	151.081	0.106	-0.144
-646.755	-121.048	0.259	0.044
-645.741	-200.000	0.070	0.353
-644.726	800.000	0.116	0.453
-643.711	-113.702	-0.138	-0.027
-642.697	800.000	0.092	0.268
-641.682	-158.993	0.142	-0.008
-640.668	772.116	0.021	-0.057
-639.653	-200.000	0.064	0.362
-638.638	17.811	0.362	0.288
-637.624	344.470	-0.074	0.146
-636.609	418.758	-0.096	-0.206
-635.595	-200.000	-0.060	0.333
-634.580	60.516	-0.260	-0.257
-633.565	540.242	-0.069	-0.165
-632.551	60.432	0.229	-0.227
-631.536	524.236	-0.221	0.520
-630.522	89.339	-0.222	0.247
-629.507	-119.543	-0.175	-0.030
-628.492	-84.163	0.088	-0.028
-627.478	-60.665	-0.035	0.015
-626.463	-200.000	-0.022	-0.131
-625.449	-37.997	-0.333	0.177
-624.434	-200.000	-0.034	-0.243
-623.419	-200.000	0.045	-0.217
-622.405	70.427	-0.085	-0.087
-621.390	-109.827	-0.307	-0.065
-620.376	-94.516	-0.046	-0.013
-619.361	575.853	0.033	-0.080
-618.346	299.538	-0.030	-0.055
-617.332	-58.089	-0.269	-0.117
-616.317	-86.493	-0.487	-0.150
-615.303	-77.243	0.235	0.082
-614.288	111.711	0.124	-0.149
-613.273	382.429	-0.245	-0.505
-612.259	800.000	0.074	-0.209
-611.244	95.127	-0.086	-0.097
-610.230	28.013	0.100	-0.084
-609.215	79.575	-0.159	-0.170
-608.201	-189.874	-0.400	0.005
-607.186	800.000	0.106	0.306
-606.171	43.401	0.056	-0.051
-605.157	-39.760	-0.424	0.221
-604.142	338.387	-0.114	-0.221
-603.128	21.571	-0.067	-0.054
-602.113	-87.687	-0.135	-0.041
-601.098	-159.815	-0.139	-0.008
-600.084	-126.759	-0.583	-0.086
-599.069	800.000	0.011	0.037
-598.055	-200.000	-0.014	0.088
-597.040	-200.000	-0.016	-0.190
-596.025	800.000	0.090	-0.267
-595.011	800.000	0.002	0.009
-593.996	75.287	-0.097	0.103
-592.982	129.266	-0.068	0.087
-591.967	-200.000	-0.029	0.272
-590.952	800.000	-0.047	-0.146
-589.938	-200.000	0.043	0.217
-588.923	92.629	-0.034	0.038
-587.909	800.000	-0.122	0.421
-586.894	800.000	-0.118	0.379
-585.879	202.062	0.096	0.147
-584.865	543.519	0.160	-0.381
-583.850	-140.412	-0.355	0.037
-582.836	-58.828	-0.125	0.054
-581.821	-117.009	0.199	0.036
-580.806	81.902	-0.113	0.122
-579.792	-55.871	0.114	0.051
-578.777	0.560	-0.134	0.095
-577.763	122.759	-0.203	-0.254
-576.748	20.867	-0.207	-0.167
-575.733	753.491	-0.109	-0.295
-574.719	800.000	0.025	0.086
-573.704	20.148	0.289	-0.233
-572.690	-63.952	-0.079	-0.032
-571.675	217.211	0.114	0.181
-570.661	-97.125	-0.180	-0.047
-569.646	-200.000	-0.019	0.154
-568.631	48.683	-0.090	-0.084
-567.617	800.000	0.101	0.354
-566.602	245.163	-0.111	-0.186
-565.588	93.100	-0.190	0.215
-564.573	-115.983	0.331	0.062
-563.558	82.055	-0.086	0.093
-562.544	800.000	-0.062	0.202
-561.529	-150.967	0.168	-0.013
-560.515	-22.077	0.201	0.122
-559.500	184.319	-0.131	-0.194
-558.485	-200.000	-0.056	-0.253
-557.471	583.912	-0.038	-0.093
-556.456	800.000	0.031	0.102
-555.442	-37.654	0.108	0.058
-554.427	7.981	0.196	-0.147
-553.412	-47.415	-0.251	-0.122
-552.398	-91.226	-0.536	0.153
-551.383	-35.387	0.227	-0.123
-550.369	800.000	0.045	-0.159
-549.354	-7.247	0.231	-0.157
-548.339	-108.610	-0.235	0.050
-547.325	-200.000	-0.064	0.294
-546.310	29.551	-0.087	0.074
-545.296	296.487	0.065	-0.119
-544.281	24.515	0.091	-0.075
-543.266	-90.467	-0.293	-0.085
-542.252	-11.195	0.308	0.203
-541.237	-200.000	0.007	-0.170
-540.223	23.940	0.044	-0.036
-539.208	-66.537	-0.312	0.123
-538.193	75.174	-0.180	-0.189
-537.179	-162.932	-0.277	0.013
-536.164	-106.072	-0.395	-0.088
-535.150	-200.000	0.039	-0.221
-534.135	-200.000	0.032	0.228
-533.121	-200.000	0.013	-0.267
-532.106	157.545	0.060	0.083
-531.091	154.029	0.204	0.279
-530.077	777.898	0.044	0.119
-529.062	113.346	0.128	-0.155
-528.048	485.026	0.106	-0.241
-527.033	-200.000	-0.010	-0.074
-526.018	5.556	-0.300	0.221
-525.004	36.055	-0.139	-0.122
-523.989	175.945	-0.095	-0.138
-522.975	295.414	-0.099	-0.181
-521.960	800.000	-0.079	-0.218
-520.945	672.037	0.091	-0.235
-519.931	359.054	0.084	-0.166
-518.916	52.010	-0.092	-0.087
-517.902	26.089	0.059	-0.049
-516.887	-191.394	-0.257	-0.003
-515.872	-161.586	0.324	0.017
-514.858	-20.325	0.182	0.112
-513.843	-84.829	0.343	0.107
-512.829	35.326	-0.217	0.189
-511.814	-132.032	0.079	-0.010
-510.799	35.032	-0.299	0.261
-509.785	-58.196	-0.218	0.094
-508.770	25.424	0.134	0.111
-507.756	132.738	-0.194	-0.250
-506.741	-200.000	0.044	0.250
-505.726	-12.413	0.201	0.131
-504.712	-5.885	0.266	-0.181
-503.697	403.049	-0.119	0.250
-502.683	29.279	0.363	-0.307
-501.668	-100.959	0.119	-0.029
-500.653	143.466	-0.180	-0.238
-499.639	800.000	0.068	0.204
-498.624	-121.679	0.105	-0.017
-497.610	79.791	0.043	0.046
-496.595	-200.000	-0.009	0.092
-495.581	-77.445	-0.321	-0.111
-494.566	72.822	0.150	-0.155
-493.551	571.959	-0.104	-0.251
-492.537	404.700	-0.123	-0.257
-491.522	103.898	0.264	-0.309
-490.508	-200.000	0.050	0.330
-489.493	-200.000	-0.025	0.258
-488.478	-200.000	-0.006	-0.233
-487.464	-131.107	0.123	0.016
-486.449	-106.770	-0.345	0.076
-485.435	800.000	0.039	0.139
-484.420	-21.969	0.250	-0.151
-483.405	-131.751	-0.230	-0.030
-482.391	216.395	-0.102	-0.161
-481.376	-200.000	0.010	0.044
-480.362	800.000	-0.038	0.135
-479.347	1.328	0.103	0.074
-478.332	54.878	-0.162	-0.156
-477.318	25.342	0.148	0.122
-476.303	-183.416	0.202	0.003
-475.289	-200.000	0.010	-0.122
-474.274	135.706	-0.143	-0.185
-473.259	-41.820	-0.584	-0.298
-472.245	85.131	0.132	0.144
-471.230	130.886	0.273	0.348
-470.216	285.952	-0.072	-0.128
-469.201	800.000	0.066	-0.250
-468.186	-40.495	-0.086	0.045
-467.172	4.035	-0.220	-0.160
-466.157	-52.734	0.385	-0.176
-465.143	307.071	-0.162	0.299
-464.128	-200.000	0.018	0.208
-463.113	158.472	0.069	-0.095
-462.099	-17.716	-0.317	-0.198
-461.084	97.007	0.042	-0.048
-460.070	800.000	0.027	-0.104
-459.055	85.857	0.191	-0.208
-458.040	315.747	-0.096	0.180
-457.026	-200.000	-0.001	0.052
-456.011	-34.903	-0.174	-0.095
-454.997	-200.000	0.035	-0.185
-453.982	152.340	-0.094	0.128
-452.968	-10.599	0.299	0.196
-451.953	318.285	-0.082	0.155
-450.938	-45.406	-0.237	0.117
-449.924	-200.000	-0.011	0.184
-448.909	-200.000	0.012	-0.238
-447.895	-27.779	0.219	-0.126
-446.880	-200.000	0.010	0.057
-445.865	-200.000	0.007	0.249
-444.851	741.965	0.116	-0.310
-443.836	54.899	0.302	0.289
-442.822	589.998	0.113	0.277
-441.807	152.580	0.016	-0.022
-440.792	-57.373	-0.255	-0.111
-439.778	47.726	0.110	0.102
-438.763	-92.034	-0.044	-0.012
-437.749	-128.464	0.117	0.017
-436.734	-131.183	0.087	-0.011
-435.719	-200.000	0.001	-0.079
-434.705	-6.524	0.111	0.075
-433.690	-97.101	0.196	0.051
-432.676	151.566	-0.136	-0.184
-431.661	800.000	-0.040	-0.161
-430.646	15.942	-0.060	-0.047
-429.632	-200.000	-0.071	0.426
-428.617	402.209	-0.089	0.186
-427.603	-200.000	-0.028	0.280
-426.588	230.355	0.156	0.254
-425.573	-143.860	-0.056	0.005
-424.559	-55.403	0.367	-0.164
-423.544	-101.061	-0.155	-0.038
-422.530	800.000	0.031	-0.108
-421.515	51.768	-0.081	-0.077
-420.500	-200.000	-0.032	0.224
-419.486	328.667	-0.058	0.111
-418.471	15.629	0.142	-0.111
-417.457	87.796	0.154	0.170
-416.442	-78.536	0.370	-0.126
-415.428	-19.885	-0.167	0.102
-414.413	-135.989	0.128	0.015
-413.398	-56.719	-0.088	0.038
-412.384	-15.833	-0.241	-0.153
-411.369	11.887	0.191	0.145
-410.355	-101.504	0.100	0.024
-409.340	-200.000	0.024	0.253
-408.325	-200.000	0.034	-0.210
-407.311	314.876	0.116	-0.217
-406.296	345.836	-0.189	-0.369
-405.282	179.278	-0.061	0.089
-404.267	-44.643	0.138	0.068
-403.252	175.734	-0.167	0.240
-402.238	800.000	-0.026	-0.105
-401.223	207.194	-0.146	0.226
-400.209	-157.104	0.134	-0.008
-399.194	736.074	-0.102	0.270
-398.179	-66.455	-0.135	0.053
-397.165	-133.541	-0.125	0.015
-396.150	-92.119	-0.126	-0.035
-395.136	6.410	0.059	0.043
-394.121	-105.259	-0.044	0.010
-393.106	-46.198	-0.068	-0.033
-392.092	19.792	-0.259	-0.207
-391.077	800.000	0.021	0.064
-390.063	258.405	0.140	-0.239
-389.048	-119.861	-0.132	-0.022
-388.033	-166.289	0.030	0.001
-387.019	-79.190	-0.141	-0.047
-386.004	262.214	-0.103	-0.177
-384.990	45.839	0.214	0.196
-383.975	800.000	0.078	0.248
-382.960	-23.784	0.228	0.135
-381.946	652.816	0.083	-0.211
-380.931	29.022	0.124	0.104
-379.917	800.000	0.193	0.561
-378.902	-78.758	-0.181	-0.061
-377.888	-200.000	0.033	-0.271
-376.873	800.000	0.194	-0.631
-375.858	-200.000	0.003	-0.224
-374.844	-197.391	-0.084	0.001
-373.829	67.601	-0.240	0.243
-372.815	-136.819	-0.314	0.036
-371.800	-68.968	0.412	-0.157
-370.785	-29.904	-0.062	0.035
-369.771	-75.022	0.076	-0.027
-368.756	-24.175	0.129	-0.076
-367.742	-180.140	0.188	0.004
-366.727	-97.394	-0.157	0.040
-365.712	-111.606	-0.270	-0.054
-364.698	-137.744	-0.232	-0.026
-363.683	709.137	0.138	0.361
-362.669	51.785	-0.063	0.059
-361.654	436.937	0.063	-0.137
-360.639	72.571	-0.070	-0.072
-359.625	240.714	0.217	0.358
-358.610	-136.597	-0.135	0.015
-357.596	41.835	0.128	0.115
-356.581	587.657	0.138	-0.336
-355.566	332.667	0.104	0.199
-354.552	-124.696	0.196	0.030
-353.537	443.053	-0.007	0.015
-352.523	-79.955	0.080	-0.026
-351.508	-43.006	0.186	-0.093
-350.493	-89.996	0.263	0.076
-349.479	-89.976	0.133	0.038
-348.464	-52.592	-0.294	0.134
-347.450	217.512	0.036	0.056
-346.435	77.844	0.344	0.362
-345.420	-129.014	0.280	-0.039
-344.406	27.831	0.196	0.163
-343.391	100.389	0.076	-0.087
-342.377	24.090	-0.213	-0.174
-341.362	188.460	0.123	0.182
-340.348	-19.605	0.268	0.164
-339.333	800.000	0.057	0.194
-338.318	695.152	-0.099	-0.256
-337.304	-41.987	-0.154	0.078
-336.289	-200.000	-0.036	0.315
-335.275	167.574	-0.032	0.045
-334.260	800.000	-0.104	-0.298
-333.245	800.000	0.077	0.219
-332.231	800.000	0.137	0.456
-331.216	289.251	-0.253	0.453
-330.202	0.140	0.097	-0.069
-329.187	-200.000	0.021	-0.129
-328.172	-45.886	-0.194	-0.095
-327.158	-29.673	-0.159	-0.090
-326.143	-191.618	0.158	-0.002
-325.129	-145.221	0.148	-0.013
-324.114	54.672	0.202	0.193
-323.099	124.462	0.058	0.073
-322.085	149.948	-0.123	0.164
-321.070	-32.242	-0.353	0.195
-320.056	-71.967	-0.061	0.022
-319.041	-53.170	0.281	-0.128
-318.026	232.496	0.045	-0.072
-317.012	-43.806	0.112	0.056
-315.997	-88.355	-0.489	-0.145
-314.983	-200.000	-0.082	0.390
-313.968	-200.000	-0.015	0.092
-312.953	-200.000	-0.024	-0.246
-311.939	-139.518	0.058	0.006
-310.924	-200.000	0.002	-0.028
-309.910	-6.933	-0.077	-0.052
-308.895	800.000	-0.071	-0.200
-307.880	192.529	0.140	-0.208
-306.866	-200.000	-0.018	-0.219
-305.851	-79.035	-0.221	0.074
-304.837	-19.107	0.083	0.051
-303.822	-8.096	-0.140	0.094
-302.807	-108.080	0.374	0.080
-301.793	-65.003	0.310	-0.124
-300.778	4.875	0.174	0.126
-299.764	121.348	0.033	-0.041
-298.749	698.413	0.021	-0.055
-297.735	-200.000	-0.010	-0.263
-296.720	514.273	0.106	-0.245
-295.705	71.332	0.231	-0.236
-294.691	-77.828	0.083	0.028
-293.676	-13.337	0.110	0.070
-292.662	800.000	-0.060	0.166
-291.647	-42.870	-0.331	0.166
-290.632	-65.641	0.120	0.048
-289.618	-34.859	0.189	0.102
-288.603	211.728	-0.058	-0.090
-287.589	57.640	-0.241	0.232
-286.574	-24.592	-0.118	0.069
-285.559	-89.972	-0.064	-0.018
-284.545	52.215	-0.214	-0.202
-283.530	-200.000	0.023	-0.330
-282.516	800.000	-0.053	-0.180
-281.501	80.761	0.054	0.058
-280.486	-69.286	-0.042	-0.016
-279.472	-170.564	0.331	0.011
-278.457	-79.071	0.065	-0.022
-277.443	-116.207	-0.166	-0.030
-276.428	220.237	0.110	-0.174
-275.413	-147.396	-0.191	0.016
-274.399	-22.899	0.145	0.086
-273.384	-200.000	-0.010	-0.164
-272.370	267.923	0.127	-0.220
-271.355	53.953	-0.025	0.023
-270.340	800.000	0.158	0.458
-269.326	-5.158	0.263	0.179
-268.311	336.591	-0.073	-0.139
-267.297	-75.797	0.230	-0.081
-266.282	-90.653	-0.235	0.067
-265.267	269.849	-0.023	0.040
-264.253	-80.912	0.174	0.057
-263.238	-200.000	0.029	0.264
-262.224	218.734	0.085	-0.134
-261.209	7.973	-0.152	0.112
-260.195	28.650	-0.219	0.183
-259.180	197.625	-0.071	0.107
-258.165	800.000	0.013	-0.054
-257.151	-69.925	-0.071	-0.027
-256.136	-83.311	-0.217	-0.069
-255.122	776.663	-0.063	-0.170
-254.107	-186.588	0.090	-0.001
-253.092	-28.371	0.303	0.173
-252.078	-135.002	-0.173	0.021
-251.063	-105.257	-0.240	-0.054
-250.049	-60.436	0.284	-0.119
-249.034	386.402	0.103	-0.209
-248.019	-12.526	0.384	-0.247
-247.005	17.888	0.277	0.217
-245.990	18.510	0.280	0.220
-244.976	0.475	0.132	-0.093
-243.961	59.130	-0.123	0.119
-242.946	11.433	0.094	-0.071
-241.932	60.570	-0.373	0.364
-240.917	138.517	0.116	-0.150
-239.903	800.000	0.073	-0.214
-238.888	-200.000	-0.019	0.193
-237.873	-46.169	0.549	0.266
-236.859	324.602	0.129	-0.243
-235.844	-200.000	0.049	-0.372
-234.830	4.418	-0.034	-0.025
-233.815	-200.000	0.034	0.188
-232.800	-43.831	0.234	-0.116
-231.786	-65.616	-0.261	0.103
-230.771	130.374	-0.221	0.279
-229.757	-135.972	0.255	0.030
-228.742	141.655	-0.092	-0.120
-227.727	91.712	0.118	-0.131
-226.713	-94.741	-0.143	0.038
-225.698	-200.000	-0.028	-0.340
-224.684	-200.000	-0.028	-0.164
-223.669	-43.865	-0.192	-0.095
-222.655	-127.569	-0.182	-0.026
-221.640	-159.272	-0.157	-0.009
-220.625	259.541	0.100	0.170
-219.611	800.000	-0.028	0.098
-218.596	800.000	0.076	-0.266
-217.582	-200.000	-0.041	-0.184
-216.567	-126.549	0.029	-0.004
-215.552	621.325	-0.074	-0.183
-214.538	-27.763	-0.042	-0.024
-213.523	-75.121	0.108	-0.038
-212.509	-155.916	0.304	0.019
-211.494	29.508	-0.176	0.148
-210.479	-200.000	0.069	0.335
-209.465	88.253	-0.087	0.095
-208.450	-200.000	-0.036	-0.179
-207.436	109.256	-0.067	0.079
-206.421	800.000	-0.086	0.245
-205.406	800.000	-0.051	0.200
-204.392	-161.127	-0.123	0.006
-203.377	297.955	0.126	0.228
-202.363	-200.000	-0.002	-0.199
-201.348	-62.798	0.059	-0.024
-200.333	-200.000	-0.014	-0.496
-199.319	800.000	-0.122	-0.451
-198.304	800.000	0.066	-0.264
-197.290	-119.299	0.258	0.044
-196.275	800.000	0.019	0.058
-195.260	-141.046	-0.143	-0.014
-194.246	16.565	0.305	0.237
-193.231	389.453	-0.065	-0.132
-192.217	800.000	0.077	-0.280
-191.202	-32.793	-0.266	0.145
-190.187	-200.000	0.013	-0.365
-189.173	80.685	-0.242	-0.256
-188.158	-5.365	0.322	-0.218
-187.144	-200.000	-0.088	-0.428
-186.129	-74.638	-0.245	0.087
-185.114	261.543	0.149	0.254
-184.100	0.111	0.151	0.106
-183.085	-84.902	0.277	-0.086
-182.071	-47.371	-0.168	0.081
-181.056	-129.998	0.085	-0.011
-180.042	170.670	0.061	0.086
-179.027	-36.482	0.176	-0.093
-178.012	-115.553	-0.369	0.068
-176.998	-174.653	0.406	0.011
-175.983	-200.000	0.033	-0.152
-174.969	446.403	0.107	0.231
-173.954	-132.314	0.309	0.039
-172.939	800.000	0.028	0.077
-171.925	67.913	0.130	0.131
-170.910	22.458	-0.128	-0.103
-169.896	-200.000	0.012	-0.190
-168.881	800.000	0.093	-0.363
-167.866	-44.991	-0.097	0.047
-166.852	183.290	-0.215	0.312
-165.837	420.300	-0.051	-0.108
-164.823	454.783	-0.029	0.063
-163.808	-97.134	0.359	-0.092
-162.793	28.108	-0.088	-0.073
-161.779	-8.988	0.300	0.197
-160.764	336.074	0.085	0.162
-159.750	800.000	0.086	-0.251
-158.735	60.878	-0.225	0.219
-157.720	-82.323	0.364	0.116
-156.706	60.537	-0.136	-0.132
-155.691	219.579	-0.248	0.389
-154.677	800.000	-0.046	0.161
-153.662	242.574	-0.180	-0.296
-152.647	-137.237	0.035	0.004
-151.633	-12.698	-0.024	-0.015
-150.618	208.629	-0.100	0.154
-149.604	116.332	0.103	0.124
-148.589	-97.869	0.235	-0.060
-147.574	-200.000	0.015	-0.141
-146.560	111.242	-0.262	0.310
-145.545	800.000	0.055	-0.198
-144.531	-151.475	-0.180	0.013
-143.516	-200.000	0.023	0.193
-142.502	-151.370	-0.238	-0.017
-141.487	75.904	0.073	0.075
-140.472	-200.000	0.031	-0.180
-139.458	672.685	0.063	0.160
-138.443	-28.286	-0.201	0.114
-137.429	72.165	0.078	-0.080
-136.414	-200.000	-0.009	0.055
-135.399	282.754	0.185	-0.326
-134.385	-125.997	0.392	0.058
-133.370	569.141	0.053	-0.126
-132.356	76.658	-0.142	-0.148
-131.341	78.125	0.043	-0.045
-130.326	16.587	0.131	0.102
-129.312	457.681	0.130	0.285
-128.297	-180.998	0.260	0.005
-127.283	-200.000	0.004	-0.232
-126.268	-200.000	0.042	-0.232
-125.253	-1.038	0.305	-0.212
-124.239	-115.531	-0.180	-0.033
-123.224	133.160	-0.202	0.256
-122.210	36.324	-0.243	-0.210
-121.195	-29.233	0.158	-0.089
-120.180	494.523	0.094	0.211
