DTS Sentinel unit serial number:	SN413079Multiplexer serial number:	ORYXHardware model number:	OX4-SRSoftware version number:	ORYX F/W v4.00 Oryx Data Collector v3.7.2.0data status	okinstallation	princeton_trtdifferential loss correction	single-endedforward channel	channel 2reverse channel	N/Adate	2019/09/19time	02:03:35forward acquisition time	60.00reverse acquisition time	0.00gamma	496.2192k internal	0.2353k external	0.2353temperature offset calibration	1.0017default loss term (dB/km)	0.3790temperature slope calibration	1.0000multiplexer offset coefficient	1.0000multiplexer slope coefficient	1.0000fibre end	0.00T internal ref (°C)	21.25T ext. ref 1 (°C)	0.69T ext. ref 2 (°C)	14.86length (m)	temperature (°C)	Stokes	anti-Stokes-747.200	732.531	0.024	-0.065
-746.185	-143.825	-0.325	-0.031
-745.171	11.617	-0.060	0.046
-744.156	147.424	-0.109	0.146
-743.142	-200.000	0.062	-0.366
-742.127	283.599	0.032	0.058
-741.112	23.622	0.052	0.043
-740.098	489.548	-0.169	0.385
-739.083	-58.967	0.170	-0.073
-738.069	449.822	0.162	0.357
-737.054	-149.242	0.139	-0.011
-736.039	16.677	-0.277	0.219
-735.025	800.000	0.095	0.329
-734.010	-102.435	-0.363	0.087
-732.996	-200.000	-0.121	0.575
-731.981	98.741	-0.165	0.190
-730.966	-200.000	0.006	-0.097
-729.952	143.061	0.140	0.185
-728.937	308.596	0.038	0.072
-727.923	724.026	-0.069	0.184
-726.908	130.300	-0.053	0.067
-725.894	1.975	-0.085	-0.061
-724.879	800.000	-0.041	-0.155
-723.864	-111.551	-0.219	0.044
-722.850	-102.763	0.121	0.029
-721.835	-55.786	-0.280	-0.125
-720.821	-153.531	0.360	0.025
-719.806	16.743	-0.122	-0.096
-718.791	189.914	-0.268	0.400
-717.777	-36.492	-0.405	0.217
-716.762	-119.672	-0.110	0.019
-715.748	-113.273	0.231	0.045
-714.733	5.922	-0.398	-0.293
-713.718	-104.624	-0.130	-0.030
-712.704	-175.737	-0.387	-0.010
-711.689	-200.000	-0.005	-0.086
-710.675	61.967	-0.132	0.131
-709.660	-6.032	-0.213	-0.145
-708.645	-200.000	-0.001	0.154
-707.631	270.437	0.010	0.018
-706.616	800.000	0.036	0.155
-705.602	53.131	0.148	0.141
-704.587	47.447	-0.173	-0.160
-703.572	-200.000	-0.015	-0.071
-702.558	800.000	0.046	0.141
-701.543	-200.000	-0.022	-0.234
-700.529	85.895	0.139	-0.152
-699.514	176.167	-0.113	-0.163
-698.499	-48.396	-0.311	-0.149
-697.485	800.000	0.032	-0.090
-696.470	164.700	0.092	-0.129
-695.456	800.000	-0.065	0.281
-694.441	-20.222	-0.366	-0.224
-693.426	-153.137	-0.057	-0.004
-692.412	800.000	0.040	0.159
-691.397	145.579	-0.063	-0.083
-690.383	-93.380	-0.186	0.051
-689.368	164.591	-0.127	0.178
-688.354	-200.000	0.049	-0.235
-687.339	465.507	-0.091	-0.203
-686.324	800.000	0.037	0.103
-685.310	-200.000	0.025	-0.347
-684.295	800.000	-0.063	-0.194
-683.281	-17.853	-0.226	0.141
-682.266	145.522	0.132	-0.176
-681.251	35.476	0.062	-0.054
-680.237	46.425	-0.196	0.181
-679.222	-16.411	0.158	-0.100
-678.208	-122.156	-0.456	0.074
-677.193	800.000	0.067	-0.201
-676.178	-2.666	-0.244	0.170
-675.164	-200.000	-0.014	0.071
-674.149	121.560	-0.407	-0.504
-673.135	-200.000	0.131	-0.000
-672.120	37.038	-0.295	0.259
-671.105	800.000	-0.078	-0.273
-670.091	-59.745	0.112	0.048
-669.076	269.972	-0.020	0.036
-668.062	-122.868	-0.313	0.050
-667.047	-24.287	0.145	0.086
-666.032	148.852	-0.179	-0.240
-665.018	109.287	-0.189	-0.225
-664.003	-87.040	0.495	0.150
-662.989	73.111	-0.199	0.206
-661.974	-200.000	0.001	0.018
-660.959	640.916	0.132	-0.334
-659.945	800.000	0.004	0.017
-658.930	800.000	-0.048	0.153
-657.916	-68.817	-0.262	0.100
-656.901	749.928	-0.134	0.360
-655.886	-82.019	0.196	0.064
-654.872	-47.164	-0.137	-0.066
-653.857	-29.925	-0.208	-0.118
-652.843	-28.125	0.386	0.222
-651.828	-83.066	0.246	-0.079
-650.814	-68.001	0.096	-0.037
-649.799	-200.000	-0.057	0.373
-648.784	146.725	0.046	0.061
-647.770	-7.604	-0.235	-0.158
-646.755	-119.688	-0.216	0.037
-645.741	102.220	0.055	0.063
-644.726	-187.531	0.239	0.003
-643.711	322.897	0.193	-0.365
-642.697	-107.274	0.428	0.094
-641.682	-93.831	-0.074	-0.020
-640.668	-123.057	-0.308	0.049
-639.653	-133.440	0.072	0.009
-638.638	286.744	0.118	-0.211
-637.624	-95.395	-0.139	0.037
-636.609	-59.457	0.250	-0.107
-635.595	386.793	-0.056	-0.114
-634.580	233.891	-0.096	0.157
-633.565	-66.434	-0.090	0.036
-632.551	-200.000	0.068	-0.309
-631.536	-113.449	0.108	-0.021
-630.522	800.000	0.036	0.129
-629.507	214.466	0.126	-0.198
-628.492	-94.839	-0.362	-0.097
-627.478	60.959	-0.066	0.065
-626.463	800.000	-0.052	-0.216
-625.449	716.252	0.162	-0.426
-624.434	200.619	0.101	0.155
-623.419	-119.117	-0.334	0.058
-622.405	100.323	0.192	0.222
-621.390	310.510	-0.092	-0.171
-620.376	-11.060	-0.182	0.119
-619.361	-200.000	-0.070	-0.322
-618.346	74.698	-0.201	-0.210
-617.332	-82.306	0.154	0.050
-616.317	199.971	-0.072	0.109
-615.303	-136.550	-0.355	-0.041
-614.288	-200.000	-0.008	-0.088
-613.273	800.000	-0.064	0.237
-612.259	-74.570	0.023	-0.008
-611.244	-6.273	0.049	0.033
-610.230	302.206	-0.134	-0.246
-609.215	-133.377	0.131	-0.016
-608.201	-112.837	-0.112	0.022
-607.186	-47.660	0.183	-0.088
-606.171	138.128	-0.232	-0.302
-605.157	43.591	0.026	-0.024
-604.142	-131.394	-0.276	0.036
-603.128	495.574	-0.124	-0.282
-602.113	-43.848	0.091	0.045
-601.098	-200.000	-0.061	-0.275
-600.084	-156.818	0.035	0.002
-599.069	78.673	-0.087	0.092
-598.055	-151.909	-0.387	0.028
-597.040	-200.000	-0.024	0.171
-596.025	-88.511	0.174	-0.051
-595.011	-200.000	-0.010	0.204
-593.996	-200.000	-0.029	0.200
-592.982	800.000	0.069	-0.214
-591.967	800.000	0.072	0.226
-590.952	-200.000	0.001	0.405
-589.938	-200.000	0.035	0.357
-588.923	-71.773	-0.142	0.052
-587.909	138.358	0.187	-0.243
-586.894	324.146	0.197	-0.372
-585.879	66.534	0.194	-0.196
-584.865	388.247	0.106	0.217
-583.850	516.345	0.062	-0.143
-582.836	-145.082	-0.194	0.018
-581.821	800.000	-0.145	-0.422
-580.806	800.000	0.163	-0.480
-579.792	-70.677	-0.157	-0.059
-578.777	297.892	0.074	0.134
-577.763	380.513	0.042	-0.085
-576.748	-1.991	-0.204	-0.142
-575.733	12.268	0.046	-0.035
-574.719	-23.854	-0.284	-0.168
-573.704	-142.655	-0.229	0.022
-572.690	800.000	0.071	-0.259
-571.675	-63.832	0.229	-0.093
-570.661	800.000	0.107	0.350
-569.646	412.876	-0.148	0.312
-568.631	-200.000	0.023	0.165
-567.617	-200.000	0.025	0.201
-566.602	340.610	-0.113	-0.218
-565.588	-200.000	-0.006	-0.177
-564.573	18.463	0.347	0.275
-563.558	800.000	0.061	-0.193
-562.544	235.838	0.057	-0.094
-561.529	-200.000	-0.029	-0.186
-560.515	415.060	0.151	0.318
-559.500	-57.887	0.137	-0.059
-558.485	-200.000	0.023	0.099
-557.471	-25.723	-0.195	-0.114
-556.456	1.203	-0.266	-0.189
-555.442	151.352	-0.012	-0.016
-554.427	800.000	-0.144	0.495
-553.412	119.397	-0.141	-0.172
-552.398	-79.664	0.354	0.118
-551.383	75.442	0.222	0.232
-550.369	299.291	-0.175	0.319
-549.354	-144.874	0.133	0.012
-548.339	-56.824	0.141	-0.062
-547.325	800.000	0.058	0.187
-546.310	-200.000	0.064	-0.305
-545.296	-79.553	0.077	0.026
-544.281	164.674	-0.095	0.133
-543.266	512.390	0.016	-0.036
-542.252	10.015	0.217	0.163
-541.237	-42.776	0.271	-0.136
-540.223	24.224	0.054	-0.044
-539.208	32.177	-0.192	0.164
-538.193	104.772	0.200	0.234
-537.179	200.140	0.137	-0.208
-536.164	-98.344	0.256	-0.065
-535.150	-2.583	-0.460	0.318
-534.135	132.416	-0.089	-0.113
-533.121	171.478	0.062	-0.088
-532.106	164.349	0.140	-0.195
-531.091	368.444	-0.169	0.339
-530.077	-172.702	0.253	-0.008
-529.062	276.920	0.173	-0.304
-528.048	-27.397	-0.277	-0.159
-527.033	-119.681	0.379	0.065
-526.018	-100.969	0.190	0.046
-525.004	134.438	-0.063	0.081
-523.989	-52.953	0.173	-0.079
-522.975	519.297	0.053	0.123
-521.960	354.112	0.054	-0.107
-520.945	-4.423	-0.100	0.068
-519.931	-44.544	0.158	-0.078
-518.916	-116.364	-0.082	-0.015
-517.902	-19.033	-0.223	0.137
-516.887	-7.579	0.181	0.121
-515.872	-49.203	-0.207	0.098
-514.858	18.354	-0.101	0.080
-513.843	-143.206	0.137	-0.013
-512.829	-9.258	-0.120	0.079
-511.814	-200.000	-0.013	-0.138
-510.799	-170.311	-0.105	-0.004
-509.785	-150.576	0.208	-0.016
-508.770	800.000	-0.035	-0.144
-507.756	-200.000	-0.005	-0.218
-506.741	-95.272	-0.063	0.017
-505.726	-139.102	-0.143	-0.015
-504.712	800.000	-0.006	0.017
-503.697	-44.465	-0.258	-0.128
-502.683	58.648	-0.078	0.076
-501.668	-200.000	0.048	-0.323
-500.653	180.815	-0.220	0.319
-499.639	201.457	0.091	0.139
-498.624	29.522	-0.173	0.145
-497.610	-123.284	-0.201	0.032
-496.595	-150.239	-0.216	0.017
-495.581	-27.979	-0.236	0.135
-494.566	-119.275	0.130	-0.022
-493.551	110.543	-0.314	-0.373
-492.537	86.712	0.228	0.248
-491.522	-153.024	0.271	0.019
-490.508	185.332	0.154	-0.225
-489.493	48.359	-0.039	-0.036
-488.478	513.086	-0.125	-0.288
-487.464	-52.387	0.385	0.176
-486.449	102.590	0.057	-0.066
-485.435	75.704	0.224	-0.234
-484.420	-117.512	0.125	0.022
-483.405	118.710	0.265	0.323
-482.391	56.874	-0.142	0.136
-481.376	232.916	-0.164	-0.265
-480.362	4.790	0.228	-0.165
-479.347	-17.732	-0.491	-0.304
-478.332	-152.155	-0.395	-0.028
-477.318	-200.000	0.004	-0.125
-476.303	-121.669	-0.300	-0.049
-475.289	286.441	-0.063	0.112
-474.274	800.000	0.069	-0.269
-473.259	129.940	-0.056	0.070
-472.245	87.057	0.093	0.101
-471.230	174.400	-0.198	0.283
-470.216	282.372	-0.106	-0.187
-469.201	-10.579	-0.168	0.110
-468.186	-128.598	-0.329	0.046
-467.172	-74.734	0.263	0.093
-466.157	500.182	0.142	0.324
-465.143	-52.941	0.244	-0.111
-464.128	-91.012	-0.375	0.106
-463.113	151.755	0.092	0.124
-462.099	-47.066	-0.065	0.031
-461.084	-169.104	0.150	0.006
-460.070	-19.955	-0.175	0.107
-459.055	-83.847	-0.202	-0.063
-458.040	800.000	0.038	-0.138
-457.026	-200.000	-0.009	-0.139
-456.011	-127.420	0.177	-0.025
-454.997	800.000	0.126	-0.436
-453.982	-60.423	-0.131	0.055
-452.968	53.692	0.144	0.136
-451.953	-200.000	0.012	-0.219
-450.938	33.016	-0.154	-0.131
-449.924	34.535	0.266	0.229
-448.909	187.770	-0.180	-0.265
-447.895	412.279	0.023	0.048
-446.880	72.212	0.203	0.208
-445.865	199.457	-0.293	-0.443
-444.851	484.139	-0.239	-0.535
-443.836	250.720	-0.122	-0.204
-442.822	385.680	-0.063	-0.129
-441.807	191.052	0.194	0.287
-440.792	-139.267	-0.200	-0.021
-439.778	16.750	-0.116	0.090
-438.763	135.292	-0.133	0.171
-437.749	-200.000	0.038	-0.249
-436.734	42.279	-0.190	-0.170
-435.719	-25.384	-0.156	0.091
-434.705	-200.000	-0.011	0.499
-433.690	514.540	-0.113	-0.260
-432.676	800.000	0.059	0.227
-431.661	-200.000	0.027	-0.191
-430.646	-196.203	0.307	0.002
-429.632	-200.000	-0.054	0.340
-428.617	-200.000	-0.044	-0.230
-427.603	188.137	0.151	0.223
-426.588	-103.205	-0.071	0.017
-425.573	11.588	0.415	0.313
-424.559	-94.044	-0.285	-0.077
-423.544	-138.467	0.023	-0.002
-422.530	-4.217	-0.148	0.101
-421.515	49.731	0.230	-0.214
-420.500	-52.621	0.418	0.190
-419.486	800.000	-0.082	0.226
-418.471	800.000	-0.065	-0.184
-417.457	70.960	-0.054	0.055
-416.442	-84.682	-0.143	-0.044
-415.428	214.045	0.083	-0.130
-414.413	367.195	-0.079	-0.157
-413.398	800.000	0.101	-0.424
-412.384	-200.000	0.068	-0.294
-411.369	52.002	0.229	0.214
-410.355	29.771	-0.155	0.130
-409.340	-67.982	0.045	-0.017
-408.325	11.625	0.166	-0.125
-407.311	-74.830	-0.099	-0.035
-406.296	-149.729	0.337	-0.026
-405.282	37.876	-0.114	-0.100
-404.267	-173.230	-0.295	-0.009
-403.252	-38.139	-0.090	0.047
-402.238	-170.207	-0.234	-0.008
-401.223	-118.876	0.341	-0.059
-400.209	-146.733	-0.151	-0.013
-399.194	-17.448	0.275	0.170
-398.179	-60.837	0.169	-0.070
-397.165	-70.072	-0.078	0.029
-396.150	-6.725	-0.171	-0.114
-395.136	800.000	0.141	-0.524
-394.121	-55.697	0.255	0.112
-393.106	278.183	0.083	0.145
-392.092	286.020	0.124	0.220
-391.077	141.969	0.153	-0.200
-390.063	74.446	-0.247	-0.255
-389.048	-55.522	-0.292	-0.129
-388.033	344.588	-0.088	0.169
-387.019	131.780	0.186	0.235
-386.004	-200.000	0.047	0.217
-384.990	-54.128	0.184	-0.082
-383.975	0.291	-0.140	0.098
-382.960	-148.680	0.244	-0.020
-381.946	96.597	0.104	0.117
-380.931	341.375	-0.108	-0.207
-379.917	-109.962	0.185	0.038
-378.902	770.746	0.037	0.100
-377.888	57.269	0.255	0.244
-376.873	-38.892	-0.184	-0.095
-375.858	299.228	-0.177	-0.320
-374.844	65.911	-0.291	0.290
-373.829	349.208	-0.043	0.084
-372.815	-25.922	-0.187	-0.108
-371.800	157.816	-0.183	-0.250
-370.785	450.846	0.095	-0.207
-369.771	127.252	0.208	-0.259
-368.756	-200.000	-0.016	0.106
-367.742	414.257	-0.085	0.178
-366.727	-145.671	-0.080	0.007
-365.712	-118.210	-0.084	-0.015
-364.698	453.994	0.076	0.165
-363.683	-113.900	0.234	0.045
-362.669	-200.000	0.010	0.067
-361.654	41.470	-0.136	-0.121
-360.639	100.170	0.047	-0.053
-359.625	17.425	0.275	0.214
-358.610	135.979	-0.228	0.291
-357.596	-129.626	0.290	-0.039
-356.581	-200.000	0.026	0.000
-355.566	-11.400	0.058	-0.037
-354.552	-19.076	0.107	0.065
-353.537	-28.203	-0.114	-0.065
-352.523	-61.394	0.308	-0.127
-351.508	-200.000	-0.071	-0.358
-350.493	383.580	0.100	-0.201
-349.479	-45.296	-0.308	0.150
-348.464	127.725	-0.095	0.119
-347.450	-178.109	0.263	0.006
-346.435	779.367	-0.067	-0.179
-345.420	791.169	0.019	0.052
-344.406	-65.896	-0.331	0.130
-343.391	0.901	0.395	-0.278
-342.377	-143.376	-0.183	-0.017
-341.362	223.783	0.252	0.400
-340.348	-200.000	0.015	0.125
-339.333	-138.292	0.321	0.035
-338.318	-105.053	-0.115	0.026
-337.304	134.100	-0.105	0.133
-336.289	-154.669	0.165	-0.011
-335.275	90.774	-0.039	0.043
-334.260	800.000	0.035	-0.133
-333.245	-200.000	-0.034	0.398
-332.231	-167.169	-0.375	-0.015
-331.216	-66.006	0.036	-0.014
-330.202	-175.252	0.294	-0.008
-329.187	-43.227	-0.069	-0.034
-328.172	-129.888	-0.383	-0.052
-327.158	-98.191	0.384	0.097
-326.143	-200.000	-0.014	-0.240
-325.129	-200.000	0.046	-0.301
-324.114	14.787	-0.280	-0.215
-323.099	55.983	-0.159	-0.152
-322.085	-116.376	0.242	0.044
-321.070	84.166	0.097	-0.104
-320.056	-144.510	-0.338	-0.031
-319.041	-200.000	0.006	0.288
-318.026	310.574	0.226	0.415
-317.012	-200.000	-0.032	0.292
-315.997	95.210	-0.159	-0.178
-314.983	-200.000	0.031	-0.331
-313.968	58.379	0.106	0.102
-312.953	347.706	-0.089	-0.171
-311.939	81.296	0.156	0.166
-310.924	117.876	0.135	0.163
-309.910	-88.362	-0.059	0.017
-308.895	156.238	-0.128	0.173
-307.880	-19.016	0.112	-0.068
-306.866	-58.498	-0.412	-0.175
-305.851	178.854	0.092	0.132
-304.837	-130.023	0.127	0.017
-303.822	770.990	0.049	-0.131
-302.807	661.677	-0.108	0.273
-301.793	555.353	0.131	-0.309
-300.778	-200.000	0.013	0.250
-299.764	309.384	0.163	0.298
-298.749	-36.974	-0.296	0.155
-297.735	-17.610	0.203	0.125
-296.720	-49.450	0.153	0.071
-295.705	-154.382	-0.231	0.015
-294.691	513.339	0.055	-0.125
-293.676	-200.000	0.035	-0.446
-292.662	-119.157	0.172	0.029
-291.647	171.153	0.083	0.117
-290.632	412.550	0.142	0.295
-289.618	-18.139	0.345	-0.212
-288.603	800.000	-0.118	0.398
-287.589	364.101	0.179	0.352
-286.574	103.520	0.091	0.105
-285.559	-87.627	-0.358	0.106
-284.545	147.892	0.062	0.081
-283.530	-145.976	0.104	-0.009
-282.516	201.684	0.119	-0.180
-281.501	-109.637	-0.266	0.055
-280.486	-73.249	-0.143	-0.051
-279.472	259.667	0.001	-0.002
-278.457	-107.596	-0.215	-0.046
-277.443	721.080	0.072	-0.187
-276.428	800.000	-0.035	-0.135
-275.413	800.000	-0.112	-0.352
-274.399	173.690	0.158	-0.223
-273.384	68.562	0.094	0.094
-272.370	167.590	-0.152	0.212
-271.355	-50.426	-0.364	-0.168
-270.340	40.490	0.053	0.046
-269.326	-136.482	-0.032	0.004
-268.311	144.838	0.055	-0.072
-267.297	-156.590	0.241	-0.015
-266.282	800.000	0.077	0.219
-265.267	130.686	0.289	-0.362
-264.253	-200.000	0.033	0.318
-263.238	124.196	-0.125	0.154
-262.224	-72.964	-0.355	-0.128
-261.209	456.514	0.117	-0.253
-260.195	158.745	0.143	0.195
-259.180	-200.000	0.015	0.162
-258.165	53.107	-0.247	0.232
-257.151	800.000	-0.048	-0.156
-256.136	-3.186	0.059	-0.040
-255.122	16.240	0.153	-0.118
-254.107	7.516	0.248	-0.182
-253.092	58.711	0.422	0.405
-252.078	163.285	0.146	0.200
-251.063	800.000	-0.052	-0.154
-250.049	-108.992	0.186	0.039
-249.034	-22.777	-0.271	-0.160
-248.019	151.426	-0.025	-0.033
-247.005	-169.941	0.425	0.015
-245.990	-188.888	-0.289	0.003
-244.976	152.034	0.107	-0.142
-243.961	15.003	-0.259	-0.199
-242.946	-95.265	-0.189	-0.050
-241.932	-89.791	-0.187	0.053
-240.917	143.270	-0.013	-0.017
-239.903	-200.000	0.020	-0.284
-238.888	-200.000	-0.027	-0.313
-237.873	586.295	-0.050	0.119
-236.859	-92.148	-0.083	-0.023
-235.844	742.370	0.043	0.114
-234.830	286.890	-0.146	0.257
-233.815	-56.336	0.174	-0.076
-232.800	-107.127	-0.480	-0.103
-231.786	-200.000	0.005	0.064
-230.771	-101.257	-0.235	-0.056
-229.757	418.861	0.070	0.147
-228.742	113.435	-0.151	-0.179
-227.727	-57.634	0.301	-0.129
-226.713	97.188	0.048	0.054
-225.698	-74.598	-0.403	-0.142
-224.684	-200.000	-0.027	0.179
-223.669	278.837	-0.183	0.318
-222.655	-200.000	0.015	-0.298
-221.640	-138.184	0.147	0.016
-220.625	220.972	0.206	0.324
-219.611	-200.000	-0.015	0.287
-218.596	65.084	0.119	0.118
-217.582	66.291	0.223	0.221
-216.567	800.000	-0.015	0.043
-215.552	-64.466	-0.139	-0.055
-214.538	-200.000	-0.045	0.308
-213.523	800.000	0.049	0.164
-212.509	-200.000	0.094	-0.407
-211.494	0.217	-0.171	0.119
-210.479	800.000	-0.038	0.156
-209.465	606.292	0.142	-0.344
-208.450	800.000	-0.035	0.111
-207.436	295.088	0.052	-0.094
-206.421	-82.772	-0.333	-0.105
-205.406	711.179	0.025	-0.064
-204.392	-14.904	-0.078	0.049
-203.377	-41.094	-0.135	0.068
-202.363	237.988	0.074	0.119
-201.348	-200.000	-0.101	0.464
-200.333	505.367	0.036	0.080
-199.319	51.000	-0.273	0.253
-198.304	-21.832	0.132	0.078
-197.290	-200.000	-0.012	0.203
-196.275	-68.612	-0.146	0.055
-195.260	800.000	0.056	-0.200
-194.246	97.954	0.262	0.294
-193.231	103.733	0.188	-0.215
-192.217	252.798	0.237	0.394
-191.202	314.233	0.131	-0.241
-190.187	600.831	-0.123	0.299
-189.173	-160.314	0.392	0.021
-188.158	-110.633	0.276	-0.056
-187.144	-47.547	-0.279	-0.132
-186.129	31.890	0.218	0.183
-185.114	-200.000	-0.015	0.113
-184.100	12.130	0.220	0.165
-183.085	-73.537	-0.193	-0.069
-182.071	-200.000	-0.021	0.120
-181.056	623.366	0.044	0.108
-180.042	-83.497	-0.164	-0.051
-179.027	360.704	-0.053	0.103
-178.012	-73.203	0.354	0.127
-176.998	-200.000	-0.067	-0.403
-175.983	58.178	-0.227	0.216
-174.969	118.343	0.103	0.124
-173.954	-186.417	-0.198	-0.003
-172.939	-47.139	-0.235	0.112
-171.925	530.728	-0.072	0.165
-170.910	-26.415	-0.177	-0.101
-169.896	45.394	0.207	-0.186
-168.881	80.946	-0.241	0.253
-167.866	-125.214	0.331	0.049
-166.852	-200.000	-0.041	0.238
-165.837	-200.000	0.006	-0.028
-164.823	706.816	0.089	0.229
-163.808	164.419	-0.167	0.230
-162.793	96.460	0.257	-0.286
-161.779	-35.200	0.127	-0.067
-160.764	-200.000	0.054	-0.243
-159.750	-93.270	-0.116	-0.031
-158.735	715.187	0.161	-0.416
-157.720	-1.918	0.158	0.108
-156.706	-126.156	-0.449	0.066
-155.691	-200.000	-0.001	-0.272
-154.677	39.669	0.139	0.121
-153.662	151.729	-0.005	-0.006
-152.647	264.892	0.066	-0.112
-151.633	-59.316	0.066	-0.028
-150.618	237.539	0.099	-0.159
-149.604	-18.680	-0.286	-0.174
-148.589	269.057	0.060	-0.103
-147.574	240.314	-0.263	0.428
-146.560	350.528	0.049	-0.094
-145.545	-0.941	0.183	-0.126
-144.531	36.288	-0.268	0.230
-143.516	-155.849	-0.186	-0.012
-142.502	73.543	-0.194	-0.198
-141.487	-41.117	-0.087	-0.044
-140.472	31.536	-0.082	0.068
-139.458	-15.948	-0.137	0.085
-138.443	27.688	-0.032	0.026
-137.429	15.048	0.150	0.114
-136.414	7.919	-0.039	0.028
-135.399	117.805	0.123	0.147
-134.385	-126.574	0.117	-0.017
-133.370	-164.554	-0.189	0.008
-132.356	101.493	0.020	0.023
-131.341	800.000	-0.086	0.281
-130.326	-200.000	-0.007	0.246
-129.312	287.643	-0.194	-0.342
-128.297	-48.227	0.162	-0.076
-127.283	-79.573	0.443	0.145
-126.268	-200.000	0.025	-0.413
-125.253	-200.000	0.013	0.130
-124.239	193.933	-0.062	-0.091
-123.224	-60.924	-0.080	-0.033
-122.210	800.000	0.019	0.078
-121.195	-200.000	-0.007	0.186
