DTS Sentinel unit serial number:	SN413079Multiplexer serial number:	ORYXHardware model number:	OX4-SRSoftware version number:	ORYX F/W v4.00 Oryx Data Collector v3.7.2.0data status	okinstallation	princeton_trtdifferential loss correction	single-endedforward channel	channel 2reverse channel	N/Adate	2019/09/12time	13:41:11forward acquisition time	60.00reverse acquisition time	0.00gamma	496.2192k internal	0.2298k external	0.2298temperature offset calibration	1.0082default loss term (dB/km)	0.3790temperature slope calibration	1.0000multiplexer offset coefficient	1.0000multiplexer slope coefficient	1.0000fibre end	0.00T internal ref (°C)	41.05T ext. ref 1 (°C)	2.12T ext. ref 2 (°C)	35.26length (m)	temperature (°C)	Stokes	anti-Stokes-747.200	-79.366	-0.346	-0.120
-746.185	-200.000	0.011	0.060
-745.171	-200.000	0.013	0.140
-744.156	-6.079	0.259	0.181
-743.142	-19.881	-0.160	0.101
-742.127	403.001	0.063	0.136
-741.112	-133.719	-0.134	0.017
-740.098	127.448	-0.141	0.183
-739.083	525.781	-0.148	0.356
-738.069	285.016	0.067	-0.123
-737.054	-85.662	-0.186	-0.059
-736.039	-133.878	-0.128	-0.016
-735.025	-200.000	0.014	0.146
-734.010	800.000	0.069	0.235
-732.996	-76.125	-0.105	0.038
-731.981	-39.927	0.105	0.056
-730.966	749.054	-0.056	-0.155
-729.952	-200.000	-0.014	-0.366
-728.937	-200.000	-0.069	-0.309
-727.923	96.802	-0.178	-0.208
-726.908	-200.000	0.023	-0.180
-725.894	266.497	0.042	-0.075
-724.879	-39.312	0.084	-0.045
-723.864	800.000	-0.046	0.183
-722.850	-12.598	0.057	0.038
-721.835	-200.000	0.039	-0.297
-720.821	120.300	-0.069	-0.088
-719.806	-85.577	-0.160	0.051
-718.791	7.624	0.300	-0.229
-717.777	71.539	0.038	-0.040
-716.762	-2.435	-0.210	-0.150
-715.748	-74.546	-0.219	-0.080
-714.733	40.668	-0.446	0.410
-713.718	-177.944	-0.265	0.006
-712.704	-28.428	-0.188	0.111
-711.689	117.555	0.047	0.059
-710.675	-200.000	-0.017	-0.288
-709.660	602.275	0.057	-0.145
-708.645	-42.766	0.088	0.045
-707.631	13.747	0.092	-0.073
-706.616	-6.549	0.452	-0.314
-705.602	-200.000	0.017	-0.253
-704.587	-46.189	0.297	0.149
-703.572	105.059	-0.086	-0.103
-702.558	-173.025	-0.408	0.013
-701.543	-200.000	-0.027	0.436
-700.529	-200.000	-0.012	-0.183
-699.514	-200.000	-0.028	0.159
-698.499	-144.609	0.108	-0.010
-697.485	69.466	-0.204	0.214
-696.470	-200.000	-0.012	0.122
-695.456	330.537	-0.212	0.417
-694.441	-69.938	0.253	-0.098
-693.426	-200.000	0.012	-0.151
-692.412	12.048	-0.235	-0.184
-691.397	-200.000	0.018	0.232
-690.383	-63.738	0.165	0.069
-689.368	-61.702	0.419	0.179
-688.354	-200.000	-0.089	0.427
-687.339	-101.485	0.229	-0.057
-686.324	-200.000	0.024	-0.219
-685.310	14.736	-0.163	-0.130
-684.295	-41.155	-0.182	-0.096
-683.281	-19.047	-0.260	0.165
-682.266	800.000	-0.105	0.305
-681.251	342.752	0.179	0.358
-680.237	-200.000	-0.044	-0.286
-679.222	-172.813	0.104	-0.003
-678.208	225.776	-0.164	-0.271
-677.193	-25.391	0.140	0.084
-676.178	20.681	-0.241	-0.198
-675.164	607.347	0.125	-0.318
-674.149	26.914	-0.220	-0.187
-673.135	-200.000	-0.014	0.173
-672.120	-26.326	0.133	0.079
-671.105	-200.000	-0.001	0.357
-670.091	-200.000	-0.028	0.341
-669.076	-191.421	-0.110	0.001
-668.062	-200.000	-0.001	-0.021
-667.047	189.461	-0.215	0.328
-666.032	-85.049	-0.376	-0.120
-665.018	-200.000	0.016	-0.215
-664.003	-97.413	-0.066	-0.017
-662.989	800.000	0.027	-0.091
-661.974	77.378	-0.084	-0.091
-660.959	-200.000	-0.015	-0.153
-659.945	-94.817	-0.206	0.057
-658.930	357.603	0.036	0.073
-657.916	800.000	-0.069	-0.260
-656.901	-88.998	0.161	-0.049
-655.886	27.377	-0.223	-0.191
-654.872	62.695	-0.119	0.121
-653.857	311.130	-0.090	-0.171
-652.843	-11.864	-0.296	0.197
-651.828	-200.000	0.020	-0.253
-650.814	-137.173	0.264	-0.031
-649.799	-76.370	0.105	0.038
-648.784	59.737	-0.193	0.194
-647.770	800.000	0.037	0.104
-646.755	405.187	-0.075	-0.162
-645.741	474.019	0.049	0.112
-644.726	1.538	-0.034	0.025
-643.711	617.535	0.107	0.272
-642.697	-58.836	-0.277	0.122
-641.682	-200.000	0.021	0.124
-640.668	133.958	-0.090	-0.119
-639.653	580.191	-0.109	-0.270
-638.638	67.452	-0.181	-0.188
-637.624	21.846	-0.059	0.049
-636.609	800.000	-0.084	-0.260
-635.595	-7.057	0.058	0.040
-634.580	800.000	0.105	-0.309
-633.565	211.250	0.107	0.171
-632.551	266.729	-0.144	0.255
-631.536	-67.007	0.218	0.087
-630.522	61.365	-0.178	-0.180
-629.507	-119.273	0.356	-0.063
-628.492	-81.750	0.129	-0.043
-627.478	-200.000	-0.019	0.389
-626.463	-200.000	0.006	-0.134
-625.449	419.806	-0.104	-0.227
-624.434	185.247	-0.100	-0.151
-623.419	3.924	-0.028	0.020
-622.405	21.447	0.319	0.263
-621.390	-71.844	0.150	-0.057
-620.376	-200.000	0.032	-0.304
-619.361	187.277	0.121	0.183
-618.346	99.206	0.105	0.123
-617.332	800.000	0.086	-0.243
-616.317	108.646	-0.281	0.341
-615.303	417.800	0.055	0.120
-614.288	-65.691	-0.176	-0.071
-613.273	90.956	-0.100	-0.114
-612.259	551.898	0.028	-0.069
-611.244	-10.107	0.101	-0.068
-610.230	188.583	0.031	-0.047
-609.215	389.607	-0.018	0.038
-608.201	-66.829	0.277	-0.111
-607.186	33.078	0.236	-0.208
-606.171	-200.000	-0.023	-0.175
-605.157	-75.442	-0.095	0.034
-604.142	-200.000	-0.028	-0.219
-603.128	-159.730	0.221	0.012
-602.113	-2.534	0.115	0.082
-601.098	33.434	0.148	-0.131
-600.084	282.809	-0.125	0.228
-599.069	-200.000	-0.034	-0.296
-598.055	18.090	-0.219	-0.178
-597.040	800.000	-0.070	-0.242
-596.025	-200.000	-0.004	0.102
-595.011	800.000	0.037	-0.119
-593.996	-106.693	-0.104	0.024
-592.982	800.000	0.055	-0.172
-591.967	39.382	-0.071	0.065
-590.952	-127.695	-0.182	0.027
-589.938	-200.000	0.012	0.290
-588.923	-200.000	0.014	-0.214
-587.909	800.000	0.059	-0.191
-586.894	144.976	0.106	0.144
-585.879	-166.258	-0.106	0.005
-584.865	800.000	-0.066	0.247
-583.850	-115.064	-0.085	-0.016
-582.836	288.480	-0.029	-0.053
-581.821	-84.071	0.143	-0.046
-580.806	-176.392	0.268	0.007
-579.792	-24.193	0.267	-0.162
-578.777	446.840	0.088	-0.197
-577.763	-200.000	0.007	0.215
-576.748	-177.465	0.250	-0.006
-575.733	-163.803	0.251	0.012
-574.719	74.094	0.123	0.131
-573.704	-200.000	0.014	-0.309
-572.690	-19.125	0.033	-0.021
-571.675	-200.000	-0.008	0.272
-570.661	-7.747	0.033	-0.023
-569.646	139.593	0.198	0.265
-568.631	800.000	0.079	-0.227
-567.617	50.602	0.221	-0.212
-566.602	800.000	-0.042	0.166
-565.588	-200.000	-0.038	0.312
-564.573	94.502	-0.119	0.137
-563.558	192.002	-0.155	0.238
-562.544	800.000	-0.074	-0.239
-561.529	161.791	-0.043	0.061
-560.515	-200.000	-0.006	-0.351
-559.500	800.000	0.029	0.128
-558.485	-92.155	0.361	-0.103
-557.471	309.894	-0.148	-0.280
-556.456	-200.000	0.026	0.278
-555.442	-151.878	-0.058	-0.004
-554.427	-175.972	-0.275	-0.007
-553.412	458.003	-0.155	-0.350
-552.398	334.220	-0.145	-0.284
-551.383	22.967	0.267	0.222
-550.369	-145.947	0.197	-0.018
-549.354	-85.564	0.079	0.025
-548.339	800.000	-0.038	-0.150
-547.325	800.000	-0.070	0.209
-546.310	-43.729	0.264	-0.135
-545.296	-68.771	0.315	-0.123
-544.281	-90.340	-0.096	-0.028
-543.266	-114.420	-0.363	-0.071
-542.252	-14.756	-0.117	-0.076
-541.237	-200.000	0.019	-0.262
-540.223	-68.500	-0.165	0.065
-539.208	143.336	-0.153	0.207
-538.193	-71.970	0.248	-0.093
-537.179	76.310	-0.099	0.107
-536.164	-30.196	-0.139	0.080
-535.150	-53.823	-0.588	-0.272
-534.135	-31.871	-0.296	0.168
-533.121	233.989	0.215	0.358
-532.106	-143.485	0.075	0.007
-531.091	-39.831	-0.247	0.131
-530.077	-22.845	0.227	0.139
-529.062	291.884	-0.017	-0.032
-528.048	-89.267	-0.472	0.141
-527.033	244.958	-0.045	0.076
-526.018	-111.222	-0.229	-0.047
-525.004	-136.536	0.317	-0.037
-523.989	-200.000	-0.004	-0.074
-522.975	302.826	-0.124	0.232
-521.960	-138.040	-0.188	0.021
-520.945	-72.197	0.042	-0.016
-519.931	488.546	0.150	-0.346
-518.916	-200.000	-0.008	0.093
-517.902	-50.390	0.280	-0.134
-516.887	7.444	-0.055	0.041
-515.872	-101.178	0.126	0.031
-514.858	-7.240	-0.274	0.188
-513.843	64.419	-0.261	-0.266
-512.829	800.000	0.118	-0.375
-511.814	20.540	-0.038	-0.031
-510.799	-46.614	0.171	-0.085
-509.785	800.000	-0.048	0.179
-508.770	60.562	-0.416	-0.417
-507.756	-18.841	-0.200	0.126
-506.741	-15.771	0.148	-0.095
-505.726	49.515	-0.092	-0.088
-504.712	-138.957	-0.215	-0.024
-503.697	187.973	-0.118	-0.179
-502.683	-200.000	-0.039	0.200
-501.668	408.579	0.128	-0.273
-500.653	-200.000	0.033	-0.369
-499.639	-200.000	-0.000	-0.292
-498.624	-41.759	-0.089	-0.046
-497.610	-141.464	-0.024	0.002
-496.595	647.185	-0.067	-0.174
-495.581	416.072	0.053	-0.114
-494.566	12.025	0.095	-0.074
-493.551	329.589	-0.119	-0.232
-492.537	800.000	-0.081	0.291
-491.522	116.439	-0.060	-0.075
-490.508	-200.000	-0.036	0.214
-489.493	520.377	-0.090	0.213
-488.478	157.351	-0.106	0.149
-487.464	800.000	-0.064	0.197
-486.449	-91.323	0.229	-0.066
-485.435	30.237	-0.239	-0.206
-484.420	-27.555	-0.149	0.087
-483.405	399.943	0.087	0.184
-482.391	306.400	0.092	0.174
-481.376	-200.000	-0.018	0.356
-480.362	-49.360	0.106	0.051
-479.347	-83.181	-0.120	-0.039
-478.332	-109.243	-0.181	-0.039
-477.318	-69.987	-0.265	-0.102
-476.303	-112.010	0.094	0.019
-475.289	-163.585	-0.024	0.001
-474.274	-200.000	-0.021	-0.217
-473.259	-49.112	0.045	0.022
-472.245	233.653	0.178	0.296
-471.230	-91.992	-0.057	-0.016
-470.216	199.749	0.034	-0.053
-469.201	32.347	0.328	-0.286
-468.186	-63.813	0.169	-0.070
-467.172	48.358	-0.067	-0.064
-466.157	323.490	-0.079	-0.151
-465.143	-134.587	-0.214	0.026
-464.128	-5.833	-0.141	0.097
-463.113	136.551	-0.014	0.018
-462.099	-38.118	-0.175	-0.094
-461.084	-39.266	0.084	-0.044
-460.070	13.087	0.032	-0.025
-459.055	598.170	-0.069	0.172
-458.040	-143.668	-0.081	-0.008
-457.026	220.663	0.045	0.073
-456.011	800.000	-0.108	-0.381
-454.997	396.551	0.073	0.155
-453.982	800.000	-0.082	0.237
-452.968	403.044	0.027	0.058
-451.953	-71.811	0.030	-0.011
-450.938	103.425	-0.219	-0.259
-449.924	-200.000	0.015	-0.088
-448.909	-96.765	-0.189	-0.050
-447.895	-200.000	-0.011	0.174
-446.880	3.365	0.213	0.157
-445.865	-24.220	0.291	0.176
-444.851	800.000	0.061	0.200
-443.836	-85.392	-0.330	-0.104
-442.822	-200.000	-0.034	0.255
-441.807	275.053	-0.172	0.307
-440.792	208.705	-0.077	-0.122
-439.778	800.000	0.048	-0.202
-438.763	-112.095	-0.127	-0.026
-437.749	760.499	-0.044	0.120
-436.734	221.019	-0.134	-0.218
-435.719	166.690	0.149	-0.213
-434.705	-157.376	0.469	-0.028
-433.690	-122.438	0.276	-0.045
-432.676	247.650	0.100	0.171
-431.661	144.060	-0.152	-0.205
-430.646	200.900	0.038	-0.059
-429.632	-200.000	-0.072	-0.327
-428.617	-4.863	0.128	0.089
-427.603	-115.576	0.084	-0.016
-426.588	69.939	-0.073	0.076
-425.573	182.352	0.301	-0.447
-424.559	131.870	-0.120	0.156
-423.544	-160.244	0.121	0.007
-422.530	6.831	-0.361	0.271
-421.515	-200.000	-0.004	-0.048
-420.500	-71.969	-0.190	0.071
-419.486	-70.192	0.104	-0.040
-418.471	-200.000	0.013	0.211
-417.457	190.386	0.026	-0.040
-416.442	-117.177	-0.429	-0.079
-415.428	-98.445	-0.155	-0.040
-414.413	-69.280	-0.216	0.084
-413.398	-46.932	-0.375	0.185
-412.384	211.849	-0.011	0.017
-411.369	-123.344	0.279	0.045
-410.355	-44.762	0.101	0.051
-409.340	34.829	0.218	0.192
-408.325	800.000	-0.071	0.275
-407.311	387.514	-0.030	-0.062
-406.296	-55.042	-0.174	0.079
-405.282	-65.094	-0.163	-0.066
-404.267	-90.792	0.227	0.066
-403.252	800.000	0.037	0.130
-402.238	241.450	-0.105	-0.176
-401.223	-18.549	-0.143	0.090
-400.209	800.000	-0.033	0.095
-399.194	800.000	0.041	-0.146
-398.179	198.367	-0.039	-0.059
-397.165	-198.517	-0.250	0.001
-396.150	134.791	-0.087	-0.114
-395.136	-130.880	0.478	-0.065
-394.121	-200.000	-0.072	0.440
-393.106	-200.000	0.033	0.235
-392.092	-3.785	0.365	0.255
-391.077	-101.091	0.392	0.097
-390.063	117.855	-0.058	0.072
-389.048	800.000	-0.067	0.200
-388.033	-82.918	-0.328	0.106
-387.019	368.203	-0.064	0.130
-386.004	72.452	-0.390	0.410
-384.990	263.950	-0.170	-0.297
-383.975	-58.642	-0.181	-0.079
-382.960	102.635	-0.180	-0.212
-381.946	-130.250	-0.257	0.035
-380.931	-74.387	0.573	0.208
-379.917	-47.450	-0.068	-0.033
-378.902	432.229	0.101	0.220
-377.888	800.000	0.073	0.228
-376.873	-40.905	0.192	-0.100
-375.858	-115.275	0.110	-0.021
-374.844	-92.194	-0.277	0.079
-373.829	49.271	-0.173	0.163
-372.815	465.886	0.136	0.305
-371.800	223.104	0.024	-0.039
-370.785	231.025	-0.203	0.334
-369.771	800.000	-0.067	0.199
-368.756	199.569	-0.127	-0.196
-367.742	-200.000	-0.051	0.262
-366.727	112.204	-0.146	0.178
-365.712	800.000	-0.023	-0.079
-364.698	-200.000	0.003	-0.256
-363.683	-121.370	-0.200	-0.034
-362.669	-162.087	0.062	-0.003
-361.654	-11.965	-0.371	0.245
-360.639	-129.515	0.210	-0.029
-359.625	-200.000	0.018	-0.091
-358.610	75.184	0.120	-0.128
-357.596	312.638	0.170	-0.320
-356.581	-34.489	0.300	0.165
-355.566	-104.707	-0.405	0.094
-354.552	-200.000	-0.038	-0.476
-353.537	-200.000	0.040	-0.229
-352.523	18.678	0.302	-0.243
-351.508	-114.502	-0.137	0.027
-350.493	-54.100	0.198	-0.090
-349.479	800.000	-0.061	-0.245
-348.464	10.821	-0.139	0.107
-347.450	207.857	0.160	-0.251
-346.435	-101.860	0.277	-0.067
-345.420	-60.243	-0.105	0.045
-344.406	-10.635	0.136	0.091
-343.391	-116.639	0.196	0.036
-342.377	-8.210	0.174	-0.118
-341.362	-114.657	0.183	0.035
-340.348	284.953	0.126	0.228
-339.333	60.219	-0.074	0.074
-338.318	-71.944	-0.136	0.051
-337.304	40.312	0.254	-0.229
-336.289	-86.323	-0.339	0.105
-335.275	30.459	0.213	0.183
-334.260	-200.000	0.006	0.269
-333.245	80.175	0.077	-0.083
-332.231	216.170	0.097	0.155
-331.216	72.506	0.059	0.061
-330.202	-200.000	-0.022	-0.386
-329.187	98.452	0.191	0.221
-328.172	-32.610	-0.297	-0.166
-327.158	-141.824	0.156	-0.016
-326.143	167.090	0.114	0.163
-325.129	-74.656	0.161	-0.058
-324.114	-200.000	-0.048	-0.271
-323.099	-200.000	-0.013	0.161
-322.085	655.402	-0.067	0.173
-321.070	14.112	-0.050	-0.039
-320.056	-106.816	-0.276	0.061
-319.041	-77.595	-0.235	-0.082
-318.026	800.000	0.067	0.196
-317.012	-122.673	-0.045	-0.007
-315.997	-94.422	-0.085	0.023
-314.983	-134.668	0.378	-0.046
-313.968	469.424	0.112	-0.252
-312.953	-93.289	-0.334	-0.093
-311.939	-112.147	-0.319	-0.064
-310.924	637.896	-0.081	0.205
-309.910	-200.000	0.490	0.000
-308.895	800.000	-0.078	-0.249
-307.880	93.180	0.193	0.219
-306.866	767.068	-0.118	-0.321
-305.851	-59.200	0.117	-0.051
-304.837	800.000	0.071	-0.281
-303.822	307.238	0.132	0.248
-302.807	-139.748	0.347	0.037
-301.793	83.089	0.284	-0.311
-300.778	-200.000	-0.064	-0.294
-299.764	-8.976	0.204	0.137
-298.749	-154.098	-0.104	-0.007
-297.735	-200.000	-0.010	0.183
-296.720	-156.878	-0.175	-0.011
-295.705	222.863	-0.011	-0.018
-294.691	-38.681	0.202	0.107
-293.676	-200.000	0.008	-0.173
-292.662	-7.298	-0.149	0.101
-291.647	-70.473	-0.340	-0.129
-290.632	238.570	-0.072	0.119
-289.618	-200.000	-0.032	-0.267
-288.603	-27.033	-0.166	-0.097
-287.589	664.848	-0.112	-0.289
-286.574	-200.000	-0.031	0.153
-285.559	-200.000	0.013	-0.203
-284.545	88.111	-0.074	-0.082
-283.530	779.356	0.033	0.091
-282.516	107.868	0.184	0.220
-281.501	800.000	-0.034	0.137
-280.486	117.245	0.099	0.122
-279.472	-72.295	0.156	0.058
-278.457	800.000	-0.101	0.430
-277.443	-70.360	-0.313	-0.119
-276.428	-92.808	0.103	-0.029
-275.413	-27.738	0.236	0.137
-274.399	64.039	-0.165	-0.167
-273.384	-28.240	-0.194	0.112
-272.370	-134.748	-0.211	-0.026
-271.355	-200.000	0.007	0.108
-270.340	-200.000	0.032	-0.175
-269.326	2.910	-0.294	-0.214
-268.311	148.865	0.001	-0.001
-267.297	800.000	0.070	-0.265
-266.282	-200.000	-0.027	-0.365
-265.267	530.012	-0.067	0.158
-264.253	-200.000	-0.046	-0.336
-263.238	6.094	-0.225	0.167
-262.224	-34.833	0.196	0.108
-261.209	-77.246	0.189	0.066
-260.195	61.904	0.250	0.250
-259.180	85.334	-0.132	0.145
-258.165	-98.274	0.102	0.026
-257.151	164.623	0.097	-0.137
-256.136	37.543	-0.055	-0.049
-255.122	-200.000	-0.003	-0.037
-254.107	-200.000	0.033	0.159
-253.092	248.836	0.079	-0.133
-252.078	-145.899	0.035	0.003
-251.063	-200.000	0.035	-0.201
-250.049	-98.833	-0.186	0.047
-249.034	-194.742	-0.258	0.002
-248.019	-200.000	0.003	-0.057
-247.005	128.569	-0.026	0.033
-245.990	-200.000	0.010	-0.236
-244.976	-200.000	-0.059	0.336
-243.961	800.000	0.068	0.244
-242.946	-95.495	-0.199	0.053
-241.932	-165.918	0.255	-0.011
-240.917	-200.000	-0.003	0.090
-239.903	-62.529	-0.134	-0.056
-238.888	-81.561	-0.170	-0.056
-237.873	337.162	-0.226	0.439
-236.859	-23.391	-0.150	-0.090
-235.844	688.238	0.044	-0.116
-234.830	134.696	0.021	-0.028
-233.815	13.301	-0.022	-0.017
-232.800	-106.087	0.049	0.011
-231.786	26.170	0.245	0.205
-230.771	210.520	-0.163	-0.256
-229.757	-2.545	0.119	-0.084
-228.742	800.000	-0.020	0.064
-227.727	-200.000	0.008	-0.151
-226.713	79.368	-0.278	0.298
-225.698	-200.000	-0.026	0.253
-224.684	-84.995	0.078	-0.025
-223.669	608.307	-0.104	0.260
-222.655	331.949	-0.146	0.281
-221.640	-101.762	0.395	-0.096
-220.625	100.582	-0.250	0.290
-219.611	-9.265	-0.074	0.049
-218.596	-56.374	-0.052	0.023
-217.582	191.890	-0.081	-0.121
-216.567	-39.343	0.291	-0.152
-215.552	800.000	0.046	-0.128
-214.538	31.121	0.063	0.054
-213.523	-81.650	-0.393	0.129
-212.509	-34.917	-0.295	-0.161
-211.494	14.862	0.185	0.145
-210.479	800.000	0.228	0.690
-209.465	-100.750	-0.175	0.043
-208.450	-91.164	0.377	0.108
-207.436	-200.000	-0.015	0.470
-206.421	4.020	0.200	-0.146
-205.406	759.190	0.056	0.152
-204.392	-45.131	0.238	0.118
-203.377	-200.000	-0.017	-0.170
-202.363	-200.000	0.001	0.205
-201.348	800.000	0.099	-0.327
-200.333	800.000	-0.058	-0.248
-199.319	-200.000	0.032	-0.334
-198.304	-32.549	-0.078	-0.043
-197.290	-78.351	0.211	0.072
-196.275	137.080	0.117	0.153
-195.260	141.935	0.350	-0.464
-194.246	151.385	-0.005	0.007
-193.231	-200.000	-0.048	-0.387
-192.217	37.921	-0.063	0.056
-191.202	-68.428	0.150	-0.058
-190.187	-8.663	0.214	0.144
-189.173	-78.447	0.167	-0.057
-188.158	366.535	0.127	-0.255
-187.144	800.000	-0.015	-0.050
-186.129	-159.569	-0.168	-0.009
-185.114	91.333	0.022	-0.025
-184.100	-56.482	-0.270	-0.120
-183.085	358.424	0.224	0.447
-182.071	139.679	0.103	0.136
-181.056	-98.148	0.165	0.042
-180.042	-94.264	0.270	-0.074
-179.027	-200.000	0.040	-0.225
-178.012	-200.000	-0.017	0.108
-176.998	-93.354	-0.281	-0.078
-175.983	-200.000	-0.012	-0.160
-174.969	434.405	0.159	-0.346
-173.954	71.662	0.073	0.076
-172.939	-200.000	-0.021	0.156
-171.925	607.530	0.025	-0.062
-170.910	3.527	0.153	-0.112
-169.896	-42.679	0.162	-0.082
-168.881	-23.458	-0.189	-0.113
-167.866	67.495	0.159	0.162
-166.852	202.943	-0.040	0.061
-165.837	800.000	0.049	-0.192
-164.823	64.358	0.308	0.310
-163.808	800.000	0.011	0.037
-162.793	-62.665	0.468	0.194
-161.779	82.895	0.100	0.108
-160.764	190.173	-0.178	0.267
-159.750	-200.000	-0.018	0.145
-158.735	310.159	-0.111	-0.207
-157.720	-200.000	0.023	-0.434
-156.706	199.681	0.118	0.180
-155.691	232.598	-0.111	-0.182
-154.677	-200.000	-0.021	-0.168
-153.662	75.542	0.123	0.130
-152.647	23.028	-0.044	0.036
-151.633	-200.000	0.051	0.302
-150.618	59.053	-0.056	0.055
-149.604	-55.906	-0.139	0.062
-148.589	324.748	0.257	0.489
-147.574	-14.526	0.257	-0.165
-146.560	46.847	0.309	0.286
-145.545	8.159	0.106	-0.079
-144.531	-72.509	-0.244	-0.090
-143.516	324.877	-0.131	0.250
-142.502	800.000	-0.075	0.281
-141.487	13.271	0.289	-0.224
-140.472	-62.002	0.082	0.034
-139.458	-200.000	0.018	-0.185
-138.443	-60.580	0.058	0.024
-137.429	2.730	0.150	-0.108
-136.414	-13.381	0.067	0.044
-135.399	800.000	0.092	0.331
-134.385	-68.779	-0.312	0.120
-133.370	756.577	0.020	-0.053
-132.356	-200.000	-0.002	0.063
-131.341	-43.397	-0.130	0.065
-130.326	-200.000	0.023	-0.191
-129.312	-15.857	-0.261	0.166
-128.297	-100.893	0.150	-0.037
-127.283	42.357	-0.039	0.036
-126.268	58.880	-0.102	0.100
-125.253	-33.751	-0.143	-0.079
-124.239	-75.064	-0.489	-0.175
-123.224	40.808	-0.331	0.298
-122.210	800.000	-0.066	-0.242
