DTS Sentinel unit serial number:	SN413079Multiplexer serial number:	ORYXHardware model number:	OX4-SRSoftware version number:	ORYX F/W v4.00 Oryx Data Collector v3.7.2.0data status	okinstallation	princeton_trtdifferential loss correction	single-endedforward channel	channel 2reverse channel	N/Adate	2019/09/13time	15:07:35forward acquisition time	60.00reverse acquisition time	0.00gamma	496.2192k internal	0.2315k external	0.2315temperature offset calibration	1.0207default loss term (dB/km)	0.3790temperature slope calibration	1.0000multiplexer offset coefficient	1.0000multiplexer slope coefficient	1.0000fibre end	0.00T internal ref (°C)	35.62T ext. ref 1 (°C)	4.71T ext. ref 2 (°C)	30.93length (m)	temperature (°C)	Stokes	anti-Stokes-747.200	150.662	-0.122	-0.168
-746.185	-125.508	0.138	0.021
-745.171	129.387	-0.206	0.267
-744.156	296.710	0.084	0.156
-743.142	-35.901	0.352	0.193
-742.127	65.165	-0.094	0.096
-741.112	-200.000	-0.027	-0.346
-740.098	-58.284	-0.503	-0.222
-739.083	-98.606	-0.139	-0.036
-738.069	-200.000	0.113	0.515
-737.054	151.981	0.104	0.144
-736.039	-200.000	0.058	-0.330
-735.025	-116.868	0.167	0.031
-734.010	234.639	-0.076	-0.127
-732.996	-200.000	-0.012	0.060
-731.981	84.549	-0.311	0.344
-730.966	13.096	0.280	-0.220
-729.952	159.976	-0.052	0.074
-728.937	-153.592	-0.277	0.019
-727.923	-54.757	-0.213	-0.098
-726.908	620.608	-0.068	0.174
-725.894	173.298	0.131	-0.191
-724.879	585.308	-0.087	0.217
-723.864	15.277	-0.222	-0.177
-722.850	276.673	-0.062	-0.112
-721.835	378.898	-0.067	-0.139
-720.821	-108.229	-0.183	0.040
-719.806	800.000	0.051	-0.180
-718.791	129.007	0.200	0.258
-717.777	172.361	-0.041	-0.059
-716.762	-50.096	-0.062	-0.030
-715.748	-49.768	-0.192	0.092
-714.733	327.866	-0.189	0.368
-713.718	79.240	-0.156	0.169
-712.704	43.245	0.055	-0.051
-711.689	8.809	-0.104	0.079
-710.675	800.000	-0.053	0.226
-709.660	123.387	-0.162	0.206
-708.645	566.950	0.043	0.105
-707.631	47.958	0.050	-0.047
-706.616	-200.000	0.038	0.488
-705.602	131.251	-0.223	0.290
-704.587	800.000	-0.076	-0.251
-703.572	-62.846	0.271	-0.114
-702.558	178.379	-0.076	-0.112
-701.543	-200.000	-0.034	0.284
-700.529	-93.339	0.259	-0.073
-699.514	-33.493	-0.161	0.090
-698.499	-3.460	-0.220	0.155
-697.485	68.158	-0.163	-0.169
-696.470	78.422	0.178	0.192
-695.456	65.791	-0.138	0.141
-694.441	199.005	0.130	0.201
-693.426	-163.573	-0.151	0.007
-692.412	53.753	0.173	0.168
-691.397	-63.138	-0.216	0.090
-690.383	-107.652	-0.183	-0.041
-689.368	-85.102	-0.173	0.055
-688.354	421.317	-0.223	0.484
-687.339	71.077	-0.198	-0.207
-686.324	47.722	0.109	0.103
-685.310	-81.730	0.295	-0.098
-684.295	239.711	0.220	0.370
-683.281	168.212	-0.115	-0.165
-682.266	-79.282	0.179	-0.061
-681.251	107.013	0.172	0.207
-680.237	-106.781	-0.253	-0.057
-679.222	800.000	0.099	-0.348
-678.208	17.336	-0.118	-0.095
-677.193	-6.300	0.173	-0.119
-676.178	55.364	0.064	0.063
-675.164	-170.734	0.210	-0.007
-674.149	-145.266	-0.168	0.015
-673.135	-152.778	-0.313	0.022
-672.120	181.755	-0.139	0.207
-671.105	254.004	-0.086	0.148
-670.091	223.900	-0.099	-0.162
-669.076	-35.632	-0.165	0.090
-668.062	-147.415	0.272	0.023
-667.047	-97.416	0.227	-0.060
-666.032	800.000	0.097	-0.321
-665.018	-110.157	0.114	-0.024
-664.003	-127.332	0.084	-0.012
-662.989	86.497	0.058	-0.065
-661.974	92.070	-0.124	-0.141
-660.959	800.000	-0.061	0.259
-659.945	114.610	0.116	0.143
-658.930	-103.385	-0.247	0.059
-657.916	11.050	-0.133	0.102
-656.901	-24.842	0.234	0.141
-655.886	-93.402	-0.164	0.046
-654.872	-103.154	-0.383	0.092
-653.857	-200.000	0.037	-0.292
-652.843	-76.970	-0.230	-0.081
-651.828	-183.470	-0.367	-0.006
-650.814	121.615	0.269	-0.339
-649.799	-135.895	-0.095	-0.011
-648.784	168.583	-0.007	0.010
-647.770	-96.254	-0.388	-0.104
-646.755	-23.316	-0.116	-0.071
-645.741	-122.306	-0.030	0.005
-644.726	125.962	-0.226	0.288
-643.711	296.766	-0.049	-0.091
-642.697	-69.063	0.068	0.026
-641.682	298.027	0.028	-0.052
-640.668	-88.023	-0.279	0.084
-639.653	23.147	-0.158	-0.131
-638.638	165.262	0.147	-0.210
-637.624	-78.553	-0.288	0.099
-636.609	140.687	0.177	0.236
-635.595	800.000	0.020	0.070
-634.580	-200.000	-0.033	-0.304
-633.565	-10.405	0.216	0.144
-632.551	-109.831	-0.287	0.061
-631.536	218.322	-0.153	-0.247
-630.522	224.849	0.252	-0.411
-629.507	524.878	0.130	-0.310
-628.492	678.389	-0.024	0.062
-627.478	-200.000	0.025	0.213
-626.463	800.000	-0.025	0.106
-625.449	-172.330	0.128	0.004
-624.434	-122.069	0.049	-0.008
-623.419	9.960	-0.204	-0.156
-622.405	-139.771	0.299	0.032
-621.390	-37.772	-0.171	0.092
-620.376	251.962	-0.212	0.364
-619.361	-159.598	-0.487	0.027
-618.346	-79.173	-0.164	0.056
-617.332	73.040	-0.082	-0.086
-616.317	-157.484	0.173	0.010
-615.303	-177.184	-0.069	0.002
-614.288	-96.196	-0.100	0.027
-613.273	590.510	-0.055	-0.137
-612.259	16.443	0.101	0.080
-611.244	38.443	-0.115	0.104
-610.230	-200.000	0.007	0.404
-609.215	27.684	0.208	0.177
-608.201	580.765	0.064	-0.158
-607.186	-149.630	-0.154	0.012
-606.171	-105.552	0.428	0.098
-605.157	-167.498	0.378	0.015
-604.142	57.744	0.045	-0.044
-603.128	22.484	0.093	0.077
-602.113	-117.146	-0.090	-0.017
-601.098	220.847	0.203	0.328
-600.084	-108.068	0.077	0.017
-599.069	800.000	0.097	-0.269
-598.055	-43.301	-0.134	-0.068
-597.040	-41.894	0.055	-0.028
-596.025	-41.723	0.092	0.048
-595.011	-200.000	0.013	-0.172
-593.996	183.491	0.091	-0.135
-592.982	-17.314	0.140	-0.089
-591.967	-30.759	-0.241	-0.137
-590.952	39.311	0.079	-0.071
-589.938	-168.016	0.149	0.006
-588.923	-64.910	0.427	-0.174
-587.909	781.370	0.082	-0.225
-586.894	241.950	-0.051	0.086
-585.879	2.330	-0.268	-0.195
-584.865	670.045	0.142	-0.370
-583.850	529.955	-0.099	-0.236
-582.836	-200.000	-0.066	-0.312
-581.821	-200.000	-0.041	-0.239
-580.806	85.084	-0.110	-0.122
-579.792	15.802	-0.163	0.129
-578.777	217.381	0.097	0.156
-577.763	61.053	0.294	0.294
-576.748	-200.000	-0.016	0.244
-575.733	678.906	0.032	-0.083
-574.719	-161.733	-0.284	-0.015
-573.704	15.336	-0.131	0.103
-572.690	-13.997	-0.131	0.085
-571.675	-166.256	-0.043	-0.002
-570.661	-80.209	0.393	-0.132
-569.646	-200.000	-0.064	0.466
-568.631	-7.656	0.196	-0.133
-567.617	-75.675	0.211	-0.075
-566.602	-40.460	-0.212	-0.111
-565.588	111.598	-0.165	-0.200
-564.573	77.549	-0.164	-0.175
-563.558	-200.000	0.178	0.001
-562.544	-154.660	0.140	-0.009
-561.529	-200.000	-0.031	-0.262
-560.515	-136.427	-0.384	-0.045
-559.500	58.357	-0.099	-0.098
-558.485	-143.489	0.207	0.020
-557.471	24.616	0.163	-0.136
-556.456	-45.652	-0.164	0.082
-555.442	800.000	-0.067	0.249
-554.427	677.573	0.026	0.067
-553.412	-151.841	0.176	0.013
-552.398	57.821	-0.176	0.173
-551.383	-200.000	-0.004	-0.077
-550.369	134.384	-0.126	0.164
-549.354	-200.000	0.010	-0.237
-548.339	-160.403	0.548	0.030
-547.325	-200.000	-0.050	0.388
-546.310	-150.075	-0.301	0.024
-545.296	-200.000	-0.003	0.221
-544.281	241.042	-0.179	-0.300
-543.266	645.714	-0.126	-0.324
-542.252	369.030	0.093	-0.190
-541.237	-92.531	0.104	0.029
-540.223	51.021	0.106	0.101
-539.208	-200.000	-0.052	-0.303
-538.193	-79.380	0.200	0.068
-537.179	-148.401	-0.528	-0.044
-536.164	-58.215	-0.234	0.102
-535.150	2.549	-0.088	-0.064
-534.135	-24.226	-0.242	-0.145
-533.121	20.403	0.123	0.100
-532.106	-62.165	-0.183	-0.077
-531.091	61.656	-0.162	0.162
-530.077	800.000	-0.083	0.238
-529.062	249.934	0.178	-0.304
-528.048	-200.000	-0.048	-0.259
-527.033	-200.000	-0.027	0.311
-526.018	253.047	-0.105	0.180
-525.004	-0.056	0.064	0.046
-523.989	-47.704	0.075	-0.036
-522.975	-200.000	-0.034	-0.229
-521.960	205.372	-0.193	0.301
-520.945	-106.044	-0.185	0.042
-519.931	-200.000	0.023	-0.258
-518.916	-200.000	-0.005	-0.095
-517.902	-24.618	0.085	-0.051
-516.887	-64.143	-0.338	0.138
-515.872	-200.000	0.013	-0.254
-514.858	-200.000	0.010	0.128
-513.843	-200.000	-0.002	0.229
-512.829	-34.045	0.169	0.094
-511.814	-68.206	-0.073	0.028
-510.799	-56.046	0.286	0.128
-509.785	-200.000	-0.029	-0.216
-508.770	-65.134	0.092	0.037
-507.756	-200.000	-0.006	0.397
-506.741	-131.187	0.315	-0.042
-505.726	-200.000	0.068	-0.381
-504.712	148.808	0.185	0.251
-503.697	-200.000	-0.049	-0.393
-502.683	-139.516	-0.135	0.014
-501.668	303.391	0.070	-0.131
-500.653	97.720	0.069	-0.080
-499.639	-94.358	0.373	0.102
-498.624	-127.602	0.460	0.067
-497.610	188.032	-0.064	0.097
-496.595	800.000	-0.021	0.065
-495.581	181.771	-0.067	-0.099
-494.566	-200.000	-0.006	-0.183
-493.551	-200.000	-0.018	-0.136
-492.537	-161.917	-0.069	0.003
-491.522	-120.473	0.021	-0.004
-490.508	70.652	-0.032	-0.033
-489.493	108.700	0.147	0.176
-488.478	800.000	-0.056	-0.209
-487.464	-78.244	0.327	0.113
-486.449	-139.918	0.234	-0.025
-485.435	800.000	-0.018	0.058
-484.420	45.629	-0.196	-0.182
-483.405	-200.000	0.009	0.179
-482.391	17.730	-0.084	0.067
-481.376	-70.345	0.237	-0.090
-480.362	-27.234	0.041	-0.024
-479.347	408.988	-0.103	0.218
-478.332	310.434	0.034	0.063
-477.318	-52.482	0.174	0.080
-476.303	-106.153	-0.156	-0.035
-475.289	-90.496	-0.229	-0.066
-474.274	-108.153	0.153	0.033
-473.259	-129.830	-0.102	0.014
-472.245	454.108	0.095	-0.212
-471.230	-200.000	0.005	0.078
-470.216	-154.050	0.214	-0.015
-469.201	334.902	-0.031	-0.060
-468.186	-200.000	-0.021	0.215
-467.172	-45.939	0.120	-0.060
-466.157	-200.000	-0.026	0.404
-465.143	-15.780	0.196	0.125
-464.128	74.504	0.247	-0.260
-463.113	-200.000	-0.017	-0.164
-462.099	380.939	-0.081	0.167
-461.084	-125.489	0.362	0.055
-460.070	-71.265	-0.134	0.050
-459.055	-17.841	-0.112	0.071
-458.040	148.914	-0.102	0.138
-457.026	-37.413	0.257	0.137
-456.011	-105.739	0.097	0.022
-454.997	632.123	0.090	0.228
-453.982	79.116	0.139	0.150
-452.968	-148.349	-0.036	0.003
-451.953	-26.704	-0.269	0.158
-450.938	221.757	-0.079	-0.127
-449.924	-200.000	0.016	0.110
-448.909	-27.489	-0.021	0.012
-447.895	-200.000	-0.004	-0.236
-446.880	800.000	0.104	0.297
-445.865	-22.724	-0.113	-0.069
-444.851	-1.533	-0.142	-0.100
-443.836	181.953	-0.168	0.247
-442.822	-173.736	-0.078	0.002
-441.807	70.838	-0.085	-0.088
-440.792	137.287	0.070	0.091
-439.778	27.615	-0.110	-0.093
-438.763	800.000	0.054	-0.162
-437.749	-86.592	0.155	0.048
-436.734	113.962	-0.111	0.135
-435.719	292.141	0.116	0.211
-434.705	178.050	0.204	-0.298
-433.690	19.149	-0.163	-0.131
-432.676	-200.000	0.008	0.143
-431.661	-200.000	-0.011	-0.235
-430.646	729.950	-0.023	-0.061
-429.632	645.633	0.073	0.186
-428.617	189.049	0.111	0.167
-427.603	181.113	0.113	0.166
-426.588	800.000	-0.099	-0.277
-425.573	-146.902	0.073	-0.006
-424.559	-198.479	-0.175	0.001
-423.544	-200.000	-0.037	0.161
-422.530	-200.000	0.053	0.313
-421.515	123.433	-0.247	0.309
-420.500	-2.917	-0.192	-0.134
-419.486	-62.053	-0.207	-0.087
-418.471	-134.698	-0.144	-0.018
-417.457	148.033	0.082	0.110
-416.442	284.817	-0.018	0.032
-415.428	800.000	0.115	-0.486
-414.413	254.840	-0.098	-0.167
-413.398	-11.774	0.160	0.105
-412.384	106.874	0.160	-0.190
-411.369	-200.000	0.022	-0.447
-410.355	315.337	-0.055	-0.103
-409.340	-200.000	0.019	-0.252
-408.325	-20.111	0.333	0.205
-407.311	800.000	-0.045	-0.139
-406.296	-200.000	0.004	-0.222
-405.282	124.301	0.136	0.171
-404.267	-114.285	-0.288	0.056
-403.252	470.192	-0.162	-0.363
-402.238	-75.078	-0.295	0.105
-401.223	-200.000	0.007	-0.445
-400.209	800.000	0.031	0.094
-399.194	800.000	0.066	0.218
-398.179	-35.844	0.340	0.184
-397.165	-116.047	0.129	-0.024
-396.150	-79.346	-0.281	-0.095
-395.136	-127.380	0.236	-0.034
-394.121	-125.281	-0.233	-0.036
-393.106	-200.000	0.062	0.286
-392.092	-82.079	-0.271	-0.088
-391.077	-200.000	0.002	0.011
-390.063	204.320	-0.119	0.184
-389.048	450.452	0.067	0.148
-388.033	133.560	-0.088	-0.114
-387.019	800.000	-0.097	-0.307
-386.004	-84.226	0.253	0.080
-384.990	11.912	0.067	0.051
-383.975	-86.845	0.081	0.025
-382.960	352.613	0.061	0.122
-381.946	-69.831	-0.149	-0.057
-380.931	-154.978	-0.297	-0.019
-379.917	-94.365	0.214	0.058
-378.902	61.728	0.091	-0.091
-377.888	-2.204	-0.105	-0.074
-376.873	589.183	-0.098	0.240
-375.858	287.752	-0.079	-0.143
-374.844	8.919	-0.186	-0.140
-373.829	29.711	0.394	0.335
-372.815	-129.198	0.058	0.008
-371.800	-34.271	-0.094	-0.051
-370.785	-127.537	-0.267	0.039
-369.771	800.000	0.025	0.082
-368.756	-200.000	-0.024	-0.163
-367.742	95.422	0.172	-0.196
-366.727	-200.000	-0.021	-0.386
-365.712	-78.674	0.111	-0.038
-364.698	80.959	-0.229	0.246
-363.683	-75.537	-0.121	0.043
-362.669	207.844	-0.010	0.016
-361.654	800.000	-0.012	0.039
-360.639	34.689	0.217	-0.189
-359.625	800.000	0.034	0.125
-358.610	769.233	0.047	0.128
-357.596	-177.174	0.177	0.004
-356.581	24.657	-0.181	-0.150
-355.566	114.595	-0.156	-0.190
-354.552	352.929	0.051	-0.101
-353.537	-37.461	0.094	-0.050
-352.523	127.396	-0.320	-0.405
-351.508	-114.319	0.095	0.018
-350.493	-16.909	0.350	0.220
-349.479	-200.000	-0.003	0.018
-348.464	-56.178	0.202	0.090
-347.450	268.749	-0.102	0.179
-346.435	724.002	-0.106	-0.283
-345.420	-200.000	0.015	0.405
-344.406	-200.000	0.043	0.327
-343.391	-93.687	-0.493	0.136
-342.377	-6.804	0.126	-0.085
-341.362	-200.000	-0.006	-0.086
-340.348	66.143	-0.227	-0.230
-339.333	800.000	-0.054	0.218
-338.318	800.000	0.030	-0.105
-337.304	118.801	0.139	0.171
-336.289	25.371	-0.183	-0.152
-335.275	-65.113	-0.159	0.064
-334.260	-16.555	0.193	-0.122
-333.245	38.906	0.152	-0.136
-332.231	127.414	-0.250	-0.316
-331.216	49.891	0.103	0.097
-330.202	800.000	-0.042	-0.119
-329.187	-108.044	0.222	-0.048
-328.172	800.000	-0.125	-0.443
-327.158	287.435	0.110	0.198
-326.143	-95.436	-0.298	-0.080
-325.129	261.881	0.135	0.232
-324.114	496.135	0.099	-0.227
-323.099	-103.717	-0.143	0.033
-322.085	68.305	-0.295	-0.301
-321.070	70.910	0.130	0.134
-320.056	-99.538	0.309	0.077
-319.041	-131.069	-0.069	0.009
-318.026	-1.299	-0.233	-0.164
-317.012	141.882	0.065	0.086
-315.997	254.103	0.090	0.153
-314.983	-13.821	-0.194	-0.125
-313.968	34.347	-0.073	-0.063
-312.953	-100.546	-0.118	0.029
-311.939	689.756	0.025	0.066
-310.924	-65.532	0.185	0.074
-309.910	-51.946	-0.297	0.137
-308.895	-131.111	-0.049	0.006
-307.880	87.150	0.158	0.174
-306.866	-200.000	-0.051	0.347
-305.851	-200.000	0.005	-0.371
-304.837	-159.091	0.093	-0.005
-303.822	-23.158	-0.312	0.187
-302.807	77.901	-0.190	0.202
-301.793	-31.113	-0.207	-0.116
-300.778	17.137	0.164	0.130
-299.764	-74.628	0.180	0.064
-298.749	77.933	-0.075	0.079
-297.735	590.570	0.076	0.186
-296.720	-41.363	-0.240	-0.123
-295.705	800.000	0.142	-0.547
-294.691	28.687	0.079	-0.067
-293.676	469.968	-0.175	0.391
-292.662	91.552	0.109	0.122
-291.647	-139.794	-0.234	0.025
-290.632	-194.125	-0.422	-0.003
-289.618	-2.962	-0.129	0.090
-288.603	-200.000	0.047	0.245
-287.589	326.732	0.069	-0.131
-286.574	-96.664	-0.334	-0.088
-285.559	-200.000	0.047	-0.230
-284.545	-161.055	-0.351	-0.018
-283.530	128.385	-0.131	0.165
-282.516	374.994	-0.055	0.112
-281.501	103.897	0.136	0.160
-280.486	140.926	0.165	-0.217
-279.472	800.000	0.027	0.093
-278.457	147.897	0.161	-0.217
-277.443	800.000	-0.078	0.279
-276.428	-46.123	-0.224	0.110
-275.413	65.782	-0.059	0.059
-274.399	800.000	0.060	-0.186
-273.384	-180.415	-0.598	-0.012
-272.370	121.865	-0.232	-0.287
-271.355	40.451	0.068	0.061
-270.340	-89.637	-0.206	0.060
-269.326	434.910	0.042	0.091
-268.311	-60.802	0.360	0.152
-267.297	-200.000	-0.105	0.567
-266.282	240.452	0.105	0.174
-265.267	-42.245	0.242	0.123
-264.253	-200.000	0.005	0.047
-263.238	-14.057	0.184	-0.118
-262.224	-14.584	0.258	0.165
-261.209	-34.974	-0.228	0.124
-260.195	-58.774	0.092	0.039
-259.180	-73.118	0.263	-0.096
-258.165	-85.460	-0.146	-0.045
-257.151	430.267	-0.048	-0.103
-256.136	-22.323	0.211	0.127
-255.122	800.000	0.031	-0.113
-254.107	800.000	-0.085	-0.267
-253.092	76.195	0.215	0.226
-252.078	-200.000	0.003	0.243
-251.063	47.003	-0.074	-0.069
-250.049	-150.519	0.188	0.014
-249.034	-115.765	0.127	-0.024
-248.019	800.000	-0.070	-0.212
-247.005	-120.438	0.267	0.045
-245.990	-17.340	-0.163	-0.102
-244.976	-200.000	-0.049	-0.267
-243.961	-23.385	0.128	0.077
-242.946	492.854	0.177	0.404
-241.932	-200.000	-0.012	-0.149
-240.917	-149.084	0.336	0.027
-239.903	800.000	0.028	0.090
-238.888	-103.373	0.265	0.062
-237.873	-151.074	0.466	0.035
-236.859	-177.577	-0.169	0.004
-235.844	-80.439	0.123	-0.041
-234.830	88.534	0.090	-0.099
-233.815	-200.000	0.011	0.128
-232.800	261.457	0.085	-0.147
-231.786	-200.000	-0.026	0.320
-230.771	27.362	-0.177	-0.147
-229.757	143.823	-0.265	-0.350
-228.742	-108.522	-0.309	-0.066
-227.727	-114.842	-0.271	0.051
-226.713	124.377	-0.148	-0.185
-225.698	342.042	0.179	0.349
-224.684	253.841	0.257	0.437
-223.669	51.084	0.102	-0.096
-222.655	-137.053	-0.345	-0.039
-221.640	198.030	0.086	0.131
-220.625	-34.379	0.155	-0.085
-219.611	331.266	0.185	-0.355
-218.596	77.951	0.152	0.161
-217.582	-116.139	-0.146	-0.027
-216.567	168.095	0.053	0.076
-215.552	-154.134	0.147	0.010
-214.538	397.403	-0.103	0.213
-213.523	-127.014	-0.052	-0.008
-212.509	372.040	-0.058	0.117
-211.494	-16.890	-0.167	0.105
-210.479	59.102	-0.100	0.097
-209.465	800.000	-0.015	0.044
-208.450	405.475	0.115	0.241
-207.436	-102.776	-0.107	0.025
-206.421	-200.000	0.002	0.436
-205.406	800.000	0.083	0.227
-204.392	378.072	0.225	0.456
-203.377	705.053	-0.148	0.388
-202.363	-200.000	0.414	-0.001
-201.348	-34.449	0.207	0.113
-200.333	-178.539	0.146	0.003
-199.319	-62.315	0.184	0.076
-198.304	-78.680	-0.175	0.059
-197.290	-39.517	-0.135	0.070
-196.275	74.230	0.088	0.092
-195.260	-93.706	0.062	0.017
-194.246	621.573	0.130	0.324
-193.231	55.154	-0.222	0.212
-192.217	-200.000	0.010	-0.091
-191.202	-200.000	-0.035	-0.286
-190.187	475.902	-0.046	0.104
-189.173	-197.480	0.162	0.001
-188.158	-150.451	-0.330	0.025
-187.144	-88.414	0.093	0.028
-186.129	-105.651	0.130	-0.029
-185.114	85.586	-0.243	-0.265
-184.100	800.000	0.095	0.316
-183.085	-117.094	-0.040	-0.007
-182.071	-200.000	0.028	-0.387
-181.056	-34.949	0.234	0.127
-180.042	101.922	0.111	0.129
-179.027	124.953	-0.095	-0.118
-178.012	101.001	0.078	-0.090
-176.998	-200.000	-0.008	-0.242
-175.983	236.313	-0.018	0.029
-174.969	151.300	0.078	0.106
-173.954	188.915	0.133	-0.197
-172.939	95.791	0.029	-0.033
-171.925	455.935	0.087	-0.192
-170.910	42.743	0.054	0.049
-169.896	48.086	0.093	0.086
-168.881	277.800	-0.302	-0.533
-167.866	-200.000	-0.024	-0.371
-166.852	720.546	0.161	-0.423
-165.837	237.182	-0.170	0.279
-164.823	72.227	-0.171	-0.176
-163.808	-200.000	-0.032	-0.205
-162.793	-200.000	0.030	-0.157
-161.779	-122.062	0.197	0.032
-160.764	57.977	0.202	-0.195
-159.750	-29.653	-0.047	-0.027
-158.735	-59.854	0.114	0.048
-157.720	-200.000	-0.003	0.237
-156.706	-166.080	0.267	0.011
-155.691	-132.408	-0.158	-0.020
-154.677	-65.319	0.122	0.049
-153.662	-137.841	-0.125	0.014
-152.647	-200.000	0.071	-0.447
-151.633	-200.000	-0.046	-0.296
-150.618	134.060	-0.149	0.191
-149.604	-18.424	0.150	-0.093
-148.589	-11.167	-0.131	0.086
-147.574	405.514	0.133	-0.278
-146.560	-23.469	-0.291	0.173
-145.545	800.000	-0.005	-0.022
-144.531	-200.000	0.000	-0.137
-143.516	-25.827	0.296	0.173
-142.502	-49.532	-0.120	0.057
-141.487	-168.994	0.395	-0.015
-140.472	29.203	-0.166	-0.140
-139.458	67.708	0.193	-0.195
-138.443	-43.501	-0.043	0.021
-137.429	305.954	0.158	0.291
-136.414	-200.000	0.060	0.327
-135.399	-200.000	0.002	-0.013
-134.385	195.091	-0.106	0.160
-133.370	-18.052	-0.128	-0.079
-132.356	-166.456	-0.271	0.011
-131.341	-151.733	0.188	-0.014
-130.326	-130.314	0.365	-0.049
-129.312	18.020	-0.127	-0.100
-128.297	-100.751	0.220	-0.054
-127.283	-46.298	0.260	-0.126
-126.268	228.969	0.076	0.122
-125.253	19.109	-0.308	0.245
-124.239	-97.020	-0.454	0.118
-123.224	-124.749	0.226	0.035
-122.210	-175.808	0.155	0.004
-121.195	-44.009	0.307	0.153
