DTS Sentinel unit serial number:	SN413079Multiplexer serial number:	ORYXHardware model number:	OX4-SRSoftware version number:	ORYX F/W v4.00 Oryx Data Collector v3.7.2.0data status	okinstallation	princeton_trtdifferential loss correction	single-endedforward channel	channel 2reverse channel	N/Adate	2019/09/18time	18:31:35forward acquisition time	60.00reverse acquisition time	0.00gamma	496.2192k internal	0.2308k external	0.2308temperature offset calibration	1.0025default loss term (dB/km)	0.3790temperature slope calibration	1.0000multiplexer offset coefficient	1.0000multiplexer slope coefficient	1.0000fibre end	0.00T internal ref (°C)	38.27T ext. ref 1 (°C)	0.93T ext. ref 2 (°C)	30.80length (m)	temperature (°C)	Stokes	anti-Stokes-747.200	-53.975	-0.248	0.115
-746.185	800.000	-0.051	0.196
-745.171	-108.989	0.178	0.039
-744.156	223.697	-0.092	0.150
-743.142	800.000	0.059	-0.170
-742.127	129.119	0.182	0.236
-741.112	-42.445	0.050	0.026
-740.098	52.077	0.167	0.162
-739.083	-200.000	-0.020	0.090
-738.069	-179.488	-0.396	-0.009
-737.054	-77.173	-0.078	0.028
-736.039	-200.000	0.000	-0.128
-735.025	189.035	0.167	-0.254
-734.010	692.910	-0.161	-0.428
-732.996	-200.000	-0.078	0.439
-731.981	-89.974	0.272	-0.081
-730.966	242.857	0.140	0.239
-729.952	109.102	0.092	-0.111
-728.937	-200.000	-0.037	0.380
-727.923	310.388	-0.086	0.163
-726.908	800.000	0.019	-0.058
-725.894	-200.000	-0.010	0.238
-724.879	97.781	-0.295	-0.345
-723.864	100.501	0.032	-0.038
-722.850	-181.875	-0.129	-0.003
-721.835	-131.721	-0.266	-0.035
-720.821	170.361	-0.073	0.106
-719.806	800.000	0.022	-0.069
-718.791	171.460	-0.088	-0.128
-717.777	-200.000	-0.092	-0.469
-716.762	104.065	-0.109	-0.131
-715.748	-34.446	0.264	0.147
-714.733	183.458	-0.158	0.237
-713.718	134.096	0.301	-0.397
-712.704	-200.000	-0.023	-0.133
-711.689	-10.027	0.131	0.088
-710.675	-96.843	-0.270	0.072
-709.660	-200.000	-0.036	0.000
-708.645	-172.520	-0.055	-0.002
-707.631	34.009	-0.073	0.065
-706.616	-27.428	-0.182	-0.108
-705.602	-149.436	-0.287	0.023
-704.587	298.788	0.028	-0.053
-703.572	4.524	0.213	-0.159
-702.558	20.043	0.206	-0.169
-701.543	-150.809	0.109	0.008
-700.529	120.889	0.183	0.230
-699.514	-151.909	0.019	-0.001
-698.499	-46.973	-0.241	-0.119
-697.485	-42.466	0.229	-0.118
-696.470	-146.498	0.089	0.008
-695.456	800.000	-0.079	0.311
-694.441	-200.000	-0.021	-0.268
-693.426	540.734	0.126	0.304
-692.412	-44.839	-0.158	0.080
-691.397	-70.317	-0.246	-0.095
-690.383	-143.823	-0.323	0.031
-689.368	800.000	0.056	-0.221
-688.354	-105.384	-0.200	-0.046
-687.339	-114.061	0.048	0.009
-686.324	-73.853	0.123	0.045
-685.310	800.000	0.049	0.207
-684.295	-5.783	-0.142	-0.098
-683.281	-13.703	-0.229	0.151
-682.266	527.041	0.041	-0.097
-681.251	-86.966	0.386	-0.119
-680.237	-67.078	-0.100	-0.040
-679.222	-62.965	-0.220	-0.092
-678.208	-17.930	-0.159	-0.101
-677.193	-15.525	-0.065	-0.042
-676.178	-200.000	0.029	0.275
-675.164	-137.028	-0.180	-0.021
-674.149	-41.908	0.166	-0.086
-673.135	34.075	0.109	0.096
-672.120	-104.992	0.296	-0.069
-671.105	189.677	-0.175	0.266
-670.091	533.957	0.043	-0.104
-669.076	-192.758	0.059	0.001
-668.062	-200.000	0.157	-0.000
-667.047	-105.480	-0.127	-0.029
-666.032	-68.100	0.083	0.033
-665.018	800.000	-0.009	0.028
-664.003	-200.000	-0.007	-0.162
-662.989	69.215	-0.066	-0.069
-661.974	-99.994	-0.193	0.049
-660.959	226.352	0.154	-0.253
-659.945	53.973	-0.228	-0.222
-658.930	622.301	0.081	-0.206
-657.916	-96.913	0.428	-0.114
-656.901	4.312	-0.086	-0.063
-655.886	25.509	-0.280	0.236
-654.872	217.329	-0.065	0.105
-653.857	-24.385	0.244	-0.147
-652.843	303.534	-0.180	0.337
-651.828	379.188	0.068	-0.141
-650.814	70.501	-0.041	0.043
-649.799	-200.000	-0.011	-0.261
-648.784	-110.262	-0.392	-0.083
-647.770	-77.199	0.139	0.049
-646.755	67.285	0.158	-0.163
-645.741	-22.740	0.165	-0.101
-644.726	-63.536	0.157	0.065
-643.711	280.355	0.120	0.216
-642.697	-50.814	0.240	0.114
-641.682	41.092	-0.240	-0.220
-640.668	761.489	0.086	-0.236
-639.653	64.281	0.060	-0.062
-638.638	-200.000	0.051	0.261
-637.624	752.854	-0.058	-0.159
-636.609	-200.000	0.045	-0.232
-635.595	-194.951	0.308	0.002
-634.580	-87.390	0.133	0.041
-633.565	623.438	0.087	0.221
-632.551	304.646	0.102	-0.192
-631.536	-200.000	-0.040	-0.331
-630.522	60.423	-0.087	0.087
-629.507	312.128	-0.114	-0.216
-628.492	800.000	0.015	0.044
-627.478	47.554	0.108	0.102
-626.463	85.853	-0.139	-0.155
-625.449	-86.336	0.416	-0.130
-624.434	-179.104	0.199	-0.005
-623.419	434.138	0.188	0.413
-622.405	-34.357	-0.210	-0.116
-621.390	-200.000	-0.014	-0.079
-620.376	-43.637	-0.139	-0.071
-619.361	-97.020	-0.221	-0.059
-618.346	800.000	0.046	0.146
-617.332	-33.750	-0.133	0.074
-616.317	6.453	0.195	0.147
-615.303	-114.394	0.234	-0.045
-614.288	-90.993	0.117	-0.034
-613.273	180.782	-0.116	-0.172
-612.259	-200.000	0.015	-0.320
-611.244	-200.000	-0.013	0.132
-610.230	800.000	-0.158	0.485
-609.215	65.481	-0.293	0.300
-608.201	495.863	-0.081	0.188
-607.186	-200.000	-0.032	-0.230
-606.171	-110.040	0.242	0.051
-605.157	-179.242	0.237	-0.005
-604.142	50.880	-0.081	0.078
-603.128	-11.672	0.235	0.156
-602.113	-148.564	0.212	0.017
-601.098	-200.000	0.029	-0.172
-600.084	-200.000	-0.030	-0.281
-599.069	-200.000	-0.008	-0.134
-598.055	-131.364	-0.212	0.028
-597.040	12.959	-0.043	-0.034
-596.025	287.849	-0.134	-0.245
-595.011	-200.000	-0.045	-0.296
-593.996	-43.100	-0.238	-0.122
-592.982	-200.000	0.006	0.198
-591.967	-200.000	0.024	-0.106
-590.952	195.542	0.095	-0.146
-589.938	-12.848	-0.212	0.140
-588.923	-58.393	0.016	0.007
-587.909	136.124	-0.134	-0.177
-586.894	-142.504	0.388	0.038
-585.879	-15.451	-0.119	0.077
-584.865	81.566	-0.212	0.231
-583.850	-200.000	-0.004	0.329
-582.836	-123.837	-0.324	0.052
-581.821	-62.032	0.076	-0.032
-580.806	-159.973	-0.115	-0.006
-579.792	500.514	-0.076	-0.178
-578.777	127.647	-0.037	-0.047
-577.763	-95.904	0.146	0.039
-576.748	-11.846	0.217	-0.144
-575.733	-79.511	-0.179	-0.061
-574.719	-103.184	-0.094	-0.022
-573.704	-2.726	-0.056	-0.039
-572.690	-58.967	-0.277	-0.121
-571.675	29.571	-0.100	-0.086
-570.661	-168.806	0.211	0.008
-569.646	800.000	-0.021	-0.073
-568.631	-200.000	0.044	0.355
-567.617	63.442	0.250	0.253
-566.602	-200.000	-0.048	-0.242
-565.588	58.512	-0.207	0.205
-564.573	387.587	0.174	-0.363
-563.558	-200.000	-0.019	0.129
-562.544	700.796	0.065	0.174
-561.529	200.860	-0.107	-0.166
-560.515	293.539	0.055	0.100
-559.500	253.360	0.046	0.079
-558.485	-42.872	0.087	-0.045
-557.471	40.615	-0.049	0.045
-556.456	-62.929	-0.386	-0.161
-555.442	-63.485	0.221	-0.092
-554.427	-12.809	-0.196	-0.129
-553.412	-200.000	0.037	0.262
-552.398	-122.660	0.111	0.018
-551.383	-9.584	-0.227	-0.152
-550.369	-200.000	0.050	0.314
-549.354	375.737	-0.071	0.146
-548.339	800.000	0.070	-0.269
-547.325	800.000	-0.021	0.086
-546.310	-155.566	-0.382	0.025
-545.296	449.682	-0.046	-0.103
-544.281	98.379	-0.252	0.293
-543.266	452.126	0.072	-0.160
-542.252	77.567	0.198	0.213
-541.237	-200.000	-0.039	-0.204
-540.223	-29.235	-0.152	-0.088
-539.208	-143.969	0.197	0.019
-538.193	-200.000	0.011	-0.142
-537.179	106.451	-0.106	0.127
-536.164	542.329	0.097	-0.233
-535.150	7.835	0.331	0.250
-534.135	-200.000	-0.037	0.225
-533.121	-107.780	-0.194	-0.043
-532.106	626.631	0.151	-0.384
-531.091	4.250	0.099	0.073
-530.077	437.694	0.092	0.202
-529.062	464.452	0.110	-0.249
-528.048	271.415	0.120	0.213
-527.033	-200.000	0.002	0.089
-526.018	-83.998	-0.074	-0.024
-525.004	-61.090	-0.145	-0.062
-523.989	17.071	-0.107	0.085
-522.975	337.463	0.149	0.291
-521.960	-151.702	0.256	-0.019
-520.945	-200.000	0.028	-0.298
-519.931	-123.892	0.092	-0.015
-518.916	389.617	-0.088	-0.183
-517.902	-200.000	-0.015	-0.210
-516.887	-60.588	0.105	-0.045
-515.872	-16.780	0.226	-0.144
-514.858	145.596	-0.162	-0.219
-513.843	365.329	0.159	0.322
-512.829	-200.000	-0.024	-0.142
-511.814	778.287	-0.044	0.122
-510.799	-129.568	-0.271	0.038
-509.785	-200.000	0.008	0.037
-508.770	-49.788	-0.315	-0.151
-507.756	-66.964	-0.301	-0.120
-506.741	96.260	-0.158	0.182
-505.726	0.319	0.065	-0.047
-504.712	151.102	-0.103	-0.141
-503.697	-200.000	-0.010	-0.300
-502.683	-122.405	-0.243	0.040
-501.668	93.571	0.220	-0.251
-500.653	800.000	0.087	0.284
-499.639	51.570	-0.279	0.267
-498.624	-2.419	0.145	-0.103
-497.610	50.382	-0.089	0.084
-496.595	-107.319	0.286	-0.063
-495.581	616.452	0.094	-0.237
-494.566	245.544	0.166	-0.282
-493.551	-46.337	-0.157	-0.078
-492.537	226.924	-0.107	-0.175
-491.522	-200.000	-0.017	0.124
-490.508	512.745	-0.017	-0.040
-489.493	17.043	-0.103	0.082
-488.478	-181.979	-0.161	0.003
-487.464	-49.724	-0.159	-0.076
-486.449	284.524	-0.036	-0.066
-485.435	-98.050	0.115	0.030
-484.420	198.277	-0.168	-0.258
-483.405	162.118	0.037	-0.052
-482.391	454.736	0.184	0.410
-481.376	57.024	0.270	0.265
-480.362	37.334	0.111	-0.099
-479.347	89.106	0.080	-0.090
-478.332	-200.000	-0.026	-0.200
-477.318	-83.010	-0.036	0.012
-476.303	-200.000	0.012	0.123
-475.289	800.000	-0.070	-0.274
-474.274	-140.275	0.177	-0.019
-473.259	-44.208	0.112	-0.057
-472.245	-49.036	-0.164	-0.079
-471.230	800.000	-0.159	-0.545
-470.216	-200.000	-0.053	-0.272
-469.201	-53.673	-0.186	0.085
-468.186	-120.212	0.293	-0.050
-467.172	-167.911	-0.381	0.015
-466.157	-57.851	0.148	-0.065
-465.143	46.384	0.079	-0.074
-464.128	516.987	-0.133	-0.312
-463.113	104.998	-0.195	0.231
-462.099	-101.838	-0.245	0.060
-461.084	-200.000	-0.009	0.303
-460.070	-200.000	-0.007	-0.181
-459.055	234.907	0.096	0.159
-458.040	-136.100	-0.029	-0.003
-457.026	52.752	-0.159	-0.153
-456.011	-200.000	0.003	0.195
-454.997	-96.571	0.299	-0.079
-453.982	-200.000	-0.025	-0.335
-452.968	20.387	-0.214	-0.174
-451.953	77.612	-0.029	-0.031
-450.938	14.222	0.200	0.157
-449.924	548.497	0.128	0.308
-448.909	-200.000	0.003	-0.016
-447.895	-124.486	0.180	0.028
-446.880	-102.452	-0.406	0.098
-445.865	-0.512	0.050	-0.036
-444.851	-120.576	0.337	-0.057
-443.836	-163.181	-0.121	-0.006
-442.822	-25.412	0.178	0.106
-441.807	221.510	0.235	-0.380
-440.792	-200.000	-0.031	-0.356
-439.778	252.171	-0.215	-0.367
-438.763	-70.140	-0.105	-0.040
-437.749	800.000	0.096	0.294
-436.734	-113.845	-0.080	-0.016
-435.719	-152.479	0.335	0.024
-434.705	156.148	0.137	-0.190
-433.690	603.789	-0.114	0.284
-432.676	-153.252	-0.227	0.016
-431.661	410.668	-0.062	0.133
-430.646	-66.609	-0.309	-0.123
-429.632	-200.000	0.025	-0.528
-428.617	-64.700	0.152	0.062
-427.603	331.164	-0.186	-0.360
-426.588	-102.888	0.424	-0.101
-425.573	151.104	0.132	-0.181
-424.559	26.560	0.241	0.203
-423.544	-112.500	0.175	-0.035
-422.530	800.000	0.059	-0.238
-421.515	379.561	0.060	-0.123
-420.500	-200.000	0.022	0.110
-419.486	-184.813	-0.332	0.005
-418.471	-136.211	-0.323	-0.038
-417.457	-200.000	-0.019	-0.105
-416.442	-97.319	-0.256	-0.067
-415.428	433.005	-0.009	-0.020
-414.413	-113.911	-0.294	-0.057
-413.398	-92.447	0.183	-0.052
-412.384	-200.000	-0.034	-0.184
-411.369	-200.000	-0.034	-0.206
-410.355	-64.574	0.282	0.115
-409.340	800.000	0.057	-0.178
-408.325	286.131	0.018	-0.033
-407.311	95.188	0.110	0.125
-406.296	-200.000	-0.087	-0.485
-405.282	783.338	-0.081	0.222
-404.267	63.774	-0.311	0.313
-403.252	33.363	-0.199	-0.173
-402.238	-142.623	-0.130	-0.013
-401.223	-129.039	-0.042	0.006
-400.209	800.000	-0.048	0.150
-399.194	52.168	-0.133	-0.127
-398.179	753.293	-0.076	0.205
-397.165	65.552	0.121	0.122
-396.150	800.000	0.107	0.363
-395.136	385.293	0.072	0.150
-394.121	800.000	-0.046	0.156
-393.106	223.456	-0.181	0.293
-392.092	-200.000	-0.011	-0.060
-391.077	-91.493	0.152	0.043
-390.063	41.003	0.102	-0.092
-389.048	153.169	-0.197	-0.271
-388.033	-37.361	-0.353	0.189
-387.019	171.667	0.074	-0.107
-386.004	-200.000	0.012	0.101
-384.990	-89.967	-0.279	-0.082
-383.975	-106.961	0.210	0.047
-382.960	745.507	-0.061	0.165
-381.946	-95.560	0.329	0.088
-380.931	193.948	-0.069	0.104
-379.917	40.805	0.226	-0.204
-378.902	7.636	-0.132	0.099
-377.888	-200.000	-0.037	0.173
-376.873	501.670	-0.130	-0.301
-375.858	42.691	0.117	0.107
-374.844	800.000	-0.074	0.231
-373.829	634.847	-0.042	0.106
-372.815	-200.000	0.021	0.121
-371.800	800.000	0.052	0.213
-370.785	-132.894	-0.183	-0.023
-369.771	331.638	-0.131	0.253
-368.756	-200.000	0.017	0.423
-367.742	-125.735	0.183	0.028
-366.727	675.131	-0.039	-0.102
-365.712	-200.000	0.008	-0.079
-364.698	304.939	-0.101	-0.188
-363.683	3.665	-0.053	0.039
-362.669	280.241	-0.043	0.077
-361.654	169.575	-0.141	-0.202
-360.639	-149.471	-0.242	-0.019
-359.625	-200.000	-0.037	-0.280
-358.610	-113.883	0.147	-0.029
-357.596	800.000	0.086	-0.240
-356.581	-3.003	0.099	-0.069
-355.566	-18.014	-0.179	0.112
-354.552	-32.440	-0.122	0.068
-353.537	-138.062	0.239	-0.027
-352.523	590.508	-0.072	0.179
-351.508	-22.839	-0.170	-0.102
-350.493	-200.000	0.002	-0.067
-349.479	-83.119	-0.373	0.120
-348.464	257.761	-0.114	-0.197
-347.450	19.813	0.275	0.222
-346.435	239.948	-0.076	0.127
-345.420	89.853	0.317	-0.354
-344.406	423.911	-0.100	0.216
-343.391	-156.757	-0.154	0.010
-342.377	140.861	-0.236	-0.312
-341.362	102.681	0.246	-0.288
-340.348	-15.547	0.355	0.227
-339.333	255.798	-0.078	0.134
-338.318	262.930	0.088	0.153
-337.304	38.777	-0.409	0.365
-336.289	599.344	0.051	0.125
-335.275	742.924	0.130	-0.350
-334.260	-44.034	-0.079	0.040
-333.245	31.198	0.105	-0.090
-332.231	-76.263	0.038	-0.013
-331.216	-162.349	0.624	-0.031
-330.202	-176.860	0.233	0.006
-329.187	375.880	-0.107	-0.219
-328.172	679.770	0.048	-0.125
-327.158	129.307	0.115	0.147
-326.143	-31.112	-0.118	-0.067
-325.129	301.516	0.109	-0.202
-324.114	-89.564	0.255	-0.075
-323.099	-17.230	0.145	0.091
-322.085	-75.662	-0.199	0.071
-321.070	-18.243	-0.114	-0.071
-320.056	-200.000	-0.041	0.348
-319.041	118.881	-0.153	-0.189
-318.026	800.000	-0.134	-0.427
-317.012	-200.000	-0.006	-0.134
-315.997	-106.966	-0.261	0.058
-314.983	19.512	-0.157	-0.127
-313.968	92.271	0.158	0.178
-312.953	-37.747	0.223	0.119
-311.939	-37.353	-0.271	0.145
-310.924	198.916	0.158	0.242
-309.910	-200.000	-0.029	0.272
-308.895	121.187	-0.190	0.236
-307.880	-200.000	0.010	-0.221
-306.866	299.088	-0.136	0.250
-305.851	292.351	-0.144	0.262
-304.837	-88.231	0.160	-0.048
-303.822	-110.314	0.208	-0.043
-302.807	800.000	0.064	-0.207
-301.793	-51.066	0.336	0.158
-300.778	-35.384	-0.404	0.220
-299.764	-16.644	-0.207	0.131
-298.749	-80.127	-0.085	0.028
-297.735	-12.904	-0.230	-0.150
-296.720	210.567	-0.120	0.188
-295.705	800.000	0.071	-0.285
-294.691	-20.616	-0.377	0.231
-293.676	800.000	-0.036	-0.127
-292.662	-54.541	-0.359	-0.162
-291.647	-200.000	0.058	0.293
-290.632	179.559	-0.071	-0.104
-289.618	47.712	0.145	0.135
-288.603	93.757	0.022	-0.025
-287.589	-89.678	-0.203	0.059
-286.574	-200.000	0.026	-0.124
-285.559	227.735	0.241	0.391
-284.545	-200.000	-0.010	-0.048
-283.530	-200.000	-0.004	0.349
-282.516	378.672	0.245	0.501
-281.501	55.943	-0.075	0.073
-280.486	26.464	-0.243	-0.203
-279.472	104.196	0.200	-0.234
-278.457	-155.287	0.245	0.016
-277.443	434.850	0.126	0.273
-276.428	-50.875	-0.133	-0.062
-275.413	29.551	-0.113	0.096
-274.399	89.671	-0.115	0.128
-273.384	-69.358	0.137	-0.052
-272.370	-200.000	0.051	-0.246
-271.355	326.067	0.064	0.123
-270.340	45.493	0.129	-0.118
-269.326	-200.000	-0.024	-0.174
-268.311	10.605	0.400	0.304
-267.297	190.833	-0.107	0.161
-266.282	-200.000	0.009	-0.048
-265.267	781.591	0.041	-0.113
-264.253	-200.000	0.021	0.110
-263.238	-127.764	-0.214	0.031
-262.224	-42.853	0.069	0.035
-261.209	10.540	-0.190	0.145
-260.195	702.575	0.062	-0.164
-259.180	-200.000	-0.006	-0.237
-258.165	179.727	-0.089	0.130
-257.151	51.300	0.164	0.155
-256.136	55.395	-0.089	-0.086
-255.122	-2.263	0.134	0.094
-254.107	-143.375	0.272	-0.026
-253.092	552.087	-0.166	-0.397
-252.078	-109.769	0.089	0.019
-251.063	702.742	0.167	0.439
-250.049	365.767	-0.099	0.198
-249.034	283.302	0.143	-0.256
-248.019	-23.148	0.049	-0.029
-247.005	-136.390	0.163	-0.019
-245.990	-82.711	0.289	0.093
-244.976	51.741	-0.121	0.114
-243.961	-97.032	0.252	-0.066
-242.946	-57.050	-0.120	-0.053
-241.932	-118.920	-0.337	0.059
-240.917	-61.728	-0.119	0.050
-239.903	782.178	-0.028	0.077
-238.888	165.329	0.251	0.353
-237.873	-103.685	0.087	0.020
-236.859	-139.535	0.295	0.031
-235.844	-88.423	0.183	0.055
-234.830	60.098	-0.063	-0.062
-233.815	-127.657	0.148	-0.021
-232.800	80.913	-0.129	0.139
-231.786	-200.000	-0.009	0.060
-230.771	-117.321	-0.309	0.056
-229.757	425.930	-0.031	0.066
-228.742	800.000	0.046	-0.171
-227.727	-36.641	0.150	-0.080
-226.713	50.249	0.121	-0.114
-225.698	800.000	-0.045	0.134
-224.684	-50.358	-0.172	0.081
-223.669	-92.390	-0.145	-0.041
-222.655	-200.000	0.030	-0.216
-221.640	49.135	0.220	0.205
-220.625	126.146	0.129	0.162
-219.611	-28.534	-0.284	0.163
-218.596	800.000	-0.031	-0.128
-217.582	800.000	0.071	-0.210
-216.567	558.105	0.080	0.193
-215.552	181.487	0.132	0.193
-214.538	800.000	0.068	0.258
-213.523	110.622	-0.088	0.106
-212.509	-200.000	-0.030	-0.216
-211.494	-200.000	0.016	0.132
-210.479	133.343	-0.094	0.121
-209.465	-154.750	-0.061	0.004
-208.450	88.885	0.017	-0.018
-207.436	-200.000	0.062	0.290
-206.421	156.928	0.023	-0.032
-205.406	800.000	0.130	0.380
-204.392	-130.802	-0.100	0.013
-203.377	800.000	0.045	-0.153
-202.363	76.727	0.145	0.153
-201.348	-115.036	-0.189	-0.036
-200.333	800.000	-0.041	-0.115
-199.319	-200.000	0.036	-0.178
-198.304	56.024	0.229	-0.221
-197.290	-91.184	-0.032	-0.009
-196.275	-200.000	-0.009	0.183
-195.260	800.000	-0.110	-0.311
-194.246	-200.000	0.016	-0.152
-193.231	-200.000	-0.008	0.043
-192.217	800.000	0.027	-0.090
-191.202	-70.902	0.183	-0.069
-190.187	188.033	0.268	-0.399
-189.173	800.000	-0.090	-0.311
-188.158	-149.350	0.314	-0.025
-187.144	-167.892	0.057	0.002
-186.129	208.075	0.083	0.129
-185.114	-24.927	-0.255	-0.150
-184.100	491.745	-0.047	0.106
-183.085	205.078	-0.054	-0.083
-182.071	-200.000	0.004	0.224
-181.056	418.223	-0.053	-0.113
-180.042	-200.000	-0.046	-0.251
-179.027	91.577	-0.144	-0.161
-178.012	-162.887	-0.099	-0.005
-176.998	4.106	-0.362	0.263
-175.983	67.320	-0.168	0.170
-174.969	-200.000	0.055	0.295
-173.954	-102.441	0.213	0.051
-172.939	-200.000	0.047	0.240
-171.925	-15.522	-0.054	0.035
-170.910	-72.045	0.163	-0.060
-169.896	-200.000	-0.030	0.184
-168.881	800.000	-0.064	-0.245
-167.866	119.847	-0.031	-0.038
-166.852	-167.459	-0.209	0.008
-165.837	-145.555	0.346	-0.031
-164.823	-132.444	0.196	0.025
-163.808	-111.573	0.396	-0.080
-162.793	800.000	0.113	0.425
-161.779	-146.138	-0.191	0.017
-160.764	16.935	-0.098	0.077
-159.750	425.717	0.109	0.234
-158.735	-200.000	0.007	0.118
-157.720	-200.000	0.053	0.269
-156.706	238.729	-0.092	-0.153
-155.691	-200.000	0.062	0.378
-154.677	-10.495	0.135	0.089
-153.662	-48.213	0.401	-0.192
-152.647	-114.402	-0.217	0.041
-151.633	-53.573	0.104	0.047
-150.618	-84.734	-0.082	-0.026
-149.604	115.700	-0.254	-0.308
-148.589	140.138	0.335	0.439
-147.574	175.212	0.096	0.139
-146.560	697.280	-0.083	-0.216
-145.545	-200.000	-0.010	-0.092
-144.531	-133.789	0.205	-0.025
-143.516	-153.514	-0.238	-0.016
-142.502	800.000	0.071	-0.239
-141.487	-5.546	0.152	-0.104
-140.472	-170.964	-0.238	0.008
-139.458	214.409	0.169	-0.265
-138.443	65.163	0.138	0.139
-137.429	-32.730	-0.223	0.123
-136.414	-200.000	-0.018	-0.135
-135.399	-94.632	0.356	-0.096
-134.385	-12.835	-0.377	-0.244
-133.370	-140.092	0.286	0.030
-132.356	275.849	-0.195	-0.344
-131.341	215.295	-0.153	0.241
-130.326	-200.000	0.025	-0.115
-129.312	-200.000	0.054	0.247
-128.297	278.335	0.108	0.190
-127.283	800.000	0.102	-0.331
-126.268	10.448	0.094	0.071
-125.253	463.187	-0.079	0.174
-124.239	483.869	-0.132	-0.297
-123.224	-125.587	-0.193	0.029
