DTS Sentinel unit serial number:	SN413079Multiplexer serial number:	ORYXHardware model number:	OX4-SRSoftware version number:	ORYX F/W v4.00 Oryx Data Collector v3.7.2.0data status	okinstallation	princeton_trtdifferential loss correction	single-endedforward channel	channel 2reverse channel	N/Adate	2019/09/16time	14:23:34forward acquisition time	60.00reverse acquisition time	0.00gamma	496.2192k internal	0.2296k external	0.2296temperature offset calibration	0.9942default loss term (dB/km)	0.3790temperature slope calibration	1.0000multiplexer offset coefficient	1.0000multiplexer slope coefficient	1.0000fibre end	0.00T internal ref (°C)	42.08T ext. ref 1 (°C)	14.19T ext. ref 2 (°C)	36.40length (m)	temperature (°C)	Stokes	anti-Stokes-747.200	94.187	-0.244	0.283
-746.185	137.362	-0.309	0.413
-745.171	367.515	0.046	0.095
-744.156	81.905	-0.193	-0.213
-743.142	262.046	-0.113	-0.201
-742.127	549.703	0.025	0.061
-741.112	-200.000	0.001	0.041
-740.098	-38.633	0.093	-0.050
-739.083	-133.157	-0.010	-0.001
-738.069	-54.009	-0.049	-0.023
-737.054	-159.448	-0.184	-0.010
-736.039	150.399	-0.154	-0.214
-735.025	145.453	-0.111	0.152
-734.010	17.951	-0.183	-0.149
-732.996	800.000	-0.215	-0.656
-731.981	-11.039	0.197	-0.133
-730.966	800.000	0.059	0.179
-729.952	-108.847	-0.320	0.070
-728.937	-129.964	0.105	-0.015
-727.923	-119.567	0.054	0.009
-726.908	-200.000	-0.096	0.505
-725.894	-160.618	-0.232	-0.013
-724.879	346.734	-0.076	0.152
-723.864	-86.722	0.252	0.079
-722.850	800.000	0.044	0.182
-721.835	-44.041	-0.182	-0.094
-720.821	231.450	-0.178	0.298
-719.806	-10.809	-0.271	-0.183
-718.791	-15.555	-0.297	-0.193
-717.777	144.441	0.074	0.101
-716.762	-178.837	-0.215	-0.005
-715.748	-81.196	-0.293	-0.099
-714.733	47.362	0.254	-0.241
-713.718	406.514	-0.080	0.171
-712.704	-168.528	-0.336	0.013
-711.689	-28.556	-0.049	-0.029
-710.675	277.846	-0.128	-0.232
-709.660	-200.000	-0.006	-0.331
-708.645	49.619	0.179	-0.172
-707.631	400.159	0.086	-0.184
-706.616	800.000	-0.022	-0.073
-705.602	288.789	0.085	-0.158
-704.587	129.203	-0.326	0.425
-703.572	217.219	0.020	0.033
-702.558	6.529	0.114	0.086
-701.543	-200.000	-0.008	0.342
-700.529	-33.990	-0.126	-0.071
-699.514	-148.306	0.330	0.028
-698.499	485.410	-0.035	-0.081
-697.485	-200.000	-0.027	0.230
-696.470	112.257	-0.090	-0.111
-695.456	-64.978	-0.176	-0.072
-694.441	-120.732	-0.298	-0.051
-693.426	800.000	0.061	-0.176
-692.412	232.591	-0.169	-0.283
-691.397	-190.852	0.263	-0.003
-690.383	70.095	-0.103	-0.108
-689.368	-123.505	-0.065	0.011
-688.354	622.464	-0.050	0.128
-687.339	-162.566	-0.218	-0.011
-686.324	-135.605	0.254	-0.031
-685.310	-135.202	-0.250	-0.031
-684.295	-71.293	-0.261	-0.100
-683.281	-200.000	-0.009	-0.210
-682.266	-200.000	-0.010	-0.078
-681.251	-119.015	-0.307	-0.055
-680.237	-15.620	-0.150	-0.097
-679.222	-200.000	-0.019	0.301
-678.208	-200.000	-0.004	-0.260
-677.193	-200.000	-0.038	-0.178
-676.178	244.013	-0.061	-0.105
-675.164	-200.000	-0.015	-0.269
-674.149	67.245	0.089	0.093
-673.135	-200.000	0.019	0.221
-672.120	303.768	0.052	0.099
-671.105	-200.000	0.048	0.418
-670.091	699.292	-0.076	0.203
-669.076	-147.329	0.106	-0.009
-668.062	261.449	-0.028	-0.049
-667.047	797.761	0.030	0.084
-666.032	800.000	0.077	0.308
-665.018	157.835	0.019	-0.027
-664.003	-200.000	0.063	0.286
-662.989	800.000	-0.032	0.135
-661.974	800.000	-0.092	-0.264
-660.959	-200.000	0.087	0.399
-659.945	-170.618	-0.316	0.011
-658.930	-82.241	-0.229	0.076
-657.916	86.233	-0.230	0.258
-656.901	13.535	0.163	-0.129
-655.886	-87.768	-0.356	-0.109
-654.872	-200.000	0.059	0.319
-653.857	-9.683	0.242	-0.164
-652.843	-200.000	-0.002	-0.283
-651.828	452.482	-0.107	-0.242
-650.814	-12.845	0.204	-0.135
-649.799	-48.262	-0.132	-0.065
-648.784	94.652	-0.216	0.250
-647.770	-150.019	-0.042	0.003
-646.755	46.449	0.135	0.127
-645.741	202.755	-0.019	-0.030
-644.726	800.000	-0.120	-0.451
-643.711	-35.835	-0.122	-0.067
-642.697	-59.919	-0.240	0.104
-641.682	-200.000	-0.016	-0.166
-640.668	10.848	0.098	-0.076
-639.653	-113.449	-0.148	0.030
-638.638	19.122	-0.174	0.142
-637.624	-3.077	0.354	-0.252
-636.609	-20.235	-0.088	0.055
-635.595	-98.628	-0.108	0.028
-634.580	-63.928	0.100	-0.042
-633.565	-97.808	-0.302	-0.079
-632.551	281.785	0.155	-0.283
-631.536	143.615	0.249	-0.337
-630.522	-77.238	-0.152	-0.054
-629.507	-81.802	-0.239	-0.080
-628.492	800.000	-0.026	-0.085
-627.478	-192.717	0.180	0.002
-626.463	800.000	-0.061	0.240
-625.449	715.600	-0.104	-0.280
-624.434	-116.929	-0.198	0.037
-623.419	151.220	0.270	0.374
-622.405	-126.784	0.110	-0.016
-621.390	38.547	0.083	0.076
-620.376	204.801	0.088	-0.139
-619.361	51.275	-0.194	-0.188
-618.346	509.355	-0.032	-0.075
-617.332	-33.298	-0.074	-0.042
-616.317	171.624	-0.161	-0.235
-615.303	-89.564	0.211	-0.063
-614.288	-46.362	-0.087	0.043
-613.273	800.000	0.024	-0.092
-612.259	-52.261	-0.152	-0.072
-611.244	239.253	-0.094	0.159
-610.230	-72.135	-0.287	0.108
-609.215	329.137	-0.078	0.153
-608.201	-200.000	0.021	-0.218
-607.186	191.615	0.213	-0.326
-606.171	-200.000	0.000	-0.034
-605.157	11.976	-0.312	-0.244
-604.142	-68.142	-0.179	-0.071
-603.128	-162.652	-0.325	0.016
-602.113	-145.793	-0.334	0.030
-601.098	298.955	-0.081	-0.151
-600.084	-46.843	0.132	-0.066
-599.069	161.358	-0.163	0.232
-598.055	-92.201	-0.169	-0.048
-597.040	-124.704	-0.238	-0.037
-596.025	-167.262	-0.328	0.013
-595.011	-183.667	0.177	-0.003
-593.996	800.000	-0.067	0.265
-592.982	800.000	-0.062	-0.244
-591.967	-143.139	-0.510	-0.050
-590.952	-35.291	-0.183	-0.101
-589.938	-200.000	0.297	0.001
-588.923	800.000	-0.103	0.404
-587.909	-101.381	0.198	0.049
-586.894	60.848	0.267	-0.269
-585.879	-88.456	-0.239	0.072
-584.865	-114.501	0.195	-0.038
-583.850	210.922	-0.135	-0.216
-582.836	125.186	-0.117	-0.150
-581.821	51.251	0.203	0.195
-580.806	-140.486	0.069	0.007
-579.792	800.000	0.057	0.204
-578.777	-14.818	-0.272	0.177
-577.763	800.000	-0.119	-0.417
-576.748	-200.000	0.021	0.212
-575.733	43.268	-0.052	-0.048
-574.719	43.271	-0.113	-0.105
-573.704	418.268	-0.022	-0.048
-572.690	57.861	0.044	-0.044
-571.675	147.440	-0.181	-0.247
-570.661	-200.000	0.034	-0.153
-569.646	-200.000	0.003	-0.161
-568.631	624.536	-0.041	0.104
-567.617	-140.979	0.238	-0.025
-566.602	187.010	-0.052	0.079
-565.588	99.286	0.174	0.204
-564.573	114.089	0.289	-0.357
-563.558	-153.820	-0.205	0.014
-562.544	-86.868	0.056	-0.017
-561.529	91.239	0.011	0.013
-560.515	-38.230	-0.258	0.139
-559.500	-200.000	-0.026	0.128
-558.485	583.125	0.088	0.219
-557.471	-200.000	-0.022	-0.263
-556.456	-86.003	-0.113	-0.035
-555.442	-89.741	-0.409	-0.121
-554.427	103.137	-0.048	0.057
-553.412	-3.056	0.046	0.033
-552.398	166.196	0.188	-0.270
-551.383	35.782	-0.074	-0.066
-550.369	-163.338	-0.149	-0.007
-549.354	-144.678	0.298	0.028
-548.339	292.752	0.190	-0.351
-547.325	697.256	0.083	0.220
-546.310	67.168	-0.134	-0.138
-545.296	-13.819	-0.106	-0.069
-544.281	319.409	-0.189	0.363
-543.266	-101.297	-0.204	0.050
-542.252	201.551	0.085	0.132
-541.237	-200.000	0.026	-0.255
-540.223	-46.326	-0.242	0.121
-539.208	228.111	0.150	0.247
-538.193	-200.000	-0.074	-0.387
-537.179	50.071	-0.275	-0.263
-536.164	-200.000	-0.008	-0.221
-535.150	-117.650	0.135	0.025
-534.135	-126.986	-0.246	0.037
-533.121	351.481	0.183	-0.366
-532.106	-116.365	-0.404	0.076
-531.091	-200.000	-0.021	0.332
-530.077	800.000	0.033	-0.099
-529.062	-4.395	-0.107	-0.075
-528.048	109.433	0.062	-0.075
-527.033	84.632	-0.023	-0.025
-526.018	-38.653	-0.081	0.043
-525.004	-125.834	-0.129	0.020
-523.989	209.989	0.107	0.169
-522.975	-200.000	-0.010	0.108
-521.960	64.602	-0.167	0.170
-520.945	-200.000	-0.002	0.320
-519.931	4.077	0.157	0.116
-518.916	-43.758	-0.091	0.046
-517.902	65.832	-0.058	-0.059
-516.887	11.396	-0.091	0.071
-515.872	-107.962	0.328	-0.072
-514.858	-43.404	0.184	0.094
-513.843	-88.743	0.189	0.057
-512.829	79.787	-0.084	-0.091
-511.814	48.895	-0.148	-0.141
-510.799	-89.028	0.098	0.029
-509.785	-183.530	0.142	-0.002
-508.770	-12.190	0.326	0.216
-507.756	-126.041	-0.029	-0.004
-506.741	80.762	-0.064	0.070
-505.726	148.513	-0.072	0.099
-504.712	44.309	0.062	0.058
-503.697	-106.608	0.072	-0.016
-502.683	17.120	-0.076	-0.061
-501.668	-81.309	-0.252	0.084
-500.653	-112.210	-0.106	0.021
-499.639	21.184	0.291	0.239
-498.624	45.739	-0.132	-0.123
-497.610	188.052	0.032	-0.049
-496.595	-71.093	0.280	-0.106
-495.581	189.022	0.112	-0.170
-494.566	800.000	-0.084	-0.324
-493.551	800.000	0.079	-0.320
-492.537	-170.976	-0.210	0.007
-491.522	-200.000	-0.024	0.109
-490.508	-168.469	-0.046	-0.002
-489.493	-132.897	-0.053	0.007
-488.478	80.199	-0.162	-0.176
-487.464	86.661	-0.142	-0.159
-486.449	-66.625	0.122	-0.049
-485.435	79.530	-0.005	0.006
-484.420	-200.000	-0.002	-0.061
-483.405	4.115	-0.191	0.141
-482.391	241.327	-0.030	0.051
-481.376	-41.970	-0.103	-0.053
-480.362	-187.306	0.465	0.006
-479.347	800.000	-0.058	0.212
-478.332	52.604	-0.268	0.258
-477.318	-30.437	-0.206	-0.118
-476.303	93.625	0.184	-0.211
-475.289	-200.000	0.010	0.134
-474.274	23.938	0.101	0.085
-473.259	-82.308	-0.175	0.058
-472.245	327.828	0.213	-0.413
-471.230	-89.505	-0.239	0.071
-470.216	90.340	0.273	0.309
-469.201	72.510	0.240	0.253
-468.186	114.839	0.258	-0.318
-467.172	-200.000	-0.027	-0.281
-466.157	116.455	0.271	-0.336
-465.143	228.588	-0.136	0.225
-464.128	-200.000	-0.013	0.213
-463.113	-111.231	-0.458	-0.095
-462.099	286.028	-0.054	0.098
-461.084	-200.000	0.012	-0.053
-460.070	-37.650	-0.113	0.061
-459.055	800.000	-0.056	-0.169
-458.040	-200.000	-0.050	-0.349
-457.026	13.831	0.186	-0.146
-456.011	-182.877	0.163	0.003
-454.997	9.809	-0.090	-0.069
-453.982	-56.437	-0.054	-0.024
-452.968	800.000	-0.138	-0.502
-451.953	-6.781	0.119	-0.082
-450.938	-103.761	-0.234	-0.055
-449.924	100.808	-0.170	0.199
-448.909	293.248	0.079	0.146
-447.895	695.215	0.102	0.269
-446.880	81.371	-0.128	-0.140
-445.865	-86.417	-0.126	0.039
-444.851	-2.515	-0.304	-0.215
-443.836	-200.000	-0.019	0.085
-442.822	-115.303	0.162	-0.031
-441.807	410.919	0.061	0.131
-440.792	-108.343	0.121	0.026
-439.778	-200.000	-0.003	-0.202
-438.763	-39.520	0.248	0.131
-437.749	18.828	-0.209	-0.169
-436.734	397.178	0.029	0.062
-435.719	-27.897	0.228	-0.134
-434.705	109.286	0.137	-0.165
-433.690	205.230	-0.169	0.266
-432.676	-200.000	0.049	0.301
-431.661	114.299	0.177	0.218
-430.646	165.966	0.266	-0.380
-429.632	-200.000	-0.040	-0.267
-428.617	24.981	0.205	-0.172
-427.603	-200.000	0.020	0.123
-426.588	-200.000	-0.023	0.198
-425.573	199.234	0.194	0.300
-424.559	59.539	-0.284	-0.283
-423.544	-82.281	0.207	-0.068
-422.530	342.372	-0.129	0.255
-421.515	-200.000	-0.063	0.427
-420.500	-104.376	0.352	-0.082
-419.486	-40.034	0.084	-0.044
-418.471	-62.005	0.274	0.116
-417.457	266.263	0.034	0.059
-416.442	-200.000	0.008	-0.160
-415.428	-200.000	0.013	-0.318
-414.413	-48.599	-0.058	0.028
-413.398	46.979	0.181	-0.169
-412.384	38.546	0.206	0.185
-411.369	-200.000	0.017	0.098
-410.355	147.151	0.237	0.322
-409.340	145.548	-0.162	-0.218
-408.325	-200.000	0.000	0.095
-407.311	-200.000	-0.014	0.279
-406.296	-132.625	0.333	-0.043
-405.282	570.074	0.176	-0.432
-404.267	800.000	0.120	0.393
-403.252	-200.000	0.020	0.311
-402.238	-45.017	0.068	-0.034
-401.223	-47.825	-0.111	-0.054
-400.209	242.792	-0.124	-0.210
-399.194	74.570	0.205	0.218
-398.179	472.285	0.114	0.259
-397.165	800.000	0.009	0.033
-396.150	800.000	-0.030	-0.088
-395.136	-200.000	-0.053	0.296
-394.121	297.950	-0.065	0.120
-393.106	-106.736	-0.399	0.089
-392.092	-26.803	-0.359	-0.212
-391.077	-41.921	0.057	-0.029
-390.063	132.679	0.111	0.145
-389.048	-200.000	0.028	-0.295
-388.033	-62.625	-0.314	0.131
-387.019	-126.096	0.051	0.008
-386.004	-146.465	-0.173	0.015
-384.990	135.354	0.068	0.089
-383.975	800.000	-0.027	-0.106
-382.960	87.080	0.057	-0.063
-381.946	127.593	0.205	-0.263
-380.931	800.000	0.098	0.289
-379.917	-141.468	-0.222	0.023
-378.902	800.000	0.087	-0.250
-377.888	-147.486	-0.374	-0.032
-376.873	-200.000	0.047	-0.244
-375.858	-158.385	0.239	0.014
-374.844	-93.798	-0.077	0.021
-373.829	800.000	0.054	-0.196
-372.815	492.731	-0.161	-0.371
-371.800	-12.060	-0.192	-0.127
-370.785	492.341	-0.035	0.080
-369.771	-76.500	-0.082	-0.029
-368.756	-169.486	0.133	-0.005
-367.742	553.618	-0.134	-0.324
-366.727	-156.120	-0.189	-0.012
-365.712	-170.454	-0.315	-0.011
-364.698	437.787	0.150	-0.329
-363.683	532.231	-0.083	-0.198
-362.669	-136.876	0.345	0.040
-361.654	702.105	-0.047	-0.126
-360.639	776.818	0.116	0.319
-359.625	800.000	0.016	-0.067
-358.610	96.140	0.151	-0.174
-357.596	100.785	0.242	-0.283
-356.581	57.191	0.323	-0.318
-355.566	-200.000	-0.031	0.179
-354.552	-167.903	0.161	0.006
-353.537	-185.820	0.151	0.002
-352.523	-152.831	0.147	0.011
-351.508	-18.050	-0.178	0.112
-350.493	-146.789	0.126	-0.011
-349.479	23.747	-0.438	-0.363
-348.464	-147.210	-0.185	0.016
-347.450	-59.079	0.057	0.025
-346.435	-14.694	0.368	0.238
-345.420	-65.505	-0.310	0.125
-344.406	-153.789	0.189	-0.013
-343.391	-22.941	-0.034	0.021
-342.377	-32.290	0.121	-0.068
-341.362	-200.000	0.001	0.132
-340.348	58.577	0.161	0.159
-339.333	40.340	0.127	-0.115
-338.318	303.026	0.091	-0.169
-337.304	-133.305	0.318	0.040
-336.289	-72.834	-0.186	0.069
-335.275	23.142	0.224	0.185
-334.260	63.052	0.073	-0.074
-333.245	-200.000	-0.001	-0.303
-332.231	-200.000	0.002	-0.307
-331.216	-72.286	0.041	-0.015
-330.202	-200.000	-0.002	-0.186
-329.187	-16.742	0.199	0.127
-328.172	-15.717	0.184	-0.118
-327.158	106.592	0.249	0.297
-326.143	16.054	0.092	0.073
-325.129	-81.676	0.009	-0.003
-324.114	-53.262	-0.253	0.117
-323.099	-200.000	-0.019	-0.236
-322.085	58.595	0.198	0.196
-321.070	8.036	-0.085	0.064
-320.056	404.235	-0.051	0.108
-319.041	454.394	-0.026	-0.059
-318.026	318.755	-0.045	0.085
-317.012	-200.000	-0.001	0.155
-315.997	48.992	0.230	0.217
-314.983	173.576	0.193	-0.280
-313.968	200.588	0.047	-0.073
-312.953	800.000	-0.084	0.330
-311.939	-200.000	-0.005	0.360
-310.924	-98.710	-0.179	0.046
-309.910	-200.000	0.047	0.267
-308.895	208.924	-0.080	0.125
-307.880	-57.976	-0.077	0.034
-306.866	-92.246	0.182	0.051
-305.851	45.333	0.232	0.215
-304.837	800.000	0.042	0.177
-303.822	800.000	-0.035	-0.114
-302.807	-66.220	0.118	-0.047
-301.793	322.079	0.126	-0.241
-300.778	-38.138	0.208	-0.111
-299.764	-65.393	0.196	-0.079
-298.749	-110.159	0.335	-0.070
-297.735	-33.412	-0.280	0.155
-296.720	800.000	0.069	0.218
-295.705	-130.494	0.495	0.067
-294.691	330.323	-0.122	-0.235
-293.676	-8.135	-0.241	-0.163
-292.662	-47.591	-0.122	0.060
-291.647	143.738	-0.068	0.091
-290.632	100.955	0.233	0.272
-289.618	-44.590	0.326	0.163
-288.603	-56.785	0.400	0.178
-287.589	800.000	0.001	0.004
-286.574	372.868	0.129	0.263
-285.559	-178.966	-0.183	0.004
-284.545	30.610	0.275	0.236
-283.530	-196.888	-0.092	-0.001
-282.516	116.227	-0.145	0.178
-281.501	-200.000	-0.014	-0.128
-280.486	15.961	-0.189	0.150
-279.472	-200.000	-0.007	0.171
-278.457	546.402	-0.083	0.200
-277.443	-8.334	-0.269	-0.182
-276.428	74.948	0.287	-0.304
-275.413	122.847	-0.134	-0.168
-274.399	-62.626	0.122	0.051
-273.384	2.670	-0.108	0.079
-272.370	-32.213	-0.132	0.074
-271.355	800.000	0.029	-0.129
-270.340	-30.426	-0.096	0.055
-269.326	-34.701	-0.169	-0.093
-268.311	403.352	-0.044	0.093
-267.297	-65.252	0.204	-0.082
-266.282	-90.557	-0.164	0.048
-265.267	-200.000	0.014	0.148
-264.253	-53.960	-0.204	-0.093
-263.238	-74.952	-0.067	0.024
-262.224	268.232	-0.079	-0.138
-261.209	-114.437	-0.111	-0.021
-260.195	584.749	0.063	0.156
-259.180	-76.523	0.235	-0.083
-258.165	77.440	-0.092	-0.098
-257.151	-122.283	0.088	-0.014
-256.136	-72.819	0.293	-0.108
-255.122	176.947	-0.091	-0.133
-254.107	425.802	0.172	0.371
-253.092	48.659	-0.198	-0.186
-252.078	78.306	-0.155	-0.166
-251.063	297.668	0.133	0.244
-250.049	-164.622	0.298	0.014
-249.034	-134.314	-0.277	0.034
-248.019	-125.743	0.358	0.054
-247.005	-200.000	-0.013	-0.194
-245.990	-108.841	-0.057	-0.012
-244.976	800.000	0.027	0.097
-243.961	-9.499	-0.061	0.041
-242.946	-58.503	-0.201	-0.087
-241.932	330.718	0.083	0.160
-240.917	43.545	-0.088	0.080
-239.903	-89.427	0.145	0.043
-238.888	40.516	-0.230	0.208
-237.873	-6.737	-0.101	-0.069
-236.859	23.792	-0.247	0.204
-235.844	-200.000	-0.002	-0.111
-234.830	323.732	-0.011	-0.022
-233.815	3.660	-0.243	0.178
-232.800	-106.282	-0.352	-0.079
-231.786	-29.717	0.229	-0.131
-230.771	-77.019	0.120	0.042
-229.757	-74.253	0.243	0.088
-228.742	-200.000	-0.004	-0.267
-227.727	-117.072	0.300	-0.055
-226.713	800.000	0.041	0.123
-225.698	61.373	-0.192	0.191
-224.684	175.734	-0.103	-0.150
-223.669	128.025	0.177	-0.226
-222.655	800.000	-0.055	0.234
-221.640	-9.286	0.053	0.035
-220.625	-85.699	0.059	0.018
-219.611	162.804	0.215	0.302
-218.596	-96.370	-0.031	0.008
-217.582	-102.842	0.161	-0.038
-216.567	-200.000	0.010	-0.055
-215.552	-200.000	0.008	0.123
-214.538	-200.000	-0.005	-0.068
-213.523	32.703	-0.089	0.077
-212.509	2.317	0.340	-0.246
-211.494	800.000	-0.063	0.207
-210.479	-200.000	-0.014	0.282
-209.465	156.181	0.145	0.201
-208.450	-35.323	0.056	0.030
-207.436	-200.000	0.017	0.324
-206.421	-85.343	0.340	-0.106
-205.406	800.000	0.098	-0.324
-204.392	167.843	0.102	-0.144
-203.377	41.841	0.101	0.092
-202.363	-158.376	-0.294	-0.017
-201.348	14.808	-0.178	-0.139
-200.333	-129.576	-0.282	0.039
-199.319	-31.658	-0.150	0.084
-198.304	-2.529	-0.133	0.093
-197.290	563.325	-0.147	-0.357
-196.275	-107.855	-0.447	0.097
-195.260	-200.000	-0.003	0.093
-194.246	83.021	0.368	0.400
-193.231	145.469	0.218	0.292
-192.217	241.156	-0.196	0.327
-191.202	-132.764	-0.115	-0.015
-190.187	-200.000	0.002	-0.115
-189.173	-200.000	0.017	0.086
-188.158	800.000	-0.008	0.031
-187.144	-200.000	0.004	-0.110
-186.129	113.765	-0.032	0.039
-185.114	-33.460	-0.090	-0.050
-184.100	-130.846	0.412	-0.055
-183.085	81.330	0.092	0.099
-182.071	-90.193	-0.149	0.043
-181.056	508.901	-0.212	0.492
-180.042	112.893	-0.040	0.049
-179.027	-200.000	0.050	-0.301
-178.012	145.367	0.215	0.288
-176.998	800.000	-0.054	-0.163
-175.983	5.029	-0.121	-0.089
-174.969	-122.698	0.134	-0.022
-173.954	-89.236	-0.111	-0.033
-172.939	-199.728	0.312	-0.002
-171.925	-176.224	0.369	-0.010
-170.910	800.000	-0.029	-0.082
-169.896	137.529	0.099	-0.129
-168.881	-106.329	-0.149	0.033
-167.866	68.008	0.223	0.228
-166.852	-200.000	0.070	0.493
-165.837	109.523	0.026	0.031
-164.823	-58.525	-0.365	0.158
-163.808	44.745	0.076	-0.070
-162.793	422.715	0.221	-0.474
-161.779	386.374	0.066	-0.137
-160.764	-200.000	0.019	0.180
-159.750	-78.579	-0.080	0.027
-158.735	-27.987	-0.239	0.138
-157.720	139.891	-0.120	0.158
-156.706	212.065	0.160	0.251
-155.691	800.000	-0.131	0.396
-154.677	-19.896	0.340	-0.210
-153.662	-76.149	-0.354	-0.125
-152.647	-114.924	-0.143	0.027
-151.633	-106.781	-0.092	0.020
-150.618	-36.303	-0.088	0.047
-149.604	-59.755	0.028	-0.012
-148.589	-47.506	-0.044	-0.021
-147.574	1.854	-0.227	0.163
-146.560	272.089	-0.143	0.252
-145.545	35.578	0.156	-0.136
-144.531	-112.488	0.463	-0.092
-143.516	309.467	0.048	0.089
-142.502	-148.873	-0.194	0.016
-141.487	-39.120	0.265	0.139
-140.472	113.817	0.055	0.067
-139.458	-200.000	-0.028	-0.154
-138.443	448.078	-0.078	0.171
-137.429	100.770	0.177	0.205
-136.414	7.830	0.031	0.023
-135.399	229.837	0.033	0.053
-134.385	142.003	-0.335	-0.443
-133.370	77.893	0.113	0.120
-132.356	-200.000	-0.039	0.183
-131.341	-200.000	-0.335	-0.001
-130.326	-200.000	0.017	-0.253
-129.312	-200.000	-0.007	-0.400
-128.297	443.615	-0.090	-0.196
-127.283	-120.187	0.078	0.013
-126.268	13.212	-0.028	-0.021
-125.253	-95.724	0.071	-0.019
-124.239	-112.936	0.151	-0.030
-123.224	-73.353	0.265	-0.097
-122.210	-88.566	-0.118	-0.035
