DTS Sentinel unit serial number:	SN413079Multiplexer serial number:	ORYXHardware model number:	OX4-SRSoftware version number:	ORYX F/W v4.00 Oryx Data Collector v3.7.2.0data status	okinstallation	princeton_trtdifferential loss correction	single-endedforward channel	channel 2reverse channel	N/Adate	2019/09/17time	12:03:35forward acquisition time	60.00reverse acquisition time	0.00gamma	496.2192k internal	0.2323k external	0.2323temperature offset calibration	0.9991default loss term (dB/km)	0.3790temperature slope calibration	1.0000multiplexer offset coefficient	1.0000multiplexer slope coefficient	1.0000fibre end	0.00T internal ref (°C)	31.16T ext. ref 1 (°C)	0.42T ext. ref 2 (°C)	27.30length (m)	temperature (°C)	Stokes	anti-Stokes-747.200	-161.989	0.045	-0.002
-746.185	-129.659	-0.204	0.028
-745.171	-136.816	0.196	-0.023
-744.156	222.679	0.203	0.330
-743.142	-51.574	-0.276	0.130
-742.127	53.913	0.163	0.158
-741.112	-108.465	0.259	0.056
-740.098	800.000	0.096	0.275
-739.083	169.351	-0.124	0.178
-738.069	482.424	-0.045	0.104
-737.054	6.809	-0.349	-0.262
-736.039	-109.872	-0.753	-0.160
-735.025	-82.654	0.218	0.071
-734.010	-68.122	-0.160	0.063
-732.996	38.965	-0.472	-0.426
-731.981	-15.946	0.115	0.074
-730.966	800.000	-0.080	-0.240
-729.952	-135.767	-0.528	-0.063
-728.937	800.000	-0.055	-0.217
-727.923	7.403	0.081	-0.061
-726.908	87.159	0.117	0.131
-725.894	100.293	-0.249	-0.292
-724.879	305.742	-0.104	-0.195
-723.864	-130.893	-0.188	0.025
-722.850	30.625	0.160	0.138
-721.835	800.000	0.071	-0.263
-720.821	-47.758	-0.124	-0.060
-719.806	800.000	-0.076	0.264
-718.791	-200.000	0.011	0.194
-717.777	800.000	-0.055	-0.199
-716.762	-3.736	0.177	-0.124
-715.748	-140.298	-0.433	0.046
-714.733	56.213	-0.085	-0.083
-713.718	-200.000	-0.032	0.366
-712.704	-69.798	0.276	0.106
-711.689	167.318	0.049	-0.070
-710.675	-121.025	-0.320	-0.054
-709.660	-200.000	0.016	-0.136
-708.645	111.361	-0.115	0.140
-707.631	31.016	-0.216	0.187
-706.616	-138.369	-0.378	0.042
-705.602	-186.637	0.154	-0.002
-704.587	-24.459	-0.083	-0.050
-703.572	350.569	-0.159	0.318
-702.558	-72.957	0.313	-0.116
-701.543	-200.000	0.055	0.252
-700.529	394.761	0.123	-0.259
-699.514	-200.000	0.101	0.000
-698.499	383.253	0.053	0.110
-697.485	202.152	0.079	-0.123
-696.470	-126.773	-0.245	-0.037
-695.456	1.290	0.033	-0.024
-694.441	-77.830	0.166	0.058
-693.426	366.365	0.100	0.202
-692.412	-200.000	0.001	-0.145
-691.397	31.528	0.151	-0.131
-690.383	-15.342	0.067	0.043
-689.368	227.191	-0.108	0.177
-688.354	448.790	-0.097	0.216
-687.339	-87.656	0.074	-0.022
-686.324	-163.470	-0.243	0.012
-685.310	-91.587	0.288	0.083
-684.295	800.000	0.073	0.284
-683.281	-51.528	0.148	-0.070
-682.266	13.142	-0.071	-0.056
-681.251	15.917	-0.325	-0.258
-680.237	-169.292	-0.290	0.011
-679.222	250.343	0.076	-0.129
-678.208	-30.480	-0.367	-0.209
-677.193	-44.560	-0.298	-0.150
-676.178	-21.354	0.203	0.125
-675.164	800.000	0.069	0.259
-674.149	-200.000	-0.030	-0.397
-673.135	-200.000	0.012	0.057
-672.120	-200.000	-0.006	-0.144
-671.105	-115.056	0.121	-0.023
-670.091	800.000	-0.085	0.281
-669.076	236.784	-0.202	0.337
-668.062	-200.000	-0.000	0.078
-667.047	99.133	0.082	-0.095
-666.032	-78.981	0.114	-0.039
-665.018	-200.000	0.021	-0.105
-664.003	-200.000	0.014	0.083
-662.989	50.709	0.077	0.073
-661.974	800.000	-0.037	-0.120
-660.959	117.090	0.029	0.035
-659.945	473.891	0.030	0.068
-658.930	329.246	-0.021	-0.040
-657.916	20.735	0.316	0.258
-656.901	109.958	-0.159	-0.192
-655.886	87.723	-0.099	0.110
-654.872	-119.795	0.212	-0.037
-653.857	-116.389	0.253	0.047
-652.843	800.000	0.077	-0.270
-651.828	-194.415	0.195	0.002
-650.814	-200.000	0.002	-0.130
-649.799	800.000	0.043	-0.152
-648.784	800.000	-0.052	0.211
-647.770	-125.049	-0.154	0.024
-646.755	341.474	0.147	-0.289
-645.741	-55.671	0.170	-0.076
-644.726	-63.734	-0.046	-0.019
-643.711	-125.447	-0.186	0.028
-642.697	-21.688	-0.214	0.131
-641.682	-200.000	-0.015	-0.240
-640.668	-48.672	-0.163	-0.079
-639.653	509.840	0.084	0.197
-638.638	-200.000	0.012	0.167
-637.624	-93.388	0.334	-0.093
-636.609	74.157	-0.123	-0.130
-635.595	-76.214	0.193	-0.068
-634.580	800.000	-0.047	-0.168
-633.565	-92.441	0.359	-0.101
-632.551	-107.564	-0.425	0.094
-631.536	-131.279	-0.122	0.016
-630.522	-3.297	-0.165	-0.115
-629.507	-108.898	0.078	-0.017
-628.492	-200.000	-0.041	-0.296
-627.478	119.455	-0.159	-0.198
-626.463	102.567	-0.216	0.254
-625.449	-40.868	0.148	0.077
-624.434	123.562	0.153	0.193
-623.419	31.535	-0.152	-0.132
-622.405	19.251	0.157	0.127
-621.390	800.000	-0.066	-0.225
-620.376	-200.000	0.005	-0.044
-619.361	-92.433	-0.120	-0.034
-618.346	-200.000	0.015	-0.351
-617.332	-200.000	0.001	0.015
-616.317	38.582	-0.052	0.046
-615.303	57.221	0.231	0.226
-614.288	800.000	-0.066	0.244
-613.273	289.070	-0.048	-0.087
-612.259	-59.934	-0.151	0.065
-611.244	-23.691	0.131	0.079
-610.230	603.749	-0.091	0.228
-609.215	141.879	0.151	0.202
-608.201	-51.498	0.229	-0.107
-607.186	518.543	-0.020	-0.047
-606.171	667.521	0.110	0.286
-605.157	28.418	-0.178	-0.151
-604.142	-27.068	0.134	0.078
-603.128	-123.896	0.108	0.017
-602.113	-51.189	-0.166	0.078
-601.098	-200.000	-0.004	-0.139
-600.084	596.039	-0.099	0.245
-599.069	211.852	-0.097	0.153
-598.055	79.553	-0.072	0.078
-597.040	-200.000	-0.060	-0.361
-596.025	2.721	-0.054	-0.040
-595.011	137.327	0.141	-0.185
-593.996	-200.000	-0.013	0.331
-592.982	-200.000	0.005	-0.066
-591.967	624.451	0.032	0.081
-590.952	-103.393	0.037	0.009
-589.938	-3.792	0.437	-0.305
-588.923	130.550	-0.025	-0.032
-587.909	57.101	-0.165	-0.162
-586.894	-85.839	0.115	-0.036
-585.879	769.918	-0.061	0.167
-584.865	800.000	-0.117	0.352
-583.850	70.798	0.029	0.030
-582.836	800.000	-0.080	0.231
-581.821	70.693	-0.179	-0.186
-580.806	-136.495	-0.369	0.043
-579.792	84.162	0.162	0.178
-578.777	212.163	0.108	0.170
-577.763	-91.873	-0.119	0.034
-576.748	83.301	-0.108	0.118
-575.733	-37.489	0.342	-0.183
-574.719	43.857	0.255	-0.234
-573.704	-110.114	-0.220	-0.046
-572.690	-114.068	-0.478	-0.093
-571.675	-74.248	-0.391	-0.142
-570.661	-200.000	-0.016	-0.164
-569.646	-105.388	-0.270	-0.062
-568.631	-187.178	-0.115	0.002
-567.617	-106.315	0.063	-0.014
-566.602	-200.000	-0.023	-0.192
-565.588	-200.000	-0.353	0.001
-564.573	68.954	-0.273	0.281
-563.558	800.000	0.121	-0.370
-562.544	-127.624	-0.188	-0.027
-561.529	262.428	0.016	0.028
-560.515	-200.000	-0.019	0.326
-559.500	-30.013	0.215	-0.123
-558.485	-85.539	-0.303	0.095
-557.471	729.011	0.156	0.417
-556.456	24.354	-0.027	0.022
-555.442	-200.000	-0.015	-0.405
-554.427	420.685	0.094	-0.203
-553.412	-200.000	0.010	-0.236
-552.398	132.480	-0.136	0.176
-551.383	-195.556	-0.187	0.001
-550.369	20.988	-0.117	0.095
-549.354	-151.818	-0.216	0.016
-548.339	-94.790	0.289	-0.079
-547.325	-200.000	-0.016	-0.276
-546.310	-141.481	-0.111	0.011
-545.296	-82.641	-0.294	-0.095
-544.281	90.608	-0.117	-0.131
-543.266	4.335	-0.191	-0.140
-542.252	99.813	0.128	0.149
-541.237	112.047	0.085	0.103
-540.223	-200.000	-0.054	-0.274
-539.208	515.010	0.079	-0.186
-538.193	-122.612	-0.079	0.013
-537.179	-176.013	-0.284	-0.008
-536.164	800.000	-0.085	0.237
-535.150	-19.359	-0.018	-0.011
-534.135	-125.577	-0.075	-0.011
-533.121	800.000	0.038	-0.144
-532.106	800.000	-0.101	-0.327
-531.091	65.281	0.094	-0.096
-530.077	-16.638	-0.256	-0.162
-529.062	-42.132	0.249	0.127
-528.048	-143.677	0.086	-0.008
-527.033	-121.769	0.262	-0.043
-526.018	-57.736	0.171	-0.075
-525.004	101.885	0.148	0.173
-523.989	-8.858	-0.190	0.127
-522.975	-200.000	0.010	-0.169
-521.960	-1.625	-0.134	-0.095
-520.945	509.767	-0.032	0.075
-519.931	-59.296	-0.311	0.134
-518.916	747.972	0.080	0.216
-517.902	-164.322	0.380	0.017
-516.887	-85.962	-0.154	-0.048
-515.872	-56.889	-0.173	0.076
-514.858	109.908	0.133	-0.160
-513.843	-16.661	0.094	0.060
-512.829	273.034	0.158	-0.279
-511.814	800.000	0.069	-0.221
-510.799	-154.141	0.219	0.015
-509.785	93.102	0.054	-0.061
-508.770	483.962	0.073	-0.167
-507.756	-86.859	0.385	0.118
-506.741	-140.675	-0.134	0.014
-505.726	-27.306	0.437	-0.254
-504.712	46.812	-0.248	-0.230
-503.697	302.108	0.120	-0.223
-502.683	-123.381	0.275	0.044
-501.668	-175.278	0.099	-0.003
-500.653	59.469	0.184	0.182
-499.639	800.000	-0.100	0.324
-498.624	-110.977	0.141	-0.029
-497.610	266.394	-0.143	0.249
-496.595	-200.000	0.038	0.344
-495.581	-2.689	-0.117	0.082
-494.566	-133.316	0.092	0.012
-493.551	61.091	0.305	-0.303
-492.537	-74.746	-0.167	-0.060
-491.522	-54.398	0.172	-0.078
-490.508	-200.000	-0.052	-0.596
-489.493	-26.769	0.408	0.239
-488.478	-83.934	-0.127	-0.040
-487.464	-200.000	0.033	-0.258
-486.449	-84.406	-0.125	0.039
-485.435	237.261	-0.059	-0.098
-484.420	26.178	0.129	0.107
-483.405	15.197	-0.279	-0.218
-482.391	77.822	0.108	0.115
-481.376	74.422	0.133	-0.140
-480.362	-200.000	0.024	-0.387
-479.347	-200.000	-0.046	0.313
-478.332	-200.000	0.037	0.298
-477.318	-91.302	-0.203	0.058
-476.303	252.489	0.199	-0.340
-475.289	-105.582	-0.510	0.115
-474.274	703.833	0.111	0.292
-473.259	267.298	0.093	0.163
-472.245	-45.012	0.087	-0.043
-471.230	81.008	-0.175	-0.189
-470.216	267.721	-0.156	0.273
-469.201	-12.814	0.124	-0.081
-468.186	800.000	0.014	-0.046
-467.172	462.041	-0.030	0.067
-466.157	-18.313	-0.335	0.209
-465.143	800.000	0.102	-0.301
-464.128	219.722	-0.083	-0.132
-463.113	8.555	-0.130	0.098
-462.099	800.000	-0.012	-0.043
-461.084	260.246	-0.109	-0.188
-460.070	-61.814	0.009	-0.004
-459.055	-13.799	0.128	-0.083
-458.040	800.000	0.110	0.316
-457.026	117.452	0.081	-0.100
-456.011	-177.591	0.182	-0.004
-454.997	41.213	0.173	0.156
-453.982	133.430	-0.100	0.129
-452.968	280.808	0.072	-0.128
-451.953	-200.000	0.021	-0.107
-450.938	162.623	-0.109	-0.153
-449.924	-129.584	-0.295	0.041
-448.909	258.247	-0.306	0.526
-447.895	674.810	0.060	-0.156
-446.880	800.000	-0.032	0.096
-445.865	800.000	-0.052	0.162
-444.851	-200.000	-0.010	0.059
-443.836	-200.000	-0.038	0.210
-442.822	93.135	0.108	0.122
-441.807	-91.773	-0.296	-0.084
-440.792	-66.572	-0.078	0.031
-439.778	73.177	0.213	0.223
-438.763	215.480	0.236	-0.374
-437.749	721.926	0.034	-0.090
-436.734	-200.000	-0.030	0.134
-435.719	-200.000	0.012	0.078
-434.705	-30.826	0.020	0.011
-433.690	259.190	0.126	-0.217
-432.676	-113.850	-0.143	-0.028
-431.661	182.603	0.051	0.074
-430.646	-127.758	0.125	-0.018
-429.632	614.907	-0.104	-0.260
-428.617	29.962	-0.089	0.075
-427.603	-15.477	0.230	-0.147
-426.588	800.000	0.060	-0.214
-425.573	-47.779	-0.062	0.030
-424.559	-37.249	-0.118	-0.063
-423.544	-200.000	-0.046	-0.309
-422.530	-44.512	-0.190	-0.095
-421.515	179.779	-0.096	0.140
-420.500	-98.686	-0.155	-0.040
-419.486	394.192	0.046	0.096
-418.471	207.647	0.119	-0.185
-417.457	-47.109	-0.272	0.132
-416.442	-68.802	0.195	-0.075
-415.428	-84.171	0.389	0.123
-414.413	99.798	0.177	0.204
-413.398	-183.719	0.268	-0.005
-412.384	-200.000	0.023	0.156
-411.369	-140.003	-0.196	0.021
-410.355	-2.043	-0.200	-0.140
-409.340	-76.551	-0.063	0.022
-408.325	111.376	-0.058	-0.070
-407.311	10.327	-0.209	-0.158
-406.296	-60.535	0.351	-0.149
-405.282	364.731	-0.126	-0.253
-404.267	51.252	0.259	-0.245
-403.252	268.160	0.226	-0.395
-402.238	458.953	0.136	-0.302
-401.223	800.000	0.049	-0.152
-400.209	21.193	0.312	0.252
-399.194	-200.000	0.034	0.161
-398.179	388.227	-0.040	0.083
-397.165	192.265	0.062	0.093
-396.150	-200.000	-0.003	-0.151
-395.136	-48.951	0.163	-0.078
-394.121	204.412	0.076	0.117
-393.106	-200.000	0.035	-0.309
-392.092	-114.506	0.213	-0.041
-391.077	146.286	-0.125	0.168
-390.063	75.280	0.224	-0.236
-389.048	65.246	-0.208	0.210
-388.033	67.773	0.143	-0.146
-387.019	84.423	-0.136	0.148
-386.004	-5.086	-0.070	-0.048
-384.990	-200.000	0.040	-0.182
-383.975	196.647	-0.078	0.119
-382.960	-97.973	-0.261	-0.067
-381.946	-116.073	-0.197	-0.037
-380.931	-25.915	0.107	0.063
-379.917	-64.434	0.186	-0.075
-378.902	140.432	0.222	-0.292
-377.888	239.491	-0.136	-0.225
-376.873	-200.000	-0.074	0.379
-375.858	-98.613	-0.379	0.096
-374.844	-19.687	0.256	-0.158
-373.829	-200.000	-0.018	0.186
-372.815	-141.548	0.128	-0.013
-371.800	-73.601	-0.344	0.125
-370.785	-28.439	0.302	-0.174
-369.771	777.112	-0.052	0.142
-368.756	451.181	-0.103	-0.227
-367.742	-98.894	-0.427	0.108
-366.727	40.442	0.198	-0.177
-365.712	202.237	-0.155	0.237
-364.698	673.435	-0.059	0.152
-363.683	64.365	-0.112	0.112
-362.669	-54.796	0.324	-0.146
-361.654	-200.000	-0.022	-0.358
-360.639	34.331	-0.123	-0.107
-359.625	-200.000	0.000	-0.099
-358.610	86.793	0.213	-0.234
-357.596	-107.979	0.162	-0.035
-356.581	-72.183	0.174	-0.064
-355.566	800.000	0.070	0.207
-354.552	-76.032	-0.066	0.023
-353.537	229.879	0.179	0.290
-352.523	98.296	0.135	-0.155
-351.508	-76.830	0.193	-0.067
-350.493	303.462	-0.048	0.088
-349.479	-190.579	-0.161	0.002
-348.464	390.552	0.078	0.160
-347.450	105.538	0.266	0.313
-346.435	106.437	-0.151	0.178
-345.420	387.456	0.038	-0.079
-344.406	-74.149	-0.224	0.081
-343.391	-200.000	0.002	-0.033
-342.377	-60.837	-0.330	0.139
-341.362	-18.585	-0.225	-0.140
-340.348	800.000	-0.073	0.243
-339.333	-58.861	0.171	-0.073
-338.318	-118.884	0.274	-0.048
-337.304	-80.302	0.199	0.066
-336.289	-103.460	-0.275	0.064
-335.275	8.383	-0.073	-0.055
-334.260	122.871	-0.023	-0.028
-333.245	-200.000	-0.013	0.232
-332.231	7.478	0.090	0.067
-331.216	-200.000	0.014	0.215
-330.202	-86.358	0.304	-0.093
-329.187	-200.000	0.040	-0.281
-328.172	-179.259	-0.203	0.004
-327.158	-200.000	0.069	0.402
-326.143	-117.022	-0.290	0.053
-325.129	-200.000	0.214	-0.001
-324.114	31.461	-0.256	0.218
-323.099	104.291	0.069	0.081
-322.085	800.000	-0.053	0.198
-321.070	138.651	0.201	-0.263
-320.056	12.187	-0.358	-0.273
-319.041	-128.227	-0.144	-0.020
-318.026	164.533	0.094	0.131
-317.012	800.000	0.078	0.264
-315.997	6.372	-0.129	0.095
-314.983	302.753	-0.134	0.247
-313.968	-33.057	0.175	-0.096
-312.953	-10.701	-0.151	0.099
-311.939	-166.854	-0.135	0.006
-310.924	800.000	-0.073	-0.207
-309.910	137.805	0.193	-0.252
-308.895	-101.688	-0.336	-0.081
-307.880	185.721	0.094	0.139
-306.866	190.655	0.175	-0.261
-305.851	-200.000	0.016	-0.070
-304.837	-167.559	-0.144	-0.006
-303.822	-77.674	-0.103	0.035
-302.807	-200.000	0.019	0.304
-301.793	60.721	0.045	-0.044
-300.778	143.046	-0.185	-0.244
-299.764	1.730	0.324	0.232
-298.749	51.791	0.334	0.316
-297.735	254.272	0.171	0.290
-296.720	22.255	-0.057	0.046
-295.705	-76.234	0.153	0.053
-294.691	-137.806	-0.128	0.014
-293.676	-135.547	-0.419	0.049
-292.662	549.349	-0.077	-0.182
-291.647	24.267	-0.156	-0.128
-290.632	-184.360	-0.252	0.004
-289.618	75.877	-0.307	-0.322
-288.603	99.532	0.039	-0.045
-287.589	-39.566	-0.035	0.018
-286.574	159.022	-0.201	-0.277
-285.559	-66.508	-0.183	0.072
-284.545	-62.600	-0.282	0.116
-283.530	299.873	0.041	0.074
-282.516	373.031	0.086	0.174
-281.501	-29.971	0.330	0.186
-280.486	59.579	0.180	-0.176
-279.472	-181.306	0.229	0.004
-278.457	-154.595	0.264	0.017
-277.443	-123.391	-0.254	0.040
-276.428	22.585	-0.174	0.141
-275.413	-149.682	-0.066	-0.005
-274.399	-101.037	0.316	0.077
-273.384	39.430	-0.152	-0.135
-272.370	234.282	-0.072	0.118
-271.355	56.875	-0.037	-0.036
-270.340	-91.598	0.180	-0.051
-269.326	-124.955	-0.167	0.026
-268.311	-200.000	-0.065	-0.413
-267.297	169.281	0.148	-0.210
-266.282	-200.000	0.033	0.149
-265.267	113.994	0.184	0.222
-264.253	197.503	0.077	-0.117
-263.238	-134.587	0.280	0.034
-262.224	-92.872	-0.187	0.052
-261.209	-52.010	-0.077	0.035
-260.195	2.081	0.134	-0.096
-259.180	-79.095	-0.260	0.088
-258.165	-5.831	-0.347	-0.235
-257.151	800.000	0.086	-0.337
-256.136	-200.000	-0.023	-0.204
-255.122	-200.000	0.004	0.463
-254.107	-85.670	0.328	0.101
-253.092	-170.458	0.402	-0.014
-252.078	-132.714	-0.345	0.044
-251.063	-51.015	-0.057	-0.026
-250.049	153.802	-0.245	0.332
-249.034	550.971	0.088	0.209
-248.019	120.673	0.097	0.120
-247.005	-45.865	0.203	-0.099
-245.990	-8.715	-0.130	-0.087
-244.976	-37.027	-0.073	-0.039
-243.961	-200.000	-0.027	0.285
-242.946	8.060	0.215	0.160
-241.932	-146.778	-0.174	-0.015
-240.917	800.000	-0.025	-0.071
-239.903	-4.786	-0.119	0.081
-238.888	-47.480	0.475	0.229
-237.873	-200.000	0.007	0.115
-236.859	-129.053	0.185	-0.026
-235.844	800.000	0.038	-0.121
-234.830	-200.000	-0.007	-0.138
-233.815	-200.000	-0.017	-0.172
-232.800	136.590	0.121	0.156
-231.786	-70.684	0.192	-0.072
-230.771	-75.709	-0.027	-0.010
-229.757	52.318	0.095	-0.089
-228.742	358.102	-0.135	-0.267
-227.727	-200.000	-0.149	-0.000
-226.713	-200.000	0.019	-0.096
-225.698	-87.619	0.166	-0.050
-224.684	100.050	-0.061	-0.070
-223.669	747.676	0.143	-0.382
-222.655	800.000	0.040	-0.121
-221.640	90.339	-0.081	-0.090
-220.625	47.081	-0.178	-0.164
-219.611	-200.000	0.019	0.546
-218.596	307.865	0.127	0.234
-217.582	-200.000	0.003	0.109
-216.567	-173.241	0.212	0.006
-215.552	587.562	0.159	0.388
-214.538	204.611	-0.164	-0.252
-213.523	-64.350	0.093	-0.037
-212.509	800.000	0.061	-0.244
-211.494	21.771	-0.158	-0.128
-210.479	-200.000	0.008	0.036
-209.465	800.000	0.037	-0.159
-208.450	47.060	-0.264	0.242
-207.436	6.256	0.106	-0.077
-206.421	-200.000	-0.005	-0.346
-205.406	800.000	-0.067	0.262
-204.392	800.000	0.082	0.295
-203.377	225.663	-0.103	0.166
-202.363	-200.000	-0.022	0.292
-201.348	648.534	0.075	0.191
-200.333	-58.383	0.168	-0.072
-199.319	-86.295	0.041	-0.012
-198.304	46.725	-0.038	0.035
-197.290	-14.815	0.235	-0.149
-196.275	800.000	0.099	0.271
-195.260	-83.231	-0.311	0.099
-194.246	469.954	0.024	-0.053
-193.231	378.474	0.062	-0.126
-192.217	65.374	-0.138	0.138
-191.202	-68.041	0.522	0.201
-190.187	222.918	-0.141	0.225
-189.173	-139.294	0.200	0.021
-188.158	-60.244	-0.174	0.073
-187.144	-8.745	-0.078	0.052
-186.129	-35.991	0.277	0.148
-185.114	-193.136	0.142	-0.001
-184.100	-79.300	-0.318	-0.106
-183.085	108.623	0.089	0.106
-182.071	-200.000	-0.049	-0.240
-181.056	21.553	-0.090	-0.072
-180.042	558.959	-0.067	-0.159
-179.027	7.072	0.163	0.120
-178.012	361.352	0.078	-0.153
-176.998	-130.420	-0.155	-0.021
-175.983	304.148	-0.077	0.142
-174.969	633.716	0.078	0.195
-173.954	-138.170	0.337	-0.037
-172.939	-200.000	-0.028	-0.179
-171.925	-53.357	-0.147	0.066
-170.910	518.017	0.106	-0.245
-169.896	657.976	0.086	0.217
-168.881	-40.507	0.306	0.157
-167.866	185.598	0.070	0.103
-166.852	46.755	-0.113	0.104
-165.837	-200.000	-0.063	0.371
-164.823	81.656	0.175	-0.186
-163.808	349.345	0.150	-0.293
-162.793	-181.411	-0.034	-0.001
-161.779	61.904	0.040	0.039
-160.764	-5.939	-0.062	0.042
-159.750	-30.924	0.147	0.082
-158.735	-67.466	-0.177	0.069
-157.720	-46.901	-0.122	-0.059
-156.706	314.473	-0.139	0.258
-155.691	-149.071	-0.130	0.010
-154.677	800.000	-0.021	-0.069
-153.662	-63.523	0.169	-0.069
-152.647	591.727	-0.135	0.329
-151.633	-200.000	-0.011	0.457
-150.618	800.000	-0.010	0.041
-149.604	-54.342	0.283	0.127
-148.589	-200.000	0.008	0.478
-147.574	88.425	0.282	0.310
-146.560	-60.152	0.249	-0.105
-145.545	-100.617	-0.159	0.039
-144.531	-10.706	-0.248	0.162
-143.516	-142.961	-0.245	0.023
-142.502	-40.616	0.327	0.168
-141.487	-200.000	-0.068	0.391
-140.472	571.716	0.022	-0.053
-139.458	-200.000	0.044	-0.674
-138.443	47.189	0.305	0.280
-137.429	284.237	0.213	0.378
-136.414	-168.162	0.254	0.010
-135.399	144.847	-0.098	0.129
-134.385	800.000	0.014	-0.039
-133.370	800.000	0.024	-0.069
-132.356	99.608	-0.277	-0.316
-131.341	17.278	0.286	-0.223
-130.326	-200.000	-0.040	-0.235
-129.312	791.585	0.026	-0.071
-128.297	-44.336	0.233	-0.115
-127.283	486.514	0.026	-0.059
-126.268	299.573	-0.089	-0.162
-125.253	-200.000	0.018	-0.093
-124.239	-200.000	-0.051	-0.280
-123.224	108.293	0.312	-0.367
-122.210	-11.540	-0.199	0.129
-121.195	-103.426	0.117	-0.027
