DTS Sentinel unit serial number:	SN413079Multiplexer serial number:	ORYXHardware model number:	OX4-SRSoftware version number:	ORYX F/W v4.00 Oryx Data Collector v3.7.2.0data status	okinstallation	princeton_trtdifferential loss correction	single-endedforward channel	channel 2reverse channel	N/Adate	2019/09/17time	11:03:34forward acquisition time	60.00reverse acquisition time	0.00gamma	496.2192k internal	0.2323k external	0.2323temperature offset calibration	0.9978default loss term (dB/km)	0.3790temperature slope calibration	1.0000multiplexer offset coefficient	1.0000multiplexer slope coefficient	1.0000fibre end	0.00T internal ref (°C)	30.33T ext. ref 1 (°C)	0.21T ext. ref 2 (°C)	25.86length (m)	temperature (°C)	Stokes	anti-Stokes-747.200	-11.802	0.102	-0.068
-746.185	54.526	-0.150	-0.146
-745.171	72.490	0.280	0.294
-744.156	90.343	-0.100	-0.113
-743.142	-200.000	-0.031	0.142
-742.127	800.000	-0.031	0.119
-741.112	-59.280	0.331	0.144
-740.098	95.699	0.139	-0.160
-739.083	61.615	-0.064	0.064
-738.069	-200.000	-0.002	0.121
-737.054	-44.650	-0.289	0.146
-736.039	-28.415	-0.158	-0.092
-735.025	-94.097	-0.404	-0.112
-734.010	-200.000	-0.013	-0.420
-732.996	280.563	-0.101	-0.182
-731.981	800.000	0.039	-0.165
-730.966	-59.916	-0.225	-0.097
-729.952	-118.902	-0.217	0.038
-728.937	-96.761	0.085	-0.022
-727.923	19.438	-0.247	0.201
-726.908	3.000	-0.232	0.170
-725.894	-92.179	0.447	-0.127
-724.879	185.559	-0.141	-0.212
-723.864	-38.688	-0.252	-0.134
-722.850	141.859	-0.189	-0.253
-721.835	800.000	0.078	-0.283
-720.821	-159.077	-0.194	-0.011
-719.806	34.975	0.134	-0.118
-718.791	-200.000	0.019	0.210
-717.777	-86.960	-0.207	0.064
-716.762	-200.000	0.037	0.320
-715.748	6.327	0.189	-0.141
-714.733	-200.000	0.018	-0.220
-713.718	800.000	-0.028	0.091
-712.704	-28.047	-0.157	0.092
-711.689	-200.000	-0.026	-0.132
-710.675	-6.301	-0.082	-0.056
-709.660	-130.713	0.152	-0.021
-708.645	397.900	-0.083	0.174
-707.631	-35.869	-0.036	-0.020
-706.616	181.607	-0.179	-0.265
-705.602	-112.022	0.181	-0.037
-704.587	-76.013	0.131	-0.047
-703.572	100.923	0.072	-0.084
-702.558	-8.986	0.211	-0.142
-701.543	-155.269	0.476	-0.031
-700.529	143.397	0.156	0.209
-699.514	-169.087	0.247	0.009
-698.499	133.808	0.101	-0.132
-697.485	-200.000	0.002	0.082
-696.470	205.227	0.071	0.112
-695.456	-200.000	-0.033	-0.151
-694.441	-66.759	-0.029	0.012
-693.426	145.306	0.179	0.242
-692.412	-200.000	0.251	0.000
-691.397	85.557	-0.241	-0.267
-690.383	30.972	-0.214	0.185
-689.368	587.357	-0.057	0.142
-688.354	800.000	0.087	-0.279
-687.339	-171.066	-0.180	0.006
-686.324	20.233	-0.330	-0.269
-685.310	435.501	0.062	-0.136
-684.295	16.325	0.066	0.053
-683.281	90.260	-0.175	0.197
-682.266	336.054	0.191	-0.374
-681.251	-4.793	-0.185	0.129
-680.237	676.894	-0.031	0.081
-679.222	159.657	0.132	-0.185
-678.208	-138.223	-0.052	0.006
-677.193	800.000	0.021	0.077
-676.178	37.549	-0.194	-0.174
-675.164	-33.030	0.108	0.060
-674.149	773.487	0.103	0.282
-673.135	24.486	0.224	-0.187
-672.120	447.808	0.034	-0.075
-671.105	151.581	0.203	-0.279
-670.091	-63.639	-0.230	0.095
-669.076	-123.606	0.050	0.008
-668.062	96.370	0.140	-0.161
-667.047	-130.139	0.403	-0.055
-666.032	-119.601	0.171	0.030
-665.018	232.677	-0.077	-0.127
-664.003	589.023	-0.148	-0.368
-662.989	132.447	0.044	-0.057
-661.974	-200.000	0.070	-0.320
-660.959	-75.228	0.068	0.025
-659.945	85.147	-0.153	-0.169
-658.930	-179.229	0.155	0.003
-657.916	507.680	0.026	0.061
-656.901	314.927	-0.241	0.456
-655.886	203.948	-0.026	0.041
-654.872	-98.421	0.377	0.097
-653.857	88.555	0.259	-0.289
-652.843	800.000	0.066	-0.282
-651.828	159.259	0.126	-0.176
-650.814	358.384	-0.016	-0.032
-649.799	800.000	0.050	0.154
-648.784	-43.488	-0.087	-0.044
-647.770	800.000	0.012	0.035
-646.755	-63.482	-0.112	-0.046
-645.741	-2.636	-0.250	0.176
-644.726	-32.263	0.175	-0.099
-643.711	302.461	-0.089	0.165
-642.697	-38.158	0.144	-0.077
-641.682	800.000	-0.054	-0.237
-640.668	233.099	-0.172	0.284
-639.653	-95.465	0.280	0.076
-638.638	14.344	-0.140	-0.110
-637.624	-200.000	-0.005	-0.162
-636.609	-112.132	0.054	-0.011
-635.595	166.709	-0.053	0.076
-634.580	104.909	0.111	-0.132
-633.565	-28.265	0.230	-0.133
-632.551	-26.326	-0.259	0.153
-631.536	-200.000	-0.019	0.145
-630.522	-37.446	-0.319	0.171
-629.507	180.042	0.159	-0.234
-628.492	41.727	0.154	0.141
-627.478	-200.000	-0.049	0.304
-626.463	-175.153	0.355	-0.010
-625.449	-69.735	0.109	0.042
-624.434	65.469	-0.076	-0.077
-623.419	-99.146	-0.025	0.006
-622.405	-132.762	0.273	-0.035
-621.390	76.537	-0.220	0.235
-620.376	-146.175	0.118	0.010
-619.361	-125.862	0.315	-0.048
-618.346	-113.068	-0.342	-0.068
-617.332	-147.380	-0.095	-0.008
-616.317	1.809	0.379	-0.274
-615.303	-23.217	-0.399	-0.241
-614.288	37.068	0.090	-0.080
-613.273	-142.063	0.109	0.011
-612.259	210.943	0.047	-0.075
-611.244	-200.000	-0.025	0.272
-610.230	-200.000	-0.020	0.218
-609.215	30.657	-0.093	-0.080
-608.201	43.658	-0.090	0.083
-607.186	-104.754	-0.264	-0.061
-606.171	-53.497	-0.134	0.062
-605.157	162.209	0.199	-0.280
-604.142	-38.187	0.025	-0.013
-603.128	-85.602	0.041	0.013
-602.113	-67.050	-0.051	0.020
-601.098	-200.000	0.039	0.464
-600.084	662.336	-0.121	0.314
-599.069	502.325	0.146	-0.339
-598.055	-112.897	-0.257	-0.051
-597.040	-155.994	-0.374	-0.024
-596.025	556.557	-0.027	-0.066
-595.011	-135.671	0.294	-0.035
-593.996	1.968	-0.150	0.109
-592.982	358.463	0.196	-0.392
-591.967	-131.948	-0.203	-0.027
-590.952	9.429	0.323	-0.245
-589.938	322.966	0.052	-0.100
-588.923	41.542	0.072	0.065
-587.909	-64.953	-0.342	-0.139
-586.894	-73.108	0.394	-0.145
-585.879	-200.000	-0.016	0.196
-584.865	-171.109	0.117	-0.004
-583.850	203.526	0.211	0.328
-582.836	-137.499	-0.176	-0.020
-581.821	184.541	0.138	0.205
-580.806	424.482	-0.101	0.217
-579.792	293.349	0.092	0.168
-578.777	263.046	0.098	0.171
-577.763	800.000	0.103	-0.290
-576.748	-94.023	0.187	-0.052
-575.733	-130.023	-0.183	0.025
-574.719	-167.661	-0.247	0.010
-573.704	22.691	0.322	-0.265
-572.690	-200.000	-0.027	-0.134
-571.675	133.059	0.157	0.203
-570.661	-200.000	-0.088	0.446
-569.646	-121.828	-0.237	0.039
-568.631	-18.890	0.298	0.186
-567.617	-32.889	-0.251	-0.140
-566.602	37.631	-0.404	0.360
-565.588	-79.583	0.242	0.082
-564.573	-43.733	-0.134	0.068
-563.558	-200.000	0.025	-0.307
-562.544	-106.433	0.337	-0.075
-561.529	-62.642	-0.418	-0.174
-560.515	-7.646	0.250	-0.169
-559.500	-100.875	0.090	0.022
-558.485	496.477	0.078	0.180
-557.471	800.000	-0.064	0.226
-556.456	-114.519	-0.054	-0.010
-555.442	800.000	-0.038	-0.157
-554.427	-123.124	-0.072	-0.012
-553.412	352.225	0.170	0.338
-552.398	-36.786	-0.345	0.186
-551.383	14.729	-0.214	-0.168
-550.369	-113.944	-0.204	0.040
-549.354	195.627	0.124	0.190
-548.339	43.091	-0.095	0.087
-547.325	800.000	-0.101	-0.300
-546.310	68.104	0.334	0.343
-545.296	-200.000	0.057	0.338
-544.281	127.798	-0.339	0.432
-543.266	-117.349	0.202	-0.037
-542.252	-122.348	-0.208	-0.034
-541.237	-117.655	0.312	-0.056
-540.223	-82.441	0.233	-0.076
-539.208	89.922	0.069	-0.077
-538.193	13.979	0.223	-0.173
-537.179	-57.827	0.167	0.073
-536.164	800.000	-0.076	-0.224
-535.150	13.163	-0.184	-0.143
-534.135	-200.000	-0.019	-0.249
-533.121	-200.000	-0.031	-0.170
-532.106	678.682	-0.107	0.279
-531.091	-4.921	0.257	0.177
-530.077	86.237	-0.164	0.181
-529.062	63.122	-0.175	0.175
-528.048	-200.000	0.024	0.345
-527.033	-200.000	-0.008	0.629
-526.018	16.062	-0.206	0.163
-525.004	-156.290	-0.166	0.010
-523.989	121.620	0.120	-0.149
-522.975	296.458	0.161	-0.296
-521.960	-200.000	0.063	0.422
-520.945	183.886	0.104	0.154
-519.931	123.054	0.198	-0.249
-518.916	-200.000	-0.257	-0.000
-517.902	83.915	-0.194	-0.212
-516.887	311.179	-0.047	0.088
-515.872	-200.000	-0.267	0.001
-514.858	-165.470	-0.311	-0.014
-513.843	-200.000	0.023	0.210
-512.829	60.063	0.171	0.169
-511.814	133.494	0.207	-0.268
-510.799	800.000	-0.065	0.186
-509.785	159.677	0.285	-0.397
-508.770	-200.000	0.026	-0.215
-507.756	-93.571	-0.367	-0.101
-506.741	-30.826	0.070	-0.040
-505.726	33.729	0.266	0.232
-504.712	-163.579	0.183	0.009
-503.697	-29.745	0.071	0.041
-502.683	-200.000	-0.005	0.042
-501.668	139.897	0.302	-0.398
-500.653	66.584	-0.128	-0.130
-499.639	-200.000	-0.099	0.448
-498.624	-47.728	-0.155	-0.075
-497.610	-200.000	-0.010	0.136
-496.595	-200.000	0.013	-0.328
-495.581	200.394	-0.105	-0.161
-494.566	-200.000	0.048	0.244
-493.551	-142.891	-0.286	0.028
-492.537	-77.147	0.179	-0.063
-491.522	42.256	-0.311	0.282
-490.508	248.269	0.123	0.208
-489.493	231.243	-0.028	-0.046
-488.478	73.737	-0.011	0.012
-487.464	800.000	0.036	-0.112
-486.449	-24.495	-0.150	0.089
-485.435	-133.014	0.074	0.009
-484.420	-200.000	-0.017	0.230
-483.405	-200.000	0.004	-0.038
-482.391	59.248	-0.238	0.234
-481.376	293.779	0.075	0.138
-480.362	144.867	-0.127	0.170
-479.347	-200.000	-0.034	-0.154
-478.332	-97.419	0.090	0.023
-477.318	-20.198	0.357	-0.220
-476.303	24.285	0.182	-0.150
-475.289	35.176	0.113	-0.099
-474.274	-136.460	-0.066	0.008
-473.259	59.812	-0.331	-0.326
-472.245	-94.362	0.132	0.036
-471.230	-96.903	0.089	-0.023
-470.216	117.727	-0.086	0.105
-469.201	-200.000	-0.013	0.160
-468.186	-200.000	-0.025	-0.279
-467.172	800.000	-0.062	-0.175
-466.157	82.136	0.046	-0.049
-465.143	-16.633	0.035	0.022
-464.128	-69.528	-0.040	-0.015
-463.113	187.890	0.023	-0.035
-462.099	-19.235	-0.313	-0.194
-461.084	134.175	-0.158	-0.204
-460.070	-140.345	0.055	-0.006
-459.055	98.228	0.138	0.159
-458.040	800.000	-0.128	-0.427
-457.026	-200.000	-0.028	-0.206
-456.011	800.000	0.058	0.206
-454.997	83.504	-0.138	0.150
-453.982	-72.374	0.202	-0.075
-452.968	-61.601	-0.273	0.115
-451.953	415.633	0.077	-0.163
-450.938	223.651	-0.027	0.044
-449.924	-80.922	-0.185	-0.061
-448.909	-131.299	-0.262	-0.035
-447.895	-200.000	-0.029	-0.234
-446.880	-21.535	-0.151	-0.092
-445.865	-27.630	-0.315	0.183
-444.851	-200.000	0.000	0.300
-443.836	-171.379	-0.309	-0.010
-442.822	-55.902	-0.446	0.199
-441.807	-118.525	0.131	-0.023
-440.792	-200.000	0.033	0.206
-439.778	800.000	-0.064	0.235
-438.763	-200.000	-0.028	-0.156
-437.749	-200.000	-0.014	0.165
-436.734	-181.596	0.266	-0.005
-435.719	-16.898	0.141	-0.089
-434.705	-41.069	0.141	0.073
-433.690	800.000	-0.049	0.178
-432.676	-90.749	-0.198	-0.057
-431.661	-200.000	-0.034	0.164
-430.646	-161.260	-0.231	-0.012
-429.632	-200.000	0.013	0.157
-428.617	-200.000	-0.006	-0.059
-427.603	121.066	0.151	-0.187
-426.588	-200.000	0.005	-0.041
-425.573	3.249	0.227	0.165
-424.559	-200.000	-0.026	0.243
-423.544	400.732	0.148	-0.311
-422.530	-26.906	-0.243	-0.142
-421.515	449.700	-0.115	-0.254
-420.500	-38.906	0.237	-0.125
-419.486	-0.138	0.114	-0.081
-418.471	426.320	0.053	0.113
-417.457	-200.000	-0.017	-0.398
-416.442	-109.518	0.321	0.068
-415.428	-79.606	0.181	0.061
-414.413	410.655	-0.091	-0.193
-413.398	30.716	-0.064	0.055
-412.384	-200.000	-0.082	-0.392
-411.369	-42.741	0.131	-0.066
-410.355	-38.105	0.201	0.106
-409.340	-56.733	-0.027	-0.012
-408.325	800.000	-0.052	-0.144
-407.311	-200.000	0.010	-0.163
-406.296	257.481	0.106	-0.181
-405.282	193.403	-0.055	0.083
-404.267	-200.000	0.003	0.038
-403.252	-20.038	-0.346	-0.212
-402.238	-28.647	-0.219	-0.125
-401.223	-200.000	-0.021	0.257
-400.209	-6.664	-0.347	0.235
-399.194	-98.501	-0.116	0.030
-398.179	-81.214	0.301	-0.099
-397.165	202.972	0.062	-0.095
-396.150	800.000	-0.062	-0.199
-395.136	-102.312	-0.190	0.045
-394.121	760.677	0.119	-0.323
-393.106	-35.700	-0.131	-0.071
-392.092	-2.131	-0.026	0.018
-391.077	298.169	0.089	-0.163
-390.063	-144.534	-0.083	-0.008
-389.048	284.218	0.019	0.034
-388.033	-109.173	-0.399	0.084
-387.019	611.652	-0.092	0.228
-386.004	-63.044	0.133	0.055
-384.990	145.107	-0.087	-0.117
-383.975	-109.343	-0.251	0.053
-382.960	-61.320	0.137	-0.058
-381.946	74.471	-0.311	-0.325
-380.931	544.398	-0.030	0.071
-379.917	-200.000	0.044	0.212
-378.902	123.381	-0.233	-0.290
-377.888	-200.000	0.041	-0.249
-376.873	-136.121	0.147	0.017
-375.858	51.525	-0.112	0.106
-374.844	800.000	0.089	-0.337
-373.829	-106.464	0.283	-0.063
-372.815	-141.487	0.229	0.023
-371.800	-200.000	0.016	-0.347
-370.785	-46.212	-0.193	0.095
-369.771	800.000	0.025	-0.079
-368.756	-79.521	-0.107	-0.036
-367.742	103.333	0.171	-0.199
-366.727	50.994	-0.038	0.036
-365.712	-200.000	-0.012	0.148
-364.698	337.302	0.067	0.129
-363.683	-88.605	-0.180	-0.053
-362.669	41.401	0.369	-0.332
-361.654	81.760	-0.037	0.039
-360.639	-200.000	-0.031	0.227
-359.625	220.221	0.094	0.150
-358.610	397.709	0.187	0.390
-357.596	-200.000	-0.038	-0.246
-356.581	800.000	-0.008	0.031
-355.566	-7.261	0.083	0.056
-354.552	-200.000	0.029	-0.145
-353.537	15.145	-0.267	-0.208
-352.523	-200.000	0.398	-0.001
-351.508	1.501	-0.186	-0.133
-350.493	-123.535	0.342	-0.054
-349.479	-33.945	0.189	-0.104
-348.464	800.000	0.035	0.150
-347.450	800.000	-0.028	-0.105
-346.435	41.338	-0.195	0.175
-345.420	-74.571	0.300	0.107
-344.406	37.070	-0.193	0.170
-343.391	-101.727	-0.192	0.046
-342.377	50.444	0.160	0.150
-341.362	-26.279	-0.177	0.103
-340.348	-200.000	-0.021	-0.298
-339.333	800.000	-0.048	-0.169
-338.318	-98.371	0.235	0.060
-337.304	74.522	-0.166	-0.174
-336.289	16.956	-0.255	0.200
-335.275	-98.708	0.116	-0.029
-334.260	40.420	0.146	-0.130
-333.245	682.138	0.137	0.356
-332.231	-200.000	-0.005	-0.234
-331.216	265.987	-0.107	-0.185
-330.202	-71.407	0.210	-0.078
-329.187	-86.148	0.209	0.064
-328.172	-200.000	-0.002	-0.140
-327.158	-59.476	0.247	-0.106
-326.143	66.283	0.054	0.054
-325.129	800.000	0.107	-0.360
-324.114	150.418	0.108	0.145
-323.099	523.478	-0.136	0.319
-322.085	-25.168	0.322	0.189
-321.070	180.522	-0.069	0.100
-320.056	-12.274	-0.159	0.103
-319.041	-123.155	0.194	0.031
-318.026	1.649	-0.121	0.087
-317.012	178.448	0.210	0.304
-315.997	-161.648	0.258	0.013
-314.983	-56.358	-0.395	0.174
-313.968	144.470	0.144	-0.192
-312.953	716.646	0.041	-0.109
-311.939	-13.362	0.136	0.088
-310.924	38.883	-0.203	0.180
-309.910	-70.239	0.405	0.153
-308.895	-59.940	0.411	0.175
-307.880	82.787	-0.163	0.176
-306.866	148.134	-0.057	-0.076
-305.851	154.451	0.034	0.047
-304.837	-200.000	0.020	-0.263
-303.822	-200.000	-0.137	0.000
-302.807	-87.764	0.137	0.041
-301.793	800.000	-0.041	-0.166
-300.778	95.495	-0.105	0.119
-299.764	133.983	0.228	0.294
-298.749	-94.503	-0.281	-0.076
-297.735	-93.563	-0.186	0.051
-296.720	96.823	0.156	0.177
-295.705	800.000	0.094	0.301
-294.691	-42.102	-0.266	-0.135
-293.676	-57.215	-0.131	0.057
-292.662	45.010	0.205	0.187
-291.647	-71.880	0.250	0.092
-290.632	125.018	0.108	0.135
-289.618	-54.224	-0.047	0.021
-288.603	-166.013	0.272	-0.012
-287.589	103.629	0.183	-0.213
-286.574	-10.874	-0.123	-0.081
-285.559	800.000	0.060	0.201
-284.545	-53.378	-0.209	0.095
-283.530	112.193	-0.100	0.119
-282.516	800.000	-0.134	0.439
-281.501	-200.000	-0.041	0.297
-280.486	415.974	-0.078	0.166
-279.472	241.226	-0.153	0.253
-278.457	-200.000	-0.011	0.384
-277.443	800.000	0.095	-0.390
-276.428	-165.449	-0.112	-0.005
-275.413	800.000	-0.041	0.171
-274.399	113.268	0.159	-0.191
-273.384	-200.000	-0.025	-0.405
-272.370	-51.220	-0.176	-0.082
-271.355	-29.285	-0.343	-0.195
-270.340	285.769	0.180	-0.321
-269.326	-200.000	-0.034	0.167
-268.311	5.162	-0.327	-0.239
-267.297	-200.000	0.058	-0.278
-266.282	-22.888	0.132	-0.079
-265.267	41.737	-0.057	0.052
-264.253	-200.000	0.060	0.337
-263.238	-186.508	0.382	0.005
-262.224	187.966	-0.103	-0.152
-261.209	-107.902	-0.249	-0.054
-260.195	-200.000	-0.002	0.154
-259.180	800.000	-0.051	0.141
-258.165	-200.000	-0.043	-0.343
-257.151	-74.225	-0.220	-0.079
-256.136	138.682	-0.092	-0.119
-255.122	120.204	0.208	0.256
-254.107	171.889	-0.052	0.073
-253.092	-91.889	-0.026	0.007
-252.078	19.550	0.182	0.145
-251.063	-200.000	-0.013	-0.073
-250.049	13.584	0.404	-0.311
-249.034	80.819	-0.270	-0.288
-248.019	-1.345	-0.103	-0.072
-247.005	800.000	0.009	0.036
-245.990	-200.000	-0.369	0.002
-244.976	16.991	0.187	-0.147
-243.961	-200.000	0.034	0.189
-242.946	-200.000	-0.009	-0.103
-241.932	-200.000	-0.068	0.416
-240.917	-22.560	-0.060	-0.036
-239.903	-200.000	-0.207	-0.001
-238.888	-200.000	-0.046	-0.277
-237.873	25.735	0.222	-0.183
-236.859	800.000	-0.056	-0.172
-235.844	-17.780	0.130	0.081
-234.830	-93.432	-0.131	-0.036
-233.815	-200.000	0.192	-0.001
-232.800	-200.000	-0.038	0.536
-231.786	-103.505	0.171	-0.040
-230.771	408.947	0.066	-0.138
-229.757	-81.031	-0.106	-0.035
-228.742	336.789	-0.111	0.213
-227.727	-200.000	0.025	-0.137
-226.713	-60.219	-0.272	0.115
-225.698	-55.696	0.242	-0.107
-224.684	-99.107	0.251	-0.063
-223.669	520.934	0.166	0.386
-222.655	-200.000	0.014	0.323
-221.640	-19.755	-0.193	-0.118
-220.625	800.000	-0.067	-0.266
-219.611	-200.000	-0.006	0.102
-218.596	627.091	0.112	-0.280
-217.582	800.000	-0.078	-0.250
-216.567	119.052	0.229	0.280
-215.552	-127.574	0.089	-0.013
-214.538	359.318	-0.033	-0.065
-213.523	44.338	-0.164	-0.149
-212.509	-200.000	-0.002	-0.225
-211.494	82.559	0.249	-0.267
-210.479	-88.497	0.185	0.055
-209.465	-74.842	0.129	0.046
-208.450	49.517	-0.076	0.071
-207.436	59.677	-0.187	0.183
-206.421	-164.859	-0.360	-0.016
-205.406	112.408	0.094	0.112
-204.392	228.469	-0.130	-0.210
-203.377	-8.542	0.275	0.182
-202.363	-99.699	0.251	0.062
-201.348	125.166	0.045	-0.056
-200.333	305.986	0.101	0.186
-199.319	114.630	0.022	0.027
-198.304	800.000	-0.186	-0.549
-197.290	62.600	0.163	0.161
-196.275	-169.879	-0.039	0.001
-195.260	217.494	0.085	-0.134
-194.246	-31.740	0.074	0.041
-193.231	-50.201	0.503	0.235
-192.217	-155.551	-0.325	-0.021
-191.202	417.984	0.008	-0.018
-190.187	800.000	0.035	-0.128
-189.173	39.740	-0.334	0.296
-188.158	-13.301	-0.186	0.119
-187.144	-55.526	0.104	0.046
-186.129	683.475	0.141	0.363
-185.114	35.182	-0.192	-0.166
-184.100	800.000	0.036	-0.117
-183.085	75.119	-0.073	-0.076
-182.071	-200.000	-0.001	0.013
-181.056	25.525	0.138	0.113
-180.042	-200.000	0.018	-0.119
-179.027	-88.512	0.115	0.034
-178.012	-119.165	-0.237	0.041
-176.998	18.911	0.232	-0.183
-175.983	0.912	-0.197	0.139
-174.969	99.920	-0.052	-0.059
-173.954	-15.656	0.131	-0.082
-172.939	31.356	0.254	-0.215
-171.925	-200.000	0.010	-0.296
-170.910	580.311	-0.153	0.371
-169.896	366.834	-0.234	0.466
-168.881	395.399	0.038	-0.079
-167.866	-200.000	-0.018	-0.394
-166.852	-43.382	-0.348	0.174
-165.837	-8.519	-0.121	0.080
-164.823	800.000	0.052	-0.201
-163.808	451.135	0.046	-0.099
-162.793	-200.000	0.004	0.039
-161.779	92.708	0.123	0.136
-160.764	-95.729	-0.174	0.046
-159.750	0.811	0.212	0.150
-158.735	-200.000	-0.046	-0.281
-157.720	-149.883	-0.130	-0.010
-156.706	85.812	0.140	0.152
-155.691	800.000	0.034	-0.111
-154.677	82.993	0.055	-0.059
-153.662	-45.044	0.328	-0.161
-152.647	175.750	0.248	-0.354
-151.633	-200.000	-0.041	-0.662
-150.618	-137.816	0.280	-0.031
-149.604	800.000	-0.058	0.196
-148.589	-167.780	-0.382	0.015
-147.574	-200.000	0.029	0.131
-146.560	-200.000	-0.079	0.436
-145.545	-200.000	-0.023	-0.374
-144.531	-87.333	-0.102	0.030
-143.516	800.000	0.013	0.041
-142.502	275.616	0.202	-0.354
-141.487	350.537	-0.220	-0.429
-140.472	128.196	-0.125	0.157
-139.458	800.000	0.094	0.326
-138.443	800.000	-0.101	0.388
-137.429	544.061	0.025	-0.059
-136.414	-200.000	0.016	0.322
-135.399	744.608	0.023	0.060
-134.385	7.379	0.179	-0.131
-133.370	-135.168	-0.145	-0.017
-132.356	249.141	0.154	-0.258
-131.341	-139.072	0.192	0.021
-130.326	-101.209	0.202	-0.049
-129.312	664.719	-0.053	0.134
-128.297	800.000	-0.019	-0.052
-127.283	-104.091	0.122	0.028
-126.268	157.983	-0.043	-0.059
-125.253	-126.249	0.353	0.052
-124.239	779.094	0.100	-0.270
-123.224	800.000	0.043	0.126
-122.210	-6.884	-0.184	-0.123
-121.195	-58.322	-0.245	-0.105
