DTS Sentinel unit serial number:	SN413079Multiplexer serial number:	ORYXHardware model number:	OX4-SRSoftware version number:	ORYX F/W v4.00 Oryx Data Collector v3.7.2.0data status	okinstallation	princeton_trtdifferential loss correction	single-endedforward channel	channel 2reverse channel	N/Adate	2019/09/15time	23:35:35forward acquisition time	60.00reverse acquisition time	0.00gamma	496.2192k internal	0.2335k external	0.2335temperature offset calibration	0.9956default loss term (dB/km)	0.3790temperature slope calibration	1.0000multiplexer offset coefficient	1.0000multiplexer slope coefficient	1.0000fibre end	0.00T internal ref (°C)	28.12T ext. ref 1 (°C)	9.22T ext. ref 2 (°C)	22.00length (m)	temperature (°C)	Stokes	anti-Stokes-747.200	136.008	-0.060	0.079
-746.185	-34.280	0.241	0.133
-745.171	-74.647	0.355	0.128
-744.156	142.813	-0.175	0.234
-743.142	182.479	0.157	0.233
-742.127	-200.000	0.038	0.302
-741.112	-161.989	0.122	0.006
-740.098	-43.285	0.265	0.135
-739.083	46.826	0.110	-0.103
-738.069	659.779	-0.098	0.252
-737.054	287.790	-0.060	-0.109
-736.039	16.053	-0.234	-0.185
-735.025	800.000	-0.141	0.433
-734.010	-101.264	-0.183	-0.045
-732.996	800.000	-0.098	-0.366
-731.981	207.039	0.081	-0.126
-730.966	-200.000	0.001	-0.093
-729.952	-200.000	0.002	-0.335
-728.937	-90.020	0.184	0.054
-727.923	222.637	0.145	-0.234
-726.908	-61.232	0.075	0.032
-725.894	38.613	-0.197	-0.177
-724.879	-25.433	-0.200	0.119
-723.864	755.954	0.049	0.133
-722.850	-200.000	0.013	0.201
-721.835	65.872	-0.094	0.095
-720.821	-88.621	-0.379	0.113
-719.806	-200.000	0.011	0.090
-718.791	800.000	0.015	-0.064
-717.777	-200.000	-0.024	-0.148
-716.762	-44.400	-0.038	0.019
-715.748	729.222	-0.042	0.112
-714.733	-43.185	-0.131	-0.067
-713.718	-146.310	-0.105	0.009
-712.704	-166.613	0.155	0.006
-711.689	263.122	0.155	-0.270
-710.675	79.997	-0.236	0.254
-709.660	-49.545	0.246	0.118
-708.645	-40.996	0.100	-0.052
-707.631	50.565	-0.131	-0.124
-706.616	-6.249	0.209	0.143
-705.602	195.200	0.235	0.359
-704.587	121.694	-0.114	0.142
-703.572	255.073	-0.086	-0.148
-702.558	5.408	-0.270	0.200
-701.543	603.972	-0.087	-0.217
-700.529	-13.679	-0.173	-0.112
-699.514	-123.695	-0.392	0.062
-698.499	312.965	-0.102	0.192
-697.485	-200.000	0.057	0.261
-696.470	271.588	0.090	-0.159
-695.456	-32.600	0.040	0.022
-694.441	94.220	0.123	-0.140
-693.426	22.987	0.130	-0.107
-692.412	-65.997	-0.109	0.044
-691.397	211.577	-0.085	-0.135
-690.383	800.000	0.055	-0.157
-689.368	-200.000	-0.099	-0.757
-688.354	-13.881	0.271	0.176
-687.339	165.920	-0.068	0.097
-686.324	800.000	0.055	0.206
-685.310	435.654	0.101	0.221
-684.295	-200.000	0.004	0.021
-683.281	88.603	-0.111	0.123
-682.266	800.000	-0.070	0.237
-681.251	800.000	-0.112	0.379
-680.237	-154.115	0.303	0.021
-679.222	-133.836	0.074	-0.009
-678.208	800.000	-0.072	0.224
-677.193	800.000	-0.068	-0.275
-676.178	-200.000	-0.030	0.136
-675.164	800.000	0.016	0.057
-674.149	-200.000	0.022	0.172
-673.135	-139.336	0.135	-0.015
-672.120	-45.658	-0.112	0.056
-671.105	-200.000	-0.003	-0.100
-670.091	431.301	0.146	-0.316
-669.076	603.967	0.037	0.093
-668.062	226.012	0.118	0.191
-667.047	800.000	-0.147	-0.422
-666.032	682.743	0.086	-0.224
-665.018	-110.271	-0.252	0.053
-664.003	136.458	0.081	0.106
-662.989	-8.784	0.378	-0.254
-661.974	-136.634	-0.331	-0.038
-660.959	-18.370	-0.214	-0.134
-659.945	-46.704	0.293	-0.143
-658.930	-200.000	-0.010	-0.139
-657.916	-200.000	0.002	0.382
-656.901	77.930	0.084	0.090
-655.886	-25.276	0.098	-0.058
-654.872	-127.190	-0.163	0.024
-653.857	648.787	0.091	0.234
-652.843	-114.625	0.113	0.022
-651.828	-175.115	-0.121	0.003
-650.814	126.077	0.116	-0.146
-649.799	499.818	-0.116	0.268
-648.784	-33.748	0.178	0.098
-647.770	250.124	0.110	0.186
-646.755	-59.423	-0.073	0.031
-645.741	74.406	0.306	-0.322
-644.726	-152.224	-0.021	0.001
-643.711	-70.331	0.198	0.075
-642.697	-200.000	-0.005	0.188
-641.682	-200.000	-0.058	0.372
-640.668	-29.085	0.004	0.002
-639.653	-50.920	-0.150	0.071
-638.638	23.352	0.267	-0.219
-637.624	149.296	-0.212	-0.288
-636.609	-53.295	0.072	-0.033
-635.595	54.018	0.066	0.064
-634.580	-37.739	-0.091	-0.048
-633.565	395.709	-0.060	0.126
-632.551	77.556	-0.064	0.069
-631.536	-165.042	-0.312	0.014
-630.522	-147.380	-0.028	-0.002
-629.507	678.226	-0.034	0.089
-628.492	71.971	-0.238	-0.248
-627.478	-82.466	-0.160	0.052
-626.463	424.329	0.023	0.049
-625.449	800.000	-0.066	0.251
-624.434	-200.000	-0.059	-0.289
-623.419	57.290	-0.214	-0.209
-622.405	-38.325	-0.247	0.131
-621.390	-101.845	0.329	-0.080
-620.376	777.186	0.068	-0.187
-619.361	-22.257	0.377	0.229
-618.346	-27.833	-0.081	-0.047
-617.332	-71.899	-0.258	0.096
-616.317	6.184	-0.140	-0.104
-615.303	-200.000	0.023	0.240
-614.288	800.000	0.036	0.136
-613.273	118.235	0.099	-0.121
-612.259	-43.713	-0.230	0.116
-611.244	460.392	-0.178	-0.396
-610.230	774.478	0.079	-0.216
-609.215	-141.687	0.197	-0.020
-608.201	104.272	-0.155	0.182
-607.186	-118.706	-0.267	-0.047
-606.171	236.919	0.145	0.240
-605.157	800.000	-0.075	0.271
-604.142	-200.000	0.010	0.131
-603.128	-8.122	-0.183	0.123
-602.113	-23.036	0.128	0.077
-601.098	-200.000	-0.012	-0.079
-600.084	-115.333	-0.090	0.017
-599.069	-49.791	0.252	0.119
-598.055	319.408	-0.141	0.268
-597.040	800.000	-0.043	-0.129
-596.025	800.000	-0.009	-0.028
-595.011	800.000	-0.051	0.141
-593.996	127.184	-0.152	0.193
-592.982	-26.678	-0.065	-0.038
-591.967	-80.404	-0.251	0.084
-590.952	172.521	0.208	-0.299
-589.938	118.240	0.158	0.194
-588.923	155.018	-0.074	0.102
-587.909	80.131	-0.151	0.162
-586.894	-200.000	0.019	-0.452
-585.879	128.393	0.285	-0.362
-584.865	292.544	-0.183	-0.333
-583.850	240.089	-0.107	-0.177
-582.836	228.386	0.176	-0.286
-581.821	-145.700	-0.358	-0.032
-580.806	83.718	-0.082	-0.089
-579.792	376.492	0.079	-0.161
-578.777	30.064	-0.047	0.040
-577.763	239.792	-0.093	0.155
-576.748	-19.833	-0.127	0.078
-575.733	473.141	-0.123	0.276
-574.719	-48.820	0.258	-0.124
-573.704	-200.000	-0.080	-0.459
-572.690	27.849	-0.189	0.159
-571.675	-107.634	0.254	-0.055
-570.661	-200.000	-0.007	-0.067
-569.646	-171.990	0.311	-0.010
-568.631	-75.382	0.210	0.075
-567.617	-14.405	-0.160	0.102
-566.602	126.607	-0.187	0.237
-565.588	-44.631	-0.215	0.107
-564.573	-182.471	-0.180	-0.003
-563.558	-61.174	0.334	-0.140
-562.544	-136.489	0.193	0.022
-561.529	-118.470	-0.398	-0.070
-560.515	27.822	0.107	0.090
-559.500	800.000	-0.060	0.169
-558.485	55.726	0.121	-0.117
-557.471	800.000	0.142	-0.420
-556.456	-200.000	-0.007	-0.414
-555.442	291.391	0.145	-0.263
-554.427	726.561	0.045	-0.121
-553.412	-48.840	-0.234	0.112
-552.398	52.684	-0.205	0.195
-551.383	72.409	-0.288	-0.299
-550.369	-183.182	0.087	-0.002
-549.354	-71.934	0.116	-0.043
-548.339	117.747	-0.076	-0.094
-547.325	658.769	0.034	-0.088
-546.310	56.255	-0.243	-0.235
-545.296	-200.000	-0.081	-0.537
-544.281	238.190	-0.103	0.171
-543.266	-93.072	-0.195	0.054
-542.252	333.724	-0.069	0.133
-541.237	101.317	0.022	0.026
-540.223	-87.396	0.291	0.088
-539.208	63.497	0.083	-0.083
-538.193	142.172	-0.050	0.067
-537.179	-127.387	0.263	-0.038
-536.164	-38.660	-0.121	-0.064
-535.150	-200.000	-0.049	0.407
-534.135	800.000	-0.025	-0.084
-533.121	-44.933	-0.280	-0.139
-532.106	151.799	-0.224	0.305
-531.091	19.493	0.332	-0.266
-530.077	410.764	0.050	0.106
-529.062	-76.515	-0.164	0.058
-528.048	-54.069	-0.045	-0.021
-527.033	-149.450	0.409	-0.032
-526.018	-196.008	-0.091	-0.001
-525.004	-200.000	-0.009	-0.166
-523.989	124.536	-0.164	-0.205
-522.975	-150.757	0.169	0.013
-521.960	122.933	0.122	0.152
-520.945	-82.688	0.233	0.075
-519.931	-25.926	-0.183	-0.108
-518.916	-116.385	-0.350	-0.064
-517.902	-137.443	0.437	-0.049
-516.887	268.564	-0.112	0.196
-515.872	92.197	-0.216	-0.242
-514.858	-160.174	-0.308	-0.017
-513.843	-200.000	0.048	0.246
-512.829	19.845	-0.082	0.065
-511.814	800.000	0.059	-0.190
-510.799	-126.096	0.355	-0.053
-509.785	-88.122	0.255	0.076
-508.770	-9.179	0.260	0.173
-507.756	-58.323	0.130	-0.056
-506.741	416.953	-0.121	-0.258
-505.726	-46.116	0.347	-0.170
-504.712	-74.985	0.188	0.067
-503.697	66.240	0.154	0.156
-502.683	800.000	0.033	-0.109
-501.668	37.609	-0.101	-0.089
-500.653	-32.558	0.275	0.152
-499.639	-59.659	0.165	0.070
-498.624	-95.113	-0.070	-0.019
-497.610	-103.141	0.157	0.037
-496.595	37.481	0.128	0.113
-495.581	-167.021	-0.375	0.015
-494.566	-42.167	0.442	0.225
-493.551	-104.784	-0.419	0.096
-492.537	-200.000	0.032	0.164
-491.522	-200.000	-0.018	0.308
-490.508	185.765	0.145	0.214
-489.493	-27.262	-0.134	0.078
-488.478	800.000	0.090	-0.283
-487.464	70.056	-0.327	-0.335
-486.449	-53.492	0.032	-0.014
-485.435	376.373	0.064	-0.129
-484.420	-47.860	0.221	-0.106
-483.405	42.782	-0.290	-0.262
-482.391	3.748	0.208	-0.151
-481.376	-51.537	-0.154	-0.072
-480.362	800.000	-0.014	-0.052
-479.347	-114.526	-0.416	0.079
-478.332	44.023	0.226	-0.206
-477.318	800.000	0.091	0.378
-476.303	-200.000	0.040	-0.186
-475.289	800.000	-0.067	0.185
-474.274	-165.043	-0.416	0.018
-473.259	-76.158	0.347	0.122
-472.245	-71.567	0.139	-0.051
-471.230	122.708	0.062	0.076
-470.216	-200.000	-0.026	-0.182
-469.201	-200.000	0.074	0.344
-468.186	-88.549	-0.113	0.033
-467.172	74.524	-0.154	0.161
-466.157	68.693	0.128	-0.130
-465.143	-43.999	-0.293	-0.146
-464.128	71.844	0.193	0.199
-463.113	54.091	0.207	0.198
-462.099	-200.000	0.016	0.084
-461.084	662.610	-0.048	0.122
-460.070	-50.867	-0.148	-0.069
-459.055	-120.353	0.270	0.046
-458.040	490.010	0.064	0.145
-457.026	-200.000	-0.004	-0.419
-456.011	-77.731	0.278	0.096
-454.997	-45.601	0.196	-0.096
-453.982	-132.321	-0.274	0.035
-452.968	10.421	-0.108	0.082
-451.953	117.556	-0.084	0.103
-450.938	-200.000	-0.019	0.190
-449.924	-200.000	0.018	0.088
-448.909	13.918	0.188	-0.145
-447.895	-0.077	0.295	-0.208
-446.880	66.162	-0.133	-0.135
-445.865	-113.676	0.115	-0.022
-444.851	52.197	0.071	-0.067
-443.836	434.637	-0.116	-0.249
-442.822	800.000	0.025	0.098
-441.807	240.975	0.026	-0.043
-440.792	229.335	0.203	-0.329
-439.778	-64.766	0.201	-0.081
-438.763	-75.362	-0.276	-0.098
-437.749	522.205	-0.098	0.229
-436.734	41.785	0.058	-0.053
-435.719	-200.000	-0.031	-0.143
-434.705	800.000	0.040	-0.173
-433.690	800.000	0.079	-0.290
-432.676	273.931	-0.150	-0.263
-431.661	-34.853	0.249	-0.135
-430.646	422.650	0.040	-0.086
-429.632	800.000	0.023	-0.073
-428.617	-177.787	0.145	-0.003
-427.603	-83.921	-0.299	-0.094
-426.588	-110.193	-0.191	-0.039
-425.573	379.435	-0.014	0.029
-424.559	111.079	0.279	0.334
-423.544	95.040	-0.040	0.045
-422.530	-200.000	-0.022	-0.246
-421.515	-118.639	-0.040	-0.007
-420.500	-34.856	-0.289	0.156
-419.486	800.000	0.062	-0.255
-418.471	-200.000	-0.022	0.172
-417.457	169.311	0.296	-0.419
-416.442	-200.000	0.000	-0.256
-415.428	-63.476	-0.060	0.024
-414.413	-52.407	0.076	0.035
-413.398	-72.602	0.079	-0.029
-412.384	31.078	-0.016	-0.013
-411.369	-145.060	-0.337	0.030
-410.355	-160.485	-0.351	0.019
-409.340	38.263	0.096	0.085
-408.325	-139.959	0.070	0.007
-407.311	-6.433	-0.122	-0.083
-406.296	75.524	0.124	0.130
-405.282	-58.552	-0.156	-0.067
-404.267	350.069	-0.132	0.259
-403.252	-120.473	-0.280	0.047
-402.238	-60.140	0.492	0.208
-401.223	-15.040	-0.266	0.169
-400.209	800.000	0.142	0.489
-399.194	-31.532	0.281	-0.157
-398.179	247.400	-0.063	0.106
-397.165	-157.757	0.335	-0.020
-396.150	800.000	-0.028	0.114
-395.136	57.942	-0.153	0.148
-394.121	-104.709	-0.080	0.018
-393.106	771.280	-0.048	0.131
-392.092	341.559	0.234	-0.454
-391.077	15.490	-0.196	-0.152
-390.063	431.464	0.058	-0.125
-389.048	-82.571	0.268	0.086
-388.033	-65.078	-0.250	-0.100
-387.019	800.000	0.101	0.295
-386.004	-125.890	0.046	0.007
-384.990	-133.599	0.236	0.029
-383.975	800.000	0.033	-0.135
-382.960	-35.278	-0.229	-0.123
-381.946	-4.484	0.394	-0.270
-380.931	235.499	0.088	-0.145
-379.917	800.000	-0.135	0.392
-378.902	-86.488	0.332	-0.101
-377.888	-148.640	0.184	-0.015
-376.873	-200.000	0.023	-0.344
-375.858	-200.000	-0.005	-0.164
-374.844	-154.394	-0.350	-0.023
-373.829	-200.000	-0.004	0.131
-372.815	-181.052	-0.135	0.003
-371.800	18.300	0.348	-0.275
-370.785	-159.702	-0.301	0.016
-369.771	-42.933	0.083	-0.042
-368.756	-47.439	-0.043	0.021
-367.742	-200.000	-0.059	-0.355
-366.727	244.567	0.085	-0.141
-365.712	-60.518	-0.317	0.133
-364.698	-200.000	-0.038	-0.205
-363.683	-30.835	0.227	-0.127
-362.669	800.000	-0.063	0.183
-361.654	56.211	-0.101	0.097
-360.639	-200.000	0.005	0.165
-359.625	-200.000	-0.029	-0.275
-358.610	26.411	0.160	-0.132
-357.596	-115.931	-0.341	-0.063
-356.581	24.508	-0.202	-0.165
-355.566	-200.000	0.004	-0.279
-354.552	-108.570	-0.199	-0.042
-353.537	-200.000	0.040	-0.232
-352.523	365.702	-0.047	-0.094
-351.508	800.000	0.069	-0.191
-350.493	-83.431	0.263	-0.083
-349.479	-200.000	-0.024	-0.500
-348.464	-17.601	0.120	0.074
-347.450	83.035	0.162	0.174
-346.435	-9.543	0.156	-0.103
-345.420	800.000	0.074	-0.312
-344.406	-200.000	-0.016	0.068
-343.391	-139.982	-0.347	-0.036
-342.377	583.769	0.064	-0.156
-341.362	-200.000	-0.044	-0.189
-340.348	-113.288	0.304	0.059
-339.333	-183.522	-0.397	0.007
-338.318	-200.000	-0.004	0.172
-337.304	800.000	0.197	0.597
-336.289	-47.053	-0.225	-0.109
-335.275	-134.160	-0.245	0.030
-334.260	-200.000	0.012	-0.086
-333.245	-147.069	0.076	-0.006
-332.231	38.996	0.080	0.071
-331.216	59.870	-0.096	0.093
-330.202	-200.000	-0.038	0.209
-329.187	-8.784	0.187	-0.124
-328.172	-58.575	-0.188	0.081
-327.158	-200.000	0.016	-0.198
-326.143	-97.281	-0.302	-0.078
-325.129	-75.461	0.110	0.039
-324.114	-200.000	0.116	0.601
-323.099	66.755	-0.082	-0.083
-322.085	58.305	0.262	-0.254
-321.070	-162.926	-0.419	0.020
-320.056	62.695	-0.160	-0.158
-319.041	-200.000	0.009	-0.072
-318.026	-128.749	0.169	-0.024
-317.012	-73.908	-0.372	0.134
-315.997	710.410	-0.129	0.337
-314.983	-197.395	-0.352	0.002
-313.968	-7.465	-0.176	-0.118
-312.953	-68.278	0.158	-0.061
-311.939	573.898	0.086	-0.206
-310.924	643.634	0.061	0.154
-309.910	4.544	-0.447	0.324
-308.895	-107.528	0.440	-0.095
-307.880	100.570	-0.337	0.387
-306.866	217.577	0.059	-0.093
-305.851	452.928	-0.037	-0.081
-304.837	-59.661	-0.196	-0.083
-303.822	-65.465	0.579	0.230
-302.807	390.254	0.190	0.390
-301.793	-20.846	0.157	-0.095
-300.778	-39.922	0.072	-0.037
-299.764	219.839	-0.203	0.320
-298.749	392.698	-0.098	-0.201
-297.735	-67.147	0.167	-0.065
-296.720	73.292	0.089	-0.092
-295.705	-46.912	-0.160	0.077
-294.691	-159.419	0.222	-0.012
-293.676	-60.438	0.114	0.048
-292.662	45.532	0.022	0.020
-291.647	175.745	0.144	0.206
-290.632	136.743	0.137	-0.177
-289.618	-34.498	0.075	0.041
-288.603	-200.000	0.019	-0.218
-287.589	-4.708	-0.374	0.255
-286.574	55.469	0.277	0.265
-285.559	122.677	-0.177	0.218
-284.545	75.179	0.221	0.230
-283.530	56.570	0.125	0.120
-282.516	-184.976	-0.155	-0.002
-281.501	30.955	-0.066	0.056
-280.486	-182.756	0.164	0.003
-279.472	-178.024	-0.222	0.005
-278.457	-48.073	0.261	-0.124
-277.443	-56.726	0.291	-0.127
-276.428	800.000	0.071	-0.205
-275.413	695.963	0.056	0.146
-274.399	-200.000	0.004	0.141
-273.384	-93.731	-0.056	0.015
-272.370	197.560	-0.180	0.270
-271.355	-95.043	0.367	-0.098
-270.340	9.467	-0.259	0.193
-269.326	-47.711	-0.408	-0.195
-268.311	-200.000	0.055	-0.338
-267.297	84.592	0.210	0.227
-266.282	19.055	-0.108	0.085
-265.267	-117.087	-0.340	0.061
-264.253	127.688	0.069	0.087
-263.238	-200.000	0.043	-0.188
-262.224	93.202	0.149	0.166
-261.209	-62.557	0.227	0.093
-260.195	-186.891	-0.029	0.000
-259.180	-121.806	0.129	0.021
-258.165	-90.894	0.135	0.038
-257.151	-200.000	0.026	-0.354
-256.136	76.307	0.101	0.106
-255.122	65.521	-0.120	0.119
-254.107	-128.202	0.181	0.025
-253.092	-143.539	0.224	-0.021
-252.078	-200.000	-0.033	0.187
-251.063	-109.224	0.189	-0.040
-250.049	-71.649	-0.070	0.026
-249.034	-144.285	-0.216	-0.020
-248.019	-142.937	-0.021	-0.002
-247.005	-200.000	-0.002	-0.225
-245.990	219.683	0.234	0.369
-244.976	-200.000	0.020	0.261
-243.961	692.382	-0.082	0.212
-242.946	-1.054	-0.087	0.061
-241.932	-155.599	0.347	-0.022
-240.917	19.246	-0.142	0.113
-239.903	-57.375	0.138	0.060
-238.888	-30.974	0.242	0.135
-237.873	83.932	-0.202	0.218
-236.859	482.840	0.093	0.209
-235.844	-183.426	-0.119	0.002
-234.830	-26.305	0.174	-0.101
-233.815	66.010	-0.117	-0.117
-232.800	-200.000	0.017	0.303
-231.786	639.564	0.052	0.131
-230.771	800.000	-0.023	-0.085
-229.757	104.497	0.126	0.146
-228.742	-16.884	-0.392	-0.244
-227.727	-200.000	0.014	-0.108
-226.713	-192.569	0.293	0.003
-225.698	-1.670	-0.088	-0.061
-224.684	123.528	-0.175	-0.216
-223.669	-96.555	0.223	0.058
-222.655	-135.240	-0.410	0.048
-221.640	204.434	-0.268	0.409
-220.625	-40.279	0.135	-0.069
-219.611	-1.338	-0.320	0.222
-218.596	-79.195	0.308	0.103
-217.582	50.212	-0.177	0.165
-216.567	296.085	0.044	-0.080
-215.552	-113.928	0.114	-0.022
-214.538	-137.857	-0.214	0.024
-213.523	-135.810	-0.311	0.036
-212.509	-200.000	0.005	0.346
-211.494	800.000	-0.031	0.098
-210.479	194.724	-0.256	0.382
-209.465	501.556	-0.052	-0.119
-208.450	-200.000	-0.012	-0.424
-207.436	-200.000	-0.049	-0.309
-206.421	349.814	-0.073	0.142
-205.406	-67.000	-0.115	0.045
-204.392	-67.738	-0.208	-0.080
-203.377	-37.601	-0.295	-0.155
-202.363	309.217	0.047	-0.086
-201.348	-97.040	0.309	0.080
-200.333	415.019	0.209	0.438
-199.319	-200.000	0.027	-0.274
-198.304	-200.000	-0.002	-0.156
-197.290	-141.991	0.332	-0.033
-196.275	103.163	-0.081	0.093
-195.260	-105.985	-0.171	0.038
-194.246	443.148	-0.158	0.341
-193.231	-54.164	0.279	0.125
-192.217	263.653	-0.135	-0.231
-191.202	-87.803	-0.377	0.112
-190.187	-9.178	0.057	0.038
-189.173	-58.197	0.066	-0.028
-188.158	-191.332	0.194	0.002
-187.144	270.878	0.144	-0.249
-186.129	-169.936	-0.118	0.004
-185.114	34.659	0.003	-0.002
-184.100	-132.507	-0.256	-0.032
-183.085	28.974	-0.231	-0.193
-182.071	-200.000	0.022	-0.118
-181.056	-200.000	0.033	-0.408
-180.042	109.100	-0.099	0.116
-179.027	5.751	-0.085	-0.061
-178.012	404.363	-0.077	0.159
-176.998	-200.000	-0.002	-0.027
-175.983	65.504	0.264	0.263
-174.969	-200.000	-0.048	0.333
-173.954	-118.767	-0.155	-0.027
-172.939	496.968	0.061	-0.138
-171.925	-54.773	0.188	0.083
-170.910	-101.377	0.419	0.100
-169.896	269.665	0.187	0.323
-168.881	482.254	-0.049	0.109
-167.866	82.048	-0.085	-0.091
-166.852	800.000	0.041	0.148
-165.837	6.830	-0.182	-0.133
-164.823	800.000	-0.030	0.086
-163.808	665.344	-0.108	-0.273
-162.793	-200.000	-0.009	0.441
-161.779	-73.993	0.469	0.167
-160.764	113.725	0.242	-0.289
-159.750	-135.444	0.168	0.020
-158.735	32.406	0.397	0.337
-157.720	87.694	-0.283	0.308
-156.706	297.562	-0.106	-0.191
-155.691	800.000	0.023	0.073
-154.677	-200.000	0.056	-0.245
-153.662	574.585	-0.058	-0.139
-152.647	771.094	-0.031	0.083
-151.633	-200.000	0.055	-0.299
-150.618	-17.483	0.143	0.088
-149.604	352.586	-0.167	0.324
-148.589	-32.332	-0.174	0.095
-147.574	-66.761	0.136	-0.053
-146.560	352.008	-0.132	0.256
-145.545	-125.719	-0.330	-0.049
-144.531	-18.135	0.075	-0.046
-143.516	25.763	0.044	-0.036
-142.502	-14.987	-0.276	-0.173
-141.487	-107.418	-0.032	-0.007
-140.472	-200.000	0.015	0.132
-139.458	-104.021	-0.414	0.095
-138.443	-132.138	0.217	-0.028
-137.429	663.237	0.056	-0.143
-136.414	-115.877	0.135	0.025
-135.399	800.000	0.075	0.318
-134.385	-88.878	0.092	-0.027
-133.370	125.040	-0.202	0.250
-132.356	100.573	-0.344	0.392
-131.341	677.622	0.208	-0.531
-130.326	19.541	-0.087	0.068
-129.312	393.055	0.174	-0.354
-128.297	341.824	-0.059	0.112
-127.283	345.712	0.225	0.434
-126.268	800.000	-0.058	-0.250
-125.253	39.772	-0.260	-0.229
-124.239	278.023	0.027	0.047
-123.224	800.000	-0.028	-0.084
-122.210	-120.656	0.414	-0.069
-121.195	256.499	-0.206	-0.347
