DTS Sentinel unit serial number:	SN413079Multiplexer serial number:	ORYXHardware model number:	OX4-SRSoftware version number:	ORYX F/W v4.00 Oryx Data Collector v3.7.2.0data status	okinstallation	princeton_trtdifferential loss correction	single-endedforward channel	channel 2reverse channel	N/Adate	2019/09/12time	19:06:49forward acquisition time	15.00reverse acquisition time	0.00gamma	496.2192k internal	0.2324k external	0.2324temperature offset calibration	1.0143default loss term (dB/km)	0.3790temperature slope calibration	1.0000multiplexer offset coefficient	1.0000multiplexer slope coefficient	1.0000fibre end	0.00T internal ref (°C)	32.62T ext. ref 1 (°C)	3.06T ext. ref 2 (°C)	27.17length (m)	temperature (°C)	Stokes	anti-Stokes-747.200	161.933	0.113	0.160
-746.185	-177.921	0.647	0.016
-745.171	800.000	-0.185	-0.598
-744.156	651.952	0.249	-0.645
-743.142	-31.468	-0.238	-0.135
-742.127	-94.368	-0.104	-0.029
-741.112	-200.000	-0.027	-0.125
-740.098	578.744	0.217	-0.537
-739.083	-72.007	-0.370	-0.139
-738.069	-122.506	0.418	-0.069
-737.054	38.652	-0.589	0.530
-736.039	-76.380	-0.706	-0.251
-735.025	-200.000	0.024	-0.482
-734.010	186.808	0.375	-0.564
-732.996	-200.000	-0.049	-0.355
-731.981	255.508	-0.198	0.342
-730.966	122.207	0.318	0.401
-729.952	415.120	-0.280	-0.601
-728.937	114.777	0.581	-0.715
-727.923	29.054	0.364	-0.311
-726.908	364.868	-0.204	-0.415
-725.894	-102.541	-0.538	-0.130
-724.879	-200.000	-0.082	0.779
-723.864	-57.591	0.018	0.008
-722.850	-49.139	0.238	0.115
-721.835	-7.093	0.697	-0.477
-720.821	66.770	0.665	0.683
-719.806	-97.727	-0.534	-0.139
-718.791	52.876	0.690	0.666
-717.777	140.656	0.186	0.247
-716.762	-62.106	0.972	0.409
-715.748	-69.043	0.388	0.151
-714.733	-117.407	0.146	-0.027
-713.718	800.000	-0.107	-0.325
-712.704	33.456	-0.693	-0.607
-711.689	-200.000	0.108	0.505
-710.675	51.224	-0.132	0.126
-709.660	800.000	-0.167	-0.542
-708.645	-147.487	-0.796	-0.068
-707.631	65.249	0.203	-0.207
-706.616	321.408	-0.101	0.194
-705.602	-106.825	0.620	0.139
-704.587	-131.757	0.763	-0.101
-703.572	194.171	-0.203	0.309
-702.558	53.062	-0.237	0.229
-701.543	108.375	-0.276	-0.332
-700.529	114.121	0.090	0.110
-699.514	207.808	-0.526	0.827
-698.499	-39.242	0.132	-0.070
-697.485	-88.512	-0.439	-0.132
-696.470	-200.000	0.134	-0.781
-695.456	500.317	-0.343	-0.797
-694.441	-16.310	-0.330	0.211
-693.426	42.416	0.095	-0.087
-692.412	21.741	0.304	0.249
-691.397	-200.000	0.028	0.403
-690.383	800.000	-0.186	0.793
-689.368	458.412	-0.222	0.497
-688.354	52.785	-0.236	-0.228
-687.339	104.248	0.385	0.456
-686.324	-131.583	0.887	0.118
-685.310	1.730	-0.274	0.199
-684.295	-174.935	-0.654	0.018
-683.281	-8.193	0.331	-0.224
-682.266	-174.117	-0.802	0.024
-681.251	-200.000	-0.017	0.347
-680.237	-26.021	-0.363	0.215
-679.222	-9.737	-0.518	-0.347
-678.208	-135.375	-0.580	0.070
-677.193	-96.828	-0.895	-0.237
-676.178	68.249	0.197	-0.204
-675.164	46.627	0.249	0.232
-674.149	-173.537	-0.265	-0.008
-673.135	-10.438	-0.841	-0.561
-672.120	328.189	-0.184	0.356
-671.105	-69.100	-0.294	0.114
-670.091	338.405	0.242	0.473
-669.076	-200.000	-0.113	-1.080
-668.062	-114.343	0.715	0.139
-667.047	34.983	-0.324	0.286
-666.032	-200.000	0.021	-0.336
-665.018	800.000	-0.189	-0.706
-664.003	-8.259	-0.548	-0.371
-662.989	85.072	-0.142	-0.157
-661.974	800.000	-0.059	-0.219
-660.959	53.455	-0.525	0.506
-659.945	388.792	0.417	0.869
-658.930	-97.141	-0.488	-0.128
-657.916	-200.000	0.075	-0.729
-656.901	-63.859	-0.374	0.154
-655.886	-200.000	-0.083	0.419
-654.872	-200.000	-0.061	-0.520
-653.857	-64.730	-0.229	-0.093
-652.843	-145.489	-1.478	0.134
-651.828	377.568	0.023	-0.047
-650.814	17.675	0.244	0.195
-649.799	97.645	-0.190	-0.220
-648.784	-81.244	0.527	0.175
-647.770	-159.388	1.395	-0.078
-646.755	414.566	-0.199	0.427
-645.741	-200.000	-0.005	-0.858
-644.726	-25.890	0.461	0.273
-643.711	738.018	0.312	-0.841
-642.697	800.000	-0.117	-0.346
-641.682	732.722	-0.187	-0.502
-640.668	498.332	0.155	-0.358
-639.653	230.851	-0.343	-0.564
-638.638	-64.689	0.353	-0.144
-637.624	-200.000	0.017	0.114
-636.609	17.093	0.117	0.094
-635.595	-200.000	-0.082	-0.369
-634.580	800.000	0.316	-0.967
-633.565	-119.324	-0.515	-0.090
-632.551	800.000	-0.289	0.917
-631.536	-112.392	0.115	0.023
-630.522	293.645	-0.302	-0.555
-629.507	-80.271	0.416	0.140
-628.492	278.735	0.454	-0.814
-627.478	29.568	0.526	0.450
-626.463	1.019	0.256	-0.184
-625.449	800.000	0.159	0.571
-624.434	92.389	0.507	-0.574
-623.419	643.257	-0.258	0.660
-622.405	-31.188	0.229	-0.130
-621.390	18.896	0.850	0.684
-620.376	-171.654	-0.152	-0.005
-619.361	-52.465	-0.437	0.203
-618.346	-75.333	0.889	-0.318
-617.332	-15.172	-0.293	-0.188
-616.317	187.383	0.310	0.465
-615.303	800.000	0.226	0.652
-614.288	712.255	0.164	0.437
-613.273	-200.000	0.519	-0.002
-612.259	-53.044	-0.905	-0.418
-611.244	-13.900	-0.374	-0.243
-610.230	-200.000	-0.038	0.355
-609.215	46.329	0.525	-0.489
-608.201	-39.130	-0.912	0.481
-607.186	-200.000	0.054	0.273
-606.171	-68.360	0.743	0.290
-605.157	-76.457	-0.597	0.211
-604.142	234.731	0.145	0.241
-603.128	243.445	-0.110	-0.185
-602.113	-84.921	-0.104	-0.033
-601.098	-115.437	0.565	0.107
-600.084	73.584	-0.212	-0.223
-599.069	-72.954	0.580	0.214
-598.055	-121.793	0.594	0.099
-597.040	-200.000	-0.084	-0.420
-596.025	-200.000	0.178	-0.836
-595.011	-200.000	-0.095	0.604
-593.996	170.774	-0.407	0.585
-592.982	-13.188	0.582	-0.379
-591.967	-72.304	-0.346	0.129
-590.952	146.611	0.281	-0.379
-589.938	69.339	0.587	0.606
-588.923	167.859	0.131	0.186
-587.909	38.990	-0.255	-0.228
-586.894	800.000	0.165	0.503
-585.879	-69.593	-0.429	-0.165
-584.865	172.284	0.147	-0.212
-583.850	-200.000	-0.041	-0.431
-582.836	176.685	-0.443	0.646
-581.821	-155.556	-0.448	-0.029
-580.806	288.364	-0.405	0.735
-579.792	800.000	-0.099	-0.333
-578.777	-23.862	0.627	-0.376
-577.763	85.070	0.475	0.523
-576.748	27.070	-0.735	-0.619
-575.733	66.406	0.393	-0.400
-574.719	-22.320	-0.222	-0.135
-573.704	-200.000	0.108	0.731
-572.690	5.341	-0.599	0.443
-571.675	-78.705	0.734	0.251
-570.661	429.354	0.298	-0.646
-569.646	-63.119	0.318	0.132
-568.631	-121.005	-0.500	0.084
-567.617	-51.067	0.728	0.342
-566.602	170.982	0.055	-0.079
-565.588	354.841	-0.348	0.693
-564.573	24.608	0.234	-0.194
-563.558	-91.700	-0.702	-0.200
-562.544	52.412	-0.260	0.248
-561.529	595.853	0.291	-0.723
-560.515	800.000	-0.296	0.876
-559.500	1.151	-0.436	-0.314
-558.485	-200.000	-0.015	0.075
-557.471	-54.320	-0.475	-0.216
-556.456	-200.000	0.123	0.685
-555.442	-200.000	0.010	-0.309
-554.427	-84.349	-0.460	0.146
-553.412	32.476	-0.487	0.422
-552.398	-200.000	-0.095	-1.022
-551.383	800.000	0.138	0.555
-550.369	228.198	-0.242	-0.395
-549.354	800.000	0.096	-0.384
-548.339	89.589	-0.062	-0.070
-547.325	800.000	-0.051	-0.159
-546.310	-157.476	0.391	-0.024
-545.296	-116.044	0.098	-0.018
-544.281	-146.249	-0.824	0.072
-543.266	15.558	-0.536	0.422
-542.252	-83.061	-0.355	-0.114
-541.237	-153.709	-0.297	-0.020
-540.223	-200.000	-0.118	-0.862
-539.208	403.980	0.272	0.573
-538.193	-101.456	0.323	-0.079
-537.179	-9.402	0.215	0.143
-536.164	-200.000	-0.056	0.953
-535.150	800.000	0.056	-0.192
-534.135	258.436	0.258	-0.444
-533.121	-27.177	0.255	0.149
-532.106	-200.000	-0.017	-0.851
-531.091	58.428	-0.218	0.214
-530.077	-71.393	0.158	-0.059
-529.062	-50.995	0.234	-0.110
-528.048	-101.964	-0.341	-0.082
-527.033	111.440	0.458	0.553
-526.018	436.054	-0.144	0.313
-525.004	-200.000	0.038	0.675
-523.989	-77.501	-1.007	-0.350
-522.975	-147.789	0.826	-0.069
-521.960	-200.000	0.009	0.421
-520.945	156.653	-0.222	-0.307
-519.931	-41.772	0.359	0.185
-518.916	-168.128	-0.559	0.022
-517.902	2.546	-0.407	-0.295
-516.887	402.566	0.320	-0.674
-515.872	-76.340	0.342	-0.120
-514.858	298.031	0.395	0.726
-513.843	-115.381	-0.627	-0.118
-512.829	-95.616	0.731	-0.196
-511.814	58.870	0.187	-0.184
-510.799	9.292	0.323	-0.244
-509.785	800.000	0.078	-0.235
-508.770	-80.285	-0.266	-0.089
-507.756	-147.375	0.288	-0.024
-506.741	-29.640	-0.454	-0.259
-505.726	-105.839	-0.471	-0.106
-504.712	-139.530	-0.297	-0.032
-503.697	-122.681	-0.511	0.083
-502.683	7.222	-0.927	-0.692
-501.668	135.325	0.439	0.571
-500.653	-1.194	0.300	0.212
-499.639	-200.000	-0.232	1.041
-498.624	-10.067	-0.643	0.427
-497.610	104.275	-0.169	-0.199
-496.595	155.988	-0.379	0.523
-495.581	-30.816	-0.619	0.350
-494.566	265.898	-0.328	0.573
-493.551	-200.000	0.034	0.186
-492.537	-15.673	-0.172	-0.110
-491.522	92.971	0.486	-0.548
-490.508	-36.469	0.386	-0.207
-489.493	-141.850	-1.202	-0.120
-488.478	718.940	-0.217	-0.576
-487.464	42.215	-1.116	1.013
-486.449	78.946	0.243	-0.260
-485.435	-11.256	0.376	-0.248
-484.420	472.287	-0.151	-0.341
-483.405	-47.999	0.074	0.036
-482.391	66.798	0.259	0.263
-481.376	465.415	0.255	0.569
-480.362	-50.869	-0.882	-0.414
-479.347	27.142	-0.707	0.593
-478.332	800.000	0.198	0.688
-477.318	158.600	0.080	0.112
-476.303	800.000	0.220	-0.949
-475.289	-200.000	-0.172	-0.884
-474.274	-142.478	-0.549	-0.054
-473.259	-200.000	-0.177	0.807
-472.245	547.951	-0.186	-0.445
-471.230	800.000	0.319	0.936
-470.216	-200.000	0.089	-0.673
-469.201	-58.310	-0.203	-0.088
-468.186	-83.213	-0.458	0.147
-467.172	216.868	0.055	-0.087
-466.157	13.205	0.972	0.752
-465.143	71.911	0.392	0.407
-464.128	-63.567	0.257	0.105
-463.113	492.749	0.224	0.514
-462.099	-15.234	0.552	0.353
-461.084	-59.553	-0.405	-0.173
-460.070	95.312	0.350	-0.399
-459.055	-200.000	-0.418	-0.002
-458.040	-22.974	0.512	0.308
-457.026	-38.670	0.964	-0.508
-456.011	2.228	0.402	-0.290
-454.997	-138.790	0.468	0.051
-453.982	-66.497	-0.304	-0.121
-452.968	99.355	0.188	0.217
-451.953	-200.000	0.150	-0.679
-450.938	-200.000	0.000	-1.197
-449.924	-121.862	0.732	-0.120
-448.909	-26.949	-0.212	0.123
-447.895	-70.460	0.123	0.047
-446.880	323.167	0.288	0.549
-445.865	63.974	-0.329	-0.330
-444.851	-75.194	-0.682	-0.243
-443.836	-43.003	-0.611	-0.309
-442.822	-200.000	0.028	-0.146
-441.807	-104.003	0.415	-0.097
-440.792	150.978	-0.319	-0.433
-439.778	-200.000	0.083	0.738
-438.763	798.498	-0.408	-1.121
-437.749	50.137	0.138	-0.130
-436.734	66.634	-0.243	-0.246
-435.719	-200.000	0.074	0.369
-434.705	-200.000	0.139	0.618
-433.690	-127.750	0.915	0.132
-432.676	89.905	0.638	0.711
-431.661	-151.895	-0.584	-0.043
-430.646	28.938	-0.614	-0.519
-429.632	-200.000	-0.039	-0.586
-428.617	-98.151	-1.050	-0.269
-427.603	-127.275	0.706	0.103
-426.588	-200.000	0.532	-0.002
-425.573	-200.000	0.087	1.206
-424.559	170.754	0.433	0.618
-423.544	-97.415	0.145	0.038
-422.530	-111.332	0.737	-0.150
-421.515	-56.476	-0.644	-0.285
-420.500	-153.285	-0.226	-0.016
-419.486	539.644	0.092	0.219
-418.471	-103.797	-0.057	0.013
-417.457	-200.000	-0.029	-0.424
-416.442	800.000	0.291	0.807
-415.428	-37.671	-0.804	-0.427
-414.413	209.373	0.251	-0.392
-413.398	-83.317	0.255	-0.081
-412.384	-125.151	-0.690	0.105
-411.369	800.000	0.060	-0.194
-410.355	-51.016	0.649	0.304
-409.340	800.000	-0.131	0.362
-408.325	-151.142	-0.954	0.071
-407.311	61.087	-0.418	0.414
-406.296	211.635	0.231	0.363
-405.282	-130.996	0.373	0.050
-404.267	331.688	-0.201	0.386
-403.252	-74.547	0.501	0.180
-402.238	-38.768	-0.607	-0.319
-401.223	-179.388	-0.612	-0.013
-400.209	-56.720	0.321	-0.142
-399.194	-200.000	0.028	0.456
-398.179	189.929	-0.273	0.408
-397.165	-162.595	0.480	0.024
-396.150	57.225	-0.359	0.348
-395.136	2.716	0.347	-0.251
-394.121	-200.000	-0.014	0.098
-393.106	-149.690	-0.858	0.067
-392.092	327.194	-0.043	0.083
-391.077	122.016	-0.407	0.506
-390.063	-80.911	0.094	0.031
-389.048	132.130	0.177	0.227
-388.033	148.694	0.127	0.171
-387.019	-89.495	0.207	-0.061
-386.004	-200.000	-0.064	-0.574
-384.990	-200.000	-0.046	0.564
-383.975	-40.383	0.389	0.201
-382.960	82.454	0.269	0.291
-381.946	800.000	-0.127	-0.454
-380.931	-200.000	-0.006	0.892
-379.917	-39.978	-0.680	-0.353
-378.902	83.899	0.255	-0.277
-377.888	610.875	-0.359	0.892
-376.873	96.440	-0.189	-0.215
-375.858	33.246	0.325	0.280
-374.844	-200.000	-0.088	-0.416
-373.829	1.809	0.715	0.513
-372.815	144.921	-0.646	0.859
-371.800	800.000	-0.072	0.243
-370.785	-200.000	0.015	-0.278
-369.771	131.422	0.464	-0.593
-368.756	-9.424	-0.720	0.478
-367.742	-200.000	0.184	-1.050
-366.727	-71.858	0.575	0.213
-365.712	247.305	-0.426	0.715
-364.698	800.000	-0.252	-0.875
-363.683	-39.501	0.669	0.349
-362.669	277.601	-0.358	-0.634
-361.654	56.937	-0.565	-0.547
-360.639	-200.000	0.084	0.428
-359.625	669.203	0.402	-1.035
-358.610	-163.391	0.653	-0.031
-357.596	196.065	0.112	0.169
-356.581	66.296	0.486	-0.491
-355.566	13.726	-0.273	0.211
-354.552	-44.598	-0.423	-0.210
-353.537	-69.965	0.485	-0.184
-352.523	800.000	0.275	-0.829
-351.508	-52.624	-0.433	0.199
-350.493	800.000	-0.273	-0.858
-349.479	29.204	0.451	-0.380
-348.464	-44.508	-0.662	-0.329
-347.450	69.627	-0.256	0.263
-346.435	616.182	0.314	0.782
-345.420	-116.193	-0.252	0.046
-344.406	-28.928	0.590	0.337
-343.391	-9.443	1.001	-0.664
-342.377	74.758	0.497	-0.520
-341.362	-85.124	0.830	-0.258
-340.348	-172.703	-0.397	0.012
-339.333	-200.000	0.073	-0.907
-338.318	800.000	0.179	-0.669
-337.304	-3.944	-0.272	0.188
-336.289	241.477	0.213	-0.354
-335.275	-107.264	-0.224	-0.049
-334.260	-24.856	-0.127	-0.075
-333.245	61.267	0.137	-0.135
-332.231	71.238	-0.670	-0.690
-331.216	800.000	0.051	-0.158
-330.202	159.565	-0.257	0.356
-329.187	-92.129	0.482	-0.135
-328.172	173.064	-0.257	0.368
-327.158	-106.248	-0.291	-0.065
-326.143	480.742	0.208	0.469
-325.129	800.000	0.106	-0.381
-324.114	-70.414	0.518	0.195
-323.099	-130.150	-0.703	0.095
-322.085	-200.000	0.117	-0.598
-321.070	-76.456	-1.060	0.370
-320.056	349.301	-0.375	0.734
-319.041	-131.004	-0.245	0.032
-318.026	-114.987	0.311	0.059
-317.012	205.741	-0.206	-0.318
-315.997	59.321	0.018	0.017
-314.983	-33.857	0.085	-0.046
-313.968	-10.461	0.446	0.293
-312.953	37.830	-0.425	0.374
-311.939	-200.000	-0.067	-0.336
-310.924	-93.516	-0.486	0.133
-309.910	28.176	0.414	-0.347
-308.895	-128.728	0.706	0.099
-307.880	800.000	0.027	0.098
-306.866	-200.000	0.053	-0.817
-305.851	-95.527	-0.828	0.220
-304.837	344.396	0.140	-0.272
-303.822	-30.384	-1.102	0.621
-302.807	-30.826	0.307	-0.172
-301.793	568.815	0.068	-0.164
-300.778	22.245	0.359	-0.291
-299.764	-141.244	-0.265	0.027
-298.749	45.282	-0.602	-0.551
-297.735	126.836	0.351	0.441
-296.720	-27.016	-0.406	-0.235
-295.705	-2.782	-0.522	-0.362
-294.691	-54.471	0.460	-0.207
-293.676	383.472	-0.330	0.674
-292.662	-42.659	-0.769	0.388
-291.647	800.000	0.114	-0.444
-290.632	800.000	-0.074	-0.252
-289.618	-100.024	-0.348	-0.086
-288.603	-136.891	-0.730	-0.083
-287.589	419.253	-0.230	0.487
-286.574	-200.000	-0.082	0.702
-285.559	-121.345	0.316	-0.052
-284.545	-77.668	-0.661	-0.227
-283.530	118.377	0.201	-0.246
-282.516	-76.946	-0.141	0.049
-281.501	-132.243	-0.607	-0.078
-280.486	68.725	-0.308	0.314
-279.472	212.370	0.473	0.740
-278.457	-136.518	0.298	-0.034
-277.443	-173.035	0.118	-0.004
-276.428	-200.000	0.068	-0.726
-275.413	-53.333	0.421	-0.191
-274.399	-200.000	0.046	-0.617
-273.384	81.888	-0.256	0.275
-272.370	-200.000	-0.133	0.939
-271.355	-68.020	0.686	0.265
-270.340	800.000	0.230	0.924
-269.326	-120.874	-1.069	-0.178
-268.311	143.421	-0.338	-0.446
-267.297	-200.000	0.066	-0.468
-266.282	100.828	0.390	0.449
-265.267	14.885	0.162	-0.126
-264.253	18.800	0.651	0.517
-263.238	84.729	0.168	-0.183
-262.224	-200.000	-0.029	0.197
-261.209	757.694	0.114	0.305
-260.195	-4.131	0.606	-0.416
-259.180	513.933	0.268	-0.619
-258.165	-79.262	-0.456	-0.153
-257.151	-90.777	0.158	-0.045
-256.136	469.166	0.105	0.233
-255.122	-140.125	-0.768	-0.080
-254.107	159.712	-0.150	0.207
-253.092	71.064	0.214	0.220
-252.078	127.936	0.517	0.651
-251.063	232.405	-0.497	0.807
-250.049	76.058	0.339	0.355
-249.034	-89.719	-0.252	-0.073
-248.019	-80.921	-0.927	0.304
-247.005	527.141	-0.335	0.781
-245.990	161.619	0.611	-0.847
-244.976	-32.314	-1.238	-0.684
-243.961	401.586	-0.156	-0.325
-242.946	-200.000	-0.022	0.613
-241.932	696.457	-0.251	0.653
-240.917	99.516	0.819	-0.938
-239.903	-120.768	0.322	-0.054
-238.888	218.749	-0.409	0.647
-237.873	228.309	0.280	0.451
-236.859	79.786	0.128	-0.136
-235.844	-200.000	0.080	0.475
-234.830	-169.364	0.632	0.023
-233.815	79.700	0.692	0.735
-232.800	345.938	0.261	-0.508
-231.786	-34.392	-0.565	0.307
-230.771	107.729	-0.620	0.730
-229.757	-106.033	0.393	0.087
-228.742	-5.094	-0.493	0.336
-227.727	72.774	-0.537	0.554
-226.713	229.609	0.158	-0.255
-225.698	476.068	0.169	0.377
-224.684	181.999	-0.367	-0.535
-223.669	800.000	0.133	0.489
-222.655	208.826	-0.233	0.360
-221.640	201.405	0.233	0.355
-220.625	-26.830	0.582	-0.336
-219.611	397.682	-0.038	-0.079
-218.596	91.416	-0.342	-0.380
-217.582	28.865	0.218	-0.183
-216.567	185.165	0.057	-0.084
-215.552	-200.000	0.047	-0.295
-214.538	518.928	-0.128	0.297
-213.523	177.729	0.308	-0.443
-212.509	-71.245	-0.298	-0.111
-211.494	410.854	0.088	0.185
-210.479	133.505	-0.298	0.382
-209.465	800.000	0.277	-0.875
-208.450	-144.036	-0.150	0.014
-207.436	-58.821	1.025	0.438
-206.421	-24.175	0.521	0.307
-205.406	-200.000	-0.017	-0.793
-204.392	56.429	-0.148	0.142
-203.377	-175.144	0.582	-0.016
-202.363	112.248	-0.440	0.526
-201.348	-61.437	-0.634	-0.264
-200.333	-200.000	0.065	0.738
-199.319	-41.242	-0.949	-0.484
-198.304	-105.873	-0.572	0.127
-197.290	-101.823	0.980	0.234
-196.275	-117.159	-0.061	0.011
-195.260	-200.000	0.128	-0.812
-194.246	228.193	0.127	0.204
-193.231	-59.225	0.610	0.260
-192.217	161.993	-0.282	0.390
-191.202	256.049	-0.083	0.140
-190.187	139.326	0.223	0.290
-189.173	13.394	-0.338	0.259
-188.158	375.766	0.228	-0.459
-187.144	131.973	0.110	-0.140
-186.129	597.642	0.572	-1.401
-185.114	-200.000	0.055	-0.300
-184.100	42.788	-0.139	-0.125
-183.085	-108.516	-0.532	-0.113
-182.071	800.000	0.105	-0.347
-181.056	282.131	0.049	-0.088
-180.042	-200.000	0.415	-0.001
-179.027	766.486	-0.197	-0.530
-178.012	-147.047	-0.625	-0.053
-176.998	-200.000	0.028	0.726
-175.983	55.841	0.124	0.119
-174.969	218.646	0.472	-0.745
-173.954	-57.537	0.641	-0.278
-172.939	-53.458	-0.390	-0.176
-171.925	800.000	-0.105	-0.321
-170.910	-27.844	0.788	-0.451
-169.896	-59.338	0.393	0.167
-168.881	-200.000	-0.001	0.085
-167.866	-135.947	0.484	0.056
-166.852	-64.702	1.112	0.445
-165.837	259.731	-0.135	-0.230
-164.823	10.638	-0.333	-0.251
-163.808	119.710	-0.188	-0.230
-162.793	670.437	-0.224	-0.573
-161.779	132.316	-0.336	0.427
-160.764	-75.707	-0.055	-0.019
-159.750	-200.000	-0.029	-0.484
-158.735	306.340	0.358	0.657
-157.720	30.587	0.418	0.353
-156.706	-87.639	-0.100	-0.030
-155.691	-19.437	0.312	-0.191
-154.677	-79.469	0.554	-0.185
-153.662	-56.092	-0.301	-0.132
-152.647	-90.036	0.425	0.122
-151.633	78.705	-0.511	-0.539
-150.618	-166.208	0.733	-0.031
-149.604	-90.118	0.105	0.030
-148.589	-4.104	0.379	0.259
-147.574	-109.713	-0.579	0.120
-146.560	800.000	-0.123	0.343
-145.545	800.000	-0.203	-0.594
-144.531	61.966	-0.221	0.217
-143.516	800.000	0.310	1.043
-142.502	292.037	-0.202	0.362
-141.487	-200.000	-0.075	-0.585
-140.472	305.526	0.228	0.418
-139.458	297.665	0.248	-0.449
-138.443	-200.000	0.113	-0.637
-137.429	-200.000	-0.021	0.109
-136.414	-200.000	0.069	0.949
-135.399	209.090	0.262	-0.404
-134.385	-200.000	0.008	-0.217
-133.370	-84.396	0.552	0.172
-132.356	-16.586	-0.528	0.330
-131.341	-200.000	-0.035	0.155
-130.326	-142.176	-0.230	-0.022
-129.312	-164.872	1.067	0.047
-128.297	-56.915	-0.444	-0.193
-127.283	192.760	-0.346	0.515
-126.268	346.698	-0.271	0.525
-125.253	-83.307	0.598	-0.189
-124.239	800.000	0.257	-1.015
-123.224	-200.000	0.031	-0.386
-122.210	-70.099	-0.693	-0.260
-121.195	800.000	0.058	0.240
