DTS Sentinel unit serial number:	SN413079Multiplexer serial number:	ORYXHardware model number:	OX4-SRSoftware version number:	ORYX F/W v4.00 Oryx Data Collector v3.7.2.0data status	okinstallation	princeton_trtdifferential loss correction	single-endedforward channel	channel 2reverse channel	N/Adate	2019/09/17time	06:43:34forward acquisition time	60.00reverse acquisition time	0.00gamma	496.2192k internal	0.2333k external	0.2333temperature offset calibration	0.9984default loss term (dB/km)	0.3790temperature slope calibration	1.0000multiplexer offset coefficient	1.0000multiplexer slope coefficient	1.0000fibre end	0.00T internal ref (°C)	27.87T ext. ref 1 (°C)	0.12T ext. ref 2 (°C)	21.29length (m)	temperature (°C)	Stokes	anti-Stokes-747.200	-200.000	0.064	0.411
-746.185	-3.490	-0.210	0.147
-745.171	-200.000	-0.040	-0.179
-744.156	-200.000	0.034	-0.248
-743.142	-200.000	0.046	0.447
-742.127	-35.643	-0.524	0.286
-741.112	-200.000	0.014	-0.210
-740.098	75.366	-0.082	0.088
-739.083	-64.185	0.184	-0.075
-738.069	-95.274	-0.114	-0.031
-737.054	84.948	0.093	0.102
-736.039	-94.018	-0.351	-0.097
-735.025	-5.336	0.224	0.154
-734.010	-200.000	-0.009	-0.202
-732.996	-22.840	0.261	-0.158
-731.981	-119.183	-0.127	0.022
-730.966	404.481	0.207	-0.439
-729.952	-54.416	-0.574	0.261
-728.937	72.609	-0.157	-0.164
-727.923	-7.345	-0.019	-0.013
-726.908	-25.820	0.099	-0.059
-725.894	-165.057	-0.163	0.007
-724.879	447.497	-0.101	-0.223
-723.864	800.000	0.073	-0.288
-722.850	800.000	0.042	0.148
-721.835	-200.000	0.003	-0.060
-720.821	-143.556	-0.278	0.027
-719.806	98.587	-0.108	0.125
-718.791	-25.434	-0.123	0.073
-717.777	-25.233	-0.080	-0.047
-716.762	207.606	-0.110	0.172
-715.748	-92.944	-0.051	-0.014
-714.733	53.272	-0.229	-0.220
-713.718	16.713	0.055	0.044
-712.704	-200.000	0.022	0.489
-711.689	-200.000	-0.023	0.384
-710.675	-200.000	-0.040	0.309
-709.660	-135.257	-0.031	0.004
-708.645	73.537	0.089	-0.094
-707.631	-199.741	-0.085	-0.000
-706.616	64.183	-0.155	-0.157
-705.602	14.848	-0.203	-0.160
-704.587	-151.640	0.249	0.018
-703.572	800.000	0.071	0.203
-702.558	-64.605	0.143	-0.058
-701.543	282.128	-0.217	0.390
-700.529	-89.048	-0.090	-0.027
-699.514	800.000	0.034	0.102
-698.499	72.591	0.101	-0.106
-697.485	800.000	-0.034	0.100
-696.470	-200.000	0.022	-0.264
-695.456	-200.000	-0.040	-0.179
-694.441	-200.000	0.040	0.263
-693.426	-200.000	-0.024	0.355
-692.412	800.000	-0.006	-0.016
-691.397	-67.309	-0.129	0.051
-690.383	-29.638	0.281	-0.161
-689.368	-200.000	-0.002	-0.053
-688.354	-119.841	-0.283	-0.049
-687.339	-34.250	0.114	-0.063
-686.324	-99.126	-0.219	-0.056
-685.310	-31.537	-0.186	0.105
-684.295	45.764	0.079	-0.074
-683.281	-134.989	-0.488	-0.059
-682.266	-127.023	0.221	-0.033
-681.251	-200.000	-0.013	0.132
-680.237	800.000	-0.085	0.245
-679.222	704.414	-0.119	0.315
-678.208	128.268	-0.092	-0.117
-677.193	-200.000	0.016	-0.129
-676.178	641.728	0.043	-0.110
-675.164	-28.095	0.063	0.037
-674.149	-96.982	-0.334	0.088
-673.135	800.000	-0.037	0.148
-672.120	482.087	-0.011	0.026
-671.105	-30.114	-0.123	-0.070
-670.091	-45.337	0.250	0.124
-669.076	110.270	0.063	-0.076
-668.062	345.431	0.167	0.328
-667.047	-120.138	-0.214	0.037
-666.032	-103.843	0.084	0.020
-665.018	-79.321	0.260	-0.088
-664.003	207.036	-0.111	0.173
-662.989	-200.000	-0.025	-0.235
-661.974	800.000	-0.056	-0.167
-660.959	-200.000	0.011	0.056
-659.945	633.459	-0.080	-0.203
-658.930	800.000	0.019	-0.056
-657.916	244.594	0.117	-0.196
-656.901	46.648	-0.098	0.092
-655.886	-22.988	0.055	0.033
-654.872	-200.000	-0.003	-0.102
-653.857	-94.580	-0.188	0.051
-652.843	-87.855	0.557	0.168
-651.828	-200.000	0.026	-0.118
-650.814	303.404	-0.150	0.279
-649.799	190.988	-0.081	-0.122
-648.784	425.078	-0.035	0.075
-647.770	122.323	0.088	0.110
-646.755	-200.000	0.036	-0.258
-645.741	0.897	0.219	-0.157
-644.726	-200.000	0.009	0.354
-643.711	-5.729	0.145	0.099
-642.697	-200.000	0.480	0.001
-641.682	-123.431	-0.181	0.029
-640.668	-56.160	-0.380	0.169
-639.653	800.000	-0.050	-0.151
-638.638	-92.669	0.375	0.105
-637.624	-13.144	-0.129	0.084
-636.609	-94.414	0.092	-0.025
-635.595	-35.526	0.080	0.043
-634.580	-120.798	-0.103	-0.017
-633.565	-200.000	-0.045	-0.263
-632.551	800.000	-0.067	0.287
-631.536	-11.293	0.126	0.083
-630.522	7.006	-0.305	-0.228
-629.507	-134.034	-0.329	0.041
-628.492	8.268	-0.256	0.193
-627.478	-200.000	-0.003	0.408
-626.463	-106.451	-0.277	-0.062
-625.449	-79.199	0.207	0.070
-624.434	542.051	0.010	-0.024
-623.419	21.842	-0.334	-0.272
-622.405	-106.177	0.297	0.067
-621.390	-200.000	-0.030	0.226
-620.376	91.873	0.085	0.096
-619.361	5.813	0.219	-0.162
-618.346	779.137	0.033	0.092
-617.332	133.236	0.165	-0.213
-616.317	-21.651	0.037	-0.023
-615.303	137.370	0.173	-0.227
-614.288	94.312	0.087	0.099
-613.273	591.671	0.050	-0.123
-612.259	113.635	0.194	-0.235
-611.244	-9.778	-0.083	-0.055
-610.230	-93.679	0.272	0.075
-609.215	-200.000	0.040	-0.333
-608.201	-200.000	-0.011	-0.330
-607.186	54.717	-0.130	-0.126
-606.171	-132.480	0.205	-0.026
-605.157	-2.240	0.178	0.125
-604.142	-122.323	0.259	0.042
-603.128	-200.000	-0.028	-0.259
-602.113	-81.490	-0.360	0.118
-601.098	135.343	0.197	-0.257
-600.084	50.956	0.136	-0.129
-599.069	35.282	-0.073	-0.064
-598.055	150.845	0.139	-0.188
-597.040	-200.000	-0.032	0.363
-596.025	155.379	-0.111	-0.152
-595.011	90.671	-0.214	-0.240
-593.996	-114.794	0.117	-0.022
-592.982	254.577	-0.034	-0.059
-591.967	-183.011	0.192	0.003
-590.952	333.418	-0.180	-0.348
-589.938	-42.435	0.241	-0.123
-588.923	6.101	-0.320	-0.237
-587.909	-140.173	-0.228	0.024
-586.894	-74.297	0.089	0.032
-585.879	16.370	0.089	-0.070
-584.865	97.458	0.164	0.188
-583.850	51.687	-0.138	0.131
-582.836	1.956	-0.242	-0.175
-581.821	-14.879	-0.181	-0.116
-580.806	-66.565	-0.156	0.062
-579.792	-71.296	0.139	0.052
-578.777	-28.117	-0.175	-0.101
-577.763	-200.000	-0.025	0.237
-576.748	250.593	0.103	0.175
-575.733	-18.549	-0.125	-0.078
-574.719	-200.000	0.049	-0.263
-573.704	122.763	-0.133	-0.166
-572.690	283.664	-0.196	-0.352
-571.675	-93.256	-0.252	-0.070
-570.661	-77.796	-0.463	-0.160
-569.646	-147.544	0.213	-0.018
-568.631	-66.299	-0.161	0.064
-567.617	-81.280	0.324	0.107
-566.602	-27.782	0.103	0.060
-565.588	800.000	0.091	-0.269
-564.573	800.000	0.057	0.169
-563.558	800.000	0.049	-0.213
-562.544	89.887	-0.076	-0.085
-561.529	-89.842	-0.469	-0.137
-560.515	-200.000	-0.058	0.406
-559.500	8.021	0.034	-0.026
-558.485	-96.329	-0.102	-0.027
-557.471	321.919	-0.118	0.224
-556.456	121.338	-0.111	0.138
-555.442	213.909	-0.256	-0.404
-554.427	-77.541	-0.183	0.063
-553.412	-200.000	0.296	-0.000
-552.398	104.630	0.079	0.093
-551.383	-154.108	0.252	0.017
-550.369	-113.326	0.392	-0.077
-549.354	-111.689	0.120	0.024
-548.339	800.000	-0.087	0.249
-547.325	81.435	0.171	-0.184
-546.310	-200.000	0.006	-0.084
-545.296	1.102	0.168	-0.120
-544.281	608.145	0.164	-0.408
-543.266	-200.000	0.003	0.056
-542.252	482.784	0.090	-0.204
-541.237	-80.584	-0.115	-0.038
-540.223	800.000	0.100	-0.291
-539.208	37.244	-0.035	-0.031
-538.193	107.333	-0.122	0.144
-537.179	-200.000	-0.028	-0.125
-536.164	15.432	0.110	0.086
-535.150	116.494	0.117	-0.143
-534.135	800.000	0.043	-0.119
-533.121	-105.420	0.353	0.080
-532.106	226.036	0.128	0.207
-531.091	-112.664	0.100	-0.020
-530.077	356.736	0.106	0.211
-529.062	-200.000	-0.006	-0.108
-528.048	128.166	0.112	-0.142
-527.033	-172.392	-0.140	-0.004
-526.018	92.841	0.182	-0.206
-525.004	11.883	0.174	-0.134
-523.989	-12.521	0.156	-0.102
-522.975	288.984	0.064	0.116
-521.960	45.569	-0.328	0.302
-520.945	271.476	0.036	0.063
-519.931	800.000	-0.072	-0.204
-518.916	-33.819	0.036	0.020
-517.902	-84.005	-0.126	0.040
-516.887	354.015	0.065	-0.129
-515.872	-200.000	0.025	-0.158
-514.858	59.145	-0.135	-0.132
-513.843	-124.949	0.120	0.018
-512.829	-147.160	0.096	-0.008
-511.814	800.000	0.051	-0.145
-510.799	-92.666	-0.156	0.043
-509.785	-136.130	-0.377	0.044
-508.770	-200.000	0.013	0.313
-507.756	626.042	-0.072	0.181
-506.741	276.227	-0.191	-0.337
-505.726	-77.642	-0.389	-0.134
-504.712	-79.953	-0.212	-0.071
-503.697	-131.829	0.251	-0.033
-502.683	-31.494	-0.200	-0.112
-501.668	-200.000	-0.011	0.336
-500.653	75.151	-0.180	0.189
-499.639	75.176	0.039	-0.041
-498.624	-200.000	-0.010	-0.231
-497.610	368.430	-0.077	0.156
-496.595	90.263	0.094	0.105
-495.581	47.178	0.082	0.076
-494.566	91.449	-0.128	0.144
-493.551	2.478	-0.200	0.144
-492.537	119.783	-0.116	0.144
-491.522	36.439	0.098	0.086
-490.508	281.272	0.106	-0.188
-489.493	75.315	-0.168	-0.177
-488.478	-33.535	-0.234	0.129
-487.464	13.005	-0.220	-0.169
-486.449	332.101	0.164	-0.316
-485.435	53.332	0.369	-0.352
-484.420	249.172	-0.039	-0.066
-483.405	-75.874	0.337	0.119
-482.391	-101.872	0.335	-0.081
-481.376	-200.000	0.003	-0.080
-480.362	800.000	0.102	-0.398
-479.347	333.485	-0.053	0.101
-478.332	205.251	0.114	-0.176
-477.318	800.000	-0.106	-0.328
-476.303	-200.000	-0.048	0.358
-475.289	800.000	-0.016	-0.062
-474.274	57.039	-0.225	0.218
-473.259	-55.157	0.191	0.086
-472.245	-200.000	-0.060	0.421
-471.230	-35.272	-0.254	-0.138
-470.216	-200.000	0.009	0.150
-469.201	112.323	-0.122	-0.147
-468.186	-200.000	-0.012	0.129
-467.172	-71.006	-0.045	-0.017
-466.157	29.900	-0.309	0.262
-465.143	148.806	0.218	0.294
-464.128	-183.776	-0.122	-0.002
-463.113	13.928	-0.282	-0.218
-462.099	65.729	0.136	0.137
-461.084	-200.000	0.019	0.261
-460.070	9.582	-0.237	-0.178
-459.055	-100.244	-0.264	0.065
-458.040	-200.000	0.016	-0.126
-457.026	-200.000	-0.001	0.183
-456.011	39.925	-0.190	-0.170
-454.997	88.609	0.124	-0.137
-453.982	-200.000	0.010	-0.324
-452.968	-83.091	0.255	-0.082
-451.953	-82.330	0.245	-0.079
-450.938	6.240	-0.204	-0.151
-449.924	-124.812	0.369	-0.057
-448.909	800.000	0.047	-0.191
-447.895	-12.102	-0.180	0.117
-446.880	-88.707	-0.268	0.079
-445.865	85.548	-0.119	-0.130
-444.851	800.000	0.030	0.116
-443.836	47.270	0.048	-0.044
-442.822	-68.634	-0.116	-0.045
-441.807	-194.966	-0.329	-0.003
-440.792	126.653	0.188	0.236
-439.778	42.592	-0.125	-0.113
-438.763	-112.529	0.201	-0.040
-437.749	-77.501	-0.320	-0.110
-436.734	-42.522	-0.256	-0.129
-435.719	441.541	0.121	0.263
-434.705	-15.482	0.329	0.209
-433.690	57.236	-0.118	-0.114
-432.676	129.663	-0.302	-0.383
-431.661	257.085	0.152	-0.259
-430.646	-166.803	0.153	0.006
-429.632	-169.097	-0.060	-0.002
-428.617	-56.169	0.405	-0.179
-427.603	-2.254	-0.189	0.132
-426.588	-107.749	0.133	0.029
-425.573	-1.863	-0.141	-0.098
-424.559	-62.441	-0.220	0.091
-423.544	-200.000	0.012	-0.129
-422.530	297.222	-0.173	-0.315
-421.515	-33.926	-0.143	0.078
-420.500	-62.333	0.409	0.169
-419.486	8.623	-0.292	0.218
-418.471	522.394	0.113	-0.264
-417.457	-11.133	-0.177	-0.116
-416.442	-3.362	0.085	0.059
-415.428	-5.126	-0.147	0.100
-414.413	54.490	-0.241	0.230
-413.398	161.970	0.074	-0.104
-412.384	-163.402	0.314	0.015
-411.369	-137.704	0.303	0.034
-410.355	-153.726	-0.202	-0.014
-409.340	-160.148	-0.212	-0.011
-408.325	-143.550	0.157	0.015
-407.311	-42.926	-0.266	0.134
-406.296	70.327	0.091	0.094
-405.282	800.000	0.069	-0.241
-404.267	-129.188	-0.127	-0.018
-403.252	800.000	-0.039	-0.109
-402.238	-38.948	-0.168	0.088
-401.223	-68.216	0.227	-0.087
-400.209	-200.000	0.014	-0.125
-399.194	-13.393	-0.245	0.158
-398.179	-42.546	0.081	-0.041
-397.165	-55.044	-0.158	0.070
-396.150	7.115	-0.039	-0.029
-395.136	467.554	0.017	0.037
-394.121	-168.116	0.230	-0.009
-393.106	-2.474	-0.260	0.180
-392.092	41.434	0.264	0.237
-391.077	-138.282	-0.173	-0.019
-390.063	-138.494	0.232	-0.025
-389.048	-123.306	0.233	0.037
-388.033	167.048	-0.132	-0.185
-387.019	-81.151	-0.188	0.062
-386.004	-200.000	-0.005	0.232
-384.990	15.380	-0.431	-0.335
-383.975	201.743	0.175	0.268
-382.960	32.193	0.097	-0.083
-381.946	-200.000	0.026	-0.222
-380.931	-200.000	0.054	-0.316
-379.917	-84.160	0.351	0.111
-378.902	372.292	0.057	0.115
-377.888	-115.382	-0.273	0.051
-376.873	-70.554	-0.318	-0.119
-375.858	108.236	-0.053	-0.063
-374.844	674.127	-0.155	0.398
-373.829	151.645	-0.084	-0.113
-372.815	45.445	0.120	0.110
-371.800	145.574	-0.158	-0.210
-370.785	-118.907	-0.170	-0.030
-369.771	-200.000	0.021	-0.206
-368.756	-25.815	0.240	0.140
-367.742	254.857	-0.162	0.275
-366.727	32.103	-0.059	-0.051
-365.712	-27.690	0.418	-0.240
-364.698	-143.630	-0.205	-0.019
-363.683	236.140	0.032	0.052
-362.669	-115.619	-0.073	-0.014
-361.654	59.764	0.126	-0.123
-360.639	-200.000	-0.088	0.468
-359.625	-200.000	0.015	-0.082
-358.610	620.957	0.106	-0.265
-357.596	327.631	0.129	0.246
-356.581	-169.247	0.182	-0.007
-355.566	800.000	-0.040	-0.141
-354.552	-128.514	-0.270	0.038
-353.537	-200.000	-0.052	0.268
-352.523	81.122	-0.273	0.292
-351.508	-200.000	0.033	0.328
-350.493	-178.346	0.173	0.004
-349.479	-116.358	-0.258	0.047
-348.464	271.881	-0.087	0.152
-347.450	-166.788	0.050	-0.002
-346.435	-104.044	0.201	0.046
-345.420	144.217	-0.122	-0.162
-344.406	-200.000	0.002	0.036
-343.391	21.219	-0.404	-0.325
-342.377	-127.587	-0.314	0.045
-341.362	206.296	-0.157	-0.243
-340.348	800.000	0.055	-0.228
-339.333	-131.282	0.677	-0.089
-338.318	-200.000	-0.039	0.341
-337.304	-51.171	-0.139	0.065
-336.289	542.192	-0.129	0.304
-335.275	-150.492	0.398	-0.030
-334.260	78.352	-0.041	-0.043
-333.245	-200.000	0.019	0.291
-332.231	10.838	0.274	-0.207
-331.216	20.883	0.268	0.215
-330.202	-200.000	-0.016	0.284
-329.187	100.760	-0.182	0.209
-328.172	26.140	-0.038	0.032
-327.158	195.871	-0.073	0.110
-326.143	81.871	0.309	-0.331
-325.129	12.037	0.178	-0.135
-324.114	469.287	0.092	-0.205
-323.099	-41.182	-0.064	0.033
-322.085	-92.346	0.423	0.118
-321.070	54.052	0.238	0.227
-320.056	-30.815	-0.047	-0.026
-319.041	-200.000	0.008	0.266
-318.026	258.278	0.099	0.168
-317.012	-39.671	0.366	0.189
-315.997	-200.000	-0.040	-0.234
-314.983	100.928	-0.170	-0.196
-313.968	800.000	0.070	0.222
-312.953	-57.199	0.099	-0.043
-311.939	397.690	0.149	0.308
-310.924	244.425	-0.091	-0.151
-309.910	-153.181	-0.011	0.001
-308.895	-117.217	0.215	-0.039
-307.880	-119.516	0.302	-0.052
-306.866	104.427	0.019	0.022
-305.851	11.525	-0.171	0.130
-304.837	18.019	-0.232	0.183
-303.822	-115.156	0.327	0.061
-302.807	-12.315	0.223	-0.144
-301.793	304.162	-0.074	-0.136
-300.778	152.108	0.109	-0.146
-299.764	-71.328	-0.037	-0.014
-298.749	153.715	-0.202	0.274
-297.735	-200.000	-0.049	-0.382
-296.720	-200.000	-0.024	-0.227
-295.705	-67.403	0.122	0.047
-294.691	-24.914	-0.191	0.112
-293.676	245.573	-0.039	0.065
-292.662	-200.000	0.016	0.148
-291.647	800.000	0.025	0.081
-290.632	-105.119	-0.161	-0.036
-289.618	-29.266	0.467	0.264
-288.603	175.033	-0.103	-0.147
-287.589	235.624	0.113	-0.184
-286.574	95.629	0.168	0.189
-285.559	-133.261	0.134	0.017
-284.545	-200.000	0.079	-0.490
-283.530	28.738	-0.323	-0.270
-282.516	800.000	-0.038	0.144
-281.501	131.938	-0.082	0.105
-280.486	-89.498	-0.059	0.017
-279.472	-200.000	-0.009	-0.192
-278.457	-109.760	-0.424	0.088
-277.443	198.117	0.270	0.407
-276.428	598.722	-0.100	0.246
-275.413	-38.993	-0.142	0.074
-274.399	153.177	0.031	-0.042
-273.384	13.243	-0.441	-0.338
-272.370	503.667	-0.173	0.395
-271.355	-77.191	0.353	-0.121
-270.340	230.628	-0.112	0.181
-269.326	5.163	0.091	-0.066
-268.311	97.261	-0.121	0.137
-267.297	-200.000	-0.083	0.443
-266.282	-200.000	0.039	-0.345
-265.267	517.144	-0.061	0.141
-264.253	91.820	-0.156	-0.173
-263.238	-86.012	-0.179	-0.055
-262.224	800.000	0.056	0.167
-261.209	-93.115	0.163	0.045
-260.195	-83.845	0.374	-0.118
-259.180	-200.000	-0.006	-0.030
-258.165	-200.000	0.008	0.347
-257.151	-200.000	0.017	-0.145
-256.136	176.411	-0.151	0.217
-255.122	-104.822	0.308	-0.070
-254.107	36.647	0.163	-0.142
-253.092	-22.589	-0.366	-0.218
-252.078	0.019	0.198	0.139
-251.063	-25.855	0.261	-0.152
-250.049	-44.653	0.092	0.045
-249.034	191.823	-0.114	0.169
-248.019	119.055	0.028	0.034
-247.005	800.000	-0.052	0.191
-245.990	294.458	0.046	0.084
-244.976	52.966	0.408	-0.385
-243.961	-200.000	-0.050	-0.256
-242.946	-95.009	-0.096	0.026
-241.932	352.339	-0.048	0.094
-240.917	-78.651	0.209	0.070
-239.903	88.253	-0.080	0.087
-238.888	-50.415	-0.101	0.047
-237.873	-70.176	-0.044	-0.016
-236.859	-200.000	0.033	0.321
-235.844	369.000	0.164	0.326
-234.830	800.000	0.023	0.082
-233.815	-48.988	-0.295	-0.140
-232.800	709.817	0.146	0.380
-231.786	-40.553	-0.301	0.154
-230.771	23.792	-0.085	0.069
-229.757	-193.711	-0.253	0.002
-228.742	-200.000	-0.004	0.074
-227.727	631.823	-0.035	-0.088
-226.713	-106.088	-0.311	0.069
-225.698	-129.399	-0.234	0.032
-224.684	367.078	-0.116	-0.230
-223.669	-169.056	0.756	0.028
-222.655	130.236	-0.164	0.206
-221.640	17.751	-0.070	-0.055
-220.625	158.261	-0.052	-0.071
-219.611	508.373	-0.116	0.267
-218.596	-20.260	0.167	-0.101
-217.582	-200.000	-0.014	0.124
-216.567	52.520	-0.383	0.360
-215.552	-64.484	0.129	0.051
-214.538	-51.710	0.180	-0.082
-213.523	-22.464	0.226	0.135
-212.509	124.660	-0.157	-0.195
-211.494	-44.780	0.378	0.186
-210.479	43.931	0.214	0.193
-209.465	19.901	-0.232	-0.184
-208.450	-200.000	0.027	-0.264
-207.436	-103.763	0.308	0.071
-206.421	167.019	-0.097	0.135
-205.406	132.910	-0.121	-0.154
-204.392	560.130	0.092	0.218
-203.377	-200.000	-0.020	0.398
-202.363	-67.546	0.159	0.062
-201.348	-105.857	-0.113	-0.025
-200.333	15.608	0.305	-0.236
-199.319	142.614	0.078	0.102
-198.304	-12.695	0.133	-0.086
-197.290	-27.437	-0.242	-0.139
-196.275	275.079	0.118	0.205
-195.260	34.943	0.263	0.226
-194.246	158.689	-0.097	0.132
-193.231	-118.723	0.221	-0.038
-192.217	-91.255	0.132	-0.037
-191.202	-139.265	-0.180	0.019
-190.187	800.000	0.018	-0.072
-189.173	534.451	0.098	-0.230
-188.158	-96.914	0.191	-0.049
-187.144	-65.914	-0.493	0.194
-186.129	121.130	0.325	0.398
-185.114	24.302	-0.157	0.128
-184.100	-200.000	0.002	0.018
-183.085	-200.000	-0.002	0.092
-182.071	93.854	-0.116	0.129
-181.056	-195.479	-0.312	0.002
-180.042	-99.824	0.179	0.044
-179.027	336.809	0.166	0.317
-178.012	-95.828	0.324	0.085
-176.998	59.057	-0.176	0.170
-175.983	49.489	-0.238	-0.221
-174.969	-200.000	-0.024	0.123
-173.954	13.496	0.387	0.296
-172.939	-23.905	0.204	-0.120
-171.925	-156.328	-0.190	-0.012
-170.910	543.485	-0.019	0.045
-169.896	-200.000	-0.035	0.236
-168.881	745.964	0.065	-0.173
-167.866	-132.916	-0.223	-0.028
-166.852	72.440	-0.147	0.150
-165.837	-14.122	-0.138	-0.088
-164.823	-184.991	0.026	-0.000
-163.808	-127.193	-0.186	0.027
-162.793	-200.000	0.034	-0.172
-161.779	800.000	0.105	-0.309
-160.764	288.958	0.077	0.136
-159.750	-200.000	0.016	-0.125
-158.735	-200.000	0.025	-0.229
-157.720	-200.000	-0.005	0.056
-156.706	445.459	-0.084	-0.181
-155.691	-88.034	-0.057	0.017
-154.677	-200.000	0.011	-0.308
-153.662	219.862	0.069	0.108
-152.647	-57.979	0.138	0.059
-151.633	800.000	-0.156	-0.499
-150.618	-149.842	-0.277	-0.021
-149.604	-14.700	0.351	-0.222
-148.589	-23.583	-0.091	0.054
-147.574	460.921	0.059	0.129
-146.560	-200.000	-0.028	-0.220
-145.545	66.220	0.048	0.048
-144.531	-200.000	-0.047	0.340
-143.516	-200.000	0.012	0.077
-142.502	-52.525	-0.213	0.097
-141.487	11.555	0.235	0.177
-140.472	470.663	-0.173	0.382
-139.458	-126.136	0.120	-0.018
-138.443	-178.367	0.170	0.004
-137.429	453.560	-0.105	0.229
-136.414	28.482	0.192	-0.160
-135.399	280.477	0.171	-0.301
-134.385	-11.954	-0.331	-0.213
-133.370	800.000	0.051	0.197
-132.356	-34.603	-0.057	0.031
-131.341	78.656	0.250	-0.262
-130.326	-4.625	-0.184	0.125
-129.312	22.316	0.236	0.189
-128.297	92.089	-0.188	-0.208
-127.283	1.468	-0.201	0.142
-126.268	276.939	0.138	-0.241
-125.253	32.861	0.072	-0.061
-124.239	-200.000	-0.000	-0.144
-123.224	-200.000	0.005	0.108
-122.210	39.866	0.133	0.117
-121.195	61.714	0.194	0.189
-120.180	-93.592	0.317	-0.086
