DTS Sentinel unit serial number:	SN413079Multiplexer serial number:	ORYXHardware model number:	OX4-SRSoftware version number:	ORYX F/W v4.00 Oryx Data Collector v3.7.2.0data status	okinstallation	princeton_trtdifferential loss correction	single-endedforward channel	channel 2reverse channel	N/Adate	2019/09/14time	07:39:34forward acquisition time	60.00reverse acquisition time	0.00gamma	496.2192k internal	0.2337k external	0.2337temperature offset calibration	1.0127default loss term (dB/km)	0.3790temperature slope calibration	1.0000multiplexer offset coefficient	1.0000multiplexer slope coefficient	1.0000fibre end	0.00T internal ref (°C)	26.30T ext. ref 1 (°C)	3.47T ext. ref 2 (°C)	21.81length (m)	temperature (°C)	Stokes	anti-Stokes-747.200	578.117	-0.028	0.068
-746.185	-200.000	-0.050	-0.296
-745.171	129.237	-0.134	-0.171
-744.156	14.383	0.054	0.042
-743.142	-200.000	-0.007	-0.295
-742.127	771.605	0.131	0.358
-741.112	-3.136	0.246	-0.172
-740.098	-162.045	-0.467	-0.024
-739.083	-140.696	-0.091	-0.009
-738.069	-124.997	0.304	-0.047
-737.054	89.037	0.093	0.104
-736.039	250.907	-0.239	-0.407
-735.025	-96.329	-0.195	0.052
-734.010	-200.000	-0.055	-0.259
-732.996	-140.608	0.168	0.018
-731.981	313.320	0.104	0.197
-730.966	119.800	0.041	0.051
-729.952	800.000	-0.100	-0.317
-728.937	352.656	0.107	-0.214
-727.923	-200.000	0.022	-0.148
-726.908	90.518	-0.256	-0.288
-725.894	-144.576	-0.217	-0.020
-724.879	-200.000	-0.014	-0.439
-723.864	278.477	-0.190	-0.340
-722.850	365.007	-0.061	0.124
-721.835	3.805	0.141	0.103
-720.821	-200.000	-0.017	-0.424
-719.806	-200.000	-0.004	0.067
-718.791	-51.200	-0.418	-0.196
-717.777	-62.806	0.215	-0.089
-716.762	-141.987	-0.104	0.010
-715.748	386.629	-0.074	0.154
-714.733	119.502	0.092	-0.115
-713.718	647.987	0.063	-0.162
-712.704	22.081	-0.135	0.110
-711.689	89.276	-0.015	-0.017
-710.675	7.989	0.309	0.233
-709.660	-70.858	-0.122	-0.046
-708.645	225.841	0.130	0.211
-707.631	-18.707	0.290	0.181
-706.616	293.787	0.065	0.118
-705.602	-89.453	0.056	-0.017
-704.587	105.898	0.042	-0.050
-703.572	262.602	-0.084	0.146
-702.558	248.898	-0.122	0.207
-701.543	800.000	0.089	-0.325
-700.529	124.078	-0.093	-0.117
-699.514	-52.999	0.283	0.131
-698.499	-20.567	0.186	-0.114
-697.485	-200.000	0.028	-0.214
-696.470	-104.097	-0.098	0.023
-695.456	-200.000	-0.021	-0.360
-694.441	-103.822	-0.180	-0.042
-693.426	-56.764	-0.201	-0.089
-692.412	-16.304	-0.390	-0.248
-691.397	-166.884	-0.511	0.021
-690.383	-18.048	-0.111	0.070
-689.368	-50.070	-0.389	0.185
-688.354	256.139	0.203	0.348
-687.339	218.175	0.138	0.220
-686.324	-23.512	-0.264	0.159
-685.310	122.324	0.072	0.090
-684.295	-200.000	0.005	0.044
-683.281	-56.274	-0.071	0.032
-682.266	148.373	0.053	-0.072
-681.251	56.296	-0.185	-0.180
-680.237	-174.759	0.367	0.010
-679.222	-193.638	0.178	-0.002
-678.208	3.974	0.202	0.148
-677.193	-200.000	-0.019	0.115
-676.178	207.979	0.170	0.266
-675.164	352.331	-0.138	-0.274
-674.149	134.783	0.133	-0.173
-673.135	-167.056	-0.473	-0.019
-672.120	-124.608	-0.200	-0.031
-671.105	376.175	0.063	0.128
-670.091	-97.567	0.271	-0.070
-669.076	4.572	-0.067	-0.050
-668.062	-68.176	-0.310	0.121
-667.047	21.032	0.254	0.206
-666.032	-200.000	-0.022	0.121
-665.018	-112.980	0.346	-0.068
-664.003	496.298	0.097	0.223
-662.989	178.239	0.187	-0.273
-661.974	-200.000	-0.053	-0.267
-660.959	-11.399	0.238	0.157
-659.945	-108.094	-0.096	-0.021
-658.930	155.257	0.160	0.220
-657.916	-200.000	-0.069	0.365
-656.901	507.158	-0.166	-0.384
-655.886	-86.995	-0.072	0.022
-654.872	415.140	-0.090	0.192
-653.857	-109.814	0.052	-0.011
-652.843	56.003	0.204	-0.198
-651.828	-128.818	0.178	0.025
-650.814	-200.000	0.062	-0.574
-649.799	-80.241	-0.372	0.125
-648.784	800.000	0.074	0.304
-647.770	-36.864	-0.318	-0.171
-646.755	-61.305	0.297	0.125
-645.741	178.454	0.066	-0.096
-644.726	7.024	0.184	0.137
-643.711	-81.007	-0.034	-0.011
-642.697	149.662	-0.152	0.207
-641.682	800.000	0.091	0.252
-640.668	33.614	0.123	-0.107
-639.653	-200.000	0.020	-0.366
-638.638	-200.000	-0.015	-0.229
-637.624	639.411	0.027	-0.069
-636.609	-200.000	0.015	-0.084
-635.595	28.040	0.231	0.195
-634.580	-76.370	-0.520	-0.183
-633.565	211.750	-0.245	-0.385
-632.551	1.602	0.216	0.155
-631.536	-200.000	-0.028	-0.147
-630.522	-119.122	-0.128	-0.022
-629.507	-127.742	0.332	-0.048
-628.492	-84.702	-0.068	0.021
-627.478	800.000	-0.114	0.324
-626.463	-39.509	0.046	-0.024
-625.449	-70.772	-0.204	-0.077
-624.434	-33.987	-0.036	0.020
-623.419	282.746	-0.081	0.145
-622.405	55.542	0.078	0.075
-621.390	-200.000	0.036	-0.188
-620.376	800.000	0.023	-0.084
-619.361	-200.000	-0.033	0.279
-618.346	84.912	-0.062	0.068
-617.332	79.498	0.213	-0.228
-616.317	-92.982	0.065	-0.018
-615.303	323.380	-0.065	0.124
-614.288	-15.018	0.121	-0.077
-613.273	115.556	-0.119	-0.145
-612.259	-60.265	0.064	-0.027
-611.244	234.244	0.003	-0.005
-610.230	-100.039	-0.697	-0.173
-609.215	11.018	-0.148	-0.113
-608.201	-200.000	0.005	-0.080
-607.186	-77.118	0.295	0.103
-606.171	30.309	0.199	-0.170
-605.157	9.293	0.080	-0.060
-604.142	-200.000	0.008	0.267
-603.128	800.000	-0.040	0.133
-602.113	289.578	-0.278	-0.504
-601.098	334.681	0.082	-0.159
-600.084	-15.689	-0.206	0.131
-599.069	-179.840	0.076	-0.002
-598.055	-64.482	0.230	0.093
-597.040	-200.000	-0.023	-0.251
-596.025	204.633	0.093	0.144
-595.011	286.708	-0.184	0.331
-593.996	-200.000	-0.002	0.035
-592.982	-129.787	0.439	0.060
-591.967	800.000	0.038	0.158
-590.952	55.660	-0.175	0.170
-589.938	190.094	0.200	-0.300
-588.923	701.534	0.126	-0.330
-587.909	800.000	-0.028	0.103
-586.894	-200.000	-0.008	0.121
-585.879	-171.866	-0.434	-0.014
-584.865	-68.754	0.217	0.084
-583.850	48.364	0.071	-0.066
-582.836	800.000	-0.101	-0.284
-581.821	-182.388	-0.058	-0.001
-580.806	-180.350	-0.256	-0.005
-579.792	-200.000	0.004	0.334
-578.777	20.930	0.184	0.149
-577.763	-200.000	-0.024	-0.183
-576.748	-54.794	-0.226	-0.102
-575.733	4.653	0.100	0.073
-574.719	-190.496	-0.275	0.003
-573.704	220.024	-0.143	0.228
-572.690	-200.000	-0.080	0.380
-571.675	117.966	-0.179	-0.220
-570.661	-30.480	0.147	0.083
-569.646	57.084	0.163	-0.158
-568.631	355.529	0.082	-0.162
-567.617	-36.127	0.146	-0.079
-566.602	-71.708	0.074	0.027
-565.588	-56.258	0.217	-0.096
-564.573	800.000	-0.047	-0.167
-563.558	51.714	0.149	0.141
-562.544	-158.748	-0.216	0.012
-561.529	7.366	-0.124	-0.092
-560.515	-140.514	0.032	0.003
-559.500	-200.000	0.012	0.265
-558.485	-200.000	0.000	-0.157
-557.471	-138.588	0.049	-0.005
-556.456	-154.455	0.395	-0.026
-555.442	-13.930	-0.093	0.060
-554.427	147.668	-0.225	-0.303
-553.412	346.185	-0.054	-0.106
-552.398	-18.814	-0.297	-0.184
-551.383	3.587	0.219	-0.159
-550.369	9.172	0.199	0.150
-549.354	238.544	0.065	0.107
-548.339	51.784	0.209	0.198
-547.325	-109.815	-0.066	0.014
-546.310	-133.847	-0.295	0.036
-545.296	169.964	-0.164	0.233
-544.281	-78.085	0.148	-0.051
-543.266	177.908	0.156	0.227
-542.252	433.953	0.088	0.191
-541.237	800.000	-0.056	-0.158
-540.223	191.943	-0.279	-0.419
-539.208	177.728	0.086	-0.125
-538.193	181.054	-0.200	0.293
-537.179	-200.000	-0.029	-0.354
-536.164	-30.885	0.244	0.137
-535.150	193.773	-0.106	-0.160
-534.135	-99.280	0.238	-0.060
-533.121	800.000	-0.052	-0.151
-532.106	1.281	0.194	-0.139
-531.091	54.336	0.167	-0.160
-530.077	-71.007	-0.153	-0.057
-529.062	-200.000	0.039	-0.417
-528.048	614.163	-0.153	0.381
-527.033	800.000	0.033	0.100
-526.018	-200.000	0.007	0.089
-525.004	206.998	0.114	0.176
-523.989	-85.676	0.062	0.019
-522.975	31.408	-0.143	0.123
-521.960	11.179	-0.139	-0.106
-520.945	76.170	-0.289	0.304
-519.931	-70.624	0.056	-0.021
-518.916	-200.000	-0.049	-0.568
-517.902	-3.684	0.361	0.250
-516.887	198.588	0.243	-0.370
-515.872	153.647	0.072	-0.098
-514.858	-146.809	-0.162	0.014
-513.843	800.000	-0.028	0.119
-512.829	-149.821	-0.310	0.024
-511.814	-26.011	0.089	-0.052
-510.799	69.678	-0.087	0.089
-509.785	-49.594	-0.158	0.075
-508.770	149.849	-0.226	-0.305
-507.756	-73.835	0.085	-0.031
-506.741	139.184	0.160	0.210
-505.726	465.726	-0.157	0.350
-504.712	-84.755	-0.266	-0.083
-503.697	30.946	0.164	-0.140
-502.683	-200.000	0.081	-0.366
-501.668	-34.290	-0.210	0.115
-500.653	131.409	0.278	0.355
-499.639	-54.731	-0.097	0.044
-498.624	1.276	0.415	-0.297
-497.610	800.000	-0.016	-0.060
-496.595	281.670	0.107	-0.190
-495.581	800.000	-0.044	0.127
-494.566	-85.240	-0.140	-0.043
-493.551	-47.737	0.166	-0.080
-492.537	-17.108	-0.185	0.116
-491.522	-48.352	-0.263	0.126
-490.508	-29.393	0.309	0.176
-489.493	-159.508	0.322	-0.018
-488.478	-138.766	-0.066	-0.007
-487.464	-18.165	-0.106	-0.066
-486.449	-10.539	-0.097	0.064
-485.435	107.405	0.261	0.309
-484.420	-6.650	-0.158	0.107
-483.405	800.000	-0.025	0.102
-482.391	651.996	-0.060	-0.152
-481.376	-112.097	-0.275	0.055
-480.362	354.476	-0.132	-0.261
-479.347	1.371	0.137	-0.098
-478.332	90.007	0.215	-0.238
-477.318	-200.000	-0.208	-0.001
-476.303	525.747	-0.090	0.212
-475.289	-81.659	0.214	-0.070
-474.274	-92.010	-0.211	-0.059
-473.259	-80.415	-0.206	-0.068
-472.245	690.168	0.152	-0.394
-471.230	693.234	0.053	0.137
-470.216	462.086	0.077	-0.170
-469.201	-200.000	-0.032	0.185
-468.186	423.092	-0.173	-0.368
-467.172	-200.000	0.014	0.167
-466.157	279.396	-0.091	-0.161
-465.143	-200.000	0.014	-0.090
-464.128	273.495	0.199	0.348
-463.113	172.343	0.302	-0.432
-462.099	-8.677	0.291	0.194
-461.084	0.121	-0.014	0.010
-460.070	800.000	0.080	0.339
-459.055	238.591	0.061	-0.100
-458.040	-200.000	0.032	0.152
-457.026	498.178	0.075	-0.171
-456.011	34.815	0.257	-0.223
-454.997	3.506	0.329	0.238
-453.982	42.924	0.246	0.223
-452.968	-200.000	0.046	0.540
-451.953	-101.749	0.243	-0.058
-450.938	800.000	0.122	0.370
-449.924	-200.000	-0.054	-0.368
-448.909	-75.660	-0.178	-0.063
-447.895	-135.732	-0.149	0.017
-446.880	241.865	0.219	0.362
-445.865	519.732	0.094	0.219
-444.851	8.386	-0.170	-0.127
-443.836	328.434	-0.135	0.257
-442.822	-200.000	-0.028	-0.235
-441.807	-200.000	0.008	0.064
-440.792	446.736	-0.056	-0.121
-439.778	-44.443	0.132	0.066
-438.763	249.212	-0.128	0.215
-437.749	800.000	-0.121	0.351
-436.734	458.412	-0.036	0.080
-435.719	-200.000	-0.005	0.147
-434.705	125.094	0.087	0.109
-433.690	-114.039	-0.186	0.036
-432.676	-200.000	0.060	0.315
-431.661	115.330	0.022	0.026
-430.646	-130.296	0.072	-0.010
-429.632	-166.717	-0.200	-0.008
-428.617	578.443	0.088	0.214
-427.603	393.267	0.085	0.174
-426.588	-70.584	0.146	0.055
-425.573	-37.105	-0.044	0.024
-424.559	185.320	-0.103	0.152
-423.544	-94.816	-0.055	-0.015
-422.530	-105.063	0.354	-0.080
-421.515	-21.402	-0.197	-0.119
-420.500	-36.525	-0.430	-0.229
-419.486	424.717	-0.188	0.402
-418.471	46.743	0.169	0.155
-417.457	147.896	0.020	-0.027
-416.442	800.000	0.084	0.312
-415.428	-9.359	-0.091	0.060
-414.413	121.372	0.095	-0.118
-413.398	218.221	-0.163	0.258
-412.384	-100.768	-0.171	-0.042
-411.369	-28.156	-0.092	0.053
-410.355	-80.905	-0.149	0.049
-409.340	-81.362	0.051	-0.017
-408.325	800.000	0.089	-0.359
-407.311	-123.015	-0.219	0.035
-406.296	51.540	-0.065	0.061
-405.282	-200.000	0.052	0.523
-404.267	-103.010	0.182	0.043
-403.252	288.904	-0.088	0.158
-402.238	-14.968	0.107	0.068
-401.223	-36.410	-0.284	-0.152
-400.209	72.976	-0.152	0.157
-399.194	-200.000	-0.006	0.156
-398.179	650.643	-0.034	-0.086
-397.165	291.056	-0.092	-0.166
-396.150	-56.410	-0.228	-0.100
-395.136	-18.687	-0.358	0.221
-394.121	14.863	0.088	0.069
-393.106	151.859	0.097	-0.131
-392.092	601.215	-0.108	-0.267
-391.077	93.796	-0.228	0.256
-390.063	-9.434	-0.067	0.044
-389.048	-42.828	0.138	0.069
-388.033	137.283	-0.024	-0.032
-387.019	-200.000	-0.008	-0.063
-386.004	-182.341	0.444	0.008
-384.990	254.533	-0.082	-0.139
-383.975	800.000	0.045	0.191
-382.960	-70.338	0.448	-0.168
-381.946	668.848	0.114	0.291
-380.931	671.105	-0.015	-0.039
-379.917	-82.873	-0.424	-0.135
-378.902	-21.476	-0.198	-0.119
-377.888	-27.289	-0.167	-0.096
-376.873	-97.446	-0.040	-0.010
-375.858	-99.818	0.204	0.051
-374.844	800.000	0.072	0.311
-373.829	257.318	0.146	0.249
-372.815	262.786	-0.193	0.332
-371.800	-10.969	0.254	0.166
-370.785	-51.899	0.177	-0.082
-369.771	-200.000	0.009	0.202
-368.756	-200.000	0.040	-0.282
-367.742	27.067	0.263	-0.218
-366.727	-200.000	-0.016	-0.189
-365.712	624.461	-0.081	0.202
-364.698	-66.896	-0.231	0.090
-363.683	-22.694	-0.257	-0.153
-362.669	-90.095	-0.098	0.028
-361.654	-166.581	-0.245	-0.010
-360.639	394.993	-0.053	-0.110
-359.625	-1.019	-0.180	-0.126
-358.610	-63.387	0.179	0.073
-357.596	529.864	0.046	0.106
-356.581	-93.420	0.388	-0.106
-355.566	-101.157	0.232	-0.056
-354.552	16.564	-0.181	0.142
-353.537	79.845	0.059	-0.062
-352.523	140.468	0.175	-0.229
-351.508	-200.000	0.038	-0.184
-350.493	-200.000	-0.058	0.281
-349.479	800.000	-0.099	0.405
-348.464	201.663	-0.007	-0.011
-347.450	-200.000	-0.040	-0.188
-346.435	800.000	-0.024	0.075
-345.420	-200.000	0.026	-0.177
-344.406	-186.414	-0.170	-0.002
-343.391	84.004	-0.104	-0.112
-342.377	-108.358	0.335	-0.071
-341.362	-149.962	0.227	-0.017
-340.348	800.000	-0.060	-0.205
-339.333	800.000	-0.072	-0.203
-338.318	216.273	-0.046	-0.072
-337.304	97.460	0.020	-0.023
-336.289	800.000	-0.043	0.182
-335.275	-57.627	-0.104	-0.045
-334.260	-167.976	-0.110	0.004
-333.245	-132.852	-0.303	0.038
-332.231	-73.241	0.124	-0.045
-331.216	216.144	-0.151	-0.236
-330.202	-66.120	0.064	-0.025
-329.187	-200.000	0.012	0.151
-328.172	-132.142	0.327	-0.042
-327.158	800.000	-0.044	-0.147
-326.143	-96.419	-0.040	0.010
-325.129	175.575	-0.091	-0.130
-324.114	494.329	-0.108	-0.244
-323.099	-140.899	-0.394	0.040
-322.085	-103.526	-0.277	-0.064
-321.070	-30.815	0.072	-0.040
-320.056	-134.737	-0.215	0.026
-319.041	-200.000	0.029	-0.290
-318.026	-200.000	-0.003	-0.064
-317.012	183.843	-0.106	-0.154
-315.997	-140.318	0.167	-0.017
-314.983	97.375	-0.140	0.158
-313.968	-48.397	-0.104	-0.050
-312.953	256.260	0.087	-0.147
-311.939	800.000	0.052	-0.204
-310.924	-200.000	0.010	-0.055
-309.910	-114.288	0.290	0.055
-308.895	-200.000	0.017	-0.148
-307.880	19.105	-0.006	0.005
-306.866	355.167	0.044	-0.085
-305.851	-86.297	0.032	-0.010
-304.837	230.448	-0.096	-0.155
-303.822	-200.000	-0.019	0.215
-302.807	409.616	0.012	0.024
-301.793	800.000	-0.015	0.063
-300.778	272.791	0.051	-0.089
-299.764	-104.128	0.184	0.042
-298.749	-153.221	-0.488	-0.034
-297.735	191.122	0.067	0.099
-296.720	271.442	-0.159	0.277
-295.705	-200.000	-0.010	0.099
-294.691	-200.000	-0.016	-0.112
-293.676	-77.663	0.240	-0.082
-292.662	-200.000	0.019	-0.156
-291.647	-58.235	-0.153	-0.066
-290.632	800.000	-0.053	-0.161
-289.618	0.441	-0.106	0.075
-288.603	179.001	0.135	0.195
-287.589	800.000	0.009	0.037
-286.574	-17.755	0.210	-0.130
-285.559	17.187	-0.191	-0.149
-284.545	-78.715	0.419	-0.141
-283.530	-87.630	0.354	0.105
-282.516	-161.112	-0.305	-0.016
-281.501	800.000	-0.056	0.171
-280.486	86.974	0.230	0.250
-279.472	-118.238	0.106	-0.019
-278.457	800.000	0.042	0.125
-277.443	199.880	-0.060	0.090
-276.428	111.510	-0.322	0.383
-275.413	-200.000	0.019	-0.290
-274.399	-21.403	0.307	-0.185
-273.384	168.818	0.104	0.146
-272.370	703.297	-0.064	0.167
-271.355	55.187	0.083	-0.079
-270.340	-102.859	0.107	0.025
-269.326	655.097	0.030	0.076
-268.311	-200.000	-0.012	-0.238
-267.297	-56.266	0.260	-0.114
-266.282	-73.243	0.191	-0.069
-265.267	-127.428	0.144	-0.021
-264.253	-56.242	0.233	0.102
-263.238	-120.864	-0.287	-0.048
-262.224	162.665	0.069	0.095
-261.209	-159.675	-0.332	0.018
-260.195	585.524	-0.008	0.020
-259.180	-70.864	0.197	0.073
-258.165	-99.620	-0.221	0.055
-257.151	28.847	-0.091	0.076
-256.136	195.752	-0.165	-0.248
-255.122	-126.148	-0.181	0.027
-254.107	155.560	0.295	-0.400
-253.092	-67.884	-0.281	0.108
-252.078	371.712	-0.102	0.203
-251.063	-200.000	-0.009	-0.144
-250.049	320.552	-0.163	-0.305
-249.034	-48.471	-0.081	0.039
-248.019	-68.460	0.368	-0.140
-247.005	211.316	0.134	-0.207
-245.990	252.035	0.116	-0.195
-244.976	800.000	0.045	-0.147
-243.961	68.693	-0.244	-0.246
-242.946	-127.943	-0.592	-0.084
-241.932	165.632	-0.133	-0.185
-240.917	-62.936	0.220	-0.090
-239.903	-8.632	-0.182	-0.120
-238.888	741.612	-0.109	0.288
-237.873	82.645	-0.076	-0.082
-236.859	-200.000	-0.025	0.160
-235.844	36.039	-0.054	0.047
-234.830	800.000	-0.046	-0.145
-233.815	39.485	-0.086	0.076
-232.800	-200.000	-0.025	0.112
-231.786	-37.863	0.133	-0.070
-230.771	300.127	0.061	0.110
-229.757	-9.874	-0.168	0.110
-228.742	0.069	0.288	0.202
-227.727	-32.087	-0.216	-0.119
-226.713	-2.491	-0.324	-0.223
-225.698	-29.146	0.343	-0.193
-224.684	57.063	-0.173	-0.166
-223.669	-197.882	0.176	0.001
-222.655	-87.232	-0.184	0.055
-221.640	800.000	0.076	-0.264
-220.625	800.000	0.074	-0.225
-219.611	448.055	0.062	-0.134
-218.596	28.866	0.307	0.256
-217.582	11.843	-0.248	0.187
-216.567	800.000	-0.118	0.442
-215.552	290.559	-0.174	-0.310
-214.538	341.250	-0.039	-0.075
-213.523	65.419	-0.043	-0.043
-212.509	-17.417	0.186	0.115
-211.494	-107.769	-0.046	-0.010
-210.479	119.621	-0.041	0.049
-209.465	-9.656	-0.192	0.126
-208.450	406.536	0.201	0.416
-207.436	-200.000	-0.024	0.238
-206.421	-100.879	0.194	-0.047
-205.406	61.435	0.016	-0.016
-204.392	-73.675	-0.108	-0.039
-203.377	-147.479	-0.096	0.008
-202.363	-73.178	-0.370	0.133
-201.348	-61.856	0.076	-0.031
-200.333	-69.120	-0.211	-0.080
-199.319	-152.684	-0.197	-0.014
-198.304	616.074	0.025	0.061
-197.290	-200.000	-0.031	0.254
-196.275	207.276	0.054	0.083
-195.260	-148.082	-0.270	0.022
-194.246	800.000	-0.084	-0.241
-193.231	-131.527	0.069	0.009
-192.217	-38.401	0.185	0.096
-191.202	-84.283	0.243	0.075
-190.187	304.562	0.172	-0.314
-189.173	120.841	0.079	0.097
-188.158	9.159	0.208	-0.155
-187.144	800.000	-0.067	0.232
-186.129	-55.392	-0.117	0.052
-185.114	-129.838	0.134	0.018
-184.100	800.000	-0.073	-0.300
-183.085	-200.000	-0.015	0.170
-182.071	-200.000	-0.033	0.199
-181.056	-131.797	0.325	-0.042
-180.042	104.027	0.157	0.182
-179.027	-124.975	0.459	0.069
-178.012	-200.000	0.056	-0.402
-176.998	276.690	0.185	-0.323
-175.983	-200.000	-0.056	0.247
-174.969	-173.852	-0.061	-0.002
-173.954	-200.000	-0.004	0.310
-172.939	-60.398	-0.323	0.135
-171.925	691.882	0.126	-0.325
-170.910	-22.165	0.147	0.088
-169.896	-141.177	0.280	0.028
-168.881	332.627	-0.105	0.199
-167.866	800.000	-0.076	0.259
-166.852	167.503	-0.057	-0.079
-165.837	0.011	-0.059	-0.041
-164.823	582.358	-0.048	-0.117
-163.808	-200.000	0.001	-0.141
-162.793	-66.340	0.152	0.059
-161.779	800.000	0.157	-0.445
-160.764	362.120	0.070	0.138
-159.750	-147.067	0.400	-0.034
-158.735	22.778	-0.073	0.059
-157.720	-52.715	0.480	-0.217
-156.706	-160.345	-0.090	-0.005
-155.691	-20.749	-0.207	0.125
-154.677	32.213	0.216	0.182
-153.662	31.662	0.178	0.150
-152.647	-200.000	0.010	-0.193
-151.633	-167.611	0.187	-0.007
-150.618	-51.252	0.428	0.196
-149.604	-18.395	-0.398	-0.244
-148.589	800.000	-0.084	0.318
-147.574	-192.819	0.404	-0.004
-146.560	125.970	0.153	-0.189
-145.545	-117.381	0.320	0.057
-144.531	-200.000	0.040	0.377
-143.516	130.907	-0.131	0.165
-142.502	278.509	-0.122	-0.212
-141.487	405.846	0.056	0.116
-140.472	10.231	-0.106	0.079
-139.458	129.252	0.132	0.165
-138.443	247.559	0.142	0.236
-137.429	5.476	0.074	0.054
-136.414	-163.443	-0.277	0.013
-135.399	157.311	-0.052	0.070
-134.385	32.892	0.087	0.074
-133.370	96.630	0.040	-0.045
-132.356	-124.070	0.193	0.030
-131.341	-34.359	0.068	0.037
-130.326	800.000	-0.079	0.239
-129.312	145.822	0.148	0.195
-128.297	-127.312	0.155	-0.022
-127.283	-11.081	0.277	-0.179
-126.268	-17.033	0.245	0.152
-125.253	-121.148	0.455	-0.075
-124.239	800.000	0.045	-0.163
-123.224	-86.974	0.308	-0.092
-122.210	-34.148	-0.104	-0.056
-121.195	331.101	0.202	0.380
