DTS Sentinel unit serial number:	SN413079Multiplexer serial number:	ORYXHardware model number:	OX4-SRSoftware version number:	ORYX F/W v4.00 Oryx Data Collector v3.7.2.0data status	okinstallation	princeton_trtdifferential loss correction	single-endedforward channel	channel 2reverse channel	N/Adate	2019/09/15time	18:47:35forward acquisition time	60.00reverse acquisition time	0.00gamma	496.2192k internal	0.2289k external	0.2289temperature offset calibration	0.9921default loss term (dB/km)	0.3790temperature slope calibration	1.0000multiplexer offset coefficient	1.0000multiplexer slope coefficient	1.0000fibre end	0.00T internal ref (°C)	43.27T ext. ref 1 (°C)	6.90T ext. ref 2 (°C)	34.70length (m)	temperature (°C)	Stokes	anti-Stokes-747.200	-132.945	-0.228	-0.030
-746.185	299.266	-0.234	0.442
-745.171	-140.898	0.200	-0.021
-744.156	328.684	0.073	0.144
-743.142	646.436	0.084	0.220
-742.127	308.569	-0.133	0.255
-741.112	-84.546	-0.440	0.142
-740.098	800.000	-0.045	-0.150
-739.083	731.472	0.118	0.323
-738.069	301.117	0.128	0.243
-737.054	318.039	0.137	-0.265
-736.039	-56.661	-0.176	0.080
-735.025	-14.817	0.225	0.148
-734.010	183.626	0.138	0.209
-732.996	602.195	-0.084	-0.213
-731.981	739.331	0.025	-0.069
-730.966	-58.589	0.113	0.050
-729.952	44.465	-0.120	-0.113
-728.937	-53.840	-0.094	0.044
-727.923	-131.478	0.112	-0.015
-726.908	151.023	0.139	-0.193
-725.894	121.323	-0.290	-0.370
-724.879	-3.000	-0.266	0.190
-723.864	375.205	-0.046	-0.097
-722.850	-90.086	-0.308	0.092
-721.835	82.320	0.034	-0.038
-720.821	-200.000	-0.003	-0.058
-719.806	-65.101	-0.221	0.091
-718.791	503.442	-0.050	-0.119
-717.777	247.027	-0.093	0.160
-716.762	-80.539	-0.225	-0.077
-715.748	334.940	-0.033	-0.066
-714.733	59.687	-0.170	-0.172
-713.718	-16.437	0.105	0.068
-712.704	129.597	-0.209	-0.274
-711.689	-81.873	0.316	0.106
-710.675	64.949	-0.073	-0.076
-709.660	-88.828	0.439	-0.133
-708.645	57.129	-0.037	-0.037
-707.631	50.070	-0.100	-0.096
-706.616	43.480	0.093	-0.087
-705.602	-61.915	0.083	0.035
-704.587	529.590	-0.091	-0.220
-703.572	-33.583	-0.274	-0.155
-702.558	20.533	0.234	-0.194
-701.543	-46.681	0.167	-0.084
-700.529	-37.004	0.138	-0.076
-699.514	-58.765	-0.315	-0.139
-698.499	-11.959	0.173	0.116
-697.485	-154.911	0.385	-0.026
-696.470	-173.178	-0.160	0.005
-695.456	-25.662	-0.177	-0.107
-694.441	-108.719	-0.171	0.038
-693.426	-70.183	0.354	0.138
-692.412	-38.712	-0.222	0.120
-691.397	-153.710	-0.198	-0.014
-690.383	25.656	-0.216	0.184
-689.368	50.161	-0.319	-0.308
-688.354	-139.174	0.500	0.055
-687.339	-89.831	0.065	0.019
-686.324	-110.201	-0.330	0.070
-685.310	603.107	-0.050	0.127
-684.295	15.794	-0.171	-0.138
-683.281	74.852	0.067	-0.073
-682.266	-163.931	0.399	-0.019
-681.251	208.489	-0.179	-0.286
-680.237	-1.334	0.194	-0.140
-679.222	-200.000	-0.012	-0.217
-678.208	-123.305	0.160	-0.026
-677.193	-200.000	-0.021	-0.180
-676.178	800.000	-0.108	-0.318
-675.164	800.000	0.070	-0.261
-674.149	-74.563	0.154	-0.057
-673.135	225.361	-0.089	0.148
-672.120	-200.000	-0.033	-0.169
-671.105	800.000	0.038	-0.143
-670.091	-145.622	-0.292	-0.027
-669.076	352.732	-0.142	-0.288
-668.062	66.499	-0.120	0.124
-667.047	196.131	-0.236	-0.367
-666.032	-200.000	-0.049	0.237
-665.018	-83.759	0.076	-0.025
-664.003	-56.639	-0.100	0.045
-662.989	800.000	-0.066	0.287
-661.974	-188.859	-0.178	0.002
-660.959	1.815	-0.198	0.146
-659.945	-47.563	-0.207	0.103
-658.930	20.284	0.049	0.041
-657.916	75.778	-0.107	-0.116
-656.901	-200.000	0.015	0.114
-655.886	-200.000	-0.059	-0.303
-654.872	141.054	-0.154	-0.208
-653.857	51.177	0.146	0.142
-652.843	-131.092	-0.082	-0.011
-651.828	800.000	-0.065	0.244
-650.814	14.898	-0.334	-0.267
-649.799	386.174	-0.082	-0.174
-648.784	13.926	-0.273	0.217
-647.770	17.360	-0.247	-0.200
-646.755	800.000	0.038	0.126
-645.741	201.447	0.024	-0.037
-644.726	67.921	0.228	0.238
-643.711	-46.361	0.220	-0.111
-642.697	-53.822	-0.127	-0.059
-641.682	-4.808	-0.089	-0.063
-640.668	30.802	-0.168	0.147
-639.653	-200.000	-0.012	0.064
-638.638	-116.758	0.131	0.024
-637.624	270.280	-0.111	-0.200
-636.609	-88.037	0.058	-0.018
-635.595	-138.959	0.174	-0.019
-634.580	95.756	0.009	-0.010
-633.565	-124.588	0.298	0.047
-632.551	720.290	0.070	0.189
-631.536	-74.937	-0.400	0.146
-630.522	286.902	0.061	-0.112
-629.507	243.075	0.112	-0.191
-628.492	800.000	-0.067	-0.272
-627.478	-40.421	-0.074	0.039
-626.463	1.419	-0.053	-0.039
-625.449	-80.059	-0.146	0.050
-624.434	800.000	0.118	0.418
-623.419	141.889	0.136	0.184
-622.405	42.703	-0.160	-0.149
-621.390	-100.650	-0.149	-0.037
-620.376	30.583	-0.234	-0.204
-619.361	-130.980	-0.230	0.031
-618.346	-2.673	0.270	-0.192
-617.332	5.284	0.253	0.191
-616.317	-200.000	-0.044	-0.446
-615.303	-164.603	0.100	-0.005
-614.288	64.407	0.152	0.156
-613.273	110.106	0.165	-0.202
-612.259	-200.000	-0.015	-0.329
-611.244	800.000	-0.054	-0.241
-610.230	-66.282	-0.242	-0.098
-609.215	-43.442	0.171	-0.088
-608.201	-18.450	-0.324	0.206
-607.186	-200.000	-0.027	-0.291
-606.171	223.061	0.211	-0.346
-605.157	732.507	-0.027	-0.073
-604.142	15.435	0.175	-0.140
-603.128	-33.258	-0.107	-0.060
-602.113	132.954	0.188	-0.247
-601.098	345.023	0.132	0.265
-600.084	-41.592	0.180	-0.094
-599.069	-200.000	0.017	0.183
-598.055	660.179	-0.159	0.417
-597.040	136.469	0.071	-0.094
-596.025	-115.110	0.068	-0.013
-595.011	-85.610	-0.251	-0.079
-593.996	-200.000	0.060	-0.296
-592.982	7.968	0.095	-0.073
-591.967	-47.574	-0.137	0.068
-590.952	-61.203	-0.333	-0.143
-589.938	5.621	-0.132	0.099
-588.923	-7.040	-0.314	-0.217
-587.909	-59.710	-0.288	0.126
-586.894	-4.494	-0.030	0.021
-585.879	329.317	-0.171	-0.334
-584.865	-162.574	0.302	-0.015
-583.850	-152.209	0.278	0.020
-582.836	-36.622	-0.201	-0.110
-581.821	677.365	-0.009	-0.025
-580.806	154.187	-0.143	0.200
-579.792	-102.600	0.264	-0.064
-578.777	-200.000	-0.060	0.294
-577.763	198.619	0.073	0.114
-576.748	-141.276	0.194	-0.020
-575.733	-94.031	-0.220	-0.062
-574.719	17.166	0.186	-0.150
-573.704	-75.121	-0.320	-0.117
-572.690	345.110	0.128	-0.256
-571.675	37.365	0.170	0.154
-570.661	-45.639	-0.317	-0.160
-569.646	-200.000	-0.010	-0.144
-568.631	338.706	-0.068	0.136
-567.617	-42.129	0.050	0.026
-566.602	-76.585	0.064	-0.023
-565.588	-200.000	0.036	0.233
-564.573	-47.652	0.099	-0.049
-563.558	56.095	-0.107	0.106
-562.544	374.582	-0.112	-0.233
-561.529	-200.000	0.002	-0.218
-560.515	-192.748	0.237	0.002
-559.500	492.502	0.089	-0.207
-558.485	155.707	0.059	0.082
-557.471	48.403	0.186	-0.177
-556.456	35.257	-0.247	-0.220
-555.442	-137.075	0.145	-0.017
-554.427	800.000	0.072	-0.303
-553.412	19.276	-0.435	-0.355
-552.398	-200.000	0.043	0.344
-551.383	129.610	0.446	0.580
-550.369	-15.136	-0.092	0.060
-549.354	-159.615	0.237	0.013
-548.339	13.684	0.169	0.133
-547.325	15.705	-0.090	0.072
-546.310	324.330	-0.067	0.131
-545.296	-200.000	-0.025	0.151
-544.281	178.467	-0.112	-0.166
-543.266	12.169	-0.210	-0.165
-542.252	99.396	-0.114	0.134
-541.237	60.610	-0.065	0.066
-540.223	-148.605	-0.170	0.014
-539.208	-37.125	-0.456	-0.248
-538.193	-64.610	-0.155	-0.064
-537.179	117.528	0.059	0.074
-536.164	-200.000	0.008	-0.040
-535.150	-2.317	-0.138	0.099
-534.135	88.382	0.133	0.150
-533.121	800.000	-0.035	-0.151
-532.106	-200.000	0.013	-0.215
-531.091	-136.131	0.178	0.021
-530.077	43.204	0.157	-0.146
-529.062	-185.612	0.386	-0.006
-528.048	19.134	-0.198	-0.161
-527.033	-51.064	-0.303	-0.144
-526.018	30.736	-0.094	-0.082
-525.004	-200.000	0.028	-0.371
-523.989	-139.893	0.170	-0.018
-522.975	-0.850	-0.099	0.072
-521.960	791.033	-0.010	-0.027
-520.945	800.000	0.068	-0.226
-519.931	-132.900	0.053	-0.007
-518.916	59.865	0.130	-0.131
-517.902	-9.716	-0.050	-0.034
-516.887	768.782	-0.155	-0.428
-515.872	424.387	-0.142	-0.310
-514.858	319.272	-0.152	-0.292
-513.843	800.000	-0.030	0.088
-512.829	-200.000	-0.029	0.186
-511.814	34.222	0.033	0.029
-510.799	-57.459	-0.152	0.068
-509.785	-200.000	0.007	-0.213
-508.770	80.227	0.219	-0.239
-507.756	800.000	-0.048	-0.134
-506.741	-139.856	0.233	0.025
-505.726	-39.389	-0.213	-0.114
-504.712	-161.462	-0.227	-0.012
-503.697	-110.353	-0.074	0.016
-502.683	-37.926	-0.338	0.182
-501.668	-200.000	-0.094	0.434
-500.653	-169.614	-0.149	0.005
-499.639	160.937	0.104	0.147
-498.624	273.026	0.214	0.383
-497.610	-114.134	-0.120	-0.023
-496.595	-200.000	-0.026	-0.175
-495.581	-110.888	0.180	0.038
-494.566	-200.000	0.003	0.310
-493.551	-100.106	0.069	0.017
-492.537	-55.373	0.249	-0.113
-491.522	-200.000	-0.008	0.142
-490.508	44.127	-0.070	-0.065
-489.493	48.948	0.158	0.151
-488.478	355.991	-0.047	0.094
-487.464	-175.662	-0.423	-0.012
-486.449	234.176	-0.283	-0.473
-485.435	167.067	-0.205	-0.295
-484.420	369.797	-0.053	0.108
-483.405	-82.187	-0.073	0.024
-482.391	-185.869	-0.089	0.001
-481.376	800.000	-0.078	0.226
-480.362	-200.000	0.015	0.172
-479.347	-97.333	0.166	-0.044
-478.332	-200.000	0.051	-0.228
-477.318	65.107	0.236	-0.242
-476.303	-105.448	-0.319	0.074
-475.289	-62.322	0.151	0.064
-474.274	329.035	-0.066	-0.129
-473.259	-15.045	-0.201	0.130
-472.245	436.413	-0.085	-0.188
-471.230	19.813	-0.135	0.110
-470.216	-7.137	-0.108	0.074
-469.201	-75.960	0.248	0.089
-468.186	112.557	-0.078	-0.096
-467.172	-200.000	-0.063	0.303
-466.157	-48.246	0.266	0.130
-465.143	-126.682	-0.107	-0.016
-464.128	-53.248	0.071	-0.033
-463.113	100.230	0.089	0.105
-462.099	-18.653	-0.278	-0.176
-461.084	800.000	0.137	-0.413
-460.070	-15.876	0.155	-0.100
-459.055	102.518	0.030	-0.036
-458.040	-119.523	0.245	0.043
-457.026	-143.663	0.412	0.040
-456.011	-200.000	-0.043	0.320
-454.997	-200.000	-0.036	-0.272
-453.982	523.658	0.053	-0.127
-452.968	128.918	0.032	-0.041
-451.953	-200.000	-0.006	-0.143
-450.938	-200.000	0.062	-0.279
-449.924	41.199	0.231	-0.212
-448.909	-168.912	0.192	-0.007
-447.895	-174.345	0.192	-0.006
-446.880	684.327	0.125	-0.329
-445.865	225.149	0.044	-0.073
-444.851	-200.000	0.047	0.225
-443.836	800.000	-0.023	0.088
-442.822	3.430	-0.161	0.119
-441.807	-200.000	0.022	0.231
-440.792	-67.575	-0.238	-0.095
-439.778	-4.065	-0.124	-0.087
-438.763	-59.882	-0.395	0.171
-437.749	-175.792	0.175	-0.005
-436.734	-36.252	-0.403	0.220
-435.719	100.831	0.153	0.180
-434.705	-79.275	-0.222	0.076
-433.690	96.058	0.112	-0.130
-432.676	-42.527	-0.136	0.070
-431.661	-200.000	-0.052	0.442
-430.646	-66.566	-0.101	-0.040
-429.632	70.805	0.153	-0.161
-428.617	130.361	-0.069	0.089
-427.603	-200.000	0.000	0.184
-426.588	22.924	0.145	0.121
-425.573	11.746	0.165	0.128
-424.559	-28.396	0.335	-0.195
-423.544	-103.886	-0.216	-0.051
-422.530	670.720	0.026	-0.069
-421.515	800.000	-0.075	-0.276
-420.500	204.431	-0.083	0.130
-419.486	800.000	0.129	0.461
-418.471	42.943	0.089	0.082
-417.457	-79.942	-0.293	-0.100
-416.442	-200.000	0.060	0.376
-415.428	-113.468	0.165	0.033
-414.413	374.852	-0.111	0.228
-413.398	97.623	0.241	-0.281
-412.384	800.000	-0.017	-0.069
-411.369	514.121	-0.094	-0.223
-410.355	800.000	-0.042	0.130
-409.340	44.501	-0.073	-0.068
-408.325	163.042	0.147	-0.209
-407.311	448.435	-0.156	0.348
-406.296	-10.435	-0.098	-0.066
-405.282	131.431	-0.250	-0.326
-404.267	81.255	0.174	-0.190
-403.252	126.109	0.052	-0.066
-402.238	-158.487	-0.068	0.004
-401.223	1.490	-0.074	0.054
-400.209	-200.000	-0.035	0.156
-399.194	1.386	-0.078	-0.057
-398.179	129.738	-0.044	-0.057
-397.165	65.225	-0.195	0.200
-396.150	-89.982	-0.259	0.077
-395.136	-60.569	-0.068	0.029
-394.121	-200.000	-0.004	-0.160
-393.106	1.077	0.276	-0.200
-392.092	1.092	-0.178	0.129
-391.077	-200.000	-0.032	-0.251
-390.063	-11.184	-0.457	0.304
-389.048	800.000	-0.160	0.486
-388.033	0.237	-0.129	0.093
-387.019	-126.839	-0.136	-0.020
-386.004	319.152	-0.085	-0.163
-384.990	-77.803	0.286	-0.100
-383.975	172.784	0.124	-0.181
-382.960	-32.822	-0.123	-0.069
-381.946	800.000	0.058	-0.175
-380.931	-200.000	0.006	-0.031
-379.917	-108.599	-0.421	-0.091
-378.902	-59.579	-0.391	-0.169
-377.888	-200.000	0.002	0.089
-376.873	-200.000	-0.057	-0.505
-375.858	-200.000	0.003	-0.029
-374.844	168.219	0.222	-0.320
-373.829	800.000	-0.073	0.218
-372.815	-30.985	-0.279	0.159
-371.800	-200.000	0.009	0.052
-370.785	800.000	-0.067	0.190
-369.771	402.499	-0.071	-0.151
-368.756	12.158	-0.226	0.176
-367.742	-77.717	0.059	0.021
-366.727	-150.548	0.261	0.020
-365.712	-200.000	-0.031	0.155
-364.698	291.269	-0.153	0.282
-363.683	-95.492	-0.268	0.073
-362.669	188.650	-0.095	0.143
-361.654	753.207	-0.074	-0.202
-360.639	-200.000	0.012	0.126
-359.625	102.376	0.127	-0.149
-358.610	304.285	-0.212	0.398
-357.596	-47.403	0.420	0.206
-356.581	-135.876	-0.117	0.014
-355.566	-109.312	-0.116	0.025
-354.552	-77.365	0.249	-0.087
-353.537	313.353	0.116	0.220
-352.523	-44.534	-0.081	-0.041
-351.508	48.464	0.327	0.309
-350.493	800.000	0.079	0.240
-349.479	-148.724	0.315	0.026
-348.464	-200.000	0.002	0.285
-347.450	-83.887	-0.350	0.112
-346.435	-200.000	0.055	0.422
-345.420	-162.170	-0.284	0.014
-344.406	119.868	-0.078	-0.097
-343.391	282.632	-0.291	-0.527
-342.377	8.631	0.084	-0.064
-341.362	225.657	-0.045	0.074
-340.348	392.808	0.004	-0.008
-339.333	-200.000	0.009	0.383
-338.318	-1.731	0.114	0.081
-337.304	-108.727	0.103	0.022
-336.289	-21.416	-0.159	0.098
-335.275	16.403	0.043	0.035
-334.260	-86.935	0.136	-0.042
-333.245	-132.603	0.111	-0.014
-332.231	-44.464	0.413	-0.208
-331.216	-121.090	0.482	0.081
-330.202	-88.623	0.072	0.022
-329.187	-93.186	-0.356	-0.100
-328.172	36.762	0.195	0.174
-327.158	349.053	0.056	-0.112
-326.143	-162.014	-0.207	-0.011
-325.129	195.058	0.165	0.252
-324.114	-9.596	0.240	0.161
-323.099	338.399	0.126	0.247
-322.085	-118.634	0.155	0.028
-321.070	-200.000	-0.014	0.064
-320.056	-102.138	-0.171	-0.042
-319.041	-94.563	0.122	-0.033
-318.026	82.243	-0.051	-0.056
-317.012	-200.000	0.017	-0.081
-315.997	-20.397	0.046	-0.029
-314.983	-51.954	0.246	-0.115
-313.968	291.364	-0.121	0.221
-312.953	196.526	-0.128	-0.196
-311.939	800.000	0.041	-0.160
-310.924	-153.196	-0.252	0.018
-309.910	-13.897	-0.047	-0.031
-308.895	-66.144	0.080	0.032
-307.880	-200.000	0.032	-0.299
-306.866	-200.000	0.016	-0.122
-305.851	-200.000	0.018	0.149
-304.837	-41.305	0.198	0.103
-303.822	89.327	-0.184	-0.206
-302.807	22.833	0.246	0.203
-301.793	454.263	0.122	-0.273
-300.778	-200.000	0.064	0.310
-299.764	-130.874	0.184	0.025
-298.749	800.000	-0.058	0.196
-297.735	6.518	-0.340	0.254
-296.720	-165.471	-0.230	-0.010
-295.705	-200.000	0.029	-0.308
-294.691	800.000	0.064	-0.248
-293.676	-95.973	-0.311	-0.083
-292.662	-143.967	0.210	0.020
-291.647	800.000	0.035	0.098
-290.632	147.357	-0.188	0.254
-289.618	-200.000	0.004	0.274
-288.603	-27.192	-0.065	-0.038
-287.589	-141.422	-0.095	0.010
-286.574	-161.247	0.428	0.022
-285.559	304.088	0.084	0.157
-284.545	294.677	0.109	0.201
-283.530	-102.791	-0.182	-0.044
-282.516	800.000	-0.061	0.244
-281.501	-69.915	-0.243	-0.093
-280.486	800.000	0.077	-0.309
-279.472	-31.185	-0.013	-0.008
-278.457	-3.106	0.128	0.090
-277.443	800.000	0.122	0.358
-276.428	-154.231	-0.265	-0.018
-275.413	659.200	-0.065	-0.167
-274.399	-200.000	-0.012	0.109
-273.384	-32.717	-0.300	0.168
-272.370	800.000	-0.058	-0.180
-271.355	-84.435	-0.154	-0.049
-270.340	-27.992	-0.154	-0.089
-269.326	-82.042	-0.296	0.097
-268.311	245.005	-0.076	-0.129
-267.297	51.442	0.024	-0.023
-266.282	-200.000	-0.015	-0.183
-265.267	-200.000	0.021	-0.322
-264.253	-52.069	0.148	0.069
-263.238	-122.211	0.101	-0.017
-262.224	-13.398	0.066	0.043
-261.209	108.894	-0.396	0.476
-260.195	-200.000	0.038	0.435
-259.180	2.788	0.266	0.194
-258.165	-79.251	0.111	-0.038
-257.151	800.000	0.018	-0.063
-256.136	34.074	0.229	0.201
-255.122	52.474	0.370	0.355
-254.107	-4.138	-0.177	0.123
-253.092	-109.567	0.031	-0.007
-252.078	70.050	0.176	-0.183
-251.063	-159.920	0.307	-0.017
-250.049	172.035	-0.126	-0.182
-249.034	498.524	-0.068	0.157
-248.019	188.681	0.247	0.372
-247.005	-107.041	-0.124	-0.027
-245.990	-52.533	-0.061	-0.029
-244.976	429.014	0.069	0.151
-243.961	207.182	0.045	0.070
-242.946	21.715	0.145	0.118
-241.932	800.000	-0.045	-0.182
-240.917	67.857	0.160	-0.165
-239.903	158.145	0.182	-0.254
-238.888	288.060	-0.071	-0.129
-237.873	19.840	0.217	-0.175
-236.859	-23.496	0.172	0.104
-235.844	-88.538	-0.152	-0.046
-234.830	800.000	0.017	0.073
-233.815	-11.991	-0.211	0.139
-232.800	-200.000	0.029	0.237
-231.786	66.228	-0.150	0.153
-230.771	435.988	-0.161	0.353
-229.757	-85.234	-0.257	0.081
-228.742	28.706	-0.165	-0.140
-227.727	-200.000	0.040	0.229
-226.713	207.984	-0.152	0.239
-225.698	87.827	0.125	0.139
-224.684	23.352	0.108	0.089
-223.669	608.845	0.039	0.097
-222.655	161.916	-0.196	0.276
-221.640	11.605	0.191	0.147
-220.625	-200.000	0.012	0.106
-219.611	800.000	0.086	-0.243
-218.596	231.291	-0.197	-0.324
-217.582	248.664	0.087	0.149
-216.567	800.000	-0.080	0.329
-215.552	-153.483	0.155	0.011
-214.538	42.969	0.256	-0.235
-213.523	-49.398	0.170	0.082
-212.509	-200.000	0.002	-0.090
-211.494	800.000	0.045	0.124
-210.479	125.074	-0.019	-0.024
-209.465	48.007	-0.152	-0.142
-208.450	-116.910	0.288	0.053
-207.436	102.780	-0.341	0.400
-206.421	800.000	-0.051	-0.219
-205.406	-173.136	0.116	-0.004
-204.392	603.543	0.081	0.203
-203.377	131.804	-0.117	-0.151
-202.363	800.000	-0.070	0.216
-201.348	-200.000	-0.003	0.317
-200.333	-66.715	0.362	-0.144
-199.319	800.000	-0.048	-0.208
-198.304	19.112	0.124	-0.100
-197.290	-22.425	-0.106	0.065
-196.275	-200.000	0.037	-0.235
-195.260	-152.357	0.360	-0.026
-194.246	133.939	0.113	0.147
-193.231	-200.000	0.031	0.139
-192.217	144.695	0.044	-0.058
-191.202	385.891	0.047	0.097
-190.187	9.487	-0.157	-0.119
-189.173	-200.000	-0.002	0.283
-188.158	-200.000	0.037	-0.198
-187.144	-183.507	0.189	-0.003
-186.129	-46.625	0.098	-0.048
-185.114	-200.000	-0.005	0.030
-184.100	-200.000	0.009	0.129
-183.085	194.416	-0.159	0.241
-182.071	800.000	0.061	0.262
-181.056	-200.000	-0.010	-0.274
-180.042	800.000	-0.062	0.180
-179.027	272.966	0.163	-0.289
-178.012	-54.162	0.296	0.135
-176.998	-5.696	0.211	-0.145
-175.983	800.000	0.104	-0.387
-174.969	800.000	0.069	-0.250
-173.954	304.834	0.166	-0.309
-172.939	108.321	-0.151	0.181
-171.925	72.436	0.282	0.294
-170.910	-77.324	0.440	0.153
-169.896	2.377	0.187	0.135
-168.881	670.626	0.142	-0.368
-167.866	123.364	0.339	-0.426
-166.852	-200.000	-0.035	-0.377
-165.837	-200.000	0.069	0.486
-164.823	-57.097	0.402	0.178
-163.808	-160.291	0.173	-0.009
-162.793	-200.000	-0.028	-0.140
-161.779	322.936	0.164	-0.314
-160.764	-200.000	-0.020	0.156
-159.750	666.836	0.034	-0.088
-158.735	230.851	-0.115	-0.188
-157.720	800.000	-0.060	0.243
-156.706	662.493	0.109	-0.282
-155.691	800.000	-0.056	0.172
-154.677	227.077	-0.129	-0.210
-153.662	-200.000	-0.033	-0.346
-152.647	-200.000	-0.020	-0.178
-151.633	-192.748	-0.292	0.003
-150.618	58.107	0.207	0.203
-149.604	-199.305	-0.223	-0.001
-148.589	-129.423	0.358	0.050
-147.574	42.663	-0.255	-0.232
-146.560	-200.000	-0.040	-0.310
-145.545	-152.872	-0.245	0.017
-144.531	132.125	0.063	-0.082
-143.516	-50.727	0.008	-0.004
-142.502	113.171	0.124	0.150
-141.487	-12.600	0.132	0.086
-140.472	-114.128	0.454	0.088
-139.458	-200.000	-0.029	-0.230
-138.443	133.317	0.095	-0.123
-137.429	-200.000	-0.037	0.235
-136.414	43.411	0.084	0.077
-135.399	-69.451	0.170	0.065
-134.385	-200.000	-0.046	0.421
-133.370	431.272	-0.062	0.135
-132.356	-200.000	0.001	0.104
-131.341	800.000	-0.066	-0.261
-130.326	439.884	-0.093	0.204
-129.312	-1.769	-0.206	0.145
-128.297	315.502	0.027	-0.051
-127.283	-171.791	0.168	0.005
-126.268	485.987	-0.108	0.246
-125.253	-64.019	0.215	-0.088
-124.239	-200.000	-0.006	-0.032
-123.224	-17.041	-0.175	0.110
-122.210	-200.000	-0.001	0.415
-121.195	-95.266	-0.204	0.055
