DTS Sentinel unit serial number:	SN413079Multiplexer serial number:	ORYXHardware model number:	OX4-SRSoftware version number:	ORYX F/W v4.00 Oryx Data Collector v3.7.2.0data status	okinstallation	princeton_trtdifferential loss correction	single-endedforward channel	channel 2reverse channel	N/Adate	2019/09/13time	08:23:35forward acquisition time	60.00reverse acquisition time	0.00gamma	496.2192k internal	0.2333k external	0.2333temperature offset calibration	1.0191default loss term (dB/km)	0.3790temperature slope calibration	1.0000multiplexer offset coefficient	1.0000multiplexer slope coefficient	1.0000fibre end	0.00T internal ref (°C)	27.31T ext. ref 1 (°C)	4.27T ext. ref 2 (°C)	23.64length (m)	temperature (°C)	Stokes	anti-Stokes-747.200	-200.000	-0.128	0.637
-746.185	154.874	-0.078	-0.108
-745.171	627.576	-0.102	0.260
-744.156	-200.000	0.036	0.182
-743.142	167.045	-0.225	-0.320
-742.127	316.435	-0.131	0.249
-741.112	390.147	-0.123	0.257
-740.098	39.347	0.109	0.098
-739.083	-22.158	0.196	0.120
-738.069	-100.914	-0.160	-0.040
-737.054	34.942	-0.250	-0.220
-736.039	-42.422	-0.148	-0.076
-735.025	592.065	-0.066	-0.163
-734.010	197.868	-0.124	0.191
-732.996	3.152	0.156	0.114
-731.981	-95.311	-0.487	0.132
-730.966	-200.000	0.016	-0.198
-729.952	-55.440	0.133	-0.060
-728.937	-200.000	-0.047	-0.314
-727.923	625.884	0.039	-0.098
-726.908	57.919	-0.292	-0.287
-725.894	37.131	-0.355	-0.316
-724.879	-200.000	-0.027	-0.262
-723.864	46.221	-0.095	-0.088
-722.850	132.055	-0.135	-0.175
-721.835	-200.000	0.262	-0.001
-720.821	-121.252	0.254	0.043
-719.806	-162.981	0.151	0.007
-718.791	-200.000	-0.009	-0.200
-717.777	36.638	0.025	0.022
-716.762	86.350	-0.071	-0.078
-715.748	235.490	0.076	0.126
-714.733	200.774	0.081	0.126
-713.718	-200.000	0.005	0.191
-712.704	-108.839	-0.081	0.017
-711.689	94.579	-0.258	-0.295
-710.675	30.434	-0.133	-0.114
-709.660	-200.000	-0.082	0.466
-708.645	-44.274	-0.235	-0.118
-707.631	-82.658	0.149	-0.048
-706.616	614.068	-0.007	-0.017
-705.602	540.455	0.094	-0.224
-704.587	800.000	-0.079	-0.228
-703.572	224.785	0.088	0.142
-702.558	-54.264	-0.127	-0.058
-701.543	151.880	0.019	0.025
-700.529	-105.138	0.322	0.074
-699.514	132.091	0.117	-0.151
-698.499	-200.000	0.017	-0.124
-697.485	-137.909	-0.288	0.032
-696.470	48.841	-0.277	0.261
-695.456	-24.791	0.264	-0.158
-694.441	800.000	0.051	-0.167
-693.426	245.658	-0.114	0.192
-692.412	-133.599	0.181	0.023
-691.397	-47.875	0.252	-0.123
-690.383	-126.008	-0.304	0.046
-689.368	-50.588	0.096	-0.045
-688.354	36.454	-0.284	0.252
-687.339	95.670	-0.108	-0.123
-686.324	-84.839	-0.097	-0.031
-685.310	-46.317	0.173	-0.085
-684.295	800.000	-0.047	0.200
-683.281	-200.000	-0.011	-0.330
-682.266	341.710	-0.122	-0.240
-681.251	-75.994	0.218	0.077
-680.237	25.486	-0.028	0.024
-679.222	-40.445	-0.481	-0.251
-678.208	76.186	0.072	0.077
-677.193	58.600	-0.154	0.151
-676.178	-94.316	-0.321	0.088
-675.164	457.417	0.287	0.639
-674.149	139.593	0.147	0.195
-673.135	-200.000	-0.001	-0.491
-672.120	-200.000	0.047	0.241
-671.105	9.843	0.066	0.051
-670.091	-84.001	-0.342	-0.109
-669.076	-200.000	0.038	-0.224
-668.062	-44.960	0.077	0.038
-667.047	800.000	-0.103	-0.346
-666.032	-152.856	0.234	-0.017
-665.018	-154.542	-0.268	0.018
-664.003	-112.300	0.237	0.048
-662.989	-55.870	-0.258	0.115
-661.974	-200.000	0.101	0.535
-660.959	-101.701	0.349	0.085
-659.945	800.000	-0.033	-0.145
-658.930	-53.756	0.118	0.054
-657.916	-33.430	-0.251	-0.139
-656.901	800.000	-0.066	-0.184
-655.886	-189.825	0.107	0.001
-654.872	315.933	0.061	0.115
-653.857	-3.001	-0.220	0.154
-652.843	-200.000	-0.027	0.141
-651.828	21.412	0.269	0.219
-650.814	103.893	-0.132	0.155
-649.799	189.477	0.079	-0.118
-648.784	274.702	0.087	0.155
-647.770	-200.000	-0.245	0.001
-646.755	-130.861	-0.462	-0.062
-645.741	48.554	0.274	0.257
-644.726	499.882	0.057	0.131
-643.711	-78.340	-0.047	0.016
-642.697	-52.167	0.295	0.137
-641.682	-63.205	-0.229	0.094
-640.668	-139.486	0.368	0.039
-639.653	428.311	-0.179	0.387
-638.638	-200.000	-0.059	0.277
-637.624	-72.700	0.228	-0.084
-636.609	136.122	-0.108	-0.141
-635.595	-200.000	-0.005	0.069
-634.580	-170.996	0.273	0.009
-633.565	310.735	0.064	-0.120
-632.551	-3.303	-0.172	-0.120
-631.536	-52.234	0.144	-0.067
-630.522	-55.966	-0.118	-0.052
-629.507	628.347	-0.046	0.115
-628.492	16.094	-0.378	-0.298
-627.478	800.000	-0.116	-0.497
-626.463	118.715	-0.052	-0.065
-625.449	-136.882	-0.283	0.033
-624.434	63.204	-0.060	0.061
-623.419	-132.792	0.354	-0.045
-622.405	-101.169	0.196	-0.048
-621.390	56.795	-0.086	0.083
-620.376	187.012	-0.144	-0.215
-619.361	23.404	-0.308	-0.253
-618.346	-164.274	0.228	0.010
-617.332	800.000	0.077	-0.233
-616.317	135.306	-0.159	0.207
-615.303	-32.345	-0.427	0.238
-614.288	131.490	-0.318	-0.409
-613.273	-200.000	-0.032	-0.161
-612.259	1.418	0.131	-0.095
-611.244	10.511	-0.056	-0.043
-610.230	-200.000	-0.046	0.291
-609.215	-200.000	-0.033	0.152
-608.201	-92.196	0.204	0.058
-607.186	74.821	-0.179	-0.189
-606.171	-63.949	-0.125	0.051
-605.157	107.185	-0.042	0.050
-604.142	-50.366	-0.231	-0.109
-603.128	-200.000	-0.018	-0.089
-602.113	-133.796	-0.237	-0.029
-601.098	-123.713	0.094	-0.015
-600.084	-139.183	0.093	0.010
-599.069	-52.428	-0.206	0.095
-598.055	-200.000	0.074	0.537
-597.040	800.000	-0.037	-0.135
-596.025	3.721	-0.205	-0.150
-595.011	252.473	-0.146	-0.249
-593.996	-200.000	-0.015	0.246
-592.982	68.563	0.086	-0.088
-591.967	82.570	-0.190	0.206
-590.952	-39.829	-0.116	0.060
-589.938	776.385	0.080	-0.218
-588.923	28.638	-0.249	0.211
-587.909	-44.439	-0.139	-0.070
-586.894	-200.000	-0.006	-0.131
-585.879	87.804	-0.115	0.127
-584.865	76.736	0.144	-0.153
-583.850	-64.082	0.134	0.055
-582.836	-32.080	-0.216	-0.121
-581.821	-42.604	0.077	-0.039
-580.806	-66.820	0.206	0.081
-579.792	-39.041	0.025	0.013
-578.777	-200.000	-0.009	0.274
-577.763	-200.000	0.012	-0.130
-576.748	800.000	0.012	0.046
-575.733	27.205	0.076	-0.064
-574.719	375.369	0.026	-0.053
-573.704	721.615	-0.072	-0.191
-572.690	109.016	-0.192	-0.230
-571.675	-4.948	0.164	-0.113
-570.661	800.000	-0.041	-0.128
-569.646	414.218	0.126	0.269
-568.631	55.228	0.227	-0.219
-567.617	-140.960	0.162	0.017
-566.602	800.000	-0.068	-0.198
-565.588	95.292	-0.136	-0.154
-564.573	-147.810	0.233	-0.019
-563.558	163.063	0.070	-0.098
-562.544	-146.052	-0.245	0.022
-561.529	259.275	0.192	0.331
-560.515	418.835	0.044	0.093
-559.500	107.812	-0.185	0.220
-558.485	-182.477	0.317	0.006
-557.471	-19.942	0.082	0.051
-556.456	-147.991	0.107	-0.009
-555.442	164.282	0.050	-0.071
-554.427	-98.587	0.365	-0.093
-553.412	24.755	-0.362	-0.299
-552.398	742.287	0.062	0.167
-551.383	39.843	0.179	-0.160
-550.369	3.716	-0.122	0.089
-549.354	27.545	-0.073	-0.061
-548.339	368.645	0.097	0.196
-547.325	42.219	-0.079	0.072
-546.310	-200.000	0.006	0.085
-545.296	100.365	-0.237	-0.274
-544.281	-146.467	0.396	0.034
-543.266	800.000	-0.024	0.068
-542.252	-37.606	0.132	-0.070
-541.237	-70.311	0.113	0.043
-540.223	0.786	-0.055	-0.039
-539.208	-11.641	-0.306	-0.201
-538.193	-20.286	0.072	-0.044
-537.179	186.163	-0.217	-0.322
-536.164	-200.000	-0.038	-0.244
-535.150	97.381	0.074	-0.085
-534.135	-3.552	0.222	-0.154
-533.121	-200.000	0.030	0.197
-532.106	186.096	-0.067	0.099
-531.091	75.913	-0.210	0.222
-530.077	-106.429	0.085	0.019
-529.062	-35.564	-0.189	0.102
-528.048	-78.882	0.336	-0.114
-527.033	-200.000	-0.001	0.104
-526.018	-97.988	-0.285	-0.073
-525.004	48.710	0.295	-0.276
-523.989	800.000	-0.067	-0.289
-522.975	-175.954	0.204	-0.005
-521.960	4.835	-0.193	0.141
-520.945	-103.599	-0.088	-0.021
-519.931	313.163	0.024	0.044
-518.916	21.207	0.326	0.264
-517.902	25.353	-0.305	0.253
-516.887	-154.437	0.301	0.020
-515.872	-200.000	0.001	-0.134
-514.858	-9.495	-0.261	0.174
-513.843	-138.771	-0.385	-0.042
-512.829	800.000	0.040	-0.130
-511.814	351.255	0.111	-0.218
-510.799	-200.000	-0.039	-0.232
-509.785	-200.000	-0.005	-0.256
-508.770	-112.996	-0.222	-0.044
-507.756	-28.629	0.416	-0.239
-506.741	-200.000	0.059	0.424
-505.726	-112.460	0.214	0.043
-504.712	-187.647	-0.219	-0.003
-503.697	-45.631	-0.162	0.080
-502.683	-88.999	0.091	-0.027
-501.668	76.269	0.173	0.183
-500.653	410.266	-0.026	0.056
-499.639	-27.866	-0.210	0.121
-498.624	-200.000	0.232	0.001
-497.610	118.868	-0.100	-0.124
-496.595	90.622	0.076	0.085
-495.581	-200.000	-0.037	-0.220
-494.566	-96.909	0.224	0.058
-493.551	246.937	0.142	0.238
-492.537	37.734	0.057	0.050
-491.522	15.394	-0.134	-0.105
-490.508	-186.691	-0.110	-0.002
-489.493	229.490	0.256	-0.416
-488.478	800.000	0.059	-0.240
-487.464	-42.039	0.134	0.068
-486.449	800.000	-0.043	0.150
-485.435	125.264	0.112	-0.141
-484.420	-96.284	-0.181	0.048
-483.405	-200.000	-0.025	0.119
-482.391	720.231	0.030	-0.078
-481.376	-128.008	-0.177	0.025
-480.362	-74.211	0.255	-0.092
-479.347	303.151	-0.064	-0.119
-478.332	800.000	-0.012	-0.049
-477.318	210.815	0.122	0.190
-476.303	-56.238	0.090	-0.040
-475.289	800.000	-0.214	-0.596
-474.274	-20.730	-0.107	0.065
-473.259	213.941	-0.118	-0.186
-472.245	344.386	-0.146	-0.286
-471.230	-93.925	0.300	-0.082
-470.216	-90.520	0.295	0.085
-469.201	176.319	0.142	0.206
-468.186	2.558	0.202	0.146
-467.172	417.426	0.149	0.316
-466.157	-35.050	-0.161	0.087
-465.143	-9.919	-0.258	0.171
-464.128	-167.901	0.271	-0.011
-463.113	-143.317	0.234	0.022
-462.099	654.661	0.080	0.205
-461.084	-64.227	0.066	0.027
-460.070	238.611	-0.136	0.225
-459.055	-28.736	-0.153	0.088
-458.040	-120.892	-0.357	-0.060
-457.026	-143.256	0.235	0.022
-456.011	-109.262	-0.226	-0.048
-454.997	-130.445	0.386	0.052
-453.982	45.656	0.179	-0.165
-452.968	226.524	-0.082	-0.133
-451.953	32.960	0.046	-0.040
-450.938	298.981	-0.134	-0.246
-449.924	83.889	-0.039	0.042
-448.909	42.930	-0.483	-0.438
-447.895	498.100	-0.031	0.070
-446.880	-143.281	0.190	-0.018
-445.865	11.899	-0.168	0.128
-444.851	337.506	0.155	-0.299
-443.836	332.331	0.253	-0.485
-442.822	-80.187	-0.308	-0.103
-441.807	800.000	-0.026	0.113
-440.792	-18.074	-0.080	0.050
-439.778	-43.473	0.140	0.070
-438.763	-200.000	-0.016	0.209
-437.749	-98.539	0.036	0.009
-436.734	-23.468	-0.158	-0.094
-435.719	351.411	0.139	-0.273
-434.705	619.997	-0.085	-0.212
-433.690	-100.350	0.374	-0.092
-432.676	217.245	0.128	-0.202
-431.661	232.810	-0.148	-0.242
-430.646	-37.991	0.213	-0.113
-429.632	-200.000	-0.047	0.208
-428.617	362.869	0.200	0.399
-427.603	800.000	0.118	0.371
-426.588	51.655	0.083	0.078
-425.573	-61.065	0.161	-0.067
-424.559	-132.780	-0.141	-0.018
-423.544	-0.883	-0.359	0.252
-422.530	-83.480	-0.337	-0.107
-421.515	24.220	-0.154	0.126
-420.500	-66.461	0.161	-0.064
-419.486	-72.041	-0.262	0.097
-418.471	800.000	-0.064	0.202
-417.457	71.881	-0.161	0.166
-416.442	-109.566	0.222	-0.046
-415.428	-78.011	-0.282	-0.096
-414.413	457.221	-0.045	-0.099
-413.398	-200.000	0.041	0.251
-412.384	66.823	-0.224	-0.227
-411.369	-71.695	-0.393	0.146
-410.355	-121.517	-0.045	-0.007
-409.340	-119.919	-0.153	0.026
-408.325	-129.825	0.218	0.030
-407.311	-136.503	-0.242	-0.028
-406.296	-42.470	0.365	0.184
-405.282	-200.000	-0.060	0.338
-404.267	180.656	0.034	0.050
-403.252	351.333	0.079	-0.154
-402.238	78.114	0.220	0.233
-401.223	78.466	-0.311	-0.330
-400.209	-68.908	0.132	0.051
-399.194	276.913	0.135	-0.238
-398.179	-112.400	0.175	-0.035
-397.165	-200.000	0.008	0.148
-396.150	-127.561	-0.350	-0.050
-395.136	800.000	0.029	0.080
-394.121	181.534	-0.174	0.254
-393.106	-38.980	0.091	-0.047
-392.092	-60.112	-0.224	0.095
-391.077	800.000	-0.083	-0.286
-390.063	800.000	-0.051	-0.173
-389.048	-99.578	0.047	-0.012
-388.033	-138.292	-0.268	0.029
-387.019	-200.000	0.042	-0.213
-386.004	-96.478	-0.253	-0.066
-384.990	34.399	0.128	0.111
-383.975	51.451	0.246	0.231
-382.960	-200.000	0.004	-0.176
-381.946	256.850	0.013	-0.022
-380.931	-139.337	0.270	0.029
-379.917	-200.000	0.024	0.323
-378.902	72.782	-0.115	-0.119
-377.888	-111.943	-0.032	-0.006
-376.873	-100.684	0.190	-0.046
-375.858	-158.405	0.220	0.013
-374.844	-130.569	-0.232	-0.031
-373.829	-64.416	-0.148	-0.060
-372.815	-115.847	-0.055	0.010
-371.800	-200.000	0.061	0.289
-370.785	-200.000	-0.002	-0.093
-369.771	-200.000	0.048	-0.290
-368.756	-76.283	-0.349	0.122
-367.742	-200.000	-0.008	0.098
-366.727	77.190	-0.103	-0.109
-365.712	74.588	-0.174	0.182
-364.698	476.275	-0.037	0.082
-363.683	145.605	0.033	0.043
-362.669	583.773	0.113	-0.276
-361.654	-51.148	-0.284	0.132
-360.639	45.952	0.271	0.248
-359.625	-200.000	0.003	0.152
-358.610	8.020	-0.246	-0.183
-357.596	-179.831	-0.298	-0.006
-356.581	348.221	-0.039	-0.076
-355.566	74.257	-0.145	0.151
-354.552	119.959	-0.029	0.036
-353.537	-200.000	-0.045	-0.312
-352.523	463.848	0.034	0.074
-351.508	789.805	0.011	-0.030
-350.493	-60.279	0.135	0.057
-349.479	-149.786	0.143	-0.011
-348.464	73.492	-0.077	-0.080
-347.450	144.081	-0.109	0.144
-346.435	418.357	0.131	0.278
-345.420	-80.464	0.289	-0.096
-344.406	-65.695	0.084	0.033
-343.391	-200.000	0.013	-0.194
-342.377	-47.212	-0.040	-0.020
-341.362	-3.745	-0.189	-0.130
-340.348	-200.000	0.023	0.146
-339.333	221.820	0.058	-0.092
-338.318	174.278	0.100	0.144
-337.304	-18.522	-0.175	0.108
-336.289	51.649	0.167	0.157
-335.275	-200.000	-0.024	-0.149
-334.260	-19.722	-0.213	0.130
-333.245	800.000	0.090	0.293
-332.231	109.372	-0.115	-0.136
-331.216	460.429	-0.085	-0.188
-330.202	71.571	-0.178	0.183
-329.187	12.606	0.105	0.080
-328.172	-43.791	-0.190	-0.095
-327.158	800.000	0.051	0.192
-326.143	-113.551	-0.303	-0.059
-325.129	-24.373	0.097	0.057
-324.114	274.532	-0.134	-0.234
-323.099	-200.000	-0.013	-0.411
-322.085	-94.060	0.297	-0.081
-321.070	-43.128	0.517	0.259
-320.056	4.266	-0.232	-0.168
-319.041	-200.000	0.025	-0.207
-318.026	387.469	0.133	-0.273
-317.012	-101.873	-0.292	-0.070
-315.997	-169.100	-0.192	0.007
-314.983	-63.462	0.167	-0.068
-313.968	-46.099	0.103	-0.050
-312.953	-36.776	0.198	0.105
-311.939	-200.000	0.024	-0.113
-310.924	-43.766	-0.125	0.062
-309.910	278.034	-0.203	-0.357
-308.895	-131.002	-0.242	-0.032
-307.880	-200.000	-0.041	0.188
-306.866	-200.000	-0.159	0.699
-305.851	-12.248	-0.236	0.153
-304.837	-200.000	0.056	-0.334
-303.822	-176.422	0.095	-0.002
-302.807	-43.923	0.299	0.149
-301.793	446.590	-0.153	-0.333
-300.778	-200.000	-0.034	-0.385
-299.764	-200.000	-0.019	0.129
-298.749	-40.185	0.017	0.009
-297.735	-106.339	0.437	0.097
-296.720	-200.000	0.031	-0.223
-295.705	13.124	-0.145	-0.111
-294.691	-160.033	-0.132	-0.007
-293.676	82.978	0.041	-0.044
-292.662	-139.149	-0.096	0.010
-291.647	-200.000	-0.002	-0.328
-290.632	712.223	-0.049	-0.129
-289.618	-200.000	0.467	0.000
-288.603	-118.695	-0.064	0.011
-287.589	-130.495	-0.155	0.021
-286.574	147.496	0.135	0.179
-285.559	-62.936	0.137	0.056
-284.545	-105.183	-0.126	0.028
-283.530	214.494	-0.105	-0.164
-282.516	109.140	0.078	0.092
-281.501	-4.385	0.222	-0.151
-280.486	322.257	0.091	-0.172
-279.472	-113.073	0.192	-0.037
-278.457	-102.972	-0.166	0.039
-277.443	-200.000	-0.086	0.376
-276.428	650.852	-0.052	0.132
-275.413	-82.205	-0.173	0.056
-274.399	-44.418	-0.056	0.028
-273.384	-97.351	0.087	0.022
-272.370	160.179	0.179	-0.246
-271.355	800.000	0.091	0.359
-270.340	-200.000	-0.017	-0.135
-269.326	-200.000	0.009	-0.064
-268.311	54.669	-0.213	-0.203
-267.297	-200.000	-0.002	0.117
-266.282	-53.023	-0.078	-0.035
-265.267	28.237	0.234	0.195
-264.253	800.000	-0.020	-0.076
-263.238	800.000	0.030	0.104
-262.224	-82.221	-0.080	0.026
-261.209	-153.885	0.224	0.015
-260.195	114.548	0.130	-0.156
-259.180	11.256	0.385	-0.291
-258.165	-140.686	-0.182	0.019
-257.151	58.302	-0.026	0.025
-256.136	-64.312	-0.062	0.025
-255.122	-200.000	0.001	-0.081
-254.107	192.814	-0.107	0.160
-253.092	248.625	0.113	0.189
-252.078	267.752	0.207	-0.358
-251.063	95.584	-0.135	-0.152
-250.049	18.701	0.058	-0.046
-249.034	-200.000	0.008	-0.163
-248.019	-136.393	0.116	-0.013
-247.005	800.000	-0.057	-0.217
-245.990	-200.000	-0.067	0.292
-244.976	-200.000	-0.011	0.370
-243.961	-200.000	-0.032	0.366
-242.946	800.000	-0.046	0.149
-241.932	-27.676	0.138	-0.079
-240.917	-200.000	0.022	-0.136
-239.903	-86.316	-0.060	0.018
-238.888	-140.738	-0.374	-0.038
-237.873	97.470	0.164	-0.186
-236.859	800.000	-0.035	-0.115
-235.844	-144.900	-0.154	-0.014
-234.830	-200.000	-0.042	0.242
-233.815	-6.960	0.209	0.140
-232.800	-200.000	-0.042	-0.296
-231.786	800.000	0.049	-0.197
-230.771	-6.879	-0.191	-0.128
-229.757	-200.000	0.019	0.148
-228.742	-96.755	0.068	-0.018
-227.727	5.594	0.189	0.138
-226.713	-102.104	0.162	0.038
-225.698	-12.615	-0.229	0.147
-224.684	-47.535	0.130	0.062
-223.669	157.396	-0.030	0.041
-222.655	-73.372	0.219	-0.079
-221.640	-200.000	0.026	0.209
-220.625	-149.109	0.446	-0.035
-219.611	399.435	0.119	-0.246
-218.596	-12.215	0.312	0.201
-217.582	800.000	-0.122	0.334
-216.567	800.000	-0.033	0.096
-215.552	71.520	-0.139	0.142
-214.538	-4.718	-0.246	0.167
-213.523	-81.251	-0.278	0.090
-212.509	-20.626	0.228	0.138
-211.494	-37.375	0.164	0.086
-210.479	114.997	-0.189	-0.227
-209.465	-158.183	-0.193	-0.011
-208.450	-200.000	-0.001	0.013
-207.436	21.199	-0.250	0.200
-206.421	368.758	0.141	-0.281
-205.406	-200.000	-0.013	0.153
-204.392	-110.954	-0.044	-0.009
-203.377	11.318	-0.034	-0.026
-202.363	339.552	-0.118	0.226
-201.348	37.322	0.263	0.229
-200.333	-200.000	-0.041	0.196
-199.319	-74.464	-0.196	-0.069
-198.304	255.535	-0.067	0.114
-197.290	-124.848	-0.081	0.012
-196.275	-200.000	-0.004	-0.148
-195.260	1.093	-0.130	0.092
-194.246	-32.750	-0.158	0.087
-193.231	519.920	0.186	0.430
-192.217	136.167	0.172	0.220
-191.202	800.000	0.033	0.128
-190.187	-15.073	0.271	-0.171
-189.173	-32.060	0.180	-0.099
-188.158	184.239	0.062	0.090
-187.144	-55.559	-0.141	-0.062
-186.129	35.938	0.190	-0.165
-185.114	-129.810	0.203	-0.027
-184.100	14.850	-0.411	0.316
-183.085	91.445	-0.261	-0.288
-182.071	-30.166	-0.119	0.066
-181.056	-200.000	0.010	0.172
-180.042	182.350	0.272	-0.395
-179.027	4.239	0.104	0.075
-178.012	65.539	0.185	-0.185
-176.998	10.464	-0.072	0.054
-175.983	-118.556	-0.310	0.054
-174.969	306.568	0.157	0.288
-173.954	-136.577	0.458	-0.052
-172.939	145.230	-0.129	-0.170
-171.925	90.350	0.046	-0.050
-170.910	-200.000	0.021	0.340
-169.896	800.000	-0.077	-0.226
-168.881	-144.084	-0.114	-0.011
-167.866	39.607	0.248	0.219
-166.852	-200.000	0.011	0.053
-165.837	-200.000	-0.032	-0.205
-164.823	800.000	-0.038	0.142
-163.808	-72.951	0.144	0.052
-162.793	-23.749	0.222	0.131
-161.779	-60.696	0.394	0.164
-160.764	-54.323	0.205	0.091
-159.750	187.042	0.031	0.046
-158.735	-124.813	0.244	-0.037
-157.720	-135.428	-0.208	-0.024
-156.706	-117.070	0.330	-0.059
-155.691	100.177	-0.080	0.091
-154.677	12.490	0.275	0.209
-153.662	780.852	-0.036	0.096
-152.647	-64.658	-0.126	0.050
-151.633	107.499	0.072	0.084
-150.618	800.000	0.041	-0.152
-149.604	83.175	0.132	0.142
-148.589	800.000	0.034	-0.095
-147.574	138.431	0.045	0.058
-146.560	177.436	0.294	0.421
-145.545	-63.626	-0.051	-0.021
-144.531	-176.602	0.202	0.005
-143.516	87.573	-0.123	0.133
-142.502	155.093	-0.066	0.089
-141.487	-125.139	0.356	-0.054
-140.472	335.776	-0.128	-0.244
-139.458	434.998	0.077	-0.164
-138.443	5.722	-0.155	0.112
-137.429	-118.057	-0.273	0.048
-136.414	172.551	-0.182	0.257
-135.399	101.443	0.240	0.275
-134.385	-200.000	0.002	-0.105
-133.370	100.090	-0.171	0.194
-132.356	-101.999	0.128	0.030
-131.341	165.948	-0.138	-0.192
-130.326	26.832	-0.161	0.132
-129.312	800.000	0.027	0.087
-128.297	-200.000	-0.031	0.146
-127.283	253.957	0.106	-0.178
-126.268	31.829	-0.170	-0.144
-125.253	-78.156	-0.099	0.033
-124.239	800.000	-0.105	0.320
-123.224	-73.857	0.266	0.095
-122.210	800.000	-0.104	0.326
-121.195	-111.165	0.103	-0.021
