DTS Sentinel unit serial number:	SN413079Multiplexer serial number:	ORYXHardware model number:	OX4-SRSoftware version number:	ORYX F/W v4.00 Oryx Data Collector v3.7.2.0data status	okinstallation	princeton_trtdifferential loss correction	single-endedforward channel	channel 2reverse channel	N/Adate	2019/09/12time	19:40:49forward acquisition time	15.00reverse acquisition time	0.00gamma	496.2192k internal	0.2326k external	0.2326temperature offset calibration	1.0157default loss term (dB/km)	0.3790temperature slope calibration	1.0000multiplexer offset coefficient	1.0000multiplexer slope coefficient	1.0000fibre end	0.00T internal ref (°C)	32.06T ext. ref 1 (°C)	3.39T ext. ref 2 (°C)	26.64length (m)	temperature (°C)	Stokes	anti-Stokes-747.200	219.674	0.217	-0.351
-746.185	-159.171	0.409	-0.023
-745.171	173.102	0.479	-0.696
-744.156	-200.000	0.025	-0.125
-743.142	369.110	0.105	0.214
-742.127	184.884	-0.079	0.119
-741.112	-97.754	0.768	-0.200
-740.098	366.835	0.133	0.270
-739.083	-41.683	0.406	0.210
-738.069	-200.000	0.112	-1.150
-737.054	285.587	-0.063	0.115
-736.039	-102.942	0.199	0.048
-735.025	800.000	-0.104	0.407
-734.010	800.000	-0.099	0.333
-732.996	92.754	0.205	0.233
-731.981	261.424	0.308	0.537
-730.966	-85.659	-0.232	-0.073
-729.952	800.000	0.140	0.454
-728.937	-200.000	0.002	-0.178
-727.923	102.854	0.342	-0.404
-726.908	-61.471	-0.313	-0.133
-725.894	-189.753	0.822	-0.009
-724.879	7.680	0.403	-0.304
-723.864	26.718	0.037	-0.031
-722.850	-134.308	-0.493	-0.061
-721.835	-108.369	1.294	0.281
-720.821	2.574	0.149	-0.109
-719.806	-34.262	-0.312	-0.172
-718.791	137.355	-0.471	0.621
-717.777	-16.610	0.380	-0.243
-716.762	-200.000	0.028	-0.705
-715.748	471.137	-0.098	0.221
-714.733	469.600	-0.450	-1.018
-713.718	800.000	0.154	-0.514
-712.704	800.000	0.142	-0.432
-711.689	-11.713	0.222	-0.147
-710.675	182.130	0.481	-0.713
-709.660	60.959	-0.323	-0.323
-708.645	800.000	0.265	0.883
-707.631	-200.000	0.009	-0.634
-706.616	20.873	0.522	-0.426
-705.602	-57.663	0.518	-0.229
-704.587	-8.682	0.624	-0.422
-703.572	-21.251	0.918	-0.565
-702.558	123.033	0.399	0.503
-701.543	-113.283	0.417	0.083
-700.529	-85.320	-0.198	0.062
-699.514	481.382	-0.126	0.287
-698.499	746.608	-0.044	0.119
-697.485	800.000	0.057	-0.175
-696.470	-6.372	0.406	0.279
-695.456	-80.056	-0.667	-0.225
-694.441	-55.019	-0.681	0.309
-693.426	-102.158	0.549	0.133
-692.412	-56.663	0.443	-0.198
-691.397	322.148	0.068	-0.131
-690.383	-69.098	0.347	0.134
-689.368	78.006	0.296	-0.318
-688.354	800.000	-0.067	-0.268
-687.339	-106.972	-0.403	0.090
-686.324	800.000	0.063	-0.245
-685.310	800.000	-0.211	-0.896
-684.295	-200.000	0.012	0.272
-683.281	17.442	1.150	-0.919
-682.266	-109.682	0.873	0.185
-681.251	94.999	0.204	0.233
-680.237	-83.190	0.797	-0.258
-679.222	-72.766	-0.297	-0.110
-678.208	338.436	0.310	0.607
-677.193	800.000	-0.257	-0.797
-676.178	-200.000	-0.022	0.125
-675.164	-15.265	-0.545	-0.351
-674.149	781.082	0.240	-0.659
-673.135	598.145	0.421	-1.049
-672.120	-7.434	-0.378	0.257
-671.105	-32.974	-0.269	0.150
-670.091	693.222	-0.319	0.841
-669.076	-75.232	0.262	-0.094
-668.062	25.340	0.914	0.764
-667.047	135.020	0.103	0.134
-666.032	-30.176	0.401	-0.229
-665.018	-4.976	-0.183	-0.127
-664.003	141.468	0.168	0.224
-662.989	-144.733	-0.629	0.058
-661.974	-200.000	-0.032	-0.339
-660.959	-151.977	0.800	0.059
-659.945	26.972	0.515	0.434
-658.930	-80.948	0.447	-0.149
-657.916	-111.580	-0.109	-0.022
-656.901	-57.931	0.548	0.241
-655.886	-188.513	0.586	-0.007
-654.872	126.136	-0.075	0.095
-653.857	49.631	0.314	-0.297
-652.843	111.455	0.724	-0.877
-651.828	52.679	0.553	0.531
-650.814	-125.399	0.183	-0.028
-649.799	136.207	0.887	1.162
-648.784	-200.000	0.048	0.611
-647.770	263.001	-0.288	0.502
-646.755	800.000	-0.126	-0.387
-645.741	413.304	-0.062	-0.133
-644.726	658.531	0.234	0.606
-643.711	800.000	-0.170	-0.529
-642.697	77.406	-0.399	-0.426
-641.682	152.681	0.299	0.411
-640.668	-123.710	1.097	0.174
-639.653	800.000	0.203	-0.827
-638.638	-138.377	-0.069	0.008
-637.624	800.000	0.130	-0.370
-636.609	-200.000	0.047	0.342
-635.595	175.700	0.399	-0.581
-634.580	-176.277	-0.628	0.016
-633.565	-89.623	0.234	0.069
-632.551	224.711	0.503	0.817
-631.536	593.478	0.022	-0.056
-630.522	-4.326	-0.676	0.470
-629.507	-43.654	-0.438	0.221
-628.492	-103.398	-0.286	-0.068
-627.478	-98.477	-0.029	0.007
-626.463	800.000	-0.150	-0.625
-625.449	-27.502	-1.023	0.597
-624.434	-200.000	-0.004	0.603
-623.419	-200.000	-0.005	0.073
-622.405	-200.000	-0.035	0.421
-621.390	159.082	-0.086	-0.121
-620.376	10.876	-0.395	-0.303
-619.361	-92.546	0.396	-0.112
-618.346	800.000	-0.100	-0.395
-617.332	800.000	-0.146	-0.609
-616.317	-200.000	0.015	0.197
-615.303	-91.092	-0.359	0.104
-614.288	688.985	-0.340	0.893
-613.273	793.849	-0.100	-0.276
-612.259	62.921	-0.634	0.637
-611.244	-10.327	0.966	-0.643
-610.230	800.000	0.110	-0.427
-609.215	800.000	0.149	-0.588
-608.201	83.690	0.530	-0.580
-607.186	-93.336	0.824	-0.229
-606.171	70.683	-0.782	-0.811
-605.157	-200.000	-0.021	-0.783
-604.142	167.086	0.445	0.633
-603.128	-200.000	0.077	0.612
-602.113	-5.959	0.686	0.471
-601.098	214.225	-0.284	0.451
-600.084	-119.648	-0.239	0.041
-599.069	-200.000	-0.140	-1.007
-598.055	800.000	0.176	-0.563
-597.040	-106.865	0.463	0.103
-596.025	800.000	-0.164	-0.498
-595.011	-200.000	0.429	-0.002
-593.996	187.274	-0.169	0.253
-592.982	205.744	-0.457	0.712
-591.967	62.734	0.287	-0.288
-590.952	-181.036	0.809	0.016
-589.938	65.681	-0.776	-0.788
-588.923	35.270	0.515	-0.452
-587.909	-200.000	-0.049	-0.477
-586.894	-35.266	0.162	0.088
-585.879	393.858	0.206	0.431
-584.865	-112.983	-0.470	0.093
-583.850	-90.492	-0.422	0.122
-582.836	-89.484	-1.020	0.301
-581.821	-46.767	-0.659	-0.323
-580.806	199.314	0.019	0.030
-579.792	-200.000	-0.009	-0.267
-578.777	101.955	-0.298	-0.348
-577.763	328.080	-0.182	-0.351
-576.748	55.191	-0.635	0.615
-575.733	-37.641	-0.647	-0.345
-574.719	-62.321	0.665	0.277
-573.704	-142.951	0.112	0.011
-572.690	-200.000	0.037	1.069
-571.675	25.990	-0.357	-0.298
-570.661	-23.829	-0.205	-0.123
-569.646	-200.000	0.027	0.129
-568.631	-200.000	0.003	0.433
-567.617	-139.616	-1.206	0.129
-566.602	445.661	-0.108	-0.238
-565.588	59.876	-0.725	0.717
-564.573	234.774	-0.170	0.281
-563.558	-37.101	0.783	-0.420
-562.544	-7.396	0.337	0.229
-561.529	-48.496	-0.817	-0.394
-560.515	800.000	-0.051	0.143
-559.500	13.276	-0.540	0.419
-558.485	453.388	-0.210	-0.464
-557.471	-49.294	-0.342	-0.163
-556.456	-89.793	0.256	0.075
-555.442	489.431	0.219	-0.501
-554.427	-33.578	-0.351	-0.194
-553.412	-200.000	0.096	-0.545
-552.398	600.745	0.300	-0.746
-551.383	800.000	0.222	0.624
-550.369	248.323	-0.307	0.519
-549.354	800.000	-0.318	-1.156
-548.339	-19.276	-0.616	-0.383
-547.325	-166.239	-0.574	-0.024
-546.310	281.606	-0.102	-0.183
-545.296	-200.000	-0.034	0.261
-544.281	-106.386	0.526	-0.118
-543.266	37.438	0.686	-0.609
-542.252	800.000	-0.136	-0.465
-541.237	-64.768	0.432	0.175
-540.223	-200.000	0.021	0.206
-539.208	234.197	-0.181	0.299
-538.193	-115.963	0.337	0.063
-537.179	-79.705	0.587	0.198
-536.164	-200.000	-0.006	0.197
-535.150	-46.603	-0.224	0.110
-534.135	-176.460	-0.736	0.019
-533.121	-81.737	-0.597	-0.196
-532.106	38.456	0.435	0.388
-531.091	800.000	-0.058	0.181
-530.077	127.456	0.408	-0.518
-529.062	-200.000	-0.024	0.246
-528.048	-45.111	-0.625	-0.311
-527.033	-105.713	0.147	0.033
-526.018	263.773	-0.383	0.666
-525.004	391.876	0.232	-0.482
-523.989	800.000	-0.136	-0.425
-522.975	-109.465	0.539	-0.114
-521.960	85.344	0.580	0.637
-520.945	-83.574	0.652	-0.208
-519.931	-121.828	-0.863	-0.142
-518.916	-52.836	-1.063	-0.490
-517.902	-200.000	0.126	0.568
-516.887	-58.845	0.264	0.114
-515.872	-134.876	-0.834	-0.101
-514.858	-24.128	0.096	-0.057
-513.843	-200.000	0.077	0.419
-512.829	800.000	0.155	-0.489
-511.814	5.292	0.273	0.201
-510.799	-200.000	0.012	-0.378
-509.785	800.000	0.142	0.504
-508.770	-200.000	-0.165	0.792
-507.756	-200.000	-0.009	-0.301
-506.741	-33.459	-0.718	-0.397
-505.726	358.031	0.098	-0.195
-504.712	-120.594	0.826	-0.140
-503.697	11.341	-0.095	0.073
-502.683	88.524	0.368	0.408
-501.668	236.279	-0.091	0.151
-500.653	429.390	-0.191	-0.412
-499.639	779.952	-0.244	-0.668
-498.624	-119.888	0.865	0.149
-497.610	-61.088	0.712	-0.300
-496.595	61.820	-0.278	0.276
-495.581	120.985	-0.428	-0.532
-494.566	-3.964	-0.303	-0.210
-493.551	-33.580	0.429	-0.237
-492.537	262.210	-0.093	0.161
-491.522	7.205	-0.252	0.188
-490.508	-101.482	0.947	-0.230
-489.493	250.343	0.591	1.002
-488.478	24.090	-0.385	-0.317
-487.464	97.780	-0.210	0.241
-486.449	800.000	-0.233	0.670
-485.435	-54.871	-0.717	-0.323
-484.420	153.237	-0.150	-0.205
-483.405	223.887	0.069	-0.112
-482.391	89.264	0.573	0.638
-481.376	-32.447	-0.267	-0.149
-480.362	-89.446	0.149	0.044
-479.347	77.028	-0.192	0.203
-478.332	13.214	-0.193	-0.149
-477.318	800.000	0.181	-0.522
-476.303	-123.596	0.286	-0.045
-475.289	82.774	0.459	-0.498
-474.274	800.000	-0.060	0.254
-473.259	182.697	-0.195	0.287
-472.245	-122.364	-0.382	-0.062
-471.230	-133.060	0.808	-0.102
-470.216	542.807	-0.218	0.518
-469.201	400.806	0.085	-0.177
-468.186	-200.000	0.056	-0.733
-467.172	238.134	0.464	0.768
-466.157	800.000	-0.109	0.408
-465.143	750.683	0.163	-0.439
-464.128	772.551	-0.046	-0.126
-463.113	-81.041	0.433	0.143
-462.099	800.000	-0.082	0.277
-461.084	-18.732	-0.471	-0.293
-460.070	-51.071	0.561	-0.263
-459.055	-200.000	-0.020	0.127
-458.040	0.841	-0.364	0.260
-457.026	542.028	-0.203	0.482
-456.011	41.409	0.291	0.262
-454.997	-71.406	-0.336	-0.125
-453.982	336.493	0.474	0.917
-452.968	800.000	0.226	0.799
-451.953	19.313	-0.405	-0.325
-450.938	800.000	-0.199	0.636
-449.924	51.253	-0.140	0.133
-448.909	-163.281	0.294	0.014
-447.895	800.000	-0.201	-0.643
-446.880	-5.121	-0.391	-0.268
-445.865	364.438	0.285	0.572
-444.851	156.980	0.540	0.744
-443.836	26.520	0.431	0.359
-442.822	800.000	-0.068	0.230
-441.807	-106.707	0.292	0.065
-440.792	-111.655	0.546	0.110
-439.778	-200.000	0.167	1.145
-438.763	800.000	0.256	0.780
-437.749	115.331	0.553	0.673
-436.734	522.245	0.308	0.722
-435.719	160.983	0.189	0.263
-434.705	135.738	0.807	-1.046
-433.690	-98.731	-1.049	0.266
-432.676	-200.000	0.064	-0.000
-431.661	173.204	0.232	0.333
-430.646	-121.140	-0.590	-0.098
-429.632	50.749	0.189	0.178
-428.617	24.768	0.552	0.456
-427.603	-13.853	0.882	-0.568
-426.588	800.000	-0.106	0.386
-425.573	-200.000	0.014	-0.154
-424.559	-200.000	0.192	-0.906
-423.544	17.804	0.349	-0.277
-422.530	-51.132	-0.926	0.432
-421.515	159.027	0.326	0.451
-420.500	-200.000	-0.046	1.268
-419.486	-57.206	0.902	0.396
-418.471	800.000	0.197	0.543
-417.457	-20.487	-0.130	-0.079
-416.442	-21.933	-0.840	-0.509
-415.428	359.267	0.194	-0.387
-414.413	-36.086	0.451	-0.243
-413.398	280.762	0.369	-0.657
-412.384	-13.198	-0.631	0.408
-411.369	-79.758	-0.457	-0.153
-410.355	-200.000	0.089	-0.693
-409.340	-51.227	0.708	-0.330
-408.325	322.739	-0.418	-0.793
-407.311	-200.000	0.046	-0.662
-406.296	307.804	-0.187	-0.347
-405.282	-39.036	0.505	0.264
-404.267	77.495	-0.404	0.428
-403.252	0.725	-0.769	-0.548
-402.238	541.445	-0.136	-0.323
-401.223	323.769	0.448	-0.851
-400.209	59.560	0.242	-0.238
-399.194	145.833	0.350	-0.467
-398.179	-30.409	-0.651	0.367
-397.165	800.000	0.054	0.221
-396.150	12.676	0.211	0.162
-395.136	192.395	0.296	0.445
-394.121	-77.244	-0.714	-0.247
-393.106	461.827	0.119	0.265
-392.092	35.821	0.291	0.255
-391.077	611.620	0.191	-0.476
-390.063	-164.259	-0.368	0.017
-389.048	-104.537	1.080	-0.248
-388.033	800.000	0.166	-0.607
-387.019	108.148	-0.314	0.372
-386.004	30.098	0.491	0.416
-384.990	-200.000	0.043	-0.460
-383.975	-125.769	0.509	-0.077
-382.960	-200.000	-0.097	0.758
-381.946	-200.000	-0.016	0.686
-380.931	115.331	0.295	-0.358
-379.917	-145.576	0.802	0.071
-378.902	-46.748	-0.873	0.425
-377.888	-200.000	-0.029	0.158
-376.873	69.697	-0.401	-0.410
-375.858	140.905	-0.041	0.054
-374.844	321.543	-0.283	0.536
-373.829	-153.882	-1.004	0.068
-372.815	63.041	-0.213	0.212
-371.800	196.927	-0.303	-0.459
-370.785	-65.036	-0.844	0.339
-369.771	-102.304	-0.671	-0.160
-368.756	-54.762	0.294	0.132
-367.742	22.381	0.078	0.063
-366.727	-200.000	-0.120	-0.950
-365.712	-10.528	-1.253	-0.825
-364.698	-200.000	-0.130	-0.604
-363.683	86.374	-0.174	0.191
-362.669	582.153	0.091	0.222
-361.654	-182.324	0.700	0.013
-360.639	14.271	-1.309	-1.014
-359.625	56.756	0.527	0.510
-358.610	54.567	-0.795	0.761
-357.596	133.076	-0.180	-0.231
-356.581	31.016	-0.114	0.097
-355.566	-154.937	0.415	-0.027
-354.552	0.195	0.284	0.201
-353.537	-181.826	-0.621	0.012
-352.523	-90.308	0.807	-0.233
-351.508	86.085	0.189	0.206
-350.493	-76.890	-0.450	-0.156
-349.479	156.811	-0.275	0.377
-348.464	-105.806	0.961	-0.216
-347.450	-200.000	0.121	0.928
-346.435	109.203	-0.288	0.342
-345.420	-104.758	0.260	0.059
-344.406	-200.000	-0.070	0.821
-343.391	31.350	-0.176	0.150
-342.377	671.282	-0.091	0.234
-341.362	82.230	0.154	-0.166
-340.348	800.000	0.108	0.364
-339.333	-125.617	-0.863	0.130
-338.318	-150.259	0.164	0.013
-337.304	-200.000	-0.141	0.691
-336.289	-96.700	-0.473	0.124
-335.275	-21.456	0.049	-0.029
-334.260	-200.000	-0.235	-1.207
-333.245	800.000	-0.195	-0.580
-332.231	52.030	-0.521	-0.493
-331.216	467.289	0.403	0.898
-330.202	800.000	-0.084	-0.232
-329.187	117.710	-0.325	-0.397
-328.172	-157.886	-0.702	-0.041
-327.158	-200.000	-0.044	0.811
-326.143	-95.447	0.536	-0.143
-325.129	-48.763	0.682	0.325
-324.114	-118.525	1.118	0.196
-323.099	-139.412	0.631	-0.067
-322.085	-151.429	0.334	0.025
-321.070	-71.300	0.617	-0.229
-320.056	-8.718	0.301	-0.200
-319.041	800.000	0.097	0.365
-318.026	329.268	-0.203	-0.387
-317.012	-200.000	0.053	-0.504
-315.997	-85.755	-0.585	-0.180
-314.983	411.617	0.135	0.283
-313.968	247.195	0.196	-0.328
-312.953	-51.337	-0.659	0.306
-311.939	618.692	-0.042	0.105
-310.924	216.590	0.376	0.593
-309.910	419.018	-0.110	-0.234
-308.895	287.264	-0.294	0.527
-307.880	-96.189	-1.023	-0.269
-306.866	72.250	0.596	-0.616
-305.851	528.837	0.350	-0.819
-304.837	-6.940	0.267	-0.180
-303.822	-200.000	0.062	0.484
-302.807	45.384	-0.211	0.193
-301.793	-43.317	0.359	-0.180
-300.778	68.884	0.379	-0.386
-299.764	-200.000	0.034	0.552
-298.749	-100.157	-0.361	0.089
-297.735	-200.000	-0.013	-0.101
-296.720	-112.648	-0.620	-0.122
-295.705	50.619	-0.343	0.322
-294.691	-112.157	0.803	-0.160
-293.676	-200.000	-0.110	0.847
-292.662	-131.102	-0.596	-0.079
-291.647	-123.580	1.002	0.158
-290.632	-200.000	-0.070	-0.566
-289.618	459.874	-0.156	0.345
-288.603	76.931	-0.327	-0.344
-287.589	-58.973	0.829	-0.355
-286.574	-66.537	-0.640	0.252
-285.559	253.224	-0.187	0.316
-284.545	28.187	0.523	-0.437
-283.530	800.000	-0.132	-0.535
-282.516	3.543	-0.564	-0.407
-281.501	-70.268	-0.101	0.038
-280.486	153.063	0.429	-0.581
-279.472	-123.253	0.330	-0.052
-278.457	18.062	0.326	-0.257
-277.443	147.057	0.303	-0.403
-276.428	-200.000	-0.035	-0.505
-275.413	-7.951	0.246	0.165
-274.399	-200.000	-0.007	-0.191
-273.384	46.278	0.637	0.584
-272.370	-116.561	-0.765	0.139
-271.355	159.869	-0.272	-0.375
-270.340	-159.696	0.637	0.035
-269.326	495.836	0.407	0.925
-268.311	-86.592	0.646	-0.196
-267.297	20.691	-0.776	-0.622
-266.282	483.168	0.311	-0.700
-265.267	52.740	-0.719	-0.681
-264.253	338.044	0.275	-0.530
-263.238	-60.274	0.387	-0.163
-262.224	63.852	-0.149	-0.149
-261.209	591.743	-0.430	1.050
-260.195	-44.850	0.257	0.127
-259.180	-3.743	-0.514	0.353
-258.165	107.231	0.248	-0.291
-257.151	25.262	0.338	0.278
-256.136	-200.000	-0.100	0.926
-255.122	341.246	-0.246	0.475
-254.107	800.000	-0.024	-0.101
-253.092	108.797	0.721	-0.852
-252.078	64.949	0.102	-0.102
-251.063	800.000	0.161	-0.675
-250.049	-200.000	0.166	0.885
-249.034	-147.916	-0.409	-0.034
-248.019	180.551	0.342	0.497
-247.005	-102.002	-0.657	0.157
-245.990	-30.546	0.189	0.106
-244.976	628.918	-0.114	0.285
-243.961	108.308	-0.419	-0.494
-242.946	-200.000	0.020	-0.305
-241.932	2.118	-0.839	-0.599
-240.917	-103.487	0.341	0.079
-239.903	97.885	0.503	0.572
-238.888	-175.844	-0.484	-0.013
-237.873	482.739	-0.242	0.543
-236.859	126.747	-0.162	0.203
-235.844	-99.931	-0.176	-0.043
-234.830	-148.685	-1.002	0.081
-233.815	800.000	-0.140	-0.462
-232.800	-200.000	-0.010	0.200
-231.786	25.515	-0.051	-0.042
-230.771	-41.781	0.215	-0.109
-229.757	-156.639	-0.596	0.037
-228.742	41.163	1.088	-0.972
-227.727	120.745	-0.798	-0.980
-226.713	-200.000	-0.083	0.550
-225.698	-150.605	0.885	0.067
-224.684	65.249	0.321	0.320
-223.669	-38.783	-0.110	0.058
-222.655	-76.170	1.058	-0.369
-221.640	-200.000	0.050	-0.837
-220.625	279.876	0.323	0.571
-219.611	-65.178	0.148	0.059
-218.596	-122.273	0.585	-0.094
-217.582	167.783	0.111	0.156
-216.567	638.477	-0.043	-0.108
-215.552	800.000	0.110	-0.411
-214.538	-63.939	-0.278	0.112
-213.523	312.810	0.292	0.542
-212.509	800.000	0.151	-0.502
-211.494	167.723	-0.213	0.299
-210.479	-200.000	0.057	-0.572
-209.465	-186.210	-0.303	0.004
-208.450	490.602	0.074	-0.168
-207.436	37.301	-0.302	-0.264
-206.421	-147.161	-0.219	0.018
-205.406	101.157	0.259	-0.297
-204.392	-200.000	-0.128	0.799
-203.377	-200.000	-0.659	-0.002
-202.363	126.423	0.313	-0.391
-201.348	14.215	0.199	-0.153
-200.333	18.734	-0.311	0.246
-199.319	800.000	-0.140	0.497
-198.304	-21.221	-0.846	-0.510
-197.290	-200.000	0.048	-0.768
-196.275	74.522	-0.042	-0.043
-195.260	20.998	0.146	-0.117
-194.246	-111.042	-0.278	-0.056
-193.231	-89.169	-0.039	-0.011
-192.217	220.047	-0.132	-0.209
-191.202	203.788	0.626	0.957
-190.187	-152.191	0.688	0.049
-189.173	-10.464	-0.263	-0.172
-188.158	-200.000	0.043	0.959
-187.144	-1.439	0.209	-0.145
-186.129	-200.000	0.067	0.554
-185.114	54.344	0.531	0.504
-184.100	32.826	0.410	0.350
-183.085	-48.217	-0.534	-0.254
-182.071	218.065	-0.272	-0.428
-181.056	-10.976	0.504	-0.328
-180.042	-200.000	0.052	0.350
-179.027	-176.766	0.244	0.006
-178.012	9.652	0.565	0.423
-176.998	-200.000	0.026	0.497
-175.983	-200.000	0.102	1.084
-174.969	77.930	0.588	-0.618
-173.954	-74.205	-0.526	-0.188
-172.939	-200.000	-0.032	-0.147
-171.925	-200.000	-0.008	-0.059
-170.910	-57.075	-1.156	-0.502
-169.896	-92.667	1.194	0.330
-168.881	-62.054	-0.448	0.184
-167.866	45.563	-0.320	0.291
-166.852	-33.339	0.015	-0.008
-165.837	-163.523	0.514	-0.024
-164.823	-26.360	0.597	-0.346
-163.808	-200.000	-0.021	0.332
-162.793	-32.504	0.615	-0.338
-161.779	147.355	-0.365	-0.484
-160.764	360.896	0.198	-0.391
-159.750	30.324	-0.499	0.420
-158.735	-200.000	-0.072	-0.410
-157.720	297.786	-0.374	-0.678
-156.706	-107.046	-0.151	-0.033
-155.691	-47.186	-0.340	0.163
-154.677	77.779	-0.202	0.212
-153.662	94.592	0.320	-0.359
-152.647	242.389	-0.226	0.372
-151.633	-200.000	-0.000	-0.387
-150.618	-128.217	-0.226	-0.032
-149.604	479.922	0.217	0.485
-148.589	-200.000	-0.042	-0.437
-147.574	-164.456	0.674	0.030
-146.560	-200.000	-0.058	-0.552
-145.545	673.758	0.076	0.195
-144.531	339.028	-0.261	-0.500
-143.516	-200.000	-0.012	-0.071
-142.502	65.291	-0.094	-0.094
-141.487	22.510	1.084	-0.873
-140.472	86.662	0.287	-0.312
-139.458	-3.822	0.199	0.136
-138.443	-61.187	0.404	-0.168
-137.429	-131.062	-0.278	-0.037
-136.414	800.000	-0.120	-0.442
-135.399	30.991	-0.326	0.275
-134.385	127.555	-0.300	0.375
-133.370	-200.000	0.143	-1.078
-132.356	165.610	-0.096	0.133
-131.341	-118.990	1.000	0.173
-130.326	-101.989	0.047	-0.011
-129.312	724.106	-0.023	-0.061
-128.297	800.000	0.253	0.789
-127.283	800.000	-0.020	0.077
-126.268	157.248	0.469	-0.639
-125.253	-200.000	-0.076	-1.147
-124.239	800.000	-0.152	0.503
-123.224	-1.217	-0.580	-0.403
-122.210	-6.388	-0.481	0.323
-121.195	191.194	0.379	-0.562
-120.180	-3.981	-0.177	-0.121
