DTS Sentinel unit serial number:	SN413079Multiplexer serial number:	ORYXHardware model number:	OX4-SRSoftware version number:	ORYX F/W v4.00 Oryx Data Collector v3.7.2.0data status	okinstallation	princeton_trtdifferential loss correction	single-endedforward channel	channel 2reverse channel	N/Adate	2019/09/17time	11:23:34forward acquisition time	60.00reverse acquisition time	0.00gamma	496.2192k internal	0.2323k external	0.2323temperature offset calibration	0.9989default loss term (dB/km)	0.3790temperature slope calibration	1.0000multiplexer offset coefficient	1.0000multiplexer slope coefficient	1.0000fibre end	0.00T internal ref (°C)	30.56T ext. ref 1 (°C)	0.33T ext. ref 2 (°C)	26.31length (m)	temperature (°C)	Stokes	anti-Stokes-747.200	800.000	-0.088	0.246
-746.185	371.674	0.208	0.426
-745.171	-34.611	0.215	0.119
-744.156	188.618	-0.046	0.070
-743.142	42.819	-0.314	0.289
-742.127	372.025	-0.138	0.283
-741.112	-104.881	-0.111	-0.026
-740.098	403.009	0.050	0.107
-739.083	136.341	-0.180	0.237
-738.069	34.718	-0.210	0.186
-737.054	-12.127	-0.098	0.065
-736.039	800.000	-0.028	-0.103
-735.025	82.983	0.165	0.181
-734.010	342.515	0.067	-0.133
-732.996	166.022	-0.064	0.092
-731.981	-200.000	-0.056	0.303
-730.966	-200.000	-0.011	-0.202
-729.952	-168.882	-0.068	-0.003
-728.937	427.537	0.116	0.253
-727.923	291.193	-0.148	0.272
-726.908	178.891	0.122	0.180
-725.894	-171.788	-0.262	-0.009
-724.879	68.816	0.075	-0.077
-723.864	-32.105	-0.094	0.053
-722.850	-200.000	-0.065	-0.371
-721.835	-22.651	-0.241	0.147
-720.821	548.274	0.161	0.388
-719.806	-1.598	0.197	-0.140
-718.791	-200.000	-0.020	-0.105
-717.777	-200.000	-0.048	-0.213
-716.762	703.801	0.123	-0.327
-715.748	-80.308	-0.112	0.038
-714.733	-45.350	0.170	-0.085
-713.718	-167.943	-0.482	0.019
-712.704	-77.339	0.044	0.015
-711.689	-10.270	-0.208	-0.139
-710.675	35.838	0.040	-0.036
-709.660	800.000	0.086	-0.281
-708.645	-96.848	0.328	0.087
-707.631	59.693	-0.127	0.126
-706.616	-34.242	0.098	-0.054
-705.602	-135.224	-0.360	0.044
-704.587	-190.729	-0.249	-0.003
-703.572	-56.170	-0.088	-0.040
-702.558	800.000	-0.088	0.249
-701.543	32.940	0.278	-0.243
-700.529	10.408	-0.252	-0.194
-699.514	-154.010	-0.390	-0.027
-698.499	-200.000	-0.007	0.128
-697.485	-104.307	0.005	-0.001
-696.470	-14.889	0.288	-0.186
-695.456	-32.482	-0.376	0.212
-694.441	-130.053	-0.062	0.009
-693.426	-200.000	0.004	-0.054
-692.412	-34.402	0.067	0.037
-691.397	-58.345	-0.037	-0.016
-690.383	268.859	-0.070	-0.125
-689.368	-107.932	-0.307	-0.067
-688.354	-200.000	-0.032	0.211
-687.339	237.809	-0.112	0.187
-686.324	-154.664	-0.248	-0.017
-685.310	154.443	-0.053	0.073
-684.295	-54.979	-0.118	-0.054
-683.281	-27.219	-0.273	-0.160
-682.266	258.770	-0.121	0.210
-681.251	-133.337	0.049	0.006
-680.237	11.756	-0.116	-0.090
-679.222	-200.000	-0.009	0.166
-678.208	-200.000	-0.016	0.124
-677.193	71.187	-0.115	-0.121
-676.178	32.118	0.113	-0.098
-675.164	340.663	0.039	0.078
-674.149	88.306	-0.119	0.133
-673.135	433.039	-0.053	0.115
-672.120	267.307	0.089	0.156
-671.105	531.797	-0.205	0.488
-670.091	-200.000	0.012	-0.077
-669.076	-200.000	0.052	-0.270
-668.062	-61.057	-0.276	0.117
-667.047	361.007	-0.102	-0.205
-666.032	287.035	0.083	0.150
-665.018	-147.681	-0.224	0.019
-664.003	-200.000	0.008	-0.221
-662.989	-16.228	0.349	0.223
-661.974	479.856	0.065	0.149
-660.959	158.676	-0.092	0.129
-659.945	-41.453	0.181	-0.094
-658.930	800.000	0.011	-0.031
-657.916	131.635	-0.142	-0.184
-656.901	-32.639	0.167	-0.093
-655.886	47.581	-0.199	-0.187
-654.872	568.792	0.085	-0.209
-653.857	38.540	-0.250	-0.225
-652.843	-200.000	-0.038	-0.291
-651.828	800.000	-0.050	-0.190
-650.814	-31.404	-0.190	-0.107
-649.799	81.560	0.265	-0.289
-648.784	800.000	-0.043	0.165
-647.770	-200.000	0.012	0.236
-646.755	115.357	-0.015	0.019
-645.741	-200.000	-0.023	-0.310
-644.726	70.762	0.119	0.124
-643.711	-163.735	-0.160	0.008
-642.697	-95.211	-0.298	0.081
-641.682	-21.674	-0.308	0.189
-640.668	286.549	0.152	-0.275
-639.653	-200.000	-0.305	-0.001
-638.638	50.208	0.310	-0.295
-637.624	416.471	-0.098	0.211
-636.609	581.289	0.116	0.286
-635.595	94.882	-0.101	0.115
-634.580	-200.000	-0.001	-0.060
-633.565	-64.234	-0.328	0.134
-632.551	-0.206	0.267	0.191
-631.536	-116.510	-0.096	0.018
-630.522	-85.197	-0.144	-0.045
-629.507	800.000	-0.116	0.390
-628.492	-160.496	-0.158	-0.009
-627.478	-200.000	0.015	-0.162
-626.463	-134.103	0.192	-0.024
-625.449	16.021	0.195	-0.155
-624.434	-200.000	-0.075	-0.367
-623.419	-11.090	-0.031	0.021
-622.405	486.963	0.051	0.117
-621.390	-96.482	0.451	-0.120
-620.376	-200.000	0.027	0.365
-619.361	800.000	0.030	0.118
-618.346	514.665	-0.049	-0.115
-617.332	-173.739	-0.183	0.005
-616.317	52.153	0.062	-0.060
-615.303	-200.000	0.001	-0.288
-614.288	10.418	0.115	-0.088
-613.273	416.070	-0.054	0.115
-612.259	-200.000	0.016	0.184
-611.244	-200.000	0.021	0.172
-610.230	-56.968	0.121	-0.054
-609.215	-68.843	0.456	0.177
-608.201	-200.000	-0.049	0.323
-607.186	-163.503	0.087	0.004
-606.171	800.000	0.061	-0.248
-605.157	160.577	-0.142	0.199
-604.142	572.082	-0.011	-0.027
-603.128	294.690	0.204	0.374
-602.113	-58.657	0.153	-0.067
-601.098	-200.000	0.036	-0.271
-600.084	800.000	0.059	-0.197
-599.069	-129.061	-0.203	0.028
-598.055	-200.000	0.034	-0.156
-597.040	-103.632	-0.286	0.067
-596.025	-37.470	0.215	0.115
-595.011	-107.844	0.132	-0.029
-593.996	800.000	-0.076	-0.229
-592.982	-200.000	-0.018	0.124
-591.967	637.462	-0.127	-0.324
-590.952	-166.580	-0.390	0.016
-589.938	68.593	0.311	-0.320
-588.923	-200.000	0.044	-0.239
-587.909	223.434	-0.048	-0.078
-586.894	-129.851	0.214	0.030
-585.879	329.639	0.077	0.149
-584.865	46.652	-0.066	-0.061
-583.850	800.000	-0.015	0.062
-582.836	-173.501	-0.255	-0.008
-581.821	220.513	-0.146	0.235
-580.806	144.664	0.190	-0.254
-579.792	-200.000	-0.042	-0.209
-578.777	573.410	0.008	0.021
-577.763	248.361	-0.116	0.197
-576.748	-156.209	0.183	0.012
-575.733	66.418	-0.066	-0.067
-574.719	800.000	-0.015	0.054
-573.704	-5.707	-0.307	0.211
-572.690	-23.345	-0.321	0.194
-571.675	76.969	0.110	0.117
-570.661	-200.000	-0.048	-0.215
-569.646	-18.134	-0.092	0.058
-568.631	800.000	-0.007	0.030
-567.617	-55.743	-0.105	-0.047
-566.602	26.741	-0.232	-0.195
-565.588	274.599	-0.076	-0.135
-564.573	800.000	0.070	0.256
-563.558	306.575	-0.182	0.339
-562.544	18.824	0.103	-0.083
-561.529	94.930	0.219	-0.250
-560.515	-20.917	-0.096	-0.059
-559.500	-21.180	-0.139	0.085
-558.485	-37.729	0.327	-0.175
-557.471	101.171	-0.156	-0.182
-556.456	-77.853	0.236	0.082
-555.442	-13.743	0.243	-0.158
-554.427	-200.000	0.005	-0.292
-553.412	139.088	0.273	-0.360
-552.398	-46.959	-0.425	-0.208
-551.383	464.808	0.116	-0.261
-550.369	800.000	-0.054	0.203
-549.354	-171.278	-0.051	-0.002
-548.339	353.892	-0.113	-0.224
-547.325	428.393	-0.085	0.183
-546.310	-67.589	0.358	-0.141
-545.296	95.315	-0.072	-0.082
-544.281	-115.335	0.297	-0.056
-543.266	-10.608	0.259	0.172
-542.252	6.585	0.325	-0.242
-541.237	-200.000	-0.010	-0.190
-540.223	75.895	-0.274	-0.291
-539.208	-47.126	0.172	-0.084
-538.193	800.000	-0.063	-0.273
-537.179	-15.961	-0.151	-0.096
-536.164	215.192	-0.124	0.197
-535.150	548.025	-0.030	0.071
-534.135	800.000	-0.152	0.451
-533.121	800.000	-0.078	-0.260
-532.106	293.646	-0.063	-0.114
-531.091	65.371	-0.176	-0.179
-530.077	-156.233	0.473	0.030
-529.062	252.149	0.061	0.103
-528.048	370.403	-0.139	-0.282
-527.033	75.257	-0.174	0.184
-526.018	-200.000	0.015	-0.164
-525.004	-50.645	0.040	0.019
-523.989	-200.000	-0.027	-0.158
-522.975	426.760	0.146	0.316
-521.960	114.504	-0.065	-0.079
-520.945	-121.063	0.251	0.042
-519.931	-72.106	0.109	0.040
-518.916	-200.000	-0.074	0.347
-517.902	67.590	0.339	0.346
-516.887	-200.000	0.001	0.139
-515.872	214.203	0.210	0.332
-514.858	800.000	0.045	-0.181
-513.843	800.000	0.066	-0.248
-512.829	-200.000	0.003	-0.083
-511.814	-200.000	0.013	0.066
-510.799	-24.551	0.176	0.105
-509.785	9.894	-0.041	0.031
-508.770	-112.140	-0.102	0.021
-507.756	-34.867	-0.174	0.095
-506.741	430.359	-0.156	-0.337
-505.726	388.062	-0.116	-0.240
-504.712	-200.000	-0.012	0.141
-503.697	159.667	0.167	-0.233
-502.683	-200.000	0.007	0.071
-501.668	75.372	0.094	0.099
-500.653	-116.895	-0.256	-0.047
-499.639	-32.498	0.217	0.121
-498.624	-200.000	0.025	0.115
-497.610	-115.273	-0.260	-0.049
-496.595	9.701	0.042	0.032
-495.581	-200.000	-0.023	-0.171
-494.566	682.617	0.109	-0.284
-493.551	292.635	0.179	-0.326
-492.537	86.005	-0.203	0.224
-491.522	779.439	-0.094	-0.258
-490.508	-200.000	0.017	0.080
-489.493	-200.000	0.015	0.143
-488.478	-200.000	-0.032	0.165
-487.464	-117.864	0.290	0.052
-486.449	-98.597	0.077	0.020
-485.435	-154.591	0.056	-0.004
-484.420	-39.661	-0.216	-0.113
-483.405	-200.000	-0.020	0.423
-482.391	-200.000	-0.031	-0.156
-481.376	-30.081	0.124	0.071
-480.362	41.186	-0.148	0.133
-479.347	44.478	-0.153	0.140
-478.332	610.690	-0.140	-0.350
-477.318	-146.840	-0.372	-0.032
-476.303	-95.666	-0.271	-0.072
-475.289	132.393	-0.240	0.309
-474.274	207.630	-0.193	0.301
-473.259	-121.992	-0.095	0.016
-472.245	-92.700	-0.175	0.049
-471.230	-48.972	-0.229	0.110
-470.216	447.956	-0.040	-0.088
-469.201	-161.647	-0.290	-0.015
-468.186	-200.000	-0.032	0.160
-467.172	224.765	0.115	0.186
-466.157	-200.000	-0.082	0.367
-465.143	207.007	-0.102	0.158
-464.128	-40.442	-0.036	0.019
-463.113	96.324	-0.110	-0.126
-462.099	28.751	0.273	-0.231
-461.084	-93.616	0.112	-0.031
-460.070	-73.791	0.208	0.075
-459.055	-92.997	0.085	-0.024
-458.040	233.909	0.066	0.109
-457.026	-200.000	-0.302	0.000
-456.011	193.631	0.114	0.172
-454.997	-22.138	-0.081	-0.049
-453.982	75.097	0.176	0.186
-452.968	203.628	-0.207	-0.321
-451.953	56.331	0.243	0.236
-450.938	279.230	-0.125	-0.223
-449.924	-200.000	0.004	-0.153
-448.909	-200.000	0.079	-0.348
-447.895	13.130	-0.029	0.022
-446.880	800.000	-0.075	-0.294
-445.865	-63.723	-0.280	0.115
-444.851	-151.272	-0.292	0.022
-443.836	342.772	-0.139	0.271
-442.822	-34.065	-0.223	-0.122
-441.807	114.182	0.196	-0.238
-440.792	-68.129	0.346	-0.135
-439.778	-156.096	-0.265	0.017
-438.763	5.638	0.202	0.149
-437.749	-99.211	-0.137	-0.034
-436.734	20.007	0.203	-0.164
-435.719	800.000	0.086	-0.317
-434.705	-167.351	-0.207	-0.008
-433.690	-176.027	0.278	-0.007
-432.676	-16.774	-0.064	-0.041
-431.661	-65.185	0.114	0.046
-430.646	-47.630	0.234	-0.113
-429.632	-200.000	0.014	-0.218
-428.617	800.000	-0.014	0.054
-427.603	627.359	0.077	-0.194
-426.588	-200.000	0.001	-0.126
-425.573	-200.000	-0.016	-0.149
-424.559	-108.019	-0.306	0.066
-423.544	511.069	-0.140	0.324
-422.530	288.409	-0.181	-0.328
-421.515	-99.280	-0.281	0.071
-420.500	-52.080	0.206	-0.095
-419.486	-198.645	0.199	0.001
-418.471	33.725	0.114	0.099
-417.457	-47.024	-0.190	-0.092
-416.442	540.811	-0.028	-0.067
-415.428	800.000	-0.034	-0.103
-414.413	397.852	-0.060	-0.126
-413.398	40.539	0.068	0.061
-412.384	-99.435	-0.063	-0.016
-411.369	-86.328	-0.211	-0.065
-410.355	37.841	0.257	0.227
-409.340	-117.266	0.195	-0.035
-408.325	747.726	0.138	-0.371
-407.311	-46.321	-0.212	-0.104
-406.296	-200.000	0.044	-0.313
-405.282	-176.388	-0.186	0.005
-404.267	-200.000	-0.021	-0.101
-403.252	800.000	-0.036	0.109
-402.238	800.000	0.074	0.291
-401.223	116.239	0.070	0.085
-400.209	516.714	0.010	-0.023
-399.194	-12.187	-0.277	-0.181
-398.179	-200.000	0.029	0.225
-397.165	-106.799	0.234	-0.052
-396.150	-25.506	-0.238	-0.140
-395.136	230.304	-0.172	-0.279
-394.121	-200.000	-0.015	-0.158
-393.106	800.000	-0.070	0.278
-392.092	137.035	-0.100	-0.130
-391.077	-56.153	0.091	-0.040
-390.063	613.781	0.091	0.226
-389.048	138.250	-0.084	-0.109
-388.033	-2.940	-0.294	0.204
-387.019	-64.513	0.218	0.088
-386.004	45.232	0.261	-0.240
-384.990	-147.380	0.175	0.015
-383.975	-9.984	-0.026	-0.017
-382.960	-186.309	0.365	-0.005
-381.946	102.888	0.161	0.188
-380.931	-82.867	-0.140	-0.045
-379.917	-150.720	-0.337	0.026
-378.902	279.812	0.117	-0.208
-377.888	-90.464	-0.214	-0.062
-376.873	800.000	0.058	0.253
-375.858	800.000	-0.034	-0.132
-374.844	-83.727	0.182	0.058
-373.829	-200.000	-0.002	-0.330
-372.815	15.642	0.103	-0.081
-371.800	284.229	0.166	-0.297
-370.785	800.000	0.096	0.286
-369.771	116.895	-0.190	-0.233
-368.756	62.387	-0.387	-0.385
-367.742	124.774	0.147	0.184
-366.727	316.284	0.153	-0.288
-365.712	706.561	0.119	-0.313
-364.698	-200.000	0.002	0.228
-363.683	-104.741	0.142	0.033
-362.669	-200.000	0.052	0.446
-361.654	-200.000	0.043	0.236
-360.639	-200.000	0.019	-0.208
-359.625	-200.000	-0.049	0.247
-358.610	-200.000	0.048	0.208
-357.596	84.403	-0.212	-0.231
-356.581	519.005	0.058	-0.134
-355.566	-49.080	-0.041	0.019
-354.552	800.000	-0.069	-0.290
-353.537	-102.474	-0.134	-0.032
-352.523	88.097	-0.090	-0.099
-351.508	-13.934	0.145	-0.093
-350.493	208.624	0.164	0.255
-349.479	-82.173	-0.304	-0.098
-348.464	-200.000	-0.009	-0.145
-347.450	-20.248	-0.173	-0.106
-346.435	222.678	-0.108	0.173
-345.420	-83.193	0.151	0.048
-344.406	-200.000	0.197	0.001
-343.391	-45.365	0.380	-0.188
-342.377	21.891	-0.127	-0.103
-341.362	-200.000	-0.020	-0.087
-340.348	373.053	-0.091	-0.185
-339.333	-200.000	0.002	0.499
-338.318	38.758	-0.183	-0.163
-337.304	-102.937	-0.319	-0.075
-336.289	-124.813	-0.131	0.020
-335.275	112.313	0.060	-0.072
-334.260	111.510	-0.189	-0.227
-333.245	-65.979	-0.322	0.128
-332.231	389.809	0.057	0.117
-331.216	-45.354	0.126	-0.062
-330.202	-104.621	0.082	-0.019
-329.187	-121.998	0.147	0.024
-328.172	-60.626	-0.289	-0.122
-327.158	346.676	0.068	0.133
-326.143	-200.000	0.024	0.232
-325.129	-170.519	-0.197	0.007
-324.114	-39.405	0.179	-0.093
-323.099	530.786	-0.147	0.345
-322.085	79.537	0.140	-0.149
-321.070	-63.766	-0.273	-0.111
-320.056	-60.276	0.246	-0.104
-319.041	115.947	0.384	0.467
-318.026	-200.000	0.046	0.320
-317.012	-42.120	-0.323	0.164
-315.997	141.625	-0.322	0.424
-314.983	-200.000	0.011	-0.278
-313.968	-39.561	0.155	0.080
-312.953	-94.922	0.016	-0.004
-311.939	255.720	0.100	0.170
-310.924	-95.824	0.334	0.089
-309.910	4.339	0.400	-0.291
-308.895	-49.837	-0.097	-0.046
-307.880	-57.555	-0.188	-0.082
-306.866	-92.890	0.264	0.073
-305.851	-200.000	-0.040	0.392
-304.837	-57.901	0.217	-0.094
-303.822	800.000	0.040	0.128
-302.807	121.364	-0.155	0.192
-301.793	445.938	0.097	-0.212
-300.778	56.959	-0.087	0.084
-299.764	-200.000	0.002	-0.094
-298.749	-175.399	0.361	0.010
-297.735	-44.744	0.112	0.056
-296.720	-76.347	0.386	0.135
-295.705	-80.329	0.107	0.035
-294.691	21.301	-0.234	0.189
-293.676	30.237	-0.065	0.055
-292.662	-51.982	-0.304	0.140
-291.647	800.000	0.029	-0.093
-290.632	-40.149	0.199	-0.103
-289.618	67.373	-0.177	0.179
-288.603	-105.203	-0.196	-0.044
-287.589	800.000	-0.046	-0.201
-286.574	-2.406	0.104	-0.072
-285.559	-23.501	-0.449	0.267
-284.545	-55.740	0.265	-0.117
-283.530	-143.899	-0.042	0.004
-282.516	192.387	-0.314	0.470
-281.501	495.099	-0.089	0.203
-280.486	176.660	-0.181	-0.261
-279.472	-200.000	0.035	-0.247
-278.457	238.853	-0.133	0.220
-277.443	-50.456	-0.120	0.056
-276.428	211.473	0.227	0.354
-275.413	-72.083	0.227	0.084
-274.399	-200.000	0.003	-0.421
-273.384	229.311	-0.074	-0.119
-272.370	-200.000	-0.028	-0.289
-271.355	-200.000	0.041	-0.350
-270.340	800.000	0.041	-0.134
-269.326	-118.528	0.140	-0.025
-268.311	74.652	0.052	-0.055
-267.297	172.945	0.156	-0.223
-266.282	-36.569	0.335	0.179
-265.267	78.073	0.205	0.217
-264.253	-108.855	-0.342	-0.072
-263.238	68.071	0.178	-0.181
-262.224	-125.185	-0.478	-0.073
-261.209	-200.000	-0.004	-0.055
-260.195	800.000	0.045	-0.167
-259.180	800.000	-0.029	0.095
-258.165	63.404	-0.101	0.101
-257.151	800.000	0.060	-0.238
-256.136	-200.000	0.004	0.140
-255.122	36.292	-0.102	0.089
-254.107	-200.000	0.045	-0.317
-253.092	-2.739	0.210	0.145
-252.078	-121.981	0.209	0.034
-251.063	-53.138	-0.141	0.064
-250.049	-85.255	-0.029	0.009
-249.034	-200.000	0.022	-0.319
-248.019	-71.889	0.120	-0.044
-247.005	231.264	-0.139	-0.225
-245.990	-25.030	0.130	0.076
-244.976	-21.213	0.273	0.166
-243.961	-200.000	0.001	0.134
-242.946	-200.000	0.023	-0.120
-241.932	308.263	0.143	-0.265
-240.917	109.751	-0.172	0.205
-239.903	748.011	-0.014	0.038
-238.888	158.497	0.075	-0.104
-237.873	394.088	0.094	-0.193
-236.859	-157.089	-0.095	-0.006
-235.844	134.932	0.227	0.292
-234.830	-131.032	-0.091	-0.012
-233.815	-163.993	-0.097	0.004
-232.800	365.158	-0.093	-0.185
-231.786	285.762	0.027	-0.048
-230.771	511.429	-0.073	0.167
-229.757	-170.101	-0.110	0.004
-228.742	106.167	-0.192	-0.225
-227.727	800.000	0.045	-0.187
-226.713	52.177	-0.352	0.332
-225.698	143.255	-0.084	0.110
-224.684	-66.895	0.366	-0.143
-223.669	-36.726	-0.136	0.072
-222.655	-2.915	0.244	-0.169
-221.640	-118.906	0.067	0.012
-220.625	-48.532	0.084	0.040
-219.611	-40.807	0.128	-0.066
-218.596	-200.000	0.069	0.403
-217.582	-200.000	0.001	0.345
-216.567	-9.504	-0.179	-0.118
-215.552	800.000	0.029	0.101
-214.538	131.381	0.082	0.104
-213.523	58.832	0.164	0.160
-212.509	186.406	0.156	0.230
-211.494	13.302	-0.084	0.064
-210.479	800.000	0.054	0.212
-209.465	-200.000	-0.025	0.187
-208.450	-96.772	0.092	0.024
-207.436	-3.073	-0.162	0.112
-206.421	68.836	-0.075	0.076
-205.406	800.000	-0.093	0.334
-204.392	126.221	-0.223	-0.279
-203.377	-200.000	-0.007	0.176
-202.363	509.988	0.108	0.249
-201.348	173.705	0.156	-0.223
-200.333	245.021	-0.100	0.167
-199.319	-70.716	-0.183	0.068
-198.304	351.360	0.038	0.074
-197.290	-101.159	0.223	0.054
-196.275	-57.343	-0.121	-0.053
-195.260	260.464	-0.056	0.096
-194.246	-114.720	-0.226	-0.043
-193.231	-74.873	0.059	-0.021
-192.217	-122.500	-0.251	0.040
-191.202	-200.000	-0.044	0.259
-190.187	164.189	-0.146	0.204
-189.173	64.977	0.212	0.212
-188.158	-120.499	-0.031	0.005
-187.144	151.337	0.182	-0.245
-186.129	-112.489	-0.342	-0.068
-185.114	48.908	0.106	0.098
-184.100	-74.785	-0.169	-0.060
-183.085	225.094	0.147	-0.235
-182.071	-34.350	0.295	0.160
-181.056	446.589	0.057	-0.124
-180.042	63.882	-0.215	0.213
-179.027	-200.000	0.139	-0.000
-178.012	210.741	-0.044	0.068
-176.998	-140.923	0.171	0.017
-175.983	279.511	-0.138	-0.243
-174.969	67.799	-0.058	-0.059
-173.954	-200.000	0.025	-0.324
-172.939	43.204	0.101	0.091
-171.925	366.944	-0.107	0.214
-170.910	-200.000	0.011	0.147
-169.896	-92.278	0.302	-0.084
-168.881	-110.915	0.191	0.039
-167.866	-164.082	-0.284	0.013
-166.852	-81.811	0.275	-0.089
-165.837	-191.893	0.438	-0.004
-164.823	-140.802	0.165	-0.017
-163.808	107.769	0.229	-0.269
-162.793	-22.932	0.207	0.123
-161.779	-23.539	0.230	-0.136
-160.764	18.201	-0.127	0.100
-159.750	-48.320	-0.094	0.045
-158.735	-75.185	0.220	0.078
-157.720	-200.000	0.000	-0.010
-156.706	178.444	-0.268	0.386
-155.691	228.078	0.215	0.346
-154.677	-200.000	0.017	0.304
-153.662	-200.000	-0.038	0.168
-152.647	-70.499	-0.277	0.104
-151.633	-12.766	-0.040	0.025
-150.618	-20.609	-0.179	-0.108
-149.604	-79.914	0.299	0.099
-148.589	53.862	0.076	-0.073
-147.574	-200.000	0.002	-0.015
-146.560	-200.000	0.049	0.229
-145.545	-59.000	0.028	-0.012
-144.531	-133.280	0.259	0.032
-143.516	214.083	-0.093	0.146
-142.502	-69.498	-0.230	-0.087
-141.487	-200.000	0.012	0.100
-140.472	644.247	-0.164	-0.413
-139.458	-60.950	0.230	0.096
-138.443	449.343	0.106	0.230
-137.429	675.447	0.092	0.236
-136.414	379.873	0.080	0.161
-135.399	47.560	0.079	-0.073
-134.385	157.830	-0.106	0.144
-133.370	26.968	-0.378	0.313
-132.356	-51.788	-0.215	-0.099
-131.341	-200.000	0.022	-0.278
-130.326	46.982	0.094	-0.086
-129.312	101.737	-0.270	0.310
-128.297	583.292	-0.070	-0.171
-127.283	137.255	-0.212	-0.273
-126.268	800.000	0.074	-0.293
-125.253	800.000	0.092	0.258
-124.239	-109.829	0.231	-0.048
-123.224	-46.712	-0.084	0.041
-122.210	759.160	0.069	-0.183
