DTS Sentinel unit serial number:	SN413079Multiplexer serial number:	ORYXHardware model number:	OX4-SRSoftware version number:	ORYX F/W v4.00 Oryx Data Collector v3.7.2.0data status	okinstallation	princeton_trtdifferential loss correction	single-endedforward channel	channel 2reverse channel	N/Adate	2019/09/15time	10:11:35forward acquisition time	60.00reverse acquisition time	0.00gamma	496.2192k internal	0.2315k external	0.2315temperature offset calibration	1.0017default loss term (dB/km)	0.3790temperature slope calibration	1.0000multiplexer offset coefficient	1.0000multiplexer slope coefficient	1.0000fibre end	0.00T internal ref (°C)	34.23T ext. ref 1 (°C)	5.02T ext. ref 2 (°C)	29.89length (m)	temperature (°C)	Stokes	anti-Stokes-747.200	-200.000	0.001	-0.349
-746.185	-200.000	-0.034	0.167
-745.171	-183.635	-0.347	-0.006
-744.156	5.408	-0.137	0.103
-743.142	-79.745	0.336	0.115
-742.127	800.000	0.065	-0.198
-741.112	677.291	-0.021	0.055
-740.098	-4.155	-0.072	-0.051
-739.083	800.000	-0.048	-0.150
-738.069	-30.192	-0.189	0.109
-737.054	-200.000	-0.014	-0.122
-736.039	-138.010	-0.198	-0.022
-735.025	-200.000	0.043	0.275
-734.010	-78.057	-0.228	0.080
-732.996	-31.224	-0.239	-0.136
-731.981	800.000	0.122	-0.363
-730.966	-25.156	-0.298	0.179
-729.952	-161.600	-0.164	-0.009
-728.937	-200.000	-0.069	-0.330
-727.923	432.662	0.082	0.180
-726.908	306.512	-0.131	0.248
-725.894	-23.871	-0.034	0.021
-724.879	-77.960	-0.458	-0.160
-723.864	-50.052	-0.082	-0.039
-722.850	-46.888	0.149	-0.074
-721.835	563.160	0.104	0.255
-720.821	-136.461	-0.221	0.026
-719.806	-132.675	-0.072	0.009
-718.791	800.000	0.015	-0.067
-717.777	280.114	0.192	0.347
-716.762	210.988	-0.200	0.319
-715.748	-63.109	0.134	0.056
-714.733	-82.371	0.145	-0.048
-713.718	-55.217	-0.177	0.080
-712.704	-133.939	0.268	0.034
-711.689	-189.846	-0.123	0.001
-710.675	399.216	-0.124	-0.263
-709.660	-23.662	-0.295	0.179
-708.645	-92.570	0.389	0.111
-707.631	-44.934	-0.108	0.054
-706.616	-55.039	0.088	0.040
-705.602	182.733	-0.026	0.039
-704.587	112.843	0.289	-0.355
-703.572	800.000	-0.058	0.208
-702.558	-87.805	-0.269	0.082
-701.543	-29.352	-0.247	-0.143
-700.529	-133.475	0.214	0.027
-699.514	800.000	-0.047	0.183
-698.499	170.502	-0.152	-0.220
-697.485	-60.026	0.233	-0.101
-696.470	-95.130	-0.202	0.055
-695.456	261.502	0.138	0.242
-694.441	32.539	-0.185	0.162
-693.426	-0.367	-0.208	-0.149
-692.412	-68.090	-0.416	0.164
-691.397	-71.210	0.254	0.097
-690.383	-50.911	0.109	0.052
-689.368	783.142	-0.022	-0.061
-688.354	-16.165	0.197	0.127
-687.339	-72.419	0.204	-0.076
-686.324	211.726	0.044	0.070
-685.310	559.415	-0.033	-0.080
-684.295	-148.121	0.299	-0.025
-683.281	42.487	-0.186	-0.171
-682.266	-35.708	-0.185	-0.101
-681.251	241.967	-0.119	0.201
-680.237	-200.000	0.010	-0.347
-679.222	-19.971	0.212	-0.132
-678.208	-117.152	-0.162	0.030
-677.193	223.622	-0.049	0.080
-676.178	-39.245	-0.191	0.101
-675.164	800.000	0.045	-0.186
-674.149	-200.000	-0.053	-0.243
-673.135	-73.912	0.170	-0.063
-672.120	-147.651	-0.205	0.017
-671.105	-141.674	0.250	0.025
-670.091	-76.401	-0.237	-0.084
-669.076	-26.659	-0.202	-0.120
-668.062	571.264	-0.009	-0.022
-667.047	-173.265	-0.147	0.005
-666.032	-56.356	-0.122	-0.055
-665.018	-117.847	-0.093	0.017
-664.003	-20.329	0.146	0.091
-662.989	-46.954	0.349	0.172
-661.974	30.030	-0.056	0.048
-660.959	-6.364	-0.260	-0.179
-659.945	30.883	-0.260	0.225
-658.930	155.498	-0.094	-0.131
-657.916	-166.267	-0.537	0.023
-656.901	286.309	-0.040	-0.073
-655.886	-200.000	0.049	-0.260
-654.872	16.964	-0.046	0.037
-653.857	643.761	-0.036	0.093
-652.843	68.617	-0.084	0.087
-651.828	-131.326	-0.090	0.012
-650.814	134.336	0.066	0.087
-649.799	744.292	0.047	-0.127
-648.784	-26.757	-0.135	0.080
-647.770	-158.424	-0.128	-0.008
-646.755	132.487	-0.248	-0.322
-645.741	-56.650	-0.083	-0.037
-644.726	-125.987	0.333	-0.051
-643.711	-65.303	-0.140	-0.057
-642.697	19.155	-0.198	-0.160
-641.682	78.730	0.187	0.202
-640.668	-200.000	-0.015	-0.104
-639.653	356.734	-0.097	-0.194
-638.638	-200.000	-0.022	-0.168
-637.624	479.806	0.133	0.304
-636.609	-4.775	-0.169	-0.118
-635.595	174.323	-0.136	-0.198
-634.580	-200.000	-0.007	-0.055
-633.565	-127.960	0.258	0.037
-632.551	-174.342	-0.115	0.003
-631.536	-200.000	0.019	0.513
-630.522	-200.000	0.046	0.268
-629.507	-21.564	-0.101	0.062
-628.492	800.000	-0.044	0.151
-627.478	189.505	0.078	0.117
-626.463	-101.808	0.466	0.114
-625.449	84.064	-0.210	0.231
-624.434	-135.675	-0.386	-0.046
-623.419	-117.013	-0.278	-0.051
-622.405	78.684	0.196	0.212
-621.390	-200.000	-0.045	-0.265
-620.376	-200.000	-0.030	0.233
-619.361	-81.444	0.277	-0.092
-618.346	-70.872	-0.391	0.149
-617.332	557.784	0.066	-0.160
-616.317	34.182	-0.076	-0.067
-615.303	-33.118	-0.230	-0.128
-614.288	352.299	0.081	0.163
-613.273	10.991	-0.054	-0.041
-612.259	-32.471	-0.445	0.250
-611.244	-54.800	0.241	0.110
-610.230	-11.913	0.157	-0.104
-609.215	-5.121	-0.058	-0.040
-608.201	-3.750	-0.126	-0.088
-607.186	800.000	0.084	-0.293
-606.171	-93.173	0.142	-0.040
-605.157	-56.276	0.271	0.121
-604.142	79.081	-0.212	-0.229
-603.128	204.768	-0.172	-0.270
-602.113	130.853	0.084	-0.109
-601.098	-147.927	-0.126	0.011
-600.084	617.152	0.063	0.158
-599.069	3.947	0.208	0.153
-598.055	113.684	0.177	-0.217
-597.040	-73.036	0.254	-0.094
-596.025	-98.549	-0.310	-0.080
-595.011	-104.328	-0.284	0.066
-593.996	-177.529	-0.190	0.005
-592.982	-31.449	-0.242	-0.137
-591.967	-131.709	0.296	0.039
-590.952	-106.948	-0.081	0.018
-589.938	210.503	-0.045	-0.071
-588.923	-92.511	-0.196	0.055
-587.909	263.520	-0.202	0.353
-586.894	190.384	-0.071	-0.108
-585.879	-200.000	-0.006	-0.268
-584.865	-200.000	-0.029	0.161
-583.850	-16.013	0.118	-0.075
-582.836	-103.871	0.468	0.110
-581.821	202.553	-0.104	-0.161
-580.806	11.032	-0.292	-0.225
-579.792	-148.084	-0.252	-0.021
-578.777	260.283	0.086	0.149
-577.763	-200.000	-0.004	0.290
-576.748	-200.000	-0.021	0.393
-575.733	48.370	0.037	0.035
-574.719	588.350	0.065	0.161
-573.704	-35.749	0.129	-0.071
-572.690	-58.116	-0.114	0.050
-571.675	-200.000	0.033	0.251
-570.661	-27.490	-0.180	-0.105
-569.646	800.000	-0.009	-0.040
-568.631	186.411	-0.193	-0.289
-567.617	-137.565	0.246	-0.028
-566.602	132.793	-0.110	0.143
-565.588	565.532	0.077	0.187
-564.573	163.612	0.127	-0.180
-563.558	5.144	-0.200	0.148
-562.544	-200.000	-0.001	-0.123
-561.529	800.000	0.031	-0.134
-560.515	147.078	-0.157	0.212
-559.500	754.881	-0.023	-0.062
-558.485	248.012	0.170	0.290
-557.471	67.868	0.066	0.068
-556.456	-200.000	-0.046	-0.268
-555.442	416.809	0.095	-0.203
-554.427	-22.589	-0.260	-0.158
-553.412	-123.239	-0.392	-0.063
-552.398	38.049	0.176	0.157
-551.383	303.023	-0.069	0.128
-550.369	99.241	0.088	-0.102
-549.354	353.220	-0.091	0.182
-548.339	8.359	-0.288	-0.218
-547.325	64.494	-0.059	0.060
-546.310	800.000	0.024	0.084
-545.296	234.484	0.106	-0.176
-544.281	37.857	0.188	-0.168
-543.266	-200.000	-0.012	0.324
-542.252	6.900	-0.051	-0.038
-541.237	685.097	0.094	-0.246
-540.223	456.434	-0.114	0.255
-539.208	-129.297	0.111	-0.016
-538.193	-200.000	0.019	0.264
-537.179	45.555	-0.076	0.070
-536.164	-149.414	-0.228	-0.018
-535.150	68.430	0.102	-0.105
-534.135	210.306	-0.050	0.078
-533.121	-38.498	-0.158	-0.084
-532.106	35.793	0.192	-0.170
-531.091	-8.222	0.129	-0.087
-530.077	270.125	-0.110	0.194
-529.062	-118.414	-0.185	-0.033
-528.048	-90.772	-0.229	-0.066
-527.033	800.000	0.062	0.235
-526.018	365.526	0.029	0.058
-525.004	232.586	-0.074	-0.122
-523.989	-37.088	-0.140	-0.075
-522.975	-200.000	0.010	-0.224
-521.960	40.761	-0.262	0.237
-520.945	457.626	0.027	0.060
-519.931	-46.003	-0.293	0.145
-518.916	-200.000	-0.010	0.327
-517.902	-68.699	-0.221	-0.086
-516.887	0.883	0.150	0.108
-515.872	59.050	-0.112	-0.111
-514.858	-119.882	-0.158	0.027
-513.843	-76.045	-0.116	0.041
-512.829	186.877	0.067	-0.100
-511.814	89.519	0.065	-0.072
-510.799	-145.542	0.156	-0.014
-509.785	110.726	0.166	0.201
-508.770	-200.000	0.062	-0.335
-507.756	102.466	-0.134	0.157
-506.741	329.666	0.102	0.196
-505.726	-64.100	0.261	-0.107
-504.712	-200.000	0.000	-0.096
-503.697	29.136	0.345	-0.294
-502.683	-76.098	-0.143	0.051
-501.668	15.007	0.081	0.064
-500.653	312.682	-0.028	-0.053
-499.639	800.000	0.060	0.172
-498.624	-28.965	0.192	-0.110
-497.610	-44.948	0.251	0.125
-496.595	161.252	-0.087	-0.122
-495.581	-200.000	0.004	-0.062
-494.566	511.161	0.119	0.278
-493.551	-102.998	-0.272	0.065
-492.537	211.974	0.225	-0.356
-491.522	800.000	0.011	0.038
-490.508	800.000	0.080	-0.294
-489.493	-67.484	-0.191	-0.075
-488.478	-200.000	-0.013	-0.059
-487.464	-200.000	-0.029	0.361
-486.449	277.217	-0.146	0.261
-485.435	-14.292	0.266	0.172
-484.420	-42.654	0.221	0.113
-483.405	-98.769	0.099	0.025
-482.391	-100.165	-0.324	0.081
-481.376	-69.332	0.117	-0.045
-480.362	18.533	-0.059	-0.047
-479.347	800.000	0.084	-0.269
-478.332	-200.000	-0.056	-0.341
-477.318	26.425	-0.176	-0.148
-476.303	800.000	0.113	0.372
-475.289	-200.000	-0.076	-0.365
-474.274	-104.928	0.257	0.059
-473.259	232.195	0.032	0.053
-472.245	117.601	-0.158	0.194
-471.230	-30.290	0.321	0.183
-470.216	-139.308	-0.116	0.013
-469.201	-94.409	-0.127	-0.035
-468.186	368.909	-0.155	0.314
-467.172	-86.230	-0.032	-0.010
-466.157	552.588	0.025	-0.060
-465.143	235.506	0.083	0.138
-464.128	21.999	-0.122	-0.099
-463.113	120.561	-0.083	-0.103
-462.099	-30.005	0.296	-0.169
-461.084	401.141	-0.069	0.145
-460.070	-49.532	0.074	0.036
-459.055	-106.098	0.375	-0.084
-458.040	800.000	0.085	0.267
-457.026	-200.000	-0.002	-0.198
-456.011	361.091	-0.059	-0.119
-454.997	23.492	-0.122	0.101
-453.982	91.675	-0.048	-0.055
-452.968	800.000	-0.121	-0.345
-451.953	-200.000	-0.046	0.347
-450.938	389.683	0.002	-0.004
-449.924	-147.626	-0.156	-0.013
-448.909	-97.929	0.307	0.079
-447.895	-24.010	-0.273	-0.163
-446.880	538.781	0.165	0.393
-445.865	-105.584	0.207	0.047
-444.851	94.705	-0.205	0.233
-443.836	-132.362	-0.251	0.032
-442.822	187.925	0.242	-0.362
-441.807	-92.555	-0.121	-0.034
-440.792	-129.922	0.141	-0.019
-439.778	-200.000	-0.009	0.157
-438.763	-54.257	0.111	-0.051
-437.749	-144.672	-0.120	0.011
-436.734	-168.200	-0.067	-0.003
-435.719	20.471	-0.097	0.079
-434.705	444.137	0.086	0.189
-433.690	649.232	-0.061	0.155
-432.676	-169.766	0.298	0.011
-431.661	184.567	0.206	0.306
-430.646	348.238	-0.037	-0.074
-429.632	-109.151	-0.087	0.018
-428.617	-94.880	-0.170	0.046
-427.603	663.695	-0.076	0.196
-426.588	109.211	0.134	0.160
-425.573	39.302	0.052	-0.046
-424.559	87.339	0.188	-0.208
-423.544	237.288	0.028	-0.046
-422.530	-141.270	-0.412	-0.042
-421.515	-200.000	-0.007	-0.198
-420.500	50.942	-0.026	-0.025
-419.486	-200.000	0.048	-0.360
-418.471	-80.732	-0.216	0.072
-417.457	-200.000	-0.054	0.332
-416.442	296.047	-0.068	0.125
-415.428	49.214	0.048	-0.045
-414.413	-19.052	0.299	0.186
-413.398	61.637	0.273	0.272
-412.384	-200.000	-0.053	0.316
-411.369	-106.052	-0.231	-0.052
-410.355	249.661	0.077	-0.130
-409.340	-108.689	-0.190	0.041
-408.325	-200.000	0.024	0.107
-407.311	800.000	0.023	-0.085
-406.296	-200.000	0.036	-0.342
-405.282	383.591	-0.090	0.185
-404.267	125.098	-0.181	-0.228
-403.252	230.828	0.209	0.342
-402.238	-46.803	0.275	-0.135
-401.223	298.030	-0.069	0.127
-400.209	-164.070	0.427	0.020
-399.194	-115.264	0.145	-0.027
-398.179	800.000	0.024	-0.073
-397.165	-200.000	-0.018	-0.090
-396.150	-153.676	-0.020	0.001
-395.136	-200.000	-0.007	-0.365
-394.121	159.813	0.206	0.287
-393.106	63.549	-0.110	0.111
-392.092	124.868	0.130	0.164
-391.077	-129.675	0.139	0.019
-390.063	-200.000	0.000	0.533
-389.048	-80.436	-0.124	0.041
-388.033	-200.000	0.007	-0.138
-387.019	17.088	-0.141	-0.112
-386.004	454.926	-0.258	-0.572
-384.990	800.000	-0.062	-0.251
-383.975	159.634	0.244	0.339
-382.960	96.431	0.077	0.089
-381.946	-87.414	0.212	-0.064
-380.931	-200.000	-0.027	0.211
-379.917	-112.740	0.026	0.005
-378.902	-200.000	-0.032	-0.233
-377.888	-200.000	0.019	-0.368
-376.873	166.003	0.087	-0.124
-375.858	-113.880	-0.084	-0.016
-374.844	-191.055	-0.035	-0.000
-373.829	591.741	-0.091	0.225
-372.815	-34.274	-0.183	0.100
-371.800	583.133	0.078	0.190
-370.785	155.080	0.282	-0.387
-369.771	186.794	-0.147	-0.219
-368.756	-176.181	0.303	0.008
-367.742	7.766	0.113	0.084
-366.727	-200.000	-0.004	-0.126
-365.712	-200.000	0.012	-0.090
-364.698	82.236	-0.176	0.191
-363.683	-155.735	-0.277	0.018
-362.669	-200.000	0.039	0.266
-361.654	-108.156	0.214	0.046
-360.639	800.000	-0.150	-0.426
-359.625	162.594	-0.227	-0.318
-358.610	147.955	-0.077	0.103
-357.596	-200.000	0.011	-0.199
-356.581	-200.000	0.011	0.105
-355.566	300.591	-0.053	0.098
-354.552	33.935	-0.121	-0.105
-353.537	27.828	-0.186	-0.156
-352.523	-4.528	-0.318	-0.219
-351.508	-200.000	0.152	0.001
-350.493	234.951	0.343	0.565
-349.479	-55.729	-0.231	-0.103
-348.464	-112.461	-0.238	0.047
-347.450	-118.994	0.281	0.049
-346.435	-72.471	-0.227	0.084
-345.420	-200.000	0.005	-0.070
-344.406	268.086	-0.081	-0.142
-343.391	-44.231	0.148	0.074
-342.377	-88.816	0.075	-0.022
-341.362	-55.154	0.224	-0.101
-340.348	35.968	0.203	0.178
-339.333	7.696	-0.197	-0.147
-338.318	548.269	0.155	-0.370
-337.304	-143.107	0.379	-0.036
-336.289	-113.242	0.174	0.034
-335.275	-30.311	0.225	-0.127
-334.260	-200.000	0.007	-0.189
-333.245	-28.784	0.154	-0.089
-332.231	-103.177	-0.076	-0.018
-331.216	316.735	0.088	0.167
-330.202	-84.716	-0.214	0.067
-329.187	29.306	0.194	-0.164
-328.172	-81.115	-0.416	-0.137
-327.158	800.000	-0.082	0.274
-326.143	468.355	0.043	-0.097
-325.129	-82.017	-0.138	0.045
-324.114	750.358	0.096	0.257
-323.099	-65.877	-0.316	0.126
-322.085	-7.651	0.132	0.089
-321.070	-174.574	-0.191	-0.005
-320.056	-200.000	0.035	0.310
-319.041	-129.574	-0.158	0.022
-318.026	541.334	0.122	-0.289
-317.012	-49.846	-0.321	0.152
-315.997	800.000	-0.110	-0.304
-314.983	142.170	0.085	-0.112
-313.968	-72.054	-0.207	-0.077
-312.953	-93.026	-0.155	0.043
-311.939	314.213	-0.040	0.076
-310.924	800.000	0.072	-0.225
-309.910	91.370	-0.140	-0.157
-308.895	228.694	0.091	0.148
-307.880	379.183	-0.131	0.267
-306.866	405.639	-0.112	0.235
-305.851	11.558	0.201	0.153
-304.837	128.472	-0.324	0.411
-303.822	389.919	-0.055	0.114
-302.807	-200.000	-0.019	-0.222
-301.793	51.468	-0.192	-0.182
-300.778	-17.622	0.218	-0.136
-299.764	-138.338	0.087	0.010
-298.749	295.533	-0.060	0.110
-297.735	-200.000	-0.073	0.359
-296.720	3.647	-0.073	-0.053
-295.705	-120.982	-0.062	-0.010
-294.691	44.836	0.207	-0.190
-293.676	727.992	-0.087	-0.230
-292.662	140.639	-0.074	-0.098
-291.647	33.117	-0.108	-0.093
-290.632	-56.571	0.279	-0.123
-289.618	-14.684	0.254	-0.162
-288.603	142.565	-0.089	0.117
-287.589	525.579	-0.090	-0.212
-286.574	-200.000	0.083	-0.521
-285.559	-200.000	0.011	0.266
-284.545	-47.232	0.293	0.142
-283.530	800.000	0.076	-0.251
-282.516	-200.000	0.027	0.160
-281.501	355.602	-0.159	-0.314
-280.486	800.000	0.077	0.271
-279.472	150.004	-0.033	0.044
-278.457	-85.111	0.145	0.045
-277.443	-120.668	-0.119	0.020
-276.428	-72.715	-0.152	0.056
-275.413	102.691	0.077	-0.089
-274.399	293.042	-0.082	-0.149
-273.384	518.784	0.152	0.353
-272.370	-164.277	0.320	-0.015
-271.355	800.000	-0.096	0.276
-270.340	38.869	-0.214	0.191
-269.326	-200.000	-0.050	-0.241
-268.311	56.161	-0.218	0.210
-267.297	77.986	0.029	-0.030
-266.282	513.502	-0.064	-0.149
-265.267	-22.673	0.069	0.041
-264.253	-117.211	-0.132	0.024
-263.238	-124.347	0.238	-0.037
-262.224	-200.000	0.011	0.182
-261.209	800.000	-0.146	-0.632
-260.195	429.212	-0.106	-0.227
-259.180	336.555	0.152	0.293
-258.165	-200.000	0.010	0.061
-257.151	-57.553	0.355	-0.155
-256.136	99.511	-0.247	-0.284
-255.122	284.875	-0.157	-0.281
-254.107	-120.663	0.017	0.003
-253.092	-147.309	0.257	-0.022
-252.078	-194.110	0.192	-0.002
-251.063	194.247	0.113	0.171
-250.049	230.772	0.074	-0.121
-249.034	81.059	0.113	0.122
-248.019	-63.946	-0.325	-0.132
-247.005	-200.000	-0.020	-0.191
-245.990	-200.000	0.034	-0.231
-244.976	45.032	0.020	-0.018
-243.961	800.000	0.115	-0.365
-242.946	98.482	0.131	-0.150
-241.932	63.019	-0.175	-0.175
-240.917	768.538	-0.104	-0.282
-239.903	-9.501	0.227	0.150
-238.888	-172.190	0.490	0.016
-237.873	236.246	-0.020	-0.033
-236.859	-158.182	0.231	0.013
-235.844	158.238	-0.079	-0.109
-234.830	31.356	0.112	-0.096
-233.815	147.948	0.059	-0.079
-232.800	-200.000	0.000	0.044
-231.786	88.691	0.238	-0.263
-230.771	54.668	0.233	0.223
-229.757	-170.527	0.303	-0.010
-228.742	-59.810	-0.172	-0.073
-227.727	-193.230	0.346	0.003
-226.713	-2.661	-0.011	-0.007
-225.698	-200.000	-0.012	0.053
-224.684	171.038	-0.020	-0.029
-223.669	451.605	-0.099	-0.217
-222.655	-80.361	0.276	-0.092
-221.640	385.137	0.037	-0.077
-220.625	138.607	-0.123	0.160
-219.611	-44.025	-0.171	0.085
-218.596	-200.000	0.002	-0.094
-217.582	-6.723	0.184	0.124
-216.567	583.377	-0.052	-0.126
-215.552	147.388	-0.165	-0.220
-214.538	-81.191	0.203	-0.067
-213.523	374.641	0.218	0.441
-212.509	-200.000	0.022	-0.186
-211.494	-116.728	-0.510	-0.093
-210.479	-200.000	-0.059	0.424
-209.465	-172.743	0.145	0.005
-208.450	124.138	0.204	-0.255
-207.436	657.178	0.044	0.113
-206.421	-78.664	0.121	0.041
-205.406	9.419	0.231	-0.173
-204.392	33.556	-0.265	-0.229
-203.377	390.878	-0.053	0.110
-202.363	46.224	-0.060	0.055
-201.348	-104.487	-0.103	-0.024
-200.333	230.500	0.181	0.293
-199.319	-185.705	0.094	0.001
-198.304	-200.000	-0.011	-0.191
-197.290	-200.000	0.006	0.297
-196.275	-200.000	0.043	0.258
-195.260	-5.275	0.083	-0.056
-194.246	161.302	-0.078	-0.109
-193.231	-102.075	-0.078	-0.019
-192.217	-75.014	0.115	-0.041
-191.202	-200.000	-0.074	0.445
-190.187	8.273	0.317	0.236
-189.173	283.914	-0.072	0.128
-188.158	68.071	-0.195	0.197
-187.144	70.584	0.116	0.119
-186.129	18.819	-0.035	0.028
-185.114	435.099	-0.106	0.228
-184.100	-18.279	0.131	-0.081
-183.085	747.082	0.117	0.312
-182.071	-200.000	-0.030	0.274
-181.056	-23.703	0.227	0.135
-180.042	-75.688	-0.177	0.062
-179.027	-90.482	0.038	-0.011
-178.012	-200.000	-0.279	0.001
-176.998	-200.000	0.029	-0.238
-175.983	-31.650	0.200	0.112
-174.969	392.286	-0.097	-0.201
-173.954	-76.951	-0.205	-0.071
-172.939	800.000	-0.024	0.086
-171.925	800.000	0.084	0.268
-170.910	-66.049	-0.299	0.118
-169.896	296.405	0.144	-0.262
-168.881	93.888	0.246	0.276
-167.866	54.562	0.379	0.362
-166.852	-167.648	-0.296	-0.012
-165.837	394.680	-0.080	-0.166
-164.823	46.093	-0.085	0.078
-163.808	238.969	0.084	0.139
-162.793	-200.000	0.038	-0.413
-161.779	-4.925	0.365	-0.249
-160.764	444.032	0.083	-0.181
-159.750	-76.564	0.113	0.039
-158.735	-68.155	-0.104	0.040
-157.720	800.000	-0.037	-0.111
-156.706	54.917	-0.341	-0.326
-155.691	330.025	-0.096	-0.183
-154.677	800.000	0.056	0.165
-153.662	-90.803	0.095	-0.027
-152.647	-92.671	-0.243	-0.067
-151.633	42.057	-0.074	0.067
-150.618	-82.530	0.137	-0.044
-149.604	-106.842	-0.138	0.030
-148.589	-78.233	0.273	-0.093
-147.574	-41.583	-0.123	-0.063
-146.560	-200.000	0.009	-0.274
-145.545	800.000	0.044	0.164
-144.531	-200.000	-0.011	-0.104
-143.516	-80.302	-0.154	0.051
-142.502	129.646	-0.001	-0.001
-141.487	-93.533	-0.030	0.008
-140.472	-57.243	0.083	-0.036
-139.458	-75.826	0.266	-0.093
-138.443	108.312	-0.176	0.208
-137.429	-22.895	0.181	0.108
-136.414	-200.000	-0.010	-0.089
-135.399	-200.000	0.019	-0.215
-134.385	-13.292	0.062	0.040
-133.370	-149.269	-0.174	-0.014
-132.356	311.093	0.047	0.087
-131.341	36.939	-0.224	-0.196
-130.326	-200.000	-0.027	-0.259
-129.312	319.489	-0.071	-0.133
-128.297	-200.000	-0.003	0.031
-127.283	49.613	0.139	0.130
-126.268	-109.226	0.290	0.061
-125.253	-132.801	0.158	-0.020
-124.239	-15.947	-0.140	-0.088
-123.224	213.794	-0.079	0.124
-122.210	-162.116	0.262	-0.013
