DTS Sentinel unit serial number:	SN413079Multiplexer serial number:	ORYXHardware model number:	OX4-SRSoftware version number:	ORYX F/W v4.00 Oryx Data Collector v3.7.2.0data status	okinstallation	princeton_trtdifferential loss correction	single-endedforward channel	channel 2reverse channel	N/Adate	2019/09/17time	17:11:35forward acquisition time	60.00reverse acquisition time	0.00gamma	496.2192k internal	0.2290k external	0.2290temperature offset calibration	0.9979default loss term (dB/km)	0.3790temperature slope calibration	1.0000multiplexer offset coefficient	1.0000multiplexer slope coefficient	1.0000fibre end	0.00T internal ref (°C)	42.81T ext. ref 1 (°C)	0.35T ext. ref 2 (°C)	38.92length (m)	temperature (°C)	Stokes	anti-Stokes-747.200	-200.000	0.052	-0.266
-746.185	800.000	0.043	0.157
-745.171	104.579	0.164	0.197
-744.156	-27.046	-0.194	0.116
-743.142	-148.046	0.097	-0.008
-742.127	-200.000	0.020	0.495
-741.112	-149.642	-0.086	-0.007
-740.098	434.839	0.110	0.246
-739.083	129.925	0.030	0.039
-738.069	-65.741	-0.137	-0.056
-737.054	-142.985	0.241	0.024
-736.039	-120.860	-0.202	0.035
-735.025	-93.938	-0.200	0.056
-734.010	-200.000	-0.016	0.121
-732.996	421.327	0.081	-0.178
-731.981	-200.000	-0.065	-0.355
-730.966	-200.000	0.041	-0.413
-729.952	232.075	-0.074	-0.125
-728.937	-200.000	-0.044	-0.288
-727.923	-57.629	-0.229	-0.103
-726.908	273.247	-0.162	-0.292
-725.894	800.000	0.097	-0.345
-724.879	641.442	-0.178	-0.465
-723.864	-50.665	0.074	-0.036
-722.850	-200.000	0.021	-0.216
-721.835	373.871	0.087	0.181
-720.821	189.306	-0.028	-0.044
-719.806	89.208	-0.221	-0.252
-718.791	-200.000	-0.018	-0.173
-717.777	596.164	0.145	-0.368
-716.762	-84.967	0.278	0.089
-715.748	-105.866	0.342	0.079
-714.733	611.359	0.102	0.261
-713.718	-83.923	-0.247	0.081
-712.704	221.317	-0.131	0.215
-711.689	-200.000	0.005	-0.273
-710.675	-150.920	0.161	-0.012
-709.660	-102.638	0.138	-0.034
-708.645	-68.485	0.295	-0.117
-707.631	-14.893	-0.167	0.110
-706.616	-25.468	0.368	-0.222
-705.602	-139.297	-0.149	-0.016
-704.587	-200.000	0.018	-0.084
-703.572	800.000	-0.100	-0.295
-702.558	-128.670	-0.307	0.044
-701.543	131.489	0.102	-0.134
-700.529	-200.000	-0.031	-0.145
-699.514	800.000	-0.080	-0.234
-698.499	22.547	-0.332	-0.278
-697.485	12.800	-0.060	-0.047
-696.470	-200.000	-0.056	-0.381
-695.456	-96.762	-0.325	-0.088
-694.441	436.089	-0.010	0.022
-693.426	457.143	-0.090	-0.204
-692.412	104.121	-0.231	-0.278
-691.397	800.000	-0.024	0.104
-690.383	-91.903	-0.164	-0.048
-689.368	-200.000	0.004	0.138
-688.354	-200.000	0.022	0.110
-687.339	-3.833	0.235	-0.167
-686.324	800.000	0.032	-0.099
-685.310	-92.175	0.315	-0.091
-684.295	67.894	0.169	-0.176
-683.281	172.333	0.132	0.193
-682.266	-138.593	-0.157	0.018
-681.251	-132.395	0.246	-0.032
-680.237	226.155	-0.045	-0.074
-679.222	136.132	-0.198	-0.263
-678.208	148.262	-0.061	0.085
-677.193	143.372	-0.129	0.175
-676.178	-58.967	-0.130	-0.058
-675.164	374.979	0.068	0.141
-674.149	18.400	-0.191	-0.156
-673.135	-121.385	-0.097	0.017
-672.120	-44.586	0.071	0.036
-671.105	207.766	0.199	0.318
-670.091	800.000	0.071	-0.223
-669.076	556.013	0.126	-0.310
-668.062	26.607	0.224	-0.191
-667.047	20.242	0.077	-0.063
-666.032	-200.000	0.072	-0.389
-665.018	22.463	0.282	-0.236
-664.003	-12.352	-0.184	0.123
-662.989	-124.437	0.330	0.052
-661.974	-178.900	0.284	0.007
-660.959	-62.244	0.118	-0.050
-659.945	-41.508	0.433	0.228
-658.930	1.307	0.289	-0.212
-657.916	800.000	0.101	-0.381
-656.901	-69.708	-0.078	0.030
-655.886	-132.130	-0.322	-0.043
-654.872	-153.291	-0.330	0.024
-653.857	-146.339	0.144	-0.013
-652.843	-65.526	-0.233	-0.095
-651.828	-200.000	0.013	-0.166
-650.814	-200.000	-0.021	-0.123
-649.799	-94.016	0.311	0.087
-648.784	410.035	0.120	-0.259
-647.770	203.128	0.160	-0.252
-646.755	-200.000	0.035	0.346
-645.741	-93.691	-0.219	0.062
-644.726	800.000	-0.072	0.256
-643.711	-174.168	-0.233	-0.007
-642.697	-140.234	-0.302	-0.032
-641.682	-200.000	0.001	0.048
-640.668	154.423	-0.160	-0.224
-639.653	656.712	0.064	-0.168
-638.638	-45.689	0.163	0.082
-637.624	33.004	0.141	0.124
-636.609	-31.703	-0.204	0.117
-635.595	242.305	0.013	0.022
-634.580	800.000	0.029	0.124
-633.565	48.155	-0.181	0.173
-632.551	-200.000	-0.031	0.338
-631.536	-136.999	-0.198	-0.023
-630.522	-97.278	0.235	-0.063
-629.507	172.487	-0.135	-0.198
-628.492	800.000	-0.022	-0.077
-627.478	470.023	0.020	-0.046
-626.463	-200.000	-0.023	0.176
-625.449	387.477	0.044	-0.092
-624.434	-49.474	0.343	-0.167
-623.419	535.687	0.045	0.110
-622.405	-87.536	-0.212	-0.065
-621.390	27.135	0.056	-0.048
-620.376	90.374	0.123	-0.140
-619.361	-149.858	0.151	0.012
-618.346	80.805	-0.379	0.417
-617.332	-200.000	0.009	-0.151
-616.317	800.000	0.020	-0.080
-615.303	242.209	-0.136	-0.232
-614.288	264.766	-0.091	-0.161
-613.273	-94.939	-0.173	0.048
-612.259	-86.884	0.386	0.120
-611.244	-200.000	-0.007	-0.156
-610.230	7.147	-0.166	0.126
-609.215	-200.000	0.001	0.074
-608.201	-139.340	0.319	0.035
-607.186	800.000	-0.076	0.241
-606.171	-123.681	0.374	0.060
-605.157	-84.278	0.086	0.028
-604.142	-37.725	-0.149	0.081
-603.128	110.209	-0.174	-0.212
-602.113	15.125	0.229	0.183
-601.098	7.792	-0.157	0.120
-600.084	100.124	0.096	0.114
-599.069	-141.526	0.122	-0.013
-598.055	-200.000	-0.011	-0.061
-597.040	-200.000	0.008	0.094
-596.025	-38.633	0.077	-0.041
-595.011	-119.232	-0.052	-0.009
-593.996	-200.000	0.027	-0.157
-592.982	-3.965	0.164	0.116
-591.967	1.436	-0.397	-0.290
-590.952	542.081	-0.037	0.090
-589.938	-52.930	-0.229	-0.108
-588.923	-64.156	0.317	-0.132
-587.909	-88.178	0.148	0.045
-586.894	375.242	-0.096	-0.199
-585.879	348.237	0.092	-0.184
-584.865	39.598	0.073	-0.066
-583.850	-132.411	-0.336	-0.044
-582.836	41.242	0.222	0.204
-581.821	-124.225	-0.433	-0.069
-580.806	800.000	-0.081	-0.290
-579.792	-68.420	-0.316	0.125
-578.777	234.690	-0.084	0.142
-577.763	-36.888	0.262	-0.143
-576.748	-60.015	-0.124	0.054
-575.733	-144.197	-0.347	0.033
-574.719	-132.256	-0.355	0.047
-573.704	800.000	-0.027	0.110
-572.690	-38.655	-0.050	-0.027
-571.675	-65.458	-0.294	0.120
-570.661	-200.000	0.000	0.088
-569.646	-75.391	0.305	0.111
-568.631	682.037	-0.132	0.349
-567.617	25.541	-0.147	0.125
-566.602	-72.669	0.079	-0.030
-565.588	380.303	-0.145	-0.302
-564.573	-96.661	-0.121	0.033
-563.558	-200.000	-0.055	-0.310
-562.544	114.656	-0.210	0.260
-561.529	68.280	-0.229	0.238
-560.515	8.047	-0.145	-0.111
-559.500	-200.000	-0.010	0.062
-558.485	321.800	0.222	-0.430
-557.471	800.000	0.033	0.109
-556.456	-137.101	-0.283	-0.033
-555.442	-200.000	0.018	0.168
-554.427	302.393	0.184	0.347
-553.412	-44.103	0.190	0.097
-552.398	324.856	-0.161	0.312
-551.383	89.371	-0.081	0.091
-550.369	-77.858	-0.411	-0.144
-549.354	-166.729	0.256	0.011
-548.339	25.436	-0.122	0.103
-547.325	148.273	0.215	-0.295
-546.310	-60.603	0.236	-0.102
-545.296	-144.043	0.205	-0.020
-544.281	105.584	0.078	0.094
-543.266	193.253	-0.075	0.115
-542.252	35.978	0.078	0.069
-541.237	-148.846	-0.304	0.025
-540.223	-142.927	0.204	0.020
-539.208	-82.616	-0.283	-0.093
-538.193	324.120	0.114	-0.221
-537.179	-94.072	-0.296	0.082
-536.164	-4.520	-0.034	-0.024
-535.150	-200.000	-0.024	-0.359
-534.135	-76.626	-0.138	0.049
-533.121	-29.842	0.211	-0.122
-532.106	-60.828	0.053	-0.023
-531.091	55.860	-0.134	0.132
-530.077	-131.510	-0.194	0.026
-529.062	-102.125	-0.171	0.042
-528.048	-104.503	0.234	0.055
-527.033	-132.292	0.212	0.028
-526.018	-104.021	0.213	0.050
-525.004	-136.865	0.189	0.022
-523.989	443.905	0.054	0.121
-522.975	336.746	0.121	-0.239
-521.960	-121.814	-0.204	-0.034
-520.945	102.301	-0.186	-0.220
-519.931	-92.763	0.110	0.031
-518.916	27.266	-0.128	0.109
-517.902	40.863	0.308	0.282
-516.887	-82.773	-0.306	-0.100
-515.872	-49.093	0.441	-0.214
-514.858	31.083	0.281	-0.244
-513.843	42.289	0.047	-0.044
-512.829	-127.039	-0.358	-0.053
-511.814	-8.560	0.043	-0.029
-510.799	-108.930	-0.247	-0.054
-509.785	800.000	0.070	-0.206
-508.770	-145.186	-0.275	0.025
-507.756	7.643	0.145	-0.110
-506.741	-76.439	0.310	0.110
-505.726	28.220	-0.341	0.292
-504.712	288.123	0.136	0.250
-503.697	-135.257	-0.191	0.023
-502.683	105.225	-0.170	-0.204
-501.668	62.033	-0.156	-0.157
-500.653	-143.167	-0.238	-0.023
-499.639	12.382	0.127	-0.099
-498.624	-72.180	-0.118	-0.044
-497.610	-100.899	-0.079	0.020
-496.595	-87.956	-0.230	-0.070
-495.581	195.131	-0.147	0.226
-494.566	-10.641	-0.276	-0.186
-493.551	-73.594	0.159	0.059
-492.537	-78.610	-0.197	0.068
-491.522	274.092	0.037	-0.066
-490.508	692.636	0.128	0.341
-489.493	59.489	-0.155	0.155
-488.478	-100.484	0.119	-0.030
-487.464	477.943	-0.031	-0.070
-486.449	-200.000	0.027	0.177
-485.435	-200.000	0.017	-0.304
-484.420	41.275	-0.283	-0.259
-483.405	-98.106	-0.178	-0.046
-482.391	-17.019	-0.182	0.116
-481.376	-200.000	-0.057	0.425
-480.362	438.741	-0.040	0.089
-479.347	-61.150	-0.123	-0.053
-478.332	-200.000	-0.001	0.409
-477.318	-200.000	-0.032	-0.151
-476.303	800.000	-0.059	0.165
-475.289	611.560	0.082	0.207
-474.274	145.829	0.047	0.064
-473.259	713.475	-0.064	0.172
-472.245	800.000	-0.093	-0.301
-471.230	83.407	0.098	0.108
-470.216	395.892	-0.068	0.143
-469.201	-112.519	0.322	0.065
-468.186	40.774	0.032	-0.029
-467.172	800.000	0.118	0.416
-466.157	-10.038	-0.215	0.145
-465.143	70.096	-0.237	-0.247
-464.128	-117.110	-0.175	0.032
-463.113	127.944	0.105	-0.135
-462.099	800.000	-0.065	0.183
-461.084	-200.000	-0.019	-0.126
-460.070	-200.000	0.030	-0.140
-459.055	681.610	-0.127	0.334
-458.040	183.163	0.190	-0.284
-457.026	800.000	-0.008	-0.029
-456.011	800.000	-0.038	0.135
-454.997	-40.783	0.215	0.113
-453.982	785.509	-0.132	0.367
-452.968	148.414	0.111	0.152
-451.953	-19.379	0.165	-0.104
-450.938	-56.825	0.327	0.146
-449.924	-200.000	-0.011	-0.241
-448.909	-60.512	0.406	0.174
-447.895	73.904	0.119	-0.126
-446.880	12.587	-0.181	0.141
-445.865	76.354	-0.097	0.104
-444.851	-200.000	0.007	-0.068
-443.836	-200.000	0.019	-0.249
-442.822	800.000	0.025	0.082
-441.807	160.019	0.191	0.269
-440.792	-200.000	-0.018	0.146
-439.778	87.986	-0.059	-0.066
-438.763	56.998	0.213	0.210
-437.749	23.371	0.137	0.114
-436.734	118.781	-0.029	-0.036
-435.719	18.194	-0.114	-0.092
-434.705	258.609	0.026	0.045
-433.690	-200.000	-0.047	-0.277
-432.676	800.000	0.069	0.226
-431.661	1.393	-0.166	0.121
-430.646	-0.058	0.019	0.014
-429.632	800.000	0.083	0.265
-428.617	-185.258	-0.234	-0.004
-427.603	-100.440	-0.280	-0.070
-426.588	-72.865	-0.235	0.087
-425.573	-21.515	0.419	-0.259
-424.559	-65.014	0.093	-0.038
-423.544	-5.359	0.075	-0.052
-422.530	130.426	-0.082	-0.107
-421.515	147.467	-0.240	-0.326
-420.500	-200.000	-0.017	0.351
-419.486	37.286	-0.088	0.079
-418.471	-3.374	-0.065	-0.046
-417.457	-61.762	0.083	0.035
-416.442	-109.636	0.277	-0.059
-415.428	43.786	-0.293	-0.271
-414.413	-200.000	-0.019	-0.289
-413.398	-40.884	0.109	-0.057
-412.384	387.797	-0.032	-0.067
-411.369	753.343	-0.152	0.415
-410.355	-137.414	-0.088	-0.010
-409.340	-65.199	0.158	-0.064
-408.325	800.000	-0.028	-0.093
-407.311	-87.207	-0.455	0.140
-406.296	-13.734	0.228	0.149
-405.282	-53.590	0.233	-0.108
-404.267	800.000	0.086	0.284
-403.252	-79.813	-0.091	0.031
-402.238	-2.331	-0.223	0.158
-401.223	115.567	-0.196	-0.243
-400.209	-101.871	-0.207	0.051
-399.194	-119.028	0.154	-0.027
-398.179	-87.720	-0.211	0.064
-397.165	-25.702	-0.282	0.168
-396.150	264.698	-0.105	-0.185
-395.136	-90.860	-0.111	-0.032
-394.121	-136.138	0.100	-0.012
-393.106	-42.758	0.297	-0.153
-392.092	-40.141	0.105	0.055
-391.077	132.626	0.088	0.115
-390.063	800.000	0.060	0.201
-389.048	-4.314	0.425	0.297
-388.033	88.437	0.157	-0.176
-387.019	206.619	-0.016	-0.026
-386.004	-59.529	0.379	-0.165
-384.990	-200.000	-0.031	0.310
-383.975	664.721	-0.101	-0.263
-382.960	149.294	-0.193	0.263
-381.946	-200.000	0.004	-0.028
-380.931	15.363	0.353	0.280
-379.917	44.943	0.067	-0.062
-378.902	558.403	-0.036	-0.087
-377.888	123.803	0.291	-0.369
-376.873	-86.819	-0.172	-0.053
-375.858	136.334	-0.130	0.171
-374.844	266.255	0.053	-0.093
-373.829	-174.170	-0.092	0.003
-372.815	800.000	-0.056	-0.169
-371.800	-200.000	0.028	0.149
-370.785	-65.836	-0.207	-0.083
-369.771	800.000	-0.137	-0.523
-368.756	-114.615	-0.211	-0.041
-367.742	186.647	-0.094	0.142
-366.727	-115.005	-0.363	0.070
-365.712	800.000	-0.068	0.261
-364.698	53.166	0.126	-0.122
-363.683	-86.524	0.166	-0.051
-362.669	-46.844	0.230	-0.113
-361.654	758.505	0.051	0.140
-360.639	281.860	0.088	0.159
-359.625	632.949	-0.052	-0.133
-358.610	-200.000	-0.004	0.304
-357.596	-30.970	-0.337	0.192
-356.581	397.233	-0.119	0.252
-355.566	-75.390	0.184	-0.066
-354.552	-43.586	-0.315	-0.160
-353.537	-136.322	-0.297	0.035
-352.523	-84.859	-0.314	0.100
-351.508	79.431	0.135	-0.146
-350.493	-174.325	0.313	-0.009
-349.479	-10.981	0.245	0.163
-348.464	-88.241	0.311	-0.094
-347.450	87.607	0.110	-0.122
-346.435	108.231	-0.140	-0.169
-345.420	195.990	0.045	-0.070
-344.406	174.093	-0.084	0.123
-343.391	12.360	0.208	0.162
-342.377	800.000	0.083	0.300
-341.362	800.000	-0.062	-0.189
-340.348	141.877	0.163	-0.217
-339.333	2.058	0.183	-0.133
-338.318	-159.048	-0.113	-0.006
-337.304	-54.628	0.145	0.066
-336.289	-200.000	-0.031	0.198
-335.275	108.289	-0.213	-0.256
-334.260	148.619	0.064	0.087
-333.245	26.537	0.222	-0.188
-332.231	691.408	0.021	0.055
-331.216	-200.000	-0.014	-0.125
-330.202	-78.979	-0.159	-0.054
-329.187	134.421	0.178	-0.233
-328.172	-153.309	0.126	0.009
-327.158	10.869	-0.411	-0.316
-326.143	27.207	0.191	0.161
-325.129	800.000	-0.084	-0.280
-324.114	-139.308	-0.136	0.015
-323.099	-121.236	-0.288	0.049
-322.085	-35.969	-0.061	-0.033
-321.070	-200.000	0.039	-0.297
-320.056	-102.380	-0.099	-0.024
-319.041	121.227	-0.138	-0.174
-318.026	278.441	0.050	-0.089
-317.012	-200.000	0.011	0.157
-315.997	-200.000	0.064	-0.415
-314.983	-106.981	0.134	0.030
-313.968	-79.834	0.454	-0.154
-312.953	-29.373	0.350	-0.202
-311.939	307.047	0.161	-0.303
-310.924	200.497	-0.146	0.225
-309.910	800.000	-0.060	0.263
-308.895	-200.000	-0.005	0.025
-307.880	800.000	-0.032	0.103
-306.866	-200.000	-0.008	-0.271
-305.851	-65.819	-0.258	0.104
-304.837	485.575	-0.107	0.245
-303.822	-78.562	0.282	0.097
-302.807	800.000	0.056	0.234
-301.793	91.478	0.183	0.207
-300.778	51.596	0.122	0.116
-299.764	321.732	0.091	0.174
-298.749	-118.476	0.189	0.034
-297.735	-200.000	-0.001	0.134
-296.720	-200.000	-0.068	0.309
-295.705	-200.000	0.019	-0.259
-294.691	36.364	-0.239	-0.212
-293.676	-200.000	-0.044	-0.230
-292.662	-30.859	-0.227	-0.129
-291.647	-194.318	0.282	0.002
-290.632	-200.000	0.004	-0.157
-289.618	-92.650	-0.177	-0.050
-288.603	800.000	0.056	0.213
-287.589	402.986	0.090	-0.190
-286.574	35.020	-0.136	0.120
-285.559	96.475	-0.098	0.112
-284.545	-200.000	0.075	0.374
-283.530	433.999	0.135	-0.295
-282.516	-200.000	-0.022	-0.165
-281.501	-200.000	0.024	-0.120
-280.486	-129.702	-0.294	-0.041
-279.472	18.366	0.231	-0.186
-278.457	-192.805	0.206	-0.002
-277.443	118.227	-0.129	0.161
-276.428	800.000	0.064	0.267
-275.413	800.000	0.095	0.357
-274.399	-102.113	0.173	-0.042
-273.384	32.873	-0.099	0.086
-272.370	-67.256	0.094	0.037
-271.355	445.939	-0.068	-0.150
-270.340	336.241	0.074	-0.145
-269.326	-30.460	0.146	-0.083
-268.311	5.173	0.203	0.150
-267.297	800.000	0.182	0.516
-266.282	232.753	-0.137	0.226
-265.267	800.000	-0.062	-0.196
-264.253	-4.187	-0.122	0.085
-263.238	-200.000	0.007	-0.151
-262.224	82.712	0.128	0.140
-261.209	95.323	0.034	-0.039
-260.195	-98.597	0.070	-0.018
-259.180	-149.092	-0.314	0.025
-258.165	-178.221	0.077	0.002
-257.151	-40.279	0.149	-0.078
-256.136	325.188	0.112	-0.215
-255.122	-51.813	0.312	-0.146
-254.107	-200.000	0.031	-0.383
-253.092	-200.000	0.004	0.059
-252.078	-200.000	0.007	0.059
-251.063	-48.220	-0.200	-0.097
-250.049	295.801	-0.052	0.095
-249.034	263.889	0.193	0.337
-248.019	-51.518	0.108	0.051
-247.005	-19.565	-0.170	-0.106
-245.990	-105.252	0.195	-0.045
-244.976	10.633	0.193	-0.148
-243.961	-99.592	0.075	0.019
-242.946	338.377	-0.213	-0.416
-241.932	360.193	0.076	0.153
-240.917	-92.123	0.048	-0.014
-239.903	282.779	0.065	-0.117
-238.888	593.053	0.057	-0.141
-237.873	63.845	0.142	0.143
-236.859	320.943	-0.104	-0.199
-235.844	-60.703	0.177	-0.075
-234.830	-84.121	0.060	0.019
-233.815	800.000	-0.037	0.138
-232.800	-200.000	0.052	0.237
-231.786	22.190	-0.155	0.127
-230.771	237.958	0.065	-0.109
-229.757	-200.000	0.002	-0.137
-228.742	-97.862	0.139	-0.036
-227.727	-52.966	-0.189	-0.087
-226.713	731.674	0.076	-0.205
-225.698	800.000	-0.029	0.093
-224.684	39.314	0.285	0.256
-223.669	-31.866	-0.210	-0.118
-222.655	-60.989	0.118	0.050
-221.640	-77.565	0.221	-0.077
-220.625	83.086	0.039	-0.043
-219.611	800.000	-0.064	-0.254
-218.596	-182.079	-0.185	-0.003
-217.582	414.662	-0.066	-0.140
-216.567	-61.219	-0.146	-0.062
-215.552	363.316	0.035	-0.070
-214.538	-55.479	0.101	0.045
-213.523	73.721	0.070	-0.074
-212.509	-200.000	0.063	0.514
-211.494	22.800	-0.207	-0.170
-210.479	283.889	0.142	-0.256
-209.465	-47.799	-0.197	-0.096
-208.450	-31.883	-0.289	-0.162
-207.436	-200.000	-0.001	0.096
-206.421	493.384	0.113	0.260
-205.406	25.669	-0.191	-0.159
-204.392	-71.833	0.048	0.018
-203.377	447.017	-0.007	0.016
-202.363	-53.080	0.353	-0.163
-201.348	-65.845	0.301	-0.121
-200.333	266.412	-0.153	-0.268
-199.319	-200.000	0.022	-0.201
-198.304	95.360	0.180	-0.206
-197.290	-200.000	0.018	0.150
-196.275	-159.282	0.165	0.009
-195.260	96.160	-0.174	0.200
-194.246	-168.567	0.262	-0.010
-193.231	101.252	-0.256	0.299
-192.217	7.282	-0.119	-0.089
-191.202	-65.109	0.246	0.099
-190.187	-44.691	0.326	-0.163
-189.173	168.239	0.088	0.126
-188.158	-115.860	-0.227	-0.043
-187.144	392.580	-0.058	-0.120
-186.129	-200.000	0.002	0.203
-185.114	-61.770	-0.324	0.136
-184.100	100.878	0.045	0.053
-183.085	800.000	0.052	-0.168
-182.071	-53.636	0.318	0.146
-181.056	127.956	-0.132	-0.168
-180.042	-200.000	-0.017	0.092
-179.027	59.556	0.200	0.197
-178.012	79.544	0.066	-0.071
-176.998	-110.408	0.088	0.018
-175.983	-105.479	0.147	-0.033
-174.969	-180.899	-0.211	-0.004
-173.954	-200.000	0.056	-0.276
-172.939	-2.398	-0.038	-0.027
-171.925	-54.159	-0.189	0.086
-170.910	181.251	-0.109	-0.160
-169.896	-75.180	0.226	0.081
-168.881	-200.000	-0.008	-0.140
-167.866	154.193	-0.072	0.100
-166.852	-150.231	-0.110	0.009
-165.837	-57.161	-0.204	-0.090
-164.823	50.841	-0.024	0.023
-163.808	-110.846	0.427	0.088
-162.793	63.431	0.108	-0.109
-161.779	-185.092	0.232	0.004
-160.764	-88.981	-0.332	-0.099
-159.750	15.615	0.129	-0.102
-158.735	-63.426	0.355	-0.146
-157.720	14.664	0.164	0.128
-156.706	261.478	-0.117	-0.202
-155.691	-22.745	0.065	0.039
-154.677	-200.000	-0.038	-0.239
-153.662	164.039	0.211	0.298
-152.647	-38.941	-0.268	0.141
-151.633	-200.000	0.040	-0.327
-150.618	-128.500	-0.414	0.059
-149.604	-74.515	0.193	-0.070
-148.589	-101.561	0.391	0.095
-147.574	-75.467	0.131	-0.047
-146.560	-200.000	-0.345	-0.002
-145.545	800.000	-0.043	0.166
-144.531	324.750	-0.038	0.073
-143.516	-200.000	0.042	-0.213
-142.502	-129.418	-0.372	-0.052
-141.487	-200.000	-0.032	0.440
-140.472	72.271	0.145	-0.151
-139.458	355.613	0.092	-0.182
-138.443	78.348	-0.212	0.227
-137.429	-200.000	-0.041	-0.198
-136.414	62.921	0.159	-0.159
-135.399	-53.623	0.149	-0.068
-134.385	102.674	0.138	0.162
-133.370	800.000	0.088	-0.369
-132.356	634.208	-0.035	0.088
-131.341	-42.371	0.200	0.102
-130.326	111.830	0.178	-0.215
-129.312	-200.000	0.012	-0.067
-128.297	800.000	0.096	0.267
-127.283	267.177	-0.125	0.219
-126.268	675.802	0.086	-0.225
-125.253	503.319	-0.117	-0.270
-124.239	215.614	0.146	-0.232
-123.224	-82.369	0.557	-0.181
-122.210	3.036	0.168	-0.122
-121.195	-200.000	-0.088	-0.447
