DTS Sentinel unit serial number:	SN413079Multiplexer serial number:	ORYXHardware model number:	OX4-SRSoftware version number:	ORYX F/W v4.00 Oryx Data Collector v3.7.2.0data status	okinstallation	princeton_trtdifferential loss correction	single-endedforward channel	channel 2reverse channel	N/Adate	2019/09/13time	06:47:35forward acquisition time	60.00reverse acquisition time	0.00gamma	496.2192k internal	0.2338k external	0.2338temperature offset calibration	1.0196default loss term (dB/km)	0.3790temperature slope calibration	1.0000multiplexer offset coefficient	1.0000multiplexer slope coefficient	1.0000fibre end	0.00T internal ref (°C)	26.00T ext. ref 1 (°C)	4.11T ext. ref 2 (°C)	20.63length (m)	temperature (°C)	Stokes	anti-Stokes-747.200	131.624	0.252	0.326
-746.185	-74.119	-0.350	0.127
-745.171	87.168	-0.172	-0.191
-744.156	800.000	-0.159	0.617
-743.142	153.187	-0.170	0.233
-742.127	-153.462	-0.237	0.017
-741.112	157.940	0.076	0.105
-740.098	-120.354	-0.353	0.060
-739.083	-123.614	-0.314	-0.050
-738.069	363.115	0.097	0.196
-737.054	63.466	0.138	-0.139
-736.039	0.485	-0.141	-0.101
-735.025	-17.608	0.290	0.183
-734.010	-28.125	0.053	-0.031
-732.996	-0.280	-0.384	0.274
-731.981	800.000	0.051	-0.176
-730.966	9.339	-0.071	0.054
-729.952	-200.000	-0.017	-0.262
-728.937	-30.704	-0.221	-0.126
-727.923	-154.003	0.304	-0.021
-726.908	60.364	-0.174	-0.173
-725.894	-60.916	0.112	0.048
-724.879	-63.269	0.067	0.028
-723.864	-200.000	-0.035	-0.262
-722.850	73.638	0.137	0.144
-721.835	-90.747	0.325	0.094
-720.821	218.062	-0.066	0.105
-719.806	-60.377	-0.027	0.011
-718.791	72.165	0.081	-0.085
-717.777	169.737	-0.117	-0.168
-716.762	115.403	0.243	0.298
-715.748	297.001	-0.044	-0.081
-714.733	25.618	-0.303	0.253
-713.718	62.118	0.258	-0.258
-712.704	488.957	0.074	0.169
-711.689	-200.000	-0.007	-0.162
-710.675	362.217	-0.175	-0.351
-709.660	146.785	-0.135	-0.181
-708.645	-62.235	0.187	0.078
-707.631	800.000	0.037	-0.107
-706.616	-3.774	-0.172	0.120
-705.602	487.328	0.089	-0.204
-704.587	126.151	-0.113	-0.143
-703.572	133.841	-0.299	-0.388
-702.558	-200.000	0.093	0.441
-701.543	-200.000	0.008	0.134
-700.529	36.243	0.296	-0.261
-699.514	-77.986	-0.158	-0.055
-698.499	126.617	0.162	0.205
-697.485	31.987	-0.207	-0.179
-696.470	-200.000	-0.020	0.177
-695.456	-14.609	0.111	0.072
-694.441	-84.964	0.127	-0.040
-693.426	-57.412	-0.267	-0.117
-692.412	-103.362	0.383	0.090
-691.397	776.863	-0.076	0.207
-690.383	131.393	-0.167	0.215
-689.368	-200.000	-0.005	0.076
-688.354	-106.899	0.276	-0.061
-687.339	40.322	-0.110	-0.099
-686.324	-78.238	0.166	-0.057
-685.310	-200.000	0.025	-0.175
-684.295	800.000	0.052	0.167
-683.281	-83.498	-0.176	-0.056
-682.266	-45.362	0.209	-0.104
-681.251	-126.531	-0.256	-0.038
-680.237	800.000	0.110	0.403
-679.222	317.476	0.063	-0.120
-678.208	716.377	-0.040	0.105
-677.193	-87.031	0.006	-0.002
-676.178	-200.000	-0.014	-0.255
-675.164	-73.952	0.220	-0.080
-674.149	225.953	-0.102	-0.165
-673.135	-200.000	0.014	0.118
-672.120	800.000	-0.071	0.237
-671.105	-87.699	-0.406	-0.123
-670.091	-72.377	0.238	-0.088
-669.076	486.330	-0.137	-0.312
-668.062	-99.558	-0.197	0.050
-667.047	-85.997	0.208	-0.064
-666.032	-200.000	0.069	-0.418
-665.018	800.000	-0.022	-0.062
-664.003	284.196	-0.195	-0.351
-662.989	151.008	0.249	-0.339
-661.974	525.809	0.111	-0.260
-660.959	-91.128	0.324	-0.093
-659.945	-17.564	-0.262	-0.165
-658.930	200.778	0.136	-0.209
-657.916	-124.984	0.272	0.042
-656.901	116.266	0.088	-0.107
-655.886	403.720	-0.132	-0.279
-654.872	793.908	-0.092	-0.253
-653.857	-200.000	0.019	0.092
-652.843	95.473	0.173	-0.197
-651.828	-200.000	0.092	-0.428
-650.814	800.000	0.168	-0.508
-649.799	-97.381	0.293	-0.076
-648.784	-200.000	0.002	0.249
-647.770	-69.252	0.128	0.049
-646.755	-150.326	0.143	0.011
-645.741	109.139	0.143	0.171
-644.726	6.711	0.117	0.087
-643.711	87.814	0.192	-0.212
-642.697	83.938	-0.088	0.096
-641.682	43.279	0.065	-0.059
-640.668	-77.123	0.068	-0.024
-639.653	-129.915	0.125	0.017
-638.638	-49.942	0.240	0.114
-637.624	-123.438	-0.306	0.049
-636.609	-8.802	0.150	-0.100
-635.595	-50.306	-0.134	0.063
-634.580	-200.000	0.003	-0.130
-633.565	-50.442	-0.273	-0.129
-632.551	-75.851	-0.177	0.063
-631.536	28.185	-0.148	-0.125
-630.522	800.000	-0.072	-0.302
-629.507	-105.899	-0.327	0.074
-628.492	360.404	0.090	0.181
-627.478	-58.201	-0.189	0.082
-626.463	800.000	0.045	0.194
-625.449	255.809	-0.094	0.160
-624.434	-23.780	0.331	-0.198
-623.419	800.000	0.070	-0.214
-622.405	-158.693	0.281	-0.016
-621.390	-5.781	0.139	0.095
-620.376	-170.171	0.171	-0.006
-619.361	477.115	0.049	0.111
-618.346	17.636	-0.071	0.057
-617.332	176.700	-0.078	0.114
-616.317	-107.000	-0.216	-0.048
-615.303	216.917	0.202	-0.321
-614.288	800.000	-0.123	0.370
-613.273	-151.472	-0.271	-0.020
-612.259	-76.552	-0.111	0.039
-611.244	-200.000	-0.013	0.188
-610.230	-55.211	0.161	0.072
-609.215	191.547	-0.264	-0.397
-608.201	158.021	0.273	-0.378
-607.186	683.469	-0.095	0.248
-606.171	344.258	-0.039	0.076
-605.157	-124.796	0.102	0.016
-604.142	42.552	-0.035	-0.031
-603.128	304.622	0.233	-0.432
-602.113	-53.648	0.155	-0.071
-601.098	-79.164	0.183	-0.062
-600.084	-81.342	-0.334	-0.110
-599.069	-45.318	-0.228	0.113
-598.055	40.393	0.154	-0.138
-597.040	-158.638	0.201	0.012
-596.025	-200.000	0.013	-0.124
-595.011	-200.000	0.006	0.145
-593.996	-112.537	-0.182	-0.036
-592.982	-200.000	-0.011	-0.266
-591.967	-200.000	-0.027	-0.161
-590.952	126.161	-0.158	0.199
-589.938	-200.000	-0.010	-0.084
-588.923	219.695	-0.103	0.164
-587.909	-200.000	0.053	-0.257
-586.894	-200.000	-0.062	-0.330
-585.879	-43.435	0.271	-0.137
-584.865	-27.860	-0.303	0.175
-583.850	-100.423	-0.124	0.031
-582.836	367.920	0.086	-0.173
-581.821	70.944	-0.134	-0.138
-580.806	-200.000	-0.050	-0.299
-579.792	41.454	-0.220	0.198
-578.777	81.570	-0.207	0.223
-577.763	262.863	0.111	-0.192
-576.748	-86.335	-0.312	-0.096
-575.733	442.127	0.080	0.175
-574.719	800.000	-0.133	0.410
-573.704	-200.000	-0.007	0.051
-572.690	81.417	-0.158	0.170
-571.675	-129.372	-0.302	-0.042
-570.661	-200.000	-0.008	-0.112
-569.646	-100.713	0.160	-0.039
-568.631	-50.011	-0.303	-0.143
-567.617	291.899	0.279	0.507
-566.602	800.000	0.058	-0.234
-565.588	652.908	-0.092	-0.235
-564.573	62.799	0.078	0.078
-563.558	-15.634	0.269	-0.171
-562.544	-189.855	0.214	-0.002
-561.529	800.000	-0.096	0.295
-560.515	65.601	0.083	-0.083
-559.500	-200.000	-0.011	0.086
-558.485	86.333	-0.144	-0.158
-557.471	-52.231	-0.205	0.095
-556.456	-20.440	0.295	-0.181
-555.442	-4.555	-0.104	0.071
-554.427	800.000	0.101	-0.351
-553.412	-41.700	-0.356	0.182
-552.398	-12.170	0.211	0.137
-551.383	28.745	0.170	0.143
-550.369	-69.436	-0.141	0.054
-549.354	-200.000	0.063	-0.294
-548.339	-156.546	0.215	0.013
-547.325	43.503	0.028	-0.026
-546.310	-22.699	-0.120	0.072
-545.296	-85.892	0.172	-0.053
-544.281	-169.974	0.341	0.012
-543.266	758.102	0.045	0.122
-542.252	-178.369	0.123	-0.003
-541.237	588.313	0.066	-0.163
-540.223	-74.366	0.344	-0.123
-539.208	-86.694	-0.295	0.090
-538.193	49.203	-0.277	0.259
-537.179	-59.495	0.263	-0.112
-536.164	-113.819	0.107	0.021
-535.150	-183.712	-0.181	-0.003
-534.135	-200.000	-0.001	0.143
-533.121	374.591	-0.223	0.451
-532.106	251.440	0.141	0.238
-531.091	-21.066	-0.258	-0.157
-530.077	800.000	-0.090	0.274
-529.062	457.129	0.043	0.095
-528.048	14.057	-0.149	-0.116
-527.033	-114.229	0.327	-0.063
-526.018	-138.333	0.201	0.022
-525.004	-83.337	-0.109	0.035
-523.989	-200.000	-0.007	0.092
-522.975	-44.678	0.248	0.123
-521.960	-121.388	-0.306	0.051
-520.945	64.817	-0.223	-0.223
-519.931	23.801	-0.187	0.153
-518.916	159.520	0.191	0.264
-517.902	-200.000	0.016	-0.237
-516.887	-200.000	0.006	-0.207
-515.872	0.643	-0.196	0.140
-514.858	-99.723	-0.012	-0.003
-513.843	-127.875	0.191	0.027
-512.829	177.965	-0.291	0.422
-511.814	-200.000	0.020	0.132
-510.799	800.000	0.018	-0.062
-509.785	-200.000	0.002	0.174
-508.770	137.799	-0.150	0.196
-507.756	159.537	-0.224	0.310
-506.741	800.000	0.069	-0.201
-505.726	46.143	0.148	-0.136
-504.712	24.031	-0.119	0.098
-503.697	-135.267	0.451	-0.054
-502.683	-200.000	-0.033	-0.305
-501.668	-81.136	-0.212	-0.070
-500.653	-79.682	-0.048	0.016
-499.639	-4.182	0.395	0.271
-498.624	-102.116	-0.308	-0.074
-497.610	-91.320	-0.266	-0.076
-496.595	4.163	-0.101	0.073
-495.581	538.524	-0.015	0.035
-494.566	-200.000	0.004	0.151
-493.551	-47.786	0.099	-0.048
-492.537	-120.690	0.220	-0.037
-491.522	-200.000	0.014	-0.077
-490.508	-200.000	-0.025	0.237
-489.493	-72.476	0.230	-0.085
-488.478	-161.708	-0.302	0.015
-487.464	-200.000	-0.025	0.418
-486.449	-200.000	-0.022	0.245
-485.435	139.218	0.270	0.353
-484.420	-40.401	0.294	0.152
-483.405	39.360	-0.154	0.137
-482.391	34.830	0.083	0.072
-481.376	-200.000	-0.007	0.047
-480.362	403.409	0.082	0.172
-479.347	-127.159	-0.048	-0.007
-478.332	-59.960	-0.215	-0.091
-477.318	800.000	-0.035	0.111
-476.303	-200.000	0.033	-0.148
-475.289	190.437	0.059	-0.089
-474.274	-136.569	-0.049	-0.006
-473.259	-68.981	-0.333	0.127
-472.245	162.163	-0.091	0.126
-471.230	345.575	-0.118	-0.231
-470.216	-88.179	-0.656	0.195
-469.201	-170.022	-0.278	-0.010
-468.186	358.658	0.144	-0.286
-467.172	-139.178	-0.308	0.033
-466.157	110.984	0.054	0.064
-465.143	167.748	0.166	-0.234
-464.128	-68.342	-0.309	-0.119
-463.113	-200.000	-0.011	0.074
-462.099	-6.264	0.108	0.073
-461.084	800.000	-0.099	-0.346
-460.070	-200.000	0.070	0.356
-459.055	-39.768	-0.095	0.049
-458.040	-200.000	-0.050	-0.433
-457.026	408.921	0.042	-0.088
-456.011	-178.629	0.151	0.003
-454.997	553.922	-0.076	0.182
-453.982	-200.000	0.019	-0.111
-452.968	-114.849	0.101	0.019
-451.953	537.575	0.018	0.042
-450.938	-200.000	-0.033	-0.279
-449.924	67.647	0.101	-0.102
-448.909	219.208	-0.048	0.076
-447.895	-165.721	0.359	-0.015
-446.880	-200.000	0.038	-0.366
-445.865	59.931	0.159	-0.156
-444.851	672.300	-0.199	-0.511
-443.836	-29.278	0.036	-0.020
-442.822	-61.158	0.048	0.020
-441.807	-119.214	-0.182	-0.031
-440.792	-0.658	0.108	-0.076
-439.778	800.000	-0.041	-0.133
-438.763	86.378	-0.176	-0.192
-437.749	707.999	-0.044	-0.116
-436.734	800.000	-0.154	0.527
-435.719	-200.000	-0.015	0.203
-434.705	-123.436	-0.413	-0.065
-433.690	56.931	-0.084	-0.082
-432.676	-113.650	0.086	-0.017
-431.661	-200.000	-0.006	-0.027
-430.646	111.440	0.044	0.053
-429.632	37.291	0.224	-0.196
-428.617	72.244	0.089	0.091
-427.603	26.357	0.136	0.113
-426.588	-109.057	0.097	0.020
-425.573	525.856	0.038	-0.088
-424.559	645.977	0.151	-0.381
-423.544	-149.028	-0.146	0.012
-422.530	-23.604	-0.145	-0.086
-421.515	800.000	0.074	0.320
-420.500	-182.851	0.364	0.006
-419.486	-68.929	0.456	-0.174
-418.471	-200.000	-0.016	0.101
-417.457	-89.915	0.360	0.104
-416.442	-81.898	-0.212	-0.069
-415.428	-16.002	-0.154	0.097
-414.413	-200.000	-0.126	-0.000
-413.398	-50.366	-0.301	0.141
-412.384	-34.725	-0.102	-0.055
-411.369	-200.000	-0.057	-0.426
-410.355	-200.000	-0.008	-0.124
-409.340	-17.975	0.361	0.224
-408.325	-15.794	0.214	-0.135
-407.311	77.576	0.156	-0.165
-406.296	-200.000	0.070	0.337
-405.282	-131.806	-0.067	-0.009
-404.267	-1.137	-0.138	-0.097
-403.252	800.000	0.051	0.175
-402.238	-162.379	-0.114	0.006
-401.223	-200.000	-0.008	-0.273
-400.209	376.723	-0.058	-0.118
-399.194	-111.675	0.106	0.021
-398.179	10.774	0.214	-0.162
-397.165	543.721	0.043	0.102
-396.150	100.238	0.330	0.379
-395.136	-74.790	-0.314	-0.112
-394.121	-129.187	0.069	0.010
-393.106	-200.000	-0.063	-0.297
-392.092	-40.977	-0.130	-0.066
-391.077	-16.106	-0.191	0.120
-390.063	-51.002	-0.244	0.113
-389.048	28.085	-0.171	-0.143
-388.033	99.573	0.240	0.274
-387.019	253.113	-0.116	-0.197
-386.004	-200.000	0.077	-0.416
-384.990	-59.959	0.215	-0.091
-383.975	-96.507	-0.285	-0.074
-382.960	-200.000	-0.003	-0.192
-381.946	299.616	-0.154	0.280
-380.931	-200.000	0.071	0.468
-379.917	599.021	0.097	0.238
-378.902	-51.507	-0.141	0.065
-377.888	251.079	0.158	0.265
-376.873	-119.046	0.286	0.050
-375.858	151.763	0.010	-0.014
-374.844	292.891	0.155	-0.280
-373.829	800.000	-0.071	-0.284
-372.815	275.454	-0.068	-0.120
-371.800	800.000	0.029	-0.104
-370.785	10.181	0.246	0.185
-369.771	-49.671	0.247	-0.116
-368.756	-116.275	0.064	-0.012
-367.742	33.250	0.231	-0.198
-366.727	-3.971	0.255	0.175
-365.712	36.725	-0.172	0.150
-364.698	-1.368	-0.199	-0.139
-363.683	-156.994	-0.123	-0.007
-362.669	89.065	-0.327	-0.360
-361.654	630.017	0.078	0.195
-360.639	-58.043	-0.147	0.064
-359.625	-72.747	-0.154	0.056
-358.610	14.364	-0.295	-0.227
-357.596	800.000	0.020	-0.060
-356.581	-200.000	0.039	-0.289
-355.566	165.540	-0.256	0.357
-354.552	800.000	-0.015	0.052
-353.537	-62.594	-0.177	0.073
-352.523	16.817	0.185	0.145
-351.508	-77.168	0.317	-0.109
-350.493	-30.073	-0.148	-0.083
-349.479	4.833	-0.098	0.071
-348.464	-60.608	0.374	0.157
-347.450	-118.434	0.189	0.033
-346.435	211.297	0.138	0.214
-345.420	-200.000	0.048	0.314
-344.406	-40.868	-0.183	0.094
-343.391	-81.295	0.411	-0.134
-342.377	-200.000	-0.000	0.167
-341.362	-87.546	-0.028	0.008
-340.348	77.677	-0.241	0.253
-339.333	-82.895	-0.148	-0.047
-338.318	577.052	0.177	-0.428
-337.304	-85.821	-0.128	-0.039
-336.289	-200.000	-0.016	0.257
-335.275	-75.471	0.326	0.114
-334.260	-85.008	-0.227	0.070
-333.245	-13.336	-0.118	0.075
-332.231	-101.519	0.202	-0.048
-331.216	-4.234	-0.356	-0.243
-330.202	384.600	-0.136	-0.277
-329.187	-146.943	-0.111	-0.009
-328.172	-95.273	0.159	0.042
-327.158	-28.570	-0.105	-0.060
-326.143	28.557	0.181	0.151
-325.129	-200.000	0.021	-0.131
-324.114	-200.000	-0.008	0.242
-323.099	-162.188	-0.194	0.010
-322.085	800.000	-0.034	-0.105
-321.070	-118.590	0.066	0.012
-320.056	-200.000	-0.044	0.359
-319.041	118.723	-0.041	-0.049
-318.026	-67.719	0.168	0.065
-317.012	93.575	-0.233	0.260
-315.997	-200.000	-0.042	0.353
-314.983	187.428	0.102	-0.150
-313.968	72.843	0.116	0.119
-312.953	-88.953	0.467	0.137
-311.939	82.198	-0.202	0.217
-310.924	614.018	0.175	-0.432
-309.910	202.662	-0.118	0.180
-308.895	800.000	0.072	0.232
-307.880	-78.307	-0.187	0.063
-306.866	800.000	-0.059	0.174
-305.851	-125.467	-0.304	0.046
-304.837	-200.000	-0.025	0.170
-303.822	22.989	-0.147	0.119
-302.807	116.102	0.128	0.155
-301.793	26.558	-0.044	-0.036
-300.778	13.187	0.097	-0.074
-299.764	800.000	0.011	0.043
-298.749	179.697	0.209	0.302
-297.735	-200.000	-0.011	0.124
-296.720	800.000	-0.010	0.029
-295.705	34.523	0.290	0.249
-294.691	365.725	-0.063	-0.124
-293.676	113.557	0.173	0.207
-292.662	800.000	-0.071	-0.240
-291.647	800.000	0.063	-0.189
-290.632	-160.255	0.388	-0.021
-289.618	0.741	-0.220	0.155
-288.603	434.648	0.182	-0.390
-287.589	-195.573	0.170	0.001
-286.574	-200.000	0.021	-0.207
-285.559	381.985	-0.105	-0.213
-284.545	16.098	0.192	0.149
-283.530	86.172	0.176	-0.191
-282.516	12.042	0.108	-0.082
-281.501	-140.358	0.230	-0.024
-280.486	-106.799	0.414	0.091
-279.472	-200.000	0.041	0.287
-278.457	-10.232	0.062	-0.040
-277.443	87.689	0.171	-0.186
-276.428	61.639	-0.311	-0.305
-275.413	549.263	-0.070	-0.165
-274.399	507.100	-0.031	0.071
-273.384	-200.000	-0.015	0.119
-272.370	-78.787	-0.027	-0.009
-271.355	-7.468	0.251	-0.168
-270.340	202.859	0.110	0.168
-269.326	221.671	-0.160	0.253
-268.311	-35.925	-0.138	-0.074
-267.297	-200.000	0.036	0.179
-266.282	197.411	-0.078	-0.117
-265.267	-142.800	-0.046	-0.004
-264.253	-65.500	-0.515	0.204
-263.238	-38.701	0.525	0.273
-262.224	-41.729	-0.208	-0.105
-261.209	-17.731	-0.209	-0.129
-260.195	-45.247	0.159	-0.078
-259.180	-200.000	-0.015	-0.097
-258.165	800.000	0.073	-0.267
-257.151	10.369	0.232	-0.174
-256.136	-95.881	0.139	-0.037
-255.122	800.000	-0.096	-0.388
-254.107	493.847	-0.012	-0.028
-253.092	229.234	-0.075	-0.120
-252.078	-200.000	0.089	0.000
-251.063	-33.988	-0.315	-0.171
-250.049	-92.685	0.036	-0.010
-249.034	203.946	0.138	-0.210
-248.019	-82.866	-0.373	-0.118
-247.005	-163.285	-0.350	0.017
-245.990	800.000	-0.080	0.308
-244.976	-200.000	-0.200	-0.001
-243.961	-200.000	0.032	0.241
-242.946	204.527	0.062	0.095
-241.932	-103.325	-0.069	-0.016
-240.917	367.359	-0.083	-0.164
-239.903	-200.000	-0.009	-0.327
-238.888	-51.399	-0.175	0.080
-237.873	-13.998	0.117	0.075
-236.859	120.887	-0.201	0.245
-235.844	-22.492	-0.185	0.110
-234.830	232.195	0.230	-0.371
-233.815	800.000	-0.080	-0.245
-232.800	3.569	-0.059	0.042
-231.786	-71.708	-0.205	-0.075
-230.771	-200.000	0.042	-0.265
-229.757	800.000	0.065	0.212
-228.742	-118.572	-0.225	-0.039
-227.727	-17.348	0.364	0.225
-226.713	384.465	0.135	-0.273
-225.698	-180.431	-0.172	0.004
-224.684	-200.000	-0.002	0.397
-223.669	800.000	-0.111	-0.368
-222.655	68.841	0.127	-0.128
-221.640	800.000	-0.037	0.147
-220.625	-80.899	-0.181	-0.059
-219.611	-5.919	-0.145	0.097
-218.596	724.308	0.022	-0.057
-217.582	104.167	0.275	0.318
-216.567	-48.398	-0.258	0.122
-215.552	-92.764	-0.140	-0.039
-214.538	-83.543	0.461	0.145
-213.523	-168.708	-0.220	-0.008
-212.509	-200.000	-0.032	0.358
-211.494	-170.618	0.029	0.001
-210.479	-200.000	-0.093	-0.440
-209.465	-79.080	0.564	-0.188
-208.450	-29.291	-0.074	-0.041
-207.436	288.869	0.040	-0.072
-206.421	116.399	-0.093	0.112
-205.406	344.101	-0.097	0.188
-204.392	-200.000	-0.023	-0.190
-203.377	66.647	-0.142	0.142
-202.363	256.781	-0.239	-0.403
-201.348	-131.816	0.399	0.051
-200.333	-200.000	0.050	0.389
-199.319	-13.091	-0.119	0.076
-198.304	-10.096	0.032	-0.021
-197.290	20.042	0.183	0.145
-196.275	800.000	0.074	0.289
-195.260	59.699	0.082	-0.079
-194.246	799.492	-0.108	-0.294
-193.231	150.958	-0.105	-0.140
-192.217	800.000	-0.082	-0.243
-191.202	-111.426	-0.039	-0.008
-190.187	-142.784	-0.314	-0.030
-189.173	-176.043	0.207	-0.005
-188.158	-93.388	0.203	-0.055
-187.144	113.880	0.277	0.331
-186.129	-106.865	0.332	0.072
-185.114	-40.818	-0.147	-0.075
-184.100	-132.296	0.069	-0.009
-183.085	5.632	-0.142	0.103
-182.071	-52.217	-0.217	-0.099
-181.056	-142.207	-0.124	-0.012
-180.042	-80.636	-0.066	-0.022
-179.027	14.892	0.032	0.024
-178.012	800.000	0.098	-0.391
-176.998	-86.595	-0.145	0.044
-175.983	247.631	-0.121	0.200
-174.969	81.207	0.187	0.198
-173.954	83.598	0.148	0.158
-172.939	340.535	-0.029	-0.056
-171.925	57.454	-0.303	-0.291
-170.910	-14.739	0.416	-0.262
-169.896	-37.180	0.295	0.155
-168.881	41.285	0.211	-0.187
-167.866	-118.897	0.264	-0.045
-166.852	-43.798	0.023	-0.011
-165.837	59.799	-0.191	0.185
-164.823	44.617	-0.529	-0.477
-163.808	92.516	0.201	-0.222
-162.793	-15.535	0.385	0.241
-161.779	-200.000	-0.038	-0.184
-160.764	-74.510	0.255	-0.090
-159.750	497.204	-0.080	0.180
-158.735	-73.514	-0.236	-0.084
-157.720	-200.000	-0.021	-0.175
-156.706	800.000	0.039	0.111
-155.691	-115.575	0.396	0.073
-154.677	-83.536	-0.202	0.063
-153.662	-144.981	-0.188	0.017
-152.647	221.979	0.023	-0.037
-151.633	4.398	-0.252	0.181
-150.618	274.711	-0.147	0.255
-149.604	-200.000	0.045	0.196
-148.589	-79.253	0.164	-0.054
-147.574	29.082	0.352	0.292
-146.560	800.000	-0.041	-0.133
-145.545	-200.000	-0.011	0.079
-144.531	68.786	0.079	0.080
-143.516	-200.000	-0.034	-0.512
-142.502	398.060	-0.090	-0.184
-141.487	537.456	-0.033	0.077
-140.472	-11.927	-0.116	-0.075
-139.458	30.688	0.128	-0.107
-138.443	-95.972	0.206	0.054
-137.429	394.266	0.035	0.072
-136.414	-37.349	0.282	0.148
-135.399	-142.039	-0.278	-0.027
-134.385	-68.152	0.450	0.172
-133.370	800.000	-0.086	-0.359
-132.356	10.767	-0.195	-0.146
-131.341	275.377	-0.122	-0.212
-130.326	134.121	0.201	-0.255
-129.312	537.567	0.043	0.101
-128.297	-51.625	0.118	-0.054
-127.283	-200.000	-0.068	0.329
-126.268	800.000	-0.085	0.258
-125.253	800.000	0.028	-0.080
-124.239	-48.843	-0.254	0.119
-123.224	141.250	0.145	-0.188
-122.210	800.000	0.084	-0.313
-121.195	118.860	0.042	-0.051
