DTS Sentinel unit serial number:	SN413079Multiplexer serial number:	ORYXHardware model number:	OX4-SRSoftware version number:	ORYX F/W v4.00 Oryx Data Collector v3.7.2.0data status	okinstallation	princeton_trtdifferential loss correction	single-endedforward channel	channel 2reverse channel	N/Adate	2019/09/12time	18:07:49forward acquisition time	15.00reverse acquisition time	0.00gamma	496.2192k internal	0.2323k external	0.2323temperature offset calibration	1.0128default loss term (dB/km)	0.3790temperature slope calibration	1.0000multiplexer offset coefficient	1.0000multiplexer slope coefficient	1.0000fibre end	0.00T internal ref (°C)	33.69T ext. ref 1 (°C)	2.94T ext. ref 2 (°C)	28.31length (m)	temperature (°C)	Stokes	anti-Stokes-747.200	-147.681	0.357	0.030
-746.185	-86.732	-0.214	0.066
-745.171	286.060	-0.346	0.631
-744.156	18.273	0.424	-0.342
-743.142	116.715	-0.413	0.511
-742.127	-76.582	-1.170	0.415
-741.112	41.664	0.708	0.648
-740.098	-200.000	-0.036	0.394
-739.083	-80.618	-0.209	-0.070
-738.069	72.287	0.281	0.296
-737.054	392.284	0.211	0.443
-736.039	-116.778	0.864	0.160
-735.025	-116.771	0.909	0.168
-734.010	74.731	0.123	-0.131
-732.996	800.000	0.026	0.081
-731.981	-120.244	0.182	-0.031
-730.966	122.041	0.645	0.813
-729.952	-14.621	-1.049	0.680
-728.937	387.914	0.138	-0.288
-727.923	-20.883	0.598	0.370
-726.908	82.587	-0.419	0.459
-725.894	-74.406	0.746	0.272
-724.879	-28.856	-0.087	0.051
-723.864	800.000	0.093	-0.378
-722.850	800.000	0.134	-0.401
-721.835	769.542	0.263	-0.723
-720.821	-107.155	-1.088	-0.242
-719.806	0.767	0.927	-0.670
-718.791	800.000	-0.144	-0.484
-717.777	-29.779	0.032	-0.019
-716.762	24.327	0.252	-0.210
-715.748	800.000	0.160	0.546
-714.733	-171.245	0.877	0.030
-713.718	572.838	-0.258	-0.634
-712.704	-52.049	0.110	0.052
-711.689	-153.928	-0.517	-0.036
-710.675	-6.597	-0.448	-0.308
-709.660	72.111	0.174	0.183
-708.645	772.024	-0.206	0.566
-707.631	-47.759	0.432	-0.211
-706.616	-114.916	0.322	0.062
-705.602	32.893	-0.164	0.144
-704.587	363.209	-0.347	0.702
-703.572	-48.454	-0.328	0.159
-702.558	-77.534	-0.799	0.280
-701.543	-110.211	-0.432	0.091
-700.529	-39.883	0.382	0.201
-699.514	89.782	-0.189	-0.213
-698.499	-166.588	0.477	-0.020
-697.485	167.025	0.300	-0.429
-696.470	-200.000	-0.043	-0.579
-695.456	-34.868	-0.865	0.476
-694.441	-106.306	-0.435	-0.098
-693.426	-33.762	-0.164	-0.091
-692.412	-2.614	0.411	0.290
-691.397	248.677	0.399	0.681
-690.383	-164.783	0.096	0.004
-689.368	-200.000	-0.077	0.403
-688.354	315.198	-0.478	0.908
-687.339	800.000	0.101	0.283
-686.324	-137.179	0.255	-0.029
-685.310	-200.000	-0.047	1.026
-684.295	40.077	0.581	-0.526
-683.281	204.093	-0.201	0.314
-682.266	-200.000	0.089	-0.663
-681.251	-72.435	0.920	-0.343
-680.237	-200.000	-0.033	-0.266
-679.222	-36.268	-0.333	-0.181
-678.208	800.000	0.097	0.316
-677.193	113.525	0.379	-0.463
-676.178	-200.000	-0.074	-0.704
-675.164	173.771	0.132	-0.192
-674.149	662.554	-0.215	0.559
-673.135	-134.530	0.239	0.029
-672.120	-69.265	0.841	-0.326
-671.105	428.019	-0.100	-0.218
-670.091	107.770	-0.515	0.617
-669.076	-70.837	0.467	0.177
-668.062	269.962	0.124	-0.219
-667.047	-142.091	0.877	-0.088
-666.032	-161.627	0.262	0.013
-665.018	-141.697	0.402	0.041
-664.003	-35.775	-0.071	-0.039
-662.989	-110.423	-0.405	0.085
-661.974	79.205	0.124	-0.134
-660.959	46.455	-0.147	-0.137
-659.945	10.810	-0.105	0.081
-658.930	-55.263	0.101	-0.046
-657.916	-200.000	0.010	0.506
-656.901	425.904	0.169	-0.367
-655.886	30.135	-0.250	0.215
-654.872	-146.651	-0.442	0.039
-653.857	-200.000	0.029	0.181
-652.843	-120.919	-0.744	-0.126
-651.828	-200.000	-0.216	-0.971
-650.814	2.978	0.119	-0.087
-649.799	464.979	0.210	-0.472
-648.784	-200.000	0.019	-0.614
-647.770	-100.616	0.507	-0.126
-646.755	800.000	0.243	0.909
-645.741	75.816	0.423	0.450
-644.726	-91.832	1.164	-0.332
-643.711	602.809	0.108	-0.270
-642.697	-142.463	-0.353	0.035
-641.682	-111.414	0.234	-0.048
-640.668	-93.900	0.292	0.081
-639.653	-145.817	0.104	0.009
-638.638	196.271	0.211	0.323
-637.624	800.000	0.074	0.254
-636.609	800.000	-0.077	0.315
-635.595	-66.068	-0.807	-0.324
-634.580	1.907	0.612	0.444
-633.565	44.643	0.123	0.114
-632.551	-113.213	0.660	0.131
-631.536	-3.558	-0.280	0.196
-630.522	-200.000	-0.152	-0.693
-629.507	-70.692	-0.396	0.150
-628.492	800.000	0.210	-0.583
-627.478	-49.237	0.442	0.212
-626.463	-15.263	-0.624	0.401
-625.449	266.860	0.230	-0.404
-624.434	248.465	-0.416	-0.708
-623.419	-200.000	0.127	0.568
-622.405	-78.613	-0.363	0.125
-621.390	-160.834	-0.252	0.013
-620.376	157.242	0.127	0.177
-619.361	-200.000	0.063	-0.643
-618.346	243.989	0.216	0.364
-617.332	124.566	-0.378	-0.477
-616.317	198.426	-0.216	0.331
-615.303	-189.537	-0.337	0.004
-614.288	388.107	0.286	0.594
-613.273	214.507	0.077	-0.122
-612.259	515.315	-0.299	-0.701
-611.244	-75.356	-0.183	-0.066
-610.230	295.055	-0.149	0.274
-609.215	800.000	-0.202	0.643
-608.201	-11.047	-0.694	-0.460
-607.186	23.955	0.575	0.477
-606.171	-25.878	-1.001	-0.592
-605.157	-73.270	-0.637	-0.234
-604.142	-200.000	0.039	0.235
-603.128	-2.476	-0.210	0.148
-602.113	329.304	0.183	0.354
-601.098	-7.443	-0.505	0.343
-600.084	244.174	-0.348	0.587
-599.069	-200.000	0.030	0.437
-598.055	-55.451	-0.140	0.063
-597.040	-75.336	0.234	-0.084
-596.025	-28.391	0.874	-0.506
-595.011	290.763	-0.422	0.770
-593.996	800.000	-0.165	0.647
-592.982	-200.000	0.142	0.692
-591.967	800.000	0.043	-0.142
-590.952	-200.000	0.003	0.394
-589.938	-33.619	-0.954	-0.529
-588.923	-21.721	0.982	0.600
-587.909	34.384	0.449	0.393
-586.894	105.160	0.287	-0.340
-585.879	-200.000	-0.091	0.573
-584.865	-44.885	0.155	-0.077
-583.850	-200.000	0.089	0.702
-582.836	800.000	-0.147	0.527
-581.821	30.185	0.256	0.219
-580.806	-116.527	0.501	-0.093
-579.792	340.525	-0.367	0.719
-578.777	-108.628	-0.625	-0.135
-577.763	41.674	-0.353	-0.321
-576.748	196.965	0.472	0.723
-575.733	241.326	0.308	0.517
-574.719	-200.000	0.053	0.629
-573.704	43.969	-0.119	0.109
-572.690	-113.531	0.231	-0.045
-571.675	148.574	-0.506	-0.686
-570.661	-200.000	0.016	-0.271
-569.646	800.000	-0.199	0.655
-568.631	14.814	-0.151	0.119
-567.617	49.890	-0.173	0.164
-566.602	-200.000	0.020	0.287
-565.588	-74.103	-0.485	0.176
-564.573	-32.462	0.890	0.497
-563.558	-11.509	-0.528	-0.348
-562.544	-72.624	0.307	-0.114
-561.529	-29.708	-0.628	-0.359
-560.515	-125.943	0.677	0.102
-559.500	-35.181	0.215	0.117
-558.485	9.416	-0.115	-0.087
-557.471	800.000	0.121	-0.389
-556.456	50.391	0.312	0.296
-555.442	-161.799	0.844	0.043
-554.427	800.000	0.384	-1.405
-553.412	8.854	-0.556	0.420
-552.398	654.501	0.038	-0.097
-551.383	-35.228	-0.359	0.196
-550.369	17.371	0.618	-0.492
-549.354	800.000	-0.323	-1.110
-548.339	800.000	0.124	-0.443
-547.325	388.252	-0.149	-0.310
-546.310	-200.000	-0.083	-0.509
-545.296	82.464	-0.300	0.326
-544.281	173.254	-0.333	0.481
-543.266	-152.425	-0.491	-0.035
-542.252	49.583	-0.589	-0.556
-541.237	-200.000	0.014	0.583
-540.223	-200.000	-0.042	-0.412
-539.208	158.861	0.128	0.178
-538.193	-82.516	0.031	0.010
-537.179	-189.593	0.178	0.002
-536.164	-200.000	0.289	0.001
-535.150	-200.000	-0.157	-1.039
-534.135	-109.774	0.999	-0.210
-533.121	749.400	-0.134	0.362
-532.106	-0.403	-0.106	-0.075
-531.091	-19.293	-0.079	-0.049
-530.077	-200.000	-0.019	-0.159
-529.062	-200.000	0.094	0.504
-528.048	-179.191	0.291	0.006
-527.033	132.063	0.267	-0.344
-526.018	202.502	-0.189	0.293
-525.004	-200.000	-0.012	-0.448
-523.989	-21.487	-0.336	-0.205
-522.975	562.000	-0.345	-0.836
-521.960	507.171	0.157	-0.365
-520.945	-66.332	-0.470	0.187
-519.931	159.166	-0.319	0.444
-518.916	800.000	0.074	0.272
-517.902	339.785	0.210	0.411
-516.887	406.291	0.204	0.432
-515.872	26.970	-0.644	0.541
-514.858	-157.035	0.312	0.019
-513.843	-94.326	-0.806	0.220
-512.829	-74.900	0.534	0.192
-511.814	-81.455	-0.108	0.036
-510.799	165.903	-0.154	0.218
-509.785	31.305	0.497	-0.427
-508.770	84.225	-0.234	-0.255
-507.756	629.904	-0.173	-0.438
-506.741	800.000	-0.239	-0.748
-505.726	-102.238	-0.800	0.192
-504.712	-200.000	-0.071	-0.412
-503.697	272.663	-0.144	-0.254
-502.683	-103.250	0.273	-0.064
-501.668	800.000	0.087	-0.339
-500.653	-133.775	-0.396	0.049
-499.639	800.000	-0.128	0.548
-498.624	-120.136	0.321	0.055
-497.610	-193.557	-0.501	-0.004
-496.595	-200.000	0.012	-0.165
-495.581	-46.914	-0.083	0.040
-494.566	288.160	0.320	0.580
-493.551	131.654	0.386	-0.496
-492.537	238.537	-0.042	-0.069
-491.522	-65.259	-0.712	-0.287
-490.508	96.695	0.172	0.197
-489.493	527.565	-0.114	-0.269
-488.478	21.713	-1.115	0.907
-487.464	800.000	0.052	0.177
-486.449	800.000	-0.188	-0.552
-485.435	-200.000	-0.057	0.625
-484.420	-124.481	-0.261	0.041
-483.405	-34.362	-0.522	-0.286
-482.391	-168.200	-1.185	-0.046
-481.376	-23.143	-0.024	-0.015
-480.362	156.292	-0.153	-0.210
-479.347	-100.835	0.041	-0.010
-478.332	20.049	0.577	-0.465
-477.318	33.122	0.417	0.361
-476.303	-200.000	0.016	-0.195
-475.289	-53.923	-0.354	-0.161
-474.274	-75.614	0.943	-0.335
-473.259	800.000	-0.107	-0.334
-472.245	158.366	-0.259	0.360
-471.230	800.000	0.185	0.743
-470.216	-97.377	-0.739	-0.192
-469.201	93.891	-0.420	-0.476
-468.186	800.000	-0.153	0.546
-467.172	-174.319	0.554	-0.016
-466.157	800.000	0.053	-0.228
-465.143	-25.944	-0.910	0.535
-464.128	271.786	0.224	0.394
-463.113	-92.174	-0.427	-0.121
-462.099	654.589	-0.073	0.187
-461.084	17.257	0.797	-0.631
-460.070	454.558	-0.315	-0.696
-459.055	-124.262	-0.159	-0.025
-458.040	138.697	-0.489	-0.641
-457.026	72.601	-0.193	-0.201
-456.011	-200.000	-0.011	0.219
-454.997	83.064	0.620	0.674
-453.982	-48.322	0.432	-0.208
-452.968	-200.000	0.055	-1.062
-451.953	-83.704	-0.506	0.161
-450.938	-1.921	-0.316	-0.222
-449.924	212.797	0.364	-0.573
-448.909	-65.781	0.284	-0.113
-447.895	-11.544	0.246	0.161
-446.880	800.000	0.233	0.707
-445.865	-23.714	-0.597	0.357
-444.851	-200.000	0.110	-0.785
-443.836	-149.059	0.288	-0.023
-442.822	256.384	-0.114	-0.196
-441.807	66.557	-0.558	0.566
-440.792	-200.000	-0.086	-0.551
-439.778	-31.704	0.310	0.174
-438.763	-27.547	-0.316	0.183
-437.749	504.536	0.184	-0.425
-436.734	-99.918	0.118	-0.029
-435.719	658.259	-0.104	0.268
-434.705	-39.027	-0.431	-0.226
-433.690	-80.282	0.126	0.042
-432.676	-37.654	0.206	-0.109
-431.661	-115.786	0.717	-0.134
-430.646	-9.312	0.151	-0.101
-429.632	-200.000	-0.092	-0.649
-428.617	200.811	0.149	0.229
-427.603	-180.944	-0.451	0.009
-426.588	-16.366	-0.156	0.099
-425.573	800.000	0.264	0.843
-424.559	275.890	0.228	-0.403
-423.544	-92.441	0.741	-0.208
-422.530	6.590	0.683	0.506
-421.515	102.695	0.268	0.313
-420.500	348.805	-0.092	-0.181
-419.486	30.613	-0.240	-0.205
-418.471	295.228	-0.328	0.599
-417.457	54.284	-0.520	-0.499
-416.442	-96.837	-0.753	-0.197
-415.428	-22.856	0.629	-0.379
-414.413	800.000	0.049	0.186
-413.398	55.029	0.171	-0.165
-412.384	271.751	0.270	-0.474
-411.369	-77.921	0.709	0.244
-410.355	-200.000	-0.154	0.775
-409.340	-91.054	0.551	0.158
-408.325	-127.972	0.991	-0.142
-407.311	-86.629	-0.033	-0.010
-406.296	800.000	0.130	-0.416
-405.282	-124.502	0.293	0.045
-404.267	-97.809	-0.499	0.128
-403.252	167.521	0.058	-0.082
-402.238	15.642	-0.392	0.307
-401.223	42.378	-0.358	-0.324
-400.209	800.000	0.151	-0.420
-399.194	-0.910	0.542	-0.382
-398.179	-120.008	0.193	-0.033
-397.165	-200.000	-0.007	0.259
-396.150	-105.914	0.400	0.090
-395.136	-200.000	-0.006	0.470
-394.121	402.719	-0.361	-0.755
-393.106	119.234	0.771	0.950
-392.092	-10.622	0.589	0.388
-391.077	695.303	-0.092	-0.241
-390.063	-24.430	0.073	0.043
-389.048	101.055	0.259	-0.301
-388.033	-42.389	0.194	-0.099
-387.019	-200.000	-0.127	1.459
-386.004	-130.052	0.294	-0.040
-384.990	101.309	0.510	-0.591
-383.975	106.839	-0.170	0.201
-382.960	-109.824	0.458	0.096
-381.946	-65.367	-1.130	0.453
-380.931	35.505	-0.364	0.319
-379.917	-158.113	0.184	0.011
-378.902	800.000	-0.106	-0.337
-377.888	-200.000	-0.033	0.549
-376.873	132.338	-0.140	-0.179
-375.858	427.006	-0.298	-0.640
-374.844	68.720	-0.071	0.073
-373.829	-63.217	0.647	0.265
-372.815	-11.720	0.484	0.316
-371.800	523.578	0.102	-0.239
-370.785	67.065	0.871	0.884
-369.771	93.513	-0.421	0.475
-368.756	472.681	0.157	-0.351
-367.742	-41.679	0.682	-0.349
-366.727	308.942	0.352	-0.654
-365.712	-5.077	0.161	0.110
-364.698	800.000	-0.010	-0.029
-363.683	96.207	0.410	0.467
-362.669	63.010	-0.549	0.547
-361.654	14.342	-0.344	-0.267
-360.639	43.600	0.226	-0.206
-359.625	-0.917	0.700	-0.493
-358.610	22.625	0.686	-0.558
-357.596	-169.054	-0.259	0.010
-356.581	-200.000	0.006	-0.233
-355.566	-80.801	0.717	-0.237
-354.552	173.508	-0.366	-0.525
-353.537	-42.185	0.584	0.297
-352.523	178.343	-0.106	-0.153
-351.508	110.783	-0.151	0.181
-350.493	464.631	0.419	-0.933
-349.479	-200.000	0.056	-0.395
-348.464	589.597	-0.290	-0.711
-347.450	50.497	0.401	0.377
-346.435	26.847	-0.267	0.222
-345.420	212.529	-0.360	0.564
-344.406	403.707	-0.461	-0.965
-343.391	-200.000	-0.022	-0.346
-342.377	271.325	0.157	-0.274
-341.362	-200.000	0.002	0.598
-340.348	3.040	1.185	0.856
-339.333	-140.734	-0.946	-0.097
-338.318	-200.000	-0.093	-0.414
-337.304	-126.000	0.562	0.084
-336.289	-123.127	0.759	-0.121
-335.275	-15.866	-0.367	-0.232
-334.260	64.399	-0.075	-0.075
-333.245	74.657	0.332	-0.347
-332.231	205.826	-0.517	0.798
-331.216	63.521	-0.186	-0.185
-330.202	137.745	0.129	-0.168
-329.187	76.175	-0.528	-0.556
-328.172	253.744	0.344	-0.585
-327.158	204.075	0.439	-0.675
-326.143	-87.515	0.292	-0.088
-325.129	50.641	-0.285	0.268
-324.114	-19.809	-0.456	-0.280
-323.099	-128.641	-0.232	0.033
-322.085	225.439	0.209	0.337
-321.070	35.755	-0.211	0.184
-320.056	-200.000	0.020	-0.701
-319.041	436.492	-0.297	-0.643
-318.026	6.941	-0.642	-0.476
-317.012	-200.000	0.001	-0.209
-315.997	-50.381	0.498	-0.234
-314.983	-125.484	-0.692	-0.105
-313.968	-158.900	-1.078	-0.061
-312.953	-108.190	-1.081	0.232
-311.939	661.355	-0.256	0.655
-310.924	147.280	0.231	0.308
-309.910	117.127	-0.330	-0.402
-308.895	173.593	0.493	-0.707
-307.880	314.216	-0.195	0.364
-306.866	206.076	-0.526	-0.812
-305.851	120.009	0.275	-0.339
-304.837	170.919	-0.494	-0.702
-303.822	800.000	-0.244	-0.812
-302.807	800.000	0.249	-0.878
-301.793	81.534	0.197	-0.211
-300.778	-200.000	0.034	0.765
-299.764	90.427	-0.060	0.067
-298.749	-115.609	0.507	0.094
-297.735	130.636	0.296	-0.376
-296.720	-64.981	0.753	-0.302
-295.705	-160.256	-0.900	0.048
-294.691	-200.000	-0.039	0.347
-293.676	210.110	0.141	0.219
-292.662	109.778	0.267	-0.318
-291.647	114.450	-0.480	-0.580
-290.632	38.553	0.595	0.526
-289.618	35.937	0.374	-0.326
-288.603	-5.744	0.586	-0.398
-287.589	-169.810	-0.506	-0.018
-286.574	47.034	0.402	0.371
-285.559	91.293	0.273	-0.304
-284.545	-141.386	1.201	0.121
-283.530	736.756	0.213	0.567
-282.516	-104.769	-0.282	0.064
-281.501	-200.000	-0.097	0.461
-280.486	-146.219	0.862	-0.075
-279.472	-178.745	0.602	0.014
-278.457	-77.434	0.238	-0.082
-277.443	778.012	0.313	-0.848
-276.428	49.952	-0.120	-0.112
-275.413	-69.969	-0.461	0.174
-274.399	-200.000	-0.108	0.516
-273.384	-76.644	0.785	-0.273
-272.370	-200.000	-0.015	0.266
-271.355	-200.000	0.012	-0.106
-270.340	-200.000	0.041	0.553
-269.326	99.928	-0.361	0.415
-268.311	-200.000	-0.005	0.593
-267.297	-200.000	0.096	-0.746
-266.282	-73.296	-0.800	0.290
-265.267	-136.106	-0.210	-0.024
-264.253	70.601	0.122	-0.125
-263.238	197.659	-0.057	-0.086
-262.224	456.871	-0.049	0.107
-261.209	125.922	-0.254	0.318
-260.195	137.872	-0.647	-0.840
-259.180	93.199	0.754	0.845
-258.165	-42.108	0.728	-0.369
-257.151	800.000	-0.168	0.683
-256.136	732.295	0.102	-0.271
-255.122	190.624	-0.425	0.633
-254.107	-172.818	0.780	0.024
-253.092	-97.351	0.319	0.082
-252.078	-200.000	0.041	-0.603
-251.063	-200.000	-0.063	0.800
-250.049	70.380	0.165	0.169
-249.034	-123.661	0.892	0.140
-248.019	218.406	-0.514	-0.814
-247.005	455.663	-0.527	-1.159
-245.990	97.422	-0.235	0.267
-244.976	-83.683	-0.378	0.120
-243.961	68.290	0.182	-0.185
-242.946	-81.679	0.950	-0.309
-241.932	-109.478	-0.595	-0.125
-240.917	136.401	-0.313	0.404
-239.903	800.000	-0.025	-0.106
-238.888	48.041	0.435	-0.403
-237.873	188.296	-0.476	-0.705
-236.859	21.644	0.286	-0.230
-235.844	-84.437	-0.830	0.260
-234.830	245.180	0.192	-0.320
-233.815	153.808	0.381	0.516
-232.800	800.000	-0.101	0.409
-231.786	-27.012	-0.698	0.403
-230.771	-200.000	-0.119	0.609
-229.757	102.440	-0.455	-0.526
-228.742	432.901	-0.189	0.407
-227.727	99.597	0.532	0.609
-226.713	-200.000	-0.140	0.000
-225.698	-55.924	0.784	0.346
-224.684	584.353	-0.235	0.572
-223.669	800.000	-0.071	0.242
-222.655	547.304	-0.191	0.452
-221.640	218.154	0.079	-0.125
-220.625	532.689	-0.091	-0.214
-219.611	238.618	-0.317	0.520
-218.596	490.185	0.101	0.230
-217.582	63.996	0.400	-0.398
-216.567	53.614	0.766	-0.727
-215.552	-75.864	0.546	0.191
-214.538	634.722	0.254	-0.637
-213.523	-87.333	0.848	0.254
-212.509	70.494	0.488	0.499
-211.494	119.676	-0.375	0.460
-210.479	277.421	-0.259	0.456
-209.465	-122.906	-1.027	-0.164
-208.450	-200.000	-0.004	0.897
-207.436	-4.760	-0.045	-0.031
-206.421	800.000	-0.126	0.471
-205.406	-200.000	0.095	0.614
-204.392	-2.600	-0.601	0.416
-203.377	266.957	0.375	0.648
-202.363	30.616	-0.177	0.150
-201.348	-12.137	-0.747	0.483
-200.333	-93.505	-0.532	0.146
-199.319	246.219	-0.651	-1.084
-198.304	-5.364	0.914	-0.621
-197.290	800.000	-0.063	-0.226
-196.275	-70.038	0.702	0.264
-195.260	800.000	-0.047	0.137
-194.246	-200.000	-0.031	0.624
-193.231	-56.935	-0.280	0.122
-192.217	523.561	-0.315	-0.731
-191.202	148.110	-0.590	-0.787
-190.187	-200.000	-0.009	0.141
-189.173	-200.000	-0.013	0.206
-188.158	-113.348	0.805	0.156
-187.144	-18.798	0.251	0.155
-186.129	-164.635	-0.773	0.035
-185.114	-78.413	-0.794	0.269
-184.100	-66.827	-0.210	0.082
-183.085	-71.287	0.294	0.109
-182.071	800.000	0.090	0.375
-181.056	-200.000	0.015	0.355
-180.042	-75.229	0.126	0.044
-179.027	559.362	-0.093	0.222
-178.012	126.980	0.773	-0.969
-176.998	170.156	-0.122	-0.173
-175.983	800.000	-0.061	-0.173
-174.969	-144.134	-0.702	0.065
-173.954	-25.777	-0.678	0.395
-172.939	800.000	0.208	0.740
-171.925	446.910	0.133	-0.290
-170.910	800.000	0.142	-0.612
-169.896	51.442	-0.204	0.191
-168.881	-200.000	-0.007	0.141
-167.866	-200.000	-0.069	0.747
-166.852	-24.041	0.487	0.287
-165.837	-114.887	-0.548	0.103
-164.823	47.283	-0.774	0.712
-163.808	-200.000	-0.004	-0.112
-162.793	48.083	-0.468	0.432
-161.779	540.844	-0.128	0.300
-160.764	32.462	-0.250	0.213
-159.750	-73.099	0.575	-0.208
-158.735	79.594	0.459	-0.486
-157.720	-38.942	-0.389	0.202
-156.706	355.743	0.246	-0.483
-155.691	256.607	0.194	-0.329
-154.677	-200.000	-0.081	0.506
-153.662	-156.161	-0.894	0.056
-152.647	-200.000	-0.143	-0.855
-151.633	315.310	0.306	-0.570
-150.618	800.000	-0.162	0.640
-149.604	-200.000	0.044	0.275
-148.589	497.627	-0.118	-0.267
-147.574	-44.873	0.476	-0.234
-146.560	-136.703	0.448	0.051
-145.545	800.000	0.071	-0.306
-144.531	800.000	0.166	0.548
-143.516	624.947	0.252	-0.626
-142.502	-65.053	0.682	0.272
-141.487	-200.000	0.051	0.305
-140.472	-200.000	0.007	0.777
-139.458	612.024	-0.194	-0.480
-138.443	234.204	0.217	-0.353
-137.429	-200.000	-0.158	-0.828
-136.414	-5.087	0.561	-0.381
-135.399	104.346	0.251	-0.292
-134.385	-182.448	-0.739	-0.013
-133.370	151.159	-0.149	0.200
-132.356	88.890	-0.276	0.303
-131.341	-122.659	-0.253	0.040
-130.326	-32.177	-0.521	-0.287
-129.312	-200.000	-0.014	-0.359
-128.297	-129.515	-0.341	-0.046
-127.283	-200.000	0.049	-0.312
-126.268	-175.373	0.496	0.013
-125.253	-200.000	0.048	-0.390
-124.239	-132.158	0.414	-0.053
-123.224	138.679	-0.323	-0.419
-122.210	308.359	0.245	0.451
-121.195	47.150	0.537	-0.493
-120.180	-143.216	-0.220	-0.021
