DTS Sentinel unit serial number:	SN413079Multiplexer serial number:	ORYXHardware model number:	OX4-SRSoftware version number:	ORYX F/W v4.00 Oryx Data Collector v3.7.2.0data status	okinstallation	princeton_trtdifferential loss correction	single-endedforward channel	channel 2reverse channel	N/Adate	2019/09/19time	13:27:34forward acquisition time	60.00reverse acquisition time	0.00gamma	496.2192k internal	0.2327k external	0.2327temperature offset calibration	1.0016default loss term (dB/km)	0.3790temperature slope calibration	1.0000multiplexer offset coefficient	1.0000multiplexer slope coefficient	1.0000fibre end	0.00T internal ref (°C)	29.91T ext. ref 1 (°C)	0.97T ext. ref 2 (°C)	26.99length (m)	temperature (°C)	Stokes	anti-Stokes-747.200	626.410	-0.027	-0.069
-746.185	-30.304	-0.137	0.079
-745.171	-200.000	0.015	0.133
-744.156	-200.000	-0.008	-0.057
-743.142	-106.846	-0.091	0.020
-742.127	141.842	0.241	0.322
-741.112	322.838	0.145	0.279
-740.098	389.488	-0.117	0.243
-739.083	-45.978	0.163	0.081
-738.069	800.000	-0.031	-0.136
-737.054	-183.197	-0.213	-0.004
-736.039	-200.000	0.023	0.288
-735.025	21.499	0.368	-0.301
-734.010	-15.597	0.144	-0.093
-732.996	-6.893	-0.139	-0.095
-731.981	269.726	-0.156	-0.277
-730.966	117.131	0.194	-0.241
-729.952	-107.725	-0.054	0.012
-728.937	-41.908	0.053	-0.027
-727.923	-168.217	-0.353	0.014
-726.908	-69.396	-0.261	-0.101
-725.894	-119.659	-0.252	0.044
-724.879	266.619	-0.132	0.232
-723.864	-8.460	-0.142	-0.096
-722.850	472.288	0.014	-0.032
-721.835	-135.847	-0.074	-0.009
-720.821	-115.653	0.056	0.011
-719.806	-61.575	-0.306	0.129
-718.791	523.385	0.066	-0.157
-717.777	165.325	0.219	-0.311
-716.762	-200.000	-0.019	-0.409
-715.748	-58.438	0.171	0.075
-714.733	-200.000	-0.007	0.095
-713.718	-27.360	-0.128	-0.075
-712.704	-200.000	-0.113	-0.510
-711.689	-112.135	-0.174	0.035
-710.675	800.000	-0.114	-0.401
-709.660	-17.215	0.197	0.125
-708.645	-72.643	-0.158	0.059
-707.631	-200.000	0.227	0.000
-706.616	-103.915	-0.230	-0.054
-705.602	-188.805	-0.156	0.002
-704.587	-119.874	0.203	0.035
-703.572	-66.003	-0.345	0.139
-702.558	-152.234	-0.070	-0.005
-701.543	-152.092	0.142	-0.010
-700.529	-159.401	-0.154	0.009
-699.514	-96.353	0.106	-0.028
-698.499	-133.552	-0.328	-0.041
-697.485	-200.000	-0.000	-0.258
-696.470	254.364	0.122	-0.210
-695.456	-200.000	-0.090	-0.454
-694.441	-200.000	-0.011	-0.093
-693.426	91.670	-0.022	0.025
-692.412	42.112	0.094	0.086
-691.397	-200.000	0.006	0.046
-690.383	-44.494	-0.097	-0.049
-689.368	-200.000	0.050	-0.264
-688.354	87.885	-0.192	-0.214
-687.339	22.755	0.346	-0.285
-686.324	14.039	-0.326	0.255
-685.310	266.530	0.078	0.136
-684.295	-132.173	0.205	-0.027
-683.281	-170.268	-0.369	-0.013
-682.266	800.000	0.014	-0.050
-681.251	43.574	-0.129	0.119
-680.237	-5.369	0.174	0.120
-679.222	800.000	0.045	-0.137
-678.208	78.522	0.072	-0.077
-677.193	-200.000	-0.002	0.099
-676.178	-27.740	0.179	0.104
-675.164	-200.000	0.065	0.333
-674.149	-189.579	-0.440	-0.005
-673.135	-7.186	0.087	0.060
-672.120	800.000	-0.032	0.120
-671.105	-88.083	-0.206	0.062
-670.091	136.034	-0.087	0.115
-669.076	-200.000	0.030	-0.301
-668.062	337.096	-0.117	0.229
-667.047	-200.000	0.015	-0.230
-666.032	-200.000	0.002	-0.049
-665.018	-112.392	0.149	0.030
-664.003	-152.231	0.244	-0.018
-662.989	64.965	-0.113	0.115
-661.974	-200.000	-0.038	-0.208
-660.959	-8.854	0.221	0.149
-659.945	-78.948	-0.107	0.037
-658.930	281.017	-0.105	-0.188
-657.916	-152.050	-0.119	-0.009
-656.901	-8.744	-0.072	0.049
-655.886	800.000	0.085	-0.252
-654.872	198.163	0.165	0.254
-653.857	-97.007	-0.139	-0.037
-652.843	-31.470	-0.077	-0.044
-651.828	551.857	-0.095	0.229
-650.814	-145.739	-0.346	0.031
-649.799	183.267	-0.167	0.248
-648.784	-32.613	0.256	0.143
-647.770	-119.307	0.129	0.022
-646.755	800.000	-0.107	-0.461
-645.741	-200.000	-0.050	-0.352
-644.726	-15.363	0.116	-0.074
-643.711	333.345	-0.160	0.310
-642.697	53.721	0.371	-0.358
-641.682	800.000	0.077	0.264
-640.668	29.629	-0.277	-0.236
-639.653	-3.920	0.175	0.122
-638.638	345.691	-0.090	0.177
-637.624	-132.376	0.035	-0.005
-636.609	-106.487	-0.240	0.054
-635.595	-50.329	-0.197	0.093
-634.580	-104.120	0.447	-0.104
-633.565	-106.125	-0.326	-0.074
-632.551	-173.312	0.535	-0.016
-631.536	-8.804	0.084	-0.056
-630.522	-29.184	0.183	0.105
-629.507	145.081	-0.215	-0.288
-628.492	-87.726	-0.197	0.059
-627.478	-15.628	-0.279	-0.179
-626.463	43.687	-0.239	-0.220
-625.449	94.570	0.037	0.042
-624.434	800.000	-0.063	-0.177
-623.419	23.922	-0.119	0.098
-622.405	-128.302	-0.158	0.023
-621.390	-69.467	0.203	-0.078
-620.376	-52.063	-0.269	-0.125
-619.361	17.132	0.207	0.164
-618.346	-59.310	-0.228	-0.098
-617.332	15.713	-0.209	-0.165
-616.317	-79.513	-0.453	0.154
-615.303	-113.238	0.296	-0.059
-614.288	480.050	-0.059	-0.135
-613.273	-41.445	-0.133	0.069
-612.259	-73.718	0.215	-0.078
-611.244	144.824	0.148	-0.198
-610.230	-200.000	-0.047	-0.282
-609.215	-200.000	-0.015	-0.195
-608.201	121.470	-0.060	-0.075
-607.186	-92.724	-0.282	0.079
-606.171	-90.726	-0.072	0.021
-605.157	800.000	-0.021	0.080
-604.142	-107.120	0.156	0.034
-603.128	-144.123	0.314	-0.029
-602.113	-12.179	-0.221	-0.145
-601.098	-58.674	0.174	-0.075
-600.084	575.193	-0.013	0.031
-599.069	-200.000	-0.000	0.146
-598.055	800.000	0.062	-0.220
-597.040	22.544	-0.078	0.064
-596.025	-67.892	0.034	-0.013
-595.011	800.000	-0.066	0.209
-593.996	-4.129	-0.298	-0.207
-592.982	314.041	0.092	-0.173
-591.967	198.593	0.122	0.186
-590.952	44.660	0.136	-0.125
-589.938	-99.218	-0.094	0.024
-588.923	183.761	-0.105	0.155
-587.909	800.000	-0.023	-0.087
-586.894	-72.210	0.201	-0.075
-585.879	396.269	-0.106	0.222
-584.865	-200.000	0.010	0.184
-583.850	42.617	-0.148	-0.135
-582.836	-55.235	-0.182	0.082
-581.821	-200.000	0.005	-0.264
-580.806	32.145	0.302	-0.261
-579.792	-66.399	-0.185	0.074
-578.777	656.518	0.017	0.043
-577.763	-126.829	-0.221	0.033
-576.748	14.596	-0.139	0.108
-575.733	-200.000	0.008	-0.278
-574.719	393.369	-0.167	-0.348
-573.704	-200.000	0.033	-0.284
-572.690	800.000	0.063	0.223
-571.675	-36.632	-0.414	0.223
-570.661	540.309	-0.151	-0.361
-569.646	-27.053	0.094	-0.055
-568.631	800.000	-0.032	0.115
-567.617	-50.559	0.318	0.150
-566.602	-159.109	-0.290	-0.016
-565.588	-6.148	0.132	-0.090
-564.573	-157.953	0.011	0.001
-563.558	-96.893	-0.065	0.017
-562.544	163.290	0.125	-0.176
-561.529	800.000	-0.106	0.348
-560.515	-180.920	-0.128	-0.003
-559.500	-100.711	-0.385	-0.095
-558.485	-31.802	0.128	0.072
-557.471	-88.385	0.144	-0.043
-556.456	-200.000	-0.024	-0.146
-555.442	-200.000	-0.029	0.233
-554.427	77.749	-0.322	-0.344
-553.412	249.806	0.041	0.069
-552.398	133.106	-0.099	0.128
-551.383	800.000	0.084	-0.303
-550.369	78.474	-0.107	0.114
-549.354	315.485	-0.163	-0.308
-548.339	64.368	0.174	-0.176
-547.325	-57.662	-0.091	-0.040
-546.310	-200.000	0.000	0.023
-545.296	-40.536	0.203	-0.105
-544.281	800.000	0.115	-0.372
-543.266	-98.688	-0.257	-0.066
-542.252	-200.000	0.088	-0.485
-541.237	49.390	-0.324	0.305
-540.223	800.000	0.053	-0.153
-539.208	-21.104	0.271	-0.166
-538.193	-200.000	-0.029	0.223
-537.179	-127.408	-0.410	0.060
-536.164	-200.000	-0.001	-0.155
-535.150	107.060	0.072	0.086
-534.135	-124.002	-0.403	-0.063
-533.121	275.998	-0.031	0.055
-532.106	699.128	-0.043	0.113
-531.091	800.000	-0.018	0.069
-530.077	181.496	-0.295	0.434
-529.062	386.104	0.163	0.336
-528.048	800.000	0.036	0.110
-527.033	-128.590	-0.206	-0.029
-526.018	-200.000	0.012	-0.101
-525.004	-139.347	-0.256	0.027
-523.989	-200.000	-0.023	-0.332
-522.975	70.194	-0.190	0.197
-521.960	29.805	-0.148	-0.126
-520.945	206.448	0.154	-0.240
-519.931	21.170	-0.309	0.251
-518.916	-32.185	0.135	0.075
-517.902	9.338	0.207	-0.156
-516.887	-200.000	-0.037	-0.247
-515.872	-54.179	-0.240	0.109
-514.858	-89.430	0.255	-0.075
-513.843	-122.591	-0.173	0.028
-512.829	23.422	-0.042	0.035
-511.814	-84.989	0.184	0.058
-510.799	-25.173	0.305	-0.181
-509.785	-200.000	-0.050	-0.350
-508.770	241.573	0.163	0.273
-507.756	262.316	0.106	0.183
-506.741	-172.472	0.220	0.007
-505.726	768.709	-0.096	0.260
-504.712	-92.246	0.244	-0.069
-503.697	-200.000	-0.009	0.186
-502.683	566.032	-0.054	-0.132
-501.668	-58.636	0.060	-0.026
-500.653	-200.000	-0.034	0.159
-499.639	-200.000	0.041	-0.299
-498.624	378.099	-0.122	-0.250
-497.610	-86.344	-0.114	0.035
-496.595	-106.738	-0.148	-0.033
-495.581	76.975	-0.194	0.205
-494.566	-200.000	0.027	-0.163
-493.551	-127.365	0.271	-0.039
-492.537	-200.000	0.020	0.302
-491.522	-200.000	0.011	-0.095
-490.508	-200.000	0.041	-0.379
-489.493	-68.844	-0.037	-0.014
-488.478	-79.254	-0.052	0.017
-487.464	-200.000	0.018	0.185
-486.449	158.518	-0.059	0.082
-485.435	62.905	-0.163	0.163
-484.420	686.693	-0.082	0.214
-483.405	-73.420	0.290	0.106
-482.391	800.000	0.065	0.207
-481.376	729.825	-0.179	-0.478
-480.362	800.000	0.047	0.135
-479.347	-200.000	-0.013	0.251
-478.332	-200.000	-0.016	-0.102
-477.318	-119.549	0.163	-0.028
-476.303	800.000	0.012	-0.042
-475.289	800.000	-0.052	0.210
-474.274	-91.272	0.247	-0.070
-473.259	-200.000	-0.009	0.359
-472.245	107.208	-0.127	-0.151
-471.230	243.969	-0.137	-0.229
-470.216	800.000	-0.105	0.424
-469.201	-200.000	-0.025	-0.258
-468.186	234.450	-0.131	-0.216
-467.172	73.050	0.102	0.107
-466.157	63.972	0.078	0.078
-465.143	-128.786	0.061	0.009
-464.128	-200.000	-0.016	-0.075
-463.113	116.196	0.159	-0.194
-462.099	800.000	-0.100	0.434
-461.084	800.000	-0.067	-0.229
-460.070	-200.000	-0.001	-0.054
-459.055	-54.957	-0.315	-0.142
-458.040	-174.994	0.096	0.003
-457.026	800.000	0.033	-0.094
-456.011	23.347	-0.213	-0.175
-454.997	-200.000	-0.037	0.203
-453.982	-86.712	-0.146	0.045
-452.968	-27.100	-0.109	-0.063
-451.953	-6.376	0.282	-0.192
-450.938	-46.748	0.199	-0.097
-449.924	-62.780	-0.426	0.176
-448.909	234.106	-0.030	0.049
-447.895	7.554	0.264	-0.197
-446.880	-200.000	-0.021	0.119
-445.865	170.343	-0.083	0.119
-444.851	-51.539	-0.174	0.081
-443.836	-148.960	0.397	-0.032
-442.822	122.790	0.099	0.124
-441.807	-200.000	0.004	0.216
-440.792	-3.540	0.178	0.124
-439.778	190.657	-0.116	0.173
-438.763	-37.696	-0.129	-0.069
-437.749	77.194	0.057	-0.060
-436.734	-141.070	0.082	0.008
-435.719	-149.282	0.261	-0.021
-434.705	-200.000	0.019	0.205
-433.690	-69.780	0.086	-0.033
-432.676	800.000	-0.070	-0.230
-431.661	-26.129	-0.046	-0.027
-430.646	-200.000	-0.041	-0.307
-429.632	58.883	0.116	-0.114
-428.617	187.412	0.103	0.153
-427.603	-51.391	-0.232	0.108
-426.588	-200.000	-0.012	0.188
-425.573	-54.187	0.343	0.155
-424.559	448.567	0.141	0.309
-423.544	-200.000	0.017	0.184
-422.530	800.000	-0.025	-0.088
-421.515	197.649	0.090	-0.136
-420.500	800.000	0.089	0.260
-419.486	-155.355	-0.498	0.032
-418.471	147.505	-0.071	0.096
-417.457	-130.672	0.206	-0.028
-416.442	240.920	0.246	-0.408
-415.428	-34.347	-0.107	-0.059
-414.413	789.807	0.042	-0.114
-413.398	-130.860	0.299	-0.040
-412.384	-21.359	0.242	0.147
-411.369	-79.380	-0.132	0.045
-410.355	-200.000	0.345	0.000
-409.340	-200.000	0.010	0.141
-408.325	-200.000	-0.032	-0.340
-407.311	-4.302	0.112	-0.077
-406.296	-200.000	0.013	-0.100
-405.282	-100.716	-0.108	0.027
-404.267	90.703	-0.225	-0.251
-403.252	-121.667	0.266	0.044
-402.238	800.000	0.067	-0.270
-401.223	40.110	-0.050	0.045
-400.209	94.149	0.044	-0.050
-399.194	-200.000	0.000	-0.420
-398.179	81.885	-0.124	0.134
-397.165	385.762	-0.042	-0.087
-396.150	34.479	-0.244	0.212
-395.136	-200.000	0.008	0.154
-394.121	210.902	0.138	0.216
-393.106	149.029	0.114	-0.154
-392.092	-32.392	0.234	-0.130
-391.077	31.606	-0.379	0.324
-390.063	-8.001	-0.282	-0.189
-389.048	382.626	0.091	0.185
-388.033	175.515	-0.088	0.126
-387.019	692.917	0.152	-0.395
-386.004	-70.368	-0.383	0.145
-384.990	-5.026	-0.178	-0.122
-383.975	2.462	0.198	0.143
-382.960	-102.678	-0.097	0.023
-381.946	70.208	0.218	-0.224
-380.931	-78.544	-0.143	-0.049
-379.917	-195.157	0.168	0.001
-378.902	255.424	-0.068	-0.116
-377.888	-200.000	-0.024	0.113
-376.873	-159.318	-0.152	0.008
-375.858	-200.000	-0.310	-0.001
-374.844	-31.557	0.266	0.149
-373.829	136.083	0.103	0.134
-372.815	800.000	-0.099	0.360
-371.800	-200.000	0.001	0.156
-370.785	-4.047	-0.106	-0.073
-369.771	399.742	-0.205	-0.428
-368.756	43.875	-0.070	0.064
-367.742	31.703	0.347	0.297
-366.727	-67.597	0.097	-0.038
-365.712	221.196	0.214	-0.342
-364.698	225.275	0.169	-0.272
-363.683	-200.000	0.003	-0.146
-362.669	-136.841	0.160	0.018
-361.654	118.759	-0.210	0.257
-360.639	-18.485	0.230	-0.143
-359.625	277.470	0.084	-0.148
-358.610	-121.839	0.080	-0.013
-357.596	180.715	0.128	0.186
-356.581	108.509	0.201	0.238
-355.566	-99.360	-0.239	0.060
-354.552	115.963	0.094	0.114
-353.537	141.538	0.115	0.151
-352.523	495.648	0.116	0.265
-351.508	156.626	0.187	0.257
-350.493	339.159	0.068	-0.131
-349.479	-200.000	-0.016	-0.472
-348.464	315.151	-0.051	-0.095
-347.450	-150.622	-0.183	0.014
-346.435	200.716	0.188	-0.286
-345.420	-154.341	0.130	0.009
-344.406	-121.892	-0.158	0.026
-343.391	234.887	0.208	0.340
-342.377	-106.652	0.169	-0.037
-341.362	67.016	-0.104	0.105
-340.348	-173.387	-0.163	0.005
-339.333	-154.130	0.275	-0.018
-338.318	-53.644	-0.339	0.154
-337.304	-162.902	-0.450	-0.022
-336.289	155.833	-0.092	0.126
-335.275	800.000	0.006	-0.017
-334.260	592.409	-0.106	-0.260
-333.245	800.000	-0.088	0.270
-332.231	6.811	-0.303	0.224
-331.216	-92.096	0.239	0.067
-330.202	-113.244	0.168	-0.033
-329.187	-53.803	-0.197	-0.089
-328.172	113.321	-0.212	0.255
-327.158	121.288	0.080	-0.098
-326.143	-1.965	-0.167	0.117
-325.129	196.713	0.193	0.291
-324.114	408.293	0.061	-0.127
-323.099	-200.000	-0.026	-0.150
-322.085	-68.312	0.268	-0.103
-321.070	-47.322	0.238	-0.115
-320.056	800.000	-0.081	0.248
-319.041	-200.000	0.485	-0.002
-318.026	24.393	0.142	-0.116
-317.012	367.128	0.274	0.548
-315.997	97.716	-0.303	-0.345
-314.983	-98.672	0.460	-0.116
-313.968	125.035	0.281	-0.351
-312.953	-37.812	-0.187	-0.099
-311.939	-39.707	-0.336	-0.174
-310.924	-19.907	0.114	-0.070
-309.910	772.864	-0.079	-0.214
-308.895	-17.483	-0.084	0.052
-307.880	29.239	0.165	0.139
-306.866	189.467	-0.037	0.054
-305.851	88.201	-0.154	-0.169
-304.837	538.396	-0.097	0.229
-303.822	257.339	0.164	-0.279
-302.807	60.917	-0.248	-0.244
-301.793	800.000	-0.071	-0.236
-300.778	-18.098	-0.112	0.070
-299.764	5.555	-0.372	0.272
-298.749	-200.000	0.022	0.174
-297.735	-35.203	0.108	0.058
-296.720	35.816	-0.140	-0.122
-295.705	800.000	0.075	-0.235
-294.691	165.551	-0.206	-0.289
-293.676	800.000	0.144	-0.461
-292.662	-172.790	-0.132	0.004
-291.647	735.937	0.090	-0.238
-290.632	3.899	0.184	0.133
-289.618	-200.000	0.036	0.297
-288.603	-40.288	0.188	0.097
-287.589	-140.280	-0.318	-0.033
-286.574	-200.000	0.004	-0.185
-285.559	-193.431	0.206	0.002
-284.545	800.000	0.070	-0.296
-283.530	-71.374	0.349	0.129
-282.516	73.054	-0.212	-0.219
-281.501	-138.406	0.133	0.015
-280.486	800.000	0.029	0.119
-279.472	-51.999	0.246	0.113
-278.457	289.760	0.160	0.287
-277.443	30.295	-0.284	0.240
-276.428	-200.000	-0.041	0.525
-275.413	773.191	0.076	0.204
-274.399	145.189	0.089	-0.118
-273.384	-200.000	0.003	0.073
-272.370	800.000	0.047	-0.164
-271.355	-200.000	-0.016	0.155
-270.340	92.947	-0.196	-0.219
-269.326	-200.000	0.001	-0.188
-268.311	-18.825	-0.120	0.074
-267.297	16.344	-0.400	0.313
-266.282	-14.963	0.407	0.258
-265.267	-187.836	0.172	0.002
-264.253	-86.629	-0.033	0.010
-263.238	154.339	-0.125	0.170
-262.224	-88.543	-0.232	0.068
-261.209	116.772	-0.063	0.077
-260.195	800.000	0.117	0.375
-259.180	359.613	-0.022	0.044
-258.165	-149.790	0.217	0.017
-257.151	102.753	-0.172	-0.199
-256.136	-143.760	-0.099	0.009
-255.122	-3.253	-0.055	-0.038
-254.107	-30.586	-0.132	0.074
-253.092	-130.820	0.201	0.027
-252.078	-56.845	-0.041	-0.018
-251.063	93.020	-0.089	0.099
-250.049	376.978	-0.113	-0.228
-249.034	263.232	0.011	-0.020
-248.019	-200.000	0.024	-0.320
-247.005	-60.877	-0.278	0.116
-245.990	-27.498	0.361	-0.207
-244.976	-200.000	-0.021	0.219
-243.961	317.861	0.031	-0.058
-242.946	-200.000	-0.017	0.103
-241.932	334.029	-0.080	-0.153
-240.917	21.802	-0.083	-0.067
-239.903	-200.000	0.009	0.271
-238.888	666.385	0.150	0.384
-237.873	-36.286	0.114	-0.061
-236.859	471.595	0.116	-0.258
-235.844	-146.211	0.023	-0.002
-234.830	249.036	-0.007	0.012
-233.815	41.775	0.128	-0.115
-232.800	-125.543	0.186	-0.028
-231.786	-37.831	0.100	0.053
-230.771	303.732	0.047	-0.085
-229.757	157.736	-0.019	0.026
-228.742	-2.725	0.194	0.134
-227.727	713.331	-0.100	-0.261
-226.713	121.812	-0.157	0.193
-225.698	-175.916	0.358	0.009
-224.684	-200.000	-0.028	0.180
-223.669	800.000	-0.036	0.147
-222.655	-14.630	0.206	0.131
-221.640	-135.084	-0.178	-0.021
-220.625	96.721	-0.360	0.408
-219.611	800.000	-0.054	-0.222
-218.596	508.985	0.048	0.110
-217.582	-45.903	-0.312	-0.152
-216.567	-174.841	0.256	0.007
-215.552	-47.348	-0.129	-0.062
-214.538	-110.613	0.225	-0.046
-213.523	245.967	-0.112	0.186
-212.509	-200.000	-0.027	0.253
-211.494	390.954	0.087	0.177
-210.479	116.428	0.068	0.082
-209.465	-29.162	0.094	-0.053
-208.450	-200.000	0.001	0.257
-207.436	-101.569	-0.073	-0.017
-206.421	-200.000	-0.018	-0.181
-205.406	-14.116	-0.090	0.057
-204.392	47.533	-0.160	0.147
-203.377	-126.980	0.133	-0.019
-202.363	5.001	0.088	0.064
-201.348	-200.000	-0.034	-0.319
-200.333	249.678	0.180	-0.301
-199.319	158.763	-0.178	-0.243
-198.304	7.819	-0.119	0.088
-197.290	800.000	-0.073	0.229
-196.275	-16.380	-0.193	0.121
-195.260	-61.230	0.430	0.179
-194.246	-200.000	-0.018	-0.170
-193.231	30.504	0.264	0.222
-192.217	-20.158	0.191	0.116
-191.202	291.169	-0.062	0.111
-190.187	-29.929	0.213	-0.119
-189.173	231.762	-0.023	0.038
-188.158	-184.777	0.423	0.007
-187.144	39.832	-0.126	0.111
-186.129	66.688	-0.102	-0.102
-185.114	-4.264	0.209	0.143
-184.100	800.000	-0.131	0.379
-183.085	613.219	-0.155	0.382
-182.071	-200.000	-0.019	0.269
-181.056	437.469	0.061	-0.132
-180.042	27.812	0.185	-0.153
-179.027	800.000	-0.076	-0.237
-178.012	114.549	-0.097	-0.116
-176.998	218.416	-0.067	-0.105
-175.983	-25.529	0.190	0.111
-174.969	68.994	-0.201	0.204
-173.954	800.000	0.054	0.207
-172.939	18.725	0.100	-0.079
-171.925	126.990	0.250	-0.312
-170.910	-171.023	-0.201	0.007
-169.896	444.122	0.053	-0.115
-168.881	221.330	-0.095	0.151
-167.866	-114.165	-0.156	0.030
-166.852	287.911	-0.186	-0.331
-165.837	-200.000	0.002	0.261
-164.823	800.000	-0.018	0.059
-163.808	-133.047	-0.231	-0.029
-162.793	495.317	0.027	0.061
-161.779	62.474	0.138	-0.135
-160.764	800.000	0.145	0.490
-159.750	-90.700	-0.026	0.007
-158.735	-49.802	0.324	-0.152
-157.720	-68.121	-0.094	0.036
-156.706	60.402	0.131	0.128
-155.691	93.446	0.226	0.252
-154.677	136.556	-0.195	-0.251
-153.662	297.354	0.110	-0.199
-152.647	107.478	0.086	0.100
-151.633	-82.554	0.216	0.069
-150.618	-123.414	0.185	0.029
-149.604	180.082	0.020	-0.029
-148.589	44.046	-0.029	0.026
-147.574	746.233	-0.090	0.238
-146.560	-43.763	-0.128	-0.063
-145.545	-18.736	-0.135	-0.083
-144.531	-111.311	0.247	-0.050
-143.516	123.987	-0.071	0.088
-142.502	551.093	0.113	0.266
-141.487	-103.058	-0.415	-0.097
-140.472	-200.000	0.037	0.178
-139.458	-87.420	0.119	-0.035
-138.443	209.757	0.081	0.125
-137.429	800.000	0.068	0.196
-136.414	488.260	0.017	0.037
-135.399	67.497	0.159	0.159
-134.385	-107.387	0.245	0.053
-133.370	-129.052	0.387	-0.053
-132.356	125.773	0.243	0.302
-131.341	22.147	-0.181	0.145
-130.326	56.653	-0.142	-0.136
-129.312	-200.000	-0.061	-0.275
-128.297	-128.879	0.079	0.011
-127.283	800.000	-0.071	0.227
-126.268	-200.000	-0.012	0.085
-125.253	-200.000	-0.006	0.257
-124.239	800.000	0.035	-0.128
-123.224	209.902	0.115	0.178
-122.210	74.780	0.067	0.070
-121.195	800.000	-0.050	-0.186
