DTS Sentinel unit serial number:	SN413079Multiplexer serial number:	ORYXHardware model number:	OX4-SRSoftware version number:	ORYX F/W v4.00 Oryx Data Collector v3.7.2.0data status	okinstallation	princeton_trtdifferential loss correction	single-endedforward channel	channel 2reverse channel	N/Adate	2019/09/12time	18:48:49forward acquisition time	15.00reverse acquisition time	0.00gamma	496.2192k internal	0.2324k external	0.2324temperature offset calibration	1.0129default loss term (dB/km)	0.3790temperature slope calibration	1.0000multiplexer offset coefficient	1.0000multiplexer slope coefficient	1.0000fibre end	0.00T internal ref (°C)	32.94T ext. ref 1 (°C)	2.97T ext. ref 2 (°C)	27.41length (m)	temperature (°C)	Stokes	anti-Stokes-747.200	-200.000	0.081	0.542
-746.185	-56.137	0.440	0.198
-745.171	-200.000	0.028	-0.878
-744.156	-45.570	0.046	-0.023
-743.142	258.798	0.288	-0.502
-742.127	-200.000	0.046	0.226
-741.112	-200.000	-0.024	-0.365
-740.098	105.095	0.179	0.214
-739.083	-95.063	0.464	0.127
-738.069	-49.393	-0.982	-0.473
-737.054	-200.000	-0.004	-0.114
-736.039	306.277	-0.109	-0.205
-735.025	100.154	0.111	-0.130
-734.010	114.559	0.389	-0.478
-732.996	24.339	-0.730	-0.608
-731.981	113.221	-0.217	-0.266
-730.966	-118.404	0.179	0.032
-729.952	-200.000	-0.062	-0.946
-728.937	29.006	0.184	0.157
-727.923	-86.530	-0.997	0.309
-726.908	4.148	-0.554	0.409
-725.894	-200.000	-0.006	-0.374
-724.879	-81.049	-0.188	0.063
-723.864	-147.300	-0.062	0.005
-722.850	169.859	0.219	0.315
-721.835	102.055	0.229	0.270
-720.821	686.905	0.071	0.188
-719.806	112.705	0.253	0.309
-718.791	-18.403	-0.466	0.293
-717.777	-200.000	-0.077	0.391
-716.762	-9.734	-0.192	0.129
-715.748	800.000	-0.277	0.839
-714.733	-130.426	0.412	-0.056
-713.718	247.166	0.179	-0.305
-712.704	800.000	-0.022	-0.061
-711.689	-100.240	0.384	0.096
-710.675	-200.000	-0.091	-1.301
-709.660	-31.322	-0.147	0.083
-708.645	-149.573	-0.478	0.038
-707.631	113.489	0.537	-0.657
-706.616	-127.367	0.324	-0.048
-705.602	31.409	-0.272	-0.236
-704.587	165.180	0.463	0.659
-703.572	614.361	0.283	-0.716
-702.558	4.967	0.964	0.715
-701.543	-151.242	0.385	0.029
-700.529	-97.799	-0.154	0.040
-699.514	-144.084	-0.507	0.048
-698.499	-134.033	-0.624	0.078
-697.485	90.872	0.195	-0.220
-696.470	5.091	0.143	0.106
-695.456	203.736	0.432	-0.674
-694.441	64.019	-0.578	0.586
-693.426	84.927	0.259	-0.286
-692.412	-200.000	0.122	0.541
-691.397	-7.126	-0.081	-0.056
-690.383	418.008	0.196	-0.421
-689.368	555.991	0.123	0.298
-688.354	281.079	0.346	0.624
-687.339	323.623	-0.317	0.609
-686.324	164.401	0.047	0.067
-685.310	-157.976	0.820	-0.049
-684.295	115.439	-0.328	-0.403
-683.281	353.372	-0.362	0.723
-682.266	-147.049	0.991	0.085
-681.251	-51.780	-0.708	-0.332
-680.237	-163.385	0.532	0.026
-679.222	-145.345	-0.680	-0.062
-678.208	-200.000	0.073	0.569
-677.193	231.123	0.151	0.249
-676.178	-24.766	-1.065	-0.637
-675.164	110.912	0.589	-0.713
-674.149	-59.218	0.552	0.240
-673.135	-81.799	-0.659	0.217
-672.120	79.258	0.400	-0.432
-671.105	142.519	-0.397	-0.531
-670.091	-200.000	0.020	-0.139
-669.076	44.543	-0.512	0.473
-668.062	-27.315	-0.668	-0.391
-667.047	-113.416	-0.804	-0.159
-666.032	301.262	-0.210	0.390
-665.018	27.989	0.552	0.469
-664.003	-41.796	0.503	0.260
-662.989	-142.007	0.288	-0.029
-661.974	-13.449	-0.636	0.415
-660.959	-114.340	-0.347	-0.067
-659.945	-85.217	-0.117	0.037
-658.930	92.958	0.306	-0.348
-657.916	-200.000	0.017	-0.135
-656.901	-200.000	0.007	-0.270
-655.886	255.722	-0.298	-0.514
-654.872	-158.701	-0.250	-0.014
-653.857	-138.982	-0.702	0.077
-652.843	-200.000	-0.019	-0.677
-651.828	-66.526	-0.593	0.237
-650.814	2.747	0.286	-0.208
-649.799	-200.000	-0.033	0.165
-648.784	-57.419	0.796	0.352
-647.770	64.021	-0.565	0.572
-646.755	-200.000	0.021	-0.426
-645.741	-200.000	0.116	0.786
-644.726	114.154	-0.388	-0.474
-643.711	-137.624	-0.451	0.051
-642.697	157.480	-0.429	0.597
-641.682	-99.125	-0.560	0.142
-640.668	107.605	-0.529	0.633
-639.653	-200.000	0.052	0.345
-638.638	42.664	-0.486	0.445
-637.624	372.740	0.149	-0.305
-636.609	121.960	-0.185	-0.232
-635.595	-146.868	0.941	-0.081
-634.580	-200.000	-0.080	0.515
-633.565	-166.549	0.558	-0.023
-632.551	-9.303	-0.419	0.282
-631.536	-138.304	0.364	0.040
-630.522	399.341	-0.304	0.640
-629.507	261.589	0.163	0.283
-628.492	18.038	0.359	0.288
-627.478	81.309	0.324	0.351
-626.463	-41.275	1.047	0.542
-625.449	28.050	-0.576	-0.488
-624.434	-200.000	-0.033	-0.514
-623.419	-151.293	1.039	0.078
-622.405	34.925	0.338	-0.297
-621.390	237.501	-0.171	-0.285
-620.376	10.035	-0.651	-0.497
-619.361	-131.409	0.190	-0.025
-618.346	-49.978	-0.540	0.257
-617.332	-13.905	0.380	0.246
-616.317	362.266	-0.210	0.423
-615.303	-200.000	0.233	1.068
-614.288	20.721	-0.176	0.143
-613.273	-71.631	0.430	0.161
-612.259	-200.000	-0.094	-1.110
-611.244	122.238	0.388	0.486
-610.230	473.751	0.221	0.500
-609.215	-175.576	-0.948	-0.026
-608.201	24.211	-0.401	0.332
-607.186	-200.000	0.091	0.439
-606.171	-83.808	-0.526	-0.168
-605.157	-93.477	0.347	-0.096
-604.142	-49.009	0.298	-0.143
-603.128	-98.369	-0.416	-0.107
-602.113	-200.000	-0.076	-0.356
-601.098	-200.000	-0.031	-0.171
-600.084	-121.355	0.421	0.070
-599.069	-150.000	-0.430	-0.034
-598.055	-11.877	-0.455	-0.300
-597.040	-37.332	-1.074	-0.576
-596.025	-76.023	0.578	0.205
-595.011	80.213	0.239	-0.258
-593.996	-66.007	-0.250	0.100
-592.982	-96.798	-1.072	0.283
-591.967	-28.540	-0.456	-0.264
-590.952	-64.731	-1.146	-0.466
-589.938	-39.269	-0.193	0.102
-588.923	-82.185	0.528	0.173
-587.909	800.000	0.106	0.454
-586.894	-16.711	0.463	-0.294
-585.879	800.000	0.158	0.457
-584.865	-200.000	0.064	0.999
-583.850	-200.000	-0.074	-0.528
-582.836	-133.743	0.691	-0.086
-581.821	102.124	-0.178	0.208
-580.806	-9.882	-0.158	0.105
-579.792	-144.043	-0.574	0.054
-578.777	-54.420	0.389	-0.177
-577.763	-200.000	-0.026	0.465
-576.748	21.348	-0.537	0.438
-575.733	-200.000	-0.102	-0.463
-574.719	-40.882	-0.690	0.358
-573.704	54.730	-0.428	-0.413
-572.690	60.614	-0.472	0.468
-571.675	32.692	0.660	0.572
-570.661	-75.402	0.592	-0.212
-569.646	42.899	0.349	-0.319
-568.631	-83.203	-0.620	-0.200
-567.617	-200.000	-0.034	-0.197
-566.602	-106.346	-0.156	-0.035
-565.588	-200.000	-0.142	0.902
-564.573	800.000	0.216	-0.911
-563.558	800.000	0.120	-0.462
-562.544	800.000	0.058	-0.219
-561.529	-55.172	-0.152	-0.069
-560.515	800.000	0.032	0.123
-559.500	144.407	0.091	0.122
-558.485	-200.000	-0.046	-0.203
-557.471	9.616	0.631	0.479
-556.456	46.926	0.738	-0.687
-555.442	151.575	0.289	-0.395
-554.427	-74.383	0.386	0.140
-553.412	32.548	-0.340	0.295
-552.398	-200.000	-0.075	-0.368
-551.383	2.835	0.393	0.286
-550.369	-50.882	-0.426	0.201
-549.354	-200.000	-0.019	0.088
-548.339	-200.000	-0.045	0.827
-547.325	23.418	0.347	-0.285
-546.310	434.041	0.326	0.709
-545.296	-105.107	0.162	-0.037
-544.281	176.740	-0.298	0.434
-543.266	800.000	-0.314	-0.927
-542.252	-51.173	-0.640	-0.300
-541.237	-160.878	-0.433	-0.023
-540.223	336.344	0.066	-0.129
-539.208	-91.449	-0.415	-0.119
-538.193	-111.777	-0.938	-0.190
-537.179	-105.979	-0.390	-0.088
-536.164	14.334	0.305	-0.238
-535.150	43.950	0.222	-0.204
-534.135	-81.769	-0.305	0.100
-533.121	-132.650	0.430	0.055
-532.106	111.261	-0.319	0.385
-531.091	-148.050	-0.262	0.022
-530.077	99.906	-0.140	-0.162
-529.062	-135.106	0.324	-0.039
-528.048	147.284	0.410	-0.552
-527.033	800.000	-0.236	-0.708
-526.018	-200.000	0.014	-0.209
-525.004	-12.321	0.197	0.129
-523.989	-185.743	-0.225	0.003
-522.975	-200.000	0.019	-0.823
-521.960	-194.839	0.936	-0.007
-520.945	-200.000	-0.062	0.500
-519.931	-200.000	0.212	-1.028
-518.916	-42.000	0.128	0.066
-517.902	-200.000	-0.047	0.753
-516.887	-158.082	-0.520	0.031
-515.872	7.708	0.563	0.422
-514.858	-200.000	0.036	0.213
-513.843	133.393	-0.296	-0.383
-512.829	-18.159	0.162	-0.101
-511.814	780.537	0.174	-0.476
-510.799	115.631	0.371	0.454
-509.785	376.540	-0.184	-0.375
-508.770	-65.118	0.538	-0.217
-507.756	160.210	-0.462	0.644
-506.741	547.753	-0.318	0.762
-505.726	-200.000	0.002	0.781
-504.712	9.326	0.238	-0.180
-503.697	800.000	0.087	-0.376
-502.683	-94.467	-0.613	-0.167
-501.668	800.000	-0.004	0.014
-500.653	-10.097	-0.185	-0.123
-499.639	-10.900	0.525	-0.347
-498.624	758.992	0.273	-0.740
-497.610	769.399	-0.233	-0.634
-496.595	8.526	-0.145	0.109
-495.581	-200.000	-0.010	0.079
-494.566	-12.781	-0.359	0.234
-493.551	-17.662	-0.516	0.324
-492.537	-37.605	-0.167	0.089
-491.522	230.712	0.100	-0.163
-490.508	642.992	0.382	-0.973
-489.493	-72.926	-0.690	-0.254
-488.478	-184.889	0.350	0.006
-487.464	-88.459	0.862	-0.257
-486.449	-200.000	-0.079	-0.481
-485.435	140.108	-0.578	0.761
-484.420	-29.131	0.489	0.280
-483.405	143.346	-0.256	-0.341
-482.391	-110.749	0.799	-0.165
-481.376	42.105	0.202	0.183
-480.362	-200.000	-0.040	-0.612
-479.347	88.848	-0.372	0.413
-478.332	-179.282	0.562	-0.012
-477.318	13.378	-0.134	-0.104
-476.303	-113.631	0.127	-0.025
-475.289	161.022	0.441	0.615
-474.274	53.330	-0.133	-0.128
-473.259	-86.736	0.587	0.179
-472.245	-50.075	0.306	-0.145
-471.230	-200.000	-0.013	0.364
-470.216	-145.536	-0.148	0.013
-469.201	-75.291	0.615	0.219
-468.186	-200.000	-0.082	-0.491
-467.172	97.925	-0.399	-0.458
-466.157	-31.966	-0.408	-0.228
-465.143	-200.000	-0.025	0.527
-464.128	-118.316	-0.849	0.151
-463.113	-200.000	0.046	-0.484
-462.099	-200.000	-0.150	-1.033
-461.084	32.227	-0.240	0.207
-460.070	105.398	-0.122	-0.144
-459.055	-55.732	-0.563	0.251
-458.040	236.165	0.060	0.099
-457.026	-200.000	-0.092	0.603
-456.011	64.513	-0.486	-0.489
-454.997	800.000	0.013	-0.043
-453.982	-56.440	0.938	-0.415
-452.968	429.464	-0.188	-0.405
-451.953	-200.000	-0.300	-0.001
-450.938	-200.000	0.041	0.510
-449.924	267.953	-0.284	-0.497
-448.909	100.931	0.256	-0.297
-447.895	-104.385	0.265	-0.061
-446.880	800.000	-0.357	-0.999
-445.865	-141.476	-0.745	-0.075
-444.851	-155.831	-0.652	-0.041
-443.836	117.806	-0.169	0.208
-442.822	94.336	0.118	0.134
-441.807	-78.686	0.545	0.186
-440.792	-68.325	-0.233	0.090
-439.778	294.680	-0.245	-0.447
-438.763	17.276	0.164	0.130
-437.749	-59.640	0.533	-0.228
-436.734	-200.000	0.006	-0.144
-435.719	800.000	0.186	0.521
-434.705	-91.319	0.339	-0.097
-433.690	32.444	0.418	0.360
-432.676	360.424	-0.159	-0.317
-431.661	39.073	-0.415	0.370
-430.646	-58.242	-0.272	-0.118
-429.632	-88.224	-0.492	0.147
-428.617	-101.566	0.469	-0.114
-427.603	545.086	-0.193	-0.459
-426.588	-200.000	0.036	0.490
-425.573	-103.471	-0.897	0.210
-424.559	800.000	0.067	0.270
-423.544	-200.000	0.034	-0.268
-422.530	-188.917	-0.329	-0.004
-421.515	424.777	0.151	0.325
-420.500	-60.573	0.460	-0.195
-419.486	522.879	0.259	-0.607
-418.471	-107.936	-0.763	-0.165
-417.457	-200.000	-0.050	-0.800
-416.442	678.768	0.148	0.385
-415.428	-83.235	0.799	-0.256
-414.413	-200.000	0.013	0.216
-413.398	-63.762	-0.796	-0.325
-412.384	-200.000	-0.109	0.846
-411.369	-47.492	-0.470	0.227
-410.355	-56.658	0.256	-0.113
-409.340	-200.000	0.001	0.401
-408.325	-70.664	0.439	-0.165
-407.311	-55.096	-0.488	-0.219
-406.296	-82.102	0.487	0.158
-405.282	-127.921	0.589	-0.084
-404.267	677.758	0.178	0.461
-403.252	800.000	0.037	-0.152
-402.238	402.504	-0.476	0.997
-401.223	-200.000	0.229	-1.158
-400.209	-58.046	-0.440	0.191
-399.194	-92.449	-0.642	-0.180
-398.179	180.619	-0.115	0.167
-397.165	534.495	0.294	-0.693
-396.150	9.864	-0.407	-0.307
-395.136	-34.125	0.210	-0.115
-394.121	341.232	-0.127	-0.246
-393.106	-131.864	-0.703	0.092
-392.092	-200.000	0.035	-0.242
-391.077	207.042	-0.247	-0.384
-390.063	146.094	-0.178	0.238
-389.048	1.228	-0.628	-0.449
-388.033	44.787	-0.800	-0.733
-387.019	-61.873	0.859	-0.358
-386.004	179.618	-0.557	0.811
-384.990	-100.304	0.832	0.206
-383.975	-62.186	-0.759	-0.315
-382.960	-85.471	-0.604	-0.187
-381.946	-125.712	0.830	0.125
-380.931	-27.700	-0.622	0.359
-379.917	117.396	-0.358	0.438
-378.902	-93.418	0.790	-0.218
-377.888	465.761	-0.086	0.192
-376.873	71.632	0.552	0.571
-375.858	-53.336	0.496	0.226
-374.844	168.617	-0.183	0.259
-373.829	698.730	-0.428	-1.120
-372.815	-200.000	-0.066	-0.670
-371.800	-172.312	0.393	0.012
-370.785	-200.000	0.041	-0.620
-369.771	-200.000	-0.108	-0.637
-368.756	20.345	0.446	-0.358
-367.742	-22.709	0.155	-0.093
-366.727	165.636	-0.715	1.005
-365.712	-200.000	0.089	0.412
-364.698	-200.000	-0.063	-0.288
-363.683	-89.827	0.402	0.117
-362.669	-104.055	0.655	-0.152
-361.654	206.366	-0.110	-0.170
-360.639	165.476	-0.540	0.759
-359.625	58.146	0.388	0.378
-358.610	-62.772	0.361	0.149
-357.596	132.336	-0.117	-0.150
-356.581	69.978	0.057	-0.058
-355.566	153.506	-0.548	-0.746
-354.552	800.000	-0.178	0.746
-353.537	711.111	-0.140	0.367
-352.523	223.739	0.050	0.081
-351.508	-77.049	-0.524	0.182
-350.493	410.410	0.227	0.479
-349.479	179.442	-0.373	0.543
-348.464	-200.000	0.042	-0.307
-347.450	20.118	-0.352	-0.282
-346.435	52.239	0.209	0.198
-345.420	87.192	-0.469	0.515
-344.406	-62.361	-0.510	0.211
-343.391	-46.009	0.187	0.092
-342.377	-200.000	-0.024	0.543
-341.362	562.983	0.211	0.507
-340.348	-99.422	-0.442	-0.111
-339.333	197.410	0.051	0.077
-338.318	-200.000	-0.016	0.728
-337.304	62.680	-0.138	-0.137
-336.289	645.227	-0.176	-0.446
-335.275	109.044	0.206	0.244
-334.260	-62.172	0.316	0.131
-333.245	-166.164	1.117	0.047
-332.231	16.152	0.093	-0.073
-331.216	-120.686	-0.139	-0.023
-330.202	-110.473	-0.472	-0.097
-329.187	87.040	0.168	-0.185
-328.172	-86.266	0.734	-0.224
-327.158	-9.357	0.297	-0.197
-326.143	-50.922	0.739	-0.345
-325.129	341.607	0.410	0.796
-324.114	-200.000	0.071	-0.320
-323.099	800.000	-0.227	-0.729
-322.085	-171.910	-0.646	0.021
-321.070	368.189	0.152	-0.305
-320.056	285.210	-0.058	-0.104
-319.041	-142.550	-0.497	0.048
-318.026	-67.238	0.110	-0.043
-317.012	-2.173	-0.336	0.234
-315.997	113.847	0.428	0.516
-314.983	-25.768	-0.574	0.336
-313.968	48.729	0.123	0.115
-312.953	35.775	0.333	0.291
-311.939	31.173	0.485	0.413
-310.924	-96.423	-0.260	0.068
-309.910	-87.755	0.430	0.129
-308.895	-69.939	0.930	0.352
-307.880	-19.413	-0.139	-0.086
-306.866	210.129	-0.552	0.860
-305.851	249.611	0.185	0.310
-304.837	800.000	-0.030	-0.132
-303.822	133.817	-0.293	0.376
-302.807	-124.760	0.890	-0.137
-301.793	229.024	0.201	0.325
-300.778	-21.190	-0.116	0.071
-299.764	573.893	-0.158	0.382
-298.749	-200.000	-0.033	-0.479
-297.735	409.718	-0.093	0.196
-296.720	51.723	-0.121	-0.114
-295.705	778.424	-0.262	-0.711
-294.691	91.932	-0.544	-0.607
-293.676	-200.000	-0.064	1.152
-292.662	328.331	0.326	0.622
-291.647	-71.638	0.510	0.189
-290.632	-20.005	0.266	0.163
-289.618	37.072	-0.370	0.325
-288.603	647.818	0.147	0.373
-287.589	800.000	0.117	-0.329
-286.574	-118.746	0.136	0.024
-285.559	45.764	0.651	-0.596
-284.545	222.587	0.231	-0.369
-283.530	-145.460	-0.489	0.044
-282.516	84.280	0.244	-0.265
-281.501	-200.000	-0.135	0.615
-280.486	117.571	0.185	-0.226
-279.472	-164.091	-0.685	0.031
-278.457	-200.000	0.004	0.239
-277.443	-60.008	-0.238	-0.101
-276.428	-55.092	-0.194	-0.086
-275.413	267.120	0.482	-0.835
-274.399	20.573	0.515	-0.413
-273.384	-79.699	0.507	0.169
-272.370	724.766	0.047	0.125
-271.355	800.000	0.163	0.566
-270.340	244.559	0.118	0.196
-269.326	-200.000	0.136	0.985
-268.311	-60.729	0.407	-0.171
-267.297	800.000	-0.092	-0.370
-266.282	-64.989	-0.723	-0.289
-265.267	484.624	0.149	-0.337
-264.253	-200.000	-0.057	-1.553
-263.238	177.515	0.081	-0.117
-262.224	-144.968	-0.570	0.052
-261.209	-200.000	-0.034	0.283
-260.195	-129.315	0.491	-0.068
-259.180	800.000	0.288	-0.803
-258.165	-39.297	0.347	0.180
-257.151	-85.336	0.339	-0.105
-256.136	-173.082	1.088	-0.033
-255.122	-92.591	-0.617	0.171
-254.107	-8.272	-0.364	-0.242
-253.092	800.000	0.129	0.468
-252.078	106.245	0.136	-0.160
-251.063	709.571	-0.289	0.757
-250.049	33.613	-0.778	0.670
-249.034	-125.724	-0.504	0.076
-248.019	136.645	0.204	-0.264
-247.005	-82.063	-0.478	-0.155
-245.990	164.355	-0.450	-0.627
-244.976	-200.000	-0.139	0.686
-243.961	770.168	-0.058	0.157
-242.946	-200.000	0.026	0.129
-241.932	-108.917	0.523	0.111
-240.917	292.056	-0.200	0.361
-239.903	-200.000	0.088	0.610
-238.888	-96.993	-0.167	0.043
-237.873	-150.504	0.405	-0.031
-236.859	-145.955	0.218	-0.019
-235.844	126.788	-0.196	-0.245
-234.830	292.320	-0.448	-0.807
-233.815	444.836	0.213	-0.462
-232.800	-200.000	0.051	0.363
-231.786	115.852	0.226	-0.273
-230.771	-200.000	-0.064	0.636
-229.757	508.955	-0.337	-0.774
-228.742	0.246	0.656	-0.463
-227.727	71.135	-0.394	-0.404
-226.713	-178.746	0.624	0.014
-225.698	716.638	-0.091	0.240
-224.684	483.395	-0.026	-0.058
-223.669	431.843	0.068	-0.146
-222.655	800.000	0.161	-0.456
-221.640	660.362	0.091	-0.232
-220.625	6.144	-0.386	0.283
-219.611	-34.699	-0.826	-0.446
-218.596	800.000	-0.020	-0.081
-217.582	-200.000	-0.089	-0.906
-216.567	-112.584	0.086	-0.017
-215.552	18.480	-0.536	-0.423
-214.538	357.508	-0.192	0.379
-213.523	260.949	-0.180	0.308
-212.509	-200.000	0.007	-0.350
-211.494	110.215	0.228	0.271
-210.479	-80.024	-0.112	-0.037
-209.465	-200.000	0.173	0.838
-208.450	-200.000	-0.015	0.505
-207.436	-102.341	0.899	0.213
-206.421	-56.370	-0.876	-0.385
-205.406	-200.000	0.005	0.128
-204.392	104.436	0.614	-0.715
-203.377	-95.635	0.657	-0.174
-202.363	800.000	0.353	0.966
-201.348	105.337	-0.587	-0.684
-200.333	-200.000	0.000	0.224
-199.319	-51.841	0.401	-0.184
-198.304	235.777	-0.207	0.338
-197.290	228.988	0.276	-0.445
-196.275	-195.790	-0.502	0.004
-195.260	-162.229	-0.858	-0.042
-194.246	-14.273	0.576	0.367
-193.231	800.000	-0.148	0.478
-192.217	445.400	0.150	0.326
-191.202	648.711	-0.226	0.571
-190.187	-130.106	0.182	-0.025
-189.173	-126.869	0.447	-0.065
-188.158	19.623	-1.209	0.961
-187.144	256.149	0.377	-0.638
-186.129	587.824	-0.064	0.156
-185.114	657.913	0.162	-0.412
-184.100	-69.286	1.054	-0.400
-183.085	237.198	0.615	-1.005
-182.071	-114.822	-0.626	0.118
-181.056	-200.000	-0.037	-0.284
-180.042	61.860	-0.327	0.322
-179.027	100.344	0.182	0.209
-178.012	-149.703	-0.350	-0.027
-176.998	-9.793	-0.350	0.230
-175.983	-94.915	0.584	-0.156
-174.969	-200.000	-0.018	-0.420
-173.954	-200.000	0.066	-0.726
-172.939	-99.388	0.324	-0.081
-171.925	444.304	-0.401	0.867
-170.910	-18.405	0.414	-0.256
-169.896	101.421	-0.533	-0.613
-168.881	39.901	0.342	0.303
-167.866	-1.157	0.420	0.293
-166.852	276.451	-0.349	0.611
-165.837	53.060	0.596	-0.563
-164.823	800.000	-0.032	0.132
-163.808	-93.551	1.340	-0.366
-162.793	337.659	0.332	0.636
-161.779	77.053	0.430	0.450
-160.764	317.720	0.144	-0.268
-159.750	266.165	0.226	0.390
-158.735	90.319	0.277	-0.305
-157.720	219.967	-0.176	-0.278
-156.706	548.208	-0.281	-0.665
-155.691	-145.859	0.280	0.025
-154.677	-49.497	0.609	-0.286
-153.662	178.151	0.505	0.727
-152.647	-7.633	0.271	-0.181
-151.633	800.000	0.246	-0.764
-150.618	-16.022	0.572	0.359
-149.604	-34.787	-0.570	0.307
-148.589	800.000	-0.072	0.288
-147.574	292.285	0.197	0.354
-146.560	-0.467	0.312	-0.218
-145.545	83.204	0.288	-0.309
-144.531	-3.989	0.593	-0.405
-143.516	71.979	0.172	-0.176
-142.502	245.967	0.185	0.308
-141.487	800.000	-0.147	0.402
-140.472	-200.000	-0.026	0.889
-139.458	800.000	0.238	0.817
-138.443	-16.255	-0.028	0.018
-137.429	-200.000	-0.178	0.796
-136.414	756.808	-0.102	-0.272
-135.399	-102.493	1.038	0.245
-134.385	-200.000	-0.104	1.046
-133.370	-22.331	0.195	0.116
-132.356	-200.000	0.186	-0.832
-131.341	43.472	0.327	-0.294
-130.326	-33.511	0.291	0.158
-129.312	-138.732	0.361	0.039
-128.297	-135.961	-0.993	-0.115
-127.283	-94.225	0.104	0.028
-126.268	-200.000	0.062	-1.060
-125.253	-200.000	-0.057	-0.784
-124.239	-200.000	-0.053	0.525
-123.224	281.801	0.286	-0.504
-122.210	-171.332	-0.573	-0.019
-121.195	-180.337	0.323	-0.007
