DTS Sentinel unit serial number:	SN413079Multiplexer serial number:	ORYXHardware model number:	OX4-SRSoftware version number:	ORYX F/W v4.00 Oryx Data Collector v3.7.2.0data status	okinstallation	princeton_trtdifferential loss correction	single-endedforward channel	channel 2reverse channel	N/Adate	2019/09/10time	22:05:10forward acquisition time	60.00reverse acquisition time	0.00gamma	496.2192k internal	0.2329k external	0.2329temperature offset calibration	0.9944default loss term (dB/km)	0.3790temperature slope calibration	1.0000multiplexer offset coefficient	1.0000multiplexer slope coefficient	1.0000fibre end	0.00T internal ref (°C)	30.66T ext. ref 1 (°C)	-0.29T ext. ref 2 (°C)	24.02length (m)	temperature (°C)	Stokes	anti-Stokes-747.200	-200.000	-0.016	0.135
-746.185	-200.000	0.006	-0.200
-745.171	-141.565	0.286	-0.029
-744.156	800.000	0.002	0.007
-743.142	-81.145	-0.212	-0.071
-742.127	256.432	-0.119	-0.206
-741.112	-80.633	-0.186	0.062
-740.098	-121.836	-0.376	0.062
-739.083	-74.059	-0.165	-0.060
-738.069	800.000	-0.048	0.132
-737.054	-200.000	0.006	0.263
-736.039	132.176	0.106	0.138
-735.025	-200.000	-0.008	0.169
-734.010	29.813	-0.265	-0.227
-732.996	-200.000	0.025	0.217
-731.981	-181.545	0.355	-0.007
-730.966	-51.233	0.241	-0.114
-729.952	-200.000	-0.063	-0.335
-728.937	-25.069	-0.379	-0.226
-727.923	-150.717	-0.325	-0.025
-726.908	800.000	-0.055	0.206
-725.894	405.870	-0.111	-0.237
-724.879	-200.000	-0.098	-0.507
-723.864	-47.264	0.047	-0.023
-722.850	-4.639	-0.318	-0.221
-721.835	163.458	-0.219	-0.309
-720.821	-49.992	-0.075	0.036
-719.806	454.716	-0.102	0.228
-718.791	-116.281	-0.227	-0.042
-717.777	-30.805	-0.178	-0.101
-716.762	-106.047	0.372	-0.084
-715.748	800.000	0.105	-0.293
-714.733	800.000	0.119	-0.488
-713.718	800.000	-0.060	-0.200
-712.704	-54.325	-0.199	-0.091
-711.689	-33.004	0.235	-0.131
-710.675	286.608	0.091	0.166
-709.660	-37.615	0.257	-0.138
-708.645	595.791	0.061	0.151
-707.631	-125.363	0.323	-0.050
-706.616	-64.825	-0.168	0.069
-705.602	-29.409	-0.248	-0.142
-704.587	627.977	-0.080	-0.202
-703.572	95.808	0.148	0.170
-702.558	-39.018	0.178	-0.094
-701.543	-136.667	-0.179	-0.021
-700.529	416.909	0.064	0.137
-699.514	-45.577	-0.176	-0.087
-698.499	-200.000	-0.031	-0.180
-697.485	-111.794	-0.333	-0.068
-696.470	214.493	0.136	0.217
-695.456	7.660	0.239	0.180
-694.441	-86.615	0.211	-0.065
-693.426	-1.612	-0.332	-0.235
-692.412	80.989	0.082	-0.089
-691.397	-65.252	-0.075	-0.030
-690.383	-200.000	0.004	0.127
-689.368	800.000	-0.014	0.052
-688.354	-61.840	0.281	-0.118
-687.339	8.266	-0.163	-0.123
-686.324	128.243	0.091	0.117
-685.310	800.000	-0.049	0.175
-684.295	-200.000	-0.014	0.113
-683.281	800.000	-0.072	0.216
-682.266	79.823	-0.266	0.287
-681.251	-26.178	0.189	-0.111
-680.237	-192.479	-0.268	0.003
-679.222	-158.668	-0.113	0.007
-678.208	204.608	-0.122	-0.190
-677.193	85.212	0.069	0.076
-676.178	76.216	0.021	-0.022
-675.164	576.469	-0.085	-0.209
-674.149	-35.831	0.025	-0.014
-673.135	800.000	0.069	-0.209
-672.120	71.340	-0.109	-0.114
-671.105	8.622	0.251	-0.190
-670.091	95.481	-0.036	-0.041
-669.076	378.002	0.160	-0.329
-668.062	-200.000	-0.028	-0.250
-667.047	-161.945	0.293	0.015
-666.032	108.003	-0.071	0.085
-665.018	367.393	0.088	0.178
-664.003	56.479	0.107	-0.104
-662.989	26.754	-0.307	-0.258
-661.974	-125.146	-0.490	-0.075
-660.959	-142.170	0.240	-0.024
-659.945	-35.706	0.215	-0.117
-658.930	-98.507	-0.405	0.104
-657.916	-58.614	-0.036	-0.016
-656.901	-200.000	0.054	-0.239
-655.886	-46.436	-0.091	-0.045
-654.872	59.727	-0.173	-0.172
-653.857	800.000	-0.100	-0.385
-652.843	-17.396	-0.249	0.157
-651.828	-200.000	0.021	0.177
-650.814	-200.000	-0.011	-0.148
-649.799	-36.380	0.128	-0.069
-648.784	50.714	0.332	-0.316
-647.770	91.787	-0.055	-0.063
-646.755	8.659	-0.171	0.129
-645.741	-200.000	0.007	-0.078
-644.726	198.990	0.115	-0.176
-643.711	-57.393	-0.046	-0.020
-642.697	-53.285	0.235	0.108
-641.682	-88.658	-0.234	0.070
-640.668	221.879	0.064	0.103
-639.653	-71.283	-0.061	0.023
-638.638	-110.207	0.174	-0.036
-637.624	-59.971	-0.164	0.070
-636.609	48.981	-0.079	-0.075
-635.595	800.000	0.055	-0.207
-634.580	91.814	-0.320	0.362
-633.565	-48.114	0.400	-0.194
-632.551	69.104	0.129	-0.133
-631.536	348.115	0.033	-0.065
-630.522	-200.000	-0.019	-0.296
-629.507	-127.171	-0.119	0.017
-628.492	93.096	-0.130	-0.147
-627.478	79.367	0.077	0.083
-626.463	-118.912	0.286	-0.050
-625.449	-50.932	-0.219	0.103
-624.434	150.365	-0.017	-0.023
-623.419	465.402	-0.051	-0.114
-622.405	-165.916	-0.276	-0.012
-621.390	-37.106	0.180	-0.097
-620.376	-89.791	0.218	-0.064
-619.361	136.010	-0.169	0.221
-618.346	800.000	-0.097	-0.374
-617.332	105.492	0.227	0.269
-616.317	-29.211	-0.073	-0.042
-615.303	-89.108	-0.278	0.082
-614.288	-139.497	0.005	-0.001
-613.273	-0.033	-0.103	-0.074
-612.259	484.842	-0.110	-0.251
-611.244	-154.790	-0.246	-0.016
-610.230	-102.283	-0.281	0.067
-609.215	-200.000	-0.013	-0.141
-608.201	-156.507	0.103	0.006
-607.186	-200.000	0.049	0.302
-606.171	14.630	-0.175	-0.137
-605.157	-112.454	0.170	0.034
-604.142	800.000	-0.026	0.095
-603.128	125.215	0.053	0.067
-602.113	93.422	0.245	0.277
-601.098	-200.000	0.031	-0.211
-600.084	-58.133	0.205	0.090
-599.069	-200.000	-0.013	-0.165
-598.055	-111.899	0.353	-0.071
-597.040	13.881	-0.174	-0.136
-596.025	-56.754	-0.093	-0.041
-595.011	439.465	0.156	-0.340
-593.996	-21.523	0.080	-0.049
-592.982	-44.393	-0.237	-0.119
-591.967	56.495	0.130	-0.127
-590.952	-87.502	-0.141	-0.043
-589.938	-34.150	0.233	0.128
-588.923	800.000	-0.051	0.154
-587.909	-134.267	0.227	0.028
-586.894	495.934	-0.160	0.368
-585.879	-165.787	0.323	-0.014
-584.865	-175.996	0.201	0.005
-583.850	-29.454	-0.171	0.098
-582.836	218.649	-0.217	0.347
-581.821	-128.605	-0.170	-0.024
-580.806	113.401	-0.106	0.128
-579.792	-76.272	-0.052	0.018
-578.777	-128.389	-0.296	-0.042
-577.763	-107.191	-0.032	-0.007
-576.748	-200.000	0.001	0.081
-575.733	-200.000	-0.004	-0.093
-574.719	-200.000	0.000	-0.121
-573.704	-65.597	-0.211	0.085
-572.690	38.401	-0.441	0.393
-571.675	-78.651	-0.421	0.144
-570.661	-82.985	0.223	-0.072
-569.646	-137.026	-0.357	0.041
-568.631	4.538	0.162	-0.119
-567.617	683.002	-0.051	0.132
-566.602	800.000	0.013	-0.046
-565.588	-200.000	-0.035	0.222
-564.573	-200.000	-0.041	0.405
-563.558	55.469	-0.108	-0.104
-562.544	142.611	0.084	0.112
-561.529	800.000	-0.066	-0.207
-560.515	99.805	0.147	-0.170
-559.500	-200.000	-0.018	0.141
-558.485	470.265	-0.031	-0.070
-557.471	-69.027	0.104	-0.040
-556.456	103.778	0.092	-0.108
-555.442	-85.197	-0.287	0.090
-554.427	-141.451	-0.268	0.027
-553.412	-48.668	0.238	-0.114
-552.398	538.287	-0.056	-0.133
-551.383	-14.923	0.063	0.040
-550.369	-193.801	-0.177	-0.001
-549.354	-152.919	0.187	-0.013
-548.339	12.170	0.102	-0.078
-547.325	-85.378	0.375	0.117
-546.310	800.000	-0.056	-0.224
-545.296	-123.197	0.153	0.024
-544.281	785.251	0.121	0.332
-543.266	343.910	-0.052	-0.101
-542.252	-149.550	0.225	0.018
-541.237	-200.000	0.036	0.461
-540.223	-25.295	0.308	0.182
-539.208	-78.749	-0.140	-0.048
-538.193	-49.976	-0.187	0.089
-537.179	24.255	-0.317	-0.261
-536.164	366.880	-0.030	-0.060
-535.150	116.139	-0.257	0.314
-534.135	601.767	0.077	-0.191
-533.121	800.000	0.076	-0.301
-532.106	-200.000	-0.047	-0.238
-531.091	-200.000	-0.045	-0.536
-530.077	171.895	-0.109	0.157
-529.062	-39.276	0.111	0.058
-528.048	-200.000	0.016	-0.240
-527.033	-134.057	0.121	0.015
-526.018	-200.000	0.009	-0.091
-525.004	11.341	0.049	-0.038
-523.989	-38.140	-0.530	0.281
-522.975	123.476	0.245	0.307
-521.960	800.000	0.038	-0.109
-520.945	69.696	0.181	0.186
-519.931	42.537	0.181	-0.165
-518.916	-13.709	-0.188	0.122
-517.902	-200.000	-0.024	0.165
-516.887	26.735	0.236	-0.198
-515.872	114.247	-0.240	0.292
-514.858	800.000	-0.049	0.152
-513.843	-200.000	-0.017	-0.219
-512.829	-106.375	-0.302	0.067
-511.814	21.923	-0.083	0.067
-510.799	14.612	-0.406	0.317
-509.785	5.438	-0.208	-0.153
-508.770	2.039	0.141	0.102
-507.756	-22.046	0.177	-0.107
-506.741	653.199	-0.030	0.077
-505.726	-49.622	-0.032	0.015
-504.712	-135.246	-0.149	0.018
-503.697	-112.660	-0.370	0.073
-502.683	-78.759	0.409	-0.139
-501.668	-3.197	-0.394	0.274
-500.653	16.159	-0.099	-0.078
-499.639	-200.000	0.444	0.001
-498.624	105.312	-0.169	0.199
-497.610	-114.880	-0.349	-0.066
-496.595	-70.474	-0.147	0.056
-495.581	409.087	0.103	-0.218
-494.566	-133.797	-0.140	-0.017
-493.551	-63.358	-0.344	0.141
-492.537	800.000	0.007	-0.021
-491.522	105.530	0.242	-0.286
-490.508	-128.680	0.157	0.022
-489.493	-200.000	-0.001	-0.317
-488.478	102.627	0.120	-0.140
-487.464	-169.129	-0.088	0.003
-486.449	-48.422	-0.369	0.177
-485.435	283.152	-0.136	-0.244
-484.420	4.463	-0.181	-0.132
-483.405	-1.166	0.233	-0.164
-482.391	-166.600	-0.143	-0.006
-481.376	482.921	0.161	0.365
-480.362	-113.822	0.168	0.032
-479.347	-200.000	0.043	-0.279
-478.332	-200.000	0.015	-0.141
-477.318	-56.736	-0.332	0.146
-476.303	800.000	-0.139	0.397
-475.289	-1.605	0.127	0.089
-474.274	-200.000	0.004	-0.040
-473.259	-54.896	-0.300	0.135
-472.245	40.926	-0.329	-0.296
-471.230	-90.020	0.208	-0.061
-470.216	-3.167	-0.362	0.252
-469.201	-101.258	0.090	-0.022
-468.186	-200.000	0.062	0.285
-467.172	259.308	-0.016	0.028
-466.157	108.852	0.176	0.209
-465.143	-23.401	0.216	0.129
-464.128	176.755	0.085	0.123
-463.113	-200.000	-0.009	-0.325
-462.099	-59.198	0.391	0.168
-461.084	-37.661	-0.194	0.103
-460.070	-157.844	-0.302	0.018
-459.055	-200.000	-0.028	0.384
-458.040	-169.614	0.172	-0.006
-457.026	-151.998	-0.112	-0.008
-456.011	-15.604	0.034	-0.021
-454.997	296.886	-0.051	-0.094
-453.982	-68.315	-0.104	0.040
-452.968	302.660	0.172	-0.317
-451.953	-51.641	0.182	-0.084
-450.938	-200.000	-0.006	-0.205
-449.924	61.375	0.219	-0.216
-448.909	18.959	0.079	0.063
-447.895	-200.000	-0.058	-0.332
-446.880	-200.000	0.058	0.362
-445.865	-113.669	0.254	0.049
-444.851	503.677	-0.128	-0.295
-443.836	-126.521	-0.388	-0.057
-442.822	98.297	0.192	-0.220
-441.807	497.996	-0.112	-0.257
-440.792	-63.813	-0.178	0.073
-439.778	96.660	-0.085	0.097
-438.763	800.000	-0.037	-0.107
-437.749	-200.000	-0.053	0.331
-436.734	-200.000	0.026	-0.415
-435.719	-200.000	-0.005	0.182
-434.705	-200.000	0.070	-0.323
-433.690	19.241	0.158	-0.126
-432.676	-57.629	0.084	0.036
-431.661	-118.655	0.114	-0.020
-430.646	27.702	0.261	0.219
-429.632	185.010	-0.076	0.112
-428.617	-200.000	0.071	-0.403
-427.603	221.018	-0.053	0.085
-426.588	-68.242	-0.103	-0.040
-425.573	-200.000	0.037	-0.200
-424.559	11.077	0.127	-0.097
-423.544	248.764	0.203	0.341
-422.530	-120.000	-0.231	-0.039
-421.515	-132.987	0.336	0.042
-420.500	800.000	-0.057	0.223
-419.486	-197.453	-0.188	-0.001
-418.471	77.281	-0.062	0.066
-417.457	-91.174	0.158	0.045
-416.442	-14.408	-0.229	-0.146
-415.428	18.076	-0.212	0.168
-414.413	-115.142	-0.196	0.037
-413.398	-200.000	0.021	0.121
-412.384	766.396	0.129	0.350
-411.369	31.405	-0.193	-0.165
-410.355	-79.859	0.295	0.099
-409.340	-69.208	-0.069	0.026
-408.325	18.792	0.153	-0.121
-407.311	-123.947	-0.164	0.026
-406.296	14.528	0.122	0.095
-405.282	-66.439	0.205	-0.081
-404.267	57.741	-0.074	0.072
-403.252	800.000	0.074	0.291
-402.238	800.000	-0.024	0.091
-401.223	-200.000	-0.030	-0.183
-400.209	-176.100	-0.119	0.003
-399.194	-200.000	0.010	-0.126
-398.179	-200.000	0.214	0.000
-397.165	123.489	0.124	-0.154
-396.150	-129.581	-0.246	0.034
-395.136	-15.979	0.376	-0.238
-394.121	-78.754	-0.246	-0.083
-393.106	-77.071	-0.287	0.099
-392.092	177.988	0.085	-0.122
-391.077	381.297	-0.041	-0.083
-390.063	220.354	0.127	0.203
-389.048	-12.565	-0.093	0.060
-388.033	362.081	0.043	-0.085
-387.019	800.000	-0.077	0.231
-386.004	117.152	-0.206	-0.251
-384.990	-200.000	0.042	0.234
-383.975	-32.938	0.115	-0.064
-382.960	300.429	0.189	0.347
-381.946	-200.000	-0.065	-0.413
-380.931	334.272	-0.096	-0.184
-379.917	777.971	-0.124	0.337
-378.902	121.795	0.145	-0.180
-377.888	31.832	-0.291	-0.249
-376.873	468.641	-0.058	0.129
-375.858	-7.825	0.260	-0.174
-374.844	800.000	0.059	-0.201
-373.829	800.000	-0.090	0.256
-372.815	-200.000	0.040	0.185
-371.800	172.484	-0.037	0.053
-370.785	-84.797	-0.264	-0.082
-369.771	89.730	0.136	-0.151
-368.756	650.031	0.080	0.202
-367.742	14.393	0.164	-0.127
-366.727	33.811	0.151	0.130
-365.712	-38.849	-0.045	0.024
-364.698	-163.476	-0.220	-0.010
-363.683	584.884	-0.057	-0.140
-362.669	-27.375	0.385	-0.222
-361.654	241.637	0.105	-0.175
-360.639	-26.978	-0.159	0.092
-359.625	-3.445	0.248	0.171
-358.610	-117.216	0.402	0.073
-357.596	49.259	-0.068	-0.063
-356.581	24.272	0.197	0.162
-355.566	95.977	0.083	0.094
-354.552	-200.000	0.035	0.201
-353.537	-74.216	0.171	0.061
-352.523	34.402	0.023	0.020
-351.508	800.000	0.031	0.107
-350.493	-200.000	-0.014	-0.089
-349.479	-200.000	0.012	0.394
-348.464	-79.499	0.295	0.099
-347.450	69.898	-0.293	-0.300
-346.435	-49.288	0.255	-0.121
-345.420	800.000	0.017	0.061
-344.406	-21.034	0.238	0.144
-343.391	-200.000	0.043	-0.315
-342.377	56.375	-0.180	-0.174
-341.362	-41.106	0.437	-0.224
-340.348	-81.488	-0.079	-0.026
-339.333	-108.695	-0.128	-0.027
-338.318	205.506	-0.075	-0.115
-337.304	287.809	0.172	0.309
-336.289	-169.834	-0.291	-0.010
-335.275	719.001	0.015	0.039
-334.260	89.816	-0.271	0.300
-333.245	-44.370	0.122	-0.060
-332.231	-65.723	-0.093	0.037
-331.216	-0.659	-0.174	0.122
-330.202	46.636	0.148	0.136
-329.187	177.861	0.142	0.205
-328.172	-200.000	-0.004	0.141
-327.158	-12.581	-0.250	0.162
-326.143	-150.814	-0.125	0.009
-325.129	66.960	0.176	-0.178
-324.114	355.367	0.060	0.119
-323.099	9.708	0.266	-0.200
-322.085	-12.171	0.088	0.057
-321.070	-112.278	-0.455	-0.090
-320.056	128.924	0.156	-0.198
-319.041	-72.801	0.297	-0.108
-318.026	-132.898	-0.378	-0.048
-317.012	-31.453	0.083	0.046
-315.997	-200.000	0.020	-0.089
-314.983	136.741	-0.029	0.038
-313.968	258.326	0.104	0.178
-312.953	219.208	0.120	-0.190
-311.939	61.082	0.054	-0.053
-310.924	-55.079	0.222	0.099
-309.910	-200.000	-0.024	0.273
-308.895	-200.000	0.007	0.102
-307.880	-46.368	0.135	0.066
-306.866	333.653	-0.113	0.217
-305.851	259.516	0.116	-0.198
-304.837	-200.000	0.073	0.370
-303.822	28.520	-0.230	-0.192
-302.807	-98.453	0.113	-0.029
-301.793	-137.568	-0.366	0.041
-300.778	199.198	-0.146	-0.222
-299.764	-110.899	0.083	-0.017
-298.749	-145.222	0.341	-0.031
-297.735	82.303	0.117	-0.125
-296.720	-56.958	-0.387	0.169
-295.705	-200.000	0.011	0.217
-294.691	800.000	-0.148	0.412
-293.676	221.876	0.120	-0.191
-292.662	-200.000	-0.008	-0.082
-291.647	800.000	0.015	-0.058
-290.632	177.048	-0.093	-0.135
-289.618	-200.000	-0.029	-0.264
-288.603	93.291	-0.168	-0.188
-287.589	-200.000	-0.024	-0.150
-286.574	-200.000	0.004	-0.285
-285.559	254.452	0.046	-0.078
-284.545	-47.520	-0.115	0.055
-283.530	800.000	-0.058	0.236
-282.516	527.845	0.192	0.447
-281.501	5.421	0.148	0.108
-280.486	639.012	-0.151	0.380
-279.472	-168.610	0.228	-0.009
-278.457	-200.000	0.007	0.174
-277.443	-200.000	0.051	0.309
-276.428	-200.000	-0.028	0.149
-275.413	-118.728	0.065	0.011
-274.399	-87.363	0.122	-0.037
-273.384	310.432	0.198	-0.367
-272.370	14.625	0.299	-0.231
-271.355	768.046	-0.077	0.207
-270.340	47.653	-0.227	-0.210
-269.326	-200.000	0.020	0.357
-268.311	255.045	0.149	0.253
-267.297	-200.000	0.005	0.287
-266.282	800.000	0.017	-0.065
-265.267	-84.920	0.328	-0.102
-264.253	800.000	-0.063	0.198
-263.238	-125.711	-0.277	0.041
-262.224	47.242	-0.124	-0.114
-261.209	-164.180	-0.306	0.014
-260.195	-113.739	-0.091	-0.018
-259.180	-72.131	0.178	0.065
-258.165	380.904	0.096	0.194
-257.151	85.987	-0.186	-0.203
-256.136	-41.912	0.079	0.040
-255.122	800.000	0.200	-0.563
-254.107	800.000	-0.044	0.151
-253.092	2.421	-0.282	-0.202
-252.078	-10.477	0.433	-0.283
-251.063	-108.799	0.249	0.053
-250.049	99.303	0.104	-0.119
-249.034	800.000	0.082	-0.343
-248.019	-41.253	-0.199	0.101
-247.005	388.179	0.140	0.286
-245.990	-92.096	0.218	0.061
-244.976	150.311	0.017	0.023
-243.961	-200.000	-0.074	-0.342
-242.946	-113.602	0.043	0.008
-241.932	483.985	-0.087	0.196
-240.917	-52.329	-0.451	-0.206
-239.903	800.000	-0.011	0.047
-238.888	-82.237	-0.104	0.033
-237.873	-155.253	0.166	0.011
-236.859	79.562	0.015	0.016
-235.844	-84.412	0.294	0.092
-234.830	-49.433	-0.007	0.003
-233.815	-200.000	0.003	0.226
-232.800	-82.106	0.103	-0.033
-231.786	-127.519	0.515	0.074
-230.771	-85.645	-0.136	-0.042
-229.757	-127.852	0.055	-0.008
-228.742	-168.355	-0.297	0.011
-227.727	-200.000	0.008	-0.057
-226.713	-200.000	0.064	-0.413
-225.698	-53.682	-0.033	-0.015
-224.684	-200.000	-0.006	-0.050
-223.669	-78.925	-0.129	0.043
-222.655	146.163	-0.213	-0.282
-221.640	-18.212	0.214	-0.132
-220.625	-47.174	-0.069	0.033
-219.611	17.207	0.030	0.024
-218.596	147.553	0.086	0.115
-217.582	299.685	-0.107	0.194
-216.567	800.000	0.053	0.169
-215.552	296.678	-0.062	-0.112
-214.538	-125.043	0.121	0.018
-213.523	479.886	0.043	0.097
-212.509	84.076	0.104	0.112
-211.494	5.646	-0.121	-0.088
-210.479	286.512	-0.088	-0.157
-209.465	800.000	-0.046	0.131
-208.450	-103.584	0.196	0.045
-207.436	74.314	-0.132	0.136
-206.421	-200.000	-0.008	0.084
-205.406	364.196	0.192	0.380
-204.392	430.072	0.024	0.050
-203.377	-200.000	-0.022	-0.258
-202.363	-151.536	-0.079	-0.006
-201.348	800.000	0.123	-0.373
-200.333	197.488	0.163	0.245
-199.319	-81.488	-0.354	0.115
-198.304	91.695	0.165	-0.183
-197.290	79.214	-0.063	0.067
-196.275	143.210	0.039	-0.052
-195.260	-110.789	-0.147	-0.030
-194.246	-28.746	-0.171	-0.097
-193.231	67.506	-0.187	0.188
-192.217	800.000	-0.034	-0.116
-191.202	193.623	0.091	0.136
-190.187	-82.029	-0.180	-0.058
-189.173	76.526	0.225	-0.235
-188.158	650.006	-0.107	-0.269
-187.144	175.224	-0.119	-0.169
-186.129	-200.000	0.015	0.149
-185.114	-39.848	0.283	-0.146
-184.100	29.900	-0.280	0.235
-183.085	37.920	0.204	0.179
-182.071	-200.000	0.017	0.125
-181.056	99.216	-0.168	0.191
-180.042	68.075	-0.163	0.164
-179.027	-82.603	0.215	0.069
-178.012	347.283	-0.079	-0.154
-176.998	-167.278	0.235	-0.009
-175.983	77.073	0.217	0.228
-174.969	-200.000	-0.408	0.001
-173.954	-154.904	-0.139	-0.009
-172.939	427.718	0.099	-0.210
-171.925	55.693	-0.247	-0.236
-170.910	13.116	0.194	-0.148
-169.896	-82.227	-0.254	-0.082
-168.881	-85.051	0.101	-0.031
-167.866	108.446	0.165	-0.194
-166.852	34.815	0.128	0.111
-165.837	7.982	-0.215	-0.159
-164.823	-1.741	0.173	-0.120
-163.808	-190.225	0.189	-0.002
-162.793	108.005	0.136	0.159
-161.779	116.045	0.053	-0.063
-160.764	36.057	-0.194	0.168
-159.750	58.442	0.025	0.024
-158.735	-46.341	0.275	0.133
-157.720	-125.069	0.242	0.037
-156.706	277.377	-0.164	-0.288
-155.691	-200.000	-0.054	-0.336
-154.677	114.242	-0.095	0.114
-153.662	-200.000	0.070	-0.349
-152.647	316.613	-0.078	0.144
-151.633	800.000	0.065	-0.231
-150.618	-33.030	0.158	-0.086
-149.604	-102.458	-0.143	-0.034
-148.589	-200.000	0.022	0.164
-147.574	-200.000	0.002	0.229
-146.560	395.069	0.204	0.418
-145.545	-200.000	-0.013	-0.160
-144.531	-135.777	0.175	0.020
-143.516	800.000	-0.054	-0.166
-142.502	-54.537	0.341	0.152
-141.487	-51.832	0.181	0.083
-140.472	-38.113	0.088	0.046
-139.458	287.949	0.119	0.212
-138.443	-105.308	-0.179	-0.040
-137.429	-51.891	0.196	-0.090
-136.414	675.924	-0.068	0.174
-135.399	-200.000	0.051	-0.306
-134.385	157.544	0.098	0.133
-133.370	-102.601	-0.260	0.061
-132.356	-200.000	-0.001	0.036
-131.341	800.000	-0.061	-0.189
-130.326	3.093	-0.089	0.064
-129.312	-143.100	-0.219	0.021
-128.297	-200.000	-0.018	0.327
-127.283	-18.053	0.218	-0.134
-126.268	-200.000	0.385	0.000
-125.253	-33.562	0.187	0.102
-124.239	-130.974	-0.157	0.021
-123.224	1.957	-0.163	0.115
-122.210	-50.459	0.417	0.194
-121.195	-200.000	0.012	0.054
