DTS Sentinel unit serial number:	SN413079Multiplexer serial number:	ORYXHardware model number:	OX4-SRSoftware version number:	ORYX F/W v4.00 Oryx Data Collector v3.7.2.0data status	okinstallation	princeton_trtdifferential loss correction	single-endedforward channel	channel 2reverse channel	N/Adate	2019/09/18time	10:39:35forward acquisition time	60.00reverse acquisition time	0.00gamma	496.2192k internal	0.2331k external	0.2331temperature offset calibration	0.9985default loss term (dB/km)	0.3790temperature slope calibration	1.0000multiplexer offset coefficient	1.0000multiplexer slope coefficient	1.0000fibre end	0.00T internal ref (°C)	28.66T ext. ref 1 (°C)	0.36T ext. ref 2 (°C)	25.34length (m)	temperature (°C)	Stokes	anti-Stokes-747.200	-163.406	0.155	-0.007
-746.185	-180.725	0.123	-0.003
-745.171	-101.895	-0.338	0.082
-744.156	449.735	-0.173	0.385
-743.142	-51.507	0.229	0.108
-742.127	-200.000	-0.063	0.334
-741.112	222.562	0.014	0.022
-740.098	-24.729	-0.425	0.254
-739.083	-200.000	-0.014	-0.081
-738.069	-46.548	-0.229	0.113
-737.054	-138.220	0.165	0.018
-736.039	51.901	-0.306	-0.293
-735.025	-172.373	0.315	-0.010
-734.010	233.852	0.074	-0.122
-732.996	157.410	-0.244	-0.340
-731.981	-69.020	-0.184	0.071
-730.966	-153.514	0.202	0.014
-729.952	11.471	0.088	-0.067
-728.937	-7.820	0.210	0.142
-727.923	115.697	0.165	0.203
-726.908	412.000	0.053	0.113
-725.894	153.428	0.214	-0.295
-724.879	76.275	0.091	-0.097
-723.864	14.801	0.232	0.182
-722.850	120.731	-0.335	-0.419
-721.835	113.761	0.210	-0.256
-720.821	395.027	-0.146	0.307
-719.806	40.614	-0.286	0.259
-718.791	-27.974	-0.309	-0.180
-717.777	-59.030	0.285	-0.124
-716.762	-82.958	-0.284	0.092
-715.748	37.845	0.128	-0.114
-714.733	88.953	-0.221	-0.247
-713.718	-42.685	-0.189	-0.097
-712.704	-200.000	0.048	-0.334
-711.689	-24.917	-0.199	-0.119
-710.675	-200.000	-0.002	-0.234
-709.660	-67.328	-0.185	0.073
-708.645	115.773	-0.091	-0.112
-707.631	-19.661	0.275	-0.171
-706.616	12.693	-0.062	0.048
-705.602	-200.000	0.038	0.210
-704.587	-113.924	-0.222	0.043
-703.572	366.335	-0.047	-0.096
-702.558	141.001	0.067	0.089
-701.543	-47.512	-0.352	-0.172
-700.529	112.244	-0.199	-0.242
-699.514	-40.599	-0.325	0.170
-698.499	-74.309	0.192	0.070
-697.485	65.838	0.216	-0.220
-696.470	-55.355	-0.176	-0.080
-695.456	-130.050	0.303	0.042
-694.441	-39.867	0.228	0.119
-693.426	800.000	0.054	0.204
-692.412	-200.000	-0.003	-0.338
-691.397	-105.273	0.146	0.033
-690.383	-200.000	-0.044	0.398
-689.368	-200.000	0.022	0.251
-688.354	-200.000	0.013	-0.180
-687.339	-81.856	-0.131	0.043
-686.324	639.774	0.078	-0.199
-685.310	-42.953	-0.125	-0.064
-684.295	-65.503	0.261	0.105
-683.281	-127.941	-0.038	-0.005
-682.266	251.830	-0.161	0.275
-681.251	454.432	-0.143	-0.318
-680.237	800.000	-0.054	0.169
-679.222	-1.820	-0.219	0.155
-678.208	-200.000	0.022	0.576
-677.193	163.772	0.280	0.395
-676.178	800.000	0.097	-0.279
-675.164	100.320	-0.187	0.218
-674.149	-200.000	-0.019	-0.129
-673.135	21.373	0.318	0.260
-672.120	530.782	-0.094	-0.223
-671.105	-200.000	0.012	0.193
-670.091	-200.000	-0.025	-0.372
-669.076	408.822	0.023	-0.050
-668.062	202.903	0.051	-0.078
-667.047	82.870	-0.179	0.196
-666.032	-21.816	0.228	-0.139
-665.018	222.542	0.014	-0.023
-664.003	-26.896	-0.162	0.095
-662.989	-131.638	0.270	0.036
-661.974	-157.267	-0.349	0.021
-660.959	19.539	-0.197	-0.159
-659.945	800.000	0.009	0.036
-658.930	-77.166	-0.165	0.058
-657.916	43.997	-0.192	-0.177
-656.901	-200.000	0.041	0.431
-655.886	-180.545	-0.417	-0.009
-654.872	2.925	-0.115	-0.084
-653.857	674.251	-0.127	0.330
-652.843	800.000	-0.021	-0.084
-651.828	-200.000	0.026	0.199
-650.814	-100.361	0.169	-0.042
-649.799	735.181	-0.163	-0.437
-648.784	-200.000	0.009	-0.208
-647.770	800.000	-0.045	0.168
-646.755	-200.000	-0.000	0.027
-645.741	10.865	-0.390	0.298
-644.726	335.818	0.090	-0.175
-643.711	-147.321	0.181	0.015
-642.697	-158.621	0.309	-0.018
-641.682	-200.000	0.040	-0.340
-640.668	-200.000	0.024	0.140
-639.653	-17.375	0.234	-0.148
-638.638	69.208	0.182	-0.187
-637.624	-175.477	-0.126	-0.003
-636.609	-81.994	-0.142	-0.046
-635.595	-4.825	0.327	-0.226
-634.580	109.492	-0.093	0.112
-633.565	-200.000	-0.002	0.560
-632.551	57.971	0.112	0.110
-631.536	17.293	-0.145	0.115
-630.522	-44.327	-0.302	-0.152
-629.507	5.418	0.166	0.123
-628.492	-136.343	-0.093	-0.011
-627.478	-108.386	0.254	-0.055
-626.463	800.000	-0.024	0.088
-625.449	77.871	-0.092	0.098
-624.434	-200.000	0.037	0.169
-623.419	-132.820	-0.320	0.041
-622.405	49.573	-0.287	-0.271
-621.390	-200.000	0.002	0.055
-620.376	-52.041	0.160	-0.075
-619.361	36.281	0.055	0.048
-618.346	-4.748	-0.113	0.078
-617.332	-63.674	0.171	0.070
-616.317	258.251	-0.092	-0.159
-615.303	-2.313	-0.233	0.163
-614.288	-115.226	0.089	0.017
-613.273	-26.967	-0.081	0.047
-612.259	-48.077	-0.128	0.062
-611.244	-2.332	0.054	0.038
-610.230	6.633	0.127	-0.094
-609.215	-106.051	-0.374	-0.084
-608.201	81.940	-0.044	-0.048
-607.186	595.874	0.185	-0.458
-606.171	624.187	0.070	0.176
-605.157	800.000	0.071	0.229
-604.142	123.531	0.065	0.082
-603.128	-45.371	0.022	-0.011
-602.113	-48.089	-0.384	-0.186
-601.098	-144.074	0.245	0.023
-600.084	146.574	-0.104	0.140
-599.069	601.340	0.014	0.034
-598.055	378.100	-0.068	-0.139
-597.040	148.811	-0.032	0.043
-596.025	-56.150	-0.272	0.121
-595.011	-136.486	-0.014	-0.002
-593.996	461.957	-0.127	0.283
-592.982	-142.870	-0.115	-0.011
-591.967	22.010	0.121	0.099
-590.952	634.755	0.101	-0.257
-589.938	-8.424	-0.146	-0.098
-588.923	-56.930	-0.127	0.056
-587.909	800.000	0.053	0.157
-586.894	321.541	-0.097	-0.184
-585.879	95.180	-0.198	-0.226
-584.865	-133.233	-0.115	0.015
-583.850	-33.294	-0.286	-0.159
-582.836	73.135	-0.138	-0.144
-581.821	164.434	0.263	-0.371
-580.806	-84.565	0.137	0.043
-579.792	800.000	-0.073	0.250
-578.777	-65.572	-0.208	-0.083
-577.763	-172.331	-0.181	0.006
-576.748	-163.441	-0.299	0.014
-575.733	16.965	0.404	-0.320
-574.719	800.000	-0.098	0.324
-573.704	-23.338	-0.066	0.040
-572.690	479.335	-0.054	0.123
-571.675	236.091	-0.182	0.300
-570.661	800.000	-0.013	0.044
-569.646	-47.648	0.100	-0.049
-568.631	198.474	-0.065	-0.100
-567.617	-72.717	0.196	0.072
-566.602	-63.858	0.201	-0.082
-565.588	800.000	-0.077	-0.236
-564.573	86.115	0.050	-0.055
-563.558	-67.383	-0.231	0.091
-562.544	-110.521	0.347	-0.072
-561.529	156.286	-0.194	0.267
-560.515	-56.864	0.458	0.202
-559.500	-200.000	-0.016	0.208
-558.485	-51.733	-0.233	0.108
-557.471	-62.007	0.132	-0.055
-556.456	800.000	0.033	-0.094
-555.442	-3.897	-0.302	-0.210
-554.427	10.714	0.115	-0.088
-553.412	-159.289	-0.225	-0.013
-552.398	112.507	0.126	-0.153
-551.383	-19.167	-0.432	0.268
-550.369	-158.916	0.520	-0.030
-549.354	800.000	-0.114	0.414
-548.339	155.589	-0.144	-0.198
-547.325	41.096	0.207	-0.186
-546.310	-92.941	-0.344	-0.096
-545.296	-164.947	0.299	0.013
-544.281	338.738	-0.080	0.155
-543.266	-144.257	-0.137	0.013
-542.252	-12.699	-0.120	0.078
-541.237	34.501	-0.132	-0.115
-540.223	-200.000	-0.005	-0.045
-539.208	-163.257	-0.235	0.011
-538.193	433.508	0.140	0.304
-537.179	-55.606	0.331	0.148
-536.164	135.360	-0.231	-0.300
-535.150	800.000	0.027	0.083
-534.135	25.016	0.173	0.143
-533.121	-93.239	-0.119	0.033
-532.106	-200.000	-0.021	-0.416
-531.091	109.485	0.055	-0.066
-530.077	-132.168	0.201	0.026
-529.062	-200.000	-0.018	-0.188
-528.048	-200.000	-0.032	-0.333
-527.033	800.000	-0.106	0.338
-526.018	-82.236	0.113	-0.037
-525.004	217.523	-0.109	0.173
-523.989	170.344	-0.024	0.035
-522.975	398.790	0.058	-0.120
-521.960	-20.329	0.079	-0.049
-520.945	51.356	-0.059	-0.055
-519.931	-200.000	0.025	-0.328
-518.916	178.264	-0.094	-0.136
-517.902	18.199	0.116	-0.092
-516.887	-115.266	-0.183	0.035
-515.872	-177.258	-0.163	-0.004
-514.858	63.833	-0.070	0.070
-513.843	194.064	-0.097	0.146
-512.829	-64.598	0.095	0.039
-511.814	70.796	-0.051	0.052
-510.799	731.731	-0.155	0.413
-509.785	20.481	-0.220	-0.178
-508.770	-70.149	-0.142	-0.054
-507.756	159.683	-0.271	-0.376
-506.741	-200.000	-0.052	0.244
-505.726	-50.720	0.052	0.024
-504.712	-72.048	0.103	0.038
-503.697	-200.000	-0.035	-0.194
-502.683	-75.810	0.083	0.029
-501.668	91.072	-0.178	-0.199
-500.653	96.905	-0.312	0.356
-499.639	800.000	-0.020	-0.070
-498.624	114.170	-0.056	0.069
-497.610	-7.009	0.043	-0.029
-496.595	8.308	-0.164	0.123
-495.581	720.838	-0.068	0.181
-494.566	-200.000	-0.044	0.347
-493.551	58.760	-0.099	0.097
-492.537	80.042	0.267	0.286
-491.522	800.000	0.041	0.164
-490.508	-47.471	0.168	0.082
-489.493	699.701	-0.095	0.250
-488.478	-35.487	-0.299	0.162
-487.464	-161.484	0.240	0.012
-486.449	533.872	0.064	-0.152
-485.435	-200.000	-0.025	0.220
-484.420	89.943	-0.130	-0.145
-483.405	70.601	-0.131	0.135
-482.391	182.793	0.186	0.273
-481.376	-200.000	0.027	-0.190
-480.362	-190.867	0.114	-0.001
-479.347	-41.138	-0.175	-0.090
-478.332	328.087	-0.214	-0.408
-477.318	-200.000	0.004	-0.071
-476.303	-200.000	0.015	0.311
-475.289	211.995	0.174	-0.273
-474.274	-200.000	0.034	-0.177
-473.259	121.614	-0.185	0.230
-472.245	-28.096	0.091	-0.052
-471.230	-200.000	0.002	0.540
-470.216	617.047	0.070	0.175
-469.201	112.689	0.082	0.099
-468.186	-112.656	-0.024	-0.005
-467.172	-200.000	-0.091	0.495
-466.157	-42.610	-0.132	-0.067
-465.143	-200.000	0.029	-0.315
-464.128	38.762	0.180	0.160
-463.113	265.496	0.049	-0.085
-462.099	-86.950	0.127	0.039
-461.084	49.126	0.267	0.250
-460.070	-1.698	0.185	0.129
-459.055	-200.000	0.030	0.381
-458.040	-114.986	0.123	0.023
-457.026	694.339	-0.036	0.094
-456.011	581.879	0.144	-0.351
-454.997	-131.869	-0.304	0.040
-453.982	20.325	0.226	0.181
-452.968	-16.708	-0.408	-0.257
-451.953	-200.000	-0.010	-0.093
-450.938	-200.000	0.005	0.076
-449.924	237.769	0.130	-0.214
-448.909	52.052	0.140	-0.133
-447.895	158.344	0.166	-0.230
-446.880	-114.093	-0.125	0.024
-445.865	-58.031	0.275	0.119
-444.851	3.421	-0.135	0.098
-443.836	-71.676	0.321	0.119
-442.822	800.000	-0.067	-0.190
-441.807	33.538	-0.207	-0.179
-440.792	260.095	-0.069	0.119
-439.778	-200.000	0.034	0.149
-438.763	95.407	-0.273	-0.310
-437.749	800.000	0.173	-0.515
-436.734	-67.624	-0.293	0.114
-435.719	-155.536	0.206	-0.013
-434.705	96.562	0.234	0.267
-433.690	120.435	-0.042	0.052
-432.676	-16.715	0.215	-0.135
-431.661	-44.280	-0.350	-0.174
-430.646	-21.059	0.117	0.071
-429.632	-4.536	-0.077	0.053
-428.617	800.000	-0.033	0.103
-427.603	-129.635	0.052	-0.007
-426.588	658.756	0.127	0.325
-425.573	383.691	-0.158	0.324
-424.559	697.283	0.083	-0.216
-423.544	-144.888	0.435	-0.040
-422.530	-115.350	0.354	-0.066
-421.515	-68.048	-0.209	-0.081
-420.500	105.665	-0.236	-0.277
-419.486	-200.000	-0.030	-0.238
-418.471	-26.635	0.111	-0.064
-417.457	400.817	0.112	-0.234
-416.442	-32.104	0.264	0.147
-415.428	-200.000	-0.016	0.173
-414.413	-84.307	0.226	-0.071
-413.398	43.371	-0.149	-0.135
-412.384	22.041	0.134	-0.109
-411.369	337.612	0.040	-0.077
-410.355	198.328	0.186	0.283
-409.340	208.754	0.022	0.034
-408.325	53.466	-0.288	0.274
-407.311	800.000	-0.128	0.473
-406.296	-200.000	0.053	-0.241
-405.282	800.000	0.076	-0.246
-404.267	-68.652	-0.177	-0.068
-403.252	-76.169	0.352	-0.123
-402.238	800.000	-0.050	-0.144
-401.223	239.430	0.107	0.178
-400.209	-84.830	-0.194	-0.061
-399.194	-200.000	0.037	0.167
-398.179	-200.000	-0.025	0.247
-397.165	-89.369	0.216	-0.063
-396.150	-200.000	0.029	-0.234
-395.136	-15.070	-0.132	-0.084
-394.121	52.302	0.233	-0.220
-393.106	-112.428	0.201	0.040
-392.092	72.212	0.218	-0.225
-391.077	-37.077	-0.162	0.086
-390.063	-3.930	-0.056	-0.039
-389.048	271.036	0.122	-0.214
-388.033	-200.000	0.044	-0.235
-387.019	-16.465	0.189	-0.119
-386.004	160.637	0.171	-0.237
-384.990	286.726	-0.175	0.313
-383.975	-20.548	0.089	0.055
-382.960	272.757	0.075	0.132
-381.946	-140.817	-0.341	-0.035
-380.931	-32.254	0.257	-0.142
-379.917	-150.535	-0.244	-0.019
-378.902	-31.533	-0.029	-0.016
-377.888	-20.543	0.226	-0.138
-376.873	2.942	-0.171	0.123
-375.858	791.785	-0.057	0.155
-374.844	-53.767	0.108	-0.049
-373.829	-42.623	-0.206	0.104
-372.815	19.003	-0.097	0.077
-371.800	-116.422	-0.075	0.014
-370.785	101.278	-0.230	0.265
-369.771	29.888	-0.223	-0.188
-368.756	559.990	0.165	-0.395
-367.742	3.311	0.133	-0.096
-366.727	-71.160	0.158	-0.059
-365.712	-200.000	0.004	0.257
-364.698	94.834	0.137	0.155
-363.683	800.000	0.076	-0.219
-362.669	522.014	-0.043	0.100
-361.654	-72.941	-0.191	0.070
-360.639	-200.000	-0.005	-0.097
-359.625	287.393	0.023	0.042
-358.610	231.803	-0.145	0.236
-357.596	444.052	0.100	0.218
-356.581	49.961	-0.016	0.015
-355.566	272.469	-0.173	0.302
-354.552	-200.000	0.034	0.285
-353.537	373.324	-0.115	0.232
-352.523	82.284	0.279	0.300
-351.508	-116.262	0.100	0.018
-350.493	-38.452	-0.077	0.040
-349.479	-200.000	-0.020	0.103
-348.464	106.808	-0.155	0.182
-347.450	-89.768	0.253	-0.073
-346.435	-154.889	0.093	0.006
-345.420	10.174	-0.099	0.075
-344.406	94.674	-0.209	0.235
-343.391	7.967	0.071	0.053
-342.377	-88.095	-0.294	0.087
-341.362	151.747	0.217	-0.293
-340.348	532.781	0.085	-0.200
-339.333	800.000	-0.047	0.165
-338.318	306.189	0.125	0.231
-337.304	40.198	-0.186	-0.165
-336.289	182.944	-0.071	-0.104
-335.275	362.456	0.080	-0.160
-334.260	-200.000	-0.038	0.192
-333.245	42.299	0.154	0.138
-332.231	800.000	0.072	0.281
-331.216	465.687	-0.044	-0.098
-330.202	218.002	-0.148	0.234
-329.187	22.199	0.109	-0.088
-328.172	441.443	0.112	-0.242
-327.158	-20.475	0.124	-0.076
-326.143	-39.291	0.197	0.102
-325.129	6.140	0.152	-0.111
-324.114	-58.267	-0.046	0.020
-323.099	-131.906	0.392	-0.051
-322.085	800.000	-0.070	-0.198
-321.070	182.199	-0.095	-0.139
-320.056	800.000	-0.012	-0.049
-319.041	724.380	0.094	0.248
-318.026	455.108	0.058	-0.127
-317.012	192.687	-0.222	0.332
-315.997	800.000	0.128	0.440
-314.983	800.000	-0.062	0.266
-313.968	-28.320	-0.345	0.197
-312.953	-15.747	0.069	-0.044
-311.939	29.997	0.055	-0.047
-310.924	120.963	0.219	0.270
-309.910	42.834	-0.157	0.141
-308.895	348.289	0.123	-0.239
-307.880	413.021	0.121	-0.255
-306.866	372.648	0.145	0.291
-305.851	-200.000	-0.001	0.309
-304.837	324.350	-0.100	0.189
-303.822	142.419	0.146	-0.191
-302.807	-200.000	0.048	0.240
-301.793	28.463	0.155	0.130
-300.778	42.539	-0.176	0.159
-299.764	-38.010	0.225	-0.118
-298.749	-99.571	0.144	0.036
-297.735	213.971	0.074	-0.115
-296.720	73.557	-0.179	0.185
-295.705	-75.537	0.302	-0.106
-294.691	-61.662	-0.319	-0.132
-293.676	107.014	-0.189	-0.223
-292.662	26.450	-0.276	-0.228
-291.647	-19.419	-0.175	0.107
-290.632	-111.326	-0.382	-0.077
-289.618	-200.000	-0.019	-0.178
-288.603	22.748	0.188	-0.152
-287.589	444.576	0.201	-0.437
-286.574	-200.000	0.016	0.163
-285.559	800.000	0.083	0.289
-284.545	-51.657	0.184	-0.085
-283.530	240.582	0.074	-0.122
-282.516	-47.661	0.156	-0.075
-281.501	94.320	-0.297	-0.334
-280.486	178.952	0.136	-0.196
-279.472	27.110	0.122	-0.101
-278.457	-134.865	0.243	0.029
-277.443	-86.391	0.171	-0.052
-276.428	59.111	0.132	0.128
-275.413	5.075	0.104	-0.075
-274.399	800.000	0.070	-0.224
-273.384	-42.810	0.065	-0.032
-272.370	-200.000	-0.027	0.210
-271.355	-23.501	0.335	0.199
-270.340	89.146	-0.151	-0.166
-269.326	35.056	-0.331	0.287
-268.311	-49.892	-0.278	-0.130
-267.297	800.000	0.068	-0.265
-266.282	-19.988	0.091	0.055
-265.267	-200.000	-0.041	0.186
-264.253	-99.865	-0.360	-0.089
-263.238	22.100	-0.093	-0.075
-262.224	25.349	-0.164	-0.134
-261.209	-141.375	-0.271	0.027
-260.195	-200.000	-0.031	0.269
-259.180	623.048	-0.072	0.178
-258.165	-200.000	0.002	0.200
-257.151	-143.358	-0.149	0.014
-256.136	-196.864	-0.180	0.001
-255.122	98.921	-0.184	0.210
-254.107	-13.133	0.364	0.234
-253.092	-200.000	-0.041	-0.298
-252.078	-143.847	0.261	0.024
-251.063	69.066	-0.174	-0.176
-250.049	196.088	-0.195	0.294
-249.034	-111.445	0.280	-0.056
-248.019	505.637	0.135	-0.308
-247.005	-17.804	0.117	-0.072
-245.990	-47.169	-0.192	-0.092
-244.976	33.119	-0.153	0.131
-243.961	8.164	0.244	0.181
-242.946	646.757	0.038	-0.096
-241.932	-165.611	-0.283	0.012
-240.917	102.074	0.324	0.373
-239.903	-200.000	-0.050	-0.372
-238.888	800.000	-0.106	0.349
-237.873	-171.126	0.293	0.010
-236.859	60.513	0.170	-0.166
-235.844	-138.733	0.383	-0.041
-234.830	-200.000	-0.074	-0.324
-233.815	800.000	0.064	0.264
-232.800	-200.000	0.046	-0.401
-231.786	133.163	0.159	-0.202
-230.771	-200.000	-0.018	-0.216
-229.757	282.156	-0.136	0.240
-228.742	-56.844	-0.121	-0.053
-227.727	-57.757	0.207	0.089
-226.713	51.378	-0.156	-0.147
-225.698	-76.535	0.244	0.084
-224.684	135.080	-0.187	-0.240
-223.669	228.767	-0.081	-0.130
-222.655	10.780	-0.152	-0.114
-221.640	-1.127	-0.093	0.064
-220.625	46.964	-0.321	-0.294
-219.611	-39.678	0.197	-0.101
-218.596	216.797	0.171	-0.268
-217.582	-53.673	0.199	-0.090
-216.567	-72.989	-0.113	0.041
-215.552	-19.463	0.255	-0.156
-214.538	-200.000	0.031	-0.267
-213.523	5.652	-0.273	0.199
-212.509	800.000	-0.065	-0.278
-211.494	99.898	-0.250	-0.285
-210.479	-53.176	0.107	-0.048
-209.465	-159.802	-0.175	-0.010
-208.450	191.479	-0.167	-0.248
-207.436	-155.972	-0.038	-0.002
-206.421	-118.048	-0.257	-0.045
-205.406	-65.389	0.176	-0.070
-204.392	-60.228	-0.024	0.010
-203.377	-8.410	-0.111	-0.074
-202.363	-131.276	-0.373	0.049
-201.348	31.609	0.185	-0.157
-200.333	-115.410	0.285	0.053
-199.319	200.557	0.038	-0.058
-198.304	-200.000	-0.015	0.099
-197.290	-29.603	0.366	-0.206
-196.275	-31.112	-0.119	0.066
-195.260	-10.284	-0.276	0.180
-194.246	137.565	0.234	0.302
-193.231	392.281	0.074	-0.151
-192.217	97.410	0.171	-0.193
-191.202	-67.702	-0.325	0.125
-190.187	336.573	0.119	-0.228
-189.173	-66.252	-0.151	0.059
-188.158	13.900	-0.211	0.162
-187.144	-96.725	0.054	-0.014
-186.129	24.493	0.204	-0.166
-185.114	-48.138	0.228	-0.108
-184.100	786.955	0.014	0.039
-183.085	157.927	-0.152	-0.208
-182.071	312.748	0.043	0.079
-181.056	132.466	0.023	0.030
-180.042	736.491	0.081	-0.214
-179.027	196.939	0.095	-0.143
-178.012	-132.275	0.236	-0.030
-176.998	-114.193	-0.202	-0.038
-175.983	-200.000	-0.021	-0.275
-174.969	258.212	-0.133	0.226
-173.954	-79.183	0.298	-0.100
-172.939	-200.000	0.002	-0.184
-171.925	187.765	0.135	-0.199
-170.910	-200.000	0.052	0.278
-169.896	-5.742	0.077	-0.052
-168.881	35.389	-0.113	-0.097
-167.866	220.644	0.054	-0.086
-166.852	-89.133	-0.228	-0.066
-165.837	-200.000	-0.000	-0.018
-164.823	-127.722	-0.147	-0.021
-163.808	-112.286	0.059	0.012
-162.793	-39.158	0.223	0.115
-161.779	-84.693	-0.143	0.044
-160.764	232.370	0.090	0.145
-159.750	-97.344	0.266	-0.068
-158.735	-129.443	0.274	0.037
-157.720	-200.000	-0.018	0.206
-156.706	3.846	-0.199	0.143
-155.691	-200.000	0.001	0.095
-154.677	703.777	-0.058	-0.151
-153.662	800.000	0.061	0.197
-152.647	-200.000	-0.044	0.366
-151.633	402.710	-0.034	-0.070
-150.618	-10.457	0.023	-0.015
-149.604	43.657	0.384	0.345
-148.589	-200.000	0.036	-0.366
-147.574	96.021	0.203	0.228
-146.560	-200.000	-0.008	-0.083
-145.545	-90.518	0.017	0.005
-144.531	-23.145	-0.253	0.150
-143.516	-21.764	-0.050	0.030
-142.502	-5.478	0.318	-0.214
-141.487	-99.341	0.223	0.055
-140.472	116.728	-0.103	0.124
-139.458	-141.119	-0.191	-0.019
-138.443	-69.452	-0.145	0.055
-137.429	-200.000	-0.064	0.288
-136.414	92.011	-0.136	-0.150
-135.399	144.588	-0.076	0.100
-134.385	364.015	0.111	0.219
-133.370	261.239	0.157	-0.266
-132.356	800.000	-0.010	-0.034
-131.341	-200.000	0.042	0.219
-130.326	71.903	0.125	0.128
-129.312	-200.000	0.000	0.100
-128.297	-166.709	0.077	-0.003
-127.283	101.430	0.059	0.068
-126.268	-200.000	0.048	0.284
-125.253	102.855	0.116	-0.134
-124.239	-121.373	0.208	0.034
-123.224	-200.000	0.023	-0.196
-122.210	74.357	0.064	-0.066
-121.195	26.058	0.274	-0.225
-120.180	800.000	-0.041	-0.124
