DTS Sentinel unit serial number:	SN413079Multiplexer serial number:	ORYXHardware model number:	OX4-SRSoftware version number:	ORYX F/W v4.00 Oryx Data Collector v3.7.2.0data status	okinstallation	princeton_trtdifferential loss correction	single-endedforward channel	channel 2reverse channel	N/Adate	2019/09/18time	04:39:35forward acquisition time	60.00reverse acquisition time	0.00gamma	496.2192k internal	0.2348k external	0.2348temperature offset calibration	0.9984default loss term (dB/km)	0.3790temperature slope calibration	1.0000multiplexer offset coefficient	1.0000multiplexer slope coefficient	1.0000fibre end	0.00T internal ref (°C)	23.44T ext. ref 1 (°C)	0.19T ext. ref 2 (°C)	17.70length (m)	temperature (°C)	Stokes	anti-Stokes-747.200	-39.814	-0.267	0.139
-746.185	112.039	-0.177	0.214
-745.171	-73.520	0.100	-0.036
-744.156	147.937	-0.232	0.313
-743.142	-200.000	-0.017	0.183
-742.127	-60.101	-0.100	0.043
-741.112	334.084	0.170	-0.329
-740.098	88.684	-0.119	0.132
-739.083	169.556	-0.224	0.320
-738.069	-200.000	-0.026	0.142
-737.054	162.795	-0.024	0.033
-736.039	-200.000	-0.031	-0.505
-735.025	-103.631	-0.204	0.048
-734.010	449.447	0.022	0.048
-732.996	42.819	0.192	-0.175
-731.981	-113.102	0.141	0.028
-730.966	800.000	-0.049	0.143
-729.952	-152.015	-0.130	0.009
-728.937	-200.000	-0.040	0.251
-727.923	-110.524	-0.341	-0.070
-726.908	-200.000	-0.013	-0.179
-725.894	-159.734	-0.338	-0.019
-724.879	-151.085	-0.101	0.008
-723.864	800.000	-0.103	0.310
-722.850	20.418	0.243	0.196
-721.835	57.875	-0.068	0.066
-720.821	800.000	0.042	-0.168
-719.806	138.613	-0.212	-0.278
-718.791	-87.631	-0.261	-0.079
-717.777	-200.000	-0.001	0.031
-716.762	-7.482	0.136	-0.092
-715.748	-29.665	0.352	-0.201
-714.733	145.389	-0.019	-0.026
-713.718	735.543	-0.085	-0.228
-712.704	800.000	-0.042	-0.142
-711.689	239.538	-0.139	-0.231
-710.675	-87.699	0.153	-0.046
-709.660	557.300	0.065	-0.157
-708.645	-200.000	-0.007	0.285
-707.631	-131.249	0.280	-0.037
-706.616	-2.624	0.076	0.053
-705.602	-200.000	0.008	0.105
-704.587	800.000	0.080	0.232
-703.572	487.199	-0.049	0.111
-702.558	-123.204	-0.309	0.049
-701.543	-146.663	0.323	-0.028
-700.529	-73.276	-0.263	0.096
-699.514	-65.080	0.148	0.060
-698.499	-56.566	-0.010	0.004
-697.485	325.471	0.198	-0.378
-696.470	286.646	0.207	-0.372
-695.456	-60.006	-0.143	0.061
-694.441	-95.553	-0.108	0.029
-693.426	136.837	-0.183	0.239
-692.412	124.540	-0.229	0.287
-691.397	50.857	-0.138	0.130
-690.383	83.526	-0.188	-0.204
-689.368	59.614	-0.253	0.248
-688.354	456.698	-0.062	0.137
-687.339	-31.906	0.288	0.161
-686.324	800.000	-0.043	-0.128
-685.310	7.972	-0.400	0.299
-684.295	-200.000	-0.023	-0.102
-683.281	753.171	0.049	-0.132
-682.266	197.205	-0.136	-0.206
-681.251	60.041	0.145	0.143
-680.237	-115.556	0.260	0.049
-679.222	-200.000	-0.083	-0.527
-678.208	-84.545	0.207	0.065
-677.193	-194.391	-0.302	-0.002
-676.178	-4.428	-0.327	0.225
-675.164	-26.499	0.168	0.098
-674.149	54.692	-0.258	0.247
-673.135	165.769	-0.189	0.267
-672.120	800.000	0.035	-0.138
-671.105	-200.000	0.004	-0.032
-670.091	440.267	-0.128	-0.278
-669.076	6.935	-0.157	0.116
-668.062	-104.432	-0.140	0.032
-667.047	69.672	0.062	0.064
-666.032	-90.413	-0.374	-0.108
-665.018	8.454	-0.055	0.041
-664.003	729.718	-0.061	0.163
-662.989	98.081	0.072	0.083
-661.974	-47.702	0.192	-0.092
-660.959	-60.619	-0.364	0.154
-659.945	498.243	0.028	0.063
-658.930	-110.636	0.210	0.043
-657.916	-181.281	-0.112	-0.002
-656.901	-41.696	-0.212	0.108
-655.886	-11.366	-0.235	0.154
-654.872	-200.000	-0.083	-0.363
-653.857	-6.045	-0.133	-0.091
-652.843	-4.882	-0.244	-0.167
-651.828	-30.928	-0.148	-0.083
-650.814	-200.000	-0.047	0.214
-649.799	-44.959	-0.177	-0.088
-648.784	17.328	0.150	0.118
-647.770	-200.000	0.013	-0.297
-646.755	2.718	0.194	0.140
-645.741	60.363	0.156	-0.153
-644.726	800.000	-0.050	-0.203
-643.711	-200.000	-0.079	0.387
-642.697	-145.972	-0.139	-0.012
-641.682	800.000	-0.055	0.229
-640.668	-41.503	0.169	-0.087
-639.653	-22.439	0.129	0.077
-638.638	-7.496	-0.288	-0.194
-637.624	-94.905	0.141	0.038
-636.609	-160.629	-0.191	-0.010
-635.595	-72.018	-0.016	-0.006
-634.580	-41.035	-0.144	0.074
-633.565	800.000	0.045	-0.144
-632.551	780.898	0.106	-0.288
-631.536	800.000	0.071	0.224
-630.522	800.000	0.069	-0.231
-629.507	760.322	0.084	-0.227
-628.492	-0.635	-0.339	-0.239
-627.478	-31.129	0.098	0.055
-626.463	316.444	-0.117	-0.220
-625.449	266.168	0.060	0.104
-624.434	44.049	0.118	-0.107
-623.419	60.916	-0.318	-0.314
-622.405	14.801	-0.322	0.250
-621.390	57.125	0.101	0.098
-620.376	144.044	0.124	0.164
-619.361	-200.000	0.020	0.114
-618.346	-200.000	0.019	-0.362
-617.332	208.843	-0.112	-0.175
-616.317	333.329	-0.038	0.073
-615.303	231.369	-0.135	0.219
-614.288	800.000	-0.012	0.032
-613.273	800.000	-0.012	0.043
-612.259	-45.635	0.305	-0.150
-611.244	-75.912	-0.092	0.032
-610.230	800.000	-0.114	-0.481
-609.215	194.811	0.157	0.237
-608.201	-149.512	-0.141	0.011
-607.186	800.000	0.082	-0.301
-606.171	-200.000	-0.019	-0.166
-605.157	-94.525	0.012	-0.003
-604.142	330.230	-0.114	0.218
-603.128	206.235	0.087	-0.135
-602.113	30.926	0.103	-0.088
-601.098	-96.486	-0.199	0.052
-600.084	-200.000	0.007	0.036
-599.069	-55.566	-0.052	0.023
-598.055	50.972	0.238	0.224
-597.040	156.986	0.178	0.245
-596.025	797.099	-0.107	0.294
-595.011	-167.962	0.171	-0.007
-593.996	-86.815	0.292	0.089
-592.982	-153.681	-0.373	0.026
-591.967	-115.411	0.070	-0.013
-590.952	-117.647	0.460	-0.082
-589.938	258.775	0.065	0.111
-588.923	32.809	0.111	0.096
-587.909	-200.000	-0.004	0.093
-586.894	276.926	-0.207	-0.365
-585.879	-136.444	-0.332	0.038
-584.865	-200.000	0.005	0.168
-583.850	266.916	0.172	-0.299
-582.836	-92.996	-0.217	-0.060
-581.821	-60.520	-0.285	-0.120
-580.806	-36.651	-0.087	-0.047
-579.792	-25.340	0.329	0.193
-578.777	-27.389	-0.139	0.080
-577.763	104.266	-0.167	-0.195
-576.748	45.470	-0.245	-0.224
-575.733	-27.450	0.415	0.240
-574.719	800.000	-0.035	-0.149
-573.704	-185.147	-0.156	-0.002
-572.690	-62.451	0.307	-0.127
-571.675	57.348	-0.174	0.168
-570.661	173.277	-0.025	0.035
-569.646	-200.000	-0.018	0.491
-568.631	133.446	0.137	-0.176
-567.617	-104.341	-0.054	-0.012
-566.602	104.248	0.209	-0.244
-565.588	-115.878	0.287	-0.053
-564.573	-124.552	-0.167	-0.026
-563.558	1.870	-0.162	0.116
-562.544	83.082	0.109	-0.117
-561.529	203.154	0.097	-0.149
-560.515	-39.606	0.141	0.073
-559.500	327.898	0.035	-0.067
-558.485	-99.040	0.183	-0.046
-557.471	196.483	-0.136	0.205
-556.456	-63.057	0.393	-0.161
-555.442	-73.251	-0.164	0.060
-554.427	-200.000	0.007	0.063
-553.412	38.751	-0.203	0.180
-552.398	-200.000	-0.077	0.344
-551.383	151.079	0.175	0.236
-550.369	698.402	0.052	0.136
-549.354	800.000	-0.035	0.141
-548.339	751.571	0.156	0.416
-547.325	403.243	0.148	0.308
-546.310	51.126	-0.053	-0.050
-545.296	11.743	0.126	-0.096
-544.281	-200.000	0.002	-0.042
-543.266	-69.621	-0.155	0.059
-542.252	-200.000	0.051	0.327
-541.237	-125.839	0.203	0.030
-540.223	233.927	-0.233	-0.380
-539.208	-29.752	-0.321	0.182
-538.193	-89.353	0.071	-0.021
-537.179	-135.367	0.391	0.046
-536.164	49.976	-0.114	0.106
-535.150	-118.571	0.404	-0.071
-534.135	-200.000	-0.007	0.237
-533.121	-23.873	-0.211	-0.125
-532.106	-60.458	-0.468	0.197
-531.091	286.901	-0.056	0.101
-530.077	246.502	-0.060	0.100
-529.062	525.245	0.040	-0.094
-528.048	-163.245	-0.159	-0.008
-527.033	482.118	0.026	0.058
-526.018	314.745	-0.036	0.066
-525.004	-89.568	-0.222	0.065
-523.989	-71.013	0.130	-0.049
-522.975	232.039	-0.031	-0.050
-521.960	155.162	-0.279	-0.380
-520.945	-52.612	-0.232	-0.106
-519.931	800.000	0.084	-0.238
-518.916	-200.000	-0.019	0.114
-517.902	-55.597	-0.359	-0.159
-516.887	46.926	-0.050	0.046
-515.872	-59.118	-0.062	0.026
-514.858	-200.000	-0.051	-0.331
-513.843	-200.000	0.027	0.325
-512.829	24.537	-0.266	0.218
-511.814	-70.914	0.237	-0.088
-510.799	-200.000	-0.036	-0.204
-509.785	-200.000	0.034	0.197
-508.770	-0.304	0.194	0.136
-507.756	800.000	-0.061	0.182
-506.741	-86.708	0.274	-0.083
-505.726	-38.042	0.089	0.047
-504.712	-67.969	0.238	-0.092
-503.697	259.368	0.128	-0.219
-502.683	-200.000	0.018	0.168
-501.668	-142.766	0.046	-0.004
-500.653	-41.612	-0.340	0.173
-499.639	800.000	-0.086	-0.254
-498.624	-92.593	0.299	-0.083
-497.610	46.872	0.103	0.094
-496.595	221.406	0.091	-0.145
-495.581	800.000	0.140	-0.419
-494.566	-55.103	-0.161	0.072
-493.551	800.000	0.064	-0.198
-492.537	800.000	0.091	-0.265
-491.522	129.791	-0.156	-0.197
-490.508	-200.000	0.027	-0.172
-489.493	-200.000	0.027	0.202
-488.478	-200.000	-0.087	0.409
-487.464	800.000	0.043	-0.168
-486.449	-200.000	-0.016	-0.308
-485.435	179.538	0.139	-0.201
-484.420	224.278	-0.073	0.117
-483.405	-113.505	-0.146	0.028
-482.391	-45.994	-0.195	-0.095
-481.376	47.059	0.216	-0.199
-480.362	86.516	0.163	0.177
-479.347	69.055	0.086	0.087
-478.332	258.133	0.142	-0.242
-477.318	350.114	-0.075	-0.147
-476.303	20.518	0.057	-0.046
-475.289	800.000	-0.069	0.298
-474.274	800.000	-0.109	0.421
-473.259	-22.706	0.095	-0.057
-472.245	-195.771	-0.194	-0.001
-471.230	480.566	0.023	-0.052
-470.216	766.582	0.033	-0.090
-469.201	-37.160	-0.097	-0.051
-468.186	111.333	0.234	0.279
-467.172	-19.710	0.244	-0.149
-466.157	-26.248	0.064	-0.037
-465.143	12.964	-0.112	-0.086
-464.128	-73.169	0.190	0.069
-463.113	-39.026	-0.278	-0.144
-462.099	90.145	-0.140	-0.155
-461.084	596.662	-0.071	-0.174
-460.070	-31.494	-0.162	-0.090
-459.055	-200.000	-0.037	-0.347
-458.040	556.905	-0.111	0.265
-457.026	35.630	-0.293	-0.254
-456.011	62.387	-0.347	-0.342
-454.997	-200.000	0.020	-0.158
-453.982	-49.950	0.219	-0.103
-452.968	-184.504	0.221	-0.004
-451.953	-200.000	-0.014	0.353
-450.938	-164.261	0.147	0.007
-449.924	382.266	0.101	-0.205
-448.909	124.777	-0.119	0.148
-447.895	228.225	-0.145	-0.233
-446.880	124.601	0.223	0.277
-445.865	800.000	-0.107	0.308
-444.851	185.424	-0.009	0.014
-443.836	-200.000	-0.032	-0.450
-442.822	-66.858	-0.220	-0.086
-441.807	-109.340	0.213	0.045
-440.792	637.304	-0.051	0.127
-439.778	272.939	0.115	0.201
-438.763	45.792	-0.188	0.172
-437.749	92.149	0.076	-0.085
-436.734	800.000	-0.149	-0.516
-435.719	-200.000	0.050	0.266
-434.705	800.000	-0.057	0.175
-433.690	-38.631	-0.049	0.026
-432.676	-26.967	-0.233	-0.134
-431.661	-200.000	-0.004	-0.336
-430.646	-72.211	-0.052	0.019
-429.632	-54.442	-0.147	-0.066
-428.617	157.253	-0.034	-0.047
-427.603	105.669	0.126	0.146
-426.588	44.022	-0.172	-0.156
-425.573	-200.000	-0.009	-0.055
-424.559	800.000	-0.017	-0.060
-423.544	23.048	0.031	0.025
-422.530	132.891	-0.220	0.280
-421.515	68.591	-0.150	-0.152
-420.500	-56.992	0.101	-0.044
-419.486	-200.000	0.024	0.207
-418.471	800.000	0.122	0.510
-417.457	163.839	0.063	0.088
-416.442	-62.383	0.066	0.027
-415.428	800.000	-0.076	-0.312
-414.413	-9.062	-0.029	0.019
-413.398	-144.057	-0.432	0.040
-412.384	-140.404	-0.255	-0.026
-411.369	457.861	0.095	-0.209
-410.355	-200.000	-0.026	-0.117
-409.340	43.527	0.128	0.115
-408.325	800.000	0.006	0.022
-407.311	-168.939	-0.282	-0.010
-406.296	-200.000	0.042	-0.196
-405.282	-23.626	-0.360	-0.213
-404.267	90.046	0.222	0.245
-403.252	-122.591	0.212	0.034
-402.238	28.556	-0.192	0.160
-401.223	800.000	0.057	0.206
-400.209	-131.916	-0.480	0.062
-399.194	-98.465	0.227	0.057
-398.179	-139.948	0.356	0.037
-397.165	-122.469	-0.374	-0.060
-396.150	-9.696	0.298	-0.196
-395.136	300.513	-0.151	0.274
-394.121	800.000	0.058	-0.159
-393.106	357.358	0.043	-0.084
-392.092	313.824	0.168	-0.312
-391.077	800.000	-0.073	-0.216
-390.063	261.212	-0.068	0.116
-389.048	-200.000	0.023	0.472
-388.033	223.923	0.125	-0.199
-387.019	376.745	-0.021	-0.042
-386.004	-36.660	-0.129	0.068
-384.990	-75.328	-0.208	-0.073
-383.975	190.759	0.269	0.398
-382.960	-200.000	0.022	-0.307
-381.946	7.659	-0.318	-0.235
-380.931	31.662	0.051	0.044
-379.917	-107.264	-0.019	0.004
-378.902	-2.496	-0.244	-0.168
-377.888	-28.316	-0.273	-0.155
-376.873	-32.863	-0.174	-0.095
-375.858	-79.687	0.280	-0.093
-374.844	-88.505	-0.277	0.081
-373.829	127.868	-0.171	-0.214
-372.815	169.589	0.101	0.142
-371.800	-141.894	-0.170	-0.017
-370.785	35.787	0.219	-0.189
-369.771	7.842	0.328	-0.242
-368.756	-190.533	0.297	-0.003
-367.742	800.000	0.076	-0.250
-366.727	800.000	-0.075	-0.218
-365.712	278.481	-0.083	0.145
-364.698	-200.000	0.008	-0.181
-363.683	209.172	-0.099	-0.153
-362.669	25.145	-0.268	-0.219
-361.654	-51.309	0.050	0.023
-360.639	-68.998	0.194	0.073
-359.625	-63.573	-0.179	-0.072
-358.610	-37.723	-0.360	0.189
-357.596	35.997	-0.175	-0.152
-356.581	-200.000	-0.001	-0.246
-355.566	-117.967	0.176	-0.031
-354.552	-10.422	-0.145	-0.094
-353.537	356.648	0.056	-0.109
-352.523	-144.369	-0.084	0.008
-351.508	-188.941	0.276	0.003
-350.493	325.242	0.075	0.142
-349.479	-94.766	0.227	-0.061
-348.464	-12.070	0.216	-0.139
-347.450	209.355	0.178	-0.274
-346.435	-58.276	0.164	0.070
-345.420	-136.711	0.181	-0.021
-344.406	350.774	-0.195	0.380
-343.391	-1.491	0.496	0.344
-342.377	-140.531	0.085	-0.009
-341.362	122.613	0.162	0.199
-340.348	-130.630	-0.250	-0.033
-339.333	54.847	0.026	-0.025
-338.318	17.983	0.036	0.028
-337.304	800.000	-0.089	0.346
-336.289	721.891	-0.029	0.076
-335.275	-94.821	-0.534	0.142
-334.260	81.147	-0.142	-0.151
-333.245	432.011	-0.167	0.356
-332.231	-16.810	-0.039	-0.024
-331.216	119.736	0.129	0.158
-330.202	-111.952	0.293	-0.058
-329.187	-106.681	-0.100	0.022
-328.172	-31.900	0.385	0.212
-327.158	-41.110	-0.286	-0.145
-326.143	800.000	0.068	0.189
-325.129	-89.640	0.284	-0.082
-324.114	-123.829	-0.261	0.040
-323.099	-89.194	0.117	0.034
-322.085	-43.866	0.270	0.133
-321.070	582.273	-0.170	0.409
-320.056	-96.575	0.273	0.071
-319.041	-61.324	0.019	-0.008
-318.026	110.044	0.134	-0.158
-317.012	27.608	0.105	-0.087
-315.997	105.654	0.191	0.222
-314.983	800.000	0.076	-0.222
-313.968	800.000	0.108	0.402
-312.953	-58.647	0.308	0.131
-311.939	-107.922	-0.289	0.062
-310.924	653.483	0.064	-0.161
-309.910	-80.290	-0.123	0.040
-308.895	145.075	-0.028	0.037
-307.880	800.000	0.053	-0.207
-306.866	800.000	-0.076	0.250
-305.851	305.524	-0.043	-0.078
-304.837	-136.178	0.222	0.026
-303.822	-85.963	0.334	0.102
-302.807	157.344	0.202	-0.275
-301.793	176.460	-0.155	-0.222
-300.778	-22.015	-0.312	-0.186
-299.764	-184.627	-0.125	-0.002
-298.749	-117.964	-0.117	-0.021
-297.735	800.000	0.061	0.249
-296.720	-200.000	-0.009	0.053
-295.705	65.093	0.235	0.233
-294.691	-200.000	0.000	-0.036
-293.676	-132.376	-0.113	0.014
-292.662	-163.486	-0.357	0.017
-291.647	16.003	-0.383	-0.296
-290.632	47.426	0.244	0.223
-289.618	-112.836	-0.319	-0.062
-288.603	-91.482	0.055	0.015
-287.589	378.367	-0.099	0.199
-286.574	49.799	0.095	-0.088
-285.559	7.258	0.100	0.073
-284.545	102.405	-0.077	-0.089
-283.530	250.433	0.306	0.509
-282.516	539.949	-0.153	0.356
-281.501	-154.917	0.385	0.025
-280.486	153.629	-0.193	-0.259
-279.472	800.000	0.069	-0.267
-278.457	67.168	0.096	-0.096
-277.443	-40.381	0.166	-0.085
-276.428	-62.760	-0.234	0.095
-275.413	-200.000	-0.007	0.106
-274.399	-32.964	0.264	0.144
-273.384	108.317	-0.152	-0.177
-272.370	800.000	-0.047	-0.183
-271.355	800.000	0.080	-0.242
-270.340	722.134	0.086	-0.225
-269.326	77.581	0.179	0.187
-268.311	-200.000	0.024	-0.183
-267.297	-164.131	-0.233	-0.011
-266.282	800.000	0.064	0.189
-265.267	-96.066	-0.278	-0.072
-264.253	141.055	0.193	0.250
-263.238	-36.435	0.167	-0.088
-262.224	-173.598	0.157	0.005
-261.209	-200.000	0.036	0.362
-260.195	-200.000	0.008	0.186
-259.180	-70.070	0.175	-0.065
-258.165	30.380	-0.091	0.076
-257.151	146.758	-0.245	0.322
-256.136	-33.710	-0.349	0.189
-255.122	-200.000	0.018	-0.201
-254.107	773.258	-0.149	-0.399
-253.092	733.589	0.131	-0.344
-252.078	-200.000	0.016	0.267
-251.063	69.190	-0.123	0.124
-250.049	102.345	-0.080	0.091
-249.034	-51.937	0.433	0.197
-248.019	-77.024	-0.076	0.026
-247.005	-1.563	0.354	-0.245
-245.990	466.170	0.028	0.061
-244.976	123.629	-0.063	-0.077
-243.961	506.018	-0.209	0.475
-242.946	303.603	-0.111	-0.202
-241.932	107.455	-0.095	0.111
-240.917	-168.324	0.084	-0.003
-239.903	335.877	-0.129	0.246
-238.888	-109.146	-0.428	0.089
-237.873	-75.276	-0.133	-0.046
-236.859	-93.485	0.076	0.021
-235.844	21.916	-0.142	0.113
-234.830	-48.621	0.059	0.028
-233.815	800.000	0.085	-0.252
-232.800	-14.583	0.265	-0.167
-231.786	487.215	0.115	-0.257
-230.771	-74.262	-0.273	0.097
-229.757	227.174	0.165	-0.263
-228.742	107.439	-0.043	-0.050
-227.727	-200.000	0.047	0.209
-226.713	-200.000	0.018	-0.318
-225.698	-8.927	0.259	-0.170
-224.684	142.385	0.221	-0.287
-223.669	-14.450	-0.046	0.029
-222.655	369.825	0.042	-0.082
-221.640	-91.536	0.445	0.124
-220.625	203.695	0.074	-0.112
-219.611	31.046	-0.164	-0.138
-218.596	-200.000	-0.024	0.363
-217.582	565.279	0.080	-0.191
-216.567	-175.745	-0.357	-0.009
-215.552	-200.000	0.008	-0.098
-214.538	139.974	0.211	0.272
-213.523	56.947	0.114	0.109
-212.509	104.293	0.240	0.276
-211.494	-39.108	0.084	0.043
-210.479	-200.000	-0.000	-0.193
-209.465	284.513	0.104	0.183
-208.450	-4.346	0.295	-0.200
-207.436	20.850	-0.040	0.032
-206.421	-3.593	0.186	-0.127
-205.406	2.553	0.245	0.174
-204.392	-116.632	0.021	-0.004
-203.377	-146.921	-0.268	-0.023
-202.363	800.000	-0.023	0.084
-201.348	312.270	0.014	0.026
-200.333	-162.648	0.129	0.006
-199.319	-131.834	0.325	0.042
-198.304	-91.704	0.082	0.023
-197.290	-97.159	-0.320	0.082
-196.275	800.000	0.092	-0.383
-195.260	-56.761	0.231	0.100
-194.246	-200.000	-0.005	-0.168
-193.231	-200.000	0.024	0.242
-192.217	-86.103	0.126	0.038
-191.202	79.035	-0.123	0.129
-190.187	-34.976	0.087	-0.046
-189.173	-45.115	-0.127	0.062
-188.158	20.150	-0.249	0.196
-187.144	-113.720	-0.206	0.039
-186.129	-115.032	-0.229	-0.043
-185.114	226.419	0.146	0.232
-184.100	-106.782	0.030	-0.006
-183.085	80.597	-0.302	0.318
-182.071	-200.000	-0.024	0.369
-181.056	116.610	-0.360	0.431
-180.042	238.833	-0.194	-0.314
-179.027	-37.419	0.094	0.049
-178.012	-175.677	-0.139	0.004
-176.998	67.356	0.189	-0.188
-175.983	-22.124	0.078	0.046
-174.969	50.674	-0.164	-0.152
-173.954	165.700	0.133	0.184
-172.939	-124.387	0.199	-0.030
-171.925	-200.000	-0.022	-0.153
-170.910	-200.000	0.006	-0.053
-169.896	-64.062	-0.198	-0.079
-168.881	65.611	0.327	-0.323
-167.866	12.154	0.028	-0.021
-166.852	-66.168	-0.227	0.089
-165.837	74.755	0.085	0.088
-164.823	34.117	-0.189	0.161
-163.808	-122.040	-0.272	0.044
-162.793	-168.651	0.236	0.009
-161.779	-67.626	0.253	-0.097
-160.764	800.000	0.031	-0.126
-159.750	-200.000	-0.081	-0.370
-158.735	800.000	-0.080	0.237
-157.720	112.711	-0.280	0.331
-156.706	-19.944	0.164	-0.099
-155.691	289.419	-0.103	0.183
-154.677	-200.000	0.099	-0.000
-153.662	-88.827	0.177	0.051
-152.647	-78.099	-0.269	0.090
-151.633	-136.180	0.234	-0.027
-150.618	-200.000	-0.004	0.241
-149.604	294.406	-0.053	0.094
-148.589	168.283	0.126	-0.175
-147.574	-65.191	-0.219	0.086
-146.560	5.392	-0.267	0.192
-145.545	257.612	0.098	0.164
-144.531	473.003	0.016	0.035
-143.516	391.114	-0.035	0.070
-142.502	800.000	-0.045	-0.133
-141.487	-169.678	-0.052	-0.002
-140.472	97.041	0.301	-0.336
-139.458	-3.179	0.228	-0.155
-138.443	-200.000	-0.060	-0.277
-137.429	-117.954	-0.229	-0.040
-136.414	28.808	0.044	0.036
-135.399	800.000	-0.093	0.309
-134.385	-116.684	0.264	-0.047
-133.370	-40.591	-0.137	0.069
-132.356	308.412	-0.042	-0.076
-131.341	-82.882	0.144	-0.045
-130.326	-18.282	-0.143	0.087
-129.312	148.386	-0.078	0.103
-128.297	144.680	0.177	-0.231
-127.283	104.597	0.141	0.162
-126.268	67.124	0.316	-0.314
-125.253	142.045	-0.069	-0.090
-124.239	-55.524	-0.047	-0.021
-123.224	-59.943	0.220	0.092
-122.210	14.175	-0.097	0.074
-121.195	-200.000	-0.005	0.334
-120.180	800.000	0.079	-0.283
