DTS Sentinel unit serial number:	SN413079Multiplexer serial number:	ORYXHardware model number:	OX4-SRSoftware version number:	ORYX F/W v4.00 Oryx Data Collector v3.7.2.0data status	okinstallation	princeton_trtdifferential loss correction	single-endedforward channel	channel 2reverse channel	N/Adate	2019/09/15time	18:35:35forward acquisition time	60.00reverse acquisition time	0.00gamma	496.2192k internal	0.2287k external	0.2287temperature offset calibration	0.9919default loss term (dB/km)	0.3790temperature slope calibration	1.0000multiplexer offset coefficient	1.0000multiplexer slope coefficient	1.0000fibre end	0.00T internal ref (°C)	43.87T ext. ref 1 (°C)	6.80T ext. ref 2 (°C)	37.44length (m)	temperature (°C)	Stokes	anti-Stokes-747.200	-200.000	0.028	-0.161
-746.185	-54.633	-0.106	0.049
-745.171	-119.099	-0.129	-0.023
-744.156	-200.000	-0.003	0.143
-743.142	-54.707	-0.150	-0.070
-742.127	800.000	-0.110	0.340
-741.112	110.593	0.131	-0.162
-740.098	-117.701	0.340	-0.063
-739.083	-200.000	-0.049	0.000
-738.069	800.000	0.089	0.333
-737.054	800.000	0.026	-0.112
-736.039	-142.067	-0.289	-0.029
-735.025	-130.702	-0.105	-0.014
-734.010	-200.000	-0.010	-0.463
-732.996	-200.000	0.012	-0.355
-731.981	298.319	0.042	0.080
-730.966	186.412	0.115	0.176
-729.952	166.219	-0.118	0.172
-728.937	800.000	0.069	-0.201
-727.923	5.892	-0.427	-0.324
-726.908	-14.065	-0.277	-0.183
-725.894	-125.037	0.322	-0.051
-724.879	-114.728	-0.153	0.030
-723.864	800.000	-0.061	0.229
-722.850	-175.028	0.018	-0.001
-721.835	48.691	0.166	-0.159
-720.821	-63.355	0.271	-0.114
-719.806	-44.966	-0.020	0.010
-718.791	28.437	0.047	-0.040
-717.777	292.687	-0.173	-0.323
-716.762	-42.700	-0.189	-0.098
-715.748	136.354	-0.301	0.403
-714.733	-34.420	-0.093	0.052
-713.718	673.187	0.052	-0.138
-712.704	-92.193	-0.079	-0.023
-711.689	-134.609	-0.478	0.060
-710.675	800.000	0.073	-0.254
-709.660	695.585	-0.072	-0.195
-708.645	-200.000	0.029	-0.301
-707.631	-107.117	-0.256	-0.058
-706.616	800.000	-0.124	-0.417
-705.602	-147.189	-0.278	-0.024
-704.587	-103.712	-0.476	0.114
-703.572	92.533	-0.191	-0.220
-702.558	573.606	0.044	-0.110
-701.543	-73.830	0.255	0.095
-700.529	-50.245	-0.136	-0.066
-699.514	360.879	-0.096	0.197
-698.499	-31.872	0.292	-0.167
-697.485	-200.000	0.033	-0.433
-696.470	-74.909	-0.080	-0.029
-695.456	545.571	-0.115	0.280
-694.441	-35.917	0.127	-0.070
-693.426	-200.000	-0.004	-0.252
-692.412	28.840	0.169	-0.147
-691.397	-124.911	-0.222	-0.035
-690.383	-200.000	0.024	-0.133
-689.368	-49.499	0.269	0.131
-688.354	-177.328	-0.202	-0.005
-687.339	142.482	0.149	0.203
-686.324	82.559	0.246	-0.274
-685.310	800.000	0.082	-0.302
-684.295	-53.090	0.354	-0.167
-683.281	136.148	0.106	-0.141
-682.266	-79.620	-0.377	0.130
-681.251	151.205	0.235	0.328
-680.237	800.000	0.097	-0.371
-679.222	-23.436	-0.297	-0.183
-678.208	-67.705	0.232	-0.093
-677.193	-15.581	0.257	0.168
-676.178	254.962	0.200	0.351
-675.164	-55.148	-0.135	0.062
-674.149	800.000	0.097	-0.371
-673.135	-33.209	-0.045	-0.025
-672.120	12.569	-0.329	-0.260
-671.105	-200.000	0.076	0.367
-670.091	45.578	-0.086	-0.082
-669.076	-100.260	0.160	0.041
-668.062	524.848	0.104	0.249
-667.047	-12.874	-0.054	0.036
-666.032	-4.496	0.235	0.166
-665.018	2.567	-0.220	-0.163
-664.003	-200.000	-0.209	0.001
-662.989	140.641	-0.083	0.112
-661.974	-62.302	-0.690	0.294
-660.959	-99.060	-0.194	0.050
-659.945	138.388	-0.054	-0.073
-658.930	-200.000	0.008	0.131
-657.916	-200.000	-0.014	0.140
-656.901	800.000	-0.022	-0.080
-655.886	-87.327	0.190	-0.059
-654.872	14.744	-0.077	0.061
-653.857	188.761	0.051	0.078
-652.843	-68.616	-0.195	-0.077
-651.828	-109.372	0.202	-0.044
-650.814	-104.831	-0.313	-0.074
-649.799	800.000	-0.109	-0.404
-648.784	132.857	-0.096	-0.127
-647.770	-197.770	0.299	-0.002
-646.755	-200.000	0.006	-0.039
-645.741	-58.272	0.315	0.140
-644.726	-139.147	0.386	0.043
-643.711	40.411	-0.130	-0.120
-642.697	-2.178	-0.262	0.188
-641.682	-200.000	0.005	-0.096
-640.668	-84.688	-0.261	-0.084
-639.653	246.644	0.106	-0.183
-638.638	-200.000	0.003	-0.222
-637.624	-6.286	-0.248	0.173
-636.609	-61.230	-0.045	-0.019
-635.595	577.935	0.018	-0.046
-634.580	-31.945	0.359	0.205
-633.565	4.015	-0.160	-0.120
-632.551	-85.015	0.352	0.113
-631.536	-87.794	-0.422	-0.130
-630.522	-139.096	-0.197	-0.022
-629.507	-84.618	-0.165	-0.053
-628.492	69.511	-0.237	0.249
-627.478	-109.548	-0.260	0.056
-626.463	800.000	0.043	-0.130
-625.449	-56.773	0.148	-0.067
-624.434	-45.493	0.260	0.131
-623.419	-200.000	0.017	0.077
-622.405	-200.000	-0.038	-0.335
-621.390	-56.231	-0.153	-0.070
-620.376	-46.560	0.086	0.043
-619.361	32.014	0.068	0.060
-618.346	123.933	0.329	-0.422
-617.332	-31.051	0.204	-0.118
-616.317	-128.225	0.345	0.050
-615.303	42.580	0.215	0.200
-614.288	-105.836	-0.186	0.043
-613.273	-138.524	-0.235	-0.026
-612.259	343.679	-0.120	0.239
-611.244	135.775	0.059	0.078
-610.230	-200.000	0.024	0.118
-609.215	126.118	0.033	-0.042
-608.201	460.136	-0.119	-0.272
-607.186	-200.000	-0.076	-0.409
-606.171	96.067	-0.021	0.024
-605.157	-149.074	-0.301	-0.025
-604.142	-21.507	0.361	0.225
-603.128	-47.961	-0.133	0.066
-602.113	257.289	0.041	0.072
-601.098	88.956	0.157	-0.178
-600.084	800.000	0.061	-0.240
-599.069	-200.000	-0.011	-0.218
-598.055	61.915	-0.355	0.361
-597.040	224.833	-0.230	0.380
-596.025	-36.106	-0.269	0.148
-595.011	-149.794	-0.034	0.003
-593.996	256.428	0.051	-0.089
-592.982	226.909	0.122	0.202
-591.967	-73.692	-0.041	-0.015
-590.952	-200.000	-0.028	-0.255
-589.938	-152.113	-0.137	-0.010
-588.923	325.918	-0.275	-0.536
-587.909	92.928	-0.021	0.024
-586.894	800.000	-0.079	0.264
-585.879	560.653	-0.094	-0.231
-584.865	431.097	0.127	-0.281
-583.850	21.237	0.135	-0.112
-582.836	293.499	0.079	0.148
-581.821	-143.587	-0.088	0.009
-580.806	524.779	-0.033	0.080
-579.792	-109.537	-0.375	0.081
-578.777	-140.294	-0.304	0.032
-577.763	6.318	0.162	-0.122
-576.748	-34.322	0.176	-0.098
-575.733	800.000	0.098	-0.335
-574.719	95.740	-0.248	-0.289
-573.704	-100.175	-0.229	0.058
-572.690	36.896	-0.180	0.162
-571.675	-147.651	-0.178	-0.015
-570.661	800.000	-0.085	-0.269
-569.646	-37.677	-0.082	-0.044
-568.631	56.865	-0.081	-0.081
-567.617	48.481	0.304	-0.290
-566.602	800.000	-0.074	0.216
-565.588	144.821	0.103	0.140
-564.573	77.646	-0.157	-0.171
-563.558	-32.429	0.076	-0.043
-562.544	232.452	-0.127	-0.212
-561.529	-200.000	0.019	0.106
-560.515	-200.000	-0.289	0.000
-559.500	-200.000	-0.001	0.174
-558.485	-112.014	0.267	-0.055
-557.471	545.223	0.050	-0.122
-556.456	92.862	-0.139	0.160
-555.442	-38.129	0.136	0.074
-554.427	63.512	-0.203	-0.207
-553.412	-200.000	0.006	0.086
-552.398	61.448	-0.047	0.048
-551.383	-78.707	-0.261	-0.091
-550.369	70.484	0.110	0.116
-549.354	-61.792	0.117	-0.050
-548.339	102.120	0.113	0.135
-547.325	391.817	-0.144	0.304
-546.310	18.367	0.071	-0.058
-545.296	-161.658	-0.030	0.002
-544.281	-28.583	-0.116	-0.068
-543.266	99.397	0.243	-0.286
-542.252	255.800	0.084	-0.147
-541.237	800.000	0.098	-0.320
-540.223	-200.000	0.013	-0.280
-539.208	12.875	-0.092	0.072
-538.193	-95.226	-0.228	-0.062
-537.179	222.368	-0.060	0.098
-536.164	-182.286	0.239	-0.005
-535.150	-8.245	-0.102	-0.070
-534.135	58.479	0.093	0.093
-533.121	69.622	-0.281	0.295
-532.106	297.105	-0.023	-0.043
-531.091	48.589	0.145	-0.138
-530.077	-200.000	-0.027	0.146
-529.062	168.043	0.281	0.406
-528.048	-93.270	0.154	0.043
-527.033	-55.336	-0.151	-0.069
-526.018	14.247	0.039	-0.031
-525.004	-126.312	-0.118	0.018
-523.989	-144.501	-0.028	-0.003
-522.975	-26.845	0.242	0.144
-521.960	-5.950	-0.140	-0.097
-520.945	-121.825	-0.140	-0.024
-519.931	800.000	-0.119	0.368
-518.916	-72.154	0.152	0.057
-517.902	59.678	0.137	-0.137
-516.887	-200.000	-0.124	0.695
-515.872	-69.394	0.055	0.021
-514.858	78.032	0.120	0.130
-513.843	-200.000	-0.003	-0.243
-512.829	227.218	-0.123	-0.203
-511.814	-200.000	-0.004	0.158
-510.799	-200.000	0.091	-0.468
-509.785	232.030	0.157	-0.262
-508.770	-68.459	0.212	0.083
-507.756	-107.861	0.064	-0.014
-506.741	-124.131	-0.367	-0.059
-505.726	-200.000	0.075	0.432
-504.712	117.952	0.111	0.140
-503.697	-200.000	0.034	0.213
-502.683	488.257	-0.060	-0.138
-501.668	-200.000	0.037	0.315
-500.653	-200.000	-0.001	0.170
-499.639	-114.978	-0.211	0.041
-498.624	439.827	-0.106	0.236
-497.610	-138.175	-0.235	-0.026
-496.595	-200.000	0.013	0.111
-495.581	-147.097	0.380	0.033
-494.566	34.588	-0.134	0.119
-493.551	-7.385	-0.110	0.076
-492.537	-86.810	0.105	0.033
-491.522	-200.000	0.000	0.237
-490.508	-170.105	0.265	0.010
-489.493	-22.166	0.177	0.109
-488.478	60.615	-0.151	0.152
-487.464	-93.148	-0.159	0.045
-486.449	-16.024	-0.313	0.202
-485.435	60.332	0.301	-0.303
-484.420	-200.000	0.021	-0.153
-483.405	354.404	-0.226	-0.455
-482.391	767.682	-0.059	-0.163
-481.376	-200.000	-0.148	-0.000
-480.362	-200.000	0.024	-0.194
-479.347	-13.461	0.332	0.218
-478.332	-77.260	-0.081	-0.029
-477.318	416.841	-0.083	-0.180
-476.303	800.000	0.088	-0.247
-475.289	800.000	-0.046	-0.183
-474.274	106.804	0.160	-0.192
-473.259	-26.330	0.143	0.085
-472.245	702.545	-0.049	-0.130
-471.230	-83.735	0.062	0.020
-470.216	800.000	0.055	0.183
-469.201	-125.125	0.181	0.028
-468.186	112.526	-0.255	0.313
-467.172	18.794	0.047	0.038
-466.157	-200.000	0.029	-0.259
-465.143	-29.474	-0.546	0.317
-464.128	236.614	0.152	0.255
-463.113	-1.782	0.249	0.178
-462.099	-200.000	0.047	-0.286
-461.084	125.218	0.144	0.184
-460.070	96.541	0.211	-0.245
-459.055	290.171	0.097	0.179
-458.040	800.000	0.045	0.184
-457.026	-71.604	0.200	0.076
-456.011	591.841	-0.119	-0.297
-454.997	126.578	0.192	0.246
-453.982	-171.685	-0.296	-0.010
-452.968	-36.641	-0.112	0.061
-451.953	-7.076	-0.147	-0.101
-450.938	115.720	0.133	0.165
-449.924	-119.579	0.401	-0.070
-448.909	-53.131	0.114	0.053
-447.895	131.899	0.085	-0.111
-446.880	101.600	-0.143	0.170
-445.865	-200.000	0.024	-0.138
-444.851	68.089	-0.208	0.216
-443.836	-200.000	-0.023	0.225
-442.822	-200.000	-0.036	0.514
-441.807	800.000	0.037	-0.145
-440.792	-200.000	-0.021	-0.354
-439.778	203.855	-0.211	-0.331
-438.763	97.887	0.064	-0.075
-437.749	800.000	-0.047	-0.152
-436.734	-35.892	-0.265	-0.145
-435.719	162.808	0.049	-0.070
-434.705	-17.433	0.132	-0.084
-433.690	-0.252	-0.150	0.108
-432.676	-48.302	-0.240	-0.117
-431.661	-15.808	0.192	-0.124
-430.646	-200.000	0.047	-0.416
-429.632	173.687	-0.070	0.102
-428.617	-65.834	-0.150	-0.061
-427.603	127.326	-0.059	0.076
-426.588	558.713	-0.043	0.105
-425.573	210.666	-0.143	-0.228
-424.559	109.188	-0.216	-0.262
-423.544	172.427	0.187	-0.273
-422.530	-124.059	0.393	0.063
-421.515	-200.000	-0.019	0.233
-420.500	-51.998	-0.189	0.089
-419.486	23.755	-0.210	-0.175
-418.471	-10.616	0.048	0.032
-417.457	-138.573	-0.194	-0.022
-416.442	-200.000	-0.045	0.276
-415.428	-101.367	0.106	-0.026
-414.413	-200.000	-0.043	-0.251
-413.398	-159.561	0.426	0.024
-412.384	-200.000	-0.002	0.075
-411.369	-161.161	0.161	0.009
-410.355	-73.254	0.293	0.109
-409.340	29.915	0.237	0.204
-408.325	800.000	0.094	-0.293
-407.311	102.896	0.104	-0.123
-406.296	-171.903	0.232	0.008
-405.282	-200.000	0.002	-0.057
-404.267	536.764	-0.055	0.133
-403.252	125.376	0.076	-0.097
-402.238	-200.000	0.022	-0.152
-401.223	7.926	0.059	-0.045
-400.209	-200.000	0.037	0.173
-399.194	141.151	0.047	0.062
-398.179	-200.000	-0.001	-0.136
-397.165	170.883	-0.062	0.090
-396.150	-36.830	-0.144	0.078
-395.136	-133.524	-0.112	0.014
-394.121	-32.279	-0.206	0.116
-393.106	-117.383	-0.102	0.019
-392.092	-2.176	-0.305	-0.217
-391.077	-22.432	-0.223	0.137
-390.063	-44.993	0.408	-0.205
-389.048	-200.000	-0.013	0.197
-388.033	61.605	-0.087	0.088
-387.019	200.949	0.133	-0.207
-386.004	-44.060	0.106	0.054
-384.990	473.071	-0.097	0.222
-383.975	279.481	0.110	0.198
-382.960	-200.000	0.019	-0.187
-381.946	73.903	-0.188	-0.199
-380.931	256.193	-0.017	-0.030
-379.917	261.995	-0.056	-0.099
-378.902	451.292	0.087	-0.195
-377.888	-59.898	-0.141	0.061
-376.873	67.622	0.178	-0.184
-375.858	409.542	-0.120	0.256
-374.844	578.928	-0.069	0.170
-373.829	-36.427	0.285	-0.155
-372.815	144.671	-0.086	-0.116
-371.800	-70.530	0.369	0.141
-370.785	775.892	0.119	0.328
-369.771	-200.000	-0.037	0.190
-368.756	-189.227	-0.612	0.007
-367.742	-178.517	-0.105	0.002
-366.727	127.478	0.120	-0.154
-365.712	89.840	0.138	-0.156
-364.698	-200.000	0.072	-0.334
-363.683	-43.577	-0.056	0.028
-362.669	512.978	0.044	0.105
-361.654	166.475	0.279	0.400
-360.639	-61.888	-0.185	0.078
-359.625	508.785	0.092	0.215
-358.610	800.000	0.039	0.130
-357.596	61.182	0.083	0.083
-356.581	-200.000	-0.060	0.303
-355.566	1.212	0.265	-0.192
-354.552	-200.000	-0.049	-0.245
-353.537	60.957	-0.171	-0.171
-352.523	-34.999	0.078	0.043
-351.508	800.000	0.129	0.416
-350.493	43.595	-0.173	-0.160
-349.479	24.436	0.169	0.142
-348.464	-60.239	-0.339	0.146
-347.450	-92.084	-0.217	-0.062
-346.435	-102.652	-0.135	-0.032
-345.420	181.627	-0.112	0.166
-344.406	43.288	-0.215	-0.198
-343.391	-136.548	-0.288	-0.034
-342.377	-85.211	-0.289	-0.091
-341.362	733.943	-0.030	-0.080
-340.348	6.474	-0.212	-0.159
-339.333	-94.228	-0.188	0.052
-338.318	297.522	-0.063	-0.116
-337.304	12.235	-0.285	-0.221
-336.289	242.470	-0.090	0.152
-335.275	-200.000	-0.002	0.027
-334.260	800.000	0.147	-0.484
-333.245	-174.769	0.289	0.008
-332.231	-148.405	0.048	-0.004
-331.216	-19.644	-0.082	0.051
-330.202	-89.793	0.103	0.030
-329.187	-6.586	-0.153	0.105
-328.172	-31.454	0.412	0.234
-327.158	800.000	-0.125	-0.515
-326.143	-10.196	0.187	-0.125
-325.129	-104.485	0.188	-0.044
-324.114	174.663	-0.176	-0.257
-323.099	-200.000	-0.005	-0.144
-322.085	-1.835	-0.289	-0.205
-321.070	800.000	-0.014	0.047
-320.056	486.917	0.124	0.286
-319.041	-200.000	-0.007	0.068
-318.026	-9.949	0.191	-0.128
-317.012	-200.000	-0.005	-0.060
-315.997	-12.903	0.174	0.114
-314.983	800.000	-0.012	-0.042
-313.968	-127.571	-0.261	0.038
-312.953	535.058	0.116	0.278
-311.939	198.312	-0.268	0.414
-310.924	55.471	0.420	0.410
-309.910	-200.000	0.035	0.328
-308.895	17.219	0.254	-0.203
-307.880	-31.538	-0.095	-0.054
-306.866	20.382	-0.296	0.241
-305.851	-3.331	-0.091	-0.064
-304.837	800.000	-0.089	0.322
-303.822	-114.354	0.249	0.048
-302.807	196.309	0.154	-0.237
-301.793	69.322	-0.128	0.133
-300.778	-3.036	0.050	-0.035
-299.764	-22.565	-0.182	0.111
-298.749	800.000	0.047	0.164
-297.735	-200.000	0.028	0.397
-296.720	1.528	0.206	-0.149
-295.705	215.497	0.215	-0.343
-294.691	654.881	0.045	-0.115
-293.676	-200.000	-0.052	-0.415
-292.662	428.095	0.017	-0.038
-291.647	-126.054	-0.185	-0.028
-290.632	27.697	-0.037	-0.032
-289.618	248.016	0.028	0.048
-288.603	-129.875	-0.230	-0.032
-287.589	142.602	0.157	-0.210
-286.574	800.000	-0.066	-0.243
-285.559	-200.000	0.011	-0.087
-284.545	356.929	-0.177	-0.355
-283.530	-92.909	-0.084	0.024
-282.516	-9.191	0.082	0.055
-281.501	-116.530	-0.235	0.044
-280.486	-101.065	0.113	0.028
-279.472	800.000	-0.050	-0.214
-278.457	-37.022	-0.227	-0.122
-277.443	255.338	0.117	0.202
-276.428	-123.789	-0.300	0.048
-275.413	336.988	-0.095	0.186
-274.399	800.000	0.034	-0.133
-273.384	-58.727	-0.141	0.061
-272.370	-200.000	-0.035	-0.261
-271.355	407.015	0.052	0.110
-270.340	-200.000	0.004	-0.330
-269.326	72.790	-0.236	-0.248
-268.311	-61.897	0.321	0.135
-267.297	-50.104	-0.202	-0.096
-266.282	-104.924	0.235	0.054
-265.267	-200.000	0.038	0.310
-264.253	-200.000	-0.010	0.135
-263.238	527.241	-0.100	0.236
-262.224	50.994	0.084	0.081
-261.209	800.000	-0.037	0.151
-260.195	800.000	0.049	-0.164
-259.180	-200.000	-0.055	-0.566
-258.165	-200.000	-0.040	0.340
-257.151	-43.862	0.180	0.091
-256.136	268.109	0.028	0.049
-255.122	388.152	0.058	0.121
-254.107	800.000	0.028	-0.117
-253.092	158.220	-0.128	-0.179
-252.078	318.589	0.012	-0.022
-251.063	21.654	0.240	0.197
-250.049	12.978	0.029	-0.023
-249.034	-139.945	0.340	0.036
-248.019	-200.000	0.048	-0.242
-247.005	100.330	0.038	0.044
-245.990	-35.383	0.336	-0.184
-244.976	-102.163	0.240	0.058
-243.961	462.835	-0.059	-0.132
-242.946	800.000	0.067	0.234
-241.932	328.584	-0.047	-0.092
-240.917	-66.969	0.369	-0.146
-239.903	-140.348	0.189	-0.020
-238.888	370.073	0.049	0.099
-237.873	-109.815	-0.299	0.063
-236.859	-46.036	0.293	-0.145
-235.844	-132.653	-0.444	-0.057
-234.830	-200.000	0.089	-0.508
-233.815	301.034	-0.083	0.155
-232.800	-47.834	0.185	0.090
-231.786	-200.000	-0.006	-0.168
-230.771	200.115	-0.184	-0.284
-229.757	-200.000	0.014	-0.352
-228.742	800.000	-0.096	0.363
-227.727	13.323	0.204	-0.159
-226.713	800.000	-0.068	0.198
-225.698	264.429	-0.022	-0.039
-224.684	173.834	0.116	-0.168
-223.669	-125.805	0.225	0.034
-222.655	800.000	-0.085	0.312
-221.640	-181.830	-0.251	0.005
-220.625	77.841	-0.172	-0.184
-219.611	-35.020	-0.407	0.223
-218.596	-70.814	0.096	0.037
-217.582	168.006	0.160	0.229
-216.567	364.573	-0.062	0.126
-215.552	128.203	-0.067	-0.086
-214.538	800.000	-0.056	-0.196
-213.523	800.000	-0.034	0.143
-212.509	-40.564	-0.264	-0.138
-211.494	343.393	0.186	0.367
-210.479	1.183	0.151	-0.109
-209.465	-200.000	-0.006	-0.192
-208.450	-185.788	0.320	0.005
-207.436	2.003	0.106	0.077
-206.421	-86.997	-0.205	0.063
-205.406	493.473	-0.039	0.090
-204.392	-200.000	-0.005	-0.353
-203.377	62.890	0.171	-0.172
-202.363	-35.522	-0.144	-0.079
-201.348	-200.000	-0.009	0.217
-200.333	-108.622	-0.485	0.105
-199.319	-100.365	0.290	-0.072
-198.304	50.198	-0.022	0.021
-197.290	627.503	-0.052	0.132
-196.275	18.774	0.196	0.157
-195.260	800.000	0.024	-0.070
-194.246	-200.000	0.008	0.084
-193.231	187.288	0.126	0.188
-192.217	35.933	-0.217	-0.192
-191.202	-200.000	-0.006	0.064
-190.187	131.753	-0.186	0.240
-189.173	72.934	-0.226	0.237
-188.158	2.941	0.263	0.191
-187.144	-109.803	-0.090	-0.019
-186.129	800.000	0.058	0.187
-185.114	47.870	0.223	-0.209
-184.100	-121.344	0.127	-0.021
-183.085	-113.273	0.204	-0.040
-182.071	-63.478	0.112	-0.046
-181.056	800.000	-0.073	0.307
-180.042	536.515	0.187	0.445
-179.027	70.361	-0.048	0.050
-178.012	-72.127	-0.266	-0.099
-176.998	800.000	-0.021	-0.067
-175.983	-106.537	0.428	-0.096
-174.969	800.000	0.020	-0.060
-173.954	-32.403	-0.164	0.092
-172.939	-200.000	-0.017	-0.151
-171.925	247.460	0.092	0.156
-170.910	50.830	0.143	-0.136
-169.896	-154.738	0.160	-0.011
-168.881	27.502	-0.363	-0.306
-167.866	-125.607	-0.161	0.025
-166.852	52.308	0.243	-0.233
-165.837	125.769	0.074	0.094
-164.823	800.000	0.077	0.255
-163.808	-73.064	0.476	0.175
-162.793	-200.000	0.002	0.715
-161.779	-79.491	-0.132	-0.045
-160.764	800.000	0.063	0.207
-159.750	-67.075	-0.286	-0.113
-158.735	-130.623	0.176	-0.024
-157.720	183.435	0.152	0.225
-156.706	24.103	0.064	0.053
-155.691	380.853	0.089	0.184
-154.677	94.282	-0.240	0.274
-153.662	-85.868	0.231	0.072
-152.647	-17.794	0.251	-0.158
-151.633	35.640	0.192	0.169
-150.618	604.693	0.158	-0.395
-149.604	-200.000	0.073	-0.444
-148.589	-133.659	-0.302	0.038
-147.574	-135.225	-0.173	-0.021
-146.560	147.649	-0.102	0.138
-145.545	800.000	-0.077	0.258
-144.531	-37.065	0.133	0.071
-143.516	-31.581	-0.167	-0.094
-142.502	52.180	-0.269	-0.257
-141.487	-44.841	0.144	-0.072
-140.472	171.882	-0.056	0.081
-139.458	800.000	0.100	-0.284
-138.443	247.096	-0.104	-0.175
-137.429	-3.844	0.161	0.112
-136.414	86.764	-0.164	-0.181
-135.399	-18.606	0.304	-0.190
-134.385	133.530	-0.115	0.149
-133.370	39.741	-0.256	-0.230
-132.356	358.778	0.165	-0.330
-131.341	307.004	0.101	0.189
-130.326	-61.083	0.286	-0.121
-129.312	54.167	-0.100	-0.096
-128.297	144.551	-0.127	-0.170
-127.283	800.000	0.044	-0.173
-126.268	-53.941	0.143	0.065
-125.253	-107.002	0.134	-0.030
-124.239	185.979	-0.078	-0.116
-123.224	-21.888	-0.107	-0.065
-122.210	-148.790	-0.177	0.014
-121.195	-200.000	0.009	-0.155
