DTS Sentinel unit serial number:	SN413079Multiplexer serial number:	ORYXHardware model number:	OX4-SRSoftware version number:	ORYX F/W v4.00 Oryx Data Collector v3.7.2.0data status	okinstallation	princeton_trtdifferential loss correction	single-endedforward channel	channel 2reverse channel	N/Adate	2019/09/16time	18:23:35forward acquisition time	60.00reverse acquisition time	0.00gamma	496.2192k internal	0.2320k external	0.2320temperature offset calibration	0.9947default loss term (dB/km)	0.3790temperature slope calibration	1.0000multiplexer offset coefficient	1.0000multiplexer slope coefficient	1.0000fibre end	0.00T internal ref (°C)	36.86T ext. ref 1 (°C)	15.79T ext. ref 2 (°C)	30.36length (m)	temperature (°C)	Stokes	anti-Stokes-747.200	-138.302	0.048	-0.005
-746.185	239.066	-0.093	0.156
-745.171	-200.000	0.004	0.238
-744.156	-88.525	-0.169	0.051
-743.142	152.315	0.052	0.071
-742.127	52.771	0.025	0.025
-741.112	648.837	0.044	-0.115
-740.098	800.000	-0.020	0.075
-739.083	-200.000	-0.029	0.229
-738.069	-200.000	-0.011	0.269
-737.054	-90.704	0.142	-0.041
-736.039	89.232	0.153	0.173
-735.025	-171.945	0.152	0.005
-734.010	-98.807	-0.285	-0.073
-732.996	-200.000	0.023	-0.200
-731.981	-200.000	0.034	0.154
-730.966	-62.605	0.261	0.109
-729.952	800.000	-0.043	0.180
-728.937	-25.447	-0.179	-0.107
-727.923	-200.000	0.009	-0.073
-726.908	-105.383	-0.213	-0.049
-725.894	-43.455	-0.319	0.163
-724.879	-200.000	-0.045	0.405
-723.864	-66.623	-0.263	0.105
-722.850	-118.623	0.050	-0.009
-721.835	79.794	-0.224	0.243
-720.821	-200.000	0.028	0.135
-719.806	-200.000	-0.018	0.139
-718.791	568.237	-0.116	0.283
-717.777	510.220	-0.045	0.105
-716.762	-151.541	0.236	0.018
-715.748	-193.482	0.295	0.003
-714.733	-200.000	-0.037	-0.387
-713.718	101.058	-0.111	0.130
-712.704	800.000	-0.074	-0.241
-711.689	-85.726	-0.054	-0.017
-710.675	800.000	-0.040	0.136
-709.660	-31.197	-0.398	-0.227
-708.645	42.329	-0.072	0.066
-707.631	800.000	-0.099	-0.312
-706.616	120.126	0.238	-0.298
-705.602	-110.489	-0.249	0.052
-704.587	-177.089	-0.226	-0.006
-703.572	43.815	-0.127	0.117
-702.558	37.081	-0.183	0.163
-701.543	-70.422	0.296	0.113
-700.529	396.226	0.157	-0.332
-699.514	800.000	0.038	-0.143
-698.499	-113.691	-0.348	0.068
-697.485	-24.789	-0.243	0.145
-696.470	31.364	-0.057	0.049
-695.456	800.000	-0.064	0.257
-694.441	-1.842	0.069	-0.049
-693.426	-62.932	0.051	0.021
-692.412	-200.000	-0.011	-0.340
-691.397	-12.604	0.113	0.075
-690.383	-33.528	-0.116	0.065
-689.368	101.321	-0.162	0.190
-688.354	605.888	0.118	0.296
-687.339	-118.907	-0.151	0.027
-686.324	800.000	0.023	0.086
-685.310	-81.768	0.132	0.044
-684.295	800.000	0.083	-0.345
-683.281	313.067	0.175	-0.331
-682.266	72.004	-0.164	0.173
-681.251	-200.000	0.016	0.124
-680.237	17.071	0.130	-0.104
-679.222	-149.834	0.189	-0.015
-678.208	-81.518	0.097	-0.032
-677.193	800.000	-0.082	0.244
-676.178	-200.000	-0.003	-0.160
-675.164	-40.334	-0.218	0.115
-674.149	218.586	-0.267	-0.430
-673.135	48.814	0.306	-0.290
-672.120	223.334	-0.008	0.013
-671.105	176.807	0.168	-0.246
-670.091	-200.000	0.063	0.382
-669.076	189.591	-0.092	-0.139
-668.062	-200.000	0.008	-0.091
-667.047	-57.010	0.245	-0.109
-666.032	-64.975	0.231	0.094
-665.018	-174.626	0.205	-0.006
-664.003	350.416	0.066	-0.132
-662.989	156.217	-0.097	-0.135
-661.974	134.582	-0.087	-0.113
-660.959	-200.000	0.018	-0.107
-659.945	57.331	0.128	-0.126
-658.930	-121.453	-0.412	-0.069
-657.916	-118.257	0.220	0.039
-656.901	262.909	0.065	-0.114
-655.886	-46.345	-0.146	0.072
-654.872	-56.657	-0.202	0.090
-653.857	-200.000	0.003	-0.117
-652.843	-44.110	-0.286	-0.145
-651.828	251.903	0.112	0.192
-650.814	275.854	0.137	-0.245
-649.799	463.461	-0.054	-0.121
-648.784	18.977	-0.115	0.093
-647.770	315.736	-0.076	0.144
-646.755	-200.000	-0.020	-0.124
-645.741	-161.770	0.337	-0.017
-644.726	417.669	-0.087	0.188
-643.711	95.324	0.231	-0.265
-642.697	-200.000	-0.001	0.019
-641.682	-12.211	-0.023	0.015
-640.668	121.230	0.043	-0.054
-639.653	-200.000	-0.018	0.178
-638.638	800.000	-0.069	0.274
-637.624	-3.739	0.031	-0.022
-636.609	250.349	-0.329	-0.563
-635.595	-106.831	0.289	-0.065
-634.580	13.178	-0.191	-0.149
-633.565	29.607	0.187	-0.160
-632.551	-66.133	0.119	0.048
-631.536	-129.177	0.241	-0.034
-630.522	-98.365	-0.123	0.032
-629.507	499.677	-0.152	0.353
-628.492	-27.524	0.242	0.141
-627.478	108.358	-0.046	0.056
-626.463	-153.375	0.200	0.014
-625.449	-52.343	-0.272	0.127
-624.434	-87.890	-0.277	0.084
-623.419	-102.614	-0.516	0.124
-622.405	118.883	-0.093	-0.115
-621.390	-200.000	0.006	-0.087
-620.376	-9.959	0.138	-0.092
-619.361	800.000	-0.107	0.455
-618.346	-200.000	0.001	-0.332
-617.332	-155.710	0.277	-0.018
-616.317	-30.108	-0.078	-0.044
-615.303	-61.730	-0.118	-0.050
-614.288	800.000	0.041	-0.152
-613.273	800.000	-0.095	-0.377
-612.259	330.419	-0.114	-0.221
-611.244	36.484	-0.218	-0.194
-610.230	-14.214	-0.141	-0.092
-609.215	-56.295	-0.337	0.151
-608.201	54.329	0.107	0.104
-607.186	586.207	-0.128	0.317
-606.171	-77.394	0.279	-0.097
-605.157	-67.505	-0.122	0.048
-604.142	180.518	0.082	0.120
-603.128	-95.506	-0.064	0.017
-602.113	80.073	0.264	-0.286
-601.098	-166.063	0.335	0.014
-600.084	800.000	-0.052	-0.181
-599.069	-200.000	-0.020	-0.301
-598.055	-200.000	0.079	-0.369
-597.040	-104.750	-0.132	-0.031
-596.025	172.245	0.188	-0.273
-595.011	-150.646	-0.168	0.013
-593.996	-200.000	0.017	0.184
-592.982	-15.692	-0.088	0.056
-591.967	800.000	0.025	0.090
-590.952	41.200	-0.070	-0.064
-589.938	-156.720	0.370	-0.023
-588.923	800.000	0.086	-0.270
-587.909	143.533	-0.118	-0.158
-586.894	63.896	-0.116	0.117
-585.879	-112.564	-0.127	-0.026
-584.865	50.705	0.216	-0.206
-583.850	-10.988	-0.305	-0.202
-582.836	81.230	0.265	0.288
-581.821	-92.538	0.277	-0.078
-580.806	351.599	-0.138	0.275
-579.792	134.658	-0.115	-0.150
-578.777	100.854	0.044	-0.052
-577.763	-200.000	-0.013	-0.094
-576.748	-87.075	0.071	0.022
-575.733	-32.899	-0.056	0.031
-574.719	23.454	-0.320	-0.265
-573.704	209.631	0.192	0.302
-572.690	47.911	-0.193	0.181
-571.675	800.000	-0.068	0.192
-570.661	471.495	0.071	-0.161
-569.646	9.664	0.178	-0.136
-568.631	9.420	-0.064	-0.049
-567.617	-134.852	0.171	-0.021
-566.602	87.639	-0.257	0.286
-565.588	341.291	-0.165	-0.323
-564.573	292.993	-0.145	0.266
-563.558	-122.001	0.198	-0.033
-562.544	106.407	0.170	-0.203
-561.529	371.547	-0.113	0.230
-560.515	13.748	-0.084	-0.066
-559.500	-17.565	-0.404	-0.255
-558.485	2.249	-0.244	0.177
-557.471	247.474	-0.055	0.093
-556.456	800.000	0.079	-0.224
-555.442	59.169	-0.152	-0.150
-554.427	-86.297	0.230	0.071
-553.412	-200.000	-0.041	-0.219
-552.398	-22.921	-0.093	-0.056
-551.383	-200.000	-0.044	0.220
-550.369	-200.000	0.091	0.000
-549.354	-200.000	-0.008	0.105
-548.339	-200.000	0.003	-0.063
-547.325	800.000	-0.064	0.279
-546.310	-200.000	0.024	0.215
-545.296	395.238	-0.050	0.106
-544.281	296.104	-0.178	0.328
-543.266	-50.294	-0.154	0.073
-542.252	140.234	-0.195	0.258
-541.237	227.885	0.027	0.043
-540.223	800.000	0.123	-0.455
-539.208	-140.006	0.121	0.013
-538.193	-200.000	-0.103	-0.000
-537.179	-200.000	-0.058	0.367
-536.164	29.763	-0.218	0.186
-535.150	800.000	-0.018	0.069
-534.135	181.100	0.140	-0.206
-533.121	295.613	0.214	0.393
-532.106	389.641	0.022	-0.047
-531.091	74.810	0.117	-0.123
-530.077	98.011	-0.242	0.279
-529.062	-34.103	0.135	-0.075
-528.048	-35.826	0.067	-0.036
-527.033	-90.008	-0.253	0.074
-526.018	800.000	0.035	0.101
-525.004	800.000	-0.052	-0.192
-523.989	-200.000	-0.073	-0.539
-522.975	429.943	0.131	0.283
-521.960	447.643	0.089	0.197
-520.945	-73.177	0.261	-0.096
-519.931	334.949	-0.058	0.114
-518.916	53.754	0.191	-0.184
-517.902	47.558	0.120	-0.112
-516.887	-200.000	0.046	0.387
-515.872	312.913	-0.095	0.179
-514.858	-81.267	0.209	0.069
-513.843	-63.948	0.338	0.138
-512.829	-46.508	-0.225	0.111
-511.814	-46.875	0.173	-0.085
-510.799	-8.740	0.090	0.060
-509.785	-56.210	-0.029	-0.013
-508.770	800.000	0.096	-0.307
-507.756	-58.273	0.315	-0.137
-506.741	228.129	-0.171	0.280
-505.726	-53.828	-0.216	0.099
-504.712	-200.000	0.046	0.480
-503.697	-192.190	-0.181	0.002
-502.683	-200.000	-0.053	-0.401
-501.668	-200.000	-0.040	0.278
-500.653	-200.000	-0.057	-0.299
-499.639	-200.000	0.005	0.129
-498.624	-120.610	-0.259	0.044
-497.610	-200.000	-0.014	0.168
-496.595	-150.333	-0.298	-0.023
-495.581	-5.886	-0.139	0.095
-494.566	351.402	0.199	0.394
-493.551	-200.000	-0.047	-0.253
-492.537	174.284	-0.101	-0.146
-491.522	10.904	-0.188	-0.144
-490.508	338.090	0.232	-0.452
-489.493	-42.116	0.068	0.035
-488.478	-80.394	-0.267	0.089
-487.464	-200.000	0.026	-0.215
-486.449	92.620	-0.049	-0.055
-485.435	-89.303	0.162	-0.048
-484.420	656.318	-0.095	0.246
-483.405	-103.846	0.203	0.047
-482.391	256.585	-0.104	-0.179
-481.376	117.825	-0.045	-0.056
-480.362	103.770	-0.217	0.255
-479.347	-200.000	0.015	-0.216
-478.332	-130.702	0.300	0.040
-477.318	-52.249	0.252	-0.117
-476.303	-200.000	-0.020	0.181
-475.289	-65.180	0.185	0.075
-474.274	-200.000	0.036	0.215
-473.259	436.112	0.037	0.080
-472.245	-33.465	-0.480	0.266
-471.230	227.393	-0.149	0.242
-470.216	-148.579	0.219	0.018
-469.201	-20.453	0.104	-0.064
-468.186	-21.207	-0.149	-0.091
-467.172	214.571	0.030	0.048
-466.157	-200.000	-0.009	0.123
-465.143	-200.000	0.037	-0.246
-464.128	-104.210	-0.121	0.028
-463.113	-57.064	-0.090	0.040
-462.099	-168.614	-0.214	-0.008
-461.084	-200.000	0.002	-0.163
-460.070	46.842	0.175	-0.163
-459.055	106.842	-0.135	-0.160
-458.040	550.734	-0.023	0.055
-457.026	-16.106	0.082	0.052
-456.011	800.000	-0.031	-0.087
-454.997	105.189	0.162	0.191
-453.982	-143.640	0.359	0.034
-452.968	-109.620	-0.305	-0.064
-451.953	800.000	0.092	-0.272
-450.938	14.478	-0.176	-0.137
-449.924	-13.668	-0.335	-0.217
-448.909	-122.370	0.284	-0.046
-447.895	-200.000	0.004	-0.496
-446.880	-108.620	-0.214	-0.046
-445.865	354.111	0.159	0.316
-444.851	-130.337	0.246	0.033
-443.836	-166.993	0.097	-0.004
-442.822	-155.486	-0.160	-0.010
-441.807	-42.713	0.265	0.135
-440.792	-61.833	-0.183	0.077
-439.778	185.213	-0.110	0.163
-438.763	-200.000	-0.006	-0.278
-437.749	-49.274	0.281	0.134
-436.734	-13.497	-0.110	0.071
-435.719	-200.000	0.059	-0.337
-434.705	-36.496	0.095	-0.051
-433.690	-81.027	-0.247	0.082
-432.676	-85.814	0.244	-0.076
-431.661	-121.739	0.212	0.035
-430.646	-86.723	0.329	-0.100
-429.632	176.688	-0.126	0.183
-428.617	81.951	-0.239	0.259
-427.603	-12.252	-0.040	-0.026
-426.588	-200.000	-0.024	0.153
-425.573	20.276	0.130	0.105
-424.559	-29.019	-0.203	0.116
-423.544	-128.789	0.196	-0.028
-422.530	-79.154	0.149	-0.050
-421.515	-7.026	-0.212	0.143
-420.500	-111.593	0.203	0.041
-419.486	-38.725	0.303	-0.160
-418.471	79.948	-0.205	0.220
-417.457	23.153	-0.145	0.119
-416.442	249.615	0.139	0.235
-415.428	52.635	-0.158	-0.150
-414.413	42.155	0.113	-0.102
-413.398	-26.270	-0.139	0.081
-412.384	-127.426	0.102	0.015
-411.369	-129.544	0.126	-0.017
-410.355	-51.171	0.294	0.137
-409.340	58.203	0.226	-0.221
-408.325	-99.910	-0.239	-0.059
-407.311	-78.608	-0.323	-0.110
-406.296	211.022	0.054	0.085
-405.282	-200.000	-0.046	0.363
-404.267	-102.988	0.161	-0.038
-403.252	274.361	0.150	-0.264
-402.238	22.515	-0.241	-0.197
-401.223	577.462	0.062	0.151
-400.209	800.000	-0.021	-0.082
-399.194	-160.264	-0.155	0.008
-398.179	-122.345	-0.354	0.058
-397.165	162.372	-0.165	0.231
-396.150	-102.612	-0.461	0.110
-395.136	326.714	-0.159	-0.304
-394.121	304.642	0.142	-0.263
-393.106	27.087	-0.119	-0.099
-392.092	-93.701	0.068	-0.019
-391.077	-115.530	0.207	0.039
-390.063	-144.693	0.133	-0.012
-389.048	800.000	-0.038	-0.155
-388.033	16.148	0.229	-0.180
-387.019	-200.000	0.034	-0.151
-386.004	-30.776	-0.157	-0.088
-384.990	79.943	0.065	0.070
-383.975	43.947	-0.088	0.080
-382.960	-55.627	-0.149	-0.066
-381.946	-23.301	0.299	0.180
-380.931	800.000	-0.089	-0.253
-379.917	-12.175	0.078	-0.051
-378.902	-161.097	-0.381	-0.020
-377.888	-58.919	-0.222	0.095
-376.873	-148.913	0.129	-0.010
-375.858	217.605	0.099	-0.157
-374.844	-49.900	0.051	0.024
-373.829	7.554	0.190	0.142
-372.815	-32.589	0.122	-0.068
-371.800	-22.862	-0.159	0.096
-370.785	-200.000	0.004	-0.229
-369.771	195.570	0.020	-0.030
-368.756	334.376	0.113	0.217
-367.742	-154.214	0.261	-0.018
-366.727	-80.001	-0.050	-0.017
-365.712	800.000	0.068	0.192
-364.698	4.061	-0.169	0.123
-363.683	800.000	0.079	0.224
-362.669	318.807	-0.030	0.056
-361.654	-66.942	-0.252	-0.099
-360.639	174.208	0.122	0.176
-359.625	131.601	0.111	0.143
-358.610	445.822	0.109	0.238
-357.596	-161.889	0.349	0.018
-356.581	800.000	0.094	-0.328
-355.566	93.058	-0.240	-0.270
-354.552	-12.069	0.261	-0.170
-353.537	-8.467	0.197	0.132
-352.523	217.695	-0.187	0.297
-351.508	73.656	-0.140	-0.146
-350.493	107.157	-0.373	-0.441
-349.479	247.468	0.019	-0.032
-348.464	146.825	0.105	0.141
-347.450	505.813	0.088	-0.203
-346.435	761.934	-0.047	0.127
-345.420	4.063	-0.211	0.154
-344.406	-15.870	0.126	0.080
-343.391	-89.482	0.310	0.091
-342.377	-95.222	-0.081	-0.022
-341.362	-200.000	-0.004	-0.028
-340.348	800.000	0.077	-0.299
-339.333	-200.000	-0.027	0.130
-338.318	-20.862	0.116	-0.071
-337.304	-81.545	0.324	-0.106
-336.289	-170.886	-0.361	-0.012
-335.275	66.360	0.245	-0.247
-334.260	573.663	0.128	-0.311
-333.245	-200.000	-0.005	-0.035
-332.231	-200.000	0.011	-0.145
-331.216	-64.932	-0.140	-0.056
-330.202	519.564	0.094	-0.220
-329.187	-66.578	0.266	0.105
-328.172	94.663	-0.083	0.094
-327.158	-110.345	-0.206	0.043
-326.143	-146.129	0.433	0.038
-325.129	800.000	-0.102	0.372
-324.114	75.259	0.240	0.252
-323.099	800.000	0.054	-0.163
-322.085	0.216	0.280	-0.199
-321.070	2.322	0.072	-0.052
-320.056	36.517	0.078	-0.069
-319.041	-116.541	-0.306	-0.056
-318.026	-59.379	-0.201	0.086
-317.012	800.000	-0.106	-0.298
-315.997	800.000	0.041	-0.163
-314.983	6.762	0.098	-0.073
-313.968	641.838	-0.040	-0.101
-312.953	-80.775	0.117	-0.039
-311.939	800.000	0.039	0.123
-310.924	760.383	-0.159	-0.428
-309.910	-16.156	-0.171	-0.108
-308.895	314.833	0.019	-0.035
-307.880	202.049	0.129	-0.198
-306.866	17.279	-0.142	-0.112
-305.851	192.685	0.091	-0.136
-304.837	-58.718	-0.288	0.124
-303.822	-62.096	0.111	0.046
-302.807	-56.905	-0.304	0.134
-301.793	-200.000	0.062	-0.363
-300.778	302.291	0.152	-0.279
-299.764	32.908	0.200	0.172
-298.749	800.000	-0.062	-0.195
-297.735	100.966	-0.177	0.204
-296.720	-200.000	-0.003	0.146
-295.705	33.293	-0.159	0.137
-294.691	90.246	-0.109	0.122
-293.676	-72.683	-0.154	-0.056
-292.662	-69.301	0.060	0.023
-291.647	800.000	0.016	-0.066
-290.632	-26.035	-0.213	-0.125
-289.618	81.423	-0.164	-0.177
-288.603	229.483	0.029	0.047
-287.589	152.187	-0.251	0.340
-286.574	-200.000	-0.008	0.061
-285.559	-63.503	0.256	0.105
-284.545	800.000	0.037	-0.115
-283.530	585.458	0.031	-0.077
-282.516	-166.514	-0.131	0.005
-281.501	800.000	-0.095	0.380
-280.486	-46.840	0.049	-0.024
-279.472	-51.928	0.207	-0.096
-278.457	8.824	-0.237	-0.177
-277.443	205.731	0.070	-0.109
-276.428	312.551	0.018	-0.033
-275.413	91.409	-0.023	-0.026
-274.399	561.482	-0.245	0.587
-273.384	-8.801	-0.180	-0.120
-272.370	-200.000	-0.009	-0.126
-271.355	185.549	0.104	-0.153
-270.340	-59.173	0.120	0.051
-269.326	300.241	-0.138	0.253
-268.311	-90.172	0.199	-0.058
-267.297	-40.610	0.414	-0.213
-266.282	-59.681	-0.112	-0.047
-265.267	-107.262	-0.395	0.086
-264.253	108.777	0.032	0.038
-263.238	-200.000	-0.013	-0.373
-262.224	-200.000	-0.028	-0.152
-261.209	800.000	0.052	0.156
-260.195	315.243	0.208	-0.389
-259.180	-87.725	-0.209	-0.062
-258.165	-200.000	0.105	-0.470
-257.151	-18.808	-0.221	-0.136
-256.136	-27.287	-0.139	0.080
-255.122	49.931	0.138	0.129
-254.107	-4.755	-0.222	0.152
-253.092	-41.833	0.082	0.042
-252.078	135.219	0.060	-0.077
-251.063	183.243	0.267	0.392
-250.049	-200.000	-0.004	-0.109
-249.034	-68.230	0.073	-0.028
-248.019	800.000	0.115	-0.377
-247.005	1.579	0.020	-0.014
-245.990	-141.494	0.135	-0.014
-244.976	-200.000	-0.028	0.200
-243.961	22.301	0.088	-0.071
-242.946	473.499	-0.079	-0.178
-241.932	-185.152	-0.035	0.001
-240.917	648.693	0.029	-0.074
-239.903	-143.119	-0.167	0.016
-238.888	314.503	0.151	-0.282
-237.873	-135.357	-0.375	0.045
-236.859	221.345	0.135	-0.214
-235.844	-67.008	-0.141	-0.055
-234.830	-171.862	0.162	0.005
-233.815	800.000	0.030	0.116
-232.800	33.109	-0.327	0.281
-231.786	324.118	0.068	-0.128
-230.771	-200.000	-0.032	0.175
-229.757	-98.222	0.412	0.105
-228.742	-115.100	-0.115	0.022
-227.727	-178.642	0.311	0.007
-226.713	800.000	0.114	0.436
-225.698	-181.359	-0.163	-0.003
-224.684	154.037	0.037	-0.050
-223.669	-48.045	-0.097	0.046
-222.655	-128.148	-0.113	-0.016
-221.640	95.358	-0.188	0.213
-220.625	800.000	-0.030	0.122
-219.611	155.903	0.102	0.139
-218.596	-200.000	0.015	0.098
-217.582	186.254	0.207	0.306
-216.567	-0.666	0.227	0.159
-215.552	-5.111	-0.245	0.167
-214.538	-131.490	-0.136	-0.018
-213.523	-55.793	0.054	0.024
-212.509	-153.147	-0.471	0.033
-211.494	17.661	-0.032	-0.025
-210.479	800.000	-0.035	0.110
-209.465	-105.492	0.199	0.045
-208.450	800.000	-0.015	0.048
-207.436	194.840	0.101	0.152
-206.421	800.000	0.152	0.557
-205.406	-200.000	0.015	0.241
-204.392	-106.735	0.108	-0.024
-203.377	800.000	-0.072	0.257
-202.363	199.851	-0.207	0.315
-201.348	800.000	0.089	-0.305
-200.333	-101.895	0.034	0.008
-199.319	-6.678	-0.216	-0.145
-198.304	-44.401	0.045	-0.022
-197.290	557.766	0.040	0.095
-196.275	-69.516	-0.199	0.075
-195.260	32.977	0.222	-0.190
-194.246	-200.000	-0.016	-0.354
-193.231	-66.265	0.114	0.045
-192.217	-200.000	-0.033	0.299
-191.202	0.894	0.144	-0.102
-190.187	-20.802	0.177	0.107
-189.173	86.680	-0.103	0.113
-188.158	94.866	0.003	0.003
-187.144	-158.822	-0.209	0.012
-186.129	-200.000	-0.052	-0.246
-185.114	385.189	0.187	0.381
-184.100	23.448	0.349	0.284
-183.085	148.182	-0.069	-0.093
-182.071	650.468	-0.089	0.224
-181.056	-200.000	0.024	-0.309
-180.042	682.513	-0.105	-0.270
-179.027	-57.322	0.016	0.007
-178.012	-69.224	0.285	-0.108
-176.998	6.003	0.175	-0.128
-175.983	112.389	0.140	0.168
-174.969	-200.000	-0.008	0.062
-173.954	48.943	0.227	-0.210
-172.939	92.260	0.344	0.383
-171.925	341.228	-0.188	0.364
-170.910	800.000	0.018	0.049
-169.896	112.483	-0.147	0.176
-168.881	399.632	0.093	-0.192
-167.866	-200.000	0.006	-0.373
-166.852	-200.000	0.043	-0.282
-165.837	-200.000	-0.042	0.262
-164.823	-68.765	-0.107	0.041
-163.808	-14.124	-0.070	0.045
-162.793	800.000	0.060	-0.229
-161.779	-200.000	-0.025	-0.153
-160.764	-200.000	-0.027	0.340
-159.750	221.150	-0.090	0.144
-158.735	80.030	-0.085	0.091
-157.720	15.926	-0.034	-0.027
-156.706	-61.674	0.482	0.200
-155.691	-76.084	-0.057	0.020
-154.677	117.459	-0.139	0.168
-153.662	409.063	0.126	-0.263
-152.647	765.590	-0.068	-0.183
-151.633	119.586	0.214	0.262
-150.618	188.593	-0.127	0.188
-149.604	-200.000	-0.050	-0.315
-148.589	128.698	-0.073	0.092
-147.574	272.823	-0.083	-0.144
-146.560	-200.000	0.016	-0.107
-145.545	92.683	-0.207	0.231
-144.531	529.661	-0.065	-0.152
-143.516	-200.000	-0.005	-0.145
-142.502	86.327	0.168	-0.183
-141.487	-200.000	0.116	0.531
-140.472	94.934	0.203	-0.228
-139.458	226.120	-0.094	-0.151
-138.443	73.183	-0.126	-0.130
-137.429	-70.600	0.136	-0.051
-136.414	-61.676	0.161	-0.067
-135.399	-78.595	-0.127	0.043
-134.385	-200.000	0.076	-0.354
-133.370	-200.000	0.006	0.123
-132.356	10.306	-0.338	-0.254
-131.341	-200.000	-0.027	0.331
-130.326	-100.605	0.484	0.118
-129.312	3.294	-0.040	-0.029
-128.297	-200.000	-0.008	0.129
-127.283	-83.181	-0.112	0.035
-126.268	-106.265	-0.203	0.045
-125.253	-200.000	-0.026	0.118
-124.239	45.537	-0.177	-0.161
-123.224	495.740	-0.120	0.272
-122.210	341.116	-0.037	-0.072
-121.195	-143.406	-0.084	0.008
