DTS Sentinel unit serial number:	SN413079Multiplexer serial number:	ORYXHardware model number:	OX4-SRSoftware version number:	ORYX F/W v4.00 Oryx Data Collector v3.7.2.0data status	okinstallation	princeton_trtdifferential loss correction	single-endedforward channel	channel 2reverse channel	N/Adate	2019/09/10time	22:21:11forward acquisition time	60.00reverse acquisition time	0.00gamma	496.2192k internal	0.2329k external	0.2329temperature offset calibration	0.9946default loss term (dB/km)	0.3790temperature slope calibration	1.0000multiplexer offset coefficient	1.0000multiplexer slope coefficient	1.0000fibre end	0.00T internal ref (°C)	30.44T ext. ref 1 (°C)	-0.31T ext. ref 2 (°C)	23.80length (m)	temperature (°C)	Stokes	anti-Stokes-747.200	-200.000	0.001	0.214
-746.185	-54.859	-0.503	0.228
-745.171	3.848	-0.312	0.229
-744.156	-86.749	-0.167	-0.051
-743.142	-200.000	-0.006	0.190
-742.127	-200.000	-0.015	0.145
-741.112	-133.813	-0.341	0.043
-740.098	193.960	0.218	0.333
-739.083	220.778	-0.124	0.201
-738.069	-108.071	-0.519	0.113
-737.054	800.000	0.027	-0.098
-736.039	-112.757	-0.207	0.041
-735.025	-156.960	-0.091	0.006
-734.010	67.555	0.067	-0.069
-732.996	-17.875	-0.417	0.263
-731.981	42.865	-0.240	-0.220
-730.966	-104.148	0.239	-0.056
-729.952	66.212	0.031	-0.032
-728.937	-200.000	-0.001	-0.062
-727.923	-159.734	-0.199	0.011
-726.908	-34.720	-0.130	0.072
-725.894	112.375	0.062	0.075
-724.879	29.449	0.184	-0.158
-723.864	41.061	-0.203	-0.184
-722.850	53.596	0.144	-0.139
-721.835	800.000	0.060	-0.260
-720.821	-49.737	0.284	0.136
-719.806	-46.315	-0.025	-0.012
-718.791	43.090	-0.372	-0.341
-717.777	484.411	-0.005	0.011
-716.762	261.295	0.070	-0.122
-715.748	-56.891	-0.113	-0.050
-714.733	800.000	0.125	-0.504
-713.718	185.947	-0.082	-0.122
-712.704	740.807	-0.148	-0.399
-711.689	800.000	-0.110	-0.307
-710.675	131.722	0.288	-0.373
-709.660	-100.128	0.149	-0.037
-708.645	-200.000	0.012	0.096
-707.631	454.835	-0.067	-0.148
-706.616	-200.000	-0.017	0.101
-705.602	800.000	-0.046	-0.132
-704.587	91.560	0.020	-0.023
-703.572	249.458	0.099	-0.168
-702.558	-28.104	-0.064	0.037
-701.543	14.046	-0.252	0.197
-700.529	-125.860	0.226	-0.034
-699.514	-154.593	-0.238	0.016
-698.499	-117.823	-0.095	0.017
-697.485	-112.261	0.450	-0.091
-696.470	-0.560	0.236	-0.168
-695.456	51.803	0.265	0.254
-694.441	-200.000	0.045	-0.239
-693.426	705.169	0.110	0.292
-692.412	-152.697	0.375	0.027
-691.397	-45.836	-0.158	-0.079
-690.383	69.010	0.162	-0.168
-689.368	-45.140	-0.354	-0.177
-688.354	-58.174	-0.401	-0.176
-687.339	800.000	-0.022	-0.069
-686.324	800.000	-0.035	-0.104
-685.310	12.472	0.536	-0.415
-684.295	81.233	0.150	0.163
-683.281	161.510	0.085	-0.120
-682.266	-56.055	-0.057	-0.026
-681.251	508.411	-0.031	0.073
-680.237	-52.977	0.234	-0.108
-679.222	-107.301	0.069	0.015
-678.208	47.483	0.127	-0.119
-677.193	-177.845	0.113	0.003
-676.178	604.483	-0.072	-0.180
-675.164	-92.303	-0.320	-0.091
-674.149	-77.745	-0.380	-0.132
-673.135	800.000	0.040	0.116
-672.120	-177.879	0.112	-0.003
-671.105	54.432	0.139	0.135
-670.091	-15.517	0.218	-0.140
-669.076	-17.634	0.287	-0.181
-668.062	-80.053	0.270	0.091
-667.047	611.156	0.050	0.127
-666.032	250.705	-0.104	-0.177
-665.018	-200.000	-0.054	0.595
-664.003	-113.380	0.225	-0.044
-662.989	229.671	-0.099	0.163
-661.974	201.885	-0.124	-0.192
-660.959	625.634	0.067	-0.171
-659.945	-45.791	-0.297	-0.147
-658.930	-200.000	-0.040	0.270
-657.916	-24.079	-0.114	0.068
-656.901	-1.776	-0.111	-0.079
-655.886	30.191	0.256	-0.219
-654.872	569.447	0.039	0.094
-653.857	191.366	-0.047	0.070
-652.843	-200.000	0.017	0.216
-651.828	-200.000	0.002	-0.155
-650.814	158.827	-0.185	0.258
-649.799	16.240	-0.151	-0.120
-648.784	152.288	-0.231	-0.316
-647.770	211.433	-0.098	-0.155
-646.755	23.542	0.107	-0.089
-645.741	-68.783	-0.097	0.038
-644.726	223.684	0.128	-0.207
-643.711	459.027	-0.150	0.335
-642.697	-14.803	0.126	0.081
-641.682	92.428	0.191	-0.216
-640.668	-127.375	0.077	0.011
-639.653	104.880	-0.097	0.115
-638.638	-46.251	0.209	-0.103
-637.624	-2.314	-0.372	-0.262
-636.609	-87.449	0.210	0.064
-635.595	-48.038	0.586	-0.284
-634.580	66.040	-0.173	0.176
-633.565	-172.909	0.158	-0.005
-632.551	-200.000	-0.003	0.076
-631.536	-54.444	0.216	0.098
-630.522	-200.000	-0.014	-0.379
-629.507	-92.982	-0.242	-0.068
-628.492	193.755	0.137	0.209
-627.478	-129.842	0.099	-0.014
-626.463	204.522	-0.062	0.097
-625.449	-34.457	-0.174	0.096
-624.434	800.000	-0.111	-0.315
-623.419	-200.000	0.030	-0.139
-622.405	-82.356	0.066	0.021
-621.390	-78.885	0.275	0.094
-620.376	10.487	0.068	0.052
-619.361	356.445	0.120	-0.240
-618.346	104.093	0.066	0.078
-617.332	1.362	0.148	-0.107
-616.317	800.000	0.042	0.122
-615.303	127.202	-0.068	-0.086
-614.288	276.299	-0.122	-0.217
-613.273	800.000	-0.063	0.229
-612.259	800.000	0.055	0.175
-611.244	-50.479	-0.297	0.140
-610.230	179.355	0.123	0.181
-609.215	-200.000	-0.037	-0.459
-608.201	-126.312	-0.324	-0.048
-607.186	-134.392	-0.044	-0.005
-606.171	39.556	0.192	-0.173
-605.157	-14.536	0.241	-0.155
-604.142	-178.840	0.420	0.010
-603.128	120.391	-0.306	0.380
-602.113	199.524	-0.087	-0.133
-601.098	603.147	-0.010	0.026
-600.084	-165.209	-0.253	0.011
-599.069	-109.956	-0.151	0.032
-598.055	-200.000	-0.003	0.017
-597.040	98.315	0.182	-0.210
-596.025	395.986	0.042	0.088
-595.011	800.000	0.097	0.293
-593.996	800.000	-0.057	0.192
-592.982	190.231	0.137	0.206
-591.967	-150.719	0.249	-0.019
-590.952	-48.389	0.310	-0.150
-589.938	-48.476	0.093	-0.045
-588.923	-5.443	-0.104	0.072
-587.909	-128.299	0.142	0.020
-586.894	60.320	-0.259	0.256
-585.879	159.203	-0.122	0.169
-584.865	-1.006	0.308	-0.218
-583.850	47.207	0.094	-0.088
-582.836	402.598	0.224	0.471
-581.821	-129.305	-0.128	-0.018
-580.806	-47.649	-0.207	-0.101
-579.792	-78.196	-0.247	0.085
-578.777	585.754	0.093	-0.229
-577.763	800.000	0.104	-0.293
-576.748	635.529	-0.093	-0.237
-575.733	-200.000	-0.031	-0.292
-574.719	-200.000	-0.078	0.000
-573.704	-174.992	-0.331	0.009
-572.690	-94.812	-0.368	-0.100
-571.675	41.233	0.154	-0.139
-570.661	-143.704	0.308	0.029
-569.646	302.517	-0.103	0.191
-568.631	381.482	-0.076	0.157
-567.617	-173.106	-0.244	-0.008
-566.602	319.585	0.108	0.206
-565.588	52.210	-0.270	0.258
-564.573	298.877	-0.043	0.079
-563.558	-128.234	0.058	0.008
-562.544	-24.909	-0.083	-0.049
-561.529	-97.681	0.353	0.091
-560.515	-200.000	-0.009	0.204
-559.500	194.053	-0.145	0.219
-558.485	143.236	0.089	-0.119
-557.471	126.924	-0.144	0.182
-556.456	-23.850	0.126	0.075
-555.442	-81.738	0.070	0.023
-554.427	-168.970	-0.277	0.010
-553.412	-200.000	-0.004	-0.032
-552.398	-23.679	-0.115	-0.069
-551.383	250.743	-0.043	0.073
-550.369	-45.399	-0.033	0.017
-549.354	237.348	0.129	0.213
-548.339	-200.000	0.015	0.277
-547.325	-23.474	-0.172	0.103
-546.310	-200.000	-0.058	-0.323
-545.296	-92.789	0.002	-0.001
-544.281	-200.000	-0.005	-0.024
-543.266	-111.552	0.078	-0.016
-542.252	-200.000	-0.072	-0.345
-541.237	-200.000	-0.030	-0.233
-540.223	-179.714	0.102	0.002
-539.208	702.645	0.082	0.216
-538.193	-200.000	0.010	0.157
-537.179	203.577	0.180	0.278
-536.164	-58.416	0.216	0.094
-535.150	-131.942	0.185	0.024
-534.135	-30.670	-0.224	-0.127
-533.121	-5.572	0.307	0.210
-532.106	663.318	0.107	-0.276
-531.091	-174.442	-0.276	0.008
-530.077	-50.891	0.246	0.116
-529.062	-85.138	-0.539	-0.169
-528.048	-200.000	0.005	-0.105
-527.033	31.098	-0.029	-0.025
-526.018	9.910	-0.035	0.026
-525.004	-200.000	0.024	-0.141
-523.989	105.880	0.164	-0.194
-522.975	-84.993	-0.197	0.062
-521.960	-200.000	-0.034	0.235
-520.945	800.000	0.071	0.248
-519.931	-93.573	0.566	-0.156
-518.916	64.318	-0.204	0.205
-517.902	64.162	0.089	-0.090
-516.887	29.463	-0.223	0.189
-515.872	112.085	-0.159	-0.191
-514.858	629.353	0.067	-0.169
-513.843	255.295	0.248	-0.424
-512.829	349.682	-0.238	0.469
-511.814	-200.000	-0.012	0.228
-510.799	800.000	-0.033	-0.129
-509.785	-200.000	0.018	-0.140
-508.770	96.139	-0.078	-0.089
-507.756	124.877	0.039	0.049
-506.741	137.179	-0.171	-0.223
-505.726	218.867	0.258	0.412
-504.712	-200.000	0.045	0.234
-503.697	275.242	-0.094	-0.167
-502.683	77.590	-0.052	-0.055
-501.668	126.999	-0.181	0.228
-500.653	109.265	0.155	-0.185
-499.639	17.792	0.403	0.320
-498.624	-48.920	0.182	-0.087
-497.610	70.716	0.103	0.106
-496.595	-49.294	-0.220	0.105
-495.581	-163.120	0.043	0.002
-494.566	-129.392	0.076	-0.010
-493.551	-110.993	0.126	0.026
-492.537	-79.367	-0.220	-0.074
-491.522	193.785	0.231	0.349
-490.508	-200.000	0.050	0.473
-489.493	438.271	-0.066	-0.144
-488.478	-198.945	0.289	-0.002
-487.464	86.415	0.184	-0.202
-486.449	17.167	-0.141	-0.112
-485.435	90.059	-0.107	0.119
-484.420	-200.000	0.018	0.127
-483.405	387.646	0.085	-0.176
-482.391	-155.458	-0.091	0.006
-481.376	-119.018	-0.036	-0.006
-480.362	800.000	0.011	0.040
-479.347	-78.094	0.219	-0.075
-478.332	288.337	-0.105	0.189
-477.318	800.000	-0.097	0.350
-476.303	44.062	-0.150	-0.137
-475.289	3.528	0.225	-0.164
-474.274	-6.049	0.157	0.107
-473.259	-200.000	0.012	-0.260
-472.245	66.399	0.161	-0.163
-471.230	746.228	-0.020	-0.055
-470.216	800.000	0.043	0.123
-469.201	-10.788	0.107	-0.070
-468.186	800.000	-0.078	0.239
-467.172	-22.664	-0.228	-0.137
-466.157	75.405	0.042	-0.045
-465.143	800.000	0.045	-0.179
-464.128	121.930	-0.143	-0.178
-463.113	14.805	-0.109	0.085
-462.099	101.978	-0.244	-0.284
-461.084	-131.349	0.254	0.034
-460.070	231.974	-0.085	0.139
-459.055	-37.030	-0.004	-0.002
-458.040	-66.715	-0.218	0.086
-457.026	800.000	0.030	-0.112
-456.011	110.832	-0.282	0.337
-454.997	-200.000	0.003	0.044
-453.982	454.926	-0.096	-0.211
-452.968	-181.565	-0.116	-0.002
-451.953	800.000	-0.092	-0.322
-450.938	139.604	-0.184	0.242
-449.924	-71.865	-0.223	-0.083
-448.909	-23.308	0.071	-0.043
-447.895	-119.589	-0.111	0.019
-446.880	-199.517	-0.253	0.001
-445.865	92.388	0.093	0.104
-444.851	608.322	-0.137	-0.341
-443.836	-143.700	-0.237	-0.022
-442.822	-145.590	0.173	0.015
-441.807	313.916	0.132	-0.248
-440.792	309.913	0.088	-0.163
-439.778	82.038	0.222	-0.240
-438.763	290.696	-0.075	-0.136
-437.749	-14.511	-0.066	-0.042
-436.734	555.182	-0.117	-0.281
-435.719	-130.458	0.296	-0.040
-434.705	-42.161	0.424	-0.216
-433.690	238.812	0.182	-0.301
-432.676	-54.016	-0.146	0.066
-431.661	81.504	0.282	0.304
-430.646	-166.659	-0.111	0.005
-429.632	467.779	-0.019	0.043
-428.617	-77.327	0.436	-0.151
-427.603	-17.212	-0.158	-0.099
-426.588	-200.000	-0.046	0.329
-425.573	242.598	-0.180	-0.299
-424.559	-108.562	-0.169	0.036
-423.544	112.645	-0.178	-0.214
-422.530	219.817	-0.083	-0.132
-421.515	-57.929	0.042	-0.018
-420.500	86.546	-0.137	0.150
-419.486	-200.000	0.014	0.170
-418.471	-200.000	-0.028	0.173
-417.457	-88.378	0.145	-0.043
-416.442	402.772	-0.143	0.299
-415.428	-200.000	-0.004	0.040
-414.413	-124.616	0.098	-0.015
-413.398	-200.000	-0.038	-0.372
-412.384	43.148	0.152	-0.138
-411.369	-142.755	0.102	0.010
-410.355	800.000	0.066	0.239
-409.340	-200.000	0.000	0.018
-408.325	31.853	-0.121	0.104
-407.311	202.975	-0.206	0.316
-406.296	190.890	-0.087	0.130
-405.282	-67.541	-0.172	-0.067
-404.267	-33.406	-0.167	-0.092
-403.252	102.888	0.070	0.082
-402.238	742.242	0.092	0.245
-401.223	175.242	-0.091	-0.131
-400.209	376.755	-0.095	0.194
-399.194	10.198	0.262	-0.198
-398.179	-72.453	0.147	0.054
-397.165	109.863	-0.141	0.168
-396.150	383.468	0.118	-0.240
-395.136	-67.872	-0.380	-0.147
-394.121	-84.948	0.160	-0.050
-393.106	-85.934	0.242	0.074
-392.092	-73.451	-0.230	0.084
-391.077	70.591	0.105	0.108
-390.063	-103.945	-0.097	-0.023
-389.048	-200.000	0.010	0.304
-388.033	-42.136	0.149	-0.076
-387.019	800.000	0.009	-0.032
-386.004	53.649	-0.104	0.099
-384.990	-102.894	0.036	-0.008
-383.975	-132.361	0.243	-0.031
-382.960	-169.252	0.042	0.002
-381.946	800.000	0.013	0.048
-380.931	-136.807	0.211	0.024
-379.917	-61.106	-0.187	-0.078
-378.902	420.406	0.154	-0.327
-377.888	67.453	0.097	-0.098
-376.873	-177.071	-0.243	-0.006
-375.858	-200.000	-0.036	-0.238
-374.844	568.518	-0.082	-0.198
-373.829	-200.000	-0.004	-0.039
-372.815	286.418	0.179	-0.321
-371.800	-64.899	-0.105	0.042
-370.785	-179.482	0.263	-0.006
-369.771	47.789	-0.080	0.074
-368.756	-34.672	-0.332	0.180
-367.742	97.342	0.197	0.225
-366.727	-200.000	-0.027	0.272
-365.712	140.603	-0.156	-0.204
-364.698	59.228	0.088	0.086
-363.683	-146.834	0.195	-0.017
-362.669	-200.000	-0.014	-0.175
-361.654	800.000	0.052	0.211
-360.639	639.156	-0.100	0.252
-359.625	-130.393	0.210	-0.028
-358.610	-15.661	0.132	0.084
-357.596	-200.000	-0.014	-0.440
-356.581	-59.167	-0.146	-0.063
-355.566	88.283	-0.360	-0.397
-354.552	-122.502	0.309	-0.050
-353.537	-200.000	0.006	-0.149
-352.523	-172.606	0.311	0.010
-351.508	800.000	0.036	0.120
-350.493	-111.875	0.166	0.033
-349.479	-200.000	-0.004	-0.300
-348.464	160.545	0.020	0.028
-347.450	2.494	0.206	0.148
-346.435	-172.215	0.222	-0.007
-345.420	21.410	-0.072	-0.058
-344.406	-35.983	-0.329	-0.176
-343.391	-39.268	0.256	-0.133
-342.377	-109.338	-0.100	0.021
-341.362	107.439	0.199	0.235
-340.348	-76.749	0.370	-0.129
-339.333	460.499	-0.149	0.328
-338.318	4.891	0.326	0.238
-337.304	-200.000	-0.045	0.362
-336.289	62.655	-0.207	0.205
-335.275	404.475	-0.045	0.094
-334.260	704.154	0.117	-0.305
-333.245	-200.000	-0.037	0.265
-332.231	269.766	-0.147	-0.256
-331.216	-34.893	0.223	0.121
-330.202	-32.511	-0.089	0.049
-329.187	800.000	-0.091	-0.310
-328.172	800.000	-0.117	0.333
-327.158	-165.457	-0.178	0.008
-326.143	-65.235	-0.204	-0.082
-325.129	-119.628	-0.103	-0.018
-324.114	639.769	0.156	-0.392
-323.099	-60.975	-0.283	0.118
-322.085	358.994	-0.040	-0.080
-321.070	-163.102	0.106	-0.005
-320.056	-187.988	-0.251	-0.003
-319.041	80.617	0.121	-0.129
-318.026	-53.781	-0.126	0.057
-317.012	167.884	0.136	-0.191
-315.997	130.527	-0.083	0.105
-314.983	-200.000	-0.042	0.329
-313.968	236.813	0.059	-0.097
-312.953	165.310	-0.158	0.221
-311.939	800.000	0.100	0.331
-310.924	733.773	0.107	-0.284
-309.910	242.579	0.174	-0.289
-308.895	-107.689	-0.268	0.058
-307.880	199.093	-0.086	0.130
-306.866	5.106	0.157	0.114
-305.851	73.042	0.251	0.259
-304.837	-200.000	0.009	-0.055
-303.822	800.000	-0.035	-0.119
-302.807	199.554	0.071	0.108
-301.793	50.334	0.171	0.160
-300.778	139.229	0.141	0.183
-299.764	800.000	0.070	0.294
-298.749	-78.551	-0.242	-0.082
-297.735	-132.151	0.189	0.024
-296.720	555.715	-0.082	-0.196
-295.705	-12.719	0.273	-0.176
-294.691	190.046	-0.179	-0.266
-293.676	-175.010	-0.068	-0.002
-292.662	800.000	-0.023	-0.065
-291.647	37.461	-0.149	0.130
-290.632	-63.124	-0.107	-0.044
-289.618	-61.611	-0.224	0.093
-288.603	-172.982	-0.227	0.007
-287.589	-200.000	0.029	0.133
-286.574	-200.000	0.020	0.262
-285.559	-81.213	0.170	0.056
-284.545	75.556	0.088	0.092
-283.530	121.141	0.117	0.144
-282.516	776.541	-0.057	-0.154
-281.501	-109.396	-0.105	0.022
-280.486	106.104	0.132	0.155
-279.472	-165.914	-0.043	0.002
-278.457	-67.098	-0.329	0.128
-277.443	-200.000	0.004	-0.066
-276.428	-200.000	0.002	0.156
-275.413	-167.426	-0.343	-0.014
-274.399	202.154	0.078	0.118
-273.384	-32.956	0.125	-0.069
-272.370	-91.252	0.110	-0.031
-271.355	-200.000	-0.003	0.129
-270.340	239.161	-0.054	-0.089
-269.326	-50.562	-0.070	-0.032
-268.311	104.358	0.253	0.294
-267.297	246.818	-0.026	-0.044
-266.282	-200.000	-0.067	-0.291
-265.267	-200.000	-0.064	0.339
-264.253	-200.000	-0.006	0.384
-263.238	9.440	-0.167	0.125
-262.224	-200.000	0.007	-0.292
-261.209	800.000	-0.062	-0.217
-260.195	-48.954	0.301	0.143
-259.180	-58.021	0.059	-0.025
-258.165	102.885	0.095	-0.110
-257.151	-21.194	-0.346	-0.209
-256.136	-103.328	-0.211	0.049
-255.122	-74.392	0.311	0.111
-254.107	-103.210	0.109	-0.026
-253.092	-160.605	0.258	0.014
-252.078	3.394	0.173	-0.124
-251.063	-146.471	0.197	0.017
-250.049	95.254	-0.114	0.128
-249.034	26.392	0.198	0.164
-248.019	173.349	0.179	-0.254
-247.005	211.619	0.196	-0.305
-245.990	800.000	0.034	0.094
-244.976	800.000	-0.046	-0.161
-243.961	-100.431	-0.278	0.068
-242.946	-18.313	0.357	0.220
-241.932	43.319	-0.135	-0.122
-240.917	-200.000	-0.051	-0.312
-239.903	407.552	-0.060	-0.124
-238.888	-139.098	-0.083	0.009
-237.873	-200.000	-0.057	0.252
-236.859	-59.020	0.195	0.083
-235.844	-18.347	-0.218	-0.135
-234.830	-38.930	0.153	-0.080
-233.815	-187.755	-0.342	0.004
-232.800	-200.000	-0.006	-0.274
-231.786	-200.000	-0.050	-0.223
-230.771	-89.270	-0.373	0.109
-229.757	91.246	-0.111	-0.123
-228.742	-82.841	-0.055	-0.018
-227.727	-83.824	0.263	-0.083
-226.713	-200.000	0.048	-0.268
-225.698	-37.155	-0.253	-0.133
-224.684	-143.453	0.122	0.011
-223.669	-200.000	0.001	-0.206
-222.655	-200.000	-0.024	-0.125
-221.640	-51.332	-0.527	-0.243
-220.625	-10.201	-0.099	-0.065
-219.611	-105.362	-0.119	0.027
-218.596	8.771	0.149	0.110
-217.582	800.000	-0.072	0.205
-216.567	154.724	0.211	0.285
-215.552	-53.344	-0.216	-0.098
-214.538	800.000	-0.041	0.148
-213.523	800.000	-0.097	0.324
-212.509	90.053	-0.201	-0.221
-211.494	75.095	-0.087	0.091
-210.479	-71.766	-0.177	-0.065
-209.465	-99.597	0.252	-0.063
-208.450	800.000	-0.078	-0.335
-207.436	-34.504	0.368	0.199
-206.421	16.950	-0.153	0.120
-205.406	-200.000	0.014	0.112
-204.392	49.255	0.098	-0.091
-203.377	-109.673	-0.247	0.051
-202.363	225.383	-0.259	-0.414
-201.348	-78.055	0.072	0.024
-200.333	109.490	-0.087	-0.102
-199.319	243.485	0.120	0.199
-198.304	-88.337	0.117	-0.034
-197.290	134.494	-0.232	0.296
-196.275	237.097	-0.086	0.141
-195.260	80.104	0.266	-0.282
-194.246	-138.950	0.358	0.038
-193.231	-118.304	-0.330	-0.058
-192.217	38.492	-0.250	-0.220
-191.202	76.838	0.228	-0.238
-190.187	115.181	-0.215	0.259
-189.173	-200.000	-0.041	-0.242
-188.158	150.667	0.185	0.248
-187.144	-67.072	0.404	-0.157
-186.129	94.655	0.151	-0.170
-185.114	-134.653	0.196	0.024
-184.100	-120.374	-0.388	-0.065
-183.085	5.378	-0.230	-0.167
-182.071	560.291	-0.098	0.234
-181.056	-90.273	-0.362	-0.103
-180.042	800.000	0.065	0.205
-179.027	-73.444	-0.168	0.061
-178.012	-103.855	0.142	-0.033
-176.998	-200.000	0.088	0.396
-175.983	-93.140	0.152	0.042
-174.969	-95.323	0.141	0.037
-173.954	-200.000	-0.070	0.353
-172.939	-65.163	-0.295	0.117
-171.925	791.288	0.063	0.170
-170.910	260.344	-0.170	0.290
-169.896	-60.121	0.386	0.162
-168.881	763.057	-0.159	-0.425
-167.866	18.210	-0.077	-0.061
-166.852	7.423	0.382	0.281
-165.837	-148.748	0.525	-0.042
-164.823	800.000	-0.034	-0.122
-163.808	108.156	-0.142	-0.167
-162.793	7.749	-0.308	0.227
-161.779	-81.346	-0.164	-0.053
-160.764	409.246	0.160	0.333
-159.750	-200.000	-0.053	-0.236
-158.735	-9.020	-0.146	-0.096
-157.720	123.164	-0.186	-0.229
-156.706	201.685	-0.097	0.148
-155.691	-200.000	-0.010	-0.126
-154.677	17.894	0.105	-0.082
-153.662	-200.000	-0.020	0.223
-152.647	800.000	0.055	0.224
-151.633	5.876	0.305	-0.222
-150.618	0.288	-0.051	-0.036
-149.604	429.004	-0.135	0.287
-148.589	-33.292	-0.129	-0.070
-147.574	-40.823	-0.412	0.210
-146.560	394.719	0.139	-0.284
-145.545	25.752	-0.245	-0.200
-144.531	800.000	0.108	0.298
-143.516	-200.000	-0.049	-0.212
-142.502	-102.352	-0.320	0.075
-141.487	-200.000	-0.022	-0.290
-140.472	337.961	-0.033	0.064
-139.458	-118.792	0.180	-0.031
-138.443	800.000	0.025	0.106
-137.429	79.663	0.060	-0.064
-136.414	-105.514	-0.164	-0.037
-135.399	800.000	0.071	0.245
-134.385	398.872	0.071	-0.147
-133.370	-200.000	0.088	0.490
-132.356	39.002	-0.154	0.135
-131.341	36.605	-0.217	0.188
-130.326	33.021	0.261	0.223
-129.312	-28.994	-0.251	0.142
-128.297	800.000	0.060	0.210
-127.283	-26.068	-0.042	0.025
-126.268	15.467	-0.258	-0.199
-125.253	119.975	-0.126	0.153
-124.239	800.000	-0.073	0.222
-123.224	302.324	-0.075	0.136
-122.210	535.718	0.089	-0.207
-121.195	104.519	0.096	0.111
