DTS Sentinel unit serial number:	SN413079Multiplexer serial number:	ORYXHardware model number:	OX4-SRSoftware version number:	ORYX F/W v4.00 Oryx Data Collector v3.7.2.0data status	okinstallation	princeton_trtdifferential loss correction	single-endedforward channel	channel 2reverse channel	N/Adate	2019/09/17time	23:19:34forward acquisition time	60.00reverse acquisition time	0.00gamma	496.2192k internal	0.2347k external	0.2347temperature offset calibration	0.9986default loss term (dB/km)	0.3790temperature slope calibration	1.0000multiplexer offset coefficient	1.0000multiplexer slope coefficient	1.0000fibre end	0.00T internal ref (°C)	24.44T ext. ref 1 (°C)	0.17T ext. ref 2 (°C)	17.68length (m)	temperature (°C)	Stokes	anti-Stokes-747.200	-168.860	0.202	-0.008
-746.185	-67.850	-0.411	0.160
-745.171	90.702	-0.282	0.316
-744.156	341.642	0.065	0.127
-743.142	47.018	-0.137	0.128
-742.127	-107.643	-0.380	-0.083
-741.112	-54.904	-0.197	0.089
-740.098	-151.200	-0.170	0.013
-739.083	800.000	0.006	-0.019
-738.069	-43.567	-0.173	0.087
-737.054	-124.581	-0.237	0.037
-736.039	-200.000	-0.027	-0.335
-735.025	110.670	-0.067	-0.080
-734.010	800.000	-0.062	-0.222
-732.996	34.594	-0.280	0.244
-731.981	222.384	0.087	-0.140
-730.966	-166.788	0.123	-0.005
-729.952	329.191	-0.026	0.050
-728.937	-2.452	-0.166	0.116
-727.923	-66.440	0.012	-0.005
-726.908	-71.090	0.208	0.078
-725.894	30.669	0.116	-0.099
-724.879	800.000	-0.055	0.202
-723.864	800.000	0.047	0.177
-722.850	472.146	-0.079	0.177
-721.835	84.806	0.406	0.444
-720.821	-200.000	-0.019	0.110
-719.806	-200.000	-0.009	0.185
-718.791	100.891	-0.109	0.126
-717.777	403.725	-0.028	-0.059
-716.762	800.000	-0.037	-0.115
-715.748	800.000	0.098	-0.412
-714.733	163.640	-0.072	0.101
-713.718	475.507	-0.114	0.256
-712.704	-200.000	-0.068	-0.303
-711.689	233.634	0.231	-0.380
-710.675	800.000	0.018	-0.056
-709.660	-90.010	-0.271	0.079
-708.645	-37.561	0.414	-0.220
-707.631	-40.831	0.245	0.126
-706.616	-200.000	-0.001	-0.211
-705.602	-200.000	-0.009	-0.081
-704.587	64.152	-0.100	0.100
-703.572	631.295	-0.034	0.087
-702.558	4.984	0.184	-0.135
-701.543	74.963	-0.064	0.067
-700.529	72.380	-0.186	0.193
-699.514	-1.781	0.208	0.146
-698.499	63.288	0.124	0.124
-697.485	-113.354	-0.373	-0.073
-696.470	129.309	0.170	-0.217
-695.456	-32.622	0.069	-0.038
-694.441	270.162	-0.018	0.032
-693.426	-129.327	0.168	-0.023
-692.412	-17.408	-0.230	0.144
-691.397	-100.010	-0.227	0.056
-690.383	83.480	-0.066	-0.072
-689.368	-165.653	0.219	0.009
-688.354	-21.972	-0.061	0.037
-687.339	-149.890	0.268	-0.021
-686.324	-19.257	0.086	-0.053
-685.310	194.542	0.058	0.088
-684.295	-53.604	0.339	0.154
-683.281	-200.000	-0.020	-0.092
-682.266	-73.566	-0.233	-0.085
-681.251	-200.000	-0.021	0.148
-680.237	324.020	-0.119	-0.227
-679.222	711.539	0.124	0.328
-678.208	800.000	-0.041	0.136
-677.193	-99.349	-0.020	-0.005
-676.178	-123.594	-0.151	0.024
-675.164	647.005	-0.154	0.392
-674.149	800.000	-0.061	0.206
-673.135	-200.000	0.006	0.036
-672.120	-200.000	0.012	-0.226
-671.105	293.585	0.064	-0.116
-670.091	-112.193	-0.438	-0.088
-669.076	-130.229	-0.091	0.012
-668.062	44.588	-0.178	-0.163
-667.047	30.811	0.176	0.150
-666.032	15.949	0.126	-0.099
-665.018	236.360	-0.076	-0.126
-664.003	-94.618	0.082	-0.022
-662.989	486.807	0.176	0.401
-661.974	-181.310	0.182	-0.004
-660.959	369.287	-0.147	0.297
-659.945	-142.714	0.288	-0.028
-658.930	207.147	-0.061	-0.094
-657.916	-103.186	-0.408	-0.096
-656.901	-110.025	0.487	0.102
-655.886	-200.000	-0.012	-0.092
-654.872	587.007	-0.095	-0.234
-653.857	51.987	-0.050	0.047
-652.843	691.054	0.172	0.448
-651.828	11.799	-0.189	-0.144
-650.814	-65.803	0.217	0.087
-649.799	-200.000	-0.060	-0.602
-648.784	-200.000	0.026	-0.182
-647.770	173.412	-0.250	0.358
-646.755	-183.629	-0.210	-0.004
-645.741	800.000	-0.028	0.085
-644.726	259.510	0.064	0.111
-643.711	-90.235	0.172	-0.050
-642.697	198.949	-0.074	-0.113
-641.682	84.810	0.117	-0.127
-640.668	-124.044	0.150	0.023
-639.653	32.852	-0.144	0.124
-638.638	-84.637	-0.156	0.049
-637.624	35.169	0.068	0.060
-636.609	179.069	-0.127	0.184
-635.595	-172.771	0.244	-0.008
-634.580	165.510	0.129	-0.181
-633.565	-200.000	-0.362	-0.001
-632.551	23.729	0.212	-0.174
-631.536	50.372	-0.214	-0.202
-630.522	-144.005	0.404	0.038
-629.507	142.906	-0.201	-0.266
-628.492	800.000	0.045	-0.191
-627.478	327.096	-0.130	0.247
-626.463	565.814	0.110	-0.266
-625.449	178.390	0.165	0.239
-624.434	660.482	-0.071	0.182
-623.419	-84.658	-0.363	-0.114
-622.405	20.910	-0.134	-0.108
-621.390	-87.034	-0.177	-0.054
-620.376	-200.000	-0.006	-0.293
-619.361	124.556	0.195	-0.245
-618.346	-4.552	-0.011	-0.008
-617.332	156.109	0.092	-0.126
-616.317	1.913	-0.126	0.091
-615.303	800.000	-0.048	-0.183
-614.288	387.455	-0.104	0.214
-613.273	638.769	-0.017	-0.042
-612.259	-27.031	0.189	0.110
-611.244	-105.081	0.334	0.076
-610.230	-131.719	0.175	-0.023
-609.215	-117.581	0.044	-0.008
-608.201	54.142	-0.177	0.169
-607.186	-74.389	0.268	0.096
-606.171	-176.862	-0.142	-0.004
-605.157	-1.416	-0.246	0.172
-604.142	-36.087	-0.110	0.059
-603.128	-95.750	0.146	-0.039
-602.113	-10.988	0.268	-0.176
-601.098	-200.000	0.011	0.125
-600.084	36.584	-0.317	0.278
-599.069	32.578	-0.164	-0.141
-598.055	-88.082	0.254	0.076
-597.040	-37.791	-0.358	0.189
-596.025	-61.088	0.194	-0.081
-595.011	42.920	0.176	-0.159
-593.996	-151.025	-0.451	0.034
-592.982	-100.411	-0.115	-0.028
-591.967	142.181	-0.020	-0.027
-590.952	20.625	-0.090	-0.072
-589.938	-180.798	-0.324	-0.007
-588.923	-31.295	0.315	-0.176
-587.909	-200.000	-0.052	-0.251
-586.894	119.443	-0.082	0.101
-585.879	352.756	0.049	-0.096
-584.865	224.458	0.174	-0.280
-583.850	-114.362	-0.286	-0.055
-582.836	-200.000	-0.027	-0.150
-581.821	-82.600	-0.269	0.086
-580.806	-197.998	0.476	0.003
-579.792	-200.000	-0.000	-0.130
-578.777	800.000	-0.044	0.141
-577.763	149.769	-0.174	-0.234
-576.748	-26.778	-0.149	-0.087
-575.733	-101.597	-0.514	0.124
-574.719	67.799	0.251	-0.255
-573.704	137.596	0.049	0.064
-572.690	63.309	-0.321	0.319
-571.675	-101.191	0.234	0.057
-570.661	-128.221	0.212	0.030
-569.646	-127.724	0.083	-0.012
-568.631	-142.023	-0.374	-0.037
-567.617	-60.103	0.353	-0.150
-566.602	-159.514	-0.056	0.003
-565.588	-85.428	-0.046	-0.014
-564.573	506.307	-0.007	-0.017
-563.558	-23.313	-0.226	0.135
-562.544	-13.562	0.275	-0.177
-561.529	92.210	-0.208	-0.232
-560.515	-101.352	0.221	-0.053
-559.500	-85.736	0.408	0.126
-558.485	219.245	0.335	0.531
-557.471	478.654	-0.054	-0.121
-556.456	-7.136	0.372	0.251
-555.442	87.246	-0.078	0.085
-554.427	486.307	0.090	-0.203
-553.412	-138.028	-0.317	0.035
-552.398	-22.309	-0.180	-0.108
-551.383	113.947	0.076	-0.091
-550.369	-93.581	0.103	0.028
-549.354	-123.930	-0.071	0.011
-548.339	272.555	-0.069	0.120
-547.325	-67.955	0.200	-0.077
-546.310	-150.672	-0.387	-0.029
-545.296	55.683	0.226	-0.218
-544.281	-117.049	0.109	0.020
-543.266	800.000	-0.129	-0.373
-542.252	-200.000	-0.010	0.070
-541.237	357.201	0.203	0.401
-540.223	226.416	0.080	0.129
-539.208	-200.000	0.019	0.170
-538.193	-117.264	0.259	-0.047
-537.179	249.025	0.079	0.132
-536.164	-111.820	-0.354	0.071
-535.150	-200.000	-0.037	0.319
-534.135	800.000	0.142	0.414
-533.121	-23.487	-0.167	0.100
-532.106	152.758	-0.047	0.064
-531.091	-200.000	0.111	-0.540
-530.077	-200.000	0.018	-0.261
-529.062	-200.000	-0.021	0.162
-528.048	-200.000	0.021	0.425
-527.033	20.191	0.097	-0.078
-526.018	-30.376	-0.277	0.156
-525.004	106.226	0.124	0.145
-523.989	-110.525	-0.424	-0.087
-522.975	-44.355	-0.321	0.159
-521.960	-200.000	0.009	-0.051
-520.945	159.303	0.060	-0.083
-519.931	259.762	-0.043	0.073
-518.916	206.022	-0.043	-0.066
-517.902	4.626	-0.145	0.105
-516.887	-155.444	0.310	0.020
-515.872	391.571	0.065	0.134
-514.858	-200.000	-0.017	0.339
-513.843	-200.000	-0.018	0.271
-512.829	800.000	-0.094	-0.310
-511.814	800.000	-0.042	-0.166
-510.799	758.293	0.125	-0.337
-509.785	571.675	-0.054	0.129
-508.770	569.809	0.187	0.451
-507.756	-200.000	0.012	0.117
-506.741	132.973	-0.279	-0.356
-505.726	-133.697	0.332	0.041
-504.712	800.000	0.071	0.197
-503.697	-145.436	-0.338	-0.030
-502.683	-123.769	0.139	0.022
-501.668	4.450	0.294	-0.213
-500.653	-200.000	-0.001	0.117
-499.639	-191.662	-0.288	-0.003
-498.624	8.299	0.192	0.143
-497.610	-120.454	0.365	0.061
-496.595	-47.422	-0.243	0.117
-495.581	-66.256	0.030	0.012
-494.566	-91.129	-0.125	-0.036
-493.551	-99.661	-0.254	-0.063
-492.537	6.372	-0.103	0.076
-491.522	708.755	0.037	0.097
-490.508	763.529	-0.032	-0.087
-489.493	800.000	-0.069	-0.217
-488.478	188.441	0.152	-0.225
-487.464	67.828	0.117	0.118
-486.449	-107.206	0.083	0.018
-485.435	-88.391	0.212	0.063
-484.420	-73.264	-0.243	-0.088
-483.405	-38.472	0.301	0.157
-482.391	72.143	-0.213	0.219
-481.376	-119.693	-0.186	-0.032
-480.362	-200.000	0.031	0.211
-479.347	-69.325	-0.398	-0.151
-478.332	63.239	-0.098	-0.098
-477.318	-200.000	-0.008	-0.149
-476.303	48.018	0.098	-0.090
-475.289	141.149	0.173	0.227
-474.274	800.000	0.078	0.302
-473.259	-27.917	-0.234	0.134
-472.245	278.802	-0.113	-0.198
-471.230	-100.297	-0.244	-0.060
-470.216	-20.149	0.276	-0.168
-469.201	374.679	-0.071	0.143
-468.186	206.705	0.137	0.212
-467.172	-106.605	-0.273	-0.060
-466.157	-200.000	0.065	-0.317
-465.143	-137.610	0.131	-0.015
-464.128	650.306	-0.147	-0.371
-463.113	-86.838	0.232	-0.070
-462.099	42.169	0.178	-0.160
-461.084	-200.000	-0.016	-0.186
-460.070	-200.000	0.011	0.212
-459.055	547.464	-0.045	-0.106
-458.040	-75.222	0.178	0.063
-457.026	175.490	0.047	0.067
-456.011	190.777	-0.127	-0.189
-454.997	223.126	0.213	-0.339
-453.982	800.000	-0.032	-0.097
-452.968	-200.000	-0.045	0.235
-451.953	-57.133	-0.076	0.033
-450.938	216.533	-0.207	-0.326
-449.924	-37.292	-0.099	-0.052
-448.909	21.186	0.137	0.110
-447.895	122.899	0.225	0.278
-446.880	135.580	0.096	0.123
-445.865	800.000	-0.061	-0.168
-444.851	106.390	-0.250	0.293
-443.836	800.000	0.062	-0.190
-442.822	-55.807	-0.349	0.154
-441.807	800.000	0.030	-0.124
-440.792	-115.751	0.028	0.005
-439.778	180.252	-0.085	0.123
-438.763	90.154	0.131	0.145
-437.749	-69.286	0.351	0.133
-436.734	-30.153	-0.021	0.012
-435.719	-156.829	-0.086	-0.005
-434.705	-200.000	-0.030	0.468
-433.690	-200.000	-0.017	0.266
-432.676	64.676	0.277	0.276
-431.661	-101.934	0.108	0.026
-430.646	-200.000	-0.004	0.142
-429.632	0.590	-0.113	-0.080
-428.617	800.000	0.046	-0.177
-427.603	773.700	0.206	-0.555
-426.588	-115.473	0.118	0.022
-425.573	800.000	0.142	0.521
-424.559	-200.000	-0.105	-0.000
-423.544	-58.552	0.132	-0.057
-422.530	-38.793	-0.268	0.139
-421.515	218.205	-0.186	0.292
-420.500	52.934	-0.244	0.231
-419.486	-103.102	-0.173	-0.040
-418.471	30.863	0.269	-0.227
-417.457	-200.000	0.024	-0.114
-416.442	800.000	0.077	0.275
-415.428	-141.303	0.433	-0.043
-414.413	-200.000	0.004	-0.045
-413.398	-68.080	-0.211	0.081
-412.384	-200.000	-0.002	-0.216
-411.369	274.963	0.056	0.098
-410.355	469.585	0.126	0.279
-409.340	577.349	0.143	0.345
-408.325	-198.163	0.152	0.001
-407.311	-42.527	-0.108	0.054
-406.296	-65.383	-0.245	-0.097
-405.282	-82.688	-0.223	-0.071
-404.267	2.565	0.037	-0.026
-403.252	-200.000	-0.044	0.237
-402.238	-200.000	-0.013	-0.253
-401.223	800.000	-0.071	-0.244
-400.209	-93.727	-0.273	-0.074
-399.194	-200.000	0.066	-0.534
-398.179	-160.247	0.559	0.030
-397.165	-8.803	-0.241	-0.159
-396.150	-119.925	-0.156	0.026
-395.136	27.381	0.164	0.136
-394.121	557.504	0.027	-0.063
-393.106	-108.208	-0.226	-0.048
-392.092	16.680	-0.252	-0.197
-391.077	-115.734	0.398	-0.074
-390.063	-12.331	-0.189	0.122
-389.048	230.132	0.078	-0.126
-388.033	-163.984	-0.217	0.010
-387.019	-200.000	0.004	0.060
-386.004	-200.000	0.002	-0.023
-384.990	800.000	-0.046	0.188
-383.975	-194.693	-0.116	-0.001
-382.960	172.389	0.085	-0.121
-381.946	115.205	-0.181	0.218
-380.931	-52.445	0.207	0.094
-379.917	544.284	-0.138	0.325
-378.902	-200.000	0.026	0.306
-377.888	226.257	0.067	0.107
-376.873	27.389	0.198	-0.164
-375.858	-41.522	-0.301	-0.152
-374.844	-99.349	0.285	-0.071
-373.829	-200.000	0.026	-0.244
-372.815	2.574	0.169	0.121
-371.800	-81.413	0.177	0.058
-370.785	62.098	-0.234	0.230
-369.771	-54.122	0.314	0.141
-368.756	369.519	0.077	0.154
-367.742	800.000	0.121	0.357
-366.727	-53.723	-0.105	0.047
-365.712	-118.824	0.124	0.021
-364.698	-200.000	-0.035	0.174
-363.683	604.559	-0.047	0.115
-362.669	-200.000	0.036	0.191
-361.654	238.321	0.084	-0.138
-360.639	81.135	-0.106	-0.113
-359.625	177.515	0.048	0.069
-358.610	-200.000	0.021	-0.203
-357.596	-200.000	-0.015	-0.169
-356.581	-113.328	0.314	-0.061
-355.566	-13.665	-0.155	0.099
-354.552	-128.780	0.397	0.055
-353.537	-71.242	-0.286	-0.106
-352.523	75.207	-0.027	0.028
-351.508	8.237	0.291	0.215
-350.493	93.730	0.029	0.033
-349.479	-200.000	0.050	-0.217
-348.464	-192.129	0.128	-0.001
-347.450	-76.377	-0.164	-0.057
-346.435	-200.000	-0.021	-0.193
-345.420	-113.658	0.131	0.025
-344.406	-72.094	0.194	-0.071
-343.391	312.402	-0.112	-0.207
-342.377	20.179	-0.377	0.299
-341.362	-200.000	0.039	-0.257
-340.348	800.000	0.061	0.198
-339.333	-121.497	0.026	-0.004
-338.318	-200.000	-0.040	-0.177
-337.304	475.884	0.089	-0.198
-336.289	94.338	0.220	-0.245
-335.275	-200.000	0.000	-0.118
-334.260	-200.000	0.031	-0.224
-333.245	549.659	0.072	-0.170
-332.231	-81.642	0.235	0.076
-331.216	-126.460	-0.366	-0.054
-330.202	242.547	-0.187	0.308
-329.187	-131.291	-0.291	0.038
-328.172	-40.307	-0.486	0.249
-327.158	-172.615	0.143	0.004
-326.143	675.604	0.052	0.133
-325.129	657.904	-0.051	-0.130
-324.114	-200.000	0.002	-0.117
-323.099	-200.000	-0.045	-0.275
-322.085	17.530	-0.188	0.147
-321.070	150.118	0.250	0.333
-320.056	-50.731	0.174	-0.081
-319.041	-90.768	-0.064	-0.018
-318.026	167.707	-0.151	-0.211
-317.012	0.365	0.321	0.225
-315.997	17.304	0.188	-0.147
-314.983	-200.000	-0.027	-0.157
-313.968	169.699	-0.158	-0.222
-312.953	658.436	0.061	0.154
-311.939	29.538	0.248	0.208
-310.924	-200.000	-0.006	-0.226
-309.910	-200.000	0.019	0.094
-308.895	800.000	0.100	0.328
-307.880	-24.409	0.170	0.100
-306.866	-37.377	-0.233	0.122
-305.851	-78.835	-0.309	-0.104
-304.837	-172.431	0.257	-0.008
-303.822	800.000	-0.027	-0.114
-302.807	800.000	-0.100	0.317
-301.793	37.473	-0.218	0.189
-300.778	545.463	0.118	-0.276
-299.764	-31.718	0.028	0.016
-298.749	-77.172	0.211	-0.072
-297.735	-1.351	-0.077	0.054
-296.720	-76.407	-0.192	-0.066
-295.705	800.000	-0.025	0.098
-294.691	-42.603	0.203	0.102
-293.676	158.585	0.032	-0.043
-292.662	-112.659	0.273	-0.053
-291.647	-200.000	0.004	-0.096
-290.632	-200.000	0.016	-0.167
-289.618	-200.000	-0.078	0.420
-288.603	-20.057	-0.114	0.069
-287.589	-200.000	-0.018	0.177
-286.574	-89.662	0.089	0.026
-285.559	60.258	-0.361	-0.351
-284.545	-86.198	-0.184	0.056
-283.530	-41.278	0.182	0.092
-282.516	223.244	0.074	-0.117
-281.501	800.000	0.037	-0.140
-280.486	-63.407	-0.165	0.067
-279.472	-157.559	-0.301	-0.018
-278.457	111.689	0.175	0.207
-277.443	432.287	0.121	0.258
-276.428	-104.363	-0.104	0.024
-275.413	-12.363	0.326	-0.209
-274.399	407.826	0.170	0.352
-273.384	-200.000	0.009	0.252
-272.370	-37.427	0.276	-0.144
-271.355	-34.923	0.310	-0.166
-270.340	235.842	0.166	-0.270
-269.326	290.529	-0.082	0.147
-268.311	-7.219	-0.080	0.053
-267.297	-200.000	-0.016	-0.105
-266.282	-200.000	-0.027	0.184
-265.267	-126.623	0.110	-0.016
-264.253	-200.000	-0.007	0.056
-263.238	75.081	-0.262	-0.271
-262.224	-137.138	-0.228	-0.026
-261.209	-200.000	-0.028	-0.369
-260.195	-200.000	0.054	-0.438
-259.180	33.377	0.246	-0.210
-258.165	-83.156	0.071	-0.022
-257.151	145.538	-0.176	0.231
-256.136	-200.000	-0.052	-0.309
-255.122	-200.000	0.029	-0.256
-254.107	176.898	0.126	-0.180
-253.092	-25.846	-0.104	0.060
-252.078	-132.071	-0.203	0.026
-251.063	-161.192	0.235	0.012
-250.049	-124.742	0.175	0.027
-249.034	124.424	-0.188	0.232
-248.019	536.571	-0.115	-0.267
-247.005	-60.814	0.131	0.054
-245.990	-165.517	0.198	-0.008
-244.976	95.504	0.090	0.101
-243.961	168.531	-0.260	0.363
-242.946	-118.141	0.352	0.062
-241.932	59.605	0.087	-0.085
-240.917	800.000	-0.062	-0.256
-239.903	-87.789	-0.172	0.051
-238.888	-105.943	-0.287	-0.063
-237.873	800.000	0.044	-0.147
-236.859	-200.000	-0.008	-0.071
-235.844	800.000	0.056	-0.202
-234.830	-107.086	-0.551	0.119
-233.815	-146.317	0.339	-0.029
-232.800	386.379	0.057	0.115
-231.786	-161.738	0.143	-0.007
-230.771	233.205	-0.059	-0.094
-229.757	-163.528	-0.122	-0.006
-228.742	800.000	-0.155	0.471
-227.727	73.698	0.079	0.082
-226.713	106.657	0.152	-0.177
-225.698	-148.152	-0.134	-0.011
-224.684	411.800	0.065	0.135
-223.669	800.000	-0.058	-0.186
-222.655	191.586	-0.144	-0.212
-221.640	-65.656	-0.123	-0.048
-220.625	800.000	-0.007	-0.024
-219.611	-200.000	0.015	0.127
-218.596	-200.000	0.031	0.225
-217.582	198.692	-0.031	0.047
-216.567	-63.090	-0.256	0.103
-215.552	66.090	0.107	-0.106
-214.538	154.155	-0.201	-0.270
-213.523	-200.000	-0.008	0.122
-212.509	69.240	0.083	0.084
-211.494	481.741	-0.095	0.211
-210.479	-13.434	-0.089	0.056
-209.465	-38.170	-0.350	0.182
-208.450	-147.635	-0.151	0.012
-207.436	214.012	-0.200	-0.310
-206.421	456.888	0.125	0.272
-205.406	-38.678	-0.081	-0.042
-204.392	45.264	-0.152	-0.137
-203.377	186.576	-0.159	0.232
-202.363	76.642	-0.149	0.155
-201.348	48.682	0.186	0.171
-200.333	-200.000	0.019	-0.131
-199.319	328.196	0.181	-0.340
-198.304	50.272	0.231	-0.213
-197.290	27.376	0.286	-0.235
-196.275	147.859	-0.069	0.091
-195.260	-98.698	0.082	-0.020
-194.246	-42.362	-0.142	-0.071
-193.231	42.542	0.250	-0.223
-192.217	-200.000	-0.023	-0.205
-191.202	577.399	0.176	-0.420
-190.187	-56.199	-0.214	-0.093
-189.173	-116.437	-0.163	-0.030
-188.158	-129.549	0.324	-0.044
-187.144	-96.071	-0.150	-0.039
-186.129	800.000	0.081	0.246
-185.114	135.669	-0.104	-0.132
-184.100	800.000	0.093	0.297
-183.085	440.595	-0.128	0.274
-182.071	78.436	0.113	0.118
-181.056	25.206	0.027	-0.022
-180.042	-200.000	-0.309	-0.001
-179.027	54.075	0.198	-0.186
-178.012	357.997	0.127	-0.249
-176.998	-156.312	-0.075	-0.005
-175.983	800.000	0.065	-0.232
-174.969	63.169	0.278	-0.272
-173.954	159.736	0.069	0.093
-172.939	394.865	-0.106	-0.217
-171.925	-24.568	-0.163	0.095
-170.910	159.531	0.186	0.253
-169.896	53.985	-0.367	0.345
-168.881	-200.000	-0.001	-0.539
-167.866	-3.786	-0.238	0.161
-166.852	581.845	0.051	-0.123
-165.837	800.000	0.087	-0.252
-164.823	-200.000	-0.063	0.394
-163.808	-56.193	-0.295	-0.128
-162.793	-200.000	-0.016	0.111
-161.779	-112.420	0.282	0.055
-160.764	10.633	0.213	0.159
-159.750	9.607	-0.176	-0.130
-158.735	-161.605	0.089	-0.004
-157.720	-134.450	0.480	0.057
-156.706	581.464	-0.087	0.208
-155.691	121.580	-0.053	-0.065
-154.677	-200.000	-0.013	0.206
-153.662	122.487	0.169	-0.207
-152.647	-122.106	-0.162	-0.026
-151.633	1.463	0.224	0.157
-150.618	800.000	-0.033	-0.106
-149.604	292.531	0.053	-0.094
-148.589	9.104	0.190	-0.140
-147.574	-200.000	-0.030	-0.145
-146.560	-200.000	0.056	0.402
-145.545	-96.449	-0.202	0.052
-144.531	-64.326	-0.355	0.141
-143.516	-200.000	-0.004	-0.181
-142.502	13.016	0.343	0.259
-141.487	-200.000	0.043	0.233
-140.472	729.074	0.061	0.159
-139.458	-200.000	0.014	-0.107
-138.443	-118.897	0.265	-0.045
-137.429	13.970	-0.259	-0.197
-136.414	753.324	-0.119	-0.315
-135.399	-18.505	-0.152	-0.093
-134.385	-52.166	-0.330	0.149
-133.370	-200.000	0.018	0.120
-132.356	800.000	-0.028	-0.088
-131.341	-130.047	-0.280	-0.037
-130.326	2.692	-0.349	0.247
-129.312	-200.000	0.040	0.214
-128.297	-12.771	0.120	-0.077
-127.283	-60.079	0.087	0.036
-126.268	252.402	0.192	0.319
-125.253	-29.181	0.314	-0.175
-124.239	-133.382	0.198	-0.024
-123.224	-120.166	0.219	0.036
-122.210	-60.535	0.206	-0.085
