DTS Sentinel unit serial number:	SN413079Multiplexer serial number:	ORYXHardware model number:	OX4-SRSoftware version number:	ORYX F/W v4.00 Oryx Data Collector v3.7.2.0data status	okinstallation	princeton_trtdifferential loss correction	single-endedforward channel	channel 2reverse channel	N/Adate	2019/09/12time	15:17:11forward acquisition time	60.00reverse acquisition time	0.00gamma	496.2192k internal	0.2299k external	0.2299temperature offset calibration	1.0089default loss term (dB/km)	0.3790temperature slope calibration	1.0000multiplexer offset coefficient	1.0000multiplexer slope coefficient	1.0000fibre end	0.00T internal ref (°C)	40.75T ext. ref 1 (°C)	2.39T ext. ref 2 (°C)	37.75length (m)	temperature (°C)	Stokes	anti-Stokes-747.200	-55.220	-0.240	-0.110
-746.185	-105.587	0.443	0.103
-745.171	88.861	0.056	0.064
-744.156	321.621	0.137	0.266
-743.142	163.932	0.072	-0.103
-742.127	-15.829	-0.082	-0.053
-741.112	800.000	-0.111	-0.417
-740.098	642.977	0.013	0.034
-739.083	-29.358	-0.253	-0.148
-738.069	-75.633	0.175	0.064
-737.054	800.000	-0.049	0.214
-736.039	-200.000	-0.011	-0.077
-735.025	-19.682	-0.096	0.060
-734.010	43.285	-0.192	0.179
-732.996	165.252	-0.104	-0.150
-731.981	-96.603	-0.319	0.086
-730.966	-200.000	0.005	-0.508
-729.952	-200.000	-0.051	-0.250
-728.937	-200.000	-0.086	-0.405
-727.923	15.803	-0.228	-0.183
-726.908	117.811	-0.175	0.220
-725.894	-147.389	-0.222	0.019
-724.879	-38.395	0.164	0.088
-723.864	-75.852	0.272	-0.098
-722.850	-200.000	-0.058	0.326
-721.835	509.892	0.064	-0.151
-720.821	8.989	-0.246	-0.189
-719.806	-200.000	0.012	-0.457
-718.791	87.614	-0.045	0.050
-717.777	681.181	0.084	-0.224
-716.762	-77.760	0.111	-0.039
-715.748	-3.430	0.240	-0.170
-714.733	-133.808	-0.184	0.023
-713.718	-133.315	-0.103	-0.013
-712.704	-145.767	-0.303	-0.028
-711.689	-200.000	0.076	-0.385
-710.675	390.412	0.181	-0.384
-709.660	-91.288	-0.224	-0.065
-708.645	-111.545	0.167	0.035
-707.631	23.834	-0.350	-0.294
-706.616	-109.190	-0.132	-0.029
-705.602	-151.605	0.085	-0.006
-704.587	-51.298	0.053	-0.025
-703.572	139.920	-0.016	-0.022
-702.558	37.291	-0.150	0.135
-701.543	-179.579	0.323	-0.007
-700.529	-200.000	-0.016	-0.277
-699.514	243.790	-0.079	0.134
-698.499	29.984	0.082	0.071
-697.485	-115.474	-0.232	-0.045
-696.470	254.595	0.053	0.092
-695.456	304.721	0.123	-0.233
-694.441	-101.729	-0.173	0.043
-693.426	33.439	-0.259	-0.229
-692.412	273.350	-0.112	-0.202
-691.397	60.477	-0.190	0.191
-690.383	-65.773	0.121	-0.049
-689.368	20.966	-0.089	0.073
-688.354	492.181	-0.096	-0.224
-687.339	-84.449	-0.072	0.023
-686.324	665.356	-0.109	-0.287
-685.310	256.828	-0.047	0.083
-684.295	-184.736	-0.423	-0.007
-683.281	-4.365	-0.045	0.032
-682.266	405.827	0.084	-0.180
-681.251	-42.026	0.129	0.067
-680.237	180.303	0.097	0.146
-679.222	-103.579	0.101	-0.024
-678.208	121.219	0.103	-0.130
-677.193	83.081	-0.188	0.209
-676.178	-162.479	-0.175	0.009
-675.164	162.741	0.090	0.129
-674.149	-131.588	-0.297	-0.040
-673.135	-40.019	0.257	-0.136
-672.120	139.761	-0.088	-0.118
-671.105	-144.694	0.195	-0.018
-670.091	10.730	0.036	-0.028
-669.076	-200.000	-0.032	0.313
-668.062	-47.004	0.057	-0.029
-667.047	-43.702	0.361	-0.185
-666.032	-89.236	0.184	-0.055
-665.018	115.495	0.200	-0.249
-664.003	800.000	0.069	-0.199
-662.989	-98.434	-0.295	-0.077
-661.974	-13.178	-0.339	-0.224
-660.959	214.268	-0.152	0.245
-659.945	70.860	0.076	0.080
-658.930	-200.000	-0.007	-0.099
-657.916	-200.000	0.000	-0.066
-656.901	59.013	0.091	0.091
-655.886	-200.000	0.025	-0.275
-654.872	366.049	-0.009	-0.018
-653.857	-117.303	-0.109	-0.020
-652.843	800.000	-0.015	-0.050
-651.828	800.000	0.062	0.221
-650.814	-3.449	-0.097	-0.069
-649.799	-200.000	0.020	-0.307
-648.784	-200.000	-0.018	-0.316
-647.770	-200.000	0.012	0.267
-646.755	800.000	-0.071	-0.275
-645.741	155.626	0.109	-0.152
-644.726	-200.000	0.025	0.118
-643.711	563.769	0.116	-0.287
-642.697	-35.359	0.168	-0.093
-641.682	26.656	0.030	-0.025
-640.668	123.763	-0.061	0.078
-639.653	800.000	0.025	0.070
-638.638	-25.435	0.042	-0.025
-637.624	0.107	-0.119	-0.086
-636.609	621.770	0.052	0.134
-635.595	628.435	0.127	-0.325
-634.580	800.000	-0.044	-0.190
-633.565	-26.549	0.177	0.105
-632.551	182.034	0.084	0.126
-631.536	36.949	-0.258	-0.232
-630.522	-126.522	-0.463	-0.070
-629.507	-39.738	0.258	-0.137
-628.492	-200.000	-0.008	-0.328
-627.478	-67.904	-0.123	-0.049
-626.463	258.990	0.230	0.402
-625.449	-169.322	0.248	-0.009
-624.434	68.555	-0.063	-0.065
-623.419	575.696	-0.030	-0.075
-622.405	800.000	0.114	-0.350
-621.390	112.699	0.176	-0.216
-620.376	-50.793	0.094	0.045
-619.361	106.763	0.056	0.067
-618.346	-200.000	-0.043	-0.292
-617.332	789.536	-0.036	0.102
-616.317	289.685	-0.086	0.158
-615.303	-14.169	0.147	0.096
-614.288	2.324	0.382	-0.280
-613.273	529.976	0.050	0.120
-612.259	-96.257	-0.215	-0.058
-611.244	800.000	0.036	0.132
-610.230	-104.275	0.133	0.031
-609.215	475.685	-0.193	-0.443
-608.201	176.715	0.019	-0.028
-607.186	800.000	0.037	-0.112
-606.171	-79.984	-0.260	-0.089
-605.157	-25.401	-0.365	0.219
-604.142	-200.000	-0.014	-0.072
-603.128	48.962	0.113	0.107
-602.113	-88.967	-0.179	-0.054
-601.098	-47.799	-0.116	-0.057
-600.084	224.201	0.133	0.218
-599.069	-59.649	-0.124	0.054
-598.055	-200.000	0.013	-0.210
-597.040	-200.000	-0.010	-0.105
-596.025	53.077	-0.126	-0.123
-595.011	396.988	0.115	0.243
-593.996	-52.545	0.318	-0.149
-592.982	66.820	0.114	-0.117
-591.967	-200.000	0.005	-0.263
-590.952	-200.000	0.053	-0.470
-589.938	448.329	0.040	-0.090
-588.923	23.618	-0.114	-0.096
-587.909	553.024	0.048	-0.118
-586.894	-200.000	-0.004	0.148
-585.879	-200.000	-0.023	-0.339
-584.865	800.000	0.053	-0.226
-583.850	55.490	-0.248	-0.244
-582.836	-140.794	-0.080	0.008
-581.821	-147.145	-0.203	0.018
-580.806	-115.852	-0.217	-0.041
-579.792	-200.000	-0.055	-0.279
-578.777	-134.790	0.209	-0.026
-577.763	-200.000	-0.062	0.287
-576.748	500.237	0.048	-0.112
-575.733	-200.000	-0.058	0.318
-574.719	-200.000	0.028	-0.309
-573.704	-23.197	0.196	-0.120
-572.690	-20.091	-0.188	0.118
-571.675	-192.083	-0.176	0.002
-570.661	-69.778	-0.035	-0.014
-569.646	-200.000	-0.027	-0.220
-568.631	-182.570	-0.315	-0.006
-567.617	758.861	0.060	0.164
-566.602	46.078	0.096	-0.090
-565.588	-114.533	0.098	-0.019
-564.573	-200.000	0.017	-0.267
-563.558	692.681	0.078	-0.207
-562.544	800.000	-0.006	0.019
-561.529	-46.086	-0.152	0.076
-560.515	-29.087	0.206	-0.120
-559.500	-152.624	-0.278	0.020
-558.485	-124.001	-0.310	0.049
-557.471	117.646	0.189	0.236
-556.456	800.000	0.038	0.163
-555.442	338.415	-0.026	0.051
-554.427	-160.311	0.066	-0.004
-553.412	800.000	-0.056	-0.187
-552.398	226.429	-0.135	0.222
-551.383	-130.920	-0.268	0.036
-550.369	125.867	-0.099	0.127
-549.354	-93.625	0.049	-0.014
-548.339	-200.000	0.027	-0.140
-547.325	-200.000	0.056	-0.342
-546.310	27.636	0.102	-0.087
-545.296	266.063	-0.227	0.402
-544.281	-200.000	0.029	0.144
-543.266	270.799	0.124	0.222
-542.252	-83.306	-0.125	0.041
-541.237	800.000	0.045	0.188
-540.223	-133.786	0.139	0.018
-539.208	-104.594	0.129	0.030
-538.193	-128.906	0.078	0.011
-537.179	-147.741	-0.181	-0.015
-536.164	800.000	-0.069	-0.259
-535.150	800.000	0.089	-0.330
-534.135	-105.707	0.195	0.045
-533.121	20.168	-0.208	-0.170
-532.106	-151.820	-0.402	-0.030
-531.091	-198.508	-0.170	0.001
-530.077	686.387	-0.054	-0.143
-529.062	-139.242	0.266	-0.029
-528.048	23.770	-0.108	-0.090
-527.033	800.000	-0.079	0.240
-526.018	70.316	-0.188	0.197
-525.004	143.659	0.162	0.218
-523.989	-24.218	-0.198	-0.120
-522.975	-144.062	0.254	0.024
-521.960	-79.465	0.057	-0.019
-520.945	-200.000	-0.071	0.362
-519.931	229.622	-0.073	-0.121
-518.916	-200.000	-0.070	0.420
-517.902	-118.471	-0.294	0.053
-516.887	-18.782	-0.247	-0.156
-515.872	23.284	-0.166	-0.138
-514.858	229.411	0.165	0.272
-513.843	423.755	0.116	-0.253
-512.829	128.182	0.143	-0.184
-511.814	-200.000	0.022	0.244
-510.799	131.377	-0.149	-0.194
-509.785	-48.316	-0.218	0.106
-508.770	-122.551	-0.258	0.042
-507.756	59.444	-0.052	0.052
-506.741	-200.000	-0.014	-0.293
-505.726	126.831	0.212	-0.272
-504.712	91.556	0.142	0.161
-503.697	63.596	0.140	-0.142
-502.683	-200.000	0.001	0.419
-501.668	-2.510	-0.419	-0.297
-500.653	800.000	0.062	-0.266
-499.639	740.220	-0.064	0.173
-498.624	41.291	0.096	-0.088
-497.610	51.956	-0.128	0.123
-496.595	-110.684	-0.339	-0.071
-495.581	40.546	-0.059	-0.053
-494.566	-103.849	0.048	0.011
-493.551	92.377	0.112	0.128
-492.537	-200.000	-0.003	0.152
-491.522	789.858	-0.044	0.121
-490.508	-99.706	0.113	0.029
-489.493	25.311	-0.255	-0.214
-488.478	-48.154	-0.239	-0.117
-487.464	461.087	-0.139	-0.314
-486.449	476.358	-0.055	0.126
-485.435	439.993	0.086	-0.191
-484.420	-106.670	-0.192	-0.043
-483.405	-200.000	0.013	-0.492
-482.391	-200.000	0.004	0.176
-481.376	67.172	-0.048	-0.049
-480.362	800.000	0.065	-0.234
-479.347	-200.000	-0.001	0.171
-478.332	-200.000	-0.031	-0.144
-477.318	39.241	-0.261	0.236
-476.303	245.894	-0.086	-0.147
-475.289	177.224	0.054	0.080
-474.274	79.335	-0.204	-0.220
-473.259	-97.468	-0.443	-0.116
-472.245	33.531	-0.394	-0.345
-471.230	40.082	0.154	0.139
-470.216	800.000	-0.046	-0.133
-469.201	-200.000	0.033	-0.214
-468.186	82.301	0.104	-0.114
-467.172	-108.479	0.130	-0.028
-466.157	-98.014	-0.079	-0.021
-465.143	241.663	-0.098	-0.165
-464.128	198.653	0.045	0.070
-463.113	4.537	0.317	-0.235
-462.099	365.064	0.096	0.195
-461.084	800.000	-0.131	0.372
-460.070	66.080	0.094	0.096
-459.055	-200.000	0.050	0.376
-458.040	281.860	-0.124	0.224
-457.026	-68.356	-0.367	-0.144
-456.011	303.294	0.142	-0.266
-454.997	-105.053	-0.131	-0.030
-453.982	-47.609	-0.224	0.110
-452.968	-34.935	-0.006	-0.003
-451.953	49.553	0.222	0.211
-450.938	-200.000	-0.050	-0.409
-449.924	-2.401	-0.067	0.048
-448.909	-37.706	0.471	0.253
-447.895	239.436	0.182	0.306
-446.880	327.802	0.028	-0.054
-445.865	-200.000	-0.003	0.294
-444.851	1.173	-0.144	-0.104
-443.836	-152.985	-0.285	0.020
-442.822	-125.445	-0.172	-0.026
-441.807	110.679	0.179	0.217
-440.792	115.742	-0.060	0.074
-439.778	-112.675	0.033	-0.007
-438.763	-88.973	0.301	-0.090
-437.749	800.000	0.061	-0.207
-436.734	-140.474	-0.056	-0.006
-435.719	-117.169	0.240	0.044
-434.705	-27.336	0.164	-0.096
-433.690	-13.096	0.271	-0.177
-432.676	-158.395	0.245	0.014
-431.661	-115.478	-0.376	0.071
-430.646	-157.913	0.432	0.026
-429.632	69.050	0.096	0.099
-428.617	94.834	0.226	0.259
-427.603	99.872	0.169	-0.197
-426.588	-15.961	0.220	-0.141
-425.573	116.323	-0.231	0.285
-424.559	-98.621	-0.218	0.056
-423.544	237.194	0.134	-0.224
-422.530	69.654	-0.184	0.191
-421.515	-45.655	-0.207	-0.103
-420.500	-159.593	-0.190	0.011
-419.486	-88.354	0.242	-0.073
-418.471	-200.000	0.045	-0.408
-417.457	200.771	-0.064	0.099
-416.442	-33.685	0.075	-0.042
-415.428	135.790	0.146	-0.192
-414.413	800.000	0.039	0.120
-413.398	-200.000	-0.011	0.132
-412.384	-20.028	-0.093	0.058
-411.369	17.226	0.168	0.134
-410.355	-200.000	-0.007	-0.251
-409.340	-44.387	-0.219	-0.111
-408.325	-200.000	-0.008	-0.175
-407.311	-106.046	0.172	-0.039
-406.296	101.768	0.121	-0.142
-405.282	116.048	0.216	0.267
-404.267	800.000	0.078	-0.312
-403.252	63.961	-0.374	0.379
-402.238	-200.000	0.020	-0.127
-401.223	574.655	-0.141	-0.347
-400.209	66.769	-0.070	0.072
-399.194	159.609	0.120	0.169
-398.179	-200.000	0.062	-0.422
-397.165	-162.050	-0.186	-0.009
-396.150	-83.550	-0.106	0.034
-395.136	800.000	0.089	0.280
-394.121	9.447	0.232	0.177
-393.106	0.082	0.181	-0.130
-392.092	49.374	-0.121	0.114
-391.077	-200.000	-0.007	0.240
-390.063	714.477	0.138	0.367
-389.048	33.804	0.238	-0.208
-388.033	121.771	0.106	-0.134
-387.019	93.122	0.056	-0.064
-386.004	-200.000	-0.047	0.253
-384.990	-34.291	-0.240	0.133
-383.975	-200.000	0.006	0.154
-382.960	-50.107	0.181	0.086
-381.946	-105.700	0.127	-0.029
-380.931	-200.000	0.011	0.160
-379.917	161.574	0.120	-0.169
-378.902	-80.367	-0.037	0.013
-377.888	-118.469	0.212	-0.038
-376.873	147.234	0.177	-0.239
-375.858	800.000	-0.024	-0.073
-374.844	-57.834	0.177	0.078
-373.829	-36.443	0.239	-0.130
-372.815	-188.682	0.172	-0.002
-371.800	760.670	-0.154	-0.421
-370.785	-172.860	0.177	-0.006
-369.771	800.000	-0.042	0.142
-368.756	98.786	-0.170	-0.197
-367.742	-104.857	0.309	-0.071
-366.727	-131.853	0.062	-0.008
-365.712	-99.686	0.034	0.009
-364.698	636.268	-0.054	-0.139
-363.683	216.179	-0.154	0.246
-362.669	-20.614	0.048	-0.029
-361.654	70.043	-0.231	0.240
-360.639	56.994	-0.098	0.096
-359.625	-82.193	0.235	-0.077
-358.610	-32.368	0.317	-0.178
-357.596	355.740	-0.011	0.022
-356.581	-30.857	0.110	0.062
-355.566	-21.405	-0.109	-0.067
-354.552	-120.007	0.128	-0.022
-353.537	-62.727	0.108	0.045
-352.523	-92.245	0.187	0.053
-351.508	-1.746	0.167	0.118
-350.493	16.320	0.238	0.189
-349.479	-200.000	-0.022	0.178
-348.464	59.421	0.183	-0.181
-347.450	-6.233	0.226	-0.155
-346.435	-80.612	-0.446	0.149
-345.420	51.510	-0.172	0.164
-344.406	-0.376	0.101	-0.072
-343.391	-200.000	-0.004	0.262
-342.377	545.093	0.046	0.111
-341.362	23.562	-0.170	0.140
-340.348	-90.749	0.496	0.144
-339.333	56.816	0.204	0.200
-338.318	800.000	-0.046	-0.134
-337.304	-57.118	0.109	0.048
-336.289	-200.000	-0.013	-0.071
-335.275	-104.941	0.360	-0.083
-334.260	800.000	0.054	0.152
-333.245	-91.476	0.338	-0.097
-332.231	123.052	-0.238	0.300
-331.216	-200.000	-0.062	0.277
-330.202	-52.288	0.123	-0.057
-329.187	-55.376	-0.427	-0.192
-328.172	-122.080	-0.242	-0.040
-327.158	-122.351	-0.176	0.029
-326.143	9.704	0.279	0.213
-325.129	-200.000	-0.008	0.115
-324.114	-82.564	0.092	0.030
-323.099	7.869	0.187	0.141
-322.085	60.756	0.215	-0.214
-321.070	-64.325	0.207	0.085
-320.056	-200.000	-0.012	-0.278
-319.041	-57.596	-0.407	-0.179
-318.026	-200.000	-0.011	-0.077
-317.012	800.000	-0.005	-0.019
-315.997	783.137	0.023	0.064
-314.983	-200.000	0.002	0.413
-313.968	800.000	0.090	-0.265
-312.953	19.155	-0.092	-0.074
-311.939	77.288	-0.110	-0.117
-310.924	-24.072	-0.214	-0.129
-309.910	5.561	0.258	0.191
-308.895	-154.975	-0.194	-0.013
-307.880	553.437	-0.145	0.351
-306.866	504.589	0.098	0.229
-305.851	322.790	-0.035	0.067
-304.837	204.559	0.044	0.069
-303.822	172.311	0.221	-0.319
-302.807	5.972	-0.120	0.089
-301.793	470.833	0.187	-0.422
-300.778	-47.682	-0.132	-0.064
-299.764	-200.000	-0.025	-0.136
-298.749	-200.000	-0.004	0.340
-297.735	-91.350	-0.266	-0.076
-296.720	-177.205	0.217	-0.005
-295.705	-195.865	-0.116	0.001
-294.691	42.009	0.171	0.156
-293.676	131.435	0.043	-0.056
-292.662	-50.765	-0.096	0.045
-291.647	-200.000	0.007	-0.336
-290.632	-200.000	0.011	0.233
-289.618	-91.240	-0.158	0.045
-288.603	-31.321	0.088	-0.050
-287.589	-75.457	0.129	0.046
-286.574	-42.255	-0.253	0.129
-285.559	800.000	-0.025	-0.110
-284.545	-168.592	0.294	0.011
-283.530	-82.239	-0.170	-0.056
-282.516	-175.830	-0.379	-0.010
-281.501	800.000	0.092	-0.354
-280.486	-113.818	-0.182	-0.036
-279.472	314.382	-0.071	0.134
-278.457	800.000	0.127	0.476
-277.443	388.308	-0.060	0.125
-276.428	274.127	-0.148	0.262
-275.413	-200.000	0.038	-0.219
-274.399	-195.645	0.093	0.001
-273.384	12.590	-0.195	-0.151
-272.370	-200.000	-0.011	0.325
-271.355	263.344	0.026	0.046
-270.340	404.944	0.073	0.154
-269.326	53.040	0.201	0.193
-268.311	30.072	0.150	0.128
-267.297	523.400	-0.120	-0.283
-266.282	-35.747	-0.349	-0.189
-265.267	-200.000	0.027	0.227
-264.253	204.343	0.171	0.266
-263.238	499.156	-0.096	0.221
-262.224	-72.664	0.115	-0.043
-261.209	-56.916	-0.291	0.129
-260.195	800.000	0.062	0.184
-259.180	153.679	-0.171	-0.235
-258.165	-133.069	-0.072	0.009
-257.151	-103.495	0.184	0.043
-256.136	119.460	0.045	-0.056
-255.122	135.343	-0.087	-0.113
-254.107	434.699	0.142	0.309
-253.092	159.396	-0.200	-0.278
-252.078	-85.243	0.318	-0.099
-251.063	-52.994	0.305	0.140
-250.049	258.342	-0.023	0.040
-249.034	202.570	0.118	0.182
-248.019	-65.689	0.017	-0.007
-247.005	-126.173	0.152	-0.023
-245.990	-116.406	-0.101	0.019
-244.976	800.000	0.067	0.228
-243.961	-73.014	-0.246	-0.090
-242.946	37.715	-0.041	0.037
-241.932	-157.296	0.290	-0.018
-240.917	-60.278	0.395	0.168
-239.903	-113.273	-0.375	-0.074
-238.888	-200.000	0.032	0.234
-237.873	-56.516	0.189	-0.084
-236.859	73.446	-0.162	0.170
-235.844	800.000	0.122	0.479
-234.830	-200.000	-0.037	-0.202
-233.815	28.310	-0.166	-0.140
-232.800	-100.842	0.351	0.086
-231.786	-191.647	0.439	-0.004
-230.771	-29.654	-0.242	-0.138
-229.757	-0.114	-0.099	-0.071
-228.742	-33.530	0.276	0.153
-227.727	138.176	-0.049	-0.065
-226.713	800.000	-0.069	-0.279
-225.698	547.267	0.032	-0.076
-224.684	-200.000	-0.021	0.100
-223.669	38.125	0.192	-0.171
-222.655	20.168	-0.133	-0.108
-221.640	-167.652	0.249	0.010
-220.625	418.719	-0.105	0.225
-219.611	-200.000	-0.078	-0.343
-218.596	60.457	0.142	0.141
-217.582	45.033	-0.186	0.172
-216.567	-113.796	-0.109	0.021
-215.552	84.104	-0.045	0.049
-214.538	-167.157	-0.280	0.011
-213.523	-200.000	-0.073	0.331
-212.509	-64.269	-0.131	0.053
-211.494	-129.595	-0.124	-0.017
-210.479	-15.881	0.061	-0.039
-209.465	-200.000	-0.033	0.196
-208.450	800.000	0.028	-0.093
-207.436	-113.048	-0.284	0.056
-206.421	-73.947	-0.320	0.116
-205.406	261.174	0.151	0.261
-204.392	599.481	-0.027	0.068
-203.377	-63.688	-0.326	-0.134
-202.363	-102.345	-0.076	0.018
-201.348	-200.000	0.044	0.202
-200.333	221.432	-0.102	0.164
-199.319	-7.362	0.118	0.080
-198.304	800.000	0.075	0.298
-197.290	800.000	-0.072	-0.270
-196.275	-143.935	-0.226	0.021
-195.260	-80.856	-0.082	0.027
-194.246	-47.626	0.085	-0.041
-193.231	-33.462	-0.245	-0.135
-192.217	-132.306	-0.199	-0.026
-191.202	-82.047	0.138	-0.045
-190.187	-200.000	0.073	0.365
-189.173	800.000	0.062	0.221
-188.158	130.423	0.274	0.351
-187.144	-200.000	0.026	0.202
-186.129	-159.174	-0.085	-0.005
-185.114	653.289	-0.080	0.204
-184.100	-72.938	-0.052	0.019
-183.085	800.000	0.066	0.258
-182.071	-200.000	0.066	0.398
-181.056	180.516	-0.112	-0.164
-180.042	800.000	-0.091	0.312
-179.027	0.021	-0.130	0.092
-178.012	431.292	0.073	-0.158
-176.998	-200.000	0.008	-0.085
-175.983	-200.000	-0.025	-0.140
-174.969	-133.836	0.300	-0.037
-173.954	-31.890	0.249	-0.139
-172.939	-200.000	0.035	0.168
-171.925	-63.757	0.055	-0.022
-170.910	42.826	0.242	-0.220
-169.896	170.772	0.051	-0.073
-168.881	800.000	-0.026	-0.086
-167.866	544.241	-0.144	-0.343
-166.852	8.166	0.209	-0.156
-165.837	95.876	-0.331	0.377
-164.823	-114.124	0.076	-0.015
-163.808	-121.248	-0.421	-0.070
-162.793	-3.287	0.150	0.104
-161.779	-149.174	0.231	0.018
-160.764	373.294	-0.201	-0.407
-159.750	800.000	0.043	-0.169
-158.735	-200.000	-0.007	-0.043
-157.720	-148.642	0.214	-0.017
-156.706	-124.019	0.163	0.026
-155.691	506.642	-0.173	0.399
-154.677	-106.754	-0.258	0.057
-153.662	-200.000	-0.003	-0.193
-152.647	143.916	0.221	0.295
-151.633	800.000	-0.046	0.196
-150.618	121.733	-0.084	0.104
-149.604	-56.109	0.320	-0.142
-148.589	-130.503	-0.020	0.003
-147.574	386.602	0.115	0.237
-146.560	800.000	0.042	0.119
-145.545	-115.913	0.210	-0.039
-144.531	-66.696	-0.056	0.022
-143.516	-200.000	-0.017	0.303
-142.502	-200.000	0.062	-0.366
-141.487	112.278	0.128	0.154
-140.472	800.000	-0.141	0.450
-139.458	-5.231	-0.245	0.168
-138.443	800.000	-0.036	-0.144
-137.429	-45.458	0.038	0.019
-136.414	-113.362	-0.291	-0.057
-135.399	342.675	0.051	0.100
-134.385	46.677	0.186	0.172
-133.370	-200.000	0.001	-0.076
-132.356	-13.628	0.069	0.044
-131.341	-72.878	-0.187	-0.069
-130.326	213.973	-0.155	0.245
-129.312	81.921	-0.032	0.034
-128.297	34.134	0.164	0.143
-127.283	119.838	-0.228	0.281
-126.268	-66.803	0.079	0.031
-125.253	-177.598	-0.039	-0.001
-124.239	26.653	-0.448	-0.374
-123.224	52.121	-0.273	0.259
-122.210	800.000	-0.040	0.164
