DTS Sentinel unit serial number:	SN413079Multiplexer serial number:	ORYXHardware model number:	OX4-SRSoftware version number:	ORYX F/W v4.00 Oryx Data Collector v3.7.2.0data status	okinstallation	princeton_trtdifferential loss correction	single-endedforward channel	channel 2reverse channel	N/Adate	2019/09/15time	17:31:35forward acquisition time	60.00reverse acquisition time	0.00gamma	496.2192k internal	0.2283k external	0.2283temperature offset calibration	0.9927default loss term (dB/km)	0.3790temperature slope calibration	1.0000multiplexer offset coefficient	1.0000multiplexer slope coefficient	1.0000fibre end	0.00T internal ref (°C)	44.81T ext. ref 1 (°C)	6.16T ext. ref 2 (°C)	40.47length (m)	temperature (°C)	Stokes	anti-Stokes-747.200	124.912	-0.133	0.172
-746.185	-117.151	-0.269	-0.050
-745.171	199.036	-0.018	-0.028
-744.156	551.832	0.112	0.277
-743.142	-151.357	0.262	-0.020
-742.127	1.606	-0.168	0.124
-741.112	-51.349	-0.105	-0.050
-740.098	-200.000	0.053	0.242
-739.083	64.993	-0.058	-0.060
-738.069	8.519	0.242	0.187
-737.054	-200.000	0.010	-0.104
-736.039	675.073	-0.129	-0.343
-735.025	27.332	0.082	-0.071
-734.010	208.723	-0.197	0.317
-732.996	-148.870	0.054	-0.004
-731.981	-169.049	-0.382	-0.015
-730.966	-52.882	-0.174	0.082
-729.952	-14.767	0.274	-0.180
-728.937	-75.484	-0.159	-0.058
-727.923	286.099	-0.039	0.072
-726.908	-200.000	-0.007	0.259
-725.894	90.823	0.190	0.219
-724.879	681.752	0.143	0.381
-723.864	-23.020	0.126	0.078
-722.850	-65.704	-0.169	0.070
-721.835	1.901	0.232	0.172
-720.821	124.497	0.210	-0.271
-719.806	76.800	-0.103	-0.112
-718.791	800.000	-0.074	0.249
-717.777	236.923	0.147	0.249
-716.762	195.541	-0.076	0.119
-715.748	800.000	-0.050	-0.201
-714.733	-200.000	0.007	-0.343
-713.718	18.339	-0.061	0.050
-712.704	-59.607	0.166	-0.073
-711.689	-111.025	-0.274	0.058
-710.675	-115.738	-0.142	0.027
-709.660	40.138	-0.108	-0.100
-708.645	346.370	0.099	0.199
-707.631	145.196	0.063	0.087
-706.616	-25.294	-0.178	-0.108
-705.602	-28.870	0.155	-0.092
-704.587	-200.000	-0.033	-0.164
-703.572	-43.222	-0.190	-0.099
-702.558	707.445	-0.099	-0.268
-701.543	-85.900	0.184	0.059
-700.529	-150.067	-0.260	-0.021
-699.514	34.569	-0.161	0.144
-698.499	170.429	-0.273	-0.401
-697.485	-200.000	0.116	-0.000
-696.470	250.872	-0.066	-0.115
-695.456	800.000	0.049	0.161
-694.441	800.000	0.038	0.109
-693.426	105.614	-0.112	0.136
-692.412	420.186	-0.125	0.275
-691.397	95.407	0.152	-0.178
-690.383	-59.245	0.193	0.085
-689.368	800.000	0.064	-0.241
-688.354	-200.000	-0.005	0.059
-687.339	-163.600	-0.312	0.015
-686.324	-200.000	0.075	-0.389
-685.310	147.200	-0.033	0.045
-684.295	-67.942	-0.053	-0.021
-683.281	800.000	-0.105	-0.315
-682.266	-200.000	0.047	0.249
-681.251	337.010	0.105	0.209
-680.237	800.000	0.044	-0.162
-679.222	-172.295	0.193	-0.006
-678.208	-95.824	-0.588	-0.161
-677.193	-200.000	0.022	-0.183
-676.178	-156.132	-0.146	-0.009
-675.164	-200.000	0.035	-0.308
-674.149	104.188	0.136	0.164
-673.135	-116.006	0.121	0.023
-672.120	349.297	0.034	0.068
-671.105	-129.440	0.179	0.026
-670.091	-94.792	-0.081	-0.022
-669.076	243.610	-0.111	0.190
-668.062	265.871	-0.151	0.271
-667.047	-123.758	0.351	-0.057
-666.032	35.810	-0.256	-0.230
-665.018	-30.519	-0.212	-0.123
-664.003	123.846	0.233	-0.300
-662.989	203.094	-0.277	0.438
-661.974	99.574	-0.058	0.069
-660.959	-141.289	-0.182	0.019
-659.945	469.608	-0.135	-0.311
-658.930	761.972	-0.156	0.435
-657.916	-74.511	0.094	0.035
-656.901	-132.591	0.171	-0.022
-655.886	39.543	-0.093	-0.085
-654.872	-163.482	0.470	-0.023
-653.857	-200.000	-0.019	0.115
-652.843	159.920	0.038	-0.055
-651.828	-156.804	0.342	0.022
-650.814	583.168	0.103	-0.259
-649.799	388.293	0.202	-0.429
-648.784	268.693	-0.093	-0.167
-647.770	187.045	-0.083	-0.126
-646.755	17.397	-0.112	0.091
-645.741	-106.360	0.103	-0.024
-644.726	800.000	0.078	0.328
-643.711	165.925	-0.132	0.191
-642.697	37.046	0.230	0.208
-641.682	21.125	-0.363	-0.302
-640.668	-119.968	-0.130	0.023
-639.653	800.000	0.014	0.056
-638.638	536.492	0.052	-0.127
-637.624	427.500	0.050	0.110
-636.609	8.851	0.055	0.043
-635.595	-107.198	-0.223	0.050
-634.580	800.000	0.089	0.268
-633.565	800.000	0.053	0.224
-632.551	-11.466	-0.432	-0.290
-631.536	800.000	-0.062	0.246
-630.522	47.508	0.223	-0.212
-629.507	-27.957	0.148	0.088
-628.492	-120.320	-0.041	0.007
-627.478	222.087	0.078	0.128
-626.463	-5.423	-0.055	0.038
-625.449	-16.731	0.067	0.043
-624.434	-200.000	0.025	0.231
-623.419	-172.131	0.065	-0.002
-622.405	144.342	0.147	0.201
-621.390	121.462	-0.103	-0.131
-620.376	-67.751	-0.347	0.139
-619.361	-100.439	0.196	0.050
-618.346	73.410	-0.205	-0.219
-617.332	324.833	0.119	0.232
-616.317	-133.938	-0.266	-0.034
-615.303	360.106	0.126	-0.258
-614.288	185.022	-0.133	0.201
-613.273	-167.221	0.289	0.012
-612.259	-164.565	0.584	-0.027
-611.244	-109.936	0.161	0.035
-610.230	27.472	0.182	0.157
-609.215	-162.190	-0.173	-0.009
-608.201	440.313	0.098	0.220
-607.186	-61.102	0.110	0.047
-606.171	-145.823	0.240	-0.022
-605.157	-5.293	0.110	0.077
-604.142	-110.207	0.086	0.018
-603.128	-58.637	0.233	-0.103
-602.113	-76.304	-0.476	0.171
-601.098	-106.683	-0.201	-0.046
-600.084	-200.000	0.002	0.094
-599.069	-70.960	-0.347	-0.134
-598.055	-20.025	-0.144	-0.091
-597.040	264.434	-0.056	-0.100
-596.025	165.516	0.066	0.095
-595.011	-5.966	-0.280	-0.196
-593.996	-200.000	0.064	-0.488
-592.982	-135.623	-0.385	0.047
-591.967	-87.234	0.356	0.111
-590.952	-200.000	-0.028	-0.284
-589.938	97.774	0.202	-0.237
-588.923	97.177	0.262	-0.307
-587.909	39.245	0.023	-0.021
-586.894	68.282	0.056	0.058
-585.879	800.000	-0.058	-0.252
-584.865	-39.046	0.124	0.067
-583.850	-160.393	0.008	0.000
-582.836	55.122	-0.173	-0.171
-581.821	38.815	-0.195	0.178
-580.806	-27.746	0.174	-0.103
-579.792	-200.000	0.057	-0.485
-578.777	170.592	-0.091	0.133
-577.763	-57.063	-0.172	-0.077
-576.748	-79.596	0.249	0.086
-575.733	-30.742	-0.278	0.160
-574.719	-16.899	0.053	0.034
-573.704	-200.000	0.046	-0.336
-572.690	72.209	-0.114	-0.122
-571.675	1.152	0.211	0.155
-570.661	28.290	0.155	-0.134
-569.646	-200.000	-0.059	0.361
-568.631	63.346	0.110	-0.113
-567.617	800.000	0.094	0.305
-566.602	-6.041	0.315	0.220
-565.588	-17.482	-0.051	0.033
-564.573	800.000	-0.037	0.122
-563.558	55.135	0.164	-0.161
-562.544	14.141	-0.245	-0.195
-561.529	-200.000	0.029	-0.257
-560.515	800.000	0.054	0.184
-559.500	263.691	-0.080	0.142
-558.485	57.522	-0.063	-0.062
-557.471	-127.251	-0.227	0.034
-556.456	113.559	-0.178	-0.221
-555.442	685.319	0.104	0.277
-554.427	800.000	0.048	-0.196
-553.412	-200.000	0.030	0.286
-552.398	-200.000	-0.033	0.366
-551.383	28.560	-0.166	0.143
-550.369	70.769	-0.252	0.266
-549.354	-97.279	0.110	0.029
-548.339	-34.446	-0.206	-0.115
-547.325	-200.000	0.008	-0.092
-546.310	67.553	-0.191	-0.199
-545.296	338.662	-0.146	0.290
-544.281	800.000	0.118	0.335
-543.266	-200.000	-0.021	-0.152
-542.252	55.148	-0.354	-0.349
-541.237	-107.066	0.248	-0.056
-540.223	220.393	-0.046	-0.075
-539.208	131.673	-0.208	-0.273
-538.193	-82.483	0.136	0.045
-537.179	-99.502	-0.168	-0.043
-536.164	-107.972	-0.159	-0.035
-535.150	-200.000	-0.056	-0.274
-534.135	800.000	0.029	0.082
-533.121	76.042	0.290	-0.313
-532.106	-42.988	-0.016	-0.008
-531.091	-148.233	-0.198	0.017
-530.077	-8.112	-0.116	-0.080
-529.062	396.854	-0.055	-0.116
-528.048	-133.558	-0.224	-0.029
-527.033	236.669	0.193	0.325
-526.018	404.941	-0.174	0.374
-525.004	-51.572	0.261	-0.124
-523.989	-46.875	-0.371	0.185
-522.975	265.546	0.169	0.301
-521.960	288.243	-0.049	0.090
-520.945	44.307	0.139	0.130
-519.931	-72.814	-0.235	-0.088
-518.916	-55.589	-0.286	-0.131
-517.902	227.409	-0.106	0.175
-516.887	-200.000	-0.002	0.009
-515.872	-26.957	0.352	-0.209
-514.858	-85.504	0.100	-0.032
-513.843	132.442	-0.204	-0.268
-512.829	235.844	0.093	0.156
-511.814	-165.639	-0.406	0.018
-510.799	148.936	-0.132	-0.182
-509.785	-129.920	-0.355	0.050
-508.770	-80.215	0.186	-0.063
-507.756	20.095	0.307	-0.252
-506.741	162.914	-0.142	-0.203
-505.726	800.000	0.042	-0.133
-504.712	-200.000	-0.010	-0.277
-503.697	800.000	-0.125	-0.414
-502.683	700.488	-0.041	-0.110
-501.668	-94.213	0.322	-0.090
-500.653	-110.896	-0.146	-0.031
-499.639	84.909	0.086	-0.096
-498.624	-9.207	0.380	-0.258
-497.610	16.291	0.174	-0.139
-496.595	138.882	0.075	0.100
-495.581	20.831	-0.213	0.176
-494.566	-159.446	-0.247	-0.014
-493.551	-76.211	0.149	-0.053
-492.537	248.424	0.097	0.167
-491.522	-90.121	0.147	-0.044
-490.508	800.000	0.044	0.178
-489.493	-72.756	0.119	-0.045
-488.478	31.815	0.183	-0.160
-487.464	-69.035	-0.044	0.017
-486.449	-92.879	0.171	0.049
-485.435	-200.000	-0.027	-0.323
-484.420	21.213	-0.110	0.091
-483.405	114.833	0.093	-0.116
-482.391	34.326	0.069	-0.061
-481.376	199.194	-0.157	-0.244
-480.362	-200.000	0.054	-0.295
-479.347	154.370	0.355	-0.496
-478.332	-76.164	0.167	0.060
-477.318	800.000	0.118	-0.387
-476.303	73.335	-0.164	0.175
-475.289	-41.617	-0.193	0.101
-474.274	156.185	-0.147	-0.206
-473.259	800.000	-0.020	-0.060
-472.245	-115.364	-0.085	0.016
-471.230	-50.588	-0.555	0.266
-470.216	241.051	-0.052	-0.088
-469.201	800.000	0.039	0.143
-468.186	-143.254	-0.326	-0.032
-467.172	-39.398	-0.194	-0.103
-466.157	-13.978	0.031	-0.020
-465.143	224.543	0.080	0.131
-464.128	-200.000	-0.083	0.377
-463.113	-68.642	0.025	-0.010
-462.099	-53.806	0.177	0.082
-461.084	-105.922	0.129	0.030
-460.070	26.849	0.017	0.014
-459.055	-75.868	-0.051	-0.018
-458.040	279.118	0.069	0.126
-457.026	140.821	-0.141	-0.190
-456.011	-104.531	-0.148	0.035
-454.997	800.000	-0.051	-0.220
-453.982	-148.952	-0.184	-0.015
-452.968	49.476	0.136	0.130
-451.953	571.949	0.071	0.175
-450.938	5.031	-0.141	0.105
-449.924	50.340	0.029	-0.028
-448.909	-200.000	0.025	-0.162
-447.895	-200.000	0.051	-0.370
-446.880	-200.000	-0.013	0.281
-445.865	29.009	-0.110	0.095
-444.851	12.030	-0.025	-0.020
-443.836	76.878	-0.058	0.063
-442.822	-200.000	0.009	-0.129
-441.807	-29.834	0.248	0.144
-440.792	800.000	0.070	-0.282
-439.778	-110.345	-0.173	-0.037
-438.763	-57.199	0.402	0.180
-437.749	-200.000	-0.045	-0.421
-436.734	-146.656	0.039	-0.003
-435.719	800.000	0.095	0.389
-434.705	-200.000	-0.004	0.078
-433.690	-104.690	0.406	-0.095
-432.676	-14.410	0.168	-0.110
-431.661	4.456	0.477	-0.355
-430.646	-47.517	0.170	-0.084
-429.632	309.250	-0.040	0.076
-428.617	800.000	0.054	-0.228
-427.603	-200.000	-0.040	0.193
-426.588	119.530	0.146	0.184
-425.573	-57.522	0.209	-0.093
-424.559	-72.098	0.202	0.076
-423.544	-197.847	0.367	-0.002
-422.530	-71.094	0.205	-0.078
-421.515	-200.000	-0.007	-0.048
-420.500	-146.220	-0.251	0.022
-419.486	119.159	-0.116	0.145
-418.471	-200.000	0.243	0.000
-417.457	127.441	0.171	-0.220
-416.442	800.000	0.024	-0.088
-415.428	88.487	-0.092	-0.104
-414.413	-17.296	0.132	0.085
-413.398	-94.538	0.184	0.051
-412.384	-114.015	-0.193	0.038
-411.369	106.132	-0.121	-0.145
-410.355	800.000	0.083	-0.353
-409.340	761.963	-0.134	-0.368
-408.325	226.837	0.124	0.203
-407.311	-64.391	0.233	-0.096
-406.296	-61.542	0.330	0.141
-405.282	125.760	-0.049	0.062
-404.267	-200.000	-0.003	0.236
-403.252	156.632	0.065	-0.091
-402.238	-200.000	-0.029	-0.134
-401.223	100.546	-0.130	0.153
-400.209	-2.058	-0.154	-0.109
-399.194	800.000	0.070	0.292
-398.179	-51.943	0.017	-0.008
-397.165	-200.000	0.021	0.416
-396.150	-122.399	0.097	0.016
-395.136	-57.710	0.130	0.058
-394.121	-36.481	-0.113	-0.062
-393.106	483.343	0.039	0.090
-392.092	-80.878	0.144	-0.048
-391.077	-200.000	0.034	0.185
-390.063	-25.532	-0.064	-0.039
-389.048	-200.000	0.044	-0.364
-388.033	-85.264	-0.279	-0.088
-387.019	47.533	-0.090	-0.085
-386.004	-85.928	-0.487	-0.153
-384.990	-200.000	-0.026	-0.180
-383.975	5.929	0.250	0.188
-382.960	-148.625	-0.302	0.025
-381.946	-200.000	0.001	0.052
-380.931	800.000	-0.021	0.064
-379.917	800.000	-0.078	0.300
-378.902	-58.754	-0.213	0.093
-377.888	58.034	0.180	0.179
-376.873	800.000	0.042	0.171
-375.858	49.713	-0.218	-0.208
-374.844	326.151	0.010	-0.020
-373.829	-82.418	-0.127	0.042
-372.815	-200.000	0.004	-0.102
-371.800	-200.000	-0.013	0.089
-370.785	800.000	0.089	0.295
-369.771	800.000	0.102	-0.409
-368.756	784.212	0.079	-0.218
-367.742	-122.673	0.098	-0.016
-366.727	800.000	-0.113	0.320
-365.712	-200.000	-0.009	-0.082
-364.698	572.199	-0.081	0.199
-363.683	-200.000	0.042	0.370
-362.669	172.870	-0.098	0.142
-361.654	-92.087	0.180	0.052
-360.639	94.451	0.120	-0.138
-359.625	-88.022	0.238	0.072
-358.610	-18.737	-0.158	-0.100
-357.596	-98.808	0.195	-0.050
-356.581	-144.470	0.474	0.044
-355.566	132.770	-0.244	0.319
-354.552	-24.772	0.249	0.150
-353.537	-200.000	-0.001	-0.105
-352.523	585.584	-0.095	0.236
-351.508	-74.417	-0.164	0.060
-350.493	144.931	-0.046	-0.063
-349.479	21.027	0.306	0.251
-348.464	-76.879	-0.225	-0.080
-347.450	-200.000	0.027	-0.281
-346.435	-17.394	-0.222	0.142
-345.420	144.600	0.063	-0.085
-344.406	36.597	-0.058	0.052
-343.391	-200.000	0.041	0.339
-342.377	-135.270	-0.393	0.048
-341.362	-103.681	-0.200	-0.047
-340.348	10.074	-0.199	0.153
-339.333	-76.527	0.406	-0.144
-338.318	-175.218	0.168	-0.005
-337.304	143.636	0.199	-0.268
-336.289	-113.078	-0.202	-0.040
-335.275	41.256	0.178	0.162
-334.260	-200.000	-0.039	0.330
-333.245	-200.000	0.000	-0.305
-332.231	-143.363	-0.149	0.014
-331.216	-24.379	0.127	0.077
-330.202	34.321	0.185	-0.163
-329.187	39.242	0.145	0.131
-328.172	-97.566	-0.167	-0.044
-327.158	-118.258	-0.163	0.029
-326.143	45.405	0.226	-0.211
-325.129	122.966	-0.244	0.309
-324.114	-45.677	0.428	-0.214
-323.099	800.000	0.068	-0.260
-322.085	354.724	-0.070	-0.140
-321.070	-116.147	0.186	0.035
-320.056	-131.619	-0.062	0.008
-319.041	-154.315	0.182	-0.012
-318.026	257.810	-0.089	-0.154
-317.012	-62.157	-0.072	-0.030
-315.997	-200.000	0.010	-0.393
-314.983	-113.125	0.219	0.044
-313.968	77.178	0.112	0.121
-312.953	297.435	0.053	0.098
-311.939	-200.000	0.007	0.199
-310.924	-54.654	0.307	0.140
-309.910	354.754	0.062	0.125
-308.895	-200.000	0.007	0.049
-307.880	-133.616	-0.115	0.015
-306.866	5.548	-0.362	0.270
-305.851	-53.540	-0.164	0.076
-304.837	-101.231	0.270	0.067
-303.822	55.080	0.145	0.142
-302.807	80.622	-0.155	-0.169
-301.793	-3.911	0.456	-0.320
-300.778	-200.000	-0.014	0.074
-299.764	-88.160	-0.194	0.059
-298.749	111.020	0.154	0.187
-297.735	-200.000	-0.043	-0.309
-296.720	-200.000	-0.028	-0.164
-295.705	83.271	-0.145	-0.160
-294.691	-200.000	0.004	0.416
-293.676	-176.845	-0.059	-0.002
-292.662	-96.285	0.332	-0.089
-291.647	63.847	0.096	0.098
-290.632	150.953	-0.159	0.218
-289.618	800.000	-0.021	-0.077
-288.603	800.000	0.094	0.329
-287.589	-200.000	0.036	0.288
-286.574	-200.000	0.006	0.324
-285.559	800.000	-0.101	-0.299
-284.545	51.660	0.026	0.025
-283.530	-200.000	0.079	-0.362
-282.516	149.781	-0.138	0.189
-281.501	-36.894	-0.170	-0.092
-280.486	111.701	0.125	-0.152
-279.472	-15.815	-0.178	-0.115
-278.457	-151.686	-0.232	0.017
-277.443	-29.748	-0.122	0.070
-276.428	-27.949	0.224	0.131
-275.413	444.159	0.012	0.027
-274.399	108.606	-0.154	-0.185
-273.384	236.363	0.057	-0.094
-272.370	248.242	-0.096	-0.164
-271.355	-148.042	0.376	0.032
-270.340	17.636	0.402	0.322
-269.326	800.000	-0.067	0.202
-268.311	47.393	0.063	-0.059
-267.297	4.499	-0.130	-0.096
-266.282	-200.000	-0.021	-0.412
-265.267	66.536	0.159	-0.163
-264.253	-200.000	-0.011	0.138
-263.238	97.936	-0.180	-0.208
-262.224	94.980	-0.254	-0.292
-261.209	-200.000	-0.014	0.238
-260.195	800.000	0.044	0.134
-259.180	117.489	-0.164	0.203
-258.165	449.923	-0.122	0.270
-257.151	230.955	0.088	-0.145
-256.136	-18.597	-0.214	0.134
-255.122	157.465	-0.216	0.301
-254.107	84.046	0.151	0.166
-253.092	-200.000	-0.017	0.228
-252.078	-200.000	-0.003	0.296
-251.063	800.000	0.014	0.040
-250.049	-7.781	-0.238	-0.162
-249.034	172.937	-0.083	-0.120
-248.019	-121.588	0.175	-0.029
-247.005	496.316	-0.127	0.294
-245.990	-200.000	-0.002	0.129
-244.976	4.433	0.140	0.104
-243.961	-83.612	-0.290	0.093
-242.946	-131.787	0.268	-0.035
-241.932	125.529	-0.036	0.046
-240.917	-53.910	0.043	0.020
-239.903	-144.353	-0.225	0.021
-238.888	-3.293	0.311	-0.218
-237.873	301.368	0.206	-0.384
-236.859	-200.000	0.021	0.167
-235.844	-39.065	0.068	-0.036
-234.830	700.920	-0.050	0.132
-233.815	-113.588	-0.150	-0.029
-232.800	-141.341	-0.225	-0.023
-231.786	-125.368	0.297	-0.046
-230.771	32.151	0.117	0.102
-229.757	171.785	-0.100	-0.145
-228.742	-60.469	-0.399	-0.171
-227.727	-117.474	-0.240	-0.044
-226.713	-200.000	0.058	-0.292
-225.698	-111.705	0.129	0.026
-224.684	22.519	-0.297	0.245
-223.669	284.579	-0.118	0.214
-222.655	-123.565	0.096	0.015
-221.640	91.696	0.203	-0.230
-220.625	-31.022	0.043	0.024
-219.611	48.263	-0.208	0.196
-218.596	-113.338	-0.136	-0.027
-217.582	3.673	0.204	0.150
-216.567	-64.341	-0.142	-0.058
-215.552	414.832	-0.176	-0.378
-214.538	-24.998	0.125	0.075
-213.523	-64.775	0.113	-0.046
-212.509	-200.000	-0.021	-0.107
-211.494	419.338	-0.090	-0.195
-210.479	-200.000	0.017	-0.195
-209.465	275.847	-0.149	-0.267
-208.450	-200.000	-0.131	0.000
-207.436	-159.962	-0.267	-0.015
-206.421	-39.640	0.382	-0.201
-205.406	90.819	-0.009	0.010
-204.392	117.224	0.082	-0.101
-203.377	-159.732	-0.469	-0.026
-202.363	30.693	0.132	-0.114
-201.348	-26.015	-0.323	0.191
-200.333	64.533	-0.119	0.121
-199.319	800.000	-0.016	-0.044
-198.304	281.994	0.084	-0.152
-197.290	235.159	-0.046	-0.077
-196.275	276.228	0.063	-0.112
-195.260	332.147	-0.097	0.188
-194.246	11.930	-0.222	0.172
-193.231	-91.947	-0.117	-0.033
-192.217	224.481	-0.088	0.143
-191.202	13.391	0.114	-0.089
-190.187	-85.053	-0.143	0.045
-189.173	-6.540	-0.203	0.139
-188.158	176.611	0.095	-0.139
-187.144	-200.000	0.037	0.273
-186.129	212.381	0.073	0.115
-185.114	-76.654	0.186	0.066
-184.100	211.737	-0.108	0.171
-183.085	800.000	0.101	0.287
-182.071	501.964	0.118	0.273
-181.056	-126.157	0.257	0.039
-180.042	800.000	-0.047	-0.191
-179.027	96.710	-0.093	-0.107
-178.012	800.000	-0.025	-0.097
-176.998	-56.681	0.199	-0.088
-175.983	-84.215	-0.217	0.069
-174.969	-116.230	-0.175	-0.033
-173.954	32.705	-0.079	0.069
-172.939	800.000	-0.039	-0.117
-171.925	-26.187	-0.166	-0.098
-170.910	102.782	-0.129	-0.151
-169.896	49.147	0.126	0.119
-168.881	589.114	0.025	-0.062
-167.866	432.907	0.050	0.110
-166.852	23.124	-0.151	0.125
-165.837	-143.077	0.389	-0.038
-164.823	-152.488	0.189	0.014
-163.808	362.915	0.041	-0.083
-162.793	-200.000	-0.018	0.225
-161.779	100.115	-0.051	0.059
-160.764	516.136	0.116	0.272
-159.750	-200.000	-0.020	-0.198
-158.735	52.146	0.294	0.281
-157.720	-7.708	-0.274	-0.186
-156.706	800.000	0.121	0.370
-155.691	59.628	0.228	0.226
-154.677	-200.000	-0.045	0.264
-153.662	-133.290	-0.309	-0.039
-152.647	-200.000	-0.016	-0.225
-151.633	-200.000	-0.021	-0.104
-150.618	290.380	-0.063	0.115
-149.604	-32.534	-0.298	-0.167
-148.589	-36.306	0.128	-0.069
-147.574	-200.000	-0.023	-0.159
-146.560	-200.000	0.008	0.208
-145.545	-14.756	-0.299	0.193
-144.531	-41.932	-0.174	0.089
-143.516	-200.000	0.421	-0.002
-142.502	26.569	0.147	-0.124
-141.487	69.591	0.128	-0.132
-140.472	510.032	0.037	-0.087
-139.458	-162.292	-0.240	0.012
-138.443	-114.798	0.394	-0.076
-137.429	800.000	-0.091	-0.333
-136.414	-200.000	-0.014	-0.287
-135.399	425.069	0.043	-0.093
-134.385	222.540	-0.104	0.168
-133.370	8.208	0.168	-0.127
-132.356	45.521	-0.082	-0.076
-131.341	528.534	0.063	0.150
-130.326	-200.000	0.014	-0.189
-129.312	104.113	0.083	-0.098
-128.297	-85.270	0.362	0.114
-127.283	132.292	-0.205	-0.265
-126.268	640.506	-0.128	-0.327
-125.253	-109.957	0.360	-0.076
-124.239	-0.280	0.171	-0.122
-123.224	-127.724	0.313	-0.045
-122.210	-200.000	-0.091	-0.455
-121.195	-53.775	0.271	0.124
