DTS Sentinel unit serial number:	SN413079Multiplexer serial number:	ORYXHardware model number:	OX4-SRSoftware version number:	ORYX F/W v4.00 Oryx Data Collector v3.7.2.0data status	okinstallation	princeton_trtdifferential loss correction	single-endedforward channel	channel 2reverse channel	N/Adate	2019/09/13time	16:47:35forward acquisition time	60.00reverse acquisition time	0.00gamma	496.2192k internal	0.2316k external	0.2316temperature offset calibration	1.0216default loss term (dB/km)	0.3790temperature slope calibration	1.0000multiplexer offset coefficient	1.0000multiplexer slope coefficient	1.0000fibre end	0.00T internal ref (°C)	34.94T ext. ref 1 (°C)	4.93T ext. ref 2 (°C)	29.89length (m)	temperature (°C)	Stokes	anti-Stokes-747.200	-200.000	0.044	0.280
-746.185	39.918	0.317	0.289
-745.171	5.497	0.113	0.085
-744.156	-59.058	-0.183	-0.080
-743.142	800.000	0.039	-0.109
-742.127	800.000	0.049	0.188
-741.112	800.000	0.034	0.098
-740.098	-139.592	-0.182	0.020
-739.083	54.326	0.267	0.261
-738.069	59.946	-0.259	-0.259
-737.054	-200.000	-0.024	-0.261
-736.039	106.090	-0.060	0.072
-735.025	36.382	0.176	0.157
-734.010	-200.000	-0.341	-0.001
-732.996	-200.000	-0.008	-0.083
-731.981	-132.448	-0.268	0.035
-730.966	800.000	0.052	-0.173
-729.952	-200.000	0.040	-0.426
-728.937	12.599	-0.120	-0.094
-727.923	18.414	0.133	0.107
-726.908	-200.000	-0.001	-0.304
-725.894	800.000	0.020	-0.076
-724.879	57.939	0.322	0.320
-723.864	-178.754	-0.298	-0.007
-722.850	40.724	-0.353	-0.322
-721.835	800.000	0.128	-0.384
-720.821	-107.459	0.187	0.042
-719.806	71.448	-0.251	0.264
-718.791	46.657	-0.119	-0.112
-717.777	309.367	-0.157	-0.298
-716.762	-119.759	-0.391	-0.068
-715.748	-38.703	-0.166	0.089
-714.733	-85.795	-0.260	0.082
-713.718	36.281	0.364	-0.324
-712.704	-167.821	-0.225	0.009
-711.689	-25.666	-0.147	0.088
-710.675	-25.315	-0.176	0.105
-709.660	-39.612	-0.149	-0.079
-708.645	-200.000	-0.042	-0.419
-707.631	-18.061	-0.199	-0.126
-706.616	177.563	0.118	0.174
-705.602	23.946	0.261	-0.218
-704.587	82.462	0.215	0.237
-703.572	800.000	0.113	0.395
-702.558	-200.000	-0.012	-0.086
-701.543	30.222	0.356	-0.307
-700.529	53.957	0.169	-0.164
-699.514	-12.963	0.141	-0.093
-698.499	40.543	0.123	-0.112
-697.485	120.265	0.126	0.158
-696.470	-200.000	-0.005	0.060
-695.456	-147.503	-0.145	0.012
-694.441	104.909	0.198	-0.236
-693.426	-29.729	0.394	-0.227
-692.412	67.034	0.316	0.326
-691.397	-200.000	0.035	-0.174
-690.383	-63.741	0.326	-0.135
-689.368	800.000	-0.035	-0.112
-688.354	248.280	0.122	0.208
-687.339	59.782	0.204	-0.204
-686.324	24.751	0.208	0.174
-685.310	-200.000	0.038	0.306
-684.295	-19.602	-0.200	0.125
-683.281	-28.177	0.399	0.233
-682.266	-134.119	-0.213	0.027
-681.251	-81.651	-0.223	0.074
-680.237	688.000	-0.045	-0.119
-679.222	467.486	-0.052	-0.117
-678.208	-200.000	0.008	0.049
-677.193	-46.659	-0.266	-0.131
-676.178	800.000	-0.160	-0.524
-675.164	575.086	0.067	-0.166
-674.149	65.529	-0.231	-0.236
-673.135	-200.000	0.005	-0.328
-672.120	0.022	0.072	-0.052
-671.105	325.110	0.023	-0.044
-670.091	211.094	-0.039	-0.063
-669.076	-68.868	0.210	-0.082
-668.062	140.081	-0.182	0.243
-667.047	-106.188	-0.045	-0.010
-666.032	800.000	0.059	-0.210
-665.018	13.904	0.190	0.149
-664.003	-200.000	-0.040	-0.189
-662.989	-200.000	0.013	-0.138
-661.974	114.190	-0.222	-0.273
-660.959	-33.633	-0.056	0.031
-659.945	-148.539	-0.294	-0.024
-658.930	-129.723	0.063	-0.009
-657.916	40.569	-0.206	-0.188
-656.901	190.139	0.115	0.175
-655.886	800.000	-0.094	-0.298
-654.872	47.983	-0.113	-0.107
-653.857	-200.000	-0.014	0.174
-652.843	39.731	-0.156	-0.141
-651.828	-133.338	0.313	0.040
-650.814	-67.082	-0.193	-0.077
-649.799	201.085	-0.156	0.243
-648.784	152.049	-0.143	0.197
-647.770	307.477	-0.073	-0.138
-646.755	-200.000	0.023	0.106
-645.741	46.661	0.143	0.134
-644.726	-96.373	0.225	-0.060
-643.711	-173.897	0.082	-0.002
-642.697	-40.249	-0.429	-0.225
-641.682	-44.196	-0.015	0.007
-640.668	655.561	0.140	0.362
-639.653	48.330	-0.306	-0.289
-638.638	-55.127	-0.315	-0.143
-637.624	800.000	-0.041	-0.152
-636.609	-145.336	-0.196	0.018
-635.595	167.065	-0.094	0.135
-634.580	60.967	-0.145	0.145
-633.565	-166.813	-0.273	0.011
-632.551	-200.000	-0.029	-0.182
-631.536	101.647	-0.027	0.031
-630.522	142.766	0.187	0.251
-629.507	-82.208	-0.059	-0.019
-628.492	800.000	-0.107	-0.371
-627.478	28.348	-0.148	-0.126
-626.463	233.188	0.060	-0.099
-625.449	-200.000	0.008	-0.179
-624.434	-162.102	-0.335	-0.017
-623.419	354.916	0.095	-0.190
-622.405	-200.000	0.009	-0.241
-621.390	85.061	-0.130	-0.144
-620.376	75.169	-0.250	0.266
-619.361	-200.000	0.018	-0.104
-618.346	355.483	-0.179	-0.360
-617.332	32.924	0.039	0.034
-616.317	-200.000	0.040	0.183
-615.303	-134.719	0.042	0.005
-614.288	-21.820	0.159	0.098
-613.273	32.910	-0.114	-0.099
-612.259	-200.000	0.029	-0.275
-611.244	-200.000	0.036	0.283
-610.230	8.881	0.393	0.298
-609.215	607.097	0.168	-0.422
-608.201	-121.673	0.180	-0.030
-607.186	-20.706	0.074	-0.046
-606.171	-6.859	0.083	0.057
-605.157	-120.957	0.228	0.039
-604.142	-200.000	0.027	0.121
-603.128	-64.818	-0.083	0.034
-602.113	77.125	-0.115	0.124
-601.098	-155.745	0.084	-0.005
-600.084	6.699	-0.111	0.083
-599.069	202.108	-0.102	-0.159
-598.055	681.456	-0.047	0.122
-597.040	327.576	-0.093	-0.179
-596.025	-71.083	-0.209	0.079
-595.011	-200.000	-0.000	-0.001
-593.996	-200.000	0.008	-0.332
-592.982	-55.609	0.207	-0.093
-591.967	-17.526	-0.066	-0.042
-590.952	800.000	-0.052	0.196
-589.938	28.470	0.089	-0.076
-588.923	-53.715	-0.350	0.161
-587.909	-200.000	0.023	0.313
-586.894	232.728	-0.116	0.192
-585.879	-200.000	-0.018	0.185
-584.865	23.407	-0.129	0.107
-583.850	-101.318	0.204	-0.050
-582.836	-134.489	0.144	0.018
-581.821	133.145	0.195	-0.254
-580.806	-50.292	0.278	-0.132
-579.792	-200.000	-0.142	0.000
-578.777	-26.094	0.510	0.302
-577.763	-42.087	-0.314	0.162
-576.748	28.228	0.167	-0.142
-575.733	-175.202	0.242	-0.007
-574.719	800.000	-0.031	0.114
-573.704	286.359	0.085	0.155
-572.690	-142.570	-0.067	0.007
-571.675	7.036	0.098	0.073
-570.661	29.906	-0.082	-0.070
-569.646	119.414	0.144	0.180
-568.631	63.706	0.203	0.205
-567.617	51.498	0.145	0.139
-566.602	-200.000	0.058	0.303
-565.588	11.221	0.155	-0.120
-564.573	-149.810	0.200	-0.016
-563.558	-26.099	0.374	0.221
-562.544	-145.402	-0.155	-0.014
-561.529	79.590	-0.315	0.340
-560.515	182.826	0.105	0.157
-559.500	-18.306	0.190	-0.120
-558.485	92.041	-0.166	-0.188
-557.471	122.492	-0.209	-0.263
-556.456	-111.998	-0.539	0.109
-555.442	800.000	-0.049	-0.139
-554.427	27.747	-0.268	-0.227
-553.412	-66.289	0.112	0.045
-552.398	-36.765	-0.046	-0.025
-551.383	-200.000	0.028	0.318
-550.369	-109.715	0.210	0.044
-549.354	-146.135	0.465	0.041
-548.339	800.000	0.034	0.146
-547.325	523.633	0.032	-0.075
-546.310	-200.000	-0.004	-0.174
-545.296	-115.218	-0.561	0.107
-544.281	-180.842	0.375	0.008
-543.266	680.967	-0.096	-0.251
-542.252	251.901	0.149	-0.255
-541.237	-85.921	-0.213	-0.066
-540.223	183.857	-0.073	-0.108
-539.208	-20.723	-0.074	-0.046
-538.193	-200.000	0.026	0.149
-537.179	-116.131	0.264	0.049
-536.164	-54.907	-0.368	-0.167
-535.150	-41.847	0.293	-0.151
-534.135	5.040	-0.214	0.159
-533.121	-91.965	-0.076	-0.022
-532.106	35.833	-0.044	0.039
-531.091	9.979	0.108	0.082
-530.077	135.725	0.236	-0.309
-529.062	-103.106	0.376	0.090
-528.048	-81.073	-0.328	0.109
-527.033	-41.349	0.354	0.183
-526.018	195.629	-0.170	0.260
-525.004	202.390	-0.151	0.234
-523.989	2.566	-0.130	0.095
-522.975	-25.140	-0.152	0.090
-521.960	-200.000	0.194	0.001
-520.945	-200.000	0.031	-0.237
-519.931	-111.321	-0.035	0.007
-518.916	-169.316	-0.094	0.003
-517.902	215.732	-0.165	-0.264
-516.887	88.390	-0.183	-0.204
-515.872	257.168	0.117	0.201
-514.858	-200.000	0.015	-0.131
-513.843	-92.892	-0.229	-0.064
-512.829	-166.354	-0.209	-0.009
-511.814	-97.487	-0.030	-0.008
-510.799	56.412	0.037	0.036
-509.785	-87.799	0.167	0.051
-508.770	33.420	0.120	-0.105
-507.756	173.595	-0.066	-0.096
-506.741	-153.148	-0.313	-0.022
-505.726	-114.405	0.239	-0.046
-504.712	-200.000	-0.048	-0.347
-503.697	800.000	-0.038	-0.120
-502.683	135.352	-0.201	0.262
-501.668	-76.073	-0.280	-0.099
-500.653	-69.128	-0.286	0.110
-499.639	90.158	-0.254	0.285
-498.624	365.453	0.149	-0.300
-497.610	-132.765	0.145	-0.019
-496.595	4.691	0.064	-0.047
-495.581	-127.367	-0.412	0.060
-494.566	-200.000	-0.030	-0.141
-493.551	800.000	0.070	-0.301
-492.537	-200.000	-0.149	-0.717
-491.522	-154.027	-0.181	-0.012
-490.508	80.606	-0.194	0.210
-489.493	100.402	-0.072	-0.084
-488.478	181.596	0.174	-0.257
-487.464	538.695	-0.063	-0.150
-486.449	800.000	0.028	-0.110
-485.435	-200.000	0.005	-0.029
-484.420	399.742	0.117	0.246
-483.405	-3.832	0.092	0.064
-482.391	800.000	0.057	-0.192
-481.376	-23.760	0.061	0.037
-480.362	800.000	-0.146	0.497
-479.347	5.174	0.157	-0.116
-478.332	136.997	0.236	0.309
-477.318	-88.646	-0.091	0.027
-476.303	399.850	0.072	0.152
-475.289	-8.628	-0.383	-0.258
-474.274	160.992	-0.091	0.127
-473.259	-65.253	0.277	-0.112
-472.245	-164.048	0.043	-0.002
-471.230	262.029	-0.218	0.380
-470.216	-16.097	-0.147	0.094
-469.201	-93.144	-0.155	0.043
-468.186	-134.826	0.379	0.046
-467.172	-39.649	0.188	0.099
-466.157	95.533	-0.311	0.356
-465.143	-173.541	0.027	-0.001
-464.128	24.934	0.183	-0.152
-463.113	-181.639	0.164	-0.003
-462.099	421.416	0.078	0.168
-461.084	-200.000	-0.000	0.156
-460.070	-200.000	-0.030	0.228
-459.055	46.419	0.066	-0.062
-458.040	535.979	-0.032	0.077
-457.026	452.675	0.068	0.150
-456.011	105.237	0.105	0.124
-454.997	-154.843	0.304	0.020
-453.982	106.469	0.090	-0.107
-452.968	125.208	0.272	0.344
-451.953	336.790	-0.148	0.288
-450.938	-200.000	0.049	0.267
-449.924	436.397	-0.077	-0.169
-448.909	-7.221	-0.337	-0.229
-447.895	77.657	0.210	-0.224
-446.880	109.135	-0.191	0.228
-445.865	174.696	-0.178	0.258
-444.851	-200.000	-0.030	-0.142
-443.836	800.000	0.039	0.120
-442.822	-150.148	-0.245	-0.019
-441.807	-200.000	0.021	0.108
-440.792	800.000	0.033	-0.095
-439.778	800.000	-0.024	-0.095
-438.763	-134.688	-0.317	-0.039
-437.749	406.012	-0.073	-0.154
-436.734	70.327	0.148	-0.153
-435.719	-67.121	-0.408	0.161
-434.705	394.456	0.163	-0.340
-433.690	166.923	0.130	0.185
-432.676	-200.000	0.006	-0.125
-431.661	230.782	-0.163	-0.268
-430.646	-32.182	0.188	0.105
-429.632	-200.000	0.061	0.310
-428.617	-132.288	0.341	0.044
-427.603	800.000	-0.026	-0.094
-426.588	160.418	0.054	-0.076
-425.573	538.431	-0.060	0.142
-424.559	-183.844	0.215	0.004
-423.544	-69.415	-0.242	0.093
-422.530	-194.588	-0.048	0.000
-421.515	75.746	0.319	0.337
-420.500	394.453	-0.128	0.266
-419.486	-200.000	-0.063	0.365
-418.471	800.000	0.050	0.212
-417.457	75.523	-0.153	-0.162
-416.442	95.292	-0.217	-0.247
-415.428	-200.000	-0.057	0.354
-414.413	79.562	0.165	-0.177
-413.398	-200.000	0.015	-0.085
-412.384	77.836	-0.078	0.083
-411.369	-144.992	0.155	-0.014
-410.355	-150.083	-0.354	-0.027
-409.340	-79.847	-0.460	-0.155
-408.325	-73.086	0.424	-0.156
-407.311	-200.000	0.012	-0.162
-406.296	301.745	-0.072	-0.132
-405.282	63.979	0.222	-0.223
-404.267	800.000	0.039	-0.163
-403.252	-200.000	0.032	0.400
-402.238	145.000	-0.063	-0.084
-401.223	-103.694	-0.226	-0.053
-400.209	-98.888	-0.181	0.046
-399.194	-47.522	0.101	-0.049
-398.179	315.950	0.009	0.016
-397.165	-19.616	0.271	-0.168
-396.150	-200.000	0.012	-0.204
-395.136	-69.251	0.098	-0.038
-394.121	-68.839	-0.183	-0.071
-393.106	-200.000	-0.008	-0.134
-392.092	-20.579	0.062	-0.038
-391.077	16.563	0.164	0.130
-390.063	-170.248	0.124	-0.004
-389.048	-139.020	0.377	0.041
-388.033	-46.869	-0.226	-0.111
-387.019	208.622	-0.111	0.174
-386.004	-160.600	-0.294	0.016
-384.990	-146.123	-0.336	0.030
-383.975	800.000	-0.065	0.273
-382.960	-128.017	0.035	-0.005
-381.946	19.836	-0.271	-0.218
-380.931	-130.968	-0.184	-0.025
-379.917	77.392	-0.122	-0.130
-378.902	124.684	0.116	-0.146
-377.888	-200.000	-0.050	0.241
-376.873	800.000	0.063	0.202
-375.858	-57.478	0.279	0.122
-374.844	201.446	-0.087	-0.133
-373.829	-34.510	0.194	0.106
-372.815	800.000	-0.031	-0.123
-371.800	-105.145	0.258	0.059
-370.785	-184.077	0.210	0.003
-369.771	230.632	-0.228	0.372
-368.756	7.652	0.236	-0.177
-367.742	15.284	-0.194	-0.152
-366.727	78.287	0.016	0.017
-365.712	-200.000	0.001	-0.356
-364.698	-48.773	-0.317	-0.152
-363.683	563.230	-0.086	0.209
-362.669	-200.000	-0.083	-0.379
-361.654	220.767	0.140	-0.224
-360.639	-119.384	-0.071	0.012
-359.625	31.220	0.221	0.189
-358.610	200.811	0.112	-0.171
-357.596	-120.706	0.325	-0.055
-356.581	157.991	0.176	-0.244
-355.566	28.403	0.174	-0.147
-354.552	-97.316	0.145	-0.038
-353.537	800.000	-0.143	0.466
-352.523	-11.953	0.104	-0.068
-351.508	156.824	-0.132	-0.182
-350.493	-93.703	0.247	0.068
-349.479	-116.745	-0.165	-0.030
-348.464	82.833	-0.186	0.202
-347.450	-200.000	-0.034	0.160
-346.435	-92.562	-0.180	0.050
-345.420	80.624	-0.245	0.263
-344.406	-200.000	0.011	-0.221
-343.391	784.716	-0.041	0.111
-342.377	173.114	-0.119	0.171
-341.362	-200.000	0.044	0.221
-340.348	-200.000	-0.018	0.249
-339.333	-173.197	-0.134	0.004
-338.318	-200.000	-0.033	-0.321
-337.304	-40.803	0.242	0.125
-336.289	-62.931	0.198	-0.082
-335.275	202.921	-0.190	-0.293
-334.260	800.000	-0.094	-0.309
-333.245	90.508	0.093	0.103
-332.231	-117.400	0.139	-0.025
-331.216	-200.000	0.000	0.174
-330.202	-8.500	-0.192	-0.128
-329.187	-200.000	-0.004	-0.385
-328.172	-52.038	0.187	0.087
-327.158	28.896	0.152	-0.128
-326.143	-78.911	-0.170	-0.058
-325.129	443.015	-0.092	0.200
-324.114	182.377	-0.059	-0.087
-323.099	-200.000	-0.004	0.078
-322.085	69.876	0.107	-0.110
-321.070	214.644	0.121	-0.191
-320.056	441.195	-0.032	-0.069
-319.041	-200.000	-0.017	-0.128
-318.026	800.000	-0.067	-0.229
-317.012	628.403	-0.074	0.185
-315.997	31.851	0.105	0.090
-314.983	163.880	-0.149	0.209
-313.968	-111.286	0.204	0.042
-312.953	72.345	0.500	-0.519
-311.939	13.377	-0.140	0.108
-310.924	-122.500	-0.218	0.035
-309.910	-71.278	-0.379	-0.142
-308.895	-154.372	-0.183	0.012
-307.880	-18.594	0.294	-0.182
-306.866	-78.631	-0.181	0.061
-305.851	-200.000	0.018	-0.267
-304.837	498.986	-0.151	0.346
-303.822	-102.072	-0.359	0.086
-302.807	-177.837	0.190	0.005
-301.793	-156.842	-0.122	0.007
-300.778	293.731	-0.119	0.217
-299.764	-73.992	0.366	-0.132
-298.749	-128.665	0.214	0.030
-297.735	11.656	-0.119	0.091
-296.720	-123.562	0.115	0.018
-295.705	-200.000	-0.026	0.373
-294.691	-200.000	-0.018	0.435
-293.676	-47.448	0.414	0.200
-292.662	-161.138	0.236	0.012
-291.647	800.000	-0.048	0.158
-290.632	231.096	0.142	-0.232
-289.618	800.000	-0.096	-0.314
-288.603	-138.789	0.175	-0.019
-287.589	614.933	-0.056	0.140
-286.574	652.041	-0.021	0.055
-285.559	16.675	0.235	-0.185
-284.545	-86.388	0.236	-0.072
-283.530	-200.000	-0.012	0.072
-282.516	-135.065	-0.244	0.029
-281.501	-192.214	0.212	0.002
-280.486	216.722	0.042	0.066
-279.472	800.000	0.155	0.434
-278.457	-29.829	0.235	0.133
-277.443	-15.131	0.226	-0.144
-276.428	800.000	-0.082	0.339
-275.413	-43.185	-0.185	-0.093
-274.399	535.504	-0.093	0.220
-273.384	413.664	-0.063	-0.134
-272.370	-200.000	-0.046	0.300
-271.355	-102.592	-0.526	-0.125
-270.340	-10.685	0.158	-0.104
-269.326	-32.117	0.147	-0.082
-268.311	282.246	-0.125	-0.224
-267.297	101.727	-0.071	-0.082
-266.282	14.848	-0.170	0.132
-265.267	170.469	0.019	-0.027
-264.253	-200.000	0.029	0.276
-263.238	-200.000	-0.003	-0.031
-262.224	-109.162	0.327	-0.069
-261.209	38.615	0.259	0.230
-260.195	-200.000	0.037	0.320
-259.180	207.922	0.191	0.296
-258.165	153.081	-0.044	-0.060
-257.151	800.000	-0.019	0.068
-256.136	92.599	-0.194	0.217
-255.122	126.622	-0.215	0.271
-254.107	-27.574	0.203	-0.117
-253.092	-164.528	-0.287	0.013
-252.078	-200.000	0.013	-0.082
-251.063	154.648	0.045	0.061
-250.049	128.558	0.122	0.155
-249.034	-18.710	-0.063	0.039
-248.019	-70.235	0.162	-0.061
-247.005	-67.112	0.332	0.130
-245.990	164.176	0.105	0.147
-244.976	-81.604	-0.044	-0.014
-243.961	69.173	-0.142	0.145
-242.946	12.199	-0.187	0.143
-241.932	2.650	0.294	0.212
-240.917	-122.046	0.030	0.005
-239.903	14.428	0.157	0.121
-238.888	-200.000	-0.089	0.432
-237.873	-106.095	-0.329	0.073
-236.859	91.408	-0.046	-0.051
-235.844	10.279	-0.046	-0.035
-234.830	2.618	-0.072	-0.052
-233.815	-30.225	-0.165	0.093
-232.800	-200.000	0.000	0.021
-231.786	-3.931	0.126	0.087
-230.771	-200.000	-0.064	-0.570
-229.757	93.361	0.052	0.059
-228.742	-152.327	-0.127	0.009
-227.727	-55.110	0.095	0.042
-226.713	151.388	0.112	0.152
-225.698	-200.000	0.070	0.314
-224.684	-200.000	0.030	0.181
-223.669	-58.166	0.116	-0.050
-222.655	800.000	0.075	0.227
-221.640	-50.080	0.080	0.037
-220.625	-200.000	0.005	-0.333
-219.611	-200.000	-0.008	-0.116
-218.596	146.482	0.199	-0.265
-217.582	398.112	0.086	-0.178
-216.567	169.533	0.097	-0.137
-215.552	66.936	-0.104	-0.105
-214.538	605.344	-0.038	0.094
-213.523	11.472	0.304	-0.231
-212.509	98.573	0.121	0.139
-211.494	-50.715	-0.115	-0.054
-210.479	81.482	0.120	-0.129
-209.465	11.505	-0.168	-0.128
-208.450	-200.000	-0.032	-0.362
-207.436	774.642	-0.051	-0.139
-206.421	-199.789	-0.105	0.001
-205.406	-16.662	0.251	0.158
-204.392	-95.332	-0.270	-0.072
-203.377	-200.000	-0.021	-0.166
-202.363	800.000	-0.065	0.197
-201.348	-87.133	0.290	-0.088
-200.333	-200.000	-0.030	-0.466
-199.319	-7.509	0.285	0.191
-198.304	-162.020	0.275	0.014
-197.290	-38.401	0.194	-0.102
-196.275	-105.131	-0.160	-0.036
-195.260	133.590	-0.037	0.048
-194.246	135.106	0.208	0.268
-193.231	180.171	-0.075	0.109
-192.217	-24.875	-0.061	-0.036
-191.202	-29.340	-0.457	-0.259
-190.187	-162.984	-0.165	-0.008
-189.173	-200.000	0.051	-0.264
-188.158	-35.215	0.300	-0.162
-187.144	-106.851	0.257	-0.056
-186.129	-200.000	-0.016	0.274
-185.114	-7.039	0.379	-0.255
-184.100	-93.484	-0.360	-0.099
-183.085	40.852	0.225	-0.201
-182.071	-143.719	0.137	0.013
-181.056	-13.274	-0.155	0.100
-180.042	-198.460	-0.327	-0.002
-179.027	-200.000	0.075	-0.368
-178.012	2.358	0.280	-0.201
-176.998	-200.000	0.044	-0.244
-175.983	606.108	-0.013	0.033
-174.969	-109.907	-0.327	-0.068
-173.954	-53.600	0.288	-0.130
-172.939	60.390	0.225	0.221
-171.925	-83.147	-0.166	-0.053
-170.910	274.424	-0.085	0.149
-169.896	-200.000	-0.010	0.153
-168.881	-38.173	-0.038	-0.020
-167.866	800.000	-0.140	-0.500
-166.852	-200.000	-0.006	-0.257
-165.837	-77.550	0.192	-0.066
-164.823	800.000	-0.028	0.098
-163.808	-28.895	-0.248	-0.141
-162.793	458.693	-0.045	-0.099
-161.779	-200.000	0.003	0.257
-160.764	91.873	-0.129	0.144
-159.750	260.789	-0.077	0.131
-158.735	14.221	0.045	0.034
-157.720	29.456	-0.080	-0.067
-156.706	276.571	-0.070	-0.124
-155.691	800.000	0.046	-0.170
-154.677	-200.000	-0.026	-0.180
-153.662	-87.114	0.285	-0.086
-152.647	350.634	-0.153	-0.299
-151.633	-145.929	0.156	0.014
-150.618	-117.599	0.194	0.035
-149.604	800.000	-0.108	0.435
-148.589	-27.899	-0.110	-0.063
-147.574	-149.062	-0.178	0.014
-146.560	-184.168	0.204	0.003
-145.545	75.700	0.257	-0.268
-144.531	-81.578	0.094	0.030
-143.516	-200.000	-0.007	-0.394
-142.502	-68.024	-0.387	0.149
-141.487	-5.182	-0.286	-0.195
-140.472	-112.923	0.036	-0.007
-139.458	800.000	0.007	-0.018
-138.443	-200.000	0.008	0.683
-137.429	-143.929	-0.373	-0.035
-136.414	-41.178	0.232	-0.119
-135.399	-124.973	-0.230	0.035
-134.385	-200.000	0.016	0.355
-133.370	160.724	0.050	-0.069
-132.356	-54.340	0.437	-0.196
-131.341	-15.752	0.126	0.079
-130.326	-32.066	-0.292	-0.162
-129.312	-159.792	-0.285	-0.015
-128.297	110.329	-0.343	-0.408
-127.283	105.528	-0.190	-0.222
-126.268	32.165	0.157	-0.134
-125.253	70.221	-0.145	-0.149
-124.239	-90.282	0.133	0.038
-123.224	-77.507	-0.391	0.134
-122.210	-15.932	0.128	0.080
-121.195	-23.564	0.127	0.075
