DTS Sentinel unit serial number:	SN413079Multiplexer serial number:	ORYXHardware model number:	OX4-SRSoftware version number:	ORYX F/W v4.00 Oryx Data Collector v3.7.2.0data status	okinstallation	princeton_trtdifferential loss correction	single-endedforward channel	channel 2reverse channel	N/Adate	2019/09/13time	00:27:35forward acquisition time	60.00reverse acquisition time	0.00gamma	496.2192k internal	0.2332k external	0.2332temperature offset calibration	1.0166default loss term (dB/km)	0.3790temperature slope calibration	1.0000multiplexer offset coefficient	1.0000multiplexer slope coefficient	1.0000fibre end	0.00T internal ref (°C)	28.37T ext. ref 1 (°C)	3.72T ext. ref 2 (°C)	23.01length (m)	temperature (°C)	Stokes	anti-Stokes-747.200	-111.544	0.311	-0.064
-746.185	-185.865	0.099	-0.001
-745.171	-89.568	0.091	-0.027
-744.156	-16.588	-0.318	0.203
-743.142	-60.761	-0.439	-0.187
-742.127	-200.000	-0.072	0.316
-741.112	800.000	0.024	-0.093
-740.098	-79.060	0.082	-0.028
-739.083	325.924	0.241	0.464
-738.069	57.980	-0.070	-0.069
-737.054	13.170	-0.171	-0.133
-736.039	800.000	-0.025	0.072
-735.025	800.000	0.062	0.180
-734.010	206.723	-0.084	0.132
-732.996	800.000	-0.034	0.115
-731.981	-53.655	-0.238	0.109
-730.966	117.919	-0.231	-0.286
-729.952	376.092	-0.048	0.099
-728.937	-121.897	-0.333	-0.055
-727.923	193.836	0.141	-0.215
-726.908	-27.307	0.225	-0.132
-725.894	800.000	-0.018	0.078
-724.879	70.257	0.116	0.120
-723.864	233.590	-0.128	-0.211
-722.850	-74.972	0.365	0.131
-721.835	-200.000	-0.014	0.222
-720.821	-3.419	-0.113	-0.079
-719.806	180.856	0.046	-0.067
-718.791	126.793	-0.122	0.156
-717.777	441.313	-0.109	-0.239
-716.762	-82.410	-0.478	-0.156
-715.748	503.801	0.012	-0.027
-714.733	-200.000	-0.073	-0.340
-713.718	172.407	0.136	-0.196
-712.704	267.589	-0.144	0.254
-711.689	-36.111	0.151	-0.082
-710.675	800.000	0.044	-0.158
-709.660	-135.248	-0.350	0.042
-708.645	-4.550	0.184	-0.128
-707.631	-84.972	0.111	0.035
-706.616	18.214	-0.075	-0.060
-705.602	359.355	0.144	-0.289
-704.587	-166.853	0.436	-0.018
-703.572	-47.178	0.357	-0.175
-702.558	-200.000	-0.013	0.231
-701.543	800.000	0.036	0.108
-700.529	-108.877	0.190	-0.041
-699.514	800.000	-0.092	0.295
-698.499	-200.000	-0.019	-0.174
-697.485	-100.170	-0.230	0.058
-696.470	65.351	-0.201	0.205
-695.456	446.390	-0.161	-0.356
-694.441	-47.566	0.235	-0.114
-693.426	-118.793	-0.246	0.043
-692.412	-200.000	0.034	0.259
-691.397	-91.233	0.268	-0.077
-690.383	411.968	-0.120	0.257
-689.368	391.293	-0.038	0.080
-688.354	-128.642	0.241	-0.034
-687.339	-86.989	0.292	0.089
-686.324	-95.769	-0.214	0.057
-685.310	446.915	-0.073	0.162
-684.295	136.422	0.154	0.202
-683.281	368.954	0.074	0.151
-682.266	43.898	0.269	0.247
-681.251	-200.000	0.009	0.126
-680.237	46.360	-0.247	0.229
-679.222	-200.000	0.048	-0.356
-678.208	-200.000	-0.035	-0.252
-677.193	-200.000	-0.030	-0.264
-676.178	100.027	-0.176	-0.205
-675.164	-81.872	0.330	-0.108
-674.149	359.183	-0.043	-0.087
-673.135	-162.239	-0.053	0.003
-672.120	319.566	-0.112	-0.214
-671.105	-52.973	-0.060	0.028
-670.091	-166.372	-0.107	-0.004
-669.076	48.193	-0.068	-0.064
-668.062	178.449	-0.066	0.097
-667.047	-39.716	-0.157	0.082
-666.032	-200.000	0.003	-0.177
-665.018	-146.766	0.202	0.018
-664.003	800.000	-0.086	-0.247
-662.989	800.000	0.040	-0.167
-661.974	-40.257	-0.212	-0.110
-660.959	-133.651	-0.169	-0.021
-659.945	800.000	-0.126	0.385
-658.930	139.856	0.080	-0.106
-657.916	-133.772	0.315	-0.039
-656.901	800.000	-0.058	-0.175
-655.886	-10.163	0.189	-0.126
-654.872	-10.199	-0.100	-0.067
-653.857	146.122	0.064	-0.086
-652.843	800.000	0.039	-0.122
-651.828	379.025	0.116	-0.238
-650.814	71.664	-0.085	-0.089
-649.799	3.057	0.195	0.142
-648.784	27.659	-0.050	-0.043
-647.770	39.122	-0.064	0.057
-646.755	-200.000	0.009	0.050
-645.741	-55.633	-0.105	0.047
-644.726	480.269	0.184	-0.418
-643.711	121.214	0.055	0.069
-642.697	800.000	-0.069	0.213
-641.682	23.768	-0.045	0.037
-640.668	617.623	0.082	-0.206
-639.653	84.558	-0.041	-0.045
-638.638	-31.750	0.122	0.069
-637.624	-43.900	-0.266	-0.134
-636.609	-27.032	-0.206	-0.120
-635.595	81.295	0.105	-0.114
-634.580	-77.158	-0.142	-0.049
-633.565	800.000	0.103	0.317
-632.551	77.604	0.087	-0.093
-631.536	-200.000	0.040	-0.302
-630.522	127.321	0.110	0.140
-629.507	-172.078	-0.141	0.005
-628.492	-200.000	0.019	-0.340
-627.478	72.525	0.059	-0.061
-626.463	-42.260	-0.308	-0.157
-625.449	4.890	-0.093	0.069
-624.434	437.541	-0.295	0.645
-623.419	800.000	-0.013	-0.042
-622.405	476.695	0.069	-0.157
-621.390	46.914	-0.312	0.291
-620.376	800.000	0.028	0.108
-619.361	-37.107	0.167	0.089
-618.346	-139.791	-0.380	-0.040
-617.332	613.105	0.078	0.195
-616.317	49.237	0.191	0.180
-615.303	313.905	0.175	0.330
-614.288	10.939	0.016	0.012
-613.273	-10.722	0.107	0.071
-612.259	800.000	0.051	0.210
-611.244	-200.000	0.017	0.102
-610.230	-150.637	-0.396	0.030
-609.215	-200.000	-0.014	0.068
-608.201	-140.964	-0.316	-0.032
-607.186	800.000	0.056	-0.185
-606.171	54.798	-0.121	-0.117
-605.157	-44.768	-0.258	-0.129
-604.142	-200.000	0.006	-0.264
-603.128	147.130	-0.031	0.041
-602.113	-99.201	-0.203	0.051
-601.098	220.902	-0.235	-0.377
-600.084	-53.062	-0.244	-0.112
-599.069	-200.000	0.000	-0.131
-598.055	28.365	-0.205	-0.173
-597.040	800.000	0.107	0.306
-596.025	-75.833	-0.145	-0.051
-595.011	-89.190	-0.141	0.042
-593.996	170.279	-0.068	0.098
-592.982	322.616	0.086	-0.164
-591.967	232.497	0.058	-0.095
-590.952	100.822	0.151	0.175
-589.938	-19.248	0.082	-0.051
-588.923	-149.296	0.202	0.016
-587.909	-125.357	-0.100	0.015
-586.894	-60.253	0.105	-0.045
-585.879	134.291	0.199	0.257
-584.865	-42.581	-0.033	0.017
-583.850	-90.070	0.294	-0.086
-582.836	-26.870	0.331	0.193
-581.821	141.805	-0.160	-0.212
-580.806	-14.426	-0.174	-0.112
-579.792	-97.650	-0.455	0.118
-578.777	800.000	-0.060	0.190
-577.763	-200.000	0.006	-0.293
-576.748	-78.532	-0.241	-0.083
-575.733	-9.139	-0.285	0.190
-574.719	184.689	-0.085	-0.126
-573.704	-13.618	-0.044	0.028
-572.690	-163.727	-0.198	0.009
-571.675	366.573	-0.063	-0.127
-570.661	199.180	0.212	-0.325
-569.646	264.519	-0.137	0.238
-568.631	-180.094	-0.142	-0.003
-567.617	-135.731	0.083	-0.010
-566.602	117.238	0.040	0.049
-565.588	-126.808	0.158	-0.023
-564.573	625.524	0.056	0.140
-563.558	800.000	0.019	0.059
-562.544	8.628	0.245	0.184
-561.529	-26.730	-0.093	0.054
-560.515	-132.056	-0.107	0.014
-559.500	-53.600	0.084	-0.038
-558.485	7.496	0.221	-0.165
-557.471	800.000	-0.061	0.218
-556.456	-200.000	-0.014	0.367
-555.442	800.000	-0.066	0.240
-554.427	118.684	-0.101	-0.124
-553.412	-200.000	-0.003	0.175
-552.398	286.298	-0.025	0.046
-551.383	-200.000	-0.004	0.182
-550.369	-113.019	0.158	-0.031
-549.354	206.897	0.071	-0.110
-548.339	-54.261	-0.321	-0.145
-547.325	44.434	0.225	0.206
-546.310	65.492	0.094	-0.095
-545.296	2.647	-0.201	0.146
-544.281	-137.364	-0.137	-0.015
-543.266	39.373	0.077	0.069
-542.252	-182.211	-0.344	-0.006
-541.237	-160.921	-0.398	0.021
-540.223	72.811	-0.067	-0.070
-539.208	-200.000	0.005	0.104
-538.193	-134.016	0.627	0.077
-537.179	-37.875	0.223	0.119
-536.164	-117.697	-0.494	-0.089
-535.150	-200.000	-0.013	-0.379
-534.135	750.844	0.097	-0.260
-533.121	-51.821	0.227	0.106
-532.106	85.160	-0.297	-0.325
-531.091	18.690	-0.209	-0.167
-530.077	611.422	-0.041	-0.102
-529.062	295.557	0.102	0.186
-528.048	800.000	0.036	-0.132
-527.033	304.505	-0.073	-0.135
-526.018	115.005	0.172	0.210
-525.004	-152.268	-0.261	0.019
-523.989	-5.681	-0.177	0.121
-522.975	131.522	0.064	0.082
-521.960	244.091	-0.202	-0.339
-520.945	-81.540	0.236	-0.077
-519.931	71.445	-0.151	-0.157
-518.916	-141.124	0.488	-0.050
-517.902	25.198	0.075	-0.062
-516.887	-11.736	0.365	-0.239
-515.872	425.204	0.058	-0.124
-514.858	-113.424	0.302	0.059
-513.843	-200.000	-0.005	-0.064
-512.829	153.946	-0.040	0.055
-511.814	88.904	0.079	0.087
-510.799	-200.000	0.135	0.001
-509.785	-88.719	-0.157	0.046
-508.770	-121.854	0.323	-0.053
-507.756	-76.547	-0.133	0.047
-506.741	800.000	-0.035	-0.127
-505.726	-60.705	-0.277	0.117
-504.712	-200.000	0.019	-0.264
-503.697	-125.529	-0.049	0.007
-502.683	-87.874	-0.236	-0.071
-501.668	344.272	0.046	-0.090
-500.653	-24.763	0.197	0.117
-499.639	-200.000	0.024	0.233
-498.624	-108.928	0.098	0.021
-497.610	111.619	0.183	0.220
-496.595	-143.358	0.278	-0.027
-495.581	180.262	0.026	0.038
-494.566	16.965	-0.260	-0.205
-493.551	-38.564	-0.051	0.027
-492.537	-68.941	0.256	0.099
-491.522	7.231	0.128	-0.095
-490.508	-175.879	0.307	-0.008
-489.493	304.421	0.075	-0.140
-488.478	-8.852	-0.195	-0.130
-487.464	-133.177	0.201	-0.025
-486.449	-200.000	-0.233	0.000
-485.435	115.664	-0.049	-0.060
-484.420	-131.276	-0.311	-0.041
-483.405	101.770	0.270	0.314
-482.391	-157.744	-0.286	-0.017
-481.376	800.000	0.065	0.186
-480.362	3.042	0.113	-0.082
-479.347	-4.595	-0.061	0.042
-478.332	67.843	-0.114	0.116
-477.318	-53.392	-0.236	0.108
-476.303	24.404	-0.040	-0.033
-475.289	-200.000	0.021	-0.269
-474.274	-56.254	0.357	0.158
-473.259	736.510	-0.112	-0.299
-472.245	226.812	-0.244	0.394
-471.230	-102.063	0.065	-0.015
-470.216	-193.292	0.119	-0.001
-469.201	-148.821	-0.288	-0.023
-468.186	-200.000	0.028	-0.331
-467.172	-22.744	0.175	-0.105
-466.157	-43.855	-0.171	0.086
-465.143	7.133	-0.122	0.090
-464.128	-89.184	-0.020	0.006
-463.113	800.000	-0.061	0.205
-462.099	-138.278	0.263	0.029
-461.084	96.057	0.235	0.267
-460.070	-144.710	0.199	0.018
-459.055	136.396	0.098	0.127
-458.040	-54.632	0.145	-0.065
-457.026	181.079	-0.180	0.264
-456.011	-200.000	0.008	0.093
-454.997	449.089	0.080	0.175
-453.982	7.240	-0.212	-0.157
-452.968	-35.425	-0.308	-0.167
-451.953	16.779	0.111	-0.087
-450.938	-200.000	-0.073	0.337
-449.924	-200.000	0.003	-0.040
-448.909	7.792	0.178	-0.132
-447.895	7.404	0.155	0.115
-446.880	57.774	-0.120	-0.117
-445.865	-6.526	-0.291	-0.197
-444.851	-200.000	0.032	-0.239
-443.836	-167.464	0.220	0.009
-442.822	208.687	0.031	0.049
-441.807	155.152	0.114	-0.155
-440.792	800.000	0.064	-0.275
-439.778	29.205	-0.087	-0.073
-438.763	36.640	0.340	0.299
-437.749	178.201	0.066	0.095
-436.734	-70.236	0.398	0.150
-435.719	-63.058	-0.269	-0.111
-434.705	94.397	-0.021	-0.023
-433.690	800.000	-0.064	0.255
-432.676	-42.329	0.411	0.209
-431.661	40.816	0.100	-0.090
-430.646	472.317	-0.049	0.109
-429.632	691.513	0.138	-0.359
-428.617	584.197	0.025	0.061
-427.603	-194.837	0.404	-0.003
-426.588	2.904	-0.239	0.172
-425.573	-64.727	0.072	0.029
-424.559	-120.546	0.478	0.081
-423.544	163.850	-0.118	0.165
-422.530	222.562	-0.099	0.158
-421.515	-117.240	-0.169	-0.031
-420.500	-14.347	0.196	-0.126
-419.486	226.412	0.073	0.117
-418.471	354.761	-0.137	-0.271
-417.457	-200.000	-0.032	0.145
-416.442	-79.723	0.097	0.032
-415.428	590.707	-0.034	-0.083
-414.413	-58.957	0.251	-0.108
-413.398	319.233	-0.049	0.091
-412.384	61.077	-0.185	0.182
-411.369	800.000	0.086	0.263
-410.355	-54.547	0.103	0.046
-409.340	116.366	0.157	-0.191
-408.325	-200.000	0.060	0.406
-407.311	-200.000	0.089	0.434
-406.296	144.309	-0.159	0.210
-405.282	-200.000	-0.020	0.186
-404.267	722.439	-0.116	-0.307
-403.252	214.925	-0.210	0.330
-402.238	-142.344	-0.094	0.009
-401.223	-43.388	0.220	-0.110
-400.209	-2.666	-0.082	-0.057
-399.194	800.000	-0.110	-0.328
-398.179	517.684	-0.054	-0.126
-397.165	800.000	0.034	0.146
-396.150	99.739	-0.065	-0.074
-395.136	-170.528	0.275	-0.009
-394.121	31.370	-0.323	-0.275
-393.106	-110.896	0.212	0.043
-392.092	675.699	0.039	0.102
-391.077	-44.077	0.341	-0.170
-390.063	-200.000	0.005	0.065
-389.048	800.000	-0.071	-0.195
-388.033	112.376	0.186	0.223
-387.019	-200.000	0.007	0.293
-386.004	800.000	-0.089	0.274
-384.990	-200.000	-0.098	-0.432
-383.975	-101.087	0.131	-0.032
-382.960	683.805	0.193	0.501
-381.946	-200.000	-0.035	0.311
-380.931	447.165	0.051	-0.111
-379.917	235.774	-0.202	-0.332
-378.902	38.137	-0.120	0.106
-377.888	-18.023	-0.191	0.119
-376.873	139.234	0.210	-0.273
-375.858	51.667	0.116	-0.109
-374.844	76.599	0.110	0.116
-373.829	21.921	0.226	-0.182
-372.815	-81.451	-0.365	-0.119
-371.800	77.971	0.065	0.069
-370.785	-104.015	-0.059	0.014
-369.771	-150.784	0.280	-0.021
-368.756	592.672	-0.021	0.052
-367.742	23.466	-0.134	-0.109
-366.727	-71.758	0.026	-0.010
-365.712	-43.861	-0.173	-0.086
-364.698	734.956	-0.059	-0.157
-363.683	-185.352	0.241	0.004
-362.669	311.377	0.121	-0.225
-361.654	-200.000	0.049	0.283
-360.639	-200.000	0.019	0.158
-359.625	-200.000	-0.012	-0.261
-358.610	-177.124	-0.306	-0.008
-357.596	-110.913	-0.154	-0.031
-356.581	-103.354	0.187	0.044
-355.566	-200.000	0.059	-0.396
-354.552	800.000	0.093	-0.371
-353.537	-200.000	-0.003	-0.021
-352.523	-200.000	-0.012	-0.074
-351.508	-200.000	-0.033	0.182
-350.493	788.363	-0.081	-0.220
-349.479	221.087	0.204	0.324
-348.464	-38.102	-0.309	-0.163
-347.450	284.586	-0.073	0.130
-346.435	4.977	-0.032	0.024
-345.420	-49.627	-0.352	0.166
-344.406	-200.000	-0.003	-0.019
-343.391	133.199	-0.217	-0.278
-342.377	-87.945	-0.134	0.040
-341.362	268.659	-0.153	-0.266
-340.348	-12.376	0.381	-0.247
-339.333	-91.904	0.134	0.038
-338.318	-179.144	-0.174	-0.004
-337.304	216.427	-0.196	0.308
-336.289	-158.825	-0.134	0.008
-335.275	-10.853	0.124	0.081
-334.260	-18.145	-0.216	-0.134
-333.245	-200.000	-0.015	0.122
-332.231	-200.000	-0.007	0.097
-331.216	800.000	-0.056	-0.163
-330.202	-200.000	0.018	-0.295
-329.187	-83.489	0.047	0.015
-328.172	-37.870	0.229	0.120
-327.158	60.981	0.028	-0.028
-326.143	778.491	-0.080	0.217
-325.129	-200.000	-0.058	0.329
-324.114	87.867	0.065	0.071
-323.099	-98.078	0.322	-0.082
-322.085	-100.646	-0.226	-0.055
-321.070	-200.000	0.036	-0.220
-320.056	800.000	0.099	-0.334
-319.041	800.000	-0.088	0.339
-318.026	465.808	0.080	0.178
-317.012	-77.321	0.089	-0.031
-315.997	141.049	0.117	0.153
-314.983	75.984	-0.097	0.102
-313.968	-196.823	-0.433	0.003
-312.953	-200.000	0.008	-0.037
-311.939	-200.000	-0.014	0.184
-310.924	-126.541	0.223	-0.033
-309.910	-68.950	0.292	-0.111
-308.895	158.624	-0.183	0.252
-307.880	-96.038	0.457	0.120
-306.866	-141.265	-0.323	0.032
-305.851	-98.184	-0.168	-0.043
-304.837	-158.130	0.135	0.008
-303.822	-200.000	0.006	-0.108
-302.807	-200.000	0.029	-0.445
-301.793	800.000	0.093	0.313
-300.778	-107.711	-0.096	-0.021
-299.764	-41.715	0.372	-0.189
-298.749	5.344	0.273	0.199
-297.735	800.000	0.109	-0.347
-296.720	-17.570	-0.114	-0.071
-295.705	-134.337	0.179	-0.022
-294.691	-200.000	0.027	-0.232
-293.676	800.000	-0.060	0.223
-292.662	28.343	-0.024	0.020
-291.647	719.139	-0.072	-0.188
-290.632	190.177	0.229	0.340
-289.618	-159.917	0.211	0.011
-288.603	-140.691	-0.413	0.042
-287.589	800.000	0.123	-0.371
-286.574	-103.246	0.268	0.062
-285.559	-98.258	0.235	0.060
-284.545	-200.000	0.025	0.159
-283.530	74.833	-0.084	-0.088
-282.516	-106.287	-0.260	-0.057
-281.501	-0.458	-0.284	-0.199
-280.486	-2.166	0.092	0.063
-279.472	224.727	-0.107	-0.172
-278.457	-97.064	-0.291	-0.075
-277.443	87.021	0.106	-0.115
-276.428	800.000	-0.032	-0.116
-275.413	42.654	0.094	0.085
-274.399	-200.000	-0.036	0.267
-273.384	20.743	0.198	-0.158
-272.370	800.000	0.053	0.226
-271.355	-200.000	-0.005	0.079
-270.340	-37.020	0.132	-0.070
-269.326	52.830	0.266	0.251
-268.311	144.056	0.201	-0.265
-267.297	-83.926	-0.412	0.130
-266.282	-178.232	-0.277	-0.006
-265.267	-200.000	0.007	0.102
-264.253	-117.596	-0.254	-0.045
-263.238	-101.292	0.265	-0.064
-262.224	18.229	-0.151	0.119
-261.209	66.602	-0.031	0.032
-260.195	-85.157	0.286	-0.088
-259.180	-200.000	-0.021	-0.210
-258.165	-80.332	-0.159	0.052
-257.151	72.919	0.427	0.440
-256.136	122.931	-0.058	0.072
-255.122	-63.472	-0.030	0.012
-254.107	-70.496	0.140	-0.052
-253.092	-1.925	-0.121	0.084
-252.078	-125.769	0.253	-0.038
-251.063	-32.035	-0.195	-0.107
-250.049	114.456	0.055	0.066
-249.034	-19.661	-0.075	0.046
-248.019	47.052	0.224	0.206
-247.005	-39.249	0.234	-0.121
-245.990	800.000	-0.066	0.212
-244.976	283.728	0.186	-0.330
-243.961	-200.000	-0.023	0.160
-242.946	69.338	0.070	0.071
-241.932	-40.015	0.246	-0.126
-240.917	206.634	-0.190	-0.292
-239.903	800.000	-0.042	-0.174
-238.888	-89.543	0.263	-0.076
-237.873	800.000	0.018	0.055
-236.859	-112.935	-0.138	-0.027
-235.844	-37.252	-0.267	0.141
-234.830	41.344	-0.208	0.185
-233.815	347.681	-0.075	0.146
-232.800	-200.000	0.015	-0.235
-231.786	138.466	0.358	-0.464
-230.771	-200.000	-0.040	-0.268
-229.757	-23.751	0.089	-0.053
-228.742	-200.000	0.013	-0.097
-227.727	-148.624	-0.299	0.024
-226.713	-200.000	-0.027	0.294
-225.698	-90.088	-0.088	-0.025
-224.684	-145.650	-0.162	-0.014
-223.669	-91.816	-0.159	-0.044
-222.655	-200.000	0.000	0.010
-221.640	-200.000	-0.016	-0.174
-220.625	88.864	0.068	-0.074
-219.611	-133.327	-0.171	0.021
-218.596	-26.688	-0.317	-0.183
-217.582	156.354	-0.092	0.126
-216.567	-44.413	-0.079	0.039
-215.552	298.612	0.050	0.090
-214.538	536.038	-0.087	0.203
-213.523	88.511	0.170	-0.186
-212.509	-200.000	0.007	-0.049
-211.494	80.208	0.151	0.160
-210.479	129.741	-0.111	0.140
-209.465	412.758	0.088	-0.185
-208.450	16.482	0.205	0.159
-207.436	-12.016	-0.135	-0.087
-206.421	349.648	-0.031	0.060
-205.406	-138.810	0.416	-0.045
-204.392	-200.000	0.019	0.085
-203.377	-187.460	0.138	-0.002
-202.363	-40.368	0.088	-0.045
-201.348	-200.000	0.068	-0.321
-200.333	-69.196	-0.081	-0.031
-199.319	-200.000	0.046	0.266
-198.304	549.022	-0.137	0.323
-197.290	-88.730	-0.135	0.040
-196.275	-184.391	-0.212	0.003
-195.260	-200.000	-0.018	-0.115
-194.246	52.368	-0.138	-0.129
-193.231	-142.831	0.312	-0.030
-192.217	184.630	-0.057	-0.083
-191.202	-20.558	-0.051	-0.031
-190.187	-59.475	0.134	-0.057
-189.173	192.141	0.037	-0.054
-188.158	-200.000	0.018	0.202
-187.144	56.756	-0.179	-0.171
-186.129	45.156	0.033	0.030
-185.114	-118.033	0.188	0.033
-184.100	-200.000	0.048	0.573
-183.085	800.000	0.031	-0.113
-182.071	446.271	-0.091	-0.198
-181.056	26.868	-0.411	-0.339
-180.042	-104.375	-0.407	0.093
-179.027	97.222	0.171	-0.193
-178.012	158.695	0.073	0.099
-176.998	-162.905	-0.233	-0.011
-175.983	800.000	0.127	0.384
-174.969	-135.385	0.296	-0.035
-173.954	-92.207	-0.236	0.065
-172.939	800.000	-0.068	-0.258
-171.925	-91.363	0.239	0.067
-170.910	18.809	-0.092	-0.072
-169.896	176.928	-0.088	0.126
-168.881	-200.000	-0.098	-0.465
-167.866	692.266	-0.089	0.230
-166.852	103.539	-0.019	-0.022
-165.837	59.708	-0.192	-0.186
-164.823	-80.773	0.299	-0.098
-163.808	436.296	0.079	-0.170
-162.793	-200.000	0.014	-0.181
-161.779	-200.000	0.003	0.179
-160.764	-200.000	0.008	0.298
-159.750	-13.072	0.065	-0.041
-158.735	-12.329	-0.103	-0.066
-157.720	43.149	0.137	-0.123
-156.706	111.297	-0.201	-0.238
-155.691	-199.178	-0.028	0.000
-154.677	268.560	-0.086	-0.147
-153.662	150.797	-0.262	0.350
-152.647	-18.419	0.312	0.192
-151.633	-200.000	0.030	0.233
-150.618	193.615	-0.122	0.181
-149.604	-200.000	-0.073	-0.443
-148.589	205.885	-0.053	0.082
-147.574	-200.000	0.015	-0.186
-146.560	42.445	-0.155	0.138
-145.545	232.059	-0.045	-0.072
-144.531	-200.000	0.020	0.102
-143.516	-200.000	0.005	-0.148
-142.502	-166.653	0.412	-0.017
-141.487	406.090	-0.042	-0.087
-140.472	800.000	0.079	0.289
-139.458	23.661	0.112	-0.090
-138.443	393.193	0.087	-0.177
-137.429	72.678	-0.052	0.054
-136.414	-127.279	0.094	0.013
-135.399	-49.688	-0.236	-0.110
-134.385	800.000	-0.087	-0.243
-133.370	400.325	-0.125	-0.258
-132.356	-0.462	0.174	-0.121
-131.341	800.000	0.113	0.474
-130.326	142.701	-0.074	-0.096
-129.312	668.775	0.079	-0.201
-128.297	-6.978	0.254	0.169
-127.283	-200.000	0.024	0.188
-126.268	-200.000	-0.015	0.075
-125.253	-89.886	-0.321	0.092
-124.239	-139.005	-0.138	0.015
-123.224	263.812	0.132	-0.225
-122.210	189.895	0.007	0.011
-121.195	-108.171	-0.424	0.090
