DTS Sentinel unit serial number:	SN413079Multiplexer serial number:	ORYXHardware model number:	OX4-SRSoftware version number:	ORYX F/W v4.00 Oryx Data Collector v3.7.2.0data status	okinstallation	princeton_trtdifferential loss correction	single-endedforward channel	channel 2reverse channel	N/Adate	2019/09/19time	07:07:34forward acquisition time	60.00reverse acquisition time	0.00gamma	496.2192k internal	0.2350k external	0.2350temperature offset calibration	1.0007default loss term (dB/km)	0.3790temperature slope calibration	1.0000multiplexer offset coefficient	1.0000multiplexer slope coefficient	1.0000fibre end	0.00T internal ref (°C)	19.02T ext. ref 1 (°C)	0.56T ext. ref 2 (°C)	13.23length (m)	temperature (°C)	Stokes	anti-Stokes-747.200	59.749	-0.097	-0.095
-746.185	-200.000	-0.008	0.078
-745.171	-169.305	-0.091	-0.003
-744.156	-200.000	0.020	0.488
-743.142	176.532	0.097	0.141
-742.127	-200.000	-0.026	0.186
-741.112	-89.448	-0.130	-0.038
-740.098	800.000	0.034	0.113
-739.083	-7.390	-0.508	0.343
-738.069	283.883	-0.075	0.135
-737.054	-158.431	0.088	-0.005
-736.039	-168.194	-0.188	0.007
-735.025	0.306	-0.310	-0.221
-734.010	108.139	-0.197	0.234
-732.996	41.952	-0.278	-0.252
-731.981	-200.000	-0.001	-0.019
-730.966	-86.860	0.035	0.011
-729.952	101.994	-0.031	0.036
-728.937	230.382	0.202	-0.330
-727.923	-67.010	-0.212	-0.084
-726.908	255.710	0.230	0.394
-725.894	-83.684	-0.358	0.114
-724.879	-55.411	-0.150	-0.067
-723.864	8.714	-0.192	0.145
-722.850	119.096	0.164	0.203
-721.835	-114.515	-0.137	-0.026
-720.821	-200.000	0.003	0.014
-719.806	31.466	0.033	0.028
-718.791	65.886	0.152	0.154
-717.777	-118.686	-0.075	0.013
-716.762	-200.000	-0.025	0.180
-715.748	-200.000	0.202	0.000
-714.733	800.000	-0.037	0.120
-713.718	-137.893	0.036	-0.004
-712.704	542.469	-0.028	-0.068
-711.689	-10.569	-0.294	-0.194
-710.675	-200.000	-0.002	-0.028
-709.660	705.100	0.108	-0.284
-708.645	411.245	0.042	0.088
-707.631	-73.573	0.212	0.077
-706.616	70.196	0.189	0.194
-705.602	27.645	-0.185	0.155
-704.587	800.000	0.019	-0.077
-703.572	-109.582	0.103	0.022
-702.558	603.908	0.102	-0.253
-701.543	800.000	-0.101	-0.334
-700.529	-100.099	-0.395	0.098
-699.514	392.303	0.119	0.247
-698.499	246.637	0.141	0.236
-697.485	27.427	0.016	-0.014
-696.470	-200.000	-0.013	-0.067
-695.456	-200.000	0.048	-0.310
-694.441	-144.188	-0.100	-0.009
-693.426	-161.273	0.355	-0.018
-692.412	-126.851	-0.385	-0.057
-691.397	52.425	-0.182	0.173
-690.383	-161.895	-0.137	-0.007
-689.368	48.081	0.181	-0.169
-688.354	-67.805	0.238	0.093
-687.339	-158.608	-0.073	0.004
-686.324	761.894	0.041	-0.110
-685.310	800.000	0.090	-0.325
-684.295	106.572	0.013	0.016
-683.281	-200.000	-0.015	0.131
-682.266	17.772	-0.224	0.178
-681.251	36.577	-0.146	-0.129
-680.237	-200.000	-0.019	0.202
-679.222	-80.765	-0.281	0.093
-678.208	-46.261	-0.289	0.141
-677.193	-128.494	0.176	0.025
-676.178	318.342	-0.055	-0.104
-675.164	178.717	-0.019	0.028
-674.149	134.424	0.160	-0.207
-673.135	51.971	-0.230	-0.218
-672.120	-122.631	-0.282	0.045
-671.105	-122.924	-0.495	0.079
-670.091	800.000	0.051	0.151
-669.076	-11.387	0.252	-0.165
-668.062	-18.644	0.263	-0.163
-667.047	392.285	0.100	-0.207
-666.032	-68.351	-0.406	-0.157
-665.018	5.010	0.024	-0.018
-664.003	-82.590	0.233	-0.075
-662.989	337.290	0.071	0.137
-661.974	-200.000	-0.045	-0.217
-660.959	-7.152	0.256	-0.173
-659.945	175.508	0.050	0.073
-658.930	-164.947	-0.090	-0.004
-657.916	-13.377	0.295	0.190
-656.901	800.000	0.090	-0.274
-655.886	-128.073	0.185	-0.026
-654.872	42.580	0.090	0.082
-653.857	-16.767	-0.435	-0.274
-652.843	-36.642	0.205	0.110
-651.828	-138.632	0.225	0.025
-650.814	800.000	-0.040	-0.112
-649.799	-47.050	0.439	0.213
-648.784	-48.071	0.314	-0.151
-647.770	-60.139	-0.114	-0.049
-646.755	-200.000	-0.050	0.259
-645.741	28.871	0.032	0.027
-644.726	288.947	0.072	0.129
-643.711	-79.511	0.161	0.054
-642.697	-71.560	-0.365	0.136
-641.682	650.042	0.082	0.208
-640.668	-133.358	-0.121	0.015
-639.653	231.313	0.134	-0.218
-638.638	202.994	-0.222	-0.341
-637.624	554.658	0.089	-0.214
-636.609	-200.000	0.023	-0.118
-635.595	-122.320	-0.281	0.046
-634.580	194.767	0.220	-0.331
-633.565	236.711	-0.022	-0.037
-632.551	800.000	-0.029	-0.080
-631.536	-49.930	0.269	-0.127
-630.522	-189.031	0.260	-0.003
-629.507	-36.819	-0.350	0.187
-628.492	303.045	0.131	0.242
-627.478	182.516	0.149	-0.218
-626.463	-200.000	-0.005	-0.081
-625.449	61.071	0.104	0.103
-624.434	1.188	-0.191	0.136
-623.419	-200.000	-0.011	-0.260
-622.405	-200.000	0.024	-0.300
-621.390	-200.000	0.054	-0.239
-620.376	253.211	-0.096	0.163
-619.361	-66.754	-0.143	-0.056
-618.346	86.051	-0.241	0.263
-617.332	-27.546	0.249	0.144
-616.317	-200.000	-0.034	-0.421
-615.303	-15.885	-0.191	0.121
-614.288	-0.762	-0.190	0.134
-613.273	11.824	0.175	-0.133
-612.259	69.505	-0.182	0.186
-611.244	415.554	0.080	0.170
-610.230	-87.839	0.192	0.058
-609.215	-200.000	0.013	-0.091
-608.201	129.480	-0.146	-0.185
-607.186	-200.000	-0.019	0.105
-606.171	-200.000	0.003	0.091
-605.157	-200.000	-0.070	-0.419
-604.142	-141.291	0.197	0.020
-603.128	-118.956	-0.542	-0.094
-602.113	-13.032	-0.232	-0.150
-601.098	-134.072	0.358	0.044
-600.084	-56.186	0.169	-0.075
-599.069	800.000	-0.067	0.222
-598.055	77.526	0.287	0.303
-597.040	32.875	0.227	0.195
-596.025	-87.236	-0.120	0.036
-595.011	362.825	0.054	0.108
-593.996	-154.703	0.612	0.040
-592.982	46.822	-0.169	-0.156
-591.967	307.220	-0.062	-0.114
-590.952	-200.000	0.010	0.332
-589.938	155.646	0.129	0.176
-588.923	-0.680	-0.150	-0.106
-587.909	-113.943	0.194	0.037
-586.894	303.934	-0.136	0.250
-585.879	-130.767	-0.288	-0.038
-584.865	-200.000	-0.035	-0.255
-583.850	123.987	-0.223	-0.278
-582.836	-39.625	-0.251	0.130
-581.821	28.984	0.041	-0.034
-580.806	44.243	-0.105	0.095
-579.792	483.676	0.069	0.156
-578.777	696.468	0.058	0.152
-577.763	30.352	0.163	-0.138
-576.748	-56.247	-0.177	0.078
-575.733	-101.381	-0.219	-0.053
-574.719	-134.512	0.212	-0.026
-573.704	16.966	0.117	0.092
-572.690	-188.447	0.186	0.002
-571.675	-84.576	0.333	-0.104
-570.661	34.403	-0.374	-0.324
-569.646	370.303	0.041	0.083
-568.631	-68.893	-0.190	-0.073
-567.617	393.804	-0.079	-0.164
-566.602	-119.163	0.092	0.016
-565.588	312.132	-0.216	-0.401
-564.573	-174.888	-0.391	-0.011
-563.558	406.599	-0.092	0.192
-562.544	-142.045	-0.172	0.017
-561.529	800.000	0.028	-0.123
-560.515	15.575	-0.126	-0.098
-559.500	460.525	-0.079	-0.174
-558.485	800.000	-0.104	0.290
-557.471	-78.099	0.306	-0.104
-556.456	146.890	0.090	0.120
-555.442	800.000	-0.067	-0.238
-554.427	-109.986	-0.316	-0.066
-553.412	-91.900	-0.184	0.052
-552.398	-58.222	0.212	-0.092
-551.383	392.566	-0.090	0.185
-550.369	-52.155	-0.085	-0.039
-549.354	800.000	0.050	-0.146
-548.339	800.000	0.053	-0.180
-547.325	-6.770	-0.078	-0.052
-546.310	-200.000	0.029	0.272
-545.296	170.231	-0.100	-0.142
-544.281	-130.071	0.151	-0.020
-543.266	-191.156	-0.333	-0.003
-542.252	-200.000	-0.023	0.224
-541.237	-74.267	0.516	0.185
-540.223	-200.000	0.222	0.000
-539.208	479.562	-0.092	-0.207
-538.193	800.000	-0.096	0.281
-537.179	259.064	-0.257	0.439
-536.164	-56.597	0.253	0.111
-535.150	-200.000	0.002	-0.197
-534.135	739.145	-0.092	0.246
-533.121	81.130	-0.257	0.275
-532.106	156.369	-0.176	0.240
-531.091	800.000	-0.035	0.112
-530.077	117.947	0.143	-0.175
-529.062	-28.987	-0.211	-0.120
-528.048	-121.387	0.395	-0.065
-527.033	303.044	0.100	-0.183
-526.018	-55.763	-0.162	-0.072
-525.004	-68.856	-0.210	-0.080
-523.989	-200.000	0.015	-0.085
-522.975	-83.938	-0.202	0.063
-521.960	-71.434	0.244	-0.090
-520.945	-78.778	0.271	0.092
-519.931	434.057	-0.172	-0.369
-518.916	-200.000	-0.017	-0.186
-517.902	128.763	-0.136	-0.171
-516.887	-200.000	-0.012	-0.102
-515.872	44.553	0.179	-0.163
-514.858	-39.874	0.117	0.061
-513.843	259.289	-0.107	-0.183
-512.829	800.000	0.127	-0.533
-511.814	-200.000	-0.016	0.129
-510.799	-48.011	-0.257	0.123
-509.785	91.154	-0.191	0.212
-508.770	337.208	0.207	0.398
-507.756	104.453	-0.181	-0.210
-506.741	-200.000	0.016	0.443
-505.726	-4.315	-0.029	-0.020
-504.712	128.815	0.189	-0.238
-503.697	-114.858	0.175	-0.033
-502.683	-176.489	0.180	0.005
-501.668	-47.490	-0.184	-0.088
-500.653	-200.000	0.072	0.469
-499.639	-113.499	-0.077	-0.015
-498.624	215.693	-0.287	0.451
-497.610	-200.000	-0.001	0.177
-496.595	28.192	0.115	0.096
-495.581	41.286	0.013	-0.012
-494.566	-200.000	0.020	0.463
-493.551	325.086	0.162	0.307
-492.537	-200.000	-0.060	-0.464
-491.522	-128.320	-0.183	-0.026
-490.508	150.015	0.126	-0.169
-489.493	125.351	0.119	-0.148
-488.478	-200.000	0.025	0.225
-487.464	418.179	-0.028	-0.060
-486.449	172.776	0.055	0.078
-485.435	-40.192	-0.244	-0.126
-484.420	-178.378	0.412	0.009
-483.405	82.308	-0.166	0.178
-482.391	173.938	0.086	0.122
-481.376	800.000	-0.028	0.112
-480.362	-200.000	0.067	-0.412
-479.347	178.890	0.223	-0.322
-478.332	87.218	-0.128	-0.140
-477.318	-137.081	-0.185	0.021
-476.303	-12.590	0.283	0.182
-475.289	266.909	0.010	-0.017
-474.274	-200.000	-0.026	-0.185
-473.259	575.831	0.046	0.111
-472.245	-200.000	0.005	-0.043
-471.230	-108.949	-0.062	0.013
-470.216	-30.455	-0.076	0.043
-469.201	-58.942	-0.301	-0.128
-468.186	800.000	-0.056	0.210
-467.172	-100.402	0.331	0.081
-466.157	-134.988	-0.140	-0.017
-465.143	-138.187	0.085	0.009
-464.128	-95.925	0.145	0.038
-463.113	-99.953	0.127	0.031
-462.099	-73.913	-0.394	-0.141
-461.084	85.256	0.038	-0.041
-460.070	-200.000	-0.003	-0.055
-459.055	-64.549	-0.129	0.052
-458.040	-200.000	0.013	-0.351
-457.026	-69.794	0.313	0.118
-456.011	385.287	-0.135	0.275
-454.997	800.000	-0.082	-0.307
-453.982	41.795	-0.194	-0.173
-452.968	-72.976	-0.265	0.096
-451.953	26.082	0.331	0.273
-450.938	548.149	0.139	-0.327
-449.924	-121.867	-0.091	-0.015
-448.909	-43.134	0.115	0.057
-447.895	-145.551	-0.149	0.013
-446.880	800.000	0.156	-0.547
-445.865	402.126	-0.041	0.086
-444.851	-114.851	-0.069	-0.013
-443.836	-200.000	-0.019	0.086
-442.822	-108.825	-0.329	-0.069
-441.807	-138.872	0.129	0.014
-440.792	754.347	0.038	-0.102
-439.778	56.483	-0.322	0.309
-438.763	-200.000	0.012	0.155
-437.749	800.000	0.052	-0.209
-436.734	84.483	-0.117	-0.126
-435.719	187.183	-0.187	-0.275
-434.705	-200.000	0.001	-0.130
-433.690	68.103	0.251	-0.254
-432.676	230.884	0.139	0.225
-431.661	-143.283	0.168	-0.016
-430.646	-200.000	-0.039	0.184
-429.632	568.140	0.118	0.283
-428.617	13.115	0.080	-0.061
-427.603	154.907	-0.125	-0.169
-426.588	-97.020	0.208	0.054
-425.573	800.000	0.091	0.371
-424.559	-41.691	0.106	0.054
-423.544	-70.126	-0.174	0.065
-422.530	2.207	-0.177	-0.126
-421.515	-93.846	-0.260	-0.070
-420.500	-54.851	-0.136	-0.060
-419.486	205.771	0.063	-0.097
-418.471	101.712	-0.149	-0.172
-417.457	-97.080	0.219	0.057
-416.442	291.290	-0.106	-0.189
-415.428	-61.233	0.171	-0.071
-414.413	75.098	0.343	-0.356
-413.398	-7.536	-0.251	-0.167
-412.384	-106.356	-0.212	0.047
-411.369	31.905	-0.115	0.098
-410.355	-101.259	-0.280	-0.067
-409.340	59.170	0.315	-0.305
-408.325	-8.660	-0.087	0.057
-407.311	144.376	-0.102	-0.135
-406.296	-59.319	-0.094	0.040
-405.282	-35.927	0.441	-0.235
-404.267	-63.596	0.228	-0.092
-403.252	77.337	-0.130	-0.136
-402.238	-200.000	0.008	-0.105
-401.223	220.356	-0.060	-0.095
-400.209	-38.081	-0.052	-0.027
-399.194	97.550	-0.299	-0.339
-398.179	-4.675	-0.149	-0.102
-397.165	-151.761	-0.225	0.016
-396.150	194.577	-0.104	0.155
-395.136	623.579	0.122	-0.302
-394.121	-29.392	0.363	0.205
-393.106	123.768	-0.346	0.428
-392.092	-200.000	-0.001	-0.055
-391.077	8.832	-0.049	-0.036
-390.063	-61.053	0.172	0.072
-389.048	-23.607	0.165	-0.098
-388.033	476.095	0.052	0.117
-387.019	-200.000	0.031	-0.219
-386.004	7.450	-0.213	0.156
-384.990	800.000	-0.053	0.169
-383.975	157.845	0.132	0.180
-382.960	-89.921	0.356	0.102
-381.946	25.081	0.245	-0.200
-380.931	207.352	-0.036	0.056
-379.917	-114.480	-0.410	-0.077
-378.902	-167.371	0.101	0.004
-377.888	-8.529	0.301	-0.199
-376.873	800.000	-0.098	0.398
-375.858	-200.000	0.018	-0.110
-374.844	18.105	0.204	-0.160
-373.829	61.010	0.155	0.151
-372.815	-83.035	0.398	0.126
-371.800	-147.865	-0.048	0.004
-370.785	262.431	0.032	-0.055
-369.771	-200.000	-0.051	0.237
-368.756	-200.000	-0.037	0.267
-367.742	-200.000	0.008	0.204
-366.727	-39.660	0.218	-0.112
-365.712	116.365	-0.150	-0.180
-364.698	800.000	0.030	0.090
-363.683	-135.075	0.354	-0.042
-362.669	49.519	-0.198	0.184
-361.654	-72.294	-0.135	0.049
-360.639	111.168	-0.253	0.299
-359.625	40.511	0.234	0.208
-358.610	-200.000	0.061	0.305
-357.596	800.000	-0.086	-0.244
-356.581	5.988	-0.156	0.114
-355.566	246.939	0.017	0.029
-354.552	-200.000	-0.057	0.323
-353.537	144.027	-0.124	0.163
-352.523	-37.327	-0.122	-0.064
-351.508	-200.000	0.014	0.142
-350.493	-16.523	0.056	-0.035
-349.479	37.762	0.216	0.188
-348.464	-32.274	-0.256	0.140
-347.450	599.680	-0.052	-0.128
-346.435	157.720	-0.144	-0.196
-345.420	75.697	0.156	0.162
-344.406	152.303	0.084	-0.113
-343.391	7.051	0.136	-0.100
-342.377	-122.768	0.207	0.033
-341.362	-100.497	0.075	0.018
-340.348	170.266	-0.186	-0.262
-339.333	360.768	-0.203	0.399
-338.318	84.812	0.107	0.116
-337.304	1.089	0.222	-0.157
-336.289	-95.141	0.399	-0.106
-335.275	-200.000	-0.036	-0.197
-334.260	16.051	-0.219	-0.169
-333.245	-200.000	0.007	-0.037
-332.231	-107.296	-0.123	-0.027
-331.216	-175.891	0.156	0.004
-330.202	28.323	-0.201	-0.167
-329.187	9.692	0.242	-0.181
-328.172	32.826	-0.095	0.081
-327.158	-59.804	-0.075	-0.031
-326.143	110.605	0.149	-0.176
-325.129	-200.000	0.007	0.134
-324.114	-200.000	0.002	-0.080
-323.099	-200.000	-0.025	-0.157
-322.085	140.978	-0.102	-0.132
-321.070	-200.000	-0.001	-0.213
-320.056	350.745	0.255	0.495
-319.041	-86.583	0.047	0.014
-318.026	8.759	-0.247	0.182
-317.012	682.342	0.084	-0.214
-315.997	-48.490	0.180	0.085
-314.983	-200.000	0.043	0.391
-313.968	-106.256	0.342	-0.075
-312.953	-20.679	-0.051	-0.031
-311.939	-200.000	-0.039	-0.267
-310.924	400.085	0.129	0.266
-309.910	59.316	-0.193	0.187
-308.895	-141.302	-0.280	-0.028
-307.880	-13.952	0.247	-0.157
-306.866	15.362	0.419	-0.323
-305.851	-120.215	0.308	-0.052
-304.837	-98.088	-0.156	-0.039
-303.822	-149.201	0.168	0.013
-302.807	69.816	-0.070	-0.070
-301.793	-200.000	0.037	0.196
-300.778	-78.560	0.221	-0.074
-299.764	478.230	-0.065	-0.144
-298.749	-69.518	-0.189	-0.071
-297.735	187.317	-0.082	-0.121
-296.720	45.545	0.255	0.231
-295.705	-28.668	0.124	-0.070
-294.691	-67.124	0.132	-0.051
-293.676	800.000	0.093	0.267
-292.662	-46.546	0.251	0.121
-291.647	-15.142	-0.236	0.148
-290.632	-200.000	0.031	-0.159
-289.618	210.994	0.069	0.106
-288.603	-200.000	0.031	0.271
-287.589	-51.818	-0.129	-0.059
-286.574	-169.286	0.232	0.008
-285.559	-127.719	-0.069	0.010
-284.545	338.054	0.110	-0.210
-283.530	-26.547	-0.090	-0.052
-282.516	-120.300	0.139	-0.023
-281.501	363.353	-0.117	-0.230
-280.486	800.000	-0.079	0.232
-279.472	160.789	-0.217	0.296
-278.457	-200.000	0.001	-0.172
-277.443	-93.769	0.151	-0.041
-276.428	-78.162	-0.177	-0.060
-275.413	800.000	-0.084	-0.317
-274.399	7.714	-0.161	-0.118
-273.384	-50.602	-0.277	0.128
-272.370	-200.000	0.040	0.257
-271.355	-157.667	0.180	0.011
-270.340	151.877	0.097	-0.129
-269.326	4.833	0.309	-0.223
-268.311	-96.561	-0.171	0.044
-267.297	-200.000	0.066	-0.308
-266.282	800.000	-0.040	0.112
-265.267	-85.640	-0.291	0.089
-264.253	-135.054	0.233	0.028
-263.238	-93.078	0.391	0.107
-262.224	-1.603	-0.547	0.377
-261.209	-81.067	0.046	0.015
-260.195	-200.000	0.001	-0.294
-259.180	-51.151	0.232	-0.106
-258.165	-200.000	0.011	-0.398
-257.151	-200.000	0.009	0.199
-256.136	-159.059	-0.165	0.009
-255.122	-96.103	-0.221	0.057
-254.107	800.000	0.055	-0.220
-253.092	273.640	0.085	-0.148
-252.078	4.017	-0.142	0.102
-251.063	-200.000	0.007	-0.239
-250.049	753.290	-0.058	-0.153
-249.034	86.414	0.092	0.100
-248.019	151.321	0.067	-0.090
-247.005	-200.000	-0.031	-0.201
-245.990	-83.400	0.265	-0.083
-244.976	51.472	-0.058	-0.054
-243.961	-70.220	0.375	-0.139
-242.946	126.173	-0.076	-0.094
-241.932	-76.669	-0.248	0.085
-240.917	109.428	0.070	0.082
-239.903	68.322	-0.132	0.132
-238.888	-124.656	-0.203	0.031
-237.873	57.342	-0.158	-0.151
-236.859	48.920	0.162	0.149
-235.844	800.000	-0.108	0.359
-234.830	69.434	-0.174	-0.175
-233.815	-57.132	0.046	0.020
-232.800	-56.711	-0.089	-0.039
-231.786	370.502	-0.226	0.449
-230.771	800.000	0.102	-0.429
-229.757	800.000	0.097	-0.344
-228.742	16.921	0.336	0.260
-227.727	-164.002	-0.223	-0.010
-226.713	19.123	-0.363	0.285
-225.698	-200.000	-0.004	0.240
-224.684	158.040	0.143	-0.194
-223.669	53.201	0.081	-0.076
-222.655	-171.858	0.218	0.007
-221.640	310.644	-0.015	-0.028
-220.625	-73.529	-0.361	-0.129
-219.611	309.314	0.082	0.149
-218.596	-27.120	-0.118	0.067
-217.582	43.790	0.104	-0.093
-216.567	68.417	0.209	0.210
-215.552	-83.151	0.178	0.056
-214.538	458.135	0.110	0.238
-213.523	800.000	-0.113	0.361
-212.509	-200.000	0.002	0.180
-211.494	-63.446	0.155	-0.062
-210.479	264.459	-0.029	0.050
-209.465	-64.767	0.108	-0.043
-208.450	-123.041	-0.279	0.044
-207.436	238.639	0.073	0.119
-206.421	1.143	-0.181	0.127
-205.406	483.521	0.036	-0.080
-204.392	-156.212	-0.123	0.008
-203.377	-99.492	0.109	-0.027
-202.363	-44.541	0.319	0.156
-201.348	281.845	-0.241	0.422
-200.333	176.823	0.231	0.328
-199.319	-12.101	-0.055	-0.035
-198.304	8.269	-0.182	-0.133
-197.290	22.043	-0.195	0.155
-196.275	37.857	-0.065	-0.056
-195.260	-133.160	0.202	0.025
-194.246	144.588	-0.151	0.197
-193.231	351.100	-0.041	0.079
-192.217	-43.898	0.153	0.075
-191.202	-4.903	-0.179	0.120
-190.187	-138.508	-0.392	-0.042
-189.173	800.000	0.022	-0.078
-188.158	180.309	-0.234	-0.336
-187.144	800.000	-0.033	-0.095
-186.129	32.071	0.107	-0.090
-185.114	-76.458	-0.308	0.106
-184.100	-126.338	-0.157	0.023
-183.085	228.329	0.109	0.174
-182.071	-112.815	0.129	-0.025
-181.056	116.704	-0.143	0.172
-180.042	-129.928	-0.258	-0.035
-179.027	55.279	-0.137	0.130
-178.012	-155.871	0.086	0.005
-176.998	800.000	0.114	0.439
-175.983	-18.385	0.303	-0.185
-174.969	272.078	0.062	-0.107
-173.954	124.977	0.270	-0.332
-172.939	447.603	0.107	0.230
-171.925	-110.363	-0.248	-0.050
-170.910	-200.000	0.032	-0.375
-169.896	800.000	0.051	0.194
-168.881	189.642	-0.125	-0.183
-167.866	-200.000	0.023	-0.103
-166.852	3.533	0.237	0.169
-165.837	-200.000	-0.009	-0.186
-164.823	-30.741	-0.248	0.137
-163.808	57.790	-0.174	0.166
-162.793	800.000	-0.028	0.076
-161.779	-4.909	0.222	0.149
-160.764	-200.000	-0.007	-0.441
-159.750	-200.000	-0.006	0.186
-158.735	-112.128	-0.306	-0.060
-157.720	560.233	0.046	0.108
-156.706	49.582	0.293	-0.269
-155.691	-44.658	0.062	0.030
-154.677	318.119	-0.030	-0.054
-153.662	-118.198	-0.157	-0.027
-152.647	-200.000	-0.022	0.109
-151.633	36.250	0.194	0.167
-150.618	22.762	-0.309	0.247
-149.604	83.850	0.203	0.216
-148.589	45.398	-0.238	-0.214
-147.574	-123.544	0.248	-0.038
-146.560	223.205	-0.072	-0.113
-145.545	-113.204	0.214	0.041
-144.531	9.469	0.255	0.188
-143.516	45.980	-0.061	-0.055
-142.502	420.780	-0.136	0.285
-141.487	-200.000	-0.074	0.393
-140.472	-200.000	-0.011	-0.061
-139.458	-200.000	0.049	0.231
-138.443	102.596	0.264	-0.302
-137.429	381.881	0.032	0.065
-136.414	800.000	0.064	-0.200
-135.399	486.890	0.104	0.231
-134.385	139.511	-0.088	0.113
-133.370	800.000	0.070	-0.234
-132.356	800.000	0.038	-0.159
-131.341	56.738	-0.306	-0.290
-130.326	155.546	-0.026	0.035
-129.312	-75.622	0.263	-0.091
-128.297	110.891	0.074	0.087
-127.283	87.891	-0.096	0.103
-126.268	-5.300	0.258	0.173
-125.253	-41.131	-0.243	0.122
-124.239	-3.549	0.145	-0.098
-123.224	-200.000	0.002	0.066
-122.210	-200.000	0.029	0.520
-121.195	160.868	0.188	0.255
-120.180	288.801	0.019	0.034
