DTS Sentinel unit serial number:	SN413079Multiplexer serial number:	ORYXHardware model number:	OX4-SRSoftware version number:	ORYX F/W v4.00 Oryx Data Collector v3.7.2.0data status	okinstallation	princeton_trtdifferential loss correction	single-endedforward channel	channel 2reverse channel	N/Adate	2019/09/12time	23:59:35forward acquisition time	60.00reverse acquisition time	0.00gamma	496.2192k internal	0.2332k external	0.2332temperature offset calibration	1.0174default loss term (dB/km)	0.3790temperature slope calibration	1.0000multiplexer offset coefficient	1.0000multiplexer slope coefficient	1.0000fibre end	0.00T internal ref (°C)	28.69T ext. ref 1 (°C)	3.79T ext. ref 2 (°C)	23.39length (m)	temperature (°C)	Stokes	anti-Stokes-747.200	38.949	-0.287	-0.258
-746.185	-200.000	-0.027	-0.179
-745.171	-200.000	0.036	-0.210
-744.156	-49.892	-0.303	-0.145
-743.142	-194.622	0.266	-0.002
-742.127	-89.325	-0.350	0.104
-741.112	404.099	-0.102	0.216
-740.098	4.358	0.202	-0.149
-739.083	34.891	0.059	-0.052
-738.069	184.552	-0.026	0.039
-737.054	269.446	-0.082	-0.144
-736.039	533.649	0.041	-0.099
-735.025	185.855	-0.136	0.203
-734.010	-87.777	-0.296	-0.090
-732.996	414.814	-0.091	-0.194
-731.981	-200.000	0.010	0.307
-730.966	-94.731	0.104	-0.029
-729.952	-200.000	0.023	-0.510
-728.937	-180.570	-0.481	-0.010
-727.923	223.435	0.165	0.268
-726.908	-171.971	-0.128	-0.004
-725.894	800.000	0.043	0.121
-724.879	118.632	0.051	-0.063
-723.864	611.453	0.062	-0.157
-722.850	38.163	-0.175	-0.157
-721.835	-200.000	-0.012	0.107
-720.821	516.644	-0.081	-0.191
-719.806	-200.000	0.000	0.119
-718.791	-200.000	0.020	0.285
-717.777	-44.659	-0.315	-0.158
-716.762	-200.000	-0.028	-0.203
-715.748	800.000	0.070	0.225
-714.733	15.075	0.236	0.186
-713.718	81.132	0.143	0.155
-712.704	125.928	0.227	-0.288
-711.689	-114.836	0.292	0.056
-710.675	800.000	-0.049	0.155
-709.660	-57.385	0.277	-0.122
-708.645	-121.585	-0.182	-0.030
-707.631	228.497	0.086	-0.141
-706.616	-169.418	0.444	-0.016
-705.602	-115.578	-0.346	-0.065
-704.587	-43.942	0.122	0.062
-703.572	224.150	-0.044	-0.072
-702.558	109.949	0.185	-0.222
-701.543	222.068	0.097	-0.156
-700.529	-91.892	-0.348	0.099
-699.514	-37.606	-0.145	-0.078
-698.499	2.516	-0.137	-0.100
-697.485	431.666	0.058	-0.126
-696.470	-32.882	0.126	-0.070
-695.456	-20.482	0.222	0.137
-694.441	123.964	0.105	0.132
-693.426	-163.518	-0.377	-0.018
-692.412	800.000	0.073	0.207
-691.397	14.273	-0.199	-0.156
-690.383	-37.337	0.052	0.028
-689.368	-97.667	-0.221	0.058
-688.354	-72.130	-0.375	-0.140
-687.339	800.000	-0.097	-0.373
-686.324	-132.604	-0.250	-0.032
-685.310	-123.389	0.368	-0.059
-684.295	-27.298	-0.088	0.051
-683.281	83.080	-0.234	-0.255
-682.266	-144.726	0.251	-0.023
-681.251	-200.000	0.048	-0.345
-680.237	-200.000	-0.013	-0.084
-679.222	-48.246	-0.261	-0.126
-678.208	744.861	0.082	-0.222
-677.193	33.491	-0.186	-0.162
-676.178	-170.056	0.213	-0.008
-675.164	-133.167	0.078	-0.010
-674.149	-200.000	-0.048	0.219
-673.135	486.367	-0.046	0.104
-672.120	-200.000	0.034	0.171
-671.105	477.792	-0.142	-0.322
-670.091	188.744	0.061	0.091
-669.076	-32.958	-0.232	-0.129
-668.062	211.960	0.214	-0.338
-667.047	-48.639	0.127	0.061
-666.032	-37.818	0.032	0.017
-665.018	22.960	-0.068	-0.056
-664.003	-200.000	-0.035	-0.251
-662.989	270.180	-0.106	-0.187
-661.974	25.402	-0.061	0.051
-660.959	219.465	-0.070	-0.113
-659.945	-66.894	0.217	0.086
-658.930	107.877	0.081	-0.097
-657.916	-29.861	0.222	-0.127
-656.901	-94.621	0.256	-0.070
-655.886	-200.000	-0.032	0.218
-654.872	16.583	-0.219	-0.174
-653.857	-185.578	-0.149	-0.002
-652.843	-200.000	0.003	0.025
-651.828	72.675	0.218	0.228
-650.814	-200.000	0.004	-0.076
-649.799	-200.000	0.008	-0.200
-648.784	37.635	-0.130	-0.116
-647.770	-167.141	0.090	0.004
-646.755	137.327	-0.054	-0.071
-645.741	-157.912	0.060	0.004
-644.726	93.424	0.188	0.213
-643.711	-188.439	-0.245	0.003
-642.697	83.473	-0.183	0.199
-641.682	22.105	-0.295	0.241
-640.668	-175.846	0.244	0.007
-639.653	-200.000	0.013	-0.158
-638.638	19.139	0.342	0.275
-637.624	-92.222	0.405	0.114
-636.609	36.335	0.265	0.234
-635.595	800.000	-0.066	0.218
-634.580	-54.473	-0.061	-0.028
-633.565	-200.000	-0.009	-0.533
-632.551	-31.292	0.052	-0.029
-631.536	4.524	-0.272	0.200
-630.522	-116.741	0.065	0.012
-629.507	190.819	0.087	0.130
-628.492	-200.000	-0.097	-0.455
-627.478	776.800	0.079	-0.215
-626.463	132.361	-0.121	-0.156
-625.449	480.819	0.087	-0.197
-624.434	338.071	0.189	-0.369
-623.419	800.000	0.046	0.135
-622.405	86.833	-0.090	0.100
-621.390	-2.885	-0.100	-0.070
-620.376	-86.100	-0.188	0.058
-619.361	800.000	0.001	-0.002
-618.346	-200.000	0.010	0.287
-617.332	-200.000	0.043	-0.188
-616.317	-8.174	0.235	-0.159
-615.303	198.851	0.043	0.066
-614.288	265.514	-0.145	-0.253
-613.273	248.171	0.194	-0.329
-612.259	-200.000	0.044	-0.237
-611.244	343.359	-0.182	-0.356
-610.230	-200.000	-0.021	-0.443
-609.215	800.000	-0.031	0.115
-608.201	553.480	-0.104	-0.250
-607.186	-1.409	0.064	0.045
-606.171	-47.729	0.111	-0.054
-605.157	112.890	-0.229	-0.277
-604.142	-94.866	0.300	0.081
-603.128	-46.185	0.095	-0.047
-602.113	8.526	-0.104	-0.078
-601.098	-68.607	0.187	-0.072
-600.084	800.000	0.051	-0.170
-599.069	800.000	0.076	-0.318
-598.055	-12.994	-0.232	-0.151
-597.040	140.248	0.044	-0.058
-596.025	296.760	0.190	-0.349
-595.011	74.678	0.240	0.253
-593.996	5.512	-0.068	0.050
-592.982	34.000	-0.393	0.342
-591.967	-19.032	-0.098	0.061
-590.952	-152.367	0.314	-0.023
-589.938	800.000	-0.059	0.246
-588.923	-200.000	0.013	0.184
-587.909	-160.076	0.218	0.012
-586.894	-157.715	-0.480	0.029
-585.879	335.558	0.109	-0.212
-584.865	52.130	0.257	-0.245
-583.850	-138.997	-0.224	-0.024
-582.836	-43.188	-0.259	-0.131
-581.821	317.091	0.112	0.211
-580.806	-115.793	-0.139	0.026
-579.792	-66.974	0.241	0.095
-578.777	105.074	-0.049	-0.058
-577.763	613.202	0.093	-0.233
-576.748	-140.504	0.296	0.031
-575.733	-189.351	-0.011	-0.000
-574.719	189.097	-0.149	0.223
-573.704	-140.335	0.158	0.016
-572.690	650.062	-0.098	0.252
-571.675	-132.042	0.209	0.027
-570.661	351.506	0.131	-0.258
-569.646	-200.000	-0.003	0.066
-568.631	-89.902	0.168	0.049
-567.617	-27.671	-0.153	-0.089
-566.602	-55.404	-0.065	0.029
-565.588	252.825	-0.065	0.111
-564.573	-200.000	-0.052	-0.412
-563.558	-48.159	-0.036	0.018
-562.544	-200.000	-0.011	0.175
-561.529	800.000	0.097	-0.351
-560.515	15.177	0.143	-0.112
-559.500	20.668	-0.447	-0.362
-558.485	-174.368	-0.012	-0.000
-557.471	417.124	-0.101	-0.216
-556.456	-145.624	0.083	-0.007
-555.442	683.443	-0.068	-0.176
-554.427	-116.877	-0.455	0.083
-553.412	-200.000	-0.015	-0.099
-552.398	711.956	-0.033	-0.087
-551.383	-51.364	0.254	-0.119
-550.369	-200.000	-0.043	-0.206
-549.354	-200.000	0.005	-0.063
-548.339	-115.649	0.460	0.086
-547.325	-200.000	-0.031	0.157
-546.310	-86.071	0.356	-0.110
-545.296	148.198	-0.041	-0.055
-544.281	-50.718	-0.165	0.078
-543.266	-200.000	-0.022	-0.182
-542.252	-200.000	-0.077	0.362
-541.237	34.745	-0.042	0.036
-540.223	800.000	0.059	0.187
-539.208	-34.497	0.147	-0.081
-538.193	452.294	-0.028	-0.061
-537.179	-200.000	0.016	-0.155
-536.164	-115.963	0.378	0.070
-535.150	-57.450	-0.307	-0.134
-534.135	32.959	0.120	0.103
-533.121	314.373	-0.279	-0.525
-532.106	313.431	-0.174	-0.326
-531.091	42.689	0.025	-0.022
-530.077	-88.360	-0.108	-0.032
-529.062	49.602	0.162	0.152
-528.048	-149.201	0.092	-0.007
-527.033	-200.000	-0.022	0.241
-526.018	-200.000	0.013	0.347
-525.004	-148.750	0.293	0.024
-523.989	82.304	0.156	-0.169
-522.975	-29.154	0.116	-0.067
-521.960	-124.987	-0.294	0.045
-520.945	117.668	-0.169	0.207
-519.931	137.964	-0.210	0.274
-518.916	52.590	-0.090	-0.086
-517.902	-200.000	0.071	0.425
-516.887	-85.080	-0.199	-0.062
-515.872	-200.000	-0.023	-0.105
-514.858	-200.000	-0.027	0.288
-513.843	800.000	0.076	-0.213
-512.829	124.707	0.234	-0.294
-511.814	-200.000	0.031	-0.186
-510.799	-145.582	0.094	-0.008
-509.785	-140.271	0.101	0.010
-508.770	-64.833	0.117	-0.047
-507.756	-86.267	-0.103	-0.032
-506.741	93.937	0.174	0.197
-505.726	800.000	-0.027	-0.082
-504.712	800.000	0.030	-0.108
-503.697	56.134	0.114	-0.110
-502.683	2.007	0.179	0.128
-501.668	800.000	0.179	0.507
-500.653	-52.591	0.250	0.115
-499.639	-73.342	0.269	-0.098
-498.624	2.157	0.162	-0.117
-497.610	-121.816	-0.423	-0.070
-496.595	-200.000	0.044	-0.214
-495.581	800.000	-0.052	0.191
-494.566	-77.889	0.201	-0.069
-493.551	-76.180	-0.201	0.071
-492.537	-0.754	-0.089	-0.063
-491.522	-200.000	-0.013	-0.113
-490.508	7.143	0.059	0.044
-489.493	-200.000	-0.002	-0.152
-488.478	1.361	0.119	-0.085
-487.464	245.992	0.092	-0.154
-486.449	127.987	0.228	-0.288
-485.435	-93.618	-0.065	-0.018
-484.420	-60.450	-0.219	0.093
-483.405	-30.278	-0.116	-0.066
-482.391	800.000	0.019	-0.075
-481.376	-163.341	0.467	0.022
-480.362	-63.519	0.120	0.049
-479.347	-200.000	-0.029	0.266
-478.332	-155.779	0.119	-0.008
-477.318	-200.000	-0.005	-0.304
-476.303	-61.136	-0.111	-0.047
-475.289	648.239	-0.084	-0.215
-474.274	95.701	0.081	0.092
-473.259	526.741	-0.039	-0.091
-472.245	-23.824	-0.304	-0.181
-471.230	11.646	-0.157	-0.120
-470.216	-200.000	-0.044	0.205
-469.201	-6.273	-0.180	0.122
-468.186	31.574	0.164	-0.140
-467.172	-59.751	-0.383	-0.163
-466.157	800.000	-0.087	-0.308
-465.143	-161.519	0.035	-0.002
-464.128	-96.185	-0.248	-0.065
-463.113	-29.922	0.276	0.156
-462.099	321.559	-0.073	0.137
-461.084	-135.087	0.447	0.054
-460.070	721.476	-0.025	-0.067
-459.055	-104.779	0.318	-0.073
-458.040	-200.000	0.012	-0.176
-457.026	800.000	-0.094	-0.368
-456.011	-200.000	-0.056	0.613
-454.997	283.668	-0.186	0.333
-453.982	157.008	0.180	0.248
-452.968	138.797	-0.099	0.130
-451.953	-106.427	-0.373	-0.083
-450.938	256.038	0.077	-0.132
-449.924	-58.366	0.197	0.085
-448.909	-141.918	0.361	0.036
-447.895	-200.000	0.011	-0.132
-446.880	-200.000	-0.100	-0.525
-445.865	70.494	-0.090	-0.093
-444.851	-101.866	-0.138	0.033
-443.836	-200.000	0.014	0.259
-442.822	-171.185	0.311	-0.010
-441.807	-153.634	0.362	0.025
-440.792	-19.246	-0.055	0.034
-439.778	94.548	0.390	0.441
-438.763	371.689	0.184	-0.372
-437.749	31.926	-0.117	-0.100
-436.734	-51.559	0.041	0.019
-435.719	73.154	0.219	-0.228
-434.705	-97.748	-0.186	-0.048
-433.690	-48.569	0.057	0.027
-432.676	-11.613	-0.148	-0.096
-431.661	800.000	-0.070	-0.275
-430.646	3.411	-0.159	-0.115
-429.632	-58.843	0.057	0.024
-428.617	800.000	-0.057	0.217
-427.603	54.939	-0.168	-0.161
-426.588	-11.240	0.216	-0.142
-425.573	800.000	-0.031	-0.128
-424.559	-200.000	0.008	-0.361
-423.544	-16.831	0.089	-0.056
-422.530	46.963	0.057	0.053
-421.515	-27.893	0.278	0.160
-420.500	-122.727	-0.233	0.037
-419.486	278.173	-0.112	-0.199
-418.471	440.268	0.156	-0.339
-417.457	-76.930	-0.160	0.056
-416.442	184.989	-0.157	0.231
-415.428	16.603	0.190	0.149
-414.413	60.351	0.240	-0.236
-413.398	-24.154	0.153	0.091
-412.384	-88.389	0.084	-0.025
-411.369	-200.000	-0.054	-0.248
-410.355	50.646	-0.256	0.240
-409.340	75.106	-0.387	0.405
-408.325	18.895	0.097	0.078
-407.311	138.194	0.167	0.217
-406.296	9.417	0.039	0.029
-405.282	82.236	-0.153	-0.165
-404.267	800.000	0.048	0.151
-403.252	-200.000	-0.054	-0.264
-402.238	-152.228	0.287	0.021
-401.223	136.903	-0.276	-0.358
-400.209	-200.000	-0.021	-0.142
-399.194	-140.297	-0.219	0.023
-398.179	-200.000	-0.015	0.153
-397.165	-67.442	0.191	0.075
-396.150	-200.000	-0.040	0.186
-395.136	-161.024	0.069	0.004
-394.121	-117.346	-0.141	-0.025
-393.106	-87.340	0.142	-0.043
-392.092	-59.738	0.056	0.024
-391.077	-52.939	-0.139	-0.063
-390.063	48.822	-0.259	0.241
-389.048	-163.798	-0.131	0.006
-388.033	-200.000	0.032	0.339
-387.019	79.789	-0.420	0.447
-386.004	23.331	0.181	-0.147
-384.990	-3.456	0.214	0.147
-383.975	-66.150	-0.072	-0.029
-382.960	63.385	0.119	-0.118
-381.946	320.396	0.079	-0.149
-380.931	-200.000	-0.038	0.239
-379.917	544.946	-0.119	0.281
-378.902	25.043	-0.114	0.094
-377.888	-1.384	0.213	-0.149
-376.873	206.882	0.025	-0.039
-375.858	-144.808	0.473	-0.043
-374.844	9.835	-0.291	-0.219
-373.829	-103.540	0.229	-0.053
-372.815	-59.504	-0.288	0.123
-371.800	137.633	0.171	-0.222
-370.785	236.528	0.126	0.207
-369.771	800.000	0.035	0.137
-368.756	182.963	-0.064	-0.094
-367.742	-154.570	-0.414	0.027
-366.727	-115.524	-0.180	-0.034
-365.712	225.581	-0.082	0.131
-364.698	-200.000	0.096	0.440
-363.683	-108.534	-0.098	-0.021
-362.669	-21.485	0.159	-0.096
-361.654	286.935	-0.024	-0.042
-360.639	800.000	0.089	0.283
-359.625	-103.348	0.261	0.061
-358.610	-40.877	0.176	0.090
-357.596	800.000	0.074	-0.210
-356.581	-36.947	0.159	-0.084
-355.566	-151.470	-0.299	-0.022
-354.552	208.036	-0.092	0.143
-353.537	-200.000	-0.018	0.195
-352.523	50.304	-0.104	0.097
-351.508	251.158	-0.170	-0.287
-350.493	290.275	0.076	0.137
-349.479	-200.000	-0.050	-0.402
-348.464	32.349	-0.136	0.116
-347.450	741.138	0.068	-0.180
-346.435	-200.000	-0.016	0.154
-345.420	-33.871	-0.022	-0.012
-344.406	-8.045	-0.267	-0.178
-343.391	443.746	-0.118	0.256
-342.377	-141.523	0.424	0.042
-341.362	-200.000	-0.003	-0.028
-340.348	-13.995	-0.292	-0.187
-339.333	-40.133	-0.426	0.220
-338.318	-200.000	0.042	0.329
-337.304	224.847	-0.070	0.111
-336.289	-54.696	0.215	-0.096
-335.275	215.926	0.110	-0.173
-334.260	-20.708	-0.134	-0.081
-333.245	64.100	0.162	0.161
-332.231	-151.246	-0.264	-0.020
-331.216	282.936	-0.077	0.137
-330.202	265.241	0.198	0.342
-329.187	624.974	0.046	0.116
-328.172	266.791	-0.259	0.448
-327.158	-8.883	0.153	-0.101
-326.143	-59.266	-0.192	-0.082
-325.129	27.897	-0.144	-0.120
-324.114	118.553	0.102	0.124
-323.099	-14.547	-0.134	0.085
-322.085	-110.716	-0.286	-0.058
-321.070	-200.000	-0.012	0.173
-320.056	-200.000	0.007	-0.105
-319.041	113.503	-0.162	-0.194
-318.026	-200.000	-0.087	-0.572
-317.012	331.409	-0.162	-0.310
-315.997	359.203	0.027	0.054
-314.983	133.009	-0.046	-0.059
-313.968	800.000	0.027	-0.090
-312.953	-200.000	-0.033	0.158
-311.939	-200.000	-0.003	0.091
-310.924	-200.000	-0.034	0.277
-309.910	-200.000	0.055	0.398
-308.895	18.525	0.076	0.060
-307.880	-68.436	0.230	-0.088
-306.866	-200.000	0.038	0.211
-305.851	-76.003	0.190	-0.066
-304.837	107.941	0.234	0.276
-303.822	-200.000	0.017	0.467
-302.807	146.049	0.064	-0.085
-301.793	13.234	-0.251	-0.193
-300.778	65.610	0.319	0.319
-299.764	563.247	0.066	0.159
-298.749	44.782	0.134	0.121
-297.735	24.374	0.156	-0.127
-296.720	-125.983	-0.462	-0.069
-295.705	219.774	0.083	-0.131
-294.691	73.033	-0.232	-0.240
-293.676	800.000	0.078	-0.262
-292.662	79.884	-0.035	-0.037
-291.647	-45.487	-0.221	0.108
-290.632	-117.316	-0.199	0.036
-289.618	-137.144	0.462	0.052
-288.603	-109.959	-0.264	0.055
-287.589	-77.616	-0.147	0.050
-286.574	-128.385	0.269	-0.038
-285.559	8.275	0.161	0.120
-284.545	178.480	0.009	-0.014
-283.530	131.282	-0.031	-0.040
-282.516	161.914	0.188	0.260
-281.501	-200.000	0.092	0.410
-280.486	-25.297	0.175	0.102
-279.472	-28.452	-0.181	-0.103
-278.457	-200.000	0.045	-0.268
-277.443	795.051	-0.113	0.307
-276.428	-54.605	-0.122	0.054
-275.413	800.000	0.024	-0.077
-274.399	-82.316	0.117	-0.038
-273.384	25.829	-0.157	0.129
-272.370	-200.000	0.005	0.090
-271.355	-85.880	0.328	0.100
-270.340	-24.919	-0.429	0.251
-269.326	-108.503	0.242	0.051
-268.311	-109.725	0.219	-0.046
-267.297	85.456	-0.199	-0.216
-266.282	601.886	-0.088	0.217
-265.267	93.764	0.032	-0.036
-264.253	800.000	-0.080	-0.265
-263.238	-152.244	-0.305	-0.022
-262.224	229.364	-0.074	-0.119
-261.209	800.000	0.073	-0.255
-260.195	-74.118	-0.132	0.047
-259.180	420.698	-0.034	-0.071
-258.165	208.253	-0.169	-0.260
-257.151	-59.807	-0.104	0.044
-256.136	-8.307	0.212	0.141
-255.122	-98.726	0.192	0.048
-254.107	117.885	-0.237	0.289
-253.092	800.000	0.024	0.071
-252.078	-38.547	0.242	-0.126
-251.063	406.518	0.096	-0.199
-250.049	-123.613	0.285	-0.045
-249.034	800.000	-0.034	0.094
-248.019	-200.000	-0.068	0.374
-247.005	-102.651	-0.285	0.067
-245.990	682.176	-0.082	0.210
-244.976	-200.000	-0.014	0.227
-243.961	-171.524	-0.234	0.008
-242.946	800.000	0.010	0.038
-241.932	-200.000	0.081	-0.373
-240.917	298.103	-0.127	-0.230
-239.903	790.675	0.069	0.187
-238.888	126.622	0.107	-0.134
-237.873	128.870	-0.201	0.253
-236.859	162.627	0.065	0.089
-235.844	128.457	-0.052	0.065
-234.830	-8.350	0.117	0.077
-233.815	264.326	-0.067	0.115
-232.800	-111.308	-0.168	0.034
-231.786	44.544	-0.435	-0.394
-230.771	-200.000	-0.031	-0.136
-229.757	-105.466	0.040	0.009
-228.742	-56.096	-0.128	-0.056
-227.727	-200.000	-0.006	-0.179
-226.713	-70.573	0.138	0.051
-225.698	-115.869	-0.265	-0.049
-224.684	428.636	0.136	0.290
-223.669	6.244	-0.221	0.162
-222.655	-89.649	-0.294	0.085
-221.640	800.000	0.136	0.450
-220.625	800.000	0.016	-0.063
-219.611	215.677	-0.024	-0.038
-218.596	137.442	-0.288	0.371
-217.582	-0.065	0.201	0.141
-216.567	-72.451	-0.171	-0.062
-215.552	-57.532	0.130	0.056
-214.538	-111.456	0.204	0.041
-213.523	-16.549	-0.261	-0.163
-212.509	157.346	0.028	0.038
-211.494	150.530	0.086	0.115
-210.479	118.000	0.232	-0.282
-209.465	-116.051	-0.077	0.014
-208.450	5.681	-0.221	0.161
-207.436	6.359	0.114	-0.084
-206.421	-200.000	0.045	-0.263
-205.406	800.000	0.030	0.084
-204.392	17.714	0.147	-0.115
-203.377	-200.000	-0.014	-0.104
-202.363	-39.740	-0.176	0.091
-201.348	323.304	-0.190	0.358
-200.333	140.574	0.246	0.320
-199.319	-139.759	0.176	-0.018
-198.304	800.000	-0.045	-0.165
-197.290	-67.382	0.264	0.102
-196.275	-148.961	0.165	0.013
-195.260	-200.000	0.003	-0.107
-194.246	-54.185	-0.093	0.041
-193.231	-109.723	-0.161	-0.033
-192.217	-37.317	-0.270	-0.142
-191.202	800.000	0.082	0.275
-190.187	-83.373	-0.144	0.046
-189.173	-86.820	0.154	-0.046
-188.158	244.307	-0.129	-0.214
-187.144	-99.704	-0.226	-0.056
-186.129	-113.728	0.268	0.051
-185.114	-90.755	0.201	0.057
-184.100	164.901	0.028	0.039
-183.085	756.916	-0.069	-0.183
-182.071	94.892	-0.207	0.232
-181.056	40.117	-0.159	0.141
-180.042	800.000	0.032	0.095
-179.027	657.454	-0.067	-0.170
-178.012	-200.000	0.007	0.079
-176.998	-81.430	0.124	-0.040
-175.983	48.699	-0.063	0.058
-174.969	-200.000	0.048	0.283
-173.954	-52.941	0.096	-0.044
-172.939	-188.310	0.439	0.005
-171.925	-65.462	-0.355	-0.140
-170.910	-132.498	0.356	0.045
-169.896	-70.725	-0.187	-0.069
-168.881	137.021	0.086	-0.110
-167.866	-200.000	-0.017	0.206
-166.852	-200.000	0.017	0.207
-165.837	-67.460	0.151	-0.058
-164.823	-102.357	-0.135	-0.032
-163.808	-200.000	-0.012	-0.096
-162.793	-78.263	-0.260	-0.088
-161.779	800.000	-0.123	0.444
-160.764	800.000	-0.057	-0.174
-159.750	200.491	0.053	0.079
-158.735	55.734	-0.047	0.045
-157.720	32.695	-0.155	0.132
-156.706	-200.000	0.022	-0.157
-155.691	-44.407	0.116	-0.057
-154.677	800.000	-0.057	0.228
-153.662	72.838	0.253	0.260
-152.647	-18.781	0.306	-0.187
-151.633	-141.048	-0.349	0.035
-150.618	800.000	0.060	0.180
-149.604	135.788	0.257	-0.329
-148.589	-50.868	-0.365	0.168
-147.574	208.019	-0.089	-0.136
-146.560	-85.230	-0.224	-0.069
-145.545	376.277	0.046	-0.092
-144.531	-156.345	-0.169	-0.010
-143.516	-200.000	-0.003	-0.319
-142.502	-200.000	-0.001	0.432
-141.487	-7.546	0.062	-0.041
-140.472	450.651	0.102	0.222
-139.458	-140.652	0.564	0.057
-138.443	-116.723	-0.179	-0.032
-137.429	-77.204	0.191	-0.065
-136.414	800.000	0.057	-0.192
-135.399	-200.000	-0.006	0.134
-134.385	141.274	0.160	-0.208
-133.370	-200.000	0.002	-0.203
-132.356	-139.536	-0.168	0.018
-131.341	6.025	0.158	0.115
-130.326	-175.019	-0.023	-0.001
-129.312	325.289	-0.121	-0.227
-128.297	26.923	0.172	0.141
-127.283	-200.000	0.011	0.094
-126.268	-109.840	0.197	0.041
-125.253	-53.386	0.249	-0.112
-124.239	-200.000	0.006	-0.034
-123.224	-72.564	-0.076	-0.028
-122.210	-105.275	0.510	-0.114
