DTS Sentinel unit serial number:	SN413079Multiplexer serial number:	ORYXHardware model number:	OX4-SRSoftware version number:	ORYX F/W v4.00 Oryx Data Collector v3.7.2.0data status	okinstallation	princeton_trtdifferential loss correction	single-endedforward channel	channel 2reverse channel	N/Adate	2019/09/13time	08:11:34forward acquisition time	60.00reverse acquisition time	0.00gamma	496.2192k internal	0.2333k external	0.2333temperature offset calibration	1.0193default loss term (dB/km)	0.3790temperature slope calibration	1.0000multiplexer offset coefficient	1.0000multiplexer slope coefficient	1.0000fibre end	0.00T internal ref (°C)	27.09T ext. ref 1 (°C)	4.26T ext. ref 2 (°C)	23.14length (m)	temperature (°C)	Stokes	anti-Stokes-747.200	-200.000	0.049	0.284
-746.185	-200.000	0.065	0.534
-745.171	-176.977	-0.359	0.009
-744.156	-30.711	0.064	-0.037
-743.142	-103.113	-0.223	0.053
-742.127	-200.000	-0.007	0.199
-741.112	-97.276	0.133	0.035
-740.098	-91.426	0.201	-0.058
-739.083	27.982	0.151	-0.128
-738.069	112.426	-0.044	-0.053
-737.054	48.520	-0.255	0.240
-736.039	-200.000	-0.014	-0.066
-735.025	11.321	0.293	0.226
-734.010	283.962	-0.196	-0.353
-732.996	33.465	-0.181	0.158
-731.981	-200.000	-0.014	0.127
-730.966	22.422	0.224	-0.184
-729.952	-79.287	-0.170	-0.058
-728.937	-105.983	-0.341	-0.077
-727.923	800.000	0.070	-0.227
-726.908	-22.925	0.240	-0.146
-725.894	-79.197	-0.150	0.051
-724.879	-22.787	-0.203	-0.123
-723.864	53.067	-0.246	-0.237
-722.850	158.013	-0.190	-0.264
-721.835	-66.448	0.254	-0.101
-720.821	211.148	0.029	0.045
-719.806	-174.928	-0.211	-0.006
-718.791	-200.000	-0.010	0.330
-717.777	-30.004	-0.244	-0.140
-716.762	800.000	-0.046	0.180
-715.748	-144.341	-0.106	0.010
-714.733	16.825	0.216	-0.172
-713.718	310.154	-0.112	-0.211
-712.704	-83.494	0.212	0.068
-711.689	-144.969	0.217	-0.020
-710.675	800.000	-0.118	-0.519
-709.660	-200.000	0.007	-0.138
-708.645	-200.000	-0.043	0.220
-707.631	-50.221	-0.034	-0.016
-706.616	291.712	-0.102	-0.187
-705.602	-200.000	-0.017	-0.077
-704.587	800.000	-0.034	0.137
-703.572	800.000	-0.079	0.226
-702.558	683.286	0.027	-0.071
-701.543	198.975	0.173	0.266
-700.529	-47.792	0.094	-0.046
-699.514	428.936	-0.060	-0.131
-698.499	-200.000	-0.016	-0.121
-697.485	125.924	-0.102	0.129
-696.470	145.974	0.116	0.156
-695.456	-52.205	-0.466	-0.217
-694.441	-200.000	-0.081	0.532
-693.426	-154.500	-0.203	0.014
-692.412	1.877	-0.232	-0.168
-691.397	-200.000	0.023	0.304
-690.383	-200.000	-0.006	-0.043
-689.368	410.602	0.169	-0.359
-688.354	-116.619	0.280	-0.052
-687.339	-79.874	-0.396	0.134
-686.324	192.947	0.101	-0.153
-685.310	-24.983	-0.133	0.079
-684.295	-200.000	-0.038	0.394
-683.281	-200.000	-0.003	-0.183
-682.266	-67.945	-0.071	-0.028
-681.251	800.000	-0.123	-0.391
-680.237	158.561	-0.237	-0.330
-679.222	193.769	-0.147	-0.223
-678.208	-200.000	0.039	0.421
-677.193	180.748	-0.210	-0.310
-676.178	800.000	0.049	0.153
-675.164	73.854	0.028	-0.030
-674.149	227.738	0.105	-0.172
-673.135	-200.000	0.008	-0.310
-672.120	1.640	0.230	-0.166
-671.105	-61.799	0.100	-0.042
-670.091	96.849	0.108	-0.124
-669.076	800.000	-0.048	0.147
-668.062	-128.592	-0.202	0.029
-667.047	800.000	-0.045	-0.156
-666.032	800.000	0.076	0.252
-665.018	77.350	-0.012	0.012
-664.003	-76.500	-0.455	-0.160
-662.989	-200.000	-0.001	-0.254
-661.974	-96.661	0.238	0.063
-660.959	-86.187	-0.143	-0.044
-659.945	-51.862	-0.324	-0.151
-658.930	147.841	0.129	0.174
-657.916	58.947	-0.323	-0.318
-656.901	521.566	-0.081	0.191
-655.886	628.506	-0.139	0.353
-654.872	601.746	-0.077	0.193
-653.857	-148.282	-0.154	-0.013
-652.843	275.179	-0.178	-0.316
-651.828	575.126	0.054	-0.132
-650.814	122.551	-0.104	-0.130
-649.799	338.645	0.189	0.368
-648.784	73.761	-0.274	0.287
-647.770	-45.760	0.195	0.096
-646.755	208.278	0.145	-0.226
-645.741	-25.875	0.217	-0.128
-644.726	49.432	-0.210	-0.198
-643.711	16.897	-0.043	0.034
-642.697	182.182	0.007	0.010
-641.682	490.514	-0.029	-0.066
-640.668	-200.000	-0.028	0.209
-639.653	-4.295	0.201	0.139
-638.638	38.381	0.219	0.196
-637.624	184.073	-0.094	-0.140
-636.609	800.000	-0.076	-0.263
-635.595	172.824	0.106	0.153
-634.580	238.470	-0.153	-0.254
-633.565	-66.480	-0.184	0.073
-632.551	-200.000	0.002	0.328
-631.536	441.518	0.070	-0.153
-630.522	-114.524	-0.045	-0.009
-629.507	-200.000	0.011	0.284
-628.492	-38.036	0.337	-0.179
-627.478	-4.555	0.098	-0.068
-626.463	-138.400	0.353	0.039
-625.449	-6.310	-0.271	0.185
-624.434	274.760	0.179	-0.318
-623.419	800.000	-0.065	0.268
-622.405	76.520	-0.126	-0.133
-621.390	94.881	0.158	-0.180
-620.376	-108.054	0.115	0.025
-619.361	278.801	-0.019	0.034
-618.346	76.799	-0.089	0.095
-617.332	800.000	-0.052	0.163
-616.317	-84.648	0.152	-0.048
-615.303	-9.508	0.301	0.201
-614.288	-78.803	-0.347	-0.118
-613.273	16.714	-0.095	0.075
-612.259	472.094	-0.062	-0.140
-611.244	-200.000	0.005	0.090
-610.230	800.000	0.072	-0.272
-609.215	-200.000	-0.020	-0.171
-608.201	-30.687	-0.336	-0.190
-607.186	-46.415	-0.300	0.147
-606.171	70.319	-0.069	-0.071
-605.157	-200.000	-0.020	-0.332
-604.142	-200.000	0.014	0.399
-603.128	320.489	-0.180	0.343
-602.113	28.814	-0.223	0.189
-601.098	-43.638	-0.021	0.011
-600.084	111.792	0.350	0.422
-599.069	39.552	0.252	0.226
-598.055	305.541	-0.111	-0.207
-597.040	48.214	-0.172	0.161
-596.025	-56.709	-0.116	-0.051
-595.011	-0.010	0.074	0.053
-593.996	-5.840	-0.137	-0.094
-592.982	72.615	-0.100	0.105
-591.967	-200.000	-0.051	-0.312
-590.952	394.122	-0.142	0.296
-589.938	-54.042	-0.111	-0.050
-588.923	800.000	0.023	0.090
-587.909	-37.420	0.213	0.114
-586.894	105.849	-0.147	0.174
-585.879	341.498	-0.077	0.151
-584.865	29.052	-0.045	-0.039
-583.850	-200.000	-0.010	0.135
-582.836	-47.654	0.240	-0.117
-581.821	-82.393	-0.271	-0.088
-580.806	-200.000	0.015	-0.211
-579.792	207.801	0.236	-0.368
-578.777	204.884	0.045	0.070
-577.763	53.881	0.211	-0.203
-576.748	32.281	-0.045	0.039
-575.733	32.204	0.151	0.130
-574.719	-200.000	-0.060	-0.449
-573.704	-200.000	0.028	-0.130
-572.690	-64.312	0.217	0.088
-571.675	-157.027	0.267	0.016
-570.661	-109.374	0.075	-0.016
-569.646	263.122	0.113	0.196
-568.631	31.023	-0.130	0.111
-567.617	-121.570	0.089	-0.015
-566.602	800.000	0.121	-0.462
-565.588	-28.460	-0.280	0.161
-564.573	-63.457	-0.116	0.047
-563.558	-20.620	-0.277	-0.170
-562.544	13.264	-0.063	0.049
-561.529	-139.500	0.112	0.012
-560.515	-42.800	0.108	-0.055
-559.500	545.428	-0.063	0.151
-558.485	123.580	-0.153	-0.191
-557.471	800.000	0.080	0.250
-556.456	1.923	0.124	-0.089
-555.442	-145.839	-0.335	-0.030
-554.427	474.145	0.200	-0.450
-553.412	172.038	-0.149	0.213
-552.398	227.453	-0.090	0.146
-551.383	-200.000	0.021	0.247
-550.369	-84.599	-0.534	-0.168
-549.354	450.633	-0.071	-0.156
-548.339	296.892	0.130	-0.238
-547.325	800.000	-0.133	0.528
-546.310	-15.798	-0.249	-0.158
-545.296	324.202	-0.046	0.087
-544.281	-200.000	-0.037	-0.310
-543.266	229.282	0.040	-0.065
-542.252	-159.007	-0.157	-0.009
-541.237	133.702	-0.099	-0.128
-540.223	-200.000	-0.044	-0.209
-539.208	690.861	-0.031	0.082
-538.193	121.864	-0.117	0.146
-537.179	-55.096	0.275	-0.123
-536.164	800.000	-0.040	-0.121
-535.150	173.036	-0.139	-0.199
-534.135	-91.397	0.333	-0.095
-533.121	10.098	-0.294	0.223
-532.106	316.182	-0.093	0.175
-531.091	753.952	-0.140	0.376
-530.077	-15.283	-0.306	0.195
-529.062	-61.356	-0.042	0.018
-528.048	-53.292	-0.327	0.150
-527.033	34.060	0.135	-0.117
-526.018	-114.376	0.248	0.048
-525.004	65.247	-0.264	0.266
-523.989	-200.000	-0.052	0.323
-522.975	-200.000	-0.039	0.378
-521.960	-72.869	0.081	0.030
-520.945	157.123	0.144	0.199
-519.931	800.000	-0.086	-0.294
-518.916	-86.847	0.329	0.100
-517.902	-29.574	-0.122	-0.069
-516.887	-71.630	-0.060	0.022
-515.872	175.608	-0.276	0.400
-514.858	-61.171	0.145	0.061
-513.843	-200.000	-0.001	0.133
-512.829	-27.196	0.103	-0.060
-511.814	-200.000	0.001	0.039
-510.799	116.547	-0.108	-0.132
-509.785	416.283	0.047	0.101
-508.770	210.158	0.239	-0.374
-507.756	207.725	-0.135	-0.211
-506.741	-35.151	0.254	-0.138
-505.726	274.472	0.243	0.428
-504.712	-59.078	0.156	-0.067
-503.697	412.397	0.057	-0.120
-502.683	-76.256	-0.273	-0.096
-501.668	-33.274	-0.045	0.025
-500.653	-115.236	-0.190	-0.036
-499.639	130.732	0.129	-0.165
-498.624	-124.621	0.460	-0.071
-497.610	800.000	0.121	-0.403
-496.595	800.000	-0.029	-0.110
-495.581	-59.934	-0.321	-0.137
-494.566	800.000	0.024	-0.091
-493.551	520.506	0.108	-0.252
-492.537	59.259	-0.158	0.155
-491.522	-200.000	-0.004	0.151
-490.508	148.093	0.031	-0.041
-489.493	-200.000	-0.001	-0.089
-488.478	-112.578	0.031	-0.006
-487.464	-156.253	-0.225	-0.014
-486.449	3.370	0.282	0.204
-485.435	50.218	-0.093	-0.088
-484.420	50.595	0.074	-0.070
-483.405	800.000	0.036	0.134
-482.391	-200.000	-0.016	-0.403
-481.376	800.000	-0.062	-0.182
-480.362	-200.000	0.019	-0.217
-479.347	-200.000	-0.023	-0.237
-478.332	32.213	-0.408	-0.351
-477.318	347.931	-0.078	0.153
-476.303	-54.365	0.241	-0.109
-475.289	-17.341	0.075	-0.047
-474.274	-86.384	-0.251	-0.077
-473.259	-200.000	-0.037	0.331
-472.245	52.865	-0.218	-0.208
-471.230	-146.256	0.326	-0.028
-470.216	-4.062	0.128	-0.088
-469.201	-124.779	0.187	0.029
-468.186	-68.640	0.182	0.070
-467.172	166.572	-0.285	0.401
-466.157	-138.401	-0.263	-0.029
-465.143	195.540	0.029	-0.044
-464.128	-91.330	0.277	0.079
-463.113	-0.391	0.165	-0.116
-462.099	-200.000	-0.022	0.132
-461.084	181.459	0.142	-0.208
-460.070	800.000	0.055	-0.193
-459.055	255.848	-0.018	0.030
-458.040	308.788	-0.151	0.280
-457.026	-109.293	-0.132	0.028
-456.011	-200.000	-0.035	-0.183
-454.997	404.855	0.107	-0.223
-453.982	-200.000	0.014	0.276
-452.968	-113.553	-0.239	0.046
-451.953	800.000	0.039	0.127
-450.938	-149.048	0.098	-0.008
-449.924	-47.317	0.304	-0.147
-448.909	63.336	-0.207	-0.206
-447.895	-200.000	0.031	0.236
-446.880	-80.679	0.171	-0.057
-445.865	-62.324	0.349	-0.144
-444.851	800.000	0.092	-0.269
-443.836	13.824	-0.113	-0.087
-442.822	-130.356	-0.153	0.021
-441.807	800.000	-0.118	0.354
-440.792	138.867	0.072	-0.094
-439.778	253.878	-0.109	-0.185
-438.763	-5.352	0.084	-0.057
-437.749	-14.076	0.278	0.178
-436.734	-200.000	-0.002	0.124
-435.719	299.350	-0.094	-0.172
-434.705	-200.000	0.002	-0.237
-433.690	231.471	-0.123	0.200
-432.676	-200.000	0.001	0.062
-431.661	-115.479	-0.101	0.019
-430.646	59.926	0.276	0.270
-429.632	716.581	-0.046	0.121
-428.617	120.727	0.079	0.097
-427.603	800.000	0.073	0.250
-426.588	-38.889	-0.198	-0.104
-425.573	800.000	-0.029	0.105
-424.559	-200.000	0.014	0.102
-423.544	800.000	-0.070	0.199
-422.530	-200.000	-0.071	0.395
-421.515	252.484	0.132	0.223
-420.500	-17.598	0.321	-0.201
-419.486	-82.424	-0.138	-0.045
-418.471	800.000	0.102	0.329
-417.457	-26.610	-0.474	-0.276
-416.442	-36.711	0.182	-0.097
-415.428	226.350	0.291	-0.469
-414.413	64.730	0.292	0.293
-413.398	-200.000	-0.013	-0.145
-412.384	-93.698	0.503	-0.138
-411.369	-43.753	0.075	-0.038
-410.355	-1.397	0.321	0.225
-409.340	764.374	-0.061	0.164
-408.325	-94.267	-0.019	0.005
-407.311	-14.851	0.290	-0.184
-406.296	329.996	0.098	0.188
-405.282	14.128	-0.225	-0.174
-404.267	31.747	-0.285	0.244
-403.252	363.618	0.254	0.507
-402.238	-174.636	-0.133	0.004
-401.223	-200.000	-0.048	-0.330
-400.209	-200.000	-0.017	0.094
-399.194	377.147	-0.044	-0.089
-398.179	-200.000	0.004	0.125
-397.165	62.110	0.242	0.239
-396.150	-101.716	0.182	-0.044
-395.136	-33.143	0.136	0.075
-394.121	39.408	-0.292	-0.259
-393.106	82.357	-0.104	-0.112
-392.092	173.690	0.144	-0.206
-391.077	-200.000	0.016	-0.073
-390.063	-170.886	-0.399	0.014
-389.048	205.157	0.110	0.169
-388.033	-176.576	0.258	0.007
-387.019	27.203	-0.253	-0.211
-386.004	-200.000	-0.031	-0.207
-384.990	20.700	0.093	-0.075
-383.975	22.286	-0.116	0.094
-382.960	-32.075	0.122	-0.068
-381.946	-83.164	0.151	-0.048
-380.931	-200.000	-0.028	0.299
-379.917	96.786	-0.259	0.294
-378.902	71.739	-0.133	0.137
-377.888	38.545	-0.156	0.138
-376.873	25.154	0.231	0.190
-375.858	-61.689	0.138	0.057
-374.844	28.763	-0.209	0.176
-373.829	41.690	0.180	-0.162
-372.815	-29.703	-0.024	0.013
-371.800	22.961	-0.110	0.089
-370.785	106.167	0.141	0.166
-369.771	-116.696	-0.140	0.026
-368.756	88.398	0.152	-0.167
-367.742	134.077	-0.095	-0.122
-366.727	-200.000	-0.007	-0.318
-365.712	22.044	-0.270	0.218
-364.698	-73.671	-0.090	0.032
-363.683	800.000	0.080	0.220
-362.669	22.703	0.143	0.116
-361.654	-200.000	-0.074	-0.378
-360.639	347.452	-0.146	0.286
-359.625	308.246	-0.022	0.041
-358.610	-49.024	-0.044	-0.021
-357.596	800.000	0.042	-0.126
-356.581	-200.000	0.013	0.069
-355.566	-26.723	-0.126	0.073
-354.552	-94.653	-0.177	0.048
-353.537	180.271	0.097	0.141
-352.523	800.000	-0.132	0.458
-351.508	78.825	0.092	0.097
-350.493	240.501	0.093	-0.153
-349.479	800.000	0.043	-0.137
-348.464	102.676	0.172	0.199
-347.450	800.000	-0.084	-0.253
-346.435	-12.100	-0.128	-0.083
-345.420	-89.892	-0.169	-0.049
-344.406	-11.221	0.139	-0.090
-343.391	-117.745	-0.264	0.047
-342.377	-200.000	-0.006	-0.069
-341.362	382.278	-0.126	-0.256
-340.348	63.469	0.258	-0.256
-339.333	-200.000	-0.013	-0.114
-338.318	171.896	-0.120	-0.171
-337.304	727.095	-0.056	-0.149
-336.289	29.198	-0.362	-0.304
-335.275	-59.582	0.271	0.115
-334.260	-200.000	-0.020	-0.125
-333.245	-98.121	-0.362	-0.092
-332.231	-41.149	0.285	-0.146
-331.216	-104.347	0.128	0.029
-330.202	-200.000	-0.012	-0.239
-329.187	-200.000	0.013	-0.196
-328.172	-125.347	0.289	-0.044
-327.158	-100.067	0.083	-0.020
-326.143	623.718	-0.025	0.063
-325.129	-200.000	-0.012	0.126
-324.114	-144.060	-0.136	0.013
-323.099	219.932	-0.177	-0.281
-322.085	-46.259	-0.128	-0.062
-321.070	-149.311	0.545	-0.043
-320.056	-38.161	0.206	-0.108
-319.041	-200.000	0.017	-0.075
-318.026	-200.000	-0.007	0.096
-317.012	-117.935	-0.087	-0.015
-315.997	-200.000	0.001	0.071
-314.983	154.889	0.203	-0.276
-313.968	-200.000	0.023	0.223
-312.953	142.465	-0.217	0.285
-311.939	-97.420	0.365	-0.094
-310.924	800.000	-0.108	0.385
-309.910	-42.662	0.287	-0.144
-308.895	10.670	-0.263	-0.198
-307.880	-160.385	-0.463	0.025
-306.866	800.000	0.060	0.230
-305.851	18.057	-0.254	-0.200
-304.837	43.440	-0.141	-0.127
-303.822	124.108	0.096	0.119
-302.807	800.000	0.064	-0.249
-301.793	73.101	0.070	0.072
-300.778	120.550	0.144	0.177
-299.764	-74.455	0.048	0.017
-298.749	-200.000	0.007	0.217
-297.735	22.407	-0.276	-0.223
-296.720	800.000	-0.091	-0.251
-295.705	-124.121	0.282	0.044
-294.691	-200.000	0.007	0.064
-293.676	124.389	0.084	0.105
-292.662	155.284	-0.073	-0.099
-291.647	-69.121	-0.204	0.078
-290.632	-166.604	-0.302	-0.012
-289.618	-105.935	-0.133	-0.030
-288.603	-46.346	0.152	0.074
-287.589	215.024	-0.048	0.075
-286.574	800.000	0.076	0.239
-285.559	800.000	-0.049	0.177
-284.545	20.621	-0.140	0.112
-283.530	-200.000	-0.020	-0.146
-282.516	127.360	-0.101	0.126
-281.501	114.973	0.076	0.092
-280.486	35.770	0.204	0.177
-279.472	178.211	-0.090	0.129
-278.457	-102.951	-0.130	-0.030
-277.443	-137.316	0.210	0.024
-276.428	-16.469	-0.293	-0.183
-275.413	-200.000	-0.031	0.145
-274.399	368.258	0.115	-0.229
-273.384	-200.000	-0.012	-0.154
-272.370	-88.778	0.139	0.041
-271.355	-88.439	0.167	-0.049
-270.340	-85.750	0.336	-0.103
-269.326	-3.785	-0.226	-0.155
-268.311	800.000	-0.036	0.136
-267.297	25.526	-0.115	0.094
-266.282	-147.119	0.037	0.003
-265.267	-200.000	0.004	0.200
-264.253	-50.597	0.352	0.164
-263.238	25.562	-0.095	0.078
-262.224	-135.363	-0.245	-0.029
-261.209	-5.267	0.081	0.055
-260.195	800.000	-0.036	-0.099
-259.180	137.523	0.191	0.247
-258.165	-98.073	0.094	-0.024
-257.151	179.837	0.056	0.081
-256.136	800.000	0.049	0.161
-255.122	-143.746	-0.508	-0.047
-254.107	800.000	-0.013	-0.052
-253.092	-104.006	-0.203	-0.047
-252.078	-79.239	-0.342	0.114
-251.063	-152.506	-0.153	-0.011
-250.049	-108.080	0.283	-0.060
-249.034	30.505	-0.106	0.089
-248.019	800.000	0.125	-0.345
-247.005	-144.387	0.023	-0.002
-245.990	-29.262	0.387	-0.219
-244.976	111.874	-0.219	0.261
-243.961	56.906	-0.150	-0.144
-242.946	-117.934	0.125	-0.022
-241.932	-181.873	0.136	0.003
-240.917	-85.939	-0.217	-0.066
-239.903	-142.613	0.142	-0.014
-238.888	53.936	-0.148	-0.140
-237.873	19.764	0.123	-0.098
-236.859	56.551	0.247	0.237
-235.844	-200.000	0.075	-0.378
-234.830	-200.000	-0.015	0.119
-233.815	155.784	-0.211	-0.286
-232.800	800.000	0.065	0.272
-231.786	-200.000	-0.029	0.193
-230.771	432.932	0.202	-0.432
-229.757	-153.913	0.448	0.030
-228.742	392.899	0.115	-0.235
-227.727	11.422	-0.208	0.157
-226.713	-20.611	0.303	-0.183
-225.698	-116.255	-0.352	-0.064
-224.684	-200.000	-0.052	-0.406
-223.669	-64.307	0.088	0.035
-222.655	-88.907	-0.309	-0.090
-221.640	-116.725	-0.213	0.038
-220.625	-116.107	0.559	0.102
-219.611	-111.916	0.360	-0.072
-218.596	13.072	-0.329	-0.251
-217.582	-49.533	-0.188	-0.088
-216.567	-134.711	0.459	0.055
-215.552	-55.211	0.176	0.078
-214.538	208.718	-0.068	-0.104
-213.523	-26.457	-0.200	0.115
-212.509	-93.609	-0.334	0.091
-211.494	451.706	-0.060	0.131
-210.479	800.000	-0.031	-0.097
-209.465	-20.550	-0.126	-0.076
-208.450	-30.753	0.407	-0.227
-207.436	-111.099	-0.146	-0.029
-206.421	215.542	-0.086	0.134
-205.406	-114.760	-0.154	-0.029
-204.392	-200.000	0.047	0.237
-203.377	-82.907	0.112	-0.036
-202.363	331.202	-0.176	0.334
-201.348	800.000	-0.059	0.166
-200.333	158.148	0.078	-0.107
-199.319	-5.142	0.292	0.198
-198.304	-85.637	-0.045	0.014
-197.290	3.259	0.109	0.078
-196.275	333.111	-0.099	0.189
-195.260	95.220	0.216	0.243
-194.246	-200.000	0.009	0.250
-193.231	149.579	0.062	-0.083
-192.217	243.497	-0.115	0.191
-191.202	-102.136	0.055	0.013
-190.187	-200.000	-0.030	0.270
-189.173	126.379	-0.136	-0.169
-188.158	-89.933	0.138	0.040
-187.144	21.585	-0.114	-0.091
-186.129	8.921	-0.387	-0.287
-185.114	-31.392	0.284	-0.157
-184.100	123.343	-0.277	-0.341
-183.085	-200.000	-0.104	-0.508
-182.071	-140.831	0.233	-0.024
-181.056	-92.305	0.207	0.057
-180.042	-0.377	-0.206	-0.144
-179.027	-178.900	0.284	-0.006
-178.012	72.537	-0.291	0.298
-176.998	99.386	-0.059	-0.067
-175.983	61.510	-0.092	-0.090
-174.969	-22.648	0.091	-0.054
-173.954	-200.000	0.030	0.347
-172.939	54.003	-0.187	0.177
-171.925	129.772	0.335	-0.422
-170.910	134.015	-0.215	0.274
-169.896	81.061	-0.086	-0.091
-168.881	800.000	0.157	0.466
-167.866	-77.398	0.325	0.111
-166.852	334.674	-0.096	0.184
-165.837	-82.006	0.430	0.138
-164.823	-93.823	-0.081	-0.022
-163.808	570.889	-0.136	-0.326
-162.793	398.669	0.099	-0.204
-161.779	51.924	-0.140	0.131
-160.764	-75.824	-0.105	-0.036
-159.750	-200.000	0.072	0.317
-158.735	-42.894	-0.060	0.030
-157.720	-200.000	-0.052	-0.414
-156.706	-200.000	-0.008	-0.149
-155.691	80.714	-0.186	-0.197
-154.677	-80.735	0.157	-0.051
-153.662	-121.872	0.218	-0.035
-152.647	25.336	-0.188	0.154
-151.633	-70.631	0.195	0.072
-150.618	266.386	0.218	0.373
-149.604	-67.335	0.172	-0.066
-148.589	3.416	-0.207	-0.148
-147.574	-176.832	0.166	0.004
-146.560	-200.000	0.001	0.342
-145.545	8.479	-0.328	-0.242
-144.531	-200.000	-0.008	0.133
-143.516	-21.208	0.052	-0.031
-142.502	99.924	0.143	0.162
-141.487	40.978	-0.176	0.156
-140.472	-147.193	0.476	-0.040
-139.458	800.000	0.050	0.177
-138.443	800.000	0.046	0.162
-137.429	-200.000	0.055	-0.330
-136.414	44.147	-0.041	-0.037
-135.399	-102.119	0.119	-0.028
-134.385	562.357	-0.189	0.448
-133.370	127.471	0.152	0.190
-132.356	-70.372	0.374	-0.139
-131.341	261.436	0.094	-0.160
-130.326	5.431	0.167	-0.121
-129.312	-44.181	-0.107	0.053
-128.297	554.049	0.117	0.277
-127.283	1.487	0.115	-0.081
-126.268	-12.678	0.141	-0.090
-125.253	-200.000	0.008	0.087
-124.239	-75.167	-0.175	-0.061
-123.224	-200.000	-0.062	0.360
-122.210	800.000	0.054	0.190
-121.195	245.311	-0.155	-0.256
