DTS Sentinel unit serial number:	SN413079Multiplexer serial number:	ORYXHardware model number:	OX4-SRSoftware version number:	ORYX F/W v4.00 Oryx Data Collector v3.7.2.0data status	okinstallation	princeton_trtdifferential loss correction	single-endedforward channel	channel 2reverse channel	N/Adate	2019/09/17time	20:59:34forward acquisition time	60.00reverse acquisition time	0.00gamma	496.2192k internal	0.2337k external	0.2337temperature offset calibration	0.9985default loss term (dB/km)	0.3790temperature slope calibration	1.0000multiplexer offset coefficient	1.0000multiplexer slope coefficient	1.0000fibre end	0.00T internal ref (°C)	28.70T ext. ref 1 (°C)	0.20T ext. ref 2 (°C)	20.17length (m)	temperature (°C)	Stokes	anti-Stokes-747.200	13.120	-0.240	0.186
-746.185	268.624	0.139	0.244
-745.171	22.702	0.259	0.213
-744.156	-94.714	0.053	0.015
-743.142	44.623	0.168	-0.155
-742.127	-200.000	0.027	0.437
-741.112	342.702	0.179	0.352
-740.098	199.132	-0.201	0.310
-739.083	123.297	-0.091	0.115
-738.069	430.522	0.018	0.040
-737.054	96.807	0.215	-0.247
-736.039	-81.514	-0.196	-0.065
-735.025	-5.720	0.138	-0.095
-734.010	-64.462	0.118	-0.048
-732.996	16.167	-0.219	-0.173
-731.981	-97.112	-0.219	0.057
-730.966	-150.760	-0.202	0.015
-729.952	266.281	0.128	0.224
-728.937	-147.190	0.141	-0.012
-727.923	9.753	0.142	-0.108
-726.908	111.211	-0.081	-0.097
-725.894	-200.000	-0.042	-0.244
-724.879	-200.000	0.072	-0.343
-723.864	-16.157	-0.099	-0.063
-722.850	-135.038	-0.126	0.015
-721.835	-172.387	0.251	-0.008
-720.821	347.593	0.141	-0.278
-719.806	-200.000	-0.008	-0.348
-718.791	320.635	0.104	0.198
-717.777	157.355	0.048	0.066
-716.762	-7.682	0.189	-0.128
-715.748	21.250	0.091	-0.074
-714.733	381.054	-0.064	-0.131
-713.718	148.119	-0.201	0.272
-712.704	800.000	-0.058	0.169
-711.689	74.220	0.100	-0.105
-710.675	439.731	0.063	-0.137
-709.660	56.157	0.143	0.139
-708.645	-161.439	0.173	-0.009
-707.631	-164.775	-0.332	0.015
-706.616	-200.000	-0.044	-0.216
-705.602	104.688	-0.135	-0.160
-704.587	-109.443	-0.493	-0.105
-703.572	583.669	0.063	-0.155
-702.558	-138.853	-0.324	-0.035
-701.543	-185.561	0.098	-0.001
-700.529	154.395	0.181	-0.249
-699.514	-2.131	0.161	-0.114
-698.499	79.697	-0.212	-0.228
-697.485	-86.925	0.160	-0.049
-696.470	-99.503	0.614	-0.155
-695.456	-75.342	-0.042	-0.015
-694.441	272.173	-0.109	-0.193
-693.426	-83.162	0.171	-0.055
-692.412	206.407	0.145	-0.226
-691.397	19.656	-0.302	-0.244
-690.383	-40.499	0.063	0.033
-689.368	-13.866	-0.146	0.095
-688.354	-88.714	0.296	-0.088
-687.339	387.131	-0.126	-0.260
-686.324	228.409	0.119	-0.194
-685.310	-200.000	-0.011	0.089
-684.295	800.000	-0.047	-0.195
-683.281	660.417	0.100	0.258
-682.266	-200.000	-0.032	-0.201
-681.251	321.946	-0.088	-0.167
-680.237	84.837	0.116	-0.127
-679.222	-52.192	-0.072	0.034
-678.208	800.000	-0.121	0.335
-677.193	368.069	-0.110	0.222
-676.178	4.036	-0.111	0.082
-675.164	50.860	0.105	-0.100
-674.149	800.000	0.112	0.364
-673.135	365.971	0.067	-0.136
-672.120	252.923	0.174	-0.296
-671.105	-200.000	0.058	-0.309
-670.091	-125.992	-0.222	0.033
-669.076	-184.125	0.187	0.003
-668.062	-128.679	-0.191	0.027
-667.047	-52.807	0.120	-0.055
-666.032	-88.682	-0.376	-0.112
-665.018	-200.000	0.027	0.173
-664.003	-177.240	-0.172	0.004
-662.989	-102.327	-0.070	0.017
-661.974	150.305	-0.039	0.053
-660.959	-108.239	0.208	0.045
-659.945	-139.721	0.189	0.020
-658.930	-200.000	-0.044	-0.194
-657.916	412.818	-0.140	-0.298
-656.901	-19.919	0.148	0.091
-655.886	752.564	0.064	-0.173
-654.872	800.000	-0.031	-0.127
-653.857	-28.100	0.348	-0.201
-652.843	236.316	-0.075	0.124
-651.828	-200.000	-0.077	-0.421
-650.814	-200.000	0.039	-0.309
-649.799	-200.000	0.006	-0.261
-648.784	-1.778	0.095	0.067
-647.770	-175.216	-0.176	0.005
-646.755	-200.000	0.014	0.202
-645.741	-144.717	0.249	0.023
-644.726	-72.061	0.214	-0.080
-643.711	-19.349	-0.068	-0.042
-642.697	-2.479	-0.081	-0.057
-641.682	-30.655	0.138	0.078
-640.668	35.415	-0.153	-0.135
-639.653	463.845	-0.135	-0.301
-638.638	800.000	-0.095	-0.331
-637.624	203.628	-0.043	-0.067
-636.609	-200.000	-0.046	-0.331
-635.595	15.799	-0.202	0.159
-634.580	255.010	0.271	-0.463
-633.565	-88.220	-0.291	-0.087
-632.551	593.750	0.074	-0.182
-631.536	506.792	-0.147	-0.341
-630.522	-200.000	0.043	0.249
-629.507	723.672	0.135	0.358
-628.492	-47.261	0.199	-0.097
-627.478	230.388	-0.117	0.191
-626.463	-58.145	0.281	-0.122
-625.449	-137.479	-0.332	-0.038
-624.434	-137.214	-0.125	0.014
-623.419	192.054	0.152	-0.229
-622.405	-200.000	0.003	0.144
-621.390	545.520	-0.041	0.099
-620.376	-45.884	-0.478	-0.236
-619.361	197.960	-0.046	0.070
-618.346	36.443	0.289	-0.255
-617.332	-200.000	-0.004	-0.223
-616.317	98.220	0.140	-0.162
-615.303	-200.000	-0.033	-0.473
-614.288	1.370	-0.227	0.163
-613.273	118.525	0.168	0.207
-612.259	18.370	-0.134	0.107
-611.244	43.445	0.233	0.212
-610.230	-2.055	0.143	-0.100
-609.215	-200.000	0.040	-0.322
-608.201	-200.000	0.030	-0.248
-607.186	23.694	0.080	0.066
-606.171	800.000	0.019	0.063
-605.157	248.742	-0.099	-0.168
-604.142	531.854	-0.040	-0.094
-603.128	-117.343	0.095	0.017
-602.113	25.605	-0.159	0.132
-601.098	218.208	0.088	-0.140
-600.084	-200.000	-0.016	0.204
-599.069	-73.680	-0.252	0.091
-598.055	-200.000	-0.029	-0.293
-597.040	220.131	0.020	0.031
-596.025	258.311	0.115	0.197
-595.011	-102.805	-0.204	0.048
-593.996	63.355	0.098	0.098
-592.982	120.564	-0.252	-0.313
-591.967	252.695	0.051	0.086
-590.952	-31.623	0.104	0.059
-589.938	-200.000	-0.022	0.274
-588.923	-151.236	-0.270	0.020
-587.909	238.625	-0.119	-0.198
-586.894	-72.557	-0.098	0.036
-585.879	771.583	0.099	-0.270
-584.865	13.117	-0.119	-0.092
-583.850	144.013	0.176	0.234
-582.836	-72.957	0.270	-0.099
-581.821	-55.407	-0.271	-0.121
-580.806	800.000	0.085	0.288
-579.792	203.059	-0.196	-0.303
-578.777	-200.000	-0.008	-0.205
-577.763	-45.647	-0.306	0.151
-576.748	267.980	-0.128	0.224
-575.733	-200.000	-0.037	-0.176
-574.719	54.359	-0.257	-0.247
-573.704	-200.000	0.028	-0.366
-572.690	-109.930	0.357	0.075
-571.675	-90.851	0.329	-0.094
-570.661	800.000	-0.071	-0.244
-569.646	-126.786	-0.215	-0.032
-568.631	53.293	0.164	-0.157
-567.617	292.058	0.030	0.054
-566.602	-57.571	0.123	0.054
-565.588	-200.000	-0.041	0.340
-564.573	-200.000	0.037	-0.173
-563.558	-200.000	-0.104	0.636
-562.544	240.104	-0.131	-0.218
-561.529	-30.142	0.150	0.085
-560.515	83.525	0.277	-0.301
-559.500	21.361	-0.216	-0.175
-558.485	446.936	-0.099	-0.218
-557.471	-200.000	-0.001	0.132
-556.456	-200.000	0.003	0.100
-555.442	-37.502	-0.062	-0.033
-554.427	389.112	-0.105	0.217
-553.412	327.530	-0.190	-0.363
-552.398	800.000	-0.111	-0.452
-551.383	-200.000	-0.005	0.500
-550.369	-82.698	-0.175	0.056
-549.354	800.000	0.060	-0.257
-548.339	742.126	0.198	-0.532
-547.325	-18.482	-0.054	0.033
-546.310	-145.598	0.247	0.022
-545.296	-126.894	-0.133	-0.020
-544.281	-133.054	-0.095	-0.012
-543.266	-119.959	0.278	-0.048
-542.252	-84.107	0.350	0.111
-541.237	800.000	0.086	-0.254
-540.223	-54.477	-0.367	0.165
-539.208	129.041	-0.111	0.141
-538.193	25.631	-0.116	-0.096
-537.179	-109.538	-0.163	0.034
-536.164	64.929	0.169	0.170
-535.150	252.153	0.078	-0.132
-534.135	-200.000	-0.014	-0.133
-533.121	800.000	-0.068	0.257
-532.106	-7.755	-0.194	-0.131
-531.091	-163.125	0.219	0.011
-530.077	535.106	-0.046	0.109
-529.062	328.819	-0.190	-0.364
-528.048	-1.865	0.019	-0.013
-527.033	-200.000	-0.119	-0.548
-526.018	52.698	0.057	0.054
-525.004	124.063	-0.155	-0.194
-523.989	-200.000	-0.022	-0.143
-522.975	-150.134	-0.167	-0.013
-521.960	-43.004	0.076	-0.038
-520.945	-48.078	0.414	0.199
-519.931	-56.917	0.128	0.056
-518.916	-82.272	0.145	0.047
-517.902	800.000	-0.087	0.350
-516.887	37.542	-0.100	-0.088
-515.872	-200.000	-0.025	-0.118
-514.858	-81.048	-0.333	0.110
-513.843	-200.000	-0.018	0.255
-512.829	136.503	-0.082	0.106
-511.814	-161.630	-0.285	0.014
-510.799	334.175	-0.117	0.224
-509.785	351.634	0.171	-0.338
-508.770	-37.072	0.176	0.094
-507.756	-200.000	0.028	0.165
-506.741	-116.355	0.396	-0.073
-505.726	-103.738	0.119	-0.028
-504.712	-200.000	0.052	0.365
-503.697	-200.000	-0.029	0.503
-502.683	-7.293	0.116	0.078
-501.668	800.000	0.064	-0.193
-500.653	-34.182	-0.298	-0.163
-499.639	-108.504	-0.230	0.049
-498.624	-76.732	-0.339	0.118
-497.610	-112.989	0.568	0.112
-496.595	164.534	0.115	0.161
-495.581	-200.000	0.026	0.276
-494.566	-11.054	-0.118	0.077
-493.551	-93.399	-0.131	-0.036
-492.537	800.000	0.042	-0.144
-491.522	-200.000	-0.026	-0.272
-490.508	-123.993	0.081	0.013
-489.493	-200.000	0.081	0.468
-488.478	37.025	-0.046	-0.041
-487.464	93.177	0.256	0.288
-486.449	425.325	-0.103	0.221
-485.435	-75.850	-0.032	-0.011
-484.420	-64.043	0.229	-0.093
-483.405	261.814	0.047	-0.081
-482.391	73.379	0.106	0.110
-481.376	-73.508	-0.148	0.054
-480.362	800.000	0.044	-0.169
-479.347	333.443	0.203	-0.390
-478.332	-118.412	-0.333	-0.059
-477.318	-200.000	-0.001	0.108
-476.303	-45.333	0.143	0.070
-475.289	-200.000	0.040	-0.288
-474.274	-25.294	-0.030	0.017
-473.259	145.630	-0.046	0.061
-472.245	67.522	0.193	-0.196
-471.230	-78.717	-0.247	-0.084
-470.216	-200.000	0.028	0.133
-469.201	-2.522	0.640	0.445
-468.186	-66.398	-0.167	-0.066
-467.172	12.993	0.167	-0.128
-466.157	10.508	-0.199	-0.150
-465.143	-132.425	0.054	0.007
-464.128	-200.000	-0.005	0.070
-463.113	-200.000	0.021	0.230
-462.099	-28.814	-0.263	0.150
-461.084	-200.000	-0.037	0.353
-460.070	-21.458	0.040	0.024
-459.055	-15.780	-0.155	-0.098
-458.040	276.768	-0.100	-0.176
-457.026	140.000	-0.052	-0.068
-456.011	800.000	0.080	0.243
-454.997	-54.430	0.249	0.112
-453.982	-109.024	-0.263	-0.056
-452.968	-200.000	-0.015	0.215
-451.953	-117.685	-0.484	-0.086
-450.938	15.887	-0.153	-0.119
-449.924	162.480	0.100	0.140
-448.909	74.978	-0.284	0.297
-447.895	-173.182	0.068	-0.002
-446.880	100.382	0.344	-0.396
-445.865	-37.762	0.060	0.031
-444.851	28.758	-0.297	-0.249
-443.836	-200.000	0.034	-0.430
-442.822	-63.607	0.272	-0.111
-441.807	127.742	-0.148	-0.187
-440.792	267.430	-0.142	0.247
-439.778	-164.610	0.049	0.002
-438.763	800.000	-0.045	0.150
-437.749	-165.860	0.306	-0.013
-436.734	-158.758	-0.411	-0.023
-435.719	-200.000	-0.027	-0.131
-434.705	-6.470	-0.232	-0.157
-433.690	-200.000	-0.023	0.195
-432.676	265.590	0.149	0.258
-431.661	597.971	0.069	-0.170
-430.646	800.000	0.025	-0.097
-429.632	800.000	-0.006	0.017
-428.617	316.127	0.166	-0.312
-427.603	-35.461	0.390	0.210
-426.588	-165.975	-0.146	0.006
-425.573	-200.000	-0.047	0.240
-424.559	-112.732	-0.196	-0.039
-423.544	-34.013	0.133	-0.073
-422.530	39.122	0.118	-0.105
-421.515	-200.000	0.009	-0.264
-420.500	-144.287	-0.386	-0.036
-419.486	-47.097	-0.243	-0.118
-418.471	-48.594	-0.257	-0.123
-417.457	-55.915	-0.023	0.010
-416.442	611.939	0.067	-0.165
-415.428	1.695	-0.272	-0.194
-414.413	-86.414	-0.224	-0.068
-413.398	-102.424	-0.285	0.068
-412.384	-86.495	0.156	0.048
-411.369	-200.000	-0.024	-0.302
-410.355	35.000	0.135	-0.117
-409.340	800.000	0.065	-0.241
-408.325	472.655	-0.041	-0.091
-407.311	-200.000	-0.046	-0.435
-406.296	-101.405	0.159	-0.038
-405.282	800.000	-0.122	-0.343
-404.267	-105.941	0.052	-0.012
-403.252	68.663	0.069	-0.070
-402.238	-111.496	-0.122	-0.025
-401.223	-45.572	0.346	0.170
-400.209	394.615	-0.167	0.344
-399.194	-101.173	0.176	0.043
-398.179	-74.450	-0.135	-0.048
-397.165	-200.000	-0.000	-0.066
-396.150	36.325	0.037	0.032
-395.136	284.989	0.309	0.550
-394.121	-165.030	0.080	0.004
-393.106	-45.546	-0.176	0.086
-392.092	-10.695	-0.072	0.047
-391.077	-89.129	-0.284	0.083
-390.063	-55.219	0.172	-0.076
-389.048	15.612	-0.188	0.147
-388.033	-171.776	-0.097	-0.003
-387.019	-200.000	-0.040	0.328
-386.004	193.074	-0.091	0.136
-384.990	129.688	-0.266	0.336
-383.975	197.065	0.114	0.173
-382.960	-200.000	0.013	0.144
-381.946	-19.391	-0.250	0.154
-380.931	-26.011	-0.194	-0.113
-379.917	-146.288	0.180	-0.016
-378.902	800.000	0.088	-0.354
-377.888	-17.491	0.119	-0.074
-376.873	30.888	0.192	-0.163
-375.858	-50.861	0.126	-0.058
-374.844	-113.927	0.259	0.050
-373.829	603.368	0.088	0.217
-372.815	-108.222	0.198	0.042
-371.800	-132.106	-0.232	0.030
-370.785	332.429	0.036	-0.069
-369.771	485.096	-0.208	0.468
-368.756	-53.584	0.128	-0.058
-367.742	-105.256	0.314	0.071
-366.727	-200.000	0.003	0.037
-365.712	6.947	0.247	-0.182
-364.698	60.902	-0.148	-0.146
-363.683	-62.211	0.217	-0.089
-362.669	-25.127	-0.302	-0.177
-361.654	-126.619	0.271	-0.040
-360.639	-200.000	-0.033	0.155
-359.625	800.000	0.155	0.489
-358.610	112.743	0.069	0.082
-357.596	49.778	-0.174	0.163
-356.581	-200.000	-0.003	-0.049
-355.566	-200.000	0.021	-0.142
-354.552	800.000	-0.097	-0.265
-353.537	800.000	0.053	-0.159
-352.523	-25.160	0.050	-0.029
-351.508	-107.160	-0.281	0.061
-350.493	401.869	0.095	-0.197
-349.479	-83.422	0.123	0.039
-348.464	19.128	-0.007	-0.005
-347.450	800.000	0.104	0.439
-346.435	606.836	0.098	0.241
-345.420	-47.534	0.430	0.207
-344.406	500.889	0.113	0.259
-343.391	8.313	-0.139	0.104
-342.377	-81.149	0.062	-0.020
-341.362	-200.000	0.033	-0.219
-340.348	-200.000	0.020	-0.198
-339.333	47.811	-0.184	0.170
-338.318	800.000	0.031	0.102
-337.304	-61.605	-0.181	-0.075
-336.289	44.355	-0.079	0.072
-335.275	85.707	-0.213	-0.231
-334.260	-37.702	-0.060	0.032
-333.245	800.000	-0.010	0.039
-332.231	-200.000	0.036	-0.383
-331.216	-2.224	-0.027	-0.019
-330.202	-73.609	-0.167	-0.060
-329.187	-136.973	-0.090	0.010
-328.172	-12.573	-0.245	0.158
-327.158	-64.759	0.028	0.011
-326.143	-200.000	-0.024	0.220
-325.129	-200.000	-0.008	-0.068
-324.114	91.065	-0.084	-0.093
-323.099	800.000	-0.091	0.345
-322.085	-158.398	-0.155	0.009
-321.070	124.147	-0.095	0.118
-320.056	-200.000	-0.051	-0.328
-319.041	175.831	0.048	-0.069
-318.026	-120.667	-0.272	0.045
-317.012	-25.386	-0.204	-0.119
-315.997	137.642	-0.090	0.116
-314.983	58.616	0.202	0.196
-313.968	148.718	-0.120	-0.161
-312.953	-140.527	-0.284	-0.029
-311.939	-200.000	-0.023	0.164
-310.924	800.000	0.080	0.224
-309.910	33.030	0.354	0.303
-308.895	320.609	-0.169	0.317
-307.880	43.281	-0.194	0.175
-306.866	-63.969	-0.270	-0.109
-305.851	-178.729	0.296	-0.007
-304.837	-122.032	0.075	0.012
-303.822	-57.035	-0.165	0.072
-302.807	-118.496	-0.158	-0.028
-301.793	715.071	-0.051	-0.134
-300.778	-200.000	0.002	-0.240
-299.764	-74.005	0.054	-0.019
-298.749	800.000	0.041	0.140
-297.735	283.324	0.089	0.158
-296.720	71.650	0.162	0.166
-295.705	29.981	-0.362	-0.304
-294.691	235.266	0.125	0.204
-293.676	800.000	0.054	0.155
-292.662	-131.465	-0.210	-0.027
-291.647	-200.000	0.027	0.187
-290.632	779.486	-0.025	-0.068
-289.618	135.902	-0.068	-0.087
-288.603	-200.000	-0.012	-0.086
-287.589	0.790	0.408	0.288
-286.574	-8.285	0.102	-0.068
-285.559	-91.847	-0.153	-0.043
-284.545	-106.499	-0.180	-0.040
-283.530	3.117	0.161	-0.115
-282.516	8.922	0.154	0.114
-281.501	800.000	0.072	-0.200
-280.486	-97.823	0.142	0.036
-279.472	16.437	0.070	0.054
-278.457	-200.000	0.018	-0.172
-277.443	180.644	-0.103	0.149
-276.428	24.220	0.157	0.128
-275.413	178.751	0.209	0.300
-274.399	-139.600	-0.214	0.023
-273.384	-200.000	-0.019	-0.235
-272.370	-52.207	-0.114	0.052
-271.355	800.000	-0.115	0.366
-270.340	800.000	0.064	-0.237
-269.326	-62.633	-0.055	0.023
-268.311	193.967	-0.034	-0.051
-267.297	103.084	0.119	0.138
-266.282	-50.873	0.298	0.138
-265.267	-188.855	0.087	-0.001
-264.253	88.461	-0.194	-0.212
-263.238	-112.364	0.458	-0.090
-262.224	70.908	-0.131	0.134
-261.209	238.970	0.144	-0.235
-260.195	800.000	-0.075	0.222
-259.180	144.389	-0.169	-0.222
-258.165	-200.000	0.058	-0.339
-257.151	-50.955	0.201	-0.093
-256.136	100.635	0.177	-0.202
-255.122	185.902	0.208	0.304
-254.107	152.191	-0.149	-0.200
-253.092	-53.239	-0.143	0.065
-252.078	800.000	-0.063	-0.190
-251.063	-200.000	-0.023	-0.199
-250.049	-81.032	0.407	0.133
-249.034	-43.495	-0.074	0.037
-248.019	698.334	0.087	0.226
-247.005	-125.151	0.198	-0.030
-245.990	-33.380	-0.227	-0.124
-244.976	-100.226	0.375	0.092
-243.961	-200.000	0.039	-0.387
-242.946	92.413	0.184	-0.204
-241.932	169.124	-0.186	-0.262
-240.917	723.765	0.066	-0.174
-239.903	800.000	0.099	-0.278
-238.888	-22.943	0.060	-0.036
-237.873	-170.932	0.246	0.008
-236.859	53.685	0.206	-0.194
-235.844	-112.161	0.469	0.093
-234.830	195.698	-0.239	0.357
-233.815	-80.880	-0.067	0.022
-232.800	280.467	0.208	0.367
-231.786	-86.641	-0.264	0.080
-230.771	-200.000	0.055	0.427
-229.757	236.224	0.055	0.090
-228.742	-178.651	-0.118	0.003
-227.727	-121.949	0.193	-0.031
-226.713	-110.316	0.148	0.030
-225.698	3.799	-0.062	-0.045
-224.684	21.426	-0.129	0.103
-223.669	117.057	-0.157	0.189
-222.655	-68.615	0.263	0.100
-221.640	76.816	0.343	-0.358
-220.625	-200.000	-0.011	0.317
-219.611	-71.374	-0.224	0.083
-218.596	-55.268	0.054	-0.024
-217.582	383.539	-0.030	-0.062
-216.567	-23.534	0.251	-0.148
-215.552	-171.326	-0.446	-0.015
-214.538	3.203	0.004	0.003
-213.523	800.000	-0.052	0.206
-212.509	57.975	-0.202	0.195
-211.494	800.000	-0.073	0.209
-210.479	800.000	-0.008	0.024
-209.465	-200.000	0.002	0.188
-208.450	-200.000	-0.028	0.141
-207.436	598.084	-0.171	-0.417
-206.421	-71.377	-0.155	-0.057
-205.406	-143.425	0.287	0.027
-204.392	-47.500	0.101	-0.048
-203.377	-200.000	0.052	-0.337
-202.363	112.057	0.175	0.208
-201.348	800.000	0.081	0.328
-200.333	800.000	0.061	0.220
-199.319	-41.845	0.132	0.067
-198.304	-200.000	0.011	0.202
-197.290	-76.320	-0.120	-0.042
-196.275	-200.000	0.083	-0.583
-195.260	-186.462	0.124	0.002
-194.246	31.384	0.161	0.136
-193.231	106.365	0.197	0.229
-192.217	99.041	-0.061	0.069
-191.202	98.764	0.187	-0.212
-190.187	154.933	0.039	0.052
-189.173	101.189	0.123	0.141
-188.158	-74.736	-0.222	-0.078
-187.144	-17.193	0.301	0.186
-186.129	-200.000	-0.055	0.379
-185.114	387.738	-0.122	-0.249
-184.100	-200.000	-0.022	0.145
-183.085	-200.000	-0.012	0.204
-182.071	246.511	-0.059	0.098
-181.056	-200.000	0.018	-0.116
-180.042	-45.456	0.176	0.086
-179.027	132.931	0.141	0.179
-178.012	59.561	-0.149	0.144
-176.998	-171.050	-0.266	0.009
-175.983	17.464	0.116	-0.090
-174.969	-200.000	0.060	0.287
-173.954	632.491	0.081	0.201
-172.939	244.549	-0.138	-0.228
-171.925	-39.376	-0.234	-0.120
-170.910	401.259	-0.026	0.053
-169.896	-200.000	-0.014	0.490
-168.881	-200.000	0.084	0.425
-167.866	-131.685	-0.312	-0.040
-166.852	-200.000	0.019	-0.240
-165.837	378.394	-0.174	-0.350
-164.823	682.439	-0.056	-0.143
-163.808	-200.000	-0.008	0.047
-162.793	-92.450	0.014	-0.004
-161.779	23.273	0.130	0.105
-160.764	325.330	0.112	0.210
-159.750	-200.000	-0.026	-0.302
-158.735	-44.232	0.073	0.036
-157.720	800.000	0.083	-0.254
-156.706	256.005	0.073	0.122
-155.691	221.204	0.036	0.057
-154.677	205.251	-0.092	-0.141
-153.662	-114.991	0.206	0.038
-152.647	-50.679	0.113	0.052
-151.633	800.000	-0.032	-0.099
-150.618	405.038	-0.178	0.368
-149.604	-143.799	0.043	-0.004
-148.589	-200.000	-0.037	0.408
-147.574	-51.502	0.179	-0.082
-146.560	-101.897	0.241	0.057
-145.545	-118.811	-0.497	0.086
-144.531	24.510	-0.069	0.056
-143.516	164.219	-0.158	0.219
-142.502	-200.000	0.028	0.276
-141.487	-172.511	-0.363	-0.011
-140.472	-50.556	0.077	-0.035
-139.458	800.000	0.095	0.308
-138.443	-63.713	-0.026	0.010
-137.429	-200.000	-0.046	0.326
-136.414	67.220	0.137	-0.137
-135.399	-137.184	0.134	-0.015
-134.385	-200.000	-0.021	-0.202
-133.370	19.433	0.316	-0.249
-132.356	10.626	-0.130	-0.097
-131.341	210.254	-0.203	-0.312
-130.326	212.626	-0.043	0.066
-129.312	-200.000	0.019	-0.141
-128.297	-93.805	-0.329	-0.089
-127.283	-200.000	-0.065	0.285
-126.268	-117.893	-0.396	0.070
-125.253	-200.000	-0.005	0.268
-124.239	-78.608	0.210	-0.070
-123.224	-21.304	-0.212	-0.127
-122.210	-200.000	-0.032	0.221
