DTS Sentinel unit serial number:	SN413079Multiplexer serial number:	ORYXHardware model number:	OX4-SRSoftware version number:	ORYX F/W v4.00 Oryx Data Collector v3.7.2.0data status	okinstallation	princeton_trtdifferential loss correction	single-endedforward channel	channel 2reverse channel	N/Adate	2019/09/18time	08:19:35forward acquisition time	60.00reverse acquisition time	0.00gamma	496.2192k internal	0.2343k external	0.2343temperature offset calibration	0.9983default loss term (dB/km)	0.3790temperature slope calibration	1.0000multiplexer offset coefficient	1.0000multiplexer slope coefficient	1.0000fibre end	0.00T internal ref (°C)	24.03T ext. ref 1 (°C)	0.21T ext. ref 2 (°C)	19.65length (m)	temperature (°C)	Stokes	anti-Stokes-747.200	800.000	0.022	0.093
-746.185	-96.749	-0.331	0.087
-745.171	-63.301	0.201	0.083
-744.156	-200.000	-0.028	0.141
-743.142	-141.042	-0.276	-0.028
-742.127	-8.164	-0.134	0.090
-741.112	-1.827	0.342	-0.241
-740.098	-22.470	0.182	-0.110
-739.083	202.391	-0.202	0.312
-738.069	-200.000	-0.030	-0.210
-737.054	-144.467	-0.128	-0.012
-736.039	134.497	-0.201	0.261
-735.025	-200.000	0.028	-0.145
-734.010	75.807	-0.272	-0.288
-732.996	300.654	-0.069	-0.128
-731.981	-200.000	0.015	-0.215
-730.966	-103.343	-0.236	-0.056
-729.952	800.000	-0.101	-0.313
-728.937	-164.144	0.118	0.005
-727.923	61.008	-0.033	-0.033
-726.908	-200.000	-0.034	-0.166
-725.894	85.782	0.229	-0.252
-724.879	24.775	-0.081	0.067
-723.864	111.997	-0.198	-0.239
-722.850	-73.577	0.090	0.033
-721.835	361.918	-0.146	-0.294
-720.821	-4.043	-0.274	-0.190
-719.806	-200.000	0.047	-0.329
-718.791	-55.052	-0.250	-0.112
-717.777	800.000	-0.023	0.072
-716.762	-101.962	0.173	0.042
-715.748	-69.556	0.293	0.112
-714.733	-31.195	0.059	-0.034
-713.718	256.409	-0.101	-0.174
-712.704	-87.478	-0.256	-0.077
-711.689	-200.000	0.043	-0.249
-710.675	-22.514	-0.348	-0.211
-709.660	-144.193	0.104	0.010
-708.645	-29.763	0.141	0.080
-707.631	-155.344	0.310	0.020
-706.616	-61.970	-0.250	0.105
-705.602	-87.308	0.361	0.110
-704.587	-8.461	0.085	0.057
-703.572	-60.906	0.090	0.038
-702.558	-72.934	-0.136	-0.050
-701.543	-200.000	0.003	0.149
-700.529	-44.403	-0.067	-0.034
-699.514	165.381	0.325	-0.459
-698.499	800.000	-0.086	-0.245
-697.485	-139.372	0.211	0.023
-696.470	6.093	0.088	-0.065
-695.456	184.474	-0.168	0.249
-694.441	130.458	-0.160	-0.205
-693.426	-200.000	0.100	0.528
-692.412	-200.000	0.036	0.291
-691.397	22.127	-0.199	0.163
-690.383	145.624	-0.128	0.171
-689.368	222.498	-0.012	0.019
-688.354	-86.516	0.233	-0.071
-687.339	-102.323	0.062	0.015
-686.324	-15.685	-0.044	0.028
-685.310	-63.245	-0.177	-0.073
-684.295	177.530	-0.051	-0.074
-683.281	-101.779	0.115	0.028
-682.266	-200.000	-0.044	-0.260
-681.251	-110.928	0.275	-0.057
-680.237	-200.000	-0.608	-0.000
-679.222	402.133	0.068	0.142
-678.208	84.194	0.074	-0.081
-677.193	258.855	-0.234	-0.403
-676.178	-172.603	-0.236	-0.007
-675.164	-131.977	-0.218	-0.028
-674.149	-200.000	0.041	-0.220
-673.135	137.368	0.115	0.151
-672.120	-200.000	0.055	-0.257
-671.105	-146.185	-0.103	-0.009
-670.091	-150.691	0.203	-0.015
-669.076	-154.653	0.493	0.033
-668.062	101.564	-0.158	-0.184
-667.047	29.214	0.132	0.112
-666.032	-200.000	-0.044	-0.211
-665.018	172.082	-0.041	-0.058
-664.003	800.000	0.123	0.382
-662.989	-80.914	-0.513	0.170
-661.974	800.000	-0.044	0.129
-660.959	686.474	0.011	-0.028
-659.945	178.964	-0.073	-0.107
-658.930	112.409	0.140	0.170
-657.916	-86.018	0.265	-0.082
-656.901	-200.000	0.031	0.282
-655.886	-57.210	-0.167	-0.073
-654.872	-117.076	-0.184	-0.033
-653.857	54.918	0.151	0.146
-652.843	-111.366	-0.079	0.016
-651.828	-200.000	0.054	0.397
-650.814	274.597	-0.161	0.284
-649.799	-85.562	0.171	0.053
-648.784	-110.815	-0.286	0.059
-647.770	99.210	0.170	-0.195
-646.755	-101.125	-0.261	0.064
-645.741	-200.000	0.025	0.236
-644.726	-99.525	0.362	0.091
-643.711	101.891	0.110	-0.128
-642.697	-48.343	-0.146	0.070
-641.682	58.402	0.165	-0.161
-640.668	-200.000	-0.014	-0.203
-639.653	-75.936	-0.244	0.086
-638.638	36.319	-0.109	0.096
-637.624	-40.930	0.248	0.128
-636.609	228.170	0.074	-0.120
-635.595	-200.000	0.011	0.169
-634.580	-200.000	0.010	0.176
-633.565	-200.000	-0.017	0.243
-632.551	218.671	-0.205	0.326
-631.536	-99.576	-0.203	0.051
-630.522	-156.558	0.105	0.006
-629.507	800.000	-0.106	0.291
-628.492	-28.005	0.311	-0.179
-627.478	-40.165	-0.178	0.092
-626.463	-200.000	-0.003	-0.249
-625.449	-200.000	-0.062	-0.290
-624.434	-34.140	-0.226	-0.124
-623.419	-120.440	-0.501	-0.085
-622.405	252.955	0.089	-0.152
-621.390	53.808	-0.146	0.140
-620.376	53.852	0.103	0.098
-619.361	624.894	0.133	0.334
-618.346	22.264	-0.064	-0.052
-617.332	275.856	0.157	-0.277
-616.317	-150.315	-0.191	-0.015
-615.303	-193.905	0.287	-0.002
-614.288	-200.000	-0.002	-0.040
-613.273	-200.000	-0.015	-0.158
-612.259	-8.330	0.454	0.305
-611.244	101.478	-0.096	-0.112
-610.230	-68.766	-0.124	0.048
-609.215	220.335	-0.051	0.081
-608.201	800.000	-0.018	0.059
-607.186	245.441	-0.037	-0.062
-606.171	41.096	0.113	-0.101
-605.157	-200.000	0.108	-0.578
-604.142	-200.000	-0.024	-0.182
-603.128	257.206	-0.067	-0.114
-602.113	35.610	-0.148	0.129
-601.098	-27.777	0.131	0.075
-600.084	-25.025	0.173	-0.102
-599.069	157.182	-0.253	-0.348
-598.055	45.157	0.262	0.241
-597.040	-75.470	-0.036	-0.013
-596.025	-90.002	-0.324	0.094
-595.011	-105.072	0.247	0.056
-593.996	-54.442	-0.137	-0.062
-592.982	550.722	-0.124	-0.295
-591.967	-200.000	-0.031	-0.186
-590.952	83.788	0.182	0.198
-589.938	-200.000	-0.008	-0.174
-588.923	244.589	-0.214	-0.357
-587.909	66.871	-0.050	-0.050
-586.894	-200.000	-0.031	0.503
-585.879	72.535	-0.130	0.135
-584.865	-109.181	0.242	-0.051
-583.850	54.947	-0.207	-0.199
-582.836	-80.461	0.311	0.103
-581.821	-200.000	-0.002	0.236
-580.806	196.805	0.088	-0.133
-579.792	800.000	-0.020	0.068
-578.777	581.766	-0.139	0.338
-577.763	800.000	0.088	0.275
-576.748	-43.217	-0.170	-0.086
-575.733	800.000	0.095	-0.395
-574.719	800.000	-0.059	-0.214
-573.704	800.000	0.076	0.255
-572.690	134.242	0.265	0.342
-571.675	148.265	-0.133	-0.179
-570.661	-200.000	0.043	-0.217
-569.646	192.723	-0.294	-0.442
-568.631	365.882	0.146	0.293
-567.617	245.595	-0.034	-0.057
-566.602	-164.313	-0.247	0.011
-565.588	-200.000	0.013	-0.172
-564.573	-95.144	0.147	-0.039
-563.558	-200.000	0.008	-0.392
-562.544	87.753	0.252	-0.278
-561.529	7.071	0.075	-0.055
-560.515	120.025	0.170	-0.209
-559.500	30.162	-0.045	-0.039
-558.485	-100.489	-0.152	0.037
-557.471	332.065	-0.110	-0.210
-556.456	-123.963	-0.314	-0.049
-555.442	462.008	0.115	-0.255
-554.427	-200.000	-0.005	-0.109
-553.412	-200.000	0.004	-0.150
-552.398	-47.537	-0.249	-0.120
-551.383	-57.270	0.177	-0.077
-550.369	-164.494	-0.250	-0.011
-549.354	188.236	-0.075	-0.111
-548.339	-200.000	-0.023	-0.248
-547.325	-97.418	0.242	0.063
-546.310	119.308	-0.036	-0.044
-545.296	69.942	-0.119	0.122
-544.281	282.364	0.074	0.133
-543.266	82.742	-0.222	-0.240
-542.252	130.868	-0.072	0.092
-541.237	-88.053	-0.289	0.086
-540.223	29.264	-0.115	0.097
-539.208	-200.000	-0.015	0.168
-538.193	-28.236	0.106	-0.061
-537.179	-3.899	-0.068	-0.047
-536.164	163.984	0.041	0.057
-535.150	-47.197	0.130	-0.063
-534.135	-121.664	0.370	0.061
-533.121	-29.300	-0.238	-0.135
-532.106	654.647	-0.167	0.426
-531.091	-120.510	-0.227	-0.038
-530.077	120.713	-0.068	0.084
-529.062	-143.149	-0.181	0.017
-528.048	-25.249	0.155	-0.091
-527.033	-19.903	-0.088	0.054
-526.018	-111.922	-0.439	-0.088
-525.004	-155.769	0.149	0.009
-523.989	-29.325	-0.380	0.216
-522.975	0.634	-0.071	0.050
-521.960	8.394	0.158	-0.118
-520.945	193.025	0.116	-0.174
-519.931	-200.000	0.010	0.050
-518.916	-57.084	-0.299	0.131
-517.902	-138.337	-0.188	0.021
-516.887	800.000	0.134	-0.486
-515.872	201.844	-0.027	-0.041
-514.858	-137.552	0.300	-0.034
-513.843	-156.305	-0.086	-0.005
-512.829	25.111	-0.312	-0.257
-511.814	116.992	-0.138	-0.169
-510.799	122.686	0.166	0.206
-509.785	-200.000	-0.221	0.001
-508.770	37.236	-0.065	-0.058
-507.756	785.503	-0.101	0.274
-506.741	241.225	-0.029	-0.048
-505.726	175.725	-0.212	-0.305
-504.712	675.191	0.070	0.181
-503.697	82.917	0.143	0.154
-502.683	-102.160	-0.080	0.019
-501.668	-178.325	0.122	-0.003
-500.653	800.000	-0.095	0.338
-499.639	11.993	0.209	-0.159
-498.624	-200.000	0.015	-0.295
-497.610	-84.206	-0.251	0.079
-496.595	-152.611	-0.041	0.003
-495.581	800.000	-0.081	-0.326
-494.566	100.069	-0.046	-0.053
-493.551	242.008	-0.045	0.075
-492.537	187.739	0.029	-0.042
-491.522	-130.223	0.065	0.009
-490.508	-18.789	-0.202	-0.125
-489.493	-59.475	-0.190	-0.081
-488.478	-59.400	-0.348	-0.148
-487.464	-143.955	-0.180	-0.017
-486.449	-28.728	0.244	-0.139
-485.435	-137.855	-0.217	-0.024
-484.420	-142.774	-0.077	-0.007
-483.405	-74.345	0.268	-0.096
-482.391	66.032	-0.162	0.163
-481.376	800.000	-0.044	-0.186
-480.362	-200.000	0.058	0.559
-479.347	-27.653	-0.340	0.196
-478.332	-200.000	0.065	0.308
-477.318	-200.000	0.002	-0.016
-476.303	-74.707	0.262	-0.093
-475.289	-109.771	-0.656	-0.137
-474.274	800.000	0.045	-0.173
-473.259	-200.000	-0.017	-0.258
-472.245	-200.000	0.028	-0.174
-471.230	-200.000	0.030	-0.340
-470.216	-189.692	0.264	-0.003
-469.201	-96.595	-0.678	-0.177
-468.186	-16.344	-0.134	0.084
-467.172	-200.000	0.022	0.215
-466.157	-200.000	0.008	0.083
-465.143	249.309	-0.139	0.233
-464.128	800.000	-0.108	0.374
-463.113	-102.160	-0.093	-0.022
-462.099	800.000	-0.069	-0.217
-461.084	-29.696	-0.183	0.103
-460.070	800.000	-0.125	0.372
-459.055	-2.225	0.119	0.083
-458.040	-60.160	-0.135	0.057
-457.026	527.388	0.112	-0.261
-456.011	-200.000	-0.047	-0.278
-454.997	-51.886	-0.379	0.175
-453.982	-200.000	0.030	0.273
-452.968	501.166	0.157	-0.358
-451.953	-200.000	0.018	0.430
-450.938	95.121	0.157	0.177
-449.924	-200.000	-0.021	-0.306
-448.909	127.419	-0.212	-0.267
-447.895	28.291	-0.041	-0.034
-446.880	49.696	-0.128	0.119
-445.865	-200.000	0.009	0.183
-444.851	368.562	-0.125	0.250
-443.836	-85.120	0.255	-0.079
-442.822	-121.420	0.493	-0.081
-441.807	-93.289	0.101	-0.028
-440.792	15.278	-0.321	-0.249
-439.778	150.301	0.146	-0.197
-438.763	752.430	-0.057	0.153
-437.749	800.000	0.103	0.441
-436.734	105.860	0.174	0.204
-435.719	-32.236	0.206	-0.114
-434.705	140.242	0.086	-0.113
-433.690	-80.573	0.244	-0.081
-432.676	-140.740	-0.161	0.016
-431.661	-200.000	-0.061	0.308
-430.646	206.460	0.217	-0.334
-429.632	-54.215	-0.211	0.095
-428.617	-126.444	0.365	0.054
-427.603	-61.703	0.299	0.124
-426.588	-96.436	-0.067	0.017
-425.573	-75.009	0.096	-0.034
-424.559	-16.142	-0.239	-0.150
-423.544	157.356	-0.048	-0.065
-422.530	9.527	0.133	0.100
-421.515	10.777	-0.269	-0.203
-420.500	-65.039	0.176	-0.070
-419.486	-130.689	0.222	0.029
-418.471	-200.000	-0.089	-0.393
-417.457	275.806	-0.118	-0.208
-416.442	130.018	-0.204	-0.258
-415.428	-200.000	0.005	-0.310
-414.413	-121.016	0.074	0.012
-413.398	-200.000	0.027	0.124
-412.384	-150.183	0.033	0.002
-411.369	263.257	-0.089	0.153
-410.355	552.988	-0.056	0.133
-409.340	-200.000	-0.010	0.137
-408.325	-15.525	0.369	-0.233
-407.311	-200.000	0.012	-0.107
-406.296	800.000	0.063	-0.207
-405.282	800.000	-0.078	-0.260
-404.267	-200.000	-0.026	-0.257
-403.252	-79.471	-0.054	0.018
-402.238	800.000	-0.032	0.125
-401.223	-77.236	-0.078	0.027
-400.209	87.723	0.203	0.223
-399.194	64.469	0.084	0.084
-398.179	372.813	0.090	-0.181
-397.165	4.933	0.190	-0.138
-396.150	118.572	0.143	-0.174
-395.136	-200.000	0.012	0.114
-394.121	-133.451	-0.099	0.012
-393.106	-127.855	-0.386	0.055
-392.092	443.298	-0.062	-0.135
-391.077	-200.000	0.012	-0.289
-390.063	800.000	0.030	0.098
-389.048	215.590	0.138	-0.217
-388.033	-113.365	0.272	-0.053
-387.019	-128.999	0.405	-0.056
-386.004	-4.564	0.026	-0.018
-384.990	-69.287	0.152	-0.058
-383.975	-200.000	0.040	0.214
-382.960	-200.000	0.017	0.200
-381.946	-200.000	-0.014	-0.175
-380.931	-0.463	-0.290	0.203
-379.917	179.409	0.171	0.247
-378.902	83.936	-0.079	-0.085
-377.888	1.877	-0.129	-0.092
-376.873	720.080	0.163	0.427
-375.858	-200.000	-0.021	0.112
-374.844	-200.000	-0.057	0.322
-373.829	-79.386	-0.202	0.067
-372.815	348.344	-0.098	0.191
-371.800	172.747	0.016	0.022
-370.785	260.700	0.168	0.287
-369.771	-105.799	0.295	0.066
-368.756	-200.000	-0.054	0.581
-367.742	381.402	-0.156	0.316
-366.727	20.417	-0.117	-0.093
-365.712	231.997	-0.048	0.078
-364.698	-74.730	0.271	-0.096
-363.683	39.938	-0.012	0.010
-362.669	-28.168	-0.173	-0.098
-361.654	-89.649	0.158	-0.046
-360.639	-163.284	0.150	0.007
-359.625	74.461	0.245	-0.254
-358.610	-84.592	-0.140	-0.043
-357.596	109.146	-0.216	0.254
-356.581	172.735	0.088	-0.125
-355.566	-153.099	-0.122	0.008
-354.552	-168.922	0.148	0.005
-353.537	504.355	-0.058	-0.132
-352.523	800.000	-0.069	0.222
-351.508	-200.000	-0.015	0.347
-350.493	800.000	-0.048	0.173
-349.479	-38.240	-0.218	-0.114
-348.464	-200.000	-0.018	-0.191
-347.450	-146.462	-0.023	-0.002
-346.435	-61.315	0.166	0.069
-345.420	-8.361	-0.255	-0.169
-344.406	26.595	0.098	0.081
-343.391	-200.000	0.059	0.351
-342.377	-25.915	-0.126	-0.073
-341.362	-71.321	-0.126	-0.047
-340.348	-31.766	-0.219	0.121
-339.333	-200.000	0.018	-0.226
-338.318	89.266	0.083	-0.091
-337.304	-98.286	0.198	-0.050
-336.289	-14.228	-0.090	0.057
-335.275	179.034	-0.078	-0.113
-334.260	-200.000	-0.020	0.126
-333.245	-37.669	0.046	0.024
-332.231	-45.082	-0.249	0.122
-331.216	86.341	-0.126	0.137
-330.202	-200.000	0.025	-0.304
-329.187	-9.713	0.335	0.220
-328.172	-200.000	-0.043	0.211
-327.158	-75.442	-0.377	-0.132
-326.143	-8.471	0.272	-0.180
-325.129	106.105	0.214	-0.249
-324.114	71.565	-0.093	-0.095
-323.099	-184.312	-0.230	-0.004
-322.085	-32.439	0.170	-0.093
-321.070	99.050	-0.028	0.032
-320.056	-26.267	-0.083	0.048
-319.041	-84.908	-0.167	-0.051
-318.026	-23.634	0.259	-0.153
-317.012	145.769	0.085	0.112
-315.997	-200.000	-0.024	-0.163
-314.983	-96.245	0.206	-0.054
-313.968	429.624	-0.093	0.199
-312.953	-168.158	0.059	-0.002
-311.939	-200.000	-0.011	0.192
-310.924	800.000	-0.036	0.111
-309.910	-200.000	0.035	-0.163
-308.895	217.555	-0.116	0.182
-307.880	185.748	0.071	0.103
-306.866	800.000	0.046	-0.189
-305.851	280.133	0.207	0.365
-304.837	-147.901	-0.269	0.022
-303.822	464.566	0.042	0.093
-302.807	-4.765	-0.300	0.203
-301.793	-75.359	-0.050	-0.018
-300.778	-52.554	0.292	-0.133
-299.764	800.000	-0.099	-0.335
-298.749	-200.000	0.071	-0.364
-297.735	134.317	0.277	0.354
-296.720	-200.000	-0.013	0.239
-295.705	122.080	-0.116	0.142
-294.691	-35.940	0.284	0.151
-293.676	-200.000	0.029	-0.436
-292.662	168.307	-0.046	0.065
-291.647	399.268	0.038	-0.078
-290.632	-200.000	-0.037	-0.267
-289.618	-75.703	0.443	-0.155
-288.603	-200.000	0.028	0.127
-287.589	800.000	0.076	0.273
-286.574	-120.113	-0.246	-0.041
-285.559	634.593	-0.170	0.424
-284.545	800.000	-0.060	0.166
-283.530	-200.000	0.018	-0.138
-282.516	32.688	0.170	0.145
-281.501	-75.864	0.227	0.079
-280.486	6.340	-0.129	-0.094
-279.472	35.186	-0.245	-0.211
-278.457	-128.656	0.197	-0.027
-277.443	473.120	0.128	-0.284
-276.428	368.898	-0.120	0.238
-275.413	-128.749	0.140	-0.019
-274.399	-60.284	0.369	0.154
-273.384	800.000	0.126	0.415
-272.370	-56.642	0.154	0.067
-271.355	-200.000	0.012	0.150
-270.340	-200.000	-0.020	-0.110
-269.326	-200.000	0.018	-0.088
-268.311	112.019	-0.135	0.161
-267.297	800.000	0.072	-0.271
-266.282	-146.818	-0.110	-0.009
-265.267	-200.000	-0.009	0.070
-264.253	167.407	0.121	0.169
-263.238	800.000	0.031	-0.092
-262.224	206.215	0.201	0.307
-261.209	-84.710	-0.208	-0.064
-260.195	556.259	0.099	-0.234
-259.180	109.155	0.100	0.118
-258.165	-131.214	-0.178	0.023
-257.151	-200.000	-0.041	-0.185
-256.136	-200.000	0.020	0.326
-255.122	800.000	0.058	0.210
-254.107	-39.693	-0.139	0.071
-253.092	70.440	0.257	-0.261
-252.078	276.910	0.095	0.166
-251.063	319.209	-0.051	-0.095
-250.049	-89.196	0.168	0.049
-249.034	-200.000	0.000	-0.194
-248.019	-163.457	-0.142	0.007
-247.005	213.757	-0.093	-0.144
-245.990	614.887	0.064	-0.157
-244.976	203.651	0.118	-0.179
-243.961	23.827	0.044	0.035
-242.946	39.640	-0.176	0.155
-241.932	-200.000	-0.009	0.179
-240.917	149.293	0.103	0.137
-239.903	800.000	0.134	0.382
-238.888	-101.628	-0.310	0.074
-237.873	198.515	0.159	-0.239
-236.859	-111.941	-0.226	-0.045
-235.844	-200.000	0.045	0.243
-234.830	-69.990	-0.241	-0.090
-233.815	-57.897	0.313	-0.134
-232.800	475.025	-0.090	0.199
-231.786	215.631	-0.049	0.076
-230.771	-131.171	0.135	0.018
-229.757	316.705	-0.071	0.132
-228.742	-57.217	-0.153	0.066
-227.727	-20.431	0.168	-0.102
-226.713	-200.000	-0.004	0.091
-225.698	800.000	0.024	-0.066
-224.684	-200.000	0.039	-0.317
-223.669	-116.135	0.080	0.015
-222.655	62.482	0.131	0.128
-221.640	800.000	-0.035	0.119
-220.625	-83.885	-0.223	0.070
-219.611	98.878	0.138	0.157
-218.596	-200.000	-0.012	0.067
-217.582	-103.307	-0.213	0.049
-216.567	-200.000	-0.030	-0.305
-215.552	226.040	0.154	0.245
-214.538	-200.000	-0.043	0.195
-213.523	379.645	-0.085	-0.170
-212.509	-128.725	0.189	-0.026
-211.494	-38.754	0.257	-0.133
-210.479	-66.665	0.295	-0.115
-209.465	355.902	0.097	-0.190
-208.450	44.312	-0.110	0.099
-207.436	173.204	0.121	0.171
-206.421	50.048	0.127	-0.118
-205.406	221.911	-0.113	0.178
-204.392	-74.551	0.103	-0.036
-203.377	30.231	0.172	0.144
-202.363	402.575	0.080	0.166
-201.348	-12.338	0.231	-0.148
-200.333	-74.465	-0.193	0.068
-199.319	329.590	0.139	0.263
-198.304	67.995	-0.077	-0.077
-197.290	50.747	-0.138	-0.128
-196.275	-95.179	0.210	0.056
-195.260	182.905	0.203	0.293
-194.246	-71.591	-0.222	0.081
-193.231	61.997	0.097	-0.094
-192.217	-27.723	0.126	-0.071
-191.202	-150.766	-0.175	0.013
-190.187	-5.733	-0.074	0.050
-189.173	-31.890	0.070	0.039
-188.158	-26.027	0.167	0.096
-187.144	-41.091	0.443	0.224
-186.129	-4.497	-0.168	-0.114
-185.114	800.000	0.063	0.188
-184.100	82.707	-0.266	-0.283
-183.085	15.067	0.312	0.239
-182.071	209.529	0.048	0.073
-181.056	134.269	0.117	0.149
-180.042	511.409	0.086	0.197
-179.027	-74.320	-0.115	0.041
-178.012	277.556	-0.130	0.227
-176.998	90.902	0.119	0.131
-175.983	800.000	0.091	0.355
-174.969	-200.000	-0.004	0.057
-173.954	-12.092	-0.245	-0.157
-172.939	103.283	-0.075	-0.086
-171.925	-200.000	-0.051	-0.300
-170.910	87.279	0.068	-0.074
-169.896	800.000	-0.041	0.121
-168.881	-200.000	0.104	-0.666
-167.866	129.638	0.092	0.115
-166.852	678.770	-0.115	-0.293
-165.837	800.000	-0.017	0.049
-164.823	-200.000	0.009	0.151
-163.808	-200.000	-0.024	-0.110
-162.793	-116.046	0.264	0.048
-161.779	65.033	0.126	0.124
-160.764	317.755	-0.224	-0.415
-159.750	-200.000	-0.030	-0.275
-158.735	46.737	0.121	-0.110
-157.720	-103.499	0.334	0.077
-156.706	-155.914	-0.160	-0.010
-155.691	-47.872	0.234	0.111
-154.677	51.841	0.152	0.141
-153.662	800.000	0.056	-0.206
-152.647	185.862	-0.114	-0.166
-151.633	-162.134	0.042	0.002
-150.618	-200.000	-0.013	0.126
-149.604	-200.000	0.014	0.239
-148.589	-153.726	-0.280	0.019
-147.574	83.283	0.106	-0.113
-146.560	-87.664	0.311	0.092
-145.545	219.030	-0.046	-0.071
-144.531	277.265	-0.089	-0.155
-143.516	386.893	-0.198	-0.400
-142.502	204.137	0.256	-0.388
-141.487	-48.728	0.083	-0.039
-140.472	-39.297	0.103	0.053
-139.458	-200.000	-0.004	-0.110
-138.443	137.749	0.234	0.300
-137.429	-200.000	-0.017	0.154
-136.414	-200.000	0.060	-0.419
-135.399	-200.000	0.004	0.238
-134.385	96.460	0.128	0.143
-133.370	-82.735	0.226	-0.071
-132.356	598.774	-0.150	0.365
-131.341	-200.000	-0.008	0.092
-130.326	-6.578	0.475	0.316
-129.312	800.000	-0.054	0.171
-128.297	-115.786	-0.287	-0.053
-127.283	-200.000	0.021	0.114
-126.268	-37.090	0.243	0.127
-125.253	101.591	0.175	-0.200
-124.239	-200.000	0.019	-0.206
-123.224	-81.839	-0.436	-0.140
-122.210	23.765	0.102	0.082
