DTS Sentinel unit serial number:	SN413079Multiplexer serial number:	ORYXHardware model number:	OX4-SRSoftware version number:	ORYX F/W v4.00 Oryx Data Collector v3.7.2.0data status	okinstallation	princeton_trtdifferential loss correction	single-endedforward channel	channel 2reverse channel	N/Adate	2019/09/15time	20:35:34forward acquisition time	60.00reverse acquisition time	0.00gamma	496.2192k internal	0.2330k external	0.2330temperature offset calibration	0.9936default loss term (dB/km)	0.3790temperature slope calibration	1.0000multiplexer offset coefficient	1.0000multiplexer slope coefficient	1.0000fibre end	0.00T internal ref (°C)	33.12T ext. ref 1 (°C)	7.86T ext. ref 2 (°C)	24.84length (m)	temperature (°C)	Stokes	anti-Stokes-747.200	-200.000	-0.043	-0.279
-746.185	-47.462	0.130	0.064
-745.171	-70.110	0.245	-0.094
-744.156	-200.000	0.009	0.313
-743.142	744.159	-0.099	-0.268
-742.127	-200.000	0.058	0.311
-741.112	3.361	-0.083	0.061
-740.098	-34.546	-0.259	0.143
-739.083	62.324	-0.123	0.124
-738.069	-200.000	0.008	0.192
-737.054	-105.702	-0.061	-0.014
-736.039	599.437	-0.093	-0.232
-735.025	-76.118	0.194	-0.069
-734.010	129.331	0.166	-0.213
-732.996	89.315	-0.192	-0.216
-731.981	221.767	-0.066	0.107
-730.966	-200.000	0.018	0.104
-729.952	110.601	-0.155	0.188
-728.937	-200.000	-0.006	0.037
-727.923	-39.368	-0.193	-0.102
-726.908	64.707	0.270	0.274
-725.894	-200.000	0.018	0.113
-724.879	135.530	0.222	-0.290
-723.864	800.000	-0.021	-0.084
-722.850	-200.000	0.004	0.101
-721.835	314.694	-0.042	-0.080
-720.821	-48.689	-0.121	-0.058
-719.806	-47.201	-0.201	-0.099
-718.791	-93.305	0.129	-0.036
-717.777	-118.809	-0.077	-0.014
-716.762	-115.988	0.207	-0.039
-715.748	800.000	-0.088	-0.256
-714.733	273.259	0.253	-0.449
-713.718	-200.000	0.016	-0.204
-712.704	193.095	-0.085	0.130
-711.689	-9.901	-0.206	0.138
-710.675	-105.544	-0.049	-0.011
-709.660	2.823	0.266	0.194
-708.645	649.537	-0.075	-0.194
-707.631	-37.258	0.098	0.053
-706.616	193.011	0.044	0.067
-705.602	33.739	0.308	-0.269
-704.587	-200.000	-0.042	0.278
-703.572	800.000	0.049	-0.140
-702.558	-124.684	-0.183	-0.028
-701.543	-36.450	-0.098	-0.053
-700.529	-90.704	-0.166	-0.048
-699.514	-75.065	-0.159	-0.057
-698.499	26.391	0.122	-0.102
-697.485	14.773	-0.233	0.183
-696.470	800.000	0.061	0.186
-695.456	-200.000	-0.009	0.186
-694.441	-67.716	0.443	0.174
-693.426	-57.665	0.368	-0.162
-692.412	800.000	0.032	-0.138
-691.397	-35.047	0.276	0.151
-690.383	216.560	-0.086	-0.138
-689.368	-127.453	0.151	0.022
-688.354	-37.984	-0.261	-0.140
-687.339	9.650	0.111	-0.084
-686.324	148.465	0.091	0.123
-685.310	78.358	-0.086	-0.092
-684.295	-200.000	-0.028	0.167
-683.281	191.000	-0.190	-0.287
-682.266	-16.685	-0.247	-0.157
-681.251	-200.000	0.029	-0.341
-680.237	-25.990	0.273	0.162
-679.222	477.391	-0.143	0.325
-678.208	800.000	-0.028	0.088
-677.193	-7.729	0.031	-0.021
-676.178	-161.150	-0.210	0.011
-675.164	422.170	0.076	-0.164
-674.149	54.930	0.195	-0.189
-673.135	-165.962	-0.144	0.006
-672.120	800.000	0.084	-0.335
-671.105	-36.726	-0.112	0.060
-670.091	377.552	-0.033	-0.068
-669.076	-130.965	-0.301	0.040
-668.062	-89.540	0.170	-0.050
-667.047	-132.229	-0.163	0.021
-666.032	-200.000	-0.009	0.171
-665.018	-121.436	-0.268	-0.045
-664.003	37.728	-0.045	0.040
-662.989	-200.000	-0.013	-0.144
-661.974	488.562	0.111	0.254
-660.959	121.167	0.082	-0.103
-659.945	250.980	-0.093	-0.159
-658.930	16.109	-0.140	-0.111
-657.916	770.977	-0.044	-0.121
-656.901	36.535	-0.122	-0.108
-655.886	800.000	0.089	0.307
-654.872	-200.000	-0.017	-0.155
-653.857	-35.620	-0.254	-0.138
-652.843	44.699	0.054	0.050
-651.828	-97.094	0.217	-0.057
-650.814	11.225	-0.180	0.138
-649.799	231.333	-0.105	0.173
-648.784	-144.253	-0.227	-0.021
-647.770	-101.148	-0.292	0.072
-646.755	-83.845	-0.105	-0.033
-645.741	225.442	0.182	-0.296
-644.726	191.356	-0.035	0.053
-643.711	5.011	0.088	-0.065
-642.697	123.784	-0.054	0.067
-641.682	-117.534	-0.173	-0.031
-640.668	299.856	0.092	-0.170
-639.653	-96.962	-0.073	-0.019
-638.638	-41.062	0.147	0.076
-637.624	800.000	0.097	-0.287
-636.609	22.233	0.225	-0.184
-635.595	-200.000	-0.025	0.174
-634.580	-40.509	0.206	-0.107
-633.565	800.000	0.099	0.362
-632.551	800.000	0.021	-0.064
-631.536	74.251	0.077	0.081
-630.522	-43.117	0.242	-0.123
-629.507	-125.771	0.174	0.026
-628.492	50.633	0.171	-0.162
-627.478	800.000	0.107	0.346
-626.463	50.951	-0.135	0.128
-625.449	-87.262	-0.321	0.098
-624.434	113.709	0.084	-0.103
-623.419	-200.000	0.046	0.257
-622.405	-9.798	-0.063	0.042
-621.390	-200.000	0.004	-0.272
-620.376	-200.000	0.018	-0.171
-619.361	-34.254	0.260	0.143
-618.346	-200.000	0.016	-0.287
-617.332	-74.666	-0.202	0.073
-616.317	800.000	0.019	0.071
-615.303	5.906	-0.082	0.061
-614.288	-200.000	0.007	-0.347
-613.273	-34.698	-0.087	0.048
-612.259	-93.328	0.242	-0.067
-611.244	35.733	-0.120	0.106
-610.230	223.170	-0.176	0.285
-609.215	199.371	0.206	0.317
-608.201	-200.000	-0.000	-0.127
-607.186	170.542	0.027	-0.039
-606.171	-38.227	-0.071	-0.038
-605.157	-42.510	-0.091	-0.046
-604.142	38.045	-0.099	-0.088
-603.128	800.000	-0.006	-0.026
-602.113	-34.383	-0.177	0.097
-601.098	-141.483	-0.183	-0.019
-600.084	-119.593	-0.186	0.032
-599.069	6.952	0.197	0.147
-598.055	-86.830	-0.423	-0.129
-597.040	-29.583	0.112	0.064
-596.025	453.284	-0.159	-0.353
-595.011	-107.775	-0.147	-0.032
-593.996	-126.589	0.104	-0.015
-592.982	-200.000	-0.067	-0.303
-591.967	74.855	-0.100	-0.105
-590.952	-81.425	0.125	0.041
-589.938	148.205	0.151	0.204
-588.923	-92.530	-0.238	0.067
-587.909	800.000	0.104	-0.300
-586.894	14.998	-0.038	-0.030
-585.879	-124.273	-0.167	0.026
-584.865	-200.000	0.003	-0.088
-583.850	119.959	0.023	-0.028
-582.836	-100.561	0.032	0.008
-581.821	84.165	-0.061	-0.066
-580.806	-29.730	-0.184	0.105
-579.792	-175.528	-0.406	-0.011
-578.777	-200.000	0.044	-0.324
-577.763	-24.144	0.153	0.091
-576.748	487.674	0.218	0.497
-575.733	-140.591	-0.139	-0.014
-574.719	-111.885	-0.298	-0.060
-573.704	-42.822	-0.127	0.065
-572.690	-145.977	0.139	-0.012
-571.675	-20.964	0.047	0.029
-570.661	-159.446	0.183	-0.010
-569.646	-200.000	-0.027	-0.184
-568.631	180.752	0.102	0.149
-567.617	67.222	-0.147	0.150
-566.602	-156.761	-0.180	-0.011
-565.588	14.443	0.184	0.144
-564.573	675.341	0.008	0.022
-563.558	116.028	-0.063	0.077
-562.544	-115.255	0.039	0.007
-561.529	-200.000	-0.051	0.329
-560.515	-135.239	-0.105	0.013
-559.500	-200.000	0.024	-0.430
-558.485	-27.131	0.246	-0.144
-557.471	157.529	-0.096	0.133
-556.456	-87.964	-0.160	0.048
-555.442	146.002	-0.072	-0.096
-554.427	-200.000	0.023	-0.193
-553.412	174.111	-0.094	-0.135
-552.398	-200.000	0.020	-0.180
-551.383	-200.000	0.008	0.247
-550.369	413.565	0.046	-0.098
-549.354	3.368	-0.253	-0.184
-548.339	-200.000	-0.001	0.116
-547.325	-200.000	-0.050	0.279
-546.310	628.576	0.087	-0.220
-545.296	25.661	0.049	0.040
-544.281	800.000	-0.033	-0.135
-543.266	800.000	-0.145	-0.416
-542.252	115.034	0.024	0.029
-541.237	41.262	0.238	-0.215
-540.223	21.303	0.163	-0.132
-539.208	800.000	0.036	0.114
-538.193	165.494	-0.015	0.021
-537.179	20.810	0.179	-0.145
-536.164	-138.881	0.553	0.060
-535.150	16.216	-0.203	-0.160
-534.135	171.101	0.100	-0.144
-533.121	-76.903	-0.081	-0.028
-532.106	-89.098	0.220	0.065
-531.091	-155.701	-0.070	-0.004
-530.077	-25.046	-0.192	0.114
-529.062	-114.579	0.036	0.007
-528.048	-100.749	-0.190	-0.047
-527.033	-63.481	0.197	-0.081
-526.018	-14.128	-0.038	-0.025
-525.004	-200.000	0.009	-0.111
-523.989	-200.000	-0.020	0.105
-522.975	-121.398	-0.184	0.031
-521.960	-75.036	-0.036	0.013
-520.945	-96.099	0.494	0.131
-519.931	245.544	-0.156	-0.263
-518.916	127.986	-0.225	-0.285
-517.902	591.742	-0.159	-0.391
-516.887	-83.358	0.245	0.079
-515.872	800.000	-0.038	-0.156
-514.858	-72.002	0.280	0.104
-513.843	-145.091	0.282	-0.026
-512.829	-186.022	0.259	0.004
-511.814	0.705	0.202	0.144
-510.799	9.760	-0.116	-0.088
-509.785	-200.000	-0.024	0.187
-508.770	187.086	-0.206	-0.307
-507.756	-200.000	0.012	-0.126
-506.741	433.772	-0.092	0.200
-505.726	66.129	-0.057	-0.058
-504.712	-200.000	0.020	-0.215
-503.697	348.796	-0.199	0.391
-502.683	-189.060	-0.376	-0.004
-501.668	-200.000	-0.017	0.151
-500.653	378.347	-0.082	0.168
-499.639	-200.000	0.039	0.340
-498.624	255.233	0.163	0.278
-497.610	187.272	0.058	-0.086
-496.595	-95.107	-0.213	-0.057
-495.581	-200.000	0.015	-0.074
-494.566	800.000	-0.008	0.024
-493.551	-22.468	0.218	-0.132
-492.537	-67.479	0.052	0.020
-491.522	-65.242	-0.286	-0.115
-490.508	107.243	-0.208	-0.246
-489.493	-180.866	0.080	-0.002
-488.478	44.603	0.291	0.266
-487.464	109.927	-0.045	-0.053
-486.449	61.967	0.123	-0.123
-485.435	347.336	0.222	0.436
-484.420	175.641	0.167	-0.241
-483.405	-73.178	-0.116	-0.042
-482.391	800.000	-0.077	-0.226
-481.376	221.165	-0.114	-0.183
-480.362	-197.789	-0.237	0.001
-479.347	800.000	0.085	-0.244
-478.332	-152.080	0.103	-0.007
-477.318	-38.739	-0.392	-0.206
-476.303	-200.000	0.414	0.002
-475.289	425.639	0.152	-0.327
-474.274	800.000	-0.077	-0.322
-473.259	-200.000	-0.058	0.275
-472.245	257.321	0.207	0.354
-471.230	-135.915	-0.192	0.023
-470.216	471.997	0.023	0.051
-469.201	522.871	-0.045	-0.105
-468.186	323.185	0.097	0.184
-467.172	257.202	0.108	-0.184
-466.157	-72.287	0.160	0.059
-465.143	-34.112	0.342	0.187
-464.128	-200.000	0.005	0.141
-463.113	-200.000	-0.075	0.506
-462.099	-96.894	0.403	-0.105
-461.084	-26.581	0.039	0.023
-460.070	364.718	-0.046	0.093
-459.055	-34.861	-0.277	0.151
-458.040	800.000	-0.058	0.242
-457.026	36.322	-0.099	0.087
-456.011	380.973	0.196	-0.401
-454.997	-12.726	0.123	-0.080
-453.982	4.326	-0.211	-0.154
-452.968	668.052	-0.124	-0.319
-451.953	-102.376	-0.080	0.019
-450.938	-112.598	0.126	0.025
-449.924	604.006	-0.062	-0.153
-448.909	-84.887	0.129	-0.040
-447.895	-34.322	-0.226	-0.124
-446.880	-71.800	-0.056	-0.021
-445.865	-112.288	-0.295	-0.059
-444.851	-74.797	-0.376	0.134
-443.836	800.000	0.029	0.113
-442.822	568.549	0.157	0.380
-441.807	-145.371	-0.295	0.026
-440.792	-23.817	0.138	-0.082
-439.778	111.083	-0.076	-0.091
-438.763	183.685	0.131	-0.193
-437.749	-200.000	-0.036	0.248
-436.734	102.686	0.152	-0.177
-435.719	129.156	0.106	-0.135
-434.705	-110.767	0.059	-0.012
-433.690	-166.364	0.226	0.009
-432.676	-75.194	-0.214	-0.076
-431.661	41.021	-0.324	0.291
-430.646	166.485	0.157	0.221
-429.632	800.000	0.039	0.109
-428.617	-167.041	-0.315	0.013
-427.603	172.485	-0.104	0.149
-426.588	-200.000	0.029	0.243
-425.573	-141.517	0.243	-0.024
-424.559	18.722	0.137	-0.109
-423.544	-157.760	0.392	-0.023
-422.530	347.211	-0.074	0.144
-421.515	-107.245	-0.270	-0.059
-420.500	-97.802	0.081	-0.021
-419.486	-200.000	-0.007	0.079
-418.471	1.584	-0.210	-0.150
-417.457	45.229	0.208	0.191
-416.442	55.976	-0.163	-0.157
-415.428	16.474	0.256	-0.201
-414.413	-31.520	-0.080	0.045
-413.398	667.758	-0.028	0.072
-412.384	273.343	0.100	-0.175
-411.369	-35.335	-0.180	0.097
-410.355	-16.407	0.082	-0.052
-409.340	183.250	0.229	0.337
-408.325	66.000	-0.218	-0.220
-407.311	-107.993	-0.444	0.096
-406.296	138.537	-0.087	0.113
-405.282	766.596	-0.075	0.202
-404.267	62.476	-0.156	0.155
-403.252	-30.079	-0.164	0.093
-402.238	-200.000	-0.025	-0.167
-401.223	272.736	-0.090	0.158
-400.209	-102.316	-0.292	0.070
-399.194	800.000	0.033	-0.091
-398.179	-200.000	0.042	-0.234
-397.165	-26.291	-0.237	0.138
-396.150	-161.085	-0.148	-0.008
-395.136	800.000	-0.058	0.178
-394.121	653.211	0.155	0.394
-393.106	-200.000	0.001	0.297
-392.092	30.753	0.146	0.124
-391.077	103.299	-0.273	0.318
-390.063	-200.000	-0.020	-0.183
-389.048	4.770	-0.166	0.121
-388.033	253.335	-0.175	0.297
-387.019	187.465	-0.107	-0.158
-386.004	6.749	-0.069	-0.051
-384.990	-70.280	0.265	0.100
-383.975	-15.932	-0.193	0.122
-382.960	106.291	-0.159	-0.187
-381.946	14.833	0.099	0.077
-380.931	78.091	-0.202	-0.214
-379.917	-11.290	-0.279	0.182
-378.902	203.017	0.177	0.271
-377.888	-160.486	0.369	0.020
-376.873	-112.090	0.223	0.045
-375.858	-200.000	-0.010	-0.142
-374.844	-79.335	0.203	0.068
-373.829	-103.275	0.185	-0.043
-372.815	-200.000	-0.049	-0.266
-371.800	800.000	0.018	-0.053
-370.785	-200.000	-0.022	0.269
-369.771	-135.642	-0.180	-0.021
-368.756	-49.125	0.192	-0.091
-367.742	-87.970	0.034	0.010
-366.727	-47.121	0.286	-0.138
-365.712	-200.000	0.027	-0.127
-364.698	-126.165	-0.182	-0.027
-363.683	-121.392	-0.398	0.066
-362.669	-54.823	0.044	-0.020
-361.654	285.975	-0.136	-0.243
-360.639	72.714	-0.361	0.374
-359.625	13.396	-0.247	0.190
-358.610	800.000	0.078	-0.233
-357.596	-28.576	0.118	0.067
-356.581	800.000	0.061	0.201
-355.566	-107.340	-0.072	0.016
-354.552	-94.584	0.276	0.075
-353.537	-132.822	0.192	-0.024
-352.523	-200.000	-0.008	0.083
-351.508	12.950	0.020	0.015
-350.493	800.000	0.015	-0.042
-349.479	-38.890	0.119	-0.062
-348.464	-57.180	-0.152	0.066
-347.450	-62.924	0.013	-0.005
-346.435	-27.455	0.156	0.090
-345.420	-94.743	-0.331	0.089
-344.406	800.000	0.010	-0.043
-343.391	762.877	0.013	-0.036
-342.377	-200.000	0.001	-0.284
-341.362	172.700	-0.049	-0.070
-340.348	-99.822	-0.283	0.070
-339.333	272.338	-0.141	0.247
-338.318	49.414	-0.120	-0.112
-337.304	800.000	0.102	-0.306
-336.289	-200.000	0.030	-0.440
-335.275	-110.820	-0.075	0.015
-334.260	-157.050	-0.166	0.010
-333.245	34.839	0.171	0.148
-332.231	-125.544	0.192	-0.029
-331.216	710.681	0.040	0.105
-330.202	-200.000	0.027	0.195
-329.187	-155.945	0.148	-0.009
-328.172	-23.231	-0.208	0.124
-327.158	24.832	-0.251	-0.206
-326.143	68.794	-0.125	-0.127
-325.129	-36.664	0.153	-0.082
-324.114	-44.815	0.371	0.183
-323.099	265.550	0.026	-0.045
-322.085	-95.316	0.130	-0.035
-321.070	174.743	0.100	0.143
-320.056	406.503	0.148	-0.310
-319.041	800.000	0.028	0.077
-318.026	-200.000	0.023	0.148
-317.012	-169.693	0.049	-0.002
-315.997	800.000	-0.047	-0.145
-314.983	203.203	-0.170	-0.260
-313.968	210.299	-0.045	-0.070
-312.953	64.341	0.203	-0.202
-311.939	84.021	0.261	0.282
-310.924	800.000	-0.054	0.191
-309.910	-34.032	-0.343	-0.187
-308.895	-120.006	-0.257	0.044
-307.880	-92.023	0.414	0.116
-306.866	-200.000	0.092	0.439
-305.851	-147.076	-0.146	-0.012
-304.837	78.988	0.162	0.172
-303.822	533.214	-0.023	0.053
-302.807	800.000	0.095	0.364
-301.793	606.506	-0.142	-0.351
-300.778	-200.000	-0.011	-0.110
-299.764	-50.894	0.332	-0.155
-298.749	-98.031	0.095	0.024
-297.735	-81.854	0.041	-0.013
-296.720	259.568	0.032	-0.055
-295.705	-200.000	-0.001	0.257
-294.691	-20.030	0.046	0.028
-293.676	-141.311	-0.589	0.059
-292.662	-124.164	-0.191	-0.030
-291.647	800.000	-0.028	0.086
-290.632	800.000	-0.099	0.272
-289.618	232.889	0.164	0.266
-288.603	800.000	0.049	0.187
-287.589	263.507	0.091	0.156
-286.574	248.687	0.116	0.193
-285.559	800.000	0.041	0.141
-284.545	45.480	-0.182	0.166
-283.530	800.000	-0.074	-0.231
-282.516	111.276	0.203	-0.242
-281.501	71.804	0.073	0.075
-280.486	-200.000	0.038	-0.442
-279.472	-28.733	0.243	-0.138
-278.457	24.740	-0.158	-0.130
-277.443	-89.446	-0.093	0.027
-276.428	-195.500	0.079	-0.001
-275.413	-17.006	0.136	-0.085
-274.399	-101.298	0.040	-0.010
-273.384	382.424	-0.033	-0.066
-272.370	112.837	0.043	0.051
-271.355	800.000	0.141	-0.419
-270.340	-74.067	-0.144	-0.052
-269.326	503.157	-0.136	0.310
-268.311	800.000	0.040	0.150
-267.297	800.000	-0.040	0.160
-266.282	1.218	-0.323	0.229
-265.267	244.542	-0.046	0.077
-264.253	-148.364	0.210	-0.017
-263.238	-200.000	0.009	0.092
-262.224	658.892	0.055	-0.140
-261.209	-95.546	-0.021	0.006
-260.195	637.638	0.055	0.138
-259.180	226.042	-0.126	-0.202
-258.165	-88.705	0.178	0.052
-257.151	-100.335	0.109	-0.027
-256.136	65.570	-0.050	0.050
-255.122	-55.381	0.313	-0.139
-254.107	-24.767	-0.198	-0.116
-253.092	30.105	-0.209	0.176
-252.078	215.120	0.233	0.366
-251.063	-200.000	0.066	0.000
-250.049	-68.857	0.437	0.167
-249.034	274.844	0.149	0.260
-248.019	-22.250	0.290	-0.173
-247.005	-200.000	0.013	-0.364
-245.990	-60.769	-0.117	-0.049
-244.976	-178.008	0.141	-0.003
-243.961	-200.000	-0.000	-0.199
-242.946	99.204	-0.117	0.134
-241.932	264.949	-0.065	-0.111
-240.917	800.000	-0.093	0.278
-239.903	72.518	-0.150	-0.155
-238.888	-200.000	0.035	0.302
-237.873	715.505	-0.200	-0.524
-236.859	-137.381	0.201	0.022
-235.844	608.414	0.064	-0.158
-234.830	-200.000	-0.049	0.245
-233.815	-40.880	-0.246	0.125
-232.800	503.049	-0.040	0.090
-231.786	141.498	0.274	0.358
-230.771	283.062	0.151	0.268
-229.757	-49.836	-0.204	-0.096
-228.742	-94.432	-0.244	-0.066
-227.727	-21.558	0.313	0.188
-226.713	800.000	0.070	0.211
-225.698	42.747	0.179	-0.160
-224.684	8.553	0.129	0.096
-223.669	800.000	0.029	0.090
-222.655	425.581	-0.177	-0.376
-221.640	129.714	-0.156	0.197
-220.625	746.443	-0.131	-0.347
-219.611	29.883	-0.217	0.182
-218.596	-9.243	0.218	-0.144
-217.582	-122.396	0.287	-0.046
-216.567	-118.139	0.142	-0.025
-215.552	25.906	-0.113	0.093
-214.538	-200.000	0.444	0.001
-213.523	134.339	-0.244	-0.312
-212.509	800.000	-0.063	-0.183
-211.494	-200.000	-0.059	-0.331
-210.479	110.186	-0.260	-0.307
-209.465	-150.783	0.418	-0.031
-208.450	-184.876	0.193	-0.003
-207.436	214.293	0.102	0.159
-206.421	-200.000	-0.039	-0.191
-205.406	374.422	-0.173	-0.347
-204.392	-79.704	-0.139	0.046
-203.377	112.714	0.084	0.100
-202.363	-120.852	0.384	0.064
-201.348	281.444	-0.092	-0.163
-200.333	55.409	-0.125	-0.119
-199.319	515.129	0.098	0.226
-198.304	800.000	0.097	0.314
-197.290	-147.801	0.158	-0.013
-196.275	-200.000	-0.021	0.114
-195.260	-200.000	0.028	-0.163
-194.246	-130.518	-0.436	-0.058
-193.231	-68.587	-0.245	-0.093
-192.217	173.032	0.085	0.121
-191.202	13.269	0.162	0.124
-190.187	8.276	0.106	0.079
-189.173	-70.198	0.144	-0.054
-188.158	-200.000	0.043	0.212
-187.144	-1.025	0.236	0.165
-186.129	127.435	-0.097	0.121
-185.114	285.372	-0.144	-0.256
-184.100	-200.000	0.125	0.000
-183.085	229.835	0.084	-0.136
-182.071	494.886	0.095	-0.215
-181.056	800.000	0.106	-0.352
-180.042	-192.365	0.186	0.002
-179.027	52.371	0.012	0.011
-178.012	-73.674	0.270	0.097
-176.998	-200.000	-0.011	-0.118
-175.983	136.480	0.038	0.049
-174.969	7.533	0.336	0.248
-173.954	40.164	0.038	-0.034
-172.939	217.040	-0.246	-0.386
-171.925	-57.519	0.270	0.117
-170.910	800.000	0.080	-0.266
-169.896	-82.291	-0.264	-0.085
-168.881	66.355	-0.062	0.062
-167.866	-132.190	-0.222	-0.028
-166.852	-16.820	-0.046	-0.029
-165.837	-17.352	-0.148	-0.092
-164.823	168.574	-0.144	-0.202
-163.808	-200.000	-0.017	-0.084
-162.793	-79.159	-0.033	-0.011
-161.779	-140.643	-0.178	-0.018
-160.764	-200.000	0.064	-0.295
-159.750	-18.928	-0.033	0.020
-158.735	-131.168	0.243	-0.032
-157.720	-200.000	0.013	-0.241
-156.706	574.768	-0.081	0.195
-155.691	102.463	-0.163	0.188
-154.677	598.055	0.132	0.321
-153.662	-200.000	0.020	0.199
-152.647	-9.302	-0.194	0.127
-151.633	-200.000	0.018	0.105
-150.618	-139.995	0.120	0.012
-149.604	-107.181	0.262	0.057
-148.589	-143.224	0.373	0.035
-147.574	-103.379	-0.205	0.047
-146.560	-145.870	0.187	0.016
-145.545	-69.467	0.441	-0.166
-144.531	-10.054	0.054	0.035
-143.516	297.255	-0.110	-0.198
-142.502	-29.187	0.113	0.064
-141.487	800.000	0.076	-0.288
-140.472	-112.351	0.302	0.059
-139.458	111.221	-0.141	-0.167
-138.443	32.767	0.142	-0.121
-137.429	78.419	-0.219	-0.230
-136.414	-119.872	0.198	0.034
-135.399	-174.226	0.293	-0.008
-134.385	-142.217	0.024	-0.002
-133.370	-200.000	0.110	-0.521
-132.356	93.924	-0.114	-0.127
-131.341	-200.000	-0.018	-0.107
-130.326	-155.508	0.388	-0.025
-129.312	-77.967	0.020	-0.007
-128.297	-42.938	0.281	-0.140
-127.283	-29.111	0.254	-0.143
-126.268	-200.000	-0.054	-0.269
-125.253	38.200	0.218	0.191
-124.239	37.657	0.161	0.141
-123.224	238.695	0.146	-0.238
-122.210	-22.221	-0.102	-0.061
-121.195	-200.000	-0.003	0.172
