DTS Sentinel unit serial number:	SN413079Multiplexer serial number:	ORYXHardware model number:	OX4-SRSoftware version number:	ORYX F/W v4.00 Oryx Data Collector v3.7.2.0data status	okinstallation	princeton_trtdifferential loss correction	single-endedforward channel	channel 2reverse channel	N/Adate	2019/09/14time	17:39:35forward acquisition time	60.00reverse acquisition time	0.00gamma	496.2192k internal	0.2311k external	0.2311temperature offset calibration	1.0114default loss term (dB/km)	0.3790temperature slope calibration	1.0000multiplexer offset coefficient	1.0000multiplexer slope coefficient	1.0000fibre end	0.00T internal ref (°C)	37.55T ext. ref 1 (°C)	5.05T ext. ref 2 (°C)	32.72length (m)	temperature (°C)	Stokes	anti-Stokes-747.200	212.731	-0.139	-0.222
-746.185	59.563	-0.289	0.289
-745.171	-200.000	-0.012	-0.160
-744.156	-200.000	-0.011	0.091
-743.142	-200.000	0.008	0.078
-742.127	-15.030	-0.095	0.061
-741.112	-126.225	-0.161	-0.024
-740.098	362.779	0.071	-0.144
-739.083	800.000	0.082	-0.269
-738.069	193.867	-0.089	0.136
-737.054	800.000	-0.092	-0.403
-736.039	762.718	0.058	-0.160
-735.025	-68.281	0.220	0.087
-734.010	-184.625	-0.276	-0.005
-732.996	-200.000	0.007	-0.318
-731.981	800.000	-0.119	-0.346
-730.966	33.408	-0.408	-0.360
-729.952	-69.354	-0.019	0.007
-728.937	-200.000	-0.086	0.000
-727.923	800.000	-0.008	0.027
-726.908	-21.843	-0.261	-0.161
-725.894	-72.009	-0.156	0.059
-724.879	-165.663	0.071	-0.003
-723.864	-45.429	-0.277	0.139
-722.850	-107.924	-0.126	0.028
-721.835	-142.358	-0.300	-0.030
-720.821	800.000	-0.074	-0.212
-719.806	-148.577	-0.295	-0.024
-718.791	62.921	-0.031	0.031
-717.777	383.372	-0.085	0.178
-716.762	-97.986	0.247	-0.065
-715.748	-103.738	-0.168	-0.040
-714.733	800.000	0.010	0.034
-713.718	800.000	0.072	-0.268
-712.704	414.924	0.162	-0.350
-711.689	-72.033	0.083	0.031
-710.675	-41.838	-0.244	-0.127
-709.660	-200.000	-0.035	0.294
-708.645	35.045	0.244	0.216
-707.631	331.154	-0.101	0.197
-706.616	-68.767	0.116	-0.045
-705.602	160.801	0.324	-0.459
-704.587	-200.000	-0.021	-0.178
-703.572	800.000	-0.052	-0.166
-702.558	-200.000	-0.001	-0.051
-701.543	-200.000	0.034	-0.163
-700.529	-200.000	0.006	-0.218
-699.514	113.671	-0.152	0.187
-698.499	-60.023	-0.171	0.074
-697.485	80.508	-0.151	-0.164
-696.470	-200.000	0.045	-0.425
-695.456	-84.814	-0.131	-0.042
-694.441	800.000	0.051	-0.146
-693.426	-200.000	0.004	-0.041
-692.412	-200.000	-0.015	-0.067
-691.397	-110.966	0.081	0.017
-690.383	65.500	0.081	-0.083
-689.368	37.930	-0.050	0.045
-688.354	-200.000	-0.001	-0.035
-687.339	-42.739	-0.076	-0.039
-686.324	-200.000	-0.065	0.382
-685.310	-200.000	-0.011	-0.284
-684.295	800.000	0.044	-0.134
-683.281	-29.951	-0.169	0.097
-682.266	-18.972	-0.153	-0.097
-681.251	-200.000	-0.043	-0.201
-680.237	-200.000	0.030	-0.337
-679.222	-200.000	0.024	0.120
-678.208	-60.672	-0.025	-0.011
-677.193	11.988	-0.043	0.034
-676.178	8.390	-0.165	-0.126
-675.164	69.976	-0.266	-0.278
-674.149	43.170	0.030	0.028
-673.135	-61.844	-0.298	0.126
-672.120	297.346	0.059	-0.110
-671.105	-200.000	-0.017	-0.218
-670.091	91.562	0.183	0.208
-669.076	-48.985	-0.305	-0.148
-668.062	-108.179	-0.463	0.101
-667.047	464.568	0.072	0.162
-666.032	-200.000	-0.041	-0.307
-665.018	132.586	-0.113	-0.148
-664.003	23.187	0.245	0.204
-662.989	-160.332	0.045	0.002
-661.974	6.968	-0.128	0.096
-660.959	112.615	0.147	-0.181
-659.945	383.409	-0.140	-0.292
-658.930	201.023	-0.104	0.163
-657.916	192.616	0.040	0.061
-656.901	-78.838	-0.182	0.063
-655.886	-72.673	-0.270	-0.101
-654.872	-200.000	-0.076	-0.422
-653.857	-162.356	-0.206	0.010
-652.843	-6.872	0.150	0.103
-651.828	-51.522	0.111	0.053
-650.814	-200.000	-0.027	0.297
-649.799	-200.000	0.082	0.483
-648.784	-13.911	-0.188	0.123
-647.770	-113.855	-0.145	0.029
-646.755	-40.886	0.203	0.106
-645.741	75.734	0.337	-0.360
-644.726	-95.751	0.161	0.044
-643.711	262.839	0.071	-0.125
-642.697	78.797	0.228	0.247
-641.682	333.871	-0.062	-0.121
-640.668	800.000	-0.015	-0.056
-639.653	-31.550	-0.380	-0.216
-638.638	-83.392	0.255	-0.082
-637.624	3.117	0.229	0.168
-636.609	22.444	0.113	-0.093
-635.595	800.000	-0.057	-0.180
-634.580	674.362	0.135	-0.354
-633.565	298.681	-0.090	-0.168
-632.551	-25.037	0.094	-0.056
-631.536	542.700	-0.080	0.194
-630.522	800.000	-0.125	0.389
-629.507	343.420	0.073	0.144
-628.492	92.582	-0.196	0.223
-627.478	484.786	0.039	0.089
-626.463	181.498	-0.066	0.098
-625.449	65.073	0.190	-0.194
-624.434	-200.000	-0.004	-0.066
-623.419	800.000	-0.077	-0.249
-622.405	-29.724	-0.063	-0.037
-621.390	154.382	0.050	-0.070
-620.376	-2.989	0.300	0.212
-619.361	-70.869	0.457	0.174
-618.346	-200.000	-0.030	-0.236
-617.332	-116.149	-0.133	0.025
-616.317	-18.841	-0.123	0.077
-615.303	800.000	-0.127	-0.363
-614.288	355.667	0.045	-0.091
-613.273	91.461	-0.156	0.177
-612.259	-5.950	-0.253	0.175
-611.244	-174.490	0.124	-0.004
-610.230	34.293	-0.192	-0.169
-609.215	-200.000	-0.013	0.256
-608.201	326.624	-0.035	-0.067
-607.186	551.718	-0.071	-0.172
-606.171	32.933	-0.169	-0.148
-605.157	-117.301	-0.452	0.083
-604.142	86.505	0.055	0.061
-603.128	800.000	0.030	0.115
-602.113	-51.949	-0.333	-0.156
-601.098	-9.369	-0.126	0.085
-600.084	192.066	-0.162	-0.246
-599.069	800.000	0.056	0.169
-598.055	257.564	0.035	-0.060
-597.040	-200.000	-0.010	-0.336
-596.025	48.746	0.273	-0.258
-595.011	656.212	-0.058	0.149
-593.996	135.078	0.230	-0.302
-592.982	59.740	0.126	0.125
-591.967	153.819	0.094	-0.130
-590.952	264.694	-0.091	0.160
-589.938	-72.669	0.169	-0.063
-588.923	196.807	-0.103	-0.159
-587.909	119.962	-0.142	0.177
-586.894	524.680	-0.094	-0.223
-585.879	-105.675	-0.117	0.027
-584.865	543.684	0.128	-0.309
-583.850	103.142	-0.281	-0.333
-582.836	800.000	-0.023	0.065
-581.821	-93.148	-0.086	0.024
-580.806	17.011	-0.066	0.053
-579.792	499.671	-0.067	-0.155
-578.777	-200.000	0.072	0.318
-577.763	-3.152	0.104	0.073
-576.748	-200.000	0.034	-0.164
-575.733	215.166	0.129	0.206
-574.719	205.731	-0.133	-0.208
-573.704	27.949	0.125	0.106
-572.690	-117.867	0.239	0.043
-571.675	487.444	-0.050	-0.114
-570.661	215.444	0.183	0.292
-569.646	263.973	0.117	-0.205
-568.631	800.000	0.081	0.279
-567.617	218.903	-0.081	0.130
-566.602	-45.343	-0.319	0.160
-565.588	65.143	-0.299	-0.305
-564.573	57.667	-0.284	-0.280
-563.558	-140.770	0.329	0.034
-562.544	800.000	0.013	-0.053
-561.529	76.316	-0.072	-0.077
-560.515	800.000	0.050	0.166
-559.500	75.046	0.157	-0.167
-558.485	-72.177	-0.121	0.045
-557.471	0.723	-0.293	0.211
-556.456	-64.998	-0.322	0.131
-555.442	800.000	0.012	-0.044
-554.427	-97.179	-0.095	0.025
-553.412	-13.306	0.390	-0.255
-552.398	86.939	-0.188	-0.210
-551.383	-39.012	-0.271	-0.143
-550.369	-200.000	0.018	-0.202
-549.354	476.054	0.137	0.311
-548.339	-150.664	-0.078	-0.006
-547.325	-113.072	0.094	0.019
-546.310	-37.366	0.395	-0.213
-545.296	-200.000	0.034	-0.237
-544.281	190.193	-0.299	-0.452
-543.266	-5.893	-0.119	-0.082
-542.252	-200.000	0.024	0.109
-541.237	53.505	0.084	-0.081
-540.223	-139.272	0.048	-0.005
-539.208	311.553	0.008	0.014
-538.193	-23.061	0.059	0.036
-537.179	800.000	-0.039	-0.125
-536.164	-107.691	-0.366	-0.080
-535.150	-55.607	-0.186	-0.084
-534.135	-59.733	0.359	0.155
-533.121	441.570	0.037	0.083
-532.106	-200.000	-0.034	0.188
-531.091	-116.476	0.118	-0.022
-530.077	524.702	0.046	0.109
-529.062	-98.586	-0.243	0.062
-528.048	66.375	0.199	0.203
-527.033	800.000	0.039	0.111
-526.018	159.241	0.123	0.172
-525.004	20.611	0.145	-0.118
-523.989	192.648	-0.068	-0.103
-522.975	193.326	-0.111	0.169
-521.960	22.677	-0.274	-0.226
-520.945	-200.000	-0.049	0.399
-519.931	131.305	0.120	-0.156
-518.916	-69.436	-0.117	-0.045
-517.902	106.656	0.093	0.111
-516.887	800.000	0.111	0.451
-515.872	-86.020	0.136	-0.042
-514.858	-21.339	-0.119	0.073
-513.843	-135.977	-0.135	-0.016
-512.829	-105.305	0.073	-0.017
-511.814	800.000	-0.005	-0.018
-510.799	-200.000	-0.024	-0.206
-509.785	71.844	-0.314	-0.328
-508.770	800.000	0.065	-0.183
-507.756	-49.378	0.232	-0.111
-506.741	-34.361	0.162	-0.090
-505.726	-36.596	-0.229	-0.124
-504.712	-117.109	0.180	-0.033
-503.697	-53.271	-0.162	-0.075
-502.683	401.174	-0.112	0.236
-501.668	-200.000	0.000	0.265
-500.653	46.926	0.118	0.111
-499.639	54.392	-0.242	-0.235
-498.624	-200.000	-0.062	-0.327
-497.610	-89.815	0.399	0.117
-496.595	100.140	-0.096	0.112
-495.581	-70.670	-0.201	0.076
-494.566	-142.380	-0.357	0.035
-493.551	-43.440	0.154	0.078
-492.537	260.295	-0.187	0.325
-491.522	-145.988	-0.423	0.038
-490.508	-56.817	-0.267	-0.119
-489.493	-73.102	0.109	-0.040
-488.478	-118.196	0.365	-0.065
-487.464	-193.581	0.359	0.003
-486.449	551.650	0.006	0.014
-485.435	-168.814	0.176	0.007
-484.420	-110.129	-0.347	0.073
-483.405	129.111	0.195	0.250
-482.391	484.149	0.121	0.276
-481.376	-200.000	-0.034	0.276
-480.362	-129.676	0.394	-0.055
-479.347	214.182	0.090	-0.143
-478.332	-49.810	-0.535	0.255
-477.318	-200.000	-0.073	-0.000
-476.303	213.716	0.083	-0.132
-475.289	-43.246	0.141	-0.071
-474.274	-72.838	0.341	0.126
-473.259	-97.909	-0.337	0.087
-472.245	-62.056	0.166	0.070
-471.230	-187.460	0.042	0.001
-470.216	-162.611	0.173	0.009
-469.201	0.225	0.200	-0.144
-468.186	357.903	-0.096	0.192
-467.172	17.433	-0.092	-0.073
-466.157	-78.242	0.325	-0.112
-465.143	-155.782	0.057	0.004
-464.128	-113.463	-0.175	0.034
-463.113	349.433	0.055	-0.109
-462.099	-142.388	0.173	0.017
-461.084	-110.846	0.069	0.014
-460.070	-52.185	-0.298	0.139
-459.055	-78.220	0.226	-0.078
-458.040	-200.000	0.025	-0.132
-457.026	88.695	-0.090	0.100
-456.011	38.335	0.335	-0.300
-454.997	-43.511	0.180	0.091
-453.982	-200.000	-0.013	0.162
-452.968	247.283	-0.159	0.270
-451.953	30.643	0.329	-0.282
-450.938	800.000	-0.074	-0.226
-449.924	447.473	0.066	0.145
-448.909	198.176	-0.135	0.207
-447.895	-53.880	0.232	0.106
-446.880	68.051	-0.249	0.256
-445.865	-200.000	0.035	0.195
-444.851	-200.000	-0.028	-0.334
-443.836	-160.517	0.186	-0.010
-442.822	155.768	-0.090	0.125
-441.807	421.518	0.096	0.207
-440.792	-200.000	-0.033	0.378
-439.778	199.099	0.261	0.401
-438.763	800.000	0.107	-0.371
-437.749	-55.684	0.269	-0.121
-436.734	800.000	0.070	-0.275
-435.719	408.842	0.051	-0.108
-434.705	-119.577	-0.409	0.071
-433.690	17.185	0.149	-0.118
-432.676	569.963	0.045	-0.111
-431.661	-200.000	-0.043	0.196
-430.646	-55.187	0.135	0.061
-429.632	800.000	0.077	-0.297
-428.617	-19.294	-0.145	-0.090
-427.603	712.086	-0.073	0.193
-426.588	-191.076	-0.383	0.004
-425.573	800.000	-0.140	-0.427
-424.559	37.168	0.114	-0.101
-423.544	74.465	0.077	0.081
-422.530	8.530	-0.277	-0.209
-421.515	-78.538	-0.310	-0.106
-420.500	-200.000	-0.008	-0.156
-419.486	-200.000	-0.004	-0.084
-418.471	209.606	-0.102	0.160
-417.457	-82.530	-0.043	-0.014
-416.442	-105.689	0.281	-0.064
-415.428	49.496	-0.151	0.143
-414.413	-90.594	-0.309	0.090
-413.398	198.768	0.102	0.157
-412.384	-119.679	-0.124	0.021
-411.369	138.508	-0.015	-0.019
-410.355	270.941	-0.069	-0.122
-409.340	-41.085	0.188	-0.097
-408.325	243.861	-0.128	0.216
-407.311	-200.000	-0.009	0.146
-406.296	34.466	0.152	0.133
-405.282	-161.467	-0.208	-0.011
-404.267	-10.051	0.108	0.072
-403.252	184.335	-0.060	-0.090
-402.238	800.000	-0.065	-0.259
-401.223	68.837	-0.157	0.162
-400.209	498.641	-0.140	0.322
-399.194	54.275	0.137	0.132
-398.179	189.130	-0.102	-0.153
-397.165	-102.272	-0.347	-0.083
-396.150	356.961	0.030	0.060
-395.136	-168.504	-0.459	-0.018
-394.121	190.868	0.168	-0.254
-393.106	-129.180	0.551	-0.077
-392.092	-22.473	0.240	-0.145
-391.077	-90.978	0.269	-0.077
-390.063	-200.000	0.039	-0.174
-389.048	-55.148	-0.174	-0.078
-388.033	790.902	-0.038	-0.105
-387.019	-115.997	0.158	0.029
-386.004	190.067	0.040	-0.061
-384.990	74.649	0.056	0.059
-383.975	-200.000	0.010	0.213
-382.960	514.793	0.078	-0.182
-381.946	800.000	-0.093	-0.300
-380.931	-92.231	0.232	-0.066
-379.917	330.705	-0.065	0.125
-378.902	156.393	-0.124	0.171
-377.888	-200.000	-0.023	0.296
-376.873	145.048	-0.146	0.196
-375.858	158.890	0.122	0.169
-374.844	-125.105	-0.448	0.069
-373.829	-92.554	0.175	0.049
-372.815	-28.533	0.228	0.131
-371.800	40.880	-0.190	-0.172
-370.785	-71.664	-0.076	0.028
-369.771	800.000	-0.041	0.131
-368.756	151.875	0.159	0.217
-367.742	666.972	-0.081	-0.210
-366.727	237.409	0.257	0.426
-365.712	157.932	0.140	-0.195
-364.698	800.000	-0.076	-0.215
-363.683	-70.973	-0.269	-0.101
-362.669	-101.596	0.295	0.072
-361.654	24.137	0.203	-0.168
-360.639	-45.310	-0.216	-0.107
-359.625	-83.530	0.259	-0.083
-358.610	216.991	-0.112	-0.178
-357.596	-87.079	-0.251	0.076
-356.581	392.540	0.135	-0.281
-355.566	491.284	0.103	-0.237
-354.552	-17.974	-0.247	0.155
-353.537	-123.093	0.312	-0.050
-352.523	359.265	-0.136	0.272
-351.508	-53.580	-0.214	0.098
-350.493	58.579	-0.175	-0.172
-349.479	71.574	-0.043	0.045
-348.464	-126.071	0.157	-0.023
-347.450	-90.873	0.125	-0.036
-346.435	-200.000	-0.070	0.313
-345.420	800.000	-0.060	-0.199
-344.406	45.715	-0.223	0.206
-343.391	-200.000	-0.029	-0.153
-342.377	79.873	-0.023	0.024
-341.362	305.529	-0.165	-0.306
-340.348	-132.720	-0.120	0.015
-339.333	-97.901	0.056	0.015
-338.318	-121.244	-0.109	0.018
-337.304	265.721	0.090	0.158
-336.289	-200.000	0.025	-0.280
-335.275	-7.787	0.203	0.137
-334.260	-17.737	-0.018	-0.011
-333.245	-115.867	0.070	-0.013
-332.231	-60.704	0.048	0.020
-331.216	-36.205	-0.278	-0.150
-330.202	448.336	0.034	0.074
-329.187	-151.053	0.230	0.017
-328.172	18.993	0.071	0.057
-327.158	-200.000	-0.001	-0.019
-326.143	54.557	-0.238	-0.229
-325.129	-200.000	-0.025	-0.177
-324.114	-148.281	0.633	-0.052
-323.099	-3.887	0.198	-0.137
-322.085	-200.000	0.020	-0.147
-321.070	-14.691	0.067	0.043
-320.056	-35.999	-0.172	-0.093
-319.041	-29.032	-0.109	-0.063
-318.026	441.990	0.234	0.512
-317.012	-112.687	-0.319	0.063
-315.997	71.975	0.188	0.195
-314.983	16.645	0.154	-0.121
-313.968	72.220	-0.067	-0.070
-312.953	133.329	-0.157	-0.202
-311.939	-65.132	0.181	-0.073
-310.924	-12.761	0.219	0.142
-309.910	146.152	0.107	-0.143
-308.895	-190.752	-0.208	0.002
-307.880	74.978	0.288	-0.303
-306.866	185.260	0.089	-0.132
-305.851	205.971	-0.096	-0.149
-304.837	-200.000	0.020	0.296
-303.822	18.106	0.297	0.236
-302.807	-200.000	0.001	0.024
-301.793	228.161	-0.136	0.220
-300.778	-78.446	-0.080	-0.027
-299.764	-200.000	0.034	0.386
-298.749	-29.907	0.237	-0.135
-297.735	166.685	0.020	0.028
-296.720	-200.000	-0.007	0.100
-295.705	74.500	0.094	0.099
-294.691	-200.000	0.025	0.438
-293.676	-14.246	-0.220	0.142
-292.662	800.000	-0.066	0.238
-291.647	-46.054	-0.141	0.069
-290.632	-82.629	-0.020	0.007
-289.618	-200.000	-0.092	-0.000
-288.603	-200.000	0.064	0.000
-287.589	12.078	-0.204	-0.157
-286.574	431.752	0.012	-0.027
-285.559	20.350	-0.283	0.228
-284.545	429.010	0.078	0.168
-283.530	178.834	-0.108	-0.158
-282.516	10.454	0.077	0.059
-281.501	-200.000	-0.066	-0.333
-280.486	7.081	0.053	-0.039
-279.472	-200.000	-0.052	-0.299
-278.457	449.648	-0.040	-0.088
-277.443	170.915	-0.072	0.102
-276.428	-28.841	0.081	-0.047
-275.413	-200.000	-0.034	-0.199
-274.399	715.519	-0.063	0.166
-273.384	-109.962	0.174	-0.036
-272.370	-131.447	-0.094	-0.012
-271.355	50.319	-0.209	-0.196
-270.340	800.000	0.143	0.401
-269.326	-200.000	0.022	0.133
-268.311	-195.844	0.357	-0.003
-267.297	163.927	0.213	0.299
-266.282	345.395	-0.037	0.072
-265.267	-192.102	-0.474	0.005
-264.253	115.800	-0.189	-0.231
-263.238	278.778	-0.067	-0.119
-262.224	25.668	0.296	0.246
-261.209	-101.796	-0.356	0.086
-260.195	77.568	0.168	0.178
-259.180	-43.353	0.348	-0.175
-258.165	22.849	0.007	-0.005
-257.151	-200.000	0.007	-0.168
-256.136	49.870	0.227	-0.213
-255.122	-79.461	0.052	-0.018
-254.107	-159.058	-0.302	0.017
-253.092	240.851	-0.141	0.235
-252.078	64.726	0.372	0.374
-251.063	148.617	0.264	0.355
-250.049	96.348	0.236	0.269
-249.034	532.162	0.037	-0.087
-248.019	-200.000	0.036	-0.337
-247.005	-111.215	0.140	-0.029
-245.990	-200.000	0.022	-0.186
-244.976	466.273	0.110	0.245
-243.961	-33.012	0.255	0.141
-242.946	77.012	0.106	0.112
-241.932	-200.000	0.009	0.287
-240.917	-6.053	-0.156	-0.106
-239.903	84.495	-0.144	-0.157
-238.888	53.856	-0.146	-0.139
-237.873	800.000	-0.037	-0.151
-236.859	-200.000	0.024	-0.438
-235.844	349.956	0.081	-0.160
-234.830	646.848	-0.134	-0.340
-233.815	-82.855	-0.030	-0.010
-232.800	144.673	-0.245	0.326
-231.786	255.372	-0.013	0.022
-230.771	-39.815	-0.226	-0.117
-229.757	-200.000	-0.008	-0.091
-228.742	-13.018	0.134	-0.087
-227.727	-70.755	0.250	0.094
-226.713	-200.000	-0.386	0.000
-225.698	-32.153	0.397	-0.221
-224.684	-10.448	-0.198	0.130
-223.669	-104.665	-0.156	0.036
-222.655	-123.576	0.213	-0.034
-221.640	552.997	-0.123	0.294
-220.625	-161.134	-0.153	0.008
-219.611	49.868	0.100	-0.094
-218.596	108.100	0.053	0.063
-217.582	-200.000	-0.048	0.243
-216.567	315.650	0.072	0.136
-215.552	-67.072	0.145	0.057
-214.538	-200.000	0.051	0.322
-213.523	-200.000	-0.052	0.284
-212.509	800.000	-0.039	0.110
-211.494	800.000	-0.071	0.250
-210.479	278.042	-0.181	-0.321
-209.465	-102.157	0.199	0.048
-208.450	87.713	0.026	0.029
-207.436	193.915	0.116	-0.174
-206.421	217.704	0.145	0.230
-205.406	-171.401	0.200	0.007
-204.392	-102.529	-0.426	-0.101
-203.377	-64.489	-0.231	0.093
-202.363	-5.531	-0.098	0.067
-201.348	-41.330	-0.206	-0.106
-200.333	-37.236	0.301	0.160
-199.319	-172.128	0.144	-0.005
-198.304	-200.000	-0.005	-0.100
-197.290	-74.307	-0.196	0.070
-196.275	-103.537	0.279	0.065
-195.260	-77.755	0.186	0.064
-194.246	-41.749	0.225	-0.115
-193.231	-139.655	-0.181	-0.019
-192.217	-95.673	0.164	-0.044
-191.202	43.783	-0.069	0.062
-190.187	504.815	-0.030	-0.070
-189.173	-200.000	-0.040	-0.397
-188.158	311.807	0.119	-0.222
-187.144	-200.000	0.040	0.176
-186.129	48.284	-0.168	0.156
-185.114	180.909	-0.138	0.202
-184.100	-200.000	0.012	-0.242
-183.085	197.860	0.023	-0.035
-182.071	352.540	0.104	-0.205
-181.056	-13.532	0.320	0.206
-180.042	41.885	-0.039	-0.035
-179.027	-94.058	0.296	0.081
-178.012	800.000	-0.101	0.414
-176.998	214.563	-0.157	-0.247
-175.983	-200.000	0.016	-0.100
-174.969	669.875	-0.071	-0.184
-173.954	800.000	0.124	-0.430
-172.939	-200.000	0.020	-0.106
-171.925	-91.502	0.050	0.014
-170.910	800.000	-0.066	-0.187
-169.896	182.664	0.141	0.206
-168.881	-200.000	0.000	0.093
-167.866	-74.229	-0.146	0.052
-166.852	-37.222	-0.176	0.093
-165.837	-159.684	-0.301	-0.017
-164.823	-200.000	0.043	0.398
-163.808	-200.000	-0.030	-0.216
-162.793	149.917	-0.132	0.177
-161.779	-200.000	-0.012	0.224
-160.764	800.000	0.036	-0.143
-159.750	-200.000	0.028	-0.369
-158.735	99.764	0.105	-0.121
-157.720	169.676	-0.078	0.111
-156.706	36.554	-0.365	0.320
-155.691	-200.000	0.015	-0.146
-154.677	-200.000	0.013	-0.138
-153.662	64.019	-0.126	-0.126
-152.647	-128.438	-0.192	-0.027
-151.633	-24.511	-0.115	0.068
-150.618	174.880	-0.238	-0.341
-149.604	-29.998	0.216	0.122
-148.589	21.194	-0.051	-0.041
-147.574	-142.942	-0.271	0.026
-146.560	-33.348	-0.253	0.139
-145.545	-89.097	0.152	-0.045
-144.531	-200.000	0.031	-0.256
-143.516	-174.940	-0.548	0.015
-142.502	-138.458	-0.120	-0.013
-141.487	532.497	0.059	-0.138
-140.472	-200.000	0.007	0.303
-139.458	-200.000	-0.125	0.000
-138.443	-200.000	0.002	0.151
-137.429	112.407	0.197	0.236
-136.414	-200.000	-0.016	0.247
-135.399	-7.573	0.090	-0.060
-134.385	-92.536	0.094	0.026
-133.370	-69.402	-0.231	0.088
-132.356	-60.447	0.464	0.196
-131.341	-200.000	-0.013	0.103
-130.326	-51.015	0.077	-0.036
-129.312	-200.000	-0.003	-0.209
-128.297	351.382	0.088	0.173
-127.283	-200.000	0.046	0.250
-126.268	-48.657	0.267	-0.127
-125.253	-200.000	0.027	-0.163
-124.239	41.055	-0.099	0.088
-123.224	-142.906	-0.164	-0.016
-122.210	390.103	0.086	-0.177
