DTS Sentinel unit serial number:	SN413079Multiplexer serial number:	ORYXHardware model number:	OX4-SRSoftware version number:	ORYX F/W v4.00 Oryx Data Collector v3.7.2.0data status	okinstallation	princeton_trtdifferential loss correction	single-endedforward channel	channel 2reverse channel	N/Adate	2019/09/16time	02:07:34forward acquisition time	60.00reverse acquisition time	0.00gamma	496.2192k internal	0.2335k external	0.2335temperature offset calibration	0.9967default loss term (dB/km)	0.3790temperature slope calibration	1.0000multiplexer offset coefficient	1.0000multiplexer slope coefficient	1.0000fibre end	0.00T internal ref (°C)	27.50T ext. ref 1 (°C)	10.14T ext. ref 2 (°C)	22.45length (m)	temperature (°C)	Stokes	anti-Stokes-747.200	-200.000	0.007	0.410
-746.185	13.048	-0.326	0.254
-745.171	6.370	0.486	0.363
-744.156	-73.795	-0.117	-0.043
-743.142	-16.012	-0.275	0.176
-742.127	-111.198	-0.384	-0.079
-741.112	-162.076	-0.297	0.015
-740.098	-117.785	-0.111	0.020
-739.083	86.376	0.082	-0.091
-738.069	373.697	-0.137	0.279
-737.054	-137.473	0.201	-0.023
-736.039	-20.560	-0.293	-0.181
-735.025	-75.459	0.241	0.086
-734.010	542.695	0.136	0.327
-732.996	-200.000	0.005	-0.063
-731.981	-106.290	-0.137	-0.031
-730.966	-100.043	-0.376	0.094
-729.952	-68.941	-0.172	-0.067
-728.937	24.679	-0.047	-0.039
-727.923	-84.002	-0.131	-0.042
-726.908	-27.829	-0.208	-0.121
-725.894	-45.483	-0.563	-0.280
-724.879	-33.771	-0.155	-0.086
-723.864	-200.000	-0.029	-0.257
-722.850	-158.378	-0.253	0.015
-721.835	-80.732	-0.306	0.102
-720.821	22.753	0.360	-0.296
-719.806	-135.158	0.280	0.034
-718.791	173.320	0.187	-0.270
-717.777	116.741	-0.219	-0.269
-716.762	-124.056	-0.341	0.054
-715.748	-54.915	0.307	0.139
-714.733	501.141	-0.047	-0.110
-713.718	800.000	0.022	-0.095
-712.704	-200.000	0.003	0.097
-711.689	800.000	-0.015	-0.063
-710.675	242.550	-0.089	-0.149
-709.660	-200.000	-0.066	-0.423
-708.645	152.131	-0.137	0.187
-707.631	-81.001	0.200	-0.066
-706.616	21.813	-0.176	-0.144
-705.602	-94.234	0.261	-0.072
-704.587	49.864	0.057	-0.053
-703.572	800.000	0.055	-0.209
-702.558	195.168	0.119	-0.181
-701.543	-73.151	-0.195	0.072
-700.529	-29.810	-0.205	-0.117
-699.514	800.000	-0.075	0.209
-698.499	244.916	-0.026	-0.044
-697.485	800.000	-0.081	0.244
-696.470	-96.197	0.124	0.033
-695.456	-200.000	0.050	0.224
-694.441	-200.000	0.000	-0.048
-693.426	214.119	-0.185	-0.293
-692.412	-73.971	0.282	-0.103
-691.397	549.292	-0.116	-0.279
-690.383	579.985	-0.161	-0.396
-689.368	-100.469	-0.045	0.011
-688.354	-200.000	-0.037	-0.206
-687.339	-50.595	0.304	-0.143
-686.324	492.731	0.128	-0.295
-685.310	98.531	-0.123	-0.143
-684.295	-162.514	-0.112	0.006
-683.281	-112.017	-0.326	0.066
-682.266	26.266	0.214	-0.179
-681.251	-200.000	-0.049	-0.504
-680.237	-55.491	-0.141	-0.063
-679.222	-9.382	-0.068	0.046
-678.208	16.340	0.330	-0.261
-677.193	-26.322	-0.307	0.180
-676.178	233.981	0.102	0.168
-675.164	-115.225	-0.483	-0.092
-674.149	67.042	-0.174	0.177
-673.135	800.000	-0.088	0.311
-672.120	344.633	-0.078	-0.153
-671.105	-54.274	-0.112	0.051
-670.091	177.363	-0.059	-0.087
-669.076	-155.331	-0.261	0.017
-668.062	-94.322	-0.194	-0.053
-667.047	49.480	0.085	-0.081
-666.032	348.683	-0.156	0.308
-665.018	-172.528	-0.209	0.007
-664.003	-200.000	0.012	0.306
-662.989	-48.511	-0.260	0.125
-661.974	-32.345	-0.168	-0.094
-660.959	103.527	0.142	-0.167
-659.945	-128.585	-0.279	0.039
-658.930	800.000	-0.089	-0.301
-657.916	95.223	0.193	-0.220
-656.901	43.056	-0.102	-0.093
-655.886	53.983	0.095	0.091
-654.872	800.000	0.103	-0.308
-653.857	404.665	0.065	-0.137
-652.843	433.365	0.081	-0.176
-651.828	28.941	-0.083	0.070
-650.814	34.274	-0.313	-0.273
-649.799	800.000	-0.042	-0.145
-648.784	-200.000	-0.033	-0.255
-647.770	-200.000	0.006	0.233
-646.755	-200.000	-0.048	-0.298
-645.741	18.760	0.153	0.123
-644.726	-147.758	0.100	0.008
-643.711	90.353	-0.216	0.242
-642.697	-188.630	-0.247	0.003
-641.682	78.395	-0.038	0.041
-640.668	-2.130	0.162	0.114
-639.653	49.327	-0.112	0.105
-638.638	-180.730	-0.097	-0.002
-637.624	-18.091	-0.224	-0.140
-636.609	-200.000	-0.016	0.094
-635.595	472.354	0.060	-0.136
-634.580	67.219	0.316	-0.322
-633.565	250.689	-0.044	-0.075
-632.551	800.000	0.020	0.079
-631.536	127.502	0.108	0.137
-630.522	-146.099	-0.167	-0.015
-629.507	-2.408	0.180	0.126
-628.492	-174.924	-0.273	0.008
-627.478	-200.000	-0.017	-0.078
-626.463	-72.859	0.181	0.067
-625.449	-200.000	-0.003	-0.125
-624.434	-25.887	0.092	0.054
-623.419	710.274	0.055	0.144
-622.405	119.076	0.168	0.208
-621.390	-97.726	-0.186	0.048
-620.376	-200.000	-0.026	-0.148
-619.361	-64.113	-0.213	0.087
-618.346	-75.141	-0.226	0.081
-617.332	695.597	0.112	0.295
-616.317	269.921	-0.154	0.271
-615.303	138.117	0.090	-0.118
-614.288	-200.000	-0.033	-0.233
-613.273	-24.353	0.152	0.091
-612.259	219.819	-0.171	0.274
-611.244	158.876	-0.093	0.129
-610.230	800.000	-0.056	0.169
-609.215	-54.191	-0.291	0.132
-608.201	-200.000	0.013	0.360
-607.186	-3.012	0.144	-0.101
-606.171	800.000	-0.056	-0.185
-605.157	-141.251	0.154	0.016
-604.142	-84.631	-0.126	0.040
-603.128	-107.594	0.229	0.050
-602.113	44.783	0.103	-0.095
-601.098	-172.975	-0.094	-0.003
-600.084	-70.941	-0.090	-0.034
-599.069	-78.235	-0.246	-0.084
-598.055	-12.949	0.145	-0.094
-597.040	-200.000	-0.010	0.142
-596.025	-200.000	-0.038	-0.283
-595.011	159.374	0.047	0.066
-593.996	4.403	0.251	0.184
-592.982	-148.311	0.155	-0.013
-591.967	38.909	0.315	0.281
-590.952	-164.687	-0.392	0.018
-589.938	-90.112	-0.359	-0.104
-588.923	132.036	-0.051	-0.065
-587.909	-200.000	0.045	0.200
-586.894	-200.000	0.015	-0.247
-585.879	288.821	-0.092	0.167
-584.865	107.383	0.158	0.188
-583.850	337.517	0.021	-0.041
-582.836	-129.644	-0.400	0.055
-581.821	-162.484	0.223	-0.011
-580.806	-200.000	0.005	-0.211
-579.792	28.023	0.305	0.257
-578.777	136.765	0.130	-0.170
-577.763	85.644	0.182	-0.200
-576.748	-105.855	0.148	0.033
-575.733	-200.000	-0.022	0.273
-574.719	800.000	-0.028	0.121
-573.704	352.448	0.021	0.042
-572.690	15.279	-0.136	0.107
-571.675	-200.000	0.005	-0.218
-570.661	120.130	0.276	0.342
-569.646	348.157	0.083	-0.163
-568.631	800.000	-0.048	-0.157
-567.617	-178.579	-0.133	0.003
-566.602	168.761	0.101	0.144
-565.588	7.848	0.284	-0.212
-564.573	14.082	0.228	0.177
-563.558	-181.671	-0.280	-0.005
-562.544	800.000	-0.072	-0.233
-561.529	-200.000	0.057	-0.278
-560.515	800.000	0.015	-0.052
-559.500	-66.267	0.169	0.067
-558.485	-148.422	-0.150	-0.012
-557.471	106.358	0.168	0.199
-556.456	-200.000	0.004	0.128
-555.442	35.296	0.203	-0.178
-554.427	-200.000	-0.055	-0.408
-553.412	12.776	0.108	-0.083
-552.398	330.589	0.013	-0.025
-551.383	-200.000	-0.002	-0.404
-550.369	800.000	-0.008	0.030
-549.354	636.996	-0.098	-0.249
-548.339	-200.000	-0.060	-0.331
-547.325	7.104	0.180	0.134
-546.310	6.701	-0.150	-0.112
-545.296	-101.672	0.136	-0.033
-544.281	-87.602	0.314	0.095
-543.266	19.018	0.213	-0.170
-542.252	-77.659	-0.596	0.206
-541.237	800.000	0.060	-0.195
-540.223	800.000	0.040	-0.171
-539.208	-79.726	0.198	-0.067
-538.193	-24.481	-0.164	-0.097
-537.179	557.642	-0.123	-0.295
-536.164	-64.274	0.205	-0.083
-535.150	-55.900	-0.174	-0.078
-534.135	-26.922	0.283	0.165
-533.121	38.980	-0.225	0.200
-532.106	568.252	0.067	-0.161
-531.091	172.194	-0.087	-0.125
-530.077	-57.476	-0.281	-0.123
-529.062	-10.585	-0.224	-0.148
-528.048	-79.267	0.168	-0.057
-527.033	200.211	-0.189	-0.289
-526.018	-64.827	0.186	0.075
-525.004	-165.629	-0.166	-0.007
-523.989	-53.739	0.219	0.100
-522.975	560.847	0.028	0.067
-521.960	-158.265	-0.252	-0.015
-520.945	230.814	0.112	-0.183
-519.931	108.710	-0.025	0.030
-518.916	149.675	-0.114	-0.154
-517.902	-120.296	0.116	-0.020
-516.887	-23.907	0.146	0.087
-515.872	27.511	0.320	0.268
-514.858	-59.933	0.192	-0.082
-513.843	64.607	0.236	-0.237
-512.829	-20.928	0.142	-0.087
-511.814	460.164	-0.060	-0.133
-510.799	438.916	-0.062	0.135
-509.785	-85.770	0.178	-0.055
-508.770	-47.303	-0.317	0.154
-507.756	800.000	0.041	-0.171
-506.741	8.389	-0.215	0.161
-505.726	800.000	0.101	-0.425
-504.712	405.005	-0.145	0.305
-503.697	-200.000	0.021	0.105
-502.683	-28.159	0.292	-0.168
-501.668	-2.635	-0.129	-0.090
-500.653	-42.685	0.208	0.105
-499.639	-172.618	-0.167	0.005
-498.624	223.651	-0.079	0.126
-497.610	-165.166	0.026	-0.001
-496.595	227.918	-0.036	0.059
-495.581	-136.819	-0.187	0.021
-494.566	120.736	0.111	-0.137
-493.551	11.779	0.325	-0.248
-492.537	-38.874	0.304	-0.159
-491.522	559.285	-0.154	-0.370
-490.508	-100.590	-0.158	-0.039
-489.493	-26.980	-0.153	-0.089
-488.478	79.040	-0.177	0.189
-487.464	218.478	-0.179	-0.284
-486.449	81.200	0.200	-0.214
-485.435	800.000	-0.031	0.098
-484.420	-10.885	0.182	-0.120
-483.405	76.250	-0.198	-0.209
-482.391	-22.327	-0.124	-0.075
-481.376	-40.581	0.098	-0.051
-480.362	-200.000	-0.005	-0.061
-479.347	-97.647	0.267	0.069
-478.332	27.665	0.122	-0.102
-477.318	-200.000	-0.001	-0.243
-476.303	55.425	0.077	0.075
-475.289	119.932	-0.008	-0.010
-474.274	800.000	-0.058	-0.237
-473.259	249.358	-0.036	0.060
-472.245	-22.897	0.397	-0.238
-471.230	-200.000	0.008	0.390
-470.216	-110.143	-0.065	-0.013
-469.201	104.298	-0.221	-0.259
-468.186	-193.849	0.149	-0.001
-467.172	287.112	0.017	-0.031
-466.157	-38.604	-0.361	0.189
-465.143	-121.146	0.230	0.038
-464.128	-25.741	-0.089	-0.052
-463.113	800.000	-0.057	0.171
-462.099	88.827	-0.137	-0.152
-461.084	-23.974	0.179	0.106
-460.070	-16.839	-0.168	0.105
-459.055	129.760	-0.155	0.197
-458.040	46.184	0.193	0.178
-457.026	292.263	0.172	-0.311
-456.011	211.721	0.074	0.116
-454.997	-9.174	0.163	0.108
-453.982	-36.196	-0.403	0.216
-452.968	-200.000	-0.026	0.215
-451.953	168.949	-0.156	0.220
-450.938	800.000	0.055	-0.190
-449.924	177.544	-0.125	0.180
-448.909	47.700	0.316	0.293
-447.895	307.551	-0.097	0.179
-446.880	800.000	-0.053	-0.155
-445.865	-69.839	0.111	-0.042
-444.851	-200.000	-0.043	-0.190
-443.836	71.012	0.230	-0.237
-442.822	6.139	0.091	-0.067
-441.807	195.676	0.113	-0.170
-440.792	800.000	-0.035	0.115
-439.778	800.000	-0.126	0.356
-438.763	511.272	0.055	0.128
-437.749	136.094	-0.154	0.199
-436.734	800.000	-0.046	-0.164
-435.719	-122.434	-0.130	-0.021
-434.705	58.114	-0.245	0.238
-433.690	49.886	0.176	0.164
-432.676	42.477	-0.036	0.032
-431.661	-73.155	-0.160	-0.058
-430.646	800.000	0.062	-0.226
-429.632	101.905	-0.137	-0.158
-428.617	800.000	0.038	0.156
-427.603	387.503	0.114	-0.233
-426.588	-25.737	0.128	0.075
-425.573	-75.630	0.333	0.117
-424.559	0.183	-0.049	0.035
-423.544	800.000	0.134	0.493
-422.530	800.000	0.076	0.260
-421.515	-139.611	0.253	0.027
-420.500	449.171	0.129	0.282
-419.486	114.950	-0.161	0.195
-418.471	26.665	0.147	0.122
-417.457	134.117	-0.029	0.037
-416.442	-200.000	0.077	0.336
-415.428	-200.000	0.072	0.347
-414.413	-200.000	0.041	0.246
-413.398	274.095	0.119	-0.210
-412.384	-159.618	-0.261	-0.014
-411.369	-95.920	0.377	-0.100
-410.355	800.000	-0.040	0.160
-409.340	-112.135	-0.211	-0.042
-408.325	99.704	0.053	-0.061
-407.311	-22.934	0.074	0.044
-406.296	168.579	0.168	0.237
-405.282	183.256	-0.155	0.227
-404.267	11.179	-0.063	-0.048
-403.252	-117.638	-0.190	-0.034
-402.238	-200.000	0.042	-0.270
-401.223	-200.000	0.013	-0.104
-400.209	66.536	-0.124	0.125
-399.194	160.693	-0.135	-0.188
-398.179	83.719	0.181	0.195
-397.165	305.594	-0.147	-0.271
-396.150	-72.507	-0.209	0.077
-395.136	4.993	-0.209	-0.153
-394.121	459.050	-0.208	-0.458
-393.106	-117.369	-0.196	-0.035
-392.092	713.057	0.066	0.174
-391.077	800.000	-0.093	-0.308
-390.063	303.720	-0.164	0.301
-389.048	-131.947	0.247	-0.032
-388.033	800.000	0.155	0.486
-387.019	46.744	-0.149	-0.138
-386.004	118.111	-0.117	-0.143
-384.990	-145.204	0.037	-0.003
-383.975	-57.905	-0.219	-0.095
-382.960	800.000	-0.055	0.237
-381.946	-200.000	0.004	-0.196
-380.931	-200.000	0.066	0.306
-379.917	800.000	-0.062	-0.240
-378.902	-43.031	0.204	-0.102
-377.888	-75.242	-0.266	0.094
-376.873	71.770	0.092	0.094
-375.858	-200.000	-0.021	0.120
-374.844	-200.000	-0.025	-0.182
-373.829	-85.246	0.141	0.044
-372.815	-65.143	-0.190	0.076
-371.800	-200.000	0.010	-0.316
-370.785	-200.000	-0.003	-0.189
-369.771	96.761	-0.230	0.261
-368.756	800.000	-0.012	0.052
-367.742	-39.764	-0.231	-0.120
-366.727	51.185	-0.456	-0.428
-365.712	-200.000	-0.002	0.021
-364.698	-200.000	0.026	0.220
-363.683	-200.000	0.012	-0.102
-362.669	-79.118	0.078	0.026
-361.654	507.596	-0.106	0.244
-360.639	800.000	0.102	0.437
-359.625	800.000	0.033	0.110
-358.610	-25.552	-0.095	0.056
-357.596	-153.778	0.152	-0.010
-356.581	-159.868	0.133	0.007
-355.566	27.764	0.071	-0.059
-354.552	-80.937	0.095	-0.031
-353.537	2.838	0.224	0.161
-352.523	39.520	-0.182	-0.162
-351.508	-181.466	0.097	-0.002
-350.493	-177.119	-0.286	0.007
-349.479	122.700	-0.146	-0.181
-348.464	800.000	-0.025	-0.102
-347.450	800.000	-0.062	0.174
-346.435	-66.476	-0.275	-0.108
-345.420	38.880	-0.206	0.182
-344.406	-137.859	-0.116	0.013
-343.391	-75.473	-0.319	-0.112
-342.377	-200.000	-0.076	-0.461
-341.362	480.830	-0.178	-0.400
-340.348	800.000	0.099	0.283
-339.333	-2.546	-0.129	-0.090
-338.318	-47.992	0.116	0.056
-337.304	40.785	-0.176	0.157
-336.289	-200.000	0.033	0.265
-335.275	800.000	0.130	-0.485
-334.260	-200.000	0.027	-0.142
-333.245	-118.337	-0.331	-0.058
-332.231	-57.181	0.310	0.135
-331.216	560.773	-0.066	-0.159
-330.202	340.975	-0.134	0.260
-329.187	776.183	0.096	0.259
-328.172	311.833	-0.123	0.228
-327.158	-71.992	-0.227	-0.084
-326.143	-106.135	-0.356	0.079
-325.129	486.677	0.075	-0.169
-324.114	-200.000	-0.056	0.250
-323.099	-93.384	0.049	-0.013
-322.085	-159.783	0.301	-0.016
-321.070	-200.000	-0.008	-0.416
-320.056	16.873	-0.146	0.114
-319.041	-148.014	-0.245	-0.020
-318.026	800.000	-0.069	-0.257
-317.012	-129.445	0.145	0.020
-315.997	-44.913	0.222	0.109
-314.983	-87.066	-0.240	0.072
-313.968	-200.000	0.003	0.078
-312.953	129.489	-0.161	-0.203
-311.939	-200.000	-0.029	-0.438
-310.924	1.562	0.101	-0.072
-309.910	-135.204	-0.187	-0.022
-308.895	611.300	0.191	-0.472
-307.880	95.581	-0.179	0.202
-306.866	209.277	-0.033	-0.052
-305.851	450.776	0.059	0.129
-304.837	98.647	-0.153	0.174
-303.822	35.983	-0.330	-0.287
-302.807	800.000	-0.059	-0.197
-301.793	280.026	0.149	-0.264
-300.778	-200.000	-0.044	-0.319
-299.764	149.486	-0.139	0.186
-298.749	-53.090	0.136	0.062
-297.735	165.498	0.221	-0.309
-296.720	-28.321	0.190	0.108
-295.705	-200.000	0.001	0.080
-294.691	237.381	-0.099	-0.163
-293.676	13.415	0.084	0.064
-292.662	66.213	-0.234	0.234
-291.647	40.221	-0.340	0.302
-290.632	134.229	-0.052	-0.067
-289.618	-65.187	-0.401	0.160
-288.603	-200.000	-0.012	0.283
-287.589	-40.368	0.249	0.128
-286.574	542.432	0.123	0.290
-285.559	43.360	0.071	-0.064
-284.545	-95.499	0.210	-0.056
-283.530	217.158	-0.273	0.429
-282.516	-200.000	0.031	0.230
-281.501	446.146	0.137	0.297
-280.486	-200.000	-0.084	0.580
-279.472	786.344	-0.070	0.191
-278.457	-71.303	-0.284	-0.105
-277.443	103.879	0.286	0.332
-276.428	800.000	-0.044	-0.188
-275.413	184.858	0.020	0.029
-274.399	277.490	0.145	-0.255
-273.384	-79.839	0.406	0.135
-272.370	-200.000	0.025	-0.257
-271.355	-171.943	0.173	-0.006
-270.340	-111.679	-0.264	0.053
-269.326	-200.000	-0.027	-0.184
-268.311	-199.654	0.098	0.000
-267.297	143.928	0.168	0.221
-266.282	329.460	-0.073	0.139
-265.267	401.063	-0.060	-0.124
-264.253	-28.837	-0.245	-0.139
-263.238	-20.828	-0.326	-0.197
-262.224	175.364	-0.197	-0.282
-261.209	427.094	-0.059	0.125
-260.195	82.574	-0.071	-0.076
-259.180	800.000	0.052	0.167
-258.165	-22.265	-0.213	-0.127
-257.151	-80.186	0.265	0.088
-256.136	20.544	-0.035	0.028
-255.122	800.000	-0.087	-0.266
-254.107	-200.000	-0.010	-0.115
-253.092	-85.971	0.219	-0.067
-252.078	-111.078	-0.165	0.033
-251.063	508.502	0.032	0.073
-250.049	-141.840	0.171	-0.017
-249.034	45.226	0.248	-0.226
-248.019	-50.587	-0.282	0.131
-247.005	-200.000	-0.041	-0.226
-245.990	800.000	0.109	-0.309
-244.976	-12.648	-0.182	0.117
-243.961	611.908	-0.073	-0.180
-242.946	-200.000	0.062	0.351
-241.932	-200.000	-0.006	0.049
-240.917	-61.185	0.020	-0.008
-239.903	208.844	0.221	-0.341
-238.888	-72.079	-0.071	-0.026
-237.873	-200.000	0.024	0.205
-236.859	190.192	-0.052	0.077
-235.844	640.966	0.074	-0.186
-234.830	-73.835	-0.095	-0.034
-233.815	82.693	0.115	-0.123
-232.800	28.717	0.133	0.111
-231.786	49.387	0.294	0.273
-230.771	-67.047	-0.363	0.141
-229.757	327.462	0.130	0.245
-228.742	-53.696	0.410	0.184
-227.727	-186.547	0.236	0.003
-226.713	-75.555	-0.201	-0.070
-225.698	140.774	-0.180	0.234
-224.684	-200.000	-0.015	-0.175
-223.669	-200.000	0.023	0.148
-222.655	-10.415	0.290	0.189
-221.640	253.096	0.046	0.078
-220.625	164.198	0.153	0.212
-219.611	-200.000	0.013	-0.325
-218.596	-161.403	0.048	-0.002
-217.582	-45.137	0.312	-0.153
-216.567	-200.000	-0.008	-0.075
-215.552	380.485	0.095	0.191
-214.538	561.193	0.088	0.209
-213.523	-5.776	0.151	-0.102
-212.509	342.143	0.081	0.156
-211.494	-200.000	-0.012	0.129
-210.479	112.695	0.084	-0.101
-209.465	137.856	-0.154	-0.198
-208.450	800.000	-0.084	0.243
-207.436	-48.733	0.142	-0.067
-206.421	-60.068	-0.462	-0.194
-205.406	-82.862	0.482	-0.153
-204.392	800.000	0.036	-0.108
-203.377	-200.000	-0.022	0.156
-202.363	-29.868	-0.141	-0.079
-201.348	10.056	-0.207	0.155
-200.333	800.000	0.035	-0.123
-199.319	136.289	-0.137	0.176
-198.304	800.000	0.038	-0.149
-197.290	-116.562	0.481	-0.087
-196.275	800.000	-0.031	-0.116
-195.260	-200.000	-0.006	0.112
-194.246	164.833	-0.234	-0.325
-193.231	0.493	0.042	-0.029
-192.217	262.946	-0.032	0.055
-191.202	800.000	-0.013	-0.046
-190.187	-200.000	-0.119	-0.528
-189.173	93.748	0.164	0.183
-188.158	-200.000	-0.026	0.148
-187.144	43.026	-0.045	0.040
-186.129	-200.000	0.012	0.185
-185.114	-106.308	0.148	-0.033
-184.100	800.000	-0.021	-0.076
-183.085	136.572	0.167	0.214
-182.071	37.662	0.130	-0.114
-181.056	-49.965	0.136	-0.063
-180.042	-78.135	0.057	0.019
-179.027	-61.778	0.125	0.051
-178.012	393.794	0.102	0.209
-176.998	-0.380	0.295	-0.206
-175.983	-183.153	-0.089	-0.002
-174.969	163.695	-0.209	0.289
-173.954	460.974	0.015	-0.032
-172.939	-75.255	0.308	-0.108
-171.925	-2.163	0.028	0.019
-170.910	-125.980	0.135	-0.020
-169.896	800.000	-0.097	-0.392
-168.881	-132.647	-0.118	0.015
-167.866	424.390	0.076	-0.160
-166.852	-54.366	-0.217	-0.097
-165.837	-200.000	0.009	-0.074
-164.823	575.563	-0.132	0.317
-163.808	146.839	0.100	-0.133
-162.793	5.599	0.040	-0.029
-161.779	-59.824	0.120	0.051
-160.764	-200.000	-0.005	-0.052
-159.750	-28.765	-0.080	-0.045
-158.735	35.884	-0.086	0.075
-157.720	-85.750	0.158	0.048
-156.706	-37.327	0.139	0.073
-155.691	504.029	-0.072	-0.164
-154.677	-200.000	-0.030	0.373
-153.662	-107.739	0.304	0.065
-152.647	54.781	0.186	0.176
-151.633	-200.000	0.016	0.090
-150.618	-193.858	-0.060	0.000
-149.604	-15.886	-0.240	0.150
-148.589	-200.000	0.029	-0.160
-147.574	65.127	0.272	0.270
-146.560	-200.000	-0.000	0.082
-145.545	50.685	-0.107	-0.100
-144.531	-82.856	0.252	-0.080
-143.516	39.604	0.290	-0.255
-142.502	-200.000	-0.001	-0.108
-141.487	38.560	0.048	0.042
-140.472	800.000	-0.035	0.137
-139.458	-200.000	-0.018	-0.165
-138.443	-152.709	0.152	-0.011
-137.429	-200.000	0.344	0.001
-136.414	-147.475	0.209	-0.017
-135.399	89.721	0.052	-0.056
-134.385	140.072	0.411	0.532
-133.370	102.250	-0.202	-0.231
-132.356	-200.000	-0.069	0.392
-131.341	470.664	0.161	0.356
-130.326	69.619	0.170	0.171
-129.312	-200.000	0.029	-0.320
-128.297	-71.159	0.111	-0.041
-127.283	123.741	0.109	-0.134
-126.268	-127.343	-0.134	0.019
-125.253	-106.609	0.201	-0.044
-124.239	-200.000	0.035	0.230
-123.224	-88.348	-0.169	0.050
-122.210	197.511	0.108	0.162
-121.195	800.000	0.053	-0.187
