DTS Sentinel unit serial number:	SN413079Multiplexer serial number:	ORYXHardware model number:	OX4-SRSoftware version number:	ORYX F/W v4.00 Oryx Data Collector v3.7.2.0data status	okinstallation	princeton_trtdifferential loss correction	single-endedforward channel	channel 2reverse channel	N/Adate	2019/09/19time	02:15:35forward acquisition time	60.00reverse acquisition time	0.00gamma	496.2192k internal	0.2353k external	0.2353temperature offset calibration	1.0018default loss term (dB/km)	0.3790temperature slope calibration	1.0000multiplexer offset coefficient	1.0000multiplexer slope coefficient	1.0000fibre end	0.00T internal ref (°C)	21.14T ext. ref 1 (°C)	0.66T ext. ref 2 (°C)	14.63length (m)	temperature (°C)	Stokes	anti-Stokes-747.200	96.500	-0.171	0.195
-746.185	123.023	-0.220	0.275
-745.171	-200.000	0.001	-0.219
-744.156	462.278	-0.024	0.053
-743.142	-119.843	-0.192	0.033
-742.127	28.572	0.146	0.123
-741.112	-55.456	-0.179	-0.080
-740.098	-125.116	-0.015	-0.002
-739.083	-44.068	0.283	0.142
-738.069	-200.000	-0.003	0.085
-737.054	645.449	-0.174	0.442
-736.039	-200.000	-0.001	-0.038
-735.025	295.503	-0.055	0.101
-734.010	-33.577	-0.206	-0.113
-732.996	-200.000	0.083	-0.419
-731.981	133.220	0.099	-0.127
-730.966	-103.275	0.056	0.013
-729.952	800.000	-0.045	-0.171
-728.937	800.000	0.107	-0.336
-727.923	-114.622	0.050	0.010
-726.908	2.527	-0.037	0.027
-725.894	101.756	-0.183	-0.213
-724.879	140.599	0.106	-0.139
-723.864	175.893	0.101	-0.147
-722.850	65.768	-0.153	0.154
-721.835	283.531	0.121	0.216
-720.821	-200.000	0.046	-0.303
-719.806	266.842	0.122	-0.212
-718.791	156.970	0.120	-0.165
-717.777	-200.000	-0.021	-0.302
-716.762	-67.281	-0.151	0.059
-715.748	-27.023	0.205	0.119
-714.733	800.000	0.094	-0.354
-713.718	256.532	-0.011	0.018
-712.704	-126.365	0.076	-0.011
-711.689	-34.921	0.121	-0.066
-710.675	205.643	-0.212	0.328
-709.660	102.882	0.111	0.130
-708.645	95.811	0.011	-0.012
-707.631	-5.959	0.152	-0.104
-706.616	275.632	-0.071	0.125
-705.602	-200.000	-0.009	-0.056
-704.587	-37.726	0.206	0.109
-703.572	-200.000	0.004	0.103
-702.558	45.742	-0.190	-0.175
-701.543	-190.947	0.167	0.002
-700.529	-99.206	0.270	-0.068
-699.514	246.081	0.175	0.293
-698.499	-129.704	0.186	-0.025
-697.485	795.490	0.056	-0.153
-696.470	25.232	-0.286	0.236
-695.456	1.880	-0.073	-0.052
-694.441	-56.811	-0.064	0.028
-693.426	-137.137	-0.266	0.030
-692.412	8.197	-0.159	-0.119
-691.397	-75.326	-0.128	-0.046
-690.383	36.611	-0.110	-0.097
-689.368	17.920	0.089	0.071
-688.354	-88.321	-0.202	-0.060
-687.339	-75.175	0.081	-0.029
-686.324	117.899	-0.049	0.060
-685.310	49.344	0.126	0.118
-684.295	-200.000	0.009	-0.199
-683.281	-200.000	-0.013	0.115
-682.266	-98.891	-0.397	-0.100
-681.251	343.140	0.134	0.260
-680.237	-134.812	-0.393	-0.047
-679.222	800.000	-0.125	-0.390
-678.208	-200.000	-0.010	0.112
-677.193	-5.264	-0.371	0.253
-676.178	-85.003	0.301	0.094
-675.164	-40.805	0.066	0.034
-674.149	-39.314	0.032	0.017
-673.135	-126.278	0.193	0.029
-672.120	-29.953	-0.262	0.148
-671.105	-200.000	0.024	-0.220
-670.091	-200.000	0.011	-0.217
-669.076	-27.217	0.050	0.029
-668.062	-28.857	-0.068	-0.039
-667.047	696.389	-0.033	-0.087
-666.032	-200.000	-0.089	-0.549
-665.018	-95.125	-0.285	0.076
-664.003	-12.100	0.134	0.088
-662.989	-81.448	-0.307	-0.100
-661.974	256.889	0.124	0.212
-660.959	-123.867	-0.274	0.043
-659.945	-106.284	0.098	-0.022
-658.930	-200.000	0.045	-0.275
-657.916	550.365	0.120	-0.287
-656.901	-200.000	-0.008	-0.177
-655.886	324.262	-0.170	-0.323
-654.872	684.185	0.128	-0.333
-653.857	-105.380	0.233	-0.053
-652.843	279.810	-0.140	-0.248
-651.828	-200.000	0.032	0.152
-650.814	-200.000	-0.050	0.305
-649.799	85.191	-0.141	-0.154
-648.784	800.000	0.084	-0.291
-647.770	800.000	-0.019	-0.055
-646.755	-101.961	-0.094	-0.022
-645.741	358.372	0.084	0.168
-644.726	-200.000	-0.016	0.099
-643.711	-31.294	-0.094	-0.053
-642.697	-35.923	-0.119	-0.064
-641.682	519.915	0.032	-0.074
-640.668	-200.000	-0.039	-0.289
-639.653	-121.685	0.158	-0.026
-638.638	37.791	-0.328	0.290
-637.624	13.522	0.155	-0.120
-636.609	-200.000	0.012	0.079
-635.595	-176.701	-0.147	0.004
-634.580	158.777	-0.126	0.173
-633.565	800.000	0.129	0.377
-632.551	-47.762	0.058	0.028
-631.536	-66.177	-0.199	0.079
-630.522	-186.244	-0.075	-0.001
-629.507	-162.151	-0.284	0.014
-628.492	-200.000	0.007	-0.107
-627.478	-200.000	0.002	0.230
-626.463	-200.000	0.055	0.507
-625.449	-101.875	-0.297	0.071
-624.434	-200.000	0.004	-0.397
-623.419	-96.439	-0.264	0.069
-622.405	-200.000	0.049	0.299
-621.390	9.040	-0.300	-0.225
-620.376	221.352	0.193	-0.308
-619.361	-200.000	-0.027	0.184
-618.346	578.996	-0.010	0.024
-617.332	-200.000	-0.070	-0.355
-616.317	-63.321	0.434	-0.177
-615.303	366.388	-0.057	-0.114
-614.288	-142.816	0.152	-0.015
-613.273	166.046	-0.151	0.212
-612.259	800.000	-0.095	-0.388
-611.244	327.257	0.087	-0.166
-610.230	150.083	-0.055	-0.074
-609.215	576.990	0.083	0.201
-608.201	101.319	-0.142	0.164
-607.186	-200.000	-0.435	0.001
-606.171	-156.028	-0.161	-0.010
-605.157	-19.508	0.155	0.095
-604.142	-40.569	-0.203	-0.104
-603.128	-110.806	-0.319	0.065
-602.113	-120.344	0.180	-0.030
-601.098	-200.000	0.003	0.039
-600.084	-200.000	0.046	0.218
-599.069	-200.000	-0.031	-0.214
-598.055	-200.000	-0.058	0.402
-597.040	800.000	-0.012	-0.037
-596.025	800.000	-0.057	0.183
-595.011	-155.581	-0.444	0.028
-593.996	-152.925	0.278	-0.019
-592.982	-200.000	0.000	0.025
-591.967	610.855	0.088	0.217
-590.952	270.883	-0.047	0.082
-589.938	-155.346	-0.168	0.011
-588.923	695.609	-0.072	0.188
-587.909	-50.992	-0.376	-0.175
-586.894	111.558	-0.126	-0.150
-585.879	175.711	0.076	-0.109
-584.865	-200.000	-0.011	-0.189
-583.850	-23.050	-0.115	0.069
-582.836	39.929	-0.206	0.183
-581.821	-175.304	-0.170	-0.005
-580.806	642.775	0.023	-0.059
-579.792	7.027	-0.271	-0.200
-578.777	800.000	-0.070	0.300
-577.763	-131.502	0.271	0.035
-576.748	-51.086	-0.144	0.067
-575.733	-12.412	-0.345	0.223
-574.719	-87.289	0.301	0.090
-573.704	-131.361	-0.153	-0.020
-572.690	777.092	0.091	0.245
-571.675	800.000	-0.071	-0.230
-570.661	-30.922	0.301	-0.168
-569.646	37.614	0.035	0.031
-568.631	-146.393	-0.107	0.009
-567.617	2.572	-0.141	-0.101
-566.602	-200.000	0.009	-0.335
-565.588	-18.598	0.353	0.218
-564.573	391.993	-0.164	0.338
-563.558	103.999	0.071	-0.082
-562.544	-46.895	-0.238	-0.115
-561.529	503.412	0.047	0.107
-560.515	36.198	-0.086	-0.075
-559.500	-71.086	0.218	-0.081
-558.485	-42.499	-0.427	0.215
-557.471	-112.931	-0.055	-0.011
-556.456	315.739	-0.128	0.239
-555.442	-200.000	-0.009	0.174
-554.427	-21.625	-0.088	0.053
-553.412	-200.000	-0.026	-0.164
-552.398	-170.047	-0.294	-0.010
-551.383	88.408	0.154	-0.169
-550.369	76.207	0.184	-0.193
-549.354	-92.998	-0.388	-0.107
-548.339	-148.998	0.268	0.021
-547.325	-200.000	-0.066	-0.357
-546.310	-200.000	0.040	0.196
-545.296	41.569	0.181	-0.162
-544.281	800.000	0.033	0.137
-543.266	-200.000	0.038	0.215
-542.252	-200.000	0.060	-0.330
-541.237	7.030	-0.321	-0.237
-540.223	-66.210	0.088	0.035
-539.208	158.503	-0.057	-0.078
-538.193	300.345	0.121	-0.221
-537.179	736.631	-0.029	0.076
-536.164	173.635	-0.169	-0.242
-535.150	800.000	-0.070	-0.292
-534.135	-116.361	0.111	0.020
-533.121	26.252	-0.286	-0.236
-532.106	-40.548	0.174	-0.089
-531.091	-97.002	0.373	-0.097
-530.077	26.632	-0.137	0.113
-529.062	47.454	0.110	-0.101
-528.048	-200.000	0.002	-0.194
-527.033	-58.933	-0.209	0.089
-526.018	800.000	0.026	-0.072
-525.004	-81.056	-0.297	-0.097
-523.989	-9.346	-0.108	0.072
-522.975	-200.000	0.006	-0.151
-521.960	-133.134	0.302	0.038
-520.945	119.912	-0.116	0.143
-519.931	-200.000	0.011	-0.115
-518.916	121.527	0.153	0.188
-517.902	-88.267	-0.092	-0.027
-516.887	525.034	-0.086	-0.201
-515.872	-109.401	0.281	-0.059
-514.858	-200.000	0.012	-0.231
-513.843	373.997	0.110	-0.222
-512.829	-200.000	0.016	0.098
-511.814	391.400	-0.154	0.315
-510.799	-31.042	0.259	0.145
-509.785	-141.539	-0.238	-0.024
-508.770	-200.000	-0.033	-0.146
-507.756	-22.200	0.238	-0.142
-506.741	-195.344	0.217	0.002
-505.726	800.000	-0.147	-0.440
-504.712	-87.911	-0.127	-0.038
-503.697	800.000	0.065	-0.207
-502.683	-185.207	0.055	0.001
-501.668	24.863	-0.068	0.056
-500.653	49.018	0.095	0.088
-499.639	31.680	-0.183	0.155
-498.624	66.475	0.194	-0.195
-497.610	416.365	-0.134	-0.282
-496.595	45.556	-0.231	0.211
-495.581	-200.000	-0.014	0.082
-494.566	-200.000	-0.026	-0.143
-493.551	-129.815	-0.292	-0.040
-492.537	-200.000	0.038	-0.170
-491.522	-146.101	0.133	0.012
-490.508	-200.000	0.023	0.190
-489.493	4.461	0.078	-0.057
-488.478	800.000	0.056	0.183
-487.464	91.144	0.054	-0.060
-486.449	-108.873	0.171	-0.036
-485.435	30.667	0.408	-0.345
-484.420	80.727	0.049	-0.052
-483.405	241.213	-0.151	-0.248
-482.391	36.391	0.204	0.178
-481.376	107.621	0.051	0.060
-480.362	-25.535	-0.254	0.148
-479.347	-200.000	0.060	0.280
-478.332	16.346	0.261	-0.204
-477.318	-115.755	0.152	0.028
-476.303	-46.147	-0.226	0.110
-475.289	-92.689	-0.317	-0.088
-474.274	-1.155	0.165	-0.115
-473.259	-58.338	-0.016	0.007
-472.245	800.000	-0.066	-0.212
-471.230	-20.828	-0.245	0.148
-470.216	-125.826	0.549	0.082
-469.201	-200.000	-0.051	0.350
-468.186	162.238	0.125	0.172
-467.172	198.638	0.031	0.047
-466.157	626.630	-0.053	-0.132
-465.143	1.242	0.246	-0.174
-464.128	54.837	-0.169	0.161
-463.113	800.000	-0.114	-0.472
-462.099	107.499	-0.152	-0.178
-461.084	-200.000	0.043	-0.385
-460.070	427.133	0.211	0.450
-459.055	-30.665	-0.243	0.136
-458.040	-98.250	-0.133	-0.034
-457.026	143.446	-0.191	-0.251
-456.011	-181.592	-0.064	-0.001
-454.997	-102.841	0.351	0.082
-453.982	-200.000	-0.028	0.300
-452.968	62.307	0.182	0.179
-451.953	800.000	-0.037	-0.109
-450.938	-200.000	-0.062	0.332
-449.924	30.233	0.177	0.149
-448.909	-130.852	0.136	-0.018
-447.895	800.000	-0.104	-0.283
-446.880	27.517	0.131	0.108
-445.865	62.220	-0.174	-0.171
-444.851	306.850	0.093	-0.171
-443.836	242.063	-0.227	-0.374
-442.822	-200.000	-0.019	0.386
-441.807	-200.000	0.010	0.072
-440.792	-44.758	0.110	0.054
-439.778	322.564	0.064	0.119
-438.763	-125.622	0.269	0.040
-437.749	-167.925	0.047	-0.002
-436.734	-61.513	0.159	0.066
-435.719	-12.414	-0.053	-0.034
-434.705	-62.997	0.133	-0.054
-433.690	-1.056	0.173	-0.121
-432.676	240.705	0.091	0.150
-431.661	606.698	-0.032	0.079
-430.646	33.496	0.036	-0.031
-429.632	800.000	0.047	-0.192
-428.617	128.756	-0.177	-0.222
-427.603	-10.414	0.125	0.082
-426.588	103.000	0.052	0.059
-425.573	135.244	-0.084	0.107
-424.559	-152.782	0.161	-0.011
-423.544	6.735	-0.340	0.249
-422.530	136.916	0.129	-0.166
-421.515	-120.076	-0.256	-0.043
-420.500	225.776	-0.224	-0.357
-419.486	-200.000	-0.011	-0.055
-418.471	59.101	-0.239	-0.232
-417.457	309.433	0.063	0.116
-416.442	20.981	0.314	-0.250
-415.428	-67.874	0.135	-0.052
-414.413	-173.221	0.473	-0.014
-413.398	800.000	-0.031	-0.103
-412.384	800.000	0.082	-0.281
-411.369	-149.221	-0.058	0.005
-410.355	14.193	-0.142	-0.109
-409.340	638.146	0.068	-0.171
-408.325	20.033	0.015	0.012
-407.311	-128.186	-0.166	0.023
-406.296	66.171	0.080	0.080
-405.282	7.904	0.206	0.152
-404.267	-200.000	0.008	0.421
-403.252	-91.871	0.322	0.090
-402.238	248.534	0.077	0.128
-401.223	59.996	0.236	0.229
-400.209	-69.227	0.058	0.022
-399.194	800.000	-0.050	-0.182
-398.179	60.867	-0.202	0.197
-397.165	800.000	-0.050	-0.146
-396.150	-77.420	0.270	-0.092
-395.136	-160.881	-0.242	0.013
-394.121	-85.486	-0.078	0.024
-393.106	-90.724	0.324	-0.092
-392.092	-67.097	-0.068	-0.027
-391.077	-57.717	0.320	-0.138
-390.063	-51.400	-0.149	0.069
-389.048	-89.749	-0.245	0.070
-388.033	800.000	0.089	-0.303
-387.019	800.000	-0.113	-0.325
-386.004	4.782	-0.167	-0.121
-384.990	-200.000	0.023	-0.222
-383.975	-200.000	-0.061	0.362
-382.960	262.301	-0.145	-0.247
-381.946	224.948	-0.101	-0.160
-380.931	38.811	-0.242	0.212
-379.917	36.940	0.181	0.158
-378.902	-73.969	0.296	-0.106
-377.888	-0.112	-0.095	-0.066
-376.873	131.531	-0.282	-0.356
-375.858	-91.576	-0.237	0.066
-374.844	-200.000	0.057	0.461
-373.829	186.868	0.024	-0.035
-372.815	-129.266	-0.013	0.002
-371.800	689.170	0.068	0.176
-370.785	150.724	-0.241	0.322
-369.771	-200.000	0.012	-0.098
-368.756	-87.707	0.261	0.077
-367.742	-43.447	-0.242	0.120
-366.727	-73.199	-0.137	0.049
-365.712	153.019	0.137	0.185
-364.698	-74.778	0.288	-0.102
-363.683	-136.955	-0.112	0.013
-362.669	-86.397	-0.284	-0.086
-361.654	-200.000	0.022	-0.106
-360.639	-200.000	0.007	0.076
-359.625	-94.308	0.265	0.071
-358.610	800.000	0.030	0.107
-357.596	-91.804	0.237	0.066
-356.581	-158.812	0.368	-0.021
-355.566	-200.000	-0.043	-0.418
-354.552	155.662	-0.041	0.056
-353.537	-21.543	-0.184	0.110
-352.523	-77.368	0.457	-0.156
-351.508	64.041	0.119	-0.117
-350.493	-200.000	0.053	0.386
-349.479	-67.671	-0.349	0.134
-348.464	-63.937	0.167	-0.067
-347.450	81.694	0.064	-0.068
-346.435	-200.000	-0.001	-0.053
-345.420	-150.234	-0.092	0.007
-344.406	-45.291	-0.165	-0.080
-343.391	-38.848	-0.086	0.044
-342.377	-26.258	-0.154	-0.089
-341.362	-200.000	0.028	-0.129
-340.348	800.000	-0.048	0.193
-339.333	-200.000	0.019	-0.283
-338.318	-91.964	0.147	0.041
-337.304	5.115	-0.101	-0.073
-336.289	-126.362	-0.325	-0.047
-335.275	-20.079	0.299	-0.181
-334.260	-200.000	-0.008	0.115
-333.245	-200.000	0.005	-0.178
-332.231	-200.000	-0.006	0.099
-331.216	-14.161	0.292	0.185
-330.202	32.936	0.041	-0.035
-329.187	-4.370	0.151	-0.102
-328.172	-105.925	0.311	-0.069
-327.158	-200.000	-0.042	-0.324
-326.143	670.905	-0.036	-0.090
-325.129	676.322	0.095	-0.241
-324.114	37.197	0.281	-0.244
-323.099	279.498	0.123	-0.215
-322.085	-126.751	0.388	0.056
-321.070	171.689	0.017	-0.025
-320.056	358.626	0.030	-0.058
-319.041	-60.691	0.355	0.148
-318.026	-72.140	-0.364	0.133
-317.012	-21.683	0.139	-0.083
-315.997	-53.357	-0.211	-0.095
-314.983	-55.259	0.361	-0.159
-313.968	-200.000	-0.028	0.150
-312.953	-0.054	-0.035	-0.024
-311.939	-117.215	-0.187	-0.033
-310.924	-7.197	0.186	-0.124
-309.910	-28.834	-0.196	0.110
-308.895	55.106	0.024	0.023
-307.880	-44.198	-0.252	-0.124
-306.866	116.429	0.061	0.073
-305.851	11.735	-0.164	-0.123
-304.837	31.490	-0.213	0.179
-303.822	-200.000	-0.035	0.176
-302.807	-176.619	0.125	0.003
-301.793	21.668	-0.077	-0.062
-300.778	-106.244	-0.297	0.065
-299.764	-200.000	-0.018	0.188
-298.749	639.098	0.060	0.151
-297.735	-152.963	-0.238	0.016
-296.720	16.129	-0.197	-0.152
-295.705	201.561	-0.192	-0.290
-294.691	91.344	0.241	-0.265
-293.676	-113.343	0.213	0.041
-292.662	800.000	-0.087	0.340
-291.647	-50.792	-0.218	-0.100
-290.632	224.314	0.126	-0.200
-289.618	193.411	0.122	-0.181
-288.603	-150.506	0.270	-0.020
-287.589	-70.765	0.199	-0.074
-286.574	-200.000	-0.039	-0.255
-285.559	-75.158	-0.205	0.072
-284.545	800.000	-0.045	0.121
-283.530	-135.102	0.115	0.014
-282.516	646.570	-0.066	-0.166
-281.501	120.171	-0.127	-0.155
-280.486	800.000	0.111	0.455
-279.472	-200.000	-0.039	-0.367
-278.457	-107.679	0.283	0.061
-277.443	800.000	0.084	0.351
-276.428	198.994	-0.090	0.134
-275.413	83.467	-0.035	0.038
-274.399	429.547	-0.104	0.219
-273.384	-31.251	-0.066	-0.036
-272.370	-34.669	0.049	0.026
-271.355	2.725	0.134	0.095
-270.340	14.762	0.163	-0.125
-269.326	-200.000	0.020	0.131
-268.311	-200.000	0.000	-0.160
-267.297	73.570	0.163	0.167
-266.282	56.884	0.143	-0.136
-265.267	54.853	-0.336	-0.317
-264.253	800.000	-0.010	0.034
-263.238	-74.255	-0.086	0.030
-262.224	-200.000	-0.007	-0.085
-261.209	141.539	-0.223	-0.290
-260.195	800.000	-0.084	0.236
-259.180	496.658	-0.076	-0.172
-258.165	-75.577	0.228	0.079
-257.151	-8.701	0.141	0.092
-256.136	-154.952	-0.208	0.013
-255.122	-200.000	0.019	0.139
-254.107	348.465	-0.084	0.163
-253.092	175.797	0.171	-0.242
-252.078	-200.000	-0.033	-0.429
-251.063	-29.001	-0.214	0.120
-250.049	-200.000	0.100	0.444
-249.034	800.000	0.092	0.282
-248.019	169.010	0.024	-0.033
-247.005	-200.000	-0.023	0.280
-245.990	-200.000	-0.015	0.162
-244.976	-91.505	-0.121	-0.034
-243.961	247.855	0.026	-0.043
-242.946	356.012	0.077	0.150
-241.932	-17.328	-0.197	0.121
-240.917	-136.502	0.209	0.024
-239.903	399.709	-0.096	0.197
-238.888	-38.735	0.194	-0.100
-237.873	-138.991	-0.187	-0.020
-236.859	-78.491	-0.108	-0.036
-235.844	-87.109	-0.146	-0.043
-234.830	196.964	0.125	0.187
-233.815	-107.054	-0.037	0.008
-232.800	-117.109	0.358	0.064
-231.786	-103.318	-0.178	0.041
-230.771	157.760	0.136	0.185
-229.757	-128.573	-0.241	0.033
-228.742	-111.208	-0.183	-0.037
-227.727	59.549	0.112	0.108
-226.713	-83.101	0.198	-0.062
-225.698	123.809	-0.245	-0.300
-224.684	673.855	-0.037	-0.095
-223.669	-200.000	-0.039	-0.183
-222.655	303.897	-0.111	-0.201
-221.640	-200.000	0.008	-0.087
-220.625	-9.361	-0.121	-0.079
-219.611	-29.797	-0.301	-0.168
-218.596	88.561	-0.218	-0.236
-217.582	149.309	0.171	0.227
-216.567	104.052	0.097	0.112
-215.552	-46.770	-0.101	0.048
-214.538	216.631	-0.235	0.365
-213.523	234.309	0.034	0.055
-212.509	6.306	0.083	0.060
-211.494	-104.729	0.258	-0.058
-210.479	1.105	0.066	-0.046
-209.465	373.842	0.099	-0.196
-208.450	-34.527	0.154	-0.082
-207.436	401.199	-0.044	0.090
-206.421	-131.145	-0.250	0.032
-205.406	-51.472	-0.091	0.042
-204.392	-200.000	0.087	0.405
-203.377	20.870	0.387	0.306
-202.363	-140.367	0.345	0.035
-201.348	-99.975	-0.337	-0.082
-200.333	45.530	-0.038	0.034
-199.319	210.720	-0.132	-0.202
-198.304	179.338	-0.054	0.077
-197.290	31.371	0.016	0.014
-196.275	-98.395	0.273	0.068
-195.260	800.000	-0.025	0.102
-194.246	-43.588	0.220	0.108
-193.231	681.424	0.144	0.367
-192.217	-36.238	0.295	0.155
-191.202	-104.132	0.091	-0.021
-190.187	45.101	0.237	-0.213
-189.173	304.659	-0.210	0.380
-188.158	-129.364	0.340	0.046
-187.144	-35.120	-0.108	0.058
-186.129	-60.743	0.216	0.089
-185.114	-200.000	0.012	0.106
-184.100	-38.346	0.033	0.017
-183.085	-0.182	-0.181	-0.126
-182.071	16.798	-0.157	0.121
-181.056	800.000	0.143	0.548
-180.042	102.522	-0.004	-0.004
-179.027	-188.454	0.448	-0.005
-178.012	237.282	0.032	0.052
-176.998	147.406	0.116	0.153
-175.983	536.162	-0.046	-0.107
-174.969	129.496	0.199	0.248
-173.954	101.079	-0.130	0.148
-172.939	-126.494	0.298	0.043
-171.925	-148.823	-0.396	0.031
-170.910	-93.390	0.257	-0.070
-169.896	-112.148	-0.258	-0.051
-168.881	800.000	-0.044	-0.154
-167.866	-67.454	-0.208	0.079
-166.852	-200.000	0.009	0.392
-165.837	-200.000	-0.005	0.069
-164.823	-161.218	-0.267	0.014
-163.808	246.716	0.099	0.163
-162.793	800.000	-0.031	-0.099
-161.779	35.761	-0.183	0.157
-160.764	800.000	-0.017	-0.067
-159.750	-113.514	0.378	-0.072
-158.735	800.000	-0.060	0.168
-157.720	173.350	0.027	-0.038
-156.706	99.293	0.186	-0.210
-155.691	158.510	0.158	0.214
-154.677	-92.781	-0.119	0.032
-153.662	74.262	0.073	0.075
-152.647	83.020	0.174	0.185
-151.633	-114.072	-0.098	-0.018
-150.618	-200.000	-0.028	-0.160
-149.604	-122.464	-0.095	0.015
-148.589	-200.000	-0.031	-0.139
-147.574	106.697	0.128	-0.147
-146.560	-82.786	0.287	0.090
-145.545	-65.793	0.415	0.162
-144.531	-2.976	-0.126	0.085
-143.516	-200.000	-0.000	-0.185
-142.502	68.818	-0.140	0.140
-141.487	-122.815	0.281	0.044
-140.472	-200.000	0.002	-0.029
-139.458	307.677	-0.179	-0.325
-138.443	469.940	-0.057	0.125
-137.429	91.616	-0.218	0.238
-136.414	67.928	-0.087	-0.087
-135.399	800.000	0.073	-0.301
-134.385	-200.000	0.040	0.266
-133.370	-41.524	-0.180	-0.090
-132.356	-186.335	0.252	-0.004
-131.341	800.000	-0.071	-0.237
-130.326	-39.148	-0.217	0.111
-129.312	593.196	-0.078	-0.187
-128.297	-200.000	-0.020	0.104
-127.283	-23.070	0.146	-0.086
-126.268	-100.031	0.291	-0.071
-125.253	-38.855	0.231	0.118
-124.239	399.082	0.177	0.361
-123.224	-99.195	-0.157	0.039
-122.210	-137.723	0.235	-0.026
-121.195	212.392	0.118	0.181
