DTS Sentinel unit serial number:	SN413079Multiplexer serial number:	ORYXHardware model number:	OX4-SRSoftware version number:	ORYX F/W v4.00 Oryx Data Collector v3.7.2.0data status	okinstallation	princeton_trtdifferential loss correction	single-endedforward channel	channel 2reverse channel	N/Adate	2019/09/16time	20:35:35forward acquisition time	60.00reverse acquisition time	0.00gamma	496.2192k internal	0.2328k external	0.2328temperature offset calibration	0.9966default loss term (dB/km)	0.3790temperature slope calibration	1.0000multiplexer offset coefficient	1.0000multiplexer slope coefficient	1.0000fibre end	0.00T internal ref (°C)	32.55T ext. ref 1 (°C)	0.05T ext. ref 2 (°C)	26.40length (m)	temperature (°C)	Stokes	anti-Stokes-747.200	25.888	-0.079	0.066
-746.185	5.602	-0.250	-0.186
-745.171	36.595	-0.064	0.057
-744.156	176.498	-0.197	0.288
-743.142	-47.338	0.132	-0.065
-742.127	266.779	0.144	0.253
-741.112	113.069	0.202	0.246
-740.098	-200.000	-0.056	0.267
-739.083	-200.000	0.017	0.160
-738.069	36.967	-0.251	0.224
-737.054	-36.100	0.408	0.222
-736.039	-200.000	-0.015	-0.286
-735.025	-85.168	-0.132	0.042
-734.010	-110.017	-0.304	0.064
-732.996	43.682	0.237	0.218
-731.981	-87.640	-0.116	-0.035
-730.966	-200.000	-0.020	-0.283
-729.952	-92.142	-0.308	-0.088
-728.937	142.990	0.115	0.154
-727.923	-146.570	-0.253	0.022
-726.908	800.000	-0.050	-0.166
-725.894	-13.581	-0.131	-0.085
-724.879	196.928	0.113	-0.174
-723.864	250.397	0.126	0.216
-722.850	112.054	-0.109	0.133
-721.835	750.521	0.110	-0.299
-720.821	-200.000	-0.047	-0.247
-719.806	251.093	-0.141	-0.242
-718.791	-200.000	-0.020	-0.178
-717.777	-190.819	-0.177	-0.002
-716.762	800.000	-0.020	-0.076
-715.748	-200.000	-0.114	0.000
-714.733	-82.115	-0.616	0.202
-713.718	-200.000	-0.006	0.270
-712.704	203.090	-0.208	-0.323
-711.689	-200.000	0.005	-0.223
-710.675	84.219	0.125	-0.137
-709.660	-54.339	0.037	0.017
-708.645	-200.000	0.284	0.001
-707.631	-173.939	0.389	-0.012
-706.616	-143.234	0.173	0.017
-705.602	155.807	0.096	-0.133
-704.587	800.000	-0.042	-0.121
-703.572	11.946	-0.051	0.040
-702.558	119.662	0.236	0.294
-701.543	173.354	0.133	0.193
-700.529	-158.915	-0.283	0.016
-699.514	-69.847	0.238	0.091
-698.499	71.055	0.370	-0.386
-697.485	-200.000	0.051	0.277
-696.470	514.928	0.072	0.168
-695.456	800.000	-0.075	0.259
-694.441	-200.000	-0.028	0.231
-693.426	36.058	-0.283	-0.251
-692.412	800.000	0.080	-0.235
-691.397	450.257	0.127	-0.281
-690.383	433.646	0.027	-0.060
-689.368	-58.793	-0.329	0.143
-688.354	-125.192	0.092	-0.014
-687.339	-200.000	-0.020	-0.179
-686.324	-1.980	0.063	-0.044
-685.310	-60.517	-0.255	0.109
-684.295	48.764	0.466	-0.439
-683.281	800.000	0.023	0.093
-682.266	-89.261	-0.330	0.098
-681.251	176.444	-0.210	-0.307
-680.237	-153.482	0.401	-0.028
-679.222	800.000	0.022	0.081
-678.208	-200.000	0.057	0.516
-677.193	800.000	0.016	-0.056
-676.178	-25.193	-0.301	0.179
-675.164	148.699	-0.347	0.472
-674.149	-148.441	0.056	0.005
-673.135	800.000	-0.109	0.382
-672.120	-119.546	-0.211	-0.037
-671.105	37.374	0.094	0.083
-670.091	-20.581	0.035	0.022
-669.076	11.806	0.067	-0.051
-668.062	-89.338	-0.276	-0.082
-667.047	800.000	0.025	0.106
-666.032	385.265	0.134	0.278
-665.018	86.017	0.252	-0.279
-664.003	242.308	-0.196	0.329
-662.989	-58.634	-0.296	-0.129
-661.974	-91.996	0.344	0.098
-660.959	-200.000	-0.007	-0.171
-659.945	-137.726	-0.268	0.030
-658.930	50.826	-0.076	-0.072
-657.916	373.163	0.215	0.439
-656.901	-95.883	-0.353	-0.095
-655.886	-79.395	-0.577	0.196
-654.872	27.170	0.189	0.159
-653.857	75.992	-0.187	-0.198
-652.843	24.407	-0.245	-0.204
-651.828	800.000	-0.048	0.152
-650.814	-113.230	0.121	-0.024
-649.799	-143.725	0.212	-0.020
-648.784	-200.000	0.054	-0.270
-647.770	-105.618	-0.232	0.053
-646.755	-126.635	0.262	-0.039
-645.741	53.501	0.080	-0.077
-644.726	56.331	-0.141	0.137
-643.711	-112.980	0.316	-0.063
-642.697	138.603	0.128	-0.168
-641.682	167.582	-0.179	0.255
-640.668	-200.000	-0.035	-0.261
-639.653	800.000	0.041	0.132
-638.638	-157.117	-0.319	0.019
-637.624	193.391	-0.094	-0.142
-636.609	382.813	0.097	0.201
-635.595	36.416	0.300	-0.265
-634.580	37.896	-0.020	0.018
-633.565	222.100	-0.193	-0.311
-632.551	-200.000	0.013	0.387
-631.536	131.193	0.164	0.211
-630.522	-34.107	-0.130	0.072
-629.507	-64.222	-0.143	-0.058
-628.492	609.059	-0.074	0.186
-627.478	-84.959	-0.249	0.078
-626.463	-50.884	-0.166	0.078
-625.449	-200.000	-0.015	0.225
-624.434	-200.000	0.049	-0.373
-623.419	-78.077	-0.428	-0.148
-622.405	-200.000	0.016	0.246
-621.390	-145.277	-0.129	0.012
-620.376	5.225	0.298	0.220
-619.361	-146.792	-0.425	0.037
-618.346	128.013	0.098	0.124
-617.332	-42.246	0.187	0.096
-616.317	76.510	-0.047	-0.050
-615.303	117.890	0.260	0.321
-614.288	-124.885	-0.188	0.029
-613.273	800.000	-0.144	-0.428
-612.259	221.516	0.123	0.198
-611.244	-148.988	-0.097	-0.008
-610.230	-200.000	-0.043	-0.294
-609.215	165.370	0.121	-0.172
-608.201	640.726	0.086	-0.219
-607.186	-200.000	-0.006	-0.124
-606.171	200.630	-0.046	-0.071
-605.157	-131.555	0.297	-0.039
-604.142	157.765	-0.040	-0.056
-603.128	-200.000	-0.025	-0.209
-602.113	23.518	-0.379	-0.313
-601.098	-200.000	-0.003	-0.255
-600.084	524.258	-0.107	-0.252
-599.069	293.995	0.220	-0.403
-598.055	40.600	-0.251	0.227
-597.040	-43.778	-0.116	0.058
-596.025	-132.478	0.220	0.028
-595.011	62.083	-0.127	0.127
-593.996	-116.790	-0.221	0.041
-592.982	-200.000	-0.011	0.070
-591.967	-200.000	-0.029	-0.178
-590.952	-77.503	-0.219	-0.076
-589.938	446.479	0.105	0.231
-588.923	-41.494	-0.098	-0.051
-587.909	-200.000	-0.016	-0.186
-586.894	-200.000	0.025	-0.223
-585.879	-134.570	0.321	0.039
-584.865	484.968	0.072	-0.165
-583.850	48.674	-0.142	0.133
-582.836	-93.665	0.289	0.080
-581.821	-5.774	0.060	0.041
-580.806	3.451	-0.065	0.047
-579.792	-157.421	-0.113	-0.007
-578.777	290.276	-0.059	-0.108
-577.763	-38.977	-0.189	-0.100
-576.748	-66.917	-0.236	0.093
-575.733	-30.479	0.129	-0.073
-574.719	704.661	-0.090	0.238
-573.704	10.845	0.131	0.100
-572.690	-13.761	0.207	0.134
-571.675	352.204	0.116	-0.229
-570.661	66.059	0.238	0.242
-569.646	-94.505	0.295	-0.081
-568.631	-200.000	0.007	0.042
-567.617	-200.000	-0.002	-0.029
-566.602	8.565	-0.177	-0.133
-565.588	29.102	-0.288	0.245
-564.573	-38.957	-0.221	0.117
-563.558	-200.000	-0.002	0.175
-562.544	-52.203	-0.290	0.135
-561.529	5.061	0.161	-0.119
-560.515	-107.395	-0.139	0.031
-559.500	-99.190	-0.219	-0.055
-558.485	-117.814	0.299	-0.054
-557.471	28.639	-0.229	0.194
-556.456	-200.000	0.044	0.194
-555.442	28.719	0.271	-0.230
-554.427	-200.000	0.010	-0.063
-553.412	-21.308	-0.203	0.124
-552.398	132.801	0.274	-0.354
-551.383	-200.000	-0.004	-0.482
-550.369	-165.860	0.256	0.011
-549.354	800.000	-0.086	0.356
-548.339	-102.977	-0.395	-0.094
-547.325	13.823	-0.366	0.285
-546.310	-39.542	0.216	-0.113
-545.296	402.312	0.070	0.146
-544.281	-89.157	0.331	0.098
-543.266	250.782	0.092	0.156
-542.252	-200.000	-0.018	-0.106
-541.237	384.007	0.058	-0.120
-540.223	96.987	-0.214	-0.246
-539.208	-164.809	0.181	-0.008
-538.193	800.000	0.118	-0.347
-537.179	-197.581	-0.186	-0.001
-536.164	-26.799	-0.273	0.160
-535.150	28.466	0.228	0.193
-534.135	563.529	-0.075	0.182
-533.121	319.356	-0.110	0.209
-532.106	127.887	0.078	0.100
-531.091	-89.060	0.319	0.094
-530.077	-66.573	-0.208	-0.083
-529.062	-13.243	-0.169	-0.110
-528.048	112.922	-0.173	-0.210
-527.033	-60.762	0.381	-0.161
-526.018	77.546	0.107	-0.114
-525.004	-124.111	0.446	0.070
-523.989	122.640	0.096	-0.120
-522.975	800.000	0.065	-0.270
-521.960	-200.000	0.013	0.136
-520.945	-91.276	-0.295	-0.084
-519.931	-124.667	-0.229	0.035
-518.916	48.380	0.227	0.212
-517.902	320.875	0.168	-0.318
-516.887	-33.546	-0.057	0.032
-515.872	800.000	-0.074	-0.235
-514.858	-16.042	0.089	0.057
-513.843	-25.674	-0.097	0.057
-512.829	800.000	-0.123	0.369
-511.814	148.103	0.160	-0.215
-510.799	-73.265	0.200	0.073
-509.785	-40.288	-0.276	-0.144
-508.770	-104.745	-0.176	-0.040
-507.756	-141.442	-0.122	0.012
-506.741	267.170	0.165	-0.288
-505.726	160.225	0.216	-0.300
-504.712	180.762	-0.045	-0.065
-503.697	-200.000	0.064	-0.389
-502.683	-200.000	-0.037	-0.234
-501.668	152.140	0.076	-0.103
-500.653	408.201	0.030	0.064
-499.639	-14.953	0.343	-0.219
-498.624	-14.153	-0.165	0.106
-497.610	-200.000	0.001	-0.009
-496.595	-200.000	0.005	0.052
-495.581	550.723	0.082	-0.197
-494.566	-200.000	0.060	-0.453
-493.551	-200.000	0.002	0.047
-492.537	-52.849	-0.055	0.025
-491.522	-200.000	0.064	0.313
-490.508	-15.308	-0.118	-0.075
-489.493	759.579	0.177	0.478
-488.478	84.323	0.194	0.212
-487.464	-200.000	0.000	0.056
-486.449	-61.675	0.254	0.106
-485.435	-200.000	0.001	-0.048
-484.420	800.000	-0.078	0.243
-483.405	-133.338	0.195	0.024
-482.391	800.000	0.017	-0.068
-481.376	-143.501	0.100	-0.010
-480.362	-185.832	-0.296	-0.004
-479.347	-200.000	0.041	-0.213
-478.332	800.000	0.079	-0.259
-477.318	113.596	0.204	0.247
-476.303	-50.710	0.177	-0.083
-475.289	800.000	-0.026	-0.094
-474.274	5.964	-0.340	-0.251
-473.259	-200.000	-0.052	0.286
-472.245	-200.000	0.024	-0.140
-471.230	-200.000	-0.031	0.302
-470.216	52.663	0.109	0.104
-469.201	229.699	-0.062	0.101
-468.186	-36.421	-0.006	0.003
-467.172	26.722	-0.198	0.165
-466.157	200.600	0.109	-0.167
-465.143	633.072	0.119	0.301
-464.128	-39.083	-0.190	-0.099
-463.113	83.354	-0.066	-0.072
-462.099	-113.331	-0.154	-0.030
-461.084	-200.000	-0.068	-0.362
-460.070	-141.476	-0.042	0.004
-459.055	-29.627	-0.029	-0.017
-458.040	43.108	0.249	0.226
-457.026	-107.108	-0.308	0.068
-456.011	501.365	-0.040	0.092
-454.997	-78.682	0.249	-0.085
-453.982	63.753	0.178	0.179
-452.968	-71.159	0.073	-0.027
-451.953	-200.000	0.006	-0.167
-450.938	-200.000	-0.034	-0.170
-449.924	85.246	-0.121	-0.133
-448.909	-118.567	-0.129	-0.023
-447.895	-54.652	-0.186	0.084
-446.880	56.951	-0.312	-0.303
-445.865	-96.629	-0.127	0.033
-444.851	-200.000	-0.063	0.276
-443.836	-52.103	-0.091	0.042
-442.822	33.472	0.194	0.167
-441.807	155.880	-0.042	0.058
-440.792	-116.909	0.271	-0.049
-439.778	-17.424	-0.255	0.160
-438.763	29.443	0.128	0.108
-437.749	-200.000	0.028	0.214
-436.734	69.688	-0.356	-0.365
-435.719	8.399	-0.319	0.239
-434.705	9.681	0.189	0.143
-433.690	34.492	0.206	-0.179
-432.676	-200.000	-0.077	0.397
-431.661	20.833	0.245	0.197
-430.646	-115.646	0.222	-0.042
-429.632	-121.214	-0.189	0.032
-428.617	235.202	-0.157	-0.259
-427.603	-200.000	0.005	0.049
-426.588	-26.794	-0.247	-0.144
-425.573	309.693	-0.083	-0.154
-424.559	-200.000	-0.019	-0.243
-423.544	-31.040	0.007	-0.004
-422.530	646.105	-0.093	0.236
-421.515	3.223	-0.242	0.175
-420.500	797.888	-0.092	-0.253
-419.486	12.323	0.070	0.054
-418.471	-103.750	-0.363	-0.084
-417.457	449.564	0.250	-0.548
-416.442	200.894	0.085	-0.130
-415.428	-43.684	-0.313	0.157
-414.413	634.228	-0.055	-0.139
-413.398	166.004	0.142	-0.200
-412.384	-89.742	-0.149	0.043
-411.369	231.068	0.083	-0.135
-410.355	275.468	0.167	0.294
-409.340	-66.798	0.083	0.033
-408.325	800.000	-0.081	-0.286
-407.311	18.449	-0.210	-0.167
-406.296	-64.482	-0.317	0.128
-405.282	-2.078	-0.172	-0.120
-404.267	252.776	0.123	-0.208
-403.252	-98.114	0.449	-0.115
-402.238	25.802	-0.204	0.169
-401.223	800.000	0.086	-0.286
-400.209	-65.273	0.349	0.140
-399.194	-22.310	-0.259	-0.156
-398.179	-149.289	-0.133	-0.011
-397.165	121.332	0.025	-0.030
-396.150	-1.568	0.087	0.061
-395.136	744.148	-0.112	0.300
-394.121	-174.430	-0.369	0.011
-393.106	-52.601	-0.114	0.052
-392.092	-51.683	-0.119	0.055
-391.077	-200.000	0.026	0.124
-390.063	-38.711	0.139	0.073
-389.048	-200.000	0.006	0.206
-388.033	-147.441	0.044	0.004
-387.019	-154.970	0.369	-0.024
-386.004	-133.648	0.367	0.046
-384.990	230.401	0.118	-0.192
-383.975	800.000	0.094	-0.265
-382.960	286.758	0.072	0.129
-381.946	800.000	0.068	0.192
-380.931	-19.764	-0.423	0.260
-379.917	6.668	-0.032	-0.023
-378.902	-200.000	-0.045	-0.244
-377.888	-60.400	0.070	-0.030
-376.873	-23.237	-0.307	-0.184
-375.858	-96.625	-0.333	-0.087
-374.844	800.000	0.030	-0.100
-373.829	-142.900	0.499	-0.048
-372.815	-81.940	-0.124	-0.040
-371.800	132.143	0.266	-0.341
-370.785	-120.085	0.152	-0.026
-369.771	-105.385	-0.263	-0.060
-368.756	-52.191	0.125	0.058
-367.742	-200.000	-0.013	-0.177
-366.727	31.083	0.139	-0.118
-365.712	-25.134	0.535	-0.315
-364.698	-63.856	0.231	0.094
-363.683	-52.562	0.176	0.081
-362.669	-159.891	-0.241	0.013
-361.654	-117.732	0.071	-0.013
-360.639	800.000	-0.062	-0.204
-359.625	180.599	-0.055	0.080
-358.610	-152.263	-0.121	0.009
-357.596	-200.000	-0.035	0.154
-356.581	202.362	0.064	-0.099
-355.566	166.552	0.045	-0.063
-354.552	71.512	-0.032	0.033
-353.537	-200.000	-0.037	0.357
-352.523	-200.000	-0.009	0.067
-351.508	-200.000	-0.058	0.283
-350.493	-181.936	-0.191	0.004
-349.479	23.658	0.184	-0.150
-348.464	800.000	0.038	0.122
-347.450	127.737	-0.255	-0.322
-346.435	-200.000	-0.020	-0.378
-345.420	-61.017	0.317	0.133
-344.406	-114.872	0.349	-0.066
-343.391	-71.567	-0.167	-0.062
-342.377	32.726	-0.152	-0.130
-341.362	159.122	0.312	0.430
-340.348	462.497	0.092	0.204
-339.333	669.977	0.025	-0.063
-338.318	54.959	-0.154	-0.148
-337.304	314.187	0.174	-0.325
-336.289	-43.644	0.126	-0.063
-335.275	392.541	0.095	0.197
-334.260	-166.083	0.449	-0.019
-333.245	366.672	-0.093	-0.187
-332.231	-200.000	0.023	0.106
-331.216	800.000	-0.068	-0.250
-330.202	800.000	0.045	0.134
-329.187	55.356	-0.333	0.320
-328.172	9.432	-0.111	-0.083
-327.158	-60.329	-0.149	0.063
-326.143	159.922	-0.075	-0.104
-325.129	-98.809	-0.277	-0.070
-324.114	111.274	0.096	0.115
-323.099	-127.229	-0.301	-0.044
-322.085	65.122	-0.006	-0.006
-321.070	-137.655	0.202	0.023
-320.056	-64.351	0.306	-0.123
-319.041	-92.080	0.110	0.031
-318.026	-115.590	-0.164	0.030
-317.012	-200.000	-0.032	0.220
-315.997	-200.000	-0.026	0.417
-314.983	21.031	-0.086	-0.069
-313.968	-48.611	0.122	-0.058
-312.953	-81.250	-0.242	-0.079
-311.939	-200.000	-0.052	-0.241
-310.924	-112.602	-0.481	-0.095
-309.910	322.998	0.065	-0.123
-308.895	800.000	0.056	0.180
-307.880	-100.628	-0.269	0.066
-306.866	800.000	-0.019	0.067
-305.851	-200.000	-0.051	-0.234
-304.837	-187.681	0.102	0.001
-303.822	-111.331	-0.219	-0.044
-302.807	-20.158	-0.161	-0.099
-301.793	273.248	0.083	0.146
-300.778	265.202	-0.040	-0.070
-299.764	-84.591	-0.168	-0.052
-298.749	540.698	-0.012	0.028
-297.735	800.000	-0.009	-0.029
-296.720	-59.906	0.206	0.087
-295.705	-166.808	0.328	0.013
-294.691	16.742	-0.344	-0.270
-293.676	-181.390	-0.155	0.003
-292.662	-36.307	0.239	0.128
-291.647	-200.000	-0.025	-0.138
-290.632	-75.926	-0.166	-0.058
-289.618	-200.000	0.156	0.000
-288.603	-32.623	0.096	0.053
-287.589	-110.397	0.059	0.012
-286.574	-193.823	-0.534	0.004
-285.559	-21.159	0.201	-0.122
-284.545	26.006	-0.023	-0.019
-283.530	-178.836	0.259	0.006
-282.516	584.159	-0.189	0.458
-281.501	25.563	0.437	0.360
-280.486	-200.000	-0.001	0.234
-279.472	-200.000	0.017	0.326
-278.457	457.689	0.055	0.121
-277.443	-200.000	-0.013	-0.127
-276.428	-94.255	-0.123	-0.033
-275.413	419.482	0.107	-0.227
-274.399	-200.000	0.055	0.366
-273.384	-200.000	-0.005	-0.178
-272.370	231.969	0.162	0.263
-271.355	800.000	-0.052	0.209
-270.340	84.175	0.121	0.131
-269.326	131.266	-0.110	0.140
-268.311	-200.000	0.023	-0.125
-267.297	-114.189	-0.170	0.032
-266.282	67.160	-0.273	0.275
-265.267	258.698	0.221	0.377
-264.253	-26.757	-0.246	0.142
-263.238	-31.040	0.312	-0.174
-262.224	-165.478	-0.220	-0.010
-261.209	-67.613	0.090	-0.035
-260.195	-85.151	-0.206	0.064
-259.180	-200.000	0.000	0.139
-258.165	-21.673	-0.113	0.068
-257.151	270.309	0.254	0.441
-256.136	-140.278	-0.139	-0.014
-255.122	-200.000	-0.020	-0.117
-254.107	-195.059	-0.276	-0.002
-253.092	-107.316	-0.260	0.057
-252.078	-200.000	0.082	-0.472
-251.063	-67.817	-0.346	0.134
-250.049	93.695	0.057	0.064
-249.034	-102.125	-0.174	0.041
-248.019	449.466	-0.072	-0.156
-247.005	800.000	0.061	0.168
-245.990	-200.000	-0.002	0.317
-244.976	-105.488	0.401	0.090
-243.961	-200.000	0.042	0.208
-242.946	-200.000	-0.031	-0.187
-241.932	-113.118	0.030	0.006
-240.917	-200.000	0.050	0.225
-239.903	-176.840	-0.332	-0.008
-238.888	800.000	-0.047	0.189
-237.873	729.050	-0.050	0.133
-236.859	274.601	0.148	-0.259
-235.844	83.284	0.106	-0.114
-234.830	-86.770	-0.244	0.074
-233.815	-5.964	0.270	0.182
-232.800	-31.756	-0.184	0.102
-231.786	-124.755	0.302	-0.046
-230.771	115.205	0.286	0.345
-229.757	-3.893	0.280	-0.192
-228.742	-200.000	-0.022	-0.221
-227.727	-146.318	-0.273	0.024
-226.713	30.140	-0.020	0.017
-225.698	-193.405	0.276	0.002
-224.684	-200.000	-0.019	-0.149
-223.669	-59.201	0.246	0.105
-222.655	506.022	-0.083	0.190
-221.640	16.478	-0.112	0.088
-220.625	-200.000	-0.006	-0.296
-219.611	-104.619	-0.368	-0.084
-218.596	-200.000	0.038	-0.198
-217.582	-200.000	0.017	0.092
-216.567	625.146	-0.081	-0.203
-215.552	-200.000	0.038	0.358
-214.538	-75.108	-0.263	-0.093
-213.523	-102.556	0.326	0.077
-212.509	-200.000	0.035	-0.180
-211.494	132.751	0.189	0.241
-210.479	-41.312	0.427	-0.217
-209.465	103.961	0.187	-0.216
-208.450	-127.764	0.017	-0.002
-207.436	405.221	-0.169	0.351
-206.421	-200.000	0.031	-0.177
-205.406	-139.184	0.273	0.029
-204.392	-87.203	-0.191	-0.057
-203.377	-102.129	0.187	-0.044
-202.363	-17.175	-0.390	0.242
-201.348	158.653	-0.146	0.200
-200.333	187.297	0.161	-0.237
-199.319	-52.191	-0.092	-0.042
-198.304	114.102	-0.161	-0.193
-197.290	-38.372	-0.098	0.051
-196.275	-3.645	-0.044	0.030
-195.260	-15.627	0.357	0.224
-194.246	-200.000	-0.041	0.337
-193.231	43.014	-0.062	-0.056
-192.217	-200.000	0.158	-0.000
-191.202	-3.186	0.434	0.298
-190.187	800.000	0.061	0.254
-189.173	-200.000	0.010	-0.382
-188.158	-200.000	-0.061	0.286
-187.144	-52.362	-0.152	0.069
-186.129	424.102	-0.044	-0.093
-185.114	-200.000	0.006	-0.301
-184.100	88.741	0.075	-0.082
-183.085	63.892	0.277	-0.274
-182.071	-200.000	0.026	-0.184
-181.056	-200.000	-0.010	-0.249
-180.042	-94.956	0.229	0.061
-179.027	-60.514	-0.050	-0.021
-178.012	287.120	-0.154	0.274
-176.998	325.885	-0.026	-0.048
-175.983	-107.328	0.343	0.074
-174.969	687.545	0.086	0.222
-173.954	243.506	-0.116	0.192
-172.939	-49.626	0.526	0.247
-171.925	-76.139	-0.272	-0.094
-170.910	36.475	-0.193	0.168
-169.896	25.394	-0.218	0.178
-168.881	791.255	0.107	-0.290
-167.866	-200.000	0.042	0.227
-166.852	-200.000	0.053	0.253
-165.837	-200.000	0.002	0.081
-164.823	-41.889	0.254	0.128
-163.808	20.904	-0.183	0.146
-162.793	561.885	-0.099	0.236
-161.779	503.574	0.033	-0.074
-160.764	-200.000	-0.018	-0.233
-159.750	34.577	-0.145	0.125
-158.735	-135.321	0.237	-0.028
-157.720	-200.000	0.034	-0.207
-156.706	800.000	-0.093	0.282
-155.691	28.218	-0.092	-0.077
-154.677	27.761	0.103	-0.085
-153.662	-200.000	0.011	-0.237
-152.647	135.476	0.096	-0.122
-151.633	-43.535	0.120	-0.060
-150.618	385.330	0.023	0.047
-149.604	-31.553	0.273	0.151
-148.589	116.337	-0.142	-0.172
-147.574	26.230	-0.110	0.090
-146.560	-107.181	-0.221	0.048
-145.545	31.375	0.154	-0.130
-144.531	-104.864	-0.226	0.051
-143.516	-95.980	-0.199	0.052
-142.502	-40.224	-0.225	-0.115
-141.487	800.000	0.088	0.309
-140.472	184.323	0.151	0.220
-139.458	-200.000	-0.010	0.449
-138.443	-6.655	-0.159	0.106
-137.429	54.409	-0.146	0.138
-136.414	-82.396	0.175	-0.056
-135.399	-200.000	-0.004	-0.114
-134.385	551.226	0.255	0.601
-133.370	45.300	-0.257	0.233
-132.356	800.000	0.119	-0.334
-131.341	-144.007	0.316	-0.029
-130.326	300.827	0.013	-0.024
-129.312	29.988	-0.170	0.143
-128.297	321.603	0.215	-0.402
-127.283	-133.263	0.514	0.064
-126.268	250.037	0.122	-0.204
-125.253	52.039	0.059	0.055
-124.239	80.924	0.281	0.299
-123.224	-200.000	0.016	0.245
-122.210	-200.000	0.007	-0.205
