DTS Sentinel unit serial number:	SN413079Multiplexer serial number:	ORYXHardware model number:	OX4-SRSoftware version number:	ORYX F/W v4.00 Oryx Data Collector v3.7.2.0data status	okinstallation	princeton_trtdifferential loss correction	single-endedforward channel	channel 2reverse channel	N/Adate	2019/09/18time	14:07:35forward acquisition time	60.00reverse acquisition time	0.00gamma	496.2192k internal	0.2319k external	0.2319temperature offset calibration	0.9996default loss term (dB/km)	0.3790temperature slope calibration	1.0000multiplexer offset coefficient	1.0000multiplexer slope coefficient	1.0000fibre end	0.00T internal ref (°C)	34.44T ext. ref 1 (°C)	0.67T ext. ref 2 (°C)	28.78length (m)	temperature (°C)	Stokes	anti-Stokes-747.200	-104.221	0.228	-0.054
-746.185	-200.000	0.049	0.253
-745.171	-80.028	0.051	0.017
-744.156	-79.933	0.216	0.074
-743.142	-200.000	-0.005	-0.257
-742.127	800.000	-0.140	0.452
-741.112	26.299	0.287	0.243
-740.098	-24.575	0.114	-0.069
-739.083	4.366	0.601	-0.446
-738.069	-200.000	-0.018	0.253
-737.054	-126.824	-0.075	0.011
-736.039	114.308	0.082	0.101
-735.025	-56.797	0.224	-0.100
-734.010	528.783	-0.136	-0.324
-732.996	105.051	0.144	-0.172
-731.981	602.961	-0.110	-0.277
-730.966	-130.497	-0.103	-0.014
-729.952	-147.599	-0.431	-0.037
-728.937	-75.446	0.163	-0.059
-727.923	473.438	-0.040	-0.092
-726.908	528.395	-0.071	0.170
-725.894	4.679	0.301	-0.223
-724.879	148.674	0.086	-0.117
-723.864	283.478	0.051	0.092
-722.850	113.069	-0.081	-0.100
-721.835	12.243	-0.245	-0.191
-720.821	191.778	-0.053	-0.081
-719.806	97.571	0.065	0.075
-718.791	69.088	-0.016	0.017
-717.777	123.360	-0.171	-0.216
-716.762	18.708	-0.188	-0.152
-715.748	-200.000	-0.033	-0.172
-714.733	-86.626	-0.170	-0.053
-713.718	-200.000	0.003	-0.164
-712.704	-200.000	-0.052	-0.367
-711.689	-200.000	-0.043	-0.207
-710.675	221.894	-0.114	-0.184
-709.660	58.833	-0.025	-0.024
-708.645	23.645	0.063	-0.052
-707.631	-87.144	0.255	0.078
-706.616	-77.493	-0.158	-0.055
-705.602	131.738	-0.170	0.221
-704.587	-200.000	-0.007	0.042
-703.572	219.872	0.223	0.360
-702.558	-95.507	0.284	0.077
-701.543	-188.678	0.189	-0.002
-700.529	61.614	0.077	0.077
-699.514	-25.466	0.196	-0.117
-698.499	-9.985	0.086	-0.058
-697.485	-200.000	0.103	-0.471
-696.470	-4.206	-0.097	0.068
-695.456	-200.000	-0.059	-0.272
-694.441	800.000	-0.059	0.176
-693.426	-128.208	-0.215	-0.031
-692.412	75.817	0.247	-0.264
-691.397	-134.076	-0.212	0.026
-690.383	-200.000	0.052	-0.288
-689.368	800.000	0.061	0.268
-688.354	-74.240	-0.311	0.114
-687.339	-23.023	0.150	-0.091
-686.324	-200.000	0.024	0.115
-685.310	-170.631	-0.128	0.004
-684.295	-174.785	0.424	0.012
-683.281	-94.634	-0.213	-0.058
-682.266	60.338	0.259	0.258
-681.251	-200.000	0.029	0.163
-680.237	-75.363	0.132	0.047
-679.222	-52.504	-0.376	-0.175
-678.208	-66.186	-0.326	0.131
-677.193	-101.167	-0.073	0.018
-676.178	492.900	-0.033	0.076
-675.164	-200.000	-0.011	0.216
-674.149	-11.329	-0.133	0.088
-673.135	25.023	0.202	-0.169
-672.120	-30.851	-0.124	0.071
-671.105	800.000	0.029	0.103
-670.091	-200.000	-0.004	-0.091
-669.076	-26.329	-0.206	0.122
-668.062	-48.469	0.385	0.187
-667.047	-200.000	-0.078	0.400
-666.032	-200.000	0.038	0.192
-665.018	-200.000	-0.021	0.127
-664.003	731.848	-0.120	-0.323
-662.989	-200.000	0.033	0.155
-661.974	86.892	0.234	-0.260
-660.959	-200.000	-0.030	0.215
-659.945	-119.891	-0.046	-0.008
-658.930	800.000	0.066	0.198
-657.916	-93.172	0.184	0.052
-656.901	-200.000	-0.040	0.374
-655.886	199.209	0.006	0.009
-654.872	-116.934	0.186	-0.034
-653.857	793.562	-0.140	0.387
-652.843	325.105	0.057	0.109
-651.828	346.401	-0.086	0.171
-650.814	-23.741	-0.173	-0.104
-649.799	-200.000	-0.018	-0.261
-648.784	146.168	0.102	0.139
-647.770	-200.000	-0.060	0.345
-646.755	315.139	0.088	-0.167
-645.741	20.036	-0.085	-0.069
-644.726	-85.859	0.011	-0.003
-643.711	156.149	0.203	-0.282
-642.697	-121.386	-0.121	-0.020
-641.682	166.969	-0.055	-0.079
-640.668	329.049	0.036	-0.069
-639.653	-200.000	-0.011	0.125
-638.638	516.634	0.150	-0.354
-637.624	81.020	-0.186	-0.202
-636.609	418.126	0.049	-0.106
-635.595	800.000	0.108	-0.420
-634.580	-56.170	-0.231	-0.103
-633.565	-145.008	-0.155	-0.014
-632.551	233.342	0.181	-0.299
-631.536	-160.374	0.460	-0.025
-630.522	619.930	-0.120	0.305
-629.507	79.306	0.177	-0.191
-628.492	-104.101	-0.314	0.074
-627.478	-123.685	-0.206	-0.033
-626.463	-200.000	0.040	-0.428
-625.449	-200.000	-0.002	-0.217
-624.434	-200.000	0.011	0.095
-623.419	63.852	-0.227	0.229
-622.405	-92.479	-0.042	-0.012
-621.390	93.313	-0.137	0.156
-620.376	-90.709	0.262	-0.076
-619.361	231.343	0.134	-0.220
-618.346	527.814	-0.052	-0.123
-617.332	-143.098	0.094	0.009
-616.317	-29.460	0.198	0.114
-615.303	261.059	0.080	0.139
-614.288	121.904	0.212	0.266
-613.273	-150.665	-0.191	-0.015
-612.259	-153.846	0.126	0.009
-611.244	288.223	-0.054	0.099
-610.230	6.081	0.061	-0.045
-609.215	36.100	0.052	-0.046
-608.201	-105.580	0.194	-0.044
-607.186	277.105	0.111	-0.199
-606.171	-200.000	-0.001	-0.096
-605.157	291.555	0.104	-0.190
-604.142	-200.000	-0.025	0.161
-603.128	800.000	0.020	-0.063
-602.113	273.804	-0.093	0.165
-601.098	-200.000	0.001	-0.070
-600.084	15.674	0.156	-0.123
-599.069	153.671	0.256	0.353
-598.055	382.521	-0.117	0.241
-597.040	642.308	-0.067	-0.173
-596.025	44.657	-0.047	0.043
-595.011	-200.000	0.004	0.038
-593.996	-200.000	0.030	0.265
-592.982	800.000	-0.062	-0.188
-591.967	-99.127	0.270	0.069
-590.952	20.858	-0.318	0.259
-589.938	614.868	-0.052	-0.130
-588.923	-123.438	-0.346	0.055
-587.909	128.036	0.062	-0.079
-586.894	253.878	0.151	0.259
-585.879	-76.222	0.350	0.124
-584.865	-94.999	0.052	-0.014
-583.850	15.710	0.340	-0.269
-582.836	-123.871	-0.415	-0.066
-581.821	-200.000	0.002	-0.088
-580.806	297.497	0.072	-0.133
-579.792	283.077	0.060	-0.108
-578.777	-38.204	-0.251	-0.134
-577.763	117.071	0.052	0.064
-576.748	-200.000	-0.039	-0.191
-575.733	-40.738	-0.049	-0.026
-574.719	158.602	-0.110	0.153
-573.704	-200.000	-0.000	0.374
-572.690	-11.768	0.192	0.126
-571.675	300.152	0.083	-0.154
-570.661	-200.000	-0.008	0.299
-569.646	800.000	-0.026	-0.072
-568.631	194.333	-0.067	-0.101
-567.617	-118.139	-0.217	0.039
-566.602	800.000	-0.035	0.111
-565.588	-200.000	-0.029	-0.219
-564.573	800.000	-0.014	-0.038
-563.558	-2.418	0.099	0.070
-562.544	-18.760	0.187	-0.117
-561.529	-200.000	-0.015	0.153
-560.515	-56.996	0.300	-0.133
-559.500	-8.970	-0.162	-0.109
-558.485	-137.739	-0.380	0.043
-557.471	-200.000	-0.010	-0.197
-556.456	-71.246	0.254	-0.096
-555.442	-67.398	0.184	0.073
-554.427	-91.554	-0.339	0.097
-553.412	-200.000	0.030	0.262
-552.398	800.000	0.103	0.308
-551.383	-49.852	-0.427	0.203
-550.369	-200.000	0.004	0.166
-549.354	-116.933	0.044	-0.008
-548.339	-138.733	-0.124	0.014
-547.325	-9.880	-0.179	0.120
-546.310	-42.137	-0.322	-0.165
-545.296	-83.137	-0.273	0.088
-544.281	1.521	-0.004	0.003
-543.266	305.461	0.122	-0.227
-542.252	17.630	0.103	0.082
-541.237	132.623	-0.067	-0.087
-540.223	328.544	0.078	-0.150
-539.208	203.249	0.097	-0.150
-538.193	-111.118	0.032	0.007
-537.179	105.089	0.014	-0.016
-536.164	-169.566	-0.282	0.010
-535.150	-134.486	-0.046	-0.006
-534.135	30.140	-0.160	0.137
-533.121	423.655	-0.116	0.250
-532.106	254.623	-0.058	0.100
-531.091	315.935	0.017	-0.032
-530.077	-59.856	-0.336	0.144
-529.062	51.051	0.147	-0.140
-528.048	-93.894	0.176	-0.049
-527.033	-200.000	0.003	-0.380
-526.018	-126.832	-0.344	0.051
-525.004	103.787	-0.062	-0.073
-523.989	800.000	-0.044	0.141
-522.975	52.516	0.073	0.070
-521.960	386.140	-0.131	0.271
-520.945	-164.431	-0.389	-0.018
-519.931	55.862	-0.177	0.172
-518.916	-73.282	0.170	-0.062
-517.902	144.054	-0.108	-0.145
-516.887	486.414	-0.011	-0.025
-515.872	-170.908	0.045	0.002
-514.858	-21.322	-0.106	0.065
-513.843	355.380	-0.030	0.059
-512.829	-89.709	-0.073	-0.022
-511.814	91.735	-0.173	-0.195
-510.799	-145.127	-0.279	0.025
-509.785	-97.191	-0.266	0.070
-508.770	800.000	-0.122	0.348
-507.756	-200.000	0.022	-0.129
-506.741	59.235	-0.115	-0.114
-505.726	128.866	-0.121	-0.155
-504.712	138.688	0.152	0.200
-503.697	-200.000	-0.056	-0.265
-502.683	-60.893	-0.342	-0.145
-501.668	-82.848	-0.238	-0.077
-500.653	25.287	0.269	-0.224
-499.639	657.473	-0.133	-0.343
-498.624	-71.749	-0.223	0.083
-497.610	-200.000	-0.032	-0.348
-496.595	793.833	-0.032	0.087
-495.581	14.973	0.190	0.149
-494.566	-65.677	0.037	-0.015
-493.551	547.520	-0.060	-0.144
-492.537	-1.118	0.273	0.194
-491.522	-74.592	0.650	-0.234
-490.508	-200.000	-0.038	-0.242
-489.493	0.801	-0.047	0.033
-488.478	5.820	-0.197	-0.146
-487.464	91.404	-0.061	-0.069
-486.449	6.792	0.194	0.144
-485.435	-28.891	-0.280	0.161
-484.420	80.980	0.146	0.157
-483.405	-156.022	-0.207	0.013
-482.391	75.640	-0.083	0.088
-481.376	21.031	-0.103	0.083
-480.362	34.926	0.142	-0.124
-479.347	800.000	0.018	-0.066
-478.332	-119.650	-0.229	0.040
-477.318	-200.000	-0.020	0.285
-476.303	166.188	-0.026	-0.036
-475.289	-49.511	0.218	-0.104
-474.274	97.677	0.061	-0.070
-473.259	-122.983	-0.264	0.043
-472.245	-111.411	-0.089	-0.018
-471.230	101.612	0.202	0.235
-470.216	-200.000	0.037	-0.284
-469.201	161.784	0.064	-0.090
-468.186	-116.148	0.046	0.009
-467.172	-12.495	-0.069	-0.045
-466.157	-200.000	0.006	-0.090
-465.143	-200.000	-0.017	0.183
-464.128	-1.425	-0.278	0.196
-463.113	11.328	0.026	-0.020
-462.099	35.175	0.062	-0.054
-461.084	84.291	0.234	-0.256
-460.070	800.000	-0.045	-0.142
-459.055	-112.358	0.137	0.027
-458.040	143.713	-0.072	-0.096
-457.026	-28.636	-0.137	-0.079
-456.011	72.753	0.137	-0.143
-454.997	60.216	0.254	0.251
-453.982	303.739	-0.133	0.247
-452.968	345.948	0.212	0.416
-451.953	-23.687	0.203	0.122
-450.938	-58.015	-0.177	0.077
-449.924	506.921	0.068	-0.157
-448.909	-200.000	-0.011	-0.507
-447.895	-81.789	-0.187	0.061
-446.880	-62.613	-0.106	0.044
-445.865	-112.791	-0.292	-0.058
-444.851	-200.000	0.034	0.210
-443.836	-1.257	-0.122	-0.086
-442.822	-63.405	0.242	-0.100
-441.807	-88.897	0.183	0.054
-440.792	63.188	-0.118	-0.118
-439.778	-51.335	0.323	-0.151
-438.763	164.056	0.048	-0.067
-437.749	-81.945	-0.087	0.028
-436.734	-175.086	0.287	-0.008
-435.719	-93.741	-0.080	-0.022
-434.705	160.271	-0.035	-0.049
-433.690	-44.654	-0.316	0.158
-432.676	-11.803	-0.184	0.121
-431.661	-200.000	0.030	-0.149
-430.646	497.514	-0.082	-0.189
-429.632	370.824	0.075	0.151
-428.617	-103.129	-0.049	0.011
-427.603	-91.621	0.136	0.039
-426.588	146.515	-0.167	0.224
-425.573	14.442	0.110	0.086
-424.559	800.000	0.122	0.391
-423.544	246.068	0.188	-0.317
-422.530	-127.129	0.138	-0.020
-421.515	-106.950	-0.054	-0.012
-420.500	800.000	0.032	-0.111
-419.486	-200.000	0.030	0.182
-418.471	-119.327	0.318	-0.055
-417.457	499.257	-0.087	0.201
-416.442	-44.020	-0.224	0.113
-415.428	-53.820	-0.088	0.040
-414.413	-41.579	-0.064	0.033
-413.398	-55.993	-0.219	-0.098
-412.384	129.003	0.024	0.031
-411.369	-200.000	0.011	-0.172
-410.355	119.616	0.108	0.134
-409.340	800.000	0.034	0.097
-408.325	-200.000	-0.005	0.233
-407.311	-161.256	-0.257	-0.013
-406.296	76.190	-0.038	-0.040
-405.282	-200.000	-0.001	0.011
-404.267	-200.000	-0.026	0.189
-403.252	800.000	0.026	-0.112
-402.238	-148.311	0.097	0.008
-401.223	453.139	0.068	0.150
-400.209	250.661	0.027	0.047
-399.194	-107.889	0.180	0.039
-398.179	266.800	-0.195	-0.341
-397.165	177.127	0.156	-0.227
-396.150	69.705	-0.230	0.237
-395.136	-126.598	-0.188	0.028
-394.121	233.326	0.153	0.250
-393.106	-164.753	-0.163	0.007
-392.092	0.363	0.065	-0.046
-391.077	449.513	-0.068	-0.150
-390.063	800.000	0.045	-0.141
-389.048	228.054	-0.054	-0.088
-388.033	800.000	-0.050	-0.161
-387.019	634.408	-0.088	-0.223
-386.004	758.887	-0.086	-0.232
-384.990	800.000	-0.063	-0.251
-383.975	17.294	0.223	0.176
-382.960	-200.000	0.005	0.069
-381.946	-200.000	0.000	-0.143
-380.931	800.000	0.089	0.304
-379.917	-72.714	-0.076	-0.028
-378.902	-200.000	-0.021	0.197
-377.888	246.607	0.032	-0.054
-376.873	-200.000	0.005	0.055
-375.858	28.548	0.064	0.054
-374.844	-200.000	-0.060	-0.282
-373.829	52.146	-0.074	0.071
-372.815	41.253	-0.239	0.216
-371.800	366.855	0.072	0.145
-370.785	800.000	0.084	-0.317
-369.771	-24.103	0.172	-0.102
-368.756	-50.146	-0.213	0.101
-367.742	-200.000	0.054	-0.362
-366.727	249.596	0.075	-0.128
-365.712	-94.889	-0.041	0.011
-364.698	53.885	-0.096	-0.091
-363.683	558.986	-0.040	-0.096
-362.669	193.733	-0.109	-0.164
-361.654	11.635	-0.203	0.155
-360.639	-65.147	0.142	-0.057
-359.625	286.813	0.135	-0.243
-358.610	-200.000	-0.034	-0.394
-357.596	91.907	0.243	0.272
-356.581	514.247	0.062	0.144
-355.566	-200.000	0.008	-0.084
-354.552	-200.000	0.016	-0.079
-353.537	156.092	0.029	-0.040
-352.523	118.071	0.281	0.345
-351.508	-122.419	0.251	0.041
-350.493	699.086	0.066	-0.172
-349.479	-177.663	0.176	-0.004
-348.464	-200.000	0.040	0.260
-347.450	-200.000	0.004	0.092
-346.435	-133.309	-0.148	-0.019
-345.420	-45.052	0.059	-0.029
-344.406	-126.714	0.355	0.052
-343.391	-43.372	0.117	-0.059
-342.377	-38.782	0.311	0.163
-341.362	-94.116	0.158	0.043
-340.348	-113.584	0.255	0.050
-339.333	8.187	-0.120	-0.090
-338.318	-102.017	0.152	0.036
-337.304	-98.596	0.202	0.051
-336.289	38.771	0.097	-0.086
-335.275	-75.119	0.167	0.059
-334.260	-85.347	0.219	0.068
-333.245	800.000	0.063	0.203
-332.231	800.000	0.020	0.069
-331.216	-200.000	0.020	0.351
-330.202	-199.655	-0.315	-0.002
-329.187	51.598	-0.152	0.143
-328.172	-200.000	-0.000	0.155
-327.158	-5.583	-0.214	0.146
-326.143	-25.314	-0.234	0.138
-325.129	-200.000	-0.021	0.282
-324.114	22.363	0.131	0.107
-323.099	5.709	-0.286	0.210
-322.085	51.841	-0.110	-0.104
-321.070	533.770	-0.063	-0.148
-320.056	62.968	-0.219	0.218
-319.041	-103.994	0.062	0.014
-318.026	-20.576	-0.149	-0.091
-317.012	-64.568	0.128	-0.052
-315.997	-89.440	0.268	0.078
-314.983	-113.782	0.432	-0.084
-313.968	-200.000	-0.035	-0.205
-312.953	-117.542	0.383	-0.069
-311.939	276.305	-0.048	0.084
-310.924	-200.000	0.022	0.111
-309.910	-200.000	-0.024	0.289
-308.895	800.000	-0.077	0.290
-307.880	-170.990	0.325	0.011
-306.866	-20.891	0.185	-0.113
-305.851	-200.000	0.019	0.093
-304.837	-200.000	-0.022	0.217
-303.822	104.841	0.129	-0.151
-302.807	-200.000	0.042	-0.203
-301.793	-16.821	0.209	-0.132
-300.778	359.117	0.188	-0.374
-299.764	481.461	-0.114	-0.258
-298.749	-35.475	-0.215	0.116
-297.735	124.438	0.188	-0.235
-296.720	-111.168	-0.048	0.010
-295.705	187.072	-0.038	-0.056
-294.691	-23.679	-0.062	-0.037
-293.676	800.000	0.072	0.235
-292.662	-81.988	0.093	-0.030
-291.647	77.185	-0.032	0.034
-290.632	-72.289	-0.208	-0.077
-289.618	156.833	0.127	-0.174
-288.603	120.169	-0.056	-0.069
-287.589	-44.993	-0.092	0.046
-286.574	220.051	-0.058	-0.092
-285.559	191.514	-0.160	0.240
-284.545	234.958	-0.044	0.072
-283.530	194.481	-0.143	-0.216
-282.516	-179.045	0.104	-0.002
-281.501	-11.632	0.287	-0.187
-280.486	106.150	-0.177	0.208
-279.472	-200.000	-0.011	-0.124
-278.457	154.748	0.045	0.062
-277.443	-200.000	-0.021	-0.191
-276.428	161.045	-0.105	0.146
-275.413	18.141	-0.314	0.249
-274.399	800.000	0.076	0.208
-273.384	98.715	-0.273	-0.312
-272.370	4.363	0.197	-0.143
-271.355	-200.000	-0.013	0.155
-270.340	26.183	0.067	-0.056
-269.326	116.080	-0.268	-0.326
-268.311	-200.000	0.017	0.242
-267.297	-200.000	-0.045	0.376
-266.282	-200.000	-0.010	0.222
-265.267	34.913	0.064	-0.055
-264.253	-30.249	-0.238	0.134
-263.238	-200.000	0.034	0.166
-262.224	-86.030	-0.060	0.018
-261.209	-104.281	-0.037	-0.009
-260.195	-143.954	-0.226	0.021
-259.180	800.000	-0.076	0.311
-258.165	800.000	-0.064	-0.219
-257.151	800.000	-0.085	0.253
-256.136	-200.000	-0.020	-0.149
-255.122	231.140	-0.098	0.159
-254.107	-122.235	0.358	-0.058
-253.092	-184.104	0.227	0.004
-252.078	637.531	-0.204	-0.515
-251.063	-200.000	-0.031	-0.432
-250.049	-200.000	0.003	-0.155
-249.034	-200.000	-0.007	-0.072
-248.019	-66.808	0.417	-0.164
-247.005	460.314	-0.120	0.265
-245.990	67.588	0.043	-0.043
-244.976	-99.862	-0.111	-0.027
-243.961	-200.000	-0.031	-0.141
-242.946	-60.100	-0.406	-0.172
-241.932	-200.000	0.007	-0.261
-240.917	-81.267	-0.393	-0.129
-239.903	-200.000	0.039	-0.350
-238.888	-200.000	-0.009	-0.047
-237.873	-138.987	0.480	0.052
-236.859	483.316	0.194	0.437
-235.844	-61.790	-0.156	-0.065
-234.830	120.203	-0.238	-0.292
-233.815	-200.000	-0.038	0.304
-232.800	-97.151	0.154	0.040
-231.786	543.991	-0.071	0.168
-230.771	149.497	0.100	-0.134
-229.757	618.175	0.030	0.075
-228.742	800.000	0.050	0.188
-227.727	530.945	-0.109	0.256
-226.713	-78.473	0.029	0.010
-225.698	-182.160	0.378	0.007
-224.684	159.599	0.065	0.090
-223.669	-114.927	0.121	0.023
-222.655	43.279	0.221	-0.200
-221.640	269.099	0.086	0.150
-220.625	-136.535	0.173	0.020
-219.611	668.013	-0.075	0.192
-218.596	164.854	-0.197	-0.275
-217.582	-11.784	0.151	-0.098
-216.567	437.594	0.102	-0.220
-215.552	0.879	-0.047	0.033
-214.538	17.873	0.227	0.179
-213.523	800.000	-0.061	-0.211
-212.509	-59.936	0.062	0.026
-211.494	-200.000	0.006	-0.244
-210.479	37.634	0.082	0.072
-209.465	483.936	0.216	0.486
-208.450	-134.680	0.303	0.037
-207.436	-74.688	-0.279	-0.099
-206.421	313.994	-0.087	0.163
-205.406	289.634	0.043	0.078
-204.392	137.967	-0.043	-0.056
-203.377	-164.710	-0.104	0.005
-202.363	-200.000	-0.011	-0.408
-201.348	-125.610	-0.090	0.014
-200.333	-194.231	0.077	0.001
-199.319	-200.000	-0.001	0.160
-198.304	-82.981	-0.160	0.051
-197.290	-200.000	0.007	0.274
-196.275	-87.185	0.403	0.121
-195.260	-98.636	0.437	0.110
-194.246	14.913	0.151	-0.117
-193.231	-39.723	-0.143	-0.074
-192.217	-116.561	0.292	-0.053
-191.202	-97.091	0.244	-0.063
-190.187	147.333	0.042	0.056
-189.173	-100.750	0.178	-0.043
-188.158	-13.144	-0.005	0.003
-187.144	-200.000	0.011	-0.367
-186.129	-54.405	-0.351	-0.158
-185.114	-200.000	0.051	-0.395
-184.100	-89.015	0.116	-0.034
-183.085	-200.000	0.083	-0.400
-182.071	-200.000	-0.014	-0.137
-181.056	-180.399	-0.308	-0.006
-180.042	365.165	-0.139	0.276
-179.027	-200.000	0.024	0.175
-178.012	800.000	-0.083	0.253
-176.998	-133.451	-0.083	-0.010
-175.983	163.066	-0.114	0.158
-174.969	-131.704	-0.394	-0.051
-173.954	-26.944	0.185	0.107
-172.939	101.342	0.057	-0.066
-171.925	87.255	-0.128	0.141
-170.910	-37.221	0.156	0.082
-169.896	31.432	0.298	0.253
-168.881	-3.642	-0.237	0.163
-167.866	-200.000	0.048	0.456
-166.852	-200.000	0.004	-0.221
-165.837	-38.540	-0.100	0.052
-164.823	73.832	-0.109	0.113
-163.808	-129.052	-0.194	-0.027
-162.793	13.834	0.246	-0.189
-161.779	630.692	-0.052	0.130
-160.764	800.000	0.081	0.343
-159.750	144.864	-0.166	-0.220
-158.735	231.076	-0.216	0.350
-157.720	128.634	-0.060	0.076
-156.706	195.092	-0.069	0.103
-155.691	-200.000	-0.034	0.502
-154.677	390.435	0.132	-0.271
-153.662	-70.220	-0.085	-0.032
-152.647	-200.000	0.001	-0.072
-151.633	-162.153	0.167	-0.008
-150.618	800.000	0.116	0.484
-149.604	295.797	0.042	-0.076
-148.589	-100.126	0.322	0.079
-147.574	-200.000	-0.015	-0.071
-146.560	540.809	0.050	-0.117
-145.545	-62.428	0.127	0.052
-144.531	800.000	-0.063	-0.187
-143.516	-16.393	-0.213	-0.134
-142.502	225.519	-0.160	0.257
-141.487	212.643	0.018	-0.028
-140.472	-200.000	0.006	0.223
-139.458	0.696	0.162	-0.115
-138.443	-111.032	0.237	-0.048
-137.429	-117.256	0.343	0.062
-136.414	84.468	-0.140	0.151
-135.399	322.899	-0.056	-0.105
-134.385	-29.939	-0.082	0.046
-133.370	-34.185	-0.167	0.090
-132.356	189.114	-0.014	0.021
-131.341	-200.000	0.032	-0.343
-130.326	60.153	-0.092	-0.090
-129.312	-198.216	-0.031	0.000
-128.297	73.991	-0.174	0.180
-127.283	267.016	-0.109	-0.189
-126.268	-200.000	0.060	-0.274
-125.253	-200.000	0.030	-0.296
-124.239	27.360	-0.020	0.017
-123.224	525.052	0.033	0.077
-122.210	283.511	0.074	-0.132
