DTS Sentinel unit serial number:	SN413079Multiplexer serial number:	ORYXHardware model number:	OX4-SRSoftware version number:	ORYX F/W v4.00 Oryx Data Collector v3.7.2.0data status	okinstallation	princeton_trtdifferential loss correction	single-endedforward channel	channel 2reverse channel	N/Adate	2019/09/15time	07:27:34forward acquisition time	60.00reverse acquisition time	0.00gamma	496.2192k internal	0.2325k external	0.2325temperature offset calibration	1.0035default loss term (dB/km)	0.3790temperature slope calibration	1.0000multiplexer offset coefficient	1.0000multiplexer slope coefficient	1.0000fibre end	0.00T internal ref (°C)	30.56T ext. ref 1 (°C)	4.89T ext. ref 2 (°C)	25.64length (m)	temperature (°C)	Stokes	anti-Stokes-747.200	-105.283	0.255	-0.059
-746.185	205.637	-0.186	0.292
-745.171	-120.576	-0.114	0.020
-744.156	-92.059	-0.345	0.098
-743.142	800.000	0.065	0.202
-742.127	-81.650	0.154	0.051
-741.112	-118.281	0.429	0.077
-740.098	-128.344	-0.146	-0.021
-739.083	-50.669	-0.165	-0.078
-738.069	67.566	-0.116	0.120
-737.054	211.873	0.169	-0.268
-736.039	17.266	-0.315	-0.253
-735.025	95.138	-0.166	0.191
-734.010	-11.616	0.129	0.086
-732.996	579.451	0.088	0.217
-731.981	-70.053	0.142	0.055
-730.966	-83.205	0.145	0.047
-729.952	-115.223	-0.244	0.047
-728.937	-12.483	-0.217	0.143
-727.923	451.017	0.118	-0.263
-726.908	-93.442	-0.338	-0.094
-725.894	-65.058	-0.346	-0.141
-724.879	-38.551	-0.252	0.134
-723.864	-89.767	-0.222	-0.066
-722.850	800.000	-0.114	-0.350
-721.835	184.918	-0.221	-0.331
-720.821	-200.000	-0.023	-0.143
-719.806	-143.773	-0.173	-0.016
-718.791	102.458	-0.148	-0.175
-717.777	-200.000	-0.026	-0.169
-716.762	-127.961	0.107	-0.015
-715.748	-49.043	-0.217	0.105
-714.733	-72.275	-0.233	0.087
-713.718	-17.512	0.109	-0.069
-712.704	-155.329	0.340	-0.022
-711.689	258.737	0.068	-0.118
-710.675	77.066	-0.207	-0.222
-709.660	-76.172	-0.022	0.008
-708.645	-173.352	-0.184	0.006
-707.631	15.267	-0.169	-0.133
-706.616	800.000	-0.073	0.321
-705.602	-137.863	-0.145	0.016
-704.587	-162.374	0.148	0.007
-703.572	85.184	0.095	0.105
-702.558	257.673	-0.091	0.157
-701.543	-200.000	-0.037	-0.430
-700.529	-200.000	-0.045	-0.291
-699.514	2.587	0.091	0.067
-698.499	-89.171	-0.092	0.027
-697.485	-200.000	-0.042	-0.211
-696.470	-74.084	-0.375	0.137
-695.456	-21.193	0.240	0.148
-694.441	-146.521	-0.071	0.006
-693.426	-10.824	-0.115	0.077
-692.412	59.404	-0.102	-0.102
-691.397	800.000	-0.107	-0.339
-690.383	177.075	-0.086	-0.126
-689.368	557.366	-0.174	-0.421
-688.354	800.000	0.092	-0.326
-687.339	-200.000	0.017	-0.452
-686.324	188.399	0.099	-0.149
-685.310	346.869	0.146	-0.289
-684.295	-72.429	-0.257	-0.096
-683.281	-113.709	0.139	0.027
-682.266	-24.807	0.130	-0.078
-681.251	-111.105	-0.009	0.002
-680.237	81.134	-0.165	0.179
-679.222	224.835	-0.193	-0.313
-678.208	198.084	-0.163	-0.252
-677.193	141.467	0.076	0.101
-676.178	-92.949	0.326	-0.092
-675.164	-62.204	-0.128	-0.054
-674.149	293.073	-0.118	0.217
-673.135	-200.000	0.011	0.170
-672.120	122.999	-0.140	-0.177
-671.105	62.048	-0.123	0.124
-670.091	-88.271	-0.131	0.039
-669.076	185.864	-0.151	-0.226
-668.062	-200.000	-0.091	-0.420
-667.047	122.354	0.056	-0.071
-666.032	-200.000	-0.013	0.250
-665.018	104.450	0.156	-0.184
-664.003	-109.927	0.131	-0.028
-662.989	-147.120	0.212	-0.018
-661.974	-66.786	0.176	-0.070
-660.959	-53.257	-0.252	0.116
-659.945	110.256	-0.191	-0.231
-658.930	-155.680	-0.099	0.006
-657.916	-59.520	0.135	0.058
-656.901	-200.000	0.047	-0.214
-655.886	-144.727	0.435	-0.040
-654.872	277.484	-0.113	0.202
-653.857	460.285	-0.126	-0.283
-652.843	-92.209	0.126	-0.036
-651.828	-76.514	-0.159	-0.056
-650.814	-59.929	0.240	-0.103
-649.799	118.628	-0.284	-0.353
-648.784	-0.895	0.151	-0.107
-647.770	-180.497	0.378	0.008
-646.755	-116.160	0.119	0.022
-645.741	-189.300	-0.212	0.003
-644.726	333.223	0.076	-0.148
-643.711	800.000	0.049	-0.152
-642.697	211.165	-0.113	-0.178
-641.682	114.099	-0.012	0.015
-640.668	-71.581	0.290	0.109
-639.653	-200.000	-0.022	0.220
-638.638	800.000	-0.093	0.388
-637.624	-32.070	0.064	0.036
-636.609	-35.382	0.138	-0.076
-635.595	-93.764	0.378	0.105
-634.580	538.803	0.080	-0.191
-633.565	-8.245	0.220	-0.149
-632.551	-200.000	0.002	-0.354
-631.536	0.004	-0.056	-0.040
-630.522	122.872	0.090	-0.113
-629.507	-63.705	-0.165	-0.068
-628.492	713.849	-0.021	0.055
-627.478	-200.000	-0.020	-0.239
-626.463	-78.604	0.311	0.107
-625.449	157.756	0.201	-0.280
-624.434	-19.719	-0.254	-0.158
-623.419	584.899	0.065	-0.160
-622.405	569.952	0.080	0.196
-621.390	-98.751	0.273	0.070
-620.376	-188.783	-0.073	0.001
-619.361	-124.702	-0.072	0.011
-618.346	-18.491	-0.115	0.072
-617.332	-30.805	-0.173	-0.098
-616.317	-200.000	0.101	-0.502
-615.303	-95.244	0.131	0.035
-614.288	123.776	-0.214	0.269
-613.273	261.320	0.138	0.240
-612.259	81.803	-0.090	0.098
-611.244	-142.769	0.156	-0.015
-610.230	85.824	-0.156	-0.173
-609.215	39.011	0.124	0.111
-608.201	-107.992	-0.101	-0.022
-607.186	-200.000	-0.012	0.187
-606.171	212.505	-0.083	0.132
-605.157	-175.803	0.199	-0.005
-604.142	-142.856	-0.114	0.011
-603.128	11.518	-0.155	0.119
-602.113	-183.542	0.274	-0.005
-601.098	-158.330	0.188	0.011
-600.084	-128.408	0.123	0.018
-599.069	-200.000	0.056	-0.400
-598.055	233.873	-0.220	-0.364
-597.040	770.557	0.047	0.129
-596.025	107.338	-0.180	-0.215
-595.011	-141.986	0.129	-0.013
-593.996	13.488	0.245	-0.190
-592.982	-162.598	-0.177	0.009
-591.967	2.920	0.339	0.247
-590.952	199.614	-0.190	-0.293
-589.938	88.935	-0.135	-0.150
-588.923	105.845	0.148	0.176
-587.909	79.424	-0.139	0.149
-586.894	-67.091	-0.390	-0.154
-585.879	-96.183	-0.108	0.029
-584.865	-16.376	0.182	-0.116
-583.850	-105.332	-0.104	-0.024
-582.836	-200.000	-0.032	0.161
-581.821	288.638	-0.230	-0.418
-580.806	-72.678	-0.033	0.012
-579.792	-200.000	-0.020	-0.172
-578.777	-200.000	-0.026	0.141
-577.763	121.563	0.103	-0.129
-576.748	800.000	-0.048	-0.181
-575.733	-200.000	0.064	0.394
-574.719	-199.124	-0.194	-0.001
-573.704	-200.000	0.004	-0.074
-572.690	388.948	0.107	-0.223
-571.675	622.991	-0.104	-0.262
-570.661	104.143	0.129	-0.152
-569.646	-32.497	-0.048	-0.027
-568.631	-188.339	-0.282	-0.004
-567.617	125.562	-0.135	0.171
-566.602	196.725	-0.065	-0.100
-565.588	-200.000	0.027	0.363
-564.573	284.966	0.124	0.224
-563.558	134.763	0.160	-0.208
-562.544	-9.386	-0.276	0.185
-561.529	-200.000	0.055	0.313
-560.515	-43.725	-0.275	-0.139
-559.500	34.754	-0.162	0.142
-558.485	-34.337	0.043	-0.023
-557.471	160.061	0.024	0.034
-556.456	102.154	0.094	0.110
-555.442	800.000	-0.050	-0.208
-554.427	107.117	0.101	-0.120
-553.412	-65.198	0.228	0.092
-552.398	-172.718	-0.293	-0.009
-551.383	-41.869	-0.076	0.039
-550.369	-120.408	0.389	0.066
-549.354	-200.000	-0.544	0.001
-548.339	184.161	-0.139	-0.207
-547.325	140.581	0.234	0.310
-546.310	-36.984	-0.177	0.095
-545.296	-89.281	-0.366	-0.108
-544.281	-200.000	0.001	-0.244
-543.266	800.000	-0.024	0.102
-542.252	-48.887	0.080	0.039
-541.237	-200.000	-0.007	-0.156
-540.223	-200.000	-0.002	0.075
-539.208	107.732	-0.041	0.048
-538.193	800.000	-0.050	0.168
-537.179	-200.000	0.009	-0.183
-536.164	-200.000	-0.001	-0.131
-535.150	-81.378	0.094	-0.031
-534.135	-200.000	0.011	-0.304
-533.121	-142.619	0.073	-0.007
-532.106	329.729	0.175	0.337
-531.091	-200.000	-0.439	0.001
-530.077	-70.330	-0.041	-0.016
-529.062	-30.924	0.151	0.085
-528.048	-10.440	0.070	-0.046
-527.033	800.000	-0.100	-0.348
-526.018	-67.307	0.381	-0.150
-525.004	-52.925	0.183	0.084
-523.989	82.752	-0.316	-0.343
-522.975	8.423	-0.183	-0.138
-521.960	-161.774	-0.056	-0.003
-520.945	-30.558	-0.099	-0.056
-519.931	19.133	-0.183	0.147
-518.916	737.810	-0.093	0.251
-517.902	15.916	0.120	-0.095
-516.887	-44.816	0.384	0.192
-515.872	235.878	0.179	-0.296
-514.858	800.000	-0.079	0.226
-513.843	-76.642	0.357	-0.125
-512.829	-200.000	0.056	-0.266
-511.814	-94.627	-0.315	0.086
-510.799	-126.553	0.360	0.053
-509.785	260.183	0.069	-0.119
-508.770	254.735	-0.057	0.097
-507.756	-200.000	-0.014	-0.249
-506.741	6.496	0.076	0.056
-505.726	-131.174	-0.141	-0.019
-504.712	-80.514	-0.141	0.047
-503.697	-200.000	-0.007	0.119
-502.683	-183.455	-0.231	-0.004
-501.668	-80.582	0.208	0.069
-500.653	-0.236	-0.145	0.103
-499.639	23.955	0.078	-0.064
-498.624	86.709	0.081	-0.090
-497.610	-17.202	0.192	0.121
-496.595	126.283	-0.215	0.272
-495.581	293.468	0.118	0.215
-494.566	-74.695	0.178	0.064
-493.551	800.000	-0.084	-0.285
-492.537	-110.125	0.105	0.022
-491.522	-169.958	0.179	-0.006
-490.508	127.253	0.262	0.332
-489.493	800.000	0.071	0.268
-488.478	-69.804	0.371	0.141
-487.464	-200.000	0.041	-0.364
-486.449	445.513	-0.164	-0.360
-485.435	489.833	-0.145	0.332
-484.420	100.979	-0.121	-0.140
-483.405	-139.149	0.326	0.035
-482.391	-53.053	0.054	0.025
-481.376	225.394	-0.138	0.222
-480.362	-102.492	-0.430	0.103
-479.347	-200.000	0.038	-0.214
-478.332	-99.179	0.052	0.013
-477.318	-120.347	-0.130	-0.022
-476.303	132.923	0.135	0.174
-475.289	-200.000	-0.052	0.360
-474.274	36.845	-0.133	0.117
-473.259	-192.866	0.310	0.003
-472.245	800.000	-0.174	0.552
-471.230	-28.410	0.109	0.063
-470.216	227.371	-0.069	-0.112
-469.201	-9.869	-0.143	0.095
-468.186	-117.448	-0.240	-0.043
-467.172	-129.223	-0.155	-0.022
-466.157	-200.000	0.071	0.334
-465.143	-86.162	-0.150	0.046
-464.128	-200.000	-0.005	-0.248
-463.113	266.091	0.049	-0.085
-462.099	800.000	0.062	0.221
-461.084	-200.000	0.043	-0.257
-460.070	-109.264	0.266	-0.056
-459.055	42.028	-0.164	-0.148
-458.040	-200.000	0.069	0.333
-457.026	425.798	0.083	0.178
-456.011	48.699	-0.240	-0.225
-454.997	-8.653	0.174	0.116
-453.982	-200.000	0.069	0.368
-452.968	-29.368	0.267	-0.152
-451.953	-200.000	0.005	-0.092
-450.938	-121.688	0.051	-0.008
-449.924	-86.869	0.266	-0.081
-448.909	800.000	-0.100	0.299
-447.895	-164.704	-0.263	-0.012
-446.880	3.929	0.323	0.236
-445.865	186.631	-0.135	0.201
-444.851	513.048	-0.014	-0.032
-443.836	226.954	-0.087	-0.141
-442.822	194.039	-0.138	0.209
-441.807	14.017	0.165	0.128
-440.792	-42.427	-0.231	-0.118
-439.778	-0.297	-0.268	0.190
-438.763	-153.754	0.035	-0.002
-437.749	194.919	-0.288	-0.436
-436.734	359.822	-0.047	-0.093
-435.719	-11.045	-0.290	-0.191
-434.705	-200.000	-0.010	0.125
-433.690	166.095	0.197	0.279
-432.676	114.843	0.182	-0.222
-431.661	355.330	0.064	-0.127
-430.646	30.348	-0.110	0.094
-429.632	-51.051	-0.441	-0.206
-428.617	-200.000	-0.076	-0.337
-427.603	297.246	0.220	-0.402
-426.588	-60.013	-0.105	0.045
-425.573	317.448	-0.106	0.201
-424.559	-96.550	-0.249	-0.066
-423.544	-200.000	-0.048	0.296
-422.530	-160.999	0.295	-0.015
-421.515	246.603	-0.061	-0.102
-420.500	249.987	-0.266	0.449
-419.486	-109.767	0.125	0.026
-418.471	-170.978	0.455	-0.015
-417.457	30.092	0.278	-0.236
-416.442	800.000	0.063	-0.200
-415.428	3.124	-0.043	0.031
-414.413	-67.483	0.075	-0.029
-413.398	-172.782	-0.338	-0.011
-412.384	109.797	0.027	0.032
-411.369	-93.658	-0.069	-0.019
-410.355	800.000	-0.049	-0.173
-409.340	-80.095	-0.163	0.054
-408.325	-134.483	-0.122	-0.015
-407.311	-46.544	-0.239	0.117
-406.296	-149.743	0.190	-0.015
-405.282	-200.000	-0.017	-0.170
-404.267	189.731	-0.182	-0.272
-403.252	-106.704	-0.166	-0.037
-402.238	-4.399	-0.167	-0.115
-401.223	140.445	-0.281	-0.369
-400.209	2.890	-0.104	0.075
-399.194	800.000	-0.054	-0.187
-398.179	43.007	0.175	-0.159
-397.165	-4.716	0.181	-0.124
-396.150	64.604	-0.185	0.186
-395.136	194.435	-0.170	0.257
-394.121	64.911	-0.198	0.199
-393.106	168.312	-0.101	0.143
-392.092	-200.000	-0.001	-0.128
-391.077	268.088	-0.086	0.150
-390.063	800.000	0.029	-0.091
-389.048	6.715	0.274	0.203
-388.033	-15.153	-0.237	0.151
-387.019	252.274	-0.115	0.195
-386.004	131.894	-0.165	0.211
-384.990	-16.668	-0.161	-0.101
-383.975	298.491	0.142	-0.260
-382.960	-200.000	-0.034	-0.214
-381.946	89.721	-0.108	-0.120
-380.931	-136.618	-0.384	-0.044
-379.917	45.559	-0.019	0.017
-378.902	-30.019	0.268	0.152
-377.888	-130.484	-0.446	0.060
-376.873	-76.724	0.295	0.103
-375.858	-0.336	-0.159	-0.112
-374.844	221.799	0.167	-0.267
-373.829	69.327	-0.157	-0.161
-372.815	85.376	-0.103	-0.112
-371.800	513.740	0.199	0.462
-370.785	373.484	-0.086	-0.174
-369.771	210.648	-0.186	-0.290
-368.756	-145.969	0.302	0.027
-367.742	165.010	-0.021	-0.029
-366.727	16.491	0.156	-0.122
-365.712	47.457	0.155	-0.144
-364.698	-116.681	0.197	-0.036
-363.683	264.797	0.008	-0.015
-362.669	-200.000	-0.013	-0.294
-361.654	-200.000	-0.030	0.260
-360.639	-200.000	-0.010	0.067
-359.625	-77.772	0.341	-0.117
-358.610	-200.000	0.000	-0.215
-357.596	-200.000	-0.020	0.202
-356.581	21.895	0.193	0.156
-355.566	61.462	0.161	0.159
-354.552	-200.000	0.005	0.130
-353.537	-45.538	-0.336	0.165
-352.523	-106.024	0.075	0.017
-351.508	176.118	0.154	-0.222
-350.493	-15.674	0.205	0.130
-349.479	48.978	0.181	0.168
-348.464	200.085	-0.182	-0.277
-347.450	68.826	0.114	-0.116
-346.435	800.000	0.086	0.264
-345.420	-71.036	-0.250	0.094
-344.406	719.316	-0.100	0.264
-343.391	-78.175	0.262	-0.090
-342.377	-81.072	-0.257	0.084
-341.362	-1.879	0.371	0.260
-340.348	-62.359	-0.173	-0.072
-339.333	677.418	0.148	-0.383
-338.318	800.000	-0.066	-0.242
-337.304	416.129	-0.102	0.216
-336.289	-200.000	0.011	-0.339
-335.275	-99.976	-0.259	-0.064
-334.260	-200.000	-0.004	0.180
-333.245	54.759	-0.107	0.103
-332.231	-41.171	0.111	0.057
-331.216	-200.000	0.051	0.000
-330.202	137.013	0.068	-0.089
-329.187	800.000	-0.035	-0.151
-328.172	-78.851	0.361	0.122
-327.158	291.220	-0.213	-0.384
-326.143	-106.256	-0.071	-0.016
-325.129	-62.016	0.115	-0.048
-324.114	177.136	0.146	-0.212
-323.099	-200.000	0.039	0.261
-322.085	-200.000	0.077	-0.391
-321.070	-100.812	-0.085	-0.021
-320.056	146.771	-0.130	0.174
-319.041	113.779	-0.177	-0.213
-318.026	-88.707	0.085	-0.025
-317.012	-133.228	-0.221	0.028
-315.997	15.871	-0.133	0.104
-314.983	307.657	0.084	-0.156
-313.968	-107.038	0.273	-0.060
-312.953	510.913	-0.097	-0.224
-311.939	58.581	-0.248	-0.241
-310.924	-200.000	0.005	0.272
-309.910	280.400	0.172	0.306
-308.895	498.319	0.104	0.238
-307.880	-200.000	0.036	-0.165
-306.866	8.860	0.166	-0.124
-305.851	199.175	-0.037	0.056
-304.837	728.766	0.086	-0.229
-303.822	-114.788	0.305	-0.058
-302.807	-157.305	-0.502	0.030
-301.793	-200.000	-0.013	0.249
-300.778	110.624	0.072	0.086
-299.764	-200.000	0.040	0.260
-298.749	800.000	-0.063	0.187
-297.735	1.912	-0.164	-0.117
-296.720	-167.876	0.042	0.002
-295.705	-24.105	0.059	-0.035
-294.691	-200.000	0.041	0.242
-293.676	-106.443	0.093	-0.021
-292.662	87.778	-0.124	0.137
-291.647	105.025	-0.053	-0.062
-290.632	36.520	-0.125	-0.109
-289.618	-59.020	0.076	-0.032
-288.603	-122.612	0.340	0.055
-287.589	-16.930	0.307	-0.192
-286.574	-27.283	0.030	0.017
-285.559	-171.966	-0.248	-0.008
-284.545	-45.899	-0.433	0.212
-283.530	11.598	0.217	0.165
-282.516	-15.893	0.275	0.173
-281.501	-200.000	-0.051	-0.353
-280.486	36.718	0.201	0.176
-279.472	-119.719	-0.127	-0.022
-278.457	-200.000	-0.040	0.258
-277.443	-77.032	-0.373	0.129
-276.428	-152.881	-0.148	-0.010
-275.413	-200.000	-0.001	0.250
-274.399	153.660	-0.115	-0.156
-273.384	-144.359	0.383	0.035
-272.370	-110.402	-0.249	0.051
-271.355	-67.733	-0.120	-0.046
-270.340	-26.820	0.152	0.088
-269.326	-69.153	-0.325	-0.124
-268.311	474.784	-0.093	-0.209
-267.297	53.316	-0.156	-0.148
-266.282	40.872	-0.051	-0.045
-265.267	131.615	0.120	0.153
-264.253	-200.000	-0.006	0.027
-263.238	305.347	0.092	0.169
-262.224	77.993	0.221	-0.234
-261.209	-141.856	0.434	0.043
-260.195	18.399	-0.301	0.238
-259.180	23.672	-0.154	0.125
-258.165	66.698	0.209	0.210
-257.151	7.456	0.064	-0.047
-256.136	280.503	-0.135	-0.240
-255.122	-200.000	0.000	-0.022
-254.107	-126.060	0.238	0.035
-253.092	-150.491	0.459	0.035
-252.078	375.898	-0.071	0.144
-251.063	212.916	0.176	0.275
-250.049	162.990	0.065	0.090
-249.034	-21.002	0.282	-0.171
-248.019	-200.000	0.040	-0.344
-247.005	24.753	0.286	0.234
-245.990	-37.784	0.277	0.146
-244.976	156.159	0.123	-0.168
-243.961	52.750	-0.233	-0.221
-242.946	-54.755	-0.105	-0.047
-241.932	212.880	0.111	-0.173
-240.917	-187.768	-0.468	-0.006
-239.903	-101.577	0.297	0.071
-238.888	-3.066	0.263	0.182
-237.873	-40.494	-0.079	0.040
-236.859	36.465	0.335	-0.293
-235.844	265.431	-0.032	-0.055
-234.830	-200.000	-0.013	-0.343
-233.815	-59.653	-0.041	0.017
-232.800	-200.000	0.009	-0.221
-231.786	800.000	0.131	-0.420
-230.771	468.417	-0.090	-0.200
-229.757	184.071	-0.164	0.240
-228.742	21.736	-0.029	-0.024
-227.727	-200.000	-0.039	0.175
-226.713	-200.000	-0.047	-0.252
-225.698	-59.913	0.195	0.082
-224.684	-200.000	0.005	-0.074
-223.669	193.867	0.180	0.269
-222.655	2.771	-0.097	0.070
-221.640	-200.000	-0.010	-0.326
-220.625	-154.661	0.129	0.008
-219.611	363.511	-0.041	-0.082
-218.596	-200.000	-0.037	0.307
-217.582	-200.000	-0.044	0.288
-216.567	-167.902	-0.206	0.008
-215.552	-200.000	-0.076	0.339
-214.538	247.682	0.138	0.231
-213.523	8.544	-0.193	-0.144
-212.509	123.584	0.086	0.107
-211.494	-200.000	-0.011	0.128
-210.479	521.707	0.078	0.182
-209.465	466.820	0.147	0.326
-208.450	-141.885	-0.060	0.006
-207.436	-67.518	0.284	0.110
-206.421	-134.203	0.369	-0.045
-205.406	-83.566	-0.115	-0.036
-204.392	-200.000	0.019	0.095
-203.377	93.726	0.053	-0.059
-202.363	636.334	0.193	-0.484
-201.348	26.687	-0.038	-0.031
-200.333	-89.025	-0.169	-0.050
-199.319	-200.000	-0.030	0.343
-198.304	-167.398	-0.456	-0.018
-197.290	-116.861	-0.248	0.045
-196.275	-134.778	-0.072	-0.009
-195.260	-128.903	-0.134	-0.019
-194.246	188.136	0.165	0.243
-193.231	306.309	-0.172	0.315
-192.217	-35.441	-0.270	0.145
-191.202	-10.893	-0.223	0.145
-190.187	21.718	0.068	-0.055
-189.173	181.089	0.018	0.026
-188.158	161.678	-0.023	-0.031
-187.144	301.223	0.182	0.333
-186.129	-200.000	0.021	0.707
-185.114	0.617	-0.099	0.070
-184.100	209.828	0.077	0.120
-183.085	800.000	0.037	-0.114
-182.071	-200.000	0.011	0.297
-181.056	-200.000	-0.022	0.138
-180.042	-98.323	-0.305	-0.077
-179.027	87.804	0.265	-0.290
-178.012	800.000	0.148	0.484
-176.998	-48.656	-0.337	-0.160
-175.983	677.624	0.071	-0.181
-174.969	-125.106	-0.193	-0.029
-173.954	304.328	-0.191	-0.350
-172.939	-105.432	0.227	-0.051
-171.925	-144.349	0.204	0.019
-170.910	-137.397	0.173	-0.019
-169.896	61.103	0.252	-0.247
-168.881	103.092	0.094	-0.108
-167.866	-78.354	0.032	-0.011
-166.852	266.234	0.084	0.144
-165.837	55.931	0.208	0.199
-164.823	-200.000	-0.007	0.321
-163.808	3.043	0.079	-0.057
-162.793	-163.572	-0.308	0.014
-161.779	230.211	0.129	-0.208
-160.764	791.303	-0.033	-0.091
-159.750	459.292	-0.062	0.136
-158.735	528.444	-0.086	-0.201
-157.720	-3.177	-0.230	0.158
-156.706	-200.000	0.005	0.084
-155.691	554.871	0.182	-0.431
-154.677	54.671	0.123	-0.117
-153.662	-122.446	-0.338	0.054
-152.647	252.432	-0.115	-0.192
-151.633	-45.675	0.219	0.107
-150.618	171.201	0.071	-0.101
-149.604	-200.000	-0.030	0.187
-148.589	218.661	0.078	0.123
-147.574	1.722	0.041	0.029
-146.560	-91.324	-0.350	-0.099
-145.545	-105.031	-0.085	-0.019
-144.531	-200.000	-0.038	0.169
-143.516	-65.164	-0.225	-0.089
-142.502	219.586	-0.096	-0.151
-141.487	-8.934	0.459	0.303
-140.472	54.971	0.140	-0.133
-139.458	87.387	0.130	-0.142
-138.443	-188.843	0.124	-0.001
-137.429	126.576	-0.236	0.295
-136.414	227.791	-0.113	0.182
-135.399	190.969	-0.026	-0.038
-134.385	283.224	-0.069	0.122
-133.370	-153.392	0.162	0.011
-132.356	170.289	0.099	-0.140
-131.341	454.277	0.065	-0.142
-130.326	-4.767	-0.175	0.119
-129.312	-200.000	-0.005	0.172
-128.297	-144.629	0.255	0.023
-127.283	-72.436	0.159	-0.058
-126.268	11.979	0.143	0.108
-125.253	141.256	-0.181	0.236
-124.239	149.775	0.072	0.096
-123.224	-111.420	0.182	-0.036
-122.210	-36.221	0.299	-0.159
