DTS Sentinel unit serial number:	SN413079Multiplexer serial number:	ORYXHardware model number:	OX4-SRSoftware version number:	ORYX F/W v4.00 Oryx Data Collector v3.7.2.0data status	okinstallation	princeton_trtdifferential loss correction	single-endedforward channel	channel 2reverse channel	N/Adate	2019/09/19time	08:55:35forward acquisition time	60.00reverse acquisition time	0.00gamma	496.2192k internal	0.2353k external	0.2353temperature offset calibration	1.0003default loss term (dB/km)	0.3790temperature slope calibration	1.0000multiplexer offset coefficient	1.0000multiplexer slope coefficient	1.0000fibre end	0.00T internal ref (°C)	21.33T ext. ref 1 (°C)	0.59T ext. ref 2 (°C)	17.27length (m)	temperature (°C)	Stokes	anti-Stokes-747.200	77.497	0.117	-0.124
-746.185	-200.000	0.033	0.453
-745.171	800.000	-0.047	0.178
-744.156	-4.175	0.121	0.084
-743.142	17.216	-0.097	-0.077
-742.127	134.725	-0.072	0.093
-741.112	-135.118	0.100	0.012
-740.098	100.722	-0.181	0.210
-739.083	-137.481	-0.109	0.012
-738.069	-200.000	-0.015	0.128
-737.054	-64.742	0.179	-0.072
-736.039	-23.194	-0.492	0.295
-735.025	800.000	-0.079	0.218
-734.010	604.075	-0.039	0.097
-732.996	377.406	-0.159	-0.325
-731.981	150.312	-0.238	-0.322
-730.966	-200.000	-0.014	-0.060
-729.952	-120.880	-0.313	0.053
-728.937	800.000	-0.020	0.083
-727.923	-200.000	-0.042	-0.296
-726.908	-200.000	-0.046	0.270
-725.894	-1.727	0.193	-0.136
-724.879	-200.000	0.035	-0.326
-723.864	-192.966	-0.397	0.004
-722.850	521.815	0.072	-0.169
-721.835	-159.797	-0.230	-0.013
-720.821	-200.000	0.007	-0.345
-719.806	114.229	-0.147	-0.179
-718.791	-139.207	-0.191	-0.020
-717.777	-200.000	-0.023	0.107
-716.762	800.000	-0.093	0.277
-715.748	34.210	0.157	-0.136
-714.733	800.000	-0.070	-0.296
-713.718	191.833	-0.232	-0.348
-712.704	-200.000	-0.008	-0.060
-711.689	40.987	-0.089	0.080
-710.675	74.886	-0.167	-0.175
-709.660	-134.972	0.089	-0.011
-708.645	-200.000	-0.001	-0.218
-707.631	-200.000	0.036	0.192
-706.616	-200.000	0.025	-0.461
-705.602	-99.777	-0.325	-0.081
-704.587	800.000	0.073	-0.212
-703.572	-141.540	0.317	0.032
-702.558	90.577	0.062	-0.069
-701.543	313.051	0.130	0.244
-700.529	-76.398	0.075	0.026
-699.514	-19.901	-0.029	-0.018
-698.499	-76.281	0.077	-0.027
-697.485	800.000	-0.031	0.093
-696.470	401.370	0.155	-0.323
-695.456	73.143	0.232	0.241
-694.441	-53.725	-0.292	-0.133
-693.426	-111.001	-0.256	-0.052
-692.412	-200.000	0.048	-0.226
-691.397	403.035	-0.105	-0.219
-690.383	29.992	-0.060	-0.051
-689.368	-200.000	0.017	0.142
-688.354	-200.000	-0.010	0.050
-687.339	119.408	-0.051	-0.062
-686.324	46.722	-0.207	0.192
-685.310	86.911	-0.064	0.071
-684.295	791.941	0.060	-0.165
-683.281	-185.537	-0.167	-0.003
-682.266	-10.495	0.284	0.187
-681.251	644.669	0.039	0.100
-680.237	800.000	-0.061	0.242
-679.222	-115.138	-0.164	-0.031
-678.208	-112.371	0.163	0.032
-677.193	250.555	-0.084	-0.142
-676.178	-26.798	0.078	0.045
-675.164	-38.375	-0.196	0.103
-674.149	-24.506	0.170	-0.101
-673.135	-29.003	0.039	0.022
-672.120	-134.481	0.421	-0.051
-671.105	624.438	-0.078	0.197
-670.091	-109.300	0.280	-0.059
-669.076	50.557	-0.200	0.188
-668.062	129.415	-0.069	0.088
-667.047	-185.907	-0.211	0.003
-666.032	-53.894	0.179	-0.081
-665.018	-58.720	0.363	-0.156
-664.003	-40.924	0.001	-0.000
-662.989	325.620	0.025	0.047
-661.974	106.365	0.184	0.216
-660.959	259.236	-0.224	0.385
-659.945	182.683	0.071	-0.104
-658.930	287.209	0.054	0.096
-657.916	-200.000	-0.004	-0.208
-656.901	-200.000	0.030	-0.236
-655.886	-197.769	-0.150	0.001
-654.872	126.406	-0.133	-0.167
-653.857	-200.000	0.015	0.151
-652.843	57.486	0.165	0.161
-651.828	181.854	-0.078	-0.113
-650.814	90.843	0.076	-0.085
-649.799	-141.493	-0.284	0.029
-648.784	800.000	0.104	-0.288
-647.770	-76.280	-0.341	0.119
-646.755	-56.457	-0.162	0.071
-645.741	-55.397	-0.273	0.122
-644.726	-200.000	0.008	0.145
-643.711	484.089	0.109	-0.246
-642.697	-62.765	-0.040	-0.017
-641.682	-200.000	0.015	0.280
-640.668	-21.173	0.085	0.051
-639.653	-57.863	-0.256	0.111
-638.638	1.488	0.147	-0.105
-637.624	298.802	-0.141	-0.258
-636.609	84.520	-0.120	0.130
-635.595	-33.928	-0.079	-0.043
-634.580	-118.772	-0.212	-0.037
-633.565	800.000	0.061	-0.210
-632.551	-45.943	-0.110	-0.054
-631.536	15.410	0.051	0.040
-630.522	46.324	0.033	0.030
-629.507	165.322	0.226	0.318
-628.492	-30.025	-0.173	-0.098
-627.478	-63.926	-0.237	0.096
-626.463	800.000	-0.017	0.069
-625.449	-73.298	0.265	0.096
-624.434	-24.239	0.074	-0.044
-623.419	18.453	-0.048	-0.038
-622.405	-47.072	0.051	0.025
-621.390	-200.000	0.048	0.270
-620.376	3.114	0.098	0.071
-619.361	-192.983	-0.318	0.003
-618.346	-62.359	-0.265	-0.110
-617.332	425.764	0.190	0.405
-616.317	-58.749	0.369	-0.158
-615.303	123.231	-0.423	-0.526
-614.288	236.109	0.036	0.059
-613.273	-31.667	0.238	-0.132
-612.259	31.141	0.177	-0.151
-611.244	-5.306	-0.036	0.024
-610.230	-59.040	-0.191	0.082
-609.215	800.000	-0.036	-0.118
-608.201	360.325	-0.138	-0.274
-607.186	101.646	-0.129	-0.149
-606.171	127.050	0.177	-0.223
-605.157	-200.000	0.030	-0.284
-604.142	483.807	-0.057	-0.128
-603.128	-3.266	0.217	0.150
-602.113	420.356	0.186	-0.394
-601.098	-84.471	-0.277	0.087
-600.084	-27.587	0.181	-0.104
-599.069	96.919	-0.223	-0.253
-598.055	-130.430	0.283	0.038
-597.040	-120.452	-0.426	-0.072
-596.025	-88.606	-0.111	0.033
-595.011	800.000	0.075	-0.209
-593.996	-200.000	0.007	0.060
-592.982	415.012	-0.185	-0.391
-591.967	800.000	0.038	0.164
-590.952	68.384	-0.083	0.084
-589.938	53.212	0.190	-0.180
-588.923	-200.000	0.010	-0.071
-587.909	46.385	0.346	-0.318
-586.894	63.625	0.112	-0.112
-585.879	140.755	-0.247	-0.323
-584.865	-81.230	0.040	-0.013
-583.850	93.587	-0.079	0.088
-582.836	8.597	0.056	0.042
-581.821	-148.434	-0.108	0.009
-580.806	800.000	0.127	-0.384
-579.792	691.374	-0.068	0.178
-578.777	10.494	0.121	-0.091
-577.763	13.316	0.137	0.105
-576.748	-113.896	-0.259	0.050
-575.733	-83.797	-0.232	0.073
-574.719	-58.463	0.170	-0.073
-573.704	-144.245	-0.090	-0.008
-572.690	-116.368	-0.101	0.018
-571.675	149.654	-0.183	-0.246
-570.661	406.944	-0.146	-0.305
-569.646	-95.045	0.229	0.061
-568.631	-18.696	-0.062	-0.038
-567.617	800.000	-0.076	0.278
-566.602	-10.189	-0.340	-0.224
-565.588	-40.825	0.261	0.134
-564.573	-200.000	-0.047	0.257
-563.558	264.763	0.221	-0.381
-562.544	800.000	-0.021	-0.080
-561.529	18.825	-0.041	-0.033
-560.515	-32.401	-0.410	-0.226
-559.500	-101.401	-0.090	0.022
-558.485	-170.970	0.343	0.012
-557.471	-200.000	-0.012	0.241
-556.456	-39.985	-0.190	0.098
-555.442	-200.000	0.011	0.107
-554.427	-200.000	0.004	0.039
-553.412	-153.034	-0.243	0.017
-552.398	-57.634	-0.070	0.030
-551.383	-200.000	-0.011	0.120
-550.369	273.434	-0.245	-0.428
-549.354	562.679	-0.126	-0.302
-548.339	156.236	-0.107	-0.146
-547.325	100.534	0.013	0.015
-546.310	434.282	-0.089	-0.191
-545.296	-105.998	0.217	0.048
-544.281	-34.177	-0.249	-0.135
-543.266	139.055	-0.092	-0.120
-542.252	184.108	0.124	-0.181
-541.237	-200.000	0.020	0.218
-540.223	-85.837	0.169	-0.052
-539.208	117.502	0.119	0.144
-538.193	-200.000	-0.064	0.382
-537.179	-55.027	-0.187	-0.083
-536.164	-200.000	0.022	-0.119
-535.150	-200.000	-0.004	-0.034
-534.135	-9.124	0.250	-0.166
-533.121	619.872	0.088	-0.218
-532.106	360.190	-0.083	-0.164
-531.091	-117.699	-0.278	0.050
-530.077	-113.114	0.043	-0.008
-529.062	171.237	0.111	0.158
-528.048	766.321	-0.054	-0.144
-527.033	143.490	0.077	0.101
-526.018	-33.282	-0.244	-0.134
-525.004	714.392	-0.045	0.119
-523.989	800.000	-0.004	-0.019
-522.975	217.872	0.032	-0.050
-521.960	-2.708	-0.169	-0.117
-520.945	-168.693	0.261	0.010
-519.931	243.316	-0.088	-0.147
-518.916	-200.000	0.017	-0.313
-517.902	-107.227	0.437	0.095
-516.887	82.688	-0.102	0.110
-515.872	-200.000	-0.044	-0.234
-514.858	-133.030	0.168	0.021
-513.843	35.915	0.183	0.159
-512.829	-200.000	-0.098	0.000
-511.814	-161.103	-0.132	-0.007
-510.799	55.472	-0.127	0.121
-509.785	41.638	0.183	-0.164
-508.770	-145.213	0.174	0.016
-507.756	-200.000	-0.003	-0.196
-506.741	-4.638	-0.474	-0.323
-505.726	-200.000	-0.087	-0.386
-504.712	800.000	-0.041	0.128
-503.697	800.000	0.018	-0.055
-502.683	283.383	-0.096	-0.171
-501.668	293.323	-0.066	0.120
-500.653	396.512	0.091	0.188
-499.639	106.630	-0.184	0.216
-498.624	-133.513	-0.296	0.037
-497.610	-200.000	-0.068	-0.342
-496.595	127.014	-0.158	-0.197
-495.581	320.969	-0.089	-0.166
-494.566	-78.867	0.178	0.060
-493.551	-61.549	0.229	-0.095
-492.537	-34.734	-0.145	-0.078
-491.522	117.329	0.024	-0.029
-490.508	495.685	-0.222	-0.505
-489.493	11.398	0.085	-0.064
-488.478	-200.000	-0.017	0.086
-487.464	800.000	0.008	0.024
-486.449	122.388	-0.204	0.251
-485.435	800.000	0.037	-0.124
-484.420	800.000	0.040	0.169
-483.405	-81.463	-0.184	-0.060
-482.391	-200.000	0.000	0.094
-481.376	-77.619	0.102	0.035
-480.362	-89.548	-0.277	-0.080
-479.347	-88.347	0.172	0.051
-478.332	800.000	0.048	-0.167
-477.318	128.067	-0.082	-0.103
-476.303	800.000	0.047	-0.186
-475.289	800.000	-0.032	-0.137
-474.274	-57.153	-0.294	-0.128
-473.259	90.923	0.102	-0.113
-472.245	-46.105	0.231	0.112
-471.230	-21.707	-0.316	0.190
-470.216	-22.561	0.153	-0.091
-469.201	-200.000	-0.001	0.310
-468.186	94.438	0.194	-0.217
-467.172	108.552	0.280	-0.329
-466.157	366.692	-0.126	0.251
-465.143	748.748	0.099	0.262
-464.128	-200.000	-0.013	0.103
-463.113	-200.000	-0.001	-0.029
-462.099	162.048	-0.294	-0.406
-461.084	-200.000	0.001	0.076
-460.070	-67.502	0.312	0.121
-459.055	-11.780	0.072	0.046
-458.040	13.302	-0.320	0.244
-457.026	-76.626	0.061	0.021
-456.011	-200.000	0.063	-0.344
-454.997	148.251	0.089	0.118
-453.982	-53.215	-0.263	0.119
-452.968	19.421	0.341	-0.270
-451.953	-200.000	0.008	-0.070
-450.938	-20.917	-0.222	0.134
-449.924	267.878	0.180	-0.311
-448.909	297.222	-0.090	-0.163
-447.895	15.241	0.408	0.315
-446.880	-54.458	-0.252	0.112
-445.865	-164.800	0.235	-0.010
-444.851	-200.000	-0.120	-0.567
-443.836	800.000	-0.027	-0.101
-442.822	-7.284	-0.262	-0.175
-441.807	-135.792	0.325	0.038
-440.792	47.541	0.113	0.104
-439.778	-78.091	0.333	0.113
-438.763	686.088	0.130	-0.335
-437.749	-68.781	-0.239	-0.091
-436.734	658.175	0.106	0.270
-435.719	-145.821	0.278	-0.024
-434.705	60.507	0.199	-0.194
-433.690	-151.290	-0.204	-0.015
-432.676	-22.719	-0.480	-0.286
-431.661	549.211	-0.077	0.181
-430.646	731.805	0.080	0.211
-429.632	100.584	-0.273	-0.312
-428.617	-56.248	-0.119	-0.052
-427.603	-84.992	-0.071	0.022
-426.588	-200.000	0.006	0.178
-425.573	-77.670	-0.361	0.123
-424.559	800.000	-0.114	0.424
-423.544	291.262	-0.081	0.144
-422.530	341.047	-0.167	-0.322
-421.515	394.484	0.105	0.215
-420.500	502.294	0.094	-0.213
-419.486	-200.000	0.019	-0.129
-418.471	382.354	-0.150	0.303
-417.457	800.000	-0.110	0.350
-416.442	279.579	0.093	0.163
-415.428	-200.000	0.028	0.430
-414.413	-55.854	0.157	0.069
-413.398	-1.304	-0.215	0.150
-412.384	-133.716	0.204	-0.025
-411.369	-189.928	-0.428	0.005
-410.355	-6.964	0.223	-0.149
-409.340	800.000	-0.047	0.146
-408.325	-87.697	0.144	-0.043
-407.311	-82.315	-0.294	-0.094
-406.296	425.287	-0.011	0.023
-405.282	-53.603	-0.074	-0.033
-404.267	52.277	-0.140	0.132
-403.252	800.000	0.083	0.349
-402.238	-200.000	-0.038	0.355
-401.223	-13.618	-0.312	-0.199
-400.209	13.336	0.166	-0.127
-399.194	595.688	-0.040	-0.098
-398.179	98.869	0.089	0.101
-397.165	-94.493	0.140	0.038
-396.150	-126.167	0.075	0.011
-395.136	-53.844	0.181	0.081
-394.121	-62.662	0.254	0.103
-393.106	800.000	-0.047	0.154
-392.092	-149.412	0.211	0.016
-391.077	-38.847	-0.295	-0.153
-390.063	48.946	-0.215	-0.199
-389.048	255.715	-0.086	0.145
-388.033	4.832	-0.092	-0.066
-387.019	-200.000	-0.331	-0.000
-386.004	-161.690	0.266	0.013
-384.990	74.588	0.193	-0.199
-383.975	-22.013	-0.315	0.188
-382.960	-29.602	0.127	0.071
-381.946	-113.055	0.254	-0.049
-380.931	341.150	-0.154	-0.295
-379.917	123.440	-0.203	-0.250
-378.902	800.000	0.054	0.217
-377.888	-44.137	0.132	-0.065
-376.873	-68.894	-0.315	0.119
-375.858	-200.000	0.093	0.527
-374.844	-19.348	-0.449	0.274
-373.829	-200.000	0.024	-0.168
-372.815	-200.000	0.032	-0.170
-371.800	800.000	0.126	-0.346
-370.785	-59.906	0.354	-0.149
-369.771	-200.000	-0.016	-0.236
-368.756	-119.626	0.366	-0.062
-367.742	800.000	0.144	0.445
-366.727	-120.208	-0.393	0.066
-365.712	-82.910	-0.085	0.027
-364.698	800.000	0.047	0.150
-363.683	80.062	0.088	0.093
-362.669	-36.958	-0.161	-0.085
-361.654	-200.000	0.000	-0.144
-360.639	157.810	-0.201	0.274
-359.625	-77.457	0.315	-0.107
-358.610	-102.872	-0.221	0.052
-357.596	-116.536	0.266	-0.048
-356.581	-77.068	-0.079	0.027
-355.566	-130.665	0.084	0.011
-354.552	101.350	0.127	-0.146
-353.537	234.378	-0.125	0.203
-352.523	317.845	0.023	0.042
-351.508	-200.000	0.011	-0.051
-350.493	-200.000	-0.053	0.229
-349.479	-200.000	0.030	-0.223
-348.464	-83.461	0.230	-0.072
-347.450	-164.227	0.112	0.005
-346.435	-121.077	0.362	0.060
-345.420	-166.852	0.161	-0.007
-344.406	65.981	0.130	0.129
-343.391	664.118	-0.141	0.358
-342.377	416.429	0.111	-0.232
-341.362	155.247	0.047	0.063
-340.348	800.000	0.032	0.113
-339.333	254.713	-0.148	0.248
-338.318	-29.919	0.343	-0.192
-337.304	-200.000	0.007	0.261
-336.289	800.000	0.069	0.285
-335.275	-200.000	-0.045	0.293
-334.260	-136.518	-0.224	0.026
-333.245	411.992	0.086	-0.179
-332.231	-47.907	0.215	0.102
-331.216	-84.481	-0.032	0.010
-330.202	800.000	-0.047	0.183
-329.187	206.171	0.011	0.016
-328.172	-200.000	0.023	-0.181
-327.158	800.000	0.028	0.114
-326.143	63.019	-0.219	-0.215
-325.129	547.665	-0.061	-0.143
-324.114	-200.000	-0.025	0.279
-323.099	-106.339	-0.307	0.067
-322.085	-43.073	0.179	-0.089
-321.070	-99.656	-0.382	-0.094
-320.056	258.321	0.123	-0.209
-319.041	4.979	0.022	0.016
-318.026	-200.000	0.009	-0.111
-317.012	287.855	-0.132	0.234
-315.997	-71.899	-0.198	0.072
-314.983	126.980	-0.169	-0.210
-313.968	89.973	-0.191	-0.209
-312.953	66.799	-0.013	0.013
-311.939	-200.000	-0.056	0.330
-310.924	-20.019	-0.091	-0.055
-309.910	781.143	-0.046	-0.124
-308.895	-98.169	0.121	0.031
-307.880	447.118	0.103	0.222
-306.866	484.566	0.027	0.060
-305.851	-33.611	-0.359	-0.194
-304.837	-68.645	0.030	-0.011
-303.822	-97.073	-0.195	-0.050
-302.807	-122.432	0.291	-0.046
-301.793	-107.739	-0.087	0.019
-300.778	65.823	0.326	0.324
-299.764	586.861	0.047	-0.114
-298.749	110.416	-0.075	-0.088
-297.735	-200.000	0.010	-0.334
-296.720	-128.992	0.063	0.009
-295.705	-200.000	-0.011	-0.181
-294.691	614.002	-0.079	0.193
-293.676	66.195	0.380	-0.378
-292.662	132.607	-0.078	-0.099
-291.647	-66.181	-0.287	-0.112
-290.632	133.779	-0.035	0.045
-289.618	184.935	-0.078	0.114
-288.603	30.589	0.131	0.110
-287.589	-8.845	-0.022	0.015
-286.574	-87.623	0.218	0.065
-285.559	-200.000	0.023	-0.128
-284.545	800.000	0.094	0.292
-283.530	138.003	-0.080	0.103
-282.516	-200.000	-0.005	0.142
-281.501	-95.718	0.284	0.074
-280.486	-200.000	-0.017	0.263
-279.472	56.413	-0.124	0.118
-278.457	-200.000	0.040	0.232
-277.443	-200.000	-0.016	0.107
-276.428	140.105	-0.148	-0.191
-275.413	75.289	0.192	-0.199
-274.399	-200.000	0.069	0.380
-273.384	92.831	0.119	0.131
-272.370	-6.646	-0.225	0.150
-271.355	-66.346	0.237	0.092
-270.340	-200.000	0.010	-0.395
-269.326	-63.148	0.084	-0.034
-268.311	110.010	-0.120	-0.141
-267.297	-5.246	-0.206	0.139
-266.282	228.135	-0.195	0.310
-265.267	-200.000	-0.024	0.128
-264.253	-200.000	0.072	0.316
-263.238	-144.704	-0.130	0.012
-262.224	-45.613	0.149	0.072
-261.209	-84.801	0.371	-0.114
-260.195	-200.000	0.038	-0.308
-259.180	-8.751	0.154	-0.101
-258.165	-162.817	0.156	0.007
-257.151	-200.000	-0.003	0.041
-256.136	-26.117	0.213	0.122
-255.122	-33.284	0.154	0.083
-254.107	-23.622	-0.355	0.208
-253.092	800.000	0.103	0.300
-252.078	-34.570	0.269	0.144
-251.063	687.972	-0.203	0.519
-250.049	-200.000	0.002	-0.072
-249.034	356.311	0.133	0.259
-248.019	233.690	0.226	0.365
-247.005	-53.595	-0.246	-0.110
-245.990	800.000	0.063	0.267
-244.976	31.683	0.176	-0.148
-243.961	-27.274	-0.243	0.138
-242.946	222.777	0.055	0.087
-241.932	-95.450	0.128	-0.034
-240.917	-200.000	0.004	-0.511
-239.903	-200.000	0.096	0.427
-238.888	-200.000	0.015	-0.291
-237.873	-74.308	-0.187	0.066
-236.859	740.800	-0.094	0.246
-235.844	-122.970	0.061	-0.010
-234.830	-200.000	0.027	0.183
-233.815	54.233	0.209	0.197
-232.800	-200.000	0.025	0.186
-231.786	-200.000	0.046	0.311
-230.771	126.370	-0.098	-0.121
-229.757	367.022	-0.062	-0.123
-228.742	-200.000	0.045	-0.294
-227.727	-200.000	-0.008	0.226
-226.713	215.427	-0.034	-0.053
-225.698	17.962	0.285	0.222
-224.684	800.000	0.036	-0.115
-223.669	155.014	-0.205	-0.276
-222.655	5.574	0.193	0.139
-221.640	-39.560	-0.127	0.065
-220.625	175.684	0.050	0.071
-219.611	76.588	-0.061	-0.063
-218.596	222.359	-0.178	0.280
-217.582	-159.836	0.119	0.006
-216.567	-6.165	0.152	-0.102
-215.552	-200.000	0.033	-0.204
-214.538	672.321	-0.127	0.323
-213.523	-118.180	-0.144	0.025
-212.509	-200.000	-0.031	-0.142
-211.494	-20.628	0.148	-0.088
-210.479	35.617	0.189	0.162
-209.465	-82.388	-0.070	-0.022
-208.450	-66.374	0.192	-0.075
-207.436	-25.614	0.206	-0.119
-206.421	-124.092	0.424	-0.065
-205.406	614.254	0.164	0.402
-204.392	441.337	0.090	0.192
-203.377	-4.159	-0.182	0.123
-202.363	135.850	0.066	0.084
-201.348	14.771	0.395	0.301
-200.333	-200.000	-0.047	-0.316
-199.319	800.000	-0.118	-0.332
-198.304	247.835	0.108	-0.179
-197.290	-45.023	0.061	0.029
-196.275	-51.775	0.058	0.027
-195.260	-41.127	-0.169	-0.085
-194.246	-200.000	0.067	-0.361
-193.231	289.049	-0.106	-0.188
-192.217	-200.000	0.040	0.240
-191.202	800.000	-0.068	-0.217
-190.187	195.538	-0.099	-0.148
-189.173	-170.056	-0.060	-0.002
-188.158	-200.000	0.042	-0.239
-187.144	-89.627	0.226	-0.065
-186.129	202.386	-0.056	0.084
-185.114	32.128	-0.060	-0.051
-184.100	-77.472	0.147	-0.050
-183.085	-149.447	0.128	-0.010
-182.071	90.080	0.107	0.117
-181.056	-15.942	-0.127	-0.079
-180.042	-200.000	0.054	0.361
-179.027	15.116	-0.321	0.245
-178.012	-200.000	-0.007	-0.157
-176.998	-110.812	0.105	0.021
-175.983	-88.075	0.248	-0.072
-174.969	-200.000	0.009	0.439
-173.954	236.251	-0.116	0.188
-172.939	37.621	-0.087	0.076
-171.925	133.703	-0.107	-0.135
-170.910	-2.935	0.152	0.103
-169.896	-175.064	0.175	0.005
-168.881	-200.000	0.020	-0.218
-167.866	-44.078	-0.186	-0.091
-166.852	-146.468	0.248	-0.021
-165.837	-96.328	0.363	-0.094
-164.823	25.342	0.077	0.062
-163.808	-200.000	0.010	0.174
-162.793	-113.753	0.139	0.026
-161.779	-36.974	0.074	0.038
-160.764	-200.000	-0.042	-0.206
-159.750	574.357	0.098	0.232
-158.735	519.963	0.112	0.255
-157.720	104.037	0.111	0.127
-156.706	-110.803	-0.147	-0.030
-155.691	-50.591	0.140	0.064
-154.677	-131.495	0.366	0.047
-153.662	53.009	-0.185	-0.172
-152.647	-139.011	0.355	-0.038
-151.633	800.000	-0.089	0.307
-150.618	-20.223	-0.134	0.080
-149.604	800.000	-0.055	-0.158
-148.589	-153.117	-0.254	0.017
-147.574	-110.008	-0.137	0.028
-146.560	34.661	-0.212	0.180
-145.545	800.000	0.055	0.194
-144.531	-49.432	0.220	0.102
-143.516	10.208	-0.031	0.023
-142.502	185.321	0.022	0.032
-141.487	-72.974	-0.288	-0.103
-140.472	-85.713	0.290	-0.088
-139.458	-122.968	-0.130	-0.020
-138.443	-5.561	-0.169	-0.113
-137.429	118.509	-0.140	0.168
-136.414	225.215	0.084	-0.133
-135.399	22.826	-0.095	-0.076
-134.385	-200.000	0.000	0.244
-133.370	47.877	0.224	0.203
-132.356	490.183	-0.064	-0.144
-131.341	-131.196	-0.348	-0.045
-130.326	-200.000	0.019	-0.149
-129.312	800.000	0.093	-0.299
-128.297	196.818	0.106	0.157
-127.283	-200.000	-0.027	0.131
-126.268	-19.085	0.278	-0.168
-125.253	415.387	-0.115	-0.238
-124.239	-124.992	0.203	-0.030
-123.224	57.018	-0.319	-0.302
-122.210	16.445	0.249	0.191
-121.195	279.947	-0.050	-0.087
