DTS Sentinel unit serial number:	SN413079Multiplexer serial number:	ORYXHardware model number:	OX4-SRSoftware version number:	ORYX F/W v4.00 Oryx Data Collector v3.7.2.0data status	okinstallation	princeton_trtdifferential loss correction	single-endedforward channel	channel 2reverse channel	N/Adate	2019/09/11time	00:49:10forward acquisition time	60.00reverse acquisition time	0.00gamma	496.2192k internal	0.2332k external	0.2332temperature offset calibration	0.9940default loss term (dB/km)	0.3790temperature slope calibration	1.0000multiplexer offset coefficient	1.0000multiplexer slope coefficient	1.0000fibre end	0.00T internal ref (°C)	29.19T ext. ref 1 (°C)	-0.31T ext. ref 2 (°C)	22.86length (m)	temperature (°C)	Stokes	anti-Stokes-747.200	-200.000	-0.056	-0.495
-746.185	-127.460	-0.219	0.032
-745.171	-11.210	0.066	0.044
-744.156	333.768	-0.156	-0.304
-743.142	-54.655	0.154	0.070
-742.127	-78.630	-0.330	0.113
-741.112	40.415	0.219	-0.198
-740.098	-200.000	-0.052	0.350
-739.083	-84.328	-0.173	-0.055
-738.069	-122.265	-0.111	-0.018
-737.054	96.917	-0.142	-0.163
-736.039	22.778	-0.080	-0.066
-735.025	-129.585	0.292	-0.041
-734.010	800.000	-0.166	-0.532
-732.996	-147.459	-0.192	-0.016
-731.981	800.000	0.039	-0.130
-730.966	800.000	0.095	0.336
-729.952	52.830	-0.030	0.029
-728.937	434.142	-0.122	-0.267
-727.923	800.000	0.050	-0.138
-726.908	-106.569	-0.195	0.044
-725.894	500.963	0.115	0.267
-724.879	251.180	-0.056	0.095
-723.864	-79.711	0.306	0.104
-722.850	463.306	-0.079	-0.178
-721.835	103.895	-0.053	-0.062
-720.821	189.096	-0.209	-0.315
-719.806	800.000	0.031	-0.107
-718.791	217.137	0.199	-0.318
-717.777	800.000	-0.068	0.267
-716.762	-145.990	-0.198	0.018
-715.748	568.046	0.125	0.306
-714.733	112.310	-0.168	0.204
-713.718	81.414	-0.215	-0.233
-712.704	-88.374	0.161	-0.048
-711.689	-35.537	-0.324	0.176
-710.675	64.239	-0.261	-0.264
-709.660	-146.175	0.073	0.006
-708.645	-133.727	0.380	-0.048
-707.631	800.000	0.108	-0.461
-706.616	-44.615	0.349	-0.175
-705.602	-102.052	0.109	0.026
-704.587	305.311	-0.074	-0.137
-703.572	-200.000	-0.024	-0.182
-702.558	116.612	-0.122	-0.150
-701.543	-61.431	0.150	0.063
-700.529	-200.000	-0.018	0.266
-699.514	-1.275	-0.245	0.174
-698.499	144.901	0.014	0.019
-697.485	-200.000	-0.016	-0.202
-696.470	-200.000	-0.110	-0.699
-695.456	193.731	-0.047	-0.071
-694.441	83.916	-0.188	0.206
-693.426	-200.000	0.001	0.234
-692.412	145.460	-0.290	0.389
-691.397	-133.508	-0.331	-0.042
-690.383	724.733	0.119	-0.317
-689.368	-85.208	-0.273	-0.086
-688.354	-57.707	0.311	0.137
-687.339	-15.414	-0.165	-0.106
-686.324	-200.000	0.007	0.210
-685.310	503.441	-0.066	0.153
-684.295	-85.337	0.299	0.094
-683.281	708.466	-0.117	0.309
-682.266	-115.034	0.201	0.038
-681.251	86.285	0.098	0.108
-680.237	800.000	0.069	0.300
-679.222	-198.679	0.270	-0.002
-678.208	185.078	0.148	-0.220
-677.193	-71.818	-0.144	-0.054
-676.178	800.000	0.076	-0.287
-675.164	32.922	0.090	0.078
-674.149	146.427	-0.085	-0.114
-673.135	138.499	-0.140	0.184
-672.120	-17.621	0.110	-0.069
-671.105	-200.000	0.001	0.197
-670.091	-200.000	-0.055	-0.285
-669.076	252.649	-0.164	-0.280
-668.062	-200.000	0.004	0.377
-667.047	-64.150	0.235	-0.096
-666.032	-200.000	0.017	0.200
-665.018	15.864	-0.148	0.117
-664.003	544.064	-0.041	0.098
-662.989	-200.000	-0.006	0.081
-661.974	11.482	-0.200	-0.154
-660.959	1.590	-0.162	0.117
-659.945	302.404	0.188	0.348
-658.930	-143.563	-0.080	-0.008
-657.916	-59.873	-0.242	0.104
-656.901	-62.852	-0.210	0.087
-655.886	-62.613	0.255	0.106
-654.872	-200.000	-0.053	0.239
-653.857	26.339	-0.122	0.102
-652.843	-58.101	0.337	-0.147
-651.828	580.353	0.118	0.290
-650.814	80.466	0.146	-0.157
-649.799	-200.000	-0.092	-0.475
-648.784	-200.000	0.048	-0.325
-647.770	81.357	0.224	-0.243
-646.755	-142.633	-0.180	0.018
-645.741	75.598	-0.086	-0.091
-644.726	-79.190	-0.080	0.027
-643.711	-43.247	0.332	0.169
-642.697	5.425	0.240	0.178
-641.682	-53.748	0.105	-0.048
-640.668	399.837	0.055	0.116
-639.653	3.731	-0.151	-0.110
-638.638	89.737	0.073	0.082
-637.624	-20.380	0.133	0.082
-636.609	-72.250	-0.258	-0.096
-635.595	-41.701	-0.057	-0.030
-634.580	120.456	-0.144	-0.180
-633.565	283.066	0.044	-0.078
-632.551	800.000	-0.057	-0.177
-631.536	-112.286	-0.277	0.056
-630.522	800.000	-0.057	-0.160
-629.507	-46.053	-0.227	-0.112
-628.492	355.192	0.081	-0.160
-627.478	800.000	-0.088	-0.317
-626.463	-61.526	0.113	0.047
-625.449	800.000	-0.088	0.355
-624.434	66.541	0.251	0.256
-623.419	125.827	-0.059	-0.074
-622.405	-200.000	-0.005	0.260
-621.390	-200.000	0.047	-0.548
-620.376	-45.764	-0.282	-0.140
-619.361	-200.000	0.050	-0.301
-618.346	35.469	-0.184	-0.161
-617.332	423.478	0.106	-0.227
-616.317	-16.825	-0.095	0.060
-615.303	-200.000	-0.184	-0.000
-614.288	-66.858	0.120	-0.047
-613.273	293.318	-0.079	-0.144
-612.259	800.000	0.031	-0.112
-611.244	-51.315	0.169	-0.079
-610.230	-200.000	0.021	0.339
-609.215	800.000	-0.055	0.213
-608.201	191.349	-0.087	-0.131
-607.186	708.371	0.084	0.223
-606.171	-39.800	-0.205	0.107
-605.157	800.000	-0.093	0.393
-604.142	151.438	0.156	0.212
-603.128	31.195	0.206	0.177
-602.113	-129.880	-0.172	0.024
-601.098	20.770	0.223	-0.181
-600.084	-70.326	0.254	-0.096
-599.069	110.913	-0.123	0.148
-598.055	-200.000	0.031	0.244
-597.040	378.586	0.065	0.133
-596.025	129.023	0.034	0.043
-595.011	-119.137	-0.235	-0.041
-593.996	242.484	-0.098	0.163
-592.982	800.000	-0.142	-0.397
-591.967	-200.000	0.027	-0.124
-590.952	287.988	-0.108	-0.196
-589.938	-5.964	-0.291	-0.199
-588.923	-200.000	0.021	-0.179
-587.909	-108.666	-0.304	0.065
-586.894	-125.663	0.260	-0.039
-585.879	-200.000	-0.007	0.279
-584.865	-94.582	0.199	0.054
-583.850	800.000	-0.054	-0.155
-582.836	-36.510	-0.338	-0.182
-581.821	75.108	-0.176	-0.186
-580.806	-200.000	0.001	-0.585
-579.792	-200.000	-0.031	0.252
-578.777	-31.911	-0.279	-0.156
-577.763	800.000	-0.086	0.335
-576.748	512.025	-0.138	-0.320
-575.733	-11.757	0.111	-0.073
-574.719	-200.000	-0.006	0.099
-573.704	-97.545	-0.302	-0.078
-572.690	402.175	-0.045	0.094
-571.675	-200.000	-0.013	0.100
-570.661	-200.000	-0.073	-0.338
-569.646	-144.408	-0.212	0.020
-568.631	-22.836	-0.153	-0.092
-567.617	-108.460	-0.325	0.070
-566.602	15.807	-0.316	-0.248
-565.588	-13.711	-0.093	0.060
-564.573	-200.000	-0.040	0.293
-563.558	-100.378	-0.308	-0.076
-562.544	-119.049	0.034	0.006
-561.529	800.000	0.008	0.032
-560.515	-200.000	0.006	-0.026
-559.500	-14.419	-0.087	-0.056
-558.485	-159.444	0.168	-0.009
-557.471	-129.940	-0.155	-0.021
-556.456	-103.380	0.130	0.031
-555.442	-129.575	-0.146	0.020
-554.427	-200.000	-0.016	-0.179
-553.412	-200.000	-0.005	-0.181
-552.398	-80.525	-0.152	-0.051
-551.383	-200.000	-0.011	-0.505
-550.369	152.623	0.207	0.282
-549.354	-173.557	-0.419	0.013
-548.339	-85.275	0.092	0.029
-547.325	-200.000	0.014	-0.162
-546.310	-65.112	-0.263	0.106
-545.296	-194.193	0.277	-0.002
-544.281	165.697	-0.130	0.184
-543.266	-200.000	0.025	0.481
-542.252	800.000	-0.034	0.137
-541.237	528.357	0.078	-0.185
-540.223	497.585	0.094	-0.216
-539.208	103.582	-0.096	0.113
-538.193	-12.525	0.058	-0.038
-537.179	132.446	-0.090	0.115
-536.164	65.583	0.088	0.089
-535.150	201.544	-0.077	-0.119
-534.135	-167.956	-0.217	-0.008
-533.121	-84.306	-0.079	-0.025
-532.106	148.816	0.067	0.090
-531.091	390.600	0.050	-0.104
-530.077	13.100	-0.293	-0.226
-529.062	99.171	0.178	0.205
-528.048	-200.000	0.001	-0.024
-527.033	189.489	0.159	0.238
-526.018	-150.132	0.018	-0.001
-525.004	800.000	0.026	-0.076
-523.989	2.149	0.293	0.211
-522.975	-69.275	0.367	-0.141
-521.960	800.000	0.064	0.240
-520.945	-107.470	0.395	0.086
-519.931	183.103	0.168	0.248
-518.916	-141.622	0.132	-0.013
-517.902	456.518	-0.133	-0.295
-516.887	-200.000	-0.028	0.167
-515.872	-71.028	-0.210	0.079
-514.858	216.507	-0.056	-0.089
-513.843	353.258	0.180	0.356
-512.829	-200.000	0.029	0.655
-511.814	-165.504	0.071	0.003
-510.799	293.641	-0.037	0.068
-509.785	-153.855	-0.395	0.027
-508.770	-200.000	0.004	0.119
-507.756	-92.477	-0.195	-0.055
-506.741	-160.706	-0.205	-0.011
-505.726	-107.429	0.422	-0.092
-504.712	-103.125	0.022	-0.005
-503.697	764.289	0.027	-0.074
-502.683	-128.569	-0.111	0.016
-501.668	-85.611	0.207	-0.064
-500.653	75.514	0.200	-0.210
-499.639	-200.000	0.038	-0.191
-498.624	-129.522	0.325	0.045
-497.610	-200.000	-0.003	-0.227
-496.595	-68.662	-0.285	0.110
-495.581	800.000	0.019	-0.075
-494.566	20.145	-0.204	-0.164
-493.551	49.459	0.064	0.060
-492.537	800.000	0.036	-0.136
-491.522	320.345	-0.056	0.105
-490.508	-15.291	-0.215	0.137
-489.493	-71.383	0.092	0.034
-488.478	-62.701	-0.472	-0.195
-487.464	42.999	-0.129	-0.117
-486.449	95.096	0.017	0.019
-485.435	-200.000	-0.005	-0.329
-484.420	56.422	-0.104	-0.101
-483.405	-56.345	-0.272	0.120
-482.391	304.772	-0.043	0.079
-481.376	-117.838	-0.198	0.035
-480.362	-150.824	-0.079	-0.006
-479.347	-150.056	-0.335	-0.026
-478.332	139.691	0.095	-0.125
-477.318	35.016	0.075	-0.065
-476.303	49.937	-0.103	-0.097
-475.289	-176.731	0.241	-0.006
-474.274	389.600	-0.123	-0.253
-473.259	-61.096	-0.123	-0.052
-472.245	-48.900	0.222	0.106
-471.230	-144.554	0.029	-0.003
-470.216	-84.443	0.139	0.044
-469.201	800.000	0.049	-0.184
-468.186	209.037	-0.194	-0.302
-467.172	-200.000	0.019	-0.134
-466.157	28.616	0.096	-0.081
-465.143	60.734	-0.131	-0.129
-464.128	207.180	-0.175	-0.271
-463.113	-19.020	0.217	0.134
-462.099	-37.554	0.246	0.131
-461.084	-200.000	-0.043	0.221
-460.070	115.355	0.072	-0.088
-459.055	453.290	-0.066	0.145
-458.040	303.110	-0.023	0.043
-457.026	-200.000	0.011	-0.104
-456.011	-95.647	-0.195	-0.052
-454.997	266.881	-0.082	-0.143
-453.982	108.715	0.139	-0.165
-452.968	-200.000	-0.007	0.170
-451.953	-81.478	0.244	0.080
-450.938	-70.430	0.217	-0.082
-449.924	46.435	-0.045	-0.041
-448.909	240.499	-0.127	0.211
-447.895	754.528	-0.070	-0.188
-446.880	415.660	-0.137	-0.291
-445.865	655.338	-0.121	0.309
-444.851	-64.782	-0.109	0.044
-443.836	-35.757	0.037	-0.020
-442.822	-82.106	0.039	-0.013
-441.807	-97.701	-0.298	-0.077
-440.792	800.000	-0.065	-0.223
-439.778	-200.000	-0.011	0.255
-438.763	800.000	-0.020	0.062
-437.749	81.879	0.083	-0.090
-436.734	23.061	0.058	0.047
-435.719	313.810	0.051	-0.095
-434.705	800.000	0.069	-0.296
-433.690	314.761	-0.180	-0.337
-432.676	780.214	-0.033	0.089
-431.661	-200.000	-0.004	0.273
-430.646	-31.837	-0.384	-0.214
-429.632	-40.149	-0.245	0.127
-428.617	-200.000	-0.019	-0.112
-427.603	-142.188	0.217	0.021
-426.588	-200.000	0.006	-0.294
-425.573	-68.214	-0.062	-0.024
-424.559	-200.000	0.009	0.185
-423.544	261.532	0.125	0.215
-422.530	-60.169	-0.156	0.066
-421.515	-175.974	-0.241	0.006
-420.500	-99.136	-0.277	0.070
-419.486	-59.746	-0.165	0.070
-418.471	-125.931	0.082	0.012
-417.457	-8.014	-0.123	-0.082
-416.442	-30.266	0.208	0.117
-415.428	261.503	-0.143	-0.246
-414.413	-61.816	0.264	-0.110
-413.398	-97.209	-0.138	0.036
-412.384	439.017	0.059	-0.128
-411.369	-200.000	0.026	-0.238
-410.355	-56.493	-0.055	-0.024
-409.340	-91.657	-0.200	0.056
-408.325	-111.916	-0.360	0.072
-407.311	-200.000	0.017	0.230
-406.296	-11.472	0.137	0.090
-405.282	635.403	0.186	-0.469
-404.267	66.894	-0.109	-0.110
-403.252	-80.777	0.310	-0.102
-402.238	5.706	0.044	-0.033
-401.223	-78.562	0.386	-0.131
-400.209	-200.000	-0.032	0.269
-399.194	800.000	0.056	-0.236
-398.179	18.166	-0.328	-0.260
-397.165	-200.000	-0.043	0.227
-396.150	142.575	0.152	0.200
-395.136	-145.945	0.356	-0.031
-394.121	-149.317	-0.071	0.006
-393.106	394.007	0.062	-0.127
-392.092	800.000	-0.027	-0.080
-391.077	270.299	-0.069	0.121
-390.063	-25.878	-0.194	-0.114
-389.048	-58.019	-0.110	-0.047
-388.033	116.362	0.210	0.255
-387.019	800.000	-0.081	0.254
-386.004	-81.046	-0.225	0.074
-384.990	29.794	0.310	-0.261
-383.975	-74.300	0.334	-0.120
-382.960	19.138	-0.162	-0.129
-381.946	-200.000	0.069	0.320
-380.931	-200.000	0.015	0.385
-379.917	0.051	-0.332	-0.234
-378.902	-200.000	0.024	0.147
-377.888	-200.000	0.009	0.159
-376.873	-166.090	0.091	0.004
-375.858	35.592	0.060	0.052
-374.844	177.478	0.070	0.101
-373.829	-200.000	0.046	0.412
-372.815	-200.000	0.010	-0.158
-371.800	2.763	0.391	0.281
-370.785	-200.000	-0.017	0.238
-369.771	-200.000	-0.007	0.094
-368.756	800.000	0.124	0.405
-367.742	-88.957	0.368	0.108
-366.727	29.412	-0.044	-0.037
-365.712	-145.424	0.191	0.017
-364.698	-70.430	0.143	0.054
-363.683	-200.000	0.005	0.167
-362.669	-114.688	-0.161	-0.030
-361.654	55.162	-0.216	0.207
-360.639	-60.798	0.364	-0.153
-359.625	-18.057	0.145	0.090
-358.610	-180.552	-0.202	0.004
-357.596	-14.842	0.146	0.093
-356.581	-200.000	0.059	0.301
-355.566	-33.030	0.079	0.043
-354.552	-200.000	0.003	-0.082
-353.537	309.036	0.138	0.255
-352.523	36.553	0.146	0.128
-351.508	-149.353	-0.067	0.005
-350.493	-200.000	0.005	0.031
-349.479	141.579	-0.086	0.113
-348.464	-79.921	0.429	-0.143
-347.450	-6.610	0.128	0.086
-346.435	800.000	-0.032	0.140
-345.420	-54.388	0.099	-0.045
-344.406	-71.132	0.356	-0.133
-343.391	-40.140	0.098	0.051
-342.377	-200.000	0.008	0.323
-341.362	-72.912	-0.218	0.079
-340.348	-186.467	0.396	0.006
-339.333	-200.000	-0.018	0.130
-338.318	-105.774	0.199	0.045
-337.304	62.786	-0.130	0.128
-336.289	-125.586	-0.277	0.042
-335.275	-91.341	0.223	0.063
-334.260	-19.484	-0.230	-0.141
-333.245	-134.490	0.170	-0.021
-332.231	199.801	-0.144	0.218
-331.216	800.000	-0.057	0.192
-330.202	193.441	-0.171	0.255
-329.187	800.000	0.042	0.134
-328.172	-153.625	-0.262	0.018
-327.158	175.065	-0.161	0.231
-326.143	-16.467	0.376	0.236
-325.129	-200.000	0.004	-0.182
-324.114	-37.815	0.245	0.129
-323.099	443.606	-0.125	-0.271
-322.085	119.289	-0.184	-0.225
-321.070	-82.661	-0.232	0.074
-320.056	-200.000	-0.010	-0.307
-319.041	800.000	0.043	0.181
-318.026	320.112	0.297	-0.558
-317.012	800.000	0.083	-0.291
-315.997	450.814	-0.176	-0.384
-314.983	-122.639	0.398	0.064
-313.968	207.396	0.095	0.147
-312.953	113.091	0.130	-0.156
-311.939	1.795	0.187	0.133
-310.924	-77.222	-0.123	0.042
-309.910	-56.801	0.097	-0.042
-308.895	-153.967	0.042	-0.003
-307.880	-200.000	-0.003	0.261
-306.866	-95.286	-0.198	-0.053
-305.851	-200.000	0.046	-0.301
-304.837	581.998	0.118	-0.286
-303.822	-25.818	0.237	-0.138
-302.807	-44.239	-0.155	-0.077
-301.793	61.786	0.213	-0.209
-300.778	-135.564	0.323	0.038
-299.764	-200.000	0.022	-0.123
-298.749	331.424	-0.175	0.334
-297.735	124.066	-0.038	-0.048
-296.720	590.145	0.022	0.055
-295.705	-51.972	-0.130	-0.060
-294.691	7.668	0.103	-0.077
-293.676	288.191	-0.135	-0.242
-292.662	437.108	-0.105	0.226
-291.647	-30.568	0.138	0.077
-290.632	-200.000	-0.005	-0.033
-289.618	634.360	-0.039	0.099
-288.603	-6.098	0.179	0.121
-287.589	4.263	-0.401	0.290
-286.574	-74.668	-0.488	0.173
-285.559	765.669	-0.130	0.348
-284.545	377.862	0.095	-0.191
-283.530	34.386	0.274	0.236
-282.516	-79.506	0.096	-0.032
-281.501	128.865	-0.132	-0.167
-280.486	800.000	0.032	0.125
-279.472	-44.644	-0.225	0.111
-278.457	-200.000	-0.020	-0.314
-277.443	-52.121	0.495	-0.227
-276.428	-200.000	-0.041	-0.226
-275.413	800.000	0.108	-0.439
-274.399	-99.223	0.283	0.071
-273.384	335.974	0.150	0.287
-272.370	-130.649	-0.221	0.029
-271.355	-59.312	0.332	-0.141
-270.340	-200.000	-0.019	0.127
-269.326	515.931	0.154	-0.355
-268.311	156.616	0.155	-0.212
-267.297	607.220	0.080	0.198
-266.282	609.729	0.167	0.412
-265.267	205.281	-0.059	0.091
-264.253	-21.348	-0.212	-0.128
-263.238	139.083	0.194	0.252
-262.224	-62.360	-0.218	0.090
-261.209	-200.000	-0.014	-0.142
-260.195	271.471	0.046	0.080
-259.180	-96.687	0.130	-0.034
-258.165	-200.000	-0.034	0.258
-257.151	800.000	0.042	-0.154
-256.136	-44.428	0.209	0.103
-255.122	-67.618	-0.323	-0.125
-254.107	205.097	0.026	-0.040
-253.092	94.120	0.209	0.234
-252.078	37.728	-0.069	0.060
-251.063	452.240	-0.177	-0.385
-250.049	275.414	0.068	0.120
-249.034	256.103	-0.088	-0.149
-248.019	-103.898	-0.196	-0.045
-247.005	380.224	0.109	-0.220
-245.990	-3.393	-0.243	0.167
-244.976	800.000	-0.002	-0.007
-243.961	-127.708	0.166	-0.024
-242.946	-115.408	-0.162	0.030
-241.932	2.505	-0.113	-0.081
-240.917	135.765	-0.089	0.114
-239.903	-106.519	-0.132	0.029
-238.888	88.575	0.096	-0.105
-237.873	-181.730	0.288	0.005
-236.859	-53.012	0.177	-0.080
-235.844	-196.642	0.491	0.003
-234.830	500.330	0.162	-0.369
-233.815	104.505	-0.241	0.280
-232.800	-200.000	0.003	-0.310
-231.786	56.885	-0.229	-0.220
-230.771	170.205	0.030	-0.043
-229.757	-113.376	0.276	0.053
-228.742	-92.727	-0.335	-0.092
-227.727	90.874	0.222	0.245
-226.713	800.000	0.068	0.195
-225.698	-184.599	0.375	-0.006
-224.684	-117.480	-0.209	0.037
-223.669	-151.194	0.171	-0.013
-222.655	4.684	0.333	0.241
-221.640	185.834	-0.123	0.180
-220.625	335.904	0.041	-0.079
-219.611	-200.000	-0.000	-0.129
-218.596	800.000	0.111	0.407
-217.582	-89.432	0.510	0.148
-216.567	367.237	-0.209	-0.416
-215.552	-119.990	-0.128	0.022
-214.538	-109.784	0.210	-0.043
-213.523	653.298	0.124	-0.314
-212.509	691.384	-0.020	0.050
-211.494	118.898	-0.120	0.146
-210.479	173.740	-0.106	-0.151
-209.465	-149.510	0.306	0.024
-208.450	-61.821	0.178	0.073
-207.436	-89.861	0.079	0.023
-206.421	198.027	-0.157	0.236
-205.406	303.810	0.061	0.111
-204.392	800.000	-0.087	0.339
-203.377	-200.000	0.016	0.302
-202.363	188.875	0.179	-0.265
-201.348	50.262	0.176	-0.163
-200.333	31.146	-0.037	-0.031
-199.319	62.441	0.205	0.202
-198.304	63.740	-0.148	0.146
-197.290	-200.000	-0.034	-0.207
-196.275	800.000	0.084	0.284
-195.260	-65.558	-0.234	0.093
-194.246	183.379	-0.048	-0.070
-193.231	-184.826	-0.046	0.001
-192.217	119.418	-0.163	0.199
-191.202	-31.377	0.279	-0.154
-190.187	-200.000	-0.021	0.136
-189.173	-50.243	0.086	0.040
-188.158	-58.460	-0.069	-0.029
-187.144	-200.000	-0.003	-0.034
-186.129	-82.521	-0.067	-0.021
-185.114	800.000	-0.076	0.268
-184.100	-200.000	-0.041	0.344
-183.085	-80.265	-0.197	-0.065
-182.071	2.259	0.061	-0.043
-181.056	42.126	0.230	0.205
-180.042	-200.000	-0.015	0.388
-179.027	83.817	-0.139	-0.149
-178.012	-200.000	0.049	-0.245
-176.998	-200.000	0.013	-0.379
-175.983	-77.826	0.362	-0.123
-174.969	800.000	0.059	-0.201
-173.954	-104.072	0.356	-0.082
-172.939	667.038	0.064	-0.163
-171.925	-190.573	0.171	-0.002
-170.910	146.864	-0.066	-0.087
-169.896	64.731	0.163	0.162
-168.881	434.018	-0.073	0.156
-167.866	-105.903	0.092	-0.020
-166.852	-112.841	-0.282	-0.055
-165.837	368.793	-0.192	-0.381
-164.823	-200.000	0.005	0.206
-163.808	150.356	-0.082	0.109
-162.793	75.550	0.076	-0.078
-161.779	202.242	0.089	-0.136
-160.764	-80.269	-0.075	0.025
-159.750	-46.131	-0.127	0.061
-158.735	242.754	-0.061	0.100
-157.720	-200.000	0.018	0.308
-156.706	800.000	0.076	0.258
-155.691	-184.638	-0.199	-0.003
-154.677	20.033	-0.404	-0.320
-153.662	-89.891	-0.087	0.025
-152.647	241.526	-0.093	0.152
-151.633	57.544	-0.262	0.251
-150.618	-26.442	0.234	0.135
-149.604	270.876	-0.183	0.316
-148.589	-36.478	0.104	-0.055
-147.574	-23.022	0.216	-0.128
-146.560	-42.628	0.290	0.145
-145.545	-32.861	-0.309	-0.169
-144.531	-9.409	0.319	0.209
-143.516	-200.000	0.014	0.164
-142.502	-92.399	0.314	0.087
-141.487	-200.000	-0.037	-0.179
-140.472	24.103	-0.178	0.144
-139.458	-200.000	0.032	0.199
-138.443	-124.194	0.127	0.020
-137.429	-2.618	-0.198	-0.136
-136.414	105.142	0.200	-0.232
-135.399	122.039	0.044	0.054
-134.385	496.956	-0.141	0.319
-133.370	-14.031	-0.303	0.192
-132.356	-57.392	-0.297	0.128
-131.341	-157.267	0.324	0.019
-130.326	48.535	-0.121	0.112
-129.312	-122.160	0.311	-0.050
-128.297	40.700	-0.050	0.044
-127.283	-200.000	-0.023	-0.464
-126.268	-29.271	-0.276	-0.155
-125.253	226.039	-0.191	-0.304
-124.239	-48.900	0.131	0.062
-123.224	800.000	0.096	-0.282
-122.210	800.000	-0.043	-0.159
