DTS Sentinel unit serial number:	SN413079Multiplexer serial number:	ORYXHardware model number:	OX4-SRSoftware version number:	ORYX F/W v4.00 Oryx Data Collector v3.7.2.0data status	okinstallation	princeton_trtdifferential loss correction	single-endedforward channel	channel 2reverse channel	N/Adate	2019/09/15time	06:19:34forward acquisition time	60.00reverse acquisition time	0.00gamma	496.2192k internal	0.2326k external	0.2326temperature offset calibration	1.0035default loss term (dB/km)	0.3790temperature slope calibration	1.0000multiplexer offset coefficient	1.0000multiplexer slope coefficient	1.0000fibre end	0.00T internal ref (°C)	30.52T ext. ref 1 (°C)	4.85T ext. ref 2 (°C)	25.23length (m)	temperature (°C)	Stokes	anti-Stokes-747.200	-148.809	0.258	0.021
-746.185	-200.000	0.022	0.279
-745.171	143.147	0.105	0.142
-744.156	-32.240	-0.311	0.175
-743.142	63.839	-0.223	0.226
-742.127	-200.000	-0.008	0.202
-741.112	11.313	0.177	-0.137
-740.098	800.000	-0.061	0.211
-739.083	254.652	0.144	0.248
-738.069	-72.135	-0.353	-0.132
-737.054	229.227	-0.073	-0.121
-736.039	-137.823	-0.325	-0.037
-735.025	-8.615	0.358	0.242
-734.010	-72.871	-0.172	-0.064
-732.996	-190.881	-0.382	0.004
-731.981	-94.925	-0.126	0.034
-730.966	46.958	0.128	0.120
-729.952	336.227	-0.100	0.196
-728.937	-173.895	0.151	0.005
-727.923	-23.815	-0.152	0.092
-726.908	-200.000	0.010	0.062
-725.894	336.617	-0.293	-0.573
-724.879	330.163	-0.060	-0.116
-723.864	75.343	0.013	-0.013
-722.850	-10.769	-0.113	-0.075
-721.835	800.000	-0.029	-0.098
-720.821	-46.767	-0.166	0.082
-719.806	-59.736	-0.039	0.017
-718.791	108.574	0.134	-0.161
-717.777	210.327	0.152	-0.241
-716.762	114.768	-0.309	-0.379
-715.748	-16.784	0.151	-0.096
-714.733	179.568	0.147	-0.217
-713.718	316.917	0.125	0.237
-712.704	185.285	-0.086	-0.128
-711.689	-62.838	-0.064	-0.027
-710.675	-135.951	-0.130	0.015
-709.660	24.580	0.174	0.145
-708.645	-94.259	-0.249	0.069
-707.631	106.389	0.123	0.147
-706.616	70.623	0.198	0.207
-705.602	363.112	0.053	-0.107
-704.587	-49.044	-0.211	0.102
-703.572	626.692	-0.096	-0.244
-702.558	-10.911	0.204	-0.136
-701.543	-110.617	0.168	0.035
-700.529	217.702	-0.121	-0.194
-699.514	-200.000	0.041	0.183
-698.499	30.166	-0.314	-0.270
-697.485	751.660	-0.126	0.344
-696.470	232.331	-0.015	0.025
-695.456	218.403	-0.116	0.187
-694.441	148.257	0.228	0.310
-693.426	800.000	-0.076	0.264
-692.412	-185.773	0.141	0.002
-691.397	-43.398	-0.230	-0.117
-690.383	-80.459	0.318	0.107
-689.368	800.000	0.030	-0.118
-688.354	-88.324	-0.111	-0.033
-687.339	365.695	0.128	-0.259
-686.324	107.429	0.023	0.027
-685.310	-34.691	-0.060	0.033
-684.295	-6.770	-0.267	0.183
-683.281	-91.281	0.204	0.059
-682.266	-79.501	-0.201	-0.068
-681.251	309.364	-0.075	-0.141
-680.237	58.090	-0.074	-0.073
-679.222	-17.985	-0.143	-0.090
-678.208	-126.759	0.572	-0.085
-677.193	236.786	-0.118	-0.197
-676.178	-10.010	-0.103	0.069
-675.164	-124.640	-0.287	-0.045
-674.149	673.053	-0.039	0.102
-673.135	-200.000	-0.016	0.243
-672.120	-112.725	-0.199	-0.040
-671.105	-200.000	-0.014	0.247
-670.091	-16.742	0.272	0.173
-669.076	-90.076	-0.573	-0.168
-668.062	175.652	0.236	0.344
-667.047	66.017	0.281	0.287
-666.032	312.023	-0.255	-0.481
-665.018	-200.000	0.004	-0.186
-664.003	376.348	0.114	0.233
-662.989	197.279	-0.305	-0.469
-661.974	-200.000	-0.030	-0.262
-660.959	-163.837	0.345	0.016
-659.945	-127.302	-0.153	0.022
-658.930	-11.327	-0.119	-0.079
-657.916	190.336	-0.154	-0.233
-656.901	181.784	0.163	-0.241
-655.886	-105.648	-0.454	-0.103
-654.872	91.048	-0.116	-0.131
-653.857	-63.729	0.163	0.067
-652.843	154.370	0.139	-0.192
-651.828	-134.849	0.296	0.036
-650.814	-67.429	-0.136	0.054
-649.799	-51.634	0.034	0.016
-648.784	-114.852	-0.273	-0.052
-647.770	-120.934	0.259	-0.044
-646.755	-95.307	-0.499	-0.135
-645.741	-141.045	0.217	0.022
-644.726	-200.000	-0.045	0.277
-643.711	-50.250	0.218	-0.103
-642.697	-200.000	0.009	0.152
-641.682	-36.361	-0.175	0.095
-640.668	187.978	-0.140	0.211
-639.653	-115.686	-0.064	0.012
-638.638	-200.000	0.080	-0.397
-637.624	-22.843	0.161	-0.098
-636.609	-166.012	-0.147	-0.006
-635.595	-97.647	0.148	-0.039
-634.580	-41.997	0.351	0.181
-633.565	518.831	0.008	-0.018
-632.551	261.823	0.042	-0.073
-631.536	-200.000	-0.019	0.163
-630.522	-145.560	0.291	0.026
-629.507	291.706	-0.163	-0.298
-628.492	279.817	0.053	-0.095
-627.478	4.062	-0.286	0.210
-626.463	-200.000	-0.021	0.118
-625.449	-76.338	-0.272	0.096
-624.434	101.278	-0.245	-0.287
-623.419	149.756	0.093	-0.126
-622.405	-200.000	-0.014	0.163
-621.390	65.592	-0.124	-0.126
-620.376	-149.705	-0.104	-0.008
-619.361	241.903	-0.131	0.220
-618.346	376.982	-0.100	0.205
-617.332	716.823	0.023	0.060
-616.317	-47.547	0.132	0.064
-615.303	-44.706	-0.106	-0.053
-614.288	-145.583	0.169	-0.015
-613.273	-200.000	-0.016	-0.129
-612.259	-164.964	-0.167	-0.007
-611.244	254.769	0.177	-0.304
-610.230	-200.000	0.004	-0.074
-609.215	13.974	0.316	0.247
-608.201	401.911	-0.104	0.219
-607.186	-17.967	-0.100	-0.063
-606.171	-114.210	-0.167	-0.032
-605.157	-57.538	0.304	0.134
-604.142	461.649	0.030	-0.066
-603.128	-79.477	-0.054	0.018
-602.113	-70.653	0.153	-0.058
-601.098	-69.740	0.223	0.085
-600.084	36.976	0.167	-0.148
-599.069	800.000	-0.021	-0.075
-598.055	-53.091	-0.089	0.041
-597.040	82.940	-0.248	-0.271
-596.025	-94.599	0.107	0.029
-595.011	-11.775	-0.319	0.210
-593.996	-195.979	-0.219	0.002
-592.982	202.728	-0.135	-0.209
-591.967	702.820	0.046	0.122
-590.952	1.861	-0.121	0.088
-589.938	-200.000	0.011	-0.100
-588.923	-68.458	-0.358	0.139
-587.909	-97.655	-0.214	0.056
-586.894	-89.938	-0.090	0.026
-585.879	-167.876	-0.058	0.002
-584.865	101.360	0.090	0.105
-583.850	2.322	0.093	-0.067
-582.836	-200.000	0.051	-0.449
-581.821	800.000	-0.045	-0.171
-580.806	-68.543	0.153	0.060
-579.792	-200.000	-0.023	-0.453
-578.777	-83.900	-0.190	-0.061
-577.763	686.010	-0.083	0.217
-576.748	-200.000	0.232	0.001
-575.733	-200.000	-0.030	0.241
-574.719	-186.686	-0.112	-0.002
-573.704	271.616	-0.059	-0.104
-572.690	41.073	-0.074	-0.067
-571.675	42.900	-0.216	-0.197
-570.661	-54.142	0.239	0.109
-569.646	130.127	-0.127	0.163
-568.631	419.633	-0.095	-0.204
-567.617	800.000	-0.062	-0.250
-566.602	-200.000	-0.004	0.372
-565.588	-84.479	-0.202	0.064
-564.573	-200.000	0.005	-0.113
-563.558	-1.838	-0.157	-0.111
-562.544	800.000	-0.031	-0.125
-561.529	499.901	0.053	0.122
-560.515	37.885	0.180	-0.160
-559.500	-12.903	-0.212	0.138
-558.485	81.969	-0.167	0.181
-557.471	800.000	0.040	-0.133
-556.456	528.156	-0.086	-0.204
-555.442	-200.000	-0.004	0.032
-554.427	557.476	-0.049	-0.118
-553.412	182.990	0.205	0.302
-552.398	-16.113	0.072	-0.046
-551.383	142.340	-0.119	0.159
-550.369	-200.000	-0.026	-0.196
-549.354	-200.000	0.011	0.158
-548.339	-21.422	0.281	0.172
-547.325	-200.000	-0.021	0.096
-546.310	-35.364	-0.147	-0.080
-545.296	-56.817	-0.116	0.051
-544.281	51.731	-0.329	0.314
-543.266	-14.896	0.124	0.079
-542.252	-96.396	-0.165	0.044
-541.237	-200.000	-0.007	0.096
-540.223	49.397	-0.142	-0.134
-539.208	160.073	-0.104	0.145
-538.193	676.930	0.066	-0.172
-537.179	589.281	-0.049	0.121
-536.164	-17.222	0.386	-0.244
-535.150	-23.993	0.155	0.093
-534.135	-20.202	-0.337	0.208
-533.121	-200.000	-0.087	-0.406
-532.106	385.825	-0.155	-0.319
-531.091	-200.000	0.024	0.276
-530.077	800.000	-0.028	-0.123
-529.062	-99.826	0.138	-0.035
-528.048	-43.682	0.277	0.139
-527.033	-133.242	-0.230	0.029
-526.018	332.391	-0.278	-0.536
-525.004	74.487	0.148	-0.156
-523.989	-91.676	0.141	0.040
-522.975	-19.510	0.115	-0.071
-521.960	-16.915	0.200	-0.127
-520.945	-160.366	-0.445	-0.024
-519.931	-200.000	-0.036	0.246
-518.916	-200.000	0.025	-0.207
-517.902	-96.991	0.116	0.030
-516.887	648.850	-0.085	-0.217
-515.872	194.955	-0.075	-0.114
-514.858	800.000	-0.016	-0.047
-513.843	-200.000	-0.040	0.236
-512.829	504.395	-0.050	0.115
-511.814	-132.850	0.465	-0.059
-510.799	-200.000	0.010	-0.156
-509.785	800.000	-0.023	-0.097
-508.770	111.460	-0.188	-0.227
-507.756	-89.328	0.056	0.017
-506.741	250.468	0.066	0.111
-505.726	800.000	-0.072	-0.270
-504.712	352.781	0.127	-0.252
-503.697	244.553	-0.140	-0.234
-502.683	-41.397	-0.128	0.066
-501.668	-99.397	-0.371	0.093
-500.653	800.000	0.024	0.096
-499.639	15.410	0.231	-0.181
-498.624	-101.948	0.217	0.052
-497.610	158.624	-0.043	-0.059
-496.595	-46.822	0.073	0.036
-495.581	-200.000	-0.001	-0.163
-494.566	800.000	0.038	-0.141
-493.551	227.983	-0.141	-0.230
-492.537	-94.060	-0.323	-0.088
-491.522	75.425	-0.103	0.108
-490.508	800.000	-0.056	0.172
-489.493	405.753	-0.079	-0.166
-488.478	-10.443	-0.145	0.096
-487.464	-94.091	0.235	0.064
-486.449	-200.000	-0.031	0.236
-485.435	-200.000	0.027	0.130
-484.420	6.108	-0.279	-0.206
-483.405	-136.351	-0.181	0.021
-482.391	-18.948	-0.275	0.171
-481.376	800.000	0.048	0.168
-480.362	-200.000	-0.019	0.164
-479.347	-102.037	-0.185	0.045
-478.332	115.725	0.185	0.226
-477.318	207.993	-0.146	0.228
-476.303	-24.833	-0.493	-0.293
-475.289	-200.000	0.066	0.312
-474.274	633.910	0.093	0.235
-473.259	147.442	0.191	0.257
-472.245	86.984	-0.176	-0.194
-471.230	-200.000	0.003	-0.031
-470.216	-51.145	-0.232	-0.108
-469.201	-200.000	-0.028	0.213
-468.186	-126.079	-0.029	0.004
-467.172	123.507	0.104	-0.130
-466.157	-11.920	-0.108	0.071
-465.143	-200.000	0.033	0.189
-464.128	-141.256	0.134	-0.014
-463.113	-61.770	-0.191	-0.080
-462.099	115.325	-0.106	0.129
-461.084	455.648	-0.105	0.233
-460.070	-23.465	0.306	-0.183
-459.055	36.860	0.109	-0.096
-458.040	-200.000	-0.015	-0.139
-457.026	-92.442	-0.107	-0.030
-456.011	-200.000	-0.020	0.140
-454.997	-159.679	-0.508	-0.028
-453.982	-158.754	0.308	0.018
-452.968	80.870	-0.179	0.193
-451.953	-200.000	-0.014	0.200
-450.938	-87.360	-0.274	-0.083
-449.924	-114.217	-0.286	-0.055
-448.909	166.814	0.258	0.365
-447.895	-30.292	0.086	0.049
-446.880	-81.626	-0.436	-0.143
-445.865	-170.914	0.176	0.006
-444.851	28.166	-0.274	-0.231
-443.836	800.000	0.096	-0.289
-442.822	6.530	0.166	-0.123
-441.807	800.000	0.098	0.295
-440.792	-38.169	0.144	0.076
-439.778	232.540	-0.192	-0.314
-438.763	146.071	-0.115	0.154
-437.749	800.000	0.033	-0.112
-436.734	-98.171	0.176	-0.045
-435.719	-146.964	-0.165	0.014
-434.705	-200.000	-0.009	-0.261
-433.690	800.000	-0.058	0.194
-432.676	-18.925	-0.117	0.073
-431.661	55.174	0.192	-0.185
-430.646	-200.000	0.020	-0.184
-429.632	80.338	0.107	0.115
-428.617	109.528	-0.166	0.198
-427.603	-141.118	0.229	-0.023
-426.588	385.199	0.064	-0.131
-425.573	-11.173	-0.274	0.180
-424.559	-151.751	0.058	-0.004
-423.544	-148.952	0.127	-0.010
-422.530	150.294	-0.115	-0.155
-421.515	-62.006	0.191	0.080
-420.500	53.953	-0.207	0.198
-419.486	-68.594	0.123	0.047
-418.471	-134.104	-0.259	-0.032
-417.457	-200.000	0.041	0.505
-416.442	483.788	-0.026	0.059
-415.428	326.582	-0.111	-0.212
-414.413	-47.229	0.262	0.127
-413.398	800.000	0.043	0.136
-412.384	-87.722	-0.244	0.073
-411.369	-5.898	-0.107	0.073
-410.355	-111.487	-0.067	0.014
-409.340	800.000	0.027	-0.080
-408.325	377.806	-0.109	-0.222
-407.311	-68.092	0.027	0.010
-406.296	-68.497	-0.122	-0.047
-405.282	-44.938	0.091	0.045
-404.267	0.069	-0.080	-0.057
-403.252	228.645	-0.135	0.219
-402.238	132.766	-0.093	-0.120
-401.223	623.329	-0.100	-0.251
-400.209	308.270	-0.046	-0.085
-399.194	-200.000	-0.019	0.169
-398.179	-76.115	0.156	-0.055
-397.165	86.863	-0.301	-0.331
-396.150	5.559	0.163	0.120
-395.136	252.392	-0.068	-0.115
-394.121	-36.171	-0.367	0.197
-393.106	648.903	0.158	-0.403
-392.092	-200.000	-0.039	0.248
-391.077	-126.206	0.382	-0.057
-390.063	161.205	-0.128	0.178
-389.048	-147.552	0.167	-0.014
-388.033	31.685	0.364	0.311
-387.019	-200.000	0.038	-0.245
-386.004	536.200	-0.089	0.209
-384.990	0.396	0.179	0.127
-383.975	107.629	0.079	-0.093
-382.960	-12.296	0.195	-0.127
-381.946	151.720	-0.256	-0.347
-380.931	-125.455	-0.235	0.036
-379.917	-128.203	0.094	-0.013
-378.902	123.871	-0.281	0.351
-377.888	31.572	-0.114	0.097
-376.873	171.934	0.212	0.303
-375.858	-71.735	0.105	0.039
-374.844	-200.000	-0.011	-0.270
-373.829	-200.000	-0.006	0.125
-372.815	44.631	-0.052	-0.048
-371.800	75.459	-0.059	0.062
-370.785	-200.000	0.016	0.138
-369.771	59.183	-0.142	0.139
-368.756	-21.541	0.285	-0.173
-367.742	40.251	-0.055	0.049
-366.727	-49.380	0.161	-0.076
-365.712	-200.000	-0.048	-0.310
-364.698	494.257	0.110	-0.251
-363.683	800.000	-0.086	0.290
-362.669	-105.382	0.059	0.013
-361.654	-33.785	0.284	-0.156
-360.639	800.000	-0.049	0.198
-359.625	133.089	0.128	-0.165
-358.610	142.230	0.145	-0.191
-357.596	662.254	-0.087	0.222
-356.581	210.219	0.076	-0.118
-355.566	50.774	-0.249	0.235
-354.552	270.584	-0.155	0.271
-353.537	-95.754	0.181	-0.048
-352.523	-110.238	-0.382	-0.079
-351.508	-200.000	0.027	-0.393
-350.493	-51.213	-0.313	0.146
-349.479	80.833	0.311	0.333
-348.464	800.000	0.054	0.178
-347.450	-60.780	0.211	0.089
-346.435	82.223	0.207	0.223
-345.420	-157.475	0.262	0.016
-344.406	-46.362	-0.251	0.123
-343.391	-132.078	-0.333	0.043
-342.377	-5.628	-0.174	-0.119
-341.362	73.017	0.317	0.329
-340.348	-81.470	-0.289	0.095
-339.333	-175.195	-0.117	-0.003
-338.318	-56.517	-0.121	-0.053
-337.304	-106.068	-0.144	0.032
-336.289	800.000	-0.098	-0.404
-335.275	-114.485	0.310	-0.059
-334.260	-84.957	-0.231	0.072
-333.245	-85.782	0.356	-0.110
-332.231	-38.352	0.209	0.110
-331.216	-200.000	0.023	0.252
-330.202	122.263	0.082	0.102
-329.187	-23.330	-0.302	-0.180
-328.172	618.426	0.055	0.138
-327.158	13.615	0.180	0.139
-326.143	-145.124	-0.381	-0.034
-325.129	-34.605	-0.187	-0.101
-324.114	-200.000	0.337	-0.000
-323.099	-120.237	-0.428	0.072
-322.085	800.000	-0.098	0.280
-321.070	3.910	0.302	0.219
-320.056	303.513	0.074	-0.136
-319.041	-33.141	0.040	-0.022
-318.026	-44.960	-0.283	-0.140
-317.012	259.865	0.172	-0.295
-315.997	800.000	0.105	-0.339
-314.983	86.697	0.120	0.131
-313.968	-50.375	0.240	-0.113
-312.953	-65.367	0.169	-0.067
-311.939	334.472	0.050	0.096
-310.924	27.126	0.295	-0.246
-309.910	800.000	0.027	-0.108
-308.895	-59.497	0.479	-0.204
-307.880	-80.549	0.096	0.032
-306.866	-200.000	-0.075	-0.345
-305.851	191.715	0.141	-0.211
-304.837	249.340	0.093	-0.156
-303.822	490.392	0.137	-0.310
-302.807	-35.854	-0.100	-0.054
-301.793	-90.481	-0.024	0.007
-300.778	-42.636	0.211	-0.106
-299.764	199.138	-0.040	0.061
-298.749	-135.343	0.222	-0.026
-297.735	360.172	-0.141	-0.279
-296.720	800.000	0.089	-0.315
-295.705	-151.965	0.196	-0.014
-294.691	-69.909	0.128	0.049
-293.676	84.535	0.136	0.147
-292.662	800.000	-0.047	-0.164
-291.647	-40.226	-0.075	0.039
-290.632	276.537	-0.062	0.108
-289.618	-200.000	-0.042	-0.619
-288.603	155.962	0.026	0.036
-287.589	794.789	0.092	-0.250
-286.574	175.178	-0.130	-0.186
-285.559	800.000	0.040	0.123
-284.545	157.311	-0.219	0.300
-283.530	25.236	0.332	-0.273
-282.516	-89.819	0.272	0.079
-281.501	-108.225	-0.126	0.027
-280.486	800.000	0.056	0.187
-279.472	800.000	-0.061	0.213
-278.457	-63.003	-0.132	0.054
-277.443	288.002	0.080	-0.143
-276.428	-200.000	0.002	0.326
-275.413	41.734	0.198	0.177
-274.399	-46.557	-0.130	0.063
-273.384	180.072	0.179	0.260
-272.370	33.112	-0.086	0.074
-271.355	-116.252	-0.203	0.037
-270.340	-62.435	-0.248	0.102
-269.326	93.340	0.144	-0.161
-268.311	-140.666	-0.195	-0.020
-267.297	-15.881	-0.204	0.128
-266.282	-27.751	-0.324	0.186
-265.267	287.809	0.235	0.422
-264.253	67.363	0.154	-0.156
-263.238	69.024	0.357	-0.363
-262.224	-34.616	-0.098	0.053
-261.209	496.666	0.065	-0.147
-260.195	-200.000	-0.026	-0.128
-259.180	-200.000	0.000	0.061
-258.165	28.856	0.221	-0.185
-257.151	800.000	0.035	0.116
-256.136	319.324	-0.029	-0.054
-255.122	239.779	-0.102	-0.169
-254.107	196.777	0.070	-0.106
-253.092	800.000	-0.064	-0.223
-252.078	-16.471	-0.169	0.106
-251.063	800.000	-0.100	0.302
-250.049	26.830	-0.176	0.146
-249.034	-53.663	-0.190	0.086
-248.019	-141.443	-0.059	-0.006
-247.005	-158.153	0.500	0.029
-245.990	-15.030	0.194	0.123
-244.976	223.256	0.153	-0.245
-243.961	27.772	0.301	0.251
-242.946	-67.567	0.374	0.145
-241.932	8.333	0.339	-0.252
-240.917	-137.645	-0.254	-0.028
-239.903	800.000	0.090	0.247
-238.888	800.000	0.099	-0.298
-237.873	65.803	-0.161	0.162
-236.859	-117.687	-0.473	-0.084
-235.844	-143.543	0.356	0.034
-234.830	-11.447	-0.138	-0.090
-233.815	57.863	0.228	0.220
-232.800	-16.048	-0.096	0.060
-231.786	57.988	-0.177	-0.172
-230.771	-200.000	0.029	0.138
-229.757	235.345	0.148	0.242
-228.742	-200.000	0.048	0.296
-227.727	127.969	-0.101	-0.127
-226.713	-51.717	0.328	0.151
-225.698	44.985	0.130	-0.118
-224.684	49.699	0.066	-0.061
-223.669	56.886	0.182	-0.175
-222.655	-185.034	-0.301	0.005
-221.640	647.642	0.161	0.407
-220.625	453.907	-0.154	0.337
-219.611	-87.121	-0.187	-0.056
-218.596	800.000	0.046	-0.143
-217.582	380.938	-0.047	0.094
-216.567	361.333	0.165	-0.328
-215.552	800.000	-0.067	0.207
-214.538	-200.000	-0.038	0.170
-213.523	-200.000	0.002	-0.205
-212.509	-200.000	0.002	0.042
-211.494	157.787	0.046	0.062
-210.479	-84.773	0.285	0.089
-209.465	-162.654	0.282	0.014
-208.450	-113.987	0.382	0.073
-207.436	-127.812	-0.201	0.029
-206.421	-130.541	-0.104	0.014
-205.406	800.000	0.046	-0.180
-204.392	-33.092	0.372	0.204
-203.377	-200.000	0.007	0.062
-202.363	-69.898	0.189	0.071
-201.348	110.579	0.257	0.306
-200.333	-154.142	0.329	0.022
-199.319	-124.350	0.179	0.028
-198.304	148.677	0.057	-0.075
-197.290	457.578	0.090	0.197
-196.275	-56.331	-0.241	0.106
-195.260	-46.745	0.208	-0.100
-194.246	6.392	0.123	-0.090
-193.231	800.000	0.066	-0.269
-192.217	-53.287	0.237	-0.107
-191.202	-157.281	-0.178	-0.011
-190.187	-153.831	-0.214	-0.014
-189.173	-153.587	-0.456	-0.031
-188.158	-200.000	0.019	-0.270
-187.144	41.057	-0.232	-0.207
-186.129	287.860	0.067	-0.119
-185.114	800.000	-0.089	-0.271
-184.100	85.226	-0.026	-0.028
-183.085	-141.951	-0.264	0.026
-182.071	43.145	0.277	-0.249
-181.056	-89.623	0.097	0.028
-180.042	-147.966	0.212	0.017
-179.027	181.032	0.012	-0.017
-178.012	-200.000	-0.029	0.131
-176.998	-164.457	0.222	0.010
-175.983	-21.878	-0.064	0.038
-174.969	39.998	0.117	0.104
-173.954	127.448	-0.101	0.126
-172.939	72.611	0.084	-0.087
-171.925	800.000	-0.026	0.092
-170.910	19.188	0.170	-0.134
-169.896	-200.000	0.014	-0.092
-168.881	-55.439	-0.174	0.077
-167.866	168.016	-0.107	-0.150
-166.852	-131.920	-0.134	0.017
-165.837	800.000	-0.034	0.109
-164.823	-154.087	-0.114	-0.008
-163.808	800.000	-0.030	0.114
-162.793	540.115	0.097	0.228
-161.779	205.180	0.107	0.163
-160.764	-191.972	0.103	-0.001
-159.750	-112.182	-0.152	-0.030
-158.735	-106.109	0.163	-0.036
-157.720	-200.000	-0.012	0.252
-156.706	116.706	0.091	-0.110
-155.691	48.797	0.143	0.132
-154.677	-42.667	0.099	-0.050
-153.662	-200.000	0.055	0.260
-152.647	-50.638	0.226	-0.105
-151.633	95.094	0.178	-0.199
-150.618	-94.167	0.088	-0.024
-149.604	517.583	0.107	-0.247
-148.589	383.244	0.135	0.274
-147.574	70.346	-0.094	0.096
-146.560	-85.162	-0.389	0.120
-145.545	-200.000	-0.060	-0.305
-144.531	-66.157	-0.179	0.070
-143.516	-125.942	0.283	0.042
-142.502	-6.691	0.306	0.205
-141.487	-42.505	-0.111	-0.056
-140.472	-160.902	0.268	-0.014
-139.458	-200.000	0.027	0.509
-138.443	225.898	0.232	0.371
-137.429	-200.000	-0.034	0.283
-136.414	-22.779	0.390	-0.232
-135.399	800.000	0.034	0.130
-134.385	-200.000	-0.028	-0.163
-133.370	-37.923	0.189	0.099
-132.356	-85.623	-0.166	0.051
-131.341	-114.601	-0.145	-0.027
-130.326	-145.217	-0.269	-0.024
-129.312	800.000	0.052	0.162
-128.297	800.000	-0.025	0.094
-127.283	411.153	0.085	0.178
-126.268	-111.458	-0.238	0.048
-125.253	-13.422	0.035	0.022
-124.239	-77.437	0.298	0.102
-123.224	-50.994	-0.515	-0.238
-122.210	-30.188	-0.276	0.155
-121.195	-95.539	-0.150	-0.040
