DTS Sentinel unit serial number:	SN413079Multiplexer serial number:	ORYXHardware model number:	OX4-SRSoftware version number:	ORYX F/W v4.00 Oryx Data Collector v3.7.2.0data status	okinstallation	princeton_trtdifferential loss correction	single-endedforward channel	channel 2reverse channel	N/Adate	2019/09/14time	00:31:34forward acquisition time	60.00reverse acquisition time	0.00gamma	496.2192k internal	0.2338k external	0.2338temperature offset calibration	1.0126default loss term (dB/km)	0.3790temperature slope calibration	1.0000multiplexer offset coefficient	1.0000multiplexer slope coefficient	1.0000fibre end	0.00T internal ref (°C)	26.44T ext. ref 1 (°C)	3.17T ext. ref 2 (°C)	21.16length (m)	temperature (°C)	Stokes	anti-Stokes-747.200	-200.000	0.054	0.295
-746.185	4.290	-0.253	0.186
-745.171	-200.000	0.011	0.083
-744.156	22.268	-0.287	-0.235
-743.142	-53.816	0.214	-0.098
-742.127	44.579	0.190	0.175
-741.112	-188.841	0.255	-0.003
-740.098	-200.000	-0.018	0.305
-739.083	89.679	0.070	0.078
-738.069	800.000	0.012	0.042
-737.054	-1.172	0.145	-0.103
-736.039	-126.797	-0.446	0.066
-735.025	256.688	-0.036	0.062
-734.010	-37.450	-0.226	-0.121
-732.996	259.942	0.044	-0.077
-731.981	51.996	0.071	0.068
-730.966	-76.499	0.122	-0.043
-729.952	800.000	-0.058	0.245
-728.937	-200.000	0.043	-0.257
-727.923	-42.875	0.169	0.086
-726.908	800.000	0.101	-0.430
-725.894	79.239	-0.255	-0.274
-724.879	-164.253	-0.251	-0.012
-723.864	367.919	0.097	-0.197
-722.850	-119.209	-0.209	-0.037
-721.835	800.000	0.069	-0.234
-720.821	-200.000	-0.011	0.102
-719.806	53.271	-0.102	0.098
-718.791	239.664	0.136	0.227
-717.777	42.924	0.043	-0.039
-716.762	-58.518	0.377	-0.164
-715.748	325.644	0.132	0.254
-714.733	-200.000	0.280	-0.001
-713.718	800.000	-0.007	-0.031
-712.704	-108.658	-0.128	-0.028
-711.689	-76.235	0.133	-0.047
-710.675	701.091	0.155	0.409
-709.660	3.378	-0.237	-0.173
-708.645	-200.000	-0.008	0.297
-707.631	-160.745	-0.203	0.011
-706.616	746.046	-0.090	0.243
-705.602	157.089	0.194	0.269
-704.587	92.619	-0.062	-0.070
-703.572	-85.708	-0.100	-0.031
-702.558	-112.182	-0.286	0.058
-701.543	53.463	0.124	-0.119
-700.529	137.634	-0.113	0.148
-699.514	748.021	-0.094	-0.254
-698.499	-200.000	-0.021	0.230
-697.485	643.399	-0.097	0.248
-696.470	110.582	0.310	-0.373
-695.456	-76.243	-0.053	0.019
-694.441	228.058	0.101	-0.165
-693.426	-60.719	0.432	0.184
-692.412	-200.000	0.036	-0.375
-691.397	-55.566	0.257	0.115
-690.383	382.701	-0.085	-0.174
-689.368	-126.449	-0.100	-0.015
-688.354	752.005	-0.041	-0.110
-687.339	800.000	-0.093	-0.314
-686.324	708.075	-0.060	-0.158
-685.310	415.912	0.014	-0.031
-684.295	-97.807	-0.217	-0.056
-683.281	711.113	-0.054	-0.142
-682.266	-200.000	0.048	-0.243
-681.251	-200.000	0.010	0.151
-680.237	107.739	0.051	-0.061
-679.222	-200.000	0.036	-0.248
-678.208	-29.714	-0.036	-0.021
-677.193	-105.086	-0.327	-0.075
-676.178	-99.892	-0.200	0.050
-675.164	800.000	-0.033	0.094
-674.149	-103.884	-0.277	0.065
-673.135	-19.540	-0.247	-0.153
-672.120	800.000	-0.059	0.235
-671.105	367.987	0.044	0.089
-670.091	706.284	-0.033	0.086
-669.076	13.531	-0.079	-0.061
-668.062	126.048	-0.098	-0.125
-667.047	8.561	0.210	0.158
-666.032	-46.764	0.393	-0.192
-665.018	2.971	-0.187	-0.136
-664.003	67.898	-0.147	0.150
-662.989	-117.315	-0.120	-0.022
-661.974	43.887	0.076	0.070
-660.959	-22.889	-0.190	0.114
-659.945	-167.632	-0.362	0.014
-658.930	209.624	-0.152	-0.238
-657.916	800.000	-0.027	-0.085
-656.901	-99.880	-0.025	0.006
-655.886	800.000	0.079	-0.260
-654.872	164.059	0.232	-0.327
-653.857	-162.666	-0.390	-0.019
-652.843	-200.000	0.008	-0.175
-651.828	-103.728	0.183	0.043
-650.814	83.422	-0.126	0.137
-649.799	131.630	-0.177	0.228
-648.784	-101.600	-0.247	-0.060
-647.770	-200.000	0.010	-0.227
-646.755	67.567	-0.158	-0.162
-645.741	-200.000	-0.038	-0.411
-644.726	800.000	0.046	-0.178
-643.711	-98.864	-0.355	-0.090
-642.697	-85.800	0.276	0.085
-641.682	-200.000	0.016	0.332
-640.668	-88.720	-0.123	-0.037
-639.653	61.799	0.060	0.059
-638.638	486.593	-0.018	-0.041
-637.624	123.883	0.023	-0.029
-636.609	-86.731	0.091	0.028
-635.595	-200.000	0.094	-0.523
-634.580	-11.390	-0.044	-0.029
-633.565	-5.949	0.320	0.219
-632.551	538.557	-0.092	-0.218
-631.536	76.404	-0.129	-0.136
-630.522	-136.060	-0.338	-0.040
-629.507	540.996	0.030	-0.072
-628.492	54.220	-0.154	0.148
-627.478	14.291	0.345	0.269
-626.463	-105.996	-0.160	-0.036
-625.449	800.000	0.032	0.121
-624.434	800.000	0.065	0.193
-623.419	-82.814	-0.234	-0.075
-622.405	-75.010	-0.282	-0.101
-621.390	68.200	0.132	0.135
-620.376	-85.329	0.203	0.063
-619.361	6.624	0.223	0.166
-618.346	98.637	0.049	0.056
-617.332	-47.478	-0.076	-0.037
-616.317	-127.771	0.121	0.017
-615.303	800.000	-0.113	-0.450
-614.288	280.702	-0.087	0.156
-613.273	2.664	0.192	0.139
-612.259	-100.294	-0.324	-0.080
-611.244	-200.000	-0.025	0.229
-610.230	-132.849	0.319	0.041
-609.215	-21.045	0.133	0.081
-608.201	296.947	-0.139	0.255
-607.186	24.727	0.136	0.112
-606.171	-135.282	0.150	-0.018
-605.157	-64.994	0.292	0.118
-604.142	-200.000	-0.060	-0.305
-603.128	-40.111	-0.159	0.082
-602.113	158.082	-0.054	-0.075
-601.098	129.726	0.140	-0.179
-600.084	800.000	0.042	-0.153
-599.069	-200.000	0.004	0.259
-598.055	139.719	-0.229	-0.300
-597.040	-200.000	-0.034	-0.350
-596.025	24.807	-0.083	0.069
-595.011	-96.149	-0.191	-0.051
-593.996	146.598	0.056	0.075
-592.982	-8.611	0.067	0.045
-591.967	-101.277	-0.244	0.059
-590.952	-109.983	-0.175	-0.036
-589.938	80.395	0.083	-0.089
-588.923	14.789	-0.252	0.196
-587.909	-63.871	-0.223	0.091
-586.894	658.805	-0.055	0.142
-585.879	-86.459	-0.196	-0.060
-584.865	-93.604	0.274	0.076
-583.850	800.000	-0.088	-0.358
-582.836	-49.258	0.102	-0.049
-581.821	-83.197	0.336	0.108
-580.806	79.412	-0.098	0.105
-579.792	116.114	0.277	0.339
-578.777	800.000	0.014	-0.047
-577.763	800.000	0.037	-0.113
-576.748	231.671	0.212	0.346
-575.733	764.904	-0.174	-0.471
-574.719	316.082	0.147	-0.277
-573.704	-200.000	0.029	0.619
-572.690	55.189	-0.302	-0.291
-571.675	800.000	-0.077	0.330
-570.661	327.035	0.077	-0.148
-569.646	105.371	-0.073	-0.086
-568.631	-200.000	0.002	-0.141
-567.617	-144.539	0.107	0.010
-566.602	-30.123	0.136	-0.077
-565.588	-38.529	-0.201	-0.106
-564.573	-200.000	-0.077	-0.388
-563.558	610.846	0.094	0.235
-562.544	149.243	0.080	-0.109
-561.529	58.667	0.054	-0.053
-560.515	83.055	0.306	-0.331
-559.500	-76.938	-0.097	-0.034
-558.485	-121.996	-0.338	0.055
-557.471	68.942	0.265	0.271
-556.456	-4.251	0.179	-0.123
-555.442	-200.000	-0.020	0.143
-554.427	75.057	-0.173	-0.182
-553.412	113.020	0.335	-0.405
-552.398	304.375	-0.092	-0.170
-551.383	-27.594	0.078	0.045
-550.369	-119.127	-0.325	-0.057
-549.354	800.000	-0.023	-0.065
-548.339	800.000	-0.125	-0.455
-547.325	800.000	0.097	0.343
-546.310	311.613	0.086	0.160
-545.296	-53.235	0.249	-0.114
-544.281	-200.000	0.012	-0.331
-543.266	-18.162	-0.306	0.191
-542.252	-140.361	0.097	0.010
-541.237	-132.521	-0.147	0.019
-540.223	-70.758	-0.178	0.067
-539.208	-19.460	0.045	0.028
-538.193	-66.130	0.437	0.174
-537.179	256.024	0.102	-0.174
-536.164	76.855	-0.154	0.163
-535.150	48.442	0.252	0.235
-534.135	-29.009	-0.185	0.106
-533.121	64.447	0.192	0.193
-532.106	94.707	0.210	0.237
-531.091	93.929	-0.137	-0.154
-530.077	-75.332	0.131	0.046
-529.062	461.749	0.177	-0.393
-528.048	-142.161	0.206	0.020
-527.033	4.821	-0.163	-0.119
-526.018	734.559	0.140	-0.373
-525.004	-200.000	0.009	0.052
-523.989	800.000	-0.018	0.050
-522.975	-66.296	0.186	-0.074
-521.960	-200.000	-0.003	-0.154
-520.945	466.452	-0.138	0.307
-519.931	-200.000	0.024	0.208
-518.916	-104.864	-0.390	-0.089
-517.902	800.000	-0.059	0.252
-516.887	-180.147	0.245	0.005
-515.872	800.000	0.098	-0.380
-514.858	-200.000	-0.009	-0.492
-513.843	-113.369	0.476	0.093
-512.829	226.483	0.091	-0.146
-511.814	26.178	0.204	-0.170
-510.799	-39.698	0.090	0.047
-509.785	-164.596	0.303	-0.014
-508.770	341.587	-0.082	0.159
-507.756	-64.340	-0.169	0.068
-506.741	-21.680	0.135	-0.081
-505.726	-9.100	-0.555	0.369
-504.712	26.736	0.147	0.122
-503.697	-45.891	0.221	-0.108
-502.683	32.464	-0.132	-0.113
-501.668	-200.000	-0.031	0.164
-500.653	62.568	-0.103	-0.103
-499.639	68.345	0.275	-0.280
-498.624	-200.000	-0.001	-0.133
-497.610	-73.939	-0.126	-0.046
-496.595	-163.512	0.216	0.010
-495.581	-200.000	0.034	-0.177
-494.566	800.000	0.078	0.273
-493.551	185.498	0.189	0.278
-492.537	-41.910	-0.077	0.039
-491.522	37.242	0.135	-0.118
-490.508	800.000	0.076	-0.246
-489.493	-59.316	-0.112	-0.048
-488.478	48.027	-0.119	0.110
-487.464	-61.559	0.163	0.068
-486.449	-200.000	0.020	-0.102
-485.435	120.379	-0.079	0.097
-484.420	-172.942	0.421	-0.013
-483.405	-73.282	0.064	0.023
-482.391	800.000	-0.019	-0.058
-481.376	-69.949	-0.417	0.158
-480.362	800.000	0.048	0.207
-479.347	-23.912	-0.185	0.110
-478.332	49.590	0.032	-0.030
-477.318	-109.662	-0.420	0.088
-476.303	146.604	0.179	0.238
-475.289	353.904	0.125	-0.247
-474.274	154.076	-0.245	0.334
-473.259	-143.936	0.271	0.025
-472.245	800.000	0.023	-0.075
-471.230	17.981	0.113	0.089
-470.216	90.620	-0.085	-0.095
-469.201	121.412	-0.098	0.121
-468.186	79.948	-0.044	0.047
-467.172	291.664	0.091	-0.164
-466.157	277.166	-0.151	-0.267
-465.143	55.544	0.144	-0.139
-464.128	191.437	-0.253	0.378
-463.113	-112.971	-0.073	-0.014
-462.099	-33.532	-0.084	0.046
-461.084	-108.574	0.081	-0.017
-460.070	163.498	0.241	-0.337
-459.055	33.291	-0.081	-0.070
-458.040	-200.000	0.031	-0.259
-457.026	-58.062	-0.266	-0.115
-456.011	-28.355	0.030	0.017
-454.997	115.474	-0.213	-0.258
-453.982	-139.355	-0.247	-0.026
-452.968	-128.698	-0.166	-0.023
-451.953	31.251	0.245	0.209
-450.938	-188.224	0.071	-0.001
-449.924	62.103	-0.162	-0.160
-448.909	164.780	-0.039	0.054
-447.895	800.000	0.042	-0.155
-446.880	-24.777	0.255	0.150
-445.865	208.681	0.198	-0.307
-444.851	-63.808	-0.309	0.125
-443.836	114.132	-0.132	-0.160
-442.822	25.117	-0.137	0.113
-441.807	-200.000	-0.047	0.272
-440.792	-200.000	-0.007	-0.111
-439.778	-105.626	-0.072	0.016
-438.763	800.000	-0.012	-0.051
-437.749	695.888	-0.097	-0.252
-436.734	509.407	0.063	-0.144
-435.719	-49.894	0.213	0.100
-434.705	515.579	-0.037	-0.085
-433.690	-15.955	-0.085	0.054
-432.676	652.998	-0.126	-0.320
-431.661	-22.047	0.075	-0.045
-430.646	-200.000	0.006	-0.060
-429.632	-200.000	-0.016	0.253
-428.617	-135.007	-0.390	0.047
-427.603	114.016	0.303	-0.366
-426.588	29.263	-0.204	0.172
-425.573	14.771	-0.247	-0.192
-424.559	-119.620	0.241	-0.041
-423.544	-75.015	-0.390	-0.139
-422.530	-26.026	-0.157	-0.092
-421.515	27.465	-0.106	0.088
-420.500	-74.175	0.314	-0.113
-419.486	-107.577	0.029	0.006
-418.471	-135.232	0.150	-0.018
-417.457	54.364	-0.083	-0.079
-416.442	-54.278	0.255	-0.115
-415.428	800.000	0.074	0.250
-414.413	652.474	0.099	0.252
-413.398	-115.616	0.093	-0.017
-412.384	-200.000	-0.024	-0.204
-411.369	-200.000	0.020	-0.087
-410.355	-14.765	-0.225	0.143
-409.340	769.901	0.115	-0.310
-408.325	-3.058	0.250	-0.172
-407.311	306.310	-0.175	-0.323
-406.296	8.099	0.063	-0.047
-405.282	126.456	-0.135	-0.169
-404.267	773.825	0.039	-0.106
-403.252	697.268	-0.054	-0.140
-402.238	18.654	0.088	-0.069
-401.223	-200.000	0.014	-0.066
-400.209	-29.156	0.280	-0.159
-399.194	-173.540	-0.337	0.010
-398.179	54.809	-0.176	-0.169
-397.165	42.824	0.160	-0.144
-396.150	800.000	-0.065	0.215
-395.136	-139.685	0.215	0.023
-394.121	-101.848	0.083	-0.020
-393.106	-200.000	-0.000	-0.236
-392.092	-200.000	-0.026	-0.182
-391.077	479.505	0.243	0.544
-390.063	84.477	-0.193	0.209
-389.048	-200.000	0.016	0.292
-388.033	423.629	0.162	0.345
-387.019	601.687	-0.083	0.205
-386.004	-29.311	-0.313	-0.177
-384.990	-37.884	0.064	0.033
-383.975	-65.950	-0.045	-0.018
-382.960	391.533	-0.066	-0.136
-381.946	-200.000	-0.026	-0.178
-380.931	-200.000	0.036	-0.156
-379.917	40.031	0.139	0.123
-378.902	123.491	-0.096	-0.120
-377.888	-22.974	0.071	0.042
-376.873	-69.010	0.208	0.079
-375.858	65.246	0.159	0.159
-374.844	800.000	0.047	0.167
-373.829	-141.335	-0.477	0.048
-372.815	-163.590	-0.120	0.006
-371.800	-85.481	0.218	0.067
-370.785	800.000	-0.020	0.057
-369.771	8.241	0.289	-0.215
-368.756	-5.379	-0.249	-0.169
-367.742	-133.941	0.135	0.017
-366.727	-81.973	0.263	0.085
-365.712	-35.703	-0.422	0.226
-364.698	800.000	0.070	0.202
-363.683	1.639	-0.086	-0.061
-362.669	-60.596	0.248	-0.104
-361.654	570.960	0.109	-0.263
-360.639	-88.619	0.195	0.057
-359.625	800.000	-0.041	-0.153
-358.610	671.293	0.050	0.128
-357.596	113.323	0.108	0.129
-356.581	549.801	-0.062	0.147
-355.566	11.631	0.280	0.213
-354.552	-20.793	-0.179	0.108
-353.537	336.165	0.102	0.196
-352.523	55.557	-0.101	0.096
-351.508	-200.000	0.027	0.132
-350.493	276.159	0.046	-0.080
-349.479	180.045	-0.146	-0.212
-348.464	-76.263	0.160	0.056
-347.450	800.000	0.047	-0.170
-346.435	-200.000	-0.037	-0.218
-345.420	386.772	0.106	0.217
-344.406	337.066	0.102	0.196
-343.391	800.000	0.031	0.098
-342.377	-78.130	-0.199	0.068
-341.362	-108.312	0.251	-0.054
-340.348	533.464	-0.110	0.258
-339.333	-200.000	0.002	-0.225
-338.318	-197.107	-0.217	-0.001
-337.304	-200.000	-0.097	0.422
-336.289	-200.000	-0.044	0.245
-335.275	-101.936	0.052	0.012
-334.260	500.794	0.080	-0.182
-333.245	300.124	0.042	0.076
-332.231	-114.285	0.264	-0.050
-331.216	-174.613	0.153	0.004
-330.202	800.000	0.124	-0.404
-329.187	13.138	-0.189	-0.144
-328.172	-83.137	-0.361	0.115
-327.158	-200.000	0.033	0.166
-326.143	-200.000	0.005	-0.093
-325.129	-12.793	0.077	-0.049
-324.114	55.684	0.112	-0.107
-323.099	39.253	-0.139	-0.123
-322.085	-200.000	0.028	0.198
-321.070	128.337	0.178	0.224
-320.056	24.944	-0.173	-0.142
-319.041	-160.995	0.386	0.020
-318.026	-200.000	0.000	0.265
-317.012	715.614	-0.176	0.460
-315.997	326.755	-0.171	0.324
-314.983	-200.000	-0.009	-0.146
-313.968	300.191	0.149	-0.272
-312.953	-200.000	0.037	0.254
-311.939	-200.000	0.181	-0.000
-310.924	-111.870	0.134	0.027
-309.910	-147.479	-0.182	-0.015
-308.895	686.521	-0.097	0.249
-307.880	-58.601	-0.200	-0.085
-306.866	142.565	0.163	0.214
-305.851	140.185	-0.108	0.141
-304.837	-142.333	-0.254	0.025
-303.822	-86.512	0.091	-0.027
-302.807	-25.194	0.085	-0.050
-301.793	-200.000	-0.007	0.153
-300.778	-200.000	0.023	-0.135
-299.764	175.739	-0.143	-0.205
-298.749	501.604	-0.062	-0.141
-297.735	-154.349	0.060	0.004
-296.720	67.734	-0.246	-0.248
-295.705	328.875	-0.075	0.142
-294.691	-178.940	0.133	0.003
-293.676	800.000	0.083	0.309
-292.662	-200.000	0.027	-0.126
-291.647	228.790	-0.137	-0.220
-290.632	7.384	0.145	-0.107
-289.618	-200.000	0.008	-0.253
-288.603	-200.000	-0.019	-0.428
-287.589	-1.167	-0.172	0.120
-286.574	-21.771	0.223	0.134
-285.559	220.681	0.055	0.087
-284.545	-3.899	0.286	0.195
-283.530	103.008	0.164	0.189
-282.516	-68.846	-0.024	0.009
-281.501	-5.085	-0.177	0.120
-280.486	-9.229	-0.114	-0.075
-279.472	131.805	0.266	0.337
-278.457	-200.000	-0.013	0.075
-277.443	-123.031	-0.034	0.005
-276.428	310.837	0.075	0.138
-275.413	412.123	0.061	-0.128
-274.399	-51.601	-0.138	-0.063
-273.384	190.132	0.102	-0.150
-272.370	297.926	0.121	0.219
-271.355	-200.000	0.030	0.168
-270.340	503.783	0.071	-0.163
-269.326	-200.000	-0.017	-0.200
-268.311	-200.000	0.006	-0.250
-267.297	3.229	0.230	0.165
-266.282	-69.877	-0.229	-0.086
-265.267	-200.000	-0.019	0.190
-264.253	88.683	-0.101	0.111
-263.238	-200.000	-0.013	0.106
-262.224	165.601	0.445	0.620
-261.209	341.154	0.046	-0.089
-260.195	-122.825	-0.294	0.047
-259.180	-65.333	-0.097	-0.039
-258.165	-23.186	0.179	0.106
-257.151	-119.398	-0.317	-0.054
-256.136	180.089	-0.045	-0.065
-255.122	324.407	0.064	-0.121
-254.107	30.728	0.093	-0.078
-253.092	86.847	-0.174	0.189
-252.078	94.444	0.142	0.159
-251.063	-190.050	0.279	0.003
-250.049	74.931	0.248	-0.257
-249.034	131.121	-0.200	0.253
-248.019	-75.754	-0.356	0.124
-247.005	266.180	0.092	-0.158
-245.990	-49.717	-0.153	-0.071
-244.976	-200.000	-0.072	0.340
-243.961	286.409	-0.204	0.362
-242.946	-106.979	0.085	0.018
-241.932	23.620	-0.126	0.102
-240.917	-53.292	0.083	0.037
-239.903	70.951	0.040	-0.041
-238.888	-137.805	0.105	-0.012
-237.873	-131.949	0.478	0.061
-236.859	61.138	-0.194	0.190
-235.844	6.121	-0.233	0.170
-234.830	-200.000	0.007	0.125
-233.815	-8.305	-0.209	-0.138
-232.800	269.671	0.052	-0.090
-231.786	800.000	-0.083	0.247
-230.771	35.190	-0.085	-0.073
-229.757	-23.417	-0.404	0.239
-228.742	-190.856	-0.118	-0.001
-227.727	10.653	0.230	-0.172
-226.713	-200.000	0.020	0.310
-225.698	-92.013	-0.275	0.077
-224.684	14.684	0.265	-0.204
-223.669	-128.293	0.552	-0.077
-222.655	-111.563	-0.198	0.040
-221.640	-200.000	0.028	0.125
-220.625	91.403	0.206	0.227
-219.611	-1.235	-0.343	0.238
-218.596	-71.267	0.333	-0.123
-217.582	-145.101	-0.367	-0.033
-216.567	-200.000	-0.021	-0.205
-215.552	155.314	0.122	-0.165
-214.538	-94.225	0.281	0.076
-213.523	74.029	-0.155	0.160
-212.509	-78.765	-0.369	-0.124
-211.494	800.000	-0.163	0.531
-210.479	-62.675	-0.120	-0.049
-209.465	-200.000	-0.057	0.349
-208.450	-159.776	0.227	0.012
-207.436	-5.888	-0.202	-0.136
-206.421	-101.813	-0.280	0.067
-205.406	194.255	0.085	-0.126
-204.392	268.438	-0.038	0.065
-203.377	800.000	0.014	0.057
-202.363	-200.000	0.052	0.238
-201.348	-86.803	-0.072	0.022
-200.333	-121.468	0.162	0.027
-199.319	52.778	-0.304	-0.286
-198.304	250.680	-0.107	-0.179
-197.290	-38.804	-0.231	-0.120
-196.275	-122.519	0.329	-0.053
-195.260	83.452	-0.038	0.040
-194.246	112.758	0.065	0.077
-193.231	-200.000	0.016	0.416
-192.217	170.312	-0.130	-0.183
-191.202	26.493	0.159	-0.131
-190.187	25.536	0.112	0.092
-189.173	19.455	0.169	-0.133
-188.158	43.474	-0.006	0.005
-187.144	-135.631	-0.420	-0.049
-186.129	-200.000	-0.011	-0.161
-185.114	144.677	0.081	-0.106
-184.100	8.306	-0.121	-0.089
-183.085	800.000	0.089	-0.242
-182.071	176.827	-0.089	0.127
-181.056	487.463	-0.099	0.222
-180.042	-101.630	0.305	0.073
-179.027	-133.717	0.292	0.036
-178.012	800.000	0.046	-0.135
-176.998	-52.595	-0.147	0.066
-175.983	-148.579	0.201	-0.016
-174.969	97.792	-0.164	0.185
-173.954	526.167	0.073	-0.170
-172.939	800.000	-0.064	0.227
-171.925	-200.000	0.030	-0.182
-170.910	800.000	0.041	-0.127
-169.896	283.539	-0.075	-0.133
-168.881	-200.000	-0.020	-0.369
-167.866	-114.042	0.062	-0.012
-166.852	314.453	-0.128	-0.236
-165.837	-116.085	-0.143	0.026
-164.823	-184.841	0.237	0.004
-163.808	-200.000	0.005	-0.254
-162.793	-53.256	-0.070	-0.031
-161.779	800.000	0.154	0.464
-160.764	-78.336	0.128	-0.043
-159.750	602.983	0.039	-0.095
-158.735	206.850	-0.205	-0.314
-157.720	-57.724	-0.192	-0.083
-156.706	79.925	-0.209	-0.220
-155.691	-200.000	-0.013	-0.114
-154.677	-200.000	0.008	0.377
-153.662	-200.000	0.028	-0.147
-152.647	-33.839	-0.370	0.200
-151.633	200.249	-0.142	0.214
-150.618	150.117	0.130	-0.173
-149.604	5.799	-0.062	-0.045
-148.589	35.055	0.075	-0.065
-147.574	187.104	0.132	-0.193
-146.560	-148.040	-0.080	-0.007
-145.545	-38.645	0.082	0.042
-144.531	-200.000	0.020	0.124
-143.516	-104.346	-0.126	0.029
-142.502	11.231	-0.115	0.086
-141.487	624.715	0.082	0.203
-140.472	-143.580	0.366	-0.034
-139.458	528.133	-0.128	0.297
-138.443	-58.068	0.118	-0.051
-137.429	800.000	-0.072	-0.254
-136.414	800.000	0.028	0.102
-135.399	7.403	-0.083	-0.061
-134.385	-34.378	0.143	0.077
-133.370	126.422	-0.054	-0.067
-132.356	58.539	-0.287	-0.276
-131.341	117.499	0.277	0.334
-130.326	-200.000	0.057	0.253
-129.312	-68.192	0.143	0.055
-128.297	-148.197	0.374	-0.030
-127.283	126.249	0.120	-0.148
-126.268	-146.862	-0.146	-0.012
-125.253	-200.000	0.006	-0.073
-124.239	-200.000	-0.000	0.134
-123.224	800.000	-0.102	0.345
-122.210	800.000	0.118	0.409
-121.195	134.445	0.202	-0.257
-120.180	-197.069	0.236	-0.001
