DTS Sentinel unit serial number:	SN413079Multiplexer serial number:	ORYXHardware model number:	OX4-SRSoftware version number:	ORYX F/W v4.00 Oryx Data Collector v3.7.2.0data status	okinstallation	princeton_trtdifferential loss correction	single-endedforward channel	channel 2reverse channel	N/Adate	2019/09/18time	17:47:35forward acquisition time	60.00reverse acquisition time	0.00gamma	496.2192k internal	0.2298k external	0.2298temperature offset calibration	1.0021default loss term (dB/km)	0.3790temperature slope calibration	1.0000multiplexer offset coefficient	1.0000multiplexer slope coefficient	1.0000fibre end	0.00T internal ref (°C)	40.25T ext. ref 1 (°C)	0.91T ext. ref 2 (°C)	33.26length (m)	temperature (°C)	Stokes	anti-Stokes-747.200	-4.132	0.094	0.066
-746.185	706.684	-0.061	0.164
-745.171	-200.000	-0.005	0.213
-744.156	-44.837	0.040	0.020
-743.142	-79.408	0.352	-0.122
-742.127	28.435	0.222	0.191
-741.112	-200.000	-0.061	-0.636
-740.098	399.868	-0.053	-0.113
-739.083	-200.000	0.039	-0.212
-738.069	18.599	-0.168	0.137
-737.054	3.535	0.020	0.015
-736.039	83.708	0.039	-0.043
-735.025	-144.912	0.283	0.026
-734.010	129.284	-0.268	-0.349
-732.996	-200.000	-0.091	0.584
-731.981	77.726	0.225	-0.244
-730.966	4.177	0.303	-0.226
-729.952	21.502	-0.218	-0.181
-728.937	800.000	-0.036	-0.117
-727.923	-87.125	-0.149	-0.046
-726.908	20.124	0.160	-0.131
-725.894	-182.512	-0.469	-0.009
-724.879	155.819	0.023	-0.032
-723.864	47.122	-0.271	-0.258
-722.850	-200.000	-0.004	-0.358
-721.835	-183.104	0.400	0.007
-720.821	-92.318	0.173	0.050
-719.806	-166.701	-0.243	-0.010
-718.791	-110.293	0.327	-0.069
-717.777	-155.818	0.096	-0.006
-716.762	447.226	-0.011	-0.025
-715.748	-111.857	0.127	0.026
-714.733	193.301	0.156	-0.240
-713.718	-49.708	0.259	-0.126
-712.704	-125.603	-0.183	0.028
-711.689	279.929	0.077	-0.141
-710.675	7.427	-0.238	0.181
-709.660	101.282	0.291	0.346
-708.645	-45.413	-0.109	-0.055
-707.631	671.840	-0.025	-0.066
-706.616	11.006	-0.074	0.057
-705.602	-200.000	0.035	-0.173
-704.587	10.603	0.077	0.060
-703.572	-59.587	-0.204	0.089
-702.558	-200.000	0.007	0.068
-701.543	-54.570	-0.086	0.040
-700.529	-18.359	0.171	0.109
-699.514	-200.000	-0.020	-0.193
-698.499	-61.573	0.050	0.022
-697.485	-88.185	-0.326	0.100
-696.470	154.402	0.102	-0.142
-695.456	32.848	-0.196	0.173
-694.441	-82.380	-0.075	0.025
-693.426	800.000	-0.018	0.051
-692.412	-200.000	-0.000	0.149
-691.397	800.000	-0.028	0.112
-690.383	60.598	0.140	-0.141
-689.368	-91.511	0.276	-0.080
-688.354	103.835	0.056	-0.067
-687.339	-101.914	0.468	-0.115
-686.324	-92.084	0.266	-0.077
-685.310	54.271	-0.061	-0.059
-684.295	-61.332	-0.166	0.071
-683.281	-48.752	-0.271	-0.132
-682.266	689.540	0.018	-0.048
-681.251	72.566	-0.128	0.136
-680.237	-144.800	-0.343	0.032
-679.222	-200.000	0.021	-0.145
-678.208	82.600	0.313	0.346
-677.193	196.204	0.089	0.137
-676.178	-41.683	-0.322	-0.168
-675.164	-36.705	-0.056	-0.030
-674.149	546.710	-0.137	-0.333
-673.135	604.505	-0.091	0.232
-672.120	800.000	-0.111	-0.480
-671.105	-74.934	-0.246	-0.090
-670.091	-27.802	-0.052	0.031
-669.076	470.274	0.086	0.197
-668.062	233.677	0.245	-0.411
-667.047	800.000	-0.017	-0.064
-666.032	-5.014	-0.679	-0.476
-665.018	230.273	0.119	-0.198
-664.003	-36.169	-0.211	-0.116
-662.989	294.882	-0.131	0.244
-661.974	-200.000	0.008	0.083
-660.959	-12.917	-0.128	0.085
-659.945	-75.985	-0.253	0.091
-658.930	352.546	0.113	-0.229
-657.916	-200.000	-0.003	-0.043
-656.901	-112.598	0.255	0.052
-655.886	-100.653	-0.134	-0.034
-654.872	-71.629	-0.193	0.073
-653.857	73.735	-0.128	-0.137
-652.843	800.000	0.056	-0.240
-651.828	85.955	-0.253	-0.283
-650.814	800.000	0.032	-0.114
-649.799	-200.000	-0.005	-0.181
-648.784	-135.659	0.228	-0.027
-647.770	800.000	0.035	-0.102
-646.755	-38.940	0.167	-0.089
-645.741	-189.482	-0.362	-0.004
-644.726	53.346	0.177	-0.173
-643.711	-200.000	-0.024	-0.147
-642.697	104.000	-0.249	-0.297
-641.682	-200.000	-0.023	0.402
-640.668	-27.414	-0.131	0.077
-639.653	800.000	-0.057	-0.169
-638.638	-110.272	-0.092	0.020
-637.624	-87.038	-0.232	0.072
-636.609	90.203	-0.053	-0.060
-635.595	-200.000	-0.016	0.169
-634.580	156.878	-0.040	-0.056
-633.565	86.353	-0.303	-0.339
-632.551	-62.214	-0.211	-0.089
-631.536	463.891	0.128	-0.290
-630.522	-102.722	0.098	-0.024
-629.507	-91.986	-0.161	-0.046
-628.492	45.408	-0.216	0.202
-627.478	672.376	-0.089	0.234
-626.463	-200.000	-0.011	0.282
-625.449	44.064	-0.149	-0.139
-624.434	800.000	-0.095	-0.323
-623.419	-57.989	-0.398	0.177
-622.405	-5.434	-0.168	0.117
-621.390	800.000	-0.053	0.154
-620.376	436.250	0.151	0.334
-619.361	38.299	0.047	0.042
-618.346	22.947	-0.130	0.108
-617.332	-68.374	0.152	-0.060
-616.317	-140.061	-0.134	-0.014
-615.303	69.035	-0.197	-0.206
-614.288	-2.379	-0.041	0.029
-613.273	-131.680	-0.269	-0.036
-612.259	-161.830	0.217	-0.011
-611.244	80.479	-0.088	0.096
-610.230	-200.000	-0.018	0.129
-609.215	-133.885	0.128	0.016
-608.201	-55.874	0.474	-0.215
-607.186	-122.464	0.190	-0.031
-606.171	-40.022	-0.310	0.164
-605.157	409.875	-0.176	0.379
-604.142	800.000	-0.193	0.576
-603.128	18.913	-0.053	0.043
-602.113	800.000	0.045	0.145
-601.098	-6.910	0.135	-0.093
-600.084	-2.066	-0.026	0.019
-599.069	-200.000	-0.048	0.364
-598.055	-6.265	0.207	-0.144
-597.040	800.000	0.051	0.143
-596.025	24.888	-0.151	0.127
-595.011	-200.000	0.016	0.450
-593.996	37.567	0.116	0.105
-592.982	-56.425	-0.121	-0.055
-591.967	203.890	-0.110	-0.173
-590.952	800.000	0.048	0.186
-589.938	53.430	0.322	0.314
-588.923	-71.170	-0.114	0.043
-587.909	800.000	0.094	-0.305
-586.894	132.711	0.070	-0.092
-585.879	102.642	0.081	-0.096
-584.865	-200.000	0.028	-0.141
-583.850	-101.069	-0.111	-0.027
-582.836	50.114	-0.108	-0.103
-581.821	435.138	0.057	-0.126
-580.806	458.001	-0.093	-0.210
-579.792	-200.000	-0.060	0.481
-578.777	231.444	-0.173	-0.288
-577.763	117.947	0.143	-0.179
-576.748	-147.480	-0.220	-0.019
-575.733	-6.167	-0.198	-0.137
-574.719	106.623	0.103	0.124
-573.704	800.000	-0.055	0.214
-572.690	163.080	-0.173	0.246
-571.675	-74.142	-0.165	-0.061
-570.661	800.000	-0.021	0.085
-569.646	-26.785	0.231	-0.137
-568.631	88.139	0.051	0.057
-567.617	800.000	-0.077	-0.315
-566.602	283.372	-0.059	-0.108
-565.588	123.383	-0.190	0.242
-564.573	-3.073	-0.329	-0.233
-563.558	-92.182	0.077	0.022
-562.544	265.005	0.199	-0.351
-561.529	148.546	-0.094	-0.128
-560.515	-27.463	-0.181	-0.107
-559.500	-88.690	-0.052	-0.016
-558.485	300.740	0.183	-0.341
-557.471	-93.054	0.109	-0.031
-556.456	46.446	-0.190	-0.178
-555.442	-19.882	-0.208	0.130
-554.427	456.911	-0.155	0.348
-553.412	367.408	-0.047	-0.097
-552.398	-200.000	0.052	0.316
-551.383	-200.000	0.007	0.120
-550.369	112.656	0.217	-0.266
-549.354	382.033	-0.095	0.198
-548.339	130.357	0.227	0.294
-547.325	166.146	0.108	0.155
-546.310	800.000	0.022	-0.082
-545.296	-126.040	0.053	0.008
-544.281	-81.261	0.229	-0.077
-543.266	185.552	0.094	0.141
-542.252	-200.000	0.021	-0.129
-541.237	95.026	0.080	0.092
-540.223	-89.868	-0.162	0.048
-539.208	502.686	-0.055	0.130
-538.193	96.293	-0.046	0.054
-537.179	-111.044	-0.435	0.090
-536.164	-179.625	-0.208	-0.005
-535.150	159.621	0.144	-0.203
-534.135	691.818	0.087	0.231
-533.121	-200.000	0.021	-0.100
-532.106	-174.849	-0.129	-0.004
-531.091	309.284	-0.101	-0.191
-530.077	-136.764	0.222	-0.026
-529.062	800.000	0.072	-0.237
-528.048	-65.364	-0.101	0.041
-527.033	-96.826	-0.014	-0.004
-526.018	-108.056	-0.240	0.053
-525.004	-52.620	-0.360	-0.168
-523.989	-97.014	0.109	0.029
-522.975	-38.622	0.180	0.096
-521.960	-200.000	-0.025	-0.148
-520.945	490.518	-0.115	-0.266
-519.931	415.687	-0.032	-0.068
-518.916	-76.272	0.294	-0.105
-517.902	39.705	-0.173	-0.157
-516.887	-200.000	-0.027	0.150
-515.872	-200.000	-0.001	0.063
-514.858	362.360	0.107	-0.218
-513.843	-25.404	-0.248	-0.148
-512.829	56.584	-0.094	-0.092
-511.814	-200.000	0.015	0.087
-510.799	263.273	-0.193	-0.339
-509.785	398.480	-0.023	-0.050
-508.770	800.000	0.019	-0.060
-507.756	-85.578	0.401	-0.126
-506.741	-168.173	-0.421	-0.017
-505.726	-132.941	-0.113	0.015
-504.712	198.211	-0.126	-0.195
-503.697	93.592	0.044	0.050
-502.683	46.615	0.293	0.275
-501.668	-27.329	0.383	0.225
-500.653	800.000	-0.096	-0.276
-499.639	252.962	0.047	0.080
-498.624	-54.950	0.195	0.089
-497.610	-65.637	-0.377	0.153
-496.595	-200.000	-0.041	-0.198
-495.581	-42.132	0.127	0.065
-494.566	800.000	-0.083	0.332
-493.551	800.000	-0.048	-0.181
-492.537	-67.589	0.084	0.033
-491.522	-24.798	0.257	-0.154
-490.508	78.276	0.154	0.166
-489.493	-200.000	0.017	-0.235
-488.478	800.000	-0.037	0.117
-487.464	-200.000	0.009	0.053
-486.449	800.000	-0.050	-0.216
-485.435	-200.000	-0.003	-0.134
-484.420	800.000	0.037	-0.142
-483.405	162.330	0.078	0.110
-482.391	-110.958	-0.456	-0.095
-481.376	693.637	0.029	0.076
-480.362	538.765	-0.157	-0.376
-479.347	-85.115	-0.191	-0.060
-478.332	596.651	0.043	-0.108
-477.318	-200.000	0.045	0.207
-476.303	-67.433	-0.109	-0.043
-475.289	-106.860	0.240	-0.054
-474.274	308.007	0.015	0.028
-473.259	215.817	-0.085	-0.137
-472.245	525.978	-0.159	0.377
-471.230	-200.000	0.000	-0.126
-470.216	48.363	0.072	-0.068
-469.201	345.210	0.059	-0.118
-468.186	106.328	0.226	0.270
-467.172	387.497	-0.129	-0.270
-466.157	-200.000	0.018	0.234
-465.143	800.000	-0.076	0.214
-464.128	-140.392	0.129	-0.014
-463.113	-127.929	0.285	-0.041
-462.099	-200.000	-0.038	0.304
-461.084	-200.000	-0.002	-0.210
-460.070	55.271	-0.181	-0.177
-459.055	317.151	0.167	0.319
-458.040	599.724	-0.090	-0.224
-457.026	338.622	-0.096	-0.189
-456.011	-107.844	-0.075	-0.017
-454.997	-61.200	0.115	-0.049
-453.982	-11.624	0.189	-0.125
-452.968	695.912	0.026	0.069
-451.953	-53.308	-0.286	0.132
-450.938	-66.018	0.043	0.017
-449.924	-41.885	0.339	0.175
-448.909	620.082	-0.228	0.578
-447.895	95.416	0.070	-0.080
-446.880	800.000	0.032	0.091
-445.865	-2.335	0.133	-0.094
-444.851	-67.147	0.213	0.085
-443.836	-91.974	-0.376	0.108
-442.822	-3.087	0.068	0.048
-441.807	-200.000	0.035	0.228
-440.792	-132.867	-0.172	-0.022
-439.778	35.285	0.216	0.191
-438.763	94.235	-0.291	0.333
-437.749	-34.062	0.259	0.144
-436.734	-113.595	0.357	-0.070
-435.719	-104.184	-0.238	-0.056
-434.705	213.450	0.093	0.148
-433.690	480.647	-0.023	0.052
-432.676	-200.000	0.023	-0.111
-431.661	516.670	0.081	-0.191
-430.646	92.692	0.107	-0.122
-429.632	800.000	-0.083	-0.293
-428.617	-94.083	-0.240	0.066
-427.603	12.612	0.245	0.191
-426.588	-57.454	0.190	0.084
-425.573	-113.330	0.170	-0.034
-424.559	-5.580	0.138	-0.096
-423.544	103.581	-0.085	0.101
-422.530	113.249	-0.053	-0.065
-421.515	244.836	0.168	-0.285
-420.500	41.082	0.057	-0.052
-419.486	-44.034	-0.306	0.155
-418.471	263.047	-0.063	-0.111
-417.457	-25.741	-0.176	0.105
-416.442	-3.975	-0.261	0.183
-415.428	543.877	-0.079	-0.191
-414.413	-86.467	-0.270	0.083
-413.398	-82.320	0.157	0.051
-412.384	-200.000	0.009	-0.186
-411.369	-200.000	0.001	-0.010
-410.355	209.213	-0.126	-0.199
-409.340	-200.000	0.014	0.260
-408.325	147.356	-0.094	-0.128
-407.311	-156.384	0.283	-0.018
-406.296	-72.858	0.301	-0.111
-405.282	280.762	-0.121	0.217
-404.267	-71.739	0.146	0.055
-403.252	-61.271	0.070	-0.030
-402.238	626.585	0.058	0.146
-401.223	800.000	0.085	-0.277
-400.209	-88.796	0.225	0.067
-399.194	-163.408	-0.193	-0.009
-398.179	10.205	-0.160	-0.123
-397.165	27.068	-0.320	-0.270
-396.150	-106.559	-0.445	0.100
-395.136	145.734	-0.206	0.278
-394.121	-200.000	0.008	-0.054
-393.106	3.702	-0.212	-0.156
-392.092	-200.000	-0.012	0.273
-391.077	-200.000	0.097	0.469
-390.063	-56.483	0.105	-0.047
-389.048	-56.120	0.180	0.081
-388.033	496.116	-0.024	0.057
-387.019	-0.072	0.077	0.055
-386.004	-200.000	0.034	-0.493
-384.990	96.115	0.243	-0.280
-383.975	15.924	0.237	-0.188
-382.960	416.965	0.081	0.175
-381.946	-200.000	-0.030	-0.304
-380.931	629.617	-0.063	-0.160
-379.917	245.739	0.085	0.144
-378.902	-56.648	-0.217	0.097
-377.888	63.426	0.236	0.238
-376.873	195.406	-0.014	0.022
-375.858	-200.000	0.040	0.332
-374.844	182.910	-0.166	0.247
-373.829	-43.163	-0.344	0.176
-372.815	-129.058	-0.346	-0.049
-371.800	-99.198	0.096	-0.024
-370.785	-13.373	0.085	0.055
-369.771	38.356	0.242	-0.217
-368.756	780.439	0.085	0.234
-367.742	-10.950	-0.175	0.116
-366.727	-145.269	-0.127	0.012
-365.712	418.380	-0.050	-0.107
-364.698	-34.020	0.331	0.183
-363.683	83.597	0.109	0.119
-362.669	-200.000	0.049	0.257
-361.654	141.695	-0.099	-0.132
-360.639	-80.491	-0.096	0.032
-359.625	-66.894	-0.136	-0.054
-358.610	-200.000	0.014	-0.308
-357.596	-14.984	-0.055	-0.036
-356.581	-119.882	-0.130	0.023
-355.566	800.000	0.049	0.204
-354.552	316.319	0.122	0.231
-353.537	93.465	-0.037	0.042
-352.523	-129.446	0.200	0.028
-351.508	-115.826	0.329	0.062
-350.493	-132.330	-0.436	0.057
-349.479	6.457	-0.182	0.136
-348.464	800.000	-0.107	-0.311
-347.450	-111.054	-0.318	-0.066
-346.435	-52.685	-0.260	0.120
-345.420	-200.000	0.177	-0.000
-344.406	28.249	0.243	0.206
-343.391	-40.641	-0.115	0.060
-342.377	432.210	0.137	-0.298
-341.362	176.269	-0.226	-0.330
-340.348	-140.114	-0.183	-0.019
-339.333	-97.297	0.255	-0.067
-338.318	-200.000	0.022	0.123
-337.304	-28.576	-0.180	-0.104
-336.289	-5.246	-0.121	0.084
-335.275	193.263	-0.086	0.131
-334.260	88.387	0.087	-0.097
-333.245	-61.779	-0.101	0.042
-332.231	178.373	-0.129	-0.189
-331.216	8.621	-0.055	0.042
-330.202	-73.822	-0.291	0.106
-329.187	-115.043	0.282	-0.054
-328.172	-33.216	-0.245	-0.137
-327.158	800.000	-0.078	-0.334
-326.143	800.000	0.064	0.185
-325.129	47.377	0.105	-0.098
-324.114	8.578	0.245	-0.185
-323.099	-200.000	0.059	-0.304
-322.085	-78.423	0.180	-0.062
-321.070	135.741	0.083	0.108
-320.056	800.000	0.038	-0.121
-319.041	654.596	-0.112	0.289
-318.026	800.000	-0.059	0.250
-317.012	35.651	-0.134	-0.118
-315.997	49.205	0.059	-0.056
-314.983	498.132	0.048	0.112
-313.968	-200.000	-0.054	0.332
-312.953	-111.355	-0.190	-0.039
-311.939	278.386	-0.168	-0.300
-310.924	-200.000	0.000	0.216
-309.910	-3.397	-0.268	0.187
-308.895	-38.766	-0.082	0.044
-307.880	634.890	-0.061	0.156
-306.866	-159.913	0.229	-0.013
-305.851	243.784	-0.069	0.117
-304.837	95.953	0.154	0.177
-303.822	-36.552	0.229	0.124
-302.807	504.658	0.053	-0.123
-301.793	-27.579	0.154	-0.090
-300.778	221.844	-0.084	0.136
-299.764	-200.000	0.006	0.137
-298.749	-86.047	-0.146	0.045
-297.735	800.000	0.096	-0.291
-296.720	-200.000	0.013	-0.177
-295.705	87.714	-0.226	0.251
-294.691	12.128	0.049	0.038
-293.676	-75.738	0.197	0.070
-292.662	133.295	0.035	-0.046
-291.647	-81.640	-0.124	0.041
-290.632	-200.000	-0.067	-0.312
-289.618	33.134	0.128	-0.111
-288.603	299.562	0.181	-0.335
-287.589	9.724	-0.003	0.003
-286.574	125.620	-0.169	0.214
-285.559	-93.895	-0.232	-0.064
-284.545	84.908	-0.219	0.240
-283.530	-200.000	0.009	-0.226
-282.516	237.811	0.129	0.214
-281.501	320.329	0.069	-0.132
-280.486	-13.287	0.396	-0.258
-279.472	-5.640	0.419	-0.288
-278.457	455.666	0.110	0.245
-277.443	-200.000	0.182	-0.001
-276.428	-44.172	-0.312	-0.157
-275.413	369.512	0.082	-0.166
-274.399	338.470	0.273	0.532
-273.384	292.516	0.103	0.188
-272.370	-9.764	0.233	-0.155
-271.355	142.599	0.102	-0.136
-270.340	800.000	0.093	0.279
-269.326	800.000	-0.046	0.160
-268.311	150.229	-0.149	-0.203
-267.297	-133.693	0.151	-0.019
-266.282	800.000	-0.059	-0.183
-265.267	-145.321	-0.136	0.012
-264.253	800.000	0.062	-0.247
-263.238	-68.690	0.370	-0.144
-262.224	35.921	-0.042	0.037
-261.209	267.510	0.120	-0.211
-260.195	286.353	0.120	-0.217
-259.180	202.358	0.198	-0.305
-258.165	-200.000	0.034	-0.455
-257.151	110.815	0.313	0.377
-256.136	800.000	0.022	-0.062
-255.122	-23.441	-0.170	-0.102
-254.107	126.983	-0.234	0.297
-253.092	-200.000	-0.024	0.149
-252.078	-5.110	0.122	0.084
-251.063	183.984	-0.248	-0.368
-250.049	-200.000	-0.008	-0.169
-249.034	-107.210	-0.079	0.017
-248.019	-151.360	-0.139	-0.010
-247.005	-91.041	0.248	-0.071
-245.990	14.110	0.056	0.044
-244.976	146.102	0.181	-0.243
-243.961	123.216	0.223	-0.280
-242.946	434.555	-0.101	0.219
-241.932	-55.679	0.416	0.186
-240.917	800.000	-0.123	0.364
-239.903	69.029	-0.227	0.233
-238.888	-200.000	0.058	-0.290
-237.873	-108.777	-0.215	0.046
-236.859	-129.983	-0.174	0.024
-235.844	-32.810	-0.104	-0.058
-234.830	85.439	-0.156	-0.172
-233.815	188.766	0.146	-0.219
-232.800	-200.000	-0.025	0.131
-231.786	-200.000	0.003	-0.193
-230.771	-200.000	0.080	0.000
-229.757	800.000	-0.035	0.123
-228.742	-156.025	0.169	-0.011
-227.727	-106.825	0.476	0.106
-226.713	510.640	0.047	-0.110
-225.698	140.049	0.275	0.363
-224.684	-62.777	-0.336	0.139
-223.669	-200.000	-0.001	-0.363
-222.655	-42.967	0.224	0.114
-221.640	-114.094	0.009	-0.002
-220.625	-75.367	0.188	-0.067
-219.611	-29.579	0.196	0.112
-218.596	149.679	0.015	0.020
-217.582	-94.301	-0.358	0.098
-216.567	-200.000	0.048	0.000
-215.552	218.695	0.091	-0.146
-214.538	778.983	-0.141	0.385
-213.523	-76.980	0.044	0.015
-212.509	22.017	0.190	0.155
-211.494	-111.999	-0.343	0.069
-210.479	95.542	0.169	0.193
-209.465	436.385	0.175	0.382
-208.450	-104.201	0.099	-0.023
-207.436	186.978	-0.210	-0.313
-206.421	-18.616	-0.157	0.098
-205.406	-48.208	-0.302	-0.146
-204.392	107.230	-0.182	-0.217
-203.377	-27.148	-0.058	-0.034
-202.363	281.456	-0.064	-0.115
-201.348	-93.684	0.195	0.054
-200.333	197.842	-0.043	-0.066
-199.319	94.994	-0.100	0.114
-198.304	-39.538	-0.337	0.177
-197.290	159.115	0.133	0.185
-196.275	2.932	0.182	-0.132
-195.260	-200.000	-0.003	0.092
-194.246	-200.000	-0.027	-0.252
-193.231	702.513	-0.042	0.110
-192.217	800.000	0.053	-0.222
-191.202	154.737	0.185	0.254
-190.187	-200.000	0.094	-0.451
-189.173	-76.430	-0.190	-0.067
-188.158	-141.336	0.394	-0.040
-187.144	-127.073	0.284	-0.042
-186.129	68.634	0.239	-0.245
-185.114	39.033	0.246	0.220
-184.100	-6.222	0.192	0.131
-183.085	-82.159	-0.141	-0.046
-182.071	800.000	0.060	0.193
-181.056	569.682	-0.138	0.335
-180.042	16.863	-0.223	0.176
-179.027	-200.000	-0.003	0.138
-178.012	800.000	0.022	0.079
-176.998	-78.616	0.349	0.119
-175.983	-179.295	0.324	-0.007
-174.969	-92.648	-0.205	-0.057
-173.954	61.695	0.081	-0.080
-172.939	84.353	0.364	0.398
-171.925	-200.000	0.018	0.127
-170.910	-200.000	0.029	-0.162
-169.896	408.107	-0.030	-0.064
-168.881	-123.877	0.225	-0.035
-167.866	-16.292	0.089	-0.056
-166.852	800.000	0.136	-0.405
-165.837	800.000	-0.143	-0.504
-164.823	84.366	0.122	0.133
-163.808	497.898	0.087	0.200
-162.793	579.560	0.107	-0.260
-161.779	16.867	0.195	-0.154
-160.764	142.255	-0.055	0.072
-159.750	50.241	-0.117	0.111
-158.735	58.550	0.218	-0.213
-157.720	135.614	0.111	0.144
-156.706	130.533	-0.117	-0.149
-155.691	-131.484	0.181	-0.024
-154.677	800.000	0.068	0.192
-153.662	-166.817	0.109	-0.004
-152.647	-200.000	0.040	-0.250
-151.633	-192.605	-0.439	-0.004
-150.618	-8.797	0.236	0.158
-149.604	-30.622	0.124	-0.070
-148.589	29.064	-0.057	0.049
-147.574	663.738	0.143	0.367
-146.560	-200.000	-0.003	-0.034
-145.545	-24.931	-0.045	-0.027
-144.531	124.572	0.257	0.323
-143.516	55.786	0.203	0.197
-142.502	-15.518	0.100	0.064
-141.487	800.000	-0.064	-0.250
-140.472	17.057	0.110	0.087
-139.458	-200.000	0.077	-0.395
-138.443	-200.000	-0.009	-0.120
-137.429	249.263	0.188	-0.318
-136.414	-19.246	-0.189	-0.117
-135.399	-170.648	-0.302	-0.010
-134.385	-42.689	-0.215	0.109
-133.370	800.000	0.055	-0.192
-132.356	50.444	0.040	-0.037
-131.341	99.688	0.176	0.203
-130.326	-200.000	-0.041	-0.422
-129.312	800.000	0.055	-0.206
-128.297	312.744	-0.104	-0.194
-127.283	113.060	0.120	-0.144
-126.268	239.758	0.139	0.230
-125.253	-200.000	0.040	0.375
-124.239	-106.601	0.151	0.034
-123.224	321.046	0.112	-0.212
-122.210	-125.562	-0.119	0.018
-121.195	-124.005	-0.121	-0.019
-120.180	-14.667	0.290	0.186
