DTS Sentinel unit serial number:	SN413079Multiplexer serial number:	ORYXHardware model number:	OX4-SRSoftware version number:	ORYX F/W v4.00 Oryx Data Collector v3.7.2.0data status	okinstallation	princeton_trtdifferential loss correction	single-endedforward channel	channel 2reverse channel	N/Adate	2019/09/16time	12:47:34forward acquisition time	60.00reverse acquisition time	0.00gamma	496.2192k internal	0.2301k external	0.2301temperature offset calibration	0.9946default loss term (dB/km)	0.3790temperature slope calibration	1.0000multiplexer offset coefficient	1.0000multiplexer slope coefficient	1.0000fibre end	0.00T internal ref (°C)	40.22T ext. ref 1 (°C)	13.48T ext. ref 2 (°C)	37.19length (m)	temperature (°C)	Stokes	anti-Stokes-747.200	-200.000	-0.011	-0.086
-746.185	-81.563	-0.193	-0.065
-745.171	-131.772	-0.222	-0.030
-744.156	257.922	-0.064	-0.112
-743.142	75.399	-0.195	0.209
-742.127	308.985	0.143	0.273
-741.112	-200.000	-0.042	0.388
-740.098	3.777	-0.345	0.257
-739.083	-142.922	-0.221	0.022
-738.069	-132.475	0.176	-0.023
-737.054	-102.866	0.226	-0.055
-736.039	565.749	-0.078	0.192
-735.025	-152.126	0.128	-0.009
-734.010	671.627	0.068	0.180
-732.996	-89.884	-0.163	0.049
-731.981	800.000	0.116	-0.481
-730.966	-15.993	-0.207	0.134
-729.952	-76.886	-0.095	-0.034
-728.937	-23.535	0.156	-0.095
-727.923	119.898	0.018	0.022
-726.908	-107.711	0.191	-0.042
-725.894	-134.316	-0.354	0.044
-724.879	-30.046	0.322	0.187
-723.864	800.000	0.016	-0.061
-722.850	209.030	0.054	-0.086
-721.835	-22.662	0.168	-0.104
-720.821	67.967	-0.125	0.130
-719.806	382.963	0.085	0.179
-718.791	-53.827	0.269	0.125
-717.777	-43.306	-0.183	0.094
-716.762	-7.756	-0.160	-0.110
-715.748	-69.441	0.146	0.057
-714.733	-200.000	0.026	0.182
-713.718	-29.391	-0.496	-0.289
-712.704	-74.942	0.152	0.056
-711.689	800.000	0.024	0.079
-710.675	-111.600	-0.532	-0.110
-709.660	-6.347	0.194	0.135
-708.645	449.205	0.127	0.285
-707.631	-150.893	0.219	0.017
-706.616	36.992	-0.233	-0.209
-705.602	89.446	0.151	-0.171
-704.587	-200.000	0.002	-0.053
-703.572	77.778	0.190	-0.206
-702.558	108.466	0.132	-0.161
-701.543	-200.000	0.008	-0.089
-700.529	-200.000	-0.150	-0.000
-699.514	-81.545	-0.156	-0.052
-698.499	-75.996	-0.415	0.149
-697.485	718.005	-0.059	-0.159
-696.470	-130.276	-0.230	0.032
-695.456	359.353	-0.066	0.133
-694.441	-71.111	0.193	-0.074
-693.426	-82.817	0.166	-0.055
-692.412	85.821	-0.106	-0.119
-691.397	-200.000	-0.002	-0.171
-690.383	300.984	0.046	0.087
-689.368	-53.958	-0.349	0.162
-688.354	20.196	0.374	0.307
-687.339	400.857	-0.111	0.236
-686.324	120.077	0.158	-0.200
-685.310	-53.764	-0.103	0.048
-684.295	-200.000	-0.012	0.256
-683.281	-200.000	0.004	-0.199
-682.266	47.946	0.172	0.164
-681.251	-200.000	-0.013	-0.223
-680.237	-150.258	-0.162	-0.013
-679.222	-200.000	0.015	-0.106
-678.208	-19.548	-0.138	0.087
-677.193	-200.000	-0.017	0.160
-676.178	-52.666	-0.273	-0.128
-675.164	-33.775	-0.256	-0.144
-674.149	80.795	-0.069	-0.076
-673.135	-116.441	0.192	0.036
-672.120	216.142	0.094	0.152
-671.105	51.000	0.391	0.377
-670.091	604.432	0.092	0.232
-669.076	336.713	-0.037	-0.074
-668.062	478.584	0.126	-0.290
-667.047	101.979	0.147	-0.174
-666.032	449.892	-0.175	-0.393
-665.018	-117.733	0.144	-0.026
-664.003	83.858	0.116	-0.129
-662.989	146.899	0.107	-0.146
-661.974	-23.013	0.223	0.137
-660.959	533.304	-0.198	-0.477
-659.945	300.066	-0.110	-0.206
-658.930	-200.000	0.015	-0.242
-657.916	-33.345	0.252	-0.142
-656.901	100.156	-0.140	-0.164
-655.886	-57.817	0.225	-0.100
-654.872	-31.766	-0.050	0.029
-653.857	481.340	-0.083	-0.192
-652.843	-200.000	0.033	-0.192
-651.828	-200.000	0.015	0.374
-650.814	-87.243	0.133	0.041
-649.799	-200.000	0.017	-0.090
-648.784	18.418	-0.198	-0.160
-647.770	-56.871	-0.229	-0.103
-646.755	254.725	-0.135	-0.234
-645.741	-200.000	-0.025	-0.210
-644.726	800.000	0.040	0.152
-643.711	140.162	-0.160	0.214
-642.697	425.696	0.014	0.030
-641.682	129.149	-0.075	-0.097
-640.668	-200.000	-0.036	0.325
-639.653	-95.719	0.271	0.074
-638.638	259.344	-0.062	-0.109
-637.624	-200.000	-0.006	0.034
-636.609	14.931	0.131	-0.104
-635.595	-67.280	0.110	-0.044
-634.580	289.355	0.118	0.217
-633.565	-200.000	-0.028	-0.201
-632.551	-200.000	-0.013	-0.369
-631.536	-200.000	0.005	-0.185
-630.522	-44.399	0.041	-0.021
-629.507	800.000	-0.129	-0.467
-628.492	51.374	-0.132	-0.127
-627.478	464.803	-0.063	-0.144
-626.463	-200.000	-0.017	-0.314
-625.449	-200.000	0.025	-0.251
-624.434	800.000	-0.051	-0.143
-623.419	-33.588	0.091	0.051
-622.405	129.150	-0.238	-0.308
-621.390	-200.000	-0.015	0.110
-620.376	-200.000	0.060	0.402
-619.361	76.605	0.181	-0.195
-618.346	43.381	0.286	0.265
-617.332	-91.842	0.282	0.081
-616.317	800.000	-0.070	-0.240
-615.303	800.000	-0.061	0.257
-614.288	-200.000	-0.007	0.365
-613.273	163.008	-0.082	-0.117
-612.259	-200.000	-0.010	-0.059
-611.244	-123.780	0.027	0.004
-610.230	-23.180	-0.230	0.140
-609.215	69.364	-0.180	-0.188
-608.201	530.105	-0.095	-0.229
-607.186	-113.176	0.423	0.085
-606.171	-68.012	-0.073	-0.029
-605.157	88.064	-0.172	-0.194
-604.142	33.598	-0.269	0.237
-603.128	-124.572	0.188	0.030
-602.113	116.328	-0.148	-0.184
-601.098	-52.050	0.175	0.082
-600.084	-24.755	0.088	0.053
-599.069	-200.000	-0.009	-0.054
-598.055	19.637	0.230	0.187
-597.040	-200.000	0.041	0.239
-596.025	53.613	-0.192	0.187
-595.011	800.000	0.104	-0.327
-593.996	-3.671	0.133	-0.093
-592.982	71.003	-0.285	0.299
-591.967	72.107	0.177	-0.186
-590.952	622.043	-0.064	-0.162
-589.938	219.850	0.149	-0.241
-588.923	373.615	0.106	0.218
-587.909	12.684	0.094	-0.074
-586.894	-200.000	-0.053	-0.309
-585.879	35.285	-0.048	0.043
-584.865	257.259	0.140	-0.245
-583.850	-200.000	0.175	-0.001
-582.836	-123.745	-0.199	0.032
-581.821	-157.159	0.475	-0.029
-580.806	727.962	0.028	-0.075
-579.792	171.199	-0.239	0.348
-578.777	275.359	-0.054	-0.098
-577.763	36.894	0.214	0.192
-576.748	-173.045	-0.194	-0.006
-575.733	290.302	0.054	-0.099
-574.719	612.734	-0.070	-0.178
-573.704	241.844	0.085	0.144
-572.690	-200.000	-0.025	0.162
-571.675	-200.000	-0.079	0.400
-570.661	-8.031	0.121	-0.082
-569.646	800.000	-0.068	0.196
-568.631	-105.952	0.137	-0.031
-567.617	-200.000	-0.036	-0.170
-566.602	-200.000	-0.001	0.153
-565.588	-3.945	0.138	0.097
-564.573	315.827	-0.029	0.055
-563.558	-71.607	-0.137	0.052
-562.544	-94.897	-0.051	-0.014
-561.529	477.261	0.066	0.152
-560.515	-143.212	-0.207	-0.020
-559.500	-200.000	-0.023	-0.203
-558.485	-141.870	0.337	-0.034
-557.471	155.774	-0.073	0.102
-556.456	-2.010	0.176	0.125
-555.442	-200.000	-0.024	0.157
-554.427	-15.349	0.427	0.276
-553.412	79.124	-0.162	-0.176
-552.398	800.000	-0.155	-0.450
-551.383	-64.995	0.307	0.125
-550.369	-149.219	-0.403	-0.033
-549.354	-32.966	0.227	-0.127
-548.339	-148.427	0.246	-0.020
-547.325	20.241	0.109	-0.089
-546.310	-23.040	-0.114	-0.069
-545.296	800.000	-0.079	0.304
-544.281	800.000	-0.064	-0.221
-543.266	-2.321	0.222	-0.158
-542.252	-128.061	0.174	0.025
-541.237	97.370	0.052	0.060
-540.223	-153.399	-0.063	-0.004
-539.208	-141.499	0.135	-0.014
-538.193	149.425	0.100	0.137
-537.179	217.948	-0.095	0.153
-536.164	84.457	0.175	0.193
-535.150	432.891	0.024	-0.053
-534.135	-131.766	-0.205	0.027
-533.121	-175.246	-0.219	-0.006
-532.106	1.091	-0.085	-0.062
-531.091	-27.741	0.198	0.116
-530.077	-43.311	-0.103	-0.053
-529.062	-200.000	-0.017	0.267
-528.048	-49.459	0.015	-0.007
-527.033	-76.122	0.127	-0.045
-526.018	-122.830	0.375	0.061
-525.004	-131.141	0.171	0.023
-523.989	-112.713	0.090	-0.018
-522.975	100.894	-0.316	-0.371
-521.960	-85.594	0.167	-0.053
-520.945	9.594	-0.305	0.234
-519.931	-200.000	-0.016	0.235
-518.916	6.939	-0.081	-0.061
-517.902	-110.487	0.335	-0.070
-516.887	133.956	0.092	-0.121
-515.872	-200.000	0.072	-0.329
-514.858	-25.261	0.130	0.078
-513.843	-45.811	-0.096	-0.048
-512.829	-94.632	-0.122	0.033
-511.814	50.116	0.136	-0.129
-510.799	-101.521	0.164	0.040
-509.785	-41.769	0.171	0.088
-508.770	-112.668	0.177	-0.036
-507.756	65.459	-0.394	-0.402
-506.741	-99.069	-0.045	-0.011
-505.726	125.404	-0.095	-0.121
-504.712	-200.000	-0.033	-0.157
-503.697	-38.749	0.370	-0.197
-502.683	734.325	0.109	-0.294
-501.668	104.713	0.190	0.227
-500.653	47.401	0.047	-0.044
-499.639	19.037	0.149	0.120
-498.624	-200.000	0.003	-0.203
-497.610	100.956	0.122	-0.143
-496.595	751.121	0.042	0.113
-495.581	-30.555	0.225	0.128
-494.566	800.000	0.010	-0.028
-493.551	-191.657	-0.174	-0.002
-492.537	146.678	-0.043	-0.058
-491.522	38.283	0.052	-0.047
-490.508	38.327	0.135	-0.121
-489.493	800.000	0.046	0.171
-488.478	-106.145	-0.236	0.053
-487.464	71.817	-0.070	0.074
-486.449	-200.000	-0.054	0.244
-485.435	191.359	0.058	-0.087
-484.420	800.000	-0.047	0.197
-483.405	-200.000	-0.056	-0.396
-482.391	66.782	0.155	0.159
-481.376	-189.939	0.219	-0.002
-480.362	-126.338	0.126	0.019
-479.347	145.670	-0.333	-0.450
-478.332	180.362	-0.038	0.056
-477.318	-36.879	0.269	0.145
-476.303	-127.230	-0.273	0.040
-475.289	-54.430	-0.084	-0.038
-474.274	113.587	0.088	-0.108
-473.259	717.777	-0.079	0.210
-472.245	-75.316	-0.274	-0.099
-471.230	236.767	-0.167	0.280
-470.216	-165.194	-0.296	0.013
-469.201	-130.514	0.086	0.012
-468.186	-200.000	0.033	0.331
-467.172	176.903	-0.077	0.112
-466.157	16.431	0.170	0.136
-465.143	-200.000	0.008	0.245
-464.128	17.359	0.278	-0.222
-463.113	83.881	-0.079	0.087
-462.099	194.033	-0.060	-0.092
-461.084	309.586	0.047	0.088
-460.070	-121.917	0.275	-0.046
-459.055	-77.611	0.082	0.029
-458.040	-200.000	-0.199	0.000
-457.026	192.227	-0.015	-0.023
-456.011	23.264	-0.141	-0.117
-454.997	573.547	0.026	0.063
-453.982	800.000	0.019	0.069
-452.968	438.823	0.101	0.222
-451.953	290.576	-0.049	0.090
-450.938	87.338	0.268	-0.299
-449.924	-127.126	0.025	0.004
-448.909	-29.607	0.304	0.175
-447.895	567.820	-0.100	0.244
-446.880	-95.906	0.105	0.028
-445.865	-21.861	-0.233	-0.143
-444.851	-80.459	-0.274	-0.092
-443.836	225.606	-0.093	0.153
-442.822	465.175	-0.074	0.168
-441.807	-200.000	0.016	0.359
-440.792	-200.000	-0.010	-0.045
-439.778	-51.745	0.278	0.130
-438.763	-111.697	-0.192	-0.039
-437.749	-127.028	-0.233	-0.034
-436.734	71.621	-0.158	0.165
-435.719	-95.986	0.120	-0.032
-434.705	247.136	-0.051	0.086
-433.690	-3.497	0.132	-0.093
-432.676	-51.724	-0.189	0.089
-431.661	-154.407	-0.393	0.027
-430.646	-9.779	-0.205	0.137
-429.632	429.725	0.050	-0.108
-428.617	-81.596	-0.280	0.093
-427.603	-200.000	-0.038	0.224
-426.588	-106.592	-0.197	0.044
-425.573	387.220	-0.167	0.348
-424.559	-28.113	0.264	0.154
-423.544	-45.033	-0.183	0.092
-422.530	-30.512	0.139	-0.079
-421.515	22.752	0.129	-0.106
-420.500	469.728	0.116	0.263
-419.486	-142.012	0.133	0.013
-418.471	25.021	-0.212	-0.177
-417.457	-175.929	-0.222	-0.006
-416.442	-150.300	0.171	-0.013
-415.428	449.858	0.025	0.056
-414.413	-102.232	-0.103	-0.025
-413.398	344.912	0.026	-0.051
-412.384	-200.000	0.004	0.052
-411.369	135.768	0.083	0.109
-410.355	-30.929	-0.144	0.082
-409.340	349.996	-0.174	0.346
-408.325	119.718	-0.121	-0.151
-407.311	-200.000	-0.002	-0.070
-406.296	122.850	0.081	0.102
-405.282	723.774	-0.155	-0.417
-404.267	-200.000	-0.038	0.205
-403.252	180.100	-0.108	-0.160
-402.238	-118.049	-0.211	-0.038
-401.223	800.000	-0.044	0.193
-400.209	-103.051	-0.640	0.152
-399.194	-13.931	-0.150	-0.098
-398.179	205.695	-0.112	0.175
-397.165	93.481	0.192	0.219
-396.150	370.973	0.101	0.206
-395.136	-62.581	0.150	-0.062
-394.121	85.368	-0.139	0.153
-393.106	800.000	0.051	0.144
-392.092	800.000	0.009	0.027
-391.077	-200.000	-0.020	0.092
-390.063	-108.788	-0.348	-0.075
-389.048	-200.000	0.007	0.048
-388.033	-34.710	0.467	-0.257
-387.019	-81.370	0.194	0.064
-386.004	-82.528	-0.215	-0.070
-384.990	-16.024	0.130	0.083
-383.975	-138.020	-0.335	-0.037
-382.960	608.465	0.103	-0.257
-381.946	-108.860	-0.258	0.055
-380.931	-158.185	0.005	-0.000
-379.917	-200.000	0.049	-0.303
-378.902	-61.495	0.144	0.061
-377.888	20.191	0.202	-0.164
-376.873	800.000	-0.117	-0.384
-375.858	-144.363	0.358	-0.033
-374.844	-60.392	-0.058	-0.025
-373.829	778.448	0.034	0.092
-372.815	-200.000	0.009	0.238
-371.800	-133.367	-0.074	0.009
-370.785	-170.161	0.188	-0.007
-369.771	-55.265	0.112	-0.051
-368.756	-79.623	-0.297	0.101
-367.742	-108.659	-0.308	-0.066
-366.727	-200.000	0.028	0.235
-365.712	-200.000	-0.015	-0.117
-364.698	-102.502	0.279	-0.067
-363.683	-37.480	-0.197	0.106
-362.669	217.441	0.204	0.326
-361.654	78.040	-0.055	0.059
-360.639	282.105	-0.127	0.228
-359.625	273.884	0.078	0.139
-358.610	-110.438	0.238	0.050
-357.596	521.031	-0.106	-0.251
-356.581	-200.000	0.045	0.234
-355.566	-52.920	0.127	0.059
-354.552	-200.000	-0.007	-0.083
-353.537	396.401	-0.065	-0.136
-352.523	-200.000	0.157	0.001
-351.508	-200.000	-0.012	-0.197
-350.493	159.521	-0.233	-0.326
-349.479	800.000	-0.035	-0.131
-348.464	239.335	-0.128	0.213
-347.450	-27.175	0.153	-0.090
-346.435	-159.880	-0.272	0.015
-345.420	108.983	0.112	0.134
-344.406	-43.052	-0.307	-0.156
-343.391	10.595	-0.150	-0.114
-342.377	529.351	-0.261	-0.618
-341.362	-144.529	0.321	-0.030
-340.348	-28.989	0.172	-0.099
-339.333	-96.287	0.430	0.114
-338.318	-200.000	-0.016	0.079
-337.304	155.607	-0.132	0.182
-336.289	146.170	-0.015	-0.021
-335.275	-115.604	-0.210	-0.040
-334.260	-83.703	-0.378	-0.121
-333.245	-49.282	-0.313	0.150
-332.231	-41.371	-0.176	0.091
-331.216	191.882	-0.074	0.111
-330.202	-20.363	-0.109	-0.067
-329.187	-200.000	0.014	0.102
-328.172	-146.902	0.227	0.020
-327.158	-158.941	0.085	-0.005
-326.143	800.000	-0.101	-0.405
-325.129	168.505	-0.085	-0.122
-324.114	312.754	-0.113	-0.213
-323.099	63.689	-0.146	-0.147
-322.085	-146.915	0.497	-0.043
-321.070	-119.709	-0.278	0.048
-320.056	800.000	0.017	-0.064
-319.041	-46.102	-0.136	-0.067
-318.026	17.835	0.141	0.113
-317.012	-66.366	0.354	-0.141
-315.997	-200.000	0.028	0.203
-314.983	800.000	-0.025	0.084
-313.968	11.119	0.229	0.175
-312.953	9.733	-0.190	-0.145
-311.939	126.161	0.108	-0.137
-310.924	-200.000	-0.024	0.377
-309.910	530.308	0.041	-0.096
-308.895	-2.304	-0.257	0.181
-307.880	500.701	-0.130	0.301
-306.866	177.398	0.217	0.317
-305.851	-200.000	0.012	0.167
-304.837	-122.852	0.404	-0.065
-303.822	-200.000	-0.017	-0.117
-302.807	46.150	0.147	-0.137
-301.793	620.519	-0.093	-0.234
-300.778	-100.430	0.230	0.057
-299.764	-76.161	0.195	-0.069
-298.749	-200.000	0.074	0.359
-297.735	-200.000	0.011	0.230
-296.720	-200.000	-0.023	-0.413
-295.705	135.934	-0.156	-0.204
-294.691	-138.700	-0.080	-0.009
-293.676	-109.960	0.278	0.058
-292.662	98.842	-0.201	-0.233
-291.647	-144.907	-0.290	-0.027
-290.632	214.923	0.210	-0.333
-289.618	-64.377	-0.227	-0.093
-288.603	800.000	0.061	0.233
-287.589	24.658	0.332	0.275
-286.574	-200.000	-0.030	0.165
-285.559	-200.000	0.008	0.124
-284.545	-54.294	-0.310	0.141
-283.530	100.316	-0.182	0.211
-282.516	439.647	0.072	0.158
-281.501	-137.281	0.139	0.016
-280.486	800.000	0.130	0.363
-279.472	-96.002	0.092	-0.024
-278.457	157.522	0.128	-0.177
-277.443	461.313	-0.084	0.187
-276.428	-64.239	0.184	-0.075
-275.413	102.060	0.109	0.128
-274.399	150.064	-0.179	-0.243
-273.384	800.000	0.104	-0.382
-272.370	800.000	0.111	0.316
-271.355	-200.000	-0.000	-0.181
-270.340	800.000	0.008	0.032
-269.326	656.856	0.011	0.028
-268.311	-77.403	0.360	-0.125
-267.297	-37.693	-0.066	0.035
-266.282	-124.658	0.113	0.018
-265.267	213.890	0.067	-0.105
-264.253	-77.313	-0.346	0.120
-263.238	4.999	0.037	-0.027
-262.224	800.000	0.094	-0.305
-261.209	-0.441	0.350	-0.248
-260.195	-34.140	-0.241	-0.133
-259.180	-26.891	-0.197	0.115
-258.165	800.000	-0.098	-0.325
-257.151	800.000	0.021	-0.061
-256.136	103.098	-0.201	0.236
-255.122	-133.643	0.313	-0.039
-254.107	202.144	0.125	-0.193
-253.092	-55.214	-0.086	0.039
-252.078	-78.486	-0.135	0.046
-251.063	-4.978	-0.024	-0.016
-250.049	175.780	-0.051	0.074
-249.034	103.700	0.154	-0.181
-248.019	48.979	-0.327	-0.307
-247.005	-200.000	-0.038	-0.187
-245.990	-84.465	0.444	0.140
-244.976	-82.480	0.103	-0.034
-243.961	-102.374	0.158	-0.038
-242.946	124.054	-0.229	0.288
-241.932	-58.107	0.172	0.075
-240.917	213.757	0.172	-0.272
-239.903	800.000	-0.013	0.050
-238.888	175.480	0.033	-0.048
-237.873	800.000	-0.031	0.113
-236.859	2.081	0.165	0.119
-235.844	750.616	-0.114	-0.308
-234.830	420.224	0.175	-0.374
-233.815	-15.289	-0.398	0.255
-232.800	-200.000	-0.009	-0.305
-231.786	273.699	0.148	0.262
-230.771	106.548	-0.299	0.354
-229.757	239.228	0.166	0.276
-228.742	742.815	0.085	0.227
-227.727	7.610	-0.035	-0.026
-226.713	-107.381	-0.097	-0.021
-225.698	766.125	0.099	-0.270
-224.684	431.562	-0.030	-0.065
-223.669	-0.836	-0.169	0.120
-222.655	46.731	-0.085	0.079
-221.640	139.525	-0.206	0.271
-220.625	800.000	0.067	0.290
-219.611	-200.000	-0.025	0.444
-218.596	71.275	-0.057	-0.059
-217.582	115.211	-0.127	-0.155
-216.567	800.000	-0.123	0.341
-215.552	103.722	-0.055	0.065
-214.538	476.642	0.109	-0.246
-213.523	-62.026	0.104	0.043
-212.509	800.000	0.051	0.152
-211.494	-200.000	-0.002	0.080
-210.479	800.000	-0.046	-0.183
-209.465	287.666	0.142	-0.257
-208.450	115.499	0.122	-0.148
-207.436	162.193	0.247	-0.345
-206.421	142.110	0.199	-0.263
-205.406	-8.284	0.165	-0.111
-204.392	-97.144	-0.144	0.038
-203.377	114.713	0.113	-0.138
-202.363	-65.361	0.083	-0.033
-201.348	800.000	0.064	0.224
-200.333	237.399	-0.139	-0.230
-199.319	800.000	0.013	-0.048
-198.304	158.851	-0.138	0.192
-197.290	351.487	-0.173	0.341
-196.275	174.866	-0.194	-0.280
-195.260	-63.551	0.200	0.082
-194.246	-94.173	0.027	-0.007
-193.231	-200.000	0.018	0.202
-192.217	-64.006	0.130	0.053
-191.202	31.755	-0.093	0.080
-190.187	-86.555	-0.177	-0.054
-189.173	-200.000	0.036	0.514
-188.158	-30.387	-0.089	-0.050
-187.144	3.810	0.318	0.232
-186.129	122.941	-0.327	0.408
-185.114	-26.345	-0.077	-0.045
-184.100	800.000	0.046	0.137
-183.085	-128.999	-0.140	-0.020
-182.071	-128.249	0.526	-0.075
-181.056	-200.000	-0.039	-0.313
-180.042	-200.000	-0.012	-0.278
-179.027	-200.000	-0.039	0.176
-178.012	60.551	-0.182	-0.180
-176.998	142.896	-0.340	-0.450
-175.983	800.000	-0.022	0.088
-174.969	189.082	-0.152	0.226
-173.954	154.998	0.262	-0.359
-172.939	-200.000	0.004	-0.035
-171.925	49.691	-0.098	-0.092
-170.910	-200.000	0.053	-0.313
-169.896	-83.877	0.194	-0.062
-168.881	-10.128	0.104	0.069
-167.866	59.027	0.096	-0.094
-166.852	-81.079	-0.144	-0.047
-165.837	-10.509	0.091	-0.060
-164.823	76.775	-0.359	0.380
-163.808	43.069	-0.190	0.173
-162.793	12.711	0.229	-0.176
-161.779	-112.108	-0.232	0.047
-160.764	596.506	0.063	-0.154
-159.750	-27.811	-0.075	0.043
-158.735	-200.000	-0.005	0.288
-157.720	-200.000	0.003	-0.119
-156.706	800.000	-0.093	0.267
-155.691	-28.840	-0.366	-0.210
-154.677	213.641	-0.176	-0.277
-153.662	-72.740	-0.257	-0.094
-152.647	-91.647	0.309	-0.088
-151.633	-124.778	0.164	-0.025
-150.618	-11.723	0.252	0.165
-149.604	-200.000	0.034	-0.379
-148.589	43.472	0.300	0.273
-147.574	130.700	-0.198	-0.253
-146.560	-170.127	0.207	0.007
-145.545	-130.562	0.248	-0.033
-144.531	800.000	-0.036	-0.117
-143.516	-22.323	-0.213	0.129
-142.502	-155.822	-0.385	-0.024
-141.487	42.165	0.142	0.129
-140.472	-119.378	0.106	-0.018
-139.458	160.364	0.100	-0.140
-138.443	-85.334	0.319	0.099
-137.429	-137.611	-0.176	0.020
-136.414	87.516	-0.084	-0.093
-135.399	546.006	-0.138	0.329
-134.385	93.109	0.137	-0.154
-133.370	-193.243	0.086	-0.001
-132.356	-12.107	0.082	0.053
-131.341	44.101	0.164	0.150
-130.326	800.000	0.061	0.243
-129.312	-200.000	-0.003	0.042
-128.297	-39.036	0.289	0.152
-127.283	43.281	0.178	0.162
-126.268	194.417	0.154	-0.233
-125.253	530.973	0.060	0.141
-124.239	-59.832	0.077	-0.033
-123.224	334.804	0.117	-0.225
-122.210	513.669	0.143	-0.332
