DTS Sentinel unit serial number:	SN413079Multiplexer serial number:	ORYXHardware model number:	OX4-SRSoftware version number:	ORYX F/W v4.00 Oryx Data Collector v3.7.2.0data status	okinstallation	princeton_trtdifferential loss correction	single-endedforward channel	channel 2reverse channel	N/Adate	2019/09/15time	02:51:35forward acquisition time	60.00reverse acquisition time	0.00gamma	496.2192k internal	0.2326k external	0.2326temperature offset calibration	1.0034default loss term (dB/km)	0.3790temperature slope calibration	1.0000multiplexer offset coefficient	1.0000multiplexer slope coefficient	1.0000fibre end	0.00T internal ref (°C)	31.31T ext. ref 1 (°C)	4.57T ext. ref 2 (°C)	25.70length (m)	temperature (°C)	Stokes	anti-Stokes-747.200	800.000	0.021	0.065
-746.185	-40.406	-0.218	0.114
-745.171	-200.000	-0.006	0.044
-744.156	-159.163	-0.388	-0.022
-743.142	3.120	0.098	0.072
-742.127	14.468	-0.088	-0.070
-741.112	-88.504	0.247	-0.074
-740.098	-200.000	0.039	0.225
-739.083	-35.292	-0.124	-0.068
-738.069	85.027	-0.137	0.151
-737.054	-42.231	-0.229	-0.118
-736.039	312.120	0.149	-0.282
-735.025	247.704	-0.074	0.127
-734.010	182.661	0.225	0.335
-732.996	367.172	0.102	-0.207
-731.981	-76.055	-0.500	0.178
-730.966	-63.721	0.584	0.241
-729.952	-94.067	-0.240	-0.066
-728.937	204.761	-0.028	0.043
-727.923	-112.365	0.076	-0.015
-726.908	800.000	0.117	-0.347
-725.894	800.000	-0.024	-0.076
-724.879	-200.000	-0.022	-0.291
-723.864	232.652	0.035	-0.058
-722.850	-66.412	-0.028	-0.011
-721.835	-200.000	0.023	0.188
-720.821	682.084	0.071	0.187
-719.806	-200.000	0.019	0.230
-718.791	-200.000	0.008	-0.164
-717.777	-113.873	0.453	0.089
-716.762	-200.000	0.076	-0.475
-715.748	-200.000	0.035	0.273
-714.733	11.054	0.139	-0.107
-713.718	-25.297	-0.062	0.037
-712.704	-15.340	-0.225	-0.145
-711.689	188.902	-0.099	0.150
-710.675	427.213	-0.061	0.133
-709.660	800.000	-0.138	0.418
-708.645	-200.000	-0.031	0.313
-707.631	-32.876	0.085	-0.048
-706.616	-63.263	0.332	0.138
-705.602	50.007	-0.113	0.107
-704.587	195.112	-0.103	-0.157
-703.572	-200.000	-0.068	-0.318
-702.558	800.000	-0.095	-0.332
-701.543	24.704	0.415	0.346
-700.529	-200.000	0.021	-0.108
-699.514	-114.183	-0.075	-0.015
-698.499	-74.885	-0.466	0.168
-697.485	-200.000	0.002	-0.061
-696.470	-147.163	0.095	0.008
-695.456	-73.898	0.178	-0.065
-694.441	-152.850	-0.239	0.017
-693.426	-61.795	-0.267	-0.112
-692.412	-200.000	-0.007	-0.141
-691.397	-17.455	0.050	0.032
-690.383	-27.450	-0.215	-0.126
-689.368	800.000	-0.085	0.258
-688.354	266.051	-0.203	0.357
-687.339	419.292	0.060	0.129
-686.324	149.998	-0.042	0.058
-685.310	-114.465	-0.084	-0.016
-684.295	-200.000	-0.043	0.286
-683.281	-200.000	0.060	-0.447
-682.266	353.322	-0.021	-0.042
-681.251	-99.976	-0.243	0.061
-680.237	-57.078	-0.340	-0.151
-679.222	243.129	-0.234	-0.395
-678.208	16.185	-0.057	0.045
-677.193	-200.000	0.033	0.188
-676.178	-46.836	-0.269	0.132
-675.164	292.482	0.092	-0.169
-674.149	239.048	0.105	-0.176
-673.135	85.422	0.151	-0.167
-672.120	-33.806	0.159	0.088
-671.105	-200.000	-0.047	-0.221
-670.091	-200.000	0.016	-0.276
-669.076	184.823	-0.139	-0.207
-668.062	-127.166	0.121	0.018
-667.047	215.683	-0.031	0.049
-666.032	45.023	0.152	0.140
-665.018	800.000	0.033	0.091
-664.003	25.856	-0.376	0.315
-662.989	-27.783	-0.240	0.140
-661.974	800.000	0.064	0.223
-660.959	-200.000	-0.041	-0.201
-659.945	800.000	-0.090	-0.368
-658.930	115.449	-0.007	0.009
-657.916	-68.188	-0.217	-0.085
-656.901	77.700	0.192	-0.206
-655.886	-115.594	0.283	0.053
-654.872	296.015	0.275	0.506
-653.857	-200.000	0.036	0.203
-652.843	800.000	0.012	-0.035
-651.828	-3.712	-0.224	-0.157
-650.814	17.109	0.114	0.091
-649.799	29.408	-0.151	0.129
-648.784	800.000	0.079	-0.291
-647.770	-10.692	-0.276	-0.183
-646.755	-20.166	-0.133	-0.082
-645.741	40.271	0.169	0.153
-644.726	-200.000	0.001	0.150
-643.711	-200.000	-0.022	0.099
-642.697	48.658	0.147	-0.138
-641.682	-200.000	-0.053	-0.308
-640.668	194.316	-0.103	-0.157
-639.653	-15.553	-0.126	-0.081
-638.638	630.520	0.123	-0.312
-637.624	188.272	0.004	-0.007
-636.609	147.553	0.244	0.330
-635.595	761.251	0.150	0.409
-634.580	-200.000	0.025	0.486
-633.565	84.692	-0.049	0.054
-632.551	-62.149	-0.140	-0.059
-631.536	46.411	0.117	0.109
-630.522	-69.721	0.306	-0.117
-629.507	800.000	-0.071	0.261
-628.492	-200.000	0.013	-0.098
-627.478	-184.238	-0.304	-0.005
-626.463	35.532	-0.150	0.132
-625.449	128.090	-0.120	0.153
-624.434	-49.215	0.074	0.036
-623.419	62.770	0.270	0.271
-622.405	-144.497	0.351	-0.033
-621.390	128.106	-0.201	-0.256
-620.376	-200.000	-0.017	0.184
-619.361	237.733	-0.017	0.029
-618.346	647.002	0.107	0.274
-617.332	194.091	0.215	-0.327
-616.317	82.497	-0.162	-0.177
-615.303	321.156	0.095	-0.181
-614.288	85.612	-0.247	-0.272
-613.273	-145.011	0.266	-0.024
-612.259	170.406	-0.041	0.059
-611.244	-11.609	0.285	0.188
-610.230	-143.554	0.123	-0.012
-609.215	-200.000	0.032	0.175
-608.201	-200.000	0.007	0.146
-607.186	431.588	0.141	-0.306
-606.171	-112.121	-0.334	0.067
-605.157	-44.961	-0.138	0.069
-604.142	-77.737	-0.095	-0.033
-603.128	-200.000	-0.047	-0.234
-602.113	393.222	-0.110	-0.229
-601.098	290.171	0.231	0.420
-600.084	-150.142	-0.217	0.017
-599.069	800.000	0.110	-0.325
-598.055	-200.000	0.021	-0.102
-597.040	-69.919	-0.437	0.167
-596.025	-200.000	0.035	0.423
-595.011	-6.069	0.164	-0.112
-593.996	85.296	-0.024	-0.026
-592.982	614.572	0.074	-0.187
-591.967	-108.027	-0.359	0.078
-590.952	16.914	-0.075	-0.059
-589.938	-46.978	0.334	0.164
-588.923	145.487	-0.215	-0.288
-587.909	-65.702	-0.151	0.061
-586.894	-54.008	-0.068	-0.031
-585.879	-121.384	0.278	0.046
-584.865	317.009	0.255	-0.482
-583.850	-200.000	0.031	-0.426
-582.836	31.147	0.085	0.073
-581.821	131.242	-0.048	0.062
-580.806	-119.891	-0.218	0.038
-579.792	115.016	-0.277	-0.339
-578.777	412.842	0.147	0.313
-577.763	-200.000	0.003	0.318
-576.748	429.146	0.066	-0.144
-575.733	-38.080	0.328	0.174
-574.719	111.529	0.028	0.034
-573.704	2.538	0.150	0.109
-572.690	-122.706	-0.342	-0.055
-571.675	800.000	0.110	-0.318
-570.661	-200.000	0.024	0.159
-569.646	-200.000	0.052	0.272
-568.631	2.350	-0.178	-0.129
-567.617	225.298	0.114	0.184
-566.602	476.996	-0.057	0.130
-565.588	-43.711	-0.220	-0.111
-564.573	41.291	-0.174	0.158
-563.558	-96.850	0.264	0.070
-562.544	117.659	-0.120	0.148
-561.529	-91.623	-0.150	-0.043
-560.515	6.473	0.330	-0.246
-559.500	-150.822	0.223	0.017
-558.485	-82.140	-0.336	-0.110
-557.471	-200.000	-0.031	-0.150
-556.456	-200.000	-0.001	0.020
-555.442	20.873	0.203	-0.165
-554.427	102.915	-0.308	-0.361
-553.412	-102.318	-0.227	0.054
-552.398	-200.000	-0.009	-0.122
-551.383	-159.470	-0.418	0.023
-550.369	-200.000	0.023	0.141
-549.354	280.958	-0.107	0.191
-548.339	800.000	0.099	-0.432
-547.325	170.007	-0.050	-0.071
-546.310	-200.000	-0.004	-0.061
-545.296	-200.000	-0.011	0.233
-544.281	56.832	0.120	-0.117
-543.266	-1.401	0.210	0.148
-542.252	213.146	0.183	0.289
-541.237	-119.433	-0.144	0.025
-540.223	457.375	0.078	0.174
-539.208	-200.000	-0.012	-0.109
-538.193	103.496	-0.147	-0.172
-537.179	503.147	-0.042	0.097
-536.164	488.900	-0.041	0.093
-535.150	94.689	0.078	0.089
-534.135	-132.859	-0.059	-0.008
-533.121	-101.394	-0.180	-0.044
-532.106	60.409	0.005	-0.005
-531.091	-77.684	0.033	-0.011
-530.077	26.676	-0.114	0.095
-529.062	343.962	0.198	0.388
-528.048	-200.000	-0.002	0.435
-527.033	-77.366	0.173	0.060
-526.018	-59.553	0.146	0.063
-525.004	161.096	0.098	-0.137
-523.989	-200.000	-0.040	-0.332
-522.975	800.000	-0.068	-0.220
-521.960	-80.627	0.135	0.045
-520.945	-200.000	0.026	0.145
-519.931	-121.965	0.140	0.023
-518.916	165.878	0.162	-0.229
-517.902	82.994	-0.195	-0.212
-516.887	800.000	0.067	-0.189
-515.872	-200.000	0.034	-0.227
-514.858	-7.851	-0.208	-0.140
-513.843	-58.458	-0.134	-0.058
-512.829	-200.000	-0.002	-0.176
-511.814	800.000	0.092	-0.326
-510.799	214.760	0.093	-0.147
-509.785	73.813	-0.159	0.166
-508.770	35.138	-0.327	0.286
-507.756	309.304	0.050	-0.094
-506.741	-108.040	-0.113	-0.024
-505.726	-104.757	-0.068	0.016
-504.712	-85.074	-0.133	-0.042
-503.697	-167.993	-0.285	-0.011
-502.683	118.154	0.248	-0.305
-501.668	721.427	0.056	-0.150
-500.653	-200.000	-0.023	-0.320
-499.639	112.159	-0.202	-0.244
-498.624	-46.256	0.150	-0.074
-497.610	144.187	-0.157	0.210
-496.595	22.889	0.045	0.037
-495.581	487.927	0.097	0.222
-494.566	-43.483	0.307	-0.155
-493.551	78.613	-0.182	-0.194
-492.537	0.706	0.078	-0.056
-491.522	-135.063	0.089	0.011
-490.508	-81.237	-0.259	-0.086
-489.493	453.062	-0.104	-0.229
-488.478	415.514	-0.105	-0.224
-487.464	350.518	-0.079	0.156
-486.449	-200.000	0.004	-0.109
-485.435	800.000	-0.062	0.181
-484.420	-89.483	-0.192	0.056
-483.405	-200.000	0.010	0.047
-482.391	800.000	0.013	0.050
-481.376	-147.667	0.318	-0.027
-480.362	-57.995	-0.117	0.051
-479.347	-36.772	0.100	0.054
-478.332	-55.897	0.242	0.108
-477.318	-142.842	-0.252	-0.024
-476.303	-42.097	-0.327	-0.167
-475.289	-58.082	0.125	-0.055
-474.274	-137.597	0.113	-0.013
-473.259	-187.280	-0.230	-0.003
-472.245	24.147	-0.182	-0.150
-471.230	-67.057	0.354	-0.139
-470.216	-200.000	0.047	-0.264
-469.201	526.475	-0.118	-0.277
-468.186	10.286	-0.208	0.158
-467.172	43.085	-0.081	0.073
-466.157	800.000	-0.020	-0.059
-465.143	-200.000	-0.010	-0.193
-464.128	-132.578	0.139	-0.018
-463.113	-63.311	0.100	0.041
-462.099	496.773	0.033	0.077
-461.084	75.918	0.091	0.096
-460.070	-105.396	-0.271	0.062
-459.055	-177.531	0.414	0.010
-458.040	-121.514	-0.050	-0.008
-457.026	-108.035	0.153	0.033
-456.011	800.000	0.049	-0.182
-454.997	-82.957	-0.041	0.013
-453.982	-200.000	0.046	-0.204
-452.968	-42.627	-0.348	-0.177
-451.953	800.000	-0.035	-0.137
-450.938	503.502	-0.085	-0.196
-449.924	2.500	0.239	0.173
-448.909	-140.130	0.154	0.016
-447.895	438.908	-0.100	0.217
-446.880	21.029	0.193	-0.156
-445.865	0.020	-0.150	0.107
-444.851	7.421	-0.245	0.183
-443.836	747.609	-0.059	0.158
-442.822	800.000	0.039	-0.116
-441.807	220.209	0.042	0.067
-440.792	-200.000	-0.010	-0.252
-439.778	67.362	0.144	-0.147
-438.763	800.000	-0.046	0.187
-437.749	-61.386	0.338	0.142
-436.734	116.774	0.264	-0.323
-435.719	-200.000	-0.005	0.037
-434.705	279.081	-0.236	0.420
-433.690	-46.461	0.202	-0.099
-432.676	-86.997	-0.083	-0.025
-431.661	-142.235	0.257	0.025
-430.646	-200.000	-0.023	0.287
-429.632	-200.000	0.032	-0.381
-428.617	180.434	0.088	0.128
-427.603	-119.497	0.293	-0.051
-426.588	-7.056	-0.131	-0.089
-425.573	-76.975	0.107	-0.037
-424.559	800.000	-0.037	-0.113
-423.544	7.517	0.134	-0.100
-422.530	-200.000	0.063	-0.279
-421.515	332.959	-0.082	0.157
-420.500	-9.677	0.162	-0.107
-419.486	-78.182	-0.316	-0.108
-418.471	-102.574	0.262	0.062
-417.457	87.914	-0.130	-0.144
-416.442	800.000	0.074	0.224
-415.428	-92.258	-0.173	-0.049
-414.413	44.513	0.096	0.088
-413.398	772.821	-0.037	0.102
-412.384	203.904	0.087	-0.134
-411.369	-200.000	-0.005	0.096
-410.355	800.000	0.015	-0.055
-409.340	39.737	0.282	0.252
-408.325	-77.973	0.259	0.089
-407.311	521.607	-0.147	-0.344
-406.296	-56.118	-0.481	0.213
-405.282	-89.097	-0.113	0.033
-404.267	226.255	-0.223	0.360
-403.252	-40.891	-0.121	0.062
-402.238	-200.000	-0.004	0.187
-401.223	-177.801	-0.086	-0.002
-400.209	-89.897	-0.094	-0.027
-399.194	46.645	-0.064	-0.059
-398.179	800.000	0.047	0.143
-397.165	59.583	-0.197	-0.194
-396.150	-200.000	-0.008	-0.141
-395.136	-200.000	0.039	0.348
-394.121	-200.000	-0.011	0.080
-393.106	-200.000	0.034	0.223
-392.092	-78.951	-0.469	0.159
-391.077	800.000	0.087	0.252
-390.063	-22.562	0.120	-0.072
-389.048	-41.673	-0.218	-0.111
-388.033	9.024	-0.328	0.246
-387.019	800.000	0.031	-0.086
-386.004	72.492	-0.161	-0.167
-384.990	791.693	-0.035	0.096
-383.975	-115.114	0.027	0.005
-382.960	800.000	0.081	0.241
-381.946	269.538	-0.031	0.054
-380.931	-200.000	-0.021	-0.174
-379.917	38.373	0.268	0.238
-378.902	116.333	-0.124	0.151
-377.888	146.381	0.162	0.216
-376.873	44.730	0.066	0.061
-375.858	-148.360	-0.209	0.017
-374.844	93.946	-0.216	-0.243
-373.829	56.970	0.083	-0.080
-372.815	-200.000	-0.018	0.301
-371.800	-84.962	0.132	0.041
-370.785	55.894	0.125	0.121
-369.771	625.794	-0.069	0.173
-368.756	-62.612	0.383	0.158
-367.742	191.369	-0.089	0.133
-366.727	-169.407	-0.073	-0.003
-365.712	-200.000	-0.037	0.175
-364.698	-14.198	0.145	-0.093
-363.683	-126.504	0.243	-0.036
-362.669	617.285	0.123	-0.306
-361.654	-68.320	0.175	-0.068
-360.639	325.628	-0.074	0.141
-359.625	800.000	0.036	0.124
-358.610	800.000	-0.123	0.429
-357.596	-80.091	-0.374	0.124
-356.581	-158.211	0.133	0.008
-355.566	-119.558	0.103	-0.018
-354.552	-70.907	-0.198	-0.074
-353.537	10.648	0.099	0.075
-352.523	-44.379	0.182	0.091
-351.508	-200.000	-0.047	0.300
-350.493	27.793	-0.218	0.182
-349.479	-184.908	0.179	0.003
-348.464	721.141	-0.104	0.274
-347.450	97.422	0.125	0.143
-346.435	800.000	0.123	0.348
-345.420	800.000	0.035	-0.128
-344.406	-104.278	0.169	0.039
-343.391	-200.000	-0.009	-0.236
-342.377	9.177	0.086	-0.065
-341.362	-16.926	0.045	0.028
-340.348	-98.626	0.171	-0.043
-339.333	301.714	-0.071	-0.129
-338.318	139.875	0.301	-0.394
-337.304	415.924	0.007	0.015
-336.289	-60.554	-0.378	0.159
-335.275	169.209	-0.079	-0.113
-334.260	-91.034	-0.123	0.035
-333.245	55.020	0.127	-0.122
-332.231	216.446	0.172	0.271
-331.216	-118.665	-0.062	-0.011
-330.202	-121.955	-0.133	-0.022
-329.187	238.586	-0.168	0.276
-328.172	-72.144	-0.152	0.056
-327.158	-200.000	-0.322	-0.001
-326.143	-200.000	0.006	0.044
-325.129	262.040	-0.054	0.093
-324.114	377.422	0.082	0.166
-323.099	-200.000	-0.010	0.254
-322.085	-180.380	0.208	-0.004
-321.070	168.632	-0.132	-0.187
-320.056	290.024	-0.091	-0.164
-319.041	257.351	0.065	0.111
-318.026	-120.185	-0.304	0.051
-317.012	800.000	-0.041	0.134
-315.997	128.186	0.208	-0.262
-314.983	7.650	0.156	0.116
-313.968	32.273	-0.048	-0.041
-312.953	-175.724	0.350	-0.009
-311.939	-91.939	0.125	0.035
-310.924	-118.172	0.136	0.024
-309.910	-49.243	0.287	-0.136
-308.895	-63.246	0.300	-0.122
-307.880	-72.887	0.121	-0.044
-306.866	-86.375	-0.072	0.022
-305.851	-200.000	-0.020	-0.169
-304.837	-52.014	-0.101	-0.047
-303.822	-200.000	0.013	0.179
-302.807	-58.206	-0.273	0.118
-301.793	25.910	-0.124	-0.102
-300.778	-46.608	0.155	0.075
-299.764	-15.992	0.177	0.112
-298.749	800.000	-0.128	0.536
-297.735	-65.981	-0.226	0.090
-296.720	1.466	0.135	0.096
-295.705	13.796	-0.221	0.170
-294.691	57.862	0.140	-0.135
-293.676	-7.627	0.090	-0.060
-292.662	-100.806	0.291	-0.071
-291.647	800.000	-0.114	0.417
-290.632	-98.658	0.306	-0.077
-289.618	-200.000	-0.020	0.222
-288.603	224.382	-0.082	-0.132
-287.589	-87.261	-0.269	0.081
-286.574	-40.833	0.102	-0.052
-285.559	-200.000	-0.024	-0.122
-284.545	-200.000	-0.004	-0.045
-283.530	-126.748	0.163	-0.024
-282.516	616.569	-0.103	-0.256
-281.501	-47.109	0.183	0.088
-280.486	-130.724	-0.080	0.011
-279.472	38.267	0.105	0.092
-278.457	-49.896	0.214	0.101
-277.443	-200.000	0.013	0.248
-276.428	-77.460	-0.101	0.035
-275.413	-16.138	0.134	-0.084
-274.399	-200.000	0.003	0.030
-273.384	-114.147	-0.217	0.042
-272.370	800.000	-0.111	-0.474
-271.355	-12.876	-0.052	0.034
-270.340	-165.661	-0.228	0.010
-269.326	-189.719	-0.340	-0.004
-268.311	9.212	0.135	-0.101
-267.297	68.398	0.077	-0.078
-266.282	-0.527	0.203	0.143
-265.267	116.499	0.140	-0.170
-264.253	-59.174	0.088	0.038
-263.238	-12.964	0.146	0.094
-262.224	-98.482	0.275	-0.070
-261.209	-200.000	0.010	0.169
-260.195	800.000	-0.052	0.193
-259.180	135.637	0.174	-0.224
-258.165	-19.878	0.272	-0.166
-257.151	-73.977	-0.250	-0.090
-256.136	-200.000	-0.021	-0.216
-255.122	-74.843	-0.084	-0.030
-254.107	431.236	0.046	0.098
-253.092	-200.000	-0.078	-0.487
-252.078	193.560	0.161	0.241
-251.063	-200.000	-0.039	0.405
-250.049	-200.000	-0.017	0.000
-249.034	-116.048	0.125	-0.023
-248.019	-9.741	-0.099	0.065
-247.005	800.000	0.035	0.136
-245.990	97.635	-0.157	-0.179
-244.976	46.566	0.129	-0.119
-243.961	-200.000	0.009	0.067
-242.946	92.990	0.236	-0.264
-241.932	117.837	-0.284	0.346
-240.917	407.336	-0.115	0.240
-239.903	800.000	0.046	-0.170
-238.888	187.928	-0.182	0.269
-237.873	-40.155	-0.208	0.107
-236.859	800.000	0.020	-0.087
-235.844	-141.056	0.319	-0.032
-234.830	800.000	0.098	0.300
-233.815	30.390	-0.149	-0.126
-232.800	57.989	-0.105	0.102
-231.786	79.599	0.268	-0.285
-230.771	367.239	0.101	-0.203
-229.757	-94.092	-0.232	0.063
-228.742	-87.612	-0.060	-0.018
-227.727	153.221	-0.085	0.114
-226.713	-200.000	-0.064	-0.380
-225.698	-8.486	-0.113	-0.075
-224.684	50.417	0.207	-0.193
-223.669	27.648	0.045	0.038
-222.655	125.860	0.311	-0.388
-221.640	22.266	0.210	-0.169
-220.625	193.926	-0.319	-0.477
-219.611	297.021	-0.143	-0.259
-218.596	-125.141	0.118	-0.018
-217.582	-35.907	0.185	-0.099
-216.567	37.533	0.223	-0.195
-215.552	-0.898	0.132	-0.093
-214.538	-52.808	-0.081	0.037
-213.523	-200.000	-0.011	0.114
-212.509	800.000	0.033	0.090
-211.494	-200.000	0.023	0.160
-210.479	-200.000	0.042	-0.192
-209.465	490.396	-0.084	-0.190
-208.450	161.692	-0.028	0.039
-207.436	31.872	-0.033	0.028
-206.421	-34.270	-0.147	0.079
-205.406	172.445	0.259	-0.369
-204.392	-200.000	-0.021	0.102
-203.377	73.619	0.269	-0.278
-202.363	220.383	-0.152	-0.241
-201.348	113.720	0.274	0.329
-200.333	306.226	-0.022	0.041
-199.319	287.205	-0.117	0.210
-198.304	-56.553	0.235	0.103
-197.290	-178.394	-0.181	0.004
-196.275	734.111	0.150	0.396
-195.260	800.000	0.064	0.184
-194.246	-200.000	-0.044	-0.203
-193.231	83.594	-0.177	-0.191
-192.217	50.243	-0.087	-0.081
-191.202	800.000	-0.068	-0.239
-190.187	-136.365	0.103	0.012
-189.173	-77.597	-0.071	0.024
-188.158	-164.314	-0.334	0.015
-187.144	-127.145	-0.259	0.037
-186.129	191.948	0.227	0.338
-185.114	83.418	0.249	0.268
-184.100	-40.727	-0.146	-0.074
-183.085	-56.743	0.042	-0.019
-182.071	67.868	0.255	-0.258
-181.056	89.157	-0.078	0.086
-180.042	-79.739	0.162	0.054
-179.027	-200.000	-0.013	0.264
-178.012	7.810	0.109	0.081
-176.998	-200.000	0.029	-0.166
-175.983	136.919	0.127	0.164
-174.969	-114.928	-0.123	0.023
-173.954	-42.927	-0.300	-0.150
-172.939	-182.533	0.172	0.003
-171.925	212.313	-0.146	0.228
-170.910	96.218	0.174	0.196
-169.896	90.695	-0.160	-0.177
-168.881	800.000	-0.034	0.095
-167.866	-200.000	-0.017	-0.306
-166.852	-3.855	-0.046	-0.031
-165.837	129.434	-0.081	-0.102
-164.823	40.995	0.205	-0.182
-163.808	216.006	0.141	0.221
-162.793	-139.489	0.315	-0.033
-161.779	544.924	-0.041	0.096
-160.764	-9.655	-0.246	-0.161
-159.750	50.735	-0.102	-0.095
-158.735	-9.306	-0.120	0.079
-157.720	-60.335	-0.365	0.153
-156.706	-196.068	-0.129	0.001
-155.691	-154.952	0.155	-0.010
-154.677	86.098	-0.161	0.174
-153.662	-85.349	-0.210	0.065
-152.647	-41.729	-0.362	-0.183
-151.633	-200.000	-0.041	-0.274
-150.618	-54.368	-0.323	0.144
-149.604	-79.143	0.337	-0.113
-148.589	-107.566	-0.258	0.056
-147.574	-111.217	-0.282	-0.057
-146.560	-17.547	-0.089	-0.055
-145.545	38.752	-0.193	0.170
-144.531	-156.174	0.076	-0.005
-143.516	-75.395	-0.112	0.039
-142.502	-115.713	-0.206	-0.038
-141.487	47.529	0.130	0.119
-140.472	55.013	0.277	0.263
-139.458	-200.000	0.017	0.112
-138.443	800.000	-0.049	-0.160
-137.429	48.808	0.337	0.311
-136.414	-94.306	-0.404	0.109
-135.399	-22.515	0.310	0.184
-134.385	-200.000	-0.002	-0.129
-133.370	109.778	-0.144	-0.171
-132.356	13.528	0.292	0.223
-131.341	400.115	-0.063	0.130
-130.326	14.092	-0.114	-0.087
-129.312	800.000	0.039	0.158
-128.297	-113.195	-0.077	-0.015
-127.283	238.228	-0.238	-0.390
-126.268	-65.499	-0.075	-0.030
-125.253	-200.000	-0.018	0.136
-124.239	800.000	0.069	-0.230
-123.224	-200.000	0.007	-0.113
-122.210	-27.350	0.193	-0.110
-121.195	-77.573	-0.153	-0.052
