DTS Sentinel unit serial number:	SN413079Multiplexer serial number:	ORYXHardware model number:	OX4-SRSoftware version number:	ORYX F/W v4.00 Oryx Data Collector v3.7.2.0data status	okinstallation	princeton_trtdifferential loss correction	single-endedforward channel	channel 2reverse channel	N/Adate	2019/09/13time	00:51:35forward acquisition time	60.00reverse acquisition time	0.00gamma	496.2192k internal	0.2333k external	0.2333temperature offset calibration	1.0162default loss term (dB/km)	0.3790temperature slope calibration	1.0000multiplexer offset coefficient	1.0000multiplexer slope coefficient	1.0000fibre end	0.00T internal ref (°C)	28.14T ext. ref 1 (°C)	3.66T ext. ref 2 (°C)	22.63length (m)	temperature (°C)	Stokes	anti-Stokes-747.200	-76.816	0.253	-0.089
-746.185	800.000	0.073	0.204
-745.171	86.970	-0.193	-0.214
-744.156	-13.450	-0.233	0.152
-743.142	178.564	-0.052	0.077
-742.127	67.772	-0.336	0.346
-741.112	182.580	-0.071	-0.105
-740.098	59.245	0.274	0.271
-739.083	-200.000	-0.010	-0.103
-738.069	-46.026	0.419	0.208
-737.054	-200.000	0.021	-0.177
-736.039	5.816	-0.393	-0.293
-735.025	153.659	0.233	0.320
-734.010	-200.000	-0.035	0.220
-732.996	8.223	-0.212	-0.160
-731.981	-138.647	0.208	0.023
-730.966	-132.591	0.282	-0.036
-729.952	256.758	-0.240	-0.415
-728.937	142.556	-0.198	-0.264
-727.923	-45.103	-0.132	-0.066
-726.908	41.078	-0.016	-0.014
-725.894	-107.846	-0.107	-0.024
-724.879	-200.000	-0.057	0.328
-723.864	-200.000	0.004	-0.315
-722.850	582.100	-0.133	0.329
-721.835	8.752	-0.148	-0.112
-720.821	-188.253	0.452	0.006
-719.806	254.850	0.198	-0.341
-718.791	-200.000	0.024	-0.354
-717.777	-200.000	0.054	-0.291
-716.762	30.106	-0.173	-0.148
-715.748	-127.746	-0.399	0.058
-714.733	-146.192	-0.413	0.036
-713.718	207.807	-0.131	0.205
-712.704	-64.043	0.144	-0.059
-711.689	38.807	0.084	-0.075
-710.675	800.000	-0.088	0.245
-709.660	518.088	-0.235	-0.553
-708.645	29.797	0.115	-0.098
-707.631	94.081	0.182	-0.207
-706.616	510.472	0.065	-0.151
-705.602	-128.072	0.036	-0.005
-704.587	186.897	-0.062	-0.093
-703.572	1.906	-0.076	-0.055
-702.558	-3.042	-0.037	-0.026
-701.543	-200.000	0.014	-0.090
-700.529	63.695	0.197	-0.198
-699.514	20.587	-0.161	-0.131
-698.499	658.410	0.099	-0.255
-697.485	-200.000	-0.011	0.226
-696.470	41.663	-0.129	0.118
-695.456	54.224	0.197	-0.191
-694.441	61.804	0.169	0.169
-693.426	201.427	-0.031	-0.048
-692.412	-200.000	-0.051	-0.639
-691.397	0.093	-0.224	0.161
-690.383	132.214	0.138	-0.179
-689.368	128.984	-0.095	0.122
-688.354	83.602	0.055	0.060
-687.339	800.000	0.103	-0.338
-686.324	49.638	-0.256	-0.242
-685.310	-200.000	0.050	0.304
-684.295	-13.882	0.320	0.207
-683.281	287.535	-0.181	0.328
-682.266	13.013	-0.160	0.124
-681.251	-200.000	0.039	0.369
-680.237	-28.203	0.096	-0.056
-679.222	-38.269	-0.079	-0.042
-678.208	-200.000	0.009	-0.337
-677.193	800.000	-0.089	0.275
-676.178	483.315	0.061	-0.138
-675.164	-118.955	0.236	-0.041
-674.149	-114.764	0.282	-0.054
-673.135	-47.401	-0.154	0.075
-672.120	160.790	0.051	-0.072
-671.105	-21.066	0.167	-0.103
-670.091	-172.411	-0.246	0.008
-669.076	33.779	0.078	-0.068
-668.062	481.997	-0.085	0.194
-667.047	-8.605	-0.195	-0.131
-666.032	440.585	0.065	0.143
-665.018	-7.783	0.213	-0.144
-664.003	13.766	0.064	-0.050
-662.989	-128.178	-0.158	-0.023
-661.974	-131.652	-0.420	-0.055
-660.959	18.209	-0.188	-0.150
-659.945	800.000	0.069	0.220
-658.930	777.259	-0.032	0.087
-657.916	-200.000	-0.058	-0.259
-656.901	-68.132	-0.290	-0.113
-655.886	-78.422	-0.101	-0.035
-654.872	-124.490	-0.148	0.023
-653.857	248.507	-0.034	0.058
-652.843	-200.000	0.038	-0.320
-651.828	-200.000	0.027	-0.207
-650.814	800.000	0.085	0.287
-649.799	-139.916	-0.395	-0.042
-648.784	-200.000	-0.023	0.120
-647.770	-57.020	0.106	-0.047
-646.755	187.099	-0.032	0.048
-645.741	162.103	0.047	0.066
-644.726	800.000	0.029	-0.126
-643.711	142.313	0.195	-0.259
-642.697	-48.240	0.296	-0.143
-641.682	800.000	-0.024	0.084
-640.668	77.952	-0.177	-0.189
-639.653	-15.109	0.084	-0.054
-638.638	800.000	0.079	0.280
-637.624	-200.000	0.000	0.377
-636.609	30.370	0.147	-0.126
-635.595	-89.885	-0.273	0.080
-634.580	140.907	0.125	-0.165
-633.565	-200.000	-0.030	-0.141
-632.551	-40.358	0.340	-0.177
-631.536	-61.282	-0.230	-0.097
-630.522	486.188	0.025	0.056
-629.507	-96.837	-0.292	-0.077
-628.492	40.593	0.096	0.086
-627.478	248.729	0.153	-0.259
-626.463	19.255	-0.123	-0.099
-625.449	-120.307	-0.491	-0.084
-624.434	121.371	-0.147	0.183
-623.419	40.294	-0.164	-0.147
-622.405	254.177	-0.029	-0.049
-621.390	-30.931	-0.275	-0.156
-620.376	-20.669	-0.123	0.076
-619.361	-200.000	0.002	-0.264
-618.346	84.638	-0.084	-0.092
-617.332	238.921	0.109	0.181
-616.317	107.135	-0.217	-0.258
-615.303	59.334	-0.208	0.205
-614.288	-7.217	0.189	-0.128
-613.273	-127.791	-0.311	-0.045
-612.259	-147.510	0.090	-0.008
-611.244	324.049	-0.063	-0.121
-610.230	800.000	-0.025	0.105
-609.215	-63.178	0.409	0.169
-608.201	67.971	-0.236	0.242
-607.186	-57.672	-0.410	-0.179
-606.171	777.075	0.072	0.196
-605.157	-38.554	-0.207	0.109
-604.142	-56.577	-0.273	-0.121
-603.128	535.162	0.040	-0.095
-602.113	318.150	-0.088	-0.166
-601.098	153.145	0.079	0.108
-600.084	-125.364	-0.256	0.039
-599.069	698.143	0.064	0.168
-598.055	-116.323	-0.330	0.061
-597.040	-6.351	-0.284	0.194
-596.025	56.920	-0.241	0.235
-595.011	-111.693	0.351	-0.071
-593.996	-200.000	-0.043	0.315
-592.982	70.725	-0.053	-0.054
-591.967	-125.323	0.218	0.033
-590.952	-63.356	-0.069	0.028
-589.938	0.528	-0.156	-0.111
-588.923	-81.182	0.187	-0.062
-587.909	800.000	-0.040	0.174
-586.894	-200.000	-0.029	0.427
-585.879	123.532	-0.132	0.165
-584.865	800.000	-0.070	0.257
-583.850	229.847	0.165	0.270
-582.836	12.068	-0.192	-0.148
-581.821	-186.132	-0.208	0.003
-580.806	310.684	-0.061	-0.113
-579.792	800.000	-0.089	-0.364
-578.777	523.824	-0.106	0.249
-577.763	-1.495	-0.160	0.113
-576.748	-6.397	-0.299	0.204
-575.733	-47.462	-0.084	-0.041
-574.719	-18.458	0.267	-0.166
-573.704	268.381	-0.260	-0.454
-572.690	-200.000	-0.036	0.243
-571.675	-126.240	0.035	0.005
-570.661	-200.000	0.065	-0.372
-569.646	398.685	-0.091	-0.190
-568.631	43.224	-0.195	0.178
-567.617	285.530	0.158	0.285
-566.602	800.000	-0.100	0.292
-565.588	12.146	0.211	-0.162
-564.573	-200.000	0.025	0.252
-563.558	-3.598	0.265	0.184
-562.544	14.486	0.112	-0.088
-561.529	-200.000	0.025	-0.288
-560.515	-46.270	-0.184	0.090
-559.500	-65.705	0.058	0.023
-558.485	344.065	0.097	0.190
-557.471	213.136	0.137	-0.216
-556.456	54.454	0.252	-0.243
-555.442	-85.265	-0.461	0.144
-554.427	206.791	0.113	-0.176
-553.412	800.000	0.084	0.266
-552.398	187.643	0.094	0.141
-551.383	-129.913	-0.201	-0.028
-550.369	800.000	-0.046	-0.188
-549.354	-103.223	-0.244	0.057
-548.339	160.970	-0.063	-0.087
-547.325	-7.365	0.212	-0.144
-546.310	2.267	0.237	-0.171
-545.296	-160.000	-0.197	0.011
-544.281	800.000	0.056	-0.191
-543.266	-55.731	-0.243	-0.108
-542.252	393.082	-0.274	0.569
-541.237	-14.101	0.151	-0.097
-540.223	280.131	0.108	0.193
-539.208	-77.246	-0.218	0.076
-538.193	-44.463	-0.044	-0.022
-537.179	-34.432	0.053	0.029
-536.164	-144.286	-0.293	0.027
-535.150	38.578	0.162	-0.144
-534.135	800.000	-0.052	-0.143
-533.121	-80.031	-0.194	-0.065
-532.106	-200.000	0.011	0.101
-531.091	-96.093	-0.268	-0.071
-530.077	118.842	0.164	0.202
-529.062	190.100	-0.199	-0.298
-528.048	800.000	-0.115	-0.430
-527.033	800.000	-0.114	-0.349
-526.018	-200.000	0.004	-0.100
-525.004	729.381	0.078	-0.207
-523.989	-89.280	0.104	0.031
-522.975	73.260	0.055	-0.057
-521.960	3.098	0.122	-0.088
-520.945	-45.907	0.090	-0.044
-519.931	7.415	0.263	0.196
-518.916	-120.341	0.221	-0.038
-517.902	166.130	-0.272	-0.383
-516.887	711.182	0.106	-0.281
-515.872	800.000	0.052	-0.162
-514.858	92.028	-0.109	-0.123
-513.843	-129.309	-0.241	-0.033
-512.829	41.096	0.177	0.160
-511.814	-115.763	-0.063	0.012
-510.799	-77.446	-0.201	-0.070
-509.785	22.957	0.210	0.171
-508.770	534.883	0.115	-0.272
-507.756	-13.475	-0.241	-0.156
-506.741	95.192	0.006	-0.007
-505.726	-81.512	-0.056	-0.018
-504.712	-200.000	-0.044	-0.237
-503.697	-200.000	0.022	0.279
-502.683	38.005	-0.127	-0.113
-501.668	800.000	-0.046	0.171
-500.653	244.014	0.109	0.181
-499.639	-4.409	0.334	-0.230
-498.624	7.275	-0.189	0.141
-497.610	-64.643	-0.509	-0.206
-496.595	800.000	-0.032	0.110
-495.581	-131.412	-0.172	0.023
-494.566	43.723	-0.144	0.131
-493.551	-92.441	0.494	-0.138
-492.537	-145.526	0.311	-0.028
-491.522	-176.114	-0.368	-0.010
-490.508	-142.874	-0.188	-0.018
-489.493	-106.042	0.059	-0.013
-488.478	-200.000	0.005	-0.459
-487.464	-17.485	0.189	0.118
-486.449	800.000	-0.093	0.389
-485.435	5.191	-0.273	-0.200
-484.420	-162.956	-0.361	-0.017
-483.405	516.336	0.099	0.230
-482.391	-200.000	0.041	0.417
-481.376	-200.000	0.083	0.387
-480.362	800.000	0.047	0.165
-479.347	-69.166	0.133	-0.051
-478.332	-200.000	-0.016	0.307
-477.318	70.936	0.163	-0.168
-476.303	-200.000	0.021	0.117
-475.289	-70.448	0.035	-0.013
-474.274	143.235	0.089	0.117
-473.259	-77.763	-0.045	-0.015
-472.245	251.273	-0.103	-0.175
-471.230	800.000	-0.044	0.193
-470.216	36.225	0.204	0.178
-469.201	800.000	-0.006	0.019
-468.186	800.000	-0.084	-0.306
-467.172	-144.200	0.153	0.014
-466.157	800.000	-0.090	0.278
-465.143	-96.486	0.173	-0.046
-464.128	30.113	0.291	-0.247
-463.113	-182.756	-0.347	-0.006
-462.099	404.411	0.073	0.153
-461.084	-149.959	0.126	0.010
-460.070	-0.200	0.132	-0.093
-459.055	-200.000	0.058	0.283
-458.040	332.233	-0.179	0.345
-457.026	-200.000	0.019	-0.118
-456.011	-92.275	-0.246	0.069
-454.997	-55.067	-0.157	-0.070
-453.982	90.582	0.099	0.110
-452.968	38.576	0.401	0.356
-451.953	-44.030	-0.356	0.178
-450.938	14.463	0.077	-0.060
-449.924	500.471	-0.170	0.390
-448.909	-200.000	-0.030	-0.285
-447.895	800.000	0.054	0.158
-446.880	-147.920	0.027	-0.002
-445.865	800.000	0.009	0.034
-444.851	-200.000	-0.023	-0.448
-443.836	-200.000	-0.051	0.326
-442.822	163.795	0.207	0.290
-441.807	-200.000	-0.019	0.094
-440.792	-189.785	-0.264	-0.003
-439.778	-90.275	-0.315	-0.091
-438.763	-200.000	-0.032	-0.232
-437.749	564.745	-0.192	0.462
-436.734	409.414	0.116	-0.244
-435.719	800.000	-0.080	-0.310
-434.705	160.643	0.155	-0.215
-433.690	-110.063	-0.117	0.024
-432.676	-4.075	0.379	0.261
-431.661	367.949	-0.078	-0.158
-430.646	-76.589	0.053	0.018
-429.632	229.825	-0.113	-0.183
-428.617	800.000	0.053	-0.175
-427.603	-185.371	0.238	0.004
-426.588	373.079	0.106	-0.214
-425.573	-200.000	-0.010	-0.307
-424.559	305.341	0.015	-0.027
-423.544	-200.000	-0.060	-0.417
-422.530	-7.013	-0.128	0.086
-421.515	-29.957	0.142	0.080
-420.500	800.000	-0.088	-0.275
-419.486	800.000	0.036	-0.111
-418.471	-115.001	-0.168	0.032
-417.457	75.992	0.179	0.188
-416.442	-123.984	0.223	-0.035
-415.428	-200.000	-0.049	-0.305
-414.413	30.754	-0.326	0.277
-413.398	394.151	-0.072	0.149
-412.384	-10.944	0.141	0.092
-411.369	54.083	0.135	-0.129
-410.355	23.742	-0.090	-0.074
-409.340	800.000	0.108	-0.298
-408.325	-24.373	-0.031	-0.018
-407.311	-55.552	0.239	0.106
-406.296	23.586	0.158	0.129
-405.282	-152.337	-0.080	0.006
-404.267	-152.733	-0.103	0.007
-403.252	402.255	-0.061	0.126
-402.238	800.000	-0.026	0.077
-401.223	-200.000	-0.002	0.035
-400.209	-51.988	-0.367	-0.169
-399.194	68.282	-0.074	0.076
-398.179	80.774	0.081	-0.086
-397.165	-83.775	0.056	0.018
-396.150	-200.000	-0.003	-0.161
-395.136	-90.720	-0.172	0.049
-394.121	-29.682	-0.119	-0.067
-393.106	258.077	-0.145	0.248
-392.092	800.000	-0.100	-0.403
-391.077	-76.498	-0.232	-0.081
-390.063	175.465	0.113	-0.163
-389.048	-200.000	0.053	-0.280
-388.033	269.080	-0.096	-0.166
-387.019	209.641	0.076	-0.118
-386.004	-87.165	0.333	0.101
-384.990	81.153	-0.185	-0.198
-383.975	73.620	-0.279	0.290
-382.960	-99.808	0.196	-0.049
-381.946	-27.938	0.283	-0.162
-380.931	572.246	-0.023	-0.056
-379.917	124.463	-0.162	-0.202
-378.902	240.624	0.202	-0.333
-377.888	-200.000	0.011	0.353
-376.873	-56.244	0.252	-0.111
-375.858	-200.000	-0.014	-0.123
-374.844	-138.839	-0.435	-0.047
-373.829	32.060	-0.188	0.160
-372.815	-200.000	0.030	0.266
-371.800	-138.976	-0.395	-0.042
-370.785	-37.139	-0.201	-0.107
-369.771	-126.230	0.217	-0.032
-368.756	55.073	0.133	-0.128
-367.742	-31.184	-0.436	-0.244
-366.727	32.952	0.126	-0.108
-365.712	3.786	0.042	-0.030
-364.698	-200.000	-0.010	0.162
-363.683	-200.000	0.005	-0.099
-362.669	224.650	-0.018	0.029
-361.654	-10.460	-0.214	-0.141
-360.639	-200.000	-0.007	0.090
-359.625	800.000	0.115	0.386
-358.610	-110.016	0.355	0.073
-357.596	-73.167	-0.203	-0.074
-356.581	-37.883	0.268	-0.141
-355.566	91.013	0.343	0.381
-354.552	-112.387	0.289	0.057
-353.537	117.646	0.171	-0.209
-352.523	-92.496	0.131	0.037
-351.508	-32.241	-0.144	-0.080
-350.493	-129.010	0.291	0.040
-349.479	-177.539	-0.099	-0.002
-348.464	168.927	0.283	-0.400
-347.450	-156.962	-0.499	0.030
-346.435	800.000	0.066	0.252
-345.420	-44.813	0.351	0.173
-344.406	18.056	-0.230	-0.182
-343.391	323.417	0.007	0.014
-342.377	-193.587	0.271	0.002
-341.362	192.717	0.073	0.109
-340.348	-96.430	0.160	-0.042
-339.333	-107.631	-0.206	-0.045
-338.318	12.055	0.185	-0.141
-337.304	168.217	0.147	-0.207
-336.289	-200.000	-0.048	0.233
-335.275	-101.297	0.163	0.039
-334.260	-24.482	-0.329	-0.194
-333.245	-11.044	-0.207	0.135
-332.231	-88.682	-0.312	-0.092
-331.216	-44.490	-0.379	-0.188
-330.202	-200.000	0.009	-0.043
-329.187	60.281	0.077	-0.076
-328.172	102.749	-0.115	-0.133
-327.158	-134.297	0.255	0.031
-326.143	-103.399	0.131	-0.030
-325.129	-49.870	-0.035	0.016
-324.114	-51.102	-0.095	-0.044
-323.099	472.582	0.099	0.221
-322.085	-96.604	-0.192	0.050
-321.070	-113.577	0.158	-0.031
-320.056	-81.330	-0.219	-0.071
-319.041	-109.140	0.688	-0.145
-318.026	237.558	0.037	0.061
-317.012	531.759	-0.087	-0.203
-315.997	-73.282	-0.416	0.150
-314.983	109.091	0.221	-0.262
-313.968	61.885	0.163	0.161
-312.953	-58.564	0.215	-0.092
-311.939	-7.912	0.282	0.188
-310.924	-96.645	0.167	0.043
-309.910	97.272	-0.097	0.110
-308.895	-132.751	0.138	0.017
-307.880	249.936	-0.050	0.084
-306.866	-81.778	0.120	0.039
-305.851	77.984	0.051	0.054
-304.837	800.000	-0.027	0.087
-303.822	109.566	-0.101	0.120
-302.807	94.236	-0.056	0.063
-301.793	401.918	0.039	-0.081
-300.778	-73.065	0.462	0.168
-299.764	-99.513	-0.135	0.033
-298.749	-37.141	-0.102	0.054
-297.735	-48.581	0.196	0.093
-296.720	137.158	-0.123	-0.159
-295.705	-26.183	-0.163	-0.094
-294.691	-160.915	0.256	0.013
-293.676	-29.894	-0.047	0.026
-292.662	-120.290	-0.446	-0.075
-291.647	151.673	0.128	-0.173
-290.632	292.864	-0.100	-0.180
-289.618	-200.000	-0.017	-0.233
-288.603	280.318	0.144	0.255
-287.589	-5.862	-0.083	0.056
-286.574	-56.004	0.198	-0.087
-285.559	474.170	-0.045	0.100
-284.545	-48.589	-0.232	-0.110
-283.530	-150.762	0.143	-0.011
-282.516	136.408	0.204	0.263
-281.501	358.515	-0.093	0.183
-280.486	115.207	0.258	0.311
-279.472	-62.351	0.352	0.145
-278.457	175.599	-0.107	0.153
-277.443	-59.254	0.029	0.013
-276.428	109.726	0.233	0.276
-275.413	213.385	0.138	-0.215
-274.399	363.574	0.088	-0.174
-273.384	-200.000	-0.035	0.232
-272.370	-200.000	0.005	0.163
-271.355	800.000	-0.037	-0.114
-270.340	-86.905	0.151	0.045
-269.326	-122.463	0.208	0.033
-268.311	437.394	-0.040	0.087
-267.297	-117.120	0.188	-0.034
-266.282	659.253	-0.056	0.143
-265.267	-103.112	0.203	0.048
-264.253	-137.319	-0.223	0.025
-263.238	50.109	0.224	0.209
-262.224	-14.509	-0.297	0.189
-261.209	-16.854	0.319	0.199
-260.195	195.837	-0.065	-0.097
-259.180	-172.615	0.112	0.003
-258.165	-169.245	0.176	-0.006
-257.151	-49.913	-0.250	0.117
-256.136	547.701	-0.013	0.031
-255.122	-13.424	-0.158	-0.101
-254.107	679.744	-0.181	0.465
-253.092	384.879	-0.097	0.197
-252.078	-23.826	0.139	0.082
-251.063	701.679	-0.064	-0.166
-250.049	-200.000	-0.018	-0.100
-249.034	-89.442	0.263	-0.076
-248.019	800.000	-0.047	0.140
-247.005	-131.756	0.097	0.013
-245.990	71.277	0.203	0.207
-244.976	-59.152	0.123	0.052
-243.961	-102.678	0.233	0.055
-242.946	800.000	-0.039	0.123
-241.932	800.000	-0.074	0.269
-240.917	-141.429	-0.167	-0.017
-239.903	44.731	-0.086	-0.078
-238.888	306.261	-0.033	-0.061
-237.873	-72.810	0.066	0.024
-236.859	-26.624	-0.090	0.052
-235.844	-19.978	0.334	-0.203
-234.830	-200.000	0.008	-0.048
-233.815	171.069	-0.005	0.007
-232.800	800.000	0.144	-0.403
-231.786	-200.000	0.036	-0.155
-230.771	98.180	-0.143	0.162
-229.757	-73.873	0.197	-0.070
-228.742	-33.469	-0.119	0.065
-227.727	1.155	0.260	0.184
-226.713	-147.228	0.112	0.009
-225.698	265.135	-0.045	-0.077
-224.684	-200.000	-0.010	-0.094
-223.669	438.095	-0.131	-0.281
-222.655	775.421	-0.069	-0.186
-221.640	44.588	-0.267	-0.242
-220.625	-19.138	0.180	-0.110
-219.611	-200.000	-0.020	0.117
-218.596	234.639	0.143	0.232
-217.582	734.435	-0.116	0.305
-216.567	-200.000	-0.004	0.018
-215.552	60.491	0.115	-0.112
-214.538	-200.000	-0.050	0.277
-213.523	-85.642	0.072	-0.022
-212.509	566.235	0.055	-0.131
-211.494	-200.000	-0.003	0.140
-210.479	46.702	0.192	0.175
-209.465	-114.578	0.135	0.025
-208.450	328.454	0.094	0.178
-207.436	104.316	0.195	-0.226
-206.421	800.000	-0.020	0.068
-205.406	162.038	-0.086	-0.118
-204.392	-44.467	-0.033	0.016
-203.377	-86.720	-0.079	0.024
-202.363	141.192	0.180	-0.235
-201.348	800.000	-0.069	-0.203
-200.333	-36.897	-0.089	0.047
-199.319	800.000	0.093	0.379
-198.304	140.773	0.031	-0.040
-197.290	800.000	-0.089	-0.334
-196.275	-200.000	-0.033	-0.327
-195.260	111.623	-0.109	-0.129
-194.246	-132.910	0.234	-0.029
-193.231	634.129	0.091	0.227
-192.217	-102.898	0.421	0.099
-191.202	-49.287	-0.238	-0.112
-190.187	-76.106	0.487	0.169
-189.173	490.341	0.123	0.276
-188.158	800.000	-0.097	0.365
-187.144	263.076	-0.097	0.166
-186.129	386.938	0.113	-0.229
-185.114	-146.157	-0.203	0.018
-184.100	198.559	-0.121	0.182
-183.085	-130.217	0.240	0.032
-182.071	50.902	-0.144	0.134
-181.056	-77.308	-0.230	0.079
-180.042	-200.000	0.023	0.128
-179.027	-100.646	-0.273	-0.066
-178.012	386.220	0.082	0.167
-176.998	-200.000	0.041	-0.279
-175.983	800.000	0.099	-0.396
-174.969	545.725	0.035	-0.081
-173.954	180.478	-0.181	-0.262
-172.939	-119.851	0.103	-0.017
-171.925	-200.000	-0.027	0.184
-170.910	800.000	-0.023	-0.080
-169.896	334.970	-0.030	-0.057
-168.881	-4.649	0.054	-0.037
-167.866	28.963	-0.202	-0.169
-166.852	-76.657	0.421	-0.145
-165.837	-113.160	0.467	0.091
-164.823	252.177	0.081	-0.135
-163.808	568.368	0.040	-0.095
-162.793	-170.475	0.148	-0.005
-161.779	689.280	-0.082	0.211
-160.764	-183.893	0.043	0.001
-159.750	-28.989	0.114	0.065
-158.735	64.847	-0.169	0.168
-157.720	170.919	0.110	0.155
-156.706	37.396	-0.061	0.053
-155.691	-99.447	-0.033	-0.008
-154.677	145.462	0.063	-0.083
-153.662	-107.379	0.082	-0.018
-152.647	-88.059	0.206	0.061
-151.633	-105.773	-0.318	0.071
-150.618	48.336	0.085	-0.078
-149.604	-200.000	-0.001	0.052
-148.589	800.000	0.146	0.501
-147.574	248.122	-0.117	0.194
-146.560	-15.285	-0.156	0.098
-145.545	-106.521	-0.089	0.020
-144.531	60.552	-0.207	-0.201
-143.516	-69.700	-0.144	-0.054
-142.502	166.019	-0.155	0.215
-141.487	187.446	0.110	0.161
-140.472	800.000	0.135	-0.424
-139.458	37.048	0.367	-0.319
-138.443	-53.310	-0.157	-0.071
-137.429	76.718	0.105	0.110
-136.414	-154.108	0.238	0.016
-135.399	433.896	0.113	0.241
-134.385	124.588	-0.249	0.307
-133.370	-200.000	0.002	0.441
-132.356	-26.193	-0.236	0.136
-131.341	-144.981	-0.070	-0.006
-130.326	-56.062	-0.078	-0.034
-129.312	-200.000	0.031	-0.294
-128.297	800.000	-0.077	0.271
-127.283	800.000	-0.046	-0.167
-126.268	306.975	-0.169	0.308
-125.253	-22.376	0.196	-0.117
-124.239	-159.737	0.173	-0.009
-123.224	29.159	0.258	-0.215
-122.210	64.268	0.343	0.339
-121.195	800.000	0.095	0.379
