DTS Sentinel unit serial number:	SN413079Multiplexer serial number:	ORYXHardware model number:	OX4-SRSoftware version number:	ORYX F/W v4.00 Oryx Data Collector v3.7.2.0data status	okinstallation	princeton_trtdifferential loss correction	single-endedforward channel	channel 2reverse channel	N/Adate	2019/09/15time	05:03:34forward acquisition time	60.00reverse acquisition time	0.00gamma	496.2192k internal	0.2326k external	0.2326temperature offset calibration	1.0040default loss term (dB/km)	0.3790temperature slope calibration	1.0000multiplexer offset coefficient	1.0000multiplexer slope coefficient	1.0000fibre end	0.00T internal ref (°C)	30.69T ext. ref 1 (°C)	4.85T ext. ref 2 (°C)	25.16length (m)	temperature (°C)	Stokes	anti-Stokes-747.200	-102.832	-0.106	-0.025
-746.185	-107.011	-0.378	0.084
-745.171	32.000	-0.098	-0.085
-744.156	-200.000	-0.002	0.076
-743.142	-120.226	-0.142	-0.024
-742.127	-152.335	-0.076	-0.006
-741.112	263.871	0.161	-0.282
-740.098	426.586	-0.161	0.350
-739.083	-34.536	0.538	-0.297
-738.069	-40.935	-0.151	0.079
-737.054	-200.000	0.028	0.217
-736.039	-0.435	-0.269	-0.193
-735.025	-34.792	0.104	0.057
-734.010	-140.134	-0.185	-0.020
-732.996	254.827	-0.137	-0.236
-731.981	-200.000	-0.047	0.220
-730.966	-137.911	-0.100	0.011
-729.952	23.808	-0.113	-0.093
-728.937	-103.781	0.127	0.030
-727.923	-10.270	-0.201	0.134
-726.908	800.000	0.026	-0.087
-725.894	-7.463	-0.061	-0.042
-724.879	52.551	-0.169	-0.163
-723.864	99.147	0.133	-0.155
-722.850	55.406	0.044	-0.043
-721.835	800.000	-0.129	-0.369
-720.821	-200.000	0.006	-0.095
-719.806	-200.000	-0.043	0.216
-718.791	258.174	0.180	0.312
-717.777	202.203	0.037	0.058
-716.762	800.000	-0.032	-0.107
-715.748	-15.403	-0.299	0.192
-714.733	-128.530	-0.105	-0.015
-713.718	76.598	0.034	0.036
-712.704	-60.981	0.520	0.221
-711.689	-200.000	0.029	-0.157
-710.675	-145.504	-0.043	0.004
-709.660	-200.000	0.006	-0.310
-708.645	800.000	-0.050	-0.160
-707.631	88.668	0.080	0.090
-706.616	105.701	-0.145	0.173
-705.602	-173.010	0.209	0.006
-704.587	-200.000	0.035	-0.204
-703.572	-109.301	-0.140	-0.030
-702.558	524.423	0.054	0.127
-701.543	-128.336	-0.256	-0.037
-700.529	661.018	0.126	-0.327
-699.514	-23.806	0.224	-0.135
-698.499	223.659	0.030	-0.048
-697.485	-105.779	-0.131	-0.030
-696.470	-45.623	0.141	-0.070
-695.456	-137.514	-0.332	0.038
-694.441	66.557	-0.122	0.125
-693.426	-45.478	0.338	0.168
-692.412	56.689	0.152	0.149
-691.397	-9.285	-0.128	-0.086
-690.383	-45.128	0.060	0.030
-689.368	-134.932	-0.319	0.039
-688.354	378.013	0.131	0.269
-687.339	-59.441	0.167	-0.072
-686.324	1.756	-0.263	-0.191
-685.310	58.475	-0.248	0.245
-684.295	86.898	-0.284	0.315
-683.281	800.000	-0.068	-0.247
-682.266	-90.336	-0.358	0.105
-681.251	-137.386	0.225	0.026
-680.237	-200.000	0.022	-0.157
-679.222	15.399	-0.031	-0.025
-678.208	-200.000	-0.014	0.147
-677.193	-63.943	0.093	-0.038
-676.178	-200.000	0.006	0.073
-675.164	800.000	0.017	-0.054
-674.149	-137.841	-0.250	-0.028
-673.135	-200.000	-0.015	0.070
-672.120	-139.266	0.341	-0.037
-671.105	-44.521	0.214	0.108
-670.091	57.045	0.033	-0.032
-669.076	8.830	0.072	-0.054
-668.062	-200.000	0.009	0.113
-667.047	32.555	-0.106	-0.092
-666.032	-70.589	-0.228	-0.087
-665.018	67.452	-0.347	-0.356
-664.003	-83.955	-0.426	-0.136
-662.989	472.936	-0.022	0.049
-661.974	73.714	-0.244	-0.257
-660.959	84.420	0.072	-0.079
-659.945	-200.000	0.022	-0.302
-658.930	-28.734	0.067	0.039
-657.916	89.089	0.269	-0.302
-656.901	111.807	-0.159	-0.193
-655.886	-113.837	-0.300	0.059
-654.872	120.310	-0.071	0.088
-653.857	-116.970	-0.201	-0.037
-652.843	-72.966	0.143	-0.053
-651.828	49.571	0.326	-0.308
-650.814	-92.114	-0.381	-0.108
-649.799	-70.010	-0.085	0.033
-648.784	-61.429	0.189	0.080
-647.770	800.000	0.027	0.093
-646.755	-30.619	0.193	-0.110
-645.741	800.000	-0.065	-0.243
-644.726	800.000	-0.062	0.203
-643.711	-27.598	-0.119	0.069
-642.697	94.789	0.061	-0.069
-641.682	28.442	-0.103	0.087
-640.668	-63.020	-0.256	-0.106
-639.653	-200.000	0.001	0.046
-638.638	509.058	-0.203	-0.473
-637.624	20.522	0.202	-0.164
-636.609	612.412	0.012	-0.030
-635.595	-200.000	0.320	0.001
-634.580	46.594	0.144	-0.134
-633.565	-25.856	0.233	-0.138
-632.551	-13.505	0.222	-0.144
-631.536	17.025	0.059	-0.047
-630.522	800.000	-0.062	-0.243
-629.507	-76.496	0.375	0.132
-628.492	193.995	0.202	0.307
-627.478	-101.543	-0.350	0.085
-626.463	696.847	0.097	0.255
-625.449	-200.000	0.016	-0.212
-624.434	-9.532	-0.138	-0.093
-623.419	216.869	0.087	0.138
-622.405	139.086	0.136	-0.179
-621.390	-200.000	-0.027	0.285
-620.376	-28.124	-0.060	0.035
-619.361	-140.174	-0.242	-0.025
-618.346	60.630	0.062	0.062
-617.332	-200.000	0.021	-0.189
-616.317	-200.000	0.013	-0.106
-615.303	425.401	-0.016	0.035
-614.288	185.002	0.024	-0.036
-613.273	58.315	-0.318	0.313
-612.259	-200.000	0.008	0.195
-611.244	-116.116	0.196	-0.037
-610.230	477.031	0.081	0.185
-609.215	-37.920	-0.278	0.148
-608.201	-75.588	0.087	0.031
-607.186	-71.216	-0.451	-0.170
-606.171	800.000	0.006	0.023
-605.157	-13.945	0.333	-0.215
-604.142	-5.049	-0.094	0.065
-603.128	-79.756	0.249	-0.084
-602.113	274.857	0.122	-0.217
-601.098	471.542	-0.084	-0.190
-600.084	295.994	-0.118	0.216
-599.069	68.839	0.213	-0.220
-598.055	134.222	0.197	0.256
-597.040	778.731	0.077	-0.211
-596.025	-200.000	-0.074	0.340
-595.011	-141.512	0.125	0.013
-593.996	-98.103	-0.177	-0.046
-592.982	-51.634	-0.124	-0.058
-591.967	-128.211	0.263	-0.038
-590.952	-25.105	-0.104	0.062
-589.938	399.502	0.092	-0.193
-588.923	800.000	-0.020	0.069
-587.909	11.349	-0.167	-0.128
-586.894	-76.681	-0.101	0.035
-585.879	-67.581	0.095	-0.037
-584.865	-33.540	-0.129	0.072
-583.850	-86.954	0.213	-0.065
-582.836	-91.304	-0.308	-0.088
-581.821	-200.000	-0.013	-0.236
-580.806	-14.419	-0.016	0.010
-579.792	-102.628	-0.297	-0.071
-578.777	-200.000	0.014	-0.066
-577.763	-52.773	-0.180	-0.083
-576.748	-200.000	-0.006	-0.095
-575.733	316.398	0.156	0.295
-574.719	24.985	-0.313	0.260
-573.704	62.119	0.142	-0.142
-572.690	102.889	-0.270	0.317
-571.675	-31.632	0.095	0.054
-570.661	-13.866	-0.245	-0.159
-569.646	-69.932	-0.095	0.036
-568.631	800.000	-0.126	0.439
-567.617	-78.431	0.189	-0.065
-566.602	800.000	0.079	-0.333
-565.588	-200.000	0.044	0.263
-564.573	-59.059	0.107	0.046
-563.558	-11.019	0.145	0.096
-562.544	130.367	-0.117	-0.151
-561.529	800.000	-0.040	-0.150
-560.515	-40.567	-0.059	0.031
-559.500	-133.365	0.237	-0.030
-558.485	-53.311	-0.174	-0.080
-557.471	-200.000	-0.008	-0.182
-556.456	-160.666	-0.256	-0.014
-555.442	150.163	0.070	-0.095
-554.427	244.943	0.035	-0.059
-553.412	210.152	-0.168	0.264
-552.398	-6.514	-0.070	-0.047
-551.383	193.122	-0.170	-0.258
-550.369	-146.057	0.031	0.003
-549.354	-200.000	-0.030	0.153
-548.339	-108.248	0.277	-0.060
-547.325	-94.928	-0.171	-0.046
-546.310	-128.807	-0.287	-0.040
-545.296	-79.122	-0.091	-0.031
-544.281	585.502	0.128	0.316
-543.266	-142.925	-0.195	0.019
-542.252	224.810	0.194	-0.314
-541.237	10.028	0.131	0.100
-540.223	800.000	-0.165	0.460
-539.208	13.446	-0.241	-0.187
-538.193	800.000	-0.020	0.057
-537.179	-200.000	0.035	-0.175
-536.164	800.000	-0.042	-0.161
-535.150	346.098	-0.170	0.334
-534.135	-145.158	-0.260	0.024
-533.121	-149.279	0.152	0.012
-532.106	800.000	0.017	-0.054
-531.091	-32.261	-0.100	-0.056
-530.077	-193.832	-0.296	-0.002
-529.062	-200.000	0.034	-0.323
-528.048	-40.127	0.231	-0.121
-527.033	-108.326	-0.070	-0.015
-526.018	48.082	-0.188	0.176
-525.004	-61.818	-0.351	-0.147
-523.989	-200.000	0.049	-0.218
-522.975	54.361	-0.050	-0.048
-521.960	-102.626	0.150	-0.036
-520.945	-200.000	0.346	-0.001
-519.931	12.174	0.127	-0.098
-518.916	25.370	0.163	-0.135
-517.902	-133.873	0.114	-0.014
-516.887	185.086	0.047	-0.070
-515.872	-160.384	-0.254	0.014
-514.858	26.427	-0.198	0.165
-513.843	212.465	-0.071	-0.112
-512.829	-127.290	0.148	0.022
-511.814	121.954	-0.145	-0.181
-510.799	-135.296	0.233	-0.028
-509.785	39.010	0.434	-0.387
-508.770	-123.355	0.025	-0.004
-507.756	10.510	-0.378	0.288
-506.741	180.460	0.171	0.250
-505.726	-92.336	-0.269	0.076
-504.712	248.432	-0.118	-0.200
-503.697	-4.823	-0.328	-0.226
-502.683	-93.380	0.095	-0.026
-501.668	-171.470	0.155	-0.005
-500.653	55.275	-0.219	0.212
-499.639	-0.763	-0.268	0.190
-498.624	-200.000	0.016	-0.227
-497.610	350.590	-0.093	0.183
-496.595	354.700	0.260	0.516
-495.581	493.935	-0.168	-0.385
-494.566	-147.320	-0.249	-0.021
-493.551	-200.000	-0.001	-0.031
-492.537	63.934	0.082	-0.082
-491.522	-200.000	0.034	0.180
-490.508	-27.508	0.199	0.115
-489.493	510.430	-0.121	-0.282
-488.478	73.032	-0.241	-0.251
-487.464	769.064	0.078	0.213
-486.449	-152.803	0.108	0.008
-485.435	-23.705	-0.227	0.136
-484.420	800.000	-0.073	-0.275
-483.405	-20.894	0.350	-0.214
-482.391	22.209	-0.167	-0.136
-481.376	-95.701	0.267	0.071
-480.362	-20.296	-0.443	0.272
-479.347	-200.000	-0.068	0.395
-478.332	-103.335	-0.084	0.020
-477.318	6.435	0.214	0.159
-476.303	173.892	-0.161	-0.232
-475.289	-104.341	-0.235	0.054
-474.274	-55.627	-0.243	0.108
-473.259	-100.867	0.361	-0.089
-472.245	48.679	-0.098	-0.092
-471.230	149.823	0.174	-0.235
-470.216	-200.000	-0.013	0.172
-469.201	-75.411	0.206	-0.073
-468.186	-142.546	0.213	0.021
-467.172	33.465	0.072	0.062
-466.157	-200.000	-0.062	0.290
-465.143	181.727	-0.149	-0.219
-464.128	800.000	-0.089	0.279
-463.113	-103.814	-0.152	-0.036
-462.099	-126.941	0.081	-0.012
-461.084	27.298	-0.200	-0.168
-460.070	-106.206	0.107	-0.024
-459.055	262.617	-0.029	-0.049
-458.040	-197.206	0.087	0.001
-457.026	-153.997	0.066	0.004
-456.011	94.361	-0.177	-0.201
-454.997	55.037	-0.150	-0.144
-453.982	26.401	-0.184	0.153
-452.968	-132.366	-0.465	0.060
-451.953	-200.000	0.048	0.338
-450.938	-57.105	-0.231	-0.102
-449.924	60.272	-0.211	-0.208
-448.909	28.535	0.162	-0.137
-447.895	-10.728	0.167	0.110
-446.880	-177.359	0.134	0.003
-445.865	-98.757	-0.214	0.054
-444.851	13.411	0.141	-0.109
-443.836	642.739	-0.107	-0.271
-442.822	-101.334	-0.195	0.047
-441.807	735.016	0.042	0.111
-440.792	22.648	0.032	-0.027
-439.778	795.507	0.048	-0.132
-438.763	-184.097	-0.252	0.004
-437.749	-63.141	0.292	-0.120
-436.734	-200.000	-0.005	-0.028
-435.719	800.000	0.077	0.309
-434.705	384.587	-0.118	-0.241
-433.690	-79.911	-0.543	0.182
-432.676	119.122	0.093	0.114
-431.661	-200.000	0.056	0.245
-430.646	-173.342	0.220	-0.007
-429.632	-28.172	-0.191	0.110
-428.617	-85.768	-0.127	-0.039
-427.603	-182.765	0.282	-0.005
-426.588	800.000	0.073	-0.243
-425.573	-200.000	-0.028	-0.190
-424.559	-151.688	0.227	0.017
-423.544	55.714	-0.103	0.099
-422.530	-85.865	-0.161	0.050
-421.515	-200.000	-0.012	0.217
-420.500	-200.000	0.017	-0.179
-419.486	146.782	-0.080	-0.108
-418.471	-97.377	0.143	0.037
-417.457	13.135	0.294	-0.227
-416.442	-37.478	-0.222	0.118
-415.428	-57.835	-0.029	0.013
-414.413	527.624	-0.103	-0.243
-413.398	596.941	0.127	-0.312
-412.384	-86.967	0.255	-0.077
-411.369	-91.690	-0.156	-0.044
-410.355	-87.722	-0.086	-0.026
-409.340	184.676	-0.031	0.045
-408.325	-80.855	0.241	-0.079
-407.311	-200.000	-0.014	-0.456
-406.296	-200.000	-0.019	-0.187
-405.282	64.236	0.130	0.130
-404.267	-105.304	-0.190	-0.043
-403.252	-200.000	-0.038	0.261
-402.238	-200.000	0.015	-0.139
-401.223	-129.767	0.300	-0.041
-400.209	21.258	0.228	-0.184
-399.194	17.569	-0.089	-0.070
-398.179	10.836	0.374	0.284
-397.165	56.152	-0.262	0.254
-396.150	-66.001	0.195	0.078
-395.136	-164.349	0.038	0.002
-394.121	63.635	0.354	0.353
-393.106	142.614	-0.220	0.290
-392.092	70.157	0.181	0.186
-391.077	43.519	-0.209	-0.190
-390.063	592.048	-0.084	0.206
-389.048	-200.000	-0.042	-0.213
-388.033	668.167	0.075	-0.192
-387.019	800.000	0.101	0.321
-386.004	-200.000	0.010	-0.046
-384.990	80.364	-0.190	-0.204
-383.975	-94.619	-0.125	0.034
-382.960	21.820	0.169	-0.137
-381.946	256.053	-0.142	-0.242
-380.931	56.491	0.031	-0.030
-379.917	-93.001	-0.096	-0.027
-378.902	-59.429	0.343	-0.147
-377.888	217.301	-0.226	-0.358
-376.873	-52.903	-0.423	0.194
-375.858	800.000	0.038	-0.141
-374.844	800.000	0.011	0.032
-373.829	-200.000	-0.015	0.100
-372.815	-56.642	-0.112	-0.049
-371.800	40.917	-0.023	0.020
-370.785	86.683	0.049	0.053
-369.771	243.984	-0.154	0.257
-368.756	800.000	0.036	0.128
-367.742	-200.000	-0.035	-0.273
-366.727	-38.200	0.289	-0.152
-365.712	22.393	0.050	0.040
-364.698	-200.000	0.030	0.284
-363.683	-25.926	-0.070	-0.041
-362.669	-200.000	0.029	0.275
-361.654	-200.000	0.030	0.232
-360.639	-200.000	-0.117	-0.534
-359.625	-159.720	-0.187	0.010
-358.610	-26.188	0.116	-0.068
-357.596	-69.761	0.353	-0.134
-356.581	-58.486	-0.411	0.177
-355.566	93.075	0.104	-0.116
-354.552	-200.000	-0.040	0.182
-353.537	89.187	-0.099	0.110
-352.523	-30.117	0.165	0.093
-351.508	-64.869	0.232	-0.093
-350.493	106.890	0.053	0.062
-349.479	-15.452	-0.210	-0.133
-348.464	387.666	-0.074	-0.151
-347.450	-200.000	-0.029	-0.311
-346.435	-58.673	0.256	0.110
-345.420	146.067	0.177	-0.236
-344.406	245.057	-0.044	0.073
-343.391	406.852	-0.058	-0.122
-342.377	-95.274	0.223	0.060
-341.362	-151.735	-0.041	0.003
-340.348	361.871	-0.117	0.232
-339.333	741.832	0.073	-0.195
-338.318	-38.491	0.183	0.096
-337.304	89.455	-0.067	0.074
-336.289	800.000	0.068	0.239
-335.275	-200.000	-0.006	-0.068
-334.260	-200.000	0.006	-0.104
-333.245	231.260	-0.155	-0.252
-332.231	800.000	-0.106	-0.447
-331.216	-200.000	-0.018	-0.305
-330.202	15.518	-0.046	-0.036
-329.187	-200.000	-0.036	0.204
-328.172	-116.315	0.147	0.027
-327.158	-60.981	0.175	0.073
-326.143	90.984	-0.100	0.111
-325.129	-174.346	0.089	0.003
-324.114	156.636	0.032	0.044
-323.099	655.106	-0.097	0.247
-322.085	318.400	-0.215	0.404
-321.070	800.000	-0.104	-0.286
-320.056	251.638	-0.123	0.207
-319.041	666.226	-0.143	-0.366
-318.026	-30.316	-0.052	-0.030
-317.012	-200.000	0.037	0.374
-315.997	-110.663	-0.223	-0.046
-314.983	-87.833	0.092	-0.028
-313.968	209.803	-0.036	-0.056
-312.953	-64.502	0.238	-0.096
-311.939	-200.000	0.003	-0.034
-310.924	-200.000	0.022	0.293
-309.910	293.576	0.050	0.090
-308.895	64.386	0.158	-0.157
-307.880	101.346	-0.193	0.222
-306.866	130.072	0.124	0.158
-305.851	128.775	-0.112	-0.142
-304.837	261.677	0.058	0.100
-303.822	18.951	-0.064	0.051
-302.807	218.559	-0.197	0.312
-301.793	353.631	0.057	0.113
-300.778	174.886	0.080	0.114
-299.764	149.604	-0.128	-0.172
-298.749	-200.000	-0.034	-0.167
-297.735	-200.000	-0.013	0.120
-296.720	-127.289	-0.164	0.024
-295.705	-154.058	0.132	0.009
-294.691	160.710	-0.129	0.178
-293.676	-5.245	-0.202	-0.137
-292.662	38.182	0.128	0.113
-291.647	-177.311	0.056	-0.001
-290.632	-132.858	-0.167	0.021
-289.618	363.438	-0.148	0.294
-288.603	-22.567	-0.131	-0.078
-287.589	-131.822	0.261	-0.034
-286.574	165.009	-0.086	-0.120
-285.559	-84.821	0.213	0.066
-284.545	-200.000	0.047	0.262
-283.530	-120.012	-0.026	0.004
-282.516	-155.875	0.167	0.011
-281.501	223.778	-0.153	-0.245
-280.486	-161.899	0.070	-0.004
-279.472	65.988	0.039	-0.039
-278.457	163.507	0.122	-0.170
-277.443	-153.552	0.122	-0.008
-276.428	48.099	0.310	0.287
-275.413	250.362	0.062	0.105
-274.399	-200.000	-0.022	0.302
-273.384	-115.016	0.332	-0.062
-272.370	-46.696	-0.208	0.101
-271.355	495.182	0.012	0.028
-270.340	-200.000	-0.005	0.031
-269.326	-11.391	-0.251	-0.164
-268.311	-150.328	-0.126	-0.010
-267.297	-143.960	0.308	0.029
-266.282	-31.328	0.264	0.147
-265.267	104.412	0.132	-0.154
-264.253	60.014	0.174	0.170
-263.238	-200.000	-0.028	-0.352
-262.224	134.373	0.218	-0.280
-261.209	-41.174	0.052	-0.027
-260.195	284.114	0.056	-0.100
-259.180	-42.033	0.208	0.105
-258.165	449.801	0.079	0.172
-257.151	-200.000	0.034	-0.160
-256.136	-16.327	0.125	-0.078
-255.122	480.166	-0.029	0.066
-254.107	-200.000	-0.017	-0.201
-253.092	-5.836	-0.210	-0.142
-252.078	367.523	0.144	0.288
-251.063	160.085	0.101	0.139
-250.049	-200.000	-0.002	0.093
-249.034	-13.985	0.325	-0.208
-248.019	52.374	0.027	-0.026
-247.005	800.000	0.022	-0.074
-245.990	-200.000	-0.029	0.326
-244.976	-4.694	-0.123	0.084
-243.961	581.988	0.148	0.360
-242.946	-49.226	-0.082	-0.039
-241.932	800.000	-0.023	-0.074
-240.917	-46.330	-0.087	0.042
-239.903	247.853	0.267	0.446
-238.888	311.314	-0.073	-0.136
-237.873	-91.793	0.370	0.104
-236.859	-23.199	0.141	-0.084
-235.844	354.039	-0.322	-0.632
-234.830	-200.000	0.009	-0.139
-233.815	-33.004	-0.166	-0.091
-232.800	-200.000	0.055	-0.279
-231.786	247.727	0.152	0.253
-230.771	-64.911	0.069	-0.028
-229.757	-170.433	0.106	-0.004
-228.742	-200.000	-0.025	0.224
-227.727	663.333	0.034	-0.088
-226.713	74.132	-0.197	0.205
-225.698	-200.000	-0.004	-0.038
-224.684	-163.194	-0.202	0.010
-223.669	-200.000	0.062	-0.358
-222.655	20.137	-0.056	0.044
-221.640	140.015	-0.067	0.088
-220.625	-146.376	0.135	0.012
-219.611	-200.000	0.053	0.251
-218.596	223.286	0.106	0.169
-217.582	77.671	0.211	0.222
-216.567	800.000	0.072	0.259
-215.552	-14.049	0.183	0.117
-214.538	67.347	0.125	0.126
-213.523	-42.233	0.257	0.130
-212.509	300.310	0.158	-0.288
-211.494	-200.000	0.007	0.227
-210.479	-63.244	0.307	-0.125
-209.465	-200.000	-0.036	0.300
-208.450	800.000	0.022	-0.063
-207.436	800.000	0.087	-0.309
-206.421	-200.000	-0.071	0.460
-205.406	20.027	-0.260	0.207
-204.392	-63.155	-0.146	0.059
-203.377	800.000	-0.054	-0.210
-202.363	-200.000	0.080	0.351
-201.348	410.156	-0.060	0.126
-200.333	-147.826	0.085	-0.007
-199.319	-68.241	-0.189	-0.072
-198.304	-149.011	-0.052	0.004
-197.290	-200.000	-0.012	-0.082
-196.275	-25.458	0.244	-0.142
-195.260	800.000	-0.064	0.244
-194.246	329.914	-0.095	-0.181
-193.231	165.104	0.029	-0.041
-192.217	371.750	-0.155	-0.311
-191.202	-200.000	-0.015	-0.125
-190.187	142.303	0.243	0.318
-189.173	800.000	0.051	0.213
-188.158	-200.000	0.009	-0.304
-187.144	13.583	0.399	0.305
-186.129	142.812	-0.144	-0.188
-185.114	-93.612	0.085	0.023
-184.100	-172.275	-0.227	-0.007
-183.085	800.000	0.117	-0.346
-182.071	-200.000	0.001	0.011
-181.056	800.000	-0.085	0.303
-180.042	511.539	0.010	0.024
-179.027	165.835	0.116	0.162
-178.012	800.000	-0.140	-0.416
-176.998	-130.453	-0.256	-0.034
-175.983	-58.862	0.119	-0.051
-174.969	-53.522	-0.268	0.121
-173.954	-92.218	0.287	-0.080
-172.939	100.297	0.231	-0.264
-171.925	36.618	0.291	0.253
-170.910	277.044	0.252	0.442
-169.896	-103.776	-0.165	-0.038
-168.881	-55.729	-0.258	-0.114
-167.866	679.531	-0.037	-0.095
-166.852	-84.706	0.385	-0.119
-165.837	-8.593	-0.427	-0.283
-164.823	192.189	-0.075	-0.111
-163.808	18.426	0.331	0.261
-162.793	-45.581	0.326	0.159
-161.779	57.158	-0.103	-0.099
-160.764	800.000	-0.036	0.134
-159.750	-200.000	0.044	0.213
-158.735	-135.692	-0.150	0.018
-157.720	455.849	0.197	0.431
-156.706	76.945	-0.173	0.181
-155.691	-200.000	0.007	-0.233
-154.677	3.797	-0.166	0.119
-153.662	51.744	-0.300	-0.282
-152.647	92.880	-0.066	-0.073
-151.633	-86.588	-0.095	-0.029
-150.618	503.151	-0.169	-0.386
-149.604	800.000	-0.029	-0.123
-148.589	8.958	-0.158	0.117
-147.574	717.769	0.159	0.415
-146.560	-101.062	-0.143	0.035
-145.545	74.881	0.133	0.138
-144.531	69.367	0.281	0.285
-143.516	14.538	0.096	0.074
-142.502	569.948	0.100	-0.239
-141.487	179.669	-0.126	0.181
-140.472	-61.015	-0.156	0.065
-139.458	-26.398	-0.097	0.056
-138.443	155.176	-0.115	-0.156
-137.429	-6.266	0.175	-0.118
-136.414	-129.104	0.191	0.026
-135.399	411.279	0.096	-0.201
-134.385	96.162	0.097	0.109
-133.370	87.605	-0.064	0.070
-132.356	800.000	-0.028	-0.098
-131.341	384.193	0.107	-0.216
-130.326	55.619	-0.172	0.164
-129.312	63.662	-0.275	0.272
-128.297	570.477	-0.106	0.253
-127.283	318.602	-0.222	0.413
-126.268	-94.768	0.283	0.076
-125.253	694.956	0.030	-0.078
-124.239	800.000	-0.015	0.044
-123.224	-128.870	0.166	-0.023
-122.210	-13.415	-0.046	-0.029
