DTS Sentinel unit serial number:	SN413079Multiplexer serial number:	ORYXHardware model number:	OX4-SRSoftware version number:	ORYX F/W v4.00 Oryx Data Collector v3.7.2.0data status	okinstallation	princeton_trtdifferential loss correction	single-endedforward channel	channel 2reverse channel	N/Adate	2019/09/17time	13:47:34forward acquisition time	60.00reverse acquisition time	0.00gamma	496.2192k internal	0.2316k external	0.2316temperature offset calibration	0.9986default loss term (dB/km)	0.3790temperature slope calibration	1.0000multiplexer offset coefficient	1.0000multiplexer slope coefficient	1.0000fibre end	0.00T internal ref (°C)	35.14T ext. ref 1 (°C)	0.42T ext. ref 2 (°C)	32.32length (m)	temperature (°C)	Stokes	anti-Stokes-747.200	33.817	-0.255	0.225
-746.185	23.267	-0.180	0.150
-745.171	796.060	0.023	-0.064
-744.156	800.000	0.073	0.270
-743.142	383.135	-0.119	0.248
-742.127	52.925	-0.234	0.227
-741.112	-60.210	0.017	-0.007
-740.098	800.000	-0.030	-0.100
-739.083	-200.000	0.048	-0.224
-738.069	-98.888	0.202	-0.052
-737.054	17.739	-0.084	-0.068
-736.039	-200.000	-0.040	0.234
-735.025	158.101	0.166	0.234
-734.010	-75.650	-0.178	0.064
-732.996	-27.920	-0.157	0.092
-731.981	-149.907	0.317	-0.025
-730.966	72.048	-0.020	0.021
-729.952	-131.954	-0.234	0.031
-728.937	-24.214	-0.293	0.177
-727.923	497.769	0.190	0.443
-726.908	-68.948	-0.096	-0.037
-725.894	800.000	-0.058	-0.235
-724.879	86.247	-0.193	0.215
-723.864	474.963	-0.046	0.106
-722.850	-135.959	-0.114	0.014
-721.835	38.520	-0.108	0.097
-720.821	-59.378	-0.516	-0.225
-719.806	-195.243	-0.238	-0.002
-718.791	28.020	-0.125	0.107
-717.777	173.605	-0.134	-0.196
-716.762	211.172	-0.089	-0.142
-715.748	-200.000	0.016	0.264
-714.733	-121.107	0.233	0.040
-713.718	-146.232	0.245	0.022
-712.704	-34.471	-0.073	-0.040
-711.689	28.004	-0.032	-0.027
-710.675	-89.073	-0.113	-0.034
-709.660	33.300	-0.302	0.265
-708.645	-90.842	0.287	0.084
-707.631	800.000	0.085	0.262
-706.616	368.593	0.102	-0.208
-705.602	413.240	-0.095	-0.204
-704.587	-167.026	-0.128	0.005
-703.572	-44.664	-0.261	0.132
-702.558	101.701	-0.155	0.183
-701.543	70.311	-0.130	-0.136
-700.529	165.523	-0.205	0.293
-699.514	-6.226	-0.185	0.128
-698.499	-200.000	-0.044	0.199
-697.485	24.986	-0.200	-0.168
-696.470	42.885	-0.274	-0.252
-695.456	-101.443	0.155	0.038
-694.441	-200.000	-0.014	-0.094
-693.426	250.498	0.177	0.305
-692.412	-200.000	0.012	0.098
-691.397	276.630	-0.038	0.068
-690.383	-97.524	-0.199	0.052
-689.368	-200.000	0.053	0.329
-688.354	-74.131	0.434	-0.159
-687.339	136.350	0.134	0.176
-686.324	356.376	-0.188	-0.378
-685.310	-33.364	0.060	0.033
-684.295	-8.461	-0.167	0.113
-683.281	-13.561	-0.034	0.023
-682.266	523.665	-0.060	-0.142
-681.251	1.443	-0.187	-0.136
-680.237	777.151	0.059	-0.163
-679.222	-140.897	-0.412	-0.043
-678.208	800.000	0.057	-0.172
-677.193	3.857	-0.147	0.109
-676.178	-5.383	-0.229	0.159
-675.164	366.285	-0.174	-0.354
-674.149	9.481	-0.192	-0.147
-673.135	-86.501	0.059	0.018
-672.120	121.495	-0.201	-0.253
-671.105	-76.189	-0.021	-0.007
-670.091	-133.995	0.269	0.034
-669.076	-168.725	-0.016	-0.001
-668.062	-200.000	0.046	-0.212
-667.047	10.182	-0.236	0.181
-666.032	45.138	-0.074	0.069
-665.018	800.000	-0.154	-0.499
-664.003	-11.721	0.124	-0.082
-662.989	485.797	-0.050	-0.114
-661.974	-200.000	0.032	-0.147
-660.959	291.180	0.044	-0.081
-659.945	-180.606	-0.283	0.006
-658.930	-200.000	0.001	-0.308
-657.916	-129.152	0.272	0.038
-656.901	188.583	-0.139	-0.209
-655.886	-3.852	0.154	-0.108
-654.872	800.000	0.029	0.089
-653.857	-146.256	-0.437	0.039
-652.843	-60.195	-0.481	0.207
-651.828	104.389	-0.113	0.134
-650.814	538.306	-0.022	-0.053
-649.799	-56.477	0.052	0.023
-648.784	68.594	0.187	-0.193
-647.770	0.290	-0.039	0.028
-646.755	-51.369	-0.344	-0.162
-645.741	-110.787	-0.172	0.036
-644.726	-200.000	-0.020	-0.155
-643.711	337.008	0.220	-0.431
-642.697	329.772	-0.009	-0.018
-641.682	-74.675	-0.134	-0.049
-640.668	93.160	0.067	0.077
-639.653	494.377	-0.106	-0.246
-638.638	94.282	0.052	0.059
-637.624	-168.348	-0.087	0.003
-636.609	185.404	-0.065	0.097
-635.595	46.188	0.113	0.106
-634.580	86.506	0.046	-0.052
-633.565	-200.000	-0.018	0.107
-632.551	170.450	0.084	-0.122
-631.536	-200.000	0.039	-0.195
-630.522	-54.291	-0.095	0.044
-629.507	-200.000	-0.015	0.158
-628.492	122.232	-0.101	0.127
-627.478	-71.676	0.040	-0.015
-626.463	-96.052	-0.549	-0.147
-625.449	47.229	-0.145	-0.136
-624.434	-143.478	-0.203	0.020
-623.419	-97.955	0.243	-0.063
-622.405	90.963	-0.174	-0.197
-621.390	11.654	0.121	0.094
-620.376	-200.000	-0.026	-0.310
-619.361	-84.736	-0.344	-0.109
-618.346	-200.000	0.025	-0.193
-617.332	-82.920	0.144	-0.047
-616.317	181.388	0.070	-0.104
-615.303	66.092	0.072	0.073
-614.288	-62.792	-0.122	-0.051
-613.273	235.741	-0.027	0.045
-612.259	153.140	-0.219	-0.302
-611.244	467.591	-0.131	-0.295
-610.230	-200.000	0.012	0.081
-609.215	-112.204	0.172	-0.035
-608.201	-98.145	0.274	0.071
-607.186	502.102	-0.029	0.067
-606.171	800.000	-0.095	0.281
-605.157	148.036	0.059	0.080
-604.142	519.455	0.077	-0.183
-603.128	86.328	0.135	-0.149
-602.113	379.616	-0.069	-0.141
-601.098	290.301	-0.073	0.134
-600.084	-200.000	0.001	-0.116
-599.069	-31.094	0.262	-0.149
-598.055	97.061	-0.068	-0.079
-597.040	-50.421	-0.208	-0.099
-596.025	263.990	0.108	-0.188
-595.011	800.000	0.042	0.132
-593.996	46.065	0.188	-0.175
-592.982	552.044	-0.061	0.148
-591.967	44.532	0.141	-0.130
-590.952	187.893	0.094	-0.142
-589.938	-93.218	-0.138	-0.039
-588.923	209.182	-0.083	-0.131
-587.909	191.033	0.119	0.180
-586.894	-109.583	0.151	0.032
-585.879	604.019	-0.118	0.297
-584.865	-78.803	-0.288	-0.099
-583.850	-60.196	0.095	-0.041
-582.836	-200.000	-0.013	-0.225
-581.821	-47.882	-0.224	-0.109
-580.806	-43.195	0.054	-0.028
-579.792	626.847	-0.015	0.038
-578.777	254.432	-0.136	0.235
-577.763	760.981	-0.124	-0.340
-576.748	-24.951	-0.231	-0.138
-575.733	800.000	-0.087	0.311
-574.719	-200.000	-0.019	-0.088
-573.704	-200.000	0.033	0.383
-572.690	-200.000	-0.015	0.262
-571.675	-166.206	0.226	0.010
-570.661	-200.000	0.002	-0.057
-569.646	-200.000	-0.014	0.258
-568.631	800.000	-0.025	0.078
-567.617	-200.000	0.000	0.112
-566.602	-14.842	-0.392	0.253
-565.588	223.363	0.141	-0.229
-564.573	562.300	-0.134	0.326
-563.558	160.241	-0.083	-0.117
-562.544	91.501	-0.130	-0.147
-561.529	19.216	-0.117	0.094
-560.515	800.000	-0.067	0.226
-559.500	-99.907	-0.204	-0.051
-558.485	90.922	-0.133	-0.150
-557.471	-126.572	0.292	-0.044
-556.456	567.733	0.094	0.231
-555.442	800.000	0.015	-0.049
-554.427	-120.302	-0.097	0.017
-553.412	156.656	0.232	0.322
-552.398	-38.042	0.152	-0.081
-551.383	-69.530	-0.151	-0.058
-550.369	205.493	-0.034	0.053
-549.354	-200.000	-0.001	0.106
-548.339	91.732	-0.125	-0.141
-547.325	66.875	-0.141	-0.145
-546.310	175.388	-0.054	0.079
-545.296	3.837	-0.039	0.028
-544.281	800.000	-0.042	-0.145
-543.266	-71.785	0.171	-0.064
-542.252	200.942	-0.036	0.056
-541.237	-83.278	-0.316	-0.102
-540.223	-100.893	0.150	-0.037
-539.208	61.617	-0.179	0.179
-538.193	-101.853	0.255	0.062
-537.179	-39.198	-0.217	0.115
-536.164	95.094	-0.321	-0.368
-535.150	793.152	0.057	-0.158
-534.135	-19.268	-0.152	-0.095
-533.121	18.240	0.180	-0.145
-532.106	-147.952	-0.173	-0.014
-531.091	43.379	-0.087	0.080
-530.077	-161.992	0.058	0.003
-529.062	104.203	0.147	-0.174
-528.048	343.265	0.104	0.204
-527.033	-135.626	0.257	-0.031
-526.018	-27.952	-0.153	-0.089
-525.004	-46.850	0.239	-0.118
-523.989	-200.000	0.008	0.267
-522.975	-99.564	0.082	0.021
-521.960	-200.000	-0.419	-0.000
-520.945	154.886	0.109	0.150
-519.931	-81.576	0.185	-0.061
-518.916	-13.594	-0.098	0.063
-517.902	-69.660	-0.219	0.084
-516.887	124.590	-0.277	-0.350
-515.872	800.000	-0.093	-0.277
-514.858	272.425	-0.153	0.271
-513.843	-51.937	-0.272	0.127
-512.829	-113.011	-0.017	-0.003
-511.814	245.512	0.156	-0.263
-510.799	800.000	0.099	-0.346
-509.785	-200.000	0.000	-0.294
-508.770	-200.000	0.004	-0.093
-507.756	-143.570	-0.327	0.031
-506.741	17.414	0.135	0.107
-505.726	-94.229	0.108	-0.030
-504.712	-8.828	-0.391	0.263
-503.697	-96.173	0.124	-0.033
-502.683	-156.420	-0.184	0.012
-501.668	-49.711	-0.178	0.085
-500.653	800.000	0.011	-0.035
-499.639	-200.000	0.018	-0.102
-498.624	691.795	0.040	-0.106
-497.610	800.000	0.046	0.187
-496.595	800.000	-0.030	-0.102
-495.581	38.484	0.088	0.079
-494.566	-66.543	0.256	-0.102
-493.551	224.291	-0.059	-0.095
-492.537	-200.000	-0.036	-0.177
-491.522	-65.657	-0.253	0.102
-490.508	243.310	0.099	-0.167
-489.493	533.125	-0.067	-0.159
-488.478	-42.826	0.245	0.125
-487.464	800.000	-0.129	0.433
-486.449	75.207	-0.244	-0.258
-485.435	-200.000	-0.050	-0.498
-484.420	800.000	0.041	0.172
-483.405	58.873	-0.113	-0.111
-482.391	81.923	0.255	0.277
-481.376	95.803	-0.161	0.185
-480.362	-200.000	-0.070	-0.350
-479.347	106.335	0.093	0.111
-478.332	-80.636	0.257	-0.086
-477.318	181.102	0.262	0.385
-476.303	-85.755	0.174	0.054
-475.289	-200.000	-0.010	0.086
-474.274	800.000	-0.042	0.158
-473.259	135.737	-0.059	-0.078
-472.245	-200.000	0.029	-0.222
-471.230	-137.181	0.532	0.061
-470.216	-50.180	0.313	0.148
-469.201	-200.000	0.029	0.200
-468.186	-77.757	-0.359	-0.124
-467.172	-30.706	0.208	0.118
-466.157	206.595	-0.156	0.243
-465.143	-125.265	0.067	0.010
-464.128	-21.814	-0.085	-0.052
-463.113	800.000	-0.059	-0.179
-462.099	-144.821	0.153	0.014
-461.084	-200.000	0.030	-0.132
-460.070	-99.215	-0.223	-0.056
-459.055	189.711	0.171	0.257
-458.040	-200.000	0.018	0.234
-457.026	-123.009	0.447	-0.072
-456.011	271.815	0.051	-0.089
-454.997	18.817	-0.096	-0.077
-453.982	-147.283	-0.238	0.020
-452.968	800.000	0.041	0.166
-451.953	95.544	0.066	0.076
-450.938	-200.000	0.055	-0.481
-449.924	249.370	0.153	-0.260
-448.909	-146.184	-0.186	0.016
-447.895	-84.157	0.257	0.082
-446.880	60.284	-0.356	-0.353
-445.865	-74.477	-0.247	0.089
-444.851	460.369	-0.113	-0.251
-443.836	-15.771	0.086	0.055
-442.822	800.000	-0.171	0.549
-441.807	-11.545	-0.129	0.085
-440.792	240.117	0.110	-0.183
-439.778	-200.000	-0.025	-0.233
-438.763	-118.756	0.539	-0.095
-437.749	-200.000	-0.008	0.150
-436.734	185.883	-0.022	0.033
-435.719	-73.997	-0.459	-0.167
-434.705	49.737	0.297	0.280
-433.690	-82.788	-0.203	0.066
-432.676	800.000	0.025	-0.074
-431.661	70.953	0.149	0.154
-430.646	172.900	0.079	-0.113
-429.632	-30.950	-0.208	0.118
-428.617	30.942	-0.394	0.338
-427.603	31.646	0.175	0.150
-426.588	-50.568	-0.096	-0.045
-425.573	-138.707	-0.438	0.048
-424.559	-88.922	0.187	0.056
-423.544	245.021	0.084	-0.141
-422.530	128.217	0.042	-0.054
-421.515	-98.999	-0.334	-0.085
-420.500	10.211	-0.163	0.124
-419.486	800.000	0.078	0.227
-418.471	-200.000	0.013	0.224
-417.457	210.945	0.048	0.075
-416.442	211.782	0.140	0.221
-415.428	37.801	0.362	-0.322
-414.413	113.462	0.285	0.346
-413.398	-200.000	-0.023	0.249
-412.384	359.028	-0.091	0.181
-411.369	-97.359	-0.428	-0.111
-410.355	-88.597	-0.192	0.057
-409.340	-200.000	0.005	0.372
-408.325	-174.462	-0.105	-0.003
-407.311	-200.000	0.026	0.325
-406.296	-21.034	0.153	0.094
-405.282	20.789	0.178	0.144
-404.267	252.245	0.111	0.189
-403.252	625.380	0.092	-0.231
-402.238	27.990	-0.108	-0.091
-401.223	-200.000	0.077	0.352
-400.209	30.700	-0.243	0.208
-399.194	517.990	-0.090	-0.210
-398.179	480.073	-0.095	-0.216
-397.165	39.757	0.263	0.236
-396.150	-13.754	-0.060	0.039
-395.136	-200.000	-0.014	0.138
-394.121	-200.000	0.076	-0.455
-393.106	-9.521	-0.093	0.062
-392.092	646.682	0.040	-0.103
-391.077	-200.000	0.024	0.212
-390.063	-74.662	0.127	-0.045
-389.048	-65.953	0.201	-0.080
-388.033	-200.000	0.045	-0.204
-387.019	24.198	-0.081	0.066
-386.004	229.128	0.233	0.380
-384.990	463.387	-0.074	0.165
-383.975	314.703	-0.061	0.115
-382.960	-98.438	-0.271	-0.069
-381.946	31.014	-0.173	-0.148
-380.931	-145.228	-0.164	-0.015
-379.917	-125.129	0.340	0.052
-378.902	-200.000	0.020	-0.132
-377.888	-112.867	-0.340	0.067
-376.873	256.391	-0.019	-0.033
-375.858	421.115	0.125	-0.267
-374.844	-62.298	-0.166	-0.069
-373.829	-145.558	0.362	0.032
-372.815	-136.605	0.362	-0.042
-371.800	29.456	-0.242	-0.205
-370.785	-85.331	0.526	-0.164
-369.771	376.180	0.086	0.175
-368.756	-81.867	0.439	0.144
-367.742	-145.573	0.072	-0.006
-366.727	-121.275	-0.166	0.028
-365.712	106.129	-0.161	-0.190
-364.698	-29.074	-0.115	0.066
-363.683	7.284	0.065	0.048
-362.669	-103.698	-0.181	0.042
-361.654	-33.539	0.160	0.088
-360.639	-5.994	-0.065	0.044
-359.625	-152.280	-0.129	0.009
-358.610	304.272	0.056	-0.103
-357.596	-200.000	0.008	0.087
-356.581	-38.644	0.078	-0.041
-355.566	-200.000	0.003	-0.133
-354.552	290.232	0.108	-0.195
-353.537	-5.730	0.197	-0.135
-352.523	-59.390	0.250	-0.107
-351.508	-200.000	-0.013	-0.225
-350.493	800.000	0.097	0.381
-349.479	-200.000	0.009	-0.212
-348.464	329.900	0.149	0.287
-347.450	-101.429	0.090	0.022
-346.435	248.966	-0.053	0.089
-345.420	68.064	-0.038	0.039
-344.406	800.000	0.072	-0.270
-343.391	-152.032	-0.440	-0.032
-342.377	-125.066	-0.372	-0.057
-341.362	-109.664	0.231	0.048
-340.348	-27.057	-0.133	0.078
-339.333	-22.139	-0.226	0.137
-338.318	-58.728	-0.336	-0.145
-337.304	190.141	-0.117	-0.176
-336.289	-12.403	0.131	-0.085
-335.275	-94.491	-0.199	0.054
-334.260	264.328	0.027	-0.047
-333.245	-119.644	-0.208	0.036
-332.231	132.020	-0.048	-0.062
-331.216	112.593	0.126	0.152
-330.202	-151.265	0.447	-0.033
-329.187	-32.602	-0.266	0.148
-328.172	-56.807	0.192	0.084
-327.158	-89.078	-0.255	-0.075
-326.143	173.741	-0.118	-0.170
-325.129	-129.641	-0.071	0.010
-324.114	-200.000	0.084	0.405
-323.099	-135.923	-0.089	-0.010
-322.085	-200.000	0.003	0.178
-321.070	-70.746	-0.221	-0.083
-320.056	239.841	0.100	0.166
-319.041	313.848	0.083	-0.155
-318.026	-135.470	-0.061	0.007
-317.012	-80.060	0.026	-0.009
-315.997	800.000	0.007	0.031
-314.983	-171.995	0.263	-0.009
-313.968	-87.469	0.057	0.017
-312.953	-35.517	-0.331	0.179
-311.939	19.036	-0.112	0.089
-310.924	21.783	0.167	-0.135
-309.910	800.000	-0.081	0.313
-308.895	-88.840	0.360	0.106
-307.880	-148.295	0.218	-0.018
-306.866	105.427	-0.128	-0.151
-305.851	800.000	-0.036	0.101
-304.837	109.285	-0.145	0.173
-303.822	-200.000	0.034	0.179
-302.807	-113.590	0.357	0.070
-301.793	-161.633	0.232	0.012
-300.778	-10.940	0.287	-0.189
-299.764	248.395	0.118	-0.198
-298.749	18.313	0.178	0.141
-297.735	-52.929	0.400	0.183
-296.720	657.196	-0.111	-0.283
-295.705	118.125	0.141	-0.173
-294.691	800.000	0.052	-0.191
-293.676	133.112	-0.163	0.209
-292.662	313.702	0.103	0.192
-291.647	800.000	0.032	-0.088
-290.632	-11.605	-0.041	-0.027
-289.618	800.000	-0.063	0.232
-288.603	211.268	0.006	0.009
-287.589	37.693	0.095	0.084
-286.574	702.425	0.041	-0.106
-285.559	800.000	-0.056	0.191
-284.545	-104.556	0.278	-0.064
-283.530	398.180	0.121	0.253
-282.516	-70.544	-0.327	0.123
-281.501	92.224	0.181	-0.203
-280.486	-54.622	-0.219	-0.098
-279.472	-124.797	0.132	0.020
-278.457	-24.301	0.444	-0.263
-277.443	-20.211	-0.106	0.065
-276.428	-53.850	-0.261	-0.118
-275.413	800.000	0.015	-0.053
-274.399	-200.000	-0.009	0.387
-273.384	-87.209	0.123	0.037
-272.370	207.254	0.151	0.233
-271.355	-92.701	-0.066	-0.018
-270.340	491.549	-0.114	-0.260
-269.326	-63.196	0.425	-0.174
-268.311	-118.664	0.356	0.062
-267.297	527.250	-0.070	0.163
-266.282	16.412	0.164	0.129
-265.267	-35.109	-0.407	0.221
-264.253	-96.845	0.124	-0.032
-263.238	-31.514	-0.204	0.114
-262.224	-21.563	-0.174	-0.105
-261.209	-9.110	-0.128	0.085
-260.195	717.395	0.114	-0.301
-259.180	539.658	0.047	-0.111
-258.165	800.000	0.060	-0.177
-257.151	123.689	-0.230	-0.287
-256.136	-149.054	0.007	0.001
-255.122	49.983	-0.085	-0.079
-254.107	-46.447	-0.165	0.080
-253.092	-161.805	0.217	0.011
-252.078	132.046	0.061	0.078
-251.063	800.000	0.039	-0.156
-250.049	800.000	0.045	0.140
-249.034	-103.245	0.157	0.037
-248.019	800.000	0.087	0.376
-247.005	-107.938	-0.084	-0.018
-245.990	-200.000	-0.016	-0.132
-244.976	393.222	0.191	-0.394
-243.961	247.190	-0.007	-0.011
-242.946	-113.384	-0.127	-0.025
-241.932	800.000	-0.020	-0.064
-240.917	-76.539	0.119	0.042
-239.903	800.000	-0.064	-0.204
-238.888	-200.000	0.028	0.413
-237.873	-51.571	-0.009	-0.004
-236.859	480.396	0.093	0.210
-235.844	800.000	0.013	0.038
-234.830	-96.798	-0.113	0.029
-233.815	37.616	-0.257	-0.227
-232.800	88.489	-0.186	-0.205
-231.786	-86.562	0.102	-0.031
-230.771	-6.731	0.221	0.150
-229.757	225.864	0.169	0.272
-228.742	699.264	-0.071	-0.185
-227.727	73.588	-0.229	0.238
-226.713	108.922	-0.059	-0.070
-225.698	-134.515	-0.177	0.021
-224.684	24.828	0.172	-0.142
-223.669	800.000	-0.086	0.277
-222.655	-200.000	0.006	-0.219
-221.640	-1.720	-0.036	0.025
-220.625	-25.560	0.377	0.221
-219.611	-85.457	0.299	-0.092
-218.596	-76.917	-0.337	0.117
-217.582	800.000	-0.102	0.402
-216.567	-200.000	0.006	-0.109
-215.552	-200.000	-0.037	0.468
-214.538	161.103	-0.097	0.135
-213.523	11.125	-0.172	-0.130
-212.509	-200.000	0.019	0.143
-211.494	-113.880	-0.050	0.010
-210.479	-13.924	0.109	-0.070
-209.465	-112.476	-0.164	-0.032
-208.450	99.440	0.088	-0.101
-207.436	582.381	0.107	0.259
-206.421	-13.246	-0.206	0.133
-205.406	-54.646	0.371	0.166
-204.392	-55.888	0.270	-0.120
-203.377	164.286	0.188	-0.262
-202.363	368.773	-0.089	-0.178
-201.348	433.565	-0.161	-0.346
-200.333	-200.000	-0.004	0.449
-199.319	-86.352	0.130	-0.040
-198.304	42.875	0.045	0.041
-197.290	261.837	-0.094	0.162
-196.275	-107.467	0.217	0.047
-195.260	84.398	0.128	-0.139
-194.246	-134.802	0.195	0.023
-193.231	-200.000	0.004	0.038
-192.217	23.295	-0.046	-0.038
-191.202	287.194	0.055	0.098
-190.187	-73.181	-0.094	-0.034
-189.173	-103.554	0.448	0.104
-188.158	170.443	-0.253	-0.360
-187.144	-37.556	0.054	0.028
-186.129	153.409	0.148	0.201
-185.114	-154.326	-0.173	0.012
-184.100	800.000	-0.072	0.232
-183.085	-169.745	0.109	-0.004
-182.071	-200.000	0.050	-0.288
-181.056	800.000	0.057	0.183
-180.042	-200.000	0.029	0.228
-179.027	773.160	0.097	0.262
-178.012	-200.000	0.002	-0.101
-176.998	-23.291	0.161	-0.096
-175.983	8.686	0.190	0.142
-174.969	319.342	0.072	0.135
-173.954	-85.802	-0.249	-0.076
-172.939	176.367	-0.193	-0.277
-171.925	-200.000	0.009	-0.087
-170.910	40.426	0.140	0.125
-169.896	800.000	0.114	-0.454
-168.881	-63.829	0.250	-0.101
-167.866	-10.265	-0.456	-0.300
-166.852	-86.522	0.249	-0.076
-165.837	349.927	-0.027	0.053
-164.823	102.572	-0.138	0.160
-163.808	-60.584	0.224	-0.094
-162.793	728.366	-0.126	-0.333
-161.779	181.023	-0.109	-0.158
-160.764	-200.000	-0.012	-0.365
-159.750	-48.959	-0.385	-0.182
-158.735	-85.964	0.098	-0.030
-157.720	-200.000	0.023	-0.118
-156.706	-89.189	0.053	0.015
-155.691	3.862	-0.273	0.197
-154.677	-200.000	0.017	0.108
-153.662	-200.000	0.002	-0.214
-152.647	215.922	-0.050	-0.079
-151.633	-59.923	0.173	0.073
-150.618	-73.993	-0.357	0.128
-149.604	-76.044	-0.376	-0.131
-148.589	800.000	-0.078	0.296
-147.574	583.241	-0.025	0.061
-146.560	65.513	0.156	-0.156
-145.545	767.906	0.069	-0.185
-144.531	289.960	0.185	-0.333
-143.516	-200.000	-0.022	-0.218
-142.502	-37.383	-0.065	0.035
-141.487	-159.759	-0.285	0.016
-140.472	-3.617	-0.206	-0.141
-139.458	-115.269	0.371	0.069
-138.443	-59.836	-0.347	-0.147
-137.429	190.494	-0.049	0.073
-136.414	-7.581	-0.096	-0.064
-135.399	557.689	0.050	0.118
-134.385	499.378	0.028	0.064
-133.370	800.000	-0.035	0.145
-132.356	-123.449	0.390	0.061
-131.341	-200.000	0.047	-0.289
-130.326	-133.998	0.269	0.033
-129.312	-131.980	-0.075	-0.010
-128.297	611.496	0.058	-0.144
-127.283	177.190	0.168	-0.241
-126.268	-111.462	-0.043	0.009
-125.253	-65.604	0.115	-0.045
-124.239	800.000	0.021	-0.078
-123.224	-146.930	-0.255	0.022
-122.210	-45.481	0.255	-0.125
-121.195	34.125	-0.214	0.185
