DTS Sentinel unit serial number:	SN413079Multiplexer serial number:	ORYXHardware model number:	OX4-SRSoftware version number:	ORYX F/W v4.00 Oryx Data Collector v3.7.2.0data status	okinstallation	princeton_trtdifferential loss correction	single-endedforward channel	channel 2reverse channel	N/Adate	2019/09/12time	14:33:11forward acquisition time	60.00reverse acquisition time	0.00gamma	496.2192k internal	0.2301k external	0.2301temperature offset calibration	1.0087default loss term (dB/km)	0.3790temperature slope calibration	1.0000multiplexer offset coefficient	1.0000multiplexer slope coefficient	1.0000fibre end	0.00T internal ref (°C)	40.06T ext. ref 1 (°C)	2.28T ext. ref 2 (°C)	35.82length (m)	temperature (°C)	Stokes	anti-Stokes-747.200	-88.730	-0.155	0.047
-746.185	52.187	-0.162	0.157
-745.171	800.000	-0.040	0.144
-744.156	-71.226	-0.172	-0.066
-743.142	47.895	-0.195	0.185
-742.127	-200.000	-0.012	0.159
-741.112	329.909	0.069	-0.136
-740.098	800.000	0.088	0.269
-739.083	333.323	0.085	-0.168
-738.069	537.004	0.038	0.091
-737.054	271.512	-0.171	-0.307
-736.039	-95.341	0.400	0.110
-735.025	-105.438	0.276	-0.064
-734.010	800.000	-0.021	0.092
-732.996	119.935	-0.139	0.176
-731.981	280.772	0.072	-0.131
-730.966	-116.322	-0.183	0.034
-729.952	-70.427	-0.051	-0.020
-728.937	-146.037	-0.383	-0.034
-727.923	-195.708	-0.082	0.001
-726.908	-11.787	-0.125	0.083
-725.894	-30.481	-0.064	-0.037
-724.879	23.966	-0.131	-0.110
-723.864	112.287	-0.075	-0.092
-722.850	-42.531	0.169	-0.088
-721.835	-42.475	-0.216	-0.112
-720.821	346.747	-0.107	-0.215
-719.806	17.819	0.116	-0.094
-718.791	800.000	0.028	-0.096
-717.777	80.517	0.087	0.095
-716.762	33.189	0.125	-0.110
-715.748	-83.507	-0.126	-0.041
-714.733	-200.000	-0.066	-0.334
-713.718	-200.000	0.010	0.206
-712.704	-200.000	0.074	0.503
-711.689	-200.000	0.041	-0.292
-710.675	-85.404	-0.359	0.114
-709.660	-92.237	-0.087	-0.025
-708.645	116.908	0.225	0.281
-707.631	-200.000	0.000	0.380
-706.616	37.248	-0.114	0.103
-705.602	-36.689	-0.065	0.036
-704.587	-200.000	0.047	0.292
-703.572	-99.392	-0.132	-0.034
-702.558	141.951	-0.107	-0.145
-701.543	800.000	-0.047	0.208
-700.529	536.199	0.110	0.265
-699.514	-31.406	-0.246	0.141
-698.499	762.783	0.048	0.132
-697.485	-185.731	-0.204	0.003
-696.470	-47.949	-0.185	-0.091
-695.456	800.000	0.083	0.264
-694.441	-147.626	-0.268	-0.023
-693.426	-200.000	0.012	0.191
-692.412	800.000	-0.046	-0.187
-691.397	47.805	0.010	0.009
-690.383	-200.000	-0.218	0.000
-689.368	-104.249	0.072	0.017
-688.354	147.106	-0.092	0.126
-687.339	-2.419	-0.213	-0.152
-686.324	63.924	-0.331	-0.339
-685.310	-71.746	0.283	0.107
-684.295	53.855	-0.167	0.163
-683.281	-13.085	0.177	-0.117
-682.266	-200.000	-0.023	-0.136
-681.251	-183.568	-0.237	-0.004
-680.237	-55.664	-0.172	-0.078
-679.222	-109.231	-0.207	-0.045
-678.208	-200.000	-0.033	-0.286
-677.193	-88.370	0.101	0.031
-676.178	-24.417	0.282	-0.171
-675.164	800.000	-0.066	0.246
-674.149	139.004	0.058	-0.077
-673.135	-200.000	-0.009	-0.182
-672.120	22.578	0.160	-0.133
-671.105	301.575	-0.064	0.120
-670.091	768.914	0.143	-0.395
-669.076	22.895	-0.071	0.059
-668.062	640.166	0.061	-0.158
-667.047	42.652	0.158	-0.146
-666.032	697.354	0.105	-0.280
-665.018	-72.096	-0.337	0.127
-664.003	-19.192	0.140	-0.088
-662.989	-200.000	0.019	-0.088
-661.974	154.264	-0.143	-0.199
-660.959	362.034	0.094	0.192
-659.945	48.026	0.190	0.180
-658.930	-124.462	0.159	-0.025
-657.916	251.538	-0.042	0.073
-656.901	-107.776	0.138	0.031
-655.886	169.640	-0.047	0.068
-654.872	248.294	0.058	-0.100
-653.857	-106.659	-0.073	-0.016
-652.843	-135.939	0.037	0.004
-651.828	188.609	-0.070	-0.106
-650.814	-200.000	0.061	0.362
-649.799	26.453	-0.306	0.260
-648.784	71.348	0.126	-0.132
-647.770	-200.000	-0.041	-0.187
-646.755	-143.317	0.134	0.013
-645.741	179.138	0.250	-0.372
-644.726	46.722	0.186	0.175
-643.711	-0.103	-0.273	0.197
-642.697	280.311	-0.068	0.124
-641.682	-152.448	0.249	-0.018
-640.668	143.247	-0.417	-0.563
-639.653	40.956	-0.221	-0.203
-638.638	-200.000	0.005	0.178
-637.624	-58.266	0.328	0.145
-636.609	78.752	-0.144	0.156
-635.595	-200.000	-0.080	-0.418
-634.580	39.238	0.049	-0.045
-633.565	-24.559	0.069	0.042
-632.551	-200.000	-0.035	0.329
-631.536	-118.732	0.316	-0.056
-630.522	-25.636	0.242	0.145
-629.507	-43.923	0.059	-0.030
-628.492	406.698	0.104	-0.223
-627.478	-200.000	-0.011	-0.120
-626.463	-200.000	-0.042	-0.222
-625.449	-200.000	0.007	-0.188
-624.434	-200.000	-0.004	-0.020
-623.419	-133.641	0.374	0.047
-622.405	-26.063	-0.133	0.079
-621.390	-67.467	0.149	-0.059
-620.376	-1.914	-0.285	0.203
-619.361	-200.000	-0.000	-0.218
-618.346	-69.634	0.168	0.065
-617.332	-161.289	-0.215	0.011
-616.317	-44.917	-0.293	-0.148
-615.303	-179.314	-0.347	-0.008
-614.288	-83.282	-0.274	0.089
-613.273	-71.632	0.050	-0.019
-612.259	-200.000	0.021	-0.099
-611.244	-200.000	-0.042	0.220
-610.230	21.118	-0.048	-0.039
-609.215	47.532	-0.149	-0.141
-608.201	252.322	-0.122	-0.212
-607.186	123.738	0.163	-0.208
-606.171	-60.934	0.115	-0.049
-605.157	-93.711	-0.134	0.038
-604.142	-8.635	-0.261	0.178
-603.128	-96.357	-0.249	-0.067
-602.113	800.000	0.029	0.093
-601.098	800.000	0.082	-0.277
-600.084	-200.000	0.027	0.122
-599.069	14.764	-0.311	-0.247
-598.055	92.762	-0.180	-0.206
-597.040	-121.491	-0.235	-0.040
-596.025	44.181	0.127	0.118
-595.011	161.818	-0.204	0.290
-593.996	74.554	-0.114	0.121
-592.982	-153.906	-0.258	0.018
-591.967	-146.445	-0.206	0.018
-590.952	220.645	-0.104	-0.169
-589.938	800.000	-0.049	0.208
-588.923	215.596	-0.024	-0.039
-587.909	-139.893	-0.202	0.022
-586.894	252.885	-0.158	0.273
-585.879	-121.891	-0.237	0.040
-584.865	-82.337	0.136	0.045
-583.850	-72.301	-0.183	0.069
-582.836	-16.451	0.229	-0.147
-581.821	-200.000	-0.009	0.073
-580.806	-134.461	0.078	-0.010
-579.792	-200.000	-0.018	-0.484
-578.777	83.045	0.277	0.306
-577.763	40.417	0.212	0.194
-576.748	271.302	-0.122	0.218
-575.733	-45.760	0.383	-0.192
-574.719	-165.397	0.312	0.014
-573.704	408.469	-0.171	-0.367
-572.690	-200.000	-0.042	0.238
-571.675	-101.647	-0.118	0.029
-570.661	-18.277	0.115	-0.073
-569.646	-27.212	-0.413	-0.243
-568.631	-84.852	0.231	0.074
-567.617	-200.000	-0.076	-0.475
-566.602	800.000	-0.039	0.155
-565.588	800.000	0.083	-0.357
-564.573	138.809	0.021	-0.027
-563.558	101.135	-0.071	-0.084
-562.544	8.060	-0.264	0.200
-561.529	-200.000	0.035	0.192
-560.515	800.000	0.122	-0.453
-559.500	159.510	-0.171	0.241
-558.485	29.964	-0.116	0.100
-557.471	795.891	-0.129	0.360
-556.456	800.000	0.009	-0.036
-555.442	715.122	0.176	-0.472
-554.427	-200.000	0.003	-0.102
-553.412	-12.382	-0.232	-0.153
-552.398	85.391	-0.110	0.122
-551.383	80.342	-0.222	-0.241
-550.369	800.000	-0.023	0.099
-549.354	-200.000	0.065	-0.373
-548.339	438.935	-0.110	-0.242
-547.325	-200.000	-0.044	-0.249
-546.310	-102.163	0.162	0.040
-545.296	35.622	0.179	0.159
-544.281	-181.588	-0.411	0.008
-543.266	-2.728	-0.031	0.022
-542.252	623.978	0.180	0.460
-541.237	-200.000	-0.022	0.271
-540.223	533.806	-0.124	-0.297
-539.208	778.350	0.092	0.253
-538.193	133.530	0.188	-0.246
-537.179	-34.764	-0.064	-0.035
-536.164	-81.082	0.146	0.049
-535.150	-3.277	0.244	0.172
-534.135	800.000	0.032	0.121
-533.121	-103.783	-0.203	0.048
-532.106	32.587	0.036	0.031
-531.091	-200.000	0.009	0.097
-530.077	800.000	0.075	-0.266
-529.062	-142.707	0.269	-0.027
-528.048	-200.000	-0.049	-0.233
-527.033	-200.000	0.038	-0.192
-526.018	127.116	-0.144	-0.184
-525.004	-200.000	0.050	-0.256
-523.989	-200.000	0.044	-0.308
-522.975	120.474	-0.078	-0.098
-521.960	-61.697	-0.055	0.023
-520.945	-20.565	0.238	-0.148
-519.931	23.507	-0.130	-0.108
-518.916	284.977	0.031	0.056
-517.902	-181.620	0.375	-0.007
-516.887	-200.000	0.022	0.199
-515.872	-43.605	-0.183	-0.093
-514.858	-72.307	-0.131	0.049
-513.843	-59.133	-0.243	-0.106
-512.829	-137.362	0.140	-0.016
-511.814	37.311	0.204	-0.183
-510.799	183.934	0.179	0.267
-509.785	11.157	0.177	0.137
-508.770	22.570	0.446	-0.368
-507.756	280.423	0.102	0.185
-506.741	-107.572	0.220	0.049
-505.726	-200.000	-0.017	0.204
-504.712	178.875	-0.267	-0.394
-503.697	341.706	-0.029	0.057
-502.683	-72.789	0.298	0.111
-501.668	-82.491	-0.325	-0.106
-500.653	-22.702	-0.063	-0.039
-499.639	95.014	0.192	0.221
-498.624	-83.892	0.319	-0.102
-497.610	-145.171	-0.480	0.044
-496.595	174.129	-0.036	0.053
-495.581	-107.273	0.248	-0.055
-494.566	-200.000	0.046	-0.309
-493.551	245.836	0.255	-0.433
-492.537	-132.126	-0.337	-0.044
-491.522	-200.000	-0.014	-0.270
-490.508	297.210	0.095	-0.177
-489.493	-159.985	0.187	0.010
-488.478	169.210	0.119	-0.172
-487.464	800.000	0.053	-0.187
-486.449	-95.441	0.256	0.069
-485.435	352.886	0.086	0.171
-484.420	-106.975	-0.116	-0.026
-483.405	-150.078	0.347	0.027
-482.391	543.740	0.092	-0.222
-481.376	-98.729	0.292	-0.075
-480.362	30.532	-0.107	0.092
-479.347	-22.979	0.302	0.184
-478.332	-200.000	-0.000	0.051
-477.318	-7.104	0.091	-0.063
-476.303	-122.369	-0.096	0.016
-475.289	-73.733	0.215	0.079
-474.274	-36.549	0.017	-0.009
-473.259	-31.261	-0.201	-0.114
-472.245	-200.000	-0.008	0.301
-471.230	-200.000	-0.023	0.188
-470.216	-200.000	0.036	-0.218
-469.201	89.762	0.313	-0.352
-468.186	-126.055	0.316	0.048
-467.172	-56.672	-0.033	-0.015
-466.157	521.347	0.077	-0.182
-465.143	67.337	-0.063	0.065
-464.128	-76.220	-0.312	-0.111
-463.113	-200.000	0.054	-0.381
-462.099	-200.000	0.010	0.193
-461.084	205.613	-0.316	0.495
-460.070	78.501	-0.054	0.059
-459.055	-46.162	-0.203	-0.101
-458.040	-95.761	-0.172	0.046
-457.026	641.298	-0.124	0.319
-456.011	-23.977	0.288	-0.174
-454.997	646.069	-0.107	0.275
-453.982	134.137	-0.131	0.172
-452.968	-28.324	-0.311	0.181
-451.953	-66.406	0.468	0.187
-450.938	-98.213	0.275	0.071
-449.924	-200.000	0.066	0.310
-448.909	-150.100	0.105	-0.008
-447.895	-72.887	-0.074	0.027
-446.880	-134.919	0.198	-0.024
-445.865	-45.346	0.205	0.102
-444.851	-200.000	-0.008	0.196
-443.836	-101.374	-0.337	0.083
-442.822	-37.557	-0.099	0.053
-441.807	179.492	0.136	-0.200
-440.792	15.420	0.170	0.134
-439.778	85.974	-0.151	-0.167
-438.763	-167.401	-0.196	0.008
-437.749	562.603	-0.189	-0.461
-436.734	-55.076	0.047	-0.021
-435.719	40.569	-0.171	-0.155
-434.705	54.694	0.177	-0.172
-433.690	-34.039	0.110	0.061
-432.676	215.755	0.095	-0.151
-431.661	56.667	-0.021	-0.020
-430.646	171.216	-0.132	0.190
-429.632	800.000	-0.045	-0.178
-428.617	-5.669	0.113	0.078
-427.603	-200.000	-0.011	0.065
-426.588	106.794	-0.128	0.153
-425.573	800.000	0.019	0.061
-424.559	301.859	0.174	0.324
-423.544	-19.365	0.261	0.163
-422.530	-200.000	0.028	0.201
-421.515	112.021	-0.048	0.058
-420.500	541.397	0.182	-0.436
-419.486	-131.260	0.371	0.050
-418.471	800.000	-0.133	0.444
-417.457	-41.655	-0.150	0.077
-416.442	64.972	-0.092	0.094
-415.428	-63.558	0.260	-0.108
-414.413	-83.871	-0.176	-0.056
-413.398	-132.886	0.047	-0.006
-412.384	190.650	-0.127	-0.191
-411.369	-200.000	-0.030	-0.182
-410.355	-200.000	-0.003	-0.097
-409.340	-111.228	-0.329	-0.068
-408.325	-200.000	-0.045	-0.256
-407.311	-133.229	0.260	-0.033
-406.296	-113.854	-0.118	-0.023
-405.282	87.205	0.167	0.186
-404.267	12.286	0.200	-0.155
-403.252	800.000	-0.021	-0.085
-402.238	-200.000	0.001	-0.250
-401.223	544.208	-0.119	0.287
-400.209	800.000	-0.024	-0.073
-399.194	19.444	-0.173	-0.140
-398.179	-154.821	0.215	-0.014
-397.165	28.928	-0.296	0.253
-396.150	800.000	0.032	-0.112
-395.136	-40.240	-0.283	-0.148
-394.121	24.895	-0.166	-0.138
-393.106	-19.817	0.209	-0.130
-392.092	-200.000	-0.001	0.074
-391.077	720.089	-0.072	0.192
-390.063	63.590	-0.115	0.116
-389.048	135.871	0.130	0.171
-388.033	154.926	0.032	0.044
-387.019	31.221	0.353	0.304
-386.004	-167.491	0.234	-0.009
-384.990	800.000	-0.098	0.413
-383.975	-153.581	0.217	-0.015
-382.960	392.789	0.063	0.132
-381.946	-200.000	-0.044	0.224
-380.931	800.000	-0.078	0.315
-379.917	161.562	0.016	-0.022
-378.902	26.778	-0.181	0.152
-377.888	96.260	-0.268	0.307
-376.873	800.000	0.078	0.327
-375.858	-200.000	0.014	0.182
-374.844	-92.964	0.076	0.021
-373.829	10.702	-0.286	0.219
-372.815	-175.409	0.340	-0.009
-371.800	-69.607	-0.195	-0.075
-370.785	-31.805	-0.019	-0.011
-369.771	-109.762	-0.220	0.046
-368.756	-93.157	-0.183	-0.051
-367.742	-65.971	-0.279	0.112
-366.727	-88.632	0.168	-0.050
-365.712	272.821	0.092	0.163
-364.698	-200.000	-0.052	-0.545
-363.683	5.052	-0.284	0.210
-362.669	222.989	0.150	0.242
-361.654	151.577	0.096	-0.132
-360.639	-200.000	-0.027	-0.208
-359.625	23.769	0.136	0.112
-358.610	126.512	-0.070	-0.089
-357.596	800.000	0.027	-0.104
-356.581	-138.362	0.473	0.052
-355.566	100.407	-0.162	0.189
-354.552	-200.000	0.001	-0.105
-353.537	800.000	0.041	0.171
-352.523	267.582	0.314	0.551
-351.508	-159.683	0.172	0.010
-350.493	800.000	-0.041	0.149
-349.479	271.642	0.199	-0.352
-348.464	143.690	-0.059	-0.079
-347.450	278.053	-0.044	-0.079
-346.435	108.261	-0.056	0.067
-345.420	-35.294	-0.167	-0.091
-344.406	-123.801	0.366	-0.058
-343.391	187.382	0.188	0.282
-342.377	-200.000	-0.005	-0.224
-341.362	637.237	-0.129	-0.329
-340.348	91.427	-0.057	0.065
-339.333	-200.000	0.014	0.358
-338.318	273.184	-0.134	0.238
-337.304	5.613	0.240	-0.178
-336.289	-200.000	0.006	-0.245
-335.275	101.191	0.065	-0.076
-334.260	85.965	0.145	-0.160
-333.245	-54.842	-0.330	-0.149
-332.231	-187.151	-0.129	-0.002
-331.216	-121.784	-0.246	-0.041
-330.202	-121.405	-0.250	0.042
-329.187	-126.148	-0.105	0.016
-328.172	14.667	-0.203	-0.159
-327.158	-200.000	-0.020	0.310
-326.143	-112.151	0.240	-0.048
-325.129	49.263	0.182	-0.172
-324.114	800.000	-0.066	-0.192
-323.099	800.000	-0.080	0.227
-322.085	-63.680	0.116	0.048
-321.070	800.000	0.099	0.338
-320.056	-153.770	0.319	-0.022
-319.041	800.000	-0.049	0.196
-318.026	-50.345	-0.081	-0.039
-317.012	800.000	-0.044	0.166
-315.997	31.883	-0.257	-0.222
-314.983	-9.456	-0.233	-0.156
-313.968	-200.000	-0.084	0.374
-312.953	-88.719	-0.310	0.092
-311.939	800.000	0.078	-0.233
-310.924	-200.000	0.072	-0.358
-309.910	277.059	-0.162	-0.289
-308.895	-200.000	0.026	0.336
-307.880	-200.000	0.036	-0.209
-306.866	129.745	0.147	-0.188
-305.851	64.927	-0.280	0.283
-304.837	-75.655	0.155	-0.055
-303.822	-200.000	0.031	0.172
-302.807	800.000	0.046	0.164
-301.793	-91.184	0.115	-0.033
-300.778	-200.000	-0.043	-0.258
-299.764	-200.000	-0.043	-0.260
-298.749	-200.000	-0.001	0.034
-297.735	67.462	-0.173	0.177
-296.720	12.944	-0.046	-0.036
-295.705	743.170	0.156	0.420
-294.691	173.504	-0.115	-0.167
-293.676	-200.000	-0.007	0.046
-292.662	16.497	0.155	0.123
-291.647	-100.864	0.120	0.030
-290.632	436.310	0.167	0.364
-289.618	-78.583	0.386	-0.132
-288.603	69.928	-0.114	-0.118
-287.589	52.313	0.170	0.162
-286.574	-25.965	0.229	0.135
-285.559	-200.000	-0.011	0.338
-284.545	-100.129	-0.199	-0.050
-283.530	-200.000	-0.041	0.327
-282.516	800.000	-0.091	-0.283
-281.501	-200.000	-0.049	0.506
-280.486	120.717	-0.129	0.160
-279.472	-200.000	-0.032	-0.155
-278.457	-200.000	-0.004	-0.117
-277.443	-3.712	-0.130	0.091
-276.428	-200.000	0.006	0.126
-275.413	800.000	-0.157	0.541
-274.399	-80.973	0.318	-0.106
-273.384	37.456	0.334	0.296
-272.370	-19.002	-0.312	-0.194
-271.355	-200.000	-0.005	-0.177
-270.340	408.909	-0.125	-0.266
-269.326	-152.190	0.125	0.009
-268.311	-0.039	0.499	-0.355
-267.297	-70.754	0.267	-0.101
-266.282	-52.271	0.158	-0.073
-265.267	-26.831	-0.285	-0.166
-264.253	280.694	0.051	-0.092
-263.238	85.456	0.108	0.118
-262.224	-114.284	0.096	-0.018
-261.209	-115.803	-0.264	0.049
-260.195	800.000	-0.026	0.112
-259.180	-200.000	0.048	0.227
-258.165	0.773	-0.170	0.122
-257.151	22.190	-0.142	-0.116
-256.136	78.690	0.223	-0.239
-255.122	685.702	-0.114	-0.299
-254.107	87.504	0.309	0.342
-253.092	-83.546	0.389	-0.124
-252.078	800.000	-0.018	-0.054
-251.063	55.324	-0.143	0.139
-250.049	-200.000	0.015	0.131
-249.034	698.382	-0.046	-0.120
-248.019	195.475	0.147	0.223
-247.005	2.405	-0.343	-0.248
-245.990	-69.506	-0.181	0.069
-244.976	-200.000	-0.014	0.112
-243.961	-200.000	-0.017	0.095
-242.946	-38.050	0.175	-0.093
-241.932	19.464	-0.155	0.125
-240.917	-73.603	-0.156	0.057
-239.903	78.904	-0.187	0.201
-238.888	-200.000	-0.036	-0.216
-237.873	568.302	0.118	0.286
-236.859	241.897	0.043	0.073
-235.844	39.109	0.044	-0.039
-234.830	46.021	0.094	-0.087
-233.815	-111.043	0.123	-0.025
-232.800	214.606	-0.086	-0.135
-231.786	199.319	0.086	-0.132
-230.771	532.200	0.166	-0.393
-229.757	90.138	0.096	-0.107
-228.742	251.629	0.135	0.230
-227.727	76.980	0.252	-0.268
-226.713	13.327	0.172	-0.133
-225.698	73.371	-0.154	0.161
-224.684	-200.000	0.037	0.255
-223.669	284.160	-0.185	0.333
-222.655	12.995	-0.150	0.116
-221.640	800.000	0.074	-0.311
-220.625	279.735	0.047	-0.084
-219.611	-200.000	-0.035	0.467
-218.596	36.131	-0.115	0.101
-217.582	183.740	-0.015	-0.022
-216.567	-200.000	-0.049	0.231
-215.552	-200.000	-0.006	0.162
-214.538	-148.208	0.209	-0.017
-213.523	-25.288	0.273	-0.161
-212.509	-114.066	0.084	0.016
-211.494	209.904	-0.081	0.127
-210.479	-82.499	0.061	-0.020
-209.465	-200.000	-0.001	0.071
-208.450	-127.511	-0.182	-0.026
-207.436	-55.972	0.230	-0.102
-206.421	-9.377	0.213	0.142
-205.406	-44.154	-0.318	-0.159
-204.392	275.335	0.047	0.084
-203.377	-200.000	-0.035	-0.221
-202.363	-153.444	-0.332	0.023
-201.348	599.201	0.064	-0.158
-200.333	-92.007	-0.100	0.028
-199.319	48.255	-0.122	-0.114
-198.304	382.466	-0.089	0.182
-197.290	800.000	0.027	0.104
-196.275	-200.000	0.019	-0.156
-195.260	-200.000	0.047	-0.319
-194.246	82.567	0.131	-0.142
-193.231	800.000	0.052	-0.157
-192.217	202.787	-0.182	0.281
-191.202	-200.000	-0.020	-0.268
-190.187	800.000	-0.012	0.041
-189.173	-25.815	0.312	0.184
-188.158	-189.455	-0.218	0.003
-187.144	-95.682	0.363	-0.097
-186.129	-78.475	0.227	0.077
-185.114	329.426	0.237	0.455
-184.100	109.084	0.069	-0.082
-183.085	-200.000	-0.019	-0.192
-182.071	618.908	0.107	0.268
-181.056	28.805	-0.377	-0.318
-180.042	41.937	-0.104	0.094
-179.027	800.000	0.065	0.254
-178.012	800.000	0.084	-0.240
-176.998	42.519	-0.277	0.252
-175.983	800.000	-0.060	-0.210
-174.969	-120.720	0.204	0.034
-173.954	800.000	0.081	-0.267
-172.939	-108.947	-0.072	0.015
-171.925	-109.944	-0.409	-0.085
-170.910	639.283	-0.079	-0.201
-169.896	161.156	-0.120	-0.168
-168.881	170.347	-0.088	0.125
-167.866	-38.960	-0.099	-0.052
-166.852	272.844	-0.062	-0.110
-165.837	-163.094	0.173	-0.008
-164.823	-88.629	-0.081	0.024
-163.808	-95.562	0.220	-0.059
-162.793	-140.420	-0.346	-0.036
-161.779	-20.404	-0.080	0.049
-160.764	-81.911	-0.289	0.094
-159.750	117.135	-0.194	0.237
-158.735	-195.192	-0.305	0.002
-157.720	800.000	0.069	-0.241
-156.706	-18.091	0.169	0.105
-155.691	-69.505	-0.136	-0.052
-154.677	463.749	0.020	-0.044
-153.662	350.540	-0.076	0.149
-152.647	-200.000	-0.003	0.192
-151.633	149.634	-0.074	0.100
-150.618	-200.000	0.046	-0.212
-149.604	-67.782	0.232	-0.090
-148.589	-173.007	0.258	0.008
-147.574	800.000	0.098	0.275
-146.560	-68.666	0.320	0.123
-145.545	-200.000	0.061	-0.313
-144.531	8.479	-0.346	-0.259
-143.516	373.056	0.124	-0.250
-142.502	-200.000	0.021	0.284
-141.487	-9.508	0.180	-0.120
-140.472	124.327	-0.200	-0.251
-139.458	275.105	0.046	0.082
-138.443	166.798	0.104	-0.147
-137.429	-79.323	0.295	0.100
-136.414	-200.000	-0.015	0.322
-135.399	-38.607	0.545	0.287
-134.385	-0.210	-0.167	-0.119
-133.370	162.386	-0.101	-0.140
-132.356	-41.418	0.217	-0.111
-131.341	11.184	-0.052	0.040
-130.326	126.680	-0.128	0.162
-129.312	107.448	0.115	0.136
-128.297	270.635	0.163	0.286
-127.283	800.000	-0.028	-0.083
-126.268	82.403	-0.132	0.143
-125.253	24.349	-0.047	-0.039
-124.239	-145.699	0.253	0.022
-123.224	-42.680	-0.227	-0.115
-122.210	-152.998	-0.299	0.021
