DTS Sentinel unit serial number:	SN413079Multiplexer serial number:	ORYXHardware model number:	OX4-SRSoftware version number:	ORYX F/W v4.00 Oryx Data Collector v3.7.2.0data status	okinstallation	princeton_trtdifferential loss correction	single-endedforward channel	channel 2reverse channel	N/Adate	2019/09/18time	12:39:35forward acquisition time	60.00reverse acquisition time	0.00gamma	496.2192k internal	0.2322k external	0.2322temperature offset calibration	0.9984default loss term (dB/km)	0.3790temperature slope calibration	1.0000multiplexer offset coefficient	1.0000multiplexer slope coefficient	1.0000fibre end	0.00T internal ref (°C)	32.62T ext. ref 1 (°C)	0.54T ext. ref 2 (°C)	31.14length (m)	temperature (°C)	Stokes	anti-Stokes-747.200	83.656	0.058	0.064
-746.185	458.262	-0.135	0.304
-745.171	372.690	0.072	-0.147
-744.156	-119.100	0.243	0.043
-743.142	41.237	0.113	0.103
-742.127	145.450	-0.167	0.226
-741.112	25.643	-0.245	-0.206
-740.098	-138.560	0.159	-0.018
-739.083	364.469	-0.136	-0.276
-738.069	-73.429	-0.050	-0.018
-737.054	151.782	0.173	-0.238
-736.039	-174.087	-0.159	0.005
-735.025	-200.000	-0.019	0.107
-734.010	274.625	0.106	-0.190
-732.996	295.067	-0.189	-0.350
-731.981	633.371	-0.056	-0.144
-730.966	28.134	-0.198	-0.169
-729.952	-100.302	0.161	-0.040
-728.937	-200.000	-0.006	0.047
-727.923	-126.099	-0.225	0.034
-726.908	43.412	0.127	0.117
-725.894	164.910	-0.115	-0.164
-724.879	-105.041	0.125	0.029
-723.864	-24.589	-0.176	-0.106
-722.850	103.558	0.241	-0.286
-721.835	-151.712	-0.285	0.021
-720.821	800.000	-0.057	0.176
-719.806	-164.192	-0.352	-0.016
-718.791	800.000	-0.037	0.128
-717.777	263.894	0.142	-0.248
-716.762	-135.208	-0.338	-0.041
-715.748	-116.805	0.102	0.019
-714.733	-45.060	-0.278	-0.140
-713.718	183.139	0.115	0.171
-712.704	-26.620	0.313	0.185
-711.689	7.078	-0.246	-0.185
-710.675	-44.149	-0.125	-0.063
-709.660	-200.000	0.003	0.203
-708.645	-200.000	0.040	0.196
-707.631	-200.000	-0.032	0.147
-706.616	-74.069	-0.409	0.149
-705.602	766.314	0.022	0.060
-704.587	25.316	-0.331	-0.278
-703.572	-27.789	0.285	-0.167
-702.558	-50.528	0.090	-0.043
-701.543	800.000	0.027	0.090
-700.529	-65.549	-0.200	0.081
-699.514	51.064	-0.287	0.275
-698.499	16.410	0.111	-0.089
-697.485	-100.105	0.087	0.022
-696.470	-200.000	0.016	-0.132
-695.456	168.955	0.312	0.448
-694.441	-181.927	-0.128	-0.002
-693.426	-90.196	0.315	-0.092
-692.412	223.844	0.142	-0.231
-691.397	29.130	-0.094	-0.081
-690.383	-200.000	-0.021	0.168
-689.368	298.227	-0.066	0.121
-688.354	-103.779	0.246	0.058
-687.339	-3.655	0.028	-0.020
-686.324	800.000	-0.016	-0.069
-685.310	123.367	-0.107	0.135
-684.295	47.201	0.238	0.223
-683.281	-200.000	0.025	0.166
-682.266	-31.212	-0.163	-0.092
-681.251	-71.933	-0.197	0.074
-680.237	-200.000	-0.046	0.236
-679.222	-127.695	-0.306	-0.045
-678.208	58.466	-0.039	-0.039
-677.193	-34.827	-0.214	0.118
-676.178	666.782	-0.052	0.135
-675.164	85.253	-0.033	0.036
-674.149	-200.000	0.024	-0.154
-673.135	294.134	-0.104	-0.192
-672.120	74.199	-0.175	-0.185
-671.105	142.434	-0.141	-0.189
-670.091	-65.557	-0.144	-0.058
-669.076	-200.000	0.041	-0.193
-668.062	-101.588	-0.096	0.023
-667.047	-105.502	-0.428	0.098
-666.032	97.822	0.100	-0.116
-665.018	-78.843	-0.148	0.051
-664.003	-200.000	0.001	0.232
-662.989	40.084	-0.098	-0.089
-661.974	271.274	-0.050	-0.089
-660.959	-162.989	0.188	0.009
-659.945	4.655	0.030	0.022
-658.930	68.663	-0.100	-0.103
-657.916	521.021	0.040	-0.096
-656.901	-200.000	-0.013	0.084
-655.886	-120.956	0.217	-0.037
-654.872	150.795	0.098	0.135
-653.857	-63.739	-0.311	-0.128
-652.843	193.425	0.129	-0.196
-651.828	24.294	0.153	-0.127
-650.814	-132.640	0.263	-0.034
-649.799	-22.179	-0.263	0.160
-648.784	800.000	0.048	0.206
-647.770	-24.869	-0.177	0.106
-646.755	800.000	-0.060	0.173
-645.741	-43.185	0.167	-0.085
-644.726	-86.861	-0.156	-0.048
-643.711	-94.194	-0.129	-0.036
-642.697	243.727	0.162	-0.273
-641.682	-200.000	-0.005	0.111
-640.668	55.152	-0.138	0.134
-639.653	-64.053	-0.034	0.014
-638.638	-200.000	0.101	-0.460
-637.624	74.244	0.058	0.061
-636.609	-72.379	0.138	-0.051
-635.595	765.874	0.124	0.339
-634.580	309.689	0.016	0.031
-633.565	-124.381	-0.072	-0.011
-632.551	-200.000	0.050	0.256
-631.536	-200.000	0.005	0.167
-630.522	242.070	-0.132	0.222
-629.507	-28.724	-0.196	-0.113
-628.492	-120.618	0.044	-0.007
-627.478	39.400	0.022	-0.020
-626.463	-57.686	-0.156	-0.069
-625.449	56.171	0.302	-0.295
-624.434	356.167	0.176	0.353
-623.419	-200.000	-0.024	0.126
-622.405	-75.019	-0.436	0.157
-621.390	121.142	0.274	0.343
-620.376	-133.888	-0.177	0.022
-619.361	59.301	0.181	0.179
-618.346	175.374	-0.069	0.101
-617.332	-144.693	0.280	-0.026
-616.317	800.000	-0.019	0.069
-615.303	31.180	0.076	-0.065
-614.288	-68.951	0.286	-0.111
-613.273	-200.000	-0.050	-0.467
-612.259	-115.327	-0.050	0.009
-611.244	-200.000	0.002	-0.217
-610.230	529.075	-0.079	0.187
-609.215	-171.839	0.328	0.011
-608.201	-200.000	0.008	0.095
-607.186	412.829	0.121	0.258
-606.171	-145.780	-0.170	-0.015
-605.157	-200.000	0.136	-0.605
-604.142	-59.608	0.115	-0.050
-603.128	80.112	0.094	0.102
-602.113	-14.712	0.444	-0.286
-601.098	-200.000	-0.053	-0.445
-600.084	-84.056	-0.164	-0.052
-599.069	-49.691	0.249	0.119
-598.055	182.753	0.144	-0.213
-597.040	-140.740	0.167	0.017
-596.025	-200.000	-0.001	0.185
-595.011	-15.741	0.313	0.201
-593.996	-200.000	0.042	-0.337
-592.982	-200.000	0.055	-0.354
-591.967	68.279	0.200	-0.205
-590.952	-25.929	-0.148	-0.087
-589.938	800.000	0.044	0.138
-588.923	800.000	-0.041	-0.148
-587.909	-200.000	0.036	-0.232
-586.894	-104.294	-0.019	0.004
-585.879	158.046	-0.073	-0.102
-584.865	157.948	-0.142	0.197
-583.850	-200.000	0.022	-0.224
-582.836	352.839	0.007	-0.014
-581.821	202.982	-0.144	-0.223
-580.806	-63.788	-0.266	0.109
-579.792	6.887	0.331	0.247
-578.777	235.713	-0.038	0.062
-577.763	11.732	0.183	-0.141
-576.748	-68.369	0.136	0.053
-575.733	800.000	0.083	-0.292
-574.719	573.280	0.046	-0.114
-573.704	-83.209	0.205	-0.066
-572.690	-54.845	-0.147	0.067
-571.675	375.625	0.038	0.079
-570.661	25.756	-0.081	0.068
-569.646	177.792	-0.356	0.520
-568.631	134.618	-0.222	-0.290
-567.617	-200.000	0.003	-0.366
-566.602	-155.545	0.277	-0.018
-565.588	-65.674	-0.137	-0.055
-564.573	111.672	0.150	0.182
-563.558	31.168	0.113	-0.098
-562.544	-148.299	-0.245	0.020
-561.529	-27.777	0.208	-0.121
-560.515	800.000	-0.035	0.114
-559.500	31.404	-0.075	-0.065
-558.485	6.679	-0.184	0.137
-557.471	-118.579	0.162	-0.029
-556.456	-157.079	0.176	0.011
-555.442	-2.588	0.127	-0.089
-554.427	-17.611	-0.139	0.088
-553.412	-80.184	-0.282	0.095
-552.398	-77.154	0.340	0.119
-551.383	-30.279	-0.117	-0.067
-550.369	-53.790	0.222	-0.102
-549.354	-28.181	0.144	-0.083
-548.339	800.000	0.076	0.214
-547.325	72.366	-0.263	-0.275
-546.310	-71.623	-0.309	-0.116
-545.296	-89.588	-0.376	-0.111
-544.281	452.957	-0.069	0.154
-543.266	800.000	0.073	0.260
-542.252	-60.811	0.317	0.134
-541.237	74.334	0.123	0.129
-540.223	659.447	-0.065	0.168
-539.208	-138.375	-0.257	-0.028
-538.193	-200.000	-0.019	-0.216
-537.179	65.445	0.135	0.137
-536.164	80.488	0.208	-0.225
-535.150	82.904	-0.051	0.055
-534.135	-122.531	0.136	-0.022
-533.121	-200.000	-0.034	-0.237
-532.106	112.067	0.184	-0.223
-531.091	-41.552	-0.209	-0.108
-530.077	-111.815	-0.151	-0.031
-529.062	-155.870	-0.204	0.013
-528.048	-200.000	-0.044	-0.288
-527.033	57.413	-0.092	0.090
-526.018	-46.082	0.018	0.009
-525.004	-139.788	0.055	0.006
-523.989	30.453	0.246	-0.211
-522.975	-200.000	-0.002	0.098
-521.960	266.090	-0.150	0.262
-520.945	20.295	0.134	0.108
-519.931	597.205	-0.147	-0.364
-518.916	429.944	-0.052	-0.112
-517.902	-83.536	-0.294	-0.094
-516.887	-163.288	-0.110	0.005
-515.872	-200.000	-0.012	-0.432
-514.858	-58.033	-0.281	0.123
-513.843	-167.070	-0.202	0.008
-512.829	235.198	0.163	-0.269
-511.814	-153.539	-0.068	-0.005
-510.799	-200.000	0.004	-0.080
-509.785	-37.470	-0.243	-0.130
-508.770	396.950	-0.025	0.052
-507.756	-102.233	-0.142	-0.034
-506.741	78.825	0.054	0.058
-505.726	116.034	-0.135	0.166
-504.712	174.909	-0.062	-0.090
-503.697	-159.472	0.121	0.007
-502.683	36.828	0.076	0.067
-501.668	166.471	-0.117	-0.165
-500.653	800.000	-0.030	0.101
-499.639	519.266	-0.052	-0.122
-498.624	-200.000	0.059	-0.277
-497.610	352.002	0.054	-0.106
-496.595	800.000	-0.135	0.377
-495.581	-56.968	-0.316	0.139
-494.566	-152.049	-0.390	-0.028
-493.551	-19.978	0.312	0.193
-492.537	-200.000	-0.034	0.199
-491.522	264.616	-0.038	-0.067
-490.508	-119.919	0.313	-0.054
-489.493	800.000	-0.146	-0.565
-488.478	-200.000	-0.024	-0.332
-487.464	-63.235	0.353	0.145
-486.449	58.122	0.134	0.131
-485.435	-200.000	0.010	0.080
-484.420	288.847	-0.080	0.146
-483.405	-92.403	0.227	-0.064
-482.391	-139.477	-0.305	-0.033
-481.376	-200.000	-0.005	0.059
-480.362	13.810	0.041	0.032
-479.347	800.000	0.039	0.145
-478.332	256.145	-0.013	-0.021
-477.318	-103.808	0.073	0.017
-476.303	-125.454	-0.064	0.010
-475.289	-200.000	0.001	0.227
-474.274	800.000	0.028	0.103
-473.259	-95.758	0.056	-0.015
-472.245	-102.387	0.222	0.053
-471.230	-95.047	-0.083	-0.022
-470.216	-200.000	-0.061	-0.404
-469.201	-118.621	-0.257	0.045
-468.186	800.000	0.037	0.160
-467.172	-29.523	0.147	0.084
-466.157	302.382	0.119	-0.220
-465.143	-149.152	-0.207	-0.017
-464.128	-99.862	0.084	0.021
-463.113	-151.952	-0.441	-0.032
-462.099	478.615	0.054	-0.121
-461.084	495.502	-0.059	0.136
-460.070	-21.698	0.182	-0.111
-459.055	-200.000	0.036	0.271
-458.040	-8.891	-0.325	-0.217
-457.026	-156.695	-0.295	-0.018
-456.011	446.027	-0.131	0.288
-454.997	73.899	0.328	0.344
-453.982	-6.306	0.396	0.270
-452.968	-130.999	-0.277	-0.037
-451.953	-200.000	-0.037	-0.320
-450.938	-0.597	-0.095	-0.068
-449.924	-102.058	-0.210	0.051
-448.909	96.940	-0.156	0.178
-447.895	-127.626	-0.203	-0.029
-446.880	46.585	0.268	0.248
-445.865	-200.000	-0.022	-0.113
-444.851	800.000	0.021	-0.076
-443.836	-200.000	-0.072	-0.455
-442.822	42.651	0.204	0.185
-441.807	-140.042	-0.088	-0.009
-440.792	12.892	-0.265	-0.205
-439.778	24.463	0.123	0.101
-438.763	-113.590	0.122	0.024
-437.749	173.030	0.097	-0.140
-436.734	-200.000	0.020	0.202
-435.719	-1.093	0.221	-0.156
-434.705	-200.000	-0.041	-0.270
-433.690	-200.000	0.035	-0.217
-432.676	-200.000	-0.072	-0.527
-431.661	88.317	0.217	-0.240
-430.646	800.000	-0.048	0.149
-429.632	48.938	0.139	0.130
-428.617	524.044	-0.019	0.044
-427.603	2.127	-0.304	-0.219
-426.588	-101.702	0.379	-0.092
-425.573	-200.000	-0.027	0.168
-424.559	-129.989	-0.308	-0.042
-423.544	89.023	-0.074	-0.082
-422.530	-131.105	0.343	0.046
-421.515	14.215	0.292	0.227
-420.500	-161.272	-0.208	-0.011
-419.486	-145.023	0.058	0.005
-418.471	545.096	0.120	-0.285
-417.457	-156.311	-0.395	-0.025
-416.442	-142.419	-0.253	-0.025
-415.428	54.483	-0.277	-0.266
-414.413	-53.343	-0.214	-0.098
-413.398	-116.226	0.075	-0.014
-412.384	31.743	0.219	-0.188
-411.369	-6.831	-0.188	-0.127
-410.355	-63.720	0.053	0.021
-409.340	143.203	0.127	-0.169
-408.325	142.444	-0.038	-0.050
-407.311	-69.931	-0.130	-0.050
-406.296	-93.958	-0.105	-0.029
-405.282	-34.869	-0.136	0.074
-404.267	-39.313	0.078	0.041
-403.252	-200.000	0.023	0.324
-402.238	-131.100	-0.127	0.017
-401.223	-97.895	0.150	-0.039
-400.209	-139.698	0.170	-0.018
-399.194	-105.486	0.111	0.025
-398.179	800.000	-0.101	0.301
-397.165	-0.628	0.275	-0.194
-396.150	125.676	-0.146	-0.184
-395.136	-200.000	-0.041	-0.355
-394.121	40.369	-0.194	-0.174
-393.106	619.479	0.110	0.275
-392.092	-179.857	-0.115	-0.002
-391.077	447.840	-0.040	0.088
-390.063	-87.366	-0.103	0.031
-389.048	293.214	0.060	-0.108
-388.033	-200.000	-0.028	-0.143
-387.019	267.230	-0.078	0.135
-386.004	216.978	-0.136	0.216
-384.990	-135.995	0.259	-0.030
-383.975	75.903	0.220	0.232
-382.960	144.659	0.145	0.193
-381.946	-60.874	0.042	0.018
-380.931	-200.000	-0.004	-0.184
-379.917	800.000	-0.117	0.422
-378.902	126.888	0.083	0.105
-377.888	-200.000	-0.281	-0.001
-376.873	85.617	-0.172	0.189
-375.858	-72.966	0.168	-0.061
-374.844	-200.000	0.026	-0.225
-373.829	489.575	-0.095	0.217
-372.815	-6.038	-0.405	0.276
-371.800	628.317	0.045	0.113
-370.785	-115.054	0.076	-0.014
-369.771	-140.354	-0.259	0.027
-368.756	-108.840	-0.118	0.025
-367.742	164.497	-0.118	-0.166
-366.727	127.546	0.266	-0.336
-365.712	-160.262	0.203	-0.011
-364.698	-3.173	-0.434	-0.301
-363.683	-200.000	0.015	-0.244
-362.669	-48.339	-0.124	0.060
-361.654	196.152	-0.093	0.140
-360.639	200.841	0.151	-0.231
-359.625	38.366	0.177	0.157
-358.610	359.111	0.139	-0.277
-357.596	-200.000	0.031	-0.397
-356.581	562.551	-0.024	0.057
-355.566	800.000	0.012	-0.039
-354.552	79.044	0.236	0.251
-353.537	800.000	-0.031	-0.109
-352.523	8.811	0.032	-0.024
-351.508	494.213	0.092	-0.209
-350.493	-171.596	-0.332	0.011
-349.479	-168.853	0.117	-0.004
-348.464	-100.208	-0.502	-0.124
-347.450	796.015	-0.069	0.189
-346.435	800.000	-0.037	0.139
-345.420	-102.345	-0.202	-0.048
-344.406	128.765	0.172	-0.218
-343.391	167.046	-0.152	0.215
-342.377	-162.839	-0.293	0.014
-341.362	-135.490	-0.289	-0.034
-340.348	-39.629	0.100	0.052
-339.333	-126.852	-0.288	0.042
-338.318	69.197	-0.186	-0.191
-337.304	800.000	-0.073	-0.302
-336.289	78.695	0.023	0.024
-335.275	-200.000	0.053	0.249
-334.260	47.488	0.317	0.294
-333.245	-7.537	0.054	0.036
-332.231	367.921	-0.127	0.255
-331.216	-40.179	0.369	0.191
-330.202	-69.027	0.292	-0.112
-329.187	-200.000	0.007	-0.347
-328.172	-133.005	-0.117	-0.015
-327.158	800.000	-0.099	-0.371
-326.143	-96.597	0.166	0.043
-325.129	-135.434	0.351	-0.042
-324.114	-91.870	0.320	0.090
-323.099	-22.842	-0.273	-0.164
-322.085	-140.483	0.285	-0.029
-321.070	-200.000	0.021	0.125
-320.056	197.058	-0.124	0.188
-319.041	-112.724	0.272	0.054
-318.026	131.401	-0.069	0.088
-317.012	-200.000	0.006	0.129
-315.997	10.438	0.147	-0.111
-314.983	-200.000	0.016	-0.069
-313.968	246.169	-0.155	0.260
-312.953	-42.125	0.411	0.209
-311.939	122.314	0.035	-0.044
-310.924	-110.271	-0.210	-0.043
-309.910	-200.000	0.026	0.393
-308.895	800.000	-0.070	-0.218
-307.880	-94.803	0.243	-0.066
-306.866	-43.085	0.426	0.215
-305.851	-69.945	0.114	-0.043
-304.837	259.854	0.196	0.336
-303.822	-143.217	-0.240	0.023
-302.807	-7.251	0.389	0.262
-301.793	-113.101	0.238	-0.047
-300.778	-200.000	0.057	0.261
-299.764	-109.818	-0.272	-0.057
-298.749	105.366	-0.268	-0.314
-297.735	-132.080	-0.168	-0.022
-296.720	2.559	0.164	-0.118
-295.705	-55.549	0.221	0.098
-294.691	-200.000	0.012	0.060
-293.676	-200.000	0.085	-0.439
-292.662	279.715	-0.097	-0.172
-291.647	-200.000	0.044	-0.305
-290.632	-200.000	0.007	-0.047
-289.618	152.053	-0.127	0.173
-288.603	-127.751	0.172	-0.025
-287.589	69.791	-0.171	0.175
-286.574	382.716	-0.057	0.116
-285.559	22.040	0.241	0.195
-284.545	-32.183	-0.146	0.081
-283.530	296.294	0.028	0.051
-282.516	-200.000	-0.031	0.342
-281.501	-61.577	-0.367	0.153
-280.486	-44.111	0.091	-0.045
-279.472	759.541	-0.064	-0.172
-278.457	470.750	0.025	-0.057
-277.443	-95.431	-0.101	-0.027
-276.428	164.503	-0.172	0.240
-275.413	800.000	-0.067	0.234
-274.399	800.000	-0.049	-0.197
-273.384	-58.121	0.288	-0.124
-272.370	800.000	0.043	-0.136
-271.355	-151.642	0.235	0.017
-270.340	800.000	0.083	-0.289
-269.326	447.730	-0.100	0.219
-268.311	54.746	0.308	0.295
-267.297	34.884	-0.111	-0.096
-266.282	372.316	0.026	0.053
-265.267	134.158	-0.089	0.115
-264.253	268.809	-0.072	0.125
-263.238	689.721	0.058	0.151
-262.224	414.523	0.041	-0.086
-261.209	173.976	0.114	0.164
-260.195	-166.121	-0.362	-0.015
-259.180	56.822	0.095	0.092
-258.165	-200.000	0.019	-0.208
-257.151	145.485	-0.187	-0.248
-256.136	-153.484	0.139	0.010
-255.122	800.000	0.033	-0.109
-254.107	13.154	-0.245	-0.188
-253.092	12.044	0.174	-0.133
-252.078	-146.264	0.414	-0.036
-251.063	-49.509	-0.116	-0.055
-250.049	178.388	-0.201	0.291
-249.034	14.157	-0.105	-0.081
-248.019	-28.104	-0.163	0.093
-247.005	223.956	-0.045	0.072
-245.990	-123.846	0.045	0.007
-244.976	800.000	0.017	0.067
-243.961	-67.315	-0.158	0.062
-242.946	354.028	0.114	0.225
-241.932	29.791	0.118	-0.099
-240.917	-24.513	0.238	0.141
-239.903	-200.000	-0.064	0.374
-238.888	167.510	0.247	0.348
-237.873	-9.616	-0.111	-0.073
-236.859	-200.000	0.019	0.153
-235.844	26.338	0.107	0.088
-234.830	-139.488	0.058	0.006
-233.815	-200.000	0.047	0.278
-232.800	376.629	-0.071	0.143
-231.786	219.330	0.062	0.099
-230.771	181.679	-0.094	0.137
-229.757	194.265	-0.195	0.293
-228.742	166.946	-0.024	0.034
-227.727	-106.970	0.430	0.094
-226.713	-43.391	-0.217	0.108
-225.698	470.602	-0.036	-0.080
-224.684	-200.000	0.022	0.147
-223.669	-50.918	0.056	-0.026
-222.655	-200.000	0.022	0.333
-221.640	-200.000	0.001	0.169
-220.625	-200.000	0.044	-0.201
-219.611	119.086	-0.345	0.422
-218.596	277.394	-0.102	0.180
-217.582	339.588	0.131	-0.253
-216.567	129.562	-0.134	-0.170
-215.552	-68.257	0.138	-0.053
-214.538	-6.570	0.171	0.115
-213.523	-124.674	0.064	0.010
-212.509	-7.404	-0.202	0.135
-211.494	-200.000	0.029	0.137
-210.479	-145.884	-0.155	0.014
-209.465	-60.972	0.156	0.065
-208.450	-64.001	0.152	-0.061
-207.436	354.914	0.119	-0.234
-206.421	-94.100	-0.207	-0.056
-205.406	-99.811	-0.341	0.084
-204.392	-9.934	-0.076	0.050
-203.377	-105.982	-0.145	0.032
-202.363	-48.776	-0.158	0.075
-201.348	-200.000	0.023	0.167
-200.333	503.116	0.124	0.283
-199.319	-56.824	-0.160	-0.070
-198.304	-176.092	-0.283	0.007
-197.290	-113.718	0.032	-0.006
-196.275	512.939	-0.131	-0.301
-195.260	-200.000	0.001	0.051
-194.246	159.686	0.148	0.204
-193.231	800.000	-0.054	0.151
-192.217	-31.291	-0.211	0.117
-191.202	262.739	-0.156	0.267
-190.187	413.404	-0.266	0.558
-189.173	-34.236	-0.353	0.192
-188.158	266.817	0.091	-0.157
-187.144	109.238	0.173	0.204
-186.129	-150.012	0.188	-0.014
-185.114	317.560	-0.091	0.169
-184.100	-147.838	0.164	-0.014
-183.085	555.012	0.076	-0.181
-182.071	-58.335	0.322	0.139
-181.056	-200.000	0.019	-0.150
-180.042	-155.324	0.128	-0.008
-179.027	-200.000	-0.024	-0.321
-178.012	-105.228	0.121	-0.027
-176.998	800.000	0.061	-0.175
-175.983	-28.593	0.127	0.072
-174.969	-63.065	0.262	-0.107
-173.954	-83.291	0.199	0.063
-172.939	23.098	-0.086	0.070
-171.925	-62.319	0.135	-0.055
-170.910	131.630	-0.034	-0.043
-169.896	-200.000	0.004	0.148
-168.881	-200.000	0.023	-0.330
-167.866	-39.885	-0.114	0.059
-166.852	-165.183	0.396	-0.017
-165.837	44.975	0.120	0.109
-164.823	-22.103	-0.217	-0.130
-163.808	-92.119	0.067	-0.019
-162.793	-200.000	-0.033	0.184
-161.779	581.809	-0.055	0.134
-160.764	-106.407	0.220	-0.049
-159.750	800.000	0.116	-0.335
-158.735	485.278	-0.104	-0.234
-157.720	800.000	-0.043	-0.154
-156.706	22.360	0.029	-0.024
-155.691	-36.125	0.146	-0.078
-154.677	105.144	0.158	-0.184
-153.662	-82.147	-0.360	-0.116
-152.647	-42.861	-0.401	-0.201
-151.633	-99.743	0.292	-0.072
-150.618	-200.000	0.016	-0.180
-149.604	800.000	0.070	-0.280
-148.589	-161.874	0.073	-0.004
-147.574	455.959	-0.039	0.085
-146.560	-200.000	-0.011	-0.173
-145.545	-200.000	0.057	0.404
-144.531	-200.000	0.023	0.252
-143.516	800.000	-0.018	0.053
-142.502	46.128	-0.129	-0.118
-141.487	-44.674	0.031	-0.015
-140.472	106.119	0.027	-0.031
-139.458	-61.674	-0.238	0.098
-138.443	-63.203	0.092	-0.037
-137.429	-200.000	0.038	-0.253
-136.414	-200.000	0.054	0.339
-135.399	22.001	0.332	0.267
-134.385	800.000	-0.042	-0.140
-133.370	-102.936	0.309	0.072
-132.356	800.000	-0.085	0.260
-131.341	-22.319	0.199	-0.119
-130.326	-200.000	0.019	-0.259
-129.312	18.677	-0.146	-0.115
-128.297	-200.000	0.034	0.207
-127.283	-200.000	-0.028	0.256
-126.268	-200.000	0.013	0.093
-125.253	-200.000	-0.038	-0.173
-124.239	-53.958	0.167	-0.075
-123.224	-173.568	-0.198	-0.006
-122.210	-8.899	0.323	0.214
