DTS Sentinel unit serial number:	SN413079Multiplexer serial number:	ORYXHardware model number:	OX4-SRSoftware version number:	ORYX F/W v4.00 Oryx Data Collector v3.7.2.0data status	okinstallation	princeton_trtdifferential loss correction	single-endedforward channel	channel 2reverse channel	N/Adate	2019/09/12time	15:09:11forward acquisition time	60.00reverse acquisition time	0.00gamma	496.2192k internal	0.2299k external	0.2299temperature offset calibration	1.0091default loss term (dB/km)	0.3790temperature slope calibration	1.0000multiplexer offset coefficient	1.0000multiplexer slope coefficient	1.0000fibre end	0.00T internal ref (°C)	40.56T ext. ref 1 (°C)	2.37T ext. ref 2 (°C)	37.73length (m)	temperature (°C)	Stokes	anti-Stokes-747.200	-124.385	-0.168	0.027
-746.185	629.659	0.097	0.251
-745.171	550.981	0.162	0.397
-744.156	-80.370	0.226	0.077
-743.142	-109.599	0.040	0.009
-742.127	-48.747	0.314	0.154
-741.112	663.644	-0.047	-0.125
-740.098	322.466	-0.201	0.391
-739.083	82.510	-0.014	0.015
-738.069	-111.112	0.065	0.014
-737.054	314.827	0.063	0.122
-736.039	-200.000	-0.032	0.154
-735.025	709.868	-0.105	0.283
-734.010	58.886	-0.168	-0.168
-732.996	-151.124	-0.166	0.013
-731.981	130.754	-0.272	0.356
-730.966	800.000	-0.055	-0.242
-729.952	-5.389	-0.080	0.056
-728.937	281.909	0.071	-0.130
-727.923	-54.053	-0.080	0.037
-726.908	-0.374	-0.140	0.101
-725.894	-69.884	0.128	0.050
-724.879	-75.847	-0.325	-0.117
-723.864	800.000	0.075	-0.226
-722.850	21.257	0.072	0.060
-721.835	55.710	0.072	-0.071
-720.821	800.000	-0.031	-0.111
-719.806	-83.117	-0.308	0.101
-718.791	-55.596	-0.176	0.081
-717.777	1.093	0.113	0.083
-716.762	-180.415	0.355	0.008
-715.748	-92.750	-0.174	0.050
-714.733	800.000	0.033	-0.128
-713.718	-200.000	-0.011	-0.125
-712.704	-109.450	0.143	-0.031
-711.689	-200.000	-0.038	-0.277
-710.675	-45.551	-0.231	0.117
-709.660	800.000	0.105	-0.379
-708.645	105.560	-0.028	0.034
-707.631	14.575	0.062	0.049
-706.616	-200.000	0.028	0.264
-705.602	-200.000	-0.038	0.173
-704.587	132.286	-0.025	-0.033
-703.572	290.747	-0.096	-0.179
-702.558	82.136	-0.200	-0.221
-701.543	-111.426	0.211	0.044
-700.529	373.087	0.151	-0.313
-699.514	37.334	-0.165	0.149
-698.499	-92.874	0.174	-0.049
-697.485	-106.128	0.047	-0.011
-696.470	800.000	-0.109	-0.402
-695.456	132.732	-0.098	-0.129
-694.441	118.870	-0.326	-0.411
-693.426	800.000	-0.054	-0.184
-692.412	-142.680	0.335	0.033
-691.397	800.000	-0.139	0.514
-690.383	3.606	-0.125	-0.093
-689.368	488.422	-0.079	-0.184
-688.354	-102.755	-0.299	0.073
-687.339	-33.485	0.202	0.114
-686.324	282.192	0.150	-0.274
-685.310	128.321	0.112	0.145
-684.295	22.994	-0.162	0.135
-683.281	284.243	-0.117	-0.215
-682.266	-133.417	-0.365	-0.047
-681.251	-200.000	-0.007	-0.115
-680.237	47.264	-0.043	-0.041
-679.222	124.982	-0.306	-0.393
-678.208	-121.063	-0.115	0.020
-677.193	800.000	-0.043	0.129
-676.178	-200.000	0.016	0.283
-675.164	-105.858	0.276	0.063
-674.149	2.891	0.132	0.098
-673.135	105.548	-0.104	-0.125
-672.120	-200.000	-0.011	0.196
-671.105	5.125	-0.121	-0.090
-670.091	-57.642	-0.127	0.056
-669.076	-168.712	0.211	-0.008
-668.062	-24.586	0.303	-0.184
-667.047	800.000	-0.021	0.082
-666.032	800.000	0.117	-0.349
-665.018	-200.000	-0.061	-0.372
-664.003	480.944	0.107	0.246
-662.989	235.076	-0.112	-0.187
-661.974	34.673	0.039	-0.034
-660.959	103.677	0.082	-0.098
-659.945	93.157	0.205	0.236
-658.930	800.000	0.047	0.149
-657.916	-64.457	0.269	0.111
-656.901	-114.771	-0.241	-0.047
-655.886	366.028	-0.048	-0.098
-654.872	800.000	0.079	-0.227
-653.857	800.000	-0.057	0.216
-652.843	-200.000	0.010	0.071
-651.828	-129.871	-0.225	-0.031
-650.814	-200.000	-0.015	0.120
-649.799	-200.000	0.050	-0.398
-648.784	443.828	0.071	0.157
-647.770	800.000	-0.044	-0.155
-646.755	-150.881	-0.386	0.030
-645.741	-184.617	-0.456	-0.007
-644.726	216.083	0.154	-0.248
-643.711	-44.122	0.104	-0.053
-642.697	800.000	0.124	-0.402
-641.682	285.430	-0.078	-0.144
-640.668	-200.000	-0.067	-0.353
-639.653	-147.998	0.150	0.013
-638.638	-71.047	0.136	-0.052
-637.624	800.000	-0.109	0.344
-636.609	800.000	-0.142	0.411
-635.595	-74.449	-0.120	0.044
-634.580	797.226	-0.083	-0.233
-633.565	-200.000	-0.016	-0.112
-632.551	-99.274	-0.066	0.017
-631.536	-200.000	0.015	0.209
-630.522	-200.000	-0.002	-0.214
-629.507	36.560	-0.127	-0.114
-628.492	311.474	0.089	0.169
-627.478	393.115	-0.051	-0.108
-626.463	-141.452	0.249	0.026
-625.449	-133.204	-0.217	-0.028
-624.434	-68.696	-0.155	0.061
-623.419	140.683	0.129	-0.173
-622.405	-98.110	0.171	-0.045
-621.390	-111.366	-0.151	0.031
-620.376	-200.000	0.033	-0.178
-619.361	-139.403	0.051	-0.006
-618.346	271.645	-0.074	0.132
-617.332	4.955	-0.184	-0.138
-616.317	-113.053	0.326	0.065
-615.303	-129.379	0.216	-0.030
-614.288	-61.155	0.166	0.071
-613.273	105.898	0.187	0.224
-612.259	-200.000	-0.003	0.063
-611.244	-168.459	-0.029	0.001
-610.230	277.301	-0.134	-0.242
-609.215	-200.000	0.013	-0.363
-608.201	51.334	0.155	-0.149
-607.186	-200.000	-0.014	0.193
-606.171	-113.397	0.275	0.055
-605.157	-113.932	0.205	-0.040
-604.142	104.845	-0.127	0.152
-603.128	-82.081	-0.210	0.070
-602.113	-200.000	-0.001	0.405
-601.098	-87.993	0.213	0.065
-600.084	-200.000	0.018	0.154
-599.069	9.012	0.553	0.424
-598.055	-200.000	0.029	-0.224
-597.040	800.000	0.050	-0.207
-596.025	125.181	-0.169	-0.216
-595.011	800.000	0.039	0.111
-593.996	-151.428	-0.129	-0.010
-592.982	-200.000	0.042	0.185
-591.967	115.958	0.142	-0.176
-590.952	172.315	0.147	-0.215
-589.938	-200.000	0.025	0.114
-588.923	-200.000	0.048	-0.260
-587.909	301.255	0.190	-0.356
-586.894	-85.148	0.227	0.072
-585.879	800.000	0.096	0.324
-584.865	-200.000	0.040	0.182
-583.850	-200.000	-0.076	0.521
-582.836	-200.000	0.025	0.124
-581.821	129.340	0.291	-0.377
-580.806	-144.930	-0.238	0.022
-579.792	-166.668	-0.077	-0.003
-578.777	21.322	-0.273	0.225
-577.763	114.698	0.065	-0.080
-576.748	20.611	-0.249	0.204
-575.733	18.377	0.062	0.050
-574.719	-89.675	-0.355	0.106
-573.704	-200.000	0.000	0.001
-572.690	-102.258	0.136	-0.033
-571.675	-3.399	-0.470	0.332
-570.661	515.789	-0.072	0.171
-569.646	-92.227	0.309	0.088
-568.631	800.000	0.064	-0.270
-567.617	705.059	0.137	-0.366
-566.602	54.033	-0.164	-0.160
-565.588	127.424	0.059	0.076
-564.573	87.716	0.147	-0.165
-563.558	137.444	0.242	0.321
-562.544	719.020	0.052	-0.140
-561.529	733.455	-0.070	-0.191
-560.515	-200.000	-0.031	-0.287
-559.500	-88.389	-0.086	0.026
-558.485	268.544	0.063	-0.111
-557.471	-200.000	-0.037	-0.332
-556.456	622.373	0.129	-0.330
-555.442	800.000	-0.058	0.173
-554.427	235.848	0.064	0.108
-553.412	-115.456	-0.104	0.020
-552.398	-91.355	-0.307	0.089
-551.383	-200.000	-0.024	-0.116
-550.369	-183.811	0.098	-0.002
-549.354	-168.921	-0.222	-0.008
-548.339	41.159	-0.161	-0.148
-547.325	172.482	-0.144	-0.210
-546.310	-200.000	0.035	0.194
-545.296	441.754	0.122	0.270
-544.281	15.533	-0.111	0.088
-543.266	38.057	0.210	0.189
-542.252	800.000	0.041	0.138
-541.237	-93.814	-0.234	-0.065
-540.223	-114.932	-0.100	-0.019
-539.208	-200.000	-0.025	0.123
-538.193	-142.241	-0.292	-0.029
-537.179	-200.000	-0.009	0.277
-536.164	-13.611	-0.131	0.086
-535.150	-200.000	0.002	-0.058
-534.135	20.538	0.332	0.272
-533.121	-122.874	-0.107	0.017
-532.106	-50.079	-0.265	0.127
-531.091	-67.939	-0.112	0.044
-530.077	-200.000	-0.022	-0.230
-529.062	-200.000	0.052	0.282
-528.048	744.425	0.063	0.173
-527.033	-175.320	-0.121	-0.003
-526.018	457.132	0.173	0.390
-525.004	-109.664	0.392	0.084
-523.989	-64.351	-0.352	0.145
-522.975	119.441	0.220	0.275
-521.960	87.488	0.356	-0.398
-520.945	519.832	-0.157	-0.372
-519.931	0.201	0.253	0.182
-518.916	-95.162	-0.087	-0.024
-517.902	514.010	-0.039	0.091
-516.887	358.167	0.074	-0.149
-515.872	663.749	-0.037	-0.097
-514.858	800.000	0.007	0.025
-513.843	800.000	0.040	-0.116
-512.829	-33.860	-0.120	0.067
-511.814	-8.980	-0.237	0.161
-510.799	-129.941	-0.363	-0.050
-509.785	-200.000	0.068	-0.451
-508.770	-114.989	0.211	-0.040
-507.756	18.248	0.218	0.176
-506.741	328.370	-0.152	0.294
-505.726	-30.283	0.216	-0.124
-504.712	131.837	0.066	0.086
-503.697	100.693	-0.255	0.299
-502.683	132.356	0.122	-0.158
-501.668	800.000	0.072	-0.294
-500.653	-66.155	0.321	0.129
-499.639	290.620	0.038	-0.071
-498.624	102.771	0.176	-0.208
-497.610	-108.426	0.178	-0.039
-496.595	-200.000	-0.024	0.498
-495.581	-200.000	-0.007	0.349
-494.566	-78.115	-0.187	0.065
-493.551	82.315	0.190	-0.208
-492.537	69.371	0.187	-0.194
-491.522	124.665	0.076	-0.097
-490.508	-71.574	0.144	-0.054
-489.493	83.553	0.163	0.179
-488.478	56.636	0.210	-0.207
-487.464	184.917	-0.031	0.046
-486.449	45.485	-0.077	-0.072
-485.435	-68.731	-0.297	-0.116
-484.420	229.571	0.056	-0.092
-483.405	800.000	0.074	-0.294
-482.391	-200.000	0.041	-0.194
-481.376	-83.769	-0.249	-0.080
-480.362	111.438	0.100	0.122
-479.347	11.332	0.194	0.150
-478.332	-74.594	-0.151	0.055
-477.318	800.000	0.108	0.366
-476.303	59.215	-0.123	-0.123
-475.289	116.704	-0.118	0.146
-474.274	234.796	0.192	0.319
-473.259	-200.000	-0.045	0.241
-472.245	256.051	-0.174	0.301
-471.230	-99.417	-0.230	0.059
-470.216	150.431	0.124	-0.170
-469.201	95.419	-0.110	0.127
-468.186	64.087	0.178	0.181
-467.172	-111.916	-0.310	0.063
-466.157	-105.537	-0.230	0.053
-465.143	-200.000	0.005	-0.105
-464.128	43.564	-0.275	0.253
-463.113	94.943	-0.077	0.088
-462.099	-200.000	-0.028	0.154
-461.084	-9.735	0.178	0.120
-460.070	15.500	-0.384	-0.304
-459.055	-200.000	-0.071	-0.348
-458.040	192.816	0.295	-0.449
-457.026	-200.000	-0.011	-0.163
-456.011	-7.095	0.273	-0.187
-454.997	-33.162	0.353	-0.197
-453.982	64.820	-0.071	0.073
-452.968	-105.386	-0.151	-0.035
-451.953	-105.782	-0.383	-0.087
-450.938	79.490	-0.119	0.129
-449.924	-66.705	-0.558	0.223
-448.909	-200.000	0.043	0.312
-447.895	-200.000	-0.013	0.205
-446.880	28.630	-0.177	-0.151
-445.865	800.000	0.006	0.021
-444.851	-200.000	0.048	0.325
-443.836	800.000	-0.061	0.171
-442.822	-98.266	0.068	-0.018
-441.807	-81.573	-0.096	0.032
-440.792	88.869	0.104	0.116
-439.778	649.802	0.091	-0.234
-438.763	570.006	0.077	-0.189
-437.749	-200.000	-0.002	-0.259
-436.734	-126.600	-0.400	0.060
-435.719	9.767	0.243	-0.186
-434.705	646.150	0.072	-0.186
-433.690	-25.109	-0.142	-0.085
-432.676	-75.889	-0.433	0.155
-431.661	-200.000	-0.013	0.095
-430.646	409.598	0.148	-0.315
-429.632	-60.717	-0.366	-0.156
-428.617	-108.383	-0.168	0.037
-427.603	324.212	0.121	0.234
-426.588	19.934	0.152	0.124
-425.573	523.227	-0.068	-0.160
-424.559	-200.000	0.013	-0.309
-423.544	-38.478	-0.128	-0.068
-422.530	-102.635	0.219	0.053
-421.515	549.052	0.223	0.538
-420.500	70.866	-0.098	-0.102
-419.486	222.925	-0.133	0.216
-418.471	336.343	-0.117	-0.229
-417.457	800.000	0.085	-0.336
-416.442	800.000	0.133	-0.486
-415.428	-121.914	0.239	-0.040
-414.413	-72.000	-0.106	-0.040
-413.398	-36.478	0.191	-0.104
-412.384	-51.945	-0.156	0.073
-411.369	344.263	-0.063	-0.124
-410.355	460.091	-0.071	-0.160
-409.340	123.339	0.054	-0.069
-408.325	350.220	0.216	-0.431
-407.311	0.379	0.062	-0.045
-406.296	247.386	0.127	-0.216
-405.282	800.000	0.090	0.262
-404.267	800.000	0.049	0.140
-403.252	800.000	-0.192	-0.541
-402.238	-200.000	0.062	-0.364
-401.223	-116.631	-0.260	0.048
-400.209	57.295	0.041	0.040
-399.194	-143.155	-0.472	-0.046
-398.179	800.000	-0.015	-0.043
-397.165	710.431	-0.059	-0.156
-396.150	-41.362	0.215	0.112
-395.136	-91.329	0.116	-0.033
-394.121	-40.643	0.201	-0.105
-393.106	118.869	0.147	0.182
-392.092	56.708	0.234	0.229
-391.077	131.394	-0.189	0.244
-390.063	-13.537	0.098	0.064
-389.048	-197.878	0.386	-0.002
-388.033	-200.000	-0.022	0.279
-387.019	-101.924	-0.132	-0.032
-386.004	51.468	-0.128	0.123
-384.990	-143.699	-0.256	-0.024
-383.975	217.845	-0.075	0.120
-382.960	-50.196	0.224	-0.107
-381.946	458.003	-0.047	-0.104
-380.931	5.643	-0.146	-0.109
-379.917	65.141	-0.398	0.405
-378.902	-200.000	-0.044	0.228
-377.888	-112.410	0.197	0.040
-376.873	800.000	-0.027	0.090
-375.858	56.237	-0.189	-0.185
-374.844	-90.697	0.207	0.060
-373.829	136.761	-0.173	-0.227
-372.815	-85.108	0.237	0.075
-371.800	-98.853	0.478	-0.122
-370.785	-141.115	-0.172	0.018
-369.771	-142.675	0.208	0.020
-368.756	9.412	0.160	0.122
-367.742	-200.000	0.001	0.136
-366.727	-200.000	-0.007	0.246
-365.712	170.539	0.087	-0.125
-364.698	14.018	0.119	-0.093
-363.683	-37.290	0.284	0.152
-362.669	201.994	-0.039	0.060
-361.654	-200.000	-0.026	-0.272
-360.639	169.891	-0.168	-0.241
-359.625	-1.173	-0.409	-0.290
-358.610	555.521	0.067	-0.162
-357.596	75.239	-0.356	0.378
-356.581	-29.677	-0.128	-0.073
-355.566	-200.000	0.008	-0.116
-354.552	800.000	0.072	0.307
-353.537	-145.138	-0.151	0.014
-352.523	-200.000	0.009	0.195
-351.508	-200.000	-0.054	-0.265
-350.493	702.050	0.020	-0.053
-349.479	800.000	-0.027	0.095
-348.464	99.973	-0.113	0.132
-347.450	423.859	-0.123	0.267
-346.435	23.546	-0.056	-0.047
-345.420	-200.000	0.012	0.067
-344.406	141.566	0.143	0.190
-343.391	92.328	0.198	0.224
-342.377	-200.000	0.025	0.312
-341.362	800.000	-0.027	-0.114
-340.348	800.000	-0.038	0.155
-339.333	-81.370	-0.124	0.041
-338.318	-200.000	-0.017	0.126
-337.304	87.808	0.076	-0.085
-336.289	588.779	-0.052	-0.130
-335.275	-200.000	0.022	-0.388
-334.260	404.497	-0.256	-0.542
-333.245	800.000	-0.099	0.341
-332.231	-200.000	0.018	-0.472
-331.216	291.940	-0.128	-0.234
-330.202	663.241	0.053	-0.137
-329.187	353.355	-0.138	-0.274
-328.172	130.489	-0.057	-0.073
-327.158	-55.013	0.212	0.096
-326.143	-61.275	-0.173	0.073
-325.129	19.000	0.208	0.168
-324.114	-108.208	0.054	-0.012
-323.099	-121.444	0.161	0.027
-322.085	-136.512	-0.077	-0.009
-321.070	-105.855	0.368	0.083
-320.056	139.275	0.143	0.188
-319.041	210.760	-0.251	0.396
-318.026	512.330	-0.047	0.109
-317.012	-113.897	0.280	-0.055
-315.997	-113.559	-0.040	0.008
-314.983	-156.109	0.121	0.008
-313.968	406.445	-0.136	-0.289
-312.953	-154.462	0.160	0.011
-311.939	-200.000	-0.017	0.212
-310.924	11.414	0.224	0.173
-309.910	-98.802	0.286	0.073
-308.895	-200.000	0.034	-0.456
-307.880	-48.945	0.276	0.133
-306.866	-21.553	0.097	0.059
-305.851	-200.000	0.011	0.064
-304.837	-200.000	0.034	-0.222
-303.822	111.142	0.119	0.144
-302.807	115.144	0.098	0.120
-301.793	800.000	-0.017	0.070
-300.778	800.000	-0.078	0.323
-299.764	229.012	-0.205	0.335
-298.749	800.000	-0.038	-0.137
-297.735	800.000	0.058	0.221
-296.720	-109.739	0.064	-0.014
-295.705	-128.780	-0.142	0.020
-294.691	91.808	0.023	-0.026
-293.676	-174.753	0.124	-0.004
-292.662	-49.562	-0.023	-0.011
-291.647	286.963	-0.113	-0.204
-290.632	-37.052	0.122	0.066
-289.618	-139.994	0.459	-0.048
-288.603	-200.000	0.027	-0.187
-287.589	277.720	0.038	0.068
-286.574	-200.000	0.003	-0.111
-285.559	-200.000	-0.009	0.134
-284.545	-95.316	-0.323	-0.087
-283.530	384.700	-0.187	-0.387
-282.516	-112.792	-0.462	0.092
-281.501	336.205	-0.194	0.377
-280.486	-145.976	-0.168	-0.015
-279.472	-200.000	-0.015	-0.331
-278.457	-77.249	-0.314	-0.109
-277.443	-93.339	-0.145	-0.040
-276.428	-15.967	0.267	-0.170
-275.413	-153.255	0.240	0.017
-274.399	-200.000	-0.236	-0.001
-273.384	800.000	-0.038	-0.157
-272.370	800.000	-0.067	0.233
-271.355	53.045	0.142	0.136
-270.340	565.091	-0.035	0.085
-269.326	-178.149	0.030	-0.001
-268.311	-130.253	0.117	-0.016
-267.297	-46.261	-0.051	-0.025
-266.282	800.000	-0.062	-0.218
-265.267	-139.499	-0.070	-0.008
-264.253	77.551	-0.121	0.129
-263.238	-140.376	0.213	-0.022
-262.224	-117.767	-0.474	-0.085
-261.209	117.245	0.013	-0.016
-260.195	-96.174	-0.094	0.025
-259.180	48.822	-0.039	-0.036
-258.165	800.000	-0.067	-0.270
-257.151	-80.402	-0.297	-0.099
-256.136	531.749	0.213	0.505
-255.122	11.820	0.228	0.175
-254.107	85.974	-0.019	-0.021
-253.092	-200.000	0.013	-0.127
-252.078	105.938	0.115	-0.136
-251.063	-39.611	0.310	0.162
-250.049	403.656	-0.060	0.127
-249.034	23.930	-0.092	0.076
-248.019	-139.494	0.273	0.029
-247.005	-108.077	-0.084	-0.018
-245.990	-104.515	-0.149	0.034
-244.976	21.881	-0.088	0.072
-243.961	-123.433	0.146	0.023
-242.946	-54.276	0.289	-0.131
-241.932	-200.000	0.034	-0.172
-240.917	800.000	0.066	0.221
-239.903	-158.303	-0.375	-0.022
-238.888	-107.719	0.399	-0.087
-237.873	800.000	-0.096	0.307
-236.859	-42.006	0.218	0.112
-235.844	800.000	0.063	0.232
-234.830	-124.109	-0.118	-0.019
-233.815	16.741	0.218	0.173
-232.800	150.462	0.128	0.174
-231.786	-146.688	-0.429	-0.037
-230.771	-200.000	-0.022	-0.146
-229.757	-200.000	-0.012	0.057
-228.742	451.165	-0.098	0.216
-227.727	541.196	-0.069	0.164
-226.713	-41.102	0.109	-0.056
-225.698	-34.945	0.146	0.080
-224.684	-31.429	-0.137	-0.077
-223.669	447.496	0.081	0.177
-222.655	800.000	-0.116	-0.353
-221.640	301.812	0.171	-0.317
-220.625	1.009	-0.408	0.293
-219.611	-200.000	-0.017	0.097
-218.596	-84.332	-0.197	0.062
-217.582	-103.272	0.225	-0.053
-216.567	800.000	-0.025	-0.108
-215.552	-200.000	0.000	-0.138
-214.538	32.221	-0.200	0.172
-213.523	-98.588	-0.270	0.069
-212.509	-84.434	-0.306	-0.097
-211.494	-8.332	-0.308	0.207
-210.479	191.791	-0.110	0.165
-209.465	710.207	0.021	-0.056
-208.450	85.702	0.195	-0.214
-207.436	-66.290	-0.144	0.057
-206.421	800.000	-0.106	-0.417
-205.406	-13.596	-0.079	-0.051
-204.392	-200.000	-0.003	0.067
-203.377	-200.000	0.018	-0.110
-202.363	-113.162	0.344	-0.068
-201.348	150.174	0.274	-0.372
-200.333	800.000	0.130	-0.359
-199.319	148.839	0.366	0.495
-198.304	367.435	-0.084	-0.169
-197.290	800.000	0.048	-0.164
-196.275	97.880	-0.122	-0.140
-195.260	260.039	0.125	0.216
-194.246	285.854	-0.095	-0.171
-193.231	800.000	-0.016	-0.065
-192.217	86.118	-0.267	0.293
-191.202	-200.000	0.042	0.340
-190.187	53.074	-0.159	0.152
-189.173	-80.806	0.602	-0.200
-188.158	519.285	-0.024	-0.055
-187.144	-52.065	0.201	-0.093
-186.129	-26.704	-0.290	0.170
-185.114	-142.739	0.065	-0.006
-184.100	-200.000	0.002	0.171
-183.085	-200.000	0.004	-0.209
-182.071	-114.379	0.297	-0.057
-181.056	-200.000	-0.025	0.275
-180.042	-200.000	-0.014	-0.242
-179.027	-93.443	0.181	-0.050
-178.012	-14.706	0.136	0.087
-176.998	-138.048	-0.156	0.017
-175.983	35.539	0.143	-0.125
-174.969	373.807	-0.112	0.228
-173.954	-33.350	0.239	0.132
-172.939	-82.852	-0.146	-0.047
-171.925	208.502	0.125	-0.195
-170.910	163.145	0.207	-0.290
-169.896	-140.850	0.268	-0.028
-168.881	-168.687	-0.056	-0.002
-167.866	308.268	-0.089	-0.165
-166.852	115.793	-0.184	0.224
-165.837	318.382	0.107	0.202
-164.823	-25.496	-0.241	-0.142
-163.808	-106.231	-0.171	-0.038
-162.793	72.132	-0.149	-0.155
-161.779	-112.813	0.428	0.085
-160.764	-100.722	0.296	0.073
-159.750	-21.867	-0.235	-0.142
-158.735	631.576	0.083	0.210
-157.720	-200.000	0.081	0.391
-156.706	-200.000	0.020	0.206
-155.691	439.239	-0.058	-0.125
-154.677	-200.000	0.018	-0.242
-153.662	800.000	-0.046	-0.183
-152.647	-25.879	0.229	0.135
-151.633	-19.704	-0.460	-0.284
-150.618	-200.000	0.029	-0.271
-149.604	102.866	0.037	0.043
-148.589	-12.828	0.222	-0.144
-147.574	-57.561	0.070	0.030
-146.560	-139.421	0.058	0.006
-145.545	337.055	0.116	-0.225
-144.531	800.000	0.097	0.330
-143.516	-200.000	0.008	0.235
-142.502	166.031	-0.142	-0.200
-141.487	427.302	0.048	-0.103
-140.472	-11.155	0.165	0.109
-139.458	169.850	-0.194	0.276
-138.443	-179.329	-0.427	-0.009
-137.429	116.075	0.274	0.334
-136.414	275.236	0.094	-0.166
-135.399	256.556	-0.065	0.111
-134.385	-67.674	0.123	-0.048
-133.370	186.552	-0.175	0.259
-132.356	-200.000	0.019	0.455
-131.341	-200.000	0.020	-0.147
-130.326	406.968	0.037	0.077
-129.312	193.028	-0.052	-0.079
-128.297	453.637	0.072	-0.159
-127.283	-37.741	0.130	0.069
-126.268	-200.000	-0.040	0.489
-125.253	-132.761	0.130	-0.017
-124.239	-200.000	-0.162	0.000
-123.224	-200.000	-0.004	0.145
-122.210	-200.000	-0.082	0.378
