DTS Sentinel unit serial number:	SN413079Multiplexer serial number:	ORYXHardware model number:	OX4-SRSoftware version number:	ORYX F/W v4.00 Oryx Data Collector v3.7.2.0data status	okinstallation	princeton_trtdifferential loss correction	single-endedforward channel	channel 2reverse channel	N/Adate	2019/09/12time	23:15:35forward acquisition time	60.00reverse acquisition time	0.00gamma	496.2192k internal	0.2332k external	0.2332temperature offset calibration	1.0170default loss term (dB/km)	0.3790temperature slope calibration	1.0000multiplexer offset coefficient	1.0000multiplexer slope coefficient	1.0000fibre end	0.00T internal ref (°C)	29.12T ext. ref 1 (°C)	3.73T ext. ref 2 (°C)	23.80length (m)	temperature (°C)	Stokes	anti-Stokes-747.200	-200.000	-0.043	-0.308
-746.185	200.554	-0.201	0.310
-745.171	-200.000	-0.002	0.193
-744.156	93.321	-0.194	0.221
-743.142	-200.000	0.039	0.373
-742.127	443.456	-0.127	0.281
-741.112	-41.483	-0.120	-0.062
-740.098	49.637	0.352	0.334
-739.083	-200.000	-0.043	-0.368
-738.069	199.118	-0.240	0.369
-737.054	-200.000	-0.002	0.101
-736.039	-46.716	-0.103	0.051
-735.025	-70.074	0.084	0.032
-734.010	24.156	0.172	-0.143
-732.996	-200.000	0.016	0.129
-731.981	800.000	0.099	-0.326
-730.966	-140.199	-0.230	-0.024
-729.952	-99.494	-0.118	0.030
-728.937	-149.004	-0.408	0.033
-727.923	-133.031	0.105	-0.013
-726.908	54.816	-0.014	-0.014
-725.894	57.820	-0.129	-0.127
-724.879	-44.290	-0.047	-0.023
-723.864	-200.000	0.017	0.087
-722.850	800.000	0.015	-0.057
-721.835	-33.090	-0.323	-0.180
-720.821	626.686	0.040	-0.102
-719.806	-96.243	0.103	0.028
-718.791	-200.000	0.073	-0.391
-717.777	378.830	-0.123	-0.253
-716.762	-200.000	0.000	-0.045
-715.748	-40.344	-0.194	-0.101
-714.733	288.163	-0.185	0.336
-713.718	-200.000	0.041	-0.531
-712.704	284.286	0.102	-0.185
-711.689	675.790	0.091	-0.237
-710.675	-123.548	0.300	-0.048
-709.660	26.864	-0.220	-0.185
-708.645	-86.367	-0.254	-0.078
-707.631	151.854	-0.125	0.171
-706.616	516.083	-0.132	0.309
-705.602	-148.753	0.080	-0.007
-704.587	414.486	-0.097	-0.208
-703.572	-166.434	-0.198	-0.008
-702.558	-200.000	-0.004	-0.193
-701.543	34.778	-0.167	-0.147
-700.529	71.218	0.062	-0.065
-699.514	158.438	-0.079	-0.110
-698.499	-200.000	-0.015	-0.180
-697.485	257.772	-0.195	0.337
-696.470	-118.731	0.282	0.050
-695.456	24.152	0.270	0.223
-694.441	-143.728	0.061	-0.006
-693.426	-26.463	0.092	0.054
-692.412	-200.000	-0.003	0.331
-691.397	-200.000	-0.058	0.268
-690.383	228.577	0.037	0.061
-689.368	4.432	0.049	0.036
-688.354	62.125	-0.253	-0.253
-687.339	380.782	-0.089	-0.182
-686.324	-200.000	-0.040	0.180
-685.310	138.941	-0.113	0.149
-684.295	89.277	0.178	-0.199
-683.281	-180.239	-0.247	-0.005
-682.266	15.981	0.064	0.051
-681.251	636.647	0.063	0.160
-680.237	15.764	0.276	-0.218
-679.222	-154.895	-0.401	0.027
-678.208	-200.000	0.013	0.186
-677.193	40.831	-0.193	-0.175
-676.178	-200.000	-0.053	0.293
-675.164	800.000	-0.117	-0.355
-674.149	-58.879	-0.115	-0.050
-673.135	487.943	0.078	-0.179
-672.120	-36.330	0.128	0.069
-671.105	-13.067	-0.071	0.047
-670.091	-200.000	-0.009	0.234
-669.076	800.000	0.046	0.158
-668.062	-116.316	-0.251	-0.047
-667.047	-200.000	-0.004	0.036
-666.032	-104.112	0.158	-0.037
-665.018	0.852	-0.172	-0.124
-664.003	-56.054	0.114	0.051
-662.989	-95.810	-0.233	0.062
-661.974	-39.103	0.153	0.081
-660.959	-200.000	-0.051	0.257
-659.945	228.040	0.078	0.128
-658.930	224.791	-0.121	-0.196
-657.916	-200.000	-0.005	-0.104
-656.901	-48.456	-0.280	0.135
-655.886	86.766	-0.117	-0.130
-654.872	-200.000	-0.015	-0.090
-653.857	120.650	-0.106	0.133
-652.843	773.228	-0.100	-0.274
-651.828	-102.837	-0.023	-0.005
-650.814	-200.000	0.014	0.123
-649.799	235.517	-0.165	0.274
-648.784	-200.000	-0.002	0.355
-647.770	-200.000	0.013	0.234
-646.755	-64.331	-0.269	0.110
-645.741	-200.000	-0.034	-0.216
-644.726	-80.156	-0.377	-0.127
-643.711	18.645	-0.312	-0.251
-642.697	-81.079	0.179	-0.059
-641.682	53.044	-0.143	0.137
-640.668	-200.000	-0.015	0.176
-639.653	24.685	-0.097	0.080
-638.638	186.756	-0.232	-0.346
-637.624	-200.000	0.104	-0.482
-636.609	544.996	0.096	-0.231
-635.595	800.000	0.027	-0.080
-634.580	635.132	0.022	-0.057
-633.565	388.011	0.211	-0.436
-632.551	-200.000	0.031	0.169
-631.536	-28.099	0.069	0.040
-630.522	800.000	-0.055	0.207
-629.507	-168.656	0.188	-0.007
-628.492	62.895	-0.179	-0.179
-627.478	275.403	-0.076	0.135
-626.463	800.000	-0.051	-0.155
-625.449	800.000	0.122	-0.381
-624.434	48.160	-0.148	0.139
-623.419	800.000	-0.045	0.129
-622.405	-36.601	-0.213	0.115
-621.390	800.000	-0.038	-0.164
-620.376	-200.000	0.009	-0.054
-619.361	275.117	-0.033	0.059
-618.346	-134.496	0.570	0.070
-617.332	30.602	-0.222	0.190
-616.317	-200.000	-0.036	-0.334
-615.303	-42.335	-0.172	-0.088
-614.288	101.459	0.083	-0.097
-613.273	162.176	0.144	0.201
-612.259	411.260	-0.041	-0.088
-611.244	261.078	0.031	-0.054
-610.230	80.642	0.238	-0.257
-609.215	-147.087	-0.361	-0.031
-608.201	-25.673	0.156	0.092
-607.186	-172.848	-0.325	-0.010
-606.171	133.767	0.061	0.079
-605.157	-21.864	0.274	0.167
-604.142	-200.000	0.023	0.173
-603.128	-100.849	-0.305	-0.075
-602.113	-40.145	-0.245	-0.128
-601.098	-123.275	-0.285	0.046
-600.084	-200.000	0.005	-0.035
-599.069	92.928	-0.126	0.142
-598.055	146.198	-0.206	0.276
-597.040	70.342	-0.205	0.212
-596.025	275.857	0.043	0.075
-595.011	-71.703	-0.212	0.079
-593.996	104.309	-0.156	-0.184
-592.982	-51.460	0.248	0.116
-591.967	-93.261	-0.222	-0.062
-590.952	-44.254	0.193	0.097
-589.938	-200.000	-0.010	-0.055
-588.923	115.679	-0.099	-0.121
-587.909	-116.732	0.147	-0.027
-586.894	180.663	-0.245	-0.360
-585.879	-51.159	0.124	-0.058
-584.865	-29.361	-0.198	0.114
-583.850	4.509	-0.062	-0.045
-582.836	387.273	0.031	0.065
-581.821	66.154	0.104	-0.106
-580.806	800.000	-0.028	0.090
-579.792	38.591	0.097	-0.086
-578.777	-114.367	-0.081	-0.016
-577.763	437.919	-0.046	0.100
-576.748	-100.715	-0.237	-0.058
-575.733	800.000	0.079	0.266
-574.719	686.343	-0.038	0.099
-573.704	84.717	-0.119	0.130
-572.690	-200.000	0.021	-0.191
-571.675	-85.222	0.417	-0.130
-570.661	264.236	0.131	-0.228
-569.646	32.970	0.083	-0.072
-568.631	36.337	-0.344	-0.303
-567.617	82.344	-0.088	-0.095
-566.602	-75.805	0.377	-0.134
-565.588	138.178	-0.038	-0.050
-564.573	-31.945	0.323	0.180
-563.558	-156.477	-0.162	0.010
-562.544	-100.511	-0.244	-0.060
-561.529	1.284	-0.395	0.284
-560.515	255.660	-0.077	-0.132
-559.500	-71.043	-0.176	0.066
-558.485	-200.000	0.003	0.202
-557.471	800.000	-0.043	0.173
-556.456	-200.000	0.007	0.173
-555.442	-200.000	0.011	0.245
-554.427	-200.000	0.008	-0.168
-553.412	260.898	0.293	-0.507
-552.398	-135.073	-0.169	-0.020
-551.383	800.000	0.074	0.205
-550.369	-200.000	0.070	-0.386
-549.354	800.000	-0.065	0.190
-548.339	-90.130	0.366	-0.107
-547.325	-200.000	-0.003	0.106
-546.310	15.447	0.084	-0.066
-545.296	-69.748	-0.225	-0.086
-544.281	42.520	-0.154	0.140
-543.266	-192.080	0.356	-0.003
-542.252	-82.764	-0.182	0.059
-541.237	42.396	0.174	-0.158
-540.223	-60.441	0.239	0.102
-539.208	-16.993	0.153	0.096
-538.193	-62.917	0.242	0.100
-537.179	226.186	0.132	0.213
-536.164	-102.593	0.232	0.055
-535.150	216.965	0.166	0.264
-534.135	-200.000	0.045	0.255
-533.121	-136.638	-0.161	-0.019
-532.106	557.687	0.065	-0.157
-531.091	-12.526	0.253	0.164
-530.077	226.049	0.106	-0.171
-529.062	-104.135	-0.408	-0.095
-528.048	-200.000	0.094	-0.680
-527.033	161.984	-0.053	-0.073
-526.018	-200.000	-0.021	-0.109
-525.004	-200.000	0.004	-0.060
-523.989	-102.843	-0.482	0.114
-522.975	-200.000	-0.002	0.097
-521.960	-113.684	0.203	0.040
-520.945	-114.290	-0.179	0.034
-519.931	181.026	0.142	0.208
-518.916	-131.478	-0.318	-0.042
-517.902	14.164	0.155	0.120
-516.887	30.502	-0.397	-0.339
-515.872	655.299	-0.084	0.214
-514.858	-107.261	0.445	-0.098
-513.843	-6.762	-0.132	0.090
-512.829	121.564	-0.122	-0.152
-511.814	249.225	0.064	-0.108
-510.799	800.000	-0.072	-0.273
-509.785	301.657	0.108	-0.198
-508.770	-56.679	-0.198	0.087
-507.756	-136.959	-0.133	-0.015
-506.741	-200.000	0.019	-0.390
-505.726	-126.396	0.184	-0.027
-504.712	-148.682	0.139	0.011
-503.697	-86.235	-0.270	-0.083
-502.683	183.628	0.092	-0.136
-501.668	235.913	0.098	0.161
-500.653	206.688	-0.039	-0.060
-499.639	-6.956	0.222	-0.151
-498.624	-97.694	0.228	0.059
-497.610	290.235	0.115	0.208
-496.595	-80.099	-0.144	-0.048
-495.581	37.756	-0.208	0.184
-494.566	-58.893	0.230	0.099
-493.551	-30.357	0.165	-0.093
-492.537	-5.837	0.131	-0.090
-491.522	-200.000	0.026	0.134
-490.508	800.000	0.033	0.107
-489.493	91.127	0.116	-0.130
-488.478	135.795	0.141	-0.183
-487.464	-148.450	-0.020	-0.002
-486.449	28.776	0.280	0.237
-485.435	-72.314	-0.227	0.084
-484.420	-40.708	0.187	-0.096
-483.405	526.277	-0.108	-0.254
-482.391	256.494	-0.084	-0.143
-481.376	-138.796	0.146	0.016
-480.362	505.779	0.042	0.097
-479.347	228.159	-0.273	-0.442
-478.332	78.598	0.213	-0.227
-477.318	143.253	-0.137	0.182
-476.303	-74.627	0.335	-0.120
-475.289	-113.763	-0.154	0.030
-474.274	800.000	0.032	-0.095
-473.259	-129.293	0.220	0.031
-472.245	-5.239	-0.209	-0.143
-471.230	-191.756	-0.132	0.001
-470.216	-200.000	0.026	0.202
-469.201	-4.389	0.138	0.095
-468.186	243.560	0.123	0.205
-467.172	123.190	0.050	-0.062
-466.157	-129.261	-0.229	0.032
-465.143	10.156	0.228	0.172
-464.128	-159.542	-0.198	0.011
-463.113	12.817	0.385	0.296
-462.099	-71.614	-0.047	0.017
-461.084	-75.753	0.305	-0.108
-460.070	600.614	0.042	0.104
-459.055	-122.553	0.260	0.042
-458.040	59.707	0.126	-0.124
-457.026	800.000	0.043	0.174
-456.011	217.882	0.080	0.127
-454.997	-23.234	-0.252	-0.151
-453.982	-135.421	0.114	0.013
-452.968	263.192	-0.079	0.136
-451.953	800.000	0.037	-0.140
-450.938	119.729	-0.128	0.158
-449.924	800.000	-0.056	0.199
-448.909	-187.917	-0.123	0.002
-447.895	800.000	0.041	-0.153
-446.880	336.679	0.046	-0.089
-445.865	116.617	0.159	0.194
-444.851	-67.006	0.111	-0.044
-443.836	156.744	-0.181	-0.248
-442.822	-200.000	-0.026	-0.372
-441.807	289.884	-0.092	0.165
-440.792	83.772	-0.089	0.096
-439.778	-56.210	-0.327	0.145
-438.763	106.896	0.228	-0.269
-437.749	-135.123	-0.144	0.017
-436.734	-200.000	-0.013	0.096
-435.719	107.270	-0.129	0.152
-434.705	246.500	0.215	0.360
-433.690	-200.000	0.007	0.273
-432.676	-113.870	0.089	-0.017
-431.661	60.637	-0.128	-0.126
-430.646	-200.000	0.016	-0.133
-429.632	-200.000	-0.074	-0.371
-428.617	-101.379	-0.144	-0.035
-427.603	513.960	0.020	0.046
-426.588	28.413	0.185	-0.155
-425.573	-87.951	0.150	-0.045
-424.559	-50.019	-0.298	-0.140
-423.544	-7.532	-0.217	0.146
-422.530	141.586	0.140	-0.184
-421.515	-200.000	0.008	0.441
-420.500	108.249	-0.128	-0.151
-419.486	-120.067	0.159	-0.027
-418.471	-130.609	0.071	0.009
-417.457	-110.786	0.165	0.034
-416.442	-200.000	-0.047	-0.248
-415.428	-81.547	0.021	0.007
-414.413	-200.000	-0.040	0.305
-413.398	-19.159	0.168	-0.104
-412.384	-63.719	0.146	-0.060
-411.369	-164.303	-0.231	0.011
-410.355	125.150	-0.255	0.319
-409.340	-200.000	-0.041	-0.280
-408.325	-69.961	0.304	-0.115
-407.311	-141.853	0.216	0.021
-406.296	130.712	0.049	-0.062
-405.282	102.987	-0.183	0.212
-404.267	72.292	-0.169	-0.175
-403.252	433.296	-0.045	-0.096
-402.238	-123.551	0.217	0.034
-401.223	-200.000	-0.015	-0.114
-400.209	104.175	0.425	0.496
-399.194	636.526	0.098	0.248
-398.179	-41.672	0.233	-0.119
-397.165	-5.895	0.181	-0.123
-396.150	203.809	0.220	-0.337
-395.136	444.326	0.264	0.576
-394.121	-101.573	-0.152	0.037
-393.106	81.698	0.153	-0.164
-392.092	723.335	0.055	0.145
-391.077	-200.000	0.025	0.167
-390.063	137.573	-0.025	-0.033
-389.048	-125.604	0.046	-0.007
-388.033	-126.581	-0.401	0.059
-387.019	336.333	0.039	-0.074
-386.004	-200.000	0.100	0.452
-384.990	-200.000	-0.059	-0.273
-383.975	375.920	0.110	-0.223
-382.960	171.126	-0.026	0.037
-381.946	26.720	0.150	0.125
-380.931	16.587	-0.098	-0.077
-379.917	-152.827	0.328	0.023
-378.902	-70.139	-0.265	-0.100
-377.888	-200.000	0.018	-0.167
-376.873	206.110	-0.102	0.157
-375.858	800.000	0.067	-0.224
-374.844	160.368	-0.184	0.255
-373.829	395.892	-0.101	0.210
-372.815	310.779	0.134	-0.250
-371.800	35.595	0.196	0.171
-370.785	-200.000	-0.019	0.355
-369.771	-81.785	-0.211	0.068
-368.756	-200.000	0.069	-0.353
-367.742	18.954	-0.244	-0.194
-366.727	415.566	-0.062	0.131
-365.712	-131.578	0.176	-0.023
-364.698	800.000	-0.022	0.085
-363.683	345.508	-0.059	-0.115
-362.669	-152.417	-0.317	-0.023
-361.654	42.044	0.231	0.207
-360.639	47.622	0.306	-0.283
-359.625	377.598	-0.046	-0.094
-358.610	657.317	-0.090	0.229
-357.596	-200.000	0.005	-0.097
-356.581	519.612	0.059	-0.138
-355.566	68.802	-0.100	0.101
-354.552	-200.000	-0.019	0.240
-353.537	-200.000	-0.016	0.462
-352.523	800.000	-0.044	-0.166
-351.508	-122.744	0.290	0.047
-350.493	-154.665	-0.291	-0.019
-349.479	-200.000	-0.026	0.123
-348.464	237.386	-0.264	0.433
-347.450	394.477	-0.112	0.231
-346.435	57.393	0.194	0.187
-345.420	-200.000	0.012	0.352
-344.406	-134.286	0.093	-0.011
-343.391	277.549	-0.104	0.183
-342.377	-53.361	-0.144	0.065
-341.362	-122.099	-0.479	0.078
-340.348	130.063	-0.069	0.087
-339.333	-200.000	0.077	0.422
-338.318	73.832	-0.151	-0.156
-337.304	-200.000	-0.039	0.207
-336.289	251.196	-0.091	-0.153
-335.275	-200.000	-0.115	-0.504
-334.260	-130.710	-0.353	-0.047
-333.245	-184.223	0.102	-0.002
-332.231	18.068	0.110	-0.086
-331.216	-45.784	0.125	0.061
-330.202	93.388	0.195	0.219
-329.187	-4.060	0.222	-0.152
-328.172	18.491	-0.156	0.123
-327.158	-14.356	0.036	0.023
-326.143	71.015	0.129	0.132
-325.129	593.710	0.012	0.030
-324.114	-92.330	0.214	-0.060
-323.099	800.000	-0.030	0.101
-322.085	-109.303	-0.073	-0.015
-321.070	280.737	-0.151	0.268
-320.056	-30.459	0.254	-0.143
-319.041	-98.456	-0.254	0.064
-318.026	-139.057	-0.277	0.030
-317.012	-33.137	0.108	-0.059
-315.997	108.588	0.199	0.235
-314.983	-160.503	-0.538	-0.029
-313.968	-25.966	0.262	0.152
-312.953	-200.000	-0.002	-0.110
-311.939	86.060	-0.150	-0.163
-310.924	-200.000	0.026	-0.275
-309.910	-85.427	-0.309	-0.095
-308.895	220.607	0.093	-0.147
-307.880	-200.000	-0.001	-0.188
-306.866	-200.000	0.035	-0.198
-305.851	64.803	-0.016	-0.016
-304.837	59.241	-0.259	-0.252
-303.822	-200.000	-0.008	-0.200
-302.807	-120.256	-0.148	-0.025
-301.793	83.650	-0.145	-0.157
-300.778	-70.875	0.292	0.109
-299.764	-131.357	0.170	-0.022
-298.749	800.000	-0.116	0.346
-297.735	134.769	0.119	-0.153
-296.720	-15.116	0.319	0.202
-295.705	-106.344	-0.153	-0.034
-294.691	-76.197	-0.193	0.067
-293.676	113.171	-0.132	0.159
-292.662	53.395	-0.106	0.100
-291.647	800.000	0.034	-0.124
-290.632	19.756	0.142	-0.113
-289.618	353.822	-0.140	-0.276
-288.603	-30.467	0.272	0.152
-287.589	59.906	-0.163	0.159
-286.574	47.442	0.234	-0.216
-285.559	-200.000	-0.006	0.106
-284.545	142.671	-0.133	0.175
-283.530	-200.000	-0.048	0.408
-282.516	-200.000	-0.004	-0.154
-281.501	-108.142	-0.202	0.043
-280.486	264.721	0.106	-0.183
-279.472	-0.897	-0.040	-0.028
-278.457	-37.358	0.291	-0.154
-277.443	-91.120	-0.278	0.079
-276.428	252.773	0.086	-0.145
-275.413	27.293	0.286	-0.237
-274.399	51.801	-0.224	-0.211
-273.384	-57.402	0.180	0.078
-272.370	-52.083	-0.185	-0.085
-271.355	277.952	0.067	0.118
-270.340	-9.030	-0.217	-0.144
-269.326	129.010	0.198	-0.250
-268.311	-49.729	-0.138	0.065
-267.297	800.000	-0.101	0.278
-266.282	1.270	0.299	0.212
-265.267	615.203	0.102	0.252
-264.253	60.535	-0.344	0.337
-263.238	107.252	-0.268	0.314
-262.224	-49.072	-0.426	-0.201
-261.209	800.000	0.036	-0.107
-260.195	-23.618	0.184	0.109
-259.180	-75.667	0.192	0.067
-258.165	105.814	0.055	0.064
-257.151	800.000	0.092	-0.388
-256.136	-53.624	-0.215	-0.097
-255.122	-193.083	-0.254	-0.002
-254.107	455.020	-0.055	0.120
-253.092	-200.000	-0.007	0.086
-252.078	-200.000	0.019	0.171
-251.063	-73.379	-0.127	0.046
-250.049	93.433	0.063	-0.070
-249.034	-137.826	0.223	0.025
-248.019	-14.941	-0.315	0.199
-247.005	800.000	0.029	-0.089
-245.990	-48.301	0.254	-0.121
-244.976	85.239	-0.143	0.155
-243.961	129.793	0.111	-0.140
-242.946	-56.401	0.106	0.047
-241.932	-200.000	0.231	0.000
-240.917	-200.000	-0.000	-0.054
-239.903	800.000	0.110	-0.374
-238.888	-97.220	0.323	0.083
-237.873	-36.394	-0.128	0.068
-236.859	-73.071	0.309	0.112
-235.844	149.734	0.085	0.114
-234.830	-60.079	0.425	0.179
-233.815	151.287	0.225	0.302
-232.800	-2.181	-0.111	-0.077
-231.786	-179.779	0.169	-0.004
-230.771	39.357	0.162	0.143
-229.757	525.805	-0.146	0.340
-228.742	-14.156	0.102	-0.065
-227.727	-71.148	-0.061	-0.023
-226.713	-88.332	-0.082	-0.024
-225.698	-200.000	-0.004	-0.190
-224.684	-200.000	-0.023	-0.292
-223.669	-163.736	0.273	-0.013
-222.655	649.583	-0.022	-0.055
-221.640	-200.000	-0.011	0.153
-220.625	-115.899	0.300	-0.055
-219.611	-103.221	-0.178	0.041
-218.596	-89.151	0.231	0.067
-217.582	169.290	-0.194	-0.273
-216.567	800.000	0.090	0.276
-215.552	-56.379	0.281	-0.123
-214.538	-200.000	0.040	-0.186
-213.523	258.407	0.214	0.364
-212.509	-26.633	0.172	0.099
-211.494	63.569	-0.086	0.085
-210.479	536.263	0.050	-0.116
-209.465	36.217	-0.186	0.161
-208.450	-82.745	0.163	-0.052
-207.436	-81.292	-0.304	-0.099
-206.421	-200.000	0.060	0.283
-205.406	253.775	-0.015	-0.026
-204.392	273.173	0.106	-0.184
-203.377	-200.000	-0.016	0.145
-202.363	-61.922	-0.303	-0.125
-201.348	-20.589	0.273	0.165
-200.333	-95.345	-0.126	0.033
-199.319	148.428	0.067	-0.089
-198.304	69.969	0.085	0.087
-197.290	-167.736	-0.205	0.008
-196.275	20.516	-0.126	0.101
-195.260	27.845	-0.084	-0.069
-194.246	-131.580	-0.217	0.028
-193.231	391.366	0.192	-0.392
-192.217	-103.289	-0.387	-0.090
-191.202	265.058	0.109	-0.187
-190.187	114.168	-0.093	-0.111
-189.173	-94.010	-0.157	-0.042
-188.158	800.000	-0.091	-0.264
-187.144	211.011	0.194	-0.301
-186.129	-120.883	0.140	0.023
-185.114	-122.869	-0.112	0.018
-184.100	52.987	0.149	-0.141
-183.085	-45.001	-0.234	0.114
-182.071	-36.620	0.354	0.187
-181.056	-200.000	0.051	-0.323
-180.042	-43.014	-0.192	-0.096
-179.027	72.202	-0.031	-0.031
-178.012	-200.000	-0.037	-0.261
-176.998	-200.000	0.008	0.045
-175.983	-42.638	-0.137	0.069
-174.969	-112.077	-0.347	0.069
-173.954	703.716	0.117	-0.304
-172.939	53.585	0.090	0.085
-171.925	88.613	0.135	-0.148
-170.910	-200.000	0.027	-0.132
-169.896	111.794	0.167	-0.198
-168.881	622.407	-0.045	0.111
-167.866	85.162	0.072	0.077
-166.852	36.293	0.171	-0.148
-165.837	-95.859	-0.204	-0.054
-164.823	-200.000	0.033	0.184
-163.808	451.823	-0.014	0.030
-162.793	68.286	-0.112	0.113
-161.779	341.502	-0.096	0.185
-160.764	215.497	-0.108	0.168
-159.750	265.179	-0.068	-0.116
-158.735	800.000	-0.067	0.190
-157.720	-155.785	0.061	0.004
-156.706	-42.008	0.121	0.061
-155.691	-2.170	0.089	0.061
-154.677	-200.000	0.048	-0.240
-153.662	-128.758	-0.208	0.029
-152.647	-50.112	0.126	-0.058
-151.633	-116.209	-0.153	0.028
-150.618	-107.780	0.466	-0.100
-149.604	278.215	0.046	-0.081
-148.589	-200.000	0.003	-0.277
-147.574	589.519	0.090	-0.217
-146.560	648.340	-0.077	0.193
-145.545	60.963	-0.270	-0.263
-144.531	90.021	0.153	-0.168
-143.516	-200.000	-0.052	0.324
-142.502	609.298	0.104	-0.255
-141.487	600.898	0.037	-0.089
-140.472	-75.800	-0.401	-0.140
-139.458	316.095	0.090	0.167
-138.443	-82.738	0.264	0.084
-137.429	115.633	-0.137	0.164
-136.414	58.995	0.271	-0.262
-135.399	-59.212	-0.160	-0.068
-134.385	-104.559	-0.333	0.075
-133.370	-200.000	-0.005	-0.118
-132.356	-200.000	0.000	0.085
-131.341	63.227	-0.126	-0.124
-130.326	-117.069	0.143	-0.026
-129.312	800.000	0.075	-0.213
-128.297	166.136	-0.078	-0.108
-127.283	163.371	-0.073	0.100
-126.268	-108.104	0.107	-0.023
-125.253	800.000	0.061	-0.238
-124.239	800.000	0.077	-0.285
-123.224	800.000	0.039	0.137
-122.210	428.064	0.064	0.136
