DTS Sentinel unit serial number:	SN413079Multiplexer serial number:	ORYXHardware model number:	OX4-SRSoftware version number:	ORYX F/W v4.00 Oryx Data Collector v3.7.2.0data status	okinstallation	princeton_trtdifferential loss correction	single-endedforward channel	channel 2reverse channel	N/Adate	2019/09/16time	20:03:35forward acquisition time	60.00reverse acquisition time	0.00gamma	496.2192k internal	0.2327k external	0.2327temperature offset calibration	0.9967default loss term (dB/km)	0.3790temperature slope calibration	1.0000multiplexer offset coefficient	1.0000multiplexer slope coefficient	1.0000fibre end	0.00T internal ref (°C)	33.31T ext. ref 1 (°C)	0.08T ext. ref 2 (°C)	26.65length (m)	temperature (°C)	Stokes	anti-Stokes-747.200	-108.320	0.169	0.037
-746.185	58.134	-0.265	-0.262
-745.171	-15.107	0.199	0.129
-744.156	-200.000	-0.061	0.285
-743.142	-86.467	0.469	0.145
-742.127	800.000	-0.108	0.421
-741.112	800.000	-0.099	0.376
-740.098	800.000	-0.018	0.052
-739.083	110.192	0.102	-0.123
-738.069	79.958	-0.135	0.146
-737.054	344.428	-0.093	-0.183
-736.039	5.821	-0.256	-0.191
-735.025	400.428	0.010	-0.022
-734.010	584.051	0.080	0.198
-732.996	-114.157	-0.266	-0.052
-731.981	137.068	-0.165	-0.217
-730.966	8.696	0.291	-0.221
-729.952	-200.000	-0.005	0.164
-728.937	-144.349	0.172	0.016
-727.923	-57.560	0.266	0.117
-726.908	158.452	0.159	-0.222
-725.894	-27.742	-0.082	0.048
-724.879	-6.841	-0.265	-0.182
-723.864	-200.000	0.047	0.471
-722.850	-200.000	0.026	-0.202
-721.835	-200.000	-0.035	0.170
-720.821	176.575	-0.074	0.109
-719.806	800.000	0.096	-0.285
-718.791	215.942	0.082	-0.132
-717.777	800.000	0.100	-0.298
-716.762	201.077	0.128	-0.199
-715.748	-38.699	-0.221	0.117
-714.733	-105.970	-0.115	-0.026
-713.718	-5.129	0.220	-0.152
-712.704	-15.299	-0.328	0.211
-711.689	800.000	0.018	0.073
-710.675	-200.000	-0.015	0.154
-709.660	800.000	-0.059	0.167
-708.645	-184.039	-0.400	-0.007
-707.631	-77.589	0.053	0.018
-706.616	-29.921	0.149	0.086
-705.602	379.690	0.109	-0.225
-704.587	-98.790	-0.209	-0.054
-703.572	-200.000	0.000	-0.026
-702.558	-79.018	-0.262	-0.090
-701.543	-200.000	-0.057	-0.322
-700.529	489.855	-0.132	0.304
-699.514	475.929	-0.083	-0.188
-698.499	-200.000	-0.059	0.329
-697.485	495.578	0.097	-0.224
-696.470	-107.885	-0.086	-0.019
-695.456	89.509	-0.176	-0.198
-694.441	332.522	-0.170	-0.330
-693.426	-193.254	-0.170	-0.002
-692.412	-118.706	0.236	0.042
-691.397	-125.109	-0.337	0.052
-690.383	-126.176	-0.095	-0.014
-689.368	-200.000	-0.074	-0.348
-688.354	-132.723	0.320	-0.041
-687.339	-128.051	0.219	0.032
-686.324	489.750	0.094	-0.216
-685.310	-126.604	-0.385	0.057
-684.295	55.872	0.268	0.262
-683.281	105.104	-0.158	0.187
-682.266	517.334	0.123	0.289
-681.251	399.751	0.177	0.373
-680.237	398.930	-0.065	0.136
-679.222	212.565	-0.109	-0.173
-678.208	-200.000	-0.002	0.235
-677.193	18.845	0.040	-0.032
-676.178	800.000	-0.065	-0.254
-675.164	-200.000	-0.043	-0.320
-674.149	-75.711	0.139	-0.049
-673.135	139.398	-0.197	0.261
-672.120	-32.633	-0.216	0.121
-671.105	-155.612	0.016	0.001
-670.091	87.080	0.209	-0.232
-669.076	-4.285	0.048	-0.034
-668.062	-14.549	-0.287	0.186
-667.047	-200.000	-0.080	-0.427
-666.032	-69.113	0.275	0.107
-665.018	-200.000	-0.371	-0.000
-664.003	800.000	0.060	0.173
-662.989	-69.755	0.155	0.059
-661.974	-121.197	-0.183	-0.031
-660.959	84.168	-0.034	-0.037
-659.945	-94.590	0.399	-0.109
-658.930	11.976	-0.224	-0.173
-657.916	-104.377	-0.028	0.007
-656.901	-200.000	0.045	-0.312
-655.886	-200.000	-0.014	0.262
-654.872	93.219	-0.098	0.111
-653.857	-200.000	-0.055	0.370
-652.843	-200.000	-0.045	-0.256
-651.828	-10.210	0.137	0.091
-650.814	-74.322	-0.150	-0.054
-649.799	-64.674	0.220	0.090
-648.784	-125.921	-0.191	-0.029
-647.770	509.043	-0.154	0.360
-646.755	800.000	0.009	0.033
-645.741	-73.958	0.136	0.050
-644.726	-142.287	-0.203	-0.020
-643.711	-200.000	-0.037	-0.263
-642.697	-68.603	-0.313	-0.122
-641.682	800.000	0.070	0.239
-640.668	268.413	0.048	-0.085
-639.653	-89.731	-0.228	0.067
-638.638	-200.000	-0.012	0.063
-637.624	-55.094	-0.158	0.071
-636.609	-125.606	-0.198	0.030
-635.595	124.455	-0.034	-0.043
-634.580	-43.724	-0.133	-0.067
-633.565	-61.298	-0.147	-0.062
-632.551	315.352	0.024	-0.045
-631.536	-200.000	0.090	0.432
-630.522	317.195	0.075	-0.143
-629.507	-200.000	-0.041	-0.372
-628.492	63.267	0.068	0.068
-627.478	91.834	-0.105	-0.119
-626.463	-77.195	0.118	0.041
-625.449	724.194	0.067	-0.179
-624.434	800.000	-0.089	0.285
-623.419	-200.000	-0.008	0.121
-622.405	-98.298	-0.289	0.074
-621.390	-8.785	-0.164	0.110
-620.376	-177.106	-0.070	0.002
-619.361	-200.000	-0.005	-0.120
-618.346	-200.000	-0.057	0.291
-617.332	37.988	-0.102	-0.091
-616.317	-15.252	-0.250	0.161
-615.303	765.618	-0.074	-0.200
-614.288	42.204	0.174	0.159
-613.273	800.000	0.029	0.126
-612.259	-87.155	0.242	-0.074
-611.244	-85.527	-0.204	-0.064
-610.230	-34.296	-0.050	0.027
-609.215	-93.187	-0.448	0.125
-608.201	-51.833	-0.249	-0.116
-607.186	800.000	0.092	0.304
-606.171	54.826	0.119	-0.115
-605.157	-200.000	0.004	0.312
-604.142	-79.952	-0.094	-0.032
-603.128	46.654	-0.228	0.212
-602.113	-200.000	0.043	-0.284
-601.098	-16.704	0.171	-0.108
-600.084	-85.532	-0.095	0.030
-599.069	-83.156	-0.067	0.022
-598.055	-181.893	-0.149	-0.003
-597.040	783.729	-0.048	-0.133
-596.025	-141.100	-0.189	0.019
-595.011	-41.863	0.123	0.063
-593.996	-30.352	0.162	-0.092
-592.982	-59.427	0.143	-0.062
-591.967	-167.335	0.088	0.004
-590.952	232.033	-0.068	-0.111
-589.938	339.160	0.031	-0.061
-588.923	800.000	-0.043	-0.144
-587.909	-186.317	0.121	0.002
-586.894	-70.016	-0.337	0.129
-585.879	-70.690	-0.114	-0.043
-584.865	-200.000	0.016	-0.192
-583.850	800.000	0.019	0.077
-582.836	123.685	-0.056	-0.071
-581.821	800.000	-0.001	0.004
-580.806	-200.000	0.019	-0.265
-579.792	-108.651	0.224	-0.048
-578.777	-200.000	0.004	0.037
-577.763	39.149	-0.027	0.024
-576.748	254.150	-0.051	-0.088
-575.733	110.420	0.126	-0.152
-574.719	7.253	-0.109	-0.081
-573.704	-105.002	-0.294	-0.067
-572.690	-68.144	0.114	-0.045
-571.675	-200.000	-0.019	-0.268
-570.661	-91.738	-0.173	-0.049
-569.646	-103.100	0.073	-0.017
-568.631	190.039	0.143	0.215
-567.617	396.568	0.058	0.121
-566.602	21.575	-0.240	0.196
-565.588	-144.750	-0.108	-0.010
-564.573	-134.900	0.434	0.053
-563.558	-148.397	-0.216	0.018
-562.544	-76.277	0.078	0.028
-561.529	-163.040	-0.208	0.010
-560.515	34.184	0.320	0.279
-559.500	149.598	0.092	0.125
-558.485	17.294	0.211	-0.168
-557.471	-200.000	0.007	0.220
-556.456	-55.675	-0.182	-0.081
-555.442	-84.359	-0.125	-0.040
-554.427	-23.094	-0.040	-0.024
-553.412	36.361	-0.344	0.304
-552.398	133.802	0.056	0.072
-551.383	-31.775	-0.157	0.088
-550.369	237.564	0.089	0.147
-549.354	-7.634	0.088	0.060
-548.339	94.316	0.224	0.254
-547.325	216.718	0.098	-0.157
-546.310	38.587	0.125	0.111
-545.296	-170.723	-0.078	-0.003
-544.281	89.249	0.100	-0.111
-543.266	-47.028	0.085	0.042
-542.252	-33.282	-0.173	0.096
-541.237	-200.000	0.011	0.294
-540.223	160.865	-0.163	0.228
-539.208	42.981	0.016	0.014
-538.193	-159.733	-0.101	-0.006
-537.179	-45.804	0.302	0.149
-536.164	419.484	0.114	0.244
-535.150	32.986	-0.421	-0.365
-534.135	-165.901	-0.268	-0.011
-533.121	215.020	0.041	-0.065
-532.106	-85.338	-0.240	0.075
-531.091	87.107	0.127	0.140
-530.077	-200.000	-0.023	0.118
-529.062	-28.727	-0.115	-0.066
-528.048	-75.973	-0.191	-0.068
-527.033	-86.137	0.247	-0.076
-526.018	78.161	0.287	-0.306
-525.004	452.513	0.015	0.032
-523.989	82.978	0.118	-0.128
-522.975	121.604	0.019	0.024
-521.960	-69.333	0.162	-0.062
-520.945	28.884	0.326	-0.276
-519.931	636.994	-0.135	-0.342
-518.916	246.008	0.088	0.148
-517.902	800.000	-0.085	0.284
-516.887	143.444	0.137	-0.183
-515.872	-13.558	0.093	-0.060
-514.858	347.586	0.137	0.270
-513.843	0.293	0.185	-0.132
-512.829	57.121	0.179	-0.175
-511.814	-67.707	0.168	-0.066
-510.799	-36.604	0.280	0.150
-509.785	165.755	0.186	0.263
-508.770	-4.153	0.132	-0.091
-507.756	800.000	-0.033	-0.144
-506.741	-200.000	0.013	-0.319
-505.726	-92.196	-0.095	-0.027
-504.712	53.011	-0.100	-0.095
-503.697	3.019	-0.111	0.080
-502.683	251.787	-0.072	0.123
-501.668	299.427	-0.148	-0.272
-500.653	800.000	-0.136	0.400
-499.639	1.631	-0.030	0.021
-498.624	-139.446	0.477	0.051
-497.610	-4.196	-0.358	-0.247
-496.595	-200.000	-0.001	0.088
-495.581	-142.316	0.286	-0.028
-494.566	639.947	0.090	0.229
-493.551	28.912	0.244	0.206
-492.537	-61.956	-0.278	0.116
-491.522	800.000	0.094	-0.312
-490.508	-200.000	0.043	0.279
-489.493	413.180	-0.086	-0.182
-488.478	189.118	-0.087	0.131
-487.464	-88.295	-0.051	0.015
-486.449	147.066	-0.150	0.201
-485.435	118.797	-0.228	0.282
-484.420	-200.000	0.032	0.158
-483.405	58.844	0.247	-0.242
-482.391	206.312	-0.087	-0.135
-481.376	-23.524	0.248	-0.149
-480.362	108.811	-0.173	-0.207
-479.347	-200.000	0.011	0.173
-478.332	-200.000	0.243	-0.000
-477.318	-81.273	-0.347	0.114
-476.303	-200.000	0.029	-0.157
-475.289	-73.161	0.104	-0.038
-474.274	-97.684	-0.235	-0.061
-473.259	75.314	-0.158	-0.166
-472.245	73.272	-0.192	-0.201
-471.230	-200.000	0.013	0.245
-470.216	-200.000	0.005	0.138
-469.201	459.346	0.130	0.289
-468.186	800.000	0.060	-0.242
-467.172	-49.257	-0.248	-0.118
-466.157	-25.986	-0.141	0.083
-465.143	-109.810	-0.315	-0.066
-464.128	-85.172	0.289	0.090
-463.113	-60.530	0.075	-0.032
-462.099	450.897	0.059	0.129
-461.084	-4.152	0.094	-0.065
-460.070	-156.867	-0.218	-0.013
-459.055	-34.415	0.054	0.030
-458.040	-13.088	0.095	-0.062
-457.026	644.915	-0.072	-0.184
-456.011	377.013	0.101	0.206
-454.997	82.122	-0.073	-0.079
-453.982	-178.216	0.317	-0.007
-452.968	-78.356	0.294	-0.100
-451.953	729.511	-0.132	0.352
-450.938	-91.388	0.089	-0.025
-449.924	35.264	-0.293	-0.256
-448.909	172.602	0.214	-0.307
-447.895	19.682	0.231	0.185
-446.880	-200.000	-0.045	-0.279
-445.865	-84.166	-0.147	0.046
-444.851	71.436	-0.201	-0.208
-443.836	-87.087	-0.122	0.037
-442.822	144.267	0.258	-0.343
-441.807	453.678	-0.058	-0.128
-440.792	-200.000	0.023	0.249
-439.778	-200.000	0.012	-0.195
-438.763	24.420	-0.241	0.198
-437.749	-146.985	-0.170	0.015
-436.734	-25.795	0.226	0.133
-435.719	370.661	-0.039	0.079
-434.705	24.183	-0.259	0.213
-433.690	-200.000	-0.015	-0.198
-432.676	32.467	-0.097	-0.084
-431.661	800.000	0.012	-0.049
-430.646	40.293	0.057	-0.051
-429.632	299.140	-0.194	0.356
-428.617	170.072	-0.171	0.244
-427.603	-41.175	0.135	-0.070
-426.588	279.369	0.068	-0.121
-425.573	-191.754	0.214	-0.002
-424.559	-25.024	0.226	0.134
-423.544	-23.449	-0.135	0.081
-422.530	-113.409	-0.337	-0.066
-421.515	249.022	-0.073	0.123
-420.500	-67.290	-0.184	0.072
-419.486	800.000	-0.037	-0.137
-418.471	-15.388	0.257	0.164
-417.457	-107.948	0.066	0.014
-416.442	-35.617	-0.162	-0.087
-415.428	-96.710	0.172	0.045
-414.413	642.246	0.150	-0.380
-413.398	-200.000	0.036	-0.282
-412.384	7.743	-0.037	0.028
-411.369	-88.277	0.169	-0.050
-410.355	-71.717	0.303	-0.112
-409.340	-200.000	-0.043	-0.270
-408.325	-7.930	-0.285	-0.192
-407.311	-16.692	-0.191	0.121
-406.296	800.000	0.095	0.309
-405.282	30.201	0.376	0.319
-404.267	-61.391	-0.126	0.053
-403.252	-5.866	0.199	0.136
-402.238	-11.211	-0.288	0.189
-401.223	-138.215	-0.260	0.029
-400.209	52.077	0.207	-0.196
-399.194	127.821	0.158	0.200
-398.179	-52.940	-0.113	0.052
-397.165	106.230	-0.135	0.159
-396.150	-200.000	-0.020	-0.263
-395.136	-153.964	0.276	-0.019
-394.121	27.456	0.271	0.227
-393.106	714.359	0.043	0.112
-392.092	-200.000	0.012	-0.255
-391.077	99.975	0.105	0.121
-390.063	223.664	0.083	-0.133
-389.048	-200.000	0.011	-0.304
-388.033	-87.686	0.057	-0.017
-387.019	16.073	-0.536	0.420
-386.004	-40.619	0.276	0.142
-384.990	136.288	-0.158	0.204
-383.975	77.011	0.221	0.234
-382.960	-24.808	0.028	0.017
-381.946	-200.000	-0.002	0.039
-380.931	-200.000	0.023	-0.242
-379.917	-71.890	-0.171	0.063
-378.902	226.864	-0.066	-0.106
-377.888	-200.000	-0.014	0.113
-376.873	156.475	0.067	0.092
-375.858	-200.000	-0.001	0.345
-374.844	-161.178	0.054	0.003
-373.829	-200.000	-0.022	0.182
-372.815	213.529	0.215	-0.338
-371.800	800.000	-0.118	-0.452
-370.785	-115.743	-0.296	0.055
-369.771	-114.504	0.349	0.067
-368.756	46.003	0.331	-0.305
-367.742	800.000	-0.034	0.099
-366.727	-200.000	0.007	0.322
-365.712	800.000	-0.025	0.097
-364.698	75.425	-0.104	0.109
-363.683	-80.760	-0.204	-0.067
-362.669	69.275	-0.172	-0.176
-361.654	-200.000	-0.033	0.259
-360.639	800.000	-0.051	0.181
-359.625	-200.000	0.017	0.287
-358.610	800.000	-0.059	0.216
-357.596	-66.946	0.150	-0.059
-356.581	-32.395	0.079	0.044
-355.566	114.052	-0.142	-0.172
-354.552	-7.482	0.197	-0.132
-353.537	241.093	0.071	-0.117
-352.523	-200.000	0.005	0.321
-351.508	-6.309	0.287	-0.195
-350.493	-29.688	0.249	-0.141
-349.479	-127.914	-0.260	-0.037
-348.464	181.065	0.112	-0.163
-347.450	-200.000	0.010	-0.186
-346.435	183.316	0.167	0.246
-345.420	559.843	0.071	-0.170
-344.406	-200.000	-0.005	0.041
-343.391	-200.000	-0.004	0.271
-342.377	14.002	-0.026	0.020
-341.362	-200.000	-0.005	0.028
-340.348	-200.000	0.045	0.207
-339.333	-200.000	-0.008	-0.065
-338.318	-20.355	0.113	-0.069
-337.304	24.951	0.361	-0.297
-336.289	-30.530	-0.178	0.100
-335.275	-88.955	-0.185	0.055
-334.260	-200.000	0.001	-0.093
-333.245	-143.012	-0.137	-0.013
-332.231	-137.918	0.099	-0.011
-331.216	112.260	-0.200	-0.240
-330.202	37.480	0.047	0.042
-329.187	557.703	0.037	-0.088
-328.172	-200.000	-0.015	-0.249
-327.158	-92.937	-0.359	0.099
-326.143	130.637	-0.035	-0.044
-325.129	-163.566	0.207	0.010
-324.114	158.336	0.164	0.226
-323.099	-115.947	0.176	0.033
-322.085	-200.000	0.034	-0.360
-321.070	-200.000	-0.028	-0.282
-320.056	-115.880	-0.146	0.027
-319.041	-155.813	-0.263	-0.017
-318.026	562.369	0.074	0.177
-317.012	70.981	0.122	0.125
-315.997	-92.085	0.190	0.053
-314.983	800.000	-0.082	-0.341
-313.968	-45.605	-0.052	-0.026
-312.953	120.307	-0.060	0.073
-311.939	-30.726	0.344	-0.193
-310.924	-43.279	0.194	0.097
-309.910	-100.475	-0.384	0.094
-308.895	-200.000	-0.049	-0.443
-307.880	322.581	-0.099	0.187
-306.866	601.183	0.044	-0.107
-305.851	14.495	0.198	-0.154
-304.837	-64.590	0.225	-0.091
-303.822	-200.000	-0.007	-0.157
-302.807	-9.785	0.198	0.130
-301.793	130.285	0.091	0.116
-300.778	-35.540	0.216	0.116
-299.764	17.948	0.273	-0.216
-298.749	291.045	-0.145	-0.261
-297.735	292.538	-0.068	-0.122
-296.720	-44.513	-0.008	0.004
-295.705	-162.194	0.198	-0.010
-294.691	800.000	0.146	-0.414
-293.676	-166.137	-0.124	-0.005
-292.662	-98.988	-0.052	-0.013
-291.647	-94.879	0.203	0.055
-290.632	78.694	0.086	0.091
-289.618	-200.000	0.015	-0.321
-288.603	28.134	-0.215	0.180
-287.589	800.000	-0.077	-0.232
-286.574	196.757	0.016	-0.024
-285.559	-77.033	0.233	0.080
-284.545	-114.806	0.047	-0.009
-283.530	278.083	0.021	-0.038
-282.516	365.421	-0.024	0.048
-281.501	-75.919	-0.232	-0.081
-280.486	-200.000	-0.034	0.197
-279.472	-175.216	-0.205	0.006
-278.457	800.000	-0.052	-0.189
-277.443	488.557	-0.156	-0.354
-276.428	-90.429	0.291	0.084
-275.413	-78.462	-0.056	-0.019
-274.399	-122.959	-0.253	0.040
-273.384	800.000	-0.044	-0.158
-272.370	-200.000	-0.040	0.225
-271.355	800.000	0.041	-0.129
-270.340	-116.766	0.258	0.047
-269.326	-110.750	0.201	-0.041
-268.311	-200.000	0.047	0.281
-267.297	-44.876	-0.039	-0.019
-266.282	-200.000	0.003	0.055
-265.267	800.000	0.083	-0.231
-264.253	198.599	-0.034	-0.051
-263.238	44.169	-0.351	0.319
-262.224	-148.905	0.153	-0.012
-261.209	266.932	-0.081	-0.140
-260.195	739.964	0.019	0.051
-259.180	-200.000	0.019	-0.247
-258.165	-48.711	-0.190	-0.090
-257.151	260.379	0.193	-0.330
-256.136	-200.000	0.046	0.292
-255.122	-188.892	-0.410	-0.005
-254.107	33.036	0.217	0.186
-253.092	12.867	0.028	0.022
-252.078	137.218	-0.145	-0.188
-251.063	-100.988	0.388	0.094
-250.049	-80.085	-0.182	-0.060
-249.034	-107.130	-0.150	-0.033
-248.019	129.754	0.138	-0.175
-247.005	68.948	-0.078	-0.079
-245.990	800.000	0.029	0.125
-244.976	-200.000	0.009	0.227
-243.961	800.000	0.098	0.368
-242.946	800.000	0.037	-0.148
-241.932	-200.000	-0.010	-0.056
-240.917	49.944	-0.145	0.135
-239.903	293.644	0.213	0.385
-238.888	-67.798	-0.157	0.061
-237.873	368.223	0.075	-0.151
-236.859	106.932	0.058	0.068
-235.844	-200.000	0.023	-0.255
-234.830	6.228	0.174	-0.128
-233.815	-87.845	-0.427	-0.127
-232.800	-66.529	-0.091	-0.036
-231.786	327.406	0.035	-0.067
-230.771	-159.632	-0.274	-0.015
-229.757	-200.000	0.064	-0.000
-228.742	63.364	0.210	-0.208
-227.727	-16.652	0.269	-0.168
-226.713	800.000	-0.117	0.325
-225.698	41.581	0.227	0.203
-224.684	28.843	-0.144	-0.121
-223.669	66.978	-0.233	0.235
-222.655	-115.268	-0.051	0.009
-221.640	-130.356	0.183	-0.025
-220.625	800.000	0.027	0.083
-219.611	800.000	-0.087	0.263
-218.596	-200.000	0.021	-0.217
-217.582	-200.000	0.001	0.143
-216.567	-140.374	0.249	0.026
-215.552	-19.777	0.391	0.239
-214.538	800.000	0.072	0.294
-213.523	-28.330	0.200	-0.114
-212.509	-71.893	0.227	-0.084
-211.494	-200.000	-0.007	-0.233
-210.479	-200.000	0.015	0.155
-209.465	-200.000	-0.011	0.246
-208.450	284.283	0.081	-0.144
-207.436	237.017	0.183	-0.300
-206.421	800.000	0.058	-0.209
-205.406	-94.829	0.163	0.044
-204.392	-95.567	0.093	-0.025
-203.377	90.115	0.079	-0.087
-202.363	-65.647	0.232	-0.092
-201.348	236.297	0.083	-0.136
-200.333	-200.000	-0.016	0.081
-199.319	230.691	0.223	0.361
-198.304	-81.085	-0.414	-0.135
-197.290	325.072	0.103	-0.195
-196.275	-200.000	0.016	-0.396
-195.260	-14.232	-0.324	-0.206
-194.246	90.004	-0.210	0.231
-193.231	-200.000	0.002	-0.026
-192.217	-200.000	0.008	-0.251
-191.202	800.000	0.081	-0.225
-190.187	-200.000	0.029	0.156
-189.173	172.598	-0.151	-0.215
-188.158	124.974	-0.268	-0.333
-187.144	-14.588	0.248	0.157
-186.129	429.633	-0.049	0.105
-185.114	-40.452	-0.325	-0.166
-184.100	298.534	-0.058	-0.105
-183.085	134.833	0.243	0.311
-182.071	-181.780	0.221	-0.004
-181.056	-99.864	-0.057	-0.014
-180.042	800.000	-0.121	-0.371
-179.027	150.307	-0.048	-0.065
-178.012	800.000	-0.079	0.333
-176.998	-57.472	-0.378	0.164
-175.983	-113.158	0.313	0.061
-174.969	-200.000	0.031	0.362
-173.954	800.000	-0.023	0.083
-172.939	800.000	-0.040	-0.173
-171.925	96.390	-0.103	-0.117
-170.910	-198.286	0.146	0.001
-169.896	-115.576	-0.117	-0.022
-168.881	69.445	0.165	0.167
-167.866	-89.125	0.113	0.033
-166.852	-137.800	-0.182	-0.020
-165.837	800.000	0.029	0.106
-164.823	-195.186	-0.446	-0.003
-163.808	152.704	0.116	0.156
-162.793	195.951	0.153	0.230
-161.779	691.445	0.124	-0.319
-160.764	2.438	-0.194	-0.138
-159.750	118.367	-0.055	0.067
-158.735	545.650	-0.109	-0.256
-157.720	180.526	0.149	0.216
-156.706	-38.935	-0.517	0.268
-155.691	800.000	-0.081	0.244
-154.677	-121.143	-0.205	0.034
-153.662	800.000	-0.031	0.105
-152.647	-49.457	0.090	0.042
-151.633	-200.000	0.013	0.089
-150.618	-85.698	0.282	-0.086
-149.604	-113.575	-0.042	0.008
-148.589	-82.200	0.121	0.039
-147.574	244.535	-0.083	-0.138
-146.560	-74.735	-0.256	-0.091
-145.545	-59.391	0.221	0.094
-144.531	268.308	0.101	0.174
-143.516	-200.000	-0.035	0.239
-142.502	-4.889	0.501	-0.340
-141.487	800.000	-0.036	-0.113
-140.472	-56.393	0.356	-0.156
-139.458	800.000	0.057	0.202
-138.443	-200.000	-0.004	0.183
-137.429	-140.122	0.087	0.009
-136.414	166.288	-0.039	0.054
-135.399	456.557	-0.133	0.291
-134.385	-200.000	-0.039	-0.210
-133.370	-8.347	0.247	0.164
-132.356	800.000	-0.074	0.228
-131.341	-48.285	-0.160	-0.076
-130.326	95.791	-0.248	-0.279
-129.312	571.992	0.110	0.263
-128.297	299.200	-0.119	0.216
-127.283	6.289	0.206	0.151
-126.268	126.158	0.184	-0.229
-125.253	410.092	-0.231	0.481
-124.239	265.627	0.130	0.223
-123.224	84.474	-0.188	0.202
-122.210	-200.000	0.027	-0.161
-121.195	94.481	-0.217	-0.242
