DTS Sentinel unit serial number:	SN413079Multiplexer serial number:	ORYXHardware model number:	OX4-SRSoftware version number:	ORYX F/W v4.00 Oryx Data Collector v3.7.2.0data status	okinstallation	princeton_trtdifferential loss correction	single-endedforward channel	channel 2reverse channel	N/Adate	2019/09/14time	11:47:35forward acquisition time	60.00reverse acquisition time	0.00gamma	496.2192k internal	0.2310k external	0.2310temperature offset calibration	1.0152default loss term (dB/km)	0.3790temperature slope calibration	1.0000multiplexer offset coefficient	1.0000multiplexer slope coefficient	1.0000fibre end	0.00T internal ref (°C)	37.05T ext. ref 1 (°C)	4.62T ext. ref 2 (°C)	33.88length (m)	temperature (°C)	Stokes	anti-Stokes-747.200	800.000	-0.038	0.149
-746.185	800.000	-0.077	0.339
-745.171	-200.000	0.036	0.171
-744.156	104.145	0.193	0.231
-743.142	291.984	0.024	0.044
-742.127	192.502	0.202	0.310
-741.112	358.862	-0.150	0.305
-740.098	-200.000	0.080	0.357
-739.083	577.050	-0.195	-0.484
-738.069	189.868	0.158	0.240
-737.054	-200.000	0.034	0.303
-736.039	78.191	0.076	-0.082
-735.025	-147.076	0.274	0.024
-734.010	753.322	-0.168	-0.462
-732.996	-200.000	-0.001	-0.091
-731.981	103.472	-0.071	-0.085
-730.966	385.731	-0.037	0.078
-729.952	22.595	-0.138	0.115
-728.937	800.000	-0.099	-0.278
-727.923	-124.951	-0.185	-0.029
-726.908	-86.162	0.154	0.048
-725.894	800.000	0.067	-0.241
-724.879	-65.749	-0.364	0.148
-723.864	-146.511	0.034	0.003
-722.850	800.000	0.111	0.368
-721.835	57.234	0.096	-0.095
-720.821	-119.621	0.341	0.060
-719.806	514.083	-0.078	0.184
-718.791	555.741	-0.028	0.068
-717.777	18.800	-0.351	-0.285
-716.762	318.899	0.155	-0.298
-715.748	148.157	0.120	0.164
-714.733	-13.271	-0.238	0.157
-713.718	800.000	-0.055	-0.178
-712.704	134.371	0.174	0.229
-711.689	49.515	-0.124	0.118
-710.675	800.000	-0.087	-0.312
-709.660	-98.403	0.105	0.027
-708.645	-67.488	0.213	0.085
-707.631	-73.237	0.054	0.020
-706.616	541.445	-0.107	0.258
-705.602	-200.000	-0.020	-0.252
-704.587	113.226	-0.188	0.231
-703.572	722.643	0.059	-0.159
-702.558	-34.680	-0.551	-0.306
-701.543	-200.000	0.033	-0.341
-700.529	-200.000	-0.003	-0.053
-699.514	133.033	-0.123	0.162
-698.499	18.951	-0.210	0.171
-697.485	-10.494	-0.168	-0.113
-696.470	709.060	0.118	-0.316
-695.456	-132.200	-0.189	0.025
-694.441	-27.746	0.079	-0.047
-693.426	488.382	0.030	-0.068
-692.412	-31.477	-0.127	-0.073
-691.397	-62.591	0.138	0.058
-690.383	117.443	0.177	0.221
-689.368	100.891	-0.247	0.291
-688.354	86.855	0.104	-0.117
-687.339	-175.744	0.389	0.011
-686.324	138.131	-0.141	-0.187
-685.310	-140.626	0.095	0.010
-684.295	-200.000	-0.024	-0.393
-683.281	-32.870	0.085	0.048
-682.266	800.000	0.039	-0.126
-681.251	188.218	0.046	0.070
-680.237	-200.000	0.015	-0.070
-679.222	239.809	0.222	-0.375
-678.208	-200.000	-0.053	-0.340
-677.193	1.756	0.292	-0.213
-676.178	307.662	0.072	-0.135
-675.164	608.108	-0.043	0.108
-674.149	-103.217	-0.169	-0.040
-673.135	87.972	0.138	0.155
-672.120	800.000	0.035	0.108
-671.105	344.767	-0.079	-0.156
-670.091	-200.000	0.024	0.370
-669.076	1.738	0.309	0.225
-668.062	-97.382	0.162	0.043
-667.047	-87.734	0.017	0.005
-666.032	-200.000	0.008	0.131
-665.018	-57.889	-0.309	-0.137
-664.003	133.756	0.185	-0.243
-662.989	461.768	0.031	0.071
-661.974	120.569	-0.158	0.198
-660.959	169.838	-0.212	0.306
-659.945	59.344	0.092	0.091
-658.930	-200.000	0.025	0.228
-657.916	800.000	-0.125	0.460
-656.901	-200.000	0.035	0.240
-655.886	-200.000	0.005	0.060
-654.872	-67.032	0.298	0.119
-653.857	-95.384	-0.360	-0.098
-652.843	-35.087	-0.151	-0.083
-651.828	-84.493	0.037	0.012
-650.814	-196.933	0.036	-0.000
-649.799	-16.763	-0.187	0.120
-648.784	-158.196	-0.335	-0.020
-647.770	275.172	-0.079	0.141
-646.755	231.973	-0.025	-0.041
-645.741	-102.932	0.196	0.047
-644.726	-98.945	-0.198	-0.051
-643.711	-200.000	-0.022	-0.175
-642.697	74.277	0.110	-0.117
-641.682	41.304	-0.180	-0.164
-640.668	-20.063	0.186	-0.116
-639.653	130.780	0.129	0.167
-638.638	-200.000	0.018	0.101
-637.624	-97.560	-0.152	0.040
-636.609	-23.587	0.220	0.134
-635.595	79.886	-0.226	0.246
-634.580	108.723	-0.121	-0.146
-633.565	42.475	-0.231	0.212
-632.551	-1.780	0.242	-0.172
-631.536	94.779	0.104	0.120
-630.522	444.349	0.047	-0.103
-629.507	-141.331	-0.159	-0.016
-628.492	-66.743	0.120	-0.048
-627.478	55.806	-0.226	-0.221
-626.463	800.000	0.060	-0.186
-625.449	-82.091	0.256	-0.085
-624.434	-153.593	-0.167	-0.012
-623.419	-139.750	-0.256	-0.027
-622.405	-200.000	-0.020	-0.367
-621.390	122.078	-0.173	-0.218
-620.376	-116.823	-0.211	-0.039
-619.361	-63.149	-0.064	0.027
-618.346	-47.740	0.124	-0.061
-617.332	800.000	-0.076	0.227
-616.317	-200.000	0.042	0.210
-615.303	243.975	-0.056	-0.094
-614.288	800.000	-0.155	-0.469
-613.273	-101.243	0.173	0.043
-612.259	-76.559	0.208	0.074
-611.244	-58.594	0.436	-0.191
-610.230	-86.612	0.315	-0.098
-609.215	-54.015	-0.251	0.116
-608.201	133.650	-0.135	0.177
-607.186	800.000	0.035	-0.146
-606.171	-149.052	-0.069	-0.006
-605.157	-111.906	-0.292	-0.060
-604.142	112.745	0.241	0.294
-603.128	-56.053	-0.299	0.134
-602.113	242.970	0.074	-0.125
-601.098	-82.775	0.096	0.031
-600.084	-21.369	-0.061	-0.037
-599.069	9.045	0.290	-0.221
-598.055	-200.000	-0.054	-0.412
-597.040	347.680	-0.182	-0.361
-596.025	-99.844	-0.121	-0.030
-595.011	-2.912	-0.312	0.220
-593.996	-94.192	0.286	0.079
-592.982	-66.021	-0.167	-0.067
-591.967	659.663	-0.077	0.200
-590.952	64.122	-0.138	-0.140
-589.938	101.691	-0.083	0.098
-588.923	79.709	0.129	-0.139
-587.909	12.412	0.332	0.258
-586.894	17.701	-0.213	-0.171
-585.879	223.085	0.064	-0.104
-584.865	-77.499	-0.238	0.083
-583.850	-142.210	-0.047	-0.005
-582.836	91.526	0.105	-0.119
-581.821	-78.890	0.203	-0.070
-580.806	-47.635	0.231	-0.113
-579.792	-113.477	0.266	-0.053
-578.777	800.000	-0.044	-0.147
-577.763	137.530	-0.025	-0.033
-576.748	-200.000	-0.019	-0.205
-575.733	800.000	0.115	-0.348
-574.719	71.656	0.078	0.081
-573.704	-200.000	0.001	0.352
-572.690	800.000	0.053	-0.181
-571.675	-75.768	0.312	0.112
-570.661	1.915	-0.107	-0.078
-569.646	114.515	-0.094	-0.116
-568.631	-89.280	-0.149	0.044
-567.617	800.000	-0.216	-0.634
-566.602	-80.430	0.268	0.090
-565.588	800.000	0.127	0.539
-564.573	-27.255	-0.203	-0.119
-563.558	-81.294	-0.326	-0.108
-562.544	-95.526	0.175	0.047
-561.529	-131.732	-0.336	0.044
-560.515	7.174	-0.247	0.186
-559.500	-200.000	-0.025	-0.140
-558.485	50.915	0.072	0.069
-557.471	-58.454	-0.372	0.163
-556.456	800.000	-0.042	-0.140
-555.442	-200.000	0.024	-0.189
-554.427	-62.968	-0.110	0.046
-553.412	46.092	-0.157	-0.146
-552.398	-74.566	-0.135	-0.049
-551.383	-156.479	0.324	0.020
-550.369	-59.401	0.293	-0.127
-549.354	-75.999	-0.263	-0.094
-548.339	55.621	0.051	-0.050
-547.325	-96.114	-0.134	-0.036
-546.310	-163.541	-0.301	0.014
-545.296	-99.923	0.636	0.160
-544.281	-129.123	-0.160	0.023
-543.266	3.368	0.086	0.063
-542.252	175.554	0.055	-0.080
-541.237	-200.000	0.070	0.340
-540.223	-200.000	-0.041	0.358
-539.208	-151.143	-0.211	-0.016
-538.193	454.940	0.103	-0.229
-537.179	800.000	-0.148	0.429
-536.164	-200.000	-0.007	0.044
-535.150	-200.000	0.003	-0.026
-534.135	800.000	0.046	-0.159
-533.121	-53.752	-0.138	-0.063
-532.106	512.629	0.091	0.212
-531.091	106.855	-0.043	0.051
-530.077	45.931	0.173	0.162
-529.062	800.000	-0.068	0.282
-528.048	147.217	-0.091	-0.124
-527.033	232.475	0.278	0.459
-526.018	-132.351	-0.138	0.018
-525.004	-200.000	-0.004	0.050
-523.989	91.616	-0.254	-0.287
-522.975	-0.495	-0.139	0.099
-521.960	-124.889	0.225	0.035
-520.945	136.405	-0.308	-0.404
-519.931	341.325	-0.042	0.083
-518.916	182.743	-0.138	0.205
-517.902	784.796	-0.086	0.238
-516.887	800.000	-0.125	-0.390
-515.872	800.000	0.136	0.484
-514.858	-200.000	0.042	0.293
-513.843	-148.694	0.233	0.019
-512.829	-35.579	-0.158	-0.086
-511.814	800.000	0.053	-0.176
-510.799	-125.817	-0.221	0.034
-509.785	800.000	-0.034	-0.113
-508.770	-141.905	-0.383	0.038
-507.756	-124.151	-0.108	-0.017
-506.741	96.088	0.048	0.055
-505.726	78.487	0.182	0.196
-504.712	304.831	0.042	0.079
-503.697	2.603	0.169	0.123
-502.683	-200.000	-0.057	0.308
-501.668	347.428	-0.047	-0.092
-500.653	-200.000	-0.006	0.053
-499.639	143.588	0.033	0.044
-498.624	-75.899	0.273	0.097
-497.610	-200.000	0.029	0.285
-496.595	-200.000	-0.054	-0.341
-495.581	23.951	-0.160	-0.133
-494.566	-139.538	0.062	-0.007
-493.551	-27.825	-0.138	-0.081
-492.537	161.009	-0.200	-0.281
-491.522	53.156	0.175	0.169
-490.508	-200.000	-0.023	0.151
-489.493	328.493	-0.038	-0.074
-488.478	252.140	-0.123	-0.211
-487.464	-200.000	0.003	-0.129
-486.449	800.000	-0.015	0.062
-485.435	30.752	-0.286	0.246
-484.420	-58.517	0.419	0.183
-483.405	-106.131	-0.339	0.076
-482.391	66.043	0.219	0.223
-481.376	800.000	-0.068	0.193
-480.362	129.260	-0.246	-0.315
-479.347	4.849	-0.148	0.109
-478.332	-103.273	0.106	0.025
-477.318	354.835	0.104	0.209
-476.303	344.149	-0.085	-0.167
-475.289	250.259	-0.001	0.001
-474.274	-77.093	-0.312	-0.109
-473.259	208.602	-0.012	0.019
-472.245	64.220	-0.108	0.109
-471.230	106.432	-0.179	-0.213
-470.216	-40.532	0.097	-0.051
-469.201	800.000	0.094	-0.266
-468.186	-200.000	-0.065	-0.364
-467.172	96.453	0.068	-0.078
-466.157	-200.000	0.032	-0.150
-465.143	-45.326	-0.002	-0.001
-464.128	-200.000	-0.030	0.229
-463.113	56.528	-0.180	0.175
-462.099	435.622	-0.155	-0.338
-461.084	-48.428	-0.232	-0.112
-460.070	286.412	0.168	-0.305
-459.055	-137.080	0.330	-0.038
-458.040	505.948	-0.081	-0.188
-457.026	-48.763	0.342	0.165
-456.011	520.430	-0.084	0.197
-454.997	-200.000	-0.028	-0.269
-453.982	-125.525	-0.256	-0.039
-452.968	-123.881	0.641	-0.101
-451.953	-200.000	0.011	-0.220
-450.938	-136.353	-0.250	-0.029
-449.924	-200.000	0.016	-0.357
-448.909	-200.000	0.012	-0.256
-447.895	470.923	-0.109	0.247
-446.880	800.000	0.081	-0.279
-445.865	31.501	-0.186	-0.161
-444.851	111.197	-0.261	-0.316
-443.836	-200.000	0.021	0.127
-442.822	-83.969	0.407	0.130
-441.807	-200.000	0.023	0.126
-440.792	800.000	0.104	-0.330
-439.778	-61.788	0.203	-0.085
-438.763	-47.352	0.108	0.053
-437.749	60.222	0.304	-0.301
-436.734	800.000	-0.074	0.211
-435.719	800.000	-0.034	-0.108
-434.705	-200.000	-0.000	0.042
-433.690	361.609	-0.092	0.186
-432.676	51.431	0.152	-0.145
-431.661	438.131	-0.036	0.078
-430.646	-200.000	0.026	-0.246
-429.632	-75.405	0.203	0.073
-428.617	-67.547	-0.305	-0.120
-427.603	-200.000	-0.032	0.409
-426.588	35.415	-0.227	-0.200
-425.573	-34.572	0.083	-0.046
-424.559	-82.175	-0.142	0.046
-423.544	800.000	0.057	0.196
-422.530	-29.467	-0.312	-0.179
-421.515	482.475	0.122	-0.278
-420.500	800.000	0.006	-0.023
-419.486	-109.220	-0.190	0.041
-418.471	6.561	0.027	0.020
-417.457	6.942	-0.127	-0.095
-416.442	-200.000	0.002	0.145
-415.428	-200.000	0.035	0.361
-414.413	-150.825	-0.184	-0.014
-413.398	49.388	-0.150	-0.141
-412.384	-77.355	0.241	-0.084
-411.369	-59.594	0.273	0.117
-410.355	-36.161	0.142	-0.077
-409.340	-200.000	0.013	-0.095
-408.325	-121.198	0.176	0.029
-407.311	800.000	0.150	-0.458
-406.296	-143.353	-0.186	-0.018
-405.282	-114.880	-0.246	0.047
-404.267	-109.742	0.168	-0.035
-403.252	-200.000	0.013	0.064
-402.238	-200.000	0.009	-0.114
-401.223	-200.000	-0.051	0.365
-400.209	800.000	-0.047	-0.166
-399.194	-19.712	0.086	0.053
-398.179	-16.919	0.158	0.100
-397.165	-133.173	-0.370	-0.047
-396.150	413.421	0.097	0.207
-395.136	-200.000	-0.013	0.149
-394.121	-200.000	-0.020	-0.209
-393.106	-0.127	-0.146	-0.104
-392.092	-96.946	-0.251	-0.066
-391.077	-71.851	0.031	-0.012
-390.063	-36.101	-0.090	-0.049
-389.048	159.210	0.078	-0.109
-388.033	-88.034	0.272	-0.082
-387.019	110.391	-0.119	-0.143
-386.004	-121.438	-0.066	0.011
-384.990	107.527	-0.186	-0.222
-383.975	-141.742	0.508	-0.051
-382.960	20.393	-0.054	-0.044
-381.946	-110.238	-0.231	0.048
-380.931	-200.000	0.001	0.079
-379.917	-200.000	0.055	-0.308
-378.902	-67.967	-0.042	0.016
-377.888	-70.283	-0.218	0.083
-376.873	-200.000	0.001	-0.182
-375.858	230.880	0.056	-0.092
-374.844	98.594	0.124	0.143
-373.829	9.591	-0.223	0.169
-372.815	-87.280	-0.352	-0.107
-371.800	-200.000	-0.006	0.039
-370.785	-171.410	-0.180	-0.006
-369.771	79.193	0.183	0.196
-368.756	89.144	0.140	-0.157
-367.742	-200.000	-0.002	0.290
-366.727	27.723	0.151	0.128
-365.712	59.670	-0.288	0.285
-364.698	96.500	0.115	-0.132
-363.683	80.870	-0.078	-0.084
-362.669	408.971	-0.017	0.036
-361.654	800.000	0.054	-0.226
-360.639	800.000	0.089	-0.351
-359.625	550.956	-0.054	0.129
-358.610	-7.331	0.170	0.115
-357.596	102.304	0.077	-0.090
-356.581	-134.006	0.441	0.055
-355.566	800.000	-0.039	0.130
-354.552	-85.065	-0.086	0.027
-353.537	281.891	0.067	-0.120
-352.523	99.977	0.094	0.108
-351.508	332.112	-0.069	0.133
-350.493	-140.351	0.293	-0.031
-349.479	-49.968	-0.067	0.032
-348.464	-7.922	0.075	0.051
-347.450	-95.397	0.217	0.058
-346.435	-55.597	0.062	-0.028
-345.420	-53.114	-0.245	-0.112
-344.406	444.410	-0.097	-0.212
-343.391	59.039	-0.382	-0.376
-342.377	-80.319	0.195	0.065
-341.362	-122.428	-0.296	0.048
-340.348	-180.405	0.197	-0.004
-339.333	-64.607	-0.239	-0.097
-338.318	342.898	-0.061	-0.119
-337.304	372.115	0.240	-0.486
-336.289	-93.951	-0.175	0.048
-335.275	42.581	0.192	0.174
-334.260	-200.000	-0.029	-0.152
-333.245	3.979	-0.334	-0.244
-332.231	800.000	0.105	0.355
-331.216	-24.965	0.418	-0.248
-330.202	-20.616	-0.134	-0.082
-329.187	-33.702	0.547	0.302
-328.172	70.768	0.115	-0.119
-327.158	-119.185	-0.137	-0.024
-326.143	800.000	-0.020	0.061
-325.129	800.000	-0.103	-0.321
-324.114	-97.986	0.266	-0.068
-323.099	60.712	0.147	0.146
-322.085	-149.091	-0.216	-0.017
-321.070	800.000	0.093	0.320
-320.056	381.221	-0.139	0.286
-319.041	-200.000	-0.014	-0.151
-318.026	-92.313	0.294	0.083
-317.012	642.067	0.135	-0.342
-315.997	-145.632	0.211	0.019
-314.983	-97.437	0.271	0.070
-313.968	-54.016	-0.111	0.051
-312.953	-90.109	-0.044	-0.013
-311.939	-135.394	-0.375	-0.045
-310.924	-200.000	0.005	0.136
-309.910	-200.000	0.014	0.179
-308.895	-87.676	0.034	0.010
-307.880	-200.000	-0.015	0.260
-306.866	-9.248	0.216	-0.144
-305.851	106.589	0.223	-0.264
-304.837	-200.000	-0.059	-0.349
-303.822	-200.000	0.002	0.157
-302.807	-53.054	-0.150	0.069
-301.793	-110.506	-0.106	-0.022
-300.778	-58.901	0.402	-0.173
-299.764	-96.250	-0.177	0.047
-298.749	686.974	-0.051	-0.134
-297.735	-114.787	-0.182	-0.035
-296.720	107.742	0.368	-0.438
-295.705	-62.590	0.414	0.172
-294.691	800.000	-0.043	0.184
-293.676	-119.902	-0.259	0.044
-292.662	-200.000	-0.076	0.395
-291.647	800.000	-0.015	0.041
-290.632	-77.378	-0.283	-0.098
-289.618	93.319	-0.209	0.236
-288.603	113.938	-0.095	-0.115
-287.589	-56.616	-0.305	0.135
-286.574	223.320	-0.082	0.131
-285.559	-54.172	-0.222	-0.101
-284.545	19.237	0.363	-0.291
-283.530	149.319	0.084	-0.114
-282.516	249.410	0.085	0.145
-281.501	-200.000	0.043	-0.195
-280.486	-88.957	0.097	-0.029
-279.472	-128.266	0.177	0.025
-278.457	78.426	0.076	0.080
-277.443	800.000	0.064	0.200
-276.428	113.660	-0.319	0.386
-275.413	30.472	-0.112	0.096
-274.399	163.379	0.017	-0.023
-273.384	92.720	0.201	0.227
-272.370	-136.631	0.106	-0.012
-271.355	12.008	-0.093	0.071
-270.340	-26.728	0.081	-0.047
-269.326	-12.282	0.435	0.283
-268.311	-149.088	-0.058	-0.005
-267.297	-130.274	0.092	0.013
-266.282	-200.000	-0.015	0.156
-265.267	551.363	0.182	0.434
-264.253	-200.000	0.004	0.334
-263.238	-91.270	-0.368	-0.105
-262.224	-133.811	0.202	0.025
-261.209	-144.867	-0.214	-0.020
-260.195	-200.000	0.045	0.266
-259.180	193.996	0.160	-0.241
-258.165	-146.162	-0.117	-0.010
-257.151	10.665	-0.319	0.243
-256.136	162.154	-0.091	0.127
-255.122	-200.000	-0.077	-0.386
-254.107	-131.654	0.265	0.035
-253.092	800.000	-0.021	0.081
-252.078	361.087	-0.113	-0.225
-251.063	25.754	-0.048	0.040
-250.049	635.858	0.202	-0.511
-249.034	-200.000	0.048	0.241
-248.019	451.983	-0.051	0.111
-247.005	-24.342	0.236	0.140
-245.990	-67.091	0.375	0.147
-244.976	256.401	-0.132	-0.225
-243.961	-86.006	-0.121	0.037
-242.946	-200.000	0.053	-0.347
-241.932	291.644	0.137	0.248
-240.917	-166.224	0.082	0.003
-239.903	66.049	-0.025	-0.025
-238.888	-200.000	-0.012	0.132
-237.873	543.028	0.068	0.162
-236.859	568.406	-0.103	0.249
-235.844	-200.000	0.028	-0.286
-234.830	-200.000	-0.010	0.445
-233.815	-83.732	0.286	-0.091
-232.800	58.117	0.086	-0.084
-231.786	424.009	0.020	-0.044
-230.771	-111.406	-0.174	-0.035
-229.757	-63.793	0.054	0.022
-228.742	158.368	0.143	0.198
-227.727	800.000	0.010	-0.036
-226.713	199.469	0.140	-0.213
-225.698	-31.908	-0.204	0.114
-224.684	-71.392	-0.113	0.042
-223.669	-200.000	-0.001	-0.097
-222.655	-13.712	0.259	-0.167
-221.640	-32.481	-0.171	0.095
-220.625	-200.000	0.013	0.095
-219.611	-31.105	-0.056	0.031
-218.596	59.064	0.173	0.169
-217.582	-200.000	0.021	0.240
-216.567	-200.000	-0.043	-0.260
-215.552	-84.279	0.247	0.078
-214.538	733.359	-0.130	-0.347
-213.523	-200.000	-0.014	0.118
-212.509	-120.951	0.187	0.031
-211.494	-200.000	-0.026	0.382
-210.479	19.577	0.203	0.162
-209.465	11.325	0.277	0.211
-208.450	-36.351	0.181	0.097
-207.436	397.580	-0.081	0.169
-206.421	-111.488	0.124	-0.025
-205.406	-148.890	0.113	-0.009
-204.392	800.000	-0.047	-0.200
-203.377	56.743	-0.208	0.202
-202.363	68.935	-0.219	-0.224
-201.348	740.389	0.147	-0.393
-200.333	-98.660	-0.100	0.025
-199.319	800.000	0.067	-0.216
-198.304	-81.903	0.011	0.003
-197.290	43.687	-0.282	0.257
-196.275	70.770	-0.155	0.159
-195.260	255.987	-0.121	0.207
-194.246	800.000	-0.051	0.149
-193.231	200.715	0.139	-0.212
-192.217	800.000	0.002	-0.005
-191.202	211.390	0.076	0.118
-190.187	800.000	-0.063	0.216
-189.173	45.826	0.084	0.077
-188.158	-66.339	-0.238	-0.094
-187.144	102.660	-0.132	0.154
-186.129	-200.000	-0.292	0.001
-185.114	-36.426	-0.293	0.157
-184.100	-200.000	0.036	0.318
-183.085	-108.512	-0.213	-0.046
-182.071	12.529	0.315	-0.242
-181.056	-81.278	0.257	-0.084
-180.042	52.797	-0.217	-0.206
-179.027	595.363	0.035	0.087
-178.012	296.894	0.245	0.447
-176.998	-7.759	0.056	-0.037
-175.983	-57.244	-0.333	-0.146
-174.969	-200.000	-0.038	0.259
-173.954	800.000	0.020	-0.077
-172.939	365.825	0.073	0.146
-171.925	37.971	-0.281	-0.248
-170.910	-200.000	-0.012	0.269
-169.896	-40.617	0.159	-0.082
-168.881	15.871	-0.161	0.126
-167.866	20.947	-0.147	0.119
-166.852	-200.000	0.079	0.362
-165.837	87.478	0.197	0.217
-164.823	-54.815	-0.116	0.052
-163.808	-99.050	-0.085	0.021
-162.793	-58.426	0.218	0.094
-161.779	-133.738	0.026	0.003
-160.764	329.540	-0.075	-0.143
-159.750	800.000	0.043	-0.162
-158.735	-137.187	0.299	-0.034
-157.720	-60.631	0.497	0.209
-156.706	-200.000	-0.047	0.238
-155.691	-82.234	0.498	-0.161
-154.677	383.647	-0.085	0.174
-153.662	800.000	-0.060	0.239
-152.647	-50.534	0.283	-0.132
-151.633	66.972	0.159	-0.160
-150.618	-140.712	-0.391	-0.040
-149.604	-200.000	0.018	0.250
-148.589	-152.238	-0.220	-0.016
-147.574	-200.000	0.013	0.139
-146.560	-44.313	-0.104	-0.052
-145.545	-117.367	0.164	0.030
-144.531	273.379	0.142	0.249
-143.516	-60.499	0.127	-0.054
-142.502	-200.000	-0.043	-0.251
-141.487	-56.397	-0.370	-0.163
-140.472	-82.269	-0.215	0.070
-139.458	-200.000	0.037	0.318
-138.443	-200.000	0.005	0.055
-137.429	444.641	-0.141	-0.308
-136.414	-200.000	0.044	-0.224
-135.399	178.877	0.172	-0.249
-134.385	126.321	-0.074	-0.093
-133.370	450.847	0.108	0.237
-132.356	17.764	-0.294	-0.232
-131.341	-200.000	0.022	0.189
-130.326	-200.000	0.009	-0.144
-129.312	-78.077	-0.100	0.034
-128.297	800.000	-0.095	0.269
-127.283	506.596	0.105	0.242
-126.268	15.291	0.111	0.086
-125.253	25.203	-0.144	0.119
-124.239	-200.000	0.012	-0.220
-123.224	-200.000	-0.027	-0.241
-122.210	-50.527	0.264	0.124
-121.195	-122.767	-0.056	0.009
