DTS Sentinel unit serial number:	SN413079Multiplexer serial number:	ORYXHardware model number:	OX4-SRSoftware version number:	ORYX F/W v4.00 Oryx Data Collector v3.7.2.0data status	okinstallation	princeton_trtdifferential loss correction	single-endedforward channel	channel 2reverse channel	N/Adate	2019/09/18time	20:55:35forward acquisition time	60.00reverse acquisition time	0.00gamma	496.2192k internal	0.2341k external	0.2341temperature offset calibration	1.0037default loss term (dB/km)	0.3790temperature slope calibration	1.0000multiplexer offset coefficient	1.0000multiplexer slope coefficient	1.0000fibre end	0.00T internal ref (°C)	26.78T ext. ref 1 (°C)	1.06T ext. ref 2 (°C)	18.16length (m)	temperature (°C)	Stokes	anti-Stokes-747.200	4.691	-0.092	-0.068
-746.185	-123.245	0.135	0.022
-745.171	72.009	0.298	-0.311
-744.156	-73.646	-0.051	-0.019
-743.142	293.291	0.063	0.116
-742.127	71.228	-0.242	0.251
-741.112	-200.000	-0.012	-0.196
-740.098	-200.000	-0.069	0.396
-739.083	-152.671	0.260	0.019
-738.069	-152.723	-0.309	0.022
-737.054	-200.000	-0.030	0.136
-736.039	100.971	-0.042	-0.049
-735.025	180.427	-0.225	-0.330
-734.010	-97.664	-0.324	0.084
-732.996	5.283	0.200	-0.147
-731.981	314.418	-0.026	0.049
-730.966	-36.810	0.154	0.083
-729.952	-200.000	-0.001	-0.067
-728.937	-200.000	-0.103	-0.592
-727.923	-200.000	-0.025	-0.334
-726.908	-126.971	0.348	0.051
-725.894	-200.000	0.050	-0.242
-724.879	-200.000	-0.034	-0.202
-723.864	-6.242	-0.214	-0.147
-722.850	8.538	0.199	-0.150
-721.835	-178.402	-0.148	0.003
-720.821	126.244	-0.099	-0.126
-719.806	290.141	0.109	-0.198
-718.791	-110.433	-0.345	-0.072
-717.777	282.414	-0.133	-0.239
-716.762	-97.119	-0.218	0.057
-715.748	-116.865	-0.503	0.092
-714.733	298.242	0.152	-0.280
-713.718	267.582	-0.212	0.371
-712.704	557.073	-0.090	-0.218
-711.689	38.878	-0.136	0.121
-710.675	800.000	0.107	-0.440
-709.660	-52.608	0.357	0.165
-708.645	-200.000	-0.001	-0.023
-707.631	-101.464	-0.220	0.054
-706.616	93.293	-0.214	-0.242
-705.602	-182.193	0.148	-0.003
-704.587	-147.823	0.175	-0.015
-703.572	-38.869	0.152	0.080
-702.558	-72.670	-0.084	-0.031
-701.543	-200.000	0.042	-0.309
-700.529	72.065	0.077	0.080
-699.514	-200.000	-0.041	-0.395
-698.499	-200.000	0.075	-0.722
-697.485	-200.000	-0.000	0.102
-696.470	-91.903	-0.335	0.095
-695.456	46.868	0.188	-0.175
-694.441	46.005	-0.214	-0.199
-693.426	6.740	0.187	-0.139
-692.412	-92.385	-0.249	-0.070
-691.397	-37.621	-0.153	-0.082
-690.383	-200.000	0.002	-0.069
-689.368	-50.177	-0.065	0.031
-688.354	-185.892	-0.548	-0.008
-687.339	467.370	-0.119	0.267
-686.324	260.906	-0.132	0.228
-685.310	-91.278	-0.091	0.026
-684.295	-93.139	-0.135	0.038
-683.281	-99.805	0.262	0.066
-682.266	-47.875	-0.156	-0.075
-681.251	86.553	-0.278	-0.307
-680.237	-116.401	-0.257	0.047
-679.222	-200.000	0.015	-0.125
-678.208	-104.155	0.263	-0.061
-677.193	-137.320	0.064	-0.007
-676.178	82.910	-0.391	0.425
-675.164	800.000	-0.045	0.157
-674.149	-80.691	-0.158	0.052
-673.135	-44.779	0.159	0.079
-672.120	-58.927	-0.126	0.055
-671.105	-103.268	-0.263	0.062
-670.091	428.369	0.002	-0.005
-669.076	132.356	0.022	0.028
-668.062	129.604	-0.190	0.243
-667.047	288.803	-0.080	0.144
-666.032	273.825	0.056	-0.098
-665.018	-55.204	0.350	-0.157
-664.003	61.088	0.069	-0.069
-662.989	490.651	-0.067	-0.153
-661.974	93.126	0.146	-0.165
-660.959	316.682	0.070	0.132
-659.945	-103.649	-0.186	0.044
-658.930	-16.223	0.153	-0.097
-657.916	-2.713	0.065	0.045
-656.901	800.000	0.073	0.302
-655.886	-3.593	0.063	-0.044
-654.872	432.063	-0.071	-0.154
-653.857	-8.156	-0.364	-0.245
-652.843	25.158	0.244	0.202
-651.828	-60.217	0.339	-0.144
-650.814	-200.000	-0.052	0.416
-649.799	-5.678	-0.198	0.135
-648.784	198.964	-0.150	0.229
-647.770	25.391	-0.156	-0.129
-646.755	-115.953	0.100	-0.019
-645.741	800.000	-0.123	0.347
-644.726	183.832	-0.028	0.042
-643.711	-179.709	-0.034	-0.001
-642.697	-2.265	-0.102	-0.072
-641.682	-113.736	-0.091	-0.018
-640.668	41.089	0.104	-0.094
-639.653	411.795	-0.165	-0.349
-638.638	-200.000	-0.015	0.150
-637.624	-140.365	-0.137	0.014
-636.609	-75.635	0.187	-0.066
-635.595	-139.688	0.248	-0.026
-634.580	-200.000	-0.002	-0.154
-633.565	-135.596	0.310	-0.037
-632.551	18.745	-0.080	-0.064
-631.536	-128.942	0.333	-0.047
-630.522	-32.201	-0.264	0.147
-629.507	736.896	0.090	0.241
-628.492	105.700	0.080	0.095
-627.478	-23.634	0.184	0.110
-626.463	-200.000	-0.003	0.091
-625.449	184.579	0.048	0.070
-624.434	72.534	0.147	-0.153
-623.419	-176.399	0.012	0.000
-622.405	-200.000	0.057	-0.304
-621.390	167.516	-0.025	0.035
-620.376	-200.000	-0.011	0.204
-619.361	23.456	-0.279	0.229
-618.346	14.418	-0.091	0.071
-617.332	333.689	-0.059	0.114
-616.317	86.999	0.199	0.220
-615.303	81.823	0.025	-0.027
-614.288	-8.015	0.109	0.073
-613.273	36.170	0.268	0.235
-612.259	-65.000	0.318	0.128
-611.244	152.634	-0.119	0.162
-610.230	-149.357	0.055	-0.004
-609.215	6.715	-0.267	0.198
-608.201	14.605	0.247	-0.193
-607.186	246.566	0.251	-0.422
-606.171	30.159	-0.083	0.071
-605.157	800.000	-0.080	0.244
-604.142	328.600	0.080	-0.153
-603.128	800.000	0.056	-0.227
-602.113	-44.374	0.121	-0.060
-601.098	-93.706	0.049	0.013
-600.084	103.644	-0.116	-0.135
-599.069	419.938	0.221	-0.471
-598.055	800.000	0.017	0.073
-597.040	800.000	0.045	0.177
-596.025	-86.530	-0.195	0.060
-595.011	-102.504	-0.021	-0.005
-593.996	-10.897	0.228	0.150
-592.982	542.470	-0.134	-0.318
-591.967	-185.128	0.178	-0.003
-590.952	23.135	-0.201	0.164
-589.938	-89.875	0.390	0.113
-588.923	-200.000	0.023	0.247
-587.909	469.195	0.069	-0.154
-586.894	371.513	-0.191	-0.386
-585.879	-37.580	0.219	-0.116
-584.865	-9.125	0.323	-0.215
-583.850	-80.324	0.185	-0.061
-582.836	190.529	0.187	0.280
-581.821	-200.000	-0.010	0.076
-580.806	-54.746	-0.197	0.089
-579.792	-200.000	0.002	-0.061
-578.777	-200.000	-0.086	0.411
-577.763	-200.000	-0.025	0.142
-576.748	318.279	0.141	-0.267
-575.733	-76.982	0.232	-0.081
-574.719	26.404	0.121	-0.101
-573.704	-48.251	-0.078	-0.038
-572.690	-87.949	-0.054	-0.016
-571.675	-160.830	0.320	-0.017
-570.661	-65.448	-0.265	-0.106
-569.646	-54.932	0.185	0.083
-568.631	49.048	0.150	-0.140
-567.617	-200.000	0.003	0.156
-566.602	-176.746	0.392	0.010
-565.588	800.000	-0.047	0.175
-564.573	289.249	-0.047	-0.084
-563.558	24.053	0.212	-0.174
-562.544	-140.684	-0.251	-0.026
-561.529	511.884	0.057	-0.132
-560.515	-59.259	0.096	0.041
-559.500	-126.018	-0.103	-0.015
-558.485	-134.910	-0.308	-0.037
-557.471	0.609	-0.166	0.118
-556.456	14.313	-0.162	0.126
-555.442	22.468	0.307	-0.250
-554.427	-79.709	-0.518	-0.174
-553.412	169.128	-0.154	0.219
-552.398	-111.105	-0.138	0.028
-551.383	-200.000	0.021	0.167
-550.369	-200.000	-0.057	-0.343
-549.354	-72.744	0.256	-0.094
-548.339	-200.000	0.051	0.430
-547.325	-32.177	0.278	0.154
-546.310	32.604	0.221	0.190
-545.296	64.756	0.024	0.024
-544.281	-200.000	0.000	-0.128
-543.266	800.000	0.052	-0.212
-542.252	800.000	-0.096	-0.321
-541.237	-64.367	0.228	-0.092
-540.223	-148.973	0.335	0.027
-539.208	-125.384	0.082	0.012
-538.193	101.632	0.162	-0.187
-537.179	-70.656	0.217	-0.082
-536.164	800.000	-0.043	0.183
-535.150	128.627	-0.097	0.123
-534.135	461.834	-0.156	0.346
-533.121	800.000	0.056	-0.168
-532.106	-106.344	-0.170	0.038
-531.091	-134.053	0.134	0.017
-530.077	356.087	-0.104	-0.205
-529.062	-200.000	-0.013	-0.212
-528.048	-200.000	0.031	0.149
-527.033	-100.345	0.150	-0.037
-526.018	-101.737	0.142	0.034
-525.004	45.030	0.227	0.207
-523.989	116.493	0.158	-0.192
-522.975	74.244	0.258	0.269
-521.960	-200.000	0.012	-0.116
-520.945	-166.477	-0.305	0.013
-519.931	91.138	-0.127	-0.142
-518.916	486.367	-0.082	0.186
-517.902	142.641	-0.091	-0.120
-516.887	196.151	0.043	-0.065
-515.872	-200.000	0.013	0.386
-514.858	-200.000	0.008	0.181
-513.843	-200.000	-0.019	-0.089
-512.829	-23.594	-0.333	-0.198
-511.814	-53.822	-0.292	-0.132
-510.799	-200.000	-0.126	-0.000
-509.785	165.464	0.231	0.324
-508.770	-200.000	-0.029	-0.142
-507.756	-153.466	-0.231	0.016
-506.741	-200.000	-0.034	0.245
-505.726	-81.725	0.330	0.108
-504.712	-200.000	-0.028	-0.167
-503.697	209.911	0.075	0.117
-502.683	80.304	0.071	-0.076
-501.668	115.494	0.126	-0.153
-500.653	234.175	-0.246	0.402
-499.639	800.000	-0.099	-0.308
-498.624	-146.296	-0.335	-0.029
-497.610	-54.719	-0.059	0.027
-496.595	711.648	0.142	0.372
-495.581	-179.441	-0.122	-0.003
-494.566	230.171	-0.020	0.033
-493.551	99.896	-0.229	0.264
-492.537	-57.893	0.263	-0.114
-491.522	-40.653	0.161	0.083
-490.508	154.560	-0.143	-0.195
-489.493	708.872	0.089	-0.234
-488.478	122.062	-0.141	-0.175
-487.464	-111.642	-0.363	0.073
-486.449	-99.187	-0.316	0.079
-485.435	-200.000	0.022	-0.202
-484.420	-200.000	0.040	-0.236
-483.405	-178.379	0.346	-0.008
-482.391	-200.000	0.013	0.554
-481.376	-200.000	-0.011	0.287
-480.362	-200.000	0.011	-0.065
-479.347	-200.000	-0.031	-0.144
-478.332	-143.212	0.226	-0.022
-477.318	207.361	-0.039	-0.061
-476.303	-200.000	0.010	0.181
-475.289	174.767	-0.093	-0.133
-474.274	53.606	-0.103	-0.098
-473.259	-83.786	-0.366	0.116
-472.245	-37.682	0.205	0.108
-471.230	-200.000	0.011	-0.081
-470.216	35.915	0.077	-0.067
-469.201	58.831	-0.170	-0.166
-468.186	-60.504	0.086	0.036
-467.172	94.834	0.101	0.114
-466.157	94.352	-0.207	-0.233
-465.143	-151.045	0.248	-0.019
-464.128	116.996	-0.066	0.080
-463.113	68.268	-0.085	0.087
-462.099	-98.066	-0.181	-0.046
-461.084	285.203	0.110	0.196
-460.070	285.032	-0.157	0.281
-459.055	-131.187	-0.055	-0.007
-458.040	-139.776	0.372	-0.039
-457.026	-118.412	-0.337	0.059
-456.011	73.381	0.062	0.065
-454.997	201.573	0.103	-0.157
-453.982	261.983	-0.019	0.033
-452.968	253.668	0.044	-0.075
-451.953	-162.970	0.147	-0.007
-450.938	-123.106	-0.057	0.009
-449.924	-200.000	0.029	0.197
-448.909	-85.810	0.155	0.048
-447.895	-167.878	0.204	-0.008
-446.880	46.919	0.202	0.186
-445.865	-19.122	0.081	-0.050
-444.851	314.330	-0.106	0.198
-443.836	-25.136	-0.172	-0.101
-442.822	437.103	0.047	-0.102
-441.807	-200.000	0.006	0.274
-440.792	1.733	0.123	-0.087
-439.778	119.132	-0.079	0.096
-438.763	-146.053	-0.173	-0.015
-437.749	333.586	-0.043	-0.083
-436.734	290.880	-0.155	-0.278
-435.719	43.264	0.392	0.355
-434.705	140.980	0.138	-0.181
-433.690	299.015	0.167	0.305
-432.676	-200.000	-0.053	-0.296
-431.661	204.554	0.141	-0.217
-430.646	112.364	-0.276	-0.331
-429.632	166.636	-0.033	-0.047
-428.617	-159.960	0.343	0.019
-427.603	95.596	0.150	-0.170
-426.588	-83.056	0.144	0.046
-425.573	46.873	-0.101	-0.093
-424.559	206.502	0.154	-0.238
-423.544	72.012	-0.221	-0.228
-422.530	-200.000	0.005	0.221
-421.515	800.000	0.098	0.276
-420.500	-200.000	0.036	-0.371
-419.486	-62.963	0.209	-0.086
-418.471	752.620	0.062	0.166
-417.457	41.166	0.251	0.225
-416.442	57.156	0.301	-0.290
-415.428	-8.567	-0.234	0.155
-414.413	-77.711	-0.175	-0.060
-413.398	-200.000	0.001	0.054
-412.384	-116.578	0.305	0.056
-411.369	800.000	0.060	0.222
-410.355	-200.000	-0.091	-0.469
-409.340	-115.175	-0.224	0.042
-408.325	-27.775	-0.061	-0.035
-407.311	-200.000	0.031	-0.365
-406.296	80.580	0.225	0.239
-405.282	800.000	-0.116	-0.375
-404.267	75.360	-0.173	-0.181
-403.252	-200.000	-0.009	-0.253
-402.238	800.000	0.106	-0.320
-401.223	226.884	-0.067	-0.107
-400.209	45.752	-0.197	0.180
-399.194	-200.000	0.033	-0.157
-398.179	-5.669	-0.325	-0.220
-397.165	-34.970	-0.319	0.172
-396.150	59.374	-0.155	0.151
-395.136	-1.604	0.161	0.112
-394.121	-63.539	-0.222	0.090
-393.106	-48.945	-0.120	-0.057
-392.092	70.053	0.171	-0.174
-391.077	-184.023	0.051	-0.001
-390.063	-187.375	0.032	-0.000
-389.048	215.856	-0.138	0.217
-388.033	-7.706	-0.159	0.106
-387.019	36.960	0.093	-0.082
-386.004	-7.710	0.152	-0.102
-384.990	800.000	0.072	-0.289
-383.975	-82.156	0.091	0.029
-382.960	-107.770	0.116	-0.025
-381.946	-200.000	0.068	-0.350
-380.931	91.786	-0.175	0.194
-379.917	-200.000	-0.032	-0.191
-378.902	441.815	0.114	0.246
-377.888	-31.970	-0.293	0.162
-376.873	-200.000	-0.001	0.052
-375.858	-183.834	-0.372	-0.006
-374.844	99.558	0.098	-0.112
-373.829	-5.258	-0.071	0.048
-372.815	150.650	0.084	0.113
-371.800	159.113	0.102	-0.140
-370.785	-59.906	-0.149	-0.063
-369.771	-98.311	0.056	-0.014
-368.756	-105.338	-0.035	0.008
-367.742	-103.981	-0.088	0.020
-366.727	-152.373	-0.191	-0.014
-365.712	310.328	-0.151	-0.280
-364.698	-125.476	-0.224	0.034
-363.683	-91.423	0.416	-0.117
-362.669	-200.000	-0.002	-0.124
-361.654	249.588	-0.208	0.349
-360.639	-147.929	0.090	-0.007
-359.625	-29.977	0.208	-0.117
-358.610	-200.000	0.002	-0.422
-357.596	-200.000	-0.005	-0.119
-356.581	132.998	-0.129	0.164
-355.566	26.808	0.181	-0.149
-354.552	-110.945	-0.319	0.065
-353.537	48.686	-0.142	0.131
-352.523	800.000	0.055	0.195
-351.508	-43.386	0.249	-0.124
-350.493	33.014	0.053	-0.046
-349.479	297.179	-0.114	0.207
-348.464	105.778	0.015	-0.017
-347.450	800.000	0.025	0.068
-346.435	-105.546	0.104	0.023
-345.420	-21.381	-0.085	-0.051
-344.406	-117.741	-0.103	-0.018
-343.391	26.557	-0.318	0.262
-342.377	800.000	-0.033	-0.106
-341.362	516.795	-0.107	-0.246
-340.348	-37.495	0.344	0.181
-339.333	123.081	-0.116	-0.144
-338.318	-200.000	-0.027	-0.126
-337.304	215.262	0.233	0.364
-336.289	-92.728	0.009	0.003
-335.275	126.431	-0.122	-0.153
-334.260	-163.088	-0.297	0.014
-333.245	38.170	0.249	0.219
-332.231	140.549	0.140	0.182
-331.216	-200.000	0.022	-0.249
-330.202	-14.209	-0.165	0.105
-329.187	-200.000	0.001	0.180
-328.172	13.272	-0.220	-0.168
-327.158	53.006	0.004	0.004
-326.143	-83.026	-0.288	-0.091
-325.129	-22.251	-0.243	0.145
-324.114	-200.000	-0.031	0.324
-323.099	127.692	0.202	0.253
-322.085	92.265	-0.166	0.185
-321.070	160.346	0.063	-0.087
-320.056	197.791	-0.214	-0.323
-319.041	42.875	0.020	-0.018
-318.026	800.000	0.032	0.134
-317.012	-90.571	-0.345	-0.098
-315.997	-67.008	0.104	0.041
-314.983	800.000	0.026	0.108
-313.968	-99.701	0.103	-0.025
-312.953	-16.632	-0.270	0.168
-311.939	-66.542	0.169	-0.066
-310.924	111.465	-0.142	-0.168
-309.910	800.000	0.027	0.103
-308.895	-26.871	0.240	-0.138
-307.880	115.754	-0.117	-0.141
-306.866	78.170	0.056	0.059
-305.851	800.000	0.063	-0.248
-304.837	-200.000	-0.010	0.133
-303.822	-134.871	-0.109	0.013
-302.807	-128.595	0.111	0.015
-301.793	20.864	-0.256	0.205
-300.778	800.000	-0.087	-0.301
-299.764	443.075	0.070	0.151
-298.749	-200.000	-0.012	-0.054
-297.735	294.962	-0.093	0.168
-296.720	-39.367	-0.093	0.048
-295.705	383.687	0.148	-0.301
-294.691	-200.000	0.093	0.416
-293.676	-200.000	0.018	0.161
-292.662	-127.506	0.132	-0.019
-291.647	342.974	-0.122	0.235
-290.632	-98.831	-0.201	0.050
-289.618	-114.962	0.262	0.049
-288.603	-63.444	0.157	-0.064
-287.589	252.106	-0.153	-0.257
-286.574	-153.073	0.289	-0.020
-285.559	-77.495	0.123	-0.042
-284.545	-81.345	0.142	0.046
-283.530	-16.263	0.371	0.232
-282.516	-68.511	-0.344	0.131
-281.501	483.965	-0.113	0.254
-280.486	677.853	-0.015	0.038
-279.472	1.000	0.183	0.129
-278.457	133.474	-0.078	-0.099
-277.443	41.042	-0.261	0.232
-276.428	-46.785	-0.161	0.077
-275.413	532.650	-0.118	-0.275
-274.399	-43.421	0.207	-0.103
-273.384	-200.000	0.000	0.318
-272.370	3.922	0.280	0.201
-271.355	74.591	0.143	0.148
-270.340	60.133	0.037	-0.036
-269.326	109.170	0.130	-0.154
-268.311	-89.873	0.165	-0.047
-267.297	116.324	0.117	-0.141
-266.282	601.536	-0.208	0.507
-265.267	-37.594	0.075	-0.039
-264.253	207.059	-0.230	0.352
-263.238	-150.047	-0.105	0.008
-262.224	-134.302	-0.130	-0.016
-261.209	-142.452	0.209	0.020
-260.195	800.000	0.076	-0.299
-259.180	-6.691	-0.128	-0.086
-258.165	-161.962	-0.487	0.024
-257.151	-200.000	-0.034	0.239
-256.136	-38.292	0.317	-0.165
-255.122	6.930	0.220	-0.161
-254.107	-200.000	-0.302	-0.001
-253.092	357.374	0.098	-0.193
-252.078	6.416	-0.246	-0.179
-251.063	93.361	0.084	-0.094
-250.049	72.761	0.184	0.189
-249.034	515.583	-0.155	-0.355
-248.019	-200.000	0.043	0.385
-247.005	-157.695	-0.366	0.021
-245.990	-200.000	0.003	-0.211
-244.976	-164.208	0.172	-0.008
-243.961	-22.725	0.301	0.179
-242.946	-136.659	-0.277	0.031
-241.932	800.000	0.096	0.277
-240.917	800.000	-0.060	-0.252
-239.903	359.531	-0.083	0.163
-238.888	-93.440	-0.543	-0.148
-237.873	-200.000	0.016	0.195
-236.859	-39.751	-0.303	0.155
-235.844	-143.394	0.347	-0.033
-234.830	-116.076	-0.039	-0.007
-233.815	14.037	0.225	0.172
-232.800	-200.000	-0.036	-0.331
-231.786	-69.729	0.256	-0.096
-230.771	-115.499	-0.134	0.025
-229.757	-86.535	-0.070	-0.021
-228.742	-200.000	-0.016	-0.081
-227.727	55.292	0.085	0.080
-226.713	800.000	0.064	-0.195
-225.698	-120.532	0.114	-0.019
-224.684	-15.107	0.185	-0.117
-223.669	17.799	0.054	0.042
-222.655	-200.000	0.041	0.271
-221.640	204.511	0.159	0.242
-220.625	-9.355	-0.296	-0.194
-219.611	-200.000	-0.104	-0.510
-218.596	56.378	-0.264	-0.252
-217.582	408.876	-0.084	-0.175
-216.567	-200.000	-0.029	0.143
-215.552	78.453	-0.179	0.188
-214.538	800.000	0.149	0.463
-213.523	23.583	-0.077	0.062
-212.509	800.000	-0.076	-0.292
-211.494	-200.000	0.059	-0.280
-210.479	-113.571	-0.258	0.049
-209.465	-17.100	-0.061	-0.038
-208.450	-159.692	-0.250	0.014
-207.436	-25.799	0.455	0.263
-206.421	-56.250	-0.372	-0.162
-205.406	420.378	0.079	0.167
-204.392	-145.039	-0.167	-0.015
-203.377	-44.981	0.141	-0.069
-202.363	411.522	-0.187	0.389
-201.348	800.000	-0.046	0.152
-200.333	278.525	0.242	-0.423
-199.319	-200.000	-0.030	-0.290
-198.304	-81.175	-0.152	-0.049
-197.290	273.993	-0.062	-0.108
-196.275	-101.261	0.254	-0.061
-195.260	357.185	-0.200	0.392
-194.246	-58.795	0.223	0.095
-193.231	-8.572	0.032	0.021
-192.217	-9.206	0.025	-0.017
-191.202	-143.860	0.208	0.019
-190.187	10.540	-0.072	0.054
-189.173	176.200	-0.144	0.206
-188.158	-119.390	-0.116	-0.020
-187.144	-35.556	-0.215	-0.115
-186.129	9.923	0.178	0.132
-185.114	28.149	0.173	0.143
-184.100	-65.681	-0.210	-0.083
-183.085	800.000	-0.061	0.209
-182.071	-95.650	0.134	-0.035
-181.056	316.377	0.024	-0.045
-180.042	308.204	-0.087	0.159
-179.027	800.000	0.060	0.232
-178.012	25.304	-0.197	0.160
-176.998	-200.000	-0.029	-0.400
-175.983	558.488	-0.045	0.107
-174.969	-89.605	0.036	0.010
-173.954	16.040	-0.216	0.167
-172.939	276.638	-0.123	0.214
-171.925	-20.748	0.337	-0.203
-170.910	13.788	-0.050	-0.038
-169.896	-36.083	-0.179	-0.095
-168.881	-154.101	0.294	-0.020
-167.866	-4.664	0.249	-0.169
-166.852	-200.000	-0.011	0.065
-165.837	16.025	-0.189	-0.146
-164.823	800.000	-0.039	-0.159
-163.808	24.687	0.073	0.059
-162.793	-136.291	-0.211	-0.024
-161.779	-95.218	-0.323	-0.085
-160.764	-200.000	0.008	-0.104
-159.750	12.940	0.105	-0.080
-158.735	6.308	0.276	0.200
-157.720	21.117	-0.214	-0.170
-156.706	800.000	0.043	0.143
-155.691	-200.000	-0.053	-0.303
-154.677	-200.000	0.008	-0.081
-153.662	24.891	0.208	-0.169
-152.647	198.800	0.144	-0.215
-151.633	125.621	-0.178	-0.220
-150.618	178.975	-0.108	0.155
-149.604	180.363	0.077	-0.111
-148.589	-7.598	-0.128	-0.085
-147.574	406.799	0.055	-0.113
-146.560	-200.000	-0.047	-0.285
-145.545	91.203	-0.146	-0.161
-144.531	-200.000	-0.224	0.001
-143.516	-200.000	0.012	-0.253
-142.502	-99.843	-0.213	-0.052
-141.487	-93.848	-0.144	-0.039
-140.472	-88.126	-0.313	-0.092
-139.458	800.000	-0.025	0.079
-138.443	-200.000	-0.044	0.227
-137.429	-133.045	0.174	-0.022
-136.414	-19.807	-0.196	-0.119
-135.399	47.173	0.302	0.275
-134.385	-99.464	-0.159	0.039
-133.370	-120.971	0.143	0.023
-132.356	-118.588	-0.403	-0.070
-131.341	-165.822	0.280	0.012
-130.326	39.228	0.196	-0.172
-129.312	800.000	0.098	-0.333
-128.297	121.178	0.155	0.188
-127.283	-52.948	-0.115	-0.052
-126.268	324.627	0.030	0.056
-125.253	206.633	0.131	-0.200
-124.239	147.804	0.101	-0.133
-123.224	25.623	-0.121	0.099
-122.210	-200.000	-0.040	0.249
-121.195	96.258	-0.061	-0.068
