DTS Sentinel unit serial number:	SN413079Multiplexer serial number:	ORYXHardware model number:	OX4-SRSoftware version number:	ORYX F/W v4.00 Oryx Data Collector v3.7.2.0data status	okinstallation	princeton_trtdifferential loss correction	single-endedforward channel	channel 2reverse channel	N/Adate	2019/09/16time	06:51:35forward acquisition time	60.00reverse acquisition time	0.00gamma	496.2192k internal	0.2334k external	0.2334temperature offset calibration	0.9978default loss term (dB/km)	0.3790temperature slope calibration	1.0000multiplexer offset coefficient	1.0000multiplexer slope coefficient	1.0000fibre end	0.00T internal ref (°C)	27.37T ext. ref 1 (°C)	11.46T ext. ref 2 (°C)	21.77length (m)	temperature (°C)	Stokes	anti-Stokes-747.200	-78.843	-0.307	-0.105
-746.185	-38.426	-0.223	0.119
-745.171	-86.818	0.211	-0.065
-744.156	-152.072	-0.210	0.015
-743.142	800.000	0.065	-0.263
-742.127	-200.000	0.009	0.357
-741.112	800.000	-0.048	0.200
-740.098	-175.173	-0.188	0.005
-739.083	-140.138	0.135	-0.014
-738.069	-200.000	-0.016	0.141
-737.054	-163.401	0.150	0.007
-736.039	-121.179	-0.371	0.062
-735.025	-95.190	0.217	0.059
-734.010	72.672	0.074	0.078
-732.996	800.000	-0.064	-0.183
-731.981	-2.741	-0.252	-0.177
-730.966	800.000	0.031	0.105
-729.952	668.645	0.118	0.306
-728.937	174.915	0.219	-0.318
-727.923	-200.000	0.022	0.107
-726.908	187.940	-0.064	-0.096
-725.894	-32.112	0.262	-0.147
-724.879	120.796	-0.059	0.074
-723.864	-97.585	0.290	0.076
-722.850	-50.070	0.073	-0.035
-721.835	-102.792	-0.112	-0.027
-720.821	607.765	0.064	0.160
-719.806	-104.236	0.209	0.049
-718.791	-200.000	0.074	-0.436
-717.777	-124.176	-0.274	-0.043
-716.762	-96.802	0.158	-0.042
-715.748	-13.583	-0.021	0.013
-714.733	-16.139	-0.186	0.119
-713.718	22.388	-0.309	-0.253
-712.704	37.046	-0.211	0.187
-711.689	-125.108	0.123	-0.019
-710.675	112.575	-0.058	0.071
-709.660	-135.943	0.488	0.058
-708.645	25.980	0.231	-0.193
-707.631	64.190	0.140	-0.141
-706.616	800.000	0.101	-0.443
-705.602	447.547	-0.018	-0.039
-704.587	-139.016	0.122	0.013
-703.572	-33.798	0.156	-0.086
-702.558	395.940	0.162	0.339
-701.543	800.000	0.069	-0.243
-700.529	165.577	0.027	-0.039
-699.514	229.627	0.043	-0.071
-698.499	115.912	0.031	0.038
-697.485	18.804	-0.329	0.264
-696.470	-64.951	-0.199	0.081
-695.456	-200.000	0.002	-0.147
-694.441	800.000	0.041	-0.161
-693.426	-200.000	-0.004	-0.065
-692.412	-80.505	0.201	0.067
-691.397	365.060	-0.073	0.147
-690.383	800.000	-0.171	-0.593
-689.368	-63.532	-0.266	-0.110
-688.354	-133.451	0.049	0.006
-687.339	76.697	-0.078	0.083
-686.324	238.502	0.055	-0.092
-685.310	310.736	0.096	0.181
-684.295	27.660	-0.219	0.185
-683.281	-81.060	0.174	0.058
-682.266	800.000	0.080	0.276
-681.251	90.822	0.124	0.139
-680.237	-25.212	0.117	-0.069
-679.222	147.757	0.070	-0.095
-678.208	800.000	0.209	-0.616
-677.193	800.000	0.044	-0.175
-676.178	154.694	0.075	-0.103
-675.164	57.430	-0.086	-0.084
-674.149	9.401	-0.052	-0.039
-673.135	-200.000	-0.057	-0.288
-672.120	800.000	-0.066	0.278
-671.105	-11.980	0.076	-0.050
-670.091	605.149	-0.077	-0.193
-669.076	728.573	0.135	0.361
-668.062	277.942	-0.029	-0.051
-667.047	0.275	0.293	-0.210
-666.032	11.658	0.166	0.127
-665.018	-39.641	-0.094	0.049
-664.003	24.532	-0.077	0.064
-662.989	42.227	-0.223	-0.203
-661.974	656.447	-0.117	0.301
-660.959	77.972	0.051	-0.055
-659.945	-48.522	-0.211	-0.102
-658.930	-74.674	0.312	0.112
-657.916	707.993	-0.030	-0.078
-656.901	110.626	-0.232	-0.280
-655.886	800.000	0.102	-0.443
-654.872	56.628	-0.073	0.072
-653.857	-20.457	-0.243	-0.149
-652.843	92.961	0.105	0.119
-651.828	-115.160	-0.328	-0.062
-650.814	-200.000	-0.036	0.210
-649.799	-139.734	0.362	0.038
-648.784	7.414	-0.347	0.259
-647.770	-54.212	-0.071	-0.032
-646.755	-100.956	-0.426	0.105
-645.741	800.000	-0.099	-0.309
-644.726	-200.000	0.026	-0.145
-643.711	-124.484	-0.272	0.042
-642.697	179.320	-0.095	0.140
-641.682	145.102	-0.095	-0.127
-640.668	247.909	0.155	-0.262
-639.653	-200.000	0.088	0.499
-638.638	-200.000	0.002	-0.186
-637.624	12.009	-0.029	0.023
-636.609	526.515	-0.089	-0.210
-635.595	-200.000	0.023	-0.331
-634.580	65.302	-0.079	0.080
-633.565	-62.128	0.118	0.049
-632.551	-81.602	-0.473	-0.155
-631.536	-200.000	0.061	0.271
-630.522	-49.390	-0.174	0.083
-629.507	169.013	0.110	-0.157
-628.492	800.000	0.118	0.346
-627.478	231.227	-0.083	0.136
-626.463	-12.114	0.090	-0.059
-625.449	-169.780	0.244	0.009
-624.434	800.000	0.034	0.098
-623.419	66.244	0.188	0.190
-622.405	-155.081	-0.239	-0.016
-621.390	-200.000	0.000	0.356
-620.376	800.000	0.041	0.177
-619.361	507.324	0.112	0.261
-618.346	-38.447	0.325	-0.172
-617.332	-200.000	-0.018	-0.082
-616.317	124.671	-0.041	-0.051
-615.303	-200.000	0.009	-0.184
-614.288	-35.209	0.196	-0.107
-613.273	44.044	0.163	-0.149
-612.259	800.000	-0.079	-0.267
-611.244	138.838	0.129	0.170
-610.230	800.000	0.050	-0.200
-609.215	26.802	0.247	-0.207
-608.201	-94.049	-0.247	-0.068
-607.186	74.176	-0.169	0.177
-606.171	-200.000	0.033	0.194
-605.157	-26.043	-0.072	0.042
-604.142	179.569	0.098	-0.144
-603.128	746.182	-0.077	-0.208
-602.113	-103.774	-0.406	0.095
-601.098	-76.400	-0.242	-0.085
-600.084	223.935	0.114	0.184
-599.069	-143.692	-0.368	0.035
-598.055	72.430	0.189	0.197
-597.040	150.778	0.101	0.137
-596.025	-32.598	-0.079	0.044
-595.011	279.754	0.120	-0.214
-593.996	240.231	-0.119	-0.198
-592.982	10.241	0.098	-0.074
-591.967	-192.094	-0.283	0.003
-590.952	176.667	-0.172	-0.250
-589.938	38.510	0.297	-0.264
-588.923	-93.492	-0.345	0.095
-587.909	650.533	-0.052	0.132
-586.894	-4.778	0.224	-0.155
-585.879	78.651	0.222	-0.237
-584.865	-75.321	-0.452	-0.161
-583.850	-200.000	0.058	0.318
-582.836	-134.634	0.059	0.007
-581.821	-80.003	-0.139	-0.047
-580.806	16.007	0.313	-0.247
-579.792	521.361	-0.065	0.153
-578.777	-67.602	-0.287	0.112
-577.763	127.908	-0.055	0.070
-576.748	-200.000	-0.028	-0.363
-575.733	16.306	0.265	-0.209
-574.719	59.307	0.179	0.176
-573.704	272.667	-0.090	0.159
-572.690	-200.000	0.067	0.375
-571.675	85.962	-0.031	-0.035
-570.661	800.000	0.106	-0.430
-569.646	234.671	0.255	0.419
-568.631	129.086	-0.074	-0.094
-567.617	296.539	-0.120	-0.220
-566.602	-90.311	-0.159	-0.046
-565.588	13.326	-0.258	-0.199
-564.573	329.229	0.072	0.138
-563.558	-77.255	0.077	0.027
-562.544	398.757	-0.209	0.436
-561.529	136.645	-0.251	-0.327
-560.515	-200.000	0.042	0.459
-559.500	-50.321	-0.278	0.131
-558.485	-19.013	0.170	-0.106
-557.471	-47.287	-0.118	-0.057
-556.456	50.149	-0.179	-0.169
-555.442	-51.505	-0.131	0.061
-554.427	-96.258	-0.140	-0.037
-553.412	262.999	0.105	0.183
-552.398	97.808	0.082	0.094
-551.383	387.781	-0.122	0.251
-550.369	-171.242	-0.446	-0.015
-549.354	221.894	-0.176	0.282
-548.339	-200.000	0.018	0.583
-547.325	-200.000	0.071	-0.367
-546.310	298.170	0.148	0.272
-545.296	-200.000	-0.017	-0.084
-544.281	106.574	0.089	0.105
-543.266	-200.000	-0.005	-0.056
-542.252	-116.561	0.106	0.019
-541.237	-50.330	0.161	0.076
-540.223	-3.271	-0.190	-0.132
-539.208	-67.888	0.287	-0.112
-538.193	-200.000	-0.018	0.136
-537.179	192.857	0.240	-0.361
-536.164	800.000	-0.033	-0.132
-535.150	-151.992	-0.159	-0.012
-534.135	82.928	0.178	-0.192
-533.121	-45.253	0.280	-0.138
-532.106	-9.277	0.184	-0.122
-531.091	158.691	0.052	0.072
-530.077	195.811	-0.094	0.142
-529.062	800.000	-0.025	-0.085
-528.048	-200.000	-0.041	0.263
-527.033	-64.769	0.125	-0.051
-526.018	-71.971	-0.187	-0.069
-525.004	-200.000	0.047	-0.225
-523.989	42.352	-0.303	-0.274
-522.975	194.466	0.143	-0.216
-521.960	-200.000	-0.030	0.249
-520.945	-200.000	-0.015	0.177
-519.931	-200.000	0.143	0.000
-518.916	-10.184	0.230	-0.152
-517.902	139.633	0.089	0.116
-516.887	800.000	0.069	0.276
-515.872	-200.000	0.000	0.123
-514.858	-146.567	-0.041	-0.004
-513.843	128.286	0.213	0.270
-512.829	130.983	0.154	-0.197
-511.814	-118.358	0.163	-0.029
-510.799	-112.172	0.149	0.030
-509.785	468.212	0.086	-0.191
-508.770	6.776	-0.211	-0.157
-507.756	29.347	0.214	0.181
-506.741	800.000	-0.039	0.135
-505.726	800.000	-0.034	-0.141
-504.712	488.203	-0.108	0.245
-503.697	56.930	-0.199	-0.193
-502.683	91.033	-0.107	-0.119
-501.668	103.017	-0.206	-0.240
-500.653	-92.294	0.326	0.091
-499.639	315.688	-0.218	-0.409
-498.624	7.327	-0.175	0.130
-497.610	-65.677	0.073	-0.029
-496.595	246.220	-0.111	0.186
-495.581	-157.588	-0.085	0.005
-494.566	121.822	0.087	0.108
-493.551	-200.000	-0.011	-0.081
-492.537	46.474	-0.305	0.281
-491.522	-12.265	0.185	-0.121
-490.508	-4.317	0.316	0.218
-489.493	-165.937	-0.300	0.013
-488.478	111.025	-0.111	0.133
-487.464	-117.418	0.294	0.053
-486.449	216.352	0.173	-0.273
-485.435	-200.000	-0.008	0.250
-484.420	-15.006	-0.218	0.139
-483.405	-200.000	0.000	-0.569
-482.391	-200.000	0.046	-0.401
-481.376	194.503	0.234	-0.353
-480.362	-9.945	0.043	0.029
-479.347	325.089	0.101	-0.191
-478.332	800.000	-0.075	0.308
-477.318	-200.000	0.015	-0.129
-476.303	266.734	-0.102	-0.176
-475.289	-48.655	0.194	0.093
-474.274	147.249	-0.178	-0.238
-473.259	-155.377	-0.215	0.014
-472.245	-57.768	-0.207	0.090
-471.230	-200.000	0.012	-0.190
-470.216	71.917	-0.051	-0.053
-469.201	200.008	-0.389	-0.594
-468.186	48.700	-0.209	-0.195
-467.172	-79.578	-0.187	-0.063
-466.157	800.000	-0.023	-0.077
-465.143	466.926	-0.050	-0.112
-464.128	249.793	-0.259	-0.438
-463.113	800.000	0.032	0.103
-462.099	-116.967	-0.067	-0.012
-461.084	-200.000	0.018	-0.157
-460.070	-102.060	0.218	-0.052
-459.055	180.154	0.093	0.135
-458.040	-114.660	-0.119	-0.023
-457.026	8.665	0.021	0.016
-456.011	-179.180	-0.266	-0.006
-454.997	-30.769	-0.126	0.071
-453.982	-104.095	0.106	-0.024
-452.968	42.877	-0.061	0.055
-451.953	-79.080	-0.162	0.055
-450.938	-49.278	0.040	0.019
-449.924	-200.000	-0.014	-0.167
-448.909	11.768	-0.163	0.124
-447.895	66.045	-0.220	-0.222
-446.880	-124.735	-0.323	-0.050
-445.865	-200.000	-0.049	-0.342
-444.851	-200.000	-0.024	-0.208
-443.836	-122.983	-0.186	-0.030
-442.822	-43.377	-0.236	-0.119
-441.807	245.928	-0.030	-0.050
-440.792	29.357	0.094	0.079
-439.778	-29.682	0.097	0.055
-438.763	-59.307	0.115	0.049
-437.749	17.007	-0.070	0.055
-436.734	21.147	0.138	-0.111
-435.719	-200.000	-0.012	-0.308
-434.705	-147.881	-0.180	0.015
-433.690	-200.000	0.012	0.131
-432.676	39.231	-0.099	-0.088
-431.661	-91.836	-0.047	0.013
-430.646	293.977	-0.257	-0.466
-429.632	367.854	0.050	0.100
-428.617	-15.552	0.350	-0.222
-427.603	-200.000	-0.015	0.299
-426.588	113.412	0.120	0.144
-425.573	-66.621	0.091	0.036
-424.559	800.000	0.013	-0.042
-423.544	-200.000	0.003	-0.107
-422.530	53.666	-0.165	0.157
-421.515	-10.854	-0.152	-0.100
-420.500	-87.193	-0.359	0.108
-419.486	22.119	0.038	0.031
-418.471	-93.823	0.148	0.040
-417.457	-200.000	0.039	0.177
-416.442	97.689	-0.112	-0.128
-415.428	422.375	0.139	0.296
-414.413	-33.167	0.179	-0.099
-413.398	43.607	-0.327	0.297
-412.384	-45.767	-0.102	0.050
-411.369	98.023	-0.113	-0.129
-410.355	-17.644	-0.124	0.078
-409.340	-200.000	-0.016	-0.272
-408.325	105.660	0.173	-0.203
-407.311	-74.378	-0.210	0.075
-406.296	-200.000	0.010	-0.128
-405.282	-21.314	-0.102	0.061
-404.267	-157.947	-0.167	-0.010
-403.252	-51.334	0.245	-0.114
-402.238	310.486	-0.129	0.239
-401.223	602.112	0.170	0.418
-400.209	-145.283	-0.337	-0.030
-399.194	105.801	0.108	0.127
-398.179	800.000	-0.012	-0.044
-397.165	-93.806	0.540	0.147
-396.150	-155.236	0.072	0.005
-395.136	-57.844	-0.174	0.076
-394.121	169.875	-0.233	0.330
-393.106	-58.546	0.344	0.148
-392.092	43.672	-0.312	-0.283
-391.077	800.000	-0.143	-0.412
-390.063	-200.000	0.037	-0.264
-389.048	155.793	0.113	-0.155
-388.033	139.721	0.081	-0.106
-387.019	-200.000	-0.019	-0.130
-386.004	17.863	0.118	0.093
-384.990	-53.212	0.166	-0.075
-383.975	-200.000	-0.039	-0.295
-382.960	-173.153	0.080	0.002
-381.946	-40.950	-0.118	0.060
-380.931	-200.000	-0.004	-0.130
-379.917	141.319	-0.197	-0.258
-378.902	-93.214	-0.067	-0.019
-377.888	-200.000	0.051	0.277
-376.873	800.000	0.051	-0.221
-375.858	158.463	-0.082	-0.113
-374.844	800.000	-0.057	-0.197
-373.829	-200.000	0.008	0.262
-372.815	342.706	-0.118	0.229
-371.800	-176.047	0.279	0.007
-370.785	53.701	0.095	-0.091
-369.771	45.288	-0.197	0.180
-368.756	118.038	0.181	0.221
-367.742	-80.964	0.149	0.049
-366.727	-200.000	0.050	0.227
-365.712	-20.822	-0.069	0.042
-364.698	-160.317	0.283	-0.015
-363.683	-200.000	-0.004	-0.345
-362.669	47.025	0.082	-0.075
-361.654	313.391	-0.190	-0.353
-360.639	-14.186	0.139	-0.089
-359.625	800.000	-0.043	0.163
-358.610	-200.000	-0.117	-0.001
-357.596	345.624	-0.027	-0.052
-356.581	-160.910	0.220	0.011
-355.566	23.460	0.085	0.069
-354.552	-11.672	-0.150	0.097
-353.537	-189.458	-0.190	-0.002
-352.523	525.142	0.148	-0.344
-351.508	-114.910	0.233	-0.044
-350.493	-114.954	-0.217	0.041
-349.479	-200.000	0.011	0.104
-348.464	-200.000	-0.035	0.353
-347.450	114.020	0.120	-0.144
-346.435	203.527	-0.201	-0.307
-345.420	-136.119	0.111	-0.013
-344.406	474.370	-0.073	-0.163
-343.391	-200.000	-0.067	0.306
-342.377	-82.542	0.120	-0.038
-341.362	704.909	0.053	0.140
-340.348	36.497	-0.131	-0.114
-339.333	67.276	-0.148	-0.149
-338.318	742.166	-0.088	0.233
-337.304	-108.202	-0.047	0.010
-336.289	211.750	0.172	-0.268
-335.275	-200.000	-0.009	-0.149
-334.260	800.000	0.071	0.278
-333.245	150.709	-0.067	0.090
-332.231	133.163	-0.258	-0.329
-331.216	66.506	0.274	0.276
-330.202	-161.409	0.239	0.012
-329.187	172.252	-0.037	0.053
-328.172	128.412	0.106	0.133
-327.158	-102.738	0.359	0.084
-326.143	237.144	0.092	-0.151
-325.129	-200.000	0.024	0.134
-324.114	-200.000	-0.052	0.351
-323.099	-200.000	0.019	-0.138
-322.085	53.021	-0.189	0.179
-321.070	-26.371	0.161	-0.093
-320.056	-141.776	0.212	0.021
-319.041	332.343	-0.046	0.088
-318.026	800.000	-0.069	0.200
-317.012	92.605	0.269	0.300
-315.997	-186.405	-0.049	-0.001
-314.983	0.652	0.066	0.047
-313.968	-76.240	-0.174	0.061
-312.953	98.211	0.091	0.104
-311.939	-51.247	-0.275	0.127
-310.924	-35.534	0.220	0.118
-309.910	-102.983	0.149	-0.035
-308.895	-155.139	-0.188	-0.012
-307.880	-179.557	-0.404	-0.009
-306.866	-110.150	-0.317	-0.065
-305.851	-200.000	-0.011	-0.097
-304.837	800.000	-0.071	-0.229
-303.822	-127.549	-0.056	0.008
-302.807	-31.754	-0.033	-0.018
-301.793	177.538	0.082	0.118
-300.778	-130.025	-0.216	-0.029
-299.764	87.511	0.033	-0.036
-298.749	-140.869	-0.099	-0.010
-297.735	163.694	0.051	0.071
-296.720	-200.000	0.013	-0.346
-295.705	-132.514	0.474	-0.060
-294.691	-200.000	0.002	0.265
-293.676	59.571	-0.190	0.185
-292.662	-136.474	0.255	-0.029
-291.647	-200.000	0.006	0.091
-290.632	800.000	0.058	0.232
-289.618	15.269	-0.102	0.079
-288.603	800.000	0.064	-0.191
-287.589	-200.000	0.014	-0.181
-286.574	800.000	-0.073	0.274
-285.559	624.982	0.087	-0.216
-284.545	489.237	-0.086	-0.194
-283.530	-83.415	0.237	0.075
-282.516	-124.287	-0.165	0.025
-281.501	800.000	0.021	-0.061
-280.486	-74.095	-0.382	0.137
-279.472	142.466	-0.237	0.310
-278.457	74.582	0.135	-0.140
-277.443	85.186	0.261	-0.283
-276.428	71.988	-0.122	-0.125
-275.413	98.730	0.306	-0.348
-274.399	-32.113	0.071	-0.039
-273.384	-200.000	0.003	0.143
-272.370	286.452	-0.046	0.081
-271.355	166.909	0.154	0.216
-270.340	420.655	0.055	-0.116
-269.326	212.267	-0.024	-0.037
-268.311	-200.000	-0.056	-0.269
-267.297	-200.000	0.019	0.245
-266.282	-200.000	0.049	0.283
-265.267	-108.000	-0.171	-0.037
-264.253	-200.000	-0.008	-0.112
-263.238	521.789	0.052	-0.119
-262.224	-200.000	0.308	-0.001
-261.209	-148.947	0.158	-0.013
-260.195	-83.791	0.379	-0.119
-259.180	90.004	0.166	0.183
-258.165	-42.017	0.428	0.216
-257.151	-20.109	-0.171	-0.104
-256.136	-39.191	-0.163	0.084
-255.122	229.281	-0.099	0.160
-254.107	-10.280	0.163	-0.107
-253.092	77.933	0.315	-0.331
-252.078	103.995	-0.256	-0.297
-251.063	-67.689	-0.117	-0.045
-250.049	322.113	-0.059	-0.110
-249.034	-62.148	0.098	-0.040
-248.019	-75.591	-0.149	-0.052
-247.005	-200.000	0.029	0.444
-245.990	24.161	-0.144	-0.117
-244.976	15.161	0.108	-0.083
-243.961	-200.000	-0.023	0.246
-242.946	-86.493	-0.179	-0.054
-241.932	800.000	0.046	0.193
-240.917	35.790	0.185	0.161
-239.903	268.450	0.091	0.157
-238.888	-156.802	-0.251	-0.015
-237.873	97.610	-0.076	-0.086
-236.859	-200.000	0.057	0.294
-235.844	-102.133	0.220	-0.052
-234.830	-65.242	0.273	-0.108
-233.815	149.963	0.247	0.330
-232.800	297.774	-0.056	-0.102
-231.786	337.541	-0.179	0.344
-230.771	188.305	0.076	-0.112
-229.757	-101.930	0.195	0.046
-228.742	800.000	0.051	0.156
-227.727	12.899	-0.128	-0.098
-226.713	193.025	-0.208	-0.310
-225.698	-82.936	0.142	-0.045
-224.684	-136.725	0.427	-0.048
-223.669	-105.049	0.333	0.075
-222.655	-200.000	-0.040	0.287
-221.640	603.379	0.070	0.172
-220.625	-200.000	-0.006	-0.171
-219.611	-11.987	-0.065	-0.042
-218.596	-200.000	0.025	0.143
-217.582	-119.009	0.091	-0.016
-216.567	302.764	0.142	0.259
-215.552	-95.186	0.166	-0.044
-214.538	127.230	-0.055	-0.068
-213.523	78.785	-0.074	0.078
-212.509	-200.000	-0.020	-0.257
-211.494	-59.874	0.300	-0.126
-210.479	-98.623	-0.284	-0.071
-209.465	100.829	-0.099	0.114
-208.450	110.544	-0.077	0.091
-207.436	182.795	-0.194	0.282
-206.421	127.088	0.217	-0.271
-205.406	27.856	0.204	0.169
-204.392	45.859	-0.072	0.066
-203.377	-99.578	-0.341	-0.084
-202.363	-200.000	0.001	0.081
-201.348	301.284	-0.106	-0.192
-200.333	-200.000	-0.027	-0.136
-199.319	800.000	-0.062	-0.266
-198.304	-37.300	-0.396	0.208
-197.290	-83.102	0.043	0.014
-196.275	-134.858	-0.320	0.038
-195.260	10.941	0.128	0.096
-194.246	123.970	0.088	0.109
-193.231	-23.660	0.205	0.121
-192.217	7.856	0.161	-0.118
-191.202	315.268	0.080	-0.149
-190.187	-18.091	0.090	-0.055
-189.173	-200.000	-0.006	-0.120
-188.158	24.050	0.248	0.201
-187.144	-137.311	0.143	0.016
-186.129	34.646	0.300	0.258
-185.114	-22.366	-0.118	0.071
-184.100	104.105	0.288	0.333
-183.085	-120.763	0.256	0.042
-182.071	800.000	-0.061	-0.174
-181.056	222.743	0.146	-0.231
-180.042	73.319	0.047	0.049
-179.027	245.614	0.168	0.279
-178.012	206.943	-0.269	-0.412
-176.998	327.812	-0.171	-0.322
-175.983	800.000	0.098	0.324
-174.969	61.413	0.131	0.128
-173.954	-83.790	0.187	0.059
-172.939	-98.135	-0.187	0.047
-171.925	800.000	-0.054	0.183
-170.910	61.964	0.102	0.099
-169.896	17.843	0.251	-0.197
-168.881	23.810	0.198	0.160
-167.866	50.272	0.109	-0.101
-166.852	800.000	0.074	0.214
-165.837	-83.796	0.168	0.053
-164.823	-200.000	0.000	0.187
-163.808	800.000	0.063	0.249
-162.793	-200.000	-0.007	0.238
-161.779	-90.340	-0.335	-0.095
-160.764	-200.000	0.011	0.188
-159.750	-200.000	-0.033	0.240
-158.735	-169.240	-0.028	-0.001
-157.720	47.770	-0.054	-0.049
-156.706	359.288	0.247	0.485
-155.691	156.814	0.109	-0.148
-154.677	354.709	-0.121	-0.236
-153.662	228.627	-0.113	-0.180
-152.647	800.000	-0.082	0.251
-151.633	800.000	0.085	0.236
-150.618	-200.000	-0.043	0.228
-149.604	492.994	0.073	0.163
-148.589	5.616	-0.175	-0.127
-147.574	363.811	0.152	-0.301
-146.560	659.299	-0.093	-0.236
-145.545	-65.782	0.345	0.135
-144.531	800.000	0.035	-0.124
-143.516	794.239	-0.028	-0.077
-142.502	65.770	0.115	0.115
-141.487	-15.488	-0.140	-0.088
-140.472	-200.000	0.012	-0.101
-139.458	-135.183	0.124	-0.015
-138.443	-3.867	0.105	-0.072
-137.429	35.561	0.228	-0.197
-136.414	800.000	-0.089	0.284
-135.399	-133.807	-0.249	-0.030
-134.385	-53.196	0.253	0.114
-133.370	18.002	0.138	0.108
-132.356	-8.214	0.306	0.202
-131.341	56.018	0.169	-0.161
-130.326	312.033	-0.130	-0.239
-129.312	800.000	0.053	-0.146
-128.297	-42.653	0.310	-0.155
-127.283	-153.180	0.364	0.025
-126.268	-58.793	0.258	-0.109
-125.253	192.594	-0.292	-0.433
-124.239	12.248	-0.067	-0.050
-123.224	134.627	-0.240	0.305
-122.210	-146.453	0.146	0.013
-121.195	14.985	0.270	0.208
