DTS Sentinel unit serial number:	SN413079Multiplexer serial number:	ORYXHardware model number:	OX4-SRSoftware version number:	ORYX F/W v4.00 Oryx Data Collector v3.7.2.0data status	okinstallation	princeton_trtdifferential loss correction	single-endedforward channel	channel 2reverse channel	N/Adate	2019/09/15time	07:11:35forward acquisition time	60.00reverse acquisition time	0.00gamma	496.2192k internal	0.2325k external	0.2325temperature offset calibration	1.0035default loss term (dB/km)	0.3790temperature slope calibration	1.0000multiplexer offset coefficient	1.0000multiplexer slope coefficient	1.0000fibre end	0.00T internal ref (°C)	30.50T ext. ref 1 (°C)	4.87T ext. ref 2 (°C)	25.75length (m)	temperature (°C)	Stokes	anti-Stokes-747.200	800.000	-0.070	-0.266
-746.185	183.212	0.134	0.200
-745.171	-86.022	-0.213	0.066
-744.156	102.291	-0.063	0.074
-743.142	204.224	-0.167	-0.262
-742.127	-200.000	0.007	0.356
-741.112	-200.000	0.023	0.153
-740.098	-200.000	0.006	0.242
-739.083	5.795	0.074	0.055
-738.069	-113.769	0.188	0.037
-737.054	-37.160	0.320	0.172
-736.039	310.969	-0.130	-0.245
-735.025	-200.000	-0.028	0.221
-734.010	-22.098	-0.452	-0.277
-732.996	-200.000	-0.072	-0.394
-731.981	-62.503	-0.035	-0.015
-730.966	493.920	-0.137	0.316
-729.952	-113.338	-0.123	0.024
-728.937	17.141	-0.092	-0.073
-727.923	-200.000	-0.037	0.499
-726.908	-22.062	-0.050	-0.031
-725.894	5.605	0.178	0.133
-724.879	10.984	-0.101	-0.078
-723.864	-134.039	0.163	-0.020
-722.850	-71.258	0.052	-0.020
-721.835	316.905	-0.109	0.207
-720.821	-200.000	-0.052	0.325
-719.806	369.622	0.097	-0.199
-718.791	-200.000	0.042	-0.258
-717.777	535.999	-0.146	0.350
-716.762	-147.946	-0.292	0.024
-715.748	314.643	-0.113	0.215
-714.733	-24.699	0.076	-0.046
-713.718	-198.974	0.302	-0.002
-712.704	-84.008	-0.307	0.098
-711.689	-116.803	-0.109	0.020
-710.675	-19.192	0.322	-0.201
-709.660	228.943	0.015	0.024
-708.645	-200.000	0.032	-0.421
-707.631	52.694	0.169	-0.163
-706.616	33.755	-0.315	0.276
-705.602	-66.159	0.127	-0.051
-704.587	-200.000	0.021	-0.237
-703.572	29.791	0.238	-0.205
-702.558	-100.098	-0.175	0.044
-701.543	104.438	-0.110	0.130
-700.529	-9.883	-0.226	-0.151
-699.514	-14.522	-0.019	-0.012
-698.499	-200.000	0.023	0.498
-697.485	368.043	0.234	0.477
-696.470	800.000	0.061	-0.262
-695.456	-110.688	-0.158	0.033
-694.441	-200.000	-0.003	-0.235
-693.426	114.432	0.125	-0.153
-692.412	307.402	-0.094	0.176
-691.397	-126.513	0.082	0.012
-690.383	336.452	-0.199	-0.390
-689.368	-200.000	-0.020	0.099
-688.354	-139.087	-0.087	0.009
-687.339	-200.000	0.059	0.363
-686.324	-100.427	0.288	-0.072
-685.310	223.911	-0.120	-0.196
-684.295	-200.000	-0.017	-0.090
-683.281	30.320	0.082	0.071
-682.266	-200.000	-0.239	-0.001
-681.251	516.378	0.075	-0.177
-680.237	-149.801	0.417	-0.033
-679.222	-14.916	0.167	0.108
-678.208	-79.951	-0.359	-0.121
-677.193	-200.000	0.015	0.189
-676.178	42.779	0.215	0.197
-675.164	17.931	-0.038	0.030
-674.149	-65.659	-0.184	-0.074
-673.135	466.155	0.316	0.711
-672.120	782.831	0.171	-0.471
-671.105	-71.877	0.231	0.087
-670.091	22.501	-0.038	0.031
-669.076	-200.000	-0.005	0.456
-668.062	-83.095	-0.410	-0.133
-667.047	-64.049	-0.074	0.030
-666.032	-200.000	-0.025	-0.154
-665.018	-144.856	0.247	-0.023
-664.003	594.277	-0.109	0.272
-662.989	-143.716	0.115	0.011
-661.974	13.482	-0.337	-0.263
-660.959	-200.000	-0.058	-0.364
-659.945	-200.000	0.017	-0.076
-658.930	4.795	-0.096	-0.071
-657.916	-54.683	0.240	-0.109
-656.901	800.000	0.095	0.343
-655.886	177.121	-0.236	-0.345
-654.872	14.197	-0.163	-0.128
-653.857	-200.000	0.032	-0.270
-652.843	800.000	0.080	-0.244
-651.828	-200.000	0.007	0.134
-650.814	-103.384	-0.163	0.039
-649.799	-137.751	-0.292	-0.033
-648.784	-76.926	-0.122	-0.043
-647.770	-50.450	-0.243	0.115
-646.755	-117.887	-0.080	0.014
-645.741	800.000	-0.068	-0.237
-644.726	103.183	0.127	0.149
-643.711	-51.945	0.070	0.033
-642.697	74.099	-0.197	0.207
-641.682	191.097	-0.123	-0.186
-640.668	-71.096	0.313	0.118
-639.653	64.460	-0.190	0.193
-638.638	61.333	-0.470	0.470
-637.624	508.966	-0.030	-0.070
-636.609	-141.855	-0.115	0.012
-635.595	319.457	-0.067	0.129
-634.580	-13.477	-0.192	-0.125
-633.565	-200.000	0.042	-0.184
-632.551	356.067	-0.158	0.315
-631.536	114.531	-0.152	0.187
-630.522	-28.369	0.186	0.108
-629.507	-74.817	-0.385	-0.139
-628.492	-23.640	0.074	-0.045
-627.478	14.984	0.220	-0.173
-626.463	79.732	0.085	0.092
-625.449	92.821	0.198	0.225
-624.434	-23.128	-0.096	-0.058
-623.419	800.000	0.059	-0.249
-622.405	-51.723	0.230	-0.107
-621.390	151.852	-0.142	-0.194
-620.376	79.918	0.068	0.073
-619.361	236.494	-0.100	-0.165
-618.346	-102.202	0.125	-0.030
-617.332	235.126	-0.161	-0.267
-616.317	800.000	-0.064	-0.276
-615.303	-200.000	0.058	0.359
-614.288	24.524	-0.115	-0.095
-613.273	-91.850	0.196	-0.056
-612.259	-36.424	0.111	0.060
-611.244	0.966	0.191	-0.137
-610.230	-138.089	0.169	0.019
-609.215	800.000	-0.057	-0.177
-608.201	-145.056	0.282	0.026
-607.186	-200.000	-0.016	0.077
-606.171	-200.000	0.005	-0.062
-605.157	-175.948	0.106	0.003
-604.142	-94.317	-0.241	-0.066
-603.128	-200.000	0.009	0.118
-602.113	-62.655	0.183	-0.076
-601.098	31.841	0.115	0.100
-600.084	-11.212	0.115	0.076
-599.069	161.909	-0.182	-0.256
-598.055	-200.000	0.032	0.333
-597.040	-200.000	-0.010	-0.095
-596.025	-42.788	-0.256	-0.131
-595.011	-135.817	-0.404	0.048
-593.996	-158.088	0.224	0.013
-592.982	-66.362	0.189	0.075
-591.967	378.938	0.100	-0.205
-590.952	117.914	-0.128	-0.158
-589.938	-12.616	-0.336	0.220
-588.923	21.686	0.385	-0.315
-587.909	-114.490	0.193	0.037
-586.894	-0.635	0.062	-0.044
-585.879	10.344	-0.067	-0.051
-584.865	2.760	-0.083	0.061
-583.850	81.124	0.193	-0.209
-582.836	800.000	0.046	-0.166
-581.821	338.307	-0.051	0.099
-580.806	-11.227	0.260	-0.171
-579.792	-108.172	0.229	-0.050
-578.777	-200.000	-0.069	-0.372
-577.763	-20.229	0.242	0.149
-576.748	800.000	0.078	-0.340
-575.733	-84.986	0.361	-0.113
-574.719	-76.590	-0.199	0.070
-573.704	14.158	0.177	-0.138
-572.690	-67.443	0.285	0.112
-571.675	-200.000	-0.038	0.000
-570.661	-4.033	0.446	0.310
-569.646	-151.791	-0.244	0.018
-568.631	147.190	0.110	0.148
-567.617	-125.104	0.183	0.028
-566.602	34.117	0.204	0.179
-565.588	84.738	-0.068	0.075
-564.573	151.420	-0.080	0.109
-563.558	32.121	0.024	0.021
-562.544	207.110	0.081	0.126
-561.529	-200.000	-0.006	0.178
-560.515	-200.000	0.104	-0.499
-559.500	-153.537	-0.291	-0.020
-558.485	-200.000	-0.036	0.188
-557.471	207.728	-0.134	-0.210
-556.456	-200.000	-0.047	0.449
-555.442	272.837	-0.181	-0.321
-554.427	-22.272	-0.071	0.043
-553.412	133.513	0.087	0.113
-552.398	31.280	0.179	-0.153
-551.383	800.000	-0.060	0.169
-550.369	-45.178	-0.158	-0.078
-549.354	-88.671	0.266	0.079
-548.339	800.000	-0.126	0.448
-547.325	185.647	0.149	0.222
-546.310	-5.142	-0.119	0.082
-545.296	163.561	0.106	-0.150
-544.281	800.000	-0.029	0.105
-543.266	-60.469	-0.186	0.079
-542.252	-200.000	-0.267	-0.001
-541.237	-108.078	0.291	-0.063
-540.223	-6.373	0.168	0.114
-539.208	57.085	-0.290	-0.283
-538.193	-200.000	-0.087	-0.439
-537.179	148.640	0.338	-0.457
-536.164	-22.992	-0.121	0.073
-535.150	-186.517	-0.074	-0.001
-534.135	800.000	0.149	-0.556
-533.121	-200.000	0.011	-0.072
-532.106	-49.164	0.147	-0.070
-531.091	229.750	-0.092	0.150
-530.077	-117.640	0.192	0.035
-529.062	795.788	-0.036	-0.100
-528.048	149.492	0.184	0.250
-527.033	614.928	0.052	-0.131
-526.018	536.946	-0.096	0.228
-525.004	16.852	-0.127	0.101
-523.989	77.429	-0.305	0.324
-522.975	-200.000	-0.020	0.186
-521.960	1.168	0.052	-0.037
-520.945	-97.515	-0.404	0.105
-519.931	-81.627	-0.123	-0.040
-518.916	-49.907	0.112	-0.053
-517.902	-114.091	-0.325	0.063
-516.887	316.883	0.104	0.197
-515.872	-141.053	0.085	-0.009
-514.858	-200.000	0.332	0.001
-513.843	94.019	0.134	-0.152
-512.829	35.858	-0.195	-0.172
-511.814	-43.551	0.341	-0.172
-510.799	-200.000	-0.008	-0.053
-509.785	306.995	0.082	-0.152
-508.770	-127.956	-0.154	0.022
-507.756	63.318	0.201	-0.202
-506.741	71.931	-0.118	0.122
-505.726	800.000	-0.095	0.409
-504.712	13.709	0.188	0.146
-503.697	800.000	0.055	-0.225
-502.683	194.780	0.064	-0.097
-501.668	-54.367	0.293	0.133
-500.653	-200.000	-0.039	-0.186
-499.639	279.677	0.309	0.551
-498.624	-23.612	0.136	0.081
-497.610	800.000	0.056	0.213
-496.595	-9.508	-0.046	0.031
-495.581	-200.000	0.005	-0.050
-494.566	-11.771	0.154	-0.101
-493.551	-72.668	-0.092	0.034
-492.537	-56.715	-0.317	-0.140
-491.522	12.804	0.143	0.110
-490.508	94.360	-0.152	0.172
-489.493	-109.052	-0.163	0.035
-488.478	9.855	-0.195	-0.148
-487.464	200.814	-0.110	-0.169
-486.449	71.210	0.337	-0.349
-485.435	-200.000	0.031	0.167
-484.420	-6.227	-0.182	0.124
-483.405	800.000	-0.055	0.240
-482.391	276.550	0.121	-0.215
-481.376	74.693	-0.120	0.126
-480.362	-200.000	0.012	-0.207
-479.347	135.937	0.176	-0.228
-478.332	-43.368	0.072	-0.036
-477.318	177.402	-0.292	-0.424
-476.303	9.982	-0.238	0.180
-475.289	800.000	-0.029	0.089
-474.274	529.251	0.071	0.167
-473.259	-200.000	0.004	-0.202
-472.245	-83.604	-0.298	-0.095
-471.230	-101.797	0.367	0.089
-470.216	-200.000	-0.055	-0.357
-469.201	-200.000	0.007	-0.153
-468.186	800.000	-0.088	-0.338
-467.172	78.546	0.085	0.090
-466.157	44.736	0.099	-0.090
-465.143	-189.591	0.142	0.002
-464.128	-157.361	0.096	-0.006
-463.113	51.205	-0.182	-0.172
-462.099	-200.000	0.007	0.088
-461.084	-200.000	-0.019	-0.111
-460.070	800.000	0.113	-0.430
-459.055	-200.000	0.038	-0.449
-458.040	-111.800	-0.187	-0.038
-457.026	-200.000	-0.027	0.211
-456.011	-53.561	0.263	0.120
-454.997	-164.898	-0.066	-0.003
-453.982	-12.479	-0.204	0.133
-452.968	-96.933	0.283	0.074
-451.953	-101.567	0.025	-0.006
-450.938	-111.330	0.135	0.027
-449.924	302.987	0.085	0.157
-448.909	352.359	-0.020	-0.040
-447.895	-54.573	-0.250	-0.113
-446.880	456.941	-0.112	-0.248
-445.865	47.427	0.158	-0.147
-444.851	-87.672	-0.350	-0.105
-443.836	349.966	-0.037	-0.073
-442.822	-200.000	0.025	0.314
-441.807	800.000	0.110	-0.347
-440.792	-200.000	0.017	-0.095
-439.778	-200.000	-0.005	-0.092
-438.763	-200.000	0.005	0.037
-437.749	-175.385	-0.044	-0.001
-436.734	800.000	0.166	-0.469
-435.719	28.845	0.019	-0.016
-434.705	470.659	0.065	0.145
-433.690	800.000	0.021	-0.080
-432.676	-7.995	0.073	-0.049
-431.661	-200.000	0.034	-0.256
-430.646	782.484	0.009	0.025
-429.632	-141.391	0.136	0.014
-428.617	800.000	-0.035	0.152
-427.603	348.911	-0.122	0.240
-426.588	-95.468	0.024	0.006
-425.573	800.000	0.033	0.114
-424.559	-198.388	-0.103	-0.001
-423.544	800.000	0.073	0.223
-422.530	800.000	0.062	0.204
-421.515	800.000	-0.054	0.231
-420.500	-200.000	-0.012	0.248
-419.486	-80.597	-0.207	-0.069
-418.471	550.505	0.110	0.262
-417.457	515.838	0.080	0.187
-416.442	6.719	0.075	-0.056
-415.428	-14.306	-0.297	0.191
-414.413	-200.000	0.020	-0.191
-413.398	800.000	-0.049	0.157
-412.384	800.000	-0.067	-0.189
-411.369	168.476	0.213	-0.302
-410.355	397.450	-0.112	-0.233
-409.340	190.615	0.039	-0.058
-408.325	-58.451	-0.199	0.086
-407.311	-103.577	0.296	-0.069
-406.296	159.687	-0.038	-0.053
-405.282	-170.840	0.483	-0.016
-404.267	800.000	-0.060	-0.242
-403.252	-113.509	-0.377	0.073
-402.238	-67.273	0.233	0.091
-401.223	9.768	0.398	0.301
-400.209	-56.884	0.219	-0.096
-399.194	17.520	0.224	0.177
-398.179	-53.288	-0.303	0.138
-397.165	676.810	0.027	-0.070
-396.150	-61.828	0.129	0.054
-395.136	66.426	0.223	0.226
-394.121	-200.000	-0.041	-0.300
-393.106	-94.930	-0.349	0.094
-392.092	12.156	-0.203	-0.155
-391.077	-34.138	-0.363	-0.198
-390.063	260.744	-0.030	0.051
-389.048	-33.907	-0.051	-0.028
-388.033	10.321	-0.161	0.122
-387.019	36.156	-0.353	-0.309
-386.004	-89.068	0.124	-0.036
-384.990	666.552	0.023	0.060
-383.975	202.706	-0.114	-0.175
-382.960	800.000	-0.069	-0.216
-381.946	344.831	0.065	0.127
-380.931	191.254	-0.159	0.239
-379.917	-97.698	0.268	0.069
-378.902	-109.352	0.171	0.036
-377.888	-200.000	0.034	-0.163
-376.873	271.642	-0.172	-0.302
-375.858	-56.117	0.066	0.029
-374.844	-133.905	-0.236	0.029
-373.829	376.002	-0.212	0.430
-372.815	108.713	-0.053	0.063
-371.800	-109.053	0.461	-0.098
-370.785	60.928	-0.136	0.134
-369.771	132.425	-0.078	0.101
-368.756	-10.500	-0.195	-0.129
-367.742	800.000	-0.024	0.100
-366.727	-24.210	0.198	0.118
-365.712	-157.101	0.294	0.018
-364.698	52.068	0.148	0.140
-363.683	87.392	0.104	0.115
-362.669	82.066	-0.200	-0.215
-361.654	-115.272	0.220	0.041
-360.639	-46.198	-0.163	-0.080
-359.625	159.681	-0.107	-0.148
-358.610	-66.439	0.064	0.025
-357.596	-142.161	-0.375	-0.037
-356.581	49.586	-0.218	0.204
-355.566	-86.675	-0.127	0.039
-354.552	-179.220	-0.310	-0.007
-353.537	-155.729	-0.331	0.021
-352.523	153.586	0.120	-0.163
-351.508	-200.000	0.000	-0.215
-350.493	740.453	0.034	0.090
-349.479	237.842	-0.041	-0.068
-348.464	800.000	-0.069	0.226
-347.450	-120.209	-0.443	0.075
-346.435	-70.129	0.151	0.057
-345.420	132.333	0.172	0.220
-344.406	800.000	0.029	0.117
-343.391	160.539	0.090	0.124
-342.377	-200.000	-0.195	0.000
-341.362	66.110	-0.394	-0.397
-340.348	190.816	0.235	0.351
-339.333	609.824	-0.077	0.190
-338.318	126.147	-0.137	0.172
-337.304	800.000	-0.061	0.225
-336.289	189.578	0.137	-0.203
-335.275	47.844	-0.220	-0.204
-334.260	349.148	0.068	0.134
-333.245	-172.007	-0.175	-0.006
-332.231	-169.797	0.082	0.003
-331.216	75.979	0.276	0.290
-330.202	-47.008	-0.129	0.063
-329.187	-127.089	0.204	-0.030
-328.172	31.107	-0.131	0.112
-327.158	-92.191	-0.219	0.061
-326.143	800.000	-0.039	-0.165
-325.129	-168.048	-0.264	-0.010
-324.114	800.000	-0.028	-0.085
-323.099	800.000	0.031	-0.085
-322.085	361.619	0.008	0.017
-321.070	270.119	-0.053	0.092
-320.056	-200.000	0.007	0.082
-319.041	-200.000	0.026	0.209
-318.026	800.000	0.093	0.404
-317.012	-200.000	-0.014	0.109
-315.997	23.262	0.412	-0.335
-314.983	-168.856	0.119	-0.004
-313.968	-132.562	0.373	0.048
-312.953	29.214	0.103	-0.087
-311.939	-178.198	0.242	-0.006
-310.924	143.974	0.059	0.078
-309.910	800.000	-0.054	0.231
-308.895	-200.000	-0.001	0.105
-307.880	-114.571	0.285	0.054
-306.866	139.686	0.036	-0.047
-305.851	-134.991	0.331	0.040
-304.837	-113.201	-0.339	0.066
-303.822	-200.000	-0.017	0.115
-302.807	-200.000	0.021	0.101
-301.793	800.000	0.036	-0.123
-300.778	-51.036	0.205	-0.095
-299.764	-134.854	0.192	-0.023
-298.749	755.028	0.101	-0.270
-297.735	-18.291	-0.418	0.259
-296.720	800.000	-0.074	0.303
-295.705	51.105	0.233	0.219
-294.691	76.780	-0.091	0.096
-293.676	-121.790	0.263	0.043
-292.662	-151.456	-0.367	-0.027
-291.647	800.000	0.067	0.200
-290.632	-59.853	-0.102	0.043
-289.618	-200.000	-0.000	0.110
-288.603	-200.000	-0.007	-0.225
-287.589	72.425	-0.193	-0.199
-286.574	800.000	-0.063	-0.226
-285.559	202.975	-0.170	0.261
-284.545	800.000	0.083	-0.250
-283.530	-75.333	-0.104	-0.037
-282.516	333.365	-0.116	-0.223
-281.501	216.593	-0.137	-0.216
-280.486	-108.351	0.104	0.022
-279.472	371.854	0.098	0.197
-278.457	400.484	0.139	0.289
-277.443	132.119	-0.166	-0.211
-276.428	800.000	0.113	-0.332
-275.413	231.806	0.060	0.097
-274.399	-200.000	0.023	0.191
-273.384	-66.877	0.406	-0.159
-272.370	-78.225	-0.346	-0.118
-271.355	-115.197	-0.141	0.026
-270.340	800.000	0.067	0.214
-269.326	273.351	0.122	0.214
-268.311	340.694	0.122	0.236
-267.297	-4.456	0.251	0.172
-266.282	267.189	-0.305	0.529
-265.267	-8.430	-0.198	0.132
-264.253	276.217	-0.054	0.095
-263.238	7.297	0.240	0.177
-262.224	-51.414	0.117	0.054
-261.209	-107.644	0.121	0.026
-260.195	-27.334	-0.060	-0.035
-259.180	5.085	-0.199	-0.145
-258.165	81.849	0.099	0.106
-257.151	553.345	-0.039	0.093
-256.136	800.000	0.106	-0.292
-255.122	-200.000	0.020	0.106
-254.107	-180.159	-0.355	-0.007
-253.092	800.000	0.102	-0.309
-252.078	15.975	-0.034	-0.026
-251.063	452.559	-0.083	-0.182
-250.049	105.957	-0.098	0.115
-249.034	-200.000	0.001	-0.036
-248.019	-24.616	-0.246	-0.145
-247.005	-193.123	0.205	-0.002
-245.990	208.399	0.030	0.047
-244.976	-5.609	0.300	-0.203
-243.961	100.815	0.106	0.122
-242.946	-153.875	0.397	0.027
-241.932	800.000	-0.062	-0.196
-240.917	78.803	-0.151	0.160
-239.903	-38.020	0.056	0.030
-238.888	800.000	0.146	0.457
-237.873	-110.618	0.201	0.041
-236.859	131.398	-0.150	-0.191
-235.844	-159.444	0.360	-0.020
-234.830	-200.000	0.012	-0.243
-233.815	796.786	0.116	0.317
-232.800	-75.370	-0.297	-0.105
-231.786	-44.944	-0.170	-0.084
-230.771	346.419	0.109	0.213
-229.757	55.528	-0.118	0.113
-228.742	-82.858	0.297	-0.095
-227.727	-106.016	-0.147	0.033
-226.713	-200.000	-0.050	-0.381
-225.698	-136.669	0.397	0.045
-224.684	-14.496	-0.200	-0.127
-223.669	800.000	-0.020	0.086
-222.655	167.945	0.078	0.109
-221.640	304.395	0.163	0.298
-220.625	-45.518	-0.147	0.072
-219.611	738.484	0.082	-0.217
-218.596	-200.000	-0.048	-0.272
-217.582	325.392	-0.180	-0.339
-216.567	-200.000	-0.030	-0.432
-215.552	-200.000	-0.031	-0.153
-214.538	-95.306	-0.098	0.026
-213.523	-4.933	-0.112	0.077
-212.509	39.964	-0.261	-0.232
-211.494	-151.092	-0.527	0.039
-210.479	751.703	-0.060	-0.160
-209.465	31.343	0.188	-0.159
-208.450	800.000	-0.080	0.241
-207.436	354.472	0.104	0.205
-206.421	16.950	-0.283	0.221
-205.406	-86.383	0.086	0.026
-204.392	-65.018	-0.238	-0.095
-203.377	-29.947	-0.021	0.012
-202.363	44.829	-0.147	0.134
-201.348	-69.120	-0.183	0.069
-200.333	-27.090	-0.119	0.069
-199.319	-200.000	0.003	0.075
-198.304	-200.000	0.010	-0.094
-197.290	-5.174	-0.410	-0.278
-196.275	-200.000	0.045	-0.280
-195.260	-18.973	-0.225	-0.138
-194.246	16.628	0.276	0.216
-193.231	104.815	0.163	-0.190
-192.217	-78.142	0.227	-0.077
-191.202	335.611	-0.087	0.166
-190.187	-200.000	-0.014	-0.372
-189.173	-27.121	0.209	-0.120
-188.158	204.978	0.114	-0.174
-187.144	-200.000	-0.010	0.082
-186.129	25.877	-0.271	-0.223
-185.114	-63.075	0.352	-0.143
-184.100	-59.993	-0.384	-0.162
-183.085	-200.000	-0.008	0.110
-182.071	-200.000	-0.027	0.220
-181.056	-200.000	0.001	0.098
-180.042	95.106	-0.091	0.102
-179.027	4.497	0.125	0.090
-178.012	-200.000	-0.008	0.104
-176.998	-26.156	-0.138	0.080
-175.983	800.000	-0.038	0.134
-174.969	800.000	0.127	0.419
-173.954	7.707	-0.017	-0.013
-172.939	49.203	0.141	0.130
-171.925	800.000	-0.076	0.279
-170.910	42.836	-0.068	-0.061
-169.896	98.317	-0.124	-0.141
-168.881	117.480	0.152	0.184
-167.866	165.526	-0.220	0.307
-166.852	-17.688	0.066	0.041
-165.837	-130.384	-0.345	-0.046
-164.823	39.528	0.165	-0.146
-163.808	-28.946	0.135	0.076
-162.793	800.000	0.022	-0.068
-161.779	15.250	0.108	-0.083
-160.764	-115.219	0.242	-0.045
-159.750	-61.111	0.164	0.068
-158.735	-120.430	-0.130	0.022
-157.720	-134.052	0.191	-0.023
-156.706	365.853	0.010	0.019
-155.691	-19.168	-0.241	-0.148
-154.677	43.846	0.093	0.084
-153.662	-138.882	0.210	0.023
-152.647	170.430	0.220	-0.311
-151.633	-19.481	-0.113	-0.069
-150.618	-96.023	0.291	0.076
-149.604	1.923	0.141	-0.101
-148.589	-2.255	0.014	0.010
-147.574	711.365	0.051	0.132
-146.560	260.703	-0.088	-0.150
-145.545	-200.000	0.007	-0.052
-144.531	211.787	-0.129	-0.201
-143.516	52.495	0.054	-0.051
-142.502	40.863	-0.070	0.062
-141.487	96.876	-0.046	-0.052
-140.472	-116.215	0.089	0.016
-139.458	-200.000	-0.016	0.411
-138.443	800.000	-0.034	0.128
-137.429	-73.024	-0.119	-0.043
-136.414	-62.520	0.424	0.174
-135.399	66.824	0.128	-0.128
-134.385	179.735	0.223	0.322
-133.370	750.515	-0.057	-0.151
-132.356	-111.592	-0.073	0.015
-131.341	-42.925	-0.115	-0.058
-130.326	800.000	0.138	0.452
-129.312	-0.665	0.283	0.198
-128.297	-200.000	0.084	0.365
-127.283	-200.000	-0.057	0.328
-126.268	-45.567	-0.101	0.049
-125.253	191.384	0.114	-0.170
-124.239	-200.000	0.041	0.196
-123.224	-200.000	-0.007	0.058
-122.210	-200.000	0.010	-0.072
-121.195	-111.330	-0.150	0.030
-120.180	535.182	0.137	-0.321
