DTS Sentinel unit serial number:	SN413079Multiplexer serial number:	ORYXHardware model number:	OX4-SRSoftware version number:	ORYX F/W v4.00 Oryx Data Collector v3.7.2.0data status	okinstallation	princeton_trtdifferential loss correction	single-endedforward channel	channel 2reverse channel	N/Adate	2019/09/15time	10:07:34forward acquisition time	60.00reverse acquisition time	0.00gamma	496.2192k internal	0.2315k external	0.2315temperature offset calibration	1.0017default loss term (dB/km)	0.3790temperature slope calibration	1.0000multiplexer offset coefficient	1.0000multiplexer slope coefficient	1.0000fibre end	0.00T internal ref (°C)	34.19T ext. ref 1 (°C)	5.02T ext. ref 2 (°C)	29.99length (m)	temperature (°C)	Stokes	anti-Stokes-747.200	-49.987	-0.251	0.121
-746.185	134.321	0.240	0.316
-745.171	139.486	0.170	0.227
-744.156	800.000	0.056	-0.157
-743.142	-200.000	0.026	0.129
-742.127	87.050	0.055	0.062
-741.112	360.493	0.171	0.347
-740.098	-63.115	-0.203	-0.085
-739.083	800.000	-0.095	-0.321
-738.069	32.216	-0.267	0.233
-737.054	800.000	-0.087	0.285
-736.039	-84.263	-0.493	-0.158
-735.025	351.997	-0.103	0.206
-734.010	284.826	0.119	-0.217
-732.996	63.642	-0.442	-0.450
-731.981	-200.000	-0.006	0.161
-730.966	800.000	-0.016	-0.055
-729.952	-69.464	-0.427	-0.166
-728.937	-127.244	-0.147	0.022
-727.923	99.352	-0.059	-0.069
-726.908	-200.000	-0.018	-0.269
-725.894	17.069	-0.209	-0.167
-724.879	-200.000	-0.003	-0.139
-723.864	8.831	-0.244	0.186
-722.850	159.109	-0.125	-0.175
-721.835	-200.000	0.021	-0.265
-720.821	593.697	0.160	-0.401
-719.806	-93.421	-0.078	-0.022
-718.791	699.015	0.042	0.111
-717.777	-28.385	-0.187	0.109
-716.762	-116.259	-0.272	0.051
-715.748	-8.006	0.197	-0.134
-714.733	-125.843	-0.256	-0.039
-713.718	-159.174	0.059	-0.003
-712.704	36.478	0.212	-0.190
-711.689	275.869	-0.009	0.015
-710.675	1.399	0.275	-0.200
-709.660	212.243	-0.112	-0.179
-708.645	387.277	0.151	-0.316
-707.631	121.517	-0.059	-0.075
-706.616	-1.817	0.158	-0.112
-705.602	-62.122	-0.074	-0.031
-704.587	-175.234	-0.217	0.006
-703.572	311.956	0.099	-0.189
-702.558	79.007	-0.221	0.240
-701.543	-200.000	0.020	0.191
-700.529	-200.000	0.002	-0.083
-699.514	39.738	0.092	0.084
-698.499	-80.527	-0.258	-0.087
-697.485	-148.653	0.219	0.018
-696.470	-94.033	0.145	-0.040
-695.456	-119.760	-0.199	-0.035
-694.441	800.000	-0.107	-0.367
-693.426	800.000	0.057	-0.213
-692.412	-13.039	-0.282	0.186
-691.397	-200.000	-0.059	-0.292
-690.383	3.908	-0.250	0.185
-689.368	-87.243	-0.238	-0.073
-688.354	-66.425	-0.086	0.035
-687.339	-193.792	0.114	-0.001
-686.324	-21.312	0.020	0.013
-685.310	800.000	-0.006	-0.024
-684.295	539.020	-0.186	-0.447
-683.281	-26.808	0.279	-0.165
-682.266	-108.449	-0.349	-0.076
-681.251	-20.502	-0.081	-0.051
-680.237	-200.000	-0.015	-0.140
-679.222	-32.174	0.312	-0.176
-678.208	539.368	0.023	0.055
-677.193	189.600	0.152	-0.231
-676.178	-200.000	-0.009	-0.087
-675.164	119.185	-0.104	0.130
-674.149	-47.417	-0.086	0.042
-673.135	230.765	0.108	0.179
-672.120	42.601	0.053	0.048
-671.105	-20.473	0.140	-0.087
-670.091	-182.253	-0.211	0.004
-669.076	-108.086	0.340	0.075
-668.062	-73.207	-0.377	0.140
-667.047	-113.741	0.189	-0.037
-666.032	16.623	0.211	-0.168
-665.018	2.749	-0.294	-0.215
-664.003	800.000	0.103	-0.311
-662.989	68.401	-0.107	-0.111
-661.974	800.000	0.059	-0.193
-660.959	-113.881	-0.064	0.013
-659.945	74.210	-0.140	0.149
-658.930	-2.872	-0.068	-0.048
-657.916	-85.806	-0.339	-0.106
-656.901	108.651	0.246	0.297
-655.886	113.552	-0.065	-0.079
-654.872	800.000	0.022	-0.075
-653.857	-200.000	0.025	-0.474
-652.843	11.367	-0.186	-0.143
-651.828	96.000	0.031	0.036
-650.814	34.057	0.163	0.143
-649.799	-168.736	-0.195	-0.007
-648.784	-108.116	-0.144	0.032
-647.770	16.606	-0.366	0.292
-646.755	-200.000	0.004	-0.527
-645.741	-61.031	0.020	-0.009
-644.726	-137.107	0.213	-0.025
-643.711	85.934	-0.139	0.154
-642.697	-200.000	0.009	-0.095
-641.682	-3.360	0.072	0.051
-640.668	128.580	0.098	0.126
-639.653	52.718	0.289	-0.278
-638.638	79.458	0.071	-0.077
-637.624	-200.000	0.062	-0.298
-636.609	227.600	0.262	-0.430
-635.595	-18.116	0.180	-0.114
-634.580	25.425	0.257	0.216
-633.565	800.000	0.054	-0.209
-632.551	-129.790	0.221	-0.031
-631.536	-200.000	-0.038	-0.285
-630.522	147.525	-0.092	-0.124
-629.507	-150.778	-0.323	0.025
-628.492	-93.107	0.298	-0.084
-627.478	-82.930	-0.226	-0.074
-626.463	-31.263	0.156	-0.089
-625.449	8.306	-0.189	-0.143
-624.434	-45.520	0.174	0.087
-623.419	-65.222	-0.064	-0.026
-622.405	201.322	0.030	0.046
-621.390	217.354	0.071	0.114
-620.376	36.674	0.209	0.186
-619.361	20.520	-0.230	0.187
-618.346	-77.840	0.435	-0.151
-617.332	-106.138	-0.234	-0.053
-616.317	105.299	-0.103	0.123
-615.303	163.666	0.115	-0.164
-614.288	-15.123	0.164	-0.106
-613.273	-77.856	0.064	0.022
-612.259	218.270	-0.198	0.319
-611.244	800.000	-0.132	0.380
-610.230	-56.620	0.019	0.009
-609.215	-147.457	0.064	0.005
-608.201	-76.228	-0.304	-0.108
-607.186	-200.000	-0.020	-0.191
-606.171	57.708	-0.047	-0.046
-605.157	-138.329	0.157	-0.018
-604.142	-123.405	-0.047	0.008
-603.128	746.761	-0.110	0.297
-602.113	-112.412	0.281	-0.057
-601.098	26.647	-0.194	-0.163
-600.084	60.156	0.252	0.251
-599.069	-50.667	-0.280	-0.133
-598.055	-20.273	-0.053	-0.033
-597.040	-132.673	-0.062	-0.008
-596.025	-146.920	-0.180	0.016
-595.011	-200.000	0.027	-0.192
-593.996	-72.813	-0.319	-0.118
-592.982	125.635	0.153	0.194
-591.967	56.661	0.085	-0.083
-590.952	153.058	0.196	-0.270
-589.938	-200.000	0.031	-0.334
-588.923	-59.061	0.101	0.044
-587.909	-182.824	0.111	-0.002
-586.894	-92.661	-0.317	0.089
-585.879	-85.724	-0.393	-0.123
-584.865	390.670	-0.098	-0.204
-583.850	-13.215	0.055	-0.036
-582.836	-52.739	-0.102	0.047
-581.821	800.000	0.057	0.221
-580.806	-101.583	-0.105	0.026
-579.792	-121.840	0.222	0.037
-578.777	-120.073	0.185	-0.032
-577.763	-200.000	-0.021	-0.111
-576.748	61.614	0.230	-0.230
-575.733	-53.413	0.208	0.096
-574.719	79.063	0.242	0.261
-573.704	-200.000	-0.006	0.035
-572.690	88.282	-0.191	0.214
-571.675	-195.964	-0.238	0.002
-570.661	-174.568	-0.176	-0.005
-569.646	150.956	0.112	0.153
-568.631	-107.490	-0.283	-0.062
-567.617	-104.808	-0.293	-0.068
-566.602	576.725	-0.057	0.140
-565.588	438.397	0.075	0.165
-564.573	15.062	-0.325	0.256
-563.558	-81.803	-0.314	-0.103
-562.544	182.628	0.193	0.287
-561.529	-128.751	0.313	0.044
-560.515	435.117	0.021	-0.046
-559.500	-35.708	0.259	0.141
-558.485	-64.081	-0.232	0.095
-557.471	-140.609	0.207	-0.022
-556.456	265.755	-0.031	0.055
-555.442	-200.000	0.103	-0.000
-554.427	181.024	-0.192	0.283
-553.412	-118.157	-0.131	-0.024
-552.398	-22.794	-0.097	0.059
-551.383	-62.641	-0.189	0.079
-550.369	340.379	0.071	0.140
-549.354	374.581	0.048	0.099
-548.339	-200.000	0.006	-0.220
-547.325	-157.941	0.096	-0.006
-546.310	-130.031	0.104	-0.014
-545.296	-31.043	0.273	-0.155
-544.281	-152.490	0.233	-0.017
-543.266	-15.981	-0.038	-0.024
-542.252	64.662	-0.113	-0.114
-541.237	121.496	0.226	0.283
-540.223	45.655	0.178	-0.165
-539.208	239.519	-0.249	0.417
-538.193	-145.758	0.149	-0.013
-537.179	800.000	0.119	-0.339
-536.164	-200.000	0.006	0.168
-535.150	117.068	-0.115	-0.142
-534.135	-74.405	-0.162	0.059
-533.121	-88.612	-0.182	-0.054
-532.106	226.782	-0.110	0.180
-531.091	-200.000	-0.023	-0.251
-530.077	102.275	0.283	-0.333
-529.062	-200.000	0.012	-0.214
-528.048	228.268	0.061	-0.101
-527.033	333.300	0.072	-0.141
-526.018	160.857	0.037	-0.051
-525.004	800.000	-0.074	0.220
-523.989	-75.961	0.320	0.114
-522.975	-99.025	-0.378	0.096
-521.960	248.460	-0.222	-0.377
-520.945	160.810	-0.314	-0.440
-519.931	-97.490	0.356	0.093
-518.916	-116.769	0.269	0.050
-517.902	800.000	0.080	-0.238
-516.887	69.754	-0.229	-0.237
-515.872	-53.043	-0.192	-0.089
-514.858	40.470	0.066	-0.059
-513.843	-119.217	-0.170	0.030
-512.829	800.000	-0.041	-0.177
-511.814	25.382	0.163	0.136
-510.799	800.000	0.021	0.060
-509.785	-131.012	0.289	-0.039
-508.770	-47.493	-0.137	0.067
-507.756	-24.106	0.323	0.194
-506.741	-97.823	-0.115	0.030
-505.726	16.643	-0.142	0.113
-504.712	-200.000	-0.069	-0.311
-503.697	-127.881	-0.098	-0.014
-502.683	-164.221	0.217	-0.010
-501.668	-130.226	-0.316	-0.043
-500.653	609.997	-0.035	-0.087
-499.639	-28.713	0.262	-0.151
-498.624	800.000	0.042	-0.171
-497.610	80.574	-0.099	0.107
-496.595	16.942	-0.180	0.143
-495.581	-36.535	-0.189	-0.102
-494.566	-200.000	-0.064	0.390
-493.551	-74.888	-0.393	0.141
-492.537	135.087	-0.047	-0.061
-491.522	-152.415	0.327	-0.024
-490.508	-17.316	0.301	0.190
-489.493	367.069	0.097	-0.196
-488.478	-82.020	-0.245	0.080
-487.464	800.000	-0.082	-0.315
-486.449	-126.973	0.350	-0.052
-485.435	-18.070	-0.079	0.050
-484.420	800.000	-0.042	0.181
-483.405	-74.341	-0.217	0.079
-482.391	-200.000	-0.006	-0.239
-481.376	-147.425	0.091	-0.008
-480.362	388.845	0.083	-0.172
-479.347	-87.357	0.181	-0.055
-478.332	-28.064	0.074	-0.043
-477.318	31.247	-0.103	0.089
-476.303	58.120	0.061	-0.060
-475.289	111.636	-0.127	-0.154
-474.274	-117.702	0.121	0.022
-473.259	-96.138	-0.294	-0.078
-472.245	159.825	-0.125	-0.175
-471.230	-86.889	0.428	0.131
-470.216	5.513	-0.234	0.173
-469.201	-200.000	0.016	0.109
-468.186	610.627	-0.132	0.330
-467.172	-158.417	-0.089	0.005
-466.157	-200.000	-0.019	-0.263
-465.143	-103.248	0.128	0.030
-464.128	-154.471	0.357	-0.024
-463.113	332.459	-0.096	-0.186
-462.099	-33.458	-0.192	-0.107
-461.084	-53.577	-0.233	-0.107
-460.070	186.310	0.056	0.083
-459.055	800.000	0.086	0.327
-458.040	-102.356	-0.101	0.024
-457.026	-48.766	0.163	-0.079
-456.011	-150.619	-0.511	-0.039
-454.997	-96.334	-0.314	-0.083
-453.982	-68.531	0.098	0.038
-452.968	439.866	-0.174	-0.382
-451.953	74.876	0.164	0.173
-450.938	-19.105	-0.088	0.055
-449.924	-191.991	-0.083	0.001
-448.909	-79.111	0.072	-0.025
-447.895	403.207	0.059	-0.125
-446.880	-34.490	-0.129	-0.071
-445.865	98.922	-0.155	-0.179
-444.851	406.607	0.133	0.282
-443.836	-83.976	0.241	0.077
-442.822	126.913	-0.082	-0.104
-441.807	-36.755	-0.175	-0.094
-440.792	47.097	0.090	0.084
-439.778	260.444	0.118	0.205
-438.763	-200.000	-0.029	-0.182
-437.749	-13.216	-0.163	0.106
-436.734	-150.794	0.091	0.007
-435.719	-200.000	0.102	0.461
-434.705	612.286	0.137	-0.343
-433.690	800.000	-0.136	0.413
-432.676	-112.111	0.042	0.008
-431.661	111.326	0.117	-0.141
-430.646	15.618	0.175	0.138
-429.632	774.795	0.102	-0.277
-428.617	-200.000	0.040	-0.404
-427.603	-164.561	0.155	0.007
-426.588	-92.445	0.411	-0.116
-425.573	-164.207	0.262	0.012
-424.559	800.000	-0.027	0.107
-423.544	-200.000	-0.277	-0.000
-422.530	23.190	-0.078	0.064
-421.515	282.831	0.111	0.200
-420.500	68.837	0.160	0.164
-419.486	-200.000	-0.022	0.221
-418.471	-151.911	0.029	-0.002
-417.457	800.000	-0.139	-0.511
-416.442	-200.000	0.038	-0.291
-415.428	800.000	0.053	0.173
-414.413	-200.000	0.021	0.158
-413.398	-134.478	-0.238	0.029
-412.384	-86.435	-0.093	0.029
-411.369	59.286	0.052	-0.052
-410.355	39.701	0.124	-0.112
-409.340	188.593	0.140	-0.210
-408.325	-49.401	-0.046	-0.022
-407.311	-200.000	0.040	-0.513
-406.296	-200.000	-0.002	-0.375
-405.282	-135.738	0.066	0.008
-404.267	-63.750	0.198	0.081
-403.252	51.639	0.013	-0.012
-402.238	-200.000	-0.073	-0.341
-401.223	-200.000	0.002	-0.143
-400.209	-31.657	-0.051	-0.028
-399.194	-29.242	-0.202	-0.116
-398.179	-139.505	0.159	0.017
-397.165	-96.764	-0.021	-0.005
-396.150	21.187	-0.294	0.239
-395.136	800.000	0.012	0.044
-394.121	-41.437	0.112	-0.058
-393.106	800.000	0.058	-0.188
-392.092	-68.745	-0.112	-0.043
-391.077	-166.941	-0.190	0.008
-390.063	-151.782	-0.125	0.009
-389.048	544.868	0.036	-0.085
-388.033	89.619	-0.110	0.123
-387.019	-200.000	-0.000	-0.180
-386.004	-28.867	0.199	0.114
-384.990	9.251	0.081	-0.061
-383.975	57.598	0.123	0.121
-382.960	16.814	-0.120	0.095
-381.946	126.518	0.105	-0.132
-380.931	-92.744	0.129	0.036
-379.917	800.000	-0.098	0.292
-378.902	127.240	0.133	0.168
-377.888	-168.064	0.247	0.010
-376.873	84.621	0.090	0.098
-375.858	800.000	-0.037	0.135
-374.844	-200.000	0.012	-0.349
-373.829	-13.194	-0.145	0.094
-372.815	-200.000	0.025	-0.221
-371.800	82.051	0.159	0.173
-370.785	800.000	-0.122	0.480
-369.771	108.686	0.124	-0.148
-368.756	-5.148	-0.215	0.148
-367.742	19.826	-0.076	0.061
-366.727	-200.000	0.035	0.233
-365.712	291.784	-0.049	0.089
-364.698	-37.398	-0.154	0.082
-363.683	191.204	-0.208	0.312
-362.669	-153.438	0.108	-0.007
-361.654	-6.339	0.174	-0.119
-360.639	800.000	-0.051	0.176
-359.625	-4.279	0.324	0.224
-358.610	-57.267	0.238	-0.105
-357.596	337.086	0.093	0.180
-356.581	-73.121	-0.141	0.052
-355.566	-102.098	0.134	-0.032
-354.552	609.746	-0.079	0.197
-353.537	-168.111	0.202	0.008
-352.523	-92.835	0.432	0.121
-351.508	-20.502	0.192	-0.118
-350.493	-120.252	-0.187	0.032
-349.479	417.434	0.099	-0.211
-348.464	113.604	-0.108	-0.131
-347.450	180.673	0.098	0.143
-346.435	800.000	0.022	-0.084
-345.420	130.355	0.238	-0.305
-344.406	-153.632	-0.493	0.034
-343.391	-89.332	-0.277	-0.081
-342.377	56.632	0.249	-0.242
-341.362	101.398	-0.154	0.179
-340.348	-146.805	0.151	0.013
-339.333	-132.022	-0.092	0.012
-338.318	18.427	-0.295	0.235
-337.304	282.240	-0.180	0.321
-336.289	-69.903	-0.336	-0.128
-335.275	-56.430	-0.079	0.035
-334.260	-121.379	-0.401	0.067
-333.245	-198.958	-0.214	0.001
-332.231	414.948	-0.043	0.092
-331.216	103.373	0.196	0.229
-330.202	26.706	-0.074	-0.062
-329.187	-43.873	0.360	-0.180
-328.172	-91.142	0.228	0.065
-327.158	44.325	0.191	0.175
-326.143	-183.170	-0.266	-0.005
-325.129	-200.000	-0.031	0.287
-324.114	28.729	-0.113	-0.095
-323.099	189.695	-0.180	-0.269
-322.085	68.437	-0.154	-0.157
-321.070	240.066	0.119	-0.197
-320.056	-81.916	-0.215	0.070
-319.041	-3.699	0.188	-0.130
-318.026	-135.818	0.358	0.042
-317.012	-110.094	-0.098	-0.020
-315.997	247.665	0.099	-0.167
-314.983	-200.000	0.039	-0.200
-313.968	-200.000	-0.019	-0.314
-312.953	337.933	0.045	-0.087
-311.939	18.588	-0.300	-0.239
-310.924	102.476	0.134	0.157
-309.910	761.855	-0.043	0.116
-308.895	-89.654	-0.447	0.131
-307.880	279.750	-0.170	-0.303
-306.866	-71.290	0.081	0.030
-305.851	-66.507	0.083	-0.033
-304.837	-200.000	-0.035	-0.231
-303.822	99.515	0.176	-0.203
-302.807	644.654	0.150	0.382
-301.793	40.823	-0.176	0.158
-300.778	536.264	-0.102	-0.240
-299.764	375.819	-0.144	-0.293
-298.749	-71.436	-0.294	-0.110
-297.735	-200.000	0.120	-0.592
-296.720	-79.276	-0.203	-0.069
-295.705	-200.000	0.068	0.354
-294.691	784.494	-0.084	0.230
-293.676	800.000	0.055	0.166
-292.662	-200.000	-0.043	0.239
-291.647	52.633	-0.132	-0.125
-290.632	-87.090	0.226	0.068
-289.618	54.785	0.103	0.099
-288.603	800.000	-0.038	-0.125
-287.589	-200.000	0.052	-0.252
-286.574	-78.386	0.380	-0.130
-285.559	36.866	0.119	0.105
-284.545	-200.000	-0.024	-0.277
-283.530	574.621	-0.127	-0.309
-282.516	710.649	-0.058	0.152
-281.501	35.855	0.072	-0.063
-280.486	426.557	0.026	-0.055
-279.472	64.977	-0.312	0.313
-278.457	-60.231	-0.141	-0.060
-277.443	180.439	0.060	0.088
-276.428	-3.016	0.092	-0.064
-275.413	-62.485	0.144	-0.059
-274.399	-34.131	-0.234	0.128
-273.384	57.958	0.212	0.207
-272.370	320.205	-0.035	0.066
-271.355	311.166	0.086	0.159
-270.340	-96.022	-0.154	0.041
-269.326	800.000	-0.044	-0.126
-268.311	-82.009	-0.195	0.063
-267.297	54.288	-0.134	-0.129
-266.282	-43.129	-0.165	-0.083
-265.267	357.926	0.119	-0.237
-264.253	264.863	0.165	-0.286
-263.238	-18.727	0.090	0.056
-262.224	68.221	-0.164	0.167
-261.209	111.067	-0.079	0.095
-260.195	-200.000	0.000	0.134
-259.180	178.687	-0.186	0.270
-258.165	-75.395	-0.137	-0.048
-257.151	-200.000	0.026	0.295
-256.136	-8.849	0.190	0.127
-255.122	-14.952	-0.161	-0.103
-254.107	-170.505	-0.360	-0.012
-253.092	629.888	0.119	0.299
-252.078	-164.952	0.171	-0.008
-251.063	-185.214	-0.380	-0.006
-250.049	-137.647	0.235	0.026
-249.034	-74.222	0.276	-0.099
-248.019	-118.564	-0.206	0.036
-247.005	-148.112	0.107	-0.009
-245.990	-133.484	-0.178	0.022
-244.976	-135.736	0.114	-0.013
-243.961	327.631	-0.061	0.115
-242.946	-200.000	0.024	0.361
-241.932	-163.216	0.127	0.006
-240.917	186.972	-0.120	-0.177
-239.903	-46.123	-0.227	0.111
-238.888	-90.373	-0.116	0.033
-237.873	-142.149	0.133	-0.013
-236.859	128.365	0.103	-0.130
-235.844	226.567	-0.136	-0.220
-234.830	18.864	0.099	-0.079
-233.815	573.700	-0.057	0.139
-232.800	93.099	0.131	0.147
-231.786	-99.138	0.170	0.043
-230.771	-28.767	-0.062	0.036
-229.757	94.830	-0.206	-0.233
-228.742	-162.249	-0.408	0.020
-227.727	491.077	0.214	0.487
-226.713	76.003	-0.354	0.372
-225.698	-158.178	0.238	-0.014
-224.684	-42.703	0.150	-0.076
-223.669	-82.410	0.087	-0.028
-222.655	-21.882	0.276	0.167
-221.640	-4.273	0.159	0.110
-220.625	800.000	-0.086	0.304
-219.611	-161.540	-0.248	-0.013
-218.596	552.304	-0.071	0.169
-217.582	-200.000	0.023	0.279
-216.567	-200.000	-0.038	-0.219
-215.552	-200.000	0.050	-0.260
-214.538	47.351	-0.013	0.012
-213.523	-200.000	0.041	0.208
-212.509	77.515	-0.312	-0.330
-211.494	150.809	0.269	0.363
-210.479	-98.299	0.308	0.078
-209.465	-21.890	0.234	-0.141
-208.450	-37.077	0.137	0.073
-207.436	-84.625	-0.350	0.109
-206.421	-9.658	0.154	-0.102
-205.406	-200.000	-0.061	-0.426
-204.392	-200.000	0.064	0.292
-203.377	-113.140	0.482	-0.094
-202.363	409.099	0.086	-0.180
-201.348	-200.000	-0.008	0.046
-200.333	141.301	-0.071	-0.094
-199.319	-116.467	0.153	0.028
-198.304	107.308	0.201	0.237
-197.290	800.000	-0.059	-0.169
-196.275	119.384	0.100	0.123
-195.260	-159.073	0.412	0.023
-194.246	37.824	-0.273	-0.240
-193.231	-200.000	0.009	0.116
-192.217	800.000	0.079	0.259
-191.202	326.697	0.075	-0.142
-190.187	-95.734	0.155	0.041
-189.173	207.699	-0.125	0.194
-188.158	-200.000	0.004	0.199
-187.144	109.206	0.152	0.181
-186.129	800.000	0.066	0.247
-185.114	-200.000	-0.054	-0.273
-184.100	155.283	0.046	-0.062
-183.085	-10.888	-0.219	0.144
-182.071	82.204	-0.104	0.111
-181.056	-158.741	0.191	-0.011
-180.042	212.734	0.142	0.221
-179.027	-48.898	-0.077	0.037
-178.012	106.921	0.132	0.155
-176.998	-131.107	0.129	-0.017
-175.983	-4.647	0.101	0.069
-174.969	-200.000	0.037	0.277
-173.954	-88.632	-0.222	-0.065
-172.939	506.858	-0.018	0.041
-171.925	111.671	-0.192	0.229
-170.910	-200.000	0.003	0.331
-169.896	-124.025	0.237	0.037
-168.881	-39.209	0.159	-0.083
-167.866	-200.000	0.017	0.194
-166.852	19.304	-0.264	-0.210
-165.837	-20.438	0.337	0.205
-164.823	487.152	-0.182	-0.411
-163.808	-112.302	0.039	-0.008
-162.793	132.381	0.114	-0.145
-161.779	-71.399	-0.118	-0.044
-160.764	-200.000	0.007	-0.185
-159.750	-38.364	0.055	0.029
-158.735	-200.000	0.011	0.330
-157.720	-133.600	-0.589	-0.073
-156.706	34.951	-0.108	-0.094
-155.691	-46.989	0.207	-0.100
-154.677	-200.000	-0.009	0.278
-153.662	800.000	0.054	-0.150
-152.647	141.496	-0.101	-0.133
-151.633	277.820	-0.055	0.097
-150.618	121.294	0.072	-0.089
-149.604	51.862	0.086	-0.081
-148.589	-93.917	-0.453	-0.123
-147.574	-77.127	0.239	0.082
-146.560	800.000	0.055	-0.179
-145.545	120.908	0.121	0.149
-144.531	-114.405	-0.160	-0.030
-143.516	133.110	0.093	0.119
-142.502	-66.188	-0.026	0.010
-141.487	-200.000	0.020	-0.219
-140.472	163.808	-0.239	-0.333
-139.458	-200.000	-0.059	0.265
-138.443	-43.098	-0.130	-0.065
-137.429	-19.629	0.333	0.204
-136.414	344.182	-0.085	-0.165
-135.399	-200.000	-0.030	0.272
-134.385	800.000	-0.142	0.458
-133.370	-200.000	0.004	0.194
-132.356	-105.959	-0.172	0.038
-131.341	-192.143	-0.087	-0.001
-130.326	-6.310	0.229	0.155
-129.312	800.000	0.040	-0.125
-128.297	-163.767	0.314	-0.015
-127.283	-83.664	0.126	0.040
-126.268	-126.476	0.414	-0.061
-125.253	-154.551	-0.230	0.015
-124.239	-200.000	0.030	0.248
-123.224	307.381	0.167	0.307
-122.210	58.851	-0.099	0.097
-121.195	-72.937	0.103	0.037
