DTS Sentinel unit serial number:	SN413079Multiplexer serial number:	ORYXHardware model number:	OX4-SRSoftware version number:	ORYX F/W v4.00 Oryx Data Collector v3.7.2.0data status	okinstallation	princeton_trtdifferential loss correction	single-endedforward channel	channel 2reverse channel	N/Adate	2019/09/12time	18:19:48forward acquisition time	15.00reverse acquisition time	0.00gamma	496.2192k internal	0.2324k external	0.2324temperature offset calibration	1.0125default loss term (dB/km)	0.3790temperature slope calibration	1.0000multiplexer offset coefficient	1.0000multiplexer slope coefficient	1.0000fibre end	0.00T internal ref (°C)	33.44T ext. ref 1 (°C)	2.90T ext. ref 2 (°C)	28.12length (m)	temperature (°C)	Stokes	anti-Stokes-747.200	-200.000	-0.080	-0.440
-746.185	-39.149	0.557	-0.296
-745.171	-109.275	0.351	0.075
-744.156	-54.574	0.391	-0.179
-743.142	-185.998	0.731	0.011
-742.127	4.847	0.592	0.439
-741.112	-134.666	-0.794	0.098
-740.098	-200.000	-0.008	0.366
-739.083	5.235	-0.708	0.527
-738.069	-67.218	-0.263	-0.105
-737.054	-137.597	1.118	0.127
-736.039	145.928	0.594	-0.804
-735.025	-200.000	0.083	-0.401
-734.010	-140.903	0.248	-0.026
-732.996	-29.023	-0.659	0.381
-731.981	71.207	-0.098	0.103
-730.966	127.126	-0.479	-0.613
-729.952	800.000	0.255	-0.833
-728.937	-71.165	-0.263	-0.100
-727.923	-158.371	0.557	-0.033
-726.908	800.000	-0.187	-0.757
-725.894	-91.305	0.349	-0.101
-724.879	-165.027	-0.444	-0.020
-723.864	309.601	-0.368	-0.694
-722.850	0.052	-0.212	0.152
-721.835	-177.108	-0.244	-0.006
-720.821	-183.961	-0.209	0.004
-719.806	-62.130	-0.914	-0.385
-718.791	-82.772	0.351	-0.114
-717.777	-200.000	0.048	0.385
-716.762	796.577	-0.150	-0.418
-715.748	-145.952	-0.436	0.039
-714.733	-103.880	-0.414	-0.098
-713.718	-149.583	0.286	0.023
-712.704	-97.560	0.415	0.109
-711.689	-200.000	0.536	-0.002
-710.675	576.823	-0.228	-0.562
-709.660	-200.000	-0.190	-0.847
-708.645	-200.000	-0.083	-0.724
-707.631	800.000	-0.171	0.711
-706.616	-73.936	-0.676	0.247
-705.602	-200.000	-0.009	-0.185
-704.587	262.878	-0.140	-0.245
-703.572	800.000	-0.216	-0.652
-702.558	750.672	-0.334	-0.908
-701.543	-10.877	0.551	-0.367
-700.529	800.000	-0.156	-0.438
-699.514	-143.099	0.585	-0.057
-698.499	162.626	-0.397	0.562
-697.485	3.299	0.300	-0.220
-696.470	-87.619	0.446	-0.136
-695.456	158.715	0.307	0.429
-694.441	-111.296	-0.301	0.062
-693.426	326.352	-0.301	-0.581
-692.412	-151.571	-1.074	0.080
-691.397	-187.041	0.600	0.008
-690.383	-66.990	0.723	0.288
-689.368	-47.662	-0.121	-0.059
-688.354	800.000	-0.135	0.453
-687.339	201.790	0.280	0.434
-686.324	261.890	0.150	0.262
-685.310	-126.911	0.294	0.044
-684.295	-55.597	-0.401	-0.181
-683.281	-71.716	0.484	-0.182
-682.266	-43.144	-0.184	0.094
-681.251	131.684	0.412	0.533
-680.237	75.410	0.494	-0.525
-679.222	161.944	-0.422	0.595
-678.208	144.206	-0.265	-0.356
-677.193	35.940	0.494	-0.437
-676.178	-78.886	-0.292	-0.100
-675.164	5.335	-0.678	-0.503
-674.149	-200.000	0.064	1.423
-673.135	230.080	0.173	0.285
-672.120	-200.000	0.092	-0.701
-671.105	800.000	0.042	-0.154
-670.091	55.185	-0.116	0.113
-669.076	-200.000	0.073	0.509
-668.062	107.018	-0.354	-0.423
-667.047	800.000	-0.079	0.342
-666.032	-200.000	0.013	0.711
-665.018	-200.000	-0.072	-0.388
-664.003	-200.000	-0.053	0.439
-662.989	491.250	-0.400	-0.922
-661.974	-125.083	-0.666	0.103
-660.959	598.714	-0.125	0.312
-659.945	-130.522	-0.801	0.109
-658.930	100.866	-0.089	-0.104
-657.916	-131.098	-1.125	-0.151
-656.901	-55.669	-0.402	0.181
-655.886	18.444	-0.234	0.188
-654.872	-114.015	-0.234	-0.046
-653.857	-119.867	-0.649	0.112
-652.843	-13.533	-0.484	0.315
-651.828	-30.789	0.548	-0.311
-650.814	55.195	0.441	0.428
-649.799	-69.071	-0.432	-0.167
-648.784	800.000	-0.164	0.547
-647.770	81.132	0.008	-0.008
-646.755	-0.311	0.742	0.530
-645.741	-200.000	-0.044	0.838
-644.726	-55.096	0.885	-0.400
-643.711	152.429	0.173	0.238
-642.697	259.384	0.127	0.220
-641.682	800.000	-0.110	-0.316
-640.668	-99.197	-0.698	0.177
-639.653	800.000	0.176	0.725
-638.638	-161.544	-0.411	0.021
-637.624	-200.000	0.065	0.396
-636.609	14.314	-0.092	-0.072
-635.595	-200.000	-0.004	0.063
-634.580	56.732	-0.544	-0.532
-633.565	-200.000	0.246	-0.000
-632.551	-70.528	0.976	0.371
-631.536	272.800	-0.278	-0.494
-630.522	112.467	-0.480	0.584
-629.507	-112.235	-0.577	-0.116
-628.492	800.000	0.082	-0.257
-627.478	93.581	0.297	0.338
-626.463	88.604	0.227	0.254
-625.449	354.956	-0.388	-0.775
-624.434	-54.571	0.338	-0.154
-623.419	-200.000	0.052	-0.371
-622.405	27.732	0.334	0.283
-621.390	-116.777	-1.036	-0.191
-620.376	800.000	0.175	0.719
-619.361	171.607	-0.465	0.671
-618.346	97.038	-0.419	-0.483
-617.332	9.407	0.095	0.072
-616.317	76.249	0.433	0.461
-615.303	-46.769	-0.597	0.293
-614.288	-106.977	0.358	-0.080
-613.273	-200.000	0.092	0.507
-612.259	800.000	0.211	-0.781
-611.244	600.902	-0.053	0.133
-610.230	464.311	-0.258	-0.579
-609.215	800.000	0.037	-0.119
-608.201	-44.078	-0.272	0.137
-607.186	47.363	0.586	0.548
-606.171	-200.000	-0.085	-0.405
-605.157	-43.935	0.426	0.215
-604.142	8.382	0.337	0.255
-603.128	564.669	-0.217	0.528
-602.113	-117.786	-0.745	-0.134
-601.098	-200.000	0.089	0.599
-600.084	800.000	-0.060	-0.254
-599.069	128.964	-0.390	0.499
-598.055	-8.163	0.611	-0.413
-597.040	800.000	0.091	-0.260
-596.025	179.307	0.468	-0.687
-595.011	-87.379	0.558	-0.170
-593.996	-41.638	0.681	-0.351
-592.982	800.000	0.035	0.137
-591.967	-200.000	0.023	-0.627
-590.952	-119.837	-0.153	-0.026
-589.938	-200.000	-0.001	0.888
-588.923	-200.000	0.094	-0.450
-587.909	-73.737	-1.122	0.410
-586.894	16.878	-0.772	0.614
-585.879	-39.456	0.968	-0.509
-584.865	136.744	0.717	0.939
-583.850	-24.064	0.499	0.299
-582.836	176.958	-0.575	0.839
-581.821	-112.172	-0.660	0.133
-580.806	-80.818	-0.521	-0.174
-579.792	-23.921	0.031	-0.018
-578.777	504.165	-0.262	-0.607
-577.763	-200.000	0.085	-0.650
-576.748	-13.857	1.094	0.710
-575.733	-42.020	-0.434	0.223
-574.719	149.601	-0.457	-0.620
-573.704	-104.676	0.743	0.172
-572.690	-200.000	0.042	0.328
-571.675	451.108	0.159	-0.353
-570.661	609.724	-0.069	0.172
-569.646	65.529	0.279	0.283
-568.631	-6.348	-0.330	-0.226
-567.617	66.649	-0.468	-0.477
-566.602	-36.656	0.394	-0.212
-565.588	-8.995	0.519	-0.348
-564.573	100.327	-0.130	0.151
-563.558	-12.226	-0.705	0.462
-562.544	-82.357	-0.624	-0.203
-561.529	-92.030	0.752	-0.213
-560.515	-200.000	0.077	-0.444
-559.500	-106.394	1.010	-0.226
-558.485	-200.000	-0.187	-0.836
-557.471	-110.145	-0.217	-0.045
-556.456	-91.755	0.119	-0.034
-555.442	758.975	-0.042	0.114
-554.427	-200.000	0.137	-0.698
-553.412	-200.000	-0.007	0.472
-552.398	-11.257	-0.170	-0.112
-551.383	-46.196	0.657	0.324
-550.369	34.593	-0.192	-0.168
-549.354	-200.000	-0.037	0.296
-548.339	-200.000	0.141	0.700
-547.325	659.804	-0.070	0.180
-546.310	161.527	0.129	0.181
-545.296	-99.534	-0.535	-0.135
-544.281	-116.338	-0.277	-0.051
-543.266	-83.540	-1.144	0.367
-542.252	-200.000	0.016	0.596
-541.237	-200.000	0.063	0.323
-540.223	800.000	-0.232	-0.810
-539.208	209.680	-0.201	-0.316
-538.193	800.000	-0.270	0.769
-537.179	28.180	-0.347	-0.294
-536.164	800.000	-0.104	0.289
-535.150	96.133	0.380	-0.435
-534.135	-62.416	0.707	-0.294
-533.121	208.779	-0.616	-0.965
-532.106	-7.493	0.356	0.241
-531.091	-200.000	0.062	0.288
-530.077	-55.693	0.601	-0.269
-529.062	-182.227	0.463	0.009
-528.048	102.423	0.374	0.437
-527.033	11.464	0.453	-0.348
-526.018	257.298	-0.314	0.540
-525.004	65.667	0.407	0.412
-523.989	-200.000	-0.156	-0.844
-522.975	-21.961	0.677	0.411
-521.960	-200.000	0.109	1.025
-520.945	-42.900	0.706	0.359
-519.931	-100.781	0.866	-0.213
-518.916	10.506	-0.719	0.548
-517.902	800.000	-0.057	0.165
-516.887	96.867	0.707	0.811
-515.872	549.359	0.170	0.407
-514.858	-128.793	-0.686	-0.097
-513.843	-200.000	0.096	0.627
-512.829	-157.591	-1.221	-0.073
-511.814	155.482	0.321	0.442
-510.799	-144.252	-0.581	0.054
-509.785	-71.754	0.437	-0.163
-508.770	-115.331	-1.401	-0.265
-507.756	-74.025	0.298	-0.108
-506.741	-57.355	-0.576	0.253
-505.726	654.237	0.085	0.219
-504.712	-118.706	0.384	-0.068
-503.697	-200.000	0.284	-0.000
-502.683	8.361	-0.581	0.437
-501.668	-200.000	-0.045	-0.294
-500.653	-107.287	-0.221	-0.049
-499.639	-117.174	0.043	0.008
-498.624	-164.668	0.646	-0.029
-497.610	83.338	-0.284	0.309
-496.595	625.841	-0.265	0.669
-495.581	6.857	0.332	0.247
-494.566	800.000	0.111	-0.406
-493.551	-113.449	-0.249	0.049
-492.537	-62.583	0.645	-0.267
-491.522	158.780	-0.249	0.346
-490.508	-200.000	0.113	0.663
-489.493	-200.000	0.023	0.489
-488.478	-136.847	-1.083	-0.124
-487.464	800.000	-0.228	-0.643
-486.449	-136.281	0.271	0.032
-485.435	-131.232	-0.711	-0.094
-484.420	-24.526	0.774	0.460
-483.405	203.563	-0.524	0.809
-482.391	-16.054	0.299	-0.190
-481.376	-175.707	-0.791	-0.021
-480.362	-121.909	-0.584	0.096
-479.347	800.000	-0.301	1.046
-478.332	137.890	-0.130	0.171
-477.318	-72.188	-0.531	-0.197
-476.303	329.280	0.442	0.849
-475.289	-144.100	0.584	-0.055
-474.274	57.573	0.145	-0.142
-473.259	447.003	0.322	0.707
-472.245	-45.519	-0.755	0.374
-471.230	286.137	-0.057	0.103
-470.216	4.819	-0.208	0.152
-469.201	222.495	-0.412	0.662
-468.186	168.884	-0.187	-0.266
-467.172	800.000	-0.183	-0.633
-466.157	-46.378	-0.321	-0.157
-465.143	614.264	-0.231	-0.577
-464.128	95.257	-0.389	-0.443
-463.113	-200.000	-0.071	0.944
-462.099	215.246	0.305	-0.483
-461.084	32.853	0.314	0.271
-460.070	84.509	-0.309	0.337
-459.055	-47.492	0.524	-0.254
-458.040	630.544	-0.229	-0.579
-457.026	-148.341	-0.592	-0.049
-456.011	179.208	0.413	-0.603
-454.997	800.000	0.090	-0.368
-453.982	-102.414	0.114	-0.027
-452.968	-34.533	0.531	-0.290
-451.953	178.102	0.419	0.610
-450.938	55.700	0.443	0.429
-449.924	331.788	0.341	0.656
-448.909	392.208	-0.285	-0.590
-447.895	-187.380	0.686	0.009
-446.880	-36.049	0.592	0.319
-445.865	800.000	0.260	0.956
-444.851	527.981	0.227	-0.534
-443.836	411.849	0.430	-0.910
-442.822	-73.618	-0.669	-0.243
-441.807	359.561	0.384	-0.766
-440.792	-200.000	-0.049	-0.500
-439.778	800.000	0.166	-0.634
-438.763	-200.000	0.022	-0.341
-437.749	-200.000	-0.123	0.751
-436.734	-51.348	0.449	-0.209
-435.719	23.018	-0.256	-0.209
-434.705	-121.204	-0.427	0.071
-433.690	-200.000	0.033	0.903
-432.676	-67.818	0.194	-0.076
-431.661	-200.000	0.035	-0.325
-430.646	-50.846	0.358	-0.168
-429.632	-88.015	0.563	0.169
-428.617	-57.823	-0.452	0.197
-427.603	-56.607	-0.840	-0.371
-426.588	-200.000	-0.029	0.338
-425.573	-124.766	-0.645	0.099
-424.559	440.764	-0.209	0.456
-423.544	614.579	0.357	-0.891
-422.530	40.466	0.505	-0.453
-421.515	12.637	-0.151	-0.116
-420.500	-92.517	0.396	-0.111
-419.486	483.986	0.154	0.348
-418.471	268.813	-0.165	-0.288
-417.457	-117.752	0.501	-0.090
-416.442	800.000	0.241	-0.937
-415.428	127.258	-0.476	0.602
-414.413	-94.515	-0.282	0.076
-413.398	-200.000	0.025	-0.292
-412.384	786.447	0.285	0.778
-411.369	-22.591	0.421	-0.254
-410.355	-86.998	0.230	-0.070
-409.340	37.188	-0.427	-0.377
-408.325	-200.000	0.010	-0.055
-407.311	-67.310	-0.550	-0.216
-406.296	-34.665	-0.220	-0.120
-405.282	54.189	0.340	0.326
-404.267	-94.732	-0.872	0.236
-403.252	5.958	-0.138	-0.102
-402.238	-83.165	-0.306	-0.098
-401.223	-13.886	-0.142	0.092
-400.209	800.000	0.126	0.506
-399.194	-200.000	-0.053	1.139
-398.179	-81.236	0.717	-0.236
-397.165	25.689	0.828	0.687
-396.150	-200.000	-0.034	0.450
-395.136	800.000	-0.151	0.525
-394.121	800.000	-0.077	0.324
-393.106	800.000	-0.213	-0.752
-392.092	33.050	0.275	0.238
-391.077	82.771	-0.445	0.481
-390.063	-48.545	0.044	0.021
-389.048	46.480	0.611	0.564
-388.033	541.555	-0.189	-0.449
-387.019	44.063	0.556	-0.507
-386.004	319.430	-0.303	-0.573
-384.990	-36.054	-0.810	-0.436
-383.975	783.007	0.139	0.380
-382.960	-114.856	-0.408	-0.077
-381.946	-152.804	-0.589	0.042
-380.931	800.000	0.107	0.303
-379.917	-40.500	-0.195	-0.101
-378.902	-200.000	-0.045	-0.377
-377.888	-5.637	0.429	0.293
-376.873	-35.980	-0.698	-0.376
-375.858	319.285	-0.599	-1.131
-374.844	-200.000	0.192	-1.006
-373.829	-102.830	0.302	-0.071
-372.815	38.229	-0.455	0.403
-371.800	-71.070	0.292	0.109
-370.785	311.374	-0.182	-0.339
-369.771	800.000	-0.064	-0.273
-368.756	800.000	0.236	0.772
-367.742	-200.000	0.053	0.468
-366.727	193.043	-0.035	-0.053
-365.712	59.769	0.374	0.367
-364.698	-31.701	-0.466	0.260
-363.683	726.606	-0.181	0.481
-362.669	800.000	0.025	0.088
-361.654	108.117	-0.097	-0.115
-360.639	762.662	-0.219	-0.590
-359.625	-43.020	-0.731	-0.369
-358.610	-18.703	0.482	0.299
-357.596	-58.162	-0.874	0.379
-356.581	-172.738	-0.615	0.019
-355.566	-12.763	0.472	-0.306
-354.552	-200.000	-0.063	-0.962
-353.537	489.377	-0.314	-0.714
-352.523	-200.000	-0.060	-0.527
-351.508	-200.000	0.076	0.893
-350.493	-175.723	0.407	0.011
-349.479	-81.261	0.392	-0.128
-348.464	-31.499	-0.333	-0.186
-347.450	-110.455	-0.242	-0.050
-346.435	800.000	0.122	0.474
-345.420	-61.077	-0.509	0.214
-344.406	800.000	0.221	0.701
-343.391	-107.813	0.431	-0.093
-342.377	-200.000	0.131	-0.673
-341.362	55.715	-0.473	-0.456
-340.348	-153.675	0.766	0.052
-339.333	19.366	-0.409	0.327
-338.318	54.410	-0.254	0.243
-337.304	-49.329	0.263	-0.125
-336.289	10.482	0.299	0.226
-335.275	201.670	0.264	0.404
-334.260	800.000	0.121	-0.437
-333.245	-174.279	-0.380	-0.011
-332.231	800.000	-0.103	0.408
-331.216	-200.000	-0.078	-0.502
-330.202	173.081	-0.348	0.498
-329.187	-88.182	0.976	-0.290
-328.172	188.056	-0.109	0.162
-327.158	-8.887	-0.295	-0.197
-326.143	284.011	0.560	0.999
-325.129	-200.000	0.006	-0.310
-324.114	9.117	-0.620	-0.465
-323.099	-189.719	-0.462	-0.005
-322.085	-1.959	-0.339	0.237
-321.070	-200.000	0.108	0.714
-320.056	-61.521	0.432	0.180
-319.041	-105.366	0.599	0.135
-318.026	-200.000	-0.022	-0.760
-317.012	18.772	0.332	0.264
-315.997	-120.465	-0.514	-0.087
-314.983	-153.468	-0.644	-0.044
-313.968	-41.021	0.350	0.180
-312.953	-15.402	0.615	-0.390
-311.939	154.182	0.144	0.196
-310.924	800.000	0.107	0.336
-309.910	-97.932	-0.507	0.130
-308.895	-65.092	-1.092	-0.437
-307.880	-150.886	-0.138	-0.010
-306.866	-82.352	-0.256	-0.083
-305.851	-40.454	0.715	0.369
-304.837	-45.852	0.481	-0.236
-303.822	-131.789	1.008	0.131
-302.807	744.494	0.158	-0.422
-301.793	-200.000	-0.016	-0.208
-300.778	-49.382	0.562	-0.266
-299.764	74.947	-0.900	-0.940
-298.749	-56.433	0.577	0.254
-297.735	-190.865	-0.652	-0.007
-296.720	-200.000	-0.015	0.214
-295.705	-92.527	0.275	0.077
-294.691	276.885	-0.301	-0.531
-293.676	477.901	-0.415	0.931
-292.662	-200.000	-0.073	-0.443
-291.647	-133.782	-0.531	0.066
-290.632	-200.000	0.104	-0.699
-289.618	-143.090	-0.510	0.049
-288.603	20.885	0.305	0.245
-287.589	342.840	-0.233	0.453
-286.574	-26.925	0.212	0.123
-285.559	800.000	0.065	-0.190
-284.545	697.211	-0.234	-0.611
-283.530	-98.984	0.827	0.208
-282.516	380.793	-0.296	-0.603
-281.501	800.000	0.127	-0.401
-280.486	49.514	-0.676	0.631
-279.472	-200.000	-0.029	0.166
-278.457	118.020	-0.432	0.528
-277.443	800.000	-0.126	-0.354
-276.428	10.710	-0.198	0.150
-275.413	800.000	-0.280	-0.797
-274.399	800.000	0.141	-0.595
-273.384	158.251	0.306	0.421
-272.370	684.235	-0.251	-0.650
-271.355	318.598	0.158	0.296
-270.340	-117.499	0.911	0.163
-269.326	165.072	0.393	0.550
-268.311	128.289	0.168	0.212
-267.297	-200.000	0.056	-0.538
-266.282	-76.088	-0.601	-0.210
-265.267	595.828	0.207	0.508
-264.253	800.000	-0.133	0.535
-263.238	-40.377	0.969	-0.499
-262.224	388.102	0.622	-1.276
-261.209	800.000	0.034	-0.096
-260.195	9.933	0.146	0.110
-259.180	-200.000	-0.015	0.430
-258.165	-200.000	-0.019	-0.390
-257.151	-83.969	0.133	-0.042
-256.136	-27.160	-0.436	0.252
-255.122	-1.644	0.284	0.198
-254.107	-81.008	-0.319	-0.105
-253.092	-107.816	0.732	0.158
-252.078	-151.238	-0.383	0.028
-251.063	149.072	-0.373	0.499
-250.049	-200.000	0.001	-0.280
-249.034	610.404	-0.080	0.198
-248.019	-200.000	0.047	-0.478
-247.005	-82.808	-1.038	-0.332
-245.990	-200.000	0.006	0.490
-244.976	456.919	-0.499	-1.097
-243.961	-200.000	-0.169	1.023
-242.946	-200.000	0.072	-0.527
-241.932	800.000	0.292	1.039
-240.917	-200.000	0.005	0.360
-239.903	10.232	-0.135	0.101
-238.888	800.000	0.151	-0.541
-237.873	-200.000	0.090	-0.589
-236.859	86.480	-0.769	0.840
-235.844	-77.029	-0.169	-0.058
-234.830	-95.706	-0.384	0.102
-233.815	-54.050	-0.172	0.077
-232.800	-53.370	-0.550	0.249
-231.786	-183.832	0.809	0.014
-230.771	112.128	0.083	-0.099
-229.757	-136.776	-0.842	-0.096
-228.742	-200.000	0.018	-0.456
-227.727	419.902	0.217	-0.460
-226.713	-200.000	-0.086	-0.419
-225.698	-5.435	0.528	-0.358
-224.684	-200.000	0.060	0.434
-223.669	800.000	-0.102	0.382
-222.655	276.900	0.341	0.599
-221.640	-85.744	-0.995	-0.305
-220.625	307.715	-0.280	-0.516
-219.611	123.136	-0.418	-0.517
-218.596	-69.303	0.329	-0.125
-217.582	-90.088	-0.370	0.107
-216.567	430.264	0.173	-0.370
-215.552	-200.000	0.019	-0.361
-214.538	140.165	-0.227	-0.296
-213.523	21.926	-0.955	-0.770
-212.509	86.948	-0.467	-0.510
-211.494	-55.468	-0.473	0.210
-210.479	-200.000	0.090	-0.852
-209.465	-142.219	1.201	0.118
-208.450	556.533	0.327	0.779
-207.436	-200.000	-0.018	-0.474
-206.421	287.678	-0.047	-0.085
-205.406	-100.193	0.387	-0.095
-204.392	800.000	-0.046	0.136
-203.377	-83.447	0.330	-0.104
-202.363	-75.444	-0.993	-0.350
-201.348	357.154	-0.480	-0.946
-200.333	-60.258	0.236	-0.100
-199.319	-88.397	-0.980	0.289
-198.304	0.523	0.859	0.607
-197.290	88.511	-0.120	-0.131
-196.275	-200.000	0.148	-0.652
-195.260	-60.721	0.218	-0.091
-194.246	-14.640	-0.540	-0.343
-193.231	407.262	0.305	0.638
-192.217	61.628	0.530	-0.521
-191.202	-12.784	0.731	-0.471
-190.187	113.284	0.635	-0.761
-189.173	443.905	0.398	0.862
-188.158	-68.110	-0.375	-0.144
-187.144	-53.583	0.447	0.202
-186.129	27.747	-0.234	-0.195
-185.114	130.213	0.938	-1.186
-184.100	-64.879	-0.107	-0.043
-183.085	-99.636	0.265	-0.066
-182.071	737.951	0.053	0.141
-181.056	-57.817	0.225	-0.097
-180.042	-200.000	0.052	0.838
-179.027	-54.976	0.843	0.375
-178.012	-200.000	-0.014	0.323
-176.998	33.293	0.180	0.154
-175.983	-72.273	0.213	0.078
-174.969	39.744	0.060	0.053
-173.954	-78.772	0.744	-0.251
-172.939	-200.000	0.302	-1.380
-171.925	800.000	-0.135	0.487
-170.910	51.567	0.486	0.456
-169.896	693.693	-0.377	-0.977
-168.881	78.571	0.305	0.322
-167.866	57.102	0.476	0.458
-166.852	800.000	0.109	0.342
-165.837	-30.372	-0.560	-0.314
-164.823	800.000	-0.059	-0.231
-163.808	124.836	-0.318	0.395
-162.793	800.000	-0.116	0.390
-161.779	31.339	-0.538	0.456
-160.764	-200.000	-0.092	-0.988
-159.750	-35.883	0.408	-0.218
-158.735	124.208	0.157	-0.195
-157.720	-64.867	0.570	-0.228
-156.706	73.265	0.239	0.247
-155.691	-123.067	0.372	-0.059
-154.677	68.525	0.866	-0.876
-153.662	252.680	0.085	-0.142
-152.647	28.700	-0.194	0.162
-151.633	-120.983	-0.333	-0.055
-150.618	106.282	0.341	0.398
-149.604	-38.822	0.902	0.469
-148.589	237.650	-0.474	0.776
-147.574	39.753	-0.546	0.483
-146.560	-98.080	-0.983	-0.249
-145.545	392.171	0.091	0.186
-144.531	-70.054	-0.532	0.200
-143.516	-98.193	0.350	-0.089
-142.502	-38.384	0.207	0.108
-141.487	-54.387	-0.441	0.197
-140.472	106.411	-0.355	-0.415
-139.458	55.965	0.660	-0.631
-138.443	-70.001	0.593	0.223
-137.429	-200.000	-0.010	0.473
-136.414	-1.450	-0.499	0.347
-135.399	-4.118	0.482	-0.329
-134.385	-165.831	-0.622	0.026
-133.370	-66.569	0.409	-0.160
-132.356	-77.840	0.978	-0.333
-131.341	800.000	0.252	-1.018
-130.326	28.834	-0.265	0.221
-129.312	-71.313	0.428	0.158
-128.297	221.958	0.287	-0.455
-127.283	-18.207	-0.521	0.321
-126.268	-200.000	-0.088	0.611
-125.253	100.250	-0.110	0.125
-124.239	214.696	-0.359	-0.561
-123.224	61.410	0.384	0.376
-122.210	87.208	-0.374	-0.408
-121.195	-49.457	-0.845	0.397
