DTS Sentinel unit serial number:	SN413079Multiplexer serial number:	ORYXHardware model number:	OX4-SRSoftware version number:	ORYX F/W v4.00 Oryx Data Collector v3.7.2.0data status	okinstallation	princeton_trtdifferential loss correction	single-endedforward channel	channel 2reverse channel	N/Adate	2019/09/13time	23:11:34forward acquisition time	60.00reverse acquisition time	0.00gamma	496.2192k internal	0.2337k external	0.2337temperature offset calibration	1.0131default loss term (dB/km)	0.3790temperature slope calibration	1.0000multiplexer offset coefficient	1.0000multiplexer slope coefficient	1.0000fibre end	0.00T internal ref (°C)	27.14T ext. ref 1 (°C)	3.20T ext. ref 2 (°C)	21.06length (m)	temperature (°C)	Stokes	anti-Stokes-747.200	800.000	0.084	-0.257
-746.185	-200.000	-0.027	0.194
-745.171	-20.033	0.223	0.138
-744.156	-80.309	-0.495	0.166
-743.142	34.038	0.252	-0.220
-742.127	78.230	0.110	0.118
-741.112	-87.576	0.168	0.051
-740.098	13.433	0.089	-0.070
-739.083	-200.000	0.007	0.162
-738.069	-89.055	-0.273	0.081
-737.054	364.696	0.115	-0.232
-736.039	-44.364	-0.284	-0.143
-735.025	-200.000	0.027	0.138
-734.010	-86.599	0.178	0.055
-732.996	-20.785	-0.178	-0.109
-731.981	43.187	-0.070	0.064
-730.966	-96.946	0.088	-0.023
-729.952	800.000	-0.053	-0.187
-728.937	-142.198	-0.208	0.021
-727.923	81.428	-0.213	0.231
-726.908	513.150	-0.105	-0.246
-725.894	-46.783	-0.319	0.156
-724.879	165.281	-0.094	0.133
-723.864	800.000	-0.072	0.205
-722.850	11.268	0.288	-0.221
-721.835	-196.477	-0.202	-0.001
-720.821	-122.055	0.156	-0.026
-719.806	-200.000	-0.022	-0.208
-718.791	20.852	-0.093	0.075
-717.777	-32.935	0.146	0.081
-716.762	83.463	-0.066	-0.072
-715.748	781.249	0.020	0.055
-714.733	-51.632	0.104	-0.049
-713.718	-14.226	0.134	-0.086
-712.704	-8.865	0.164	0.110
-711.689	193.046	-0.103	0.156
-710.675	88.548	0.040	-0.045
-709.660	-55.781	-0.318	-0.143
-708.645	-200.000	0.027	-0.147
-707.631	125.633	-0.244	0.308
-706.616	-20.900	-0.205	-0.126
-705.602	600.178	0.137	0.341
-704.587	223.312	-0.090	-0.146
-703.572	-83.208	0.234	-0.076
-702.558	188.042	-0.123	-0.184
-701.543	800.000	0.185	-0.571
-700.529	-200.000	0.051	-0.274
-699.514	800.000	-0.113	0.336
-698.499	206.388	-0.138	0.216
-697.485	42.027	0.179	-0.163
-696.470	-200.000	-0.382	0.000
-695.456	102.227	-0.175	-0.205
-694.441	111.584	0.135	0.163
-693.426	-51.834	-0.198	0.092
-692.412	76.548	-0.228	0.243
-691.397	-73.713	-0.192	-0.070
-690.383	134.513	-0.034	0.044
-689.368	353.323	-0.066	-0.132
-688.354	-200.000	-0.007	-0.212
-687.339	-200.000	0.008	0.291
-686.324	118.378	-0.365	0.451
-685.310	0.179	-0.139	0.100
-684.295	-64.791	-0.403	0.164
-683.281	-104.023	-0.072	-0.017
-682.266	-41.373	-0.094	0.049
-681.251	66.349	0.339	0.345
-680.237	-200.000	0.028	0.351
-679.222	305.158	0.153	0.284
-678.208	269.956	-0.104	-0.184
-677.193	-68.200	0.081	-0.031
-676.178	-143.116	-0.397	0.038
-675.164	471.594	0.140	-0.316
-674.149	-200.000	-0.011	-0.257
-673.135	-25.504	-0.071	0.042
-672.120	-200.000	-0.015	0.117
-671.105	800.000	-0.110	-0.314
-670.091	-142.758	0.180	0.018
-669.076	-200.000	0.020	-0.111
-668.062	-200.000	0.011	-0.161
-667.047	-200.000	0.021	-0.156
-666.032	274.792	0.016	-0.028
-665.018	-34.432	-0.304	-0.167
-664.003	-45.861	0.277	0.137
-662.989	-184.145	0.136	-0.002
-661.974	-186.870	0.177	-0.002
-660.959	-108.201	0.104	-0.022
-659.945	188.494	-0.111	-0.167
-658.930	294.277	0.076	0.139
-657.916	-172.034	-0.207	0.007
-656.901	-28.813	-0.201	-0.116
-655.886	-5.145	0.226	-0.156
-654.872	-200.000	-0.039	-0.417
-653.857	800.000	0.041	-0.137
-652.843	-200.000	0.023	0.119
-651.828	8.701	-0.284	-0.214
-650.814	-200.000	-0.020	-0.202
-649.799	-98.194	-0.283	0.073
-648.784	82.838	-0.182	-0.197
-647.770	789.052	-0.053	-0.146
-646.755	53.739	0.028	-0.027
-645.741	800.000	0.058	-0.192
-644.726	195.241	-0.344	0.522
-643.711	-105.167	0.111	-0.025
-642.697	290.695	0.084	-0.152
-641.682	-13.894	0.216	0.139
-640.668	72.330	-0.182	0.190
-639.653	-46.806	-0.014	-0.007
-638.638	-97.048	-0.126	-0.033
-637.624	-200.000	0.028	-0.229
-636.609	21.097	-0.347	0.281
-635.595	-9.967	0.159	-0.106
-634.580	-148.088	-0.052	-0.004
-633.565	-134.404	-0.278	0.034
-632.551	-200.000	-0.033	-0.325
-631.536	-200.000	-0.045	-0.211
-630.522	-127.682	0.393	-0.057
-629.507	180.530	-0.150	-0.220
-628.492	179.780	-0.208	0.305
-627.478	-29.354	-0.237	-0.135
-626.463	-200.000	0.032	0.210
-625.449	800.000	-0.182	-0.516
-624.434	-154.210	0.164	0.011
-623.419	800.000	-0.112	0.347
-622.405	481.158	0.026	0.059
-621.390	3.081	0.152	-0.110
-620.376	800.000	0.158	-0.480
-619.361	-200.000	-0.002	-0.247
-618.346	40.600	0.348	0.313
-617.332	132.385	0.032	-0.041
-616.317	0.456	0.307	-0.219
-615.303	93.341	-0.048	0.054
-614.288	92.676	0.175	0.197
-613.273	256.550	-0.223	-0.382
-612.259	800.000	0.066	-0.229
-611.244	-129.430	-0.183	0.025
-610.230	512.653	-0.015	0.036
-609.215	-200.000	-0.035	0.245
-608.201	-200.000	-0.026	-0.155
-607.186	-57.107	-0.343	-0.151
-606.171	74.192	0.109	-0.114
-605.157	-116.993	-0.135	-0.025
-604.142	-7.616	-0.118	-0.080
-603.128	-86.710	0.213	0.065
-602.113	17.314	-0.238	-0.189
-601.098	-81.039	-0.217	-0.072
-600.084	-185.454	-0.163	0.002
-599.069	-76.454	-0.410	0.144
-598.055	143.607	0.107	0.142
-597.040	-142.179	0.231	0.023
-596.025	800.000	0.065	-0.248
-595.011	10.153	-0.035	-0.026
-593.996	800.000	0.106	-0.332
-592.982	89.615	0.175	-0.195
-591.967	-64.042	-0.157	0.064
-590.952	-126.950	0.181	0.027
-589.938	408.893	-0.035	-0.074
-588.923	216.793	-0.130	0.206
-587.909	-118.185	0.147	0.026
-586.894	-8.264	0.239	-0.161
-585.879	-14.682	-0.212	-0.136
-584.865	-101.853	-0.375	-0.090
-583.850	-78.541	0.111	-0.038
-582.836	-200.000	0.008	0.080
-581.821	-127.765	-0.166	0.024
-580.806	-200.000	-0.004	-0.195
-579.792	304.391	0.049	0.092
-578.777	121.694	0.144	-0.179
-577.763	-45.762	-0.167	0.082
-576.748	267.426	-0.122	-0.214
-575.733	-17.683	-0.333	0.209
-574.719	330.451	0.112	0.215
-573.704	157.254	-0.059	-0.082
-572.690	-75.417	-0.193	-0.068
-571.675	412.914	0.142	-0.301
-570.661	123.408	-0.243	-0.304
-569.646	-200.000	-0.029	-0.166
-568.631	-92.140	-0.168	0.047
-567.617	-134.205	0.039	-0.005
-566.602	-194.289	0.288	-0.002
-565.588	800.000	-0.084	-0.248
-564.573	220.956	0.017	-0.027
-563.558	647.530	-0.072	-0.185
-562.544	89.539	-0.156	0.174
-561.529	-29.827	0.107	0.061
-560.515	800.000	0.099	0.277
-559.500	4.911	0.111	0.081
-558.485	-51.964	-0.241	-0.112
-557.471	-110.167	0.175	0.036
-556.456	68.580	0.145	0.148
-555.442	-200.000	0.088	0.389
-554.427	800.000	0.080	-0.339
-553.412	191.327	-0.212	-0.318
-552.398	75.214	0.184	0.193
-551.383	-200.000	-0.013	0.203
-550.369	136.841	-0.146	-0.190
-549.354	-80.985	0.205	0.068
-548.339	43.720	0.010	0.010
-547.325	-154.795	-0.060	0.004
-546.310	-66.085	-0.142	0.056
-545.296	251.362	-0.186	0.314
-544.281	-140.701	-0.107	0.011
-543.266	-200.000	0.063	-0.364
-542.252	743.959	-0.039	0.105
-541.237	-168.439	0.298	0.011
-540.223	800.000	0.056	0.158
-539.208	68.968	-0.057	-0.059
-538.193	5.289	-0.139	-0.102
-537.179	-80.653	0.140	0.046
-536.164	-147.644	-0.146	0.012
-535.150	-99.899	0.212	-0.053
-534.135	-91.241	-0.185	0.053
-533.121	5.677	-0.117	0.086
-532.106	-120.034	-0.112	0.019
-531.091	-117.238	0.190	0.034
-530.077	200.381	0.035	0.053
-529.062	-200.000	-0.005	-0.061
-528.048	-16.810	-0.096	0.060
-527.033	-200.000	0.000	0.053
-526.018	-76.276	0.361	-0.127
-525.004	-200.000	0.024	0.168
-523.989	28.183	-0.161	0.135
-522.975	-20.841	0.097	0.059
-521.960	-200.000	0.018	-0.118
-520.945	-75.908	-0.152	-0.054
-519.931	254.558	0.102	-0.173
-518.916	800.000	0.022	-0.082
-517.902	141.728	0.071	0.093
-516.887	199.616	0.147	-0.225
-515.872	621.561	0.031	-0.079
-514.858	21.834	-0.193	-0.156
-513.843	113.366	-0.180	-0.217
-512.829	-200.000	0.007	0.271
-511.814	-200.000	0.065	0.345
-510.799	800.000	-0.035	-0.119
-509.785	315.827	0.145	0.271
-508.770	-200.000	0.021	0.394
-507.756	4.146	-0.111	-0.081
-506.741	186.179	-0.286	-0.423
-505.726	-2.505	0.350	0.244
-504.712	-99.803	-0.042	-0.011
-503.697	800.000	-0.051	-0.211
-502.683	-113.469	0.157	-0.031
-501.668	-16.160	-0.270	0.171
-500.653	270.082	0.090	0.157
-499.639	-25.286	-0.116	-0.068
-498.624	-55.956	0.103	-0.046
-497.610	-161.521	-0.204	0.010
-496.595	-102.716	-0.132	-0.031
-495.581	800.000	-0.026	-0.098
-494.566	-200.000	0.014	-0.251
-493.551	80.036	0.111	0.119
-492.537	14.556	0.164	0.128
-491.522	-121.607	-0.328	0.054
-490.508	150.179	0.093	0.126
-489.493	-90.889	-0.196	0.056
-488.478	-68.319	-0.327	0.126
-487.464	-70.590	-0.444	0.167
-486.449	399.747	0.109	-0.226
-485.435	18.331	0.162	-0.129
-484.420	-117.113	0.223	-0.040
-483.405	-61.106	-0.416	0.174
-482.391	239.136	0.074	-0.123
-481.376	743.601	0.080	-0.213
-480.362	800.000	-0.088	-0.250
-479.347	800.000	0.068	-0.217
-478.332	-30.674	-0.189	0.106
-477.318	-113.113	0.193	-0.038
-476.303	-37.687	0.226	-0.120
-475.289	-148.363	0.142	0.012
-474.274	-200.000	-0.038	-0.212
-473.259	107.898	-0.245	0.290
-472.245	-200.000	-0.012	0.190
-471.230	221.453	-0.125	0.200
-470.216	306.423	0.129	0.239
-469.201	73.993	0.108	0.113
-468.186	800.000	-0.118	0.371
-467.172	96.637	0.251	-0.285
-466.157	-121.998	0.039	0.006
-465.143	131.345	0.098	-0.126
-464.128	-57.139	0.242	-0.106
-463.113	-75.000	-0.167	-0.060
-462.099	79.939	-0.100	0.107
-461.084	181.064	-0.056	0.081
-460.070	-150.076	-0.182	0.014
-459.055	54.215	-0.116	-0.111
-458.040	54.155	-0.114	0.109
-457.026	-200.000	0.013	0.288
-456.011	-57.707	0.058	-0.025
-454.997	668.225	0.144	-0.371
-453.982	130.115	-0.173	-0.220
-452.968	498.701	0.116	0.266
-451.953	-200.000	-0.038	-0.391
-450.938	10.330	0.097	-0.073
-449.924	-46.618	0.275	0.134
-448.909	-8.722	0.185	0.123
-447.895	-200.000	-0.019	-0.155
-446.880	-89.376	-0.013	-0.004
-445.865	-200.000	0.005	0.170
-444.851	-15.680	0.282	-0.178
-443.836	174.503	0.276	-0.396
-442.822	-62.593	0.159	0.065
-441.807	-34.690	-0.166	0.090
-440.792	101.971	-0.095	-0.110
-439.778	-200.000	-0.002	-0.225
-438.763	-110.724	0.289	0.059
-437.749	-40.461	0.193	0.100
-436.734	-86.619	0.287	0.087
-435.719	421.444	-0.147	0.312
-434.705	368.642	0.139	-0.279
-433.690	-24.425	-0.154	0.091
-432.676	-37.604	0.207	0.110
-431.661	800.000	-0.032	-0.107
-430.646	800.000	-0.057	0.179
-429.632	127.113	-0.022	-0.027
-428.617	562.812	-0.047	0.113
-427.603	-74.935	-0.082	0.029
-426.588	-200.000	0.037	0.183
-425.573	7.296	0.281	-0.208
-424.559	-142.462	0.332	0.032
-423.544	-37.411	0.128	-0.068
-422.530	-200.000	-0.006	0.282
-421.515	-106.309	0.386	-0.086
-420.500	19.170	0.064	-0.051
-419.486	127.271	0.035	-0.045
-418.471	-99.860	0.119	-0.029
-417.457	30.252	0.063	-0.053
-416.442	-200.000	0.059	0.277
-415.428	-99.461	-0.239	0.060
-414.413	-96.852	-0.282	0.073
-413.398	215.679	-0.146	0.229
-412.384	800.000	-0.080	-0.323
-411.369	31.299	-0.131	-0.112
-410.355	-61.938	0.181	0.075
-409.340	-200.000	-0.035	0.161
-408.325	666.495	0.022	0.056
-407.311	39.378	0.109	-0.096
-406.296	-200.000	-0.014	-0.099
-405.282	-100.174	0.134	0.033
-404.267	-86.490	0.004	-0.001
-403.252	41.169	-0.452	0.405
-402.238	-96.864	0.272	0.071
-401.223	-56.022	-0.310	0.137
-400.209	-105.644	-0.275	0.062
-399.194	189.465	0.042	0.063
-398.179	-106.932	0.251	-0.055
-397.165	-11.206	-0.085	-0.055
-396.150	800.000	0.090	-0.336
-395.136	800.000	-0.079	0.296
-394.121	-88.724	0.228	0.067
-393.106	-36.955	-0.248	-0.132
-392.092	20.681	-0.307	-0.246
-391.077	165.116	-0.283	-0.396
-390.063	55.012	-0.101	-0.097
-389.048	146.225	-0.263	0.349
-388.033	-46.519	0.265	0.129
-387.019	165.655	-0.047	-0.066
-386.004	71.003	-0.064	-0.066
-384.990	201.091	0.077	0.117
-383.975	-102.628	-0.416	-0.098
-382.960	102.238	0.086	-0.099
-381.946	94.155	-0.095	-0.107
-380.931	54.929	0.226	-0.216
-379.917	-200.000	0.018	-0.090
-378.902	-147.481	0.088	0.007
-377.888	-23.944	-0.097	-0.058
-376.873	436.511	-0.078	0.167
-375.858	-200.000	-0.010	0.056
-374.844	255.494	-0.027	-0.047
-373.829	271.857	0.070	0.122
-372.815	1.153	-0.198	-0.140
-371.800	-92.523	-0.381	0.106
-370.785	-116.421	0.130	-0.024
-369.771	159.493	0.124	-0.170
-368.756	-66.542	0.083	0.033
-367.742	-27.697	-0.122	0.070
-366.727	-186.178	0.295	0.004
-365.712	800.000	0.029	0.114
-364.698	-200.000	-0.014	0.189
-363.683	505.037	0.117	0.268
-362.669	-172.468	-0.122	0.004
-361.654	-64.957	-0.261	-0.104
-360.639	800.000	-0.092	-0.392
-359.625	-166.176	-0.278	-0.012
-358.610	800.000	0.126	-0.431
-357.596	-158.617	-0.150	-0.009
-356.581	28.707	-0.272	-0.228
-355.566	-162.616	0.248	0.012
-354.552	-200.000	0.006	-0.028
-353.537	-137.264	0.489	-0.055
-352.523	-113.539	-0.337	0.065
-351.508	-84.824	-0.128	-0.040
-350.493	-76.387	-0.229	-0.080
-349.479	14.787	-0.043	0.033
-348.464	399.976	-0.143	-0.295
-347.450	-200.000	0.011	-0.096
-346.435	-20.143	-0.212	-0.129
-345.420	-98.815	0.096	0.024
-344.406	438.340	0.082	0.177
-343.391	504.167	-0.086	-0.197
-342.377	-4.911	0.126	-0.086
-341.362	800.000	0.040	0.146
-340.348	85.264	0.138	-0.150
-339.333	-176.242	0.239	-0.006
-338.318	-133.621	0.220	0.027
-337.304	15.341	-0.192	0.149
-336.289	-69.172	0.216	0.082
-335.275	360.363	-0.117	-0.231
-334.260	59.580	0.083	-0.081
-333.245	167.468	-0.216	0.304
-332.231	1.579	-0.110	0.078
-331.216	-200.000	-0.032	-0.299
-330.202	-101.632	0.422	0.101
-329.187	-200.000	0.012	-0.084
-328.172	-99.833	-0.105	-0.026
-327.158	173.356	0.161	-0.230
-326.143	-200.000	-0.010	0.173
-325.129	703.937	-0.080	0.208
-324.114	-55.479	0.309	0.137
-323.099	33.890	0.138	-0.119
-322.085	-13.175	-0.240	-0.154
-321.070	800.000	0.114	0.317
-320.056	-200.000	0.036	-0.371
-319.041	50.359	-0.311	0.291
-318.026	-69.283	-0.206	-0.078
-317.012	471.546	0.147	0.327
-315.997	294.451	-0.118	0.214
-314.983	-200.000	-0.011	-0.066
-313.968	25.185	0.073	-0.060
-312.953	40.062	0.190	-0.169
-311.939	-200.000	0.048	-0.226
-310.924	-126.258	0.220	0.033
-309.910	153.306	0.102	0.138
-308.895	-168.677	-0.271	0.010
-307.880	143.266	-0.093	-0.122
-306.866	24.669	-0.146	0.119
-305.851	-59.921	-0.307	-0.129
-304.837	182.355	0.117	-0.170
-303.822	455.800	0.049	0.107
-302.807	800.000	-0.061	-0.196
-301.793	-0.533	0.286	-0.201
-300.778	-40.222	0.148	0.076
-299.764	-31.724	0.343	-0.190
-298.749	80.547	0.212	0.225
-297.735	576.164	0.017	-0.042
-296.720	205.287	0.087	0.134
-295.705	-200.000	-0.017	-0.131
-294.691	183.203	-0.183	0.267
-293.676	349.644	0.028	0.054
-292.662	198.623	0.076	0.115
-291.647	-82.051	-0.130	-0.042
-290.632	345.302	0.028	0.054
-289.618	-36.150	-0.089	-0.048
-288.603	-117.076	0.226	0.041
-287.589	795.607	0.169	0.459
-286.574	211.686	-0.014	-0.022
-285.559	24.781	0.226	0.185
-284.545	800.000	-0.108	-0.338
-283.530	-164.802	-0.309	-0.014
-282.516	-65.154	-0.166	-0.066
-281.501	-21.327	-0.387	-0.233
-280.486	476.348	0.147	-0.327
-279.472	-200.000	0.092	0.399
-278.457	-140.245	0.224	-0.023
-277.443	-61.308	0.156	0.065
-276.428	-112.550	0.279	-0.055
-275.413	-200.000	-0.046	-0.202
-274.399	58.106	0.107	-0.104
-273.384	605.270	-0.143	0.351
-272.370	145.136	-0.101	0.133
-271.355	-144.397	0.159	-0.015
-270.340	800.000	0.039	-0.167
-269.326	383.156	0.267	0.541
-268.311	-112.265	-0.223	-0.044
-267.297	-54.920	-0.188	-0.083
-266.282	800.000	-0.038	0.138
-265.267	800.000	0.055	-0.181
-264.253	-13.028	-0.113	0.072
-263.238	-200.000	-0.008	0.093
-262.224	-7.708	0.060	0.040
-261.209	422.272	-0.044	0.093
-260.195	592.977	-0.119	-0.290
-259.180	-1.728	0.179	0.124
-258.165	192.259	0.168	-0.249
-257.151	-127.940	-0.053	0.008
-256.136	-11.572	-0.229	-0.148
-255.122	426.098	-0.155	0.329
-254.107	-61.877	0.246	0.101
-253.092	103.689	-0.218	0.253
-252.078	800.000	0.049	0.148
-251.063	-200.000	0.014	-0.411
-250.049	-37.227	-0.226	0.119
-249.034	-124.958	-0.261	0.040
-248.019	-114.575	-0.172	-0.032
-247.005	800.000	-0.034	-0.121
-245.990	62.284	0.162	-0.159
-244.976	-97.590	0.252	0.064
-243.961	277.075	-0.114	0.200
-242.946	7.926	-0.106	0.078
-241.932	-3.645	0.056	0.038
-240.917	-123.307	-0.107	-0.017
-239.903	-81.979	0.070	-0.023
-238.888	73.399	-0.095	0.098
-237.873	-176.916	0.396	0.010
-236.859	-36.997	-0.157	0.083
-235.844	-2.084	0.068	0.047
-234.830	-109.512	0.192	0.040
-233.815	-200.000	0.028	0.333
-232.800	26.961	-0.153	-0.126
-231.786	-27.838	-0.063	-0.036
-230.771	-36.683	0.241	0.128
-229.757	-73.094	-0.051	0.018
-228.742	-163.969	0.367	-0.017
-227.727	-17.200	-0.272	0.169
-226.713	-72.880	-0.270	-0.098
-225.698	-52.814	0.226	0.102
-224.684	-200.000	0.003	0.155
-223.669	800.000	0.048	-0.135
-222.655	-67.516	-0.426	0.164
-221.640	600.963	-0.179	-0.436
-220.625	-61.813	0.157	-0.065
-219.611	-30.814	0.122	0.068
-218.596	-34.867	-0.169	-0.091
-217.582	369.081	-0.212	-0.423
-216.567	-200.000	0.353	-0.000
-215.552	-200.000	-0.051	0.260
-214.538	130.000	-0.073	0.091
-213.523	-10.725	-0.094	0.061
-212.509	-55.100	0.216	0.096
-211.494	99.165	-0.181	-0.205
-210.479	229.846	-0.168	0.269
-209.465	800.000	-0.022	0.078
-208.450	-26.314	-0.200	-0.115
-207.436	800.000	0.094	0.340
-206.421	436.615	0.128	-0.275
-205.406	297.588	0.262	-0.473
-204.392	-23.794	-0.135	0.080
-203.377	-32.582	0.142	0.078
-202.363	-138.260	0.248	-0.027
-201.348	-102.947	-0.202	-0.047
-200.333	-200.000	-0.060	0.420
-199.319	-200.000	0.005	0.025
-198.304	146.418	-0.094	0.124
-197.290	-100.360	0.096	0.023
-196.275	-200.000	0.027	-0.331
-195.260	-47.433	0.252	-0.120
-194.246	-200.000	-0.017	-0.116
-193.231	-77.243	-0.100	0.034
-192.217	172.809	-0.142	0.200
-191.202	-200.000	0.013	0.070
-190.187	444.292	-0.077	0.167
-189.173	-13.457	0.088	-0.056
-188.158	-65.904	0.110	-0.043
-187.144	483.503	0.173	0.387
-186.129	-138.955	0.178	-0.019
-185.114	-127.561	-0.190	-0.027
-184.100	-59.611	-0.100	-0.042
-183.085	800.000	0.065	0.215
-182.071	103.287	0.200	-0.230
-181.056	-58.720	-0.354	0.150
-180.042	4.223	-0.159	0.114
-179.027	-82.877	0.138	-0.044
-178.012	287.362	0.091	0.161
-176.998	-62.767	0.111	0.045
-175.983	-80.072	-0.140	-0.046
-174.969	-84.422	0.130	0.040
-173.954	800.000	-0.106	0.289
-172.939	521.083	0.054	-0.123
-171.925	-139.748	0.123	0.013
-170.910	-52.228	0.473	0.215
-169.896	800.000	0.094	0.258
-168.881	-200.000	-0.154	0.735
-167.866	449.795	0.077	0.166
-166.852	-26.393	0.183	0.105
-165.837	-63.858	0.428	-0.172
-164.823	705.688	-0.017	0.043
-163.808	230.818	-0.219	0.352
-162.793	-28.830	0.111	0.063
-161.779	800.000	0.057	-0.205
-160.764	123.112	0.148	-0.181
-159.750	-200.000	-0.006	-0.213
-158.735	17.480	0.134	-0.104
-157.720	-116.552	0.328	-0.059
-156.706	-200.000	-0.048	-0.459
-155.691	-11.765	0.136	0.087
-154.677	-200.000	0.025	0.490
-153.662	22.508	0.165	0.133
-152.647	800.000	0.063	0.210
-151.633	109.548	-0.069	0.081
-150.618	-6.367	-0.165	-0.110
-149.604	371.824	0.139	-0.276
-148.589	614.216	-0.148	-0.363
-147.574	800.000	0.044	-0.175
-146.560	-200.000	-0.026	0.259
-145.545	800.000	-0.085	-0.293
-144.531	177.454	0.126	-0.180
-143.516	-200.000	0.012	0.129
-142.502	800.000	0.083	-0.336
-141.487	33.174	-0.171	0.145
-140.472	-52.315	-0.071	-0.032
-139.458	-200.000	0.009	-0.105
-138.443	657.903	-0.057	0.144
-137.429	346.453	0.242	0.468
-136.414	-27.044	0.138	-0.079
-135.399	-91.172	-0.080	0.022
-134.385	-200.000	-0.009	-0.105
-133.370	-117.258	0.041	-0.007
-132.356	232.354	-0.050	0.081
-131.341	-162.854	-0.148	0.007
-130.326	-200.000	0.040	-0.230
-129.312	33.293	0.186	-0.158
-128.297	-200.000	0.010	-0.356
-127.283	-200.000	-0.029	-0.334
-126.268	-15.884	0.231	-0.144
-125.253	58.851	0.230	0.222
-124.239	-90.267	-0.212	0.060
-123.224	-157.528	0.114	-0.007
-122.210	-7.830	-0.125	0.083
-121.195	401.914	0.101	-0.208
