DTS Sentinel unit serial number:	SN413079Multiplexer serial number:	ORYXHardware model number:	OX4-SRSoftware version number:	ORYX F/W v4.00 Oryx Data Collector v3.7.2.0data status	okinstallation	princeton_trtdifferential loss correction	single-endedforward channel	channel 2reverse channel	N/Adate	2019/09/18time	13:15:35forward acquisition time	60.00reverse acquisition time	0.00gamma	496.2192k internal	0.2319k external	0.2319temperature offset calibration	0.9992default loss term (dB/km)	0.3790temperature slope calibration	1.0000multiplexer offset coefficient	1.0000multiplexer slope coefficient	1.0000fibre end	0.00T internal ref (°C)	34.00T ext. ref 1 (°C)	0.59T ext. ref 2 (°C)	30.64length (m)	temperature (°C)	Stokes	anti-Stokes-747.200	-187.913	0.153	-0.002
-746.185	-200.000	0.012	0.236
-745.171	28.696	-0.096	0.082
-744.156	246.204	-0.148	0.252
-743.142	38.977	0.137	0.124
-742.127	314.953	0.090	0.172
-741.112	13.222	0.127	-0.100
-740.098	618.184	-0.108	0.275
-739.083	227.014	0.095	0.156
-738.069	-200.000	-0.023	0.412
-737.054	-200.000	-0.018	-0.221
-736.039	795.798	0.054	0.150
-735.025	-200.000	0.017	0.135
-734.010	135.337	-0.060	-0.078
-732.996	-128.622	-0.133	-0.019
-731.981	-200.000	-0.037	-0.196
-730.966	541.642	0.063	-0.151
-729.952	-200.000	0.014	-0.114
-728.937	20.370	-0.247	0.202
-727.923	245.997	0.102	0.174
-726.908	536.647	0.144	-0.345
-725.894	-52.089	-0.205	-0.096
-724.879	-115.225	0.092	0.018
-723.864	-171.233	-0.157	0.005
-722.850	159.211	-0.152	-0.214
-721.835	277.957	0.152	-0.274
-720.821	-77.434	-0.266	0.093
-719.806	380.238	-0.080	-0.166
-718.791	-23.783	-0.150	0.091
-717.777	800.000	0.060	0.174
-716.762	-113.062	0.144	-0.029
-715.748	259.872	0.300	-0.523
-714.733	-200.000	0.002	0.388
-713.718	800.000	0.040	-0.145
-712.704	-101.095	-0.168	0.042
-711.689	-53.990	-0.126	0.058
-710.675	-142.370	-0.211	0.021
-709.660	609.362	-0.196	-0.494
-708.645	-1.630	0.149	-0.106
-707.631	257.073	-0.053	-0.092
-706.616	235.254	0.106	-0.177
-705.602	-80.763	0.010	0.003
-704.587	174.783	0.146	-0.213
-703.572	119.229	0.206	-0.258
-702.558	-200.000	-0.029	-0.237
-701.543	7.235	-0.350	0.264
-700.529	800.000	-0.156	-0.519
-699.514	-67.660	0.199	-0.079
-698.499	99.410	0.200	-0.234
-697.485	-80.219	-0.570	0.193
-696.470	187.122	-0.164	0.247
-695.456	449.671	0.120	0.267
-694.441	800.000	0.061	0.207
-693.426	-90.146	-0.230	-0.068
-692.412	15.365	-0.140	0.111
-691.397	16.756	-0.290	-0.231
-690.383	-28.910	-0.109	0.063
-689.368	199.252	0.166	-0.257
-688.354	-200.000	0.060	0.000
-687.339	-178.653	-0.058	0.001
-686.324	249.140	-0.234	-0.401
-685.310	456.475	-0.072	-0.161
-684.295	4.775	-0.066	-0.049
-683.281	660.191	0.048	-0.124
-682.266	81.714	0.252	-0.275
-681.251	800.000	-0.043	-0.119
-680.237	-200.000	-0.002	-0.195
-679.222	-30.008	0.438	-0.252
-678.208	-155.786	-0.232	-0.015
-677.193	540.597	-0.061	0.146
-676.178	471.118	-0.083	0.188
-675.164	65.105	-0.148	0.151
-674.149	-200.000	0.028	-0.141
-673.135	800.000	-0.082	-0.260
-672.120	-112.867	-0.077	-0.015
-671.105	800.000	0.082	-0.246
-670.091	800.000	0.126	0.467
-669.076	-18.258	0.173	0.109
-668.062	-200.000	0.008	-0.249
-667.047	48.491	0.098	0.093
-666.032	-200.000	-0.006	0.305
-665.018	66.091	-0.205	0.210
-664.003	-39.293	0.234	0.124
-662.989	128.708	0.027	0.034
-661.974	182.468	-0.034	0.051
-660.959	-19.512	0.108	-0.068
-659.945	800.000	-0.022	0.073
-658.930	-53.102	0.278	-0.129
-657.916	-200.000	0.026	0.142
-656.901	800.000	0.080	0.274
-655.886	-148.713	0.164	0.013
-654.872	126.297	0.132	-0.169
-653.857	-200.000	-0.028	0.240
-652.843	481.897	-0.138	0.316
-651.828	282.192	-0.225	-0.407
-650.814	499.731	0.077	-0.179
-649.799	-42.344	0.097	0.050
-648.784	-39.657	0.113	0.059
-647.770	-38.237	0.113	-0.061
-646.755	-200.000	0.032	-0.498
-645.741	82.292	-0.249	-0.273
-644.726	-171.003	-0.190	0.007
-643.711	183.294	-0.217	-0.323
-642.697	-28.546	-0.071	-0.041
-641.682	800.000	-0.057	-0.213
-640.668	-136.037	0.275	-0.033
-639.653	324.481	-0.152	-0.293
-638.638	491.515	0.101	0.232
-637.624	-71.254	-0.284	0.107
-636.609	160.530	0.110	0.155
-635.595	372.757	0.108	0.221
-634.580	593.785	-0.020	0.050
-633.565	29.747	0.191	-0.164
-632.551	15.550	-0.214	0.170
-631.536	-200.000	-0.098	-0.471
-630.522	12.035	-0.150	0.116
-629.507	-200.000	0.025	-0.113
-628.492	17.002	0.233	0.186
-627.478	-23.151	0.256	0.155
-626.463	-75.539	-0.142	0.051
-625.449	-124.940	0.187	0.029
-624.434	800.000	-0.124	-0.395
-623.419	17.962	0.193	0.155
-622.405	-18.464	0.087	0.055
-621.390	800.000	-0.034	-0.107
-620.376	800.000	0.037	0.116
-619.361	-200.000	0.016	-0.157
-618.346	69.115	-0.206	-0.214
-617.332	800.000	-0.116	-0.360
-616.317	800.000	-0.100	-0.327
-615.303	-28.421	0.115	0.067
-614.288	-200.000	-0.002	-0.115
-613.273	-120.564	-0.152	-0.026
-612.259	-200.000	-0.045	0.296
-611.244	21.262	-0.060	-0.049
-610.230	-108.863	-0.211	0.045
-609.215	77.435	0.117	-0.125
-608.201	185.075	0.165	0.246
-607.186	-80.148	0.201	0.068
-606.171	-200.000	-0.036	-0.362
-605.157	-147.460	-0.156	-0.013
-604.142	-132.297	0.154	0.020
-603.128	-200.000	0.020	0.101
-602.113	-108.116	-0.118	0.026
-601.098	49.299	-0.216	-0.204
-600.084	174.066	0.080	-0.116
-599.069	-90.506	-0.084	0.025
-598.055	88.590	-0.204	0.229
-597.040	-153.830	-0.199	0.014
-596.025	-200.000	-0.045	-0.351
-595.011	107.495	0.102	-0.122
-593.996	800.000	-0.035	-0.125
-592.982	186.707	0.034	-0.050
-591.967	33.137	-0.120	0.105
-590.952	227.723	0.107	0.175
-589.938	800.000	-0.068	0.284
-588.923	190.931	0.106	0.161
-587.909	316.523	-0.118	-0.224
-586.894	105.323	0.053	-0.063
-585.879	11.766	0.187	0.144
-584.865	-135.248	0.442	-0.053
-583.850	-131.025	0.211	0.028
-582.836	379.477	-0.099	-0.204
-581.821	-21.288	-0.221	-0.136
-580.806	800.000	0.121	-0.347
-579.792	-200.000	0.008	0.076
-578.777	-19.472	0.141	0.088
-577.763	-184.290	0.251	-0.004
-576.748	203.474	0.261	-0.406
-575.733	-1.766	0.079	-0.056
-574.719	119.372	-0.176	0.219
-573.704	800.000	-0.017	-0.063
-572.690	800.000	-0.051	-0.220
-571.675	439.687	0.060	-0.132
-570.661	800.000	-0.098	0.329
-569.646	-74.116	-0.500	-0.182
-568.631	-71.693	-0.116	-0.044
-567.617	-61.777	0.122	0.052
-566.602	-200.000	-0.039	-0.332
-565.588	480.132	0.090	-0.204
-564.573	-96.149	-0.089	-0.024
-563.558	-18.718	0.222	0.139
-562.544	120.920	-0.354	0.442
-561.529	746.216	0.062	0.168
-560.515	-200.000	0.031	-0.447
-559.500	-145.750	-0.209	-0.019
-558.485	-73.204	0.174	0.064
-557.471	381.155	-0.097	0.199
-556.456	-116.210	-0.330	0.062
-555.442	315.553	-0.130	-0.247
-554.427	98.577	-0.187	0.216
-553.412	108.053	0.190	0.228
-552.398	-75.919	0.026	-0.009
-551.383	-122.780	0.285	0.046
-550.369	-80.420	-0.146	0.049
-549.354	-115.763	-0.228	-0.043
-548.339	36.451	-0.158	-0.140
-547.325	800.000	0.133	0.489
-546.310	439.590	-0.075	-0.165
-545.296	-200.000	-0.030	-0.256
-544.281	133.927	0.240	-0.312
-543.266	-200.000	-0.005	0.347
-542.252	71.576	-0.239	-0.250
-541.237	-200.000	0.063	0.411
-540.223	20.285	0.272	0.221
-539.208	119.810	0.039	0.049
-538.193	-37.524	-0.316	0.169
-537.179	87.673	-0.131	-0.146
-536.164	-23.281	0.049	-0.029
-535.150	-27.799	-0.394	0.229
-534.135	-80.754	0.140	0.047
-533.121	-147.933	-0.279	0.023
-532.106	57.932	0.353	-0.346
-531.091	172.354	-0.233	-0.337
-530.077	31.508	-0.103	-0.089
-529.062	-200.000	-0.051	0.292
-528.048	-81.896	-0.295	-0.097
-527.033	-101.926	0.132	-0.032
-526.018	-200.000	0.033	0.197
-525.004	-99.166	-0.156	-0.040
-523.989	-200.000	-0.016	-0.308
-522.975	122.350	0.123	-0.154
-521.960	57.546	-0.271	0.266
-520.945	193.761	0.214	0.325
-519.931	70.189	0.139	0.144
-518.916	-200.000	-0.013	0.078
-517.902	-22.956	-0.278	0.168
-516.887	240.609	-0.047	-0.078
-515.872	-200.000	0.049	0.222
-514.858	800.000	-0.080	-0.242
-513.843	-46.018	0.025	-0.012
-512.829	181.644	0.137	0.202
-511.814	54.783	-0.038	-0.037
-510.799	-38.604	-0.074	0.039
-509.785	-200.000	-0.006	-0.051
-508.770	344.802	0.027	-0.054
-507.756	-200.000	-0.008	-0.111
-506.741	-71.696	0.182	0.068
-505.726	-75.760	-0.240	0.085
-504.712	509.877	0.054	0.125
-503.697	-108.349	0.201	-0.043
-502.683	800.000	-0.146	0.410
-501.668	800.000	-0.064	-0.182
-500.653	800.000	-0.062	-0.262
-499.639	800.000	0.095	-0.265
-498.624	-15.982	-0.269	-0.171
-497.610	-75.007	-0.300	0.108
-496.595	5.481	0.138	-0.102
-495.581	-169.974	-0.214	-0.008
-494.566	0.752	-0.184	0.132
-493.551	-162.893	-0.209	-0.010
-492.537	-116.316	0.130	-0.024
-491.522	261.554	-0.166	0.288
-490.508	-24.506	0.330	-0.197
-489.493	-148.011	0.240	-0.020
-488.478	-105.375	-0.149	0.034
-487.464	-200.000	0.021	0.208
-486.449	-200.000	-0.033	-0.433
-485.435	25.827	-0.051	-0.042
-484.420	136.107	-0.065	0.085
-483.405	-34.309	0.139	0.077
-482.391	-84.512	0.196	-0.062
-481.376	-200.000	-0.007	-0.119
-480.362	64.846	-0.230	-0.233
-479.347	800.000	0.021	0.071
-478.332	640.135	0.063	-0.160
-477.318	215.930	0.091	-0.145
-476.303	-157.177	-0.176	-0.011
-475.289	41.250	-0.121	-0.110
-474.274	-29.680	0.068	0.039
-473.259	194.087	-0.139	0.211
-472.245	-55.744	-0.402	0.180
-471.230	-32.833	0.269	0.150
-470.216	-200.000	0.028	0.150
-469.201	-27.945	-0.294	0.170
-468.186	-200.000	0.012	0.081
-467.172	-89.588	0.193	-0.057
-466.157	-123.223	-0.344	-0.055
-465.143	800.000	0.026	-0.106
-464.128	-78.831	0.270	0.092
-463.113	-140.001	0.168	-0.018
-462.099	224.166	-0.127	-0.205
-461.084	590.471	0.081	-0.200
-460.070	626.551	-0.124	0.313
-459.055	-41.836	-0.204	0.105
-458.040	-37.150	0.012	-0.006
-457.026	68.626	0.105	-0.108
-456.011	-200.000	-0.006	-0.371
-454.997	131.907	-0.175	-0.225
-453.982	-65.623	-0.463	0.186
-452.968	-84.805	0.138	0.043
-451.953	-98.147	0.235	-0.060
-450.938	-109.790	0.184	-0.039
-449.924	-102.616	0.213	0.051
-448.909	-31.234	-0.132	0.074
-447.895	-200.000	-0.003	-0.108
-446.880	129.458	-0.154	0.197
-445.865	172.829	-0.162	-0.233
-444.851	-43.737	0.180	-0.091
-443.836	-127.876	-0.210	-0.030
-442.822	-200.000	-0.008	0.099
-441.807	30.729	0.198	-0.170
-440.792	800.000	-0.032	-0.099
-439.778	-200.000	-0.005	0.127
-438.763	-86.969	-0.197	0.060
-437.749	-104.157	-0.240	0.056
-436.734	-200.000	-0.056	-0.303
-435.719	385.992	-0.165	-0.340
-434.705	-200.000	0.011	0.181
-433.690	244.020	0.052	0.087
-432.676	240.878	-0.288	0.480
-431.661	800.000	0.017	-0.064
-430.646	800.000	-0.049	0.170
-429.632	-125.247	-0.158	-0.024
-428.617	-40.011	0.218	-0.114
-427.603	-95.474	-0.224	0.060
-426.588	12.550	0.268	0.207
-425.573	190.748	-0.152	0.229
-424.559	-20.064	-0.134	0.083
-423.544	48.317	-0.223	0.209
-422.530	-200.000	0.018	-0.084
-421.515	267.371	-0.217	0.379
-420.500	-96.662	0.157	-0.041
-419.486	-118.000	0.194	-0.035
-418.471	-200.000	-0.009	0.210
-417.457	-200.000	-0.023	-0.223
-416.442	-103.318	-0.269	0.063
-415.428	207.915	-0.178	0.277
-414.413	-200.000	-0.006	0.311
-413.398	734.545	-0.058	-0.155
-412.384	-39.707	0.333	0.174
-411.369	-11.133	0.212	0.139
-410.355	-141.561	0.142	0.014
-409.340	270.243	0.106	-0.187
-408.325	8.794	-0.108	0.081
-407.311	-22.150	0.089	-0.054
-406.296	-200.000	-0.197	0.001
-405.282	-200.000	-0.017	0.125
-404.267	180.126	0.207	0.303
-403.252	-157.341	0.096	-0.006
-402.238	339.499	-0.149	-0.290
-401.223	36.045	-0.062	-0.054
-400.209	395.608	-0.111	-0.231
-399.194	-200.000	0.014	-0.119
-398.179	-200.000	-0.003	0.089
-397.165	-70.358	-0.229	-0.087
-396.150	31.856	0.147	0.127
-395.136	337.313	0.125	-0.243
-394.121	-67.298	0.301	0.118
-393.106	-200.000	0.031	0.310
-392.092	41.498	0.144	0.130
-391.077	-199.481	0.258	-0.001
-390.063	-75.530	0.232	0.082
-389.048	-200.000	-0.024	-0.118
-388.033	-94.634	-0.338	0.092
-387.019	800.000	0.024	-0.100
-386.004	103.301	0.073	0.085
-384.990	-200.000	0.005	0.189
-383.975	800.000	0.174	0.582
-382.960	461.426	-0.165	0.367
-381.946	351.279	-0.055	0.108
-380.931	-188.991	0.124	-0.001
-379.917	282.164	-0.115	-0.206
-378.902	134.021	0.120	0.155
-377.888	800.000	-0.103	0.353
-376.873	-28.130	0.307	-0.177
-375.858	27.539	-0.202	-0.170
-374.844	-200.000	-0.006	0.294
-373.829	800.000	0.178	0.593
-372.815	64.440	-0.240	0.241
-371.800	-200.000	0.015	0.187
-370.785	-138.317	-0.220	0.024
-369.771	-19.019	-0.317	-0.196
-368.756	-200.000	0.011	-0.233
-367.742	-200.000	0.049	-0.232
-366.727	9.429	0.330	0.249
-365.712	157.235	-0.105	-0.145
-364.698	297.719	-0.030	-0.055
-363.683	-96.422	0.268	0.071
-362.669	-168.288	-0.120	0.005
-361.654	-141.052	0.133	0.014
-360.639	10.885	0.156	0.118
-359.625	291.781	-0.124	-0.225
-358.610	93.192	0.259	-0.292
-357.596	-31.843	0.385	-0.215
-356.581	8.886	-0.217	0.163
-355.566	-135.142	0.375	0.045
-354.552	399.302	-0.131	0.273
-353.537	-200.000	-0.001	-0.111
-352.523	-56.617	0.255	0.113
-351.508	-22.939	-0.304	-0.183
-350.493	-134.288	0.152	0.019
-349.479	-90.299	0.211	0.061
-348.464	-37.332	-0.146	0.078
-347.450	-200.000	-0.080	-0.388
-346.435	800.000	0.045	-0.176
-345.420	-121.995	-0.241	0.039
-344.406	800.000	0.082	-0.275
-343.391	800.000	0.078	-0.293
-342.377	228.220	-0.022	-0.035
-341.362	-61.176	-0.285	-0.119
-340.348	16.229	0.110	-0.086
-339.333	-200.000	0.242	-0.000
-338.318	-158.822	0.128	0.007
-337.304	-200.000	-0.041	0.267
-336.289	8.021	0.114	-0.085
-335.275	-29.819	0.152	0.086
-334.260	41.828	0.318	-0.287
-333.245	88.270	0.131	-0.144
-332.231	-155.193	-0.418	0.027
-331.216	-200.000	0.001	-0.052
-330.202	-200.000	-0.037	-0.169
-329.187	-40.464	0.075	-0.039
-328.172	201.663	-0.177	-0.272
-327.158	127.757	0.211	0.267
-326.143	-27.062	-0.351	-0.204
-325.129	280.432	-0.162	-0.289
-324.114	132.033	0.080	0.102
-323.099	502.518	-0.073	0.168
-322.085	-200.000	-0.018	-0.140
-321.070	439.398	0.123	0.267
-320.056	-53.650	0.333	0.151
-319.041	314.438	0.070	0.131
-318.026	-38.103	0.201	-0.106
-317.012	114.443	0.061	0.073
-315.997	-114.312	-0.088	-0.017
-314.983	160.076	-0.176	0.244
-313.968	800.000	0.061	0.266
-312.953	56.322	-0.016	0.015
-311.939	-103.216	0.436	0.102
-310.924	-77.535	0.033	-0.011
-309.910	-165.597	-0.076	-0.003
-308.895	303.693	-0.143	-0.263
-307.880	747.187	0.093	-0.250
-306.866	7.677	-0.183	0.136
-305.851	351.566	0.086	-0.170
-304.837	-188.426	-0.172	0.002
-303.822	-200.000	0.003	-0.212
-302.807	800.000	0.021	0.075
-301.793	-200.000	-0.037	0.239
-300.778	-45.090	0.134	-0.066
-299.764	571.846	-0.045	0.109
-298.749	-200.000	0.005	-0.208
-297.735	235.329	-0.074	-0.122
-296.720	111.883	-0.060	-0.072
-295.705	170.894	-0.201	0.286
-294.691	168.592	0.065	0.092
-293.676	-130.915	-0.240	-0.032
-292.662	138.006	-0.173	-0.226
-291.647	232.967	0.023	-0.038
-290.632	87.585	0.302	0.333
-289.618	-122.548	0.201	0.033
-288.603	-13.873	-0.215	0.138
-287.589	149.804	0.206	-0.277
-286.574	62.135	-0.108	-0.107
-285.559	73.049	0.272	0.283
-284.545	-16.550	-0.273	0.172
-283.530	-200.000	-0.013	0.380
-282.516	79.695	-0.204	-0.217
-281.501	506.504	0.032	0.074
-280.486	8.762	0.362	-0.271
-279.472	252.591	0.061	0.103
-278.457	-171.298	0.288	-0.010
-277.443	13.411	-0.189	-0.145
-276.428	364.367	-0.035	-0.070
-275.413	168.179	0.081	0.114
-274.399	-6.961	-0.045	0.031
-273.384	-133.348	0.094	0.012
-272.370	25.685	-0.095	0.078
-271.355	800.000	0.056	-0.224
-270.340	-200.000	0.017	-0.122
-269.326	415.788	-0.119	-0.252
-268.311	800.000	0.032	0.133
-267.297	132.905	0.251	0.322
-266.282	174.259	-0.043	-0.062
-265.267	17.879	0.176	-0.139
-264.253	-74.741	-0.075	0.027
-263.238	-110.926	0.343	-0.070
-262.224	-200.000	-0.015	0.191
-261.209	-24.011	0.224	0.133
-260.195	105.285	-0.174	-0.204
-259.180	153.289	0.106	-0.144
-258.165	-200.000	0.002	0.066
-257.151	-71.674	-0.059	-0.022
-256.136	800.000	0.057	-0.181
-255.122	-150.476	0.142	0.011
-254.107	-72.425	-0.255	-0.094
-253.092	5.673	0.121	0.088
-252.078	-57.995	0.201	-0.087
-251.063	563.033	-0.072	-0.172
-250.049	156.701	-0.237	0.324
-249.034	46.374	0.237	0.218
-248.019	-97.352	-0.144	0.037
-247.005	-147.273	-0.348	0.029
-245.990	-57.034	-0.175	0.077
-244.976	-61.290	-0.232	-0.097
-243.961	-121.810	-0.267	0.044
-242.946	758.349	0.079	0.212
-241.932	-166.951	0.363	0.015
-240.917	531.033	-0.031	0.073
-239.903	-84.270	-0.151	0.048
-238.888	251.060	0.151	0.255
-237.873	-200.000	0.002	0.217
-236.859	435.504	-0.102	-0.220
-235.844	-200.000	-0.022	0.403
-234.830	-84.010	0.239	0.075
-233.815	95.737	0.348	0.394
-232.800	-109.968	-0.029	-0.006
-231.786	350.949	0.095	-0.187
-230.771	60.141	0.064	-0.063
-229.757	-162.536	0.283	0.014
-228.742	21.356	-0.072	0.058
-227.727	-64.190	-0.051	0.021
-226.713	-200.000	0.007	0.052
-225.698	221.648	-0.061	0.097
-224.684	-200.000	-0.051	0.356
-223.669	31.281	0.132	0.112
-222.655	-200.000	-0.009	-0.229
-221.640	800.000	0.097	0.271
-220.625	-157.538	-0.410	-0.024
-219.611	-149.587	0.299	0.023
-218.596	-107.710	-0.246	-0.053
-217.582	93.983	-0.107	0.120
-216.567	-52.336	0.104	-0.048
-215.552	11.697	0.217	0.165
-214.538	800.000	0.126	-0.422
-213.523	-200.000	0.047	-0.217
-212.509	38.247	0.107	0.094
-211.494	-60.354	-0.410	0.173
-210.479	402.049	-0.161	0.336
-209.465	-30.266	0.171	0.096
-208.450	-71.401	0.220	-0.082
-207.436	221.498	0.134	0.213
-206.421	58.274	0.204	0.198
-205.406	-200.000	-0.039	-0.301
-204.392	-104.303	0.103	0.024
-203.377	83.663	0.293	-0.317
-202.363	-142.455	-0.084	0.008
-201.348	24.990	0.064	-0.053
-200.333	-152.705	0.345	-0.024
-199.319	-77.241	-0.098	0.034
-198.304	172.618	0.059	-0.084
-197.290	162.494	-0.188	0.261
-196.275	-66.503	-0.173	0.068
-195.260	15.218	0.159	0.123
-194.246	-15.400	-0.114	-0.072
-193.231	312.503	-0.054	0.101
-192.217	255.847	-0.040	-0.068
-191.202	294.926	0.117	-0.213
-190.187	222.604	0.036	0.057
-189.173	-82.973	0.519	-0.166
-188.158	-141.614	0.131	-0.013
-187.144	257.968	-0.159	-0.271
-186.129	310.205	0.020	0.037
-185.114	-3.261	0.181	0.125
-184.100	-109.829	0.174	-0.036
-183.085	173.544	-0.180	-0.257
-182.071	-136.918	-0.260	-0.030
-181.056	301.454	0.193	-0.353
-180.042	164.935	0.175	-0.245
-179.027	-64.012	0.237	-0.096
-178.012	-0.528	0.110	0.077
-176.998	-98.210	-0.211	0.054
-175.983	-175.404	0.263	0.007
-174.969	64.625	-0.090	-0.089
-173.954	795.560	-0.070	0.192
-172.939	-105.946	-0.196	0.044
-171.925	-125.108	-0.324	0.049
-170.910	372.851	-0.065	-0.130
-169.896	788.118	-0.017	0.046
-168.881	6.425	-0.418	0.307
-167.866	14.403	0.212	-0.163
-166.852	90.676	0.119	0.132
-165.837	-93.010	-0.034	-0.009
-164.823	-112.143	0.245	-0.049
-163.808	531.086	-0.099	-0.231
-162.793	-92.558	0.307	0.085
-161.779	-38.123	-0.032	-0.017
-160.764	-200.000	-0.003	-0.126
-159.750	-200.000	0.012	-0.106
-158.735	-39.312	0.078	0.040
-157.720	117.656	-0.077	-0.094
-156.706	-200.000	0.004	0.078
-155.691	-200.000	-0.014	-0.132
-154.677	-48.447	-0.163	-0.078
-153.662	-139.009	-0.161	-0.017
-152.647	647.868	0.046	-0.117
-151.633	80.794	0.202	-0.215
-150.618	115.286	-0.259	-0.313
-149.604	158.961	-0.278	-0.382
-148.589	279.068	-0.045	0.079
-147.574	146.521	0.100	-0.133
-146.560	65.176	0.209	-0.208
-145.545	-158.575	0.104	-0.006
-144.531	800.000	0.050	0.167
-143.516	46.564	-0.117	0.108
-142.502	-200.000	-0.083	0.383
-141.487	96.929	0.146	0.165
-140.472	306.826	0.015	0.028
-139.458	-125.191	-0.204	0.031
-138.443	800.000	-0.062	-0.245
-137.429	64.479	-0.219	-0.218
-136.414	-96.011	0.352	-0.093
-135.399	-61.103	0.208	-0.087
-134.385	-40.071	-0.300	-0.155
-133.370	-67.220	-0.120	-0.047
-132.356	-200.000	-0.025	-0.258
-131.341	-200.000	-0.007	0.303
-130.326	-200.000	-0.018	0.264
-129.312	214.898	-0.153	-0.240
-128.297	260.905	0.102	-0.174
-127.283	601.000	0.060	-0.148
-126.268	-66.823	0.318	0.124
-125.253	135.568	0.376	0.484
-124.239	127.271	0.119	0.149
-123.224	46.319	-0.097	0.089
-122.210	-200.000	-0.021	0.230
-121.195	-140.904	0.259	0.026
