DTS Sentinel unit serial number:	SN413079Multiplexer serial number:	ORYXHardware model number:	OX4-SRSoftware version number:	ORYX F/W v4.00 Oryx Data Collector v3.7.2.0data status	okinstallation	princeton_trtdifferential loss correction	single-endedforward channel	channel 2reverse channel	N/Adate	2019/09/15time	15:59:35forward acquisition time	60.00reverse acquisition time	0.00gamma	496.2192k internal	0.2289k external	0.2289temperature offset calibration	0.9949default loss term (dB/km)	0.3790temperature slope calibration	1.0000multiplexer offset coefficient	1.0000multiplexer slope coefficient	1.0000fibre end	0.00T internal ref (°C)	42.69T ext. ref 1 (°C)	5.32T ext. ref 2 (°C)	40.39length (m)	temperature (°C)	Stokes	anti-Stokes-747.200	428.964	0.061	0.136
-746.185	654.925	0.048	0.126
-745.171	-65.860	0.637	0.261
-744.156	3.647	-0.151	-0.113
-743.142	151.845	-0.104	0.145
-742.127	91.587	0.241	0.277
-741.112	552.257	0.156	0.385
-740.098	567.641	0.098	-0.244
-739.083	-100.793	-0.232	-0.059
-738.069	222.153	-0.173	0.285
-737.054	363.144	-0.075	-0.155
-736.039	-44.555	-0.167	-0.085
-735.025	578.389	0.045	0.114
-734.010	780.192	-0.042	-0.117
-732.996	-94.263	-0.236	0.066
-731.981	-173.660	-0.309	0.009
-730.966	422.836	-0.193	-0.424
-729.952	350.785	-0.151	0.306
-728.937	-93.235	0.142	0.040
-727.923	457.502	-0.064	0.145
-726.908	-85.917	0.166	0.053
-725.894	-200.000	-0.063	0.304
-724.879	24.002	0.244	0.206
-723.864	-66.395	-0.359	0.146
-722.850	-120.440	0.096	0.017
-721.835	-56.453	0.240	-0.109
-720.821	800.000	-0.045	-0.179
-719.806	-46.336	-0.170	-0.086
-718.791	692.747	0.052	-0.141
-717.777	-141.204	-0.340	-0.035
-716.762	-200.000	-0.002	0.433
-715.748	800.000	-0.068	-0.256
-714.733	33.142	0.138	-0.123
-713.718	22.200	0.161	-0.134
-712.704	-77.250	0.151	-0.054
-711.689	-83.824	0.393	-0.128
-710.675	-200.000	0.007	0.044
-709.660	-67.502	-0.393	0.158
-708.645	111.824	0.050	-0.062
-707.631	188.981	0.087	-0.134
-706.616	-14.867	0.036	0.023
-705.602	-192.936	0.189	0.002
-704.587	800.000	-0.102	0.386
-703.572	22.394	0.238	-0.199
-702.558	-38.174	-0.297	0.161
-701.543	-164.208	-0.106	0.005
-700.529	-200.000	0.053	-0.361
-699.514	-134.729	-0.530	0.066
-698.499	-23.258	-0.272	0.167
-697.485	358.238	0.149	-0.304
-696.470	-18.631	0.182	0.116
-695.456	-200.000	0.011	-0.073
-694.441	-55.719	0.284	-0.130
-693.426	-50.318	0.092	-0.045
-692.412	-136.820	0.211	-0.025
-691.397	179.114	-0.197	0.295
-690.383	66.815	-0.184	-0.192
-689.368	65.746	0.098	-0.102
-688.354	-80.408	-0.120	-0.041
-687.339	228.960	-0.146	-0.243
-686.324	33.532	0.273	0.243
-685.310	7.371	0.078	-0.060
-684.295	-111.767	-0.316	0.065
-683.281	-27.898	0.195	-0.116
-682.266	800.000	-0.042	-0.146
-681.251	-151.299	0.139	0.011
-680.237	303.087	0.047	0.089
-679.222	-136.695	-0.334	-0.039
-678.208	289.210	-0.064	0.118
-677.193	36.030	0.025	-0.022
-676.178	-64.019	0.120	-0.050
-675.164	-75.956	-0.377	0.136
-674.149	667.342	0.014	0.037
-673.135	-117.836	-0.409	-0.075
-672.120	-47.705	-0.174	0.086
-671.105	-92.205	-0.308	0.089
-670.091	-101.794	-0.109	-0.027
-669.076	142.884	0.039	0.053
-668.062	-137.360	-0.046	-0.005
-667.047	-140.218	-0.191	0.020
-666.032	-200.000	-0.063	0.582
-665.018	552.741	-0.088	-0.216
-664.003	24.612	0.187	-0.158
-662.989	800.000	-0.096	-0.405
-661.974	55.506	-0.141	0.139
-660.959	-200.000	-0.002	-0.084
-659.945	-31.235	0.193	0.111
-658.930	-38.844	-0.309	0.167
-657.916	-200.000	-0.022	0.101
-656.901	243.399	0.149	-0.254
-655.886	-200.000	-0.034	-0.172
-654.872	-200.000	0.003	0.318
-653.857	147.325	0.124	-0.170
-652.843	-37.239	0.140	-0.077
-651.828	424.349	0.037	0.082
-650.814	-16.578	-0.319	0.207
-649.799	800.000	-0.013	0.049
-648.784	415.925	-0.063	0.138
-647.770	-49.189	-0.305	0.149
-646.755	-141.087	0.169	0.018
-645.741	-200.000	0.003	-0.083
-644.726	-154.345	-0.236	-0.016
-643.711	800.000	0.153	0.466
-642.697	9.672	0.329	-0.255
-641.682	-153.224	-0.320	0.023
-640.668	86.654	-0.191	-0.215
-639.653	800.000	0.113	-0.371
-638.638	331.806	0.036	0.070
-637.624	21.813	0.157	-0.131
-636.609	-200.000	0.023	-0.286
-635.595	-99.363	-0.352	0.090
-634.580	-114.127	-0.286	0.056
-633.565	14.085	-0.244	-0.194
-632.551	54.603	0.035	-0.035
-631.536	65.365	-0.202	-0.209
-630.522	-200.000	-0.205	0.000
-629.507	-200.000	0.006	0.072
-628.492	-100.415	0.197	-0.050
-627.478	800.000	-0.081	-0.274
-626.463	-48.898	-0.295	-0.144
-625.449	384.532	0.094	-0.198
-624.434	-38.278	0.279	-0.151
-623.419	5.122	0.149	-0.112
-622.405	65.211	-0.129	-0.133
-621.390	-53.497	0.203	0.095
-620.376	199.844	0.110	-0.172
-619.361	-94.024	0.138	0.039
-618.346	6.695	-0.110	-0.083
-617.332	60.121	-0.255	-0.257
-616.317	-126.352	0.390	0.059
-615.303	-200.000	0.048	0.256
-614.288	-133.681	-0.222	-0.028
-613.273	-102.776	-0.162	-0.039
-612.259	-24.326	0.118	0.072
-611.244	298.503	-0.098	-0.184
-610.230	-16.240	0.320	0.207
-609.215	-37.226	-0.049	0.027
-608.201	272.770	-0.179	-0.323
-607.186	231.521	0.071	0.119
-606.171	800.000	0.034	0.100
-605.157	-200.000	-0.085	0.547
-604.142	-58.834	-0.342	-0.151
-603.128	-200.000	-0.022	-0.114
-602.113	-200.000	-0.016	0.173
-601.098	20.167	-0.179	-0.147
-600.084	-200.000	0.006	0.233
-599.069	-62.443	-0.284	-0.120
-598.055	-69.235	-0.136	-0.053
-597.040	-39.495	-0.312	0.166
-596.025	-22.185	-0.294	0.182
-595.011	-50.798	0.247	0.119
-593.996	-31.883	-0.459	0.262
-592.982	-200.000	0.008	-0.164
-591.967	427.520	-0.087	-0.191
-590.952	-51.481	-0.049	-0.024
-589.938	-147.151	-0.214	0.019
-588.923	-89.913	0.253	0.075
-587.909	-102.792	-0.168	-0.041
-586.894	-7.652	-0.187	-0.129
-585.879	-6.533	-0.095	0.066
-584.865	21.002	0.023	0.019
-583.850	800.000	0.096	-0.315
-582.836	61.563	0.114	-0.116
-581.821	118.153	0.155	-0.195
-580.806	-50.188	-0.210	0.101
-579.792	-65.780	-0.223	0.091
-578.777	800.000	-0.077	-0.251
-577.763	-200.000	0.340	0.001
-576.748	-82.099	0.225	0.075
-575.733	800.000	0.093	0.368
-574.719	-200.000	-0.028	-0.229
-573.704	40.306	-0.219	-0.200
-572.690	-78.105	0.354	0.124
-571.675	800.000	0.058	-0.230
-570.661	-155.366	0.090	0.006
-569.646	-146.318	0.384	-0.034
-568.631	-80.252	-0.138	0.047
-567.617	421.643	-0.093	-0.203
-566.602	-200.000	-0.009	-0.067
-565.588	-188.353	-0.136	0.002
-564.573	-200.000	-0.015	0.164
-563.558	-200.000	0.031	-0.306
-562.544	268.591	-0.104	0.185
-561.529	-111.762	0.109	-0.022
-560.515	-74.516	0.189	0.069
-559.500	-169.638	0.079	0.003
-558.485	-200.000	-0.033	-0.401
-557.471	-121.341	-0.152	-0.026
-556.456	88.813	-0.041	-0.046
-555.442	-0.390	0.230	-0.166
-554.427	63.444	-0.202	-0.206
-553.412	-200.000	-0.023	-0.218
-552.398	-200.000	-0.040	0.186
-551.383	-114.548	0.428	0.083
-550.369	-41.407	0.225	-0.118
-549.354	476.139	0.119	-0.273
-548.339	739.961	-0.076	0.208
-547.325	-35.411	0.204	0.113
-546.310	-7.788	0.287	-0.197
-545.296	38.837	0.337	0.306
-544.281	618.782	0.056	-0.143
-543.266	-200.000	0.015	0.291
-542.252	296.205	0.134	0.249
-541.237	-200.000	-0.017	-0.244
-540.223	1.286	-0.136	-0.100
-539.208	-200.000	-0.005	0.420
-538.193	-54.196	0.064	0.030
-537.179	-200.000	0.037	-0.523
-536.164	383.850	-0.033	-0.069
-535.150	-174.229	0.024	0.001
-534.135	97.931	-0.222	0.259
-533.121	100.746	-0.154	-0.182
-532.106	-81.907	0.210	-0.070
-531.091	35.695	-0.228	0.204
-530.077	112.345	-0.167	-0.205
-529.062	-24.813	-0.216	0.130
-528.048	485.649	0.029	0.068
-527.033	-110.682	0.024	-0.005
-526.018	218.694	-0.101	-0.163
-525.004	214.823	0.159	0.256
-523.989	-2.727	-0.223	-0.159
-522.975	47.980	-0.258	-0.245
-521.960	-35.275	0.175	-0.097
-520.945	-200.000	-0.210	0.000
-519.931	43.825	0.175	0.163
-518.916	-200.000	-0.015	-0.262
-517.902	56.371	-0.163	-0.161
-516.887	-200.000	-0.064	-0.409
-515.872	-79.500	-0.113	-0.039
-514.858	473.766	-0.014	0.033
-513.843	-13.753	0.076	-0.050
-512.829	712.944	0.034	0.092
-511.814	-200.000	0.005	0.100
-510.799	-69.691	0.217	0.084
-509.785	112.048	0.062	-0.076
-508.770	-77.500	-0.194	0.068
-507.756	-23.817	-0.271	0.165
-506.741	59.481	0.241	0.241
-505.726	54.809	0.201	0.197
-504.712	519.267	-0.041	0.098
-503.697	-145.181	0.362	-0.033
-502.683	-86.750	-0.222	-0.069
-501.668	-175.515	0.101	-0.003
-500.653	15.590	0.046	0.036
-499.639	-200.000	0.028	-0.397
-498.624	800.000	-0.038	-0.163
-497.610	69.114	-0.065	-0.068
-496.595	5.280	-0.115	-0.086
-495.581	-102.899	-0.044	0.011
-494.566	48.330	-0.207	-0.197
-493.551	-77.986	0.248	-0.087
-492.537	-51.988	0.169	-0.080
-491.522	-54.822	0.161	-0.074
-490.508	8.999	0.009	-0.007
-489.493	145.127	-0.017	0.023
-488.478	-82.264	-0.122	-0.040
-487.464	-15.345	-0.138	-0.089
-486.449	4.025	-0.117	0.087
-485.435	120.511	-0.089	-0.113
-484.420	-200.000	0.016	-0.231
-483.405	800.000	-0.122	-0.342
-482.391	-161.896	-0.272	-0.014
-481.376	-108.056	0.143	0.031
-480.362	-169.833	-0.064	0.002
-479.347	-71.808	0.267	-0.101
-478.332	46.275	-0.098	-0.092
-477.318	-28.430	0.410	-0.240
-476.303	-200.000	0.028	-0.212
-475.289	58.658	0.103	-0.103
-474.274	468.640	0.050	0.113
-473.259	-200.000	0.002	-0.234
-472.245	-82.983	0.041	-0.014
-471.230	-37.074	-0.021	0.011
-470.216	254.773	0.040	-0.070
-469.201	98.435	0.016	-0.019
-468.186	160.785	0.210	-0.297
-467.172	712.311	0.066	-0.177
-466.157	-81.634	0.305	-0.101
-465.143	-200.000	0.045	0.206
-464.128	-18.350	-0.216	-0.137
-463.113	-65.406	0.245	-0.100
-462.099	209.131	-0.071	0.113
-461.084	294.573	0.104	-0.193
-460.070	-33.072	0.052	-0.029
-459.055	577.819	0.112	0.278
-458.040	50.676	-0.037	0.036
-457.026	-30.705	-0.353	-0.202
-456.011	-65.654	-0.297	-0.121
-454.997	800.000	-0.080	0.321
-453.982	-24.587	-0.187	0.113
-452.968	-15.769	-0.511	0.330
-451.953	-16.410	0.136	0.087
-450.938	184.848	-0.166	-0.250
-449.924	-146.652	0.096	0.008
-448.909	40.512	0.150	0.137
-447.895	-200.000	0.033	-0.179
-446.880	158.157	-0.110	0.155
-445.865	393.934	0.081	0.170
-444.851	-20.329	-0.203	0.127
-443.836	-170.538	0.216	-0.008
-442.822	-100.583	0.342	-0.086
-441.807	800.000	-0.101	0.329
-440.792	-200.000	-0.010	-0.122
-439.778	160.779	-0.122	0.173
-438.763	205.916	-0.099	0.157
-437.749	71.238	0.230	-0.241
-436.734	529.651	0.100	0.240
-435.719	-92.993	0.177	-0.050
-434.705	120.012	0.234	0.295
-433.690	-200.000	-0.060	-0.336
-432.676	800.000	-0.082	-0.364
-431.661	800.000	0.054	0.201
-430.646	-121.625	-0.174	-0.029
-429.632	387.262	-0.031	-0.065
-428.617	-200.000	-0.041	0.257
-427.603	800.000	-0.078	0.240
-426.588	35.020	-0.243	-0.215
-425.573	-71.216	-0.098	0.037
-424.559	133.571	0.034	-0.045
-423.544	118.208	-0.193	-0.240
-422.530	-56.754	0.065	-0.029
-421.515	212.691	0.147	0.235
-420.500	-23.833	0.115	-0.070
-419.486	-200.000	0.021	0.151
-418.471	142.095	0.005	0.007
-417.457	-200.000	0.028	-0.142
-416.442	9.935	-0.209	0.161
-415.428	169.489	0.114	0.165
-414.413	-200.000	-0.014	0.298
-413.398	48.773	-0.306	0.291
-412.384	-84.598	-0.303	0.097
-411.369	10.135	0.114	-0.088
-410.355	10.630	0.176	0.136
-409.340	268.234	0.045	0.080
-408.325	-77.215	-0.118	0.042
-407.311	794.784	-0.004	-0.011
-406.296	37.109	-0.329	-0.294
-405.282	-129.935	0.212	-0.029
-404.267	-200.000	0.003	-0.038
-403.252	-164.348	0.374	0.017
-402.238	-103.153	-0.216	0.052
-401.223	123.419	0.218	0.276
-400.209	387.633	0.070	0.147
-399.194	175.031	-0.159	0.233
-398.179	-90.384	0.267	0.078
-397.165	-100.539	-0.190	0.048
-396.150	-110.124	0.205	0.043
-395.136	800.000	-0.108	0.326
-394.121	354.775	-0.046	0.093
-393.106	-134.009	0.481	0.060
-392.092	-168.061	-0.251	-0.010
-391.077	91.717	-0.060	-0.068
-390.063	800.000	0.019	0.063
-389.048	111.400	-0.098	0.120
-388.033	274.750	-0.159	0.285
-387.019	753.849	0.095	0.260
-386.004	572.563	-0.029	0.070
-384.990	-39.013	0.194	-0.103
-383.975	114.305	0.208	0.256
-382.960	534.372	-0.126	-0.302
-381.946	137.573	0.083	-0.110
-380.931	-143.097	-0.087	-0.008
-379.917	-200.000	-0.015	-0.074
-378.902	-200.000	0.032	0.213
-377.888	218.792	0.141	0.228
-376.873	86.900	-0.075	0.084
-375.858	469.221	-0.083	-0.187
-374.844	-53.018	-0.267	-0.124
-373.829	800.000	0.076	-0.253
-372.815	125.216	0.090	-0.115
-371.800	-7.751	-0.411	0.280
-370.785	60.294	-0.160	-0.160
-369.771	12.167	-0.089	0.070
-368.756	236.115	-0.213	-0.355
-367.742	-62.434	0.199	0.084
-366.727	-35.765	0.175	-0.096
-365.712	800.000	-0.131	-0.399
-364.698	-110.190	0.105	0.022
-363.683	164.611	-0.154	0.219
-362.669	-200.000	0.000	0.107
-361.654	-134.371	0.089	-0.011
-360.639	-100.908	0.101	-0.025
-359.625	-44.259	-0.083	-0.042
-358.610	-77.182	-0.248	-0.087
-357.596	-200.000	0.013	-0.198
-356.581	396.503	-0.066	-0.139
-355.566	104.287	0.301	0.358
-354.552	-62.149	-0.234	0.099
-353.537	-200.000	-0.008	-0.193
-352.523	354.563	0.097	-0.195
-351.508	50.147	-0.023	0.022
-350.493	-200.000	-0.008	0.111
-349.479	-30.328	0.262	-0.150
-348.464	545.011	0.107	-0.257
-347.450	122.077	-0.280	-0.353
-346.435	147.468	-0.187	0.254
-345.420	-127.942	0.362	0.053
-344.406	-62.838	0.115	0.048
-343.391	-200.000	0.018	0.104
-342.377	41.009	-0.134	0.122
-341.362	-6.498	0.283	0.195
-340.348	274.548	-0.119	0.212
-339.333	37.096	0.146	0.130
-338.318	-34.545	0.101	-0.056
-337.304	51.851	0.118	-0.113
-336.289	-145.435	0.275	-0.025
-335.275	-33.943	0.351	0.195
-334.260	-108.502	-0.269	-0.058
-333.245	-200.000	0.050	-0.263
-332.231	326.720	0.097	0.188
-331.216	-200.000	0.009	-0.124
-330.202	-104.094	-0.170	0.040
-329.187	318.244	-0.041	0.078
-328.172	-43.860	-0.105	0.053
-327.158	-26.382	0.049	0.029
-326.143	289.116	-0.186	-0.340
-325.129	-129.014	-0.294	0.042
-324.114	-140.637	-0.235	-0.025
-323.099	-47.759	-0.086	-0.042
-322.085	-124.764	0.155	-0.024
-321.070	-92.162	-0.171	-0.049
-320.056	-86.728	0.071	0.022
-319.041	-18.163	-0.048	0.030
-318.026	-58.451	-0.195	-0.085
-317.012	-35.674	0.206	-0.112
-315.997	65.556	0.131	-0.134
-314.983	-173.943	-0.206	0.006
-313.968	413.759	-0.119	0.255
-312.953	-200.000	-0.001	0.325
-311.939	-53.193	0.178	0.082
-310.924	-2.929	0.304	0.214
-309.910	74.225	-0.297	0.314
-308.895	-76.045	-0.425	0.151
-307.880	800.000	-0.111	-0.360
-306.866	219.905	0.078	-0.125
-305.851	47.921	-0.180	0.169
-304.837	8.789	-0.212	-0.161
-303.822	694.380	-0.115	0.303
-302.807	-169.235	-0.164	0.006
-301.793	800.000	-0.038	0.138
-300.778	-3.247	-0.184	0.129
-299.764	-200.000	-0.033	0.277
-298.749	209.692	0.209	0.329
-297.735	-71.318	0.113	0.043
-296.720	-157.522	0.230	-0.014
-295.705	101.631	-0.026	0.031
-294.691	57.585	-0.045	-0.045
-293.676	1.478	-0.236	-0.171
-292.662	-64.078	-0.212	0.087
-291.647	-200.000	-0.020	0.206
-290.632	-87.022	-0.243	-0.074
-289.618	-200.000	-0.008	0.229
-288.603	210.456	0.111	-0.175
-287.589	-52.205	0.133	-0.062
-286.574	-200.000	-0.007	0.103
-285.559	-117.667	0.130	-0.024
-284.545	-57.721	0.110	0.049
-283.530	-180.744	-0.302	0.006
-282.516	-200.000	0.039	-0.245
-281.501	335.446	-0.074	0.144
-280.486	-118.202	0.218	0.039
-279.472	-200.000	-0.042	-0.215
-278.457	-174.783	0.053	0.002
-277.443	-146.931	0.136	-0.012
-276.428	-120.323	0.189	-0.032
-275.413	-64.776	-0.601	0.245
-274.399	-57.656	-0.039	-0.017
-273.384	-112.676	0.270	0.054
-272.370	206.969	0.246	-0.385
-271.355	-69.310	0.271	-0.105
-270.340	-200.000	0.004	0.222
-269.326	783.801	0.073	0.201
-268.311	-162.659	0.235	0.012
-267.297	6.106	0.156	-0.116
-266.282	322.491	-0.046	0.088
-265.267	0.448	0.236	-0.170
-264.253	-87.183	0.139	0.043
-263.238	393.459	0.053	0.111
-262.224	-200.000	0.035	0.177
-261.209	289.362	0.019	-0.035
-260.195	-164.055	0.314	-0.015
-259.180	-200.000	-0.006	-0.084
-258.165	64.791	0.158	0.160
-257.151	-68.550	0.392	0.153
-256.136	-85.641	-0.256	-0.080
-255.122	-200.000	-0.108	0.481
-254.107	170.781	0.067	-0.097
-253.092	-66.427	0.267	0.107
-252.078	25.104	-0.118	-0.099
-251.063	270.979	0.128	-0.227
-250.049	-42.866	0.382	0.195
-249.034	800.000	-0.027	0.111
-248.019	83.179	-0.098	-0.107
-247.005	188.759	-0.146	0.220
-245.990	-125.030	-0.258	0.040
-244.976	-20.875	-0.153	0.094
-243.961	-159.017	0.133	0.008
-242.946	-200.000	0.063	0.402
-241.932	-200.000	0.023	0.402
-240.917	-64.208	0.108	-0.044
-239.903	-200.000	0.021	-0.359
-238.888	-50.506	-0.158	0.075
-237.873	98.648	0.097	-0.113
-236.859	-37.967	-0.080	-0.043
-235.844	-65.281	-0.121	-0.049
-234.830	-107.166	-0.083	-0.018
-233.815	394.417	-0.066	-0.138
-232.800	26.509	0.022	0.018
-231.786	800.000	0.056	0.237
-230.771	-164.091	0.359	0.017
-229.757	-84.452	0.287	0.091
-228.742	-131.528	0.073	0.010
-227.727	14.953	0.083	0.066
-226.713	-144.528	-0.164	0.015
-225.698	-105.245	-0.186	-0.043
-224.684	-73.630	0.353	-0.129
-223.669	-144.720	-0.146	-0.013
-222.655	195.608	0.137	0.209
-221.640	-14.211	0.267	-0.173
-220.625	-200.000	-0.045	-0.555
-219.611	-125.337	-0.059	0.009
-218.596	141.390	0.312	-0.415
-217.582	800.000	-0.021	0.089
-216.567	800.000	-0.029	-0.125
-215.552	-36.033	0.132	-0.072
-214.538	-61.680	-0.332	0.140
-213.523	78.541	0.047	-0.051
-212.509	-200.000	-0.025	0.439
-211.494	-82.429	0.197	0.064
-210.479	800.000	-0.117	-0.391
-209.465	196.627	0.061	0.093
-208.450	-8.101	0.215	0.145
-207.436	-142.256	-0.204	-0.020
-206.421	12.574	0.097	0.075
-205.406	85.331	-0.110	0.122
-204.392	-98.806	-0.049	-0.012
-203.377	-200.000	0.058	-0.328
-202.363	26.580	-0.122	-0.102
-201.348	83.634	-0.200	-0.219
-200.333	-36.761	-0.095	0.051
-199.319	29.738	-0.119	-0.102
-198.304	320.018	0.015	0.028
-197.290	-200.000	-0.029	0.225
-196.275	-200.000	0.059	-0.442
-195.260	-200.000	0.018	0.093
-194.246	800.000	-0.093	0.291
-193.231	100.526	-0.341	0.397
-192.217	188.596	-0.084	0.126
-191.202	800.000	-0.079	0.309
-190.187	417.192	0.154	0.331
-189.173	-137.814	-0.248	0.028
-188.158	-75.333	0.119	-0.043
-187.144	-200.000	0.021	0.135
-186.129	11.247	0.219	0.168
-185.114	331.099	0.158	0.306
-184.100	-200.000	-0.001	0.209
-183.085	-57.234	-0.264	-0.117
-182.071	-85.855	0.210	0.065
-181.056	7.880	-0.153	-0.115
-180.042	-87.752	0.309	-0.093
-179.027	-200.000	0.007	-0.089
-178.012	6.824	-0.281	0.210
-176.998	330.601	0.044	0.086
-175.983	-9.651	0.123	-0.082
-174.969	800.000	-0.048	-0.204
-173.954	-200.000	-0.009	-0.211
-172.939	-200.000	0.047	0.238
-171.925	86.293	0.024	0.026
-170.910	-67.464	-0.475	0.187
-169.896	-148.650	0.540	-0.044
-168.881	-200.000	0.063	0.292
-167.866	106.676	-0.163	-0.194
-166.852	-138.695	0.223	-0.024
-165.837	800.000	0.130	0.384
-164.823	800.000	-0.071	0.304
-163.808	35.888	-0.083	0.073
-162.793	-200.000	0.092	-0.419
-161.779	-66.034	-0.223	-0.089
-160.764	-56.142	0.082	-0.037
-159.750	540.596	0.193	-0.461
-158.735	80.552	0.191	-0.207
-157.720	-3.215	0.374	0.261
-156.706	31.509	0.114	0.098
-155.691	800.000	-0.097	-0.277
-154.677	800.000	0.069	-0.197
-153.662	-19.101	-0.125	-0.078
-152.647	-200.000	-0.003	-0.212
-151.633	129.401	-0.063	0.080
-150.618	241.871	0.229	0.383
-149.604	133.566	0.052	0.067
-148.589	36.732	0.112	0.099
-147.574	-200.000	0.014	-0.062
-146.560	-163.324	-0.510	-0.024
-145.545	-166.337	-0.122	0.005
-144.531	588.203	0.032	-0.079
-143.516	370.301	-0.128	0.260
-142.502	315.744	0.138	0.261
-141.487	19.295	-0.053	0.043
-140.472	-200.000	0.028	0.298
-139.458	773.080	0.061	-0.168
-138.443	-200.000	0.001	0.098
-137.429	-109.697	-0.537	-0.113
-136.414	-131.504	0.213	-0.028
-135.399	-45.755	0.147	0.072
-134.385	112.791	0.093	0.112
-133.370	800.000	-0.109	-0.473
-132.356	-128.665	-0.264	-0.037
-131.341	-65.357	-0.172	0.069
-130.326	277.223	-0.117	0.208
-129.312	80.050	-0.158	0.170
-128.297	-200.000	0.001	0.272
-127.283	-86.213	-0.257	0.079
-126.268	-200.000	0.027	0.197
-125.253	-55.541	0.117	-0.052
-124.239	-122.593	-0.229	-0.037
-123.224	800.000	-0.041	-0.178
-122.210	279.813	-0.079	-0.141
-121.195	-119.189	0.135	-0.024
