DTS Sentinel unit serial number:	SN413079Multiplexer serial number:	ORYXHardware model number:	OX4-SRSoftware version number:	ORYX F/W v4.00 Oryx Data Collector v3.7.2.0data status	okinstallation	princeton_trtdifferential loss correction	single-endedforward channel	channel 2reverse channel	N/Adate	2019/09/12time	18:53:49forward acquisition time	15.00reverse acquisition time	0.00gamma	496.2192k internal	0.2325k external	0.2325temperature offset calibration	1.0135default loss term (dB/km)	0.3790temperature slope calibration	1.0000multiplexer offset coefficient	1.0000multiplexer slope coefficient	1.0000fibre end	0.00T internal ref (°C)	32.87T ext. ref 1 (°C)	3.02T ext. ref 2 (°C)	27.34length (m)	temperature (°C)	Stokes	anti-Stokes-747.200	-47.797	1.077	-0.526
-746.185	29.067	0.129	0.111
-745.171	-200.000	0.121	0.589
-744.156	-129.267	-0.990	-0.139
-743.142	188.351	0.144	-0.217
-742.127	-200.000	-0.040	0.497
-741.112	-200.000	-0.063	0.726
-740.098	458.089	-0.292	-0.655
-739.083	-91.944	-0.386	0.110
-738.069	0.347	0.776	0.559
-737.054	-200.000	0.047	-1.105
-736.039	800.000	-0.049	0.197
-735.025	74.233	-0.261	0.276
-734.010	-103.759	0.691	0.163
-732.996	718.677	-0.168	0.451
-731.981	608.336	-0.246	0.620
-730.966	-13.532	-0.149	-0.097
-729.952	-200.000	-0.054	-0.395
-728.937	-100.628	-0.472	-0.118
-727.923	126.159	-0.200	0.255
-726.908	-170.484	0.657	0.023
-725.894	-88.616	-0.739	-0.222
-724.879	800.000	-0.187	-0.552
-723.864	-200.000	0.052	0.459
-722.850	-200.000	0.141	-0.627
-721.835	-48.895	0.646	0.312
-720.821	88.502	-0.394	0.441
-719.806	540.920	-0.330	-0.792
-718.791	126.859	0.419	0.536
-717.777	398.556	-0.316	-0.668
-716.762	51.211	-0.561	0.537
-715.748	-25.563	-0.333	0.198
-714.733	800.000	0.145	0.406
-713.718	-99.326	0.899	0.229
-712.704	-200.000	-0.107	-0.927
-711.689	-200.000	-0.060	-0.534
-710.675	-200.000	-0.020	-0.166
-709.660	-200.000	-0.064	-0.664
-708.645	133.315	0.185	0.241
-707.631	-68.032	-0.484	-0.190
-706.616	236.490	0.226	-0.376
-705.602	138.472	0.210	0.278
-704.587	-200.000	-0.078	-0.368
-703.572	397.895	-0.332	-0.699
-702.558	332.490	0.559	-1.087
-701.543	-200.000	0.111	-0.644
-700.529	-200.000	0.040	-0.184
-699.514	-88.142	-0.331	0.100
-698.499	-154.348	-0.507	0.034
-697.485	-6.829	0.257	-0.176
-696.470	800.000	-0.082	0.283
-695.456	6.747	-0.198	-0.148
-694.441	-20.655	0.808	0.500
-693.426	47.129	0.169	-0.159
-692.412	-14.977	0.174	-0.113
-691.397	36.171	0.273	-0.242
-690.383	-200.000	-0.115	-0.761
-689.368	371.501	0.437	0.893
-688.354	537.850	0.075	-0.179
-687.339	-138.515	0.403	-0.045
-686.324	25.841	-0.206	0.173
-685.310	-61.953	-0.025	0.011
-684.295	-188.476	-0.584	0.007
-683.281	20.558	0.527	-0.429
-682.266	800.000	0.081	-0.311
-681.251	-46.775	1.207	-0.595
-680.237	-93.081	0.401	-0.113
-679.222	-31.898	0.146	0.082
-678.208	-92.623	-0.614	-0.173
-677.193	52.025	-0.235	0.225
-676.178	-11.150	-0.539	0.358
-675.164	-200.000	0.006	0.569
-674.149	553.001	0.120	-0.290
-673.135	91.954	-0.247	-0.280
-672.120	399.499	0.174	-0.367
-671.105	-135.313	-0.804	-0.097
-670.091	-39.244	0.200	-0.106
-669.076	-200.000	0.010	0.235
-668.062	68.833	-0.212	-0.219
-667.047	800.000	0.241	0.780
-666.032	-79.520	0.687	0.233
-665.018	552.724	0.152	0.367
-664.003	800.000	0.142	-0.463
-662.989	-45.908	-0.345	0.171
-661.974	-200.000	0.040	-0.208
-660.959	-162.303	-0.615	-0.031
-659.945	-113.181	1.247	-0.247
-658.930	39.346	-0.108	0.097
-657.916	-77.243	0.597	-0.209
-656.901	48.689	1.126	1.062
-655.886	-84.497	-0.421	-0.134
-654.872	94.510	0.610	0.697
-653.857	-33.404	0.753	0.418
-652.843	-200.000	0.074	-0.411
-651.828	-64.856	-0.861	0.350
-650.814	-164.910	0.404	-0.018
-649.799	48.288	-0.433	0.407
-648.784	800.000	-0.060	-0.192
-647.770	550.347	0.186	-0.448
-646.755	-166.978	-1.228	-0.050
-645.741	214.493	-0.386	0.615
-644.726	-20.876	0.665	0.410
-643.711	25.597	0.254	0.213
-642.697	-83.332	0.646	-0.208
-641.682	-200.000	0.006	-0.598
-640.668	-200.000	-0.051	0.461
-639.653	570.531	0.220	0.538
-638.638	-200.000	0.056	0.432
-637.624	800.000	0.077	-0.310
-636.609	116.225	-0.214	-0.264
-635.595	542.629	0.190	-0.455
-634.580	31.832	0.510	0.441
-633.565	-107.877	0.312	-0.068
-632.551	216.031	-0.142	0.227
-631.536	192.272	0.567	-0.860
-630.522	-33.860	-0.571	0.316
-629.507	-200.000	0.027	0.509
-628.492	99.412	-0.349	0.406
-627.478	-179.725	-0.214	-0.005
-626.463	-186.754	0.448	-0.006
-625.449	91.901	0.321	0.363
-624.434	-200.000	0.066	-0.806
-623.419	800.000	-0.108	0.341
-622.405	-124.852	0.459	0.071
-621.390	-90.287	0.706	-0.206
-620.376	567.618	0.233	0.569
-619.361	-23.281	0.555	0.335
-618.346	-88.601	-0.274	-0.082
-617.332	-136.790	1.015	0.117
-616.317	203.781	0.086	-0.133
-615.303	-200.000	0.024	0.473
-614.288	134.027	-0.033	-0.043
-613.273	353.101	0.079	-0.158
-612.259	-5.159	0.829	-0.573
-611.244	-102.893	0.276	-0.066
-610.230	-56.300	0.187	-0.083
-609.215	7.663	0.287	-0.216
-608.201	800.000	0.244	-0.777
-607.186	170.969	0.176	0.253
-606.171	-61.055	0.525	-0.223
-605.157	65.028	0.389	-0.394
-604.142	-73.127	-0.156	0.057
-603.128	800.000	0.092	-0.351
-602.113	-113.374	-0.549	-0.108
-601.098	353.665	-0.308	-0.613
-600.084	-200.000	0.051	-0.239
-599.069	800.000	0.050	0.139
-598.055	-160.191	0.488	-0.027
-597.040	74.204	0.129	-0.136
-596.025	-48.015	-0.403	0.196
-595.011	61.584	-0.352	0.352
-593.996	-169.998	0.531	0.019
-592.982	800.000	0.297	-1.118
-591.967	76.922	0.679	0.724
-590.952	-83.809	0.308	0.098
-589.938	-28.200	-0.293	-0.170
-588.923	800.000	-0.134	-0.563
-587.909	119.473	-0.361	-0.449
-586.894	-35.167	-0.588	0.321
-585.879	-122.897	0.261	-0.042
-584.865	-50.853	0.627	-0.296
-583.850	800.000	0.078	-0.240
-582.836	48.532	-0.293	-0.276
-581.821	-200.000	0.123	1.266
-580.806	63.384	-0.398	-0.400
-579.792	-200.000	-0.095	-0.543
-578.777	548.310	-0.210	-0.504
-577.763	-200.000	-0.174	-1.043
-576.748	800.000	0.292	1.251
-575.733	-82.935	0.938	0.303
-574.719	-56.823	-0.782	-0.347
-573.704	78.821	-0.301	-0.322
-572.690	28.413	0.236	-0.200
-571.675	-70.941	-0.417	0.158
-570.661	43.048	-0.351	-0.321
-569.646	292.877	0.498	0.910
-568.631	219.599	-0.295	0.473
-567.617	123.862	0.440	0.553
-566.602	-200.000	0.022	0.242
-565.588	115.579	0.152	0.186
-564.573	-200.000	0.002	-0.328
-563.558	-22.748	-0.394	-0.238
-562.544	-8.839	-0.284	-0.190
-561.529	-180.882	0.570	0.012
-560.515	800.000	-0.055	-0.172
-559.500	-142.814	0.635	-0.062
-558.485	-18.905	-0.668	0.416
-557.471	599.159	0.178	0.443
-556.456	-87.901	-0.603	0.182
-555.442	800.000	0.157	0.554
-554.427	78.965	-0.583	-0.626
-553.412	-143.165	-0.283	0.027
-552.398	-200.000	0.106	0.493
-551.383	-83.673	-0.834	-0.267
-550.369	0.453	0.415	0.297
-549.354	171.023	-0.110	-0.158
-548.339	338.055	-0.233	0.453
-547.325	115.982	-0.278	-0.341
-546.310	-72.616	0.223	0.082
-545.296	-125.268	-1.130	0.173
-544.281	-200.000	0.164	-0.830
-543.266	-37.480	-0.122	-0.065
-542.252	496.551	0.164	0.377
-541.237	3.720	1.150	0.840
-540.223	-39.162	0.623	-0.328
-539.208	-75.905	-0.561	0.199
-538.193	-99.526	-0.457	0.115
-537.179	288.372	0.356	0.645
-536.164	-200.000	-0.143	0.742
-535.150	45.813	-0.144	-0.133
-534.135	-200.000	0.057	-0.442
-533.121	-158.495	-0.443	-0.026
-532.106	416.508	0.284	-0.607
-531.091	100.434	-0.512	0.595
-530.077	-93.200	0.581	0.162
-529.062	-200.000	0.002	-0.378
-528.048	-184.863	1.208	-0.019
-527.033	471.953	0.128	0.288
-526.018	-71.668	-1.124	0.420
-525.004	294.173	0.149	0.273
-523.989	800.000	-0.224	-0.795
-522.975	800.000	0.133	0.538
-521.960	-61.982	0.315	-0.132
-520.945	83.616	-0.525	0.573
-519.931	31.487	0.458	0.393
-518.916	103.001	0.254	0.298
-517.902	-200.000	-0.074	0.589
-516.887	-41.082	0.346	-0.179
-515.872	410.077	-0.275	0.583
-514.858	58.973	-0.383	-0.377
-513.843	2.723	0.309	-0.224
-512.829	16.204	0.577	-0.455
-511.814	225.740	-0.573	-0.929
-510.799	82.706	0.298	-0.324
-509.785	21.651	-0.193	-0.157
-508.770	-200.000	-0.012	-0.498
-507.756	34.048	0.924	-0.805
-506.741	-0.304	0.519	-0.369
-505.726	-200.000	0.072	0.621
-504.712	93.861	0.184	-0.209
-503.697	800.000	0.202	-0.727
-502.683	17.416	-0.705	0.560
-501.668	135.238	-0.409	0.531
-500.653	-106.463	0.181	-0.040
-499.639	800.000	-0.051	-0.173
-498.624	35.677	0.501	-0.440
-497.610	-200.000	-0.063	-0.776
-496.595	33.315	0.392	0.340
-495.581	-200.000	0.138	-0.775
-494.566	-57.598	-1.062	-0.465
-493.551	-28.115	0.615	-0.356
-492.537	-54.705	0.814	0.367
-491.522	308.879	-0.186	0.346
-490.508	236.103	0.448	0.740
-489.493	-57.051	-0.330	-0.145
-488.478	-103.902	-0.725	0.169
-487.464	-22.476	0.395	-0.239
-486.449	209.789	-0.455	0.712
-485.435	-172.276	-1.018	0.033
-484.420	-200.000	0.106	0.535
-483.405	-166.399	-0.317	-0.013
-482.391	35.455	-0.357	0.313
-481.376	19.616	0.391	-0.314
-480.362	-34.468	-0.401	-0.219
-479.347	-133.407	0.633	0.079
-478.332	-200.000	-0.009	-0.804
-477.318	183.972	0.446	-0.659
-476.303	800.000	0.236	-0.695
-475.289	-72.094	-0.215	0.080
-474.274	-200.000	-0.112	-0.805
-473.259	422.410	-0.286	-0.614
-472.245	-200.000	0.080	-0.650
-471.230	-78.875	-0.553	-0.188
-470.216	125.061	-0.190	-0.239
-469.201	7.615	0.251	-0.187
-468.186	150.044	0.109	0.148
-467.172	-90.874	-0.488	-0.140
-466.157	-67.889	0.856	0.334
-465.143	4.258	0.229	0.167
-464.128	-70.862	0.676	0.254
-463.113	-200.000	-0.027	0.151
-462.099	298.460	-0.301	-0.552
-461.084	284.575	0.360	-0.646
-460.070	19.011	0.254	-0.203
-459.055	-42.558	-0.366	-0.186
-458.040	-54.949	-0.862	-0.388
-457.026	16.593	-0.190	-0.150
-456.011	-76.719	0.918	-0.321
-454.997	-200.000	0.029	0.450
-453.982	-200.000	-0.032	-0.574
-452.968	-200.000	0.207	0.000
-451.953	-200.000	0.027	-0.191
-450.938	800.000	-0.257	0.859
-449.924	-200.000	0.062	-0.616
-448.909	-37.239	0.095	-0.051
-447.895	-200.000	-0.048	0.851
-446.880	8.048	-0.451	-0.337
-445.865	279.033	-0.217	0.385
-444.851	-172.559	0.789	-0.025
-443.836	0.967	-0.415	-0.296
-442.822	-149.286	0.385	0.031
-441.807	399.579	-0.419	0.876
-440.792	-138.669	0.754	0.082
-439.778	-200.000	0.018	-0.160
-438.763	143.096	-0.208	0.276
-437.749	-200.000	0.006	0.116
-436.734	105.736	0.218	-0.258
-435.719	166.633	-0.260	-0.367
-434.705	-200.000	-0.049	0.242
-433.690	-200.000	-0.050	0.281
-432.676	-200.000	0.116	0.514
-431.661	21.382	-0.282	-0.228
-430.646	-92.731	-1.073	-0.299
-429.632	-29.521	-1.204	-0.686
-428.617	220.496	0.191	0.305
-427.603	-200.000	-0.058	1.214
-426.588	800.000	0.087	-0.339
-425.573	800.000	-0.179	-0.780
-424.559	-118.689	-0.128	0.023
-423.544	-144.541	1.025	-0.094
-422.530	-38.632	0.210	-0.111
-421.515	19.846	0.448	0.359
-420.500	-143.836	-0.395	0.037
-419.486	-200.000	0.021	0.173
-418.471	-116.493	0.959	0.176
-417.457	55.182	-0.308	0.296
-416.442	-81.978	-0.266	0.086
-415.428	-200.000	-0.165	-1.217
-414.413	800.000	-0.156	0.532
-413.398	-31.742	-0.338	-0.189
-412.384	-200.000	0.078	0.893
-411.369	12.969	0.459	-0.353
-410.355	23.912	0.150	0.123
-409.340	-200.000	0.035	0.592
-408.325	18.835	-0.787	-0.627
-407.311	257.683	-0.235	0.402
-406.296	-200.000	0.016	-0.593
-405.282	185.850	-0.404	0.598
-404.267	-2.648	-0.671	-0.468
-403.252	-89.401	-0.543	-0.159
-402.238	-200.000	0.113	1.238
-401.223	0.008	0.447	-0.317
-400.209	-158.653	-0.340	0.019
-399.194	208.200	0.411	0.639
-398.179	-200.000	-0.067	-0.568
-397.165	-25.894	-0.150	0.088
-396.150	226.657	0.371	0.599
-395.136	-169.792	-0.486	0.017
-394.121	48.629	-0.323	-0.301
-393.106	44.145	-0.362	0.331
-392.092	164.647	-0.219	0.308
-391.077	-67.396	0.363	-0.142
-390.063	-200.000	0.130	-0.672
-389.048	104.421	-0.313	0.367
-388.033	-200.000	0.035	0.721
-387.019	-200.000	0.001	0.820
-386.004	-58.178	-0.777	0.337
-384.990	-115.926	-0.203	0.038
-383.975	-200.000	0.022	0.344
-382.960	-101.491	0.268	-0.065
-381.946	-5.441	-0.073	0.050
-380.931	24.200	0.378	-0.311
-379.917	-61.488	-0.386	0.162
-378.902	3.799	0.161	-0.117
-377.888	-83.529	0.678	0.216
-376.873	-23.887	-0.705	0.420
-375.858	9.827	0.677	0.511
-374.844	-8.742	-0.914	0.610
-373.829	392.280	-0.319	0.659
-372.815	617.581	0.135	0.337
-371.800	-95.573	0.352	0.094
-370.785	-68.324	0.196	0.076
-369.771	4.751	-0.218	-0.159
-368.756	-104.840	0.379	-0.087
-367.742	-139.926	-0.964	0.101
-366.727	-31.576	-0.384	0.214
-365.712	-141.540	0.491	-0.049
-364.698	108.711	0.467	-0.555
-363.683	-101.273	-0.785	0.191
-362.669	126.301	0.252	-0.317
-361.654	186.251	-0.170	-0.252
-360.639	257.409	0.139	0.238
-359.625	29.737	-0.273	-0.231
-358.610	-111.713	0.222	0.045
-357.596	33.665	-0.458	-0.395
-356.581	43.894	0.118	0.108
-355.566	-25.424	0.396	-0.233
-354.552	378.117	0.247	-0.502
-353.537	131.739	0.301	-0.385
-352.523	-69.865	-0.310	0.118
-351.508	800.000	0.125	0.447
-350.493	-102.437	0.916	-0.218
-349.479	-155.553	0.487	-0.031
-348.464	179.302	-0.197	-0.287
-347.450	78.454	0.149	0.159
-346.435	800.000	-0.209	0.738
-345.420	65.280	0.751	0.754
-344.406	-92.296	0.224	-0.063
-343.391	157.666	-0.229	0.315
-342.377	-102.757	-0.574	-0.136
-341.362	-102.488	-1.171	-0.278
-340.348	-30.048	-0.467	0.264
-339.333	-135.937	0.921	-0.108
-338.318	78.245	-0.099	0.105
-337.304	-2.837	-0.418	-0.290
-336.289	-83.348	0.314	0.100
-335.275	800.000	-0.101	-0.316
-334.260	118.911	0.298	-0.365
-333.245	-69.984	-0.459	0.174
-332.231	-104.388	-0.549	0.126
-331.216	800.000	0.181	0.661
-330.202	-159.583	-0.260	-0.014
-329.187	-96.814	0.100	-0.026
-328.172	21.328	0.489	-0.394
-327.158	-159.494	0.695	-0.038
-326.143	-200.000	-0.140	-0.808
-325.129	13.832	0.420	-0.324
-324.114	-200.000	-0.034	0.273
-323.099	459.719	-0.156	0.345
-322.085	247.855	-0.194	0.325
-321.070	-25.139	0.518	0.305
-320.056	-15.071	-0.363	-0.231
-319.041	62.284	0.251	0.248
-318.026	517.384	0.399	-0.927
-317.012	82.229	0.084	0.090
-315.997	205.525	-0.574	-0.886
-314.983	800.000	-0.074	-0.245
-313.968	-35.493	-0.554	-0.299
-312.953	-200.000	0.152	0.821
-311.939	-200.000	0.145	-0.745
-310.924	243.077	-0.123	0.204
-309.910	800.000	-0.334	1.226
-308.895	-4.456	0.747	0.512
-307.880	507.686	-0.162	0.374
-306.866	-0.308	-0.832	0.587
-305.851	-200.000	0.046	-0.260
-304.837	-200.000	-0.044	-0.580
-303.822	-83.769	1.021	-0.323
-302.807	-88.268	0.361	-0.107
-301.793	-2.716	-0.609	0.423
-300.778	705.435	-0.242	-0.633
-299.764	-71.742	0.932	-0.345
-298.749	743.058	0.190	0.506
-297.735	-25.530	-0.672	-0.394
-296.720	-109.283	-0.957	-0.201
-295.705	194.055	0.368	-0.553
-294.691	-45.217	0.438	-0.216
-293.676	149.076	-0.170	-0.228
-292.662	-200.000	-0.009	-0.106
-291.647	165.676	-0.383	0.537
-290.632	83.537	0.025	-0.028
-289.618	-28.617	-0.484	0.276
-288.603	-119.172	-0.563	0.097
-287.589	-128.392	-0.030	-0.004
-286.574	9.394	0.311	-0.233
-285.559	-200.000	-0.068	-0.652
-284.545	-200.000	0.022	0.594
-283.530	-137.810	0.755	-0.084
-282.516	670.045	-0.215	-0.551
-281.501	-142.829	0.419	0.040
-280.486	41.602	0.137	0.123
-279.472	-200.000	0.018	-0.151
-278.457	800.000	0.136	0.375
-277.443	-93.771	0.138	-0.038
-276.428	276.553	0.027	0.047
-275.413	800.000	-0.060	0.240
-274.399	147.288	-0.652	-0.869
-273.384	-56.199	0.257	-0.113
-272.370	201.155	-0.222	0.339
-271.355	251.476	-0.106	-0.178
-270.340	13.011	-0.438	-0.336
-269.326	147.658	0.193	-0.257
-268.311	-34.243	-0.779	-0.424
-267.297	-182.390	0.667	0.012
-266.282	-34.245	0.166	0.090
-265.267	-99.798	0.489	0.121
-264.253	-72.084	0.353	0.130
-263.238	-94.090	-0.119	0.032
-262.224	171.952	-0.255	0.363
-261.209	271.906	-0.482	0.841
-260.195	-11.988	0.338	-0.219
-259.180	19.731	0.484	0.386
-258.165	-200.000	0.097	-0.503
-257.151	-200.000	-0.058	0.388
-256.136	800.000	-0.244	-0.847
-255.122	4.977	0.223	0.163
-254.107	-8.754	-0.305	0.203
-253.092	61.364	0.248	-0.244
-252.078	577.915	-0.349	0.844
-251.063	-200.000	-0.038	0.238
-250.049	-93.550	0.513	0.140
-249.034	-200.000	-0.140	0.819
-248.019	215.080	0.164	0.257
-247.005	-97.936	0.355	-0.091
-245.990	188.303	-0.129	0.191
-244.976	24.755	0.369	0.302
-243.961	-200.000	0.054	1.310
-242.946	-7.319	-0.239	-0.160
-241.932	47.412	0.414	-0.382
-240.917	716.255	-0.201	-0.527
-239.903	-120.049	-1.083	-0.184
-238.888	-23.208	-0.410	0.244
-237.873	151.135	-0.110	0.148
-236.859	-90.232	0.167	0.048
-235.844	-46.479	-0.431	0.209
-234.830	800.000	0.357	-1.033
-233.815	-6.384	0.198	0.134
-232.800	-95.913	-0.688	-0.181
-231.786	-120.430	-0.798	0.134
-230.771	-200.000	0.055	-0.536
-229.757	227.995	-0.437	0.704
-228.742	6.997	0.771	0.568
-227.727	-91.414	1.311	0.370
-226.713	-49.168	-0.310	0.147
-225.698	800.000	0.018	0.058
-224.684	-26.797	0.927	0.536
-223.669	-106.644	-0.277	-0.061
-222.655	-4.041	-0.251	-0.172
-221.640	782.337	-0.141	0.381
-220.625	242.428	0.142	0.236
-219.611	-2.700	-0.184	0.128
-218.596	117.040	0.495	0.602
-217.582	800.000	-0.103	0.374
-216.567	17.748	0.518	-0.408
-215.552	-35.540	0.214	-0.115
-214.538	17.183	-0.175	0.137
-213.523	247.330	0.399	-0.665
-212.509	-144.627	0.402	-0.037
-211.494	-129.963	-0.435	-0.059
-210.479	-126.989	-0.491	0.071
-209.465	-200.000	0.058	-0.944
-208.450	-200.000	-0.007	-0.045
-207.436	-200.000	-0.049	-0.240
-206.421	91.146	-0.083	0.092
-205.406	-6.671	0.276	-0.186
-204.392	800.000	-0.088	-0.299
-203.377	71.795	-0.393	-0.404
-202.363	-82.299	0.545	0.175
-201.348	-48.210	-0.515	0.245
-200.333	341.513	0.189	0.365
-199.319	800.000	0.030	-0.125
-198.304	-137.193	-0.640	0.072
-197.290	-92.132	0.557	0.155
-196.275	31.102	-0.203	-0.172
-195.260	3.758	-0.176	-0.127
-194.246	-60.152	0.525	0.221
-193.231	-92.538	-0.361	0.100
-192.217	701.873	-0.229	0.595
-191.202	-200.000	-0.101	0.836
-190.187	163.209	-0.164	-0.228
-189.173	27.192	-0.277	-0.230
-188.158	800.000	-0.302	-0.914
-187.144	-200.000	-0.048	0.587
-186.129	-3.080	-0.354	0.244
-185.114	198.907	0.247	-0.374
-184.100	-60.177	0.599	0.252
-183.085	-21.350	-0.396	-0.239
-182.071	-200.000	0.004	0.411
-181.056	-137.611	0.621	-0.069
-180.042	800.000	-0.329	-0.950
-179.027	91.946	0.538	-0.597
-178.012	75.444	0.190	-0.198
-176.998	3.189	-0.481	-0.345
-175.983	-32.926	-0.395	0.216
-174.969	-42.325	0.462	0.233
-173.954	444.402	-0.127	-0.276
-172.939	-145.075	-0.524	-0.047
-171.925	-27.509	-0.821	-0.471
-170.910	172.029	0.037	0.052
-169.896	-88.483	-0.247	-0.073
-168.881	-46.409	0.612	0.297
-167.866	800.000	0.143	0.504
-166.852	16.593	0.214	0.167
-165.837	-177.865	-0.643	0.015
-164.823	-200.000	0.087	0.415
-163.808	800.000	0.233	-0.712
-162.793	218.426	-0.155	0.244
-161.779	-200.000	0.005	-0.476
-160.764	185.247	-0.883	-1.292
-159.750	-200.000	-0.044	-0.209
-158.735	-200.000	0.016	-0.189
-157.720	59.479	-0.457	-0.444
-156.706	3.325	0.849	-0.610
-155.691	-152.194	-1.052	0.075
-154.677	80.546	0.384	0.408
-153.662	-200.000	0.052	0.375
-152.647	691.777	0.381	0.984
-151.633	89.779	-0.125	-0.137
-150.618	253.794	0.257	0.433
-149.604	-150.894	0.509	0.038
-148.589	-116.480	-0.511	0.093
-147.574	-5.815	0.488	-0.330
-146.560	-200.000	0.032	0.627
-145.545	236.450	0.277	0.452
-144.531	-200.000	-0.065	-0.440
-143.516	-200.000	-0.005	0.162
-142.502	-46.686	0.840	-0.406
-141.487	-24.258	-1.419	0.835
-140.472	800.000	-0.048	0.145
-139.458	-200.000	-0.105	-0.592
-138.443	800.000	0.117	-0.330
-137.429	800.000	0.248	0.895
-136.414	-156.075	0.474	-0.030
-135.399	-18.611	-0.779	0.479
-134.385	-141.851	0.833	-0.082
-133.370	-68.514	0.961	0.367
-132.356	-73.261	-0.800	-0.288
-131.341	8.393	-0.616	-0.456
-130.326	-14.813	0.635	-0.402
-129.312	217.424	-0.381	0.598
-128.297	-114.273	0.870	0.165
-127.283	23.185	0.642	-0.519
-126.268	-53.884	-0.270	0.121
-125.253	-4.521	-0.430	0.292
-124.239	-70.256	0.697	0.261
-123.224	58.137	-0.518	0.500
-122.210	800.000	0.353	0.981
-121.195	-49.272	-0.320	0.151
-120.180	-146.569	0.433	0.037
