DTS Sentinel unit serial number:	SN413079Multiplexer serial number:	ORYXHardware model number:	OX4-SRSoftware version number:	ORYX F/W v4.00 Oryx Data Collector v3.7.2.0data status	okinstallation	princeton_trtdifferential loss correction	single-endedforward channel	channel 2reverse channel	N/Adate	2019/09/14time	10:43:34forward acquisition time	60.00reverse acquisition time	0.00gamma	496.2192k internal	0.2315k external	0.2315temperature offset calibration	1.0142default loss term (dB/km)	0.3790temperature slope calibration	1.0000multiplexer offset coefficient	1.0000multiplexer slope coefficient	1.0000fibre end	0.00T internal ref (°C)	35.37T ext. ref 1 (°C)	4.28T ext. ref 2 (°C)	32.79length (m)	temperature (°C)	Stokes	anti-Stokes-747.200	-76.519	-0.251	0.089
-746.185	136.602	0.044	-0.058
-745.171	-39.261	-0.101	0.054
-744.156	-200.000	0.049	-0.218
-743.142	800.000	0.080	-0.245
-742.127	-26.749	-0.223	0.132
-741.112	-112.060	0.080	-0.016
-740.098	184.162	0.178	0.266
-739.083	52.709	0.068	-0.066
-738.069	98.030	0.148	0.173
-737.054	-38.149	-0.136	-0.073
-736.039	-144.357	0.121	-0.011
-735.025	-80.722	0.306	0.103
-734.010	6.387	-0.283	-0.213
-732.996	92.796	0.130	-0.149
-731.981	-200.000	0.001	0.072
-730.966	372.697	0.125	0.258
-729.952	-14.752	-0.265	-0.172
-728.937	800.000	-0.047	0.138
-727.923	-200.000	0.023	0.161
-726.908	303.621	-0.029	0.054
-725.894	-83.114	0.239	-0.078
-724.879	-55.344	0.072	0.033
-723.864	-1.694	-0.243	-0.173
-722.850	800.000	0.002	-0.007
-721.835	-75.971	-0.014	0.005
-720.821	-77.880	-0.228	-0.080
-719.806	-200.000	0.009	-0.240
-718.791	236.717	0.073	-0.123
-717.777	-83.889	-0.142	0.046
-716.762	53.661	0.108	-0.105
-715.748	307.187	0.129	0.243
-714.733	800.000	-0.038	0.124
-713.718	307.895	-0.080	-0.152
-712.704	800.000	0.074	-0.258
-711.689	-100.795	-0.318	0.079
-710.675	459.503	-0.122	0.274
-709.660	800.000	-0.011	0.042
-708.645	660.846	0.095	-0.247
-707.631	26.605	-0.186	-0.157
-706.616	-46.481	0.341	-0.169
-705.602	-200.000	0.028	0.205
-704.587	-105.725	0.163	-0.037
-703.572	-40.388	0.251	-0.132
-702.558	-14.542	0.116	-0.075
-701.543	-44.794	0.296	0.149
-700.529	-92.448	0.217	0.062
-699.514	-70.656	-0.049	0.019
-698.499	-130.556	-0.209	0.028
-697.485	800.000	0.010	-0.032
-696.470	800.000	-0.098	-0.341
-695.456	-200.000	0.051	-0.243
-694.441	-200.000	0.040	0.292
-693.426	-200.000	0.010	-0.053
-692.412	474.634	-0.053	0.122
-691.397	-102.981	0.189	-0.045
-690.383	-131.005	0.198	0.027
-689.368	-200.000	-0.030	-0.294
-688.354	-182.257	0.298	-0.006
-687.339	-69.668	0.373	0.144
-686.324	300.607	0.107	-0.200
-685.310	-43.114	0.194	0.099
-684.295	-190.907	-0.081	-0.001
-683.281	800.000	0.145	-0.446
-682.266	297.490	0.132	-0.246
-681.251	120.587	0.102	-0.129
-680.237	241.723	0.100	-0.169
-679.222	49.936	-0.072	-0.069
-678.208	-81.485	-0.183	-0.061
-677.193	800.000	0.065	-0.253
-676.178	37.892	0.173	-0.155
-675.164	800.000	-0.076	-0.224
-674.149	135.403	-0.278	-0.365
-673.135	-134.536	-0.089	0.011
-672.120	38.008	-0.077	-0.069
-671.105	110.026	-0.108	-0.131
-670.091	-5.839	0.110	-0.076
-669.076	-35.010	0.133	-0.073
-668.062	-50.591	-0.180	-0.086
-667.047	800.000	-0.045	-0.146
-666.032	549.339	0.120	-0.291
-665.018	-200.000	0.024	-0.170
-664.003	329.924	-0.148	-0.287
-662.989	31.479	0.458	-0.397
-661.974	314.274	-0.081	-0.155
-660.959	-62.973	-0.235	-0.098
-659.945	800.000	-0.038	0.154
-658.930	-17.286	-0.189	0.120
-657.916	-200.000	-0.009	-0.094
-656.901	22.858	-0.137	-0.114
-655.886	223.773	-0.059	0.096
-654.872	616.599	0.099	0.251
-653.857	-200.000	-0.028	0.198
-652.843	-11.225	-0.029	-0.019
-651.828	249.501	-0.161	0.276
-650.814	-128.225	0.257	0.037
-649.799	139.279	-0.171	-0.227
-648.784	-200.000	0.023	-0.257
-647.770	800.000	0.032	-0.105
-646.755	-136.311	-0.254	-0.030
-645.741	-145.493	0.142	-0.013
-644.726	13.873	-0.160	0.126
-643.711	-161.378	-0.204	-0.011
-642.697	-200.000	0.075	-0.361
-641.682	-14.638	-0.253	-0.164
-640.668	35.188	-0.420	-0.372
-639.653	-57.210	0.052	-0.023
-638.638	-114.792	0.223	0.043
-637.624	-200.000	-0.253	0.000
-636.609	-200.000	-0.054	-0.359
-635.595	-102.504	-0.232	-0.056
-634.580	-156.883	-0.147	0.009
-633.565	-140.103	-0.253	-0.027
-632.551	-200.000	0.023	-0.243
-631.536	118.526	0.080	-0.100
-630.522	2.811	0.163	-0.119
-629.507	-33.319	-0.455	-0.254
-628.492	-184.328	0.201	0.003
-627.478	800.000	0.034	0.096
-626.463	-87.780	-0.094	0.029
-625.449	3.105	0.150	0.110
-624.434	-200.000	-0.000	-0.122
-623.419	-121.228	-0.229	-0.039
-622.405	-74.973	0.224	0.081
-621.390	-7.841	0.117	0.080
-620.376	-43.710	0.285	-0.145
-619.361	-200.000	0.017	-0.115
-618.346	-54.453	-0.040	0.018
-617.332	-9.172	0.139	0.094
-616.317	-149.615	-0.172	-0.014
-615.303	-45.660	-0.101	-0.051
-614.288	-200.000	0.023	-0.300
-613.273	27.972	-0.106	0.090
-612.259	557.385	-0.144	0.351
-611.244	14.756	-0.170	-0.134
-610.230	259.146	0.040	-0.070
-609.215	89.961	0.064	-0.072
-608.201	-82.646	0.130	-0.042
-607.186	76.177	0.028	0.030
-606.171	91.661	-0.210	0.238
-605.157	-43.105	0.167	-0.085
-604.142	-22.530	0.146	-0.089
-603.128	39.830	0.147	-0.133
-602.113	-200.000	0.013	0.061
-601.098	-34.532	0.225	-0.124
-600.084	-53.080	-0.035	0.016
-599.069	-119.273	-0.386	-0.068
-598.055	-200.000	-0.008	0.135
-597.040	40.422	-0.299	-0.271
-596.025	-130.407	0.090	-0.012
-595.011	206.933	-0.235	-0.369
-593.996	-183.743	-0.316	-0.005
-592.982	-53.807	-0.049	-0.023
-591.967	-15.168	0.183	0.118
-590.952	-200.000	-0.001	0.237
-589.938	-130.475	-0.132	-0.018
-588.923	-200.000	-0.013	-0.106
-587.909	211.042	-0.047	-0.074
-586.894	-135.589	-0.334	-0.040
-585.879	179.633	-0.104	-0.154
-584.865	-98.559	-0.071	-0.018
-583.850	-167.588	0.050	-0.002
-582.836	-98.508	-0.141	0.036
-581.821	319.423	0.125	0.238
-580.806	170.254	0.094	-0.135
-579.792	26.692	-0.327	0.275
-578.777	-89.987	0.176	-0.052
-577.763	151.520	0.020	-0.028
-576.748	800.000	0.059	0.187
-575.733	-75.302	-0.125	0.045
-574.719	800.000	0.043	-0.164
-573.704	-2.773	0.144	0.101
-572.690	-200.000	-0.017	-0.124
-571.675	-137.387	-0.100	-0.011
-570.661	-137.200	-0.255	-0.029
-569.646	81.284	0.193	0.210
-568.631	110.747	-0.074	-0.090
-567.617	-168.826	-0.163	-0.006
-566.602	19.880	0.217	0.176
-565.588	800.000	0.096	0.345
-564.573	-6.915	0.205	-0.140
-563.558	114.537	0.192	-0.236
-562.544	-47.631	0.176	-0.086
-561.529	196.315	-0.096	0.147
-560.515	33.529	-0.045	-0.040
-559.500	106.849	-0.106	-0.126
-558.485	207.325	0.124	-0.195
-557.471	352.145	-0.040	-0.080
-556.456	56.562	0.223	0.218
-555.442	0.378	0.168	0.120
-554.427	7.183	-0.161	0.121
-553.412	205.696	0.230	-0.360
-552.398	-200.000	0.019	0.242
-551.383	663.599	0.080	-0.208
-550.369	-54.071	0.152	0.070
-549.354	-29.786	0.104	0.060
-548.339	-61.765	-0.432	-0.182
-547.325	-171.819	0.025	0.001
-546.310	-200.000	-0.036	0.381
-545.296	367.325	0.148	-0.301
-544.281	-200.000	0.042	0.621
-543.266	492.671	-0.111	0.255
-542.252	47.850	-0.022	0.021
-541.237	-10.748	-0.102	0.068
-540.223	62.758	0.229	-0.230
-539.208	-155.232	0.119	0.008
-538.193	797.883	-0.052	-0.144
-537.179	372.669	-0.049	-0.101
-536.164	112.617	-0.072	-0.088
-535.150	47.891	0.189	0.178
-534.135	305.614	-0.104	0.195
-533.121	-200.000	0.006	0.091
-532.106	-72.686	0.245	0.091
-531.091	-200.000	-0.002	0.267
-530.077	800.000	-0.023	-0.073
-529.062	-17.878	0.145	0.092
-528.048	122.618	0.143	0.179
-527.033	120.515	0.165	-0.206
-526.018	-123.381	-0.224	0.036
-525.004	-200.000	0.022	0.138
-523.989	261.549	0.129	-0.225
-522.975	544.963	-0.108	-0.259
-521.960	-14.056	-0.163	0.106
-520.945	217.333	0.055	-0.088
-519.931	17.456	-0.152	-0.121
-518.916	-57.415	-0.259	0.114
-517.902	336.969	0.109	0.213
-516.887	800.000	0.070	-0.294
-515.872	-18.399	0.226	-0.142
-514.858	-200.000	-0.054	0.286
-513.843	82.590	-0.158	0.173
-512.829	58.988	-0.151	-0.149
-511.814	48.508	0.406	-0.382
-510.799	-193.752	-0.095	0.001
-509.785	-200.000	-0.459	-0.002
-508.770	526.956	-0.144	-0.341
-507.756	213.271	-0.103	0.163
-506.741	-20.263	0.124	-0.077
-505.726	211.711	-0.243	0.384
-504.712	800.000	-0.123	-0.346
-503.697	410.804	0.131	-0.278
-502.683	55.332	0.169	-0.165
-501.668	-200.000	-0.002	-0.090
-500.653	-200.000	-0.023	-0.299
-499.639	-1.879	-0.094	0.066
-498.624	-54.342	-0.073	0.033
-497.610	-19.437	-0.234	-0.145
-496.595	800.000	0.099	0.298
-495.581	-200.000	0.011	-0.265
-494.566	405.972	-0.113	0.238
-493.551	-133.843	-0.466	-0.058
-492.537	402.281	0.149	-0.314
-491.522	-70.402	0.065	0.025
-490.508	-166.177	-0.462	-0.020
-489.493	-36.447	-0.033	0.018
-488.478	-200.000	-0.039	0.260
-487.464	521.562	-0.099	0.233
-486.449	-117.117	0.198	0.036
-485.435	-21.384	-0.124	0.076
-484.420	-97.771	0.109	0.028
-483.405	180.577	-0.063	-0.093
-482.391	-125.838	0.350	0.053
-481.376	61.411	-0.133	-0.133
-480.362	485.678	-0.041	-0.093
-479.347	-102.863	-0.124	0.030
-478.332	266.412	-0.160	-0.281
-477.318	-141.713	0.256	-0.026
-476.303	-28.136	0.234	-0.135
-475.289	-200.000	-0.000	-0.054
-474.274	4.515	0.232	-0.170
-473.259	-91.014	-0.017	-0.005
-472.245	178.764	-0.152	0.223
-471.230	-60.892	-0.174	0.074
-470.216	-146.978	-0.418	-0.036
-469.201	800.000	0.143	-0.404
-468.186	-119.119	0.291	-0.051
-467.172	-200.000	-0.036	-0.252
-466.157	-109.756	-0.270	-0.057
-465.143	-37.711	0.059	0.031
-464.128	244.866	0.064	0.107
-463.113	170.607	0.181	-0.260
-462.099	-47.267	0.098	-0.048
-461.084	800.000	-0.068	-0.270
-460.070	-21.213	0.113	0.069
-459.055	-5.297	-0.157	0.108
-458.040	-77.425	-0.364	0.127
-457.026	9.659	0.157	-0.119
-456.011	11.904	0.208	-0.160
-454.997	800.000	-0.062	0.190
-453.982	41.900	0.168	-0.152
-452.968	-200.000	-0.057	0.257
-451.953	-200.000	-0.026	0.116
-450.938	-31.614	0.324	0.182
-449.924	-136.613	0.464	-0.054
-448.909	198.436	0.131	-0.200
-447.895	322.842	-0.187	0.356
-446.880	121.564	0.307	0.384
-445.865	800.000	-0.081	0.254
-444.851	88.430	0.181	-0.202
-443.836	-200.000	0.017	-0.179
-442.822	-37.393	0.079	0.042
-441.807	113.237	-0.154	0.186
-440.792	-22.807	-0.253	-0.153
-439.778	245.676	0.136	0.228
-438.763	-200.000	-0.031	0.221
-437.749	-29.699	0.164	-0.094
-436.734	128.637	-0.221	-0.282
-435.719	800.000	0.028	-0.083
-434.705	-106.966	0.252	-0.056
-433.690	96.709	0.145	-0.167
-432.676	5.027	-0.053	-0.039
-431.661	-200.000	-0.007	0.185
-430.646	800.000	0.107	0.343
-429.632	-200.000	0.018	-0.105
-428.617	-200.000	0.075	0.344
-427.603	-200.000	0.027	-0.124
-426.588	245.150	0.186	-0.314
-425.573	-142.832	-0.315	0.031
-424.559	77.699	0.165	-0.176
-423.544	-200.000	-0.031	0.201
-422.530	4.525	0.227	0.166
-421.515	-30.423	-0.349	0.198
-420.500	30.778	-0.096	0.083
-419.486	352.966	-0.057	0.113
-418.471	-47.883	-0.109	0.053
-417.457	-184.736	0.051	0.001
-416.442	13.908	0.079	-0.061
-415.428	-183.608	-0.315	-0.005
-414.413	-132.170	0.046	0.006
-413.398	180.929	0.141	0.208
-412.384	114.592	0.141	-0.171
-411.369	-33.488	-0.260	-0.144
-410.355	800.000	-0.065	0.182
-409.340	521.390	0.079	-0.186
-408.325	26.552	-0.101	0.085
-407.311	-200.000	-0.069	0.358
-406.296	-2.651	-0.182	-0.127
-405.282	-5.913	-0.022	0.015
-404.267	124.932	0.088	-0.110
-403.252	-84.572	0.107	-0.034
-402.238	-37.628	0.289	0.154
-401.223	60.510	0.198	0.196
-400.209	377.767	-0.041	-0.083
-399.194	176.199	0.051	-0.074
-398.179	3.239	-0.049	0.035
-397.165	-89.879	-0.141	0.041
-396.150	-4.708	0.181	-0.125
-395.136	-200.000	0.033	-0.165
-394.121	670.001	0.099	0.257
-393.106	107.117	0.039	0.047
-392.092	-94.016	-0.304	-0.083
-391.077	53.843	-0.062	-0.059
-390.063	-7.873	-0.334	-0.225
-389.048	-65.936	0.248	-0.099
-388.033	-200.000	0.006	-0.039
-387.019	582.306	-0.065	-0.160
-386.004	12.850	0.165	-0.127
-384.990	800.000	-0.060	-0.179
-383.975	-102.749	-0.278	-0.066
-382.960	82.723	-0.382	0.415
-381.946	-167.406	-0.041	0.002
-380.931	-8.296	0.159	0.107
-379.917	-200.000	-0.095	-0.476
-378.902	-69.339	-0.132	-0.051
-377.888	-86.598	0.331	0.101
-376.873	520.168	-0.236	0.551
-375.858	152.982	0.100	0.136
-374.844	-200.000	-0.035	-0.214
-373.829	-49.024	-0.275	0.131
-372.815	-200.000	0.008	0.213
-371.800	352.422	-0.036	-0.072
-370.785	-32.564	-0.296	0.165
-369.771	-4.261	-0.038	-0.026
-368.756	-200.000	-0.033	0.273
-367.742	280.583	-0.139	0.249
-366.727	800.000	-0.030	0.096
-365.712	-200.000	0.004	-0.083
-364.698	28.319	0.329	-0.277
-363.683	62.141	-0.090	-0.090
-362.669	57.435	0.208	-0.203
-361.654	-23.230	-0.154	-0.092
-360.639	775.954	-0.097	0.264
-359.625	800.000	-0.017	0.060
-358.610	558.378	-0.097	0.235
-357.596	-198.523	0.127	-0.001
-356.581	-139.913	0.096	0.010
-355.566	-18.971	-0.329	0.204
-354.552	-132.251	-0.063	-0.008
-353.537	-36.318	-0.347	0.187
-352.523	208.628	0.175	-0.273
-351.508	516.454	-0.062	-0.146
-350.493	357.050	-0.110	0.219
-349.479	-200.000	0.006	-0.056
-348.464	-200.000	-0.015	0.282
-347.450	50.760	0.200	-0.189
-346.435	294.634	-0.290	-0.529
-345.420	23.282	0.324	0.266
-344.406	-200.000	0.007	0.280
-343.391	-77.068	0.329	-0.114
-342.377	491.933	-0.125	-0.286
-341.362	-116.050	0.603	-0.112
-340.348	209.389	-0.090	0.141
-339.333	248.458	-0.017	-0.029
-338.318	-36.397	0.169	0.091
-337.304	-200.000	-0.003	0.127
-336.289	391.722	0.118	-0.245
-335.275	-130.849	0.137	-0.018
-334.260	-135.245	0.197	-0.024
-333.245	-200.000	0.019	0.231
-332.231	-45.032	-0.332	-0.165
-331.216	-106.196	-0.301	-0.067
-330.202	-60.577	0.189	0.080
-329.187	-29.612	0.094	0.053
-328.172	-6.513	-0.059	0.040
-327.158	-52.599	0.116	-0.053
-326.143	190.980	-0.091	0.137
-325.129	125.271	0.047	0.059
-324.114	-200.000	0.048	-0.227
-323.099	-183.417	0.164	0.003
-322.085	183.212	0.118	0.174
-321.070	-154.836	-0.297	-0.020
-320.056	-200.000	0.012	0.096
-319.041	130.387	0.097	-0.123
-318.026	-15.999	-0.115	-0.073
-317.012	586.489	0.041	-0.101
-315.997	-37.483	-0.255	-0.136
-314.983	48.014	-0.160	0.149
-313.968	274.216	0.140	0.248
-312.953	27.830	0.089	-0.075
-311.939	38.267	-0.202	0.179
-310.924	43.301	-0.118	-0.107
-309.910	45.055	-0.084	-0.077
-308.895	-79.757	-0.236	-0.079
-307.880	224.822	0.162	-0.261
-306.866	-200.000	-0.012	-0.094
-305.851	-101.578	0.232	0.056
-304.837	-200.000	0.024	0.195
-303.822	87.305	0.369	0.407
-302.807	-153.481	0.146	0.010
-301.793	157.270	0.181	0.249
-300.778	-11.338	0.106	0.070
-299.764	-30.232	0.155	-0.088
-298.749	464.998	0.085	0.189
-297.735	77.984	0.136	0.145
-296.720	-145.162	0.115	0.010
-295.705	800.000	-0.060	-0.220
-294.691	800.000	0.078	-0.311
-293.676	-122.150	-0.167	-0.027
-292.662	-77.666	0.180	0.062
-291.647	-79.097	0.386	0.130
-290.632	-56.768	-0.295	-0.130
-289.618	-200.000	0.006	-0.129
-288.603	9.782	0.210	0.158
-287.589	-58.494	-0.175	0.076
-286.574	201.241	-0.102	-0.157
-285.559	-150.323	-0.080	0.006
-284.545	-200.000	-0.031	-0.151
-283.530	-200.000	-0.005	-0.115
-282.516	59.474	0.065	0.064
-281.501	-87.784	0.368	-0.110
-280.486	-0.470	-0.099	0.070
-279.472	-146.527	-0.107	0.009
-278.457	-154.077	-0.272	-0.018
-277.443	314.142	0.108	-0.203
-276.428	153.358	-0.020	0.028
-275.413	-140.388	0.265	-0.028
-274.399	-117.922	0.289	0.051
-273.384	-23.228	-0.135	-0.081
-272.370	49.286	0.122	0.115
-271.355	-157.762	-0.491	-0.029
-270.340	-90.295	0.171	-0.050
-269.326	535.165	-0.088	-0.208
-268.311	5.057	0.103	-0.075
-267.297	205.756	-0.068	0.105
-266.282	340.836	-0.161	-0.313
-265.267	244.898	-0.107	0.178
-264.253	-200.000	-0.070	0.471
-263.238	-200.000	0.058	0.344
-262.224	242.529	0.071	0.118
-261.209	-200.000	0.025	-0.227
-260.195	-22.169	-0.193	-0.116
-259.180	-24.084	-0.075	-0.044
-258.165	196.008	0.111	-0.168
-257.151	-55.999	0.262	0.116
-256.136	800.000	0.044	0.145
-255.122	775.778	-0.009	-0.025
-254.107	6.623	-0.287	-0.212
-253.092	-13.977	0.430	-0.276
-252.078	54.264	0.239	-0.228
-251.063	800.000	-0.126	-0.426
-250.049	-59.501	-0.124	0.053
-249.034	-38.782	-0.248	0.130
-248.019	47.336	0.233	-0.216
-247.005	-167.118	-0.138	-0.006
-245.990	-139.834	-0.088	0.009
-244.976	-69.067	-0.321	0.123
-243.961	-200.000	-0.031	0.225
-242.946	312.043	-0.072	-0.134
-241.932	111.837	0.040	0.048
-240.917	-200.000	-0.019	-0.212
-239.903	-200.000	0.005	0.201
-238.888	-112.601	0.319	0.063
-237.873	800.000	0.039	-0.115
-236.859	-11.045	-0.321	0.210
-235.844	-58.744	0.103	0.044
-234.830	-141.185	-0.105	-0.011
-233.815	-200.000	-0.018	-0.135
-232.800	800.000	-0.048	-0.201
-231.786	800.000	-0.095	0.348
-230.771	-125.682	-0.101	0.015
-229.757	-35.704	0.130	-0.070
-228.742	-41.532	0.362	0.185
-227.727	-200.000	0.001	-0.031
-226.713	164.103	-0.194	0.271
-225.698	-200.000	-0.003	-0.040
-224.684	-92.111	0.364	0.102
-223.669	92.218	0.079	-0.089
-222.655	800.000	-0.101	0.328
-221.640	140.492	0.289	0.378
-220.625	-0.791	-0.184	0.130
-219.611	-138.238	0.235	0.026
-218.596	16.840	-0.302	0.237
-217.582	248.481	-0.163	0.274
-216.567	-200.000	0.010	0.200
-215.552	-3.878	-0.096	-0.066
-214.538	-21.517	-0.287	0.174
-213.523	-41.954	-0.179	-0.091
-212.509	-43.421	-0.096	-0.048
-211.494	800.000	-0.173	0.672
-210.479	-65.791	0.156	-0.062
-209.465	-200.000	0.017	0.139
-208.450	-120.901	-0.247	0.041
-207.436	-200.000	0.029	0.233
-206.421	-78.387	-0.176	-0.060
-205.406	-8.795	-0.256	0.170
-204.392	235.921	-0.201	0.330
-203.377	800.000	-0.079	0.226
-202.363	140.199	0.150	-0.197
-201.348	750.431	-0.055	-0.147
-200.333	-200.000	0.044	-0.533
-199.319	-105.459	-0.180	-0.040
-198.304	-200.000	-0.008	-0.187
-197.290	323.800	0.149	-0.283
-196.275	-104.181	0.318	-0.073
-195.260	-69.066	0.109	-0.041
-194.246	584.181	0.055	0.135
-193.231	-200.000	0.013	0.101
-192.217	18.471	0.007	0.006
-191.202	-200.000	0.003	-0.136
-190.187	-60.385	0.407	0.172
-189.173	-200.000	0.024	0.146
-188.158	-12.888	0.116	-0.075
-187.144	326.526	-0.028	-0.053
-186.129	-145.943	0.382	0.034
-185.114	400.515	-0.174	0.362
-184.100	-200.000	-0.058	0.265
-183.085	-128.920	0.282	-0.039
-182.071	-200.000	0.003	-0.306
-181.056	99.704	0.167	-0.192
-180.042	-151.178	-0.291	-0.022
-179.027	-65.389	-0.075	-0.030
-178.012	-200.000	0.011	0.076
-176.998	300.642	-0.052	0.094
-175.983	-141.154	-0.309	-0.031
-174.969	-118.772	0.046	-0.008
-173.954	-124.650	-0.224	0.034
-172.939	411.935	0.045	-0.095
-171.925	800.000	0.056	-0.177
-170.910	-200.000	0.094	0.000
-169.896	800.000	0.036	0.129
-168.881	-200.000	-0.053	0.382
-167.866	195.943	-0.024	0.036
-166.852	-142.740	0.476	0.046
-165.837	443.669	0.183	-0.397
-164.823	-200.000	-0.049	0.237
-163.808	160.435	0.136	0.188
-162.793	159.421	0.170	0.235
-161.779	58.280	0.175	-0.170
-160.764	-200.000	-0.017	0.107
-159.750	800.000	0.057	0.163
-158.735	298.217	0.088	-0.160
-157.720	10.890	0.094	-0.071
-156.706	-142.804	0.542	0.052
-155.691	-13.328	0.482	0.310
-154.677	49.104	0.052	0.048
-153.662	800.000	0.048	-0.166
-152.647	-94.242	0.107	0.029
-151.633	800.000	-0.086	-0.359
-150.618	-200.000	0.029	-0.166
-149.604	-26.816	0.102	-0.059
-148.589	-200.000	0.009	-0.202
-147.574	-51.990	0.111	0.051
-146.560	-200.000	0.004	0.135
-145.545	138.285	-0.047	-0.061
-144.531	-200.000	-0.011	-0.191
-143.516	-2.686	0.175	-0.121
-142.502	800.000	0.086	-0.295
-141.487	317.842	0.150	0.282
-140.472	665.767	-0.052	-0.134
-139.458	414.192	-0.121	0.256
-138.443	331.803	-0.119	0.226
-137.429	800.000	0.048	-0.161
-136.414	425.324	0.078	-0.166
-135.399	272.231	-0.173	-0.303
-134.385	-9.922	0.171	0.112
-133.370	-190.931	-0.564	0.006
-132.356	-150.425	0.364	-0.028
-131.341	42.471	-0.159	-0.143
-130.326	-38.211	0.030	0.016
-129.312	-49.191	0.269	-0.127
-128.297	-200.000	0.008	-0.117
-127.283	565.297	-0.068	-0.164
-126.268	-37.055	0.389	-0.206
-125.253	62.726	0.086	0.085
-124.239	-90.403	0.258	0.074
-123.224	800.000	-0.019	0.078
-122.210	-200.000	0.047	0.243
