DTS Sentinel unit serial number:	SN413079Multiplexer serial number:	ORYXHardware model number:	OX4-SRSoftware version number:	ORYX F/W v4.00 Oryx Data Collector v3.7.2.0data status	okinstallation	princeton_trtdifferential loss correction	single-endedforward channel	channel 2reverse channel	N/Adate	2019/09/10time	17:09:11forward acquisition time	60.00reverse acquisition time	0.00gamma	496.2192k internal	0.2310k external	0.2310temperature offset calibration	0.9934default loss term (dB/km)	0.3790temperature slope calibration	1.0000multiplexer offset coefficient	1.0000multiplexer slope coefficient	1.0000fibre end	0.00T internal ref (°C)	37.62T ext. ref 1 (°C)	-0.37T ext. ref 2 (°C)	31.90length (m)	temperature (°C)	Stokes	anti-Stokes-747.200	59.313	-0.245	-0.245
-746.185	6.254	0.226	0.170
-745.171	249.275	-0.174	-0.299
-744.156	-72.919	-0.173	0.064
-743.142	15.576	-0.323	0.258
-742.127	-14.042	0.105	-0.069
-741.112	287.129	0.054	-0.099
-740.098	-155.226	-0.092	0.006
-739.083	-200.000	0.008	-0.191
-738.069	76.136	-0.094	0.101
-737.054	20.820	-0.158	0.130
-736.039	800.000	0.053	-0.226
-735.025	-104.358	0.204	-0.048
-734.010	62.177	0.164	0.166
-732.996	385.416	-0.089	0.185
-731.981	-83.129	-0.291	0.095
-730.966	403.598	-0.092	0.197
-729.952	-31.909	0.191	-0.109
-728.937	-187.262	0.232	-0.003
-727.923	800.000	0.065	-0.239
-726.908	-69.726	-0.473	0.184
-725.894	-45.297	-0.222	0.112
-724.879	-77.976	0.142	-0.050
-723.864	538.896	0.063	-0.152
-722.850	-70.806	0.187	0.072
-721.835	-114.185	-0.141	-0.028
-720.821	336.959	-0.134	0.265
-719.806	-142.329	-0.135	-0.013
-718.791	81.577	-0.255	-0.280
-717.777	19.405	-0.137	-0.111
-716.762	-200.000	0.003	0.391
-715.748	-181.974	-0.217	0.004
-714.733	-200.000	0.023	-0.105
-713.718	-91.067	0.161	0.047
-712.704	-80.107	0.104	0.035
-711.689	-200.000	0.014	0.103
-710.675	-65.555	0.186	0.076
-709.660	685.982	-0.040	0.106
-708.645	-112.780	-0.045	-0.009
-707.631	-136.445	-0.214	0.025
-706.616	51.322	0.099	0.096
-705.602	-105.208	0.147	0.034
-704.587	33.740	0.212	0.187
-703.572	800.000	-0.101	-0.342
-702.558	-200.000	0.030	0.318
-701.543	546.891	-0.150	-0.364
-700.529	-79.173	0.278	-0.096
-699.514	117.626	-0.059	-0.073
-698.499	12.690	-0.268	-0.210
-697.485	52.574	-0.164	-0.159
-696.470	313.165	0.197	0.375
-695.456	247.867	0.077	0.132
-694.441	-164.181	-0.274	0.013
-693.426	-124.061	-0.376	0.060
-692.412	-42.555	0.104	-0.054
-691.397	-50.933	-0.293	-0.139
-690.383	-32.790	-0.236	0.133
-689.368	-125.678	-0.090	0.014
-688.354	800.000	0.070	-0.260
-687.339	-90.135	0.148	0.044
-686.324	-200.000	-0.014	0.087
-685.310	-200.000	0.015	0.430
-684.295	-139.812	-0.299	0.032
-683.281	222.304	0.081	0.132
-682.266	-153.039	-0.043	0.003
-681.251	133.203	0.042	-0.055
-680.237	169.262	0.261	0.378
-679.222	-54.415	-0.201	0.092
-678.208	-200.000	-0.016	0.122
-677.193	-7.629	-0.268	0.183
-676.178	102.928	0.143	-0.169
-675.164	795.701	-0.084	0.234
-674.149	45.934	0.210	0.197
-673.135	800.000	-0.045	-0.169
-672.120	294.692	-0.108	-0.200
-671.105	382.978	0.140	0.291
-670.091	438.772	-0.078	0.172
-669.076	-116.966	0.104	0.019
-668.062	-118.862	-0.173	0.031
-667.047	22.264	-0.198	0.164
-666.032	181.099	-0.139	0.206
-665.018	49.684	-0.171	-0.163
-664.003	-39.442	0.308	-0.164
-662.989	35.755	-0.124	0.110
-661.974	5.332	-0.315	0.235
-660.959	-168.414	-0.199	0.008
-659.945	-6.399	-0.119	0.082
-658.930	-112.209	-0.269	0.055
-657.916	-103.345	-0.399	0.095
-656.901	569.579	-0.121	-0.298
-655.886	26.065	-0.120	-0.102
-654.872	558.217	-0.162	-0.396
-653.857	-109.392	-0.345	-0.074
-652.843	-103.616	0.066	0.016
-651.828	178.776	-0.141	-0.208
-650.814	800.000	0.054	-0.192
-649.799	-5.808	-0.055	-0.038
-648.784	119.627	-0.173	0.217
-647.770	66.926	-0.184	0.189
-646.755	-51.571	0.268	-0.127
-645.741	497.141	0.127	-0.296
-644.726	-2.034	0.131	0.093
-643.711	-116.934	-0.263	-0.049
-642.697	-81.546	0.103	-0.034
-641.682	800.000	0.161	-0.509
-640.668	-38.512	0.189	0.101
-639.653	-61.677	0.254	0.108
-638.638	153.475	-0.182	0.252
-637.624	54.758	0.030	0.029
-636.609	86.044	-0.249	-0.277
-635.595	-103.410	-0.093	-0.022
-634.580	-26.766	-0.172	0.102
-633.565	10.580	0.045	-0.035
-632.551	403.486	-0.066	0.141
-631.536	101.115	-0.144	-0.170
-630.522	107.281	-0.087	-0.104
-629.507	800.000	-0.100	-0.340
-628.492	330.232	0.027	0.053
-627.478	116.644	-0.183	0.227
-626.463	-133.614	-0.416	-0.053
-625.449	302.109	-0.123	0.230
-624.434	-78.497	0.404	0.140
-623.419	800.000	0.057	-0.218
-622.405	57.576	0.161	-0.160
-621.390	-106.375	0.181	-0.041
-620.376	-171.788	0.268	-0.009
-619.361	-11.148	-0.130	-0.087
-618.346	159.160	0.090	-0.127
-617.332	-109.888	0.089	0.019
-616.317	493.919	-0.103	-0.238
-615.303	204.320	0.065	0.102
-614.288	-200.000	-0.015	0.214
-613.273	800.000	-0.078	0.256
-612.259	33.256	-0.195	-0.171
-611.244	-171.571	-0.326	0.011
-610.230	-106.283	-0.068	0.015
-609.215	-104.303	-0.273	-0.064
-608.201	192.586	0.156	0.238
-607.186	-200.000	-0.009	0.184
-606.171	-73.666	0.266	0.098
-605.157	96.373	-0.052	0.060
-604.142	-200.000	-0.047	-0.402
-603.128	116.141	-0.213	-0.264
-602.113	-98.178	-0.365	-0.095
-601.098	-200.000	-0.024	-0.121
-600.084	-73.593	0.110	0.041
-599.069	-125.913	-0.430	-0.065
-598.055	89.202	0.119	0.134
-597.040	-186.464	0.231	0.003
-596.025	324.497	-0.106	-0.205
-595.011	-82.623	0.128	0.042
-593.996	33.449	-0.227	-0.199
-592.982	800.000	-0.073	-0.254
-591.967	110.526	-0.172	-0.209
-590.952	111.998	0.040	0.049
-589.938	-126.621	-0.110	0.017
-588.923	-64.401	-0.156	-0.064
-587.909	71.460	-0.095	-0.100
-586.894	33.952	-0.049	-0.043
-585.879	800.000	-0.072	-0.210
-584.865	640.994	0.132	0.339
-583.850	-75.213	0.323	0.117
-582.836	105.662	-0.163	0.195
-581.821	-50.053	-0.182	-0.087
-580.806	153.537	0.111	0.153
-579.792	-45.955	0.357	0.178
-578.777	-72.989	0.166	0.062
-577.763	-115.462	-0.110	-0.021
-576.748	125.869	0.071	-0.091
-575.733	60.848	-0.047	0.047
-574.719	-147.753	-0.101	0.009
-573.704	800.000	-0.046	-0.162
-572.690	-24.399	-0.304	-0.183
-571.675	81.164	-0.100	0.109
-570.661	-200.000	-0.033	0.159
-569.646	800.000	-0.079	-0.305
-568.631	-200.000	-0.005	0.135
-567.617	800.000	0.097	-0.345
-566.602	-55.077	-0.334	-0.152
-565.588	-105.661	-0.218	0.050
-564.573	800.000	0.009	0.029
-563.558	-86.004	-0.386	0.120
-562.544	504.279	0.133	-0.310
-561.529	-114.004	-0.080	0.016
-560.515	-167.524	0.127	0.005
-559.500	423.629	0.048	0.104
-558.485	-131.792	0.367	-0.048
-557.471	-12.519	-0.236	0.155
-556.456	-200.000	0.003	0.318
-555.442	-200.000	-0.004	0.076
-554.427	-200.000	-0.012	0.079
-553.412	649.440	-0.111	0.288
-552.398	30.421	-0.092	-0.079
-551.383	800.000	0.048	0.167
-550.369	110.892	0.061	-0.074
-549.354	-200.000	0.052	0.387
-548.339	-150.482	-0.120	0.009
-547.325	-200.000	0.027	-0.200
-546.310	0.273	0.228	0.164
-545.296	227.269	0.187	-0.306
-544.281	3.429	-0.010	0.007
-543.266	-63.918	-0.199	0.082
-542.252	504.698	0.042	-0.098
-541.237	800.000	-0.142	0.456
-540.223	-200.000	-0.036	0.174
-539.208	800.000	-0.046	0.193
-538.193	-174.876	-0.118	-0.003
-537.179	-19.362	-0.108	0.067
-536.164	800.000	0.093	-0.285
-535.150	800.000	0.026	0.071
-534.135	-31.978	0.278	-0.157
-533.121	277.942	0.166	0.298
-532.106	-61.323	-0.259	-0.110
-531.091	465.175	0.072	-0.163
-530.077	-94.930	0.192	-0.052
-529.062	-200.000	-0.040	0.187
-528.048	192.956	0.229	-0.349
-527.033	-85.144	-0.243	-0.076
-526.018	-200.000	-0.081	0.429
-525.004	-16.360	0.660	0.422
-523.989	-46.670	-0.172	-0.085
-522.975	800.000	-0.098	-0.357
-521.960	-200.000	0.015	-0.107
-520.945	800.000	0.080	0.266
-519.931	125.834	0.140	0.178
-518.916	84.464	-0.110	0.121
-517.902	76.108	-0.090	-0.096
-516.887	-144.738	-0.176	-0.016
-515.872	258.422	-0.136	0.236
-514.858	800.000	-0.056	-0.162
-513.843	800.000	-0.028	-0.079
-512.829	26.829	0.191	-0.161
-511.814	-200.000	-0.001	-0.203
-510.799	-200.000	0.030	-0.192
-509.785	800.000	0.045	-0.195
-508.770	684.116	0.122	-0.320
-507.756	-32.113	0.195	0.110
-506.741	-191.600	0.372	0.004
-505.726	31.659	-0.133	0.115
-504.712	197.488	-0.074	-0.113
-503.697	-55.914	0.274	-0.123
-502.683	-200.000	0.001	-0.022
-501.668	-91.496	0.139	0.040
-500.653	-200.000	0.025	-0.266
-499.639	-200.000	0.065	-0.403
-498.624	163.600	-0.119	-0.168
-497.610	-80.310	-0.322	-0.108
-496.595	-139.428	0.161	0.017
-495.581	-200.000	0.161	-0.000
-494.566	800.000	-0.122	-0.371
-493.551	-71.322	-0.077	-0.029
-492.537	-8.228	-0.027	0.018
-491.522	-137.114	-0.266	0.030
-490.508	6.197	-0.128	-0.095
-489.493	22.833	-0.317	0.261
-488.478	-200.000	-0.000	-0.068
-487.464	297.528	-0.098	-0.180
-486.449	-200.000	0.002	0.117
-485.435	126.041	-0.257	0.327
-484.420	800.000	0.039	0.163
-483.405	60.577	0.026	-0.026
-482.391	-145.477	-0.169	-0.015
-481.376	-131.109	-0.417	-0.056
-480.362	-23.231	0.148	0.089
-479.347	-90.303	0.159	0.046
-478.332	284.606	-0.086	-0.155
-477.318	800.000	-0.050	0.150
-476.303	37.954	-0.102	-0.091
-475.289	800.000	0.016	-0.068
-474.274	-57.541	-0.358	-0.158
-473.259	-63.798	-0.432	-0.178
-472.245	9.424	-0.080	0.061
-471.230	398.942	0.128	-0.270
-470.216	-192.385	0.076	-0.001
-469.201	262.095	0.161	0.281
-468.186	254.081	0.109	-0.187
-467.172	-67.969	-0.169	0.066
-466.157	130.533	0.103	-0.132
-465.143	-200.000	0.010	0.105
-464.128	800.000	-0.059	0.221
-463.113	-29.646	-0.189	-0.108
-462.099	-46.870	0.531	-0.261
-461.084	-142.460	0.141	-0.014
-460.070	163.588	0.133	0.187
-459.055	-152.223	0.377	-0.027
-458.040	-200.000	0.045	-0.288
-457.026	134.167	-0.183	-0.238
-456.011	-200.000	-0.034	0.204
-454.997	-122.767	0.246	-0.040
-453.982	-75.037	0.289	0.104
-452.968	-7.740	0.072	-0.049
-451.953	-200.000	-0.061	0.294
-450.938	-200.000	0.088	-0.506
-449.924	-59.117	-0.148	-0.064
-448.909	-200.000	-0.033	0.179
-447.895	-200.000	-0.014	0.225
-446.880	-113.180	-0.212	-0.042
-445.865	800.000	-0.099	-0.286
-444.851	133.239	-0.114	0.148
-443.836	84.336	0.050	-0.055
-442.822	800.000	-0.014	-0.044
-441.807	-200.000	-0.011	-0.130
-440.792	-200.000	-0.007	0.098
-439.778	800.000	0.054	0.234
-438.763	-200.000	-0.006	0.073
-437.749	-102.246	0.152	0.037
-436.734	-200.000	0.014	-0.157
-435.719	-150.892	0.194	0.015
-434.705	-78.905	0.496	0.169
-433.690	-76.321	-0.090	-0.032
-432.676	-1.951	-0.057	-0.040
-431.661	800.000	0.025	-0.089
-430.646	-36.234	-0.220	-0.119
-429.632	62.008	0.240	0.240
-428.617	-200.000	0.275	-0.001
-427.603	195.852	0.128	-0.195
-426.588	-93.088	-0.207	0.058
-425.573	-200.000	-0.014	-0.192
-424.559	-117.591	0.295	0.053
-423.544	-182.239	-0.310	0.006
-422.530	-90.916	-0.216	0.062
-421.515	-35.971	-0.069	0.037
-420.500	-109.100	-0.218	0.047
-419.486	46.250	0.017	-0.016
-418.471	35.384	0.154	0.136
-417.457	-13.455	-0.142	-0.092
-416.442	-19.431	-0.337	-0.209
-415.428	-69.591	-0.168	-0.065
-414.413	28.328	0.255	0.216
-413.398	66.318	-0.160	-0.163
-412.384	71.690	0.089	0.093
-411.369	-104.333	-0.074	0.017
-410.355	-200.000	-0.017	-0.098
-409.340	53.206	0.202	-0.194
-408.325	-200.000	-0.018	-0.164
-407.311	-37.600	0.205	-0.110
-406.296	-153.139	-0.280	-0.020
-405.282	52.646	-0.122	0.116
-404.267	436.733	0.261	0.570
-403.252	-200.000	0.003	0.140
-402.238	91.213	0.178	0.201
-401.223	110.826	-0.194	-0.234
-400.209	2.217	0.155	-0.113
-399.194	-200.000	0.038	0.239
-398.179	106.364	-0.089	-0.106
-397.165	-64.879	-0.123	0.050
-396.150	-44.587	-0.122	0.061
-395.136	-103.861	0.375	0.088
-394.121	-38.782	-0.357	0.188
-393.106	-200.000	0.068	-0.314
-392.092	-200.000	-0.078	-0.423
-391.077	109.574	0.088	-0.106
-390.063	90.537	0.224	0.251
-389.048	-12.350	-0.084	0.055
-388.033	-119.779	0.198	-0.034
-387.019	-89.894	0.261	0.076
-386.004	552.410	0.040	0.096
-384.990	-180.981	-0.198	-0.004
-383.975	-56.416	-0.322	0.143
-382.960	-101.940	0.333	0.081
-381.946	-163.266	0.147	-0.007
-380.931	-51.321	0.320	0.150
-379.917	-48.419	-0.283	0.136
-378.902	-19.182	0.290	0.181
-377.888	-50.681	0.230	0.108
-376.873	-125.550	0.083	0.013
-375.858	-36.637	-0.094	0.050
-374.844	-115.751	-0.191	-0.036
-373.829	-200.000	-0.012	-0.169
-372.815	-200.000	-0.017	0.114
-371.800	-200.000	0.007	-0.050
-370.785	-2.963	0.197	0.138
-369.771	-197.253	0.036	-0.000
-368.756	286.317	-0.160	0.289
-367.742	-54.361	-0.185	-0.084
-366.727	-200.000	0.004	-0.020
-365.712	193.021	0.042	0.064
-364.698	-48.080	0.308	-0.149
-363.683	9.686	-0.295	0.223
-362.669	21.743	0.235	-0.192
-361.654	-108.855	-0.262	0.056
-360.639	-24.455	-0.036	-0.021
-359.625	-56.940	0.197	-0.087
-358.610	-119.566	-0.113	-0.020
-357.596	32.013	0.365	-0.315
-356.581	678.579	-0.047	-0.122
-355.566	-95.490	0.266	-0.071
-354.552	230.841	-0.061	-0.101
-353.537	-161.408	0.062	-0.003
-352.523	800.000	-0.059	-0.189
-351.508	245.642	0.084	-0.142
-350.493	-200.000	-0.031	-0.206
-349.479	-166.644	0.209	-0.009
-348.464	279.980	-0.104	0.186
-347.450	50.855	0.222	0.211
-346.435	445.146	0.124	0.273
-345.420	-106.568	0.098	0.022
-344.406	-19.296	-0.278	0.173
-343.391	-156.303	0.134	0.008
-342.377	800.000	-0.036	-0.135
-341.362	800.000	-0.094	-0.306
-340.348	-31.677	-0.228	0.128
-339.333	14.260	0.200	0.156
-338.318	42.121	-0.071	-0.064
-337.304	-200.000	0.070	-0.312
-336.289	451.341	0.140	0.309
-335.275	88.845	0.039	0.043
-334.260	-172.325	-0.353	-0.011
-333.245	100.973	0.197	-0.229
-332.231	-92.887	-0.273	-0.076
-331.216	215.440	0.134	-0.213
-330.202	-189.029	0.175	0.002
-329.187	-84.537	0.187	0.059
-328.172	-200.000	0.003	-0.055
-327.158	-62.272	-0.083	-0.035
-326.143	640.190	0.104	0.265
-325.129	716.380	0.061	0.163
-324.114	223.020	-0.149	-0.239
-323.099	148.921	0.122	-0.165
-322.085	-23.961	-0.243	0.145
-321.070	37.476	0.311	0.275
-320.056	-111.335	-0.223	-0.046
-319.041	-36.521	0.035	-0.019
-318.026	-81.946	-0.114	-0.037
-317.012	-168.400	0.040	0.002
-315.997	-200.000	0.053	-0.338
-314.983	185.832	0.246	-0.366
-313.968	-75.697	0.221	-0.078
-312.953	800.000	-0.035	0.097
-311.939	-46.047	-0.205	0.101
-310.924	267.818	0.136	-0.238
-309.910	-41.327	0.326	-0.168
-308.895	800.000	0.082	-0.303
-307.880	800.000	-0.013	0.035
-306.866	221.510	0.031	-0.049
-305.851	435.628	0.021	0.045
-304.837	-109.383	0.310	-0.066
-303.822	-113.212	-0.041	-0.008
-302.807	64.342	0.170	0.171
-301.793	145.874	0.063	-0.084
-300.778	-82.302	0.073	-0.024
-299.764	-106.087	0.137	-0.031
-298.749	36.520	-0.177	0.156
-297.735	-200.000	-0.032	0.377
-296.720	-164.413	-0.298	0.014
-295.705	-200.000	-0.002	0.129
-294.691	10.700	0.046	0.035
-293.676	-77.250	-0.244	0.085
-292.662	122.475	-0.330	0.412
-291.647	800.000	0.027	0.085
-290.632	191.946	0.018	0.027
-289.618	-86.419	0.103	0.031
-288.603	-200.000	-0.098	0.571
-287.589	-126.780	0.260	-0.038
-286.574	-48.875	0.096	-0.046
-285.559	-52.921	0.094	0.043
-284.545	800.000	0.044	-0.166
-283.530	43.702	0.134	0.123
-282.516	-103.355	-0.127	0.030
-281.501	-101.014	0.385	0.094
-280.486	-200.000	0.022	0.360
-279.472	800.000	0.061	-0.223
-278.457	800.000	-0.087	0.261
-277.443	-129.942	-0.318	-0.043
-276.428	800.000	0.104	-0.424
-275.413	125.414	0.138	-0.174
-274.399	150.882	0.069	0.093
-273.384	563.670	-0.060	0.144
-272.370	800.000	-0.124	0.370
-271.355	155.807	-0.065	-0.090
-270.340	-200.000	0.003	-0.203
-269.326	-115.685	-0.237	0.044
-268.311	556.010	-0.054	0.131
-267.297	-115.736	-0.258	0.048
-266.282	633.191	0.114	0.288
-265.267	433.164	0.175	0.378
-264.253	204.180	0.157	0.243
-263.238	-200.000	0.003	-0.082
-262.224	9.447	0.062	-0.047
-261.209	-122.707	0.167	0.027
-260.195	143.200	0.213	-0.282
-259.180	-2.380	0.156	0.109
-258.165	-80.865	0.324	-0.107
-257.151	-200.000	0.046	-0.211
-256.136	101.729	0.148	-0.172
-255.122	144.149	-0.265	-0.352
-254.107	177.404	-0.347	-0.504
-253.092	-136.483	0.285	-0.033
-252.078	-121.548	0.205	0.034
-251.063	-160.480	0.347	-0.019
-250.049	800.000	0.047	0.175
-249.034	60.319	-0.080	0.079
-248.019	-101.261	-0.183	0.045
-247.005	-200.000	0.006	-0.223
-245.990	-94.523	0.246	0.067
-244.976	800.000	0.039	-0.139
-243.961	-36.813	0.278	0.149
-242.946	-48.860	0.068	0.033
-241.932	80.167	0.257	0.275
-240.917	-34.787	0.148	0.081
-239.903	-200.000	-0.007	0.178
-238.888	-200.000	0.011	-0.117
-237.873	-200.000	0.020	0.118
-236.859	-104.699	-0.462	-0.106
-235.844	-12.508	0.262	0.170
-234.830	272.844	-0.051	0.089
-233.815	-92.402	0.144	-0.040
-232.800	800.000	-0.018	0.058
-231.786	-48.416	0.142	0.068
-230.771	-21.798	-0.142	-0.086
-229.757	37.316	-0.275	0.242
-228.742	50.391	-0.102	0.096
-227.727	-93.544	0.167	-0.046
-226.713	311.098	0.231	0.431
-225.698	62.729	-0.134	0.134
-224.684	-88.995	0.126	0.037
-223.669	-80.629	-0.214	-0.071
-222.655	-176.183	0.113	-0.003
-221.640	-138.475	-0.219	0.024
-220.625	-161.624	-0.301	0.015
-219.611	-43.201	-0.086	-0.043
-218.596	-121.126	-0.209	0.035
-217.582	-200.000	-0.033	0.146
-216.567	-45.842	-0.218	0.107
-215.552	247.733	-0.118	-0.199
-214.538	341.177	0.136	0.265
-213.523	-83.367	-0.070	0.022
-212.509	-42.413	0.214	0.108
-211.494	-200.000	0.014	0.294
-210.479	426.357	-0.181	0.387
-209.465	800.000	0.032	-0.139
-208.450	-67.203	-0.149	0.058
-207.436	368.398	0.111	-0.223
-206.421	-65.180	0.172	-0.069
-205.406	-54.958	-0.173	0.078
-204.392	313.172	0.141	0.263
-203.377	38.552	-0.051	-0.045
-202.363	800.000	-0.054	-0.187
-201.348	465.735	0.060	-0.135
-200.333	179.850	-0.159	-0.231
-199.319	18.580	0.093	-0.074
-198.304	117.716	-0.147	0.179
-197.290	92.893	-0.175	0.196
-196.275	-71.764	-0.218	-0.081
-195.260	-142.844	-0.306	-0.030
-194.246	80.469	0.107	-0.114
-193.231	370.127	-0.099	-0.199
-192.217	-2.279	0.198	0.138
-191.202	-58.539	0.362	0.156
-190.187	800.000	0.021	-0.078
-189.173	397.648	-0.025	0.051
-188.158	-200.000	0.045	-0.292
-187.144	-117.412	-0.139	-0.025
-186.129	232.336	-0.090	-0.147
-185.114	626.024	-0.054	0.136
-184.100	-156.248	0.102	-0.006
-183.085	583.209	-0.158	-0.386
-182.071	19.797	0.131	0.105
-181.056	-45.193	0.075	0.037
-180.042	190.728	-0.144	0.215
-179.027	-40.634	0.312	0.161
-178.012	-126.592	-0.132	-0.019
-176.998	-200.000	-0.005	0.159
-175.983	-200.000	-0.007	-0.032
-174.969	-6.561	-0.101	-0.068
-173.954	383.265	0.200	-0.409
-172.939	132.227	-0.083	0.106
-171.925	-145.627	-0.065	-0.006
-170.910	800.000	0.044	0.125
-169.896	634.559	0.123	0.309
-168.881	432.291	-0.100	-0.215
-167.866	-74.598	0.340	-0.121
-166.852	-104.148	0.086	0.020
-165.837	-200.000	-0.006	0.042
-164.823	-95.244	-0.297	-0.079
-163.808	-200.000	0.027	-0.382
-162.793	-115.525	0.124	0.023
-161.779	-200.000	-0.053	0.233
-160.764	-186.690	-0.303	-0.004
-159.750	-72.546	-0.254	-0.093
-158.735	-28.481	-0.347	0.199
-157.720	-200.000	0.026	0.161
-156.706	-200.000	-0.013	0.151
-155.691	-200.000	-0.005	0.100
-154.677	-200.000	-0.013	-0.276
-153.662	-39.594	-0.161	0.084
-152.647	202.842	-0.130	-0.199
-151.633	-66.312	-0.046	0.018
-150.618	-48.649	0.216	0.103
-149.604	-21.845	0.167	-0.101
-148.589	422.271	-0.036	-0.076
-147.574	-80.393	-0.157	0.052
-146.560	12.800	0.362	0.277
-145.545	136.152	0.292	0.378
-144.531	-200.000	0.040	0.203
-143.516	28.847	-0.059	-0.049
-142.502	-200.000	0.036	-0.165
-141.487	-15.213	0.072	0.046
-140.472	1.727	-0.182	-0.130
-139.458	-17.668	0.097	0.061
-138.443	-72.527	-0.278	0.102
-137.429	-86.396	-0.190	-0.058
-136.414	-97.380	0.106	0.027
-135.399	-11.924	-0.137	0.089
-134.385	283.820	0.087	-0.156
-133.370	418.164	0.094	0.200
-132.356	16.428	-0.142	-0.111
-131.341	228.478	-0.190	-0.308
-130.326	-200.000	-0.009	0.494
-129.312	-200.000	0.014	0.242
-128.297	74.053	-0.142	0.148
-127.283	-27.911	-0.091	0.052
-126.268	800.000	0.018	-0.061
-125.253	116.660	0.258	-0.314
-124.239	-200.000	-0.009	0.097
-123.224	-200.000	-0.011	0.266
-122.210	321.540	-0.097	-0.183
