DTS Sentinel unit serial number:	SN413079Multiplexer serial number:	ORYXHardware model number:	OX4-SRSoftware version number:	ORYX F/W v4.00 Oryx Data Collector v3.7.2.0data status	okinstallation	princeton_trtdifferential loss correction	single-endedforward channel	channel 2reverse channel	N/Adate	2019/09/11time	11:29:11forward acquisition time	60.00reverse acquisition time	0.00gamma	496.2192k internal	0.2304k external	0.2304temperature offset calibration	0.9969default loss term (dB/km)	0.3790temperature slope calibration	1.0000multiplexer offset coefficient	1.0000multiplexer slope coefficient	1.0000fibre end	0.00T internal ref (°C)	37.98T ext. ref 1 (°C)	0.15T ext. ref 2 (°C)	35.95length (m)	temperature (°C)	Stokes	anti-Stokes-747.200	15.041	0.087	-0.069
-746.185	-190.983	0.162	0.002
-745.171	-55.475	0.113	-0.052
-744.156	-200.000	0.060	0.425
-743.142	89.022	-0.405	-0.459
-742.127	-200.000	0.048	0.292
-741.112	55.854	0.125	0.123
-740.098	-18.265	-0.181	0.115
-739.083	-35.239	0.389	0.216
-738.069	-16.441	-0.033	-0.021
-737.054	-69.547	-0.448	0.175
-736.039	-200.000	-0.038	-0.343
-735.025	-40.994	0.320	0.169
-734.010	-200.000	-0.003	0.334
-732.996	-150.229	-0.457	0.036
-731.981	12.302	-0.096	-0.075
-730.966	-145.933	-0.248	0.022
-729.952	800.000	-0.081	-0.278
-728.937	-123.964	-0.152	-0.024
-727.923	138.771	-0.118	0.158
-726.908	-200.000	0.007	-0.180
-725.894	-200.000	0.023	-0.195
-724.879	-118.289	-0.102	0.018
-723.864	-49.696	-0.059	0.029
-722.850	22.111	0.123	-0.102
-721.835	-18.864	0.379	-0.240
-720.821	20.506	-0.098	-0.081
-719.806	-121.502	-0.265	0.045
-718.791	-119.124	0.350	0.062
-717.777	-200.000	-0.014	0.200
-716.762	-33.094	0.213	-0.120
-715.748	-42.257	0.124	-0.065
-714.733	775.807	-0.041	0.113
-713.718	-75.504	-0.294	0.106
-712.704	-1.267	-0.033	-0.024
-711.689	231.297	-0.111	0.185
-710.675	-145.210	0.255	-0.024
-709.660	677.991	0.087	-0.231
-708.645	-55.820	-0.323	-0.147
-707.631	-121.470	-0.169	0.029
-706.616	-106.474	0.174	0.040
-705.602	-94.907	0.058	0.016
-704.587	579.358	0.081	-0.201
-703.572	113.742	0.120	-0.148
-702.558	186.371	-0.094	0.142
-701.543	-170.377	-0.431	-0.015
-700.529	21.360	-0.199	-0.165
-699.514	49.007	-0.127	-0.121
-698.499	197.613	-0.180	0.279
-697.485	-88.351	0.201	-0.061
-696.470	-58.278	0.228	-0.101
-695.456	-165.131	0.170	0.008
-694.441	-129.067	0.286	-0.041
-693.426	800.000	-0.093	-0.298
-692.412	800.000	0.063	-0.266
-691.397	5.130	-0.098	0.074
-690.383	-151.644	0.136	0.010
-689.368	32.413	0.117	0.103
-688.354	115.219	0.091	-0.113
-687.339	-200.000	0.024	0.195
-686.324	-200.000	-0.054	-0.271
-685.310	317.947	0.053	-0.101
-684.295	800.000	-0.090	-0.307
-683.281	10.189	-0.104	0.080
-682.266	168.757	-0.280	0.405
-681.251	42.366	-0.100	0.092
-680.237	-148.139	0.054	-0.005
-679.222	-200.000	0.011	-0.089
-678.208	-50.397	0.253	0.121
-677.193	517.065	0.109	-0.259
-676.178	-143.540	0.148	0.014
-675.164	28.376	0.091	0.079
-674.149	-50.731	-0.367	-0.175
-673.135	800.000	-0.058	-0.171
-672.120	243.324	0.055	-0.094
-671.105	54.838	-0.139	-0.136
-670.091	-42.749	-0.182	0.094
-669.076	-161.003	-0.102	0.005
-668.062	-172.380	-0.250	0.008
-667.047	220.265	-0.096	-0.156
-666.032	-1.466	-0.203	-0.145
-665.018	-176.503	-0.236	0.006
-664.003	-8.549	0.121	-0.083
-662.989	66.056	-0.244	-0.251
-661.974	-62.249	-0.181	-0.077
-660.959	192.885	-0.114	-0.175
-659.945	66.597	-0.132	0.136
-658.930	800.000	-0.055	-0.169
-657.916	-83.412	0.226	0.073
-656.901	126.512	0.127	0.163
-655.886	-100.529	-0.041	0.010
-654.872	-200.000	-0.026	0.173
-653.857	99.059	-0.071	0.084
-652.843	115.172	0.186	-0.230
-651.828	-29.176	-0.320	0.186
-650.814	354.202	0.103	0.207
-649.799	700.404	-0.036	0.096
-648.784	-104.964	-0.118	-0.028
-647.770	800.000	-0.058	-0.192
-646.755	172.073	-0.094	0.138
-645.741	142.784	-0.104	-0.141
-644.726	-81.298	-0.183	0.061
-643.711	71.896	0.122	0.129
-642.697	-38.448	-0.111	-0.060
-641.682	-97.786	-0.244	0.064
-640.668	71.484	-0.192	0.202
-639.653	-200.000	0.009	-0.170
-638.638	800.000	-0.034	-0.109
-637.624	-31.870	0.107	-0.061
-636.609	-33.287	-0.355	0.199
-635.595	800.000	-0.040	-0.115
-634.580	470.396	-0.095	-0.217
-633.565	-200.000	0.003	-0.118
-632.551	704.615	-0.046	-0.124
-631.536	635.261	0.132	0.340
-630.522	800.000	-0.135	0.574
-629.507	800.000	0.152	0.583
-628.492	539.790	-0.106	-0.255
-627.478	-87.021	0.264	-0.081
-626.463	800.000	-0.085	-0.280
-625.449	-200.000	0.020	0.469
-624.434	800.000	-0.056	0.181
-623.419	800.000	0.017	-0.049
-622.405	-42.298	0.139	-0.072
-621.390	11.764	0.150	0.116
-620.376	-200.000	-0.030	0.203
-619.361	121.434	-0.183	-0.231
-618.346	15.601	0.131	0.104
-617.332	171.198	0.211	0.307
-616.317	184.691	-0.169	-0.254
-615.303	800.000	0.055	0.245
-614.288	-122.493	-0.228	0.038
-613.273	2.418	0.265	-0.194
-612.259	-109.691	-0.282	0.060
-611.244	267.010	-0.037	0.065
-610.230	-200.000	-0.222	-0.001
-609.215	800.000	0.138	0.594
-608.201	-4.623	-0.106	-0.074
-607.186	86.341	-0.171	-0.191
-606.171	-127.977	0.126	0.018
-605.157	-153.249	0.077	-0.005
-604.142	222.253	-0.079	0.129
-603.128	444.191	-0.146	0.324
-602.113	-200.000	0.005	0.233
-601.098	300.073	-0.199	0.371
-600.084	266.834	-0.090	0.160
-599.069	-24.528	-0.151	0.091
-598.055	581.735	0.098	-0.244
-597.040	-62.981	-0.056	-0.024
-596.025	125.144	-0.182	-0.233
-595.011	-200.000	-0.032	0.228
-593.996	543.673	0.098	0.236
-592.982	56.540	-0.159	0.156
-591.967	162.143	0.209	-0.296
-590.952	-123.840	0.203	0.032
-589.938	-200.000	0.026	-0.181
-588.923	800.000	-0.045	-0.156
-587.909	481.344	0.061	-0.140
-586.894	7.285	-0.073	0.055
-585.879	159.017	0.125	0.176
-584.865	-9.478	-0.177	-0.120
-583.850	800.000	0.038	-0.146
-582.836	-86.801	0.067	-0.021
-581.821	-72.562	-0.280	-0.105
-580.806	-85.270	-0.132	-0.042
-579.792	800.000	-0.069	-0.207
-578.777	-52.261	-0.150	-0.070
-577.763	-63.599	0.170	-0.071
-576.748	55.621	-0.217	-0.213
-575.733	-18.369	-0.165	-0.104
-574.719	37.936	-0.152	-0.137
-573.704	-13.392	0.167	-0.110
-572.690	-119.078	-0.078	-0.014
-571.675	-200.000	-0.001	-0.118
-570.661	156.697	0.219	-0.306
-569.646	-200.000	-0.003	0.130
-568.631	-31.252	0.237	0.135
-567.617	90.834	-0.234	-0.265
-566.602	800.000	0.093	-0.329
-565.588	-70.630	0.285	-0.109
-564.573	337.575	0.091	-0.179
-563.558	-83.489	0.220	-0.071
-562.544	-200.000	0.039	0.313
-561.529	-200.000	-0.051	-0.251
-560.515	-65.221	-0.303	-0.123
-559.500	-34.723	0.105	-0.058
-558.485	-65.967	0.196	-0.079
-557.471	215.291	-0.214	0.343
-556.456	20.319	-0.083	-0.068
-555.442	-3.086	-0.079	-0.056
-554.427	159.856	-0.092	-0.129
-553.412	-200.000	0.002	-0.239
-552.398	-74.318	-0.063	0.023
-551.383	-25.347	-0.114	0.068
-550.369	-113.062	0.455	0.091
-549.354	-200.000	0.065	-0.319
-548.339	-200.000	0.025	-0.272
-547.325	386.128	-0.180	-0.375
-546.310	-200.000	0.056	-0.421
-545.296	-146.109	-0.188	0.017
-544.281	77.044	-0.088	0.095
-543.266	396.039	-0.059	0.125
-542.252	800.000	0.084	0.300
-541.237	-92.913	0.185	0.052
-540.223	-132.305	-0.238	0.031
-539.208	-200.000	-0.073	-0.536
-538.193	56.600	-0.098	-0.096
-537.179	-42.387	0.422	0.217
-536.164	-200.000	0.002	-0.171
-535.150	-200.000	0.002	0.455
-534.135	800.000	-0.051	0.175
-533.121	45.590	-0.138	0.129
-532.106	800.000	0.086	-0.366
-531.091	-133.114	-0.106	0.014
-530.077	-164.537	-0.274	-0.013
-529.062	235.460	0.156	-0.261
-528.048	-82.798	-0.195	0.064
-527.033	-149.421	0.127	-0.010
-526.018	-68.111	-0.081	-0.032
-525.004	113.186	-0.164	0.200
-523.989	90.385	-0.139	-0.157
-522.975	31.066	0.162	-0.140
-521.960	1.581	0.075	-0.055
-520.945	-154.193	0.402	0.027
-519.931	21.695	-0.141	0.116
-518.916	-200.000	0.023	0.165
-517.902	98.211	-0.075	-0.087
-516.887	-2.777	0.240	-0.170
-515.872	-38.131	-0.168	-0.090
-514.858	-78.362	0.159	-0.055
-513.843	176.113	0.170	-0.249
-512.829	-107.646	0.326	0.072
-511.814	-200.000	-0.020	-0.241
-510.799	-200.000	-0.001	-0.006
-509.785	-52.714	0.226	0.105
-508.770	-30.903	-0.110	0.063
-507.756	-200.000	0.042	0.288
-506.741	-200.000	0.045	0.367
-505.726	212.523	0.126	0.200
-504.712	328.245	0.076	0.147
-503.697	-143.895	0.160	-0.015
-502.683	-124.726	-0.034	0.005
-501.668	90.959	-0.164	-0.185
-500.653	-141.947	0.231	0.023
-499.639	-124.024	-0.086	0.014
-498.624	-28.763	-0.210	-0.122
-497.610	286.671	-0.075	0.137
-496.595	-26.344	-0.408	-0.242
-495.581	5.295	-0.271	0.201
-494.566	29.572	0.316	0.271
-493.551	32.685	-0.081	0.070
-492.537	368.870	-0.057	-0.115
-491.522	-33.736	0.244	-0.136
-490.508	-170.240	0.395	0.014
-489.493	-20.689	-0.136	-0.084
-488.478	-33.927	-0.323	-0.179
-487.464	549.814	0.022	-0.054
-486.449	-85.169	0.170	0.054
-485.435	-86.747	0.094	-0.029
-484.420	-200.000	0.023	0.112
-483.405	83.106	-0.237	-0.260
-482.391	62.826	-0.062	0.062
-481.376	800.000	0.080	-0.291
-480.362	590.255	-0.131	0.326
-479.347	45.194	-0.164	-0.152
-478.332	-10.104	0.060	-0.040
-477.318	-36.806	0.188	0.102
-476.303	-55.063	0.188	-0.085
-475.289	622.316	-0.078	-0.198
-474.274	800.000	-0.046	-0.200
-473.259	-200.000	-0.028	-0.275
-472.245	-200.000	0.001	-0.087
-471.230	-200.000	-0.016	0.118
-470.216	-33.439	-0.206	0.115
-469.201	20.916	-0.165	0.134
-468.186	42.908	-0.085	0.078
-467.172	216.624	0.110	-0.176
-466.157	350.343	0.058	-0.116
-465.143	171.159	0.073	-0.105
-464.128	133.282	-0.156	-0.203
-463.113	-42.162	-0.333	0.171
-462.099	51.933	-0.107	0.102
-461.084	-130.892	0.128	-0.017
-460.070	-175.073	0.316	0.009
-459.055	-200.000	0.017	0.144
-458.040	107.647	-0.086	0.103
-457.026	540.617	0.117	0.280
-456.011	-200.000	0.000	0.069
-454.997	151.506	0.218	-0.299
-453.982	-95.489	0.106	-0.029
-452.968	-69.035	0.276	0.107
-451.953	-89.475	-0.407	0.121
-450.938	-107.563	0.323	0.071
-449.924	800.000	0.059	-0.234
-448.909	177.125	-0.086	-0.127
-447.895	-57.148	-0.157	-0.069
-446.880	102.510	0.102	0.120
-445.865	800.000	-0.040	-0.119
-444.851	7.876	0.150	-0.113
-443.836	800.000	-0.056	0.168
-442.822	800.000	-0.024	0.085
-441.807	-123.478	-0.340	0.054
-440.792	-71.891	0.175	0.066
-439.778	-200.000	0.008	0.141
-438.763	30.859	0.110	-0.095
-437.749	800.000	-0.020	0.068
-436.734	-44.159	-0.049	-0.025
-435.719	-200.000	0.006	-0.173
-434.705	-41.038	-0.158	0.082
-433.690	800.000	-0.142	0.417
-432.676	67.761	0.060	0.061
-431.661	-51.406	-0.152	0.072
-430.646	-200.000	-0.048	-0.275
-429.632	22.119	0.247	0.203
-428.617	-1.237	-0.102	0.073
-427.603	-150.435	0.302	-0.023
-426.588	4.376	0.196	0.145
-425.573	473.791	0.074	0.168
-424.559	-66.253	0.098	-0.039
-423.544	-24.848	0.040	-0.024
-422.530	800.000	0.089	0.248
-421.515	51.878	0.088	-0.085
-420.500	161.724	0.155	-0.219
-419.486	215.872	-0.081	-0.129
-418.471	-61.636	-0.239	0.101
-417.457	-183.019	0.254	0.005
-416.442	-200.000	-0.026	-0.174
-415.428	-8.904	-0.090	0.061
-414.413	-45.075	-0.205	-0.103
-413.398	480.432	0.037	0.083
-412.384	-28.516	0.117	0.068
-411.369	-200.000	0.064	0.312
-410.355	257.344	-0.174	0.302
-409.340	35.811	0.344	-0.304
-408.325	-118.003	0.104	-0.019
-407.311	96.620	0.228	0.263
-406.296	-200.000	-0.003	0.298
-405.282	-66.521	-0.185	0.074
-404.267	800.000	0.039	0.130
-403.252	235.331	-0.105	0.174
-402.238	-115.174	-0.348	-0.066
-401.223	275.560	0.061	0.110
-400.209	800.000	0.041	-0.149
-399.194	-23.631	0.169	0.102
-398.179	-81.104	-0.572	-0.190
-397.165	-200.000	-0.053	-0.263
-396.150	-200.000	-0.044	0.257
-395.136	151.389	0.264	0.362
-394.121	516.481	0.039	-0.092
-393.106	92.766	0.062	0.070
-392.092	-200.000	0.063	0.541
-391.077	-200.000	-0.032	0.159
-390.063	155.718	-0.049	-0.068
-389.048	-3.798	0.207	0.144
-388.033	-7.263	-0.207	0.141
-387.019	85.053	-0.255	0.281
-386.004	48.597	0.052	0.049
-384.990	48.338	0.156	0.147
-383.975	-180.987	-0.173	0.003
-382.960	32.608	-0.005	0.004
-381.946	-141.271	0.214	-0.022
-380.931	-96.723	0.206	0.054
-379.917	-54.376	0.148	-0.067
-378.902	229.058	-0.047	-0.076
-377.888	-130.429	-0.393	-0.053
-376.873	55.459	-0.301	-0.293
-375.858	178.277	-0.178	0.261
-374.844	176.448	0.198	0.288
-373.829	-33.034	0.141	-0.078
-372.815	374.029	0.052	0.105
-371.800	68.112	-0.177	0.182
-370.785	-47.828	-0.171	0.083
-369.771	129.098	0.102	-0.131
-368.756	151.963	0.156	-0.214
-367.742	-200.000	0.042	0.377
-366.727	203.273	-0.075	0.116
-365.712	-200.000	-0.041	0.193
-364.698	800.000	-0.096	-0.391
-363.683	98.393	-0.177	0.205
-362.669	-156.558	0.485	0.030
-361.654	800.000	0.106	0.329
-360.639	12.288	0.116	-0.090
-359.625	-36.886	0.362	0.195
-358.610	35.860	-0.065	-0.058
-357.596	-122.585	-0.345	0.056
-356.581	5.588	-0.291	0.216
-355.566	62.838	0.396	0.398
-354.552	94.757	-0.110	0.126
-353.537	-89.601	0.163	0.048
-352.523	-191.511	-0.153	-0.002
-351.508	279.153	-0.105	0.188
-350.493	-200.000	-0.033	0.239
-349.479	-154.401	-0.083	0.006
-348.464	-200.000	-0.036	0.174
-347.450	800.000	0.029	0.083
-346.435	22.381	-0.191	0.157
-345.420	-8.739	0.128	0.086
-344.406	85.548	-0.194	0.214
-343.391	120.838	0.204	-0.255
-342.377	106.257	-0.098	0.116
-341.362	-43.943	-0.206	-0.104
-340.348	274.662	-0.108	0.192
-339.333	-119.148	0.307	0.054
-338.318	-26.988	0.025	-0.015
-337.304	-200.000	0.029	-0.181
-336.289	44.387	0.308	0.283
-335.275	-192.880	-0.204	0.002
-334.260	-200.000	-0.018	0.081
-333.245	56.384	0.164	0.160
-332.231	-114.821	0.202	-0.039
-331.216	171.348	-0.046	0.066
-330.202	-200.000	-0.012	-0.150
-329.187	267.870	0.217	-0.381
-328.172	347.330	-0.252	-0.498
-327.158	-4.970	0.365	-0.252
-326.143	-146.097	-0.137	-0.012
-325.129	319.219	-0.140	0.267
-324.114	5.879	-0.241	0.179
-323.099	-22.472	0.052	0.031
-322.085	-103.802	0.311	-0.073
-321.070	126.345	-0.235	-0.298
-320.056	800.000	-0.045	-0.153
-319.041	800.000	-0.043	0.161
-318.026	63.148	-0.144	-0.144
-317.012	650.933	0.097	-0.248
-315.997	103.938	-0.293	-0.345
-314.983	241.029	-0.135	0.226
-313.968	40.596	0.119	0.107
-312.953	522.451	-0.079	-0.185
-311.939	800.000	0.058	0.162
-310.924	-89.434	0.492	-0.145
-309.910	193.015	-0.125	0.189
-308.895	-182.318	-0.180	-0.003
-307.880	-119.647	0.170	0.029
-306.866	-33.049	0.098	0.054
-305.851	-200.000	-0.029	0.429
-304.837	49.451	0.350	-0.329
-303.822	-12.817	0.239	0.156
-302.807	320.891	-0.094	0.180
-301.793	-147.571	0.098	-0.008
-300.778	571.993	-0.115	0.280
-299.764	800.000	-0.030	-0.125
-298.749	-77.355	-0.191	0.066
-297.735	800.000	-0.131	0.369
-296.720	38.531	-0.193	0.173
-295.705	54.611	0.254	0.245
-294.691	358.667	-0.023	-0.046
-293.676	26.568	0.123	0.103
-292.662	-111.772	-0.187	-0.038
-291.647	98.643	0.147	0.170
-290.632	-162.243	0.406	-0.020
-289.618	374.689	0.187	-0.382
-288.603	-200.000	-0.110	0.000
-287.589	-80.473	-0.274	0.092
-286.574	-200.000	-0.020	0.127
-285.559	-33.755	0.028	0.015
-284.545	116.817	0.103	-0.126
-283.530	-200.000	0.012	0.054
-282.516	-200.000	-0.056	-0.280
-281.501	784.494	0.124	-0.340
-280.486	800.000	0.059	-0.169
-279.472	-145.668	0.075	-0.007
-278.457	-111.088	0.168	-0.034
-277.443	-35.149	-0.141	-0.077
-276.428	-51.061	0.377	-0.177
-275.413	-5.847	0.196	-0.134
-274.399	-200.000	-0.000	0.224
-273.384	-74.169	0.357	-0.129
-272.370	177.545	0.165	-0.240
-271.355	-159.566	-0.250	-0.014
-270.340	-115.607	-0.148	-0.028
-269.326	2.519	0.165	-0.120
-268.311	-194.510	0.178	-0.001
-267.297	-200.000	-0.001	-0.069
-266.282	337.362	0.191	0.372
-265.267	-33.551	0.158	0.087
-264.253	62.503	-0.126	-0.125
-263.238	208.272	0.192	0.300
-262.224	-200.000	-0.022	0.202
-261.209	28.097	0.116	0.098
-260.195	265.696	-0.126	-0.219
-259.180	-110.349	-0.287	0.060
-258.165	27.604	-0.071	0.060
-257.151	-200.000	-0.128	-0.705
-256.136	-147.187	0.384	0.033
-255.122	85.017	-0.262	-0.287
-254.107	800.000	-0.066	0.272
-253.092	-75.285	0.317	-0.113
-252.078	-10.780	0.266	0.176
-251.063	-65.487	-0.285	-0.114
-250.049	-4.229	-0.111	0.077
-249.034	-138.447	-0.498	0.055
-248.019	-26.455	-0.117	-0.068
-247.005	-170.576	0.178	0.006
-245.990	8.405	-0.241	-0.181
-244.976	-11.564	0.048	0.032
-243.961	-200.000	0.030	-0.153
-242.946	181.327	-0.133	-0.195
-241.932	-200.000	-0.035	-0.302
-240.917	9.296	-0.016	-0.012
-239.903	83.162	-0.131	-0.143
-238.888	-80.682	0.160	0.053
-237.873	133.947	-0.143	-0.185
-236.859	-100.218	0.270	0.067
-235.844	800.000	0.028	-0.090
-234.830	-200.000	-0.003	0.337
-233.815	-200.000	-0.050	-0.220
-232.800	-50.586	-0.219	0.103
-231.786	132.558	-0.089	-0.114
-230.771	627.936	0.058	0.147
-229.757	-186.299	-0.231	0.003
-228.742	-67.063	0.120	-0.047
-227.727	-31.656	0.445	-0.249
-226.713	-129.161	-0.394	-0.055
-225.698	150.150	-0.091	0.124
-224.684	-72.400	-0.150	0.055
-223.669	-106.613	-0.212	-0.047
-222.655	-180.621	0.468	0.010
-221.640	800.000	0.081	0.343
-220.625	-86.940	0.322	-0.098
-219.611	53.946	0.201	0.193
-218.596	305.103	0.022	0.042
-217.582	-8.717	0.271	-0.181
-216.567	5.952	-0.127	-0.093
-215.552	344.411	0.106	0.208
-214.538	149.869	0.234	-0.316
-213.523	760.144	-0.035	-0.093
-212.509	14.166	-0.222	-0.172
-211.494	0.538	-0.057	-0.040
-210.479	90.946	0.336	0.376
-209.465	-5.567	-0.265	0.181
-208.450	800.000	0.071	-0.260
-207.436	-19.621	-0.059	-0.036
-206.421	800.000	-0.063	-0.232
-205.406	800.000	0.057	-0.229
-204.392	433.579	0.109	-0.235
-203.377	-146.953	0.270	-0.023
-202.363	-200.000	0.015	0.237
-201.348	-17.436	0.194	0.122
-200.333	779.360	0.095	0.259
-199.319	711.891	-0.091	0.240
-198.304	800.000	0.046	-0.186
-197.290	-200.000	-0.058	-0.477
-196.275	-174.594	0.150	0.004
-195.260	25.351	0.194	-0.160
-194.246	244.040	0.100	-0.167
-193.231	-200.000	-0.033	-0.452
-192.217	215.218	-0.259	0.410
-191.202	780.010	-0.053	-0.143
-190.187	61.489	-0.079	-0.078
-189.173	369.543	-0.110	0.221
-188.158	46.572	-0.240	0.222
-187.144	0.881	-0.155	0.111
-186.129	-132.228	0.092	0.012
-185.114	-128.641	0.226	-0.032
-184.100	1.160	-0.206	-0.148
-183.085	117.890	-0.132	0.162
-182.071	503.255	0.085	-0.196
-181.056	42.126	-0.357	0.323
-180.042	459.552	0.143	-0.318
-179.027	-200.000	0.039	-0.252
-178.012	146.343	-0.087	-0.117
-176.998	404.129	0.128	-0.269
-175.983	-54.850	0.175	-0.079
-174.969	66.467	-0.045	-0.045
-173.954	19.433	0.222	0.178
-172.939	234.923	0.057	0.094
-171.925	-200.000	-0.004	-0.222
-170.910	265.239	-0.167	-0.290
-169.896	800.000	0.049	-0.193
-168.881	224.423	-0.018	0.029
-167.866	32.111	-0.456	-0.392
-166.852	222.829	0.055	-0.088
-165.837	-52.040	-0.133	-0.062
-164.823	397.158	0.056	-0.116
-163.808	-20.406	-0.158	-0.097
-162.793	2.537	-0.188	-0.135
-161.779	-74.522	0.049	-0.018
-160.764	290.994	-0.202	0.365
-159.750	133.765	-0.117	-0.150
-158.735	800.000	-0.023	0.094
-157.720	-16.116	0.123	0.078
-156.706	57.999	0.149	0.145
-155.691	79.018	-0.078	0.083
-154.677	800.000	-0.037	-0.103
-153.662	-70.235	0.347	0.131
-152.647	-200.000	-0.007	-0.355
-151.633	-52.219	-0.256	-0.118
-150.618	182.529	0.198	0.291
-149.604	9.892	0.294	0.222
-148.589	305.174	0.057	0.105
-147.574	800.000	-0.098	0.339
-146.560	778.988	0.049	-0.133
-145.545	-101.776	0.181	-0.044
-144.531	75.335	-0.143	0.150
-143.516	-200.000	-0.007	-0.236
-142.502	-49.010	0.228	-0.109
-141.487	-11.201	-0.175	0.115
-140.472	57.630	0.126	-0.123
-139.458	453.422	-0.102	0.225
-138.443	-104.536	-0.267	0.061
-137.429	-25.845	-0.047	0.027
-136.414	-5.572	0.323	0.220
-135.399	75.796	-0.248	-0.261
-134.385	800.000	0.098	-0.380
-133.370	77.637	-0.203	0.215
-132.356	800.000	0.103	0.297
-131.341	90.547	-0.162	-0.180
-130.326	156.503	0.148	0.203
-129.312	800.000	-0.042	-0.151
-128.297	-78.918	-0.180	-0.061
-127.283	549.664	0.046	0.111
-126.268	667.775	0.143	0.367
-125.253	118.062	0.046	0.056
-124.239	800.000	-0.070	-0.261
-123.224	616.404	-0.035	0.087
-122.210	-146.227	0.144	-0.013
-121.195	800.000	-0.042	-0.153
-120.180	44.223	-0.260	0.237
