DTS Sentinel unit serial number:	SN413079Multiplexer serial number:	ORYXHardware model number:	OX4-SRSoftware version number:	ORYX F/W v4.00 Oryx Data Collector v3.7.2.0data status	okinstallation	princeton_trtdifferential loss correction	single-endedforward channel	channel 2reverse channel	N/Adate	2019/09/19time	07:35:35forward acquisition time	60.00reverse acquisition time	0.00gamma	496.2192k internal	0.2351k external	0.2351temperature offset calibration	1.0014default loss term (dB/km)	0.3790temperature slope calibration	1.0000multiplexer offset coefficient	1.0000multiplexer slope coefficient	1.0000fibre end	0.00T internal ref (°C)	19.31T ext. ref 1 (°C)	0.56T ext. ref 2 (°C)	14.30length (m)	temperature (°C)	Stokes	anti-Stokes-747.200	80.965	-0.053	0.058
-746.185	800.000	-0.047	0.194
-745.171	392.350	0.101	0.210
-744.156	800.000	-0.105	-0.374
-743.142	227.419	0.184	-0.298
-742.127	-200.000	0.078	0.380
-741.112	800.000	-0.073	0.234
-740.098	800.000	-0.041	-0.169
-739.083	79.625	0.127	0.136
-738.069	-120.617	-0.251	-0.042
-737.054	-29.598	-0.335	0.191
-736.039	-51.464	-0.338	0.157
-735.025	-49.808	0.192	-0.091
-734.010	145.403	-0.216	-0.288
-732.996	157.981	-0.201	-0.278
-731.981	-132.419	0.307	0.039
-730.966	-65.036	-0.195	0.078
-729.952	-200.000	0.011	-0.073
-728.937	-200.000	-0.018	-0.150
-727.923	800.000	0.072	-0.222
-726.908	-200.000	-0.075	0.479
-725.894	78.067	-0.271	-0.288
-724.879	41.352	0.126	0.113
-723.864	-65.235	-0.091	0.036
-722.850	800.000	0.085	0.292
-721.835	-200.000	0.000	-0.086
-720.821	-86.804	-0.028	-0.009
-719.806	672.428	-0.062	-0.160
-718.791	-50.474	-0.109	-0.051
-717.777	800.000	0.099	-0.363
-716.762	382.823	0.105	-0.215
-715.748	-144.677	0.063	-0.006
-714.733	-12.698	-0.275	0.179
-713.718	-43.242	0.236	-0.119
-712.704	-126.755	0.185	0.027
-711.689	-200.000	0.003	0.307
-710.675	-200.000	0.055	-0.366
-709.660	-59.686	0.206	-0.088
-708.645	-38.655	-0.406	-0.214
-707.631	-200.000	0.059	-0.319
-706.616	-200.000	-0.057	-0.290
-705.602	611.908	0.095	-0.237
-704.587	373.075	0.152	-0.308
-703.572	-76.347	0.208	0.073
-702.558	-124.147	-0.051	-0.008
-701.543	-169.847	-0.215	0.008
-700.529	34.655	-0.104	0.090
-699.514	800.000	0.082	-0.262
-698.499	375.716	-0.177	0.359
-697.485	18.371	0.123	-0.098
-696.470	-87.715	0.069	0.021
-695.456	-22.912	-0.125	0.075
-694.441	-56.450	-0.323	-0.143
-693.426	56.332	0.294	-0.285
-692.412	79.467	0.132	0.141
-691.397	-0.693	0.106	0.075
-690.383	-190.672	0.338	-0.004
-689.368	800.000	0.073	-0.303
-688.354	-39.252	-0.173	-0.090
-687.339	319.394	-0.164	-0.310
-686.324	340.791	0.128	0.248
-685.310	73.992	-0.111	-0.116
-684.295	-118.441	0.262	-0.046
-683.281	273.323	-0.276	-0.486
-682.266	-74.028	0.164	0.059
-681.251	-179.908	-0.437	0.009
-680.237	800.000	0.057	0.172
-679.222	54.057	0.093	-0.089
-678.208	800.000	-0.062	-0.250
-677.193	234.188	-0.044	-0.073
-676.178	116.309	0.174	-0.213
-675.164	-34.903	-0.119	-0.065
-674.149	-38.373	0.165	-0.087
-673.135	800.000	0.095	-0.306
-672.120	-105.573	0.034	-0.008
-671.105	800.000	0.090	-0.250
-670.091	-108.066	-0.244	-0.053
-669.076	74.675	-0.041	0.043
-668.062	730.131	0.092	0.244
-667.047	-3.197	0.254	-0.176
-666.032	-85.622	0.280	0.086
-665.018	281.689	-0.238	-0.424
-664.003	310.308	-0.058	-0.108
-662.989	800.000	0.038	-0.127
-661.974	411.410	0.065	0.138
-660.959	37.607	-0.149	-0.131
-659.945	-94.159	0.208	0.057
-658.930	-200.000	0.018	-0.385
-657.916	-1.977	0.141	-0.099
-656.901	-200.000	-0.042	0.328
-655.886	59.003	0.157	0.154
-654.872	301.096	-0.141	0.259
-653.857	-200.000	-0.019	-0.140
-652.843	628.459	0.087	-0.219
-651.828	-76.641	-0.075	0.026
-650.814	800.000	0.026	0.090
-649.799	-62.207	0.289	0.120
-648.784	130.904	-0.182	-0.232
-647.770	-200.000	0.009	0.100
-646.755	800.000	-0.043	0.164
-645.741	139.546	0.103	-0.135
-644.726	78.682	-0.111	-0.118
-643.711	3.101	-0.165	0.119
-642.697	-133.224	-0.113	0.014
-641.682	-140.516	0.080	0.008
-640.668	228.928	-0.110	0.179
-639.653	-14.900	-0.110	0.070
-638.638	-131.726	0.355	-0.046
-637.624	-24.379	-0.272	0.161
-636.609	67.557	0.137	0.140
-635.595	-163.316	0.157	-0.007
-634.580	609.093	-0.098	-0.242
-633.565	-85.318	0.160	-0.050
-632.551	22.816	-0.295	0.240
-631.536	286.186	-0.084	-0.151
-630.522	-82.498	-0.292	-0.094
-629.507	-14.405	0.221	-0.142
-628.492	-79.135	0.229	0.077
-627.478	159.207	0.095	-0.131
-626.463	-200.000	-0.034	-0.168
-625.449	-5.320	0.143	-0.098
-624.434	56.469	-0.086	-0.083
-623.419	-145.023	-0.219	0.020
-622.405	-200.000	0.002	-0.094
-621.390	-185.337	0.274	-0.004
-620.376	-52.421	-0.320	-0.147
-619.361	187.912	0.116	-0.173
-618.346	-139.626	0.440	0.047
-617.332	-109.819	0.464	-0.097
-616.317	695.924	0.004	-0.011
-615.303	104.538	-0.103	0.121
-614.288	-119.355	0.142	0.025
-613.273	-33.380	0.035	-0.019
-612.259	88.356	0.140	0.154
-611.244	104.997	0.221	0.259
-610.230	40.157	-0.052	-0.046
-609.215	-75.384	-0.165	0.058
-608.201	-90.031	0.196	0.057
-607.186	59.220	-0.234	-0.229
-606.171	800.000	0.044	-0.127
-605.157	800.000	-0.037	0.132
-604.142	248.175	-0.168	0.281
-603.128	1.820	-0.039	0.028
-602.113	-119.823	0.080	0.014
-601.098	-14.112	-0.100	-0.064
-600.084	-200.000	0.019	-0.160
-599.069	554.755	0.104	0.247
-598.055	-71.675	0.067	0.025
-597.040	3.608	0.313	-0.226
-596.025	-200.000	0.066	-0.402
-595.011	-67.447	0.158	-0.062
-593.996	-200.000	0.100	-0.570
-592.982	37.209	-0.185	0.162
-591.967	386.434	0.085	0.173
-590.952	30.916	0.124	0.105
-589.938	165.517	-0.163	-0.228
-588.923	-79.676	-0.158	0.053
-587.909	-148.798	0.244	-0.020
-586.894	-124.723	-0.045	-0.007
-585.879	-200.000	0.036	0.402
-584.865	-161.105	0.106	-0.006
-583.850	-182.825	-0.148	0.003
-582.836	800.000	0.102	-0.411
-581.821	-121.556	0.252	0.041
-580.806	-152.459	0.339	0.024
-579.792	-18.162	-0.142	-0.088
-578.777	-200.000	0.047	0.217
-577.763	-32.646	0.119	-0.066
-576.748	278.833	-0.223	0.394
-575.733	97.612	-0.146	0.166
-574.719	-130.090	0.250	0.034
-573.704	800.000	-0.078	0.232
-572.690	66.992	0.170	-0.172
-571.675	-137.607	0.176	-0.020
-570.661	534.133	-0.141	0.331
-569.646	410.879	0.027	0.057
-568.631	-82.026	-0.146	-0.047
-567.617	-124.898	0.188	-0.029
-566.602	-143.876	-0.035	0.003
-565.588	-153.332	0.333	-0.023
-564.573	-10.320	-0.218	-0.143
-563.558	355.076	0.197	-0.389
-562.544	-200.000	0.056	-0.272
-561.529	-114.071	-0.203	0.039
-560.515	235.173	-0.105	0.171
-559.500	41.385	0.110	-0.098
-558.485	-200.000	-0.046	-0.247
-557.471	147.312	-0.148	0.198
-556.456	-200.000	0.029	-0.271
-555.442	9.112	0.175	-0.131
-554.427	226.571	0.156	-0.252
-553.412	90.852	0.383	0.425
-552.398	800.000	-0.110	0.308
-551.383	14.848	0.100	0.078
-550.369	388.997	0.129	-0.264
-549.354	-81.259	-0.094	-0.031
-548.339	-62.756	-0.043	0.017
-547.325	530.274	0.054	0.125
-546.310	70.335	-0.154	-0.158
-545.296	-71.619	0.167	-0.062
-544.281	-200.000	-0.038	-0.295
-543.266	-105.475	-0.196	0.044
-542.252	800.000	-0.119	0.359
-541.237	-75.763	-0.229	0.080
-540.223	65.915	0.164	-0.165
-539.208	-200.000	0.017	-0.211
-538.193	800.000	-0.038	-0.126
-537.179	-200.000	-0.051	-0.333
-536.164	154.576	-0.133	-0.181
-535.150	-44.262	-0.065	0.032
-534.135	-59.892	-0.083	-0.035
-533.121	-200.000	-0.027	0.319
-532.106	154.684	0.083	-0.112
-531.091	-99.745	-0.246	0.061
-530.077	152.911	-0.099	-0.134
-529.062	22.896	-0.202	0.164
-528.048	439.437	0.075	0.161
-527.033	-54.566	0.250	-0.112
-526.018	-173.286	0.319	0.010
-525.004	13.709	0.071	0.055
-523.989	-156.272	-0.059	0.004
-522.975	-100.440	-0.243	0.060
-521.960	82.644	0.143	0.153
-520.945	264.402	0.147	-0.253
-519.931	-26.788	-0.133	-0.077
-518.916	-19.866	0.209	-0.128
-517.902	-200.000	-0.081	-0.420
-516.887	-200.000	-0.060	0.332
-515.872	-200.000	0.036	-0.163
-514.858	800.000	0.022	0.068
-513.843	191.694	-0.222	-0.331
-512.829	191.837	-0.079	0.118
-511.814	-161.258	-0.292	-0.015
-510.799	-103.776	0.200	-0.046
-509.785	800.000	0.023	-0.086
-508.770	-155.830	-0.159	0.010
-507.756	10.212	0.039	-0.030
-506.741	-101.905	0.155	-0.037
-505.726	-200.000	-0.022	0.215
-504.712	111.891	0.352	0.421
-503.697	80.701	-0.169	0.180
-502.683	-200.000	-0.007	-0.103
-501.668	-71.958	-0.287	-0.106
-500.653	549.221	0.132	-0.313
-499.639	-200.000	-0.034	0.229
-498.624	-173.480	-0.297	0.009
-497.610	-90.136	-0.307	0.088
-496.595	800.000	0.117	0.341
-495.581	800.000	-0.052	-0.206
-494.566	-58.495	0.143	0.061
-493.551	-24.952	0.076	0.045
-492.537	-120.487	-0.148	0.025
-491.522	800.000	-0.052	0.169
-490.508	-88.950	-0.177	-0.052
-489.493	-140.111	0.264	-0.027
-488.478	800.000	0.006	0.022
-487.464	3.750	0.334	0.241
-486.449	-102.797	0.349	0.082
-485.435	1.577	-0.307	0.218
-484.420	171.369	-0.154	0.218
-483.405	-33.563	-0.239	0.130
-482.391	90.759	-0.052	-0.057
-481.376	-16.610	-0.188	0.118
-480.362	350.344	-0.130	-0.254
-479.347	-192.785	0.086	-0.001
-478.332	-83.513	-0.061	-0.019
-477.318	800.000	0.070	-0.243
-476.303	107.921	-0.137	0.161
-475.289	71.806	0.372	0.382
-474.274	-146.693	-0.288	-0.025
-473.259	-30.794	-0.110	0.061
-472.245	800.000	0.061	-0.174
-471.230	-48.585	-0.131	0.062
-470.216	-53.268	0.058	-0.026
-469.201	71.634	0.469	-0.481
-468.186	-99.607	-0.363	0.090
-467.172	106.405	0.072	0.084
-466.157	800.000	0.069	0.231
-465.143	-79.171	-0.047	-0.016
-464.128	-200.000	0.031	0.166
-463.113	25.817	-0.327	0.269
-462.099	-200.000	-0.003	0.118
-461.084	681.380	0.047	0.120
-460.070	16.151	0.161	-0.125
-459.055	638.427	0.140	-0.352
-458.040	152.577	-0.196	0.264
-457.026	-128.425	0.356	-0.050
-456.011	800.000	-0.018	-0.070
-454.997	-68.732	-0.090	0.035
-453.982	57.666	0.215	0.207
-452.968	-39.310	-0.176	-0.091
-451.953	-29.736	0.062	-0.035
-450.938	399.906	0.153	-0.317
-449.924	800.000	0.036	0.106
-448.909	55.413	-0.310	-0.296
-447.895	99.587	0.243	0.277
-446.880	-122.632	-0.210	0.034
-445.865	91.190	0.093	-0.103
-444.851	-139.641	-0.172	0.018
-443.836	800.000	-0.061	0.192
-442.822	800.000	-0.157	-0.429
-441.807	203.867	-0.148	0.226
-440.792	-123.694	0.406	0.063
-439.778	-200.000	0.031	-0.251
-438.763	125.276	0.090	-0.112
-437.749	-200.000	0.005	0.128
-436.734	-200.000	-0.029	0.272
-435.719	415.566	-0.235	-0.494
-434.705	220.518	0.034	0.053
-433.690	-55.423	-0.034	0.015
-432.676	-177.769	-0.357	-0.008
-431.661	12.067	0.105	-0.080
-430.646	-200.000	-0.077	0.420
-429.632	-22.552	-0.156	0.093
-428.617	-85.261	-0.357	0.110
-427.603	202.106	-0.153	-0.232
-426.588	39.263	-0.096	0.085
-425.573	408.276	0.116	-0.241
-424.559	-200.000	-0.011	-0.370
-423.544	-93.915	0.096	0.026
-422.530	-200.000	-0.040	0.245
-421.515	-118.755	-0.145	-0.025
-420.500	-3.507	-0.292	0.200
-419.486	800.000	-0.108	0.302
-418.471	33.422	0.320	-0.274
-417.457	-200.000	0.039	0.484
-416.442	186.562	0.171	-0.250
-415.428	800.000	-0.062	-0.207
-414.413	-200.000	0.026	-0.310
-413.398	315.799	0.091	-0.170
-412.384	-57.003	0.225	0.098
-411.369	3.700	0.098	0.070
-410.355	-154.123	-0.408	0.027
-409.340	-158.098	-0.097	0.006
-408.325	-99.786	0.044	-0.011
-407.311	-200.000	0.011	0.184
-406.296	12.809	0.079	0.060
-405.282	-83.645	-0.260	0.082
-404.267	156.092	0.180	0.244
-403.252	-72.767	0.068	-0.025
-402.238	-65.270	-0.264	0.105
-401.223	-61.493	0.235	0.097
-400.209	11.579	-0.194	-0.146
-399.194	-153.692	0.321	0.022
-398.179	69.736	0.154	-0.156
-397.165	75.236	-0.003	0.004
-396.150	-101.528	-0.185	0.044
-395.136	252.664	-0.054	-0.090
-394.121	80.002	0.080	-0.084
-393.106	-200.000	0.018	-0.185
-392.092	271.228	-0.121	-0.210
-391.077	132.760	-0.143	-0.182
-390.063	-200.000	0.050	0.304
-389.048	-29.447	-0.166	0.093
-388.033	-200.000	-0.023	-0.138
-387.019	92.248	0.102	-0.113
-386.004	358.378	-0.087	0.170
-384.990	451.978	-0.036	0.077
-383.975	201.453	-0.097	-0.147
-382.960	800.000	0.037	-0.141
-381.946	47.149	0.062	0.057
-380.931	158.400	-0.234	-0.320
-379.917	160.980	0.122	-0.168
-378.902	-3.688	-0.222	-0.152
-377.888	263.155	0.155	-0.265
-376.873	-89.643	-0.212	0.061
-375.858	800.000	-0.053	0.178
-374.844	-48.212	0.361	0.172
-373.829	800.000	-0.039	0.108
-372.815	199.285	-0.008	0.012
-371.800	310.226	0.043	-0.080
-370.785	-106.514	0.166	0.036
-369.771	800.000	0.101	0.297
-368.756	403.416	-0.043	0.088
-367.742	289.865	0.108	0.192
-366.727	-13.999	-0.035	0.022
-365.712	-200.000	-0.009	0.135
-364.698	-68.299	0.210	-0.080
-363.683	-40.118	-0.269	-0.138
-362.669	214.502	-0.136	-0.211
-361.654	-101.468	-0.284	0.068
-360.639	800.000	-0.035	-0.114
-359.625	-200.000	-0.022	0.337
-358.610	132.274	0.120	-0.152
-357.596	11.813	-0.067	0.051
-356.581	109.106	-0.183	0.215
-355.566	-200.000	0.013	0.292
-354.552	-200.000	0.015	0.266
-353.537	-200.000	0.033	-0.173
-352.523	-200.000	0.056	-0.389
-351.508	737.271	-0.101	-0.267
-350.493	579.716	-0.079	-0.191
-349.479	800.000	0.014	-0.040
-348.464	800.000	0.010	-0.029
-347.450	177.969	-0.112	-0.160
-346.435	696.225	-0.028	-0.073
-345.420	-45.500	-0.322	-0.157
-344.406	133.332	0.324	0.411
-343.391	-113.981	-0.144	-0.027
-342.377	138.449	-0.056	0.073
-341.362	-45.035	0.289	-0.141
-340.348	-183.661	0.169	-0.003
-339.333	10.336	-0.230	0.172
-338.318	-120.544	0.298	-0.050
-337.304	316.600	0.140	-0.260
-336.289	7.838	0.069	0.051
-335.275	-184.362	0.145	0.002
-334.260	-117.936	0.266	0.047
-333.245	169.021	-0.095	0.134
-332.231	54.082	0.352	-0.332
-331.216	322.907	-0.136	0.255
-330.202	46.991	-0.198	0.181
-329.187	38.233	0.214	-0.187
-328.172	-37.734	-0.234	0.122
-327.158	107.942	-0.269	0.315
-326.143	-200.000	0.017	-0.172
-325.129	74.424	-0.267	-0.275
-324.114	18.838	0.095	0.075
-323.099	-120.140	-0.043	-0.007
-322.085	81.154	0.082	-0.087
-321.070	355.217	-0.096	-0.188
-320.056	-200.000	-0.022	-0.279
-319.041	108.094	-0.237	0.277
-318.026	800.000	0.056	-0.213
-317.012	48.121	-0.036	-0.033
-315.997	-119.541	-0.183	0.031
-314.983	-200.000	-0.018	-0.119
-313.968	27.090	-0.184	-0.151
-312.953	44.144	-0.081	-0.073
-311.939	-7.173	-0.061	0.041
-310.924	52.896	0.075	0.070
-309.910	-36.542	0.126	0.067
-308.895	-69.038	-0.222	0.084
-307.880	62.720	-0.048	0.047
-306.866	116.431	-0.201	-0.241
-305.851	-25.256	0.401	-0.233
-304.837	-177.883	0.380	-0.009
-303.822	-200.000	-0.016	0.183
-302.807	407.659	0.085	0.176
-301.793	-20.744	-0.073	-0.044
-300.778	-200.000	-0.049	-0.272
-299.764	-17.522	-0.244	0.151
-298.749	41.634	-0.012	0.011
-297.735	-82.468	-0.293	0.093
-296.720	238.689	0.103	-0.167
-295.705	301.476	0.103	0.186
-294.691	116.143	0.173	0.208
-293.676	-200.000	-0.029	-0.175
-292.662	800.000	-0.057	0.245
-291.647	-200.000	-0.028	0.135
-290.632	-200.000	0.001	-0.319
-289.618	-114.782	-0.178	-0.033
-288.603	-124.423	0.143	0.022
-287.589	461.508	-0.148	0.323
-286.574	60.545	-0.136	-0.132
-285.559	-13.037	-0.080	0.051
-284.545	-140.930	0.253	0.025
-283.530	-54.059	-0.345	-0.154
-282.516	158.996	0.166	0.226
-281.501	-112.642	0.224	-0.044
-280.486	-33.868	0.115	-0.062
-279.472	-200.000	0.063	-0.363
-278.457	-200.000	0.013	-0.150
-277.443	212.918	-0.041	0.063
-276.428	-25.626	-0.208	0.120
-275.413	-200.000	-0.032	-0.327
-274.399	3.795	-0.217	0.155
-273.384	-200.000	-0.005	-0.190
-272.370	-181.596	-0.439	-0.008
-271.355	389.398	-0.152	-0.308
-270.340	-118.052	-0.010	-0.002
-269.326	70.239	-0.016	-0.016
-268.311	800.000	0.037	-0.144
-267.297	547.669	0.113	0.265
-266.282	-139.304	0.031	-0.003
-265.267	129.567	0.158	0.198
-264.253	594.602	-0.090	-0.217
-263.238	-200.000	0.008	-0.105
-262.224	-163.554	-0.369	-0.017
-261.209	-1.794	0.286	-0.197
-260.195	24.666	0.067	-0.054
-259.180	109.336	-0.251	-0.295
-258.165	-89.446	0.455	0.131
-257.151	-200.000	0.052	-0.240
-256.136	800.000	-0.046	-0.138
-255.122	132.643	-0.128	-0.161
-254.107	-44.646	-0.145	0.071
-253.092	-200.000	0.075	-0.347
-252.078	625.979	-0.093	-0.231
-251.063	-52.430	0.238	0.108
-250.049	-54.859	0.300	0.133
-249.034	65.738	-0.451	0.447
-248.019	-200.000	-0.029	0.346
-247.005	-200.000	-0.002	0.148
-245.990	25.394	0.121	-0.098
-244.976	-116.722	0.057	-0.010
-243.961	-114.881	-0.114	-0.021
-242.946	223.355	-0.094	-0.149
-241.932	177.570	0.190	0.271
-240.917	-3.045	-0.308	-0.210
-239.903	376.792	0.078	0.156
-238.888	800.000	0.098	0.336
-237.873	371.693	0.142	-0.282
-236.859	580.783	-0.069	0.166
-235.844	800.000	-0.042	0.115
-234.830	-147.666	-0.121	-0.010
-233.815	45.906	-0.330	0.298
-232.800	-81.504	-0.203	0.065
-231.786	335.737	0.183	0.347
-230.771	-125.175	0.062	0.009
-229.757	144.289	0.209	0.273
-228.742	216.556	0.030	0.046
-227.727	-200.000	0.065	-0.284
-226.713	125.971	0.183	-0.226
-225.698	195.154	0.056	-0.084
-224.684	352.772	0.127	-0.245
-223.669	800.000	-0.014	0.057
-222.655	345.016	-0.033	0.064
-221.640	-200.000	0.054	0.282
-220.625	800.000	-0.014	0.043
-219.611	195.409	-0.137	-0.204
-218.596	-59.445	-0.412	0.173
-217.582	137.373	0.306	0.392
-216.567	800.000	-0.037	0.153
-215.552	484.482	0.115	0.257
-214.538	800.000	0.051	0.148
-213.523	530.992	-0.176	0.407
-212.509	-48.790	-0.310	-0.145
-211.494	-200.000	-0.030	-0.326
-210.479	-188.969	0.161	0.002
-209.465	134.755	0.188	-0.238
-208.450	26.910	0.089	0.073
-207.436	800.000	0.019	0.068
-206.421	-187.261	0.166	0.002
-205.406	-36.542	0.299	0.157
-204.392	-160.757	-0.201	-0.010
-203.377	43.627	0.221	0.197
-202.363	-100.215	-0.051	0.012
-201.348	-98.598	0.310	-0.077
-200.333	647.575	0.150	-0.375
-199.319	394.433	0.060	-0.122
-198.304	338.874	0.096	0.183
-197.290	-200.000	0.017	-0.126
-196.275	35.857	-0.012	0.010
-195.260	-98.141	0.091	-0.023
-194.246	91.605	-0.163	0.179
-193.231	-67.367	-0.136	-0.052
-192.217	-200.000	0.030	-0.521
-191.202	800.000	-0.114	-0.408
-190.187	253.498	-0.195	-0.325
-189.173	353.006	-0.062	0.120
-188.158	-27.994	0.160	0.090
-187.144	800.000	0.046	-0.192
-186.129	418.308	0.096	0.201
-185.114	-165.873	0.482	-0.020
-184.100	800.000	0.057	0.192
-183.085	227.481	-0.115	-0.183
-182.071	489.702	0.161	0.359
-181.056	442.075	0.137	0.293
-180.042	-95.905	-0.285	0.074
-179.027	-77.098	0.224	-0.076
-178.012	-200.000	-0.027	-0.318
-176.998	-200.000	-0.034	0.284
-175.983	100.851	-0.116	0.131
-174.969	-200.000	-0.002	-0.209
-173.954	-153.940	0.113	0.008
-172.939	761.939	-0.134	0.355
-171.925	-200.000	0.016	0.345
-170.910	-200.000	0.026	0.287
-169.896	328.149	0.117	0.220
-168.881	-200.000	-0.035	-0.362
-167.866	-173.488	-0.221	0.006
-166.852	1.467	0.252	0.177
-165.837	800.000	0.063	0.262
-164.823	-34.231	0.087	0.046
-163.808	-3.161	0.136	0.092
-162.793	800.000	0.065	-0.225
-161.779	-83.238	-0.202	0.063
-160.764	-200.000	-0.022	0.334
-159.750	800.000	-0.020	0.061
-158.735	14.643	0.035	0.027
-157.720	-118.072	0.112	-0.019
-156.706	251.164	-0.085	0.141
-155.691	-55.875	0.085	-0.037
-154.677	-120.308	0.127	0.021
-153.662	-200.000	0.074	-0.322
-152.647	-154.693	-0.381	-0.025
-151.633	119.504	0.043	0.052
-150.618	-200.000	0.004	0.172
-149.604	-23.376	0.139	-0.082
-148.589	-200.000	-0.070	0.413
-147.574	-200.000	-0.025	-0.143
-146.560	-116.403	0.301	-0.054
-145.545	-200.000	-0.065	0.307
-144.531	22.632	0.192	-0.153
-143.516	252.180	0.207	0.344
-142.502	103.846	-0.221	-0.253
-141.487	800.000	-0.129	-0.370
-140.472	519.537	0.168	-0.383
-139.458	303.343	0.033	0.060
-138.443	-200.000	0.008	0.197
-137.429	-114.183	-0.280	0.053
-136.414	194.805	-0.166	0.245
-135.399	-200.000	-0.031	-0.169
-134.385	-200.000	0.001	-0.313
-133.370	55.446	0.221	-0.208
-132.356	586.928	-0.117	-0.281
-131.341	76.712	0.279	-0.288
-130.326	800.000	-0.109	-0.376
-129.312	-7.656	0.065	0.043
-128.297	-182.909	-0.223	-0.004
-127.283	-200.000	0.010	-0.163
-126.268	-103.690	-0.284	-0.065
-125.253	82.444	-0.039	0.041
-124.239	800.000	0.039	0.142
-123.224	458.973	-0.040	-0.087
-122.210	31.372	0.121	-0.101
-121.195	-200.000	0.006	-0.236
