DTS Sentinel unit serial number:	SN413079Multiplexer serial number:	ORYXHardware model number:	OX4-SRSoftware version number:	ORYX F/W v4.00 Oryx Data Collector v3.7.2.0data status	okinstallation	princeton_trtdifferential loss correction	single-endedforward channel	channel 2reverse channel	N/Adate	2019/09/19time	14:11:35forward acquisition time	60.00reverse acquisition time	0.00gamma	496.2192k internal	0.2324k external	0.2324temperature offset calibration	1.0022default loss term (dB/km)	0.3790temperature slope calibration	1.0000multiplexer offset coefficient	1.0000multiplexer slope coefficient	1.0000fibre end	0.00T internal ref (°C)	31.50T ext. ref 1 (°C)	1.03T ext. ref 2 (°C)	28.78length (m)	temperature (°C)	Stokes	anti-Stokes-747.200	181.530	0.110	0.164
-746.185	-200.000	0.020	0.343
-745.171	-11.382	-0.236	-0.157
-744.156	-5.981	-0.243	0.168
-743.142	358.371	0.093	0.187
-742.127	103.024	-0.207	0.245
-741.112	-200.000	-0.066	0.298
-740.098	205.683	0.164	0.257
-739.083	85.543	-0.079	0.088
-738.069	120.730	-0.185	0.232
-737.054	800.000	-0.109	-0.361
-736.039	-72.551	-0.079	-0.030
-735.025	-200.000	-0.005	0.068
-734.010	-36.059	-0.440	0.240
-732.996	433.279	-0.117	-0.255
-731.981	64.367	0.357	0.363
-730.966	-21.770	-0.171	-0.105
-729.952	22.691	-0.296	-0.244
-728.937	21.032	-0.274	-0.224
-727.923	-36.125	0.070	0.038
-726.908	44.601	0.075	-0.070
-725.894	-192.944	-0.220	0.002
-724.879	-2.820	-0.181	-0.128
-723.864	19.958	0.190	0.155
-722.850	-200.000	-0.043	-0.325
-721.835	46.056	-0.137	0.128
-720.821	62.070	-0.183	-0.184
-719.806	64.583	-0.248	0.253
-718.791	77.908	-0.168	0.181
-717.777	126.408	-0.114	0.145
-716.762	326.121	-0.133	-0.258
-715.748	552.990	-0.194	-0.470
-714.733	102.121	0.080	0.094
-713.718	162.271	-0.106	0.150
-712.704	-200.000	0.018	0.248
-711.689	302.847	0.099	-0.185
-710.675	-67.213	-0.273	0.108
-709.660	339.920	-0.103	-0.202
-708.645	-200.000	0.000	0.264
-707.631	96.530	0.217	0.250
-706.616	31.019	0.455	-0.393
-705.602	800.000	-0.055	0.179
-704.587	222.566	0.101	-0.164
-703.572	-200.000	-0.006	0.140
-702.558	-200.000	-0.022	-0.240
-701.543	143.163	0.148	-0.199
-700.529	-51.222	-0.229	-0.108
-699.514	-74.076	0.142	-0.052
-698.499	3.340	0.222	0.163
-697.485	800.000	0.142	-0.492
-696.470	-114.541	-0.195	-0.038
-695.456	248.086	0.091	0.155
-694.441	-32.036	0.192	0.108
-693.426	-200.000	0.037	-0.221
-692.412	-65.420	0.173	0.070
-691.397	128.002	-0.106	-0.135
-690.383	249.881	-0.093	-0.158
-689.368	-60.003	-0.136	0.058
-688.354	-99.002	-0.283	0.072
-687.339	-200.000	-0.073	-0.351
-686.324	363.830	0.124	-0.252
-685.310	265.213	-0.034	0.059
-684.295	-200.000	0.007	0.245
-683.281	466.219	-0.059	-0.133
-682.266	-2.653	0.186	0.131
-681.251	289.983	-0.206	0.377
-680.237	217.959	-0.045	0.073
-679.222	-107.323	-0.181	0.040
-678.208	198.009	-0.109	0.168
-677.193	273.304	-0.109	-0.194
-676.178	-90.335	0.071	-0.021
-675.164	-125.231	0.137	-0.021
-674.149	206.012	0.115	0.180
-673.135	313.488	0.031	0.059
-672.120	-200.000	-0.017	0.301
-671.105	2.451	-0.298	0.217
-670.091	124.474	0.128	0.162
-669.076	-111.310	0.226	0.046
-668.062	-60.515	-0.083	0.036
-667.047	545.892	-0.098	-0.236
-666.032	90.589	-0.208	-0.234
-665.018	-137.181	-0.310	0.036
-664.003	-120.106	0.153	-0.026
-662.989	-200.000	-0.035	-0.171
-661.974	-17.448	-0.216	-0.137
-660.959	400.930	0.098	0.207
-659.945	800.000	-0.027	0.087
-658.930	19.168	-0.074	0.060
-657.916	-37.563	-0.207	-0.111
-656.901	149.128	0.260	0.354
-655.886	-200.000	-0.018	0.084
-654.872	-102.715	-0.042	0.010
-653.857	-50.194	-0.212	-0.101
-652.843	800.000	-0.035	-0.130
-651.828	-200.000	-0.035	-0.488
-650.814	800.000	-0.049	-0.193
-649.799	-200.000	-0.009	0.233
-648.784	-131.636	0.261	0.034
-647.770	155.782	-0.111	0.153
-646.755	800.000	-0.136	-0.389
-645.741	-36.669	-0.113	0.061
-644.726	-200.000	-0.012	-0.092
-643.711	100.505	-0.148	-0.173
-642.697	62.689	-0.224	0.225
-641.682	-59.581	0.101	0.044
-640.668	0.120	0.152	0.109
-639.653	65.177	-0.100	-0.102
-638.638	-179.656	-0.378	-0.008
-637.624	-141.103	-0.415	-0.043
-636.609	766.548	-0.067	0.182
-635.595	67.680	0.188	-0.193
-634.580	-26.837	-0.141	-0.083
-633.565	-126.188	-0.150	0.023
-632.551	326.014	-0.120	-0.230
-631.536	588.321	-0.069	-0.172
-630.522	300.686	0.128	0.237
-629.507	-200.000	0.002	-0.041
-628.492	-142.742	-0.111	-0.011
-627.478	-86.293	0.185	0.057
-626.463	-62.686	-0.265	-0.111
-625.449	-2.806	-0.277	0.194
-624.434	-35.794	-0.310	-0.169
-623.419	748.304	0.028	0.076
-622.405	-63.356	0.209	0.086
-621.390	-200.000	0.018	-0.158
-620.376	-147.852	0.319	0.027
-619.361	52.840	-0.271	0.260
-618.346	95.401	-0.126	0.144
-617.332	-200.000	0.001	-0.149
-616.317	-120.936	0.260	-0.044
-615.303	-200.000	0.046	0.260
-614.288	-200.000	-0.001	0.083
-613.273	-185.190	-0.062	0.001
-612.259	723.663	-0.026	-0.071
-611.244	81.493	-0.173	-0.187
-610.230	800.000	0.106	-0.397
-609.215	800.000	-0.080	0.266
-608.201	154.441	0.009	0.013
-607.186	319.133	0.033	0.062
-606.171	90.301	0.136	0.153
-605.157	-64.030	-0.193	-0.079
-604.142	219.624	-0.108	0.173
-603.128	227.919	0.146	0.239
-602.113	-117.049	0.115	-0.021
-601.098	-200.000	0.031	0.301
-600.084	800.000	-0.127	0.362
-599.069	-200.000	-0.042	0.232
-598.055	148.657	-0.060	-0.081
-597.040	-127.857	0.333	0.048
-596.025	762.227	0.096	0.261
-595.011	-77.019	-0.198	-0.070
-593.996	-19.336	0.177	-0.110
-592.982	152.764	0.095	-0.130
-591.967	-200.000	0.081	-0.620
-590.952	18.445	-0.154	-0.124
-589.938	-200.000	0.021	0.107
-588.923	-72.219	-0.055	-0.020
-587.909	83.698	-0.094	-0.103
-586.894	-62.458	0.212	0.088
-585.879	-200.000	-0.060	-0.335
-584.865	58.045	-0.187	-0.183
-583.850	46.351	-0.159	-0.148
-582.836	-1.950	0.150	-0.106
-581.821	476.079	-0.075	0.171
-580.806	-40.415	-0.128	-0.067
-579.792	51.889	0.137	-0.131
-578.777	-89.929	0.106	0.031
-577.763	-73.736	-0.030	-0.011
-576.748	-200.000	0.051	0.315
-575.733	-123.599	-0.292	0.047
-574.719	-88.007	0.266	0.080
-573.704	-200.000	0.014	0.084
-572.690	131.620	0.066	-0.085
-571.675	-95.200	0.163	-0.044
-570.661	-6.364	0.230	0.157
-569.646	-172.152	-0.067	-0.002
-568.631	21.636	0.213	-0.174
-567.617	280.544	-0.299	-0.537
-566.602	68.338	-0.027	-0.027
-565.588	800.000	-0.059	0.197
-564.573	800.000	0.054	-0.190
-563.558	128.762	0.164	-0.209
-562.544	-131.129	-0.038	0.005
-561.529	11.168	-0.154	0.118
-560.515	5.528	-0.386	0.286
-559.500	-200.000	-0.001	0.126
-558.485	-200.000	0.008	0.128
-557.471	-200.000	0.030	-0.311
-556.456	101.396	-0.191	-0.223
-555.442	120.775	0.198	-0.246
-554.427	-74.612	-0.040	0.014
-553.412	-200.000	-0.003	0.293
-552.398	-30.126	0.037	-0.021
-551.383	397.268	0.102	-0.214
-550.369	800.000	-0.089	0.304
-549.354	-97.372	-0.143	-0.037
-548.339	-3.535	0.286	-0.199
-547.325	185.396	0.188	0.279
-546.310	14.064	-0.113	-0.088
-545.296	25.579	-0.330	0.275
-544.281	-200.000	0.016	0.463
-543.266	63.965	0.152	-0.153
-542.252	-71.110	0.039	-0.015
-541.237	335.388	0.089	-0.174
-540.223	-1.315	-0.166	-0.117
-539.208	152.102	0.060	-0.083
-538.193	-53.816	-0.232	-0.106
-537.179	100.001	0.129	0.150
-536.164	153.202	-0.091	0.124
-535.150	-128.595	-0.320	-0.045
-534.135	13.462	-0.142	-0.110
-533.121	-131.585	0.044	0.006
-532.106	800.000	-0.030	-0.119
-531.091	800.000	0.075	0.223
-530.077	36.268	-0.161	-0.142
-529.062	-200.000	-0.018	-0.156
-528.048	156.516	0.183	-0.252
-527.033	190.710	0.143	-0.215
-526.018	-44.095	-0.248	-0.125
-525.004	12.117	-0.221	0.170
-523.989	132.092	-0.120	0.154
-522.975	488.379	-0.121	0.276
-521.960	-35.379	-0.065	0.035
-520.945	-52.478	-0.192	0.089
-519.931	-70.897	-0.112	0.042
-518.916	-81.639	0.235	-0.077
-517.902	-115.033	0.471	0.090
-516.887	189.379	0.135	-0.202
-515.872	-4.760	-0.193	0.133
-514.858	-122.606	-0.256	-0.041
-513.843	13.411	-0.089	0.069
-512.829	-153.940	-0.166	0.011
-511.814	60.881	-0.135	0.133
-510.799	-18.793	-0.174	0.108
-509.785	-56.748	0.261	0.115
-508.770	800.000	0.056	-0.174
-507.756	-111.822	0.228	-0.046
-506.741	-60.274	0.289	-0.123
-505.726	583.058	0.083	-0.203
-504.712	-189.018	-0.105	-0.001
-503.697	-19.166	0.208	-0.129
-502.683	-35.489	0.103	-0.056
-501.668	-200.000	0.001	0.206
-500.653	800.000	0.066	0.253
-499.639	-147.350	0.115	0.010
-498.624	236.506	0.085	0.140
-497.610	43.874	0.200	0.183
-496.595	-122.193	-0.080	0.013
-495.581	-200.000	0.010	0.118
-494.566	-94.504	-0.233	0.063
-493.551	391.339	-0.052	-0.107
-492.537	652.013	-0.084	0.214
-491.522	47.635	0.118	-0.110
-490.508	-95.398	-0.137	0.037
-489.493	70.980	0.101	0.105
-488.478	-120.855	0.084	-0.014
-487.464	-32.163	0.174	-0.097
-486.449	-148.222	0.113	-0.009
-485.435	-64.272	-0.120	-0.049
-484.420	57.507	0.261	-0.255
-483.405	690.165	0.084	-0.221
-482.391	-157.449	0.224	-0.013
-481.376	138.287	-0.043	-0.057
-480.362	-27.864	0.055	0.032
-479.347	-124.259	0.285	-0.045
-478.332	62.190	0.083	-0.083
-477.318	-200.000	0.034	-0.193
-476.303	24.363	-0.296	-0.244
-475.289	25.348	0.106	0.088
-474.274	376.304	-0.168	0.342
-473.259	-200.000	-0.031	0.211
-472.245	-200.000	-0.010	-0.319
-471.230	800.000	0.075	-0.210
-470.216	-86.063	0.291	-0.090
-469.201	-200.000	-0.011	-0.135
-468.186	-144.539	-0.099	-0.009
-467.172	301.211	0.081	0.149
-466.157	51.221	0.158	0.150
-465.143	202.301	0.318	-0.490
-464.128	276.641	0.122	-0.217
-463.113	636.582	-0.037	-0.095
-462.099	19.028	-0.079	0.063
-461.084	554.662	0.166	0.399
-460.070	23.587	-0.126	-0.104
-459.055	156.258	-0.096	-0.132
-458.040	92.958	0.248	0.279
-457.026	262.155	0.153	0.264
-456.011	-200.000	-0.028	-0.202
-454.997	-200.000	-0.027	0.202
-453.982	-200.000	-0.050	-0.280
-452.968	140.251	0.056	-0.074
-451.953	800.000	0.080	0.267
-450.938	-184.440	0.169	0.003
-449.924	-118.129	-0.115	-0.020
-448.909	800.000	-0.101	-0.443
-447.895	129.023	0.212	-0.270
-446.880	-32.975	0.330	-0.183
-445.865	-18.590	0.263	0.164
-444.851	330.061	-0.033	-0.063
-443.836	-38.072	-0.208	-0.110
-442.822	-200.000	-0.033	-0.149
-441.807	138.447	0.111	0.145
-440.792	-200.000	-0.006	0.165
-439.778	-35.998	0.084	0.045
-438.763	-141.357	-0.160	-0.016
-437.749	800.000	0.037	-0.141
-436.734	-33.959	0.226	0.124
-435.719	-129.111	-0.262	-0.037
-434.705	-177.954	-0.228	0.005
-433.690	800.000	0.044	-0.146
-432.676	131.268	-0.335	0.429
-431.661	126.110	0.276	0.348
-430.646	311.403	-0.080	0.150
-429.632	607.359	-0.076	0.189
-428.617	800.000	0.112	-0.358
-427.603	-25.189	0.148	-0.087
-426.588	61.217	-0.155	-0.154
-425.573	-96.864	0.319	-0.084
-424.559	115.509	-0.231	0.281
-423.544	37.256	-0.166	0.147
-422.530	-15.387	-0.183	-0.117
-421.515	102.702	-0.157	0.183
-420.500	552.276	0.159	0.379
-419.486	-200.000	-0.036	0.204
-418.471	42.852	-0.073	-0.066
-417.457	-83.168	0.392	0.126
-416.442	-122.982	-0.159	-0.025
-415.428	437.707	0.145	-0.315
-414.413	210.665	0.226	-0.355
-413.398	51.602	-0.098	-0.093
-412.384	6.885	-0.376	0.279
-411.369	735.236	-0.022	0.059
-410.355	-200.000	-0.026	-0.143
-409.340	26.174	-0.033	0.027
-408.325	259.156	0.052	-0.090
-407.311	800.000	-0.045	0.124
-406.296	-184.518	-0.565	0.009
-405.282	-57.582	-0.079	0.035
-404.267	-200.000	0.032	-0.164
-403.252	-17.851	0.095	-0.059
-402.238	-200.000	-0.017	0.075
-401.223	-200.000	-0.041	-0.218
-400.209	145.467	0.176	-0.235
-399.194	-33.544	0.306	0.168
-398.179	-136.270	-0.311	0.036
-397.165	800.000	-0.066	-0.216
-396.150	785.725	0.148	0.405
-395.136	-80.707	0.154	0.051
-394.121	-200.000	0.044	-0.264
-393.106	-34.506	0.217	0.118
-392.092	-81.788	-0.092	-0.030
-391.077	109.727	-0.137	0.164
-390.063	312.438	0.215	-0.401
-389.048	325.884	-0.166	-0.317
-388.033	5.670	-0.197	0.145
-387.019	-106.404	-0.156	0.035
-386.004	-48.013	-0.287	0.138
-384.990	-48.893	-0.329	0.157
-383.975	231.309	-0.186	0.304
-382.960	379.551	0.064	-0.130
-381.946	-76.270	-0.133	-0.047
-380.931	-13.285	-0.155	0.100
-379.917	-122.744	-0.145	0.023
-378.902	89.787	0.235	0.261
-377.888	-200.000	0.000	-0.057
-376.873	19.132	-0.307	-0.245
-375.858	-147.358	-0.182	0.015
-374.844	358.880	0.154	-0.305
-373.829	-48.118	0.291	-0.140
-372.815	-200.000	0.005	-0.031
-371.800	-86.398	-0.391	0.120
-370.785	338.755	-0.086	0.167
-369.771	-200.000	-0.021	-0.223
-368.756	-200.000	-0.014	0.271
-367.742	-80.124	-0.193	-0.064
-366.727	156.143	0.036	0.049
-365.712	-30.871	-0.232	-0.131
-364.698	800.000	-0.087	-0.268
-363.683	70.734	0.087	0.089
-362.669	-200.000	0.003	0.266
-361.654	-115.959	0.189	0.035
-360.639	-200.000	-0.001	0.231
-359.625	-200.000	0.011	-0.070
-358.610	-143.830	-0.119	0.011
-357.596	8.648	-0.212	0.158
-356.581	523.506	0.019	0.044
-355.566	100.410	0.143	0.165
-354.552	210.589	-0.091	-0.142
-353.537	-200.000	0.028	0.366
-352.523	-73.508	-0.237	0.086
-351.508	165.627	-0.096	0.135
-350.493	760.707	0.063	0.169
-349.479	-78.341	-0.406	-0.138
-348.464	14.111	0.337	0.261
-347.450	72.712	-0.127	0.132
-346.435	551.034	0.158	0.377
-345.420	-200.000	0.004	-0.033
-344.406	634.532	-0.125	-0.315
-343.391	-200.000	-0.011	-0.050
-342.377	-152.251	-0.106	-0.008
-341.362	-107.700	-0.024	-0.005
-340.348	-34.414	-0.022	-0.012
-339.333	-57.684	0.218	-0.095
-338.318	268.164	-0.183	0.319
-337.304	800.000	-0.133	0.387
-336.289	-200.000	0.014	0.204
-335.275	79.384	0.082	0.088
-334.260	800.000	0.020	-0.060
-333.245	-200.000	0.043	0.199
-332.231	-104.816	0.093	-0.021
-331.216	431.396	-0.045	-0.097
-330.202	111.346	-0.153	-0.184
-329.187	48.437	-0.172	0.160
-328.172	-200.000	0.049	-0.333
-327.158	123.911	0.118	0.148
-326.143	-157.401	0.100	0.006
-325.129	186.247	0.281	0.415
-324.114	-73.609	0.423	-0.153
-323.099	800.000	-0.043	0.162
-322.085	-200.000	-0.002	0.416
-321.070	-41.041	-0.083	-0.042
-320.056	800.000	0.102	-0.426
-319.041	-82.545	0.365	-0.118
-318.026	-200.000	-0.016	-0.103
-317.012	-2.319	0.191	0.133
-315.997	-200.000	-0.013	-0.270
-314.983	257.082	0.058	0.098
-313.968	-200.000	0.009	0.170
-312.953	244.457	0.139	-0.232
-311.939	702.360	-0.113	0.296
-310.924	1.816	-0.283	-0.203
-309.910	-161.815	0.216	-0.011
-308.895	-82.401	0.277	0.089
-307.880	-115.656	0.075	-0.014
-306.866	-43.376	0.310	-0.155
-305.851	-66.595	-0.181	0.071
-304.837	-52.833	-0.282	-0.129
-303.822	-117.609	0.261	0.047
-302.807	654.605	-0.048	0.122
-301.793	-39.374	0.075	-0.039
-300.778	800.000	0.090	0.249
-299.764	-38.288	-0.147	0.077
-298.749	4.216	-0.182	0.132
-297.735	-128.709	0.120	0.017
-296.720	385.353	0.107	-0.218
-295.705	324.415	0.066	-0.126
-294.691	800.000	-0.052	0.221
-293.676	64.323	0.114	0.114
-292.662	90.722	0.199	-0.221
-291.647	800.000	-0.068	0.203
-290.632	66.593	0.388	-0.392
-289.618	800.000	0.067	0.209
-288.603	-200.000	-0.013	-0.153
-287.589	-119.612	0.192	-0.033
-286.574	-200.000	0.007	0.192
-285.559	-187.016	-0.027	0.000
-284.545	-72.940	0.262	0.095
-283.530	198.617	0.123	0.187
-282.516	19.975	-0.179	0.143
-281.501	51.558	-0.056	-0.053
-280.486	229.947	0.147	0.238
-279.472	257.428	0.094	0.160
-278.457	11.323	0.120	-0.091
-277.443	-133.450	-0.358	0.045
-276.428	-155.853	-0.339	-0.021
-275.413	-136.171	0.363	-0.042
-274.399	800.000	0.069	0.192
-273.384	-200.000	0.001	-0.101
-272.370	-56.275	0.038	-0.017
-271.355	-28.902	-0.093	-0.053
-270.340	-94.639	-0.330	-0.089
-269.326	236.421	-0.171	-0.280
-268.311	-111.690	0.076	0.015
-267.297	-71.337	-0.110	0.041
-266.282	800.000	-0.118	-0.340
-265.267	594.776	0.017	-0.041
-264.253	-116.899	-0.165	-0.030
-263.238	-60.746	-0.238	-0.100
-262.224	800.000	0.075	-0.228
-261.209	-49.234	-0.195	0.092
-260.195	-200.000	-0.026	-0.472
-259.180	-167.609	-0.280	0.011
-258.165	800.000	-0.043	-0.156
-257.151	260.293	0.122	0.209
-256.136	-5.878	0.128	0.087
-255.122	90.954	-0.185	-0.206
-254.107	800.000	-0.049	-0.189
-253.092	24.160	-0.118	-0.096
-252.078	39.720	-0.283	0.251
-251.063	199.483	0.092	0.140
-250.049	800.000	0.145	0.408
-249.034	56.559	-0.241	-0.232
-248.019	-200.000	-0.059	-0.266
-247.005	-37.925	-0.291	-0.153
-245.990	764.188	-0.070	-0.187
-244.976	37.429	0.250	0.219
-243.961	130.806	-0.113	-0.143
-242.946	-200.000	-0.008	-0.063
-241.932	-124.352	0.380	-0.059
-240.917	38.475	0.222	-0.195
-239.903	284.032	-0.170	-0.302
-238.888	37.912	0.143	0.126
-237.873	-200.000	-0.013	-0.129
-236.859	28.016	0.182	0.152
-235.844	-200.000	0.026	-0.151
-234.830	480.371	-0.073	-0.164
-233.815	-110.438	0.073	0.015
-232.800	-105.919	-0.083	0.019
-231.786	-114.590	-0.058	-0.011
-230.771	-105.952	0.237	0.053
-229.757	-200.000	0.026	0.118
-228.742	199.597	-0.075	-0.114
-227.727	-22.389	-0.113	-0.068
-226.713	-200.000	-0.014	-0.225
-225.698	-87.202	0.185	-0.056
-224.684	1.356	0.294	-0.209
-223.669	338.285	0.105	0.202
-222.655	-129.668	-0.185	0.025
-221.640	-62.707	0.184	0.075
-220.625	98.453	-0.230	-0.262
-219.611	12.577	0.310	-0.237
-218.596	-35.737	-0.320	-0.171
-217.582	-111.799	0.140	0.028
-216.567	800.000	-0.026	-0.073
-215.552	-200.000	-0.009	0.163
-214.538	-52.081	-0.034	0.015
-213.523	-200.000	-0.003	0.212
-212.509	-15.311	0.132	-0.084
-211.494	-68.851	-0.217	0.083
-210.479	105.134	0.132	0.154
-209.465	800.000	-0.070	0.210
-208.450	117.241	0.029	0.035
-207.436	-200.000	-0.066	0.372
-206.421	-106.930	-0.178	0.039
-205.406	-50.125	0.274	-0.128
-204.392	-131.727	-0.136	-0.018
-203.377	25.298	-0.077	0.063
-202.363	-17.950	-0.089	-0.055
-201.348	247.875	0.178	-0.297
-200.333	-55.482	0.209	0.092
-199.319	122.135	0.235	-0.290
-198.304	572.065	-0.053	-0.128
-197.290	223.083	-0.155	-0.246
-196.275	330.427	0.101	-0.192
-195.260	-145.956	-0.247	-0.022
-194.246	272.892	0.114	-0.199
-193.231	-63.954	-0.189	-0.076
-192.217	-200.000	0.074	0.332
-191.202	-200.000	0.055	-0.302
-190.187	-200.000	0.005	-0.039
-189.173	-85.161	-0.110	0.034
-188.158	-200.000	-0.018	-0.104
-187.144	-103.941	-0.320	-0.074
-186.129	-133.770	0.274	-0.034
-185.114	-51.251	0.373	-0.173
-184.100	64.499	0.123	0.123
-183.085	-200.000	-0.223	-0.000
-182.071	800.000	-0.108	0.349
-181.056	800.000	-0.021	0.058
-180.042	800.000	-0.036	0.122
-179.027	800.000	-0.069	-0.271
-178.012	349.798	-0.130	-0.254
-176.998	285.609	0.073	-0.130
-175.983	-91.961	0.101	0.028
-174.969	411.602	0.153	0.322
-173.954	63.447	-0.167	-0.166
-172.939	-91.306	0.277	-0.078
-171.925	-200.000	0.009	0.139
-170.910	800.000	0.122	0.341
-169.896	205.351	-0.180	0.276
-168.881	-136.861	-0.214	0.024
-167.866	-200.000	0.098	0.491
-166.852	237.270	0.163	-0.266
-165.837	-8.845	0.040	-0.027
-164.823	-84.081	-0.075	-0.023
-163.808	-70.238	-0.315	0.118
-162.793	-200.000	0.043	0.194
-161.779	-3.687	-0.256	-0.175
-160.764	-37.770	0.292	-0.153
-159.750	-58.738	0.190	0.081
-158.735	24.430	0.261	0.213
-157.720	237.441	0.168	0.275
-156.706	-128.078	-0.044	-0.006
-155.691	-162.563	0.154	0.007
-154.677	-87.660	0.324	-0.096
-153.662	-32.191	-0.198	0.109
-152.647	-22.637	0.322	0.192
-151.633	-42.741	0.226	-0.113
-150.618	683.667	0.056	-0.145
-149.604	-143.941	-0.354	-0.033
-148.589	305.527	-0.126	0.231
-147.574	-200.000	-0.016	-0.221
-146.560	-81.960	0.117	-0.038
-145.545	4.977	-0.299	-0.217
-144.531	105.012	-0.107	-0.125
-143.516	245.353	0.055	-0.092
-142.502	-200.000	0.035	-0.364
-141.487	-94.140	0.292	0.079
-140.472	-65.582	-0.198	-0.078
-139.458	-96.098	0.310	-0.081
-138.443	19.746	-0.247	0.196
-137.429	-48.230	0.302	0.144
-136.414	-82.502	0.190	0.061
-135.399	59.419	-0.093	0.091
-134.385	-108.271	-0.252	0.054
-133.370	800.000	0.060	0.234
-132.356	-127.422	0.374	-0.054
-131.341	-86.578	0.385	0.116
-130.326	-57.184	-0.094	-0.041
-129.312	-140.082	0.105	0.011
-128.297	-139.413	0.123	0.013
-127.283	-68.181	0.148	-0.057
-126.268	51.819	0.052	0.049
-125.253	343.404	-0.063	0.122
-124.239	-110.474	0.219	0.045
-123.224	800.000	0.077	0.244
-122.210	117.720	0.157	0.190
-121.195	-145.639	0.262	-0.023
