DTS Sentinel unit serial number:	SN413079Multiplexer serial number:	ORYXHardware model number:	OX4-SRSoftware version number:	ORYX F/W v4.00 Oryx Data Collector v3.7.2.0data status	okinstallation	princeton_trtdifferential loss correction	single-endedforward channel	channel 2reverse channel	N/Adate	2019/09/12time	18:49:49forward acquisition time	15.00reverse acquisition time	0.00gamma	496.2192k internal	0.2324k external	0.2324temperature offset calibration	1.0139default loss term (dB/km)	0.3790temperature slope calibration	1.0000multiplexer offset coefficient	1.0000multiplexer slope coefficient	1.0000fibre end	0.00T internal ref (°C)	32.94T ext. ref 1 (°C)	3.01T ext. ref 2 (°C)	27.45length (m)	temperature (°C)	Stokes	anti-Stokes-747.200	-78.083	-0.269	-0.094
-746.185	478.863	-0.147	0.337
-745.171	350.804	-0.198	0.396
-744.156	-130.638	-0.293	0.040
-743.142	800.000	-0.059	0.216
-742.127	-29.334	0.554	0.320
-741.112	-114.352	0.690	0.134
-740.098	104.269	0.807	0.958
-739.083	-90.179	0.524	0.154
-738.069	-41.479	0.314	-0.163
-737.054	4.598	-0.278	0.206
-736.039	21.869	0.504	0.414
-735.025	-95.073	0.110	-0.030
-734.010	-94.343	-0.278	0.077
-732.996	164.806	-0.412	-0.587
-731.981	-200.000	-0.002	-0.243
-730.966	-125.955	1.547	0.235
-729.952	39.550	-0.196	0.177
-728.937	-42.183	0.155	-0.080
-727.923	51.967	-0.045	0.044
-726.908	311.089	0.358	0.677
-725.894	-27.507	-0.448	-0.263
-724.879	-67.225	0.585	-0.232
-723.864	-46.066	0.756	-0.376
-722.850	392.245	-0.254	-0.532
-721.835	423.908	-0.378	0.821
-720.821	-78.039	-0.262	-0.091
-719.806	206.283	-0.087	-0.137
-718.791	-2.091	-0.407	-0.288
-717.777	800.000	0.269	0.901
-716.762	143.600	0.489	-0.656
-715.748	388.681	0.323	0.675
-714.733	-134.018	-0.973	-0.121
-713.718	324.857	0.186	-0.359
-712.704	-200.000	-0.008	0.192
-711.689	-92.010	-0.459	0.131
-710.675	800.000	0.199	0.711
-709.660	181.742	-0.147	-0.218
-708.645	28.967	0.503	0.430
-707.631	-2.222	-0.729	0.516
-706.616	-6.516	0.296	0.203
-705.602	-200.000	-0.155	-0.971
-704.587	41.688	-0.667	0.609
-703.572	-98.903	0.725	0.186
-702.558	-60.130	-0.377	-0.162
-701.543	800.000	0.076	-0.319
-700.529	-184.684	-0.769	0.012
-699.514	-200.000	-0.216	1.174
-698.499	-143.958	0.206	0.019
-697.485	-200.000	-0.040	0.677
-696.470	800.000	-0.299	1.017
-695.456	617.863	0.132	-0.333
-694.441	-124.048	-0.141	-0.022
-693.426	317.505	-0.312	-0.594
-692.412	2.107	-0.447	-0.325
-691.397	225.892	0.251	-0.409
-690.383	-200.000	-0.119	-1.179
-689.368	-126.017	-0.066	-0.010
-688.354	-40.261	0.119	-0.063
-687.339	-46.885	0.592	-0.292
-686.324	103.911	0.231	-0.273
-685.310	-200.000	-0.099	0.726
-684.295	-86.167	-0.475	0.148
-683.281	800.000	-0.058	0.245
-682.266	-200.000	0.007	0.344
-681.251	-70.387	0.336	-0.128
-680.237	61.804	-0.630	0.632
-679.222	-200.000	-0.064	0.337
-678.208	136.511	0.359	0.472
-677.193	1.537	0.465	0.337
-676.178	-129.734	-1.178	-0.163
-675.164	1.905	-0.524	-0.380
-674.149	-4.234	0.148	-0.103
-673.135	-68.550	0.231	0.090
-672.120	134.193	0.787	1.027
-671.105	132.869	-0.520	0.675
-670.091	-200.000	-0.038	0.219
-669.076	419.486	-0.263	0.567
-668.062	-78.563	-0.454	0.156
-667.047	82.322	-0.118	-0.129
-666.032	-200.000	0.015	0.247
-665.018	681.587	0.241	-0.632
-664.003	615.026	-0.119	0.299
-662.989	-92.670	0.554	0.156
-661.974	426.983	0.432	-0.937
-660.959	-101.150	0.615	-0.152
-659.945	-78.110	0.340	-0.118
-658.930	-13.740	-0.802	-0.522
-657.916	749.499	0.295	-0.800
-656.901	-41.329	-0.646	-0.335
-655.886	-91.270	0.578	-0.166
-654.872	127.622	0.415	-0.530
-653.857	800.000	0.234	0.762
-652.843	17.593	0.600	0.480
-651.828	-152.174	0.206	0.015
-650.814	-200.000	0.117	0.632
-649.799	-91.454	0.567	-0.163
-648.784	754.624	0.377	-1.025
-647.770	4.402	0.753	0.555
-646.755	-200.000	0.072	-0.453
-645.741	346.368	-0.306	-0.605
-644.726	-0.804	0.565	0.403
-643.711	-64.641	-0.287	0.117
-642.697	159.502	-0.491	-0.687
-641.682	49.277	-0.545	0.515
-640.668	147.967	0.395	0.535
-639.653	-158.250	-0.519	-0.030
-638.638	29.157	0.882	-0.753
-637.624	-200.000	-0.027	-0.423
-636.609	-200.000	-0.043	-0.642
-635.595	-127.583	0.404	0.059
-634.580	-200.000	-0.027	0.537
-633.565	735.875	-0.153	-0.413
-632.551	181.930	-0.297	0.440
-631.536	-7.876	-0.527	0.358
-630.522	142.614	-0.057	0.075
-629.507	-200.000	-0.009	-0.178
-628.492	-110.374	-0.404	-0.084
-627.478	137.955	0.289	0.380
-626.463	-200.000	0.155	-1.003
-625.449	16.363	-0.252	-0.200
-624.434	-54.357	-0.776	0.354
-623.419	77.564	0.483	0.517
-622.405	-36.113	0.296	-0.161
-621.390	-200.000	-0.049	-0.346
-620.376	800.000	0.064	-0.276
-619.361	-67.387	-0.282	0.111
-618.346	800.000	-0.333	0.963
-617.332	-79.520	-0.288	0.098
-616.317	141.919	0.214	0.284
-615.303	119.231	0.656	-0.815
-614.288	21.509	0.399	-0.326
-613.273	34.082	0.390	0.341
-612.259	767.323	-0.109	0.299
-611.244	759.064	-0.094	-0.255
-610.230	60.095	-0.445	0.442
-609.215	-141.253	-0.940	0.096
-608.201	278.902	-0.396	-0.709
-607.186	154.404	0.269	0.371
-606.171	247.999	0.372	-0.632
-605.157	-21.483	0.709	-0.434
-604.142	800.000	0.267	-0.884
-603.128	-53.717	0.303	0.139
-602.113	356.212	0.144	0.287
-601.098	773.312	0.250	-0.683
-600.084	800.000	-0.050	0.152
-599.069	11.892	-0.203	0.157
-598.055	650.787	-0.263	0.676
-597.040	161.129	0.410	-0.575
-596.025	-72.047	-0.568	0.212
-595.011	-200.000	-0.013	0.124
-593.996	18.661	-0.431	-0.346
-592.982	-102.013	-0.309	0.075
-591.967	75.754	0.301	0.319
-590.952	50.221	-0.478	-0.453
-589.938	42.505	0.452	-0.412
-588.923	-69.633	0.427	0.164
-587.909	29.418	-0.518	0.442
-586.894	-200.000	0.043	0.616
-585.879	5.062	0.602	0.444
-584.865	-200.000	0.141	0.961
-583.850	51.846	-0.304	0.290
-582.836	-132.768	-0.413	-0.053
-581.821	165.537	0.609	0.863
-580.806	96.602	-0.534	-0.613
-579.792	69.730	-0.583	0.602
-578.777	8.958	-0.381	0.288
-577.763	-82.630	0.776	-0.252
-576.748	-120.837	-0.317	0.054
-575.733	-63.837	-0.479	-0.197
-574.719	530.453	0.107	-0.254
-573.704	164.096	0.230	0.325
-572.690	-200.000	0.068	0.303
-571.675	-12.112	0.444	0.292
-570.661	-140.706	-0.268	0.028
-569.646	-49.775	-1.244	-0.592
-568.631	-200.000	0.029	-0.224
-567.617	303.595	-0.358	-0.666
-566.602	-73.347	-0.545	0.200
-565.588	59.073	0.641	-0.633
-564.573	117.709	-0.522	0.644
-563.558	-200.000	-0.075	0.577
-562.544	-157.453	-0.469	0.028
-561.529	-200.000	0.012	0.069
-560.515	-32.914	-0.797	0.443
-559.500	-200.000	0.167	-1.156
-558.485	167.108	0.311	-0.442
-557.471	51.752	0.079	0.075
-556.456	100.261	-0.281	-0.327
-555.442	-200.000	0.144	-0.641
-554.427	-200.000	-0.009	0.282
-553.412	-200.000	-0.026	0.601
-552.398	-60.957	0.834	0.353
-551.383	-200.000	-0.048	0.609
-550.369	-160.259	0.648	0.035
-549.354	-200.000	-0.013	0.763
-548.339	42.677	-0.347	0.316
-547.325	-133.046	0.912	-0.116
-546.310	-200.000	-0.036	0.324
-545.296	-3.126	-0.238	0.166
-544.281	800.000	0.284	0.919
-543.266	81.619	0.182	0.198
-542.252	14.372	0.288	0.225
-541.237	-38.586	-0.216	-0.114
-540.223	-65.192	0.411	0.166
-539.208	-200.000	-0.018	-0.186
-538.193	-34.156	-0.533	0.293
-537.179	-116.872	-0.288	-0.053
-536.164	-44.464	0.281	0.141
-535.150	-129.831	-0.340	0.047
-534.135	-128.561	0.776	0.110
-533.121	227.355	-0.185	-0.300
-532.106	-147.552	-1.013	0.085
-531.091	83.129	0.110	-0.120
-530.077	-66.458	-1.085	-0.431
-529.062	-200.000	0.058	-0.480
-528.048	20.112	0.124	-0.100
-527.033	26.090	-0.404	-0.337
-526.018	800.000	-0.264	0.881
-525.004	424.971	0.340	-0.733
-523.989	-152.811	-0.546	-0.039
-522.975	-46.397	0.461	0.227
-521.960	-66.201	-0.186	0.074
-520.945	-200.000	0.061	-0.294
-519.931	-125.511	-1.182	0.180
-518.916	-200.000	-0.039	-0.246
-517.902	40.336	0.210	-0.189
-516.887	151.373	0.819	1.116
-515.872	18.149	0.625	0.499
-514.858	-33.089	0.048	-0.027
-513.843	-66.907	-0.435	0.172
-512.829	-28.604	-0.637	-0.367
-511.814	-200.000	0.024	0.681
-510.799	800.000	0.079	-0.261
-509.785	128.585	0.451	-0.575
-508.770	-200.000	0.079	-0.800
-507.756	-107.609	0.895	-0.196
-506.741	800.000	0.163	0.658
-505.726	-41.850	-0.723	0.371
-504.712	-200.000	0.181	1.050
-503.697	-32.627	0.879	0.489
-502.683	14.180	-0.396	0.308
-501.668	-58.669	-0.397	0.172
-500.653	-184.544	0.526	-0.009
-499.639	14.181	-0.278	-0.216
-498.624	-140.576	-0.410	0.043
-497.610	18.616	-0.079	0.063
-496.595	-116.123	-0.682	-0.127
-495.581	800.000	0.056	0.194
-494.566	366.495	0.152	-0.306
-493.551	32.843	-0.371	0.321
-492.537	-2.599	0.476	0.333
-491.522	-151.545	-0.283	0.021
-490.508	-69.681	0.677	-0.259
-489.493	-200.000	0.023	0.332
-488.478	540.951	0.118	0.282
-487.464	230.809	-0.339	-0.555
-486.449	800.000	0.026	0.079
-485.435	37.022	-0.795	-0.702
-484.420	-170.765	0.615	0.021
-483.405	54.718	0.455	0.439
-482.391	80.668	-0.363	-0.391
-481.376	-23.913	0.355	-0.212
-480.362	-45.308	-0.739	-0.367
-479.347	-200.000	-0.031	0.196
-478.332	60.906	0.223	0.221
-477.318	126.497	-0.333	0.421
-476.303	71.553	0.332	0.345
-475.289	50.847	-0.357	-0.338
-474.274	-77.165	0.560	-0.195
-473.259	-27.359	0.515	0.299
-472.245	-114.352	-0.946	0.182
-471.230	-98.113	0.600	0.154
-470.216	800.000	0.279	-0.774
-469.201	141.370	-0.521	-0.689
-468.186	-127.378	0.412	0.060
-467.172	404.292	-0.291	-0.612
-466.157	-200.000	0.047	0.301
-465.143	-93.185	-0.203	-0.056
-464.128	-128.612	0.373	0.053
-463.113	455.489	0.466	-1.032
-462.099	-29.964	-0.621	-0.353
-461.084	-117.229	1.011	0.183
-460.070	-151.404	0.736	0.055
-459.055	69.352	-0.444	0.456
-458.040	800.000	-0.060	-0.256
-457.026	-24.399	-0.281	0.167
-456.011	-200.000	0.101	-0.483
-454.997	0.405	0.526	0.375
-453.982	184.908	-0.333	0.493
-452.968	-200.000	0.023	0.271
-451.953	-90.478	-0.495	0.143
-450.938	158.935	0.317	0.439
-449.924	619.849	-0.271	-0.679
-448.909	-91.382	0.408	-0.116
-447.895	127.427	-0.022	0.028
-446.880	74.334	-0.238	-0.249
-445.865	-50.738	-0.400	-0.188
-444.851	-138.364	-1.058	-0.116
-443.836	-200.000	0.017	0.167
-442.822	317.069	-0.230	0.433
-441.807	-200.000	0.006	0.493
-440.792	-165.808	-0.464	0.020
-439.778	-107.018	-0.400	0.088
-438.763	-200.000	-0.036	0.656
-437.749	-200.000	0.061	0.534
-436.734	-109.354	-0.199	0.042
-435.719	28.970	0.157	-0.133
-434.705	800.000	0.092	-0.319
-433.690	19.838	0.129	0.104
-432.676	-96.689	-0.224	-0.059
-431.661	606.834	0.254	0.630
-430.646	-98.518	0.426	0.109
-429.632	73.875	0.475	0.497
-428.617	-156.023	-0.257	-0.016
-427.603	105.604	-0.376	-0.443
-426.588	-101.430	0.918	0.223
-425.573	-102.940	-0.307	0.073
-424.559	321.680	-0.211	0.400
-423.544	-108.585	-0.201	0.043
-422.530	-86.561	-0.248	0.076
-421.515	-37.204	0.401	-0.214
-420.500	-200.000	-0.055	0.633
-419.486	-200.000	0.018	-0.197
-418.471	-200.000	0.111	-0.531
-417.457	-200.000	0.015	0.119
-416.442	216.485	0.457	0.725
-415.428	-196.494	-0.797	0.005
-414.413	-91.439	0.708	0.201
-413.398	346.548	-0.478	-0.937
-412.384	-35.089	-0.449	-0.244
-411.369	72.598	0.311	-0.323
-410.355	-4.622	0.331	0.228
-409.340	800.000	-0.269	-0.970
-408.325	-200.000	-0.014	0.307
-407.311	254.013	0.070	-0.119
-406.296	49.940	0.466	-0.438
-405.282	81.364	-0.470	-0.506
-404.267	-108.299	0.824	-0.177
-403.252	153.202	-0.339	-0.462
-402.238	-67.104	-0.577	-0.227
-401.223	276.773	0.162	0.287
-400.209	-44.891	1.007	0.500
-399.194	712.661	0.113	0.299
-398.179	-42.410	-0.291	-0.148
-397.165	50.309	0.415	0.390
-396.150	258.302	-0.333	-0.571
-395.136	-2.390	-0.515	-0.359
-394.121	183.513	-0.147	0.216
-393.106	-24.245	-0.244	0.145
-392.092	-91.303	-0.480	0.137
-391.077	-117.144	-0.864	-0.157
-390.063	-174.531	0.197	0.006
-389.048	-32.524	0.300	0.166
-388.033	126.155	0.499	-0.628
-387.019	-200.000	0.046	-0.292
-386.004	190.833	-0.245	-0.367
-384.990	-81.497	-0.524	-0.172
-383.975	-165.217	0.227	0.010
-382.960	-141.921	0.659	0.066
-381.946	78.464	-0.359	0.382
-380.931	-200.000	-0.024	0.442
-379.917	66.484	-0.335	-0.339
-378.902	67.445	-0.423	-0.430
-377.888	-88.532	-0.722	0.214
-376.873	800.000	-0.238	0.724
-375.858	-80.760	0.328	0.108
-374.844	800.000	0.076	0.238
-373.829	-115.374	-0.601	0.113
-372.815	-77.926	0.148	-0.051
-371.800	3.510	-0.490	0.355
-370.785	-200.000	0.017	0.771
-369.771	-89.978	-0.326	0.095
-368.756	-179.447	1.138	-0.025
-367.742	42.252	-0.439	0.396
-366.727	-200.000	0.141	-0.627
-365.712	126.265	0.551	-0.693
-364.698	-95.834	0.404	-0.107
-363.683	-12.741	-0.465	-0.301
-362.669	-200.000	-0.000	-0.776
-361.654	-13.373	0.487	0.314
-360.639	-200.000	0.035	-0.205
-359.625	-200.000	0.018	-0.854
-358.610	109.934	-0.401	0.478
-357.596	208.630	-0.337	-0.524
-356.581	-117.238	-0.272	-0.049
-355.566	375.083	0.095	-0.192
-354.552	-84.348	-0.866	0.272
-353.537	-200.000	0.040	0.525
-352.523	-200.000	0.005	0.099
-351.508	147.476	-0.122	0.164
-350.493	800.000	-0.245	0.827
-349.479	-48.633	0.730	0.348
-348.464	82.912	0.300	-0.324
-347.450	171.985	0.490	0.700
-346.435	113.899	-0.294	0.356
-345.420	-200.000	0.019	-0.680
-344.406	-101.492	-0.225	-0.054
-343.391	114.903	0.271	0.328
-342.377	-131.006	0.501	0.066
-341.362	135.073	-0.316	-0.408
-340.348	-193.546	0.485	0.004
-339.333	169.791	-0.240	-0.340
-338.318	-57.343	0.264	-0.115
-337.304	-194.019	0.600	0.005
-336.289	46.013	0.601	-0.552
-335.275	-200.000	-0.039	-0.216
-334.260	604.311	-0.244	0.604
-333.245	709.866	0.098	0.257
-332.231	136.182	-0.061	0.079
-331.216	75.149	-0.554	-0.581
-330.202	-5.500	0.883	0.602
-329.187	-86.079	-0.305	-0.093
-328.172	-80.867	-0.698	0.230
-327.158	136.341	0.270	0.350
-326.143	-115.541	0.414	0.077
-325.129	-200.000	-0.018	-0.252
-324.114	-200.000	0.097	0.633
-323.099	166.888	0.125	-0.177
-322.085	-29.415	0.241	0.137
-321.070	195.136	0.437	-0.659
-320.056	800.000	-0.230	-0.797
-319.041	91.973	-0.405	0.452
-318.026	10.482	0.447	-0.338
-317.012	-200.000	-0.070	-0.415
-315.997	211.552	-0.209	-0.327
-314.983	169.592	-0.280	-0.397
-313.968	-46.652	-0.576	0.280
-312.953	238.262	-0.343	-0.566
-311.939	534.198	0.357	-0.840
-310.924	388.524	0.136	-0.280
-309.910	166.568	-0.403	-0.567
-308.895	-54.219	0.587	0.265
-307.880	24.682	0.131	0.108
-306.866	172.787	-0.298	0.425
-305.851	20.109	0.524	0.419
-304.837	-39.121	0.917	-0.478
-303.822	-99.421	-0.216	0.054
-302.807	800.000	0.083	-0.266
-301.793	-114.571	-0.790	-0.150
-300.778	-81.587	0.274	0.089
-299.764	-24.742	0.348	-0.205
-298.749	-42.753	-0.685	-0.345
-297.735	-48.616	-0.248	0.118
-296.720	132.280	0.232	-0.297
-295.705	146.199	-0.074	0.099
-294.691	9.055	0.533	0.399
-293.676	41.059	1.067	0.956
-292.662	-137.170	0.582	-0.066
-291.647	800.000	0.267	0.857
-290.632	-200.000	0.001	-0.309
-289.618	42.506	0.173	-0.156
-288.603	-35.170	0.554	-0.299
-287.589	800.000	-0.248	0.829
-286.574	-200.000	0.026	-0.367
-285.559	394.845	0.200	0.413
-284.545	701.081	0.190	-0.497
-283.530	228.743	0.236	-0.382
-282.516	364.492	-0.205	0.410
-281.501	280.700	-0.355	0.629
-280.486	58.107	-0.361	0.350
-279.472	79.497	-0.267	0.284
-278.457	-200.000	0.040	-0.223
-277.443	161.359	0.393	0.545
-276.428	-66.544	-0.508	0.200
-275.413	14.578	0.458	0.354
-274.399	-34.695	-0.717	0.388
-273.384	-200.000	-0.122	-0.560
-272.370	-80.312	-0.578	-0.191
-271.355	-75.531	-0.848	0.299
-270.340	-95.437	-0.176	0.047
-269.326	467.642	-0.182	0.404
-268.311	800.000	0.360	-1.093
-267.297	-39.968	-0.023	-0.012
-266.282	-137.161	-0.378	0.043
-265.267	297.610	-0.557	-1.013
-264.253	154.534	0.345	0.470
-263.238	-14.354	0.243	-0.155
-262.224	-200.000	0.132	0.850
-261.209	30.614	-0.307	-0.260
-260.195	-180.438	0.583	0.012
-259.180	97.808	0.277	0.316
-258.165	800.000	0.194	0.658
-257.151	26.006	0.415	-0.343
-256.136	-107.625	0.705	-0.153
-255.122	281.533	-0.375	-0.665
-254.107	-29.998	0.151	-0.085
-253.092	-200.000	0.057	0.782
-252.078	-22.208	0.475	-0.285
-251.063	-26.656	-0.932	-0.540
-250.049	442.620	0.248	-0.538
-249.034	800.000	0.165	-0.454
-248.019	61.254	0.214	0.210
-247.005	800.000	0.102	0.390
-245.990	118.571	-0.315	0.384
-244.976	-200.000	-0.023	1.416
-243.961	23.655	0.445	-0.363
-242.946	229.631	-0.637	-1.029
-241.932	-166.895	-0.119	0.005
-240.917	61.656	-0.030	-0.029
-239.903	159.246	-0.168	0.231
-238.888	35.338	-0.865	-0.751
-237.873	268.679	-0.462	0.801
-236.859	440.772	0.210	0.454
-235.844	229.786	0.427	-0.691
-234.830	-111.538	-0.387	0.078
-233.815	388.989	0.263	-0.538
-232.800	66.288	0.346	0.348
-231.786	-82.636	0.404	0.129
-230.771	37.880	0.314	0.276
-229.757	-75.453	0.864	0.304
-228.742	-200.000	0.044	0.723
-227.727	-200.000	-0.096	0.886
-226.713	-57.117	0.359	-0.156
-225.698	-117.746	-0.951	-0.169
-224.684	800.000	0.101	0.310
-223.669	800.000	0.154	-0.652
-222.655	-3.516	-0.391	-0.269
-221.640	-91.342	-0.727	0.205
-220.625	26.726	0.473	0.391
-219.611	175.170	-0.241	0.346
-218.596	-200.000	0.025	-0.182
-217.582	-200.000	0.156	-0.973
-216.567	30.573	-0.209	0.177
-215.552	577.434	0.269	-0.649
-214.538	-74.236	0.363	0.130
-213.523	41.922	0.600	-0.538
-212.509	111.234	0.187	0.223
-211.494	68.900	-0.252	-0.256
-210.479	51.845	0.068	-0.064
-209.465	-85.765	-0.044	0.013
-208.450	316.644	0.117	-0.219
-207.436	84.963	0.074	-0.081
-206.421	-55.643	0.148	-0.065
-205.406	438.408	0.174	0.375
-204.392	101.959	0.761	0.878
-203.377	-140.594	0.079	-0.008
-202.363	-200.000	-0.058	-0.493
-201.348	289.178	-0.350	0.626
-200.333	-69.828	0.110	-0.041
-199.319	-163.491	0.561	0.026
-198.304	-123.465	-0.813	0.128
-197.290	45.957	-0.384	-0.352
-196.275	-153.623	-0.270	0.018
-195.260	800.000	0.266	-0.890
-194.246	800.000	-0.082	-0.260
-193.231	10.238	-0.720	-0.541
-192.217	800.000	0.301	-0.835
-191.202	-140.034	0.287	-0.030
-190.187	-102.055	-0.650	-0.155
-189.173	-73.032	0.769	0.279
-188.158	28.973	-0.089	0.074
-187.144	153.624	-0.596	0.806
-186.129	-200.000	0.079	-0.664
-185.114	-200.000	0.111	-0.704
-184.100	281.589	-0.135	-0.238
-183.085	-200.000	-0.039	-0.199
-182.071	-200.000	-0.117	0.647
-181.056	-200.000	-0.033	-0.270
-180.042	-4.489	0.853	-0.582
-179.027	-67.987	0.508	-0.196
-178.012	1.171	0.667	0.473
-176.998	252.535	-0.519	-0.874
-175.983	176.952	-0.477	-0.685
-174.969	-200.000	-0.012	0.181
-173.954	117.890	0.289	0.352
-172.939	78.786	0.410	0.433
-171.925	800.000	-0.087	-0.276
-170.910	-200.000	-0.077	-0.406
-169.896	-200.000	-0.011	-0.223
-168.881	7.636	0.835	0.617
-167.866	-200.000	-0.130	0.604
-166.852	186.080	0.072	-0.106
-165.837	392.495	-0.337	-0.691
-164.823	43.583	0.161	0.145
-163.808	-200.000	-0.066	0.286
-162.793	800.000	-0.198	0.556
-161.779	-15.151	0.708	0.447
-160.764	-76.082	-0.278	0.097
-159.750	-54.809	-0.653	-0.291
-158.735	-35.726	-0.143	-0.076
-157.720	-92.609	0.443	-0.123
-156.706	270.189	-0.293	-0.507
-155.691	-137.273	0.597	-0.067
-154.677	-150.984	0.343	0.026
-153.662	21.167	-0.417	-0.334
-152.647	-162.298	-0.096	0.005
-151.633	234.196	-0.479	0.779
-150.618	54.470	0.608	0.577
-149.604	800.000	-0.457	1.328
-148.589	204.730	-0.099	-0.151
-147.574	-115.993	-0.189	-0.035
-146.560	-48.704	0.756	0.358
-145.545	115.606	0.580	-0.700
-144.531	597.244	0.374	0.914
-143.516	800.000	0.147	-0.448
-142.502	800.000	-0.132	0.483
-141.487	7.806	-0.700	0.517
-140.472	310.684	0.082	0.152
-139.458	-114.908	-0.892	0.168
-138.443	-47.293	-0.071	0.034
-137.429	-124.083	0.845	-0.131
-136.414	-45.999	-0.345	0.167
-135.399	-128.290	0.230	0.032
-134.385	20.022	-0.676	-0.537
-133.370	-200.000	0.121	0.899
-132.356	326.906	-0.140	0.264
-131.341	-59.161	1.223	-0.520
-130.326	20.694	0.171	-0.136
-129.312	497.787	-0.217	0.492
-128.297	-116.921	0.361	0.065
-127.283	654.297	-0.240	0.607
-126.268	-200.000	0.039	0.850
-125.253	-200.000	0.011	0.678
-124.239	-200.000	0.037	0.598
-123.224	452.155	0.349	-0.760
-122.210	-144.719	-0.544	-0.049
-121.195	-5.043	0.098	0.066
-120.180	800.000	0.140	-0.592
-119.166	187.753	0.044	-0.065
