DTS Sentinel unit serial number:	SN413079Multiplexer serial number:	ORYXHardware model number:	OX4-SRSoftware version number:	ORYX F/W v4.00 Oryx Data Collector v3.7.2.0data status	okinstallation	princeton_trtdifferential loss correction	single-endedforward channel	channel 2reverse channel	N/Adate	2019/09/12time	16:25:10forward acquisition time	60.00reverse acquisition time	0.00gamma	496.2192k internal	0.2319k external	0.2319temperature offset calibration	1.0113default loss term (dB/km)	0.3790temperature slope calibration	1.0000multiplexer offset coefficient	1.0000multiplexer slope coefficient	1.0000fibre end	0.00T internal ref (°C)	37.62T ext. ref 1 (°C)	2.55T ext. ref 2 (°C)	30.25length (m)	temperature (°C)	Stokes	anti-Stokes-747.200	36.799	-0.113	-0.101
-746.185	-96.721	-0.220	0.059
-745.171	-200.000	0.015	0.132
-744.156	118.340	-0.198	0.248
-743.142	-154.085	-0.324	-0.022
-742.127	-112.023	-0.321	0.065
-741.112	-164.416	-0.174	-0.008
-740.098	-200.000	-0.076	0.524
-739.083	-69.289	0.033	-0.013
-738.069	-200.000	-0.034	-0.344
-737.054	-73.696	-0.234	-0.086
-736.039	49.096	-0.203	0.193
-735.025	32.580	0.218	0.191
-734.010	-200.000	-0.548	0.000
-732.996	121.977	0.131	0.166
-731.981	-80.333	-0.150	0.051
-730.966	800.000	-0.025	-0.100
-729.952	222.992	-0.079	-0.128
-728.937	-200.000	-0.040	-0.178
-727.923	-175.507	-0.186	-0.005
-726.908	-72.661	0.459	0.171
-725.894	63.885	-0.181	0.184
-724.879	336.148	0.103	0.202
-723.864	-11.254	0.202	-0.135
-722.850	122.662	0.068	-0.085
-721.835	800.000	-0.064	-0.271
-720.821	46.210	-0.155	0.146
-719.806	750.079	-0.114	-0.310
-718.791	498.335	-0.137	0.319
-717.777	-200.000	0.020	-0.131
-716.762	800.000	-0.094	-0.380
-715.748	-18.759	-0.212	-0.134
-714.733	291.972	0.173	-0.318
-713.718	-200.000	-0.019	-0.209
-712.704	-152.191	-0.052	0.004
-711.689	16.693	-0.311	-0.249
-710.675	-88.076	0.212	0.064
-709.660	118.499	0.111	0.138
-708.645	-13.881	-0.298	0.194
-707.631	412.610	0.096	0.205
-706.616	-43.092	-0.336	-0.172
-705.602	83.712	-0.216	-0.238
-704.587	431.201	0.108	0.235
-703.572	74.419	-0.238	0.252
-702.558	27.746	-0.344	-0.293
-701.543	163.388	-0.111	-0.158
-700.529	-174.636	0.254	-0.007
-699.514	336.990	0.068	0.133
-698.499	95.532	0.130	-0.150
-697.485	-200.000	-0.059	-0.317
-696.470	69.600	-0.053	0.055
-695.456	335.587	-0.095	-0.187
-694.441	-200.000	0.030	-0.216
-693.426	550.770	-0.047	0.114
-692.412	-200.000	0.045	-0.343
-691.397	415.283	0.136	0.292
-690.383	233.488	0.107	0.178
-689.368	800.000	0.033	0.095
-688.354	-200.000	-0.023	-0.266
-687.339	-181.065	0.217	0.004
-686.324	-109.023	0.049	-0.011
-685.310	7.256	-0.104	0.078
-684.295	62.434	0.095	0.096
-683.281	207.133	-0.166	0.261
-682.266	-73.474	-0.392	-0.145
-681.251	219.149	0.082	0.132
-680.237	20.526	0.120	0.098
-679.222	-159.229	-0.260	-0.015
-678.208	186.597	-0.127	0.191
-677.193	-92.731	-0.129	-0.036
-676.178	12.638	0.025	-0.020
-675.164	800.000	-0.112	-0.360
-674.149	800.000	0.056	0.190
-673.135	-200.000	-0.009	0.042
-672.120	-118.532	0.105	0.019
-671.105	126.601	-0.161	-0.205
-670.091	218.634	0.190	-0.307
-669.076	5.755	-0.138	0.103
-668.062	800.000	-0.052	0.152
-667.047	-4.922	0.155	-0.107
-666.032	-200.000	-0.023	-0.262
-665.018	-113.312	0.226	0.045
-664.003	181.079	-0.140	0.207
-662.989	29.895	-0.168	-0.144
-661.974	93.864	-0.202	0.231
-660.959	155.399	-0.186	-0.259
-659.945	509.660	-0.071	-0.167
-658.930	56.146	-0.136	-0.134
-657.916	263.137	-0.092	0.161
-656.901	19.011	0.087	-0.071
-655.886	333.252	-0.166	0.324
-654.872	-200.000	-0.037	-0.470
-653.857	-90.204	-0.240	0.070
-652.843	81.050	-0.305	-0.332
-651.828	354.551	0.114	-0.228
-650.814	-93.743	-0.104	-0.029
-649.799	-128.071	-0.234	-0.034
-648.784	-89.632	0.077	-0.023
-647.770	196.796	-0.102	-0.157
-646.755	-200.000	0.019	-0.310
-645.741	-9.215	0.228	-0.154
-644.726	406.458	-0.167	-0.356
-643.711	-200.000	0.033	-0.184
-642.697	800.000	-0.072	0.208
-641.682	9.206	0.269	0.205
-640.668	257.467	-0.174	0.302
-639.653	-7.909	-0.167	0.114
-638.638	-200.000	-0.029	-0.180
-637.624	-194.422	-0.241	-0.002
-636.609	340.108	0.143	0.281
-635.595	-72.217	-0.299	-0.112
-634.580	-162.283	-0.164	0.008
-633.565	800.000	0.080	-0.294
-632.551	-200.000	0.024	0.449
-631.536	800.000	-0.029	-0.088
-630.522	-200.000	-0.063	-0.427
-629.507	473.196	-0.111	0.252
-628.492	-109.419	0.268	0.057
-627.478	-18.664	-0.164	0.103
-626.463	750.048	-0.089	-0.243
-625.449	192.630	0.198	-0.302
-624.434	-61.034	-0.083	-0.035
-623.419	-200.000	-0.008	-0.415
-622.405	-105.570	-0.509	-0.116
-621.390	204.601	-0.084	-0.132
-620.376	800.000	-0.107	-0.330
-619.361	-200.000	-0.048	-0.321
-618.346	178.990	-0.021	-0.031
-617.332	187.561	0.100	-0.151
-616.317	-49.774	0.448	-0.214
-615.303	415.675	0.121	-0.259
-614.288	-147.644	-0.162	-0.014
-613.273	800.000	0.027	-0.083
-612.259	-30.218	-0.209	-0.120
-611.244	181.011	-0.118	0.174
-610.230	14.830	-0.071	-0.056
-609.215	107.431	0.091	0.109
-608.201	85.247	0.181	-0.199
-607.186	-189.909	0.129	0.001
-606.171	-168.648	0.060	-0.002
-605.157	-99.512	-0.182	-0.046
-604.142	212.098	0.047	-0.075
-603.128	126.466	-0.104	0.133
-602.113	-148.842	0.282	0.023
-601.098	67.944	-0.177	-0.182
-600.084	-169.790	-0.166	0.006
-599.069	136.956	-0.166	0.218
-598.055	137.236	-0.134	-0.177
-597.040	140.304	0.068	-0.090
-596.025	-24.876	-0.361	-0.215
-595.011	-75.559	-0.337	0.121
-593.996	800.000	0.037	0.152
-592.982	-122.351	-0.034	-0.006
-591.967	464.561	0.024	-0.053
-590.952	-159.940	0.097	-0.005
-589.938	-200.000	0.007	-0.142
-588.923	-100.310	-0.360	-0.090
-587.909	800.000	0.033	0.126
-586.894	-200.000	0.030	-0.285
-585.879	-82.963	-0.126	0.041
-584.865	-168.970	-0.217	-0.008
-583.850	-200.000	-0.071	0.565
-582.836	-80.107	-0.245	0.083
-581.821	150.257	0.120	-0.164
-580.806	-101.789	0.164	-0.040
-579.792	-200.000	0.004	-0.194
-578.777	-23.613	0.293	0.177
-577.763	-80.006	0.049	-0.016
-576.748	134.942	-0.184	-0.240
-575.733	174.255	0.159	-0.231
-574.719	-200.000	0.034	0.214
-573.704	77.960	-0.194	0.208
-572.690	-92.769	0.229	0.064
-571.675	800.000	0.030	-0.102
-570.661	-200.000	0.034	-0.299
-569.646	-153.881	-0.375	0.026
-568.631	0.122	-0.284	-0.203
-567.617	227.435	-0.217	0.354
-566.602	-89.252	0.101	-0.030
-565.588	139.650	0.182	-0.241
-564.573	32.379	0.122	-0.105
-563.558	800.000	-0.061	-0.240
-562.544	197.487	0.238	-0.365
-561.529	69.008	0.092	-0.095
-560.515	-200.000	0.008	-0.162
-559.500	128.210	0.131	-0.167
-558.485	-139.276	-0.140	0.015
-557.471	-119.168	-0.261	-0.046
-556.456	-8.524	-0.236	0.160
-555.442	-19.100	-0.052	-0.033
-554.427	117.481	0.035	0.043
-553.412	118.132	0.104	0.129
-552.398	85.341	0.102	-0.113
-551.383	800.000	0.087	-0.309
-550.369	800.000	0.065	0.206
-549.354	153.974	-0.078	-0.108
-548.339	800.000	-0.029	0.104
-547.325	-200.000	0.056	-0.279
-546.310	47.400	-0.123	-0.115
-545.296	-87.022	-0.166	-0.051
-544.281	-11.443	0.045	0.030
-543.266	114.748	-0.108	-0.133
-542.252	-117.285	-0.240	-0.044
-541.237	464.052	0.071	0.159
-540.223	113.838	0.140	0.170
-539.208	-26.500	0.091	0.054
-538.193	-19.904	0.208	-0.129
-537.179	85.804	0.295	-0.325
-536.164	-106.758	-0.191	-0.043
-535.150	187.026	0.159	0.238
-534.135	-200.000	-0.065	-0.363
-533.121	91.779	-0.059	-0.066
-532.106	-200.000	-0.003	-0.148
-531.091	93.692	0.128	0.146
-530.077	316.989	-0.048	-0.091
-529.062	61.800	-0.037	-0.037
-528.048	113.534	0.105	0.128
-527.033	484.229	0.094	0.215
-526.018	-78.364	0.215	-0.074
-525.004	-111.494	-0.328	-0.067
-523.989	-200.000	0.005	-0.164
-522.975	-123.158	0.273	0.044
-521.960	-65.520	-0.147	0.059
-520.945	-41.647	0.096	0.049
-519.931	291.415	0.055	-0.101
-518.916	536.538	0.052	-0.123
-517.902	572.013	0.060	-0.145
-516.887	140.866	0.030	0.040
-515.872	-200.000	0.020	0.201
-514.858	553.894	0.104	-0.250
-513.843	199.494	-0.090	0.138
-512.829	-47.005	-0.382	0.187
-511.814	-200.000	-0.030	0.178
-510.799	129.823	-0.102	-0.131
-509.785	800.000	-0.010	-0.029
-508.770	800.000	-0.031	-0.094
-507.756	18.508	-0.150	0.121
-506.741	3.388	0.052	0.038
-505.726	-179.244	-0.179	0.004
-504.712	-151.485	0.216	-0.016
-503.697	-101.670	-0.309	-0.075
-502.683	-74.810	-0.231	0.083
-501.668	-10.093	-0.192	0.128
-500.653	-65.093	-0.233	0.094
-499.639	53.609	-0.064	0.062
-498.624	-69.246	0.066	0.025
-497.610	39.646	-0.203	0.182
-496.595	-102.914	-0.057	0.014
-495.581	-70.888	-0.305	0.115
-494.566	-157.065	0.491	-0.030
-493.551	-57.059	0.158	0.070
-492.537	-200.000	0.005	-0.216
-491.522	-83.721	-0.236	-0.076
-490.508	-5.090	-0.181	-0.124
-489.493	-177.386	-0.204	0.005
-488.478	-88.935	0.271	-0.080
-487.464	205.960	-0.017	0.027
-486.449	-14.417	-0.199	-0.128
-485.435	-103.140	0.240	-0.057
-484.420	-10.960	0.370	-0.245
-483.405	-153.581	-0.109	0.008
-482.391	-200.000	0.014	-0.133
-481.376	88.930	-0.075	-0.083
-480.362	-70.930	-0.176	-0.066
-479.347	-106.962	0.125	-0.028
-478.332	-80.215	-0.183	-0.061
-477.318	65.434	0.048	0.048
-476.303	83.686	-0.167	-0.183
-475.289	-115.445	0.131	-0.025
-474.274	29.714	-0.065	0.056
-473.259	-29.297	-0.381	0.218
-472.245	373.647	0.181	-0.368
-471.230	-164.870	0.291	-0.013
-470.216	46.735	-0.083	0.077
-469.201	72.074	-0.221	0.231
-468.186	211.316	0.100	0.158
-467.172	145.318	0.007	-0.009
-466.157	-200.000	0.044	0.227
-465.143	-107.500	-0.078	0.017
-464.128	178.446	-0.092	-0.135
-463.113	-169.638	0.356	-0.013
-462.099	-200.000	0.008	0.127
-461.084	384.690	0.109	-0.226
-460.070	154.439	-0.097	0.133
-459.055	64.479	-0.151	0.153
-458.040	-72.117	0.259	0.096
-457.026	470.125	-0.104	0.235
-456.011	-200.000	-0.027	0.195
-454.997	144.144	-0.184	0.245
-453.982	-159.993	-0.463	0.025
-452.968	312.700	0.209	0.393
-451.953	-200.000	-0.007	-0.056
-450.938	-43.927	0.198	0.100
-449.924	-56.847	0.206	0.091
-448.909	193.473	-0.193	-0.292
-447.895	-170.818	0.227	0.008
-446.880	445.084	0.078	0.172
-445.865	-121.310	0.234	0.039
-444.851	154.632	-0.304	0.418
-443.836	603.373	0.029	-0.073
-442.822	-3.524	-0.152	-0.105
-441.807	-59.768	-0.326	-0.140
-440.792	-153.108	-0.212	-0.015
-439.778	762.229	0.187	-0.507
-438.763	21.811	0.220	0.179
-437.749	-200.000	0.011	-0.088
-436.734	-200.000	0.009	0.225
-435.719	463.612	-0.057	0.128
-434.705	-52.071	0.280	-0.130
-433.690	-200.000	0.042	0.185
-432.676	-200.000	0.004	-0.155
-431.661	0.943	-0.450	0.323
-430.646	-200.000	-0.019	0.123
-429.632	800.000	-0.057	0.214
-428.617	-25.099	-0.034	0.020
-427.603	-68.837	-0.249	0.096
-426.588	-84.169	-0.211	-0.067
-425.573	800.000	-0.090	0.256
-424.559	97.002	0.108	-0.124
-423.544	31.778	-0.044	0.037
-422.530	88.320	0.223	0.247
-421.515	-77.053	0.251	0.087
-420.500	800.000	-0.087	-0.263
-419.486	800.000	0.057	-0.187
-418.471	-82.779	0.106	-0.034
-417.457	-43.275	0.200	0.101
-416.442	-200.000	-0.072	-0.742
-415.428	-65.147	0.117	0.047
-414.413	-200.000	-0.063	-0.360
-413.398	-200.000	-0.041	-0.274
-412.384	-43.416	-0.100	0.051
-411.369	-132.756	0.243	0.031
-410.355	-83.043	0.166	0.053
-409.340	-21.371	0.048	0.029
-408.325	-168.285	-0.070	-0.003
-407.311	-200.000	0.008	-0.227
-406.296	-28.992	-0.109	-0.063
-405.282	-147.220	0.123	-0.010
-404.267	47.054	0.168	0.156
-403.252	14.424	0.152	-0.118
-402.238	4.066	-0.120	-0.088
-401.223	-78.482	0.335	-0.115
-400.209	800.000	0.016	-0.060
-399.194	54.489	-0.016	-0.016
-398.179	-132.170	0.414	0.054
-397.165	180.595	0.126	0.184
-396.150	-68.757	-0.151	-0.058
-395.136	-200.000	0.025	0.251
-394.121	-108.487	-0.251	0.054
-393.106	415.572	-0.155	0.330
-392.092	-187.493	-0.099	0.001
-391.077	121.215	-0.113	0.140
-390.063	-200.000	0.021	-0.230
-389.048	-65.453	0.077	-0.031
-388.033	105.305	-0.237	0.280
-387.019	-76.600	-0.447	-0.156
-386.004	5.792	0.236	-0.174
-384.990	-148.468	-0.166	0.014
-383.975	29.794	0.135	0.115
-382.960	-61.758	-0.128	0.053
-381.946	149.786	0.196	-0.266
-380.931	371.634	0.131	-0.265
-379.917	218.400	-0.175	-0.279
-378.902	-106.944	-0.442	0.098
-377.888	40.640	-0.099	-0.089
-376.873	-96.600	-0.131	0.034
-375.858	-200.000	0.032	-0.189
-374.844	-88.280	0.232	-0.069
-373.829	372.050	-0.101	0.206
-372.815	595.943	-0.107	-0.264
-371.800	95.865	0.111	0.127
-370.785	800.000	0.168	-0.576
-369.771	-19.688	0.374	-0.231
-368.756	16.335	-0.256	-0.202
-367.742	-200.000	-0.036	-0.223
-366.727	-200.000	0.019	-0.229
-365.712	-13.391	0.121	-0.078
-364.698	-200.000	-0.025	-0.213
-363.683	-176.232	0.249	0.007
-362.669	800.000	0.032	0.093
-361.654	17.044	-0.441	0.348
-360.639	-170.304	-0.323	-0.011
-359.625	-82.311	0.400	0.130
-358.610	45.761	-0.078	-0.072
-357.596	-74.931	-0.259	0.093
-356.581	478.472	-0.135	0.304
-355.566	455.210	-0.116	0.255
-354.552	21.822	-0.055	0.045
-353.537	-120.310	0.144	0.024
-352.523	-30.050	0.189	-0.107
-351.508	92.717	-0.142	-0.160
-350.493	-200.000	0.024	-0.154
-349.479	800.000	-0.104	0.352
-348.464	-160.063	-0.135	-0.007
-347.450	-66.455	0.124	0.049
-346.435	113.248	0.089	0.108
-345.420	209.275	0.079	-0.123
-344.406	800.000	0.110	0.325
-343.391	-200.000	0.062	-0.372
-342.377	-71.840	0.264	0.098
-341.362	-157.850	-0.146	-0.009
-340.348	-20.739	0.156	-0.095
-339.333	25.523	0.084	-0.070
-338.318	-32.912	-0.274	0.152
-337.304	-86.868	-0.250	-0.076
-336.289	70.197	0.299	0.307
-335.275	291.346	0.106	0.191
-334.260	-9.207	-0.083	0.056
-333.245	800.000	-0.033	-0.099
-332.231	-153.842	-0.071	0.005
-331.216	-144.494	0.326	0.030
-330.202	-90.216	-0.249	0.072
-329.187	85.147	-0.164	-0.179
-328.172	204.332	0.080	0.123
-327.158	195.691	-0.042	0.063
-326.143	-200.000	0.024	0.258
-325.129	-173.644	0.250	-0.007
-324.114	-58.741	0.128	0.055
-323.099	-7.855	-0.066	0.044
-322.085	196.694	0.195	-0.296
-321.070	401.667	0.055	0.116
-320.056	61.654	-0.143	-0.142
-319.041	-173.294	-0.308	0.009
-318.026	85.475	0.072	-0.079
-317.012	-154.860	0.151	0.010
-315.997	-2.874	0.176	-0.122
-314.983	215.270	-0.149	-0.235
-313.968	-200.000	-0.005	0.022
-312.953	127.049	-0.130	0.164
-311.939	-64.946	-0.149	0.060
-310.924	-42.752	0.154	0.078
-309.910	-100.477	-0.190	0.047
-308.895	-136.575	0.183	0.021
-307.880	-19.246	0.205	-0.127
-306.866	11.604	-0.196	-0.150
-305.851	-133.168	0.248	0.031
-304.837	52.013	0.261	0.247
-303.822	-137.731	-0.167	-0.019
-302.807	264.333	-0.094	0.162
-301.793	-32.836	0.277	-0.153
-300.778	-46.170	-0.118	0.058
-299.764	-83.722	0.093	-0.029
-298.749	-64.004	0.043	0.018
-297.735	800.000	-0.048	0.147
-296.720	-152.467	0.064	0.005
-295.705	-200.000	-0.052	-0.475
-294.691	-135.959	-0.152	0.018
-293.676	58.525	0.165	-0.161
-292.662	30.447	-0.096	0.082
-291.647	-163.677	-0.081	0.004
-290.632	-50.881	0.402	0.188
-289.618	-129.329	0.199	0.028
-288.603	-113.740	-0.403	-0.078
-287.589	-113.854	0.211	-0.041
-286.574	-84.684	-0.101	0.032
-285.559	-93.800	0.382	0.105
-284.545	800.000	-0.040	-0.159
-283.530	800.000	-0.091	0.390
-282.516	55.830	-0.116	0.111
-281.501	800.000	0.112	0.312
-280.486	476.647	-0.027	-0.061
-279.472	800.000	0.046	-0.178
-278.457	-200.000	0.014	0.303
-277.443	297.798	-0.098	0.179
-276.428	22.041	0.068	-0.055
-275.413	-22.865	0.146	-0.087
-274.399	450.976	-0.146	0.320
-273.384	800.000	0.046	0.190
-272.370	-50.981	-0.299	0.139
-271.355	-200.000	0.034	0.372
-270.340	110.442	0.252	-0.301
-269.326	70.401	-0.279	0.286
-268.311	-200.000	0.002	-0.048
-267.297	154.553	0.092	-0.126
-266.282	10.426	0.218	0.165
-265.267	84.420	0.272	0.296
-264.253	-60.405	-0.041	-0.017
-263.238	332.856	0.099	0.189
-262.224	-62.212	0.212	-0.088
-261.209	-200.000	0.021	0.220
-260.195	-86.098	0.302	0.093
-259.180	95.934	0.147	-0.167
-258.165	-200.000	0.037	-0.320
-257.151	-30.586	-0.445	0.250
-256.136	255.111	-0.220	0.373
-255.122	5.585	0.148	0.109
-254.107	-200.000	-0.003	-0.133
-253.092	223.106	-0.230	-0.368
-252.078	-46.064	-0.072	0.035
-251.063	1.337	0.196	-0.140
-250.049	579.153	-0.015	-0.037
-249.034	65.793	0.107	0.108
-248.019	-97.310	0.218	-0.056
-247.005	-64.538	-0.312	-0.126
-245.990	-53.099	0.242	0.110
-244.976	203.850	-0.096	-0.148
-243.961	-200.000	0.014	0.198
-242.946	80.956	-0.189	0.202
-241.932	35.702	0.225	0.196
-240.917	-147.793	0.181	-0.015
-239.903	-200.000	0.014	0.206
-238.888	-57.761	0.149	-0.065
-237.873	210.455	0.121	-0.189
-236.859	-84.166	0.118	0.037
-235.844	-82.750	0.127	-0.041
-234.830	-60.341	0.170	-0.072
-233.815	-200.000	0.042	0.187
-232.800	175.135	0.016	0.024
-231.786	126.746	-0.067	0.085
-230.771	-91.002	0.303	0.086
-229.757	176.502	0.295	0.425
-228.742	126.565	0.103	0.129
-227.727	154.911	0.088	0.120
-226.713	-6.083	-0.119	0.080
-225.698	170.959	0.180	-0.256
-224.684	800.000	-0.060	0.221
-223.669	90.583	-0.066	-0.073
-222.655	41.967	0.189	0.170
-221.640	217.054	-0.075	-0.118
-220.625	188.709	-0.156	-0.231
-219.611	74.523	0.120	0.125
-218.596	242.095	-0.133	-0.221
-217.582	-50.333	0.223	0.104
-216.567	-33.372	0.013	-0.007
-215.552	-40.489	0.333	-0.171
-214.538	-200.000	0.045	0.213
-213.523	62.661	-0.116	-0.115
-212.509	733.781	-0.027	-0.072
-211.494	800.000	0.096	0.262
-210.479	-200.000	-0.004	0.283
-209.465	-95.731	0.225	-0.059
-208.450	-92.439	-0.146	0.041
-207.436	-109.800	0.156	0.032
-206.421	352.339	0.022	-0.042
-205.406	-122.902	0.300	-0.048
-204.392	-71.729	0.077	0.028
-203.377	-7.284	0.054	-0.036
-202.363	-23.995	-0.484	-0.286
-201.348	664.493	0.141	0.360
-200.333	150.578	-0.073	0.099
-199.319	97.680	0.127	-0.144
-198.304	130.483	0.028	0.035
-197.290	-74.339	-0.203	-0.073
-196.275	-200.000	-0.007	0.288
-195.260	57.207	0.095	0.092
-194.246	800.000	-0.016	0.047
-193.231	599.905	0.130	0.321
-192.217	-200.000	-0.017	0.252
-191.202	800.000	-0.020	0.074
-190.187	-105.896	-0.091	-0.020
-189.173	106.089	0.133	-0.156
-188.158	7.663	0.112	0.083
-187.144	-200.000	-0.049	-0.245
-186.129	40.052	0.075	-0.067
-185.114	139.967	0.120	0.156
-184.100	345.320	0.121	-0.235
-183.085	-160.242	0.219	0.012
-182.071	687.469	-0.094	0.244
-181.056	-76.002	-0.119	0.042
-180.042	29.236	0.163	0.137
-179.027	800.000	0.055	0.162
-178.012	570.695	-0.071	0.172
-176.998	-95.125	0.069	0.019
-175.983	-153.257	0.072	0.005
-174.969	-96.846	-0.140	0.036
-173.954	-200.000	0.009	0.112
-172.939	-31.716	-0.324	-0.180
-171.925	22.749	-0.279	-0.226
-170.910	291.084	0.073	0.132
-169.896	-182.037	0.218	-0.004
-168.881	-1.284	0.090	-0.063
-167.866	-200.000	-0.025	0.175
-166.852	-73.585	0.232	0.084
-165.837	-6.637	-0.154	-0.104
-164.823	-200.000	-0.045	-0.317
-163.808	800.000	-0.062	0.221
-162.793	-34.183	-0.335	-0.182
-161.779	76.013	-0.125	0.131
-160.764	236.048	0.047	0.076
-159.750	385.944	0.093	0.191
-158.735	-130.172	0.200	-0.027
-157.720	-200.000	0.045	0.287
-156.706	718.209	-0.143	0.376
-155.691	787.793	-0.080	0.217
-154.677	-128.762	-0.166	0.023
-153.662	-89.005	0.167	0.049
-152.647	594.307	-0.026	0.063
-151.633	-200.000	0.035	-0.280
-150.618	33.503	-0.397	-0.341
-149.604	-2.900	0.094	-0.065
-148.589	-5.220	0.271	-0.184
-147.574	-146.697	-0.191	-0.016
-146.560	-48.469	-0.115	0.055
-145.545	-46.111	0.149	-0.072
-144.531	-200.000	0.398	-0.001
-143.516	-117.483	-0.174	0.031
-142.502	-129.622	0.214	0.029
-141.487	142.229	-0.076	0.099
-140.472	36.539	0.068	0.059
-139.458	-200.000	-0.079	0.345
-138.443	-200.000	-0.037	-0.271
-137.429	-71.113	-0.220	0.082
-136.414	370.802	-0.107	-0.215
-135.399	-106.813	-0.283	0.062
-134.385	225.439	0.239	-0.382
-133.370	30.565	-0.122	0.103
-132.356	-102.562	-0.303	-0.071
-131.341	-61.320	0.195	-0.081
-130.326	475.913	0.002	0.005
-129.312	68.252	0.078	0.079
-128.297	-111.451	0.078	-0.016
-127.283	252.255	-0.241	0.405
-126.268	-200.000	0.015	0.434
-125.253	800.000	0.080	-0.255
-124.239	-159.176	-0.128	0.007
-123.224	-110.465	-0.344	-0.071
-122.210	-200.000	-0.011	-0.081
-121.195	102.445	0.274	0.316
