DTS Sentinel unit serial number:	SN413079Multiplexer serial number:	ORYXHardware model number:	OX4-SRSoftware version number:	ORYX F/W v4.00 Oryx Data Collector v3.7.2.0data status	okinstallation	princeton_trtdifferential loss correction	single-endedforward channel	channel 2reverse channel	N/Adate	2019/09/19time	15:19:35forward acquisition time	60.00reverse acquisition time	0.00gamma	496.2192k internal	0.2319k external	0.2319temperature offset calibration	1.0023default loss term (dB/km)	0.3790temperature slope calibration	1.0000multiplexer offset coefficient	1.0000multiplexer slope coefficient	1.0000fibre end	0.00T internal ref (°C)	33.70T ext. ref 1 (°C)	1.12T ext. ref 2 (°C)	30.50length (m)	temperature (°C)	Stokes	anti-Stokes-747.200	-76.248	-0.082	0.029
-746.185	-147.432	-0.118	0.010
-745.171	308.738	0.111	-0.209
-744.156	800.000	0.106	0.305
-743.142	359.411	-0.093	-0.189
-742.127	234.635	0.264	0.440
-741.112	-162.809	-0.388	0.019
-740.098	262.421	0.154	0.271
-739.083	-65.368	-0.344	-0.140
-738.069	-148.467	0.641	0.053
-737.054	-120.588	-0.481	0.082
-736.039	-24.942	-0.231	-0.139
-735.025	-200.000	0.053	0.342
-734.010	658.850	-0.085	-0.221
-732.996	-200.000	-0.053	-0.367
-731.981	101.176	0.103	0.122
-730.966	-200.000	-0.021	0.314
-729.952	80.252	-0.287	-0.313
-728.937	99.185	-0.166	0.194
-727.923	-200.000	-0.013	-0.142
-726.908	116.168	-0.167	-0.207
-725.894	375.138	0.137	-0.283
-724.879	-15.225	-0.029	-0.019
-723.864	-59.827	-0.365	0.158
-722.850	-83.231	-0.348	0.113
-721.835	14.543	-0.409	-0.323
-720.821	800.000	-0.034	0.138
-719.806	-120.064	-0.381	0.066
-718.791	318.144	0.057	0.110
-717.777	800.000	0.073	-0.227
-716.762	60.430	0.108	0.108
-715.748	800.000	0.070	0.276
-714.733	111.042	-0.098	0.119
-713.718	800.000	-0.072	-0.248
-712.704	413.432	0.105	0.226
-711.689	-27.816	0.249	-0.146
-710.675	-200.000	-0.004	0.181
-709.660	-4.084	-0.278	-0.195
-708.645	148.620	-0.125	0.171
-707.631	-33.699	-0.362	-0.202
-706.616	-92.657	0.278	0.079
-705.602	-104.744	0.225	0.052
-704.587	800.000	0.076	0.329
-703.572	-200.000	0.074	0.331
-702.558	-154.901	0.220	-0.015
-701.543	-32.314	-0.297	0.168
-700.529	-39.218	-0.034	0.018
-699.514	-68.981	0.258	0.100
-698.499	-46.891	-0.190	0.094
-697.485	126.426	0.128	-0.164
-696.470	210.784	0.074	0.118
-695.456	-81.409	0.372	0.124
-694.441	-200.000	0.001	-0.041
-693.426	697.091	0.055	0.147
-692.412	147.076	0.131	-0.178
-691.397	-83.765	-0.369	0.119
-690.383	-200.000	0.023	0.121
-689.368	-200.000	0.039	-0.183
-688.354	404.669	0.114	-0.242
-687.339	-49.326	0.096	0.046
-686.324	800.000	0.005	0.023
-685.310	296.352	0.020	0.037
-684.295	204.184	-0.095	-0.149
-683.281	-195.597	-0.041	0.000
-682.266	-173.066	0.301	0.009
-681.251	-100.309	-0.195	-0.049
-680.237	36.503	-0.036	-0.032
-679.222	-124.950	0.354	0.055
-678.208	-200.000	-0.043	0.226
-677.193	264.233	-0.142	-0.250
-676.178	346.483	-0.201	0.399
-675.164	721.529	0.007	0.019
-674.149	-200.000	0.035	-0.196
-673.135	-200.000	-0.003	-0.149
-672.120	-200.000	0.024	0.221
-671.105	39.883	0.127	0.115
-670.091	443.089	-0.138	-0.304
-669.076	86.210	-0.068	-0.075
-668.062	-200.000	-0.027	-0.140
-667.047	800.000	-0.022	-0.065
-666.032	35.818	-0.094	-0.083
-665.018	-153.504	-0.225	-0.016
-664.003	-69.915	-0.460	-0.177
-662.989	65.483	0.368	0.376
-661.974	210.943	-0.103	0.163
-660.959	-200.000	-0.055	-0.318
-659.945	0.481	0.121	-0.088
-658.930	-3.897	0.079	-0.055
-657.916	-93.062	0.223	-0.063
-656.901	276.730	0.106	-0.189
-655.886	-90.362	-0.233	-0.068
-654.872	-200.000	0.051	0.295
-653.857	-116.856	-0.431	-0.080
-652.843	698.001	-0.066	-0.176
-651.828	103.426	-0.154	0.182
-650.814	-39.852	0.304	0.160
-649.799	699.029	-0.028	0.075
-648.784	-200.000	0.009	0.143
-647.770	-58.645	-0.266	0.116
-646.755	70.423	-0.282	-0.294
-645.741	-149.122	0.158	0.013
-644.726	-61.024	-0.147	0.063
-643.711	11.376	-0.158	-0.122
-642.697	21.623	-0.154	-0.126
-641.682	5.983	-0.135	0.101
-640.668	800.000	0.033	-0.140
-639.653	-105.447	0.272	-0.062
-638.638	-200.000	0.010	0.055
-637.624	-78.037	0.055	-0.019
-636.609	800.000	-0.077	0.240
-635.595	15.375	-0.223	-0.177
-634.580	304.379	-0.105	-0.197
-633.565	346.778	0.071	-0.142
-632.551	-170.897	-0.129	-0.004
-631.536	47.825	0.236	0.222
-630.522	115.488	-0.061	-0.075
-629.507	-31.506	-0.169	-0.096
-628.492	-200.000	0.028	-0.162
-627.478	72.308	-0.171	-0.179
-626.463	-115.940	0.307	0.058
-625.449	-139.366	0.221	0.024
-624.434	-200.000	-0.009	0.068
-623.419	246.101	-0.098	-0.166
-622.405	-200.000	-0.051	0.297
-621.390	-27.572	0.391	-0.229
-620.376	162.461	0.096	0.135
-619.361	85.060	-0.070	0.077
-618.346	-129.463	-0.258	0.036
-617.332	-200.000	0.061	-0.411
-616.317	-2.612	-0.009	-0.007
-615.303	296.746	0.098	0.181
-614.288	-9.456	0.260	-0.174
-613.273	-66.766	-0.150	0.060
-612.259	242.684	0.117	-0.198
-611.244	212.095	0.140	-0.223
-610.230	235.753	-0.087	0.144
-609.215	-33.815	0.085	-0.047
-608.201	-100.304	-0.083	-0.021
-607.186	-21.344	-0.341	0.209
-606.171	-200.000	-0.033	0.172
-605.157	-8.902	-0.186	-0.126
-604.142	-127.886	0.222	-0.032
-603.128	-44.061	-0.134	-0.068
-602.113	-200.000	-0.003	0.101
-601.098	-200.000	0.044	-0.276
-600.084	800.000	0.032	0.129
-599.069	31.064	-0.152	-0.131
-598.055	702.884	-0.011	0.028
-597.040	-96.169	0.498	0.133
-596.025	-17.698	-0.398	-0.251
-595.011	21.486	-0.157	-0.128
-593.996	115.764	0.318	0.391
-592.982	-200.000	0.043	-0.202
-591.967	-168.723	-0.016	0.001
-590.952	340.241	-0.038	-0.074
-589.938	122.039	-0.090	-0.113
-588.923	132.673	-0.165	-0.213
-587.909	-113.548	0.149	-0.029
-586.894	-115.530	-0.094	-0.018
-585.879	454.253	0.047	0.105
-584.865	256.706	0.080	0.138
-583.850	-9.691	-0.143	0.096
-582.836	150.964	0.164	-0.224
-581.821	-53.346	0.152	0.070
-580.806	715.055	-0.117	0.311
-579.792	-200.000	-0.040	0.319
-578.777	112.532	-0.067	-0.081
-577.763	-141.697	0.210	0.021
-576.748	64.841	0.096	0.097
-575.733	-161.068	0.133	0.007
-574.719	605.678	0.108	0.270
-573.704	294.869	0.090	-0.165
-572.690	-159.861	0.261	0.014
-571.675	75.677	-0.127	-0.134
-570.661	691.722	0.168	0.442
-569.646	-56.207	0.132	0.059
-568.631	13.208	-0.084	0.066
-567.617	-76.332	-0.379	0.134
-566.602	-200.000	-0.003	0.089
-565.588	38.070	-0.115	0.103
-564.573	800.000	0.019	0.070
-563.558	-40.491	0.125	0.065
-562.544	86.199	0.169	0.187
-561.529	624.491	0.132	-0.333
-560.515	800.000	0.018	0.052
-559.500	-81.981	-0.366	0.120
-558.485	563.770	-0.094	0.227
-557.471	320.981	0.147	0.280
-556.456	-47.228	-0.307	0.150
-555.442	149.838	-0.265	0.360
-554.427	179.617	0.046	-0.068
-553.412	372.502	0.011	0.022
-552.398	-32.118	-0.432	0.242
-551.383	-53.457	0.150	0.069
-550.369	469.619	0.042	-0.094
-549.354	481.069	0.114	-0.261
-548.339	-200.000	-0.038	-0.470
-547.325	-123.848	-0.248	0.039
-546.310	-70.856	-0.300	-0.113
-545.296	-63.215	-0.276	-0.114
-544.281	723.478	0.054	0.143
-543.266	800.000	0.057	0.180
-542.252	-200.000	-0.034	-0.265
-541.237	-200.000	-0.017	-0.101
-540.223	4.106	-0.190	0.139
-539.208	-42.562	0.043	0.022
-538.193	-200.000	-0.006	-0.027
-537.179	-200.000	0.026	-0.187
-536.164	-21.245	0.163	0.100
-535.150	724.222	0.122	0.325
-534.135	800.000	0.072	-0.219
-533.121	-28.840	-0.510	0.294
-532.106	-133.588	-0.141	-0.018
-531.091	82.350	0.208	-0.227
-530.077	-90.367	0.204	0.060
-529.062	51.817	0.202	-0.193
-528.048	-200.000	-0.276	-0.000
-527.033	800.000	-0.091	0.362
-526.018	316.704	-0.113	-0.213
-525.004	-200.000	0.024	-0.393
-523.989	-118.206	-0.039	0.007
-522.975	-117.490	0.137	0.025
-521.960	46.684	-0.139	0.129
-520.945	-99.426	0.252	0.064
-519.931	-147.973	-0.320	-0.027
-518.916	-9.324	0.227	-0.152
-517.902	30.476	-0.097	-0.083
-516.887	-108.580	0.535	-0.115
-515.872	-109.522	-0.125	-0.027
-514.858	367.855	-0.202	-0.410
-513.843	-200.000	-0.010	0.043
-512.829	-60.162	-0.162	0.069
-511.814	-128.094	-0.311	-0.045
-510.799	800.000	-0.063	-0.201
-509.785	36.846	-0.144	0.127
-508.770	-96.659	0.250	0.066
-507.756	-79.604	0.044	0.015
-506.741	-82.255	0.389	-0.127
-505.726	-122.081	0.321	0.053
-504.712	-200.000	-0.001	-0.134
-503.697	-83.569	-0.125	-0.040
-502.683	-48.989	-0.272	-0.130
-501.668	800.000	-0.018	0.077
-500.653	169.341	0.023	-0.033
-499.639	685.983	0.071	-0.186
-498.624	800.000	-0.050	-0.153
-497.610	-26.004	-0.051	-0.030
-496.595	247.840	0.055	0.094
-495.581	-177.099	0.047	-0.001
-494.566	-167.292	0.066	0.003
-493.551	15.457	0.185	-0.146
-492.537	-56.922	0.136	-0.060
-491.522	34.785	0.280	-0.245
-490.508	-200.000	0.001	-0.010
-489.493	800.000	-0.099	-0.322
-488.478	-200.000	0.049	-0.385
-487.464	-46.392	-0.392	-0.193
-486.449	800.000	-0.061	-0.252
-485.435	800.000	0.061	0.243
-484.420	66.757	-0.283	-0.288
-483.405	76.049	0.230	0.244
-482.391	-30.312	-0.184	-0.105
-481.376	800.000	0.058	-0.180
-480.362	637.222	-0.098	-0.249
-479.347	-49.657	-0.114	-0.054
-478.332	800.000	0.070	-0.255
-477.318	440.814	-0.074	0.162
-476.303	23.957	-0.283	0.234
-475.289	-64.272	-0.016	-0.007
-474.274	-161.291	0.066	-0.003
-473.259	350.968	0.072	0.142
-472.245	-200.000	0.001	0.048
-471.230	656.286	0.032	0.081
-470.216	-200.000	-0.009	-0.503
-469.201	-86.457	-0.353	0.108
-468.186	-200.000	-0.025	0.205
-467.172	41.910	0.279	0.254
-466.157	120.832	0.052	-0.065
-465.143	-143.012	0.257	-0.025
-464.128	-200.000	-0.013	0.191
-463.113	296.755	0.046	0.085
-462.099	137.837	0.141	-0.185
-461.084	49.624	0.177	-0.167
-460.070	-200.000	0.011	-0.065
-459.055	3.524	-0.501	-0.365
-458.040	19.578	0.246	0.198
-457.026	-53.246	-0.189	-0.087
-456.011	800.000	-0.043	0.122
-454.997	-179.801	-0.166	0.004
-453.982	800.000	-0.019	-0.056
-452.968	-111.247	0.358	-0.073
-451.953	313.621	-0.188	-0.355
-450.938	36.540	0.132	0.117
-449.924	-137.989	0.282	0.031
-448.909	80.090	-0.171	-0.183
-447.895	-200.000	0.011	0.193
-446.880	40.716	0.220	0.198
-445.865	-125.374	0.275	-0.042
-444.851	67.520	-0.132	-0.135
-443.836	800.000	0.083	-0.236
-442.822	-106.762	0.238	0.053
-441.807	-131.597	0.067	0.009
-440.792	48.967	-0.117	-0.110
-439.778	17.041	-0.252	0.200
-438.763	45.342	-0.037	0.034
-437.749	-200.000	-0.033	-0.325
-436.734	31.938	0.047	0.040
-435.719	-200.000	-0.022	0.246
-434.705	-149.444	-0.168	0.013
-433.690	-41.744	0.191	-0.098
-432.676	800.000	0.104	-0.290
-431.661	45.449	0.300	0.276
-430.646	-99.167	0.244	-0.062
-429.632	-16.755	-0.077	-0.049
-428.617	800.000	0.058	-0.242
-427.603	800.000	0.059	-0.190
-426.588	99.219	0.113	0.131
-425.573	231.257	0.096	0.157
-424.559	272.078	-0.050	-0.087
-423.544	-65.077	0.072	-0.029
-422.530	292.389	-0.125	0.228
-421.515	-200.000	0.016	-0.083
-420.500	337.834	-0.137	0.265
-419.486	-200.000	-0.016	-0.243
-418.471	-173.641	0.432	-0.013
-417.457	386.705	-0.104	-0.214
-416.442	-200.000	0.033	0.217
-415.428	-72.775	-0.167	0.062
-414.413	394.201	-0.018	0.037
-413.398	-200.000	-0.002	-0.061
-412.384	-96.191	0.174	-0.046
-411.369	49.300	-0.159	0.150
-410.355	129.051	-0.029	-0.036
-409.340	289.149	-0.087	0.158
-408.325	-200.000	-0.107	0.578
-407.311	54.440	0.154	-0.148
-406.296	228.595	-0.191	-0.311
-405.282	-200.000	0.072	0.329
-404.267	-116.190	-0.115	0.021
-403.252	470.722	0.008	-0.019
-402.238	106.725	0.087	0.103
-401.223	-200.000	0.005	0.306
-400.209	-36.459	-0.095	0.051
-399.194	800.000	0.028	0.106
-398.179	-33.246	-0.399	-0.221
-397.165	496.338	0.070	-0.162
-396.150	-120.776	0.314	0.053
-395.136	-0.302	-0.145	0.103
-394.121	800.000	0.115	-0.329
-393.106	800.000	0.061	-0.179
-392.092	-110.870	0.160	0.033
-391.077	93.969	-0.083	0.094
-390.063	37.633	0.197	-0.174
-389.048	800.000	0.066	0.255
-388.033	204.001	0.105	0.162
-387.019	-200.000	-0.007	-0.166
-386.004	-5.856	0.215	-0.147
-384.990	123.297	0.182	-0.227
-383.975	-200.000	-0.011	0.097
-382.960	162.257	-0.208	-0.291
-381.946	-14.946	0.353	0.226
-380.931	440.190	0.094	0.205
-379.917	682.925	-0.164	0.427
-378.902	-200.000	-0.014	0.425
-377.888	524.873	-0.076	-0.177
-376.873	-200.000	0.006	0.077
-375.858	4.300	0.035	0.025
-374.844	800.000	0.049	-0.168
-373.829	9.689	0.120	0.090
-372.815	-52.666	-0.415	0.191
-371.800	-200.000	-0.032	-0.431
-370.785	-181.861	0.241	-0.005
-369.771	-114.193	-0.196	0.038
-368.756	105.240	0.149	0.175
-367.742	333.623	0.092	-0.177
-366.727	796.317	-0.090	-0.248
-365.712	343.566	-0.053	-0.103
-364.698	-34.002	-0.139	-0.076
-363.683	32.250	-0.206	-0.177
-362.669	43.209	0.152	-0.139
-361.654	800.000	-0.031	0.109
-360.639	-66.739	0.256	0.101
-359.625	-117.386	0.417	0.075
-358.610	-20.231	-0.094	-0.057
-357.596	-200.000	0.051	0.252
-356.581	-200.000	0.015	0.103
-355.566	60.225	-0.177	-0.174
-354.552	108.555	0.179	0.212
-353.537	-169.721	-0.189	-0.007
-352.523	-127.669	-0.299	0.043
-351.508	-24.403	0.055	-0.032
-350.493	800.000	-0.011	0.042
-349.479	-34.981	0.192	0.104
-348.464	-200.000	-0.017	-0.155
-347.450	54.120	-0.164	-0.157
-346.435	277.841	-0.119	0.211
-345.420	-200.000	-0.003	0.140
-344.406	17.005	-0.155	0.122
-343.391	-39.982	0.111	0.058
-342.377	-17.483	-0.251	-0.157
-341.362	69.266	0.105	-0.107
-340.348	-200.000	0.035	-0.172
-339.333	-37.106	-0.199	0.106
-338.318	-44.812	-0.269	0.134
-337.304	-200.000	-0.012	-0.124
-336.289	800.000	-0.047	0.190
-335.275	111.276	0.061	0.073
-334.260	-110.863	0.274	-0.056
-333.245	-61.095	-0.248	-0.104
-332.231	280.019	-0.018	-0.032
-331.216	-200.000	-0.084	0.000
-330.202	-64.196	-0.159	-0.065
-329.187	-200.000	0.014	0.079
-328.172	-200.000	0.016	-0.187
-327.158	-87.208	-0.323	0.098
-326.143	546.847	0.142	0.338
-325.129	-200.000	0.019	-0.281
-324.114	32.976	-0.180	-0.155
-323.099	-2.999	0.322	0.224
-322.085	-94.441	-0.174	0.047
-321.070	-200.000	0.022	-0.116
-320.056	800.000	0.105	-0.443
-319.041	-184.090	-0.233	0.004
-318.026	-24.965	-0.139	0.082
-317.012	-200.000	0.007	0.162
-315.997	672.838	0.067	-0.173
-314.983	158.380	0.168	-0.232
-313.968	40.807	-0.138	0.124
-312.953	-200.000	0.000	-0.167
-311.939	-92.069	0.127	-0.036
-310.924	222.756	-0.129	0.206
-309.910	-18.390	0.258	0.160
-308.895	-200.000	-0.072	0.384
-307.880	-109.327	-0.034	-0.007
-306.866	598.009	-0.045	0.112
-305.851	-166.818	-0.225	0.009
-304.837	-136.646	0.334	0.038
-303.822	-200.000	0.007	0.328
-302.807	-200.000	0.063	0.402
-301.793	-200.000	0.005	-0.185
-300.778	-200.000	-0.029	-0.321
-299.764	800.000	0.099	0.272
-298.749	352.608	-0.219	-0.432
-297.735	56.782	-0.272	-0.263
-296.720	-140.428	0.205	0.021
-295.705	-49.733	-0.280	0.132
-294.691	-131.393	-0.096	-0.013
-293.676	-77.835	0.236	-0.081
-292.662	-76.642	0.199	0.069
-291.647	-200.000	-0.062	-0.288
-290.632	68.843	-0.157	0.161
-289.618	670.471	-0.090	-0.232
-288.603	-74.017	-0.129	-0.047
-287.589	248.442	-0.016	-0.027
-286.574	-200.000	0.043	-0.291
-285.559	-127.042	-0.387	0.056
-284.545	289.321	-0.215	0.388
-283.530	18.140	0.264	0.209
-282.516	26.231	0.248	-0.206
-281.501	-113.904	0.409	-0.079
-280.486	-26.734	-0.338	0.197
-279.472	-163.686	0.095	0.004
-278.457	-36.569	0.298	0.160
-277.443	44.421	0.268	-0.245
-276.428	-200.000	-0.029	-0.138
-275.413	66.152	-0.208	0.210
-274.399	62.964	0.125	-0.124
-273.384	800.000	-0.207	0.594
-272.370	15.785	0.340	0.266
-271.355	40.884	-0.139	0.125
-270.340	-200.000	-0.024	0.275
-269.326	-182.888	0.275	-0.005
-268.311	-106.231	0.226	-0.050
-267.297	62.047	0.262	-0.260
-266.282	-200.000	-0.004	-0.077
-265.267	307.877	0.071	0.132
-264.253	-32.755	-0.247	0.137
-263.238	84.704	-0.030	-0.032
-262.224	800.000	0.055	0.161
-261.209	-6.079	-0.130	-0.088
-260.195	-200.000	0.052	-0.227
-259.180	45.924	-0.103	0.094
-258.165	333.863	-0.005	0.009
-257.151	-36.555	-0.241	-0.129
-256.136	800.000	0.059	0.214
-255.122	-200.000	0.001	-0.098
-254.107	-61.671	-0.213	-0.089
-253.092	-114.692	0.267	0.051
-252.078	110.072	0.098	0.117
-251.063	695.359	-0.129	-0.337
-250.049	131.290	0.054	-0.069
-249.034	132.192	-0.054	-0.069
-248.019	-167.293	-0.126	0.005
-247.005	-79.843	-0.189	-0.063
-245.990	-168.512	0.161	0.006
-244.976	327.690	0.092	-0.176
-243.961	510.218	0.080	-0.184
-242.946	446.869	0.078	-0.170
-241.932	28.567	-0.090	-0.075
-240.917	4.900	0.283	-0.206
-239.903	45.425	-0.035	0.032
-238.888	406.750	-0.088	-0.184
-237.873	-200.000	0.011	-0.226
-236.859	-111.043	0.103	-0.021
-235.844	-121.773	0.070	-0.011
-234.830	33.536	-0.241	-0.207
-233.815	555.492	0.023	0.054
-232.800	800.000	0.025	-0.080
-231.786	800.000	-0.066	-0.223
-230.771	-200.000	-0.007	-0.053
-229.757	396.798	-0.055	0.114
-228.742	-200.000	0.054	0.389
-227.727	800.000	0.071	0.212
-226.713	320.444	-0.139	0.262
-225.698	-23.427	0.093	0.055
-224.684	51.086	-0.160	0.150
-223.669	516.710	-0.030	0.070
-222.655	-52.742	-0.202	0.092
-221.640	-84.312	-0.319	-0.100
-220.625	53.693	-0.182	0.173
-219.611	-42.556	-0.421	0.213
-218.596	13.765	-0.153	0.118
-217.582	-54.223	0.311	-0.140
-216.567	-99.812	0.308	-0.076
-215.552	-200.000	-0.015	0.086
-214.538	-9.833	0.279	0.184
-213.523	-200.000	0.019	0.160
-212.509	41.881	-0.128	-0.115
-211.494	88.140	0.221	-0.243
-210.479	164.820	-0.177	0.248
-209.465	141.783	-0.220	-0.289
-208.450	5.779	0.139	0.102
-207.436	3.885	-0.264	-0.191
-206.421	-153.064	0.313	0.022
-205.406	-116.397	-0.250	-0.046
-204.392	18.693	0.110	0.087
-203.377	-31.937	0.360	0.200
-202.363	246.906	-0.112	-0.188
-201.348	-34.799	0.484	0.262
-200.333	499.642	-0.108	-0.246
-199.319	98.544	0.237	0.270
-198.304	141.041	0.276	0.362
-197.290	-29.324	-0.155	0.088
-196.275	507.190	-0.063	0.145
-195.260	-79.005	-0.311	-0.105
-194.246	51.735	-0.075	0.071
-193.231	800.000	0.041	-0.176
-192.217	-135.813	-0.041	-0.005
-191.202	141.550	0.122	-0.160
-190.187	-67.517	-0.421	0.164
-189.173	41.230	0.043	-0.039
-188.158	-105.643	0.271	0.061
-187.144	-6.765	-0.071	0.048
-186.129	-65.543	0.325	-0.129
-185.114	-200.000	-0.025	0.566
-184.100	800.000	0.010	-0.037
-183.085	6.381	-0.070	0.051
-182.071	-8.416	-0.192	-0.128
-181.056	26.466	-0.137	-0.113
-180.042	-73.529	-0.178	0.064
-179.027	57.151	-0.091	0.087
-178.012	298.816	-0.051	-0.093
-176.998	-168.625	0.205	0.008
-175.983	100.360	0.075	-0.087
-174.969	-200.000	-0.006	0.190
-173.954	-200.000	0.017	0.096
-172.939	94.887	0.241	-0.271
-171.925	40.730	-0.167	0.149
-170.910	12.735	0.158	0.121
-169.896	407.016	-0.108	0.225
-168.881	-200.000	-0.046	-0.278
-167.866	-98.877	0.396	0.100
-166.852	8.945	-0.238	0.178
-165.837	154.667	0.023	0.031
-164.823	-113.449	0.377	0.073
-163.808	-200.000	0.055	0.262
-162.793	800.000	0.025	-0.086
-161.779	-43.111	0.094	0.047
-160.764	-200.000	-0.020	-0.088
-159.750	64.836	0.192	-0.192
-158.735	-144.171	-0.249	-0.023
-157.720	201.073	0.077	0.117
-156.706	655.580	-0.156	0.395
-155.691	357.561	-0.042	0.083
-154.677	800.000	0.040	-0.157
-153.662	49.080	0.099	0.092
-152.647	-105.969	0.444	0.099
-151.633	-158.062	-0.174	-0.010
-150.618	-35.238	-0.058	-0.031
-149.604	226.640	0.041	0.066
-148.589	-123.512	-0.223	-0.035
-147.574	134.712	0.075	-0.096
-146.560	-34.643	-0.120	-0.065
-145.545	662.246	-0.065	0.166
-144.531	254.251	0.071	0.120
-143.516	-58.217	0.160	0.069
-142.502	-105.045	-0.091	0.020
-141.487	248.386	0.151	0.253
-140.472	-13.733	0.172	0.110
-139.458	127.485	-0.194	0.243
-138.443	-146.232	0.085	-0.007
-137.429	-200.000	0.044	-0.211
-136.414	7.004	-0.512	0.377
-135.399	-99.940	0.141	-0.035
-134.385	-90.982	-0.097	-0.027
-133.370	360.460	-0.046	-0.091
-132.356	-111.683	-0.103	0.021
-131.341	131.863	0.023	0.030
-130.326	-189.652	-0.235	-0.003
-129.312	267.115	-0.068	-0.118
-128.297	34.743	-0.145	0.125
-127.283	-118.756	-0.176	0.031
-126.268	-51.077	-0.131	0.061
-125.253	-13.022	-0.135	0.087
-124.239	422.825	0.125	0.265
-123.224	-156.851	0.188	-0.011
-122.210	188.992	-0.092	-0.136
-121.195	-135.932	0.138	-0.016
