DTS Sentinel unit serial number:	SN413079Multiplexer serial number:	ORYXHardware model number:	OX4-SRSoftware version number:	ORYX F/W v4.00 Oryx Data Collector v3.7.2.0data status	okinstallation	princeton_trtdifferential loss correction	single-endedforward channel	channel 2reverse channel	N/Adate	2019/09/16time	14:11:35forward acquisition time	60.00reverse acquisition time	0.00gamma	496.2192k internal	0.2295k external	0.2295temperature offset calibration	0.9941default loss term (dB/km)	0.3790temperature slope calibration	1.0000multiplexer offset coefficient	1.0000multiplexer slope coefficient	1.0000fibre end	0.00T internal ref (°C)	42.25T ext. ref 1 (°C)	14.11T ext. ref 2 (°C)	37.05length (m)	temperature (°C)	Stokes	anti-Stokes-747.200	-200.000	-0.002	0.095
-746.185	364.233	-0.177	0.363
-745.171	248.790	-0.231	-0.400
-744.156	-106.401	-0.043	-0.010
-743.142	-200.000	-0.031	-0.215
-742.127	47.084	-0.082	0.078
-741.112	-200.000	0.029	-0.229
-740.098	106.809	-0.242	0.294
-739.083	-106.575	0.122	-0.028
-738.069	800.000	-0.038	0.131
-737.054	-200.000	-0.018	0.339
-736.039	-103.354	-0.645	-0.155
-735.025	-200.000	-0.037	0.168
-734.010	344.318	0.133	0.266
-732.996	5.391	-0.088	0.066
-731.981	-200.000	-0.028	0.178
-730.966	-128.893	-0.189	0.027
-729.952	97.593	0.067	-0.078
-728.937	-157.280	0.170	-0.011
-727.923	-91.683	0.024	-0.007
-726.908	-200.000	-0.064	-0.376
-725.894	182.308	0.154	0.231
-724.879	153.673	0.204	0.286
-723.864	164.238	0.070	0.100
-722.850	-113.895	-0.364	-0.072
-721.835	-62.021	-0.181	0.077
-720.821	12.835	-0.195	-0.154
-719.806	-126.044	-0.265	-0.041
-718.791	-79.203	-0.170	0.059
-717.777	541.493	-0.036	-0.086
-716.762	12.809	-0.111	0.088
-715.748	-177.809	-0.083	-0.002
-714.733	374.726	-0.122	-0.255
-713.718	80.794	0.117	0.129
-712.704	-200.000	0.003	-0.121
-711.689	686.922	-0.085	-0.227
-710.675	578.307	0.049	-0.123
-709.660	449.761	-0.110	0.247
-708.645	248.491	0.135	-0.234
-707.631	-98.999	-0.234	-0.061
-706.616	35.780	0.137	0.123
-705.602	800.000	0.094	-0.321
-704.587	-78.454	0.187	-0.066
-703.572	256.856	0.069	-0.121
-702.558	276.358	-0.089	-0.161
-701.543	252.034	-0.237	0.412
-700.529	800.000	-0.089	-0.337
-699.514	-38.804	-0.366	-0.197
-698.499	131.882	-0.146	-0.191
-697.485	-35.754	-0.280	-0.155
-696.470	26.338	-0.243	-0.207
-695.456	62.837	0.185	-0.189
-694.441	72.589	-0.246	-0.261
-693.426	-76.336	-0.093	0.033
-692.412	41.049	-0.173	-0.159
-691.397	47.086	-0.327	0.311
-690.383	-157.573	-0.394	0.024
-689.368	800.000	0.051	-0.145
-688.354	-19.237	0.153	-0.097
-687.339	-144.044	-0.204	-0.020
-686.324	-71.753	0.304	0.116
-685.310	-200.000	0.007	0.053
-684.295	27.032	-0.142	-0.122
-683.281	-138.172	-0.078	-0.009
-682.266	800.000	-0.089	0.294
-681.251	470.608	0.063	-0.143
-680.237	-168.090	-0.171	-0.007
-679.222	-35.546	0.160	-0.089
-678.208	-77.557	0.341	0.121
-677.193	-200.000	0.002	-0.260
-676.178	28.051	-0.126	-0.108
-675.164	37.763	-0.218	-0.197
-674.149	232.342	-0.038	0.064
-673.135	-65.053	-0.426	0.175
-672.120	-14.565	-0.242	0.158
-671.105	34.196	-0.289	-0.257
-670.091	28.384	-0.207	-0.179
-669.076	312.633	-0.045	-0.087
-668.062	-200.000	0.033	-0.414
-667.047	-200.000	-0.041	-0.194
-666.032	630.602	0.069	-0.178
-665.018	234.853	0.081	-0.137
-664.003	-52.544	0.277	0.130
-662.989	65.346	0.212	-0.219
-661.974	528.658	-0.064	-0.153
-660.959	24.142	-0.096	0.081
-659.945	800.000	0.052	-0.185
-658.930	800.000	0.083	-0.317
-657.916	17.515	-0.150	0.121
-656.901	-40.109	-0.283	-0.150
-655.886	-121.557	-0.081	-0.014
-654.872	-53.107	0.368	-0.172
-653.857	134.858	0.194	0.257
-652.843	-48.261	-0.404	-0.199
-651.828	7.882	0.218	-0.166
-650.814	122.910	-0.138	0.176
-649.799	434.539	-0.088	0.196
-648.784	-200.000	-0.004	-0.072
-647.770	121.091	-0.141	-0.179
-646.755	99.429	-0.054	-0.064
-645.741	130.981	0.025	0.032
-644.726	-174.012	-0.603	-0.018
-643.711	164.067	-0.125	-0.180
-642.697	-200.000	-0.015	-0.080
-641.682	-92.349	-0.063	0.018
-640.668	-28.210	0.263	-0.155
-639.653	138.541	-0.125	-0.168
-638.638	104.998	-0.091	0.110
-637.624	-200.000	-0.056	0.263
-636.609	800.000	0.127	-0.395
-635.595	-200.000	-0.049	-0.220
-634.580	142.870	-0.095	-0.129
-633.565	-110.165	-0.269	0.057
-632.551	-136.528	-0.111	0.013
-631.536	-25.427	0.065	0.039
-630.522	-58.832	-0.114	-0.050
-629.507	-95.513	0.098	-0.027
-628.492	-26.869	-0.208	-0.124
-627.478	800.000	-0.037	0.114
-626.463	-81.421	-0.454	0.152
-625.449	234.268	0.122	0.204
-624.434	165.761	0.249	0.358
-623.419	-19.019	-0.426	0.270
-622.405	-200.000	0.021	0.191
-621.390	39.524	-0.078	0.071
-620.376	-20.777	-0.169	-0.106
-619.361	749.002	-0.135	-0.371
-618.346	-169.561	-0.450	0.017
-617.332	800.000	-0.066	-0.237
-616.317	-15.118	-0.269	0.175
-615.303	-200.000	-0.010	0.136
-614.288	-26.372	-0.122	0.073
-613.273	295.933	0.036	-0.068
-612.259	25.883	-0.071	0.060
-611.244	137.415	0.073	-0.097
-610.230	-103.012	-0.267	-0.064
-609.215	74.895	0.078	0.084
-608.201	-43.757	0.322	0.165
-607.186	-125.323	-0.182	-0.028
-606.171	562.128	0.092	0.227
-605.157	-200.000	0.006	-0.280
-604.142	-200.000	0.001	-0.068
-603.128	-114.777	0.077	-0.015
-602.113	16.944	0.158	-0.127
-601.098	770.035	0.019	0.053
-600.084	397.694	-0.022	-0.047
-599.069	730.591	0.055	0.151
-598.055	-139.224	-0.025	-0.003
-597.040	-165.963	-0.109	-0.005
-596.025	-200.000	-0.004	0.333
-595.011	-50.904	0.228	-0.109
-593.996	-78.592	-0.318	0.111
-592.982	547.298	0.064	0.157
-591.967	531.617	0.032	0.076
-590.952	310.099	-0.160	-0.303
-589.938	-64.817	0.150	-0.062
-588.923	-200.000	0.046	-0.255
-587.909	-200.000	-0.033	0.147
-586.894	425.759	0.129	-0.283
-585.879	441.675	0.125	0.277
-584.865	-94.316	0.056	0.016
-583.850	-200.000	0.045	-0.230
-582.836	800.000	0.063	-0.266
-581.821	-39.956	0.195	0.103
-580.806	253.964	0.127	-0.220
-579.792	-139.415	0.361	0.039
-578.777	174.952	-0.064	-0.094
-577.763	-152.582	0.214	-0.016
-576.748	-119.564	0.161	0.028
-575.733	800.000	-0.093	0.275
-574.719	164.369	-0.125	0.179
-573.704	25.813	-0.140	-0.118
-572.690	-69.429	-0.260	-0.101
-571.675	14.428	0.201	-0.159
-570.661	198.631	0.094	-0.146
-569.646	800.000	0.045	0.167
-568.631	-200.000	0.042	0.331
-567.617	-121.253	-0.239	0.041
-566.602	-200.000	0.018	0.302
-565.588	-132.452	-0.234	-0.031
-564.573	168.086	-0.097	-0.140
-563.558	-127.045	-0.146	-0.022
-562.544	-91.625	-0.243	0.070
-561.529	-96.813	-0.097	0.026
-560.515	-200.000	-0.013	0.075
-559.500	-200.000	0.010	-0.120
-558.485	5.281	-0.230	-0.172
-557.471	-200.000	0.008	-0.044
-556.456	57.225	0.160	0.158
-555.442	800.000	-0.046	0.150
-554.427	-109.722	0.336	-0.072
-553.412	-25.578	-0.123	0.074
-552.398	45.019	0.222	-0.207
-551.383	16.951	0.212	0.170
-550.369	-200.000	0.037	0.190
-549.354	-5.009	0.175	0.122
-548.339	-110.108	-0.330	0.070
-547.325	546.772	0.062	-0.151
-546.310	46.758	0.203	-0.191
-545.296	-56.990	0.297	0.133
-544.281	800.000	-0.113	0.318
-543.266	-60.468	0.082	0.035
-542.252	-200.000	0.016	-0.165
-541.237	689.014	-0.065	0.172
-540.223	228.900	-0.064	0.105
-539.208	98.896	-0.083	-0.097
-538.193	-200.000	0.038	-0.234
-537.179	-52.717	-0.191	-0.090
-536.164	-200.000	0.041	-0.319
-535.150	-148.914	0.213	-0.017
-534.135	-22.135	-0.155	-0.095
-533.121	-200.000	0.012	0.131
-532.106	-107.494	0.151	-0.033
-531.091	-22.117	-0.126	0.078
-530.077	162.865	-0.129	-0.184
-529.062	-179.541	-0.379	-0.008
-528.048	186.636	-0.021	-0.031
-527.033	-85.620	0.250	0.079
-526.018	-183.896	-0.114	0.002
-525.004	601.088	-0.060	-0.150
-523.989	-58.383	-0.246	0.108
-522.975	72.447	-0.187	-0.197
-521.960	130.838	-0.086	-0.112
-520.945	574.725	-0.035	0.086
-519.931	197.892	0.101	-0.156
-518.916	277.904	0.144	-0.260
-517.902	-122.264	0.317	-0.052
-516.887	-23.026	-0.045	-0.027
-515.872	-120.082	-0.258	-0.045
-514.858	-176.305	-0.071	-0.002
-513.843	-21.263	-0.156	0.097
-512.829	16.346	-0.161	0.128
-511.814	-81.085	0.346	0.116
-510.799	-27.708	0.290	-0.171
-509.785	-200.000	-0.033	0.412
-508.770	-200.000	0.035	0.158
-507.756	-103.295	-0.246	-0.059
-506.741	-200.000	-0.007	-0.163
-505.726	-124.937	-0.094	0.015
-504.712	-120.469	0.181	-0.031
-503.697	60.018	0.049	-0.050
-502.683	85.511	-0.035	-0.039
-501.668	43.338	0.181	0.168
-500.653	282.793	-0.091	-0.166
-499.639	-39.336	-0.098	-0.052
-498.624	46.316	0.235	0.220
-497.610	800.000	0.097	0.348
-496.595	123.273	-0.146	0.185
-495.581	197.804	0.164	0.254
-494.566	722.191	-0.051	-0.137
-493.551	-83.821	0.117	0.038
-492.537	82.603	-0.095	0.105
-491.522	-53.998	0.297	-0.137
-490.508	-200.000	0.143	-0.000
-489.493	-20.431	0.137	0.085
-488.478	-139.082	0.170	-0.019
-487.464	57.429	0.100	-0.099
-486.449	800.000	-0.042	-0.154
-485.435	-116.701	-0.018	0.003
-484.420	-63.883	0.231	-0.096
-483.405	111.882	-0.179	0.219
-482.391	190.848	-0.246	-0.375
-481.376	-153.253	-0.281	0.020
-480.362	27.155	0.197	-0.167
-479.347	-86.355	-0.062	-0.019
-478.332	800.000	0.038	-0.110
-477.318	50.667	0.272	-0.260
-476.303	52.284	-0.029	-0.028
-475.289	-91.981	-0.252	-0.072
-474.274	-162.641	0.290	0.014
-473.259	-166.487	-0.235	0.010
-472.245	646.964	-0.113	0.293
-471.230	283.034	-0.067	0.122
-470.216	-200.000	-0.035	0.371
-469.201	800.000	0.097	0.393
-468.186	78.499	0.086	0.093
-467.172	-78.751	0.206	-0.071
-466.157	-178.321	-0.265	0.006
-465.143	-136.376	-0.256	-0.030
-464.128	-200.000	0.012	0.094
-463.113	120.445	-0.036	0.046
-462.099	267.477	-0.074	-0.131
-461.084	-200.000	0.001	0.191
-460.070	-146.199	-0.252	0.022
-459.055	-200.000	0.005	0.160
-458.040	-200.000	0.012	-0.081
-457.026	-142.031	-0.079	-0.008
-456.011	-11.863	0.111	0.074
-454.997	-200.000	0.016	0.147
-453.982	-129.757	0.211	0.029
-452.968	-200.000	-0.003	0.082
-451.953	-54.465	0.114	0.052
-450.938	-10.780	0.170	0.114
-449.924	-20.571	0.137	-0.085
-448.909	-64.772	0.135	-0.055
-447.895	1.068	-0.225	0.163
-446.880	800.000	-0.074	-0.307
-445.865	800.000	-0.031	-0.091
-444.851	113.303	0.091	-0.111
-443.836	134.628	-0.302	-0.396
-442.822	-153.256	0.153	-0.011
-441.807	-200.000	-0.009	-0.124
-440.792	-144.958	0.071	-0.007
-439.778	-35.550	-0.149	-0.082
-438.763	-88.149	0.376	-0.114
-437.749	221.430	0.053	-0.086
-436.734	-24.057	-0.456	-0.275
-435.719	83.365	-0.098	-0.108
-434.705	-200.000	-0.343	0.000
-433.690	-200.000	0.024	0.413
-432.676	-108.591	0.173	-0.037
-431.661	-65.522	0.224	0.091
-430.646	800.000	-0.052	-0.148
-429.632	43.735	0.374	-0.346
-428.617	211.167	-0.272	-0.432
-427.603	-72.368	-0.056	-0.021
-426.588	-200.000	-0.043	-0.217
-425.573	420.154	0.185	-0.399
-424.559	23.515	0.084	0.070
-423.544	-200.000	-0.019	0.098
-422.530	532.924	-0.086	-0.206
-421.515	8.232	0.327	0.248
-420.500	64.808	0.170	0.173
-419.486	307.522	0.044	0.082
-418.471	-86.036	-0.156	-0.049
-417.457	2.994	0.056	0.041
-416.442	47.089	-0.091	-0.086
-415.428	8.072	-0.042	-0.032
-414.413	-127.300	-0.147	0.022
-413.398	-116.480	-0.151	-0.028
-412.384	9.727	0.124	-0.095
-411.369	50.945	-0.179	-0.172
-410.355	480.764	0.033	0.075
-409.340	23.406	0.090	-0.075
-408.325	69.672	-0.267	-0.278
-407.311	-70.334	-0.203	0.078
-406.296	33.368	-0.215	0.188
-405.282	73.521	-0.282	-0.298
-404.267	-168.377	0.245	0.010
-403.252	-139.134	-0.143	0.016
-402.238	-98.938	-0.111	-0.028
-401.223	-97.506	-0.190	0.050
-400.209	-51.516	-0.411	-0.193
-399.194	-86.948	0.203	-0.062
-398.179	634.747	0.098	0.250
-397.165	37.931	0.119	0.107
-396.150	177.671	0.064	-0.095
-395.136	154.180	0.116	0.160
-394.121	-40.932	0.237	0.123
-393.106	171.901	0.054	-0.079
-392.092	-200.000	-0.029	0.235
-391.077	-48.859	0.284	-0.137
-390.063	12.658	-0.099	0.077
-389.048	85.073	-0.166	0.183
-388.033	115.492	-0.063	-0.078
-387.019	-78.115	0.264	0.092
-386.004	-200.000	0.001	-0.009
-384.990	-82.837	0.190	-0.062
-383.975	-71.420	-0.260	0.098
-382.960	-142.441	0.111	0.011
-381.946	800.000	0.173	-0.571
-380.931	265.220	0.110	-0.193
-379.917	-200.000	0.044	-0.240
-378.902	-138.307	-0.213	0.024
-377.888	-78.223	-0.084	0.029
-376.873	-183.422	0.387	-0.007
-375.858	-32.332	0.148	0.083
-374.844	483.927	-0.075	-0.172
-373.829	364.479	0.100	-0.203
-372.815	-79.083	-0.272	0.093
-371.800	-200.000	0.051	0.236
-370.785	90.720	-0.211	-0.238
-369.771	-200.000	-0.020	-0.142
-368.756	203.153	0.018	0.028
-367.742	-111.661	0.210	-0.043
-366.727	-22.225	-0.268	0.163
-365.712	-21.753	-0.333	0.204
-364.698	421.170	-0.095	-0.204
-363.683	233.800	-0.109	0.180
-362.669	-45.547	0.194	-0.097
-361.654	-101.342	0.328	-0.081
-360.639	4.023	0.243	-0.179
-359.625	-30.122	0.316	0.181
-358.610	-153.035	0.196	-0.014
-357.596	-200.000	-0.012	-0.259
-356.581	-6.658	0.202	0.139
-355.566	-200.000	0.017	0.079
-354.552	-85.265	0.091	0.029
-353.537	36.097	-0.284	0.252
-352.523	200.558	0.076	-0.117
-351.508	-200.000	-0.060	-0.372
-350.493	-73.166	0.217	-0.080
-349.479	-140.662	-0.297	-0.031
-348.464	37.731	-0.186	-0.166
-347.450	-200.000	0.071	-0.328
-346.435	61.908	-0.062	-0.062
-345.420	125.168	0.067	-0.086
-344.406	18.727	-0.201	-0.162
-343.391	-68.857	0.245	-0.095
-342.377	-200.000	0.002	0.029
-341.362	608.457	-0.080	0.201
-340.348	-200.000	-0.012	0.113
-339.333	800.000	0.071	0.222
-338.318	-185.018	-0.069	0.001
-337.304	66.819	0.064	0.066
-336.289	438.090	-0.157	0.344
-335.275	-58.140	-0.171	-0.075
-334.260	-117.833	0.419	0.076
-333.245	-177.976	0.050	0.001
-332.231	409.753	0.081	-0.172
-331.216	110.813	-0.086	0.105
-330.202	131.498	-0.083	-0.107
-329.187	151.485	0.262	0.359
-328.172	-77.662	0.222	0.077
-327.158	156.608	0.110	-0.153
-326.143	-200.000	-0.005	0.319
-325.129	71.864	0.063	0.066
-324.114	609.506	-0.078	-0.197
-323.099	-108.340	0.057	0.012
-322.085	-200.000	-0.008	0.095
-321.070	59.927	-0.162	-0.161
-320.056	61.507	-0.245	-0.245
-319.041	-184.133	-0.176	-0.003
-318.026	-96.892	0.116	-0.030
-317.012	330.449	0.108	-0.209
-315.997	78.462	0.076	0.081
-314.983	-135.027	-0.170	0.021
-313.968	-94.567	-0.076	-0.021
-312.953	-117.389	0.110	-0.020
-311.939	242.503	-0.028	-0.047
-310.924	-62.669	-0.235	-0.098
-309.910	247.210	0.205	0.348
-308.895	-177.206	0.130	-0.003
-307.880	105.540	-0.172	0.204
-306.866	186.329	0.044	0.066
-305.851	-85.592	0.188	-0.059
-304.837	12.499	0.130	-0.101
-303.822	-200.000	-0.029	-0.301
-302.807	21.179	0.224	-0.183
-301.793	59.120	-0.320	0.317
-300.778	14.537	0.305	-0.239
-299.764	330.863	-0.109	-0.211
-298.749	114.468	0.230	0.281
-297.735	-200.000	0.083	0.367
-296.720	224.506	0.079	-0.129
-295.705	-78.889	0.232	-0.079
-294.691	167.956	0.085	-0.121
-293.676	186.817	0.104	0.156
-292.662	-43.232	-0.280	0.142
-291.647	-1.512	-0.304	0.216
-290.632	-200.000	-0.009	-0.121
-289.618	408.265	0.140	-0.298
-288.603	-200.000	0.634	0.001
-287.589	-111.952	0.148	-0.030
-286.574	-200.000	0.002	-0.193
-285.559	-200.000	-0.010	-0.105
-284.545	167.054	0.088	-0.126
-283.530	800.000	0.018	-0.068
-282.516	80.856	-0.253	0.274
-281.501	-79.620	0.124	-0.042
-280.486	-200.000	0.003	-0.290
-279.472	-45.907	-0.277	-0.137
-278.457	-19.234	-0.088	-0.055
-277.443	-16.854	-0.069	0.044
-276.428	178.915	-0.237	0.347
-275.413	15.571	-0.125	0.099
-274.399	800.000	0.059	-0.199
-273.384	370.135	0.127	-0.258
-272.370	97.558	0.080	0.092
-271.355	263.404	0.144	-0.251
-270.340	-145.958	0.233	-0.021
-269.326	-121.386	-0.273	0.046
-268.311	100.428	-0.297	0.347
-267.297	150.925	0.174	0.238
-266.282	551.546	0.047	0.113
-265.267	-200.000	0.010	-0.181
-264.253	-200.000	-0.034	0.166
-263.238	150.827	-0.133	-0.182
-262.224	345.644	-0.039	0.078
-261.209	-6.852	0.226	0.154
-260.195	-149.428	0.221	-0.018
-259.180	-72.566	0.276	-0.102
-258.165	-91.495	-0.284	0.081
-257.151	-78.784	0.165	-0.057
-256.136	800.000	0.104	0.388
-255.122	23.342	-0.208	0.171
-254.107	79.438	0.273	0.294
-253.092	-1.604	-0.094	-0.066
-252.078	800.000	-0.071	-0.246
-251.063	-33.485	0.047	0.026
-250.049	489.832	0.127	-0.291
-249.034	66.140	-0.144	-0.146
-248.019	-200.000	-0.027	0.304
-247.005	-63.201	-0.157	-0.065
-245.990	437.090	-0.125	-0.273
-244.976	36.365	-0.376	0.332
-243.961	-72.380	0.225	-0.083
-242.946	2.228	-0.164	0.119
-241.932	-48.393	0.236	0.114
-240.917	41.823	-0.286	-0.260
-239.903	55.935	-0.120	-0.117
-238.888	611.077	0.024	0.060
-237.873	181.015	0.149	0.219
-236.859	-88.107	-0.185	-0.056
-235.844	79.192	0.107	-0.115
-234.830	41.905	-0.206	-0.188
-233.815	-36.172	0.169	0.092
-232.800	-116.525	0.089	0.017
-231.786	89.839	-0.164	-0.183
-230.771	538.609	0.139	0.331
-229.757	154.251	-0.145	0.199
-228.742	-81.819	0.121	0.040
-227.727	-38.746	-0.183	-0.097
-226.713	-81.060	-0.205	0.068
-225.698	-111.777	-0.431	-0.087
-224.684	-104.051	0.127	0.030
-223.669	6.315	0.200	0.149
-222.655	-100.215	0.255	-0.064
-221.640	-118.614	0.131	-0.023
-220.625	51.243	-0.176	-0.168
-219.611	-200.000	0.002	0.133
-218.596	-69.165	0.088	0.034
-217.582	78.876	0.087	-0.094
-216.567	-13.254	-0.165	0.107
-215.552	-9.798	0.145	0.097
-214.538	-101.950	-0.080	-0.019
-213.523	800.000	0.028	-0.103
-212.509	-47.892	-0.106	0.051
-211.494	122.881	0.097	-0.121
-210.479	-113.034	-0.428	0.085
-209.465	-200.000	0.056	0.270
-208.450	-132.738	0.153	0.020
-207.436	800.000	-0.041	0.146
-206.421	77.000	0.078	-0.083
-205.406	22.405	0.092	-0.075
-204.392	-119.153	0.258	-0.045
-203.377	-200.000	0.028	-0.150
-202.363	61.380	0.204	-0.203
-201.348	-200.000	0.014	0.279
-200.333	38.316	-0.121	-0.108
-199.319	-104.016	0.215	-0.050
-198.304	-67.959	0.178	-0.070
-197.290	-84.224	-0.188	-0.060
-196.275	361.524	0.029	0.058
-195.260	800.000	0.145	0.457
-194.246	-71.583	0.150	0.056
-193.231	-15.010	0.122	-0.078
-192.217	-200.000	0.007	0.199
-191.202	40.938	0.125	0.113
-190.187	-65.917	0.156	-0.062
-189.173	-52.935	-0.175	-0.081
-188.158	173.937	0.137	0.197
-187.144	-178.133	0.032	0.001
-186.129	511.061	-0.053	-0.124
-185.114	-24.878	0.157	0.093
-184.100	-121.186	0.239	0.040
-183.085	5.377	0.245	0.181
-182.071	-200.000	-0.028	-0.217
-181.056	122.666	-0.076	0.094
-180.042	-200.000	0.007	0.259
-179.027	310.543	-0.222	-0.415
-178.012	-50.298	0.261	-0.123
-176.998	81.873	0.101	0.109
-175.983	-200.000	0.012	-0.245
-174.969	164.333	-0.247	0.348
-173.954	29.137	-0.122	0.104
-172.939	-5.645	-0.399	-0.274
-171.925	-11.591	0.124	-0.081
-170.910	800.000	0.051	0.164
-169.896	-163.113	0.090	0.004
-168.881	800.000	0.008	-0.031
-167.866	-6.658	0.378	-0.257
-166.852	-200.000	-0.310	0.000
-165.837	164.996	0.147	0.207
-164.823	35.900	0.114	-0.100
-163.808	86.682	-0.044	-0.048
-162.793	-200.000	0.032	0.151
-161.779	333.046	0.086	0.166
-160.764	114.577	0.099	0.121
-159.750	-90.162	-0.170	-0.049
-158.735	105.366	-0.180	0.212
-157.720	-30.652	0.044	0.025
-156.706	-13.434	0.255	0.165
-155.691	-3.583	-0.350	0.243
-154.677	273.324	0.163	0.288
-153.662	-200.000	-0.089	0.490
-152.647	-102.651	-0.162	0.039
-151.633	306.435	-0.048	0.089
-150.618	-200.000	-0.007	-0.232
-149.604	-200.000	0.030	-0.324
-148.589	-200.000	0.003	-0.106
-147.574	-112.267	-0.261	0.052
-146.560	-27.210	-0.243	-0.141
-145.545	-46.323	-0.104	0.051
-144.531	-127.579	-0.430	0.062
-143.516	-200.000	0.014	0.090
-142.502	800.000	0.061	-0.221
-141.487	134.794	0.182	0.236
-140.472	156.865	0.182	-0.251
-139.458	-63.778	0.128	0.052
-138.443	-200.000	0.011	-0.065
-137.429	-52.985	-0.126	-0.058
-136.414	-76.990	0.382	0.133
-135.399	9.685	-0.331	0.250
-134.385	800.000	0.104	0.403
-133.370	800.000	-0.037	-0.118
-132.356	-200.000	-0.094	-0.570
-131.341	-12.878	-0.147	0.095
-130.326	22.508	0.166	-0.136
-129.312	800.000	0.063	-0.186
-128.297	-180.553	-0.188	0.004
-127.283	-99.621	0.195	0.049
-126.268	289.786	-0.049	-0.089
-125.253	-94.478	0.185	0.050
-124.239	-8.051	0.416	0.280
-123.224	-16.427	-0.128	0.081
-122.210	-39.425	0.255	0.133
-121.195	-42.184	0.223	0.114
