DTS Sentinel unit serial number:	SN413079Multiplexer serial number:	ORYXHardware model number:	OX4-SRSoftware version number:	ORYX F/W v4.00 Oryx Data Collector v3.7.2.0data status	okinstallation	princeton_trtdifferential loss correction	single-endedforward channel	channel 2reverse channel	N/Adate	2019/09/19time	00:03:34forward acquisition time	60.00reverse acquisition time	0.00gamma	496.2192k internal	0.2352k external	0.2352temperature offset calibration	1.0016default loss term (dB/km)	0.3790temperature slope calibration	1.0000multiplexer offset coefficient	1.0000multiplexer slope coefficient	1.0000fibre end	0.00T internal ref (°C)	23.02T ext. ref 1 (°C)	0.74T ext. ref 2 (°C)	15.90length (m)	temperature (°C)	Stokes	anti-Stokes-747.200	145.672	-0.024	-0.032
-746.185	-47.557	-0.308	0.149
-745.171	612.369	0.086	-0.215
-744.156	11.687	0.226	-0.173
-743.142	619.939	-0.055	-0.137
-742.127	153.629	0.039	0.053
-741.112	-62.278	0.245	0.102
-740.098	495.373	0.085	-0.194
-739.083	633.439	0.045	-0.115
-738.069	800.000	-0.068	0.199
-737.054	35.535	-0.039	-0.034
-736.039	34.987	-0.272	0.238
-735.025	-200.000	0.002	-0.020
-734.010	-200.000	0.018	-0.151
-732.996	-200.000	-0.005	-0.236
-731.981	-123.645	-0.257	0.041
-730.966	60.317	0.074	-0.073
-729.952	720.564	-0.064	-0.170
-728.937	-111.975	-0.522	-0.105
-727.923	-200.000	-0.029	-0.174
-726.908	-12.186	0.241	-0.157
-725.894	190.098	-0.159	-0.237
-724.879	800.000	-0.050	-0.145
-723.864	214.496	0.129	-0.204
-722.850	800.000	0.090	-0.256
-721.835	-125.138	-0.327	-0.050
-720.821	431.979	-0.088	-0.191
-719.806	381.029	-0.136	-0.279
-718.791	-126.849	-0.250	0.037
-717.777	22.243	0.186	-0.152
-716.762	86.902	-0.277	0.305
-715.748	800.000	-0.014	-0.040
-714.733	800.000	-0.012	0.052
-713.718	154.968	0.111	0.152
-712.704	435.477	0.142	-0.307
-711.689	-160.524	-0.323	-0.017
-710.675	-120.219	0.344	-0.059
-709.660	113.291	-0.266	-0.321
-708.645	800.000	0.007	0.029
-707.631	-147.138	0.138	0.012
-706.616	-200.000	0.008	-0.128
-705.602	800.000	0.035	-0.109
-704.587	-53.925	-0.260	-0.118
-703.572	38.210	-0.179	-0.159
-702.558	-200.000	-0.006	-0.140
-701.543	142.726	-0.108	0.143
-700.529	123.012	0.222	-0.277
-699.514	-94.590	0.245	-0.066
-698.499	118.274	-0.044	-0.054
-697.485	-84.341	-0.068	0.022
-696.470	-40.041	0.178	-0.092
-695.456	-187.915	0.172	0.002
-694.441	376.939	0.033	0.068
-693.426	143.475	0.148	-0.196
-692.412	-200.000	0.010	-0.085
-691.397	-200.000	0.000	-0.293
-690.383	-20.848	0.214	-0.131
-689.368	7.445	-0.073	0.054
-688.354	-42.438	0.052	0.026
-687.339	-200.000	-0.038	0.180
-686.324	-200.000	-0.011	-0.059
-685.310	98.009	-0.198	0.226
-684.295	34.218	0.095	0.083
-683.281	800.000	-0.061	-0.264
-682.266	800.000	0.056	-0.236
-681.251	-200.000	0.024	-0.564
-680.237	219.458	0.084	-0.134
-679.222	187.309	-0.101	-0.149
-678.208	139.319	0.142	-0.186
-677.193	111.026	-0.157	-0.188
-676.178	33.395	0.305	-0.263
-675.164	38.644	0.249	-0.221
-674.149	111.962	-0.160	-0.193
-673.135	800.000	-0.123	-0.372
-672.120	800.000	0.140	-0.446
-671.105	-200.000	-0.011	0.137
-670.091	-200.000	-0.004	-0.113
-669.076	-200.000	-0.029	-0.189
-668.062	-40.406	0.339	-0.175
-667.047	12.526	-0.096	-0.073
-666.032	198.523	-0.072	0.109
-665.018	261.507	-0.047	-0.081
-664.003	-200.000	-0.021	0.291
-662.989	-38.034	-0.315	-0.166
-661.974	-35.743	0.557	0.300
-660.959	450.178	0.193	-0.424
-659.945	-63.872	-0.140	-0.057
-658.930	-53.533	-0.498	0.226
-657.916	-200.000	0.062	-0.357
-656.901	19.664	0.464	-0.371
-655.886	-200.000	-0.012	0.125
-654.872	106.846	0.276	-0.326
-653.857	-200.000	-0.023	0.111
-652.843	101.574	-0.133	0.154
-651.828	-33.695	-0.194	0.106
-650.814	-18.932	0.038	-0.024
-649.799	800.000	-0.055	-0.155
-648.784	800.000	-0.054	-0.204
-647.770	54.982	-0.431	-0.413
-646.755	216.437	-0.270	0.427
-645.741	-18.403	-0.170	0.106
-644.726	-155.359	-0.311	0.020
-643.711	126.267	-0.219	-0.276
-642.697	-32.305	0.107	-0.060
-641.682	133.635	0.095	-0.122
-640.668	-109.789	-0.026	0.005
-639.653	-200.000	-0.010	-0.089
-638.638	-8.708	0.169	0.113
-637.624	335.242	-0.051	-0.098
-636.609	98.697	-0.068	0.078
-635.595	-200.000	0.006	-0.261
-634.580	800.000	0.054	0.148
-633.565	-106.413	0.383	-0.085
-632.551	4.625	-0.021	0.015
-631.536	-23.455	0.201	-0.120
-630.522	-53.809	0.314	0.142
-629.507	-200.000	-0.002	0.020
-628.492	151.270	0.019	-0.026
-627.478	230.642	-0.114	-0.186
-626.463	-200.000	-0.045	0.288
-625.449	-92.910	-0.507	-0.141
-624.434	185.977	0.026	0.038
-623.419	-175.133	0.224	-0.006
-622.405	-76.034	-0.320	0.112
-621.390	-40.267	-0.149	0.077
-620.376	129.035	0.283	0.359
-619.361	-111.561	-0.107	0.022
-618.346	-200.000	-0.007	-0.190
-617.332	23.404	-0.157	0.128
-616.317	-200.000	-0.035	0.342
-615.303	-122.520	-0.022	-0.004
-614.288	-90.710	0.151	0.043
-613.273	-48.302	0.092	0.044
-612.259	-200.000	-0.031	-0.312
-611.244	-200.000	-0.005	0.082
-610.230	-200.000	0.023	-0.291
-609.215	261.146	-0.179	0.307
-608.201	510.834	-0.040	0.091
-607.186	125.813	-0.119	0.149
-606.171	95.010	-0.142	0.160
-605.157	-40.366	0.176	0.091
-604.142	-27.740	0.115	-0.066
-603.128	112.213	0.164	0.196
-602.113	-200.000	-0.012	0.272
-601.098	800.000	-0.098	-0.369
-600.084	-137.481	-0.144	-0.016
-599.069	25.355	-0.390	-0.322
-598.055	-22.367	0.137	0.082
-597.040	244.120	0.225	-0.374
-596.025	-83.667	0.095	-0.030
-595.011	259.669	-0.053	-0.091
-593.996	328.260	-0.067	-0.128
-592.982	-200.000	0.076	0.470
-591.967	602.119	0.090	0.221
-590.952	21.626	0.134	-0.108
-589.938	-181.201	-0.173	-0.003
-588.923	-65.939	-0.092	-0.037
-587.909	-1.325	0.222	0.155
-586.894	33.568	0.261	-0.225
-585.879	-200.000	0.047	-0.269
-584.865	-86.240	0.199	0.061
-583.850	800.000	0.103	-0.439
-582.836	-55.294	0.206	-0.092
-581.821	-141.746	-0.066	-0.007
-580.806	-200.000	-0.031	0.159
-579.792	-200.000	0.045	-0.313
-578.777	115.913	-0.004	-0.005
-577.763	-143.420	-0.193	0.018
-576.748	-173.456	-0.206	-0.006
-575.733	-15.532	-0.351	0.222
-574.719	-151.873	-0.042	0.003
-573.704	-23.542	-0.210	-0.125
-572.690	225.293	-0.078	0.126
-571.675	548.650	-0.194	-0.459
-570.661	12.060	0.138	0.105
-569.646	800.000	0.023	-0.065
-568.631	-56.509	-0.157	-0.069
-567.617	-124.845	0.091	-0.014
-566.602	182.823	0.208	-0.304
-565.588	-117.975	0.217	0.038
-564.573	-12.050	-0.053	-0.034
-563.558	-8.366	-0.154	0.102
-562.544	-200.000	0.002	-0.017
-561.529	-125.979	-0.231	-0.034
-560.515	144.149	-0.116	-0.154
-559.500	163.541	-0.137	-0.191
-558.485	-159.977	0.169	-0.009
-557.471	290.541	-0.116	0.209
-556.456	800.000	0.085	0.280
-555.442	-60.314	-0.293	-0.124
-554.427	-76.521	0.166	-0.058
-553.412	800.000	-0.090	-0.349
-552.398	-118.849	-0.028	-0.005
-551.383	101.712	-0.184	0.213
-550.369	369.979	0.050	-0.100
-549.354	27.779	0.191	0.159
-548.339	190.641	0.169	0.251
-547.325	-17.502	-0.120	0.074
-546.310	-15.368	-0.309	0.195
-545.296	-107.530	-0.104	0.023
-544.281	4.950	-0.141	0.103
-543.266	182.291	0.180	0.262
-542.252	-22.483	-0.297	-0.178
-541.237	800.000	0.060	0.212
-540.223	2.865	0.017	0.013
-539.208	800.000	-0.014	0.046
-538.193	-161.172	-0.263	-0.014
-537.179	64.930	-0.041	0.041
-536.164	146.211	-0.198	0.262
-535.150	800.000	0.013	-0.044
-534.135	-132.029	0.173	0.022
-533.121	137.006	0.132	0.170
-532.106	800.000	-0.062	-0.245
-531.091	-45.547	0.320	-0.157
-530.077	-200.000	-0.021	0.105
-529.062	800.000	0.087	-0.328
-528.048	559.753	0.088	-0.211
-527.033	-109.684	-0.277	0.058
-526.018	39.769	0.043	-0.038
-525.004	800.000	0.071	-0.220
-523.989	-53.031	0.190	-0.087
-522.975	-200.000	-0.018	0.141
-521.960	148.016	-0.302	0.403
-520.945	-172.807	0.221	0.007
-519.931	-175.800	0.439	0.012
-518.916	128.496	0.060	-0.076
-517.902	800.000	-0.137	-0.428
-516.887	145.429	0.141	0.186
-515.872	189.207	0.274	-0.406
-514.858	155.090	-0.043	-0.059
-513.843	-74.767	0.242	0.086
-512.829	-45.581	-0.085	-0.042
-511.814	54.317	0.077	0.073
-510.799	-200.000	-0.108	-0.595
-509.785	800.000	-0.119	-0.356
-508.770	-103.918	-0.289	-0.067
-507.756	-174.509	0.374	0.011
-506.741	-200.000	0.006	-0.035
-505.726	-134.575	-0.162	-0.020
-504.712	-140.196	0.245	-0.025
-503.697	-169.826	-0.203	-0.007
-502.683	800.000	0.068	0.239
-501.668	-200.000	0.004	0.044
-500.653	-200.000	0.010	0.381
-499.639	-71.247	-0.209	-0.078
-498.624	-93.272	0.197	0.054
-497.610	-45.645	0.252	-0.123
-496.595	267.963	0.013	-0.023
-495.581	-107.411	0.474	-0.103
-494.566	40.516	-0.275	-0.244
-493.551	146.600	-0.189	0.251
-492.537	337.755	-0.119	-0.229
-491.522	-116.520	-0.261	-0.048
-490.508	78.081	-0.146	-0.154
-489.493	-200.000	0.040	-0.491
-488.478	335.616	-0.121	0.233
-487.464	357.064	0.068	-0.134
-486.449	-101.316	-0.228	-0.055
-485.435	-73.559	-0.241	0.087
-484.420	-43.371	-0.023	-0.012
-483.405	88.947	0.180	0.198
-482.391	-200.000	0.029	0.237
-481.376	11.595	0.144	-0.109
-480.362	-34.468	-0.065	-0.035
-479.347	-90.232	-0.300	0.086
-478.332	800.000	0.035	0.128
-477.318	132.821	-0.064	-0.082
-476.303	-2.050	-0.321	0.223
-475.289	-144.988	0.416	0.037
-474.274	-25.311	0.266	-0.155
-473.259	254.545	0.049	-0.082
-472.245	185.885	0.248	-0.364
-471.230	-89.724	-0.078	-0.022
-470.216	-35.971	-0.085	0.046
-469.201	800.000	-0.055	0.165
-468.186	800.000	-0.100	0.302
-467.172	800.000	-0.057	0.232
-466.157	293.078	0.116	-0.209
-465.143	-200.000	0.028	-0.223
-464.128	270.135	0.100	-0.173
-463.113	608.264	0.104	0.256
-462.099	-110.826	0.164	-0.033
-461.084	54.717	-0.157	0.149
-460.070	347.596	0.046	-0.089
-459.055	-98.957	0.318	0.080
-458.040	121.206	-0.105	0.129
-457.026	800.000	0.055	-0.159
-456.011	-200.000	0.048	-0.230
-454.997	-181.458	0.143	-0.003
-453.982	-95.983	0.204	0.054
-452.968	284.758	0.149	-0.264
-451.953	-200.000	-0.001	-0.040
-450.938	121.001	0.032	-0.039
-449.924	117.176	0.084	-0.102
-448.909	29.973	0.218	0.183
-447.895	43.973	0.164	-0.148
-446.880	130.953	-0.166	0.210
-445.865	800.000	-0.007	-0.021
-444.851	-123.823	0.064	-0.010
-443.836	-52.798	-0.596	0.271
-442.822	195.701	0.042	0.063
-441.807	-53.317	-0.116	-0.052
-440.792	-102.224	-0.020	-0.005
-439.778	-84.703	-0.318	0.099
-438.763	-142.401	0.375	0.036
-437.749	53.525	0.035	0.033
-436.734	53.302	0.061	-0.057
-435.719	196.626	0.169	-0.254
-434.705	-9.369	0.028	0.018
-433.690	-11.651	-0.086	-0.056
-432.676	240.554	-0.059	-0.097
-431.661	-200.000	0.211	-0.001
-430.646	84.270	-0.090	0.097
-429.632	-55.494	0.331	0.146
-428.617	375.381	0.077	0.155
-427.603	-200.000	-0.004	0.153
-426.588	-38.152	-0.174	-0.091
-425.573	-130.932	-0.604	0.080
-424.559	94.886	-0.108	-0.121
-423.544	333.920	0.097	0.185
-422.530	170.772	0.109	0.154
-421.515	64.459	-0.144	0.143
-420.500	-25.239	-0.038	0.022
-419.486	188.826	-0.126	0.185
-418.471	800.000	-0.040	0.157
-417.457	800.000	-0.046	-0.166
-416.442	32.263	0.290	0.246
-415.428	127.649	0.115	-0.144
-414.413	552.254	-0.111	0.261
-413.398	-136.850	0.287	0.032
-412.384	-18.152	0.165	0.101
-411.369	-136.150	0.323	0.037
-410.355	444.907	0.060	0.130
-409.340	6.275	-0.372	-0.272
-408.325	-170.321	0.268	-0.009
-407.311	-126.834	-0.125	-0.018
-406.296	-82.172	-0.265	-0.085
-405.282	-200.000	-0.004	0.144
-404.267	-200.000	-0.010	0.209
-403.252	-145.099	-0.098	-0.009
-402.238	-35.821	0.084	0.045
-401.223	146.103	-0.191	-0.252
-400.209	800.000	0.067	0.247
-399.194	-150.154	0.198	-0.015
-398.179	-31.722	-0.145	-0.080
-397.165	-200.000	-0.005	0.105
-396.150	-200.000	-0.018	0.233
-395.136	121.933	-0.114	0.140
-394.121	-9.144	0.156	-0.103
-393.106	800.000	0.163	-0.492
-392.092	-108.689	0.443	-0.094
-391.077	-44.576	-0.316	-0.155
-390.063	235.370	-0.053	-0.086
-389.048	793.579	0.143	-0.388
-388.033	-151.478	-0.125	0.009
-387.019	330.039	0.202	-0.383
-386.004	-108.945	0.071	-0.015
-384.990	-40.842	0.108	-0.055
-383.975	-52.905	-0.117	-0.053
-382.960	90.596	0.249	0.274
-381.946	-200.000	0.025	0.355
-380.931	-200.000	-0.049	-0.463
-379.917	-136.356	-0.054	-0.006
-378.902	-200.000	-0.029	0.202
-377.888	800.000	-0.024	-0.083
-376.873	-54.237	0.219	0.098
-375.858	0.104	-0.060	-0.042
-374.844	4.194	0.096	-0.069
-373.829	52.361	0.113	0.106
-372.815	80.581	0.168	0.178
-371.800	800.000	0.019	-0.074
-370.785	646.923	0.065	-0.163
-369.771	-200.000	0.039	-0.287
-368.756	581.106	-0.117	0.282
-367.742	-200.000	-0.022	0.364
-366.727	-82.699	-0.280	-0.089
-365.712	-200.000	0.040	0.337
-364.698	-90.807	-0.022	-0.006
-363.683	-200.000	0.024	-0.167
-362.669	178.041	-0.212	0.304
-361.654	126.209	-0.132	0.164
-360.639	107.369	-0.201	0.235
-359.625	-200.000	0.014	0.187
-358.610	800.000	0.054	-0.198
-357.596	43.945	-0.217	0.196
-356.581	-106.798	0.261	0.057
-355.566	78.571	0.196	-0.206
-354.552	-83.905	-0.193	0.060
-353.537	800.000	-0.012	-0.047
-352.523	-200.000	0.057	0.253
-351.508	196.955	0.190	0.285
-350.493	634.266	-0.043	0.108
-349.479	403.771	0.098	-0.203
-348.464	-41.000	0.217	0.110
-347.450	112.161	-0.090	-0.107
-346.435	43.220	-0.023	0.021
-345.420	327.574	0.054	-0.102
-344.406	460.715	0.097	0.211
-343.391	-72.369	-0.318	-0.115
-342.377	-86.158	0.326	-0.099
-341.362	-7.546	-0.185	0.123
-340.348	-61.409	0.246	0.102
-339.333	-200.000	-0.050	-0.489
-338.318	-79.155	-0.154	-0.051
-337.304	-200.000	-0.040	0.203
-336.289	-200.000	0.205	0.000
-335.275	126.878	0.055	-0.068
-334.260	-200.000	-0.015	0.202
-333.245	-126.122	0.413	-0.061
-332.231	445.657	-0.052	-0.111
-331.216	325.808	-0.079	0.148
-330.202	800.000	0.029	0.089
-329.187	65.999	0.237	0.236
-328.172	800.000	0.035	-0.112
-327.158	420.556	-0.150	0.316
-326.143	247.624	-0.124	0.205
-325.129	139.307	0.149	-0.193
-324.114	681.120	-0.210	-0.536
-323.099	17.214	-0.244	0.190
-322.085	3.472	0.066	0.047
-321.070	19.025	0.210	-0.165
-320.056	-200.000	-0.033	0.238
-319.041	123.901	0.059	0.072
-318.026	-92.249	-0.102	-0.028
-317.012	-8.586	-0.107	0.070
-315.997	-175.353	-0.342	-0.009
-314.983	-63.750	0.257	-0.103
-313.968	-37.563	-0.083	-0.043
-312.953	1.045	-0.219	0.154
-311.939	367.769	-0.115	-0.229
-310.924	-200.000	0.065	0.329
-309.910	90.127	0.236	0.259
-308.895	311.954	0.154	-0.284
-307.880	107.565	-0.014	0.016
-306.866	138.401	0.312	0.402
-305.851	-200.000	-0.002	-0.169
-304.837	800.000	0.014	0.046
-303.822	279.310	-0.137	-0.240
-302.807	128.323	0.072	-0.090
-301.793	346.456	-0.171	0.330
-300.778	-81.672	-0.224	0.072
-299.764	-83.970	0.215	0.067
-298.749	-84.296	0.272	-0.084
-297.735	357.133	0.077	-0.150
-296.720	50.301	-0.167	0.155
-295.705	1.365	0.108	-0.076
-294.691	-200.000	-0.064	-0.284
-293.676	-182.839	0.134	-0.002
-292.662	195.808	-0.073	-0.110
-291.647	800.000	-0.042	0.147
-290.632	220.959	-0.195	0.307
-289.618	118.902	0.082	-0.100
-288.603	-26.798	0.042	-0.024
-287.589	-31.442	-0.155	-0.085
-286.574	800.000	0.107	0.327
-285.559	191.869	-0.229	0.339
-284.545	-0.151	-0.160	-0.112
-283.530	287.084	-0.053	0.094
-282.516	153.873	0.183	0.246
-281.501	-200.000	0.028	0.126
-280.486	467.840	-0.184	0.404
-279.472	449.819	0.039	0.085
-278.457	495.863	0.114	0.257
-277.443	123.031	0.223	-0.274
-276.428	-200.000	0.057	0.262
-275.413	-32.178	-0.344	0.188
-274.399	164.296	0.054	0.075
-273.384	-131.627	0.179	0.023
-272.370	267.236	0.166	0.284
-271.355	38.346	-0.248	-0.216
-270.340	-98.446	-0.309	0.077
-269.326	209.981	-0.054	-0.083
-268.311	525.515	0.014	0.032
-267.297	-28.120	-0.052	-0.030
-266.282	100.331	-0.028	0.032
-265.267	-200.000	-0.004	-0.338
-264.253	800.000	0.024	0.092
-263.238	-41.650	0.444	0.223
-262.224	-120.432	0.031	0.005
-261.209	86.555	0.122	-0.131
-260.195	437.339	-0.128	-0.272
-259.180	-120.132	0.100	-0.017
-258.165	-77.270	-0.113	-0.039
-257.151	308.852	-0.037	0.067
-256.136	47.841	-0.055	-0.050
-255.122	-73.834	0.224	-0.080
-254.107	800.000	0.072	-0.297
-253.092	800.000	-0.144	-0.459
-252.078	173.873	-0.157	0.221
-251.063	447.339	-0.123	0.264
-250.049	800.000	0.088	-0.355
-249.034	800.000	0.044	0.128
-248.019	800.000	0.044	-0.127
-247.005	-33.506	0.196	-0.106
-245.990	-96.501	-0.317	0.082
-244.976	252.901	-0.040	0.067
-243.961	91.034	-0.052	0.057
-242.946	-159.987	-0.316	0.017
-241.932	48.793	-0.248	-0.228
-240.917	-13.135	0.091	0.058
-239.903	-24.457	-0.193	-0.112
-238.888	-200.000	-0.008	0.148
-237.873	465.305	-0.156	0.342
-236.859	398.703	-0.055	-0.112
-235.844	-101.268	-0.177	0.042
-234.830	418.542	0.118	-0.247
-233.815	130.279	0.252	-0.316
-232.800	-13.474	-0.094	-0.060
-231.786	355.339	0.122	-0.238
-230.771	800.000	-0.058	0.246
-229.757	-22.578	0.200	-0.118
-228.742	-118.333	0.356	-0.062
-227.727	207.469	0.158	-0.240
-226.713	107.554	-0.189	0.219
-225.698	70.524	0.140	-0.141
-224.684	-45.513	-0.198	0.096
-223.669	-114.327	-0.260	0.049
-222.655	355.664	0.031	-0.061
-221.640	-200.000	-0.006	-0.242
-220.625	134.911	0.140	0.177
-219.611	-200.000	0.005	0.150
-218.596	-200.000	0.047	-0.319
-217.582	-157.340	-0.447	-0.026
-216.567	-182.777	-0.017	-0.000
-215.552	154.618	0.137	-0.183
-214.538	87.392	0.035	0.038
-213.523	-56.581	0.184	0.080
-212.509	266.747	-0.134	0.229
-211.494	-59.645	0.063	-0.026
-210.479	166.427	-0.226	-0.313
-209.465	-200.000	0.046	0.484
-208.450	-200.000	-0.002	0.067
-207.436	-75.328	0.068	0.024
-206.421	154.688	-0.093	-0.124
-205.406	383.210	-0.103	-0.207
-204.392	596.657	0.069	0.167
-203.377	-199.918	0.163	0.001
-202.363	139.995	-0.033	-0.043
-201.348	-139.999	-0.297	0.031
-200.333	284.001	0.267	0.469
-199.319	-140.994	-0.322	0.032
-198.304	-200.000	-0.007	0.368
-197.290	318.366	0.096	-0.178
-196.275	800.000	0.022	-0.076
-195.260	800.000	0.014	-0.039
-194.246	-200.000	-0.035	-0.166
-193.231	417.769	0.098	-0.205
-192.217	355.766	-0.147	0.287
-191.202	-48.809	-0.148	-0.069
-190.187	505.615	0.142	-0.321
-189.173	282.983	0.070	0.122
-188.158	-200.000	-0.018	0.167
-187.144	-133.358	-0.320	0.039
-186.129	-130.600	0.169	-0.022
-185.114	-83.956	-0.329	0.102
-184.100	206.280	0.093	0.142
-183.085	-83.247	-0.519	-0.163
-182.071	-200.000	0.017	0.147
-181.056	-67.571	-0.167	0.064
-180.042	-200.000	0.005	0.181
-179.027	165.423	-0.134	-0.185
-178.012	-191.760	-0.308	-0.003
-176.998	-84.757	0.237	-0.073
-175.983	-17.893	0.009	-0.006
-174.969	239.097	0.084	-0.137
-173.954	258.305	0.114	-0.192
-172.939	-200.000	-0.060	-0.258
-171.925	-82.294	0.534	-0.170
-170.910	31.992	-0.079	-0.066
-169.896	-200.000	0.060	-0.520
-168.881	-200.000	0.269	0.001
-167.866	-1.679	-0.062	-0.043
-166.852	-200.000	-0.027	-0.128
-165.837	73.299	0.296	-0.302
-164.823	-200.000	0.039	0.216
-163.808	-200.000	0.006	-0.123
-162.793	-105.035	-0.414	-0.092
-161.779	-200.000	0.018	-0.164
-160.764	15.105	0.121	0.092
-159.750	-45.995	0.576	0.277
-158.735	621.924	0.137	0.336
-157.720	-101.946	-0.232	0.055
-156.706	-47.043	0.196	0.093
-155.691	582.810	-0.064	0.153
-154.677	-53.559	0.054	0.024
-153.662	-13.124	0.165	0.104
-152.647	50.438	0.236	-0.217
-151.633	-37.323	0.033	0.017
-150.618	-165.487	0.156	-0.007
-149.604	-83.177	0.111	-0.035
-148.589	-150.247	-0.123	-0.009
-147.574	217.126	-0.056	0.087
-146.560	-200.000	0.029	0.189
-145.545	-114.948	-0.226	0.042
-144.531	173.238	-0.062	0.087
-143.516	800.000	-0.058	0.197
-142.502	180.313	0.112	0.159
-141.487	19.577	0.143	0.112
-140.472	-200.000	-0.005	0.245
-139.458	-200.000	-0.014	0.111
-138.443	-200.000	0.009	0.127
-137.429	-79.806	0.337	-0.111
-136.414	-46.710	-0.114	-0.054
-135.399	-77.346	0.174	0.059
-134.385	-50.188	-0.112	-0.052
-133.370	634.953	0.157	-0.389
-132.356	800.000	0.033	-0.114
-131.341	-94.789	-0.400	-0.106
-130.326	-146.833	0.236	0.020
-129.312	800.000	-0.128	0.521
-128.297	459.431	0.101	0.220
-127.283	-13.504	-0.241	0.152
-126.268	-132.595	-0.248	-0.031
-125.253	-97.245	0.396	0.101
-124.239	61.692	0.062	-0.060
-123.224	-73.498	0.113	0.040
-122.210	593.801	-0.142	-0.341
