DTS Sentinel unit serial number:	SN413079Multiplexer serial number:	ORYXHardware model number:	OX4-SRSoftware version number:	ORYX F/W v4.00 Oryx Data Collector v3.7.2.0data status	okinstallation	princeton_trtdifferential loss correction	single-endedforward channel	channel 2reverse channel	N/Adate	2019/09/17time	00:39:34forward acquisition time	60.00reverse acquisition time	0.00gamma	496.2192k internal	0.2329k external	0.2329temperature offset calibration	0.9972default loss term (dB/km)	0.3790temperature slope calibration	1.0000multiplexer offset coefficient	1.0000multiplexer slope coefficient	1.0000fibre end	0.00T internal ref (°C)	29.44T ext. ref 1 (°C)	0.10T ext. ref 2 (°C)	23.97length (m)	temperature (°C)	Stokes	anti-Stokes-747.200	-200.000	0.014	-0.150
-746.185	115.894	-0.149	0.184
-745.171	-30.656	-0.155	0.088
-744.156	252.841	0.244	0.420
-743.142	-64.210	0.438	0.180
-742.127	46.306	0.131	-0.122
-741.112	143.612	0.139	-0.186
-740.098	800.000	-0.077	-0.308
-739.083	192.931	0.133	0.202
-738.069	-200.000	-0.001	0.085
-737.054	-121.009	0.157	0.027
-736.039	800.000	-0.015	0.043
-735.025	-73.454	0.312	0.115
-734.010	-200.000	-0.025	-0.143
-732.996	-111.439	-0.090	-0.019
-731.981	44.355	-0.089	0.082
-730.966	800.000	0.109	0.363
-729.952	-115.867	-0.437	0.082
-728.937	-151.346	-0.199	-0.015
-727.923	114.518	-0.159	0.195
-726.908	39.936	0.079	0.072
-725.894	144.219	-0.144	-0.194
-724.879	493.777	0.107	0.246
-723.864	113.244	0.226	-0.276
-722.850	119.600	0.200	-0.250
-721.835	-200.000	0.040	-0.198
-720.821	800.000	-0.065	0.258
-719.806	800.000	0.043	-0.132
-718.791	-200.000	0.027	-0.173
-717.777	-154.347	-0.232	-0.016
-716.762	-144.030	-0.194	-0.018
-715.748	2.443	-0.216	0.158
-714.733	58.928	0.149	-0.147
-713.718	-163.820	0.324	0.015
-712.704	-118.641	-0.312	0.055
-711.689	86.559	0.282	-0.313
-710.675	-200.000	0.033	0.309
-709.660	-27.742	0.213	0.125
-708.645	272.682	-0.060	0.107
-707.631	-129.882	0.044	-0.006
-706.616	-196.206	-0.443	-0.003
-705.602	-52.227	-0.149	-0.069
-704.587	-97.346	-0.042	-0.011
-703.572	553.582	0.070	0.170
-702.558	174.828	-0.187	-0.273
-701.543	10.839	-0.322	-0.247
-700.529	-165.928	-0.290	0.012
-699.514	5.399	0.226	-0.168
-698.499	-200.000	0.040	-0.239
-697.485	327.051	0.035	-0.068
-696.470	-91.411	0.194	-0.056
-695.456	539.770	-0.094	0.225
-694.441	800.000	-0.126	0.448
-693.426	-200.000	-0.002	-0.230
-692.412	-200.000	0.014	0.068
-691.397	-200.000	0.035	-0.234
-690.383	439.968	-0.041	-0.089
-689.368	-200.000	0.038	-0.344
-688.354	360.433	-0.084	0.169
-687.339	-59.359	0.313	-0.135
-686.324	-77.496	-0.220	0.077
-685.310	440.240	-0.173	-0.380
-684.295	508.646	0.073	0.171
-683.281	800.000	0.062	-0.250
-682.266	174.877	-0.025	-0.036
-681.251	-80.609	-0.270	0.090
-680.237	-72.405	-0.390	-0.145
-679.222	-200.000	-0.020	-0.159
-678.208	-171.331	0.331	0.011
-677.193	567.466	-0.073	-0.178
-676.178	263.781	-0.164	0.287
-675.164	-7.383	-0.102	0.069
-674.149	-52.967	0.202	0.094
-673.135	602.241	0.125	-0.311
-672.120	800.000	0.075	-0.211
-671.105	81.803	0.152	0.165
-670.091	-105.591	0.292	-0.066
-669.076	-60.922	0.133	-0.056
-668.062	-59.875	0.130	-0.056
-667.047	-200.000	-0.006	0.449
-666.032	524.957	-0.123	0.290
-665.018	-89.747	-0.182	0.053
-664.003	583.333	0.029	-0.071
-662.989	-105.779	-0.108	0.024
-661.974	44.225	-0.232	0.214
-660.959	513.822	0.088	0.207
-659.945	800.000	0.054	-0.180
-658.930	346.380	-0.088	-0.174
-657.916	-134.154	-0.114	-0.014
-656.901	80.616	-0.088	-0.095
-655.886	120.353	0.140	0.175
-654.872	-17.942	0.183	-0.115
-653.857	489.191	0.070	-0.161
-652.843	-34.221	0.221	-0.122
-651.828	423.477	-0.178	0.385
-650.814	101.836	0.155	-0.181
-649.799	110.502	0.205	-0.247
-648.784	100.121	-0.115	-0.133
-647.770	-41.211	-0.226	0.117
-646.755	-131.925	0.105	-0.014
-645.741	-129.601	-0.217	0.030
-644.726	2.326	0.146	0.106
-643.711	-95.041	0.212	-0.058
-642.697	-200.000	-0.006	0.131
-641.682	-117.083	-0.185	0.034
-640.668	503.435	-0.072	0.168
-639.653	20.092	0.150	-0.121
-638.638	-60.554	0.234	-0.100
-637.624	532.365	-0.125	0.297
-636.609	-0.323	0.255	0.182
-635.595	-16.117	0.229	-0.146
-634.580	-200.000	0.010	0.313
-633.565	-55.648	0.281	-0.126
-632.551	23.958	0.188	-0.156
-631.536	212.832	0.119	-0.189
-630.522	-123.635	-0.077	-0.012
-629.507	-91.298	-0.106	0.030
-628.492	-120.974	0.054	-0.009
-627.478	-174.573	0.255	0.007
-626.463	-200.000	-0.009	0.040
-625.449	800.000	0.042	0.151
-624.434	303.457	0.057	0.107
-623.419	-146.984	-0.079	-0.007
-622.405	99.201	0.270	0.312
-621.390	-101.834	0.198	0.048
-620.376	94.912	0.347	-0.396
-619.361	137.686	0.161	-0.211
-618.346	390.126	-0.068	-0.141
-617.332	-44.127	-0.326	0.164
-616.317	126.013	-0.091	-0.115
-615.303	-200.000	-0.004	-0.049
-614.288	20.545	-0.141	0.114
-613.273	93.802	0.091	0.104
-612.259	9.531	0.056	0.043
-611.244	-118.636	-0.119	0.021
-610.230	99.745	0.022	0.025
-609.215	-62.680	-0.348	-0.144
-608.201	-200.000	-0.042	-0.361
-607.186	-12.087	-0.078	0.051
-606.171	-67.991	0.084	0.033
-605.157	152.791	0.195	0.267
-604.142	-190.122	-0.212	-0.002
-603.128	585.365	0.101	0.249
-602.113	62.123	0.262	0.261
-601.098	292.039	-0.091	-0.165
-600.084	211.863	0.172	-0.271
-599.069	-53.879	-0.278	-0.127
-598.055	58.823	-0.070	0.069
-597.040	13.209	0.123	-0.096
-596.025	260.535	0.041	-0.071
-595.011	-80.130	-0.042	-0.014
-593.996	157.354	-0.082	-0.114
-592.982	445.567	-0.042	0.093
-591.967	-200.000	0.055	-0.486
-590.952	327.532	0.079	-0.151
-589.938	99.518	-0.039	0.045
-588.923	285.713	0.072	-0.129
-587.909	-200.000	-0.009	-0.181
-586.894	800.000	0.007	0.027
-585.879	800.000	0.037	0.133
-584.865	-200.000	0.001	-0.135
-583.850	-200.000	0.012	0.167
-582.836	-39.604	-0.155	-0.081
-581.821	-200.000	-0.032	-0.308
-580.806	30.885	-0.243	0.208
-579.792	482.022	0.021	0.048
-578.777	563.127	-0.046	-0.112
-577.763	-200.000	0.016	-0.074
-576.748	-127.311	-0.406	0.059
-575.733	716.790	0.183	-0.486
-574.719	800.000	-0.066	-0.277
-573.704	742.276	0.071	0.190
-572.690	-31.387	0.164	-0.092
-571.675	91.013	-0.189	0.212
-570.661	134.020	0.202	-0.261
-569.646	185.684	-0.080	-0.118
-568.631	101.139	0.210	0.245
-567.617	800.000	-0.037	-0.160
-566.602	-75.536	0.202	0.072
-565.588	133.163	0.062	-0.080
-564.573	-200.000	-0.007	-0.318
-563.558	-30.395	0.283	0.160
-562.544	-131.334	-0.245	0.033
-561.529	75.234	-0.172	-0.182
-560.515	800.000	-0.138	-0.485
-559.500	17.419	-0.218	0.173
-558.485	-154.729	-0.134	-0.009
-557.471	-200.000	-0.003	-0.067
-556.456	-200.000	-0.008	-0.047
-555.442	-131.989	0.297	0.039
-554.427	376.922	0.029	0.059
-553.412	23.623	-0.091	0.075
-552.398	498.365	0.004	-0.010
-551.383	-4.064	-0.315	-0.218
-550.369	-200.000	-0.007	-0.150
-549.354	-11.039	0.218	0.144
-548.339	81.429	-0.168	-0.181
-547.325	68.507	-0.384	0.393
-546.310	469.220	-0.065	0.146
-545.296	-200.000	0.009	-0.249
-544.281	-149.429	-0.041	0.003
-543.266	124.730	-0.105	-0.133
-542.252	273.375	0.093	-0.165
-541.237	-41.966	-0.090	-0.046
-540.223	-68.845	-0.142	0.055
-539.208	314.048	-0.138	0.259
-538.193	332.918	0.110	-0.211
-537.179	300.452	-0.152	0.281
-536.164	246.834	0.185	0.313
-535.150	369.749	0.121	0.244
-534.135	-22.121	-0.220	-0.133
-533.121	-200.000	-0.001	-0.193
-532.106	84.123	-0.146	-0.160
-531.091	-12.319	0.190	-0.124
-530.077	-69.494	-0.213	0.081
-529.062	-29.351	0.209	-0.120
-528.048	23.547	-0.125	-0.102
-527.033	-200.000	-0.010	-0.116
-526.018	-85.335	-0.162	-0.051
-525.004	-72.859	0.222	-0.082
-523.989	800.000	0.151	-0.438
-522.975	174.920	-0.157	-0.226
-521.960	-87.905	0.130	0.039
-520.945	-70.416	0.213	-0.081
-519.931	174.474	-0.093	0.134
-518.916	-200.000	0.016	0.127
-517.902	476.131	0.071	0.160
-516.887	255.678	0.052	0.089
-515.872	-200.000	0.051	-0.277
-514.858	37.687	-0.382	-0.338
-513.843	800.000	-0.068	-0.208
-512.829	-147.019	-0.146	0.012
-511.814	-200.000	0.008	0.078
-510.799	-200.000	0.006	0.165
-509.785	-121.669	-0.043	0.007
-508.770	-39.222	0.169	-0.089
-507.756	-13.106	0.092	-0.060
-506.741	322.901	-0.086	0.164
-505.726	-200.000	-0.015	-0.304
-504.712	-57.977	-0.240	0.105
-503.697	107.296	-0.128	-0.152
-502.683	-133.700	-0.039	-0.005
-501.668	-200.000	-0.094	0.448
-500.653	-200.000	0.028	-0.311
-499.639	800.000	-0.031	0.112
-498.624	800.000	-0.096	0.289
-497.610	533.732	-0.019	0.045
-496.595	221.453	-0.080	0.128
-495.581	72.481	0.088	0.091
-494.566	-86.147	-0.457	-0.141
-493.551	297.946	-0.024	-0.044
-492.537	246.576	-0.165	0.277
-491.522	-62.328	0.249	-0.103
-490.508	250.455	-0.106	-0.179
-489.493	-200.000	-0.011	0.058
-488.478	429.236	-0.133	-0.287
-487.464	136.544	-0.307	-0.400
-486.449	-117.721	-0.225	-0.040
-485.435	-135.052	0.185	0.022
-484.420	-0.941	-0.087	0.062
-483.405	-8.403	-0.045	0.030
-482.391	-97.323	-0.195	0.051
-481.376	-200.000	0.011	-0.320
-480.362	-130.682	-0.166	-0.022
-479.347	169.047	-0.037	0.053
-478.332	-43.343	0.096	-0.048
-477.318	150.335	0.103	-0.139
-476.303	-200.000	-0.016	0.079
-475.289	-200.000	-0.002	0.279
-474.274	-67.216	0.175	0.069
-473.259	-200.000	-0.107	0.000
-472.245	96.323	0.270	-0.308
-471.230	49.295	0.027	0.025
-470.216	-200.000	-0.036	0.187
-469.201	-200.000	-0.009	-0.254
-468.186	418.643	0.085	-0.180
-467.172	224.822	-0.014	0.022
-466.157	-106.817	0.049	0.011
-465.143	88.439	0.124	-0.137
-464.128	67.143	-0.223	0.226
-463.113	770.293	-0.122	0.331
-462.099	484.923	-0.172	0.391
-461.084	176.736	-0.185	-0.268
-460.070	-200.000	-0.006	-0.227
-459.055	-200.000	-0.014	-0.098
-458.040	-24.078	0.101	-0.060
-457.026	-200.000	0.013	0.179
-456.011	-136.224	-0.276	0.032
-454.997	-169.011	-0.394	-0.015
-453.982	-22.041	0.085	-0.051
-452.968	313.150	-0.072	-0.135
-451.953	-2.899	0.181	0.126
-450.938	-119.371	-0.447	-0.077
-449.924	-13.092	-0.186	0.120
-448.909	510.226	-0.083	-0.192
-447.895	371.543	-0.050	-0.102
-446.880	-130.563	0.418	0.056
-445.865	-26.698	-0.175	0.102
-444.851	36.946	-0.025	0.022
-443.836	15.219	-0.151	-0.118
-442.822	800.000	-0.050	-0.200
-441.807	-200.000	-0.036	-0.247
-440.792	-79.751	0.103	-0.035
-439.778	-200.000	0.009	-0.208
-438.763	12.997	0.099	0.076
-437.749	-200.000	-0.016	0.399
-436.734	186.190	-0.184	0.273
-435.719	800.000	-0.097	0.296
-434.705	-200.000	0.003	-0.063
-433.690	-137.995	0.267	0.030
-432.676	112.052	0.124	0.149
-431.661	43.908	0.108	0.099
-430.646	800.000	0.009	-0.027
-429.632	-44.771	0.360	0.179
-428.617	134.884	0.073	0.095
-427.603	190.588	0.119	0.178
-426.588	174.838	0.032	-0.046
-425.573	-74.525	0.245	0.088
-424.559	-200.000	-0.042	-0.193
-423.544	-200.000	0.018	-0.177
-422.530	-44.027	-0.065	0.033
-421.515	-200.000	0.052	-0.344
-420.500	58.310	0.136	-0.133
-419.486	-160.823	-0.423	0.022
-418.471	-119.913	0.329	-0.056
-417.457	17.458	-0.166	-0.131
-416.442	-200.000	-0.018	0.225
-415.428	234.630	-0.070	0.115
-414.413	133.588	0.037	0.048
-413.398	-105.648	-0.124	0.028
-412.384	36.317	0.130	0.114
-411.369	-200.000	-0.011	0.107
-410.355	5.176	0.273	-0.200
-409.340	-16.653	-0.361	-0.227
-408.325	-113.968	-0.398	0.077
-407.311	-40.281	0.152	-0.079
-406.296	81.448	-0.305	0.327
-405.282	340.998	-0.028	0.053
-404.267	125.328	0.014	0.018
-403.252	-35.245	0.149	0.081
-402.238	-37.663	0.083	-0.044
-401.223	-113.152	-0.342	0.067
-400.209	35.679	0.039	-0.034
-399.194	-200.000	0.004	0.228
-398.179	-87.011	0.178	-0.054
-397.165	664.726	-0.116	-0.299
-396.150	-2.265	0.181	0.126
-395.136	-62.920	-0.262	-0.108
-394.121	-200.000	-0.012	-0.262
-393.106	-10.679	0.392	0.258
-392.092	-200.000	0.005	0.316
-391.077	-200.000	0.046	-0.249
-390.063	-123.080	-0.115	0.018
-389.048	800.000	0.026	0.088
-388.033	201.211	0.034	-0.052
-387.019	800.000	-0.068	0.278
-386.004	-200.000	-0.029	-0.179
-384.990	-126.863	0.060	-0.009
-383.975	-94.678	-0.051	0.014
-382.960	-200.000	-0.039	-0.184
-381.946	25.113	0.261	-0.215
-380.931	-77.681	0.130	-0.045
-379.917	93.183	0.095	0.107
-378.902	-88.365	0.055	0.016
-377.888	-200.000	0.002	0.157
-376.873	-200.000	-0.060	-0.264
-375.858	344.665	-0.089	0.174
-374.844	104.112	-0.133	0.156
-373.829	106.601	-0.148	-0.174
-372.815	-171.430	-0.139	-0.005
-371.800	-94.360	-0.338	0.092
-370.785	-200.000	0.014	-0.071
-369.771	88.622	-0.022	-0.024
-368.756	106.853	0.095	0.112
-367.742	-62.860	0.272	-0.112
-366.727	-200.000	0.109	0.560
-365.712	800.000	0.132	0.455
-364.698	-78.933	0.111	-0.038
-363.683	748.530	-0.034	0.091
-362.669	175.240	-0.301	0.433
-361.654	83.638	-0.123	-0.133
-360.639	430.974	-0.202	-0.434
-359.625	38.901	-0.067	0.059
-358.610	-79.426	0.244	-0.082
-357.596	-119.598	-0.032	0.006
-356.581	-64.069	0.448	0.181
-355.566	354.972	0.171	-0.337
-354.552	-117.513	0.190	-0.034
-353.537	-20.687	0.078	0.048
-352.523	-47.702	0.301	-0.145
-351.508	387.202	0.029	-0.060
-350.493	98.094	-0.296	0.338
-349.479	-101.257	-0.238	-0.058
-348.464	48.837	-0.116	0.108
-347.450	186.123	-0.058	0.085
-346.435	-100.638	-0.044	0.011
-345.420	181.121	-0.049	-0.071
-344.406	-73.803	-0.090	-0.032
-343.391	-83.476	0.282	0.089
-342.377	-200.000	-0.023	0.189
-341.362	-200.000	-0.027	0.369
-340.348	-53.333	0.152	0.069
-339.333	-99.499	0.045	0.011
-338.318	-20.994	0.046	-0.028
-337.304	-200.000	-0.004	-0.508
-336.289	-200.000	0.038	0.206
-335.275	-200.000	-0.025	-0.126
-334.260	129.079	0.136	-0.172
-333.245	-200.000	0.013	0.364
-332.231	126.142	-0.200	-0.250
-331.216	-27.133	0.154	-0.089
-330.202	250.070	0.182	0.305
-329.187	-118.751	-0.170	-0.030
-328.172	-200.000	-0.024	0.145
-327.158	51.027	0.188	-0.177
-326.143	-46.235	-0.471	0.230
-325.129	170.946	-0.152	0.216
-324.114	-122.875	0.210	0.034
-323.099	-200.000	0.020	-0.224
-322.085	-57.356	0.180	0.078
-321.070	800.000	-0.037	-0.112
-320.056	-151.912	0.336	-0.024
-319.041	137.426	0.044	0.058
-318.026	30.004	-0.142	0.120
-317.012	800.000	-0.063	-0.259
-315.997	638.292	0.049	-0.124
-314.983	47.645	-0.104	0.096
-313.968	21.856	-0.195	0.157
-312.953	30.347	-0.273	-0.231
-311.939	-78.076	0.415	-0.141
-310.924	0.488	0.204	-0.144
-309.910	-100.103	0.219	-0.054
-308.895	-126.569	0.138	0.020
-307.880	-200.000	0.003	-0.020
-306.866	183.280	0.192	-0.280
-305.851	67.558	-0.114	0.115
-304.837	394.041	0.044	0.090
-303.822	-14.315	-0.179	-0.114
-302.807	246.595	-0.182	0.304
-301.793	-44.154	0.080	0.040
-300.778	50.547	0.266	-0.249
-299.764	138.669	-0.176	0.229
-298.749	-17.336	-0.186	0.116
-297.735	-89.312	-0.030	-0.009
-296.720	800.000	0.075	-0.230
-295.705	-114.244	-0.267	0.051
-294.691	-28.885	0.206	-0.117
-293.676	800.000	0.133	0.531
-292.662	-200.000	0.067	0.429
-291.647	-144.338	-0.166	0.015
-290.632	-101.556	-0.366	-0.088
-289.618	-125.543	0.427	-0.064
-288.603	-200.000	0.061	0.285
-287.589	2.666	-0.224	-0.161
-286.574	19.526	-0.124	0.099
-285.559	316.397	0.257	-0.481
-284.545	-66.052	0.172	0.068
-283.530	46.970	-0.127	-0.117
-282.516	-191.131	-0.229	-0.002
-281.501	-142.516	0.176	-0.017
-280.486	-200.000	0.001	-0.065
-279.472	-200.000	0.010	0.063
-278.457	-200.000	0.022	0.105
-277.443	-81.342	-0.193	0.063
-276.428	-177.593	0.301	-0.007
-275.413	-181.132	-0.076	0.001
-274.399	727.774	0.110	0.289
-273.384	-150.711	-0.185	0.014
-272.370	-200.000	-0.045	0.335
-271.355	-200.000	0.010	0.286
-270.340	800.000	-0.055	0.156
-269.326	206.425	0.164	-0.252
-268.311	800.000	0.112	-0.437
-267.297	-108.350	-0.201	-0.043
-266.282	-156.225	0.325	0.020
-265.267	-200.000	-0.017	-0.145
-264.253	800.000	-0.049	0.145
-263.238	800.000	0.068	-0.193
-262.224	540.686	-0.142	0.334
-261.209	800.000	-0.046	-0.176
-260.195	-22.911	0.129	0.077
-259.180	-200.000	0.023	0.109
-258.165	-200.000	0.060	0.301
-257.151	-57.334	-0.155	-0.067
-256.136	-200.000	0.006	0.405
-255.122	-12.755	0.156	-0.100
-254.107	208.374	-0.079	-0.122
-253.092	-40.561	0.207	0.106
-252.078	161.359	-0.167	0.231
-251.063	-86.708	0.309	-0.094
-250.049	70.732	0.090	0.092
-249.034	-105.819	-0.181	0.040
-248.019	475.433	0.102	0.228
-247.005	-200.000	-0.003	-0.203
-245.990	162.862	-0.172	0.238
-244.976	310.510	0.111	0.205
-243.961	70.164	-0.165	-0.168
-242.946	738.343	0.060	0.159
-241.932	-104.716	0.414	-0.094
-240.917	-149.414	-0.489	-0.038
-239.903	534.172	0.133	0.312
-238.888	-37.285	-0.196	0.103
-237.873	-27.554	-0.091	0.052
-236.859	-146.569	-0.031	0.003
-235.844	217.030	0.105	0.164
-234.830	-135.133	-0.110	0.013
-233.815	-58.047	0.170	0.073
-232.800	-56.309	0.190	-0.083
-231.786	-200.000	0.031	-0.156
-230.771	3.122	0.305	0.219
-229.757	-65.456	-0.218	0.086
-228.742	193.074	0.017	-0.025
-227.727	800.000	-0.092	-0.357
-226.713	98.993	-0.069	0.079
-225.698	158.398	-0.164	0.224
-224.684	22.480	0.123	0.099
-223.669	25.574	0.234	0.193
-222.655	37.473	-0.243	-0.213
-221.640	-63.196	0.254	-0.103
-220.625	692.199	-0.026	-0.068
-219.611	1.896	-0.191	-0.136
-218.596	74.289	-0.123	-0.128
-217.582	140.992	-0.167	0.218
-216.567	251.770	-0.154	-0.259
-215.552	-71.574	-0.276	-0.102
-214.538	-71.747	0.145	0.053
-213.523	-94.660	0.386	0.104
-212.509	166.766	0.258	-0.360
-211.494	-200.000	-0.009	0.073
-210.479	236.790	-0.062	-0.101
-209.465	-33.966	0.349	0.189
-208.450	-39.306	-0.166	0.086
-207.436	-200.000	0.066	0.286
-206.421	-153.560	-0.206	-0.014
-205.406	-142.264	-0.225	-0.022
-204.392	800.000	-0.022	-0.074
-203.377	47.634	-0.244	0.224
-202.363	101.022	0.323	0.370
-201.348	-143.583	0.215	0.020
-200.333	-97.610	-0.037	0.010
-199.319	81.783	0.140	0.149
-198.304	394.583	0.159	-0.326
-197.290	-200.000	0.044	0.276
-196.275	-54.623	0.140	-0.062
-195.260	387.601	0.142	-0.289
-194.246	119.583	-0.091	0.111
-193.231	-8.942	-0.288	-0.190
-192.217	-134.975	-0.093	0.011
-191.202	-200.000	0.010	-0.085
-190.187	800.000	-0.027	-0.084
-189.173	800.000	-0.074	-0.227
-188.158	-200.000	-0.013	0.089
-187.144	-200.000	0.071	0.498
-186.129	-138.352	0.200	-0.022
-185.114	800.000	0.089	-0.257
-184.100	8.085	-0.263	-0.195
-183.085	-6.288	-0.154	-0.103
-182.071	800.000	0.105	0.382
-181.056	304.170	0.174	0.318
-180.042	115.121	-0.169	-0.204
-179.027	-16.702	-0.258	-0.161
-178.012	176.345	0.119	0.171
-176.998	-122.561	0.209	0.033
-175.983	-4.852	0.007	-0.005
-174.969	410.324	0.126	0.263
-173.954	800.000	-0.060	-0.170
-172.939	420.028	-0.024	-0.051
-171.925	-200.000	-0.046	-0.268
-170.910	576.007	-0.102	-0.245
-169.896	417.437	-0.103	0.217
-168.881	97.732	-0.248	0.281
-167.866	7.541	0.456	0.336
-166.852	-25.537	-0.176	0.102
-165.837	-110.775	0.181	-0.037
-164.823	800.000	0.103	-0.306
-163.808	-6.937	-0.293	-0.196
-162.793	-88.924	-0.095	-0.028
-161.779	370.019	0.056	0.112
-160.764	-200.000	-0.009	0.197
-159.750	-76.490	0.252	0.087
-158.735	-108.292	0.128	0.027
-157.720	6.207	-0.143	-0.105
-156.706	-73.546	0.403	-0.145
-155.691	-141.475	0.314	0.031
-154.677	183.319	-0.081	-0.118
-153.662	-164.046	0.227	-0.010
-152.647	137.216	0.071	-0.091
-151.633	-200.000	-0.001	-0.293
-150.618	-200.000	0.007	-0.204
-149.604	147.339	-0.228	0.302
-148.589	703.870	0.140	0.363
-147.574	415.395	0.083	-0.175
-146.560	-143.915	0.139	-0.013
-145.545	103.697	0.236	-0.273
-144.531	-35.058	0.070	-0.037
-143.516	150.915	0.173	0.232
-142.502	130.166	0.126	-0.159
-141.487	768.423	0.035	-0.093
-140.472	800.000	-0.107	0.334
-139.458	-77.086	0.191	0.066
-138.443	128.720	-0.132	0.166
-137.429	800.000	-0.031	-0.133
-136.414	238.511	0.175	-0.286
-135.399	554.953	-0.021	-0.051
-134.385	-84.667	0.269	-0.083
-133.370	470.836	0.096	-0.212
-132.356	-200.000	-0.007	0.131
-131.341	218.239	-0.160	-0.251
-130.326	236.275	0.165	0.268
-129.312	-200.000	-0.036	0.214
-128.297	-51.243	0.268	-0.123
-127.283	259.767	0.008	-0.013
-126.268	-198.849	-0.142	0.001
-125.253	368.118	0.047	0.093
-124.239	-200.000	-0.006	0.138
-123.224	74.291	-0.148	0.152
-122.210	-75.906	0.429	-0.149
