DTS Sentinel unit serial number:	SN413079Multiplexer serial number:	ORYXHardware model number:	OX4-SRSoftware version number:	ORYX F/W v4.00 Oryx Data Collector v3.7.2.0data status	okinstallation	princeton_trtdifferential loss correction	single-endedforward channel	channel 2reverse channel	N/Adate	2019/09/19time	13:23:35forward acquisition time	60.00reverse acquisition time	0.00gamma	496.2192k internal	0.2328k external	0.2328temperature offset calibration	1.0015default loss term (dB/km)	0.3790temperature slope calibration	1.0000multiplexer offset coefficient	1.0000multiplexer slope coefficient	1.0000fibre end	0.00T internal ref (°C)	29.73T ext. ref 1 (°C)	0.95T ext. ref 2 (°C)	26.98length (m)	temperature (°C)	Stokes	anti-Stokes-747.200	248.691	-0.129	0.220
-746.185	285.752	0.109	0.199
-745.171	26.501	-0.096	-0.081
-744.156	-151.313	-0.488	0.037
-743.142	-76.852	-0.256	-0.090
-742.127	-85.112	-0.486	0.153
-741.112	-9.781	-0.126	-0.084
-740.098	-89.528	0.247	0.073
-739.083	133.149	0.026	0.034
-738.069	398.904	-0.113	0.238
-737.054	800.000	-0.067	0.232
-736.039	-154.103	-0.312	-0.021
-735.025	358.871	-0.069	-0.138
-734.010	-200.000	-0.079	-0.371
-732.996	-74.346	0.230	0.084
-731.981	-200.000	-0.013	-0.086
-730.966	-29.140	0.166	-0.096
-729.952	-23.419	0.223	-0.135
-728.937	-74.769	-0.187	0.068
-727.923	-22.689	-0.187	-0.114
-726.908	249.597	0.053	0.090
-725.894	-61.288	-0.041	0.017
-724.879	190.897	-0.190	-0.287
-723.864	-101.057	-0.134	0.033
-722.850	3.712	0.343	0.252
-721.835	11.480	0.028	0.022
-720.821	-7.778	-0.313	-0.213
-719.806	-200.000	-0.042	-0.197
-718.791	-200.000	0.009	0.081
-717.777	-200.000	0.033	-0.471
-716.762	376.935	0.100	0.205
-715.748	109.076	-0.124	0.150
-714.733	94.496	-0.081	0.093
-713.718	-121.517	0.049	-0.008
-712.704	-117.133	0.048	0.009
-711.689	398.300	0.051	-0.107
-710.675	-14.409	0.255	0.165
-709.660	354.019	-0.094	-0.188
-708.645	-71.458	0.387	-0.146
-707.631	416.260	0.088	0.190
-706.616	-10.705	-0.047	-0.031
-705.602	-9.654	0.185	-0.124
-704.587	-12.074	0.270	-0.178
-703.572	-200.000	-0.001	0.232
-702.558	86.781	0.115	-0.127
-701.543	597.243	0.157	-0.390
-700.529	-102.920	0.209	-0.050
-699.514	-148.935	-0.102	-0.008
-698.499	-47.677	-0.294	-0.143
-697.485	214.472	-0.045	0.072
-696.470	-4.931	-0.099	-0.069
-695.456	-4.681	0.273	-0.189
-694.441	-47.346	0.048	0.024
-693.426	30.555	-0.263	-0.226
-692.412	91.616	0.273	-0.309
-691.397	285.178	0.079	0.142
-690.383	-200.000	0.028	0.322
-689.368	-99.089	-0.195	0.050
-688.354	-103.543	-0.240	-0.057
-687.339	166.948	-0.063	-0.090
-686.324	67.837	-0.149	-0.153
-685.310	-7.287	0.169	0.115
-684.295	502.526	-0.039	-0.092
-683.281	527.487	-0.066	0.155
-682.266	-16.569	-0.149	0.095
-681.251	455.525	-0.040	-0.089
-680.237	-17.917	-0.140	-0.089
-679.222	88.924	0.181	-0.202
-678.208	31.493	-0.151	0.131
-677.193	-200.000	-0.015	-0.386
-676.178	-50.903	-0.083	0.039
-675.164	800.000	0.090	-0.280
-674.149	-105.882	-0.399	-0.090
-673.135	442.212	0.046	0.102
-672.120	681.259	-0.121	-0.316
-671.105	-200.000	0.009	-0.141
-670.091	279.427	-0.199	-0.356
-669.076	-96.829	-0.170	-0.045
-668.062	16.746	-0.105	0.084
-667.047	-0.230	-0.252	-0.180
-666.032	5.480	-0.245	0.181
-665.018	-200.000	0.036	0.417
-664.003	-19.735	-0.190	0.118
-662.989	115.162	0.106	-0.130
-661.974	221.425	0.218	-0.352
-660.959	30.113	-0.289	-0.248
-659.945	215.780	-0.097	0.155
-658.930	-111.300	-0.166	-0.034
-657.916	-20.083	0.120	-0.074
-656.901	-24.676	-0.223	0.133
-655.886	19.543	0.176	-0.142
-654.872	-200.000	-0.006	0.114
-653.857	800.000	0.098	0.351
-652.843	-71.980	0.164	-0.061
-651.828	-145.386	-0.181	-0.016
-650.814	-164.262	-0.270	0.012
-649.799	800.000	-0.023	0.078
-648.784	-200.000	0.022	0.356
-647.770	-200.000	0.037	0.207
-646.755	-36.968	0.161	0.087
-645.741	29.156	-0.194	0.166
-644.726	11.406	-0.280	-0.215
-643.711	-125.940	-0.250	0.038
-642.697	-93.870	-0.146	-0.040
-641.682	435.394	0.057	0.125
-640.668	185.730	0.015	0.022
-639.653	-103.061	0.159	-0.038
-638.638	-33.658	0.289	-0.160
-637.624	-82.307	0.210	-0.068
-636.609	84.126	0.243	0.266
-635.595	-87.894	0.183	0.055
-634.580	-100.954	-0.136	-0.034
-633.565	-146.262	0.217	0.019
-632.551	191.677	-0.097	-0.147
-631.536	213.887	-0.157	0.249
-630.522	-26.352	0.220	-0.129
-629.507	198.413	-0.050	0.077
-628.492	56.872	0.134	-0.131
-627.478	-30.855	0.303	-0.172
-626.463	2.327	0.224	0.162
-625.449	-65.464	-0.029	-0.011
-624.434	-114.940	-0.125	-0.024
-623.419	94.649	-0.061	-0.069
-622.405	593.984	-0.070	-0.173
-621.390	25.048	0.237	0.197
-620.376	-80.424	0.069	0.023
-619.361	-168.736	-0.393	-0.015
-618.346	746.861	0.098	-0.265
-617.332	-56.347	-0.234	0.104
-616.317	415.069	-0.046	-0.099
-615.303	-113.243	-0.531	-0.105
-614.288	800.000	0.059	-0.239
-613.273	-187.203	-0.450	-0.006
-612.259	-107.936	0.197	0.043
-611.244	193.667	0.112	0.170
-610.230	717.447	-0.123	0.329
-609.215	-200.000	-0.096	-0.000
-608.201	76.398	0.052	-0.055
-607.186	-66.989	0.129	-0.051
-606.171	263.708	-0.002	-0.004
-605.157	436.989	-0.080	0.175
-604.142	100.313	-0.165	-0.192
-603.128	-200.000	0.076	-0.362
-602.113	-93.133	0.181	0.050
-601.098	-200.000	0.004	-0.102
-600.084	-109.588	0.194	0.041
-599.069	-167.575	-0.288	0.012
-598.055	37.928	0.098	0.087
-597.040	-200.000	0.017	-0.253
-596.025	-70.804	-0.208	0.079
-595.011	-200.000	0.060	-0.308
-593.996	-89.642	0.239	-0.070
-592.982	-12.923	0.045	0.029
-591.967	-142.730	0.264	0.026
-590.952	-41.374	-0.102	0.053
-589.938	473.608	-0.113	-0.255
-588.923	-116.167	-0.373	0.069
-587.909	-90.790	0.175	-0.051
-586.894	-200.000	0.019	0.121
-585.879	65.387	0.153	0.155
-584.865	434.109	0.103	-0.223
-583.850	-108.454	-0.170	-0.037
-582.836	-75.486	0.345	-0.123
-581.821	-21.718	-0.298	-0.182
-580.806	165.715	-0.078	-0.110
-579.792	-76.353	0.179	-0.063
-578.777	36.812	0.069	-0.061
-577.763	-200.000	0.030	0.192
-576.748	800.000	0.117	0.365
-575.733	99.815	-0.264	-0.306
-574.719	81.931	-0.369	-0.400
-573.704	-200.000	-0.015	-0.257
-572.690	-200.000	0.005	-0.160
-571.675	-79.247	-0.293	-0.100
-570.661	-81.834	0.122	-0.040
-569.646	-14.775	0.336	-0.216
-568.631	99.469	0.081	-0.094
-567.617	-75.482	0.239	0.085
-566.602	51.703	0.183	0.175
-565.588	225.246	-0.040	-0.066
-564.573	-200.000	0.016	-0.109
-563.558	143.522	0.085	0.113
-562.544	1.730	-0.026	0.019
-561.529	-70.631	-0.260	-0.098
-560.515	6.092	0.110	-0.082
-559.500	800.000	-0.084	-0.318
-558.485	-42.444	-0.092	-0.047
-557.471	-65.815	0.149	-0.060
-556.456	800.000	-0.083	-0.282
-555.442	158.736	-0.086	-0.120
-554.427	-17.038	0.112	-0.071
-553.412	-200.000	-0.016	0.107
-552.398	-200.000	0.049	0.461
-551.383	-200.000	0.006	-0.229
-550.369	77.396	-0.142	0.151
-549.354	-2.633	-0.079	-0.055
-548.339	-26.426	-0.233	-0.137
-547.325	606.970	0.043	-0.107
-546.310	-77.294	-0.369	-0.128
-545.296	-155.009	0.558	0.037
-544.281	-200.000	0.011	0.101
-543.266	-26.779	0.295	0.173
-542.252	123.375	0.020	0.025
-541.237	-164.007	-0.479	0.022
-540.223	-105.738	0.027	-0.006
-539.208	800.000	0.142	-0.481
-538.193	237.161	-0.111	-0.184
-537.179	-57.090	-0.287	0.126
-536.164	-200.000	-0.025	0.330
-535.150	148.235	0.195	-0.263
-534.135	-85.711	0.194	0.060
-533.121	-163.874	0.340	0.016
-532.106	-39.790	0.262	-0.137
-531.091	57.351	0.168	-0.164
-530.077	131.143	-0.093	-0.120
-529.062	800.000	0.102	0.291
-528.048	-7.916	-0.240	-0.162
-527.033	-200.000	-0.016	0.092
-526.018	-118.226	0.471	-0.084
-525.004	-59.086	0.312	-0.134
-523.989	-106.514	-0.173	-0.039
-522.975	272.994	-0.077	-0.135
-521.960	800.000	0.100	0.421
-520.945	-0.869	0.061	-0.043
-519.931	20.997	-0.176	-0.143
-518.916	118.350	0.135	0.167
-517.902	412.292	0.159	-0.337
-516.887	-55.170	-0.069	-0.031
-515.872	800.000	0.061	-0.253
-514.858	-69.921	0.429	-0.164
-513.843	168.138	-0.193	-0.274
-512.829	-115.160	-0.117	-0.022
-511.814	-200.000	-0.026	0.444
-510.799	-200.000	-0.028	-0.618
-509.785	-85.488	0.213	0.066
-508.770	-78.282	-0.309	0.106
-507.756	116.389	-0.302	-0.369
-506.741	57.495	-0.084	-0.082
-505.726	-133.960	-0.303	-0.037
-504.712	80.872	-0.126	-0.135
-503.697	-27.365	0.345	-0.201
-502.683	-167.008	0.346	0.014
-501.668	-200.000	-0.045	0.249
-500.653	186.290	0.143	-0.212
-499.639	268.991	0.082	0.144
-498.624	-15.276	0.125	0.080
-497.610	-105.753	-0.286	-0.064
-496.595	80.499	-0.088	0.094
-495.581	-115.097	0.268	0.051
-494.566	-176.014	0.276	0.007
-493.551	-200.000	0.047	-0.283
-492.537	252.908	-0.147	-0.251
-491.522	80.823	-0.076	-0.082
-490.508	341.399	-0.063	0.124
-489.493	-200.000	0.045	0.327
-488.478	-75.345	0.126	-0.045
-487.464	130.505	-0.249	-0.318
-486.449	-200.000	0.085	0.447
-485.435	-7.965	0.272	-0.183
-484.420	-200.000	-0.019	-0.217
-483.405	517.532	-0.081	0.188
-482.391	-98.483	0.087	0.022
-481.376	800.000	0.024	-0.092
-480.362	-66.440	-0.176	0.070
-479.347	-86.621	0.121	-0.037
-478.332	-200.000	-0.021	0.120
-477.318	-126.791	0.372	-0.055
-476.303	357.308	-0.186	-0.369
-475.289	376.310	-0.059	-0.121
-474.274	44.734	0.279	0.256
-473.259	-120.502	0.239	0.040
-472.245	-125.672	-0.138	-0.021
-471.230	794.773	0.055	-0.152
-470.216	-148.016	-0.185	0.015
-469.201	91.629	0.199	-0.224
-468.186	399.839	0.108	0.226
-467.172	-200.000	-0.024	-0.333
-466.157	-54.326	-0.071	0.032
-465.143	-116.230	-0.174	0.032
-464.128	-16.584	-0.148	0.093
-463.113	-200.000	-0.018	0.126
-462.099	-200.000	0.025	0.200
-461.084	209.216	-0.255	0.399
-460.070	-200.000	0.036	0.233
-459.055	-110.430	0.122	-0.025
-458.040	-72.506	-0.203	-0.075
-457.026	-149.648	-0.624	-0.049
-456.011	516.831	-0.093	-0.217
-454.997	8.820	-0.159	0.119
-453.982	527.313	-0.075	-0.175
-452.968	111.134	0.221	0.266
-451.953	83.482	-0.083	-0.090
-450.938	-200.000	0.009	0.150
-449.924	474.143	0.059	0.132
-448.909	48.294	0.091	-0.085
-447.895	-78.521	-0.413	-0.141
-446.880	443.015	-0.099	-0.216
-445.865	28.388	-0.138	0.116
-444.851	800.000	0.035	-0.125
-443.836	9.627	0.029	-0.022
-442.822	588.441	0.063	0.154
-441.807	-90.502	0.182	0.052
-440.792	473.391	0.034	0.077
-439.778	1.038	0.116	0.083
-438.763	-71.811	0.129	0.048
-437.749	77.206	0.189	0.201
-436.734	-200.000	-0.018	0.213
-435.719	156.333	-0.173	0.237
-434.705	182.330	0.084	0.123
-433.690	-78.452	-0.322	0.110
-432.676	-127.217	0.268	0.039
-431.661	227.470	0.030	-0.048
-430.646	181.995	0.200	-0.293
-429.632	-200.000	0.027	-0.217
-428.617	30.731	-0.113	-0.096
-427.603	648.089	-0.076	0.194
-426.588	-114.552	-0.222	-0.042
-425.573	-141.222	-0.159	-0.016
-424.559	308.167	0.053	0.099
-423.544	-200.000	0.033	0.180
-422.530	-129.517	-0.398	0.055
-421.515	42.092	0.106	0.096
-420.500	315.852	-0.171	-0.321
-419.486	55.110	-0.328	-0.316
-418.471	348.191	-0.093	-0.182
-417.457	193.278	0.177	0.266
-416.442	800.000	-0.035	-0.144
-415.428	379.529	0.148	-0.302
-414.413	140.815	-0.054	-0.071
-413.398	-4.621	-0.171	0.117
-412.384	295.792	0.048	0.087
-411.369	-200.000	-0.012	0.219
-410.355	-28.221	0.288	-0.165
-409.340	103.805	-0.353	-0.413
-408.325	-28.479	0.460	0.264
-407.311	204.991	0.092	0.142
-406.296	-61.257	-0.193	0.081
-405.282	33.168	-0.445	0.384
-404.267	145.910	0.179	-0.239
-403.252	-200.000	0.042	0.270
-402.238	-123.601	-0.243	0.038
-401.223	84.090	0.182	0.198
-400.209	-200.000	0.054	0.265
-399.194	330.043	-0.065	-0.124
-398.179	-96.532	0.240	0.063
-397.165	800.000	-0.101	0.385
-396.150	275.070	0.114	0.200
-395.136	170.375	0.089	0.127
-394.121	96.982	-0.015	0.017
-393.106	397.592	0.061	0.127
-392.092	800.000	-0.148	0.467
-391.077	157.801	0.112	-0.155
-390.063	800.000	0.140	-0.387
-389.048	335.362	0.079	-0.151
-388.033	-87.995	0.464	0.139
-387.019	105.954	-0.106	-0.125
-386.004	-200.000	0.004	-0.096
-384.990	-157.312	-0.096	-0.006
-383.975	126.091	0.325	-0.408
-382.960	-114.950	-0.387	0.073
-381.946	0.830	-0.256	0.182
-380.931	11.661	-0.070	-0.053
-379.917	-124.422	0.092	-0.014
-378.902	82.406	0.206	-0.222
-377.888	-24.557	0.121	0.072
-376.873	-200.000	0.042	-0.345
-375.858	16.922	-0.077	-0.061
-374.844	-20.736	0.167	-0.102
-373.829	-85.041	0.360	-0.112
-372.815	800.000	0.033	-0.096
-371.800	640.025	0.071	-0.180
-370.785	58.714	-0.150	0.147
-369.771	-69.420	0.152	-0.058
-368.756	-103.799	0.395	0.092
-367.742	800.000	-0.049	-0.137
-366.727	-70.092	-0.162	-0.061
-365.712	116.786	0.135	0.164
-364.698	-200.000	0.044	-0.311
-363.683	315.195	-0.069	-0.130
-362.669	-25.971	-0.172	-0.101
-361.654	523.117	0.098	-0.230
-360.639	74.080	0.130	0.135
-359.625	66.753	-0.191	0.193
-358.610	85.934	0.160	0.175
-357.596	230.721	-0.155	0.251
-356.581	-183.211	0.330	-0.006
-355.566	-131.652	0.155	0.020
-354.552	-91.549	0.307	0.087
-353.537	32.853	-0.186	0.160
-352.523	-30.878	0.324	-0.181
-351.508	-117.937	0.577	-0.103
-350.493	24.677	-0.431	0.354
-349.479	-200.000	-0.000	0.188
-348.464	44.536	0.090	-0.082
-347.450	-200.000	-0.003	0.063
-346.435	154.741	0.099	0.135
-345.420	-79.209	0.088	0.030
-344.406	-100.583	0.197	-0.048
-343.391	-24.558	-0.199	0.117
-342.377	32.804	0.121	0.104
-341.362	188.707	0.099	0.146
-340.348	-200.000	0.048	-0.308
-339.333	170.510	-0.103	0.146
-338.318	-40.380	-0.169	0.087
-337.304	-58.223	0.164	0.071
-336.289	0.198	-0.206	0.146
-335.275	629.351	0.082	0.206
-334.260	153.676	0.097	0.132
-333.245	28.242	0.042	-0.036
-332.231	-38.936	-0.216	-0.113
-331.216	-67.598	-0.293	0.114
-330.202	68.781	0.063	-0.064
-329.187	-200.000	0.029	-0.163
-328.172	-200.000	-0.036	0.231
-327.158	-31.651	0.099	0.055
-326.143	368.420	0.048	0.097
-325.129	800.000	-0.049	0.200
-324.114	-57.462	-0.189	0.082
-323.099	-16.566	-0.133	-0.084
-322.085	123.771	0.072	0.090
-321.070	-200.000	-0.011	0.160
-320.056	-134.153	-0.143	0.018
-319.041	-78.090	0.097	-0.033
-318.026	41.683	0.142	-0.127
-317.012	170.303	-0.127	0.180
-315.997	83.379	-0.319	-0.344
-314.983	169.140	0.092	-0.131
-313.968	101.170	-0.076	0.087
-312.953	800.000	-0.037	-0.111
-311.939	-200.000	0.021	0.163
-310.924	-114.353	-0.171	-0.033
-309.910	-139.458	0.126	-0.013
-308.895	195.575	-0.068	0.103
-307.880	-94.026	-0.273	-0.074
-306.866	-169.195	-0.240	-0.009
-305.851	800.000	0.009	0.027
-304.837	31.880	-0.223	0.190
-303.822	-138.194	0.234	-0.026
-302.807	800.000	-0.052	-0.184
-301.793	543.887	-0.164	-0.387
-300.778	-144.364	0.381	-0.035
-299.764	-8.982	0.195	0.129
-298.749	800.000	0.050	0.213
-297.735	-200.000	0.018	0.326
-296.720	-24.801	0.083	-0.049
-295.705	121.656	0.197	0.243
-294.691	150.975	-0.240	0.323
-293.676	-63.900	-0.148	-0.060
-292.662	509.282	-0.044	-0.101
-291.647	128.960	-0.252	0.319
-290.632	800.000	0.028	0.107
-289.618	63.515	-0.111	-0.111
-288.603	-131.103	0.204	-0.027
-287.589	324.699	0.302	-0.571
-286.574	-200.000	0.002	-0.023
-285.559	-46.175	0.252	0.123
-284.545	-94.890	-0.462	-0.124
-283.530	256.608	0.133	-0.226
-282.516	-69.614	0.406	0.154
-281.501	439.116	0.035	0.075
-280.486	-124.659	0.079	-0.012
-279.472	1.113	-0.307	0.218
-278.457	-200.000	0.055	0.336
-277.443	2.518	-0.110	-0.079
-276.428	606.515	0.058	0.144
-275.413	-109.428	-0.277	0.058
-274.399	182.478	-0.083	-0.120
-273.384	-116.634	-0.028	-0.005
-272.370	-112.930	-0.222	-0.044
-271.355	-148.614	0.055	0.004
-270.340	129.713	-0.148	0.187
-269.326	14.790	-0.244	0.188
-268.311	-144.571	0.175	0.016
-267.297	-123.407	-0.226	0.036
-266.282	59.959	-0.271	-0.265
-265.267	456.837	0.150	0.330
-264.253	-80.734	0.332	-0.109
-263.238	465.392	-0.114	-0.252
-262.224	-154.253	-0.239	-0.016
-261.209	101.155	-0.110	-0.127
-260.195	-41.452	-0.082	0.042
-259.180	-98.214	0.268	0.068
-258.165	119.361	0.259	0.317
-257.151	182.918	-0.211	0.308
-256.136	-46.753	0.291	0.141
-255.122	323.267	-0.200	0.377
-254.107	-200.000	-0.068	0.298
-253.092	-20.246	-0.187	0.114
-252.078	66.265	0.172	0.172
-251.063	44.021	-0.107	-0.097
-250.049	-103.103	-0.163	0.038
-249.034	17.738	0.195	0.153
-248.019	-61.405	-0.167	0.069
-247.005	105.333	0.161	0.188
-245.990	-164.762	-0.385	0.017
-244.976	340.991	-0.080	0.154
-243.961	100.101	-0.142	0.162
-242.946	-17.054	-0.370	-0.231
-241.932	-200.000	0.005	-0.032
-240.917	-31.918	0.086	0.048
-239.903	-6.191	-0.376	0.254
-238.888	39.598	0.307	0.272
-237.873	-200.000	0.022	0.388
-236.859	-169.333	-0.628	-0.023
-235.844	800.000	-0.151	-0.434
-234.830	800.000	-0.065	0.198
-233.815	-200.000	-0.236	-0.000
-232.800	-127.729	0.398	-0.057
-231.786	-200.000	0.024	0.141
-230.771	-49.031	0.281	-0.133
-229.757	-122.389	0.303	-0.049
-228.742	119.393	-0.045	0.055
-227.727	-136.517	0.269	-0.031
-226.713	-200.000	-0.004	0.155
-225.698	-82.361	-0.178	-0.057
-224.684	78.198	0.186	-0.196
-223.669	800.000	0.072	0.200
-222.655	-50.803	-0.169	-0.078
-221.640	-17.693	-0.086	-0.053
-220.625	-180.517	0.197	0.004
-219.611	-110.607	-0.039	0.008
-218.596	-36.932	-0.213	0.113
-217.582	800.000	-0.039	0.139
-216.567	617.471	-0.103	0.254
-215.552	-27.307	0.228	-0.131
-214.538	-87.109	0.123	0.037
-213.523	-123.432	-0.383	-0.060
-212.509	122.805	-0.090	-0.112
-211.494	-200.000	0.022	0.269
-210.479	-200.000	0.017	0.168
-209.465	-200.000	-0.030	0.165
-208.450	-200.000	-0.001	-0.179
-207.436	243.466	0.105	-0.175
-206.421	163.696	-0.252	-0.350
-205.406	216.161	-0.059	-0.093
-204.392	800.000	-0.009	0.035
-203.377	433.292	-0.109	-0.233
-202.363	800.000	0.086	-0.263
-201.348	-200.000	-0.046	-0.521
-200.333	247.064	0.133	0.222
-199.319	800.000	-0.051	-0.193
-198.304	-81.449	-0.093	-0.030
-197.290	278.586	0.059	-0.104
-196.275	-108.382	-0.389	-0.083
-195.260	-200.000	0.025	-0.271
-194.246	171.170	0.124	-0.175
-193.231	-2.082	-0.138	0.096
-192.217	-200.000	-0.020	-0.185
-191.202	800.000	0.042	-0.149
-190.187	16.512	-0.069	0.054
-189.173	33.553	0.139	-0.120
-188.158	27.223	0.189	-0.156
-187.144	-52.853	0.224	0.102
-186.129	141.283	-0.100	0.130
-185.114	74.049	0.062	-0.064
-184.100	-6.682	-0.021	0.014
-183.085	-37.171	0.124	0.066
-182.071	336.086	-0.177	0.338
-181.056	-54.801	0.177	0.079
-180.042	-123.639	-0.010	-0.002
-179.027	-200.000	0.245	-0.001
-178.012	123.268	-0.094	0.116
-176.998	-71.214	-0.174	-0.064
-175.983	-108.226	0.136	0.029
-174.969	-147.142	0.096	-0.008
-173.954	-143.192	-0.268	0.025
-172.939	-37.228	-0.247	0.130
-171.925	-88.506	-0.185	0.054
-170.910	36.680	0.133	0.116
-169.896	12.211	0.220	-0.167
-168.881	-114.973	0.227	0.043
-167.866	474.578	0.118	-0.262
-166.852	133.938	0.089	-0.114
-165.837	-99.384	0.325	-0.081
-164.823	-200.000	0.079	-0.410
-163.808	19.575	-0.116	-0.092
-162.793	-200.000	0.040	-0.351
-161.779	-124.606	-0.216	0.033
-160.764	-200.000	-0.047	0.471
-159.750	-6.741	0.165	0.111
-158.735	71.341	0.071	-0.072
-157.720	-200.000	0.008	0.483
-156.706	800.000	0.027	0.077
-155.691	-128.653	0.266	-0.037
-154.677	300.664	-0.145	-0.263
-153.662	512.875	-0.109	0.250
-152.647	-97.831	-0.286	0.073
-151.633	-21.058	-0.059	-0.035
-150.618	176.692	-0.056	0.080
-149.604	-6.432	-0.231	0.155
-148.589	-200.000	-0.046	0.316
-147.574	-134.152	0.280	-0.034
-146.560	446.535	-0.106	0.230
-145.545	-200.000	-0.006	0.142
-144.531	66.074	0.363	-0.363
-143.516	-26.757	-0.103	0.060
-142.502	284.231	0.131	-0.232
-141.487	78.607	0.127	0.134
-140.472	-200.000	0.029	-0.383
-139.458	23.209	0.108	-0.087
-138.443	-36.700	0.271	0.143
-137.429	-200.000	0.023	0.191
-136.414	-186.289	0.152	0.002
-135.399	30.503	0.169	-0.142
-134.385	-95.524	-0.136	0.036
-133.370	19.846	0.241	0.191
-132.356	-91.267	-0.122	-0.034
-131.341	-73.323	-0.161	0.058
-130.326	113.725	0.050	0.060
-129.312	237.532	-0.092	0.150
-128.297	-31.126	-0.194	0.107
-127.283	-200.000	-0.071	-0.409
-126.268	-165.198	0.138	0.006
-125.253	-200.000	0.011	-0.156
-124.239	624.390	0.070	0.175
-123.224	-178.983	-0.322	0.007
-122.210	800.000	0.030	-0.102
-121.195	-102.570	0.306	-0.072
