DTS Sentinel unit serial number:	SN413079Multiplexer serial number:	ORYXHardware model number:	OX4-SRSoftware version number:	ORYX F/W v4.00 Oryx Data Collector v3.7.2.0data status	okinstallation	princeton_trtdifferential loss correction	single-endedforward channel	channel 2reverse channel	N/Adate	2019/09/14time	17:31:35forward acquisition time	60.00reverse acquisition time	0.00gamma	496.2192k internal	0.2310k external	0.2310temperature offset calibration	1.0117default loss term (dB/km)	0.3790temperature slope calibration	1.0000multiplexer offset coefficient	1.0000multiplexer slope coefficient	1.0000fibre end	0.00T internal ref (°C)	37.66T ext. ref 1 (°C)	5.05T ext. ref 2 (°C)	32.06length (m)	temperature (°C)	Stokes	anti-Stokes-747.200	-141.995	-0.157	-0.016
-746.185	106.888	0.060	-0.073
-745.171	190.539	0.271	0.414
-744.156	-61.142	-0.321	0.138
-743.142	137.154	0.029	-0.039
-742.127	10.990	-0.302	0.234
-741.112	239.191	0.179	-0.302
-740.098	-200.000	-0.025	0.234
-739.083	-21.179	0.197	0.122
-738.069	-200.000	-0.002	-0.115
-737.054	48.499	-0.278	-0.265
-736.039	-137.857	-0.047	0.005
-735.025	410.791	-0.025	-0.055
-734.010	-16.737	0.142	-0.091
-732.996	48.273	0.181	-0.172
-731.981	65.797	0.101	-0.103
-730.966	-105.767	-0.331	-0.076
-729.952	0.573	0.344	-0.250
-728.937	50.412	-0.178	0.171
-727.923	84.350	-0.225	-0.250
-726.908	562.899	-0.122	-0.301
-725.894	800.000	0.028	-0.117
-724.879	106.135	0.224	-0.270
-723.864	36.190	0.286	0.255
-722.850	-200.000	0.029	0.198
-721.835	800.000	-0.104	0.463
-720.821	49.144	0.235	-0.224
-719.806	36.013	-0.195	-0.174
-718.791	-98.885	0.334	-0.086
-717.777	-190.213	-0.156	-0.002
-716.762	-0.696	0.246	0.177
-715.748	800.000	0.068	-0.301
-714.733	9.715	-0.166	-0.128
-713.718	-168.096	0.458	-0.018
-712.704	147.886	0.068	0.093
-711.689	-37.283	0.153	0.083
-710.675	-94.089	0.471	-0.131
-709.660	800.000	-0.026	0.076
-708.645	56.775	0.225	-0.222
-707.631	-200.000	0.025	-0.122
-706.616	-200.000	-0.030	0.148
-705.602	800.000	-0.047	0.166
-704.587	34.406	-0.200	0.177
-703.572	449.766	0.137	-0.306
-702.558	800.000	0.045	0.198
-701.543	189.284	-0.143	0.218
-700.529	89.192	-0.075	0.084
-699.514	528.100	0.068	0.164
-698.499	800.000	0.025	0.103
-697.485	-200.000	-0.033	-0.160
-696.470	-95.430	-0.231	0.063
-695.456	371.978	-0.118	0.243
-694.441	-42.611	0.393	-0.203
-693.426	-166.078	-0.395	-0.017
-692.412	223.838	0.111	-0.181
-691.397	-200.000	0.039	-0.231
-690.383	-68.749	-0.350	-0.137
-689.368	-6.958	0.255	-0.176
-688.354	800.000	0.019	0.065
-687.339	-200.000	-0.014	-0.336
-686.324	81.331	-0.149	0.163
-685.310	-105.527	0.133	-0.031
-684.295	41.655	0.283	-0.260
-683.281	122.067	0.078	0.098
-682.266	-13.505	-0.096	0.063
-681.251	-200.000	0.018	0.079
-680.237	41.806	0.129	0.118
-679.222	-52.943	0.195	0.091
-678.208	108.791	-0.308	0.372
-677.193	-27.135	-0.148	-0.087
-676.178	-65.898	-0.177	-0.072
-675.164	48.094	0.110	-0.105
-674.149	21.766	-0.053	0.044
-673.135	-200.000	0.047	-0.337
-672.120	-67.467	-0.265	0.105
-671.105	238.940	-0.069	0.117
-670.091	-33.192	-0.082	0.046
-669.076	-110.221	0.126	-0.027
-668.062	-45.822	-0.357	0.178
-667.047	143.518	0.019	-0.026
-666.032	78.571	0.092	0.100
-665.018	156.455	0.122	0.171
-664.003	-200.000	0.014	-0.314
-662.989	-43.347	0.276	0.141
-661.974	-78.417	-0.489	0.170
-660.959	-200.000	0.042	0.258
-659.945	45.148	-0.044	-0.041
-658.930	-200.000	-0.008	-0.352
-657.916	-127.358	0.358	-0.053
-656.901	134.901	0.018	0.024
-655.886	800.000	0.014	-0.060
-654.872	-143.352	0.230	0.022
-653.857	58.796	-0.075	0.075
-652.843	35.387	-0.265	-0.235
-651.828	59.190	0.116	-0.116
-650.814	14.951	0.318	0.252
-649.799	134.515	-0.150	0.196
-648.784	-200.000	0.045	0.407
-647.770	93.886	0.318	0.365
-646.755	-83.627	0.274	-0.089
-645.741	-143.926	-0.123	-0.012
-644.726	-200.000	0.006	-0.102
-643.711	-200.000	-0.030	0.307
-642.697	-101.141	-0.294	-0.073
-641.682	-18.742	-0.117	0.074
-640.668	444.264	-0.185	-0.410
-639.653	20.558	-0.140	-0.115
-638.638	-49.330	-0.081	-0.039
-637.624	45.496	-0.027	-0.025
-636.609	-110.416	-0.013	0.003
-635.595	329.476	-0.139	-0.270
-634.580	-76.993	-0.429	-0.152
-633.565	-200.000	0.047	-0.235
-632.551	364.696	0.053	0.107
-631.536	8.570	-0.072	0.055
-630.522	800.000	0.127	0.410
-629.507	671.476	0.084	0.221
-628.492	85.659	-0.197	-0.219
-627.478	800.000	-0.068	-0.283
-626.463	-24.706	-0.215	0.129
-625.449	-200.000	-0.011	-0.379
-624.434	-139.859	-0.367	-0.039
-623.419	-132.719	0.169	0.022
-622.405	-95.391	-0.333	-0.090
-621.390	657.332	-0.060	0.157
-620.376	800.000	-0.140	-0.477
-619.361	-200.000	0.025	0.227
-618.346	47.066	0.204	-0.192
-617.332	176.323	0.093	0.136
-616.317	29.082	0.261	-0.224
-615.303	-103.656	0.202	-0.048
-614.288	-200.000	0.031	0.271
-613.273	-94.752	-0.282	0.077
-612.259	21.885	-0.131	0.108
-611.244	-96.697	-0.054	-0.014
-610.230	236.017	-0.136	0.227
-609.215	-41.822	0.188	-0.097
-608.201	204.598	0.132	-0.207
-607.186	-172.009	0.127	0.004
-606.171	566.682	0.037	0.091
-605.157	492.400	0.079	0.183
-604.142	99.763	0.200	-0.234
-603.128	-67.397	-0.341	0.135
-602.113	-23.296	-0.125	-0.076
-601.098	542.093	0.067	0.160
-600.084	800.000	-0.075	-0.259
-599.069	-25.404	0.377	-0.225
-598.055	-40.739	0.123	-0.064
-597.040	-200.000	0.078	-0.501
-596.025	-63.821	0.366	0.151
-595.011	-69.453	-0.145	-0.056
-593.996	75.610	-0.275	0.293
-592.982	-115.586	0.040	0.008
-591.967	-133.492	0.069	-0.009
-590.952	-120.768	0.054	0.009
-589.938	245.921	-0.073	0.125
-588.923	-32.897	-0.091	0.051
-587.909	-200.000	0.031	-0.171
-586.894	41.380	-0.065	-0.059
-585.879	-200.000	-0.003	-0.035
-584.865	-53.352	0.072	-0.033
-583.850	22.157	-0.106	-0.087
-582.836	340.495	-0.072	-0.142
-581.821	-200.000	0.002	0.072
-580.806	-141.142	0.089	0.009
-579.792	55.789	-0.100	-0.097
-578.777	46.753	-0.198	-0.186
-577.763	-57.617	0.118	-0.052
-576.748	-22.824	-0.080	-0.049
-575.733	-36.283	-0.089	-0.049
-574.719	-140.123	-0.174	0.018
-573.704	-52.523	-0.260	0.121
-572.690	-93.703	-0.119	-0.033
-571.675	-17.924	-0.546	-0.346
-570.661	-109.434	-0.154	-0.033
-569.646	800.000	0.067	0.233
-568.631	-200.000	0.000	-0.060
-567.617	-31.672	0.206	0.116
-566.602	-44.916	0.280	0.141
-565.588	89.317	-0.107	-0.120
-564.573	-200.000	-0.061	-0.386
-563.558	-67.556	-0.161	-0.064
-562.544	317.243	-0.117	0.223
-561.529	-200.000	-0.034	0.231
-560.515	164.339	0.093	0.132
-559.500	-200.000	0.012	-0.115
-558.485	-200.000	0.068	-0.302
-557.471	-87.085	0.252	0.077
-556.456	61.203	-0.132	0.132
-555.442	139.725	-0.211	0.280
-554.427	-48.894	-0.083	0.040
-553.412	707.896	0.160	-0.425
-552.398	-200.000	0.023	0.124
-551.383	-200.000	0.028	-0.328
-550.369	-167.468	-0.243	-0.010
-549.354	152.160	-0.012	0.017
-548.339	-57.745	-0.298	0.131
-547.325	41.320	0.136	-0.124
-546.310	-200.000	-0.005	-0.217
-545.296	179.599	-0.272	-0.401
-544.281	-71.665	0.439	0.165
-543.266	-48.339	-0.248	0.121
-542.252	-111.312	0.290	-0.060
-541.237	255.221	-0.028	0.049
-540.223	464.013	0.026	-0.058
-539.208	-200.000	-0.061	0.305
-538.193	230.496	-0.112	-0.184
-537.179	-154.183	-0.677	-0.046
-536.164	787.526	-0.073	0.203
-535.150	618.280	0.087	0.221
-534.135	136.574	0.124	0.162
-533.121	-200.000	-0.034	-0.232
-532.106	-120.975	0.314	-0.053
-531.091	82.748	-0.230	-0.252
-530.077	8.971	0.209	0.159
-529.062	-200.000	-0.026	0.187
-528.048	39.107	0.252	0.227
-527.033	-10.479	-0.035	-0.023
-526.018	131.570	0.231	0.299
-525.004	361.507	-0.129	0.261
-523.989	-29.600	-0.198	0.114
-522.975	55.227	0.248	-0.241
-521.960	123.815	0.089	0.112
-520.945	800.000	0.052	0.188
-519.931	378.296	-0.076	0.156
-518.916	-18.994	0.089	-0.056
-517.902	-75.495	0.171	-0.061
-516.887	313.563	0.119	-0.225
-515.872	-200.000	0.011	-0.161
-514.858	90.520	0.042	0.047
-513.843	-37.370	-0.299	0.161
-512.829	-112.078	-0.242	0.049
-511.814	-200.000	0.045	0.296
-510.799	-17.071	-0.226	0.143
-509.785	612.784	0.147	-0.369
-508.770	306.429	0.137	-0.257
-507.756	7.039	-0.142	0.106
-506.741	-20.159	0.185	-0.115
-505.726	-135.292	-0.075	-0.009
-504.712	543.451	-0.099	0.237
-503.697	-144.663	-0.157	0.015
-502.683	-13.760	-0.117	-0.076
-501.668	-121.932	-0.268	0.044
-500.653	212.441	-0.151	-0.240
-499.639	-200.000	-0.025	-0.204
-498.624	800.000	-0.044	-0.146
-497.610	-111.639	-0.119	0.024
-496.595	-44.302	0.150	0.076
-495.581	182.746	-0.063	-0.093
-494.566	-10.623	-0.117	-0.078
-493.551	800.000	-0.102	-0.338
-492.537	-200.000	-0.036	0.218
-491.522	-200.000	0.012	0.242
-490.508	-121.590	0.216	0.036
-489.493	-200.000	0.041	0.303
-488.478	4.527	0.097	0.072
-487.464	-200.000	-0.073	-0.459
-486.449	44.760	-0.302	0.280
-485.435	304.377	0.034	0.064
-484.420	-196.089	0.228	-0.002
-483.405	-27.369	-0.125	-0.073
-482.391	-55.798	-0.193	0.087
-481.376	-11.945	0.210	-0.138
-480.362	431.415	0.048	-0.104
-479.347	241.505	0.011	0.018
-478.332	414.666	0.156	0.334
-477.318	-200.000	0.000	-0.041
-476.303	-200.000	0.028	-0.216
-475.289	-139.695	-0.379	-0.041
-474.274	54.587	0.110	0.106
-473.259	89.934	-0.091	0.102
-472.245	-200.000	0.012	0.250
-471.230	-32.323	0.266	-0.149
-470.216	-57.292	-0.019	-0.008
-469.201	526.548	-0.049	0.115
-468.186	5.544	-0.132	0.098
-467.172	-63.890	-0.249	0.102
-466.157	-144.217	0.421	0.039
-465.143	800.000	0.026	-0.078
-464.128	-56.243	-0.229	-0.102
-463.113	44.572	-0.156	-0.144
-462.099	8.810	0.312	-0.236
-461.084	-200.000	0.009	0.238
-460.070	54.127	-0.072	0.069
-459.055	-32.401	0.210	-0.117
-458.040	-12.445	-0.085	0.056
-457.026	-98.054	0.046	-0.012
-456.011	82.683	0.256	0.279
-454.997	-135.962	0.373	-0.044
-453.982	-22.168	-0.206	-0.125
-452.968	-78.772	0.118	-0.040
-451.953	-200.000	0.014	-0.214
-450.938	173.414	-0.125	0.180
-449.924	319.668	0.065	0.123
-448.909	-136.131	0.135	0.016
-447.895	-1.415	0.220	0.156
-446.880	-200.000	-0.005	0.064
-445.865	327.676	-0.080	0.153
-444.851	-200.000	-0.018	-0.165
-443.836	80.778	-0.295	0.320
-442.822	70.347	0.176	0.183
-441.807	210.315	0.028	-0.044
-440.792	159.735	-0.227	-0.317
-439.778	-200.000	-0.043	-0.211
-438.763	-26.181	-0.188	0.111
-437.749	-200.000	-0.016	0.190
-436.734	-152.485	0.208	0.015
-435.719	-200.000	0.027	-0.143
-434.705	-70.372	-0.139	0.053
-433.690	169.895	0.150	0.215
-432.676	-70.583	-0.099	0.038
-431.661	-8.424	-0.168	-0.114
-430.646	47.513	0.270	0.253
-429.632	104.140	0.113	-0.133
-428.617	486.173	0.133	0.303
-427.603	5.357	0.258	-0.191
-426.588	-65.375	0.080	0.032
-425.573	262.851	0.093	-0.163
-424.559	9.654	0.129	0.098
-423.544	-45.158	0.049	0.025
-422.530	-33.461	-0.164	-0.091
-421.515	800.000	0.072	0.201
-420.500	800.000	-0.063	-0.205
-419.486	539.890	0.049	0.118
-418.471	-146.172	-0.133	0.012
-417.457	-15.856	0.179	0.115
-416.442	241.972	0.024	0.040
-415.428	125.494	0.166	-0.210
-414.413	-93.762	0.191	0.053
-413.398	463.018	0.097	-0.216
-412.384	800.000	0.050	-0.193
-411.369	482.958	0.082	-0.187
-410.355	-18.696	-0.054	-0.034
-409.340	-56.577	-0.205	0.091
-408.325	26.875	0.157	-0.132
-407.311	800.000	0.092	-0.311
-406.296	214.614	-0.196	-0.311
-405.282	-126.595	-0.209	0.031
-404.267	617.054	0.101	-0.254
-403.252	-26.324	0.161	-0.095
-402.238	800.000	-0.058	0.249
-401.223	-200.000	-0.028	0.306
-400.209	-45.252	-0.115	0.057
-399.194	-159.104	-0.029	0.002
-398.179	116.470	0.217	0.267
-397.165	709.940	0.048	0.128
-396.150	122.829	-0.108	-0.136
-395.136	639.067	0.085	0.216
-394.121	-54.004	-0.029	-0.013
-393.106	-187.715	-0.336	-0.004
-392.092	-200.000	-0.001	-0.081
-391.077	800.000	0.114	0.322
-390.063	22.179	-0.115	0.094
-389.048	800.000	0.087	0.277
-388.033	4.554	-0.081	-0.059
-387.019	-200.000	0.014	-0.339
-386.004	504.942	-0.089	-0.206
-384.990	70.129	-0.069	0.071
-383.975	-200.000	0.029	0.188
-382.960	-173.450	0.320	0.010
-381.946	-76.260	0.187	-0.066
-380.931	71.172	0.061	0.064
-379.917	-72.271	0.250	0.093
-378.902	182.935	0.101	-0.150
-377.888	-150.397	0.071	-0.005
-376.873	112.155	-0.059	-0.071
-375.858	-9.572	0.239	-0.159
-374.844	-34.672	-0.105	-0.057
-373.829	47.389	0.097	-0.091
-372.815	106.047	-0.298	-0.353
-371.800	-117.859	0.267	0.048
-370.785	-89.904	0.207	-0.061
-369.771	-200.000	-0.014	0.242
-368.756	-16.784	-0.321	0.203
-367.742	-200.000	0.011	0.057
-366.727	338.788	-0.039	-0.075
-365.712	546.591	-0.097	0.233
-364.698	-182.308	0.384	0.007
-363.683	800.000	-0.077	-0.230
-362.669	155.018	0.132	0.182
-361.654	-1.229	-0.079	0.056
-360.639	120.490	0.078	-0.097
-359.625	71.609	0.220	-0.228
-358.610	-200.000	0.038	-0.258
-357.596	800.000	0.058	0.186
-356.581	149.692	0.202	0.274
-355.566	101.842	0.036	-0.042
-354.552	800.000	0.072	-0.277
-353.537	335.606	-0.129	0.250
-352.523	50.919	-0.222	0.210
-351.508	-7.411	-0.119	-0.081
-350.493	800.000	0.046	0.201
-349.479	-200.000	0.005	-0.052
-348.464	523.742	0.037	0.087
-347.450	800.000	-0.025	0.094
-346.435	258.175	-0.034	-0.058
-345.420	-56.369	0.228	0.101
-344.406	-19.326	-0.123	0.076
-343.391	-200.000	-0.005	-0.057
-342.377	-200.000	0.005	0.141
-341.362	517.168	0.133	-0.311
-340.348	800.000	0.089	0.356
-339.333	-145.471	-0.272	-0.024
-338.318	-111.450	0.155	0.032
-337.304	6.298	-0.141	-0.105
-336.289	-81.056	0.132	-0.044
-335.275	-47.424	0.265	-0.129
-334.260	148.359	0.069	0.093
-333.245	181.242	0.103	0.152
-332.231	-120.769	-0.266	0.045
-331.216	-22.171	0.147	-0.089
-330.202	217.463	0.111	0.177
-329.187	35.521	0.120	0.105
-328.172	594.112	-0.060	-0.149
-327.158	-67.393	0.084	-0.033
-326.143	-200.000	-0.014	-0.152
-325.129	-200.000	-0.007	0.086
-324.114	676.273	0.092	-0.240
-323.099	800.000	0.050	-0.207
-322.085	366.324	0.146	-0.294
-321.070	-200.000	0.001	0.270
-320.056	317.162	-0.108	-0.204
-319.041	156.933	0.160	-0.220
-318.026	-200.000	0.042	-0.237
-317.012	-99.400	0.274	-0.069
-315.997	116.955	-0.085	-0.105
-314.983	-144.350	-0.212	-0.020
-313.968	-200.000	-0.019	0.125
-312.953	343.731	-0.220	0.431
-311.939	-93.760	-0.326	0.090
-310.924	-74.926	0.288	0.103
-309.910	338.034	0.087	-0.170
-308.895	58.229	-0.062	-0.060
-307.880	88.583	-0.073	0.081
-306.866	81.061	-0.174	0.188
-305.851	-187.132	0.328	0.004
-304.837	-44.959	-0.147	0.073
-303.822	-200.000	0.044	0.225
-302.807	-75.608	-0.069	-0.025
-301.793	286.045	-0.117	-0.211
-300.778	-122.102	0.231	0.038
-299.764	-141.888	-0.208	-0.021
-298.749	4.320	-0.062	0.046
-297.735	39.392	0.111	-0.099
-296.720	-119.884	0.419	0.072
-295.705	-2.563	-0.189	-0.132
-294.691	-200.000	-0.015	-0.251
-293.676	147.304	0.107	0.144
-292.662	1.157	0.296	-0.212
-291.647	-200.000	-0.002	-0.223
-290.632	0.730	0.140	-0.100
-289.618	-157.705	-0.244	-0.015
-288.603	36.582	-0.191	-0.168
-287.589	1.609	-0.060	-0.043
-286.574	153.037	0.205	0.280
-285.559	-61.572	-0.101	-0.042
-284.545	-182.578	-0.269	0.005
-283.530	37.099	0.315	0.278
-282.516	-43.794	-0.209	-0.105
-281.501	-200.000	-0.041	0.312
-280.486	-200.000	-0.003	0.085
-279.472	-200.000	-0.007	-0.204
-278.457	12.959	-0.211	-0.162
-277.443	197.592	-0.117	0.179
-276.428	89.806	-0.059	-0.066
-275.413	135.683	0.146	-0.190
-274.399	-13.604	-0.181	-0.117
-273.384	283.264	0.152	0.272
-272.370	196.077	-0.110	-0.167
-271.355	422.758	0.085	-0.183
-270.340	107.753	0.268	0.318
-269.326	-127.911	-0.029	0.004
-268.311	-5.579	0.107	-0.073
-267.297	-200.000	0.010	-0.185
-266.282	72.637	-0.254	0.264
-265.267	-18.791	0.249	-0.155
-264.253	-132.912	0.395	0.050
-263.238	-200.000	-0.010	-0.066
-262.224	-113.794	-0.128	-0.025
-261.209	-86.281	0.091	0.028
-260.195	-119.260	-0.208	-0.036
-259.180	800.000	-0.102	0.307
-258.165	251.300	-0.105	0.178
-257.151	-200.000	-0.039	0.185
-256.136	-127.733	-0.182	-0.026
-255.122	397.030	-0.096	-0.199
-254.107	-157.304	0.266	-0.016
-253.092	800.000	-0.071	0.306
-252.078	83.879	-0.140	-0.152
-251.063	130.417	0.167	0.213
-250.049	159.633	-0.191	-0.265
-249.034	-167.704	-0.296	-0.012
-248.019	203.486	0.065	0.101
-247.005	142.309	0.098	0.129
-245.990	-25.371	0.068	-0.040
-244.976	-0.821	-0.199	-0.141
-243.961	231.833	-0.146	-0.238
-242.946	66.187	0.197	-0.199
-241.932	-51.053	-0.068	-0.032
-240.917	-200.000	-0.089	0.000
-239.903	-29.147	0.198	-0.113
-238.888	94.069	0.156	-0.177
-237.873	-159.857	-0.155	0.008
-236.859	-200.000	-0.041	0.241
-235.844	-19.215	-0.181	0.112
-234.830	-123.555	0.105	0.017
-233.815	-75.354	-0.145	0.051
-232.800	-200.000	-0.033	-0.446
-231.786	-102.286	-0.466	0.111
-230.771	619.297	0.055	-0.139
-229.757	-132.099	0.224	0.029
-228.742	76.315	0.148	0.156
-227.727	33.445	0.038	0.033
-226.713	140.218	0.098	-0.129
-225.698	-200.000	-0.034	-0.399
-224.684	-187.079	-0.248	-0.003
-223.669	-200.000	0.030	-0.222
-222.655	54.924	-0.254	0.244
-221.640	800.000	-0.024	0.086
-220.625	242.413	0.069	0.115
-219.611	800.000	0.068	0.292
-218.596	-200.000	-0.068	0.000
-217.582	-115.436	-0.071	-0.013
-216.567	23.220	-0.098	-0.080
-215.552	-78.534	-0.198	0.067
-214.538	800.000	0.048	0.190
-213.523	54.415	-0.402	0.385
-212.509	178.543	0.086	0.125
-211.494	800.000	-0.040	0.111
-210.479	-200.000	0.100	0.439
-209.465	-8.615	-0.220	0.147
-208.450	-32.945	-0.046	-0.025
-207.436	56.121	-0.209	0.202
-206.421	688.164	0.118	-0.306
-205.406	24.627	0.050	-0.041
-204.392	800.000	0.045	-0.139
-203.377	-200.000	-0.029	-0.203
-202.363	343.664	0.039	0.076
-201.348	198.903	-0.110	-0.167
-200.333	-114.156	0.092	-0.018
-199.319	-146.658	0.133	0.011
-198.304	38.718	-0.126	-0.112
-197.290	-83.974	0.238	0.075
-196.275	39.139	0.484	0.430
-195.260	491.020	0.099	0.226
-194.246	800.000	-0.071	-0.198
-193.231	-128.134	0.262	-0.037
-192.217	800.000	-0.078	-0.311
-191.202	-70.296	0.202	-0.076
-190.187	-200.000	0.055	-0.396
-189.173	800.000	-0.030	-0.121
-188.158	134.614	-0.127	0.163
-187.144	566.579	-0.030	-0.072
-186.129	800.000	-0.073	0.238
-185.114	83.630	-0.127	-0.137
-184.100	53.015	0.214	0.204
-183.085	81.010	-0.012	-0.013
-182.071	23.287	0.231	0.188
-181.056	481.024	0.086	0.193
-180.042	-200.000	0.012	0.260
-179.027	650.108	-0.050	-0.126
-178.012	-154.086	0.139	0.009
-176.998	184.502	-0.168	0.247
-175.983	-162.147	0.184	-0.009
-174.969	-200.000	-0.057	-0.372
-173.954	540.909	-0.084	-0.200
-172.939	117.276	-0.025	-0.030
-171.925	-13.301	0.045	0.029
-170.910	-22.124	0.222	-0.134
-169.896	800.000	0.015	0.048
-168.881	-119.822	0.189	0.032
-167.866	-200.000	-0.031	0.158
-166.852	-96.782	-0.180	0.047
-165.837	-161.278	-0.356	-0.018
-164.823	26.167	0.080	-0.066
-163.808	-14.609	0.096	0.061
-162.793	800.000	0.051	0.196
-161.779	-152.367	0.238	-0.017
-160.764	-38.873	-0.252	0.132
-159.750	-102.305	0.260	0.062
-158.735	-200.000	-0.027	-0.377
-157.720	-39.289	0.026	-0.013
-156.706	-108.143	-0.030	-0.006
-155.691	800.000	0.016	-0.056
-154.677	597.022	-0.026	0.063
-153.662	-86.536	0.149	-0.045
-152.647	-131.630	0.270	0.035
-151.633	3.579	-0.143	0.103
-150.618	-124.910	0.215	0.033
-149.604	277.359	-0.115	-0.203
-148.589	-150.928	0.291	-0.022
-147.574	-37.939	-0.044	-0.023
-146.560	-131.122	-0.088	0.012
-145.545	129.979	-0.112	0.142
-144.531	-113.962	0.186	-0.036
-143.516	219.663	-0.072	-0.114
-142.502	-175.441	-0.164	-0.004
-141.487	-200.000	-0.066	0.317
-140.472	216.061	-0.064	0.101
-139.458	-101.400	-0.071	0.017
-138.443	-200.000	0.011	0.058
-137.429	-200.000	0.005	0.051
-136.414	-29.383	-0.205	-0.116
-135.399	-200.000	-0.048	0.209
-134.385	-54.330	0.224	-0.101
-133.370	-200.000	-0.015	0.102
-132.356	90.812	0.164	0.182
-131.341	-96.244	0.179	-0.047
-130.326	-200.000	-0.025	-0.345
-129.312	146.719	-0.121	0.162
-128.297	213.561	0.202	-0.316
-127.283	-134.005	-0.371	-0.046
-126.268	339.414	0.114	-0.220
-125.253	94.033	0.168	-0.189
-124.239	722.980	-0.045	0.118
-123.224	-48.003	0.229	0.110
-122.210	-111.654	0.145	0.029
-121.195	-200.000	0.010	-0.161
