DTS Sentinel unit serial number:	SN413079Multiplexer serial number:	ORYXHardware model number:	OX4-SRSoftware version number:	ORYX F/W v4.00 Oryx Data Collector v3.7.2.0data status	okinstallation	princeton_trtdifferential loss correction	single-endedforward channel	channel 2reverse channel	N/Adate	2019/09/12time	12:45:11forward acquisition time	60.00reverse acquisition time	0.00gamma	496.2192k internal	0.2297k external	0.2297temperature offset calibration	1.0075default loss term (dB/km)	0.3790temperature slope calibration	1.0000multiplexer offset coefficient	1.0000multiplexer slope coefficient	1.0000fibre end	0.00T internal ref (°C)	40.55T ext. ref 1 (°C)	2.03T ext. ref 2 (°C)	37.80length (m)	temperature (°C)	Stokes	anti-Stokes-747.200	-136.980	-0.156	0.018
-746.185	29.316	0.071	0.062
-745.171	-200.000	0.046	-0.271
-744.156	37.131	-0.262	0.236
-743.142	-104.448	-0.015	0.004
-742.127	608.852	0.027	0.069
-741.112	185.863	0.089	0.134
-740.098	-200.000	-0.016	0.581
-739.083	-71.800	0.094	0.036
-738.069	97.478	-0.137	-0.161
-737.054	-149.319	-0.218	-0.018
-736.039	168.197	-0.128	0.186
-735.025	-200.000	-0.008	-0.122
-734.010	223.156	0.238	-0.392
-732.996	50.295	0.193	-0.187
-731.981	-200.000	0.001	-0.070
-730.966	-31.003	-0.129	0.075
-729.952	-38.709	-0.239	-0.129
-728.937	62.019	0.103	0.105
-727.923	250.431	-0.101	-0.175
-726.908	-200.000	0.035	0.302
-725.894	-135.014	0.091	-0.011
-724.879	-129.721	-0.451	-0.063
-723.864	506.583	0.075	-0.177
-722.850	74.421	-0.101	0.109
-721.835	-200.000	-0.020	-0.263
-720.821	-200.000	-0.015	-0.113
-719.806	-55.638	-0.206	-0.094
-718.791	-74.295	0.314	0.116
-717.777	-77.035	-0.383	-0.136
-716.762	191.203	0.225	-0.346
-715.748	-113.861	-0.121	0.024
-714.733	-45.291	0.181	0.091
-713.718	800.000	-0.060	0.207
-712.704	57.659	-0.181	0.180
-711.689	46.959	-0.236	-0.224
-710.675	800.000	0.068	0.225
-709.660	60.269	0.160	0.161
-708.645	-101.127	0.109	0.027
-707.631	-135.918	-0.233	-0.028
-706.616	-200.000	-0.010	-0.096
-705.602	254.915	-0.041	-0.072
-704.587	232.063	0.152	-0.254
-703.572	-200.000	0.014	0.088
-702.558	103.120	-0.025	-0.030
-701.543	1.367	0.186	0.136
-700.529	691.829	0.080	-0.214
-699.514	416.877	0.035	-0.076
-698.499	-130.178	-0.137	-0.019
-697.485	-71.257	-0.209	-0.080
-696.470	-200.000	-0.030	-0.182
-695.456	146.560	0.162	-0.222
-694.441	86.797	-0.186	-0.209
-693.426	5.387	-0.071	-0.053
-692.412	-200.000	0.013	-0.127
-691.397	195.749	-0.188	-0.291
-690.383	-13.403	-0.176	-0.116
-689.368	800.000	-0.063	-0.219
-688.354	289.304	-0.201	-0.370
-687.339	-189.555	-0.200	-0.002
-686.324	-200.000	-0.050	0.300
-685.310	-1.610	-0.027	-0.019
-684.295	315.155	0.122	-0.235
-683.281	-84.386	-0.146	0.047
-682.266	800.000	0.080	-0.230
-681.251	-9.149	-0.167	0.114
-680.237	-112.559	-0.199	-0.040
-679.222	-200.000	-0.025	-0.230
-678.208	187.358	-0.061	-0.093
-677.193	-84.755	0.212	0.068
-676.178	-145.720	0.104	-0.009
-675.164	110.365	0.126	-0.154
-674.149	198.487	0.098	0.153
-673.135	171.228	-0.168	0.245
-672.120	-128.907	-0.251	-0.036
-671.105	-200.000	-0.004	-0.084
-670.091	-60.460	-0.201	0.087
-669.076	239.679	0.206	0.350
-668.062	-95.441	-0.262	-0.072
-667.047	-200.000	0.006	-0.275
-666.032	-104.040	0.240	0.057
-665.018	-41.946	0.295	0.154
-664.003	249.951	-0.167	-0.288
-662.989	-30.461	-0.161	0.093
-661.974	-95.480	0.145	-0.040
-660.959	-143.531	-0.239	0.023
-659.945	-149.815	-0.487	-0.039
-658.930	162.350	-0.056	-0.080
-657.916	-42.702	0.118	-0.061
-656.901	-200.000	-0.010	-0.221
-655.886	85.377	0.322	0.359
-654.872	-128.695	-0.189	0.027
-653.857	27.045	0.110	0.094
-652.843	-200.000	-0.011	0.134
-651.828	-200.000	0.035	-0.195
-650.814	-200.000	0.007	-0.248
-649.799	800.000	0.048	-0.156
-648.784	619.015	-0.096	-0.244
-647.770	-107.588	-0.351	0.078
-646.755	172.081	0.104	0.152
-645.741	-29.207	-0.320	-0.186
-644.726	160.927	-0.058	-0.083
-643.711	524.301	0.028	-0.066
-642.697	-2.281	-0.272	0.194
-641.682	637.193	-0.081	0.209
-640.668	-38.751	0.147	0.079
-639.653	276.020	0.206	-0.372
-638.638	-161.180	0.126	0.007
-637.624	-200.000	0.027	-0.319
-636.609	47.915	-0.093	-0.088
-635.595	-132.979	0.271	0.035
-634.580	35.574	-0.190	-0.170
-633.565	352.954	-0.187	-0.377
-632.551	-37.312	-0.206	-0.112
-631.536	-123.689	0.109	-0.018
-630.522	122.216	0.045	0.058
-629.507	-87.937	0.251	0.077
-628.492	-16.721	0.252	-0.162
-627.478	-148.583	0.235	0.019
-626.463	109.543	-0.130	-0.159
-625.449	275.037	-0.072	-0.129
-624.434	-63.885	0.226	-0.094
-623.419	56.555	0.097	-0.096
-622.405	-200.000	-0.024	-0.139
-621.390	265.007	-0.050	-0.088
-620.376	-156.008	0.339	0.022
-619.361	800.000	-0.066	0.292
-618.346	154.123	0.183	0.255
-617.332	7.916	-0.317	0.242
-616.317	-109.498	-0.124	0.027
-615.303	109.818	-0.094	0.115
-614.288	-174.338	-0.304	0.009
-613.273	-14.239	-0.150	0.098
-612.259	-200.000	0.008	-0.227
-611.244	-106.685	-0.225	0.051
-610.230	-200.000	-0.027	0.212
-609.215	38.926	-0.071	0.065
-608.201	-59.045	-0.215	0.094
-607.186	-115.993	-0.477	-0.090
-606.171	-172.256	-0.273	-0.009
-605.157	800.000	0.070	0.277
-604.142	-54.555	0.186	-0.085
-603.128	708.979	0.128	0.343
-602.113	-200.000	-0.038	-0.206
-601.098	800.000	-0.107	-0.383
-600.084	184.462	-0.174	0.261
-599.069	-200.000	-0.029	0.580
-598.055	-200.000	0.045	-0.222
-597.040	800.000	-0.059	-0.209
-596.025	26.240	0.056	0.048
-595.011	501.983	0.063	-0.148
-593.996	-200.000	0.183	-0.000
-592.982	800.000	0.048	-0.156
-591.967	271.708	0.022	-0.039
-590.952	61.689	0.258	0.260
-589.938	42.114	-0.116	-0.107
-588.923	20.747	-0.147	-0.121
-587.909	-139.784	-0.109	0.012
-586.894	-200.000	-0.035	0.213
-585.879	800.000	0.007	0.026
-584.865	261.997	0.137	0.242
-583.850	-181.685	0.196	-0.004
-582.836	317.253	0.118	0.227
-581.821	289.492	-0.137	-0.251
-580.806	-8.404	0.094	0.064
-579.792	-77.408	0.165	0.058
-578.777	14.366	0.347	-0.274
-577.763	-200.000	0.027	-0.161
-576.748	-128.018	0.180	-0.026
-575.733	653.605	-0.042	-0.110
-574.719	800.000	0.071	-0.271
-573.704	-43.404	-0.267	-0.137
-572.690	800.000	0.084	-0.252
-571.675	-152.984	-0.435	-0.031
-570.661	45.974	0.267	-0.250
-569.646	800.000	0.057	0.186
-568.631	-200.000	-0.026	-0.200
-567.617	-22.819	-0.216	0.132
-566.602	-16.282	-0.355	-0.229
-565.588	-200.000	-0.063	-0.386
-564.573	-108.585	-0.207	-0.045
-563.558	432.424	-0.152	-0.335
-562.544	689.911	0.127	-0.337
-561.529	102.076	-0.164	0.195
-560.515	-21.906	-0.047	0.029
-559.500	86.910	-0.183	0.205
-558.485	193.034	-0.108	-0.166
-557.471	800.000	-0.022	-0.074
-556.456	-124.147	0.180	0.029
-555.442	-66.501	-0.234	-0.094
-554.427	-65.250	0.350	0.143
-553.412	2.212	-0.140	0.103
-552.398	-200.000	-0.020	-0.092
-551.383	-200.000	-0.043	-0.268
-550.369	-200.000	0.012	-0.219
-549.354	476.279	-0.149	-0.342
-548.339	800.000	-0.028	0.118
-547.325	-200.000	0.017	-0.092
-546.310	-65.124	-0.105	0.043
-545.296	156.666	0.047	-0.065
-544.281	-43.271	0.212	-0.109
-543.266	-127.409	-0.080	0.012
-542.252	-47.852	0.345	0.169
-541.237	-154.516	0.274	-0.019
-540.223	-200.000	0.022	0.147
-539.208	-200.000	-0.019	-0.148
-538.193	-190.328	-0.325	0.004
-537.179	37.026	0.177	0.158
-536.164	-200.000	0.029	-0.194
-535.150	70.199	-0.089	0.094
-534.135	-54.887	0.012	-0.005
-533.121	-118.097	-0.414	-0.075
-532.106	-22.469	-0.169	0.104
-531.091	-33.988	0.081	-0.045
-530.077	-200.000	0.010	0.198
-529.062	24.126	-0.262	-0.219
-528.048	27.312	-0.175	0.149
-527.033	-164.786	0.189	0.009
-526.018	237.774	0.046	0.077
-525.004	306.898	0.205	0.387
-523.989	382.993	0.019	-0.039
-522.975	-134.495	0.277	0.034
-521.960	13.676	-0.084	-0.066
-520.945	126.012	-0.118	-0.151
-519.931	-161.714	0.463	0.024
-518.916	-68.588	0.198	-0.078
-517.902	5.144	0.087	0.065
-516.887	103.518	0.097	-0.116
-515.872	800.000	-0.153	0.452
-514.858	-70.669	0.210	0.080
-513.843	789.205	0.138	0.383
-512.829	800.000	0.143	0.419
-511.814	-118.124	0.254	-0.046
-510.799	-15.286	-0.110	0.071
-509.785	800.000	-0.096	-0.378
-508.770	182.203	0.039	0.058
-507.756	-36.184	0.081	-0.044
-506.741	48.807	-0.205	0.194
-505.726	800.000	0.022	-0.068
-504.712	43.753	0.290	0.268
-503.697	501.198	0.078	-0.182
-502.683	-200.000	0.059	-0.295
-501.668	-15.911	-0.204	0.131
-500.653	-120.462	-0.253	0.043
-499.639	-100.861	0.176	0.044
-498.624	-3.545	0.223	0.157
-497.610	97.066	-0.121	0.140
-496.595	-73.149	-0.139	0.051
-495.581	800.000	0.109	0.341
-494.566	-90.211	0.173	0.051
-493.551	23.907	0.215	0.179
-492.537	49.387	0.261	-0.248
-491.522	47.271	-0.034	0.032
-490.508	-200.000	-0.022	0.112
-489.493	273.547	-0.189	-0.338
-488.478	-165.754	0.197	-0.009
-487.464	-200.000	-0.038	-0.258
-486.449	260.130	-0.070	0.122
-485.435	-200.000	0.098	-0.530
-484.420	44.099	-0.126	0.117
-483.405	148.235	0.146	0.200
-482.391	-78.235	-0.088	0.031
-481.376	-163.868	-0.071	-0.003
-480.362	-141.100	0.234	-0.024
-479.347	101.629	0.227	0.268
-478.332	358.953	-0.100	-0.202
-477.318	28.116	-0.210	0.179
-476.303	-30.205	0.179	0.103
-475.289	800.000	-0.061	0.188
-474.274	3.200	0.071	0.052
-473.259	468.854	-0.172	-0.390
-472.245	-200.000	0.017	-0.142
-471.230	-200.000	0.012	-0.114
-470.216	-105.806	-0.220	-0.050
-469.201	-200.000	-0.034	-0.162
-468.186	23.956	-0.214	0.179
-467.172	146.315	0.191	-0.259
-466.157	-181.529	-0.112	-0.002
-465.143	800.000	-0.099	-0.330
-464.128	649.386	0.165	-0.426
-463.113	-152.764	-0.235	-0.017
-462.099	-200.000	-0.002	0.149
-461.084	35.808	0.413	0.367
-460.070	158.335	0.174	0.244
-459.055	-200.000	-0.048	-0.302
-458.040	170.729	-0.066	-0.095
-457.026	-102.489	-0.289	0.070
-456.011	21.054	0.097	-0.079
-454.997	75.840	0.117	0.125
-453.982	-93.866	-0.148	0.041
-452.968	203.172	0.216	-0.337
-451.953	-93.928	-0.107	-0.030
-450.938	800.000	0.092	0.407
-449.924	162.065	0.100	-0.141
-448.909	-121.524	-0.036	-0.006
-447.895	-200.000	-0.006	0.138
-446.880	-4.407	0.125	-0.087
-445.865	30.912	-0.093	-0.080
-444.851	800.000	0.037	-0.104
-443.836	-90.968	0.247	0.072
-442.822	800.000	0.098	0.281
-441.807	-193.581	0.344	0.003
-440.792	-87.006	-0.229	-0.070
-439.778	-91.280	0.105	0.030
-438.763	-104.790	0.039	0.009
-437.749	-89.073	-0.347	-0.104
-436.734	-200.000	0.022	0.447
-435.719	-144.254	-0.185	0.017
-434.705	74.297	-0.093	0.099
-433.690	37.261	-0.182	0.162
-432.676	-104.603	0.107	0.025
-431.661	-200.000	-0.024	0.252
-430.646	97.261	-0.213	-0.247
-429.632	-16.853	-0.239	0.152
-428.617	-200.000	-0.075	-0.383
-427.603	169.770	-0.226	0.326
-426.588	-68.366	0.304	0.119
-425.573	303.054	-0.048	-0.090
-424.559	-142.685	-0.275	-0.027
-423.544	-41.955	-0.235	-0.121
-422.530	-145.494	-0.154	0.014
-421.515	-200.000	-0.002	0.152
-420.500	45.286	-0.389	0.361
-419.486	-124.847	0.224	0.035
-418.471	800.000	-0.029	-0.114
-417.457	800.000	-0.049	0.209
-416.442	7.881	-0.195	0.147
-415.428	-65.359	-0.204	-0.083
-414.413	-200.000	-0.065	0.336
-413.398	-1.899	0.102	0.072
-412.384	800.000	-0.036	0.147
-411.369	126.582	-0.432	0.551
-410.355	219.705	-0.133	-0.215
-409.340	800.000	0.055	0.170
-408.325	-53.526	0.224	0.103
-407.311	-200.000	0.058	-0.396
-406.296	24.265	-0.056	-0.047
-405.282	53.309	-0.209	0.201
-404.267	-86.247	0.231	-0.072
-403.252	150.438	-0.119	0.162
-402.238	-132.046	0.056	-0.007
-401.223	-115.898	0.130	-0.024
-400.209	-200.000	-0.018	0.190
-399.194	-123.964	-0.269	0.043
-398.179	333.896	-0.153	0.297
-397.165	800.000	-0.058	-0.234
-396.150	22.245	-0.159	0.131
-395.136	6.840	-0.149	0.112
-394.121	27.820	-0.317	0.269
-393.106	-98.536	-0.142	-0.037
-392.092	800.000	-0.021	-0.061
-391.077	-1.518	0.076	-0.054
-390.063	-76.295	-0.440	0.156
-389.048	-116.315	-0.030	-0.006
-388.033	65.664	0.011	-0.012
-387.019	339.513	0.097	-0.191
-386.004	482.684	0.168	-0.384
-384.990	143.466	-0.263	-0.353
-383.975	-75.923	-0.185	-0.066
-382.960	-132.614	0.223	0.029
-381.946	588.281	-0.144	0.358
-380.931	449.468	0.131	0.290
-379.917	698.415	-0.071	-0.188
-378.902	-80.884	0.136	0.045
-377.888	181.988	-0.297	-0.441
-376.873	16.175	-0.302	-0.240
-375.858	-63.853	-0.202	-0.083
-374.844	-89.275	0.412	-0.122
-373.829	-27.609	-0.273	-0.159
-372.815	-116.997	0.033	-0.006
-371.800	-200.000	0.028	0.269
-370.785	87.432	-0.092	-0.103
-369.771	195.395	-0.210	0.321
-368.756	3.749	-0.324	-0.238
-367.742	231.290	0.065	0.108
-366.727	190.562	-0.202	-0.305
-365.712	108.132	-0.044	-0.053
-364.698	-200.000	0.063	-0.284
-363.683	800.000	-0.036	0.143
-362.669	437.809	0.065	-0.142
-361.654	55.429	-0.070	0.068
-360.639	-135.707	0.336	-0.040
-359.625	59.011	0.077	-0.076
-358.610	-157.527	0.320	-0.019
-357.596	-68.228	-0.437	0.171
-356.581	-200.000	-0.037	0.181
-355.566	-200.000	-0.000	-0.039
-354.552	8.335	0.040	0.030
-353.537	-200.000	-0.004	-0.139
-352.523	800.000	-0.088	-0.371
-351.508	-200.000	0.013	-0.193
-350.493	-114.574	0.124	0.024
-349.479	42.650	-0.083	0.076
-348.464	-153.046	0.243	-0.017
-347.450	139.382	-0.118	0.156
-346.435	-76.284	-0.276	-0.098
-345.420	109.466	0.109	0.131
-344.406	329.277	-0.152	-0.294
-343.391	687.469	-0.100	-0.261
-342.377	483.215	0.052	0.119
-341.362	29.490	-0.102	-0.087
-340.348	-51.733	0.180	-0.084
-339.333	269.844	0.098	0.173
-338.318	-200.000	-0.009	0.276
-337.304	-97.874	0.278	0.072
-336.289	-188.121	-0.232	0.003
-335.275	185.013	-0.224	0.333
-334.260	-200.000	-0.001	0.124
-333.245	-158.084	-0.112	-0.007
-332.231	215.155	0.082	-0.130
-331.216	-28.575	0.095	0.055
-330.202	303.948	-0.042	0.078
-329.187	9.509	0.237	0.180
-328.172	-145.751	0.494	0.044
-327.158	299.482	-0.169	-0.312
-326.143	387.049	-0.171	0.355
-325.129	391.007	-0.120	0.250
-324.114	-61.636	0.182	0.077
-323.099	105.877	0.225	0.268
-322.085	-83.892	0.085	0.027
-321.070	-78.338	0.176	-0.060
-320.056	800.000	0.029	0.119
-319.041	-133.090	-0.216	-0.028
-318.026	-3.258	-0.280	-0.196
-317.012	43.897	-0.047	0.044
-315.997	-79.592	-0.418	0.142
-314.983	700.576	0.051	0.135
-313.968	800.000	-0.046	0.201
-312.953	800.000	0.022	-0.071
-311.939	107.295	-0.165	0.197
-310.924	428.333	-0.027	0.058
-309.910	-200.000	0.009	-0.135
-308.895	-193.523	-0.176	0.002
-307.880	-179.866	0.249	0.005
-306.866	800.000	0.085	0.297
-305.851	-41.808	0.167	0.086
-304.837	800.000	0.094	-0.274
-303.822	-200.000	0.052	0.384
-302.807	-200.000	-0.016	0.434
-301.793	-59.741	0.200	0.086
-300.778	129.573	-0.050	-0.064
-299.764	13.940	0.273	0.213
-298.749	-200.000	-0.040	0.176
-297.735	800.000	0.085	-0.279
-296.720	-112.037	0.176	0.035
-295.705	1.329	0.089	-0.064
-294.691	-172.050	-0.163	-0.005
-293.676	-58.513	0.196	-0.086
-292.662	800.000	0.066	-0.251
-291.647	250.014	-0.094	-0.159
-290.632	-191.587	-0.241	0.002
-289.618	-200.000	0.094	-0.480
-288.603	256.215	-0.126	-0.216
-287.589	-2.755	-0.275	-0.193
-286.574	-141.071	-0.182	-0.019
-285.559	800.000	0.110	-0.317
-284.545	-180.383	0.119	-0.002
-283.530	-147.237	0.026	0.002
-282.516	-122.069	-0.091	-0.015
-281.501	595.390	-0.059	0.146
-280.486	407.410	0.039	-0.083
-279.472	134.872	-0.205	0.266
-278.457	211.888	0.191	-0.302
-277.443	110.614	-0.175	-0.211
-276.428	-157.368	0.458	-0.028
-275.413	-200.000	0.015	0.188
-274.399	72.827	0.129	-0.135
-273.384	-131.881	-0.118	-0.015
-272.370	54.441	0.101	-0.098
-271.355	800.000	0.020	0.087
-270.340	21.491	0.070	-0.057
-269.326	-39.340	0.124	-0.065
-268.311	29.709	-0.167	0.143
-267.297	104.340	-0.111	-0.131
-266.282	-200.000	-0.045	0.208
-265.267	-54.223	0.407	-0.185
-264.253	44.788	-0.278	-0.256
-263.238	-123.202	-0.178	-0.029
-262.224	8.892	0.213	0.161
-261.209	-30.202	0.432	0.246
-260.195	39.439	0.161	-0.145
-259.180	-200.000	0.031	0.305
-258.165	-33.054	0.151	0.084
-257.151	800.000	0.063	0.263
-256.136	-200.000	-0.015	-0.264
-255.122	-152.465	0.208	-0.015
-254.107	205.191	0.147	0.229
-253.092	-110.997	0.365	0.075
-252.078	25.418	0.127	-0.106
-251.063	-95.244	0.163	-0.044
-250.049	800.000	-0.014	0.048
-249.034	657.348	0.101	-0.260
-248.019	-200.000	-0.004	0.244
-247.005	52.059	-0.247	0.235
-245.990	-200.000	0.052	0.244
-244.976	-96.612	-0.387	-0.102
-243.961	-90.419	-0.140	-0.041
-242.946	-200.000	0.008	0.080
-241.932	40.575	0.033	-0.029
-240.917	-118.357	-0.264	-0.047
-239.903	60.155	0.255	-0.253
-238.888	-102.376	-0.115	0.028
-237.873	26.815	0.254	-0.213
-236.859	68.774	0.292	-0.300
-235.844	-200.000	-0.001	-0.076
-234.830	193.379	0.180	-0.272
-233.815	-27.568	-0.409	-0.238
-232.800	247.998	-0.117	-0.198
-231.786	-22.024	0.135	-0.082
-230.771	518.423	0.202	0.472
-229.757	-188.841	0.283	0.003
-228.742	116.007	0.162	0.199
-227.727	70.147	0.074	-0.076
-226.713	-200.000	-0.015	-0.139
-225.698	-200.000	-0.019	0.106
-224.684	201.099	-0.190	0.293
-223.669	-171.387	0.276	0.009
-222.655	800.000	-0.041	0.141
-221.640	-12.356	0.137	0.090
-220.625	-200.000	-0.020	-0.115
-219.611	-200.000	0.010	-0.199
-218.596	186.295	-0.089	0.133
-217.582	-14.428	-0.077	-0.050
-216.567	-194.601	0.377	0.003
-215.552	-64.064	0.335	-0.137
-214.538	-96.835	0.430	-0.113
-213.523	-200.000	0.004	-0.085
-212.509	103.310	0.189	-0.222
-211.494	799.220	-0.148	-0.408
-210.479	292.535	0.105	0.191
-209.465	386.496	-0.069	-0.141
-208.450	-200.000	-0.019	0.110
-207.436	-165.600	0.363	0.016
-206.421	18.799	-0.204	-0.163
-205.406	-200.000	0.002	-0.159
-204.392	-200.000	-0.064	-0.391
-203.377	330.845	0.044	0.085
-202.363	1.639	-0.109	-0.078
-201.348	-200.000	0.019	-0.560
-200.333	201.017	0.180	0.276
-199.319	-5.597	-0.054	-0.037
-198.304	-102.201	-0.179	-0.043
-197.290	32.231	0.140	0.121
-196.275	522.953	-0.055	-0.128
-195.260	-143.370	-0.288	-0.028
-194.246	20.871	-0.096	0.078
-193.231	22.109	-0.360	0.294
-192.217	142.809	0.098	0.131
-191.202	309.094	-0.167	0.312
-190.187	800.000	-0.082	-0.329
-189.173	415.993	-0.088	0.187
-188.158	-24.613	0.186	-0.111
-187.144	800.000	-0.061	-0.211
-186.129	-79.984	0.322	0.108
-185.114	-178.670	0.442	0.010
-184.100	8.397	0.378	0.284
-183.085	86.899	-0.211	-0.233
-182.071	800.000	0.053	0.168
-181.056	67.156	0.163	0.166
-180.042	-200.000	0.056	0.251
-179.027	653.081	-0.054	0.138
-178.012	800.000	-0.037	0.161
-176.998	-18.157	-0.117	-0.073
-175.983	-74.434	0.220	0.079
-174.969	203.856	0.101	0.157
-173.954	738.273	0.059	-0.158
-172.939	9.460	0.244	0.184
-171.925	-69.207	-0.278	0.107
-170.910	-15.200	-0.248	-0.158
-169.896	-200.000	0.003	0.310
-168.881	-71.248	-0.266	-0.100
-167.866	-150.672	-0.254	0.019
-166.852	-69.168	0.307	-0.118
-165.837	-10.372	-0.217	-0.144
-164.823	-200.000	0.029	0.150
-163.808	-200.000	0.029	-0.276
-162.793	-95.086	0.257	0.069
-161.779	-59.771	-0.030	-0.013
-160.764	-44.408	0.126	0.063
-159.750	800.000	0.082	0.249
-158.735	-200.000	-0.013	0.165
-157.720	-84.206	-0.172	0.054
-156.706	-139.456	0.344	-0.037
-155.691	281.109	0.083	-0.149
-154.677	-65.259	0.161	0.065
-153.662	-200.000	0.000	0.454
-152.647	43.015	-0.131	0.119
-151.633	-55.167	0.098	-0.044
-150.618	800.000	-0.042	0.172
-149.604	800.000	0.039	-0.145
-148.589	135.781	-0.140	-0.182
-147.574	-128.005	0.277	0.040
-146.560	-11.858	-0.171	0.112
-145.545	242.930	-0.202	0.337
-144.531	73.944	0.170	0.178
-143.516	-200.000	-0.001	-0.148
-142.502	-144.632	0.161	-0.015
-141.487	-200.000	0.030	-0.139
-140.472	10.508	0.217	0.165
-139.458	-63.395	0.279	0.114
-138.443	-155.650	0.198	0.013
-137.429	63.276	0.279	-0.279
-136.414	223.914	-0.071	-0.114
-135.399	-76.416	0.185	-0.065
-134.385	90.418	-0.091	0.102
-133.370	103.562	-0.063	0.073
-132.356	285.742	0.117	-0.210
-131.341	-64.573	0.270	-0.109
-130.326	-104.387	-0.357	0.083
-129.312	202.304	0.150	0.231
-128.297	-76.794	0.243	0.085
-127.283	273.356	0.116	-0.204
-126.268	-51.725	0.204	-0.095
-125.253	-200.000	-0.040	-0.243
-124.239	367.628	-0.069	-0.138
-123.224	-200.000	-0.024	-0.149
-122.210	-79.069	0.118	0.040
