DTS Sentinel unit serial number:	SN413079Multiplexer serial number:	ORYXHardware model number:	OX4-SRSoftware version number:	ORYX F/W v4.00 Oryx Data Collector v3.7.2.0data status	okinstallation	princeton_trtdifferential loss correction	single-endedforward channel	channel 2reverse channel	N/Adate	2019/09/16time	18:19:35forward acquisition time	60.00reverse acquisition time	0.00gamma	496.2192k internal	0.2319k external	0.2319temperature offset calibration	0.9946default loss term (dB/km)	0.3790temperature slope calibration	1.0000multiplexer offset coefficient	1.0000multiplexer slope coefficient	1.0000fibre end	0.00T internal ref (°C)	37.00T ext. ref 1 (°C)	15.76T ext. ref 2 (°C)	30.50length (m)	temperature (°C)	Stokes	anti-Stokes-747.200	95.138	-0.200	-0.230
-746.185	-50.852	0.071	0.034
-745.171	-200.000	-0.037	-0.244
-744.156	800.000	-0.078	0.281
-743.142	28.442	0.107	-0.092
-742.127	-200.000	0.018	0.617
-741.112	-152.722	0.236	-0.017
-740.098	-80.216	-0.179	-0.061
-739.083	43.968	-0.276	0.256
-738.069	158.670	-0.145	0.203
-737.054	-134.579	0.120	0.015
-736.039	-200.000	0.006	0.061
-735.025	-21.960	-0.147	0.090
-734.010	-132.481	-0.173	0.022
-732.996	679.055	-0.158	-0.416
-731.981	-54.258	-0.246	-0.113
-730.966	164.535	-0.168	0.240
-729.952	800.000	0.110	-0.329
-728.937	153.022	0.178	0.246
-727.923	-98.445	0.273	-0.071
-726.908	458.813	0.058	-0.130
-725.894	-115.338	-0.141	-0.027
-724.879	375.640	-0.046	0.094
-723.864	-200.000	-0.034	0.157
-722.850	-133.462	0.066	-0.008
-721.835	-156.191	-0.167	-0.011
-720.821	800.000	-0.043	0.175
-719.806	47.653	-0.234	-0.221
-718.791	-200.000	-0.058	-0.298
-717.777	194.284	0.140	0.214
-716.762	-200.000	-0.040	0.270
-715.748	-200.000	-0.031	0.154
-714.733	-200.000	-0.080	-0.363
-713.718	-28.005	-0.150	0.088
-712.704	-132.773	-0.332	-0.043
-711.689	186.126	-0.155	0.233
-710.675	68.649	0.074	0.077
-709.660	800.000	0.074	-0.312
-708.645	800.000	-0.063	-0.213
-707.631	-200.000	-0.031	-0.340
-706.616	-31.502	-0.103	0.059
-705.602	284.318	-0.085	0.154
-704.587	113.451	0.198	0.242
-703.572	-186.017	0.084	-0.001
-702.558	218.159	-0.046	-0.075
-701.543	-144.389	-0.134	0.013
-700.529	31.120	-0.221	0.192
-699.514	800.000	-0.089	0.255
-698.499	-69.779	0.232	0.089
-697.485	-183.289	-0.072	0.001
-696.470	-200.000	-0.024	-0.357
-695.456	-200.000	-0.042	-0.292
-694.441	-122.569	-0.412	-0.068
-693.426	504.578	-0.190	-0.445
-692.412	-152.581	-0.073	0.005
-691.397	-6.424	-0.372	0.256
-690.383	-36.412	-0.380	0.207
-689.368	290.990	0.102	-0.188
-688.354	-99.750	0.088	-0.022
-687.339	-153.882	0.115	0.008
-686.324	-200.000	0.002	0.045
-685.310	-164.284	-0.210	-0.010
-684.295	-12.427	0.053	-0.035
-683.281	-137.195	0.256	0.029
-682.266	-104.250	-0.458	-0.107
-681.251	23.201	0.079	-0.065
-680.237	322.910	0.125	0.241
-679.222	20.899	0.280	-0.229
-678.208	-60.621	0.134	-0.058
-677.193	0.574	0.096	0.070
-676.178	-44.204	-0.162	-0.082
-675.164	-78.210	0.058	-0.020
-674.149	124.076	-0.075	-0.095
-673.135	800.000	0.050	0.184
-672.120	-63.148	0.159	-0.066
-671.105	-183.815	-0.342	-0.006
-670.091	38.513	0.225	0.203
-669.076	-47.510	0.102	-0.050
-668.062	93.331	0.253	-0.288
-667.047	29.947	0.119	-0.102
-666.032	-85.446	0.064	0.020
-665.018	-27.763	-0.347	-0.203
-664.003	112.247	0.085	0.103
-662.989	-51.919	-0.159	0.074
-661.974	-72.537	-0.438	-0.163
-660.959	-30.451	-0.202	-0.115
-659.945	612.441	-0.062	0.158
-658.930	800.000	-0.093	-0.366
-657.916	800.000	-0.021	0.074
-656.901	79.648	0.096	0.104
-655.886	161.489	0.086	0.121
-654.872	-62.888	0.183	-0.076
-653.857	60.948	0.222	0.222
-652.843	-200.000	0.070	0.363
-651.828	-200.000	0.012	-0.137
-650.814	-107.760	-0.220	-0.048
-649.799	120.586	0.192	-0.240
-648.784	107.125	0.288	0.345
-647.770	-74.091	-0.416	-0.152
-646.755	800.000	-0.080	-0.273
-645.741	316.669	-0.117	0.223
-644.726	800.000	0.074	0.268
-643.711	158.829	0.156	0.218
-642.697	63.182	0.109	0.110
-641.682	111.163	-0.157	-0.190
-640.668	-92.172	0.071	0.020
-639.653	-200.000	-0.028	0.189
-638.638	63.106	0.194	-0.195
-637.624	59.896	-0.065	-0.065
-636.609	-200.000	-0.032	0.173
-635.595	800.000	-0.058	0.235
-634.580	800.000	-0.164	-0.466
-633.565	-37.167	0.303	0.163
-632.551	63.205	-0.062	-0.063
-631.536	-200.000	-0.028	-0.248
-630.522	236.934	0.214	0.356
-629.507	-98.825	-0.165	-0.042
-628.492	223.293	0.143	0.233
-627.478	5.060	-0.036	-0.026
-626.463	800.000	0.077	-0.229
-625.449	-48.316	-0.238	-0.116
-624.434	-149.797	0.189	-0.015
-623.419	1.651	0.142	0.103
-622.405	-48.502	0.136	0.066
-621.390	218.595	-0.199	0.320
-620.376	-19.284	0.276	0.172
-619.361	-130.175	-0.165	0.023
-618.346	-109.984	-0.333	0.070
-617.332	473.073	0.097	-0.221
-616.317	800.000	-0.081	-0.254
-615.303	-29.644	-0.501	-0.288
-614.288	86.947	0.302	0.336
-613.273	107.601	-0.187	0.223
-612.259	800.000	-0.078	0.253
-611.244	245.421	0.109	0.185
-610.230	90.989	-0.236	0.266
-609.215	-196.841	0.078	0.001
-608.201	238.465	-0.155	0.259
-607.186	60.005	0.018	-0.018
-606.171	-85.262	-0.226	-0.071
-605.157	-26.011	0.008	-0.005
-604.142	-200.000	0.007	-0.291
-603.128	634.692	0.113	0.288
-602.113	145.226	-0.165	-0.223
-601.098	-191.115	-0.192	0.002
-600.084	-90.878	-0.383	0.111
-599.069	61.014	-0.023	-0.023
-598.055	160.491	0.213	-0.298
-597.040	-158.940	-0.321	0.018
-596.025	800.000	0.114	-0.371
-595.011	21.429	-0.078	-0.064
-593.996	287.582	-0.215	-0.391
-592.982	-155.854	0.087	-0.006
-591.967	185.619	0.141	-0.210
-590.952	151.736	0.086	0.118
-589.938	228.886	0.008	-0.013
-588.923	-74.415	0.175	-0.064
-587.909	-108.932	0.204	-0.044
-586.894	-140.676	0.135	0.014
-585.879	-200.000	0.028	-0.196
-584.865	13.681	0.105	-0.082
-583.850	194.595	-0.122	0.186
-582.836	-132.943	-0.111	-0.014
-581.821	-200.000	-0.052	-0.341
-580.806	5.741	0.141	-0.105
-579.792	-200.000	-0.002	0.108
-578.777	-113.652	-0.236	0.046
-577.763	298.620	0.070	-0.130
-576.748	207.895	0.109	0.171
-575.733	-60.921	-0.038	-0.016
-574.719	27.085	-0.072	0.061
-573.704	-162.167	0.346	-0.017
-572.690	-200.000	0.001	-0.053
-571.675	-156.528	-0.650	-0.041
-570.661	-39.944	0.094	0.049
-569.646	60.740	0.034	0.034
-568.631	-85.871	0.238	-0.074
-567.617	742.676	-0.010	-0.028
-566.602	18.288	0.143	-0.115
-565.588	-111.808	0.425	-0.086
-564.573	-200.000	0.002	-0.441
-563.558	-200.000	0.020	-0.165
-562.544	111.704	-0.080	0.096
-561.529	-200.000	-0.007	0.085
-560.515	-79.735	-0.445	-0.151
-559.500	-81.831	0.155	0.051
-558.485	65.471	0.219	0.223
-557.471	-2.961	-0.386	0.271
-556.456	800.000	-0.065	0.234
-555.442	-110.738	0.256	-0.053
-554.427	-149.742	0.146	-0.012
-553.412	48.660	-0.132	-0.124
-552.398	336.982	-0.105	-0.206
-551.383	329.365	-0.131	0.254
-550.369	66.417	-0.145	-0.148
-549.354	82.989	0.079	0.086
-548.339	322.652	0.070	-0.133
-547.325	-200.000	0.014	0.351
-546.310	-58.935	-0.098	0.043
-545.296	-86.621	0.194	-0.060
-544.281	196.312	0.043	0.065
-543.266	144.306	0.291	-0.390
-542.252	173.308	0.088	0.127
-541.237	-200.000	-0.015	-0.130
-540.223	640.477	-0.079	-0.202
-539.208	78.823	0.278	-0.298
-538.193	543.420	-0.015	0.037
-537.179	191.231	-0.048	0.072
-536.164	-123.847	0.347	0.055
-535.150	-182.386	-0.069	0.001
-534.135	147.344	-0.123	-0.167
-533.121	-17.533	0.097	0.061
-532.106	574.643	0.029	-0.071
-531.091	-200.000	0.066	-0.307
-530.077	115.837	0.127	0.156
-529.062	110.399	-0.078	-0.094
-528.048	800.000	-0.092	0.304
-527.033	-200.000	0.003	0.017
-526.018	558.910	0.044	0.107
-525.004	-6.111	-0.238	0.163
-523.989	155.634	0.258	-0.357
-522.975	800.000	-0.033	-0.097
-521.960	-20.284	0.205	0.127
-520.945	-43.933	0.115	0.058
-519.931	-200.000	0.026	-0.237
-518.916	-137.182	0.097	-0.011
-517.902	-200.000	-0.036	-0.310
-516.887	2.945	0.318	0.232
-515.872	-108.631	-0.191	0.041
-514.858	-200.000	0.018	-0.137
-513.843	-200.000	-0.005	-0.199
-512.829	-194.457	0.159	0.001
-511.814	54.057	0.147	-0.142
-510.799	-188.061	0.097	-0.001
-509.785	367.963	0.152	0.308
-508.770	-133.580	-0.195	0.024
-507.756	-23.567	-0.383	0.230
-506.741	-200.000	0.365	0.001
-505.726	-85.520	0.110	-0.034
-504.712	77.417	0.139	-0.148
-503.697	-88.527	-0.366	-0.109
-502.683	493.964	-0.073	0.167
-501.668	-110.063	-0.219	0.046
-500.653	333.750	-0.124	0.240
-499.639	338.190	-0.095	0.185
-498.624	712.945	0.033	0.086
-497.610	-83.135	0.039	0.013
-496.595	-200.000	0.003	-0.043
-495.581	-82.208	-0.203	0.066
-494.566	-151.720	-0.140	0.010
-493.551	191.713	0.066	-0.100
-492.537	-56.764	0.235	-0.104
-491.522	800.000	0.018	0.059
-490.508	201.126	-0.046	0.071
-489.493	297.923	-0.088	-0.161
-488.478	-38.432	-0.172	-0.091
-487.464	-200.000	-0.020	0.129
-486.449	17.883	0.121	-0.097
-485.435	67.407	0.137	-0.140
-484.420	-61.579	0.136	-0.057
-483.405	800.000	-0.131	0.395
-482.391	-145.707	0.393	-0.035
-481.376	-200.000	0.056	-0.280
-480.362	800.000	-0.082	0.254
-479.347	-41.741	0.148	0.076
-478.332	-200.000	-0.022	-0.314
-477.318	800.000	0.030	-0.124
-476.303	-200.000	0.287	0.001
-475.289	-49.741	0.071	-0.034
-474.274	-103.881	0.235	0.055
-473.259	-200.000	-0.044	-0.422
-472.245	-144.667	0.348	-0.032
-471.230	-163.437	-0.207	-0.010
-470.216	643.840	-0.109	-0.279
-469.201	538.480	0.076	-0.182
-468.186	-134.187	-0.124	-0.015
-467.172	19.031	-0.068	0.054
-466.157	152.910	-0.123	0.169
-465.143	-28.837	0.323	0.186
-464.128	58.848	0.080	0.079
-463.113	25.192	-0.059	0.049
-462.099	-79.060	-0.191	-0.065
-461.084	-111.744	0.254	-0.051
-460.070	-94.593	0.096	-0.026
-459.055	800.000	-0.043	-0.146
-458.040	-113.443	-0.013	0.002
-457.026	-88.067	0.421	-0.126
-456.011	-143.499	-0.083	0.008
-454.997	76.728	0.188	-0.199
-453.982	185.395	0.167	-0.248
-452.968	800.000	0.069	0.287
-451.953	-200.000	0.026	0.338
-450.938	515.844	-0.035	0.081
-449.924	20.562	-0.225	0.182
-448.909	-200.000	0.035	0.153
-447.895	-137.009	-0.317	-0.036
-446.880	-200.000	-0.010	0.129
-445.865	-55.061	0.074	-0.033
-444.851	41.336	-0.278	0.251
-443.836	-159.728	0.206	0.011
-442.822	-104.275	-0.078	0.018
-441.807	32.475	0.151	-0.131
-440.792	-27.334	0.154	0.090
-439.778	330.394	0.090	-0.173
-438.763	-200.000	0.034	0.214
-437.749	-1.117	0.068	-0.048
-436.734	-200.000	0.020	0.173
-435.719	126.670	0.152	-0.193
-434.705	6.008	-0.230	-0.171
-433.690	-105.838	-0.289	0.065
-432.676	-59.349	0.204	-0.088
-431.661	768.499	0.071	0.194
-430.646	-26.600	-0.143	0.084
-429.632	40.748	-0.164	-0.147
-428.617	-200.000	-0.026	-0.306
-427.603	-200.000	0.038	0.207
-426.588	603.921	0.114	0.283
-425.573	52.779	0.109	0.104
-424.559	-156.297	-0.198	-0.012
-423.544	-118.186	-0.055	-0.010
-422.530	800.000	-0.014	0.050
-421.515	-107.039	-0.326	-0.072
-420.500	-63.863	0.245	0.100
-419.486	-138.637	-0.189	-0.021
-418.471	-111.908	0.421	0.085
-417.457	15.309	0.127	0.100
-416.442	51.478	-0.207	-0.196
-415.428	169.517	-0.115	0.164
-414.413	-200.000	0.005	0.084
-413.398	77.937	0.133	0.142
-412.384	-17.720	-0.118	0.074
-411.369	37.403	-0.365	-0.323
-410.355	13.030	0.203	0.157
-409.340	-92.974	0.322	-0.090
-408.325	-134.320	-0.243	0.030
-407.311	34.031	-0.265	0.231
-406.296	105.416	-0.107	0.126
-405.282	-200.000	-0.046	-0.423
-404.267	-110.694	-0.108	0.022
-403.252	285.348	0.090	0.161
-402.238	-162.249	0.162	0.008
-401.223	371.690	-0.157	-0.318
-400.209	-200.000	-0.024	-0.317
-399.194	-86.607	-0.484	0.148
-398.179	-200.000	-0.025	0.230
-397.165	800.000	-0.034	-0.135
-396.150	173.480	-0.075	-0.108
-395.136	290.263	0.215	0.389
-394.121	-12.855	-0.065	-0.042
-393.106	800.000	0.082	-0.281
-392.092	127.212	-0.077	0.098
-391.077	799.722	0.175	-0.483
-390.063	-200.000	-0.006	-0.115
-389.048	238.379	0.208	0.344
-388.033	-200.000	-0.001	0.167
-387.019	-200.000	0.009	0.331
-386.004	53.458	0.143	-0.136
-384.990	-133.706	-0.175	0.022
-383.975	143.229	-0.192	0.255
-382.960	-128.737	0.316	-0.044
-381.946	458.283	-0.124	-0.275
-380.931	1.514	-0.236	0.169
-379.917	17.041	-0.125	-0.099
-378.902	-71.432	-0.166	0.062
-377.888	-200.000	-0.075	-0.377
-376.873	-104.347	-0.080	-0.018
-375.858	600.629	-0.018	-0.045
-374.844	-32.334	-0.264	-0.147
-373.829	14.901	-0.035	-0.028
-372.815	353.490	0.080	0.159
-371.800	-124.413	0.126	0.020
-370.785	800.000	-0.043	0.186
-369.771	26.029	-0.148	-0.123
-368.756	558.073	0.108	0.260
-367.742	-200.000	0.015	0.320
-366.727	800.000	0.032	-0.091
-365.712	109.813	0.069	-0.082
-364.698	800.000	-0.020	0.079
-363.683	-200.000	0.051	-0.324
-362.669	-200.000	-0.331	0.001
-361.654	145.582	0.224	0.299
-360.639	28.269	0.021	0.017
-359.625	-99.341	0.079	-0.020
-358.610	12.094	-0.183	0.140
-357.596	211.716	0.154	-0.242
-356.581	101.846	-0.187	-0.218
-355.566	685.397	0.073	-0.190
-354.552	-49.962	0.115	0.054
-353.537	75.381	-0.104	0.109
-352.523	-9.143	-0.113	-0.076
-351.508	176.479	0.034	-0.049
-350.493	219.386	0.051	-0.081
-349.479	25.645	-0.333	0.276
-348.464	-83.455	0.164	-0.052
-347.450	23.018	-0.041	-0.033
-346.435	-73.294	0.410	0.149
-345.420	800.000	0.077	-0.297
-344.406	-42.750	-0.193	0.098
-343.391	-116.084	-0.232	-0.043
-342.377	238.562	-0.054	-0.089
-341.362	-77.072	0.114	-0.040
-340.348	453.968	-0.063	-0.140
-339.333	-25.373	-0.308	-0.182
-338.318	-30.132	-0.263	0.149
-337.304	-86.086	-0.094	-0.029
-336.289	-98.202	-0.181	-0.046
-335.275	-200.000	0.066	0.423
-334.260	-200.000	0.021	0.321
-333.245	484.669	-0.143	-0.324
-332.231	141.253	0.077	0.101
-331.216	-112.795	-0.344	-0.068
-330.202	134.575	-0.095	-0.123
-329.187	270.959	0.197	0.345
-328.172	215.200	-0.128	-0.202
-327.158	-67.801	-0.249	0.097
-326.143	418.793	0.203	0.431
-325.129	111.312	0.046	-0.055
-324.114	-197.942	0.111	-0.001
-323.099	-135.805	-0.220	0.026
-322.085	-76.368	-0.469	-0.164
-321.070	-200.000	-0.052	-0.292
-320.056	-200.000	0.020	-0.354
-319.041	-40.112	0.080	0.041
-318.026	-114.548	0.102	0.020
-317.012	-172.478	0.125	0.004
-315.997	-52.566	-0.140	0.065
-314.983	-200.000	0.021	0.121
-313.968	800.000	-0.050	0.162
-312.953	-123.303	0.128	0.020
-311.939	5.041	-0.044	0.032
-310.924	-200.000	-0.030	-0.209
-309.910	-113.943	-0.317	-0.061
-308.895	-200.000	0.025	0.333
-307.880	-200.000	0.022	-0.191
-306.866	53.846	-0.141	-0.134
-305.851	-105.911	-0.294	-0.066
-304.837	228.571	0.268	0.434
-303.822	26.091	-0.071	0.059
-302.807	800.000	0.058	-0.160
-301.793	210.482	0.082	0.128
-300.778	800.000	0.134	-0.417
-299.764	-200.000	-0.021	-0.243
-298.749	-200.000	0.003	-0.134
-297.735	800.000	-0.121	-0.478
-296.720	-200.000	-0.017	0.221
-295.705	426.152	0.042	0.091
-294.691	187.466	0.134	0.199
-293.676	800.000	-0.110	0.349
-292.662	-81.857	0.266	0.087
-291.647	-25.185	-0.054	0.032
-290.632	-2.379	0.295	0.206
-289.618	105.266	-0.270	0.317
-288.603	-95.111	-0.068	-0.018
-287.589	167.443	0.173	0.244
-286.574	-66.418	0.386	-0.152
-285.559	-83.775	-0.154	-0.049
-284.545	-56.814	-0.160	0.070
-283.530	-68.051	0.181	0.070
-282.516	-29.453	0.244	-0.138
-281.501	37.162	-0.416	-0.366
-280.486	-200.000	0.027	-0.178
-279.472	37.698	-0.032	-0.028
-278.457	-113.104	0.382	0.075
-277.443	-65.472	-0.431	-0.172
-276.428	-26.012	0.063	0.037
-275.413	-200.000	0.056	0.388
-274.399	249.996	-0.031	-0.052
-273.384	-84.695	-0.079	0.025
-272.370	-99.107	-0.477	-0.120
-271.355	-200.000	-0.005	-0.070
-270.340	58.847	0.184	-0.180
-269.326	-146.198	-0.201	-0.018
-268.311	-88.599	0.113	0.033
-267.297	-120.541	0.210	0.035
-266.282	-60.712	0.418	-0.176
-265.267	800.000	0.100	-0.311
-264.253	-131.364	0.214	0.028
-263.238	-83.154	0.156	-0.050
-262.224	-193.694	-0.396	0.003
-261.209	441.988	0.073	-0.159
-260.195	-200.000	0.010	-0.228
-259.180	-11.642	0.230	-0.150
-258.165	301.179	0.031	-0.057
-257.151	-43.383	-0.159	0.080
-256.136	35.612	-0.071	0.062
-255.122	800.000	0.099	0.285
-254.107	292.007	-0.135	0.244
-253.092	-87.269	0.157	0.047
-252.078	-54.978	0.284	0.127
-251.063	80.215	-0.211	0.225
-250.049	397.617	0.078	0.161
-249.034	-33.619	0.280	0.153
-248.019	800.000	-0.104	-0.336
-247.005	-65.205	0.266	-0.106
-245.990	-153.073	-0.367	-0.026
-244.976	-51.816	0.062	-0.028
-243.961	-200.000	0.013	0.168
-242.946	-89.191	0.253	0.074
-241.932	-200.000	0.034	-0.349
-240.917	-200.000	0.002	-0.094
-239.903	71.376	-0.196	-0.202
-238.888	-127.535	0.131	0.019
-237.873	16.518	0.214	0.168
-236.859	-200.000	-0.003	0.018
-235.844	-99.141	0.316	-0.079
-234.830	-162.769	0.167	0.008
-233.815	-51.682	0.266	0.123
-232.800	-200.000	-0.009	-0.157
-231.786	-79.553	-0.093	-0.031
-230.771	-200.000	0.042	0.221
-229.757	800.000	-0.039	0.116
-228.742	-31.804	-0.076	-0.042
-227.727	-200.000	0.004	-0.249
-226.713	79.581	-0.105	0.111
-225.698	427.707	0.060	0.127
-224.684	-58.177	0.229	0.099
-223.669	-200.000	0.005	0.512
-222.655	173.812	-0.195	0.279
-221.640	-200.000	0.002	0.217
-220.625	-75.266	0.008	0.003
-219.611	128.244	0.134	-0.169
-218.596	-200.000	-0.006	-0.246
-217.582	-96.498	0.197	-0.051
-216.567	-121.460	-0.159	-0.026
-215.552	-55.699	-0.034	-0.015
-214.538	66.130	-0.233	-0.234
-213.523	800.000	0.047	0.183
-212.509	800.000	0.062	0.189
-211.494	-20.148	0.214	0.131
-210.479	43.733	0.077	-0.069
-209.465	26.111	0.295	-0.244
-208.450	-8.549	0.129	0.086
-207.436	453.172	0.055	0.120
-206.421	-200.000	0.017	-0.191
-205.406	-113.758	0.273	0.053
-204.392	82.479	-0.150	0.161
-203.377	-6.689	0.242	0.163
-202.363	158.277	0.013	0.018
-201.348	168.043	0.113	-0.160
-200.333	-79.821	0.070	-0.023
-199.319	285.686	-0.226	-0.403
-198.304	426.052	0.017	0.037
-197.290	30.896	0.057	0.049
-196.275	-200.000	-0.096	0.434
-195.260	-94.206	0.326	0.088
-194.246	-128.778	0.168	-0.023
-193.231	-200.000	0.030	-0.195
-192.217	-34.728	-0.371	-0.201
-191.202	159.566	0.137	0.189
-190.187	161.833	0.196	0.271
-189.173	-133.048	-0.070	-0.009
-188.158	6.062	0.102	-0.075
-187.144	-38.047	-0.237	-0.124
-186.129	260.381	0.089	0.151
-185.114	-122.969	-0.056	0.009
-184.100	-110.748	-0.072	0.015
-183.085	800.000	-0.026	-0.095
-182.071	-83.492	-0.085	-0.027
-181.056	800.000	0.082	-0.304
-180.042	-102.357	-0.309	-0.073
-179.027	800.000	-0.108	0.343
-178.012	390.349	-0.056	0.114
-176.998	93.104	-0.205	-0.230
-175.983	116.752	0.187	0.226
-174.969	-62.959	-0.384	0.157
-173.954	800.000	-0.024	0.079
-172.939	800.000	0.062	-0.216
-171.925	-200.000	-0.007	0.031
-170.910	-104.576	-0.046	0.010
-169.896	701.646	0.094	-0.244
-168.881	5.856	-0.062	-0.045
-167.866	-63.380	-0.146	-0.060
-166.852	773.979	-0.156	0.420
-165.837	229.942	0.070	0.113
-164.823	-105.552	-0.301	-0.067
-163.808	-200.000	0.059	-0.261
-162.793	663.722	-0.095	-0.241
-161.779	21.056	0.239	-0.191
-160.764	-200.000	-0.229	0.000
-159.750	-200.000	0.001	0.077
-158.735	-200.000	-0.059	0.594
-157.720	-51.884	-0.279	0.128
-156.706	-69.062	0.132	0.050
-155.691	7.099	-0.254	-0.188
-154.677	-63.273	-0.325	0.132
-153.662	-176.188	0.324	0.008
-152.647	106.723	-0.132	0.155
-151.633	-1.235	0.148	-0.103
-150.618	800.000	0.087	0.320
-149.604	-81.154	0.150	-0.049
-148.589	-89.727	-0.202	0.059
-147.574	-19.045	-0.259	0.159
-146.560	-126.968	-0.440	0.064
-145.545	800.000	0.027	-0.094
-144.531	800.000	0.064	0.241
-143.516	140.296	-0.090	-0.117
-142.502	-200.000	-0.065	0.340
-141.487	8.199	0.365	0.271
-140.472	-43.387	-0.334	-0.167
-139.458	-46.830	0.356	0.172
-138.443	-12.912	-0.109	0.070
-137.429	107.288	0.183	-0.215
-136.414	800.000	0.020	-0.061
-135.399	-107.549	0.398	-0.086
-134.385	-200.000	0.060	-0.589
-133.370	-200.000	0.001	-0.287
-132.356	632.261	-0.052	-0.130
-131.341	490.422	0.118	0.266
-130.326	-83.176	0.284	-0.090
-129.312	7.307	0.111	0.082
-128.297	-200.000	0.056	-0.425
-127.283	418.303	0.075	-0.159
-126.268	-200.000	0.047	-0.404
-125.253	177.494	0.126	-0.182
-124.239	800.000	-0.029	-0.097
-123.224	-115.924	-0.267	0.049
-122.210	-173.857	-0.251	0.007
-121.195	304.899	0.057	0.105
