DTS Sentinel unit serial number:	SN413079Multiplexer serial number:	ORYXHardware model number:	OX4-SRSoftware version number:	ORYX F/W v4.00 Oryx Data Collector v3.7.2.0data status	okinstallation	princeton_trtdifferential loss correction	single-endedforward channel	channel 2reverse channel	N/Adate	2019/09/18time	13:31:35forward acquisition time	60.00reverse acquisition time	0.00gamma	496.2192k internal	0.2319k external	0.2319temperature offset calibration	0.9994default loss term (dB/km)	0.3790temperature slope calibration	1.0000multiplexer offset coefficient	1.0000multiplexer slope coefficient	1.0000fibre end	0.00T internal ref (°C)	34.25T ext. ref 1 (°C)	0.62T ext. ref 2 (°C)	31.05length (m)	temperature (°C)	Stokes	anti-Stokes-747.200	-151.242	-0.164	-0.012
-746.185	-101.703	-0.145	-0.036
-745.171	-198.712	0.277	0.002
-744.156	267.165	-0.153	0.270
-743.142	-108.059	-0.325	0.071
-742.127	-200.000	0.003	0.411
-741.112	-74.260	-0.177	-0.065
-740.098	-92.193	0.197	-0.056
-739.083	-81.311	-0.147	0.049
-738.069	167.575	-0.098	0.140
-737.054	514.858	0.122	0.287
-736.039	-121.245	-0.170	0.029
-735.025	-26.877	-0.148	0.087
-734.010	47.916	-0.261	-0.247
-732.996	-149.101	0.123	0.010
-731.981	800.000	0.076	-0.224
-730.966	-39.209	-0.305	0.162
-729.952	-200.000	0.030	-0.241
-728.937	626.230	-0.059	0.152
-727.923	-66.056	-0.026	0.011
-726.908	181.414	-0.237	-0.353
-725.894	-56.729	0.031	0.014
-724.879	-200.000	-0.024	0.251
-723.864	5.228	0.120	0.090
-722.850	-38.669	-0.221	-0.118
-721.835	-23.198	-0.066	-0.040
-720.821	-95.928	-0.144	-0.039
-719.806	0.063	-0.276	0.199
-718.791	-200.000	0.019	-0.414
-717.777	111.421	-0.226	-0.275
-716.762	-135.042	-0.132	0.016
-715.748	-88.993	0.325	0.097
-714.733	-200.000	-0.033	0.286
-713.718	-80.667	0.188	-0.063
-712.704	-144.889	-0.392	-0.036
-711.689	-21.570	-0.042	-0.026
-710.675	217.225	0.104	0.167
-709.660	-136.450	-0.164	-0.019
-708.645	-200.000	-0.014	-0.163
-707.631	800.000	0.032	-0.138
-706.616	-200.000	0.011	-0.201
-705.602	800.000	0.043	-0.122
-704.587	111.420	-0.271	0.330
-703.572	-126.403	-0.019	-0.003
-702.558	95.345	0.066	0.076
-701.543	-200.000	0.042	0.318
-700.529	-73.536	0.279	0.103
-699.514	800.000	-0.100	0.286
-698.499	-200.000	0.004	0.174
-697.485	387.639	-0.067	0.140
-696.470	330.735	0.008	0.016
-695.456	750.550	0.131	0.356
-694.441	-19.411	-0.146	0.091
-693.426	458.752	-0.081	-0.181
-692.412	488.715	0.081	-0.187
-691.397	148.801	0.119	-0.163
-690.383	490.884	-0.133	-0.307
-689.368	-20.851	-0.246	-0.152
-688.354	140.823	-0.035	-0.046
-687.339	15.256	0.043	-0.034
-686.324	100.463	-0.121	0.142
-685.310	-200.000	-0.043	-0.469
-684.295	-72.936	-0.122	-0.045
-683.281	800.000	-0.014	-0.047
-682.266	189.175	-0.148	0.224
-681.251	-99.760	-0.094	0.024
-680.237	679.238	-0.051	-0.133
-679.222	84.592	0.162	0.179
-678.208	-34.910	-0.216	0.119
-677.193	82.155	-0.224	-0.245
-676.178	-169.216	0.209	0.008
-675.164	23.408	-0.366	0.303
-674.149	-200.000	-0.002	-0.111
-673.135	29.623	0.198	-0.170
-672.120	-25.042	0.317	0.190
-671.105	-46.355	-0.297	0.147
-670.091	-200.000	-0.044	0.213
-669.076	-68.125	0.135	-0.053
-668.062	-98.827	0.146	0.037
-667.047	-17.627	-0.103	-0.065
-666.032	-100.330	-0.153	-0.038
-665.018	-200.000	-0.018	-0.500
-664.003	371.733	0.065	-0.134
-662.989	-200.000	-0.049	-0.458
-661.974	-200.000	-0.043	0.290
-660.959	-200.000	0.020	-0.125
-659.945	687.230	-0.077	0.202
-658.930	727.658	0.131	-0.353
-657.916	72.070	-0.185	-0.194
-656.901	34.304	0.123	-0.108
-655.886	-134.889	-0.059	0.007
-654.872	-200.000	0.034	-0.446
-653.857	-200.000	-0.000	0.006
-652.843	-200.000	0.023	0.217
-651.828	-2.993	0.277	0.195
-650.814	38.360	0.262	-0.235
-649.799	452.064	0.155	-0.346
-648.784	223.040	0.189	0.306
-647.770	-200.000	-0.003	-0.029
-646.755	-129.956	0.271	-0.037
-645.741	-200.000	-0.098	0.597
-644.726	26.690	-0.262	-0.221
-643.711	-200.000	0.015	-0.251
-642.697	-116.894	0.575	0.106
-641.682	122.292	-0.290	-0.365
-640.668	592.199	0.051	-0.126
-639.653	800.000	-0.028	-0.114
-638.638	800.000	0.025	-0.089
-637.624	800.000	-0.065	0.195
-636.609	-200.000	-0.028	-0.417
-635.595	-14.113	0.333	0.217
-634.580	181.470	0.028	0.042
-633.565	539.994	-0.136	0.326
-632.551	-196.346	-0.279	-0.002
-631.536	-73.503	0.182	0.067
-630.522	5.439	-0.023	0.017
-629.507	-24.276	0.204	0.123
-628.492	-53.636	0.241	0.111
-627.478	727.431	-0.080	-0.214
-626.463	-102.580	-0.264	0.064
-625.449	-200.000	0.015	0.121
-624.434	17.454	0.153	0.122
-623.419	-161.783	-0.204	0.010
-622.405	68.187	-0.124	-0.127
-621.390	238.826	-0.070	0.116
-620.376	-118.668	0.004	-0.001
-619.361	-200.000	-0.005	0.078
-618.346	-32.854	0.177	-0.099
-617.332	-63.879	-0.321	-0.132
-616.317	185.187	-0.201	0.301
-615.303	-200.000	0.029	-0.203
-614.288	130.984	0.099	0.128
-613.273	-200.000	0.038	-0.223
-612.259	-200.000	0.056	-0.413
-611.244	487.206	-0.143	-0.328
-610.230	377.967	-0.053	-0.110
-609.215	800.000	0.079	-0.281
-608.201	-111.735	-0.122	-0.025
-607.186	-80.242	-0.101	0.034
-606.171	153.515	0.122	0.168
-605.157	566.996	0.069	-0.169
-604.142	-67.925	-0.126	-0.050
-603.128	-160.432	0.298	-0.016
-602.113	-36.578	-0.038	0.020
-601.098	126.898	0.083	0.106
-600.084	619.171	0.048	-0.122
-599.069	110.801	0.178	-0.216
-598.055	232.439	-0.027	0.045
-597.040	10.904	0.091	-0.070
-596.025	800.000	-0.100	-0.305
-595.011	35.662	0.144	0.127
-593.996	134.724	0.166	0.216
-592.982	86.223	0.169	0.188
-591.967	2.909	0.065	0.048
-590.952	-200.000	0.006	0.365
-589.938	-52.977	-0.110	-0.051
-588.923	800.000	0.048	0.186
-587.909	-7.036	-0.166	-0.113
-586.894	267.832	-0.059	0.105
-585.879	66.750	-0.025	0.026
-584.865	-116.802	-0.253	-0.047
-583.850	-70.517	0.175	-0.066
-582.836	800.000	-0.091	-0.259
-581.821	-45.601	-0.124	0.062
-580.806	-200.000	0.005	-0.217
-579.792	-149.995	0.275	0.022
-578.777	20.232	-0.095	-0.078
-577.763	24.768	0.273	-0.228
-576.748	-200.000	-0.029	0.284
-575.733	166.575	-0.055	-0.079
-574.719	800.000	-0.096	0.308
-573.704	669.978	-0.009	0.022
-572.690	35.115	0.187	-0.165
-571.675	135.951	0.139	0.182
-570.661	-200.000	-0.017	-0.212
-569.646	-21.396	-0.254	-0.156
-568.631	-118.765	0.096	0.017
-567.617	42.121	0.024	0.022
-566.602	45.846	-0.158	0.147
-565.588	51.260	0.131	-0.125
-564.573	74.331	0.209	-0.220
-563.558	145.966	0.046	-0.062
-562.544	-96.260	0.347	-0.092
-561.529	133.311	0.173	-0.225
-560.515	-147.810	0.172	-0.014
-559.500	800.000	-0.092	-0.265
-558.485	40.493	0.194	0.176
-557.471	-200.000	0.004	-0.084
-556.456	-8.632	0.299	0.202
-555.442	800.000	0.092	0.307
-554.427	190.571	-0.038	-0.058
-553.412	-200.000	0.050	-0.492
-552.398	52.502	-0.260	-0.249
-551.383	-124.532	0.509	0.080
-550.369	-184.447	-0.403	-0.007
-549.354	65.934	0.122	0.124
-548.339	150.713	0.177	0.241
-547.325	-153.752	-0.185	-0.013
-546.310	-23.615	0.140	-0.084
-545.296	12.801	0.124	0.096
-544.281	-200.000	0.017	-0.110
-543.266	-117.755	0.219	-0.040
-542.252	154.376	0.183	0.253
-541.237	156.302	-0.193	0.267
-540.223	88.717	0.104	0.116
-539.208	461.029	0.168	0.375
-538.193	-0.169	0.104	0.074
-537.179	-200.000	-0.028	0.315
-536.164	39.926	-0.262	-0.236
-535.150	-40.283	0.201	-0.105
-534.135	800.000	0.092	0.265
-533.121	-73.994	0.230	0.084
-532.106	442.882	0.090	-0.197
-531.091	58.454	0.181	0.179
-530.077	-81.666	0.061	-0.020
-529.062	-112.526	-0.366	0.073
-528.048	657.319	-0.058	-0.149
-527.033	73.048	-0.070	-0.074
-526.018	160.626	0.020	-0.028
-525.004	136.415	0.120	-0.157
-523.989	-45.954	0.120	-0.059
-522.975	21.389	-0.050	-0.041
-521.960	76.329	-0.054	0.058
-520.945	14.139	-0.134	-0.104
-519.931	-60.185	0.119	-0.051
-518.916	166.900	0.082	-0.116
-517.902	-9.483	0.177	0.118
-516.887	-140.528	0.663	0.069
-515.872	-200.000	0.004	0.091
-514.858	800.000	-0.065	0.265
-513.843	193.949	-0.087	-0.132
-512.829	268.882	0.116	0.203
-511.814	-139.970	-0.277	-0.029
-510.799	96.373	-0.055	0.064
-509.785	-175.480	0.024	-0.001
-508.770	168.350	-0.149	-0.212
-507.756	-19.772	-0.099	0.061
-506.741	168.598	-0.085	-0.122
-505.726	800.000	0.037	0.151
-504.712	69.259	-0.133	-0.138
-503.697	-88.852	-0.060	-0.018
-502.683	720.133	-0.060	0.159
-501.668	-23.204	0.165	-0.100
-500.653	-118.666	0.153	-0.027
-499.639	-154.482	-0.083	0.006
-498.624	-87.839	-0.361	0.109
-497.610	73.668	-0.065	-0.068
-496.595	-72.991	-0.297	0.109
-495.581	277.316	-0.117	-0.208
-494.566	-200.000	-0.011	0.243
-493.551	-165.945	-0.337	0.014
-492.537	-57.889	0.339	0.148
-491.522	-21.437	0.538	0.329
-490.508	-200.000	0.051	-0.239
-489.493	-90.996	0.097	0.028
-488.478	417.169	-0.216	0.461
-487.464	74.402	-0.081	-0.085
-486.449	-46.077	-0.400	0.197
-485.435	19.984	0.337	0.272
-484.420	-198.346	0.179	-0.001
-483.405	528.009	0.108	-0.256
-482.391	28.085	-0.307	-0.260
-481.376	18.929	-0.237	0.191
-480.362	-169.678	0.201	0.007
-479.347	43.330	0.215	0.197
-478.332	38.575	0.097	0.087
-477.318	291.139	0.142	0.258
-476.303	-177.511	-0.182	-0.004
-475.289	-76.800	0.114	0.040
-474.274	-74.005	0.083	0.030
-473.259	151.827	0.083	0.113
-472.245	-75.087	0.317	-0.113
-471.230	84.175	0.185	-0.202
-470.216	800.000	-0.158	0.544
-469.201	-187.075	-0.296	-0.004
-468.186	-75.518	0.150	0.053
-467.172	-200.000	0.000	0.096
-466.157	-120.024	0.046	0.008
-465.143	-159.614	0.154	-0.009
-464.128	-135.331	-0.226	0.027
-463.113	-10.455	-0.168	-0.111
-462.099	-18.262	0.258	0.161
-461.084	800.000	-0.069	0.210
-460.070	16.726	0.111	0.088
-459.055	469.985	0.146	-0.329
-458.040	-200.000	0.005	0.327
-457.026	-200.000	0.031	-0.291
-456.011	-95.873	-0.093	0.025
-454.997	-45.785	0.135	-0.067
-453.982	41.041	0.436	-0.394
-452.968	-200.000	-0.019	0.117
-451.953	-141.937	-0.478	0.048
-450.938	452.372	-0.037	-0.082
-449.924	-200.000	0.021	-0.269
-448.909	-200.000	-0.036	0.331
-447.895	117.218	0.067	0.083
-446.880	20.902	-0.217	-0.176
-445.865	-200.000	0.013	-0.132
-444.851	800.000	-0.163	-0.458
-443.836	-101.026	-0.186	0.046
-442.822	-84.755	-0.668	-0.210
-441.807	-200.000	0.051	0.284
-440.792	644.391	0.006	-0.016
-439.778	-136.416	0.098	-0.011
-438.763	112.262	0.156	0.189
-437.749	-113.817	0.201	-0.039
-436.734	-200.000	0.070	-0.322
-435.719	130.680	0.112	0.144
-434.705	625.269	-0.048	0.120
-433.690	-200.000	-0.010	-0.072
-432.676	-94.417	-0.113	0.031
-431.661	-27.053	-0.395	0.230
-430.646	190.728	-0.144	0.216
-429.632	-175.744	0.072	-0.002
-428.617	800.000	-0.045	-0.156
-427.603	-59.799	-0.347	-0.149
-426.588	29.268	-0.408	0.346
-425.573	-200.000	-0.014	-0.071
-424.559	-127.451	-0.320	-0.047
-423.544	-65.173	-0.157	-0.063
-422.530	-200.000	0.031	0.389
-421.515	-111.008	-0.239	-0.049
-420.500	-91.187	0.087	-0.025
-419.486	-200.000	-0.041	-0.258
-418.471	-132.227	-0.248	-0.032
-417.457	-99.686	0.286	-0.072
-416.442	800.000	0.074	0.277
-415.428	-58.400	0.285	-0.124
-414.413	88.823	-0.089	-0.099
-413.398	-7.547	-0.076	-0.051
-412.384	353.765	0.053	0.105
-411.369	-35.260	-0.249	-0.135
-410.355	121.638	0.147	-0.183
-409.340	-15.725	-0.372	-0.237
-408.325	42.110	-0.156	0.141
-407.311	-147.161	-0.312	0.027
-406.296	-200.000	0.064	-0.438
-405.282	-154.439	-0.399	-0.027
-404.267	45.862	0.395	-0.365
-403.252	51.974	-0.269	0.255
-402.238	227.118	0.193	0.313
-401.223	526.804	0.094	-0.221
-400.209	-119.329	-0.396	-0.069
-399.194	-18.944	0.236	0.147
-398.179	-66.389	0.258	0.102
-397.165	-200.000	0.072	0.319
-396.150	-60.882	-0.171	-0.072
-395.136	-125.966	0.073	0.011
-394.121	494.340	-0.048	0.110
-393.106	105.831	0.094	0.112
-392.092	-200.000	0.063	-0.303
-391.077	-42.569	-0.142	-0.072
-390.063	775.990	-0.076	-0.206
-389.048	-49.176	0.045	0.021
-388.033	-17.175	-0.156	-0.098
-387.019	-70.266	-0.005	0.002
-386.004	-114.361	-0.305	-0.059
-384.990	720.692	-0.108	0.287
-383.975	-200.000	0.031	0.198
-382.960	-152.364	0.091	-0.007
-381.946	578.259	0.060	0.147
-380.931	-110.379	-0.321	-0.066
-379.917	371.332	-0.150	-0.304
-378.902	-18.768	-0.233	-0.145
-377.888	-200.000	-0.029	0.352
-376.873	45.740	-0.127	-0.117
-375.858	-74.370	0.371	-0.133
-374.844	-147.201	-0.339	-0.029
-373.829	-2.237	-0.158	-0.111
-372.815	609.842	-0.034	0.084
-371.800	46.243	0.066	-0.061
-370.785	89.132	0.169	-0.188
-369.771	-40.497	0.133	-0.069
-368.756	597.514	-0.079	0.195
-367.742	-68.684	0.122	-0.047
-366.727	26.018	-0.189	-0.157
-365.712	542.148	0.076	-0.180
-364.698	-200.000	-0.010	-0.105
-363.683	-200.000	-0.053	0.245
-362.669	-98.341	0.294	-0.075
-361.654	-167.957	0.340	0.013
-360.639	800.000	0.084	-0.333
-359.625	109.813	0.057	0.068
-358.610	-169.017	0.450	-0.017
-357.596	-97.878	0.183	-0.047
-356.581	52.824	0.145	-0.138
-355.566	-35.062	0.072	0.039
-354.552	559.094	0.116	0.278
-353.537	-56.481	-0.316	0.140
-352.523	-113.498	-0.223	0.043
-351.508	-133.801	0.089	-0.011
-350.493	800.000	-0.053	-0.157
-349.479	-91.094	-0.336	-0.096
-348.464	800.000	0.095	0.410
-347.450	97.371	-0.091	0.104
-346.435	800.000	-0.052	-0.150
-345.420	-200.000	-0.010	-0.081
-344.406	413.576	0.139	0.294
-343.391	227.280	-0.208	0.337
-342.377	-66.159	0.178	-0.071
-341.362	-56.957	0.089	-0.039
-340.348	-55.427	-0.109	0.049
-339.333	-198.347	-0.089	-0.001
-338.318	42.476	0.154	0.140
-337.304	-153.755	-0.112	-0.008
-336.289	-9.533	-0.064	-0.043
-335.275	800.000	-0.062	-0.192
-334.260	-132.261	0.085	-0.011
-333.245	252.785	-0.096	0.163
-332.231	-200.000	-0.052	0.316
-331.216	-57.543	0.207	-0.090
-330.202	45.377	0.153	-0.141
-329.187	338.856	-0.112	-0.216
-328.172	28.518	0.350	-0.295
-327.158	-200.000	0.023	0.203
-326.143	-200.000	0.063	-0.293
-325.129	800.000	0.042	0.157
-324.114	-181.723	-0.310	0.006
-323.099	169.851	-0.102	0.145
-322.085	800.000	0.128	0.397
-321.070	65.426	0.237	0.239
-320.056	188.594	-0.125	0.186
-319.041	163.711	-0.048	-0.067
-318.026	101.537	0.081	-0.094
-317.012	-127.137	0.236	-0.034
-315.997	-114.387	-0.299	-0.057
-314.983	-200.000	-0.008	-0.272
-313.968	800.000	0.038	-0.136
-312.953	240.569	-0.180	-0.299
-311.939	800.000	0.067	-0.264
-310.924	-200.000	0.027	-0.216
-309.910	-122.154	-0.116	-0.019
-308.895	-200.000	-0.054	0.354
-307.880	-200.000	-0.003	-0.086
-306.866	-200.000	-0.018	0.367
-305.851	-43.901	-0.459	-0.230
-304.837	-28.180	-0.245	-0.141
-303.822	-75.683	0.043	0.015
-302.807	-19.510	0.178	0.109
-301.793	52.145	-0.119	0.113
-300.778	-5.543	-0.084	0.057
-299.764	800.000	0.022	-0.079
-298.749	53.827	0.138	-0.132
-297.735	-62.800	0.157	0.065
-296.720	-69.427	-0.071	0.027
-295.705	-200.000	0.006	-0.244
-294.691	-200.000	0.023	-0.232
-293.676	405.242	0.161	-0.337
-292.662	197.169	0.104	0.158
-291.647	72.749	-0.249	0.258
-290.632	-169.982	-0.445	0.016
-289.618	-135.427	-0.205	-0.024
-288.603	-106.229	0.127	-0.028
-287.589	322.818	0.218	0.413
-286.574	-124.706	0.128	0.020
-285.559	-200.000	-0.095	-0.500
-284.545	-200.000	-0.257	-0.001
-283.530	-141.095	-0.177	0.018
-282.516	-200.000	-0.018	0.218
-281.501	-153.324	-0.347	-0.024
-280.486	-13.536	-0.303	-0.195
-279.472	800.000	0.078	0.230
-278.457	-34.483	0.202	-0.110
-277.443	-200.000	0.008	0.196
-276.428	-123.919	0.048	-0.007
-275.413	-200.000	-0.007	-0.158
-274.399	30.871	-0.094	0.080
-273.384	285.453	0.104	-0.186
-272.370	83.265	-0.161	-0.175
-271.355	-32.769	0.102	-0.056
-270.340	-171.704	0.375	0.012
-269.326	-9.651	-0.366	-0.243
-268.311	25.044	0.189	0.156
-267.297	-119.528	-0.203	-0.035
-266.282	-177.549	0.217	-0.005
-265.267	-79.542	-0.345	0.116
-264.253	59.599	-0.080	0.078
-263.238	-156.846	-0.041	0.003
-262.224	325.686	0.093	0.177
-261.209	-61.980	-0.228	-0.094
-260.195	542.626	-0.084	0.200
-259.180	-106.509	0.161	0.036
-258.165	267.685	0.141	-0.245
-257.151	42.793	-0.078	0.070
-256.136	-77.234	-0.134	0.046
-255.122	-46.254	0.208	-0.102
-254.107	-200.000	-0.008	0.347
-253.092	-54.227	-0.112	0.050
-252.078	83.715	0.061	0.067
-251.063	800.000	0.155	0.441
-250.049	-14.151	0.175	0.112
-249.034	-141.594	-0.208	-0.021
-248.019	-200.000	-0.038	-0.240
-247.005	800.000	0.064	-0.264
-245.990	-200.000	-0.043	-0.581
-244.976	-94.297	0.056	-0.015
-243.961	103.215	-0.142	-0.165
-242.946	-200.000	-0.046	-0.272
-241.932	-88.606	0.137	-0.040
-240.917	353.998	0.100	-0.197
-239.903	35.511	-0.084	0.073
-238.888	-200.000	0.007	0.265
-237.873	130.505	-0.016	-0.021
-236.859	-95.578	0.167	0.045
-235.844	101.584	-0.098	0.113
-234.830	-200.000	-0.036	0.199
-233.815	735.630	-0.132	-0.352
-232.800	-200.000	-0.066	-0.471
-231.786	-26.625	0.392	-0.228
-230.771	-200.000	-0.019	-0.095
-229.757	568.205	-0.083	0.199
-228.742	475.624	0.094	0.211
-227.727	-200.000	0.014	0.126
-226.713	187.119	-0.184	0.272
-225.698	51.789	0.196	0.185
-224.684	-200.000	0.024	0.316
-223.669	-14.405	-0.163	0.104
-222.655	129.746	0.131	-0.166
-221.640	131.151	0.152	-0.194
-220.625	-97.136	-0.224	0.058
-219.611	-47.222	-0.369	0.178
-218.596	19.814	0.230	0.183
-217.582	7.073	0.113	-0.084
-216.567	53.564	0.190	-0.181
-215.552	111.325	0.150	0.179
-214.538	-200.000	-0.071	-0.340
-213.523	800.000	-0.047	0.150
-212.509	-108.842	0.148	0.031
-211.494	1.239	-0.302	-0.215
-210.479	-173.597	-0.259	-0.008
-209.465	-71.645	-0.268	0.099
-208.450	-110.863	-0.251	0.051
-207.436	572.966	0.184	0.445
-206.421	-68.118	0.241	-0.093
-205.406	-200.000	-0.003	-0.128
-204.392	15.707	0.252	0.196
-203.377	-29.692	-0.224	-0.126
-202.363	320.940	-0.166	0.312
-201.348	-200.000	0.038	0.196
-200.333	-42.559	-0.096	-0.048
-199.319	800.000	-0.076	-0.292
-198.304	19.458	0.091	-0.072
-197.290	326.744	0.125	0.237
-196.275	-200.000	0.006	0.418
-195.260	-16.095	-0.220	-0.138
-194.246	1.988	0.328	0.234
-193.231	-97.362	0.223	-0.058
-192.217	-200.000	0.005	-0.170
-191.202	-6.735	-0.221	0.149
-190.187	413.517	-0.187	-0.394
-189.173	800.000	-0.072	0.222
-188.158	-110.192	0.390	-0.081
-187.144	90.307	0.155	0.172
-186.129	124.578	-0.138	0.172
-185.114	205.593	0.056	-0.086
-184.100	-14.298	-0.305	0.194
-183.085	-8.789	0.089	-0.059
-182.071	-64.935	-0.224	-0.089
-181.056	-80.361	-0.093	0.031
-180.042	-22.021	-0.102	0.061
-179.027	-200.000	0.001	-0.279
-178.012	-93.644	0.534	-0.146
-176.998	-112.466	-0.266	0.053
-175.983	-200.000	-0.012	-0.081
-174.969	800.000	-0.113	-0.373
-173.954	126.847	-0.084	0.105
-172.939	265.872	0.158	-0.273
-171.925	-200.000	0.039	0.261
-170.910	77.884	-0.231	0.243
-169.896	800.000	0.039	-0.135
-168.881	183.930	0.108	-0.159
-167.866	-151.739	-0.249	0.018
-166.852	-200.000	-0.022	-0.241
-165.837	-14.283	-0.157	0.100
-164.823	-90.572	-0.073	0.021
-163.808	-90.924	0.281	0.080
-162.793	-39.735	0.376	0.195
-161.779	800.000	0.084	-0.305
-160.764	28.193	0.193	0.161
-159.750	646.275	0.081	-0.204
-158.735	29.091	0.099	0.083
-157.720	278.104	-0.071	-0.125
-156.706	-200.000	0.016	0.110
-155.691	-200.000	0.022	0.270
-154.677	618.370	0.085	0.211
-153.662	-99.410	0.112	0.028
-152.647	-200.000	-0.015	-0.140
-151.633	-128.407	0.376	-0.053
-150.618	-200.000	0.016	-0.097
-149.604	159.697	0.153	0.211
-148.589	-68.292	-0.048	0.019
-147.574	800.000	-0.071	0.221
-146.560	-82.526	0.108	0.035
-145.545	-64.047	0.280	-0.113
-144.531	87.031	0.167	0.182
-143.516	79.037	-0.231	0.245
-142.502	-112.493	0.164	-0.032
-141.487	6.830	0.230	-0.169
-140.472	800.000	0.031	0.113
-139.458	-87.740	-0.338	0.101
-138.443	173.730	0.111	0.159
-137.429	-200.000	-0.008	0.159
-136.414	503.425	-0.045	0.104
-135.399	-71.808	-0.081	0.030
-134.385	1.177	-0.083	0.059
-133.370	289.420	-0.031	-0.055
-132.356	123.187	-0.121	0.150
-131.341	-82.418	0.248	-0.080
-130.326	-200.000	-0.060	-0.340
-129.312	800.000	0.058	-0.181
-128.297	122.521	0.180	-0.222
-127.283	15.156	-0.152	-0.118
-126.268	-9.254	0.167	-0.110
-125.253	-143.060	0.148	0.014
-124.239	-200.000	0.003	0.013
-123.224	800.000	0.060	0.221
-122.210	-200.000	0.045	-0.252
