DTS Sentinel unit serial number:	SN413079Multiplexer serial number:	ORYXHardware model number:	OX4-SRSoftware version number:	ORYX F/W v4.00 Oryx Data Collector v3.7.2.0data status	okinstallation	princeton_trtdifferential loss correction	single-endedforward channel	channel 2reverse channel	N/Adate	2019/09/18time	06:35:34forward acquisition time	60.00reverse acquisition time	0.00gamma	496.2192k internal	0.2348k external	0.2348temperature offset calibration	0.9986default loss term (dB/km)	0.3790temperature slope calibration	1.0000multiplexer offset coefficient	1.0000multiplexer slope coefficient	1.0000fibre end	0.00T internal ref (°C)	23.27T ext. ref 1 (°C)	0.19T ext. ref 2 (°C)	17.20length (m)	temperature (°C)	Stokes	anti-Stokes-747.200	35.141	-0.199	0.174
-746.185	65.969	-0.208	0.211
-745.171	-18.366	-0.112	-0.070
-744.156	-200.000	0.007	0.255
-743.142	800.000	0.036	0.142
-742.127	123.634	-0.277	0.347
-741.112	-200.000	0.048	-0.217
-740.098	-200.000	0.031	0.271
-739.083	81.484	0.101	-0.110
-738.069	-145.067	-0.166	-0.015
-737.054	-200.000	0.045	-0.209
-736.039	800.000	-0.080	0.316
-735.025	-173.364	0.299	0.009
-734.010	341.930	0.061	0.120
-732.996	800.000	-0.063	-0.188
-731.981	67.595	-0.105	-0.107
-730.966	-200.000	0.022	0.346
-729.952	-11.285	-0.215	-0.141
-728.937	506.443	-0.068	-0.157
-727.923	-63.546	-0.318	-0.130
-726.908	121.523	-0.146	0.182
-725.894	-74.279	-0.231	-0.083
-724.879	-32.376	-0.136	0.076
-723.864	-91.405	0.377	0.108
-722.850	-200.000	0.037	-0.264
-721.835	750.816	-0.052	-0.140
-720.821	-116.306	-0.390	0.072
-719.806	100.815	0.378	0.438
-718.791	579.253	0.078	0.190
-717.777	-117.434	-0.247	-0.045
-716.762	192.263	-0.016	-0.023
-715.748	-200.000	-0.054	-0.281
-714.733	-6.082	0.101	-0.069
-713.718	-66.437	0.070	-0.028
-712.704	-40.325	0.307	0.159
-711.689	-37.925	0.139	-0.074
-710.675	-120.486	0.171	-0.029
-709.660	204.728	0.157	-0.244
-708.645	-195.056	0.134	-0.001
-707.631	-80.108	0.264	0.088
-706.616	-52.444	-0.276	0.128
-705.602	188.909	0.188	-0.281
-704.587	196.424	0.102	-0.155
-703.572	411.190	0.147	-0.312
-702.558	-148.617	0.250	-0.020
-701.543	18.979	0.162	0.130
-700.529	56.139	0.328	0.317
-699.514	497.804	-0.093	0.214
-698.499	-23.836	0.040	-0.024
-697.485	-200.000	0.090	-0.395
-696.470	157.648	0.213	0.294
-695.456	-111.932	-0.339	-0.068
-694.441	-200.000	0.005	-0.199
-693.426	-200.000	0.025	0.186
-692.412	70.093	0.183	0.188
-691.397	-74.969	-0.154	0.055
-690.383	180.805	0.340	-0.498
-689.368	195.687	0.109	-0.165
-688.354	-120.199	-0.316	0.054
-687.339	-200.000	-0.020	0.277
-686.324	-118.555	0.157	-0.028
-685.310	-138.401	-0.099	-0.011
-684.295	-200.000	-0.016	-0.129
-683.281	-200.000	-0.007	-0.118
-682.266	-33.543	-0.323	-0.178
-681.251	-8.819	-0.269	-0.179
-680.237	-200.000	0.035	0.241
-679.222	-125.340	0.280	-0.043
-678.208	-88.717	-0.371	0.110
-677.193	-73.068	-0.140	0.051
-676.178	-47.625	-0.077	-0.037
-675.164	800.000	0.107	-0.302
-674.149	-40.958	-0.196	-0.101
-673.135	-42.466	-0.166	-0.084
-672.120	13.207	0.139	-0.107
-671.105	-110.398	0.227	0.047
-670.091	-11.581	-0.302	-0.198
-669.076	-45.438	0.156	-0.077
-668.062	157.587	-0.102	-0.140
-667.047	744.619	0.134	-0.360
-666.032	105.356	-0.241	-0.284
-665.018	27.900	-0.141	0.118
-664.003	224.017	-0.126	-0.203
-662.989	92.805	0.288	0.324
-661.974	264.480	-0.029	0.050
-660.959	-9.407	-0.111	0.074
-659.945	-166.830	0.361	-0.015
-658.930	5.539	-0.097	0.071
-657.916	-171.691	-0.068	0.002
-656.901	-19.686	-0.149	-0.092
-655.886	-91.437	-0.140	-0.040
-654.872	-116.546	-0.149	-0.027
-653.857	-10.530	-0.211	0.139
-652.843	-200.000	0.007	-0.270
-651.828	-59.538	-0.093	-0.040
-650.814	-53.984	0.100	-0.045
-649.799	138.361	-0.208	0.271
-648.784	-39.748	-0.291	-0.152
-647.770	800.000	-0.030	-0.113
-646.755	-129.787	-0.524	-0.072
-645.741	222.387	0.038	0.062
-644.726	43.923	0.156	0.143
-643.711	-81.112	-0.169	0.056
-642.697	23.647	-0.059	0.049
-641.682	132.539	-0.057	0.073
-640.668	-200.000	-0.021	-0.158
-639.653	29.104	0.063	-0.053
-638.638	632.094	0.024	0.061
-637.624	-43.326	0.190	0.096
-636.609	40.382	0.273	-0.245
-635.595	127.700	0.204	-0.258
-634.580	101.300	0.065	-0.075
-633.565	308.542	0.076	0.141
-632.551	161.487	-0.165	0.230
-631.536	-200.000	0.052	0.268
-630.522	64.419	-0.129	0.129
-629.507	305.588	-0.089	-0.165
-628.492	1.919	-0.265	0.190
-627.478	-46.843	-0.087	-0.043
-626.463	-132.456	0.109	0.014
-625.449	-200.000	-0.018	-0.173
-624.434	-6.942	-0.234	-0.158
-623.419	36.482	0.114	-0.100
-622.405	-137.270	0.257	-0.029
-621.390	800.000	-0.193	-0.590
-620.376	175.549	0.116	0.167
-619.361	-75.544	-0.301	0.106
-618.346	-155.923	0.297	-0.019
-617.332	15.762	-0.080	-0.063
-616.317	-100.601	0.183	0.045
-615.303	383.160	-0.106	-0.217
-614.288	42.585	0.326	-0.295
-613.273	570.125	0.090	0.217
-612.259	-146.675	0.373	-0.032
-611.244	2.929	-0.258	0.186
-610.230	80.531	-0.074	-0.079
-609.215	-149.760	-0.137	0.011
-608.201	36.187	0.023	0.020
-607.186	-133.550	-0.293	0.036
-606.171	-9.928	0.068	0.045
-605.157	-9.835	0.255	-0.169
-604.142	370.071	-0.146	-0.294
-603.128	-99.975	-0.368	-0.091
-602.113	-200.000	0.038	-0.304
-601.098	93.042	0.174	0.195
-600.084	800.000	0.101	0.286
-599.069	-124.698	-0.215	-0.033
-598.055	-20.768	-0.181	0.110
-597.040	776.364	0.092	0.249
-596.025	-135.264	0.096	0.011
-595.011	354.088	-0.053	0.104
-593.996	45.098	-0.124	-0.113
-592.982	-200.000	0.038	-0.440
-591.967	240.469	-0.165	-0.273
-590.952	3.628	0.027	0.020
-589.938	-200.000	0.007	-0.531
-588.923	-200.000	0.030	-0.260
-587.909	45.959	-0.183	0.168
-586.894	-63.912	0.099	-0.040
-585.879	88.332	-0.187	-0.206
-584.865	-200.000	-0.014	-0.140
-583.850	679.845	-0.055	-0.142
-582.836	17.225	-0.246	-0.194
-581.821	-176.048	0.207	-0.005
-580.806	261.048	0.099	0.170
-579.792	-200.000	0.016	0.714
-578.777	800.000	-0.035	-0.126
-577.763	-200.000	-0.030	0.252
-576.748	-141.923	-0.117	-0.012
-575.733	57.692	-0.210	-0.204
-574.719	-200.000	-0.013	-0.139
-573.704	2.439	0.207	-0.149
-572.690	41.461	0.147	-0.132
-571.675	800.000	0.132	-0.402
-570.661	-200.000	0.022	0.400
-569.646	-200.000	-0.015	-0.128
-568.631	-88.177	0.117	-0.035
-567.617	-200.000	-0.019	0.165
-566.602	238.172	-0.108	-0.178
-565.588	800.000	0.019	-0.080
-564.573	4.865	0.155	0.113
-563.558	800.000	-0.058	-0.189
-562.544	800.000	0.046	0.132
-561.529	262.367	0.191	0.329
-560.515	-200.000	-0.008	0.281
-559.500	75.105	-0.242	-0.253
-558.485	800.000	0.071	-0.268
-557.471	-116.042	-0.245	0.045
-556.456	108.331	0.112	0.133
-555.442	423.939	-0.043	0.091
-554.427	517.612	-0.148	-0.343
-553.412	217.283	0.130	-0.205
-552.398	17.425	0.170	-0.134
-551.383	175.980	0.170	0.245
-550.369	-17.828	-0.232	-0.144
-549.354	-22.634	0.073	0.043
-548.339	-200.000	0.007	0.193
-547.325	-73.781	-0.159	-0.057
-546.310	-128.040	-0.389	0.055
-545.296	61.072	-0.179	0.177
-544.281	-115.171	-0.132	0.025
-543.266	85.196	-0.095	0.103
-542.252	-66.540	-0.267	-0.105
-541.237	394.026	-0.095	0.196
-540.223	271.808	0.141	0.247
-539.208	6.428	-0.098	-0.072
-538.193	500.421	-0.112	0.256
-537.179	-85.199	0.175	0.054
-536.164	-11.266	-0.225	-0.147
-535.150	800.000	0.058	-0.186
-534.135	-102.051	0.371	-0.089
-533.121	-93.824	-0.271	0.074
-532.106	225.453	-0.099	0.159
-531.091	273.753	-0.123	-0.215
-530.077	-101.973	-0.543	-0.130
-529.062	-91.012	0.504	0.144
-528.048	-66.289	-0.356	-0.140
-527.033	-200.000	-0.028	-0.135
-526.018	-200.000	0.021	0.302
-525.004	-73.285	0.205	-0.074
-523.989	-200.000	0.009	-0.047
-522.975	-117.740	-0.317	0.057
-521.960	-15.743	-0.188	0.119
-520.945	-200.000	0.063	0.292
-519.931	-32.775	0.103	0.057
-518.916	-66.495	0.223	-0.088
-517.902	-27.273	-0.036	-0.021
-516.887	-80.849	-0.236	-0.078
-515.872	46.141	0.181	-0.166
-514.858	-200.000	0.006	-0.037
-513.843	339.903	0.108	0.208
-512.829	800.000	-0.110	0.331
-511.814	-2.513	-0.262	0.182
-510.799	101.743	-0.165	0.190
-509.785	800.000	-0.075	0.210
-508.770	-200.000	-0.048	0.287
-507.756	-83.168	0.301	-0.096
-506.741	800.000	0.045	-0.161
-505.726	226.961	0.206	-0.331
-504.712	309.869	0.123	0.228
-503.697	800.000	-0.043	-0.144
-502.683	-5.301	0.352	-0.239
-501.668	-42.976	-0.066	-0.033
-500.653	-44.171	-0.146	0.073
-499.639	733.457	0.029	0.076
-498.624	800.000	0.023	0.096
-497.610	-1.159	-0.250	0.175
-496.595	-8.920	-0.246	-0.163
-495.581	34.262	0.116	-0.100
-494.566	133.636	0.083	0.106
-493.551	-200.000	0.013	-0.198
-492.537	625.725	-0.089	0.221
-491.522	87.577	-0.073	-0.080
-490.508	107.351	0.120	-0.142
-489.493	800.000	-0.031	0.113
-488.478	97.544	0.233	-0.265
-487.464	-91.207	0.419	-0.119
-486.449	-20.708	-0.336	-0.204
-485.435	-62.386	0.252	0.104
-484.420	-110.616	-0.155	0.032
-483.405	366.145	-0.116	-0.231
-482.391	760.208	0.113	-0.303
-481.376	169.492	0.067	-0.095
-480.362	25.661	-0.100	0.082
-479.347	115.584	0.274	0.331
-478.332	41.928	0.158	0.142
-477.318	-100.351	0.267	-0.066
-476.303	-200.000	-0.010	-0.383
-475.289	-200.000	0.028	-0.317
-474.274	131.183	0.115	-0.146
-473.259	-114.374	0.099	0.019
-472.245	800.000	-0.050	0.186
-471.230	367.479	-0.145	-0.289
-470.216	-32.262	-0.169	-0.094
-469.201	-3.776	-0.118	-0.081
-468.186	-2.639	0.066	-0.045
-467.172	-200.000	-0.018	-0.079
-466.157	-191.586	0.281	-0.003
-465.143	-155.567	0.292	0.019
-464.128	-189.549	-0.380	0.004
-463.113	103.492	0.354	0.411
-462.099	86.337	0.420	-0.457
-461.084	171.579	0.044	-0.063
-460.070	123.382	0.098	-0.122
-459.055	-109.849	0.139	-0.029
-458.040	-200.000	0.020	-0.158
-457.026	73.348	-0.300	-0.310
-456.011	-138.013	-0.259	0.029
-454.997	800.000	0.099	-0.272
-453.982	23.395	0.350	-0.284
-452.968	491.219	-0.116	0.261
-451.953	-195.391	0.067	0.000
-450.938	800.000	0.016	-0.061
-449.924	102.534	-0.023	-0.027
-448.909	-15.121	-0.137	-0.087
-447.895	210.882	-0.074	0.115
-446.880	-155.043	-0.064	0.004
-445.865	72.884	-0.089	0.092
-444.851	-121.421	-0.038	-0.006
-443.836	-120.011	-0.014	-0.002
-442.822	-23.816	-0.373	-0.221
-441.807	556.917	0.092	0.220
-440.792	116.956	-0.073	-0.088
-439.778	-41.508	0.268	0.136
-438.763	-106.370	-0.351	-0.078
-437.749	-200.000	0.012	0.081
-436.734	-113.233	-0.266	-0.052
-435.719	74.287	0.056	0.058
-434.705	-63.734	0.042	0.017
-433.690	800.000	-0.092	0.384
-432.676	271.021	-0.096	0.166
-431.661	-200.000	0.012	0.471
-430.646	51.403	0.142	0.133
-429.632	-20.564	0.313	-0.189
-428.617	-162.771	0.455	0.022
-427.603	607.582	-0.123	0.302
-426.588	330.944	0.081	0.155
-425.573	800.000	-0.129	-0.411
-424.559	-27.024	0.346	-0.199
-423.544	-77.728	-0.185	-0.063
-422.530	800.000	-0.129	0.441
-421.515	244.390	0.067	-0.111
-420.500	107.909	0.027	-0.032
-419.486	48.551	-0.096	-0.088
-418.471	442.403	0.119	0.258
-417.457	-86.116	-0.201	0.061
-416.442	-44.253	-0.122	-0.060
-415.428	-124.621	0.198	0.030
-414.413	-200.000	0.020	0.359
-413.398	29.932	-0.083	0.070
-412.384	-67.236	0.362	-0.141
-411.369	273.104	0.123	0.215
-410.355	-170.553	0.134	-0.005
-409.340	-200.000	0.010	0.173
-408.325	790.734	-0.101	-0.272
-407.311	50.432	-0.057	-0.053
-406.296	58.040	0.155	0.150
-405.282	-143.029	-0.262	0.025
-404.267	124.702	-0.152	0.188
-403.252	250.146	-0.075	-0.126
-402.238	-31.778	0.219	-0.121
-401.223	29.237	0.177	-0.148
-400.209	-7.206	-0.364	0.243
-399.194	49.517	0.224	0.208
-398.179	-112.411	-0.409	-0.081
-397.165	-76.830	0.244	-0.084
-396.150	647.825	0.094	0.237
-395.136	-161.786	-0.267	0.013
-394.121	5.473	0.225	-0.164
-393.106	-89.581	-0.130	-0.037
-392.092	-61.244	-0.189	-0.078
-391.077	-14.929	-0.086	0.054
-390.063	331.495	-0.090	0.171
-389.048	608.057	0.033	0.081
-388.033	94.424	-0.125	-0.139
-387.019	169.813	-0.207	-0.291
-386.004	-56.291	0.235	0.103
-384.990	-95.503	0.251	-0.066
-383.975	566.286	-0.014	0.034
-382.960	-62.586	0.165	-0.068
-381.946	-21.142	0.284	0.171
-380.931	67.838	-0.122	0.123
-379.917	-200.000	0.020	-0.093
-378.902	229.872	-0.058	-0.094
-377.888	-76.238	-0.305	0.106
-376.873	-1.830	-0.032	-0.022
-375.858	42.210	0.220	-0.196
-374.844	65.869	0.065	-0.065
-373.829	-125.571	0.270	0.040
-372.815	-200.000	-0.034	0.154
-371.800	800.000	-0.022	-0.066
-370.785	-17.284	0.310	0.192
-369.771	-187.336	0.414	0.006
-368.756	483.375	-0.086	-0.191
-367.742	-200.000	0.018	0.201
-366.727	112.158	0.161	-0.192
-365.712	-200.000	0.063	-0.370
-364.698	800.000	0.042	-0.129
-363.683	143.175	0.083	0.109
-362.669	425.650	-0.060	-0.127
-361.654	-200.000	0.059	0.370
-360.639	118.168	-0.090	0.109
-359.625	13.812	0.212	0.162
-358.610	-200.000	0.010	0.206
-357.596	49.657	-0.223	0.206
-356.581	-23.500	-0.209	-0.123
-355.566	-133.327	-0.231	-0.029
-354.552	442.530	0.155	0.335
-353.537	-24.435	-0.203	0.119
-352.523	-57.930	0.053	0.023
-351.508	214.196	0.053	0.082
-350.493	-86.504	0.084	0.025
-349.479	-200.000	0.010	-0.201
-348.464	-21.990	0.074	-0.044
-347.450	61.822	0.022	0.022
-346.435	-77.590	0.103	0.035
-345.420	-200.000	0.035	-0.336
-344.406	-200.000	-0.027	0.218
-343.391	-134.551	-0.332	0.040
-342.377	-162.502	0.266	0.013
-341.362	-34.017	0.071	0.038
-340.348	-200.000	0.034	0.214
-339.333	-7.834	0.016	0.011
-338.318	-166.638	0.068	-0.003
-337.304	-158.067	0.126	0.007
-336.289	194.043	0.172	0.256
-335.275	389.335	-0.215	0.437
-334.260	-14.536	0.042	0.026
-333.245	107.485	-0.246	0.288
-332.231	-200.000	0.010	-0.208
-331.216	-135.685	-0.289	-0.034
-330.202	-10.933	0.199	-0.129
-329.187	28.771	-0.088	-0.073
-328.172	240.357	0.115	0.188
-327.158	443.851	-0.095	-0.206
-326.143	-128.731	-0.170	-0.024
-325.129	10.227	0.262	-0.196
-324.114	-200.000	-0.019	-0.109
-323.099	51.841	-0.153	-0.144
-322.085	418.307	0.045	0.094
-321.070	27.765	0.213	0.177
-320.056	-36.925	0.177	0.093
-319.041	-3.289	-0.156	0.107
-318.026	-200.000	0.017	-0.163
-317.012	68.832	0.084	0.085
-315.997	315.715	-0.040	0.075
-314.983	-200.000	-0.037	0.456
-313.968	-62.431	-0.036	-0.015
-312.953	45.101	-0.377	-0.341
-311.939	-66.487	-0.097	-0.038
-310.924	-53.616	-0.416	-0.187
-309.910	120.978	0.138	-0.168
-308.895	288.846	0.051	0.090
-307.880	5.331	-0.201	0.146
-306.866	56.417	0.240	-0.229
-305.851	-153.670	0.080	-0.005
-304.837	-101.703	0.039	-0.009
-303.822	-92.958	-0.390	0.107
-302.807	429.489	-0.126	0.267
-301.793	-93.407	-0.113	-0.031
-300.778	-6.550	0.092	0.062
-299.764	188.653	-0.087	-0.127
-298.749	13.198	0.064	0.049
-297.735	-200.000	0.022	0.225
-296.720	200.479	0.251	-0.379
-295.705	124.038	-0.090	-0.111
-294.691	-135.783	0.295	-0.034
-293.676	-52.007	0.073	-0.033
-292.662	19.139	0.109	-0.086
-291.647	-59.701	-0.310	0.130
-290.632	-200.000	-0.021	0.298
-289.618	268.976	-0.098	0.169
-288.603	256.485	-0.161	-0.271
-287.589	-39.670	-0.343	-0.176
-286.574	-200.000	0.018	0.640
-285.559	789.229	-0.058	-0.157
-284.545	-64.299	-0.135	0.054
-283.530	-6.198	-0.203	0.136
-282.516	187.672	0.144	-0.210
-281.501	638.976	0.053	0.131
-280.486	-116.029	0.298	-0.054
-279.472	-200.000	-0.044	-0.398
-278.457	800.000	-0.055	0.189
-277.443	37.148	0.193	-0.167
-276.428	-200.000	0.004	-0.403
-275.413	-200.000	-0.018	-0.223
-274.399	-200.000	-0.013	-0.106
-273.384	40.111	-0.103	-0.090
-272.370	-54.942	-0.090	-0.040
-271.355	-77.836	-0.299	0.101
-270.340	-102.537	0.292	0.069
-269.326	-119.748	-0.340	0.058
-268.311	34.257	0.099	0.085
-267.297	41.448	-0.208	0.185
-266.282	-200.000	0.032	0.207
-265.267	14.500	0.232	-0.178
-264.253	21.674	-0.144	0.115
-263.238	-100.885	0.132	0.032
-262.224	-136.015	-0.413	0.048
-261.209	74.397	0.147	0.151
-260.195	582.565	0.069	0.166
-259.180	148.565	0.139	0.184
-258.165	264.062	-0.091	0.155
-257.151	88.276	-0.217	-0.236
-256.136	93.964	0.328	-0.365
-255.122	-200.000	0.024	-0.143
-254.107	129.672	-0.199	-0.250
-253.092	9.678	0.138	-0.102
-252.078	-0.654	0.145	-0.101
-251.063	800.000	0.098	0.358
-250.049	152.779	-0.066	0.089
-249.034	-12.585	0.229	-0.147
-248.019	595.455	0.069	0.168
-247.005	-77.706	-0.225	-0.076
-245.990	-143.610	0.158	0.015
-244.976	-137.753	0.173	0.019
-243.961	-200.000	0.042	-0.225
-242.946	-200.000	-0.001	0.419
-241.932	-200.000	-0.016	0.114
-240.917	-32.227	0.214	0.117
-239.903	238.205	0.046	0.074
-238.888	-89.921	-0.427	0.122
-237.873	19.378	0.156	-0.123
-236.859	-108.172	0.161	-0.034
-235.844	150.975	-0.060	-0.080
-234.830	21.915	0.059	-0.047
-233.815	-62.061	0.404	-0.165
-232.800	-58.099	-0.318	-0.136
-231.786	800.000	-0.020	-0.066
-230.771	224.052	-0.224	-0.354
-229.757	52.308	-0.020	-0.019
-228.742	123.714	0.232	-0.285
-227.727	30.386	0.132	-0.110
-226.713	-117.602	-0.282	0.050
-225.698	259.771	0.128	0.216
-224.684	116.314	0.229	0.275
-223.669	800.000	0.115	-0.434
-222.655	530.232	-0.088	-0.204
-221.640	-44.325	-0.275	0.135
-220.625	-74.157	0.249	-0.088
-219.611	-179.529	-0.188	0.004
-218.596	-76.221	0.175	-0.060
-217.582	208.274	-0.086	0.132
-216.567	535.879	0.018	0.041
-215.552	493.775	0.109	-0.245
-214.538	-200.000	-0.008	0.069
-213.523	263.728	0.166	-0.282
-212.509	25.682	-0.182	0.148
-211.494	800.000	0.016	-0.062
-210.479	260.428	0.030	0.050
-209.465	-200.000	-0.013	0.173
-208.450	-24.234	-0.071	-0.041
-207.436	30.734	-0.086	-0.072
-206.421	-14.112	-0.123	-0.077
-205.406	-13.150	0.179	-0.114
-204.392	206.561	-0.111	0.169
-203.377	348.566	0.032	0.061
-202.363	-79.324	-0.228	0.075
-201.348	45.215	0.067	-0.060
-200.333	133.781	0.028	0.036
-199.319	461.679	-0.050	0.110
-198.304	-81.281	-0.146	-0.047
-197.290	-130.175	-0.142	-0.019
-196.275	-160.647	0.123	0.006
-195.260	462.651	0.010	-0.022
-194.246	440.961	0.114	0.244
-193.231	-200.000	0.034	-0.151
-192.217	-121.721	0.250	-0.040
-191.202	-139.361	-0.482	0.051
-190.187	187.686	0.134	0.196
-189.173	-85.895	-0.216	-0.065
-188.158	800.000	-0.018	-0.065
-187.144	195.054	0.052	0.077
-186.129	-89.551	-0.385	0.111
-185.114	16.374	-0.117	0.090
-184.100	-40.651	0.278	0.141
-183.085	-81.422	0.361	0.116
-182.071	-200.000	-0.006	0.108
-181.056	-134.325	0.186	-0.022
-180.042	-200.000	0.053	-0.229
-179.027	173.023	0.252	0.354
-178.012	-200.000	-0.072	0.456
-176.998	755.866	0.043	-0.114
-175.983	119.952	0.149	0.181
-174.969	-106.486	0.310	-0.068
-173.954	-46.185	0.034	0.016
-172.939	-45.987	0.131	-0.063
-171.925	-200.000	0.040	-0.297
-170.910	-47.320	-0.291	-0.138
-169.896	-94.922	-0.094	0.025
-168.881	-114.044	-0.292	0.055
-167.866	46.946	-0.075	0.068
-166.852	136.621	-0.210	0.268
-165.837	786.867	0.063	-0.169
-164.823	55.790	0.270	0.256
-163.808	-200.000	0.003	0.095
-162.793	-200.000	-0.009	0.155
-161.779	179.471	0.251	0.359
-160.764	-66.747	0.147	0.057
-159.750	-200.000	-0.019	-0.113
-158.735	-65.606	0.173	0.068
-157.720	-200.000	0.007	-0.125
-156.706	-200.000	-0.046	-0.366
-155.691	739.949	-0.017	-0.044
-154.677	216.022	0.143	0.222
-153.662	-37.036	0.446	-0.233
-152.647	800.000	0.022	0.087
-151.633	-62.118	-0.176	0.072
-150.618	80.952	0.108	-0.114
-149.604	86.914	0.113	-0.122
-148.589	-6.927	0.264	0.175
-147.574	-19.332	-0.165	0.100
-146.560	-72.276	-0.162	-0.059
-145.545	-26.281	-0.265	-0.152
-144.531	-161.573	-0.142	0.007
-143.516	800.000	-0.102	0.411
-142.502	-142.307	-0.273	0.026
-141.487	-35.336	0.187	0.099
-140.472	-141.613	0.377	0.037
-139.458	-118.724	0.087	0.015
-138.443	-26.892	-0.065	0.037
-137.429	230.716	-0.095	0.152
-136.414	-67.513	-0.284	0.109
-135.399	-3.072	0.308	0.210
-134.385	-144.351	-0.448	0.041
-133.370	122.424	-0.048	-0.059
-132.356	321.528	-0.222	-0.412
-131.341	-200.000	-0.018	0.107
-130.326	-34.241	-0.396	0.212
-129.312	-113.450	0.294	0.056
-128.297	404.406	0.041	0.083
-127.283	-200.000	0.030	0.290
-126.268	800.000	0.059	0.205
-125.253	800.000	-0.071	0.233
-124.239	-57.151	0.169	0.073
-123.224	-35.367	-0.224	0.119
-122.210	-200.000	-0.017	-0.170
-121.195	-63.831	-0.082	0.033
-120.180	110.490	-0.121	-0.142
