DTS Sentinel unit serial number:	SN413079Multiplexer serial number:	ORYXHardware model number:	OX4-SRSoftware version number:	ORYX F/W v4.00 Oryx Data Collector v3.7.2.0data status	okinstallation	princeton_trtdifferential loss correction	single-endedforward channel	channel 2reverse channel	N/Adate	2019/09/12time	19:51:49forward acquisition time	15.00reverse acquisition time	0.00gamma	496.2192k internal	0.2326k external	0.2326temperature offset calibration	1.0165default loss term (dB/km)	0.3790temperature slope calibration	1.0000multiplexer offset coefficient	1.0000multiplexer slope coefficient	1.0000fibre end	0.00T internal ref (°C)	31.87T ext. ref 1 (°C)	3.48T ext. ref 2 (°C)	26.57length (m)	temperature (°C)	Stokes	anti-Stokes-747.200	703.937	0.154	0.408
-746.185	-75.172	-0.665	-0.240
-745.171	-102.328	-0.181	-0.044
-744.156	-130.751	0.622	0.084
-743.142	359.640	0.143	-0.289
-742.127	685.071	0.169	-0.446
-741.112	-200.000	0.060	-1.122
-740.098	-127.726	0.661	0.096
-739.083	144.609	-0.367	-0.494
-738.069	-90.157	-0.248	0.073
-737.054	-24.695	-0.463	0.278
-736.039	35.637	-0.492	-0.436
-735.025	-78.202	0.852	-0.295
-734.010	-200.000	0.025	0.309
-732.996	164.950	0.363	0.516
-731.981	427.791	0.301	0.654
-730.966	-200.000	0.144	0.682
-729.952	233.107	-0.472	-0.782
-728.937	-200.000	0.012	-0.734
-727.923	75.674	0.532	-0.567
-726.908	106.885	0.254	0.304
-725.894	-97.724	-0.536	-0.140
-724.879	89.120	-0.703	0.789
-723.864	-136.455	-0.302	0.035
-722.850	5.418	-0.429	0.319
-721.835	40.853	-0.552	0.502
-720.821	159.575	0.381	0.534
-719.806	-200.000	0.106	-0.566
-718.791	60.578	0.597	-0.596
-717.777	-200.000	-0.015	-0.447
-716.762	111.265	0.575	0.698
-715.748	58.865	-0.665	0.659
-714.733	-200.000	0.015	0.340
-713.718	266.504	-0.246	-0.433
-712.704	-61.934	0.397	-0.167
-711.689	-200.000	0.042	0.192
-710.675	364.152	0.045	0.092
-709.660	-138.848	0.891	0.098
-708.645	94.767	-0.172	-0.197
-707.631	1.945	-0.257	-0.186
-706.616	101.105	-0.076	0.089
-705.602	66.196	0.148	0.151
-704.587	306.327	0.287	-0.537
-703.572	-177.701	0.257	0.006
-702.558	-2.922	0.594	0.418
-701.543	788.978	-0.265	-0.732
-700.529	-200.000	0.019	-0.743
-699.514	44.458	0.296	-0.274
-698.499	-73.671	-0.452	-0.166
-697.485	800.000	-0.196	-0.858
-696.470	800.000	-0.170	0.488
-695.456	-114.498	0.467	-0.090
-694.441	246.795	0.368	0.625
-693.426	-86.015	0.811	-0.252
-692.412	419.207	-0.163	-0.351
-691.397	-105.582	-0.606	0.138
-690.383	39.115	0.060	-0.054
-689.368	800.000	0.074	-0.272
-688.354	240.729	-0.332	-0.557
-687.339	578.140	-0.196	-0.483
-686.324	112.697	0.136	-0.166
-685.310	-200.000	-0.084	0.446
-684.295	85.413	0.097	0.108
-683.281	-139.006	0.329	-0.036
-682.266	-22.950	-0.190	0.115
-681.251	-115.159	-0.282	0.054
-680.237	-200.000	0.094	-0.594
-679.222	228.203	-0.330	-0.540
-678.208	471.273	-0.112	-0.254
-677.193	190.246	0.186	-0.281
-676.178	-103.483	-0.508	0.120
-675.164	200.553	-0.343	-0.531
-674.149	-200.000	-0.073	0.694
-673.135	-100.940	-0.613	0.151
-672.120	-131.286	-0.427	0.057
-671.105	36.214	0.240	0.212
-670.091	800.000	-0.309	0.917
-669.076	688.953	-0.253	-0.666
-668.062	20.831	0.291	0.237
-667.047	800.000	0.091	0.326
-666.032	800.000	0.132	0.405
-665.018	-118.450	-0.436	0.078
-664.003	42.751	-0.674	-0.618
-662.989	751.111	0.293	-0.794
-661.974	6.367	0.760	-0.567
-660.959	-160.731	0.170	0.009
-659.945	381.539	-0.097	0.200
-658.930	-6.774	0.036	-0.025
-657.916	482.042	-0.088	-0.201
-656.901	-200.000	0.100	0.569
-655.886	141.766	-0.198	-0.264
-654.872	127.396	-0.495	0.632
-653.857	-200.000	0.017	0.317
-652.843	204.073	0.496	0.772
-651.828	-171.727	-0.267	0.009
-650.814	-82.125	0.647	-0.212
-649.799	-200.000	-0.087	0.409
-648.784	-200.000	0.053	0.458
-647.770	-11.611	0.393	-0.260
-646.755	800.000	-0.146	0.535
-645.741	251.093	-0.293	0.500
-644.726	579.761	0.136	0.335
-643.711	800.000	0.093	-0.280
-642.697	232.402	0.166	0.274
-641.682	170.679	0.129	-0.185
-640.668	-96.331	-0.477	-0.127
-639.653	108.139	0.215	0.257
-638.638	178.767	0.177	-0.260
-637.624	174.359	0.255	0.371
-636.609	27.867	0.408	-0.345
-635.595	-38.997	0.473	-0.250
-634.580	-163.939	-0.819	-0.038
-633.565	-94.407	-0.915	0.251
-632.551	-200.000	-0.000	-0.758
-631.536	201.652	-0.150	0.232
-630.522	2.609	-0.416	0.302
-629.507	-14.144	-0.764	-0.495
-628.492	-79.230	-0.613	0.209
-627.478	-200.000	0.052	-0.329
-626.463	8.853	-0.332	-0.252
-625.449	64.605	0.701	0.710
-624.434	-112.916	0.669	0.133
-623.419	38.134	-0.327	0.292
-622.405	-117.725	0.317	0.057
-621.390	-80.813	-0.663	-0.221
-620.376	-151.078	0.356	0.027
-619.361	-200.000	0.011	0.265
-618.346	-200.000	0.091	0.460
-617.332	-17.223	-0.524	0.332
-616.317	-145.054	-1.229	0.112
-615.303	121.458	-0.386	0.482
-614.288	17.557	0.216	0.172
-613.273	315.839	-0.306	0.579
-612.259	-94.649	-0.253	0.069
-611.244	-105.673	-0.448	0.102
-610.230	96.282	0.267	0.306
-609.215	44.324	0.490	-0.451
-608.201	-200.000	-0.108	0.657
-607.186	86.366	0.323	-0.357
-606.171	588.740	-0.388	-0.960
-605.157	-35.870	0.095	-0.052
-604.142	-172.229	0.984	-0.032
-603.128	624.149	0.187	-0.474
-602.113	-200.000	0.014	-0.197
-601.098	72.622	0.315	0.329
-600.084	335.275	-0.058	0.113
-599.069	308.181	0.290	-0.543
-598.055	125.664	-0.043	-0.054
-597.040	800.000	0.108	-0.401
-596.025	-200.000	0.050	0.718
-595.011	-113.401	0.438	-0.086
-593.996	116.040	0.428	-0.525
-592.982	659.235	-0.202	-0.520
-591.967	43.885	-0.300	0.275
-590.952	-200.000	-0.009	0.290
-589.938	-64.896	-0.426	-0.173
-588.923	-45.085	0.843	0.420
-587.909	761.509	0.180	0.490
-586.894	800.000	0.058	-0.248
-585.879	-119.228	1.035	0.181
-584.865	-127.041	-0.668	-0.098
-583.850	-39.164	0.696	-0.367
-582.836	800.000	-0.245	-0.702
-581.821	77.184	-0.496	0.529
-580.806	-6.522	0.041	0.028
-579.792	105.896	-0.539	0.639
-578.777	-105.065	-0.971	0.223
-577.763	184.192	-0.230	0.342
-576.748	-200.000	0.002	-0.158
-575.733	-200.000	0.063	0.540
-574.719	-200.000	0.018	0.100
-573.704	-200.000	0.021	-0.458
-572.690	32.712	0.802	0.695
-571.675	184.759	-0.067	-0.099
-570.661	-112.224	0.166	0.033
-569.646	-59.634	-0.493	0.212
-568.631	18.529	0.113	-0.091
-567.617	800.000	-0.222	-0.649
-566.602	-91.018	0.139	-0.040
-565.588	-132.716	-0.853	0.109
-564.573	157.233	-0.168	0.233
-563.558	-50.432	0.447	0.211
-562.544	158.818	-0.506	0.704
-561.529	4.487	-0.772	-0.567
-560.515	-123.658	0.194	0.031
-559.500	15.752	-0.617	0.486
-558.485	53.408	-0.582	0.558
-557.471	-25.868	0.610	0.360
-556.456	200.374	-0.153	0.235
-555.442	83.459	-0.200	-0.218
-554.427	617.603	-0.411	-1.033
-553.412	365.649	0.111	0.224
-552.398	-106.876	0.578	0.128
-551.383	51.317	-0.223	-0.212
-550.369	800.000	0.184	0.520
-549.354	-1.198	0.771	0.546
-548.339	-200.000	-0.032	0.627
-547.325	-91.552	0.652	0.186
-546.310	24.159	-0.143	-0.118
-545.296	465.706	-0.244	-0.548
-544.281	-50.557	-0.348	0.164
-543.266	-200.000	-0.137	-0.683
-542.252	27.219	0.294	0.247
-541.237	-192.418	0.079	-0.001
-540.223	-35.602	-0.392	-0.213
-539.208	-21.050	0.234	-0.144
-538.193	-49.537	-0.417	-0.199
-537.179	-91.377	-0.759	0.217
-536.164	-200.000	-0.059	0.319
-535.150	-37.218	-0.175	0.094
-534.135	-200.000	0.132	0.844
-533.121	-103.130	0.469	0.111
-532.106	417.340	-0.215	-0.460
-531.091	-112.807	0.245	0.049
-530.077	540.331	0.179	0.426
-529.062	-89.816	0.705	0.206
-528.048	-57.398	-0.238	0.104
-527.033	305.994	-0.205	-0.382
-526.018	-153.591	-0.471	0.032
-525.004	-170.566	-0.952	0.033
-523.989	-200.000	0.028	-0.314
-522.975	-126.891	-0.652	0.096
-521.960	46.061	-0.382	0.354
-520.945	-105.683	-0.384	0.087
-519.931	-70.639	0.302	-0.114
-518.916	-72.697	0.750	0.277
-517.902	64.886	-0.491	0.495
-516.887	-48.810	-0.426	0.204
-515.872	-165.941	0.611	0.026
-514.858	800.000	0.210	0.637
-513.843	-87.573	0.682	0.206
-512.829	-143.868	-0.325	-0.031
-511.814	-13.631	-0.872	0.564
-510.799	210.373	0.467	0.733
-509.785	-23.779	0.179	0.107
-508.770	-199.476	-0.612	-0.003
-507.756	129.426	-0.421	0.537
-506.741	-200.000	0.072	-0.829
-505.726	800.000	-0.317	-1.032
-504.712	1.045	0.345	-0.247
-503.697	-74.802	-0.732	-0.262
-502.683	459.422	0.249	0.553
-501.668	472.159	0.097	0.217
-500.653	-163.682	-0.574	-0.027
-499.639	223.043	-0.193	-0.310
-498.624	-140.303	-0.240	0.025
-497.610	-176.092	-0.330	0.009
-496.595	41.125	0.562	0.507
-495.581	800.000	-0.114	0.416
-494.566	800.000	-0.095	0.344
-493.551	-200.000	0.079	-0.561
-492.537	681.860	0.129	-0.336
-491.522	48.585	0.397	0.372
-490.508	800.000	0.157	0.628
-489.493	255.754	0.147	0.252
-488.478	314.230	-0.202	0.380
-487.464	63.805	0.430	-0.432
-486.449	176.824	-0.145	0.210
-485.435	130.664	0.348	-0.446
-484.420	-113.640	0.261	-0.051
-483.405	287.773	-0.111	0.201
-482.391	-60.389	-0.535	-0.227
-481.376	800.000	-0.064	0.270
-480.362	423.609	0.062	0.133
-479.347	-82.316	0.077	-0.025
-478.332	-200.000	0.173	-1.376
-477.318	-200.000	-0.035	-0.425
-476.303	664.598	-0.271	0.698
-475.289	60.196	-0.217	0.214
-474.274	248.159	-0.351	0.593
-473.259	-200.000	0.302	1.354
-472.245	-49.260	-0.661	-0.315
-471.230	430.803	-0.111	-0.240
-470.216	238.563	-0.697	-1.156
-469.201	-200.000	0.005	-0.202
-468.186	51.210	0.308	0.291
-467.172	210.162	-0.575	0.900
-466.157	-200.000	0.073	0.341
-465.143	43.886	-0.467	-0.427
-464.128	-130.142	0.559	0.076
-463.113	167.025	0.211	-0.299
-462.099	-12.699	0.660	-0.429
-461.084	-16.410	-0.502	-0.317
-460.070	91.410	0.779	-0.873
-459.055	-15.833	0.143	-0.091
-458.040	25.876	0.376	-0.312
-457.026	-133.869	0.361	-0.045
-456.011	-163.941	-0.851	0.040
-454.997	800.000	0.100	0.325
-453.982	800.000	0.083	-0.361
-452.968	-125.557	0.699	0.106
-451.953	206.515	0.346	-0.536
-450.938	454.803	0.348	-0.769
-449.924	3.884	-0.257	0.187
-448.909	-200.000	-0.090	-0.498
-447.895	255.542	-0.375	0.640
-446.880	800.000	0.206	-0.688
-445.865	63.449	-0.022	0.022
-444.851	-136.755	-0.334	-0.038
-443.836	96.431	0.650	-0.741
-442.822	106.547	-0.507	0.600
-441.807	-200.000	0.019	-0.264
-440.792	496.168	-0.337	-0.771
-439.778	-139.514	0.543	-0.058
-438.763	41.321	0.377	-0.340
-437.749	-65.400	0.390	-0.156
-436.734	89.744	0.178	0.198
-435.719	-200.000	0.052	0.277
-434.705	4.780	-0.923	0.676
-433.690	23.461	-0.273	-0.223
-432.676	800.000	0.302	0.846
-431.661	132.475	0.289	-0.371
-430.646	-139.698	-0.255	-0.027
-429.632	-96.860	-0.473	-0.124
-428.617	-25.331	-0.578	0.341
-427.603	16.148	0.353	0.278
-426.588	-200.000	-0.201	-1.135
-425.573	-39.932	-0.392	-0.204
-424.559	250.982	0.149	0.252
-423.544	-56.666	0.101	0.044
-422.530	29.131	-0.558	0.471
-421.515	-121.291	-0.312	0.052
-420.500	73.878	0.200	0.209
-419.486	-200.000	-0.002	0.016
-418.471	-94.032	0.906	0.248
-417.457	-200.000	0.046	0.467
-416.442	-200.000	0.039	-0.447
-415.428	35.325	-0.639	-0.558
-414.413	257.864	-0.363	-0.622
-413.398	-21.887	0.361	-0.219
-412.384	209.794	0.324	0.506
-411.369	769.571	0.108	0.293
-410.355	800.000	0.069	-0.292
-409.340	-200.000	0.017	1.167
-408.325	-200.000	-0.048	-0.215
-407.311	127.517	0.303	-0.383
-406.296	800.000	0.132	-0.373
-405.282	-52.122	0.501	0.231
-404.267	800.000	-0.103	0.353
-403.252	774.382	0.068	-0.184
-402.238	126.251	-0.307	-0.386
-401.223	6.128	-0.449	-0.331
-400.209	800.000	0.224	-0.726
-399.194	-1.733	1.039	-0.728
-398.179	-84.494	0.398	0.125
-397.165	800.000	-0.124	0.465
-396.150	-78.733	0.499	-0.169
-395.136	-56.418	0.204	0.090
-394.121	-200.000	-0.078	-0.451
-393.106	91.655	-0.075	0.084
-392.092	-50.611	-0.288	-0.135
-391.077	-200.000	-0.087	0.598
-390.063	573.286	-0.446	1.081
-389.048	70.316	-0.511	0.525
-388.033	39.085	0.052	0.047
-387.019	5.425	-0.167	-0.123
-386.004	-10.419	-0.261	0.172
-384.990	293.797	-0.249	0.451
-383.975	800.000	0.240	-0.668
-382.960	-129.300	0.327	-0.045
-381.946	6.263	0.094	-0.070
-380.931	226.477	0.308	-0.497
-379.917	-119.553	-0.268	0.046
-378.902	-200.000	-0.168	0.966
-377.888	547.803	0.188	0.447
-376.873	78.471	0.909	-0.965
-375.858	-200.000	-0.002	0.087
-374.844	-114.053	-0.230	-0.044
-373.829	254.505	0.277	0.471
-372.815	66.606	-0.145	-0.147
-371.800	-200.000	-0.014	0.698
-370.785	311.698	-0.154	-0.287
-369.771	-94.411	0.591	0.160
-368.756	800.000	0.039	0.112
-367.742	-111.849	0.196	0.039
-366.727	17.290	0.518	0.409
-365.712	-73.824	0.541	-0.195
-364.698	-140.298	0.481	0.050
-363.683	-200.000	-0.061	-0.556
-362.669	38.428	0.358	0.317
-361.654	32.742	-0.472	0.406
-360.639	379.287	-0.236	0.480
-359.625	-78.636	0.354	-0.120
-358.610	5.416	-0.550	0.403
-357.596	416.217	0.143	0.304
-356.581	-119.257	0.198	-0.034
-355.566	-73.175	0.537	-0.196
-354.552	-4.646	-0.610	-0.418
-353.537	-200.000	0.041	-0.186
-352.523	183.218	0.141	0.206
-351.508	-200.000	-0.024	0.870
-350.493	100.170	0.650	0.748
-349.479	-200.000	-0.024	-0.197
-348.464	121.244	0.230	0.284
-347.450	-93.393	0.196	0.054
-346.435	1.035	0.224	0.159
-345.420	334.612	-0.619	1.191
-344.406	-1.422	0.968	-0.678
-343.391	27.743	0.556	-0.465
-342.377	800.000	-0.204	0.700
-341.362	77.555	-0.451	0.477
-340.348	11.421	-0.553	0.421
-339.333	800.000	-0.271	0.989
-338.318	150.536	-0.294	0.396
-337.304	711.827	-0.104	-0.272
-336.289	800.000	-0.280	-1.160
-335.275	800.000	0.187	0.653
-334.260	-11.281	-0.467	-0.305
-333.245	37.753	-0.358	0.315
-332.231	-69.277	0.741	-0.283
-331.216	-157.149	-0.666	0.040
-330.202	-200.000	-0.135	-0.870
-329.187	-200.000	0.015	-0.446
-328.172	-78.548	-0.251	0.085
-327.158	542.511	0.109	0.258
-326.143	-147.152	-0.493	-0.042
-325.129	24.568	0.275	0.226
-324.114	275.998	0.159	0.280
-323.099	-124.286	-0.603	0.094
-322.085	800.000	0.144	-0.508
-321.070	-200.000	0.060	0.381
-320.056	32.853	0.392	-0.337
-319.041	-88.749	-0.219	-0.065
-318.026	-197.854	0.385	-0.002
-317.012	800.000	0.088	-0.273
-315.997	-88.567	1.229	-0.363
-314.983	-200.000	-0.081	-0.888
-313.968	591.902	-0.222	0.544
-312.953	-200.000	0.017	0.779
-311.939	69.358	-0.076	0.078
-310.924	-57.292	0.406	-0.177
-309.910	-24.797	0.790	-0.465
-308.895	-200.000	-0.047	0.466
-307.880	-2.431	0.347	0.241
-306.866	-141.861	0.349	0.035
-305.851	-20.123	0.203	-0.124
-304.837	-200.000	-0.040	-0.248
-303.822	146.881	-0.399	0.531
-302.807	-200.000	0.113	0.566
-301.793	-200.000	0.169	-0.765
-300.778	176.573	-0.173	0.250
-299.764	138.098	-0.137	-0.178
-298.749	-156.126	-0.150	0.009
-297.735	-21.770	0.490	-0.295
-296.720	800.000	0.163	-0.498
-295.705	-111.719	-0.041	0.008
-294.691	5.475	-0.329	-0.241
-293.676	43.350	-0.899	-0.814
-292.662	106.325	0.399	0.468
-291.647	-99.597	-0.689	-0.171
-290.632	11.986	0.740	-0.564
-289.618	440.083	-0.161	-0.349
-288.603	-200.000	0.267	-1.594
-287.589	-30.319	0.499	0.280
-286.574	141.511	-0.045	-0.059
-285.559	-52.974	-0.914	0.416
-284.545	-200.000	0.005	0.090
-283.530	-89.119	0.408	0.119
-282.516	80.143	-0.529	-0.564
-281.501	124.624	0.212	-0.264
-280.486	163.688	0.283	-0.394
-279.472	496.561	-0.152	-0.347
-278.457	-28.756	0.573	-0.327
-277.443	42.617	-0.121	-0.110
-276.428	800.000	-0.170	-0.517
-275.413	434.612	0.320	-0.690
-274.399	109.553	0.392	-0.465
-273.384	11.410	-0.601	-0.456
-272.370	68.260	0.382	-0.387
-271.355	478.270	-0.101	0.227
-270.340	-115.006	-0.560	-0.105
-269.326	800.000	-0.244	0.862
-268.311	154.926	0.120	0.164
-267.297	76.629	-0.356	-0.373
-266.282	101.957	0.463	0.535
-265.267	394.564	-0.223	0.460
-264.253	-200.000	0.061	-0.506
-263.238	-124.030	-0.111	-0.017
-262.224	800.000	-0.103	0.421
-261.209	-52.257	-0.392	-0.180
-260.195	-200.000	0.011	0.226
-259.180	73.043	-0.141	-0.146
-258.165	309.106	0.107	-0.197
-257.151	-104.501	-0.382	0.087
-256.136	187.462	0.488	-0.721
-255.122	45.525	-0.959	-0.876
-254.107	-103.466	0.213	0.050
-253.092	207.495	-0.408	-0.630
-252.078	-200.000	-0.072	0.762
-251.063	800.000	-0.067	0.239
-250.049	-101.351	0.337	0.081
-249.034	38.030	0.292	0.257
-248.019	75.438	-0.291	-0.304
-247.005	-8.322	0.289	-0.192
-245.990	-200.000	-0.019	-0.139
-244.976	-124.425	-0.324	0.050
-243.961	109.227	-0.319	0.378
-242.946	66.707	0.338	-0.340
-241.932	20.174	-0.687	-0.548
-240.917	-69.346	0.361	-0.137
-239.903	-26.980	-0.391	-0.226
-238.888	131.024	-0.354	0.449
-237.873	323.796	-0.145	0.273
-236.859	-103.026	-0.251	0.059
-235.844	-187.199	-0.329	-0.004
-234.830	-75.907	0.234	0.082
-233.815	59.826	-0.216	0.210
-232.800	283.749	-0.206	0.365
-231.786	238.320	-0.249	-0.408
-230.771	-200.000	-0.093	1.191
-229.757	-200.000	-0.185	0.879
-228.742	-19.207	-0.668	0.410
-227.727	800.000	-0.049	0.168
-226.713	-157.784	-0.435	0.026
-225.698	99.840	0.021	0.024
-224.684	-59.064	0.558	-0.238
-223.669	-200.000	-0.009	0.073
-222.655	-200.000	0.010	-0.695
-221.640	31.829	0.432	0.368
-220.625	-200.000	-0.000	0.085
-219.611	504.247	-0.233	-0.533
-218.596	-22.963	1.098	-0.654
-217.582	-200.000	0.016	-0.384
-216.567	-41.999	1.106	0.560
-215.552	-106.309	-0.352	0.078
-214.538	-104.981	0.127	0.029
-213.523	-200.000	-0.059	-0.587
-212.509	-200.000	-0.014	-0.327
-211.494	4.874	-0.336	0.244
-210.479	-2.323	0.312	-0.216
-209.465	-39.091	0.806	-0.419
-208.450	133.589	-0.079	-0.102
-207.436	-95.352	0.544	-0.144
-206.421	730.190	0.172	0.453
-205.406	120.421	-0.120	-0.147
-204.392	-39.770	-0.424	-0.219
-203.377	-13.135	0.720	0.462
-202.363	-200.000	-0.077	-1.082
-201.348	92.460	0.177	0.197
-200.333	84.162	0.379	-0.409
-199.319	-97.066	0.864	-0.223
-198.304	-138.163	1.095	0.120
-197.290	-75.289	-0.499	-0.176
-196.275	-182.191	-0.514	0.009
-195.260	-200.000	0.127	-1.098
-194.246	-78.028	0.522	0.178
-193.231	-60.807	0.499	0.208
-192.217	-200.000	0.003	-0.898
-191.202	92.824	0.341	0.380
-190.187	-147.230	-0.942	-0.079
-189.173	-200.000	0.075	-0.377
-188.158	-35.690	0.356	0.191
-187.144	196.807	-0.310	0.466
-186.129	54.141	-0.168	-0.160
-185.114	254.081	0.517	-0.873
-184.100	39.026	0.426	0.376
-183.085	-60.982	-0.474	-0.198
-182.071	-39.591	-0.967	-0.499
-181.056	800.000	0.041	0.177
-180.042	115.002	0.400	-0.481
-179.027	-200.000	-0.069	-0.620
-178.012	81.121	-0.342	-0.364
-176.998	105.640	0.601	-0.701
-175.983	8.559	0.334	0.248
-174.969	-200.000	-0.043	0.390
-173.954	356.861	-0.135	0.266
-172.939	-200.000	0.016	-0.986
-171.925	-200.000	-0.056	0.317
-170.910	107.900	-0.143	-0.168
-169.896	-71.302	-0.320	-0.118
-168.881	-16.429	-0.217	0.136
-167.866	52.514	0.261	0.245
-166.852	-25.451	0.325	0.190
-165.837	190.975	0.047	0.070
-164.823	-43.379	0.553	0.276
-163.808	540.823	0.409	0.960
-162.793	800.000	-0.125	-0.487
-161.779	120.725	-0.207	-0.254
-160.764	800.000	-0.110	0.328
-159.750	94.807	-0.170	0.190
-158.735	-132.724	0.252	0.032
-157.720	105.754	0.498	-0.580
-156.706	-119.719	0.459	0.078
-155.691	166.773	0.276	0.386
-154.677	-130.558	-0.619	-0.082
-153.662	-200.000	0.113	0.754
-152.647	800.000	-0.128	-0.364
-151.633	-151.114	-0.637	-0.047
-150.618	-159.691	-0.064	0.003
-149.604	6.113	-0.230	0.168
-148.589	-9.962	0.379	0.248
-147.574	755.297	-0.107	0.286
-146.560	331.637	0.540	1.026
-145.545	800.000	-0.114	0.487
-144.531	-11.538	0.589	-0.381
-143.516	301.110	-0.137	0.250
-142.502	-200.000	-0.047	-0.443
-141.487	348.563	-0.312	-0.606
-140.472	6.136	-0.582	-0.425
-139.458	-200.000	0.063	0.505
-138.443	272.477	-0.613	1.066
-137.429	25.316	-0.625	0.511
-136.414	-200.000	0.048	0.242
-135.399	-127.133	-0.735	-0.106
-134.385	-200.000	0.044	0.779
-133.370	325.310	-0.222	0.418
-132.356	-160.575	-0.146	-0.008
-131.341	-3.400	0.517	-0.354
-130.326	-1.693	-0.577	0.400
-129.312	-84.523	-0.440	0.137
-128.297	-119.434	1.168	-0.200
-127.283	-79.453	0.511	0.170
-126.268	37.354	0.590	0.515
-125.253	-36.215	0.437	0.232
-124.239	-200.000	-0.077	0.604
-123.224	800.000	0.095	-0.350
-122.210	-22.201	-0.091	0.055
-121.195	-111.288	0.484	0.097
-120.180	-30.276	-1.338	0.748
-119.166	619.864	-0.290	0.717
