DTS Sentinel unit serial number:	SN413079Multiplexer serial number:	ORYXHardware model number:	OX4-SRSoftware version number:	ORYX F/W v4.00 Oryx Data Collector v3.7.2.0data status	okinstallation	princeton_trtdifferential loss correction	single-endedforward channel	channel 2reverse channel	N/Adate	2019/09/15time	05:11:35forward acquisition time	60.00reverse acquisition time	0.00gamma	496.2192k internal	0.2326k external	0.2326temperature offset calibration	1.0035default loss term (dB/km)	0.3790temperature slope calibration	1.0000multiplexer offset coefficient	1.0000multiplexer slope coefficient	1.0000fibre end	0.00T internal ref (°C)	30.62T ext. ref 1 (°C)	4.78T ext. ref 2 (°C)	25.32length (m)	temperature (°C)	Stokes	anti-Stokes-747.200	423.704	0.062	-0.134
-746.185	81.939	-0.143	-0.157
-745.171	86.917	0.111	-0.124
-744.156	-200.000	0.000	-0.070
-743.142	-30.739	0.204	0.116
-742.127	-73.918	-0.233	0.085
-741.112	187.056	0.173	0.259
-740.098	102.817	0.129	0.153
-739.083	86.882	-0.130	-0.145
-738.069	800.000	-0.013	0.042
-737.054	-10.931	-0.284	-0.189
-736.039	-200.000	-0.029	0.241
-735.025	-77.727	-0.399	-0.139
-734.010	-139.579	0.149	-0.016
-732.996	-55.086	-0.274	-0.124
-731.981	326.401	-0.202	-0.390
-730.966	-54.332	-0.144	-0.066
-729.952	412.736	-0.117	-0.251
-728.937	-122.721	-0.357	0.058
-727.923	-200.000	-0.014	0.075
-726.908	773.779	-0.032	-0.087
-725.894	-139.616	-0.378	-0.041
-724.879	523.402	0.099	-0.235
-723.864	545.607	-0.049	0.119
-722.850	-180.222	-0.241	-0.005
-721.835	-88.784	-0.266	0.080
-720.821	195.213	-0.210	-0.321
-719.806	-37.763	-0.127	0.068
-718.791	514.661	0.121	-0.285
-717.777	-29.641	0.146	-0.084
-716.762	-12.598	0.343	-0.225
-715.748	-7.186	-0.253	-0.173
-714.733	-200.000	-0.000	-0.179
-713.718	-40.580	0.219	0.114
-712.704	-22.534	-0.119	0.072
-711.689	-125.155	-0.160	-0.025
-710.675	124.712	0.187	-0.237
-709.660	-200.000	-0.007	-0.141
-708.645	-19.910	-0.223	0.139
-707.631	-200.000	0.003	0.221
-706.616	29.750	-0.078	-0.067
-705.602	91.201	-0.144	-0.163
-704.587	576.920	-0.085	-0.209
-703.572	603.119	0.099	-0.248
-702.558	5.203	-0.523	-0.388
-701.543	473.478	0.036	0.082
-700.529	-85.802	-0.226	0.071
-699.514	2.503	0.170	-0.124
-698.499	800.000	0.027	-0.114
-697.485	202.447	0.269	-0.418
-696.470	-58.021	-0.050	-0.022
-695.456	-200.000	0.026	-0.161
-694.441	54.369	-0.151	0.146
-693.426	105.677	-0.089	-0.105
-692.412	64.273	-0.098	0.099
-691.397	-200.000	0.058	-0.304
-690.383	4.046	-0.097	-0.071
-689.368	-51.162	-0.187	0.088
-688.354	105.161	0.034	0.041
-687.339	-119.830	0.099	0.017
-686.324	-28.887	-0.293	-0.170
-685.310	141.825	-0.214	0.286
-684.295	795.160	-0.064	0.177
-683.281	-200.000	-0.010	0.203
-682.266	-156.585	-0.182	-0.011
-681.251	406.018	-0.126	-0.267
-680.237	-40.638	-0.018	0.010
-679.222	378.810	-0.107	0.221
-678.208	-200.000	-0.022	0.497
-677.193	65.958	0.052	-0.053
-676.178	49.559	0.120	-0.114
-675.164	-200.000	-0.024	0.120
-674.149	-67.511	-0.307	-0.121
-673.135	-200.000	0.010	-0.192
-672.120	113.771	0.166	-0.202
-671.105	800.000	-0.030	-0.112
-670.091	6.082	-0.271	0.202
-669.076	-34.115	0.228	0.126
-668.062	800.000	-0.047	-0.176
-667.047	-136.191	-0.215	0.025
-666.032	-200.000	-0.008	0.270
-665.018	-81.215	-0.073	-0.024
-664.003	-200.000	-0.008	-0.184
-662.989	19.912	-0.073	0.060
-661.974	333.539	-0.061	0.118
-660.959	-95.453	0.318	0.086
-659.945	-42.950	0.296	-0.151
-658.930	-200.000	-0.037	-0.323
-657.916	12.357	0.141	-0.109
-656.901	-200.000	-0.010	0.150
-655.886	-102.418	-0.083	-0.020
-654.872	-200.000	0.027	-0.303
-653.857	31.548	-0.137	-0.118
-652.843	-200.000	0.020	-0.120
-651.828	-111.063	-0.312	-0.064
-650.814	32.074	-0.155	-0.134
-649.799	54.095	-0.266	-0.257
-648.784	-76.983	-0.131	0.046
-647.770	31.559	0.431	0.372
-646.755	-45.111	-0.131	-0.065
-645.741	696.561	0.009	-0.023
-644.726	-2.201	-0.334	-0.236
-643.711	-57.961	-0.156	-0.068
-642.697	11.430	-0.215	0.166
-641.682	-18.146	-0.157	0.099
-640.668	244.206	0.170	-0.287
-639.653	-122.074	-0.080	-0.013
-638.638	-25.048	0.226	0.135
-637.624	111.011	0.024	-0.029
-636.609	-200.000	0.032	-0.247
-635.595	-111.844	-0.387	0.079
-634.580	800.000	-0.156	-0.458
-633.565	197.162	-0.121	-0.185
-632.551	800.000	-0.065	0.252
-631.536	-66.984	-0.259	0.103
-630.522	-106.022	0.324	-0.073
-629.507	346.492	0.072	0.142
-628.492	259.066	0.061	0.105
-627.478	192.851	-0.183	0.277
-626.463	-200.000	0.078	-0.359
-625.449	-200.000	0.042	-0.247
-624.434	681.551	0.042	-0.110
-623.419	132.067	-0.160	0.207
-622.405	43.933	-0.239	-0.220
-621.390	-4.331	-0.318	-0.221
-620.376	28.041	-0.101	-0.086
-619.361	547.618	-0.051	-0.121
-618.346	117.469	-0.261	0.322
-617.332	-87.900	-0.135	0.041
-616.317	367.240	-0.053	-0.108
-615.303	-10.381	0.147	-0.098
-614.288	-27.993	-0.119	0.069
-613.273	-156.846	0.552	0.034
-612.259	688.535	0.036	-0.094
-611.244	-83.804	0.427	0.137
-610.230	800.000	-0.078	-0.263
-609.215	168.549	0.247	-0.354
-608.201	187.024	0.028	0.041
-607.186	-34.301	0.101	-0.056
-606.171	800.000	0.031	0.125
-605.157	-200.000	0.038	0.264
-604.142	-12.038	-0.251	0.165
-603.128	287.121	0.052	0.095
-602.113	-31.735	0.177	-0.100
-601.098	-186.674	0.068	-0.001
-600.084	-200.000	-0.044	0.220
-599.069	-200.000	0.008	-0.059
-598.055	-200.000	-0.004	0.401
-597.040	-200.000	0.045	-0.254
-596.025	-96.567	0.331	0.088
-595.011	111.274	-0.175	-0.211
-593.996	-200.000	-0.086	0.392
-592.982	800.000	-0.106	0.317
-591.967	-48.601	0.186	-0.090
-590.952	-200.000	0.007	0.427
-589.938	384.503	-0.109	-0.226
-588.923	216.266	0.100	-0.159
-587.909	10.297	-0.205	-0.157
-586.894	-155.435	0.072	-0.005
-585.879	179.578	0.093	0.137
-584.865	-45.473	0.164	-0.081
-583.850	10.636	0.064	0.049
-582.836	-88.505	-0.043	-0.013
-581.821	223.985	-0.089	0.145
-580.806	83.583	0.265	-0.289
-579.792	124.408	-0.094	-0.118
-578.777	97.511	0.364	-0.419
-577.763	-82.295	-0.177	-0.058
-576.748	-200.000	0.014	0.206
-575.733	55.857	-0.226	-0.220
-574.719	71.349	-0.187	0.194
-573.704	-30.349	-0.027	-0.016
-572.690	119.905	0.090	0.111
-571.675	161.981	0.210	-0.294
-570.661	-66.212	-0.022	0.009
-569.646	550.691	0.105	-0.252
-568.631	151.891	0.111	-0.151
-567.617	29.074	-0.173	-0.147
-566.602	-57.745	-0.071	0.031
-565.588	-161.651	0.163	0.008
-564.573	186.504	-0.066	-0.098
-563.558	-200.000	0.018	0.084
-562.544	-66.432	0.289	0.115
-561.529	-140.072	0.172	0.018
-560.515	-200.000	0.017	-0.141
-559.500	-91.287	0.150	-0.043
-558.485	-61.903	-0.158	-0.066
-557.471	-104.908	-0.194	0.045
-556.456	-38.975	-0.160	0.084
-555.442	-112.386	-0.182	-0.036
-554.427	-116.704	-0.061	0.011
-553.412	-111.030	-0.173	0.035
-552.398	1.984	-0.425	-0.307
-551.383	108.664	-0.201	0.240
-550.369	114.631	-0.084	-0.103
-549.354	67.783	0.206	-0.211
-548.339	-200.000	-0.015	0.334
-547.325	-118.617	-0.096	-0.017
-546.310	-119.466	0.260	-0.045
-545.296	-200.000	0.019	-0.240
-544.281	800.000	-0.039	-0.153
-543.266	426.263	-0.033	-0.072
-542.252	257.287	-0.040	0.068
-541.237	-108.797	0.119	0.025
-540.223	527.536	0.024	-0.056
-539.208	59.004	-0.088	-0.087
-538.193	-73.754	-0.108	-0.039
-537.179	102.407	0.120	-0.140
-536.164	-200.000	-0.013	0.134
-535.150	-59.513	-0.127	0.055
-534.135	-200.000	-0.065	-0.381
-533.121	267.104	-0.167	0.293
-532.106	-92.872	0.241	-0.067
-531.091	392.302	0.116	0.241
-530.077	-111.478	-0.316	0.064
-529.062	-145.293	0.268	0.024
-528.048	177.401	-0.067	-0.097
-527.033	192.852	-0.075	0.113
-526.018	131.555	0.252	-0.325
-525.004	-92.578	-0.228	0.064
-523.989	800.000	0.042	-0.170
-522.975	-167.055	0.310	0.013
-521.960	1.232	-0.190	0.136
-520.945	800.000	0.132	0.379
-519.931	-168.634	-0.041	-0.002
-518.916	28.484	-0.355	-0.300
-517.902	-46.540	0.041	-0.020
-516.887	89.988	-0.205	-0.229
-515.872	-36.926	-0.312	0.167
-514.858	-161.404	0.235	-0.012
-513.843	383.761	-0.116	0.239
-512.829	7.310	-0.050	0.037
-511.814	119.125	-0.183	0.226
-510.799	-34.809	0.216	0.118
-509.785	-47.932	0.029	-0.014
-508.770	-65.437	0.123	0.049
-507.756	-200.000	0.027	0.265
-506.741	-87.143	-0.331	0.101
-505.726	170.902	-0.008	-0.011
-504.712	-88.123	-0.264	0.079
-503.697	212.989	-0.107	0.169
-502.683	505.429	0.103	0.238
-501.668	-200.000	0.032	-0.219
-500.653	800.000	-0.067	-0.215
-499.639	105.891	0.184	0.218
-498.624	-200.000	-0.033	0.206
-497.610	82.777	0.044	-0.047
-496.595	-34.403	-0.102	0.056
-495.581	-77.856	-0.317	-0.109
-494.566	-97.407	-0.208	0.054
-493.551	-48.189	-0.226	0.109
-492.537	175.966	0.096	-0.140
-491.522	549.834	-0.103	-0.246
-490.508	800.000	-0.030	0.097
-489.493	-174.813	-0.103	0.003
-488.478	132.735	-0.143	0.184
-487.464	-106.247	0.197	0.044
-486.449	-124.491	-0.540	-0.084
-485.435	800.000	-0.120	0.461
-484.420	-42.732	0.113	0.057
-483.405	34.949	-0.088	0.077
-482.391	-129.945	0.060	-0.008
-481.376	-42.090	-0.148	0.076
-480.362	-200.000	0.010	0.169
-479.347	432.655	0.127	-0.276
-478.332	697.377	-0.098	0.257
-477.318	150.653	0.155	-0.210
-476.303	237.868	0.083	0.138
-475.289	800.000	-0.057	-0.199
-474.274	800.000	-0.107	-0.323
-473.259	800.000	0.058	-0.238
-472.245	-50.553	0.355	-0.167
-471.230	-130.342	0.107	0.014
-470.216	311.666	-0.162	0.303
-469.201	1.371	0.168	-0.121
-468.186	800.000	0.031	-0.116
-467.172	224.968	-0.098	0.158
-466.157	-57.059	0.172	0.076
-465.143	800.000	-0.089	0.307
-464.128	-152.598	-0.297	-0.021
-463.113	20.673	-0.152	0.123
-462.099	246.401	-0.134	0.225
-461.084	762.233	-0.044	0.118
-460.070	800.000	-0.059	-0.215
-459.055	23.433	-0.220	0.181
-458.040	800.000	-0.024	-0.095
-457.026	-200.000	-0.015	-0.082
-456.011	-45.524	0.161	-0.080
-454.997	204.756	0.188	-0.291
-453.982	386.837	0.012	0.024
-452.968	-29.007	-0.264	-0.151
-451.953	-144.196	-0.056	0.005
-450.938	124.585	-0.118	0.148
-449.924	175.741	-0.299	0.433
-448.909	-190.723	-0.202	-0.002
-447.895	-70.210	-0.308	-0.117
-446.880	-127.478	-0.364	0.053
-445.865	101.545	0.193	-0.224
-444.851	164.095	-0.028	0.039
-443.836	-200.000	-0.010	-0.127
-442.822	-119.122	0.065	0.011
-441.807	128.099	0.017	-0.022
-440.792	-200.000	-0.034	-0.330
-439.778	-95.617	-0.367	0.098
-438.763	97.750	0.178	0.204
-437.749	222.307	-0.109	-0.175
-436.734	181.889	-0.063	0.093
-435.719	-40.788	0.138	0.071
-434.705	272.217	-0.218	0.384
-433.690	577.149	0.136	-0.331
-432.676	143.460	0.255	-0.338
-431.661	-200.000	0.100	0.000
-430.646	-127.293	-0.051	0.007
-429.632	289.720	0.080	0.144
-428.617	80.007	0.159	-0.171
-427.603	44.037	-0.112	-0.102
-426.588	321.118	0.142	-0.269
-425.573	180.112	-0.228	-0.333
-424.559	-109.467	0.136	-0.029
-423.544	-117.979	-0.162	0.029
-422.530	-136.689	0.155	0.018
-421.515	148.102	-0.123	-0.165
-420.500	71.291	-0.129	0.133
-419.486	-200.000	0.040	-0.204
-418.471	800.000	0.036	0.112
-417.457	57.632	0.117	-0.114
-416.442	537.214	-0.072	0.169
-415.428	65.345	0.042	-0.042
-414.413	187.305	-0.176	0.262
-413.398	-91.764	0.416	0.118
-412.384	50.550	-0.110	0.103
-411.369	-200.000	0.016	-0.111
-410.355	676.365	0.072	0.186
-409.340	-200.000	0.038	-0.321
-408.325	332.489	-0.179	-0.344
-407.311	-63.414	0.256	0.105
-406.296	135.683	-0.053	0.068
-405.282	6.057	0.136	0.101
-404.267	-25.801	-0.142	0.083
-403.252	9.074	-0.155	0.116
-402.238	-48.806	0.310	-0.148
-401.223	-43.741	0.160	-0.080
-400.209	-200.000	0.051	-0.397
-399.194	178.351	-0.154	0.223
-398.179	800.000	-0.070	-0.225
-397.165	800.000	0.052	0.177
-396.150	725.597	-0.049	-0.130
-395.136	102.911	0.366	0.427
-394.121	-200.000	-0.055	0.453
-393.106	-141.443	-0.105	0.011
-392.092	-200.000	0.005	0.397
-391.077	413.422	-0.116	0.246
-390.063	0.448	0.165	0.118
-389.048	-200.000	-0.018	0.282
-388.033	-95.493	0.184	-0.049
-387.019	-71.321	0.043	-0.016
-386.004	-66.417	-0.216	-0.085
-384.990	-200.000	-0.035	0.208
-383.975	124.089	0.034	-0.042
-382.960	-99.610	-0.349	-0.087
-381.946	-200.000	-0.007	0.053
-380.931	-73.163	-0.027	-0.010
-379.917	-200.000	0.044	-0.282
-378.902	-109.836	0.212	-0.044
-377.888	-132.813	-0.093	0.012
-376.873	-67.066	0.238	-0.093
-375.858	-200.000	-0.051	-0.251
-374.844	-9.103	0.069	-0.046
-373.829	-3.835	0.363	0.250
-372.815	40.781	-0.107	-0.096
-371.800	-200.000	0.006	0.133
-370.785	51.461	0.222	0.210
-369.771	-200.000	0.018	0.261
-368.756	-200.000	0.049	0.283
-367.742	-103.385	0.328	0.077
-366.727	-200.000	0.002	-0.036
-365.712	740.105	0.144	-0.384
-364.698	-137.040	0.158	0.018
-363.683	120.694	0.149	0.184
-362.669	713.266	0.135	0.355
-361.654	-96.340	-0.326	-0.086
-360.639	7.651	-0.050	-0.037
-359.625	469.402	-0.039	-0.086
-358.610	-200.000	-0.017	0.148
-357.596	-200.000	0.032	0.199
-356.581	637.434	0.046	-0.116
-355.566	-139.004	0.174	-0.019
-354.552	-126.748	0.090	-0.013
-353.537	800.000	0.056	-0.201
-352.523	-200.000	0.039	0.375
-351.508	386.584	-0.032	0.066
-350.493	-200.000	0.032	-0.221
-349.479	-93.369	0.082	0.022
-348.464	-30.312	0.200	-0.113
-347.450	86.647	0.236	0.259
-346.435	756.008	0.037	0.099
-345.420	-124.503	0.203	-0.031
-344.406	800.000	-0.055	0.156
-343.391	-100.211	-0.146	0.036
-342.377	-200.000	-0.058	-0.256
-341.362	209.254	-0.079	-0.123
-340.348	-89.430	0.087	0.026
-339.333	-37.040	0.237	-0.126
-338.318	747.825	0.084	-0.224
-337.304	-186.449	0.162	0.002
-336.289	-6.867	0.110	-0.074
-335.275	-200.000	-0.044	-0.247
-334.260	-200.000	0.194	0.000
-333.245	800.000	0.049	0.141
-332.231	55.086	-0.092	-0.088
-331.216	-51.413	-0.336	0.156
-330.202	28.267	-0.173	-0.145
-329.187	18.233	-0.147	0.116
-328.172	-10.237	-0.128	-0.084
-327.158	-61.033	0.272	-0.114
-326.143	800.000	0.040	0.158
-325.129	-7.954	0.136	0.091
-324.114	179.313	-0.092	-0.134
-323.099	-200.000	-0.026	0.279
-322.085	-173.744	-0.109	-0.003
-321.070	204.244	0.176	0.271
-320.056	800.000	-0.040	0.170
-319.041	-118.427	-0.287	-0.050
-318.026	-103.959	0.125	0.029
-317.012	-24.408	-0.239	-0.142
-315.997	-37.410	0.206	-0.109
-314.983	215.108	0.085	-0.133
-313.968	-200.000	-0.027	0.174
-312.953	-22.559	0.073	-0.044
-311.939	146.214	0.032	-0.043
-310.924	-102.622	-0.305	0.072
-309.910	70.864	0.133	-0.136
-308.895	63.654	-0.108	-0.107
-307.880	-30.743	-0.123	0.069
-306.866	800.000	0.061	-0.179
-305.851	126.886	-0.234	-0.295
-304.837	97.045	0.017	0.019
-303.822	800.000	0.018	-0.075
-302.807	86.147	0.172	0.188
-301.793	276.510	-0.100	-0.177
-300.778	-189.358	-0.325	-0.004
-299.764	800.000	-0.086	0.288
-298.749	800.000	0.070	0.253
-297.735	-53.844	0.088	0.040
-296.720	-74.727	-0.147	-0.052
-295.705	588.284	-0.072	0.176
-294.691	184.284	-0.073	-0.107
-293.676	-149.834	0.308	0.024
-292.662	-12.136	-0.052	0.033
-291.647	56.786	-0.019	-0.018
-290.632	-200.000	0.077	0.503
-289.618	-79.316	0.264	0.089
-288.603	55.898	0.215	0.206
-287.589	800.000	0.107	-0.293
-286.574	-90.769	-0.160	-0.046
-285.559	2.112	0.115	-0.082
-284.545	179.211	0.217	-0.314
-283.530	-200.000	-0.007	-0.208
-282.516	282.323	-0.181	-0.321
-281.501	-27.577	0.228	0.131
-280.486	-29.637	0.193	-0.109
-279.472	-95.428	0.330	0.088
-278.457	-111.569	0.130	0.026
-277.443	65.158	0.176	-0.176
-276.428	517.705	-0.096	-0.224
-275.413	46.024	0.235	0.216
-274.399	48.235	0.165	0.153
-273.384	82.999	-0.268	0.288
-272.370	-200.000	-0.015	-0.163
-271.355	-159.725	-0.158	0.009
-270.340	-148.335	0.203	-0.017
-269.326	800.000	0.092	-0.255
-268.311	-101.897	0.077	-0.018
-267.297	-145.915	0.455	0.040
-266.282	116.882	0.105	0.127
-265.267	-200.000	-0.006	-0.151
-264.253	800.000	0.044	0.127
-263.238	-38.643	0.147	-0.077
-262.224	351.316	0.098	-0.192
-261.209	-69.919	-0.249	0.094
-260.195	-17.670	-0.124	0.077
-259.180	-138.522	0.068	-0.007
-258.165	429.446	-0.072	-0.155
-257.151	-73.011	-0.329	0.120
-256.136	386.412	0.086	0.176
-255.122	48.952	-0.081	0.076
-254.107	41.664	0.184	0.165
-253.092	-200.000	0.030	0.171
-252.078	800.000	-0.091	0.363
-251.063	12.017	-0.153	0.116
-250.049	-47.001	0.194	-0.094
-249.034	-165.036	-0.375	0.016
-248.019	-70.251	0.236	-0.089
-247.005	-141.719	0.102	0.010
-245.990	405.823	0.082	0.171
-244.976	207.176	-0.206	0.318
-243.961	-200.000	0.068	0.380
-242.946	-15.471	0.082	-0.052
-241.932	71.176	-0.080	-0.082
-240.917	-200.000	-0.012	0.320
-239.903	525.016	-0.152	0.353
-238.888	45.255	0.099	-0.090
-237.873	-200.000	0.050	-0.245
-236.859	84.284	-0.129	-0.140
-235.844	800.000	0.039	-0.118
-234.830	114.900	-0.059	0.071
-233.815	-200.000	0.018	-0.206
-232.800	45.367	0.090	0.082
-231.786	-130.989	-0.185	-0.024
-230.771	-200.000	0.017	0.201
-229.757	-28.270	-0.151	0.086
-228.742	129.867	0.084	-0.106
-227.727	34.883	0.185	0.160
-226.713	-10.744	0.150	0.098
-225.698	-98.948	-0.492	-0.123
-224.684	-114.711	0.119	0.023
-223.669	-95.573	0.336	0.089
-222.655	1.037	0.207	-0.146
-221.640	-123.143	0.241	-0.038
-220.625	-200.000	0.031	-0.316
-219.611	32.990	0.331	-0.284
-218.596	-200.000	-0.009	-0.038
-217.582	202.788	-0.065	-0.099
-216.567	96.157	-0.116	-0.132
-215.552	286.515	-0.114	0.204
-214.538	-1.408	0.205	0.143
-213.523	209.414	0.259	0.402
-212.509	89.449	0.309	0.341
-211.494	-69.312	0.254	0.096
-210.479	-148.486	-0.178	-0.014
-209.465	151.359	0.103	0.139
-208.450	378.591	0.108	-0.219
-207.436	-40.163	-0.162	-0.083
-206.421	706.130	0.057	-0.148
-205.406	-153.518	-0.400	0.027
-204.392	-200.000	-0.041	-0.261
-203.377	473.513	0.015	-0.033
-202.363	96.424	-0.143	0.161
-201.348	349.616	-0.035	0.069
-200.333	17.495	-0.218	-0.171
-199.319	222.390	0.125	0.198
-198.304	-200.000	-0.004	-0.205
-197.290	-41.208	-0.221	0.112
-196.275	30.037	-0.200	-0.168
-195.260	563.580	0.031	-0.073
-194.246	-42.388	-0.293	0.148
-193.231	800.000	0.094	-0.275
-192.217	800.000	-0.014	0.046
-191.202	-200.000	-0.046	0.275
-190.187	580.893	0.289	0.699
-189.173	-33.028	0.035	-0.019
-188.158	84.510	0.152	0.164
-187.144	-64.843	-0.336	-0.134
-186.129	-200.000	-0.026	-0.220
-185.114	-88.850	0.118	0.034
-184.100	-169.091	0.338	-0.012
-183.085	648.256	-0.118	-0.298
-182.071	147.411	-0.208	-0.276
-181.056	-172.024	-0.313	-0.010
-180.042	-174.341	-0.163	0.005
-179.027	-139.609	0.247	-0.026
-178.012	-85.131	0.197	-0.061
-176.998	292.889	0.051	-0.092
-175.983	56.128	-0.066	0.064
-174.969	800.000	0.014	0.057
-173.954	-61.603	-0.144	-0.059
-172.939	69.176	0.223	-0.226
-171.925	-145.511	0.384	0.034
-170.910	-200.000	0.011	-0.535
-169.896	-91.613	0.287	-0.080
-168.881	-200.000	0.087	0.427
-167.866	-122.737	-0.310	0.049
-166.852	64.215	0.153	0.151
-165.837	-149.884	-0.325	-0.025
-164.823	0.014	0.208	-0.146
-163.808	-200.000	-0.029	-0.182
-162.793	-200.000	-0.016	-0.323
-161.779	-199.868	0.306	0.002
-160.764	475.596	-0.087	-0.193
-159.750	-89.140	-0.211	-0.062
-158.735	-121.025	-0.198	0.033
-157.720	100.062	-0.057	-0.065
-156.706	-200.000	0.023	-0.104
-155.691	-86.490	0.035	0.011
-154.677	800.000	-0.099	-0.273
-153.662	-102.056	0.344	0.082
-152.647	-36.438	-0.160	0.085
-151.633	800.000	-0.053	-0.189
-150.618	-148.541	-0.292	-0.024
-149.604	161.411	0.115	0.159
-148.589	-200.000	0.001	-0.166
-147.574	97.371	0.337	0.382
-146.560	-50.278	-0.127	0.059
-145.545	-42.157	-0.204	0.103
-144.531	-200.000	0.083	-0.556
-143.516	-125.861	-0.467	-0.069
-142.502	-81.782	0.075	-0.024
-141.487	800.000	0.067	0.199
-140.472	-34.634	-0.024	0.013
-139.458	-200.000	0.002	0.137
-138.443	468.627	0.154	0.339
-137.429	-1.788	0.082	0.057
-136.414	91.927	-0.169	0.188
-135.399	142.970	0.141	0.185
-134.385	-200.000	0.022	0.213
-133.370	-200.000	0.051	-0.268
-132.356	800.000	0.043	0.170
-131.341	-200.000	0.021	-0.390
-130.326	800.000	0.012	-0.048
-129.312	319.041	0.112	0.209
-128.297	-12.337	0.203	0.131
-127.283	-200.000	-0.026	-0.218
-126.268	800.000	0.023	-0.091
-125.253	174.169	-0.186	-0.264
-124.239	45.549	0.029	0.026
-123.224	-93.609	0.281	-0.076
-122.210	75.178	-0.105	-0.109
