DTS Sentinel unit serial number:	SN413079Multiplexer serial number:	ORYXHardware model number:	OX4-SRSoftware version number:	ORYX F/W v4.00 Oryx Data Collector v3.7.2.0data status	okinstallation	princeton_trtdifferential loss correction	single-endedforward channel	channel 2reverse channel	N/Adate	2019/09/17time	23:27:35forward acquisition time	60.00reverse acquisition time	0.00gamma	496.2192k internal	0.2348k external	0.2348temperature offset calibration	0.9984default loss term (dB/km)	0.3790temperature slope calibration	1.0000multiplexer offset coefficient	1.0000multiplexer slope coefficient	1.0000fibre end	0.00T internal ref (°C)	24.31T ext. ref 1 (°C)	0.17T ext. ref 2 (°C)	17.59length (m)	temperature (°C)	Stokes	anti-Stokes-747.200	800.000	0.024	-0.067
-746.185	20.582	0.158	0.128
-745.171	-78.844	0.310	0.105
-744.156	-102.490	0.128	0.031
-743.142	236.991	-0.139	0.231
-742.127	194.298	-0.083	0.126
-741.112	-27.580	0.058	0.034
-740.098	-200.000	-0.049	0.365
-739.083	10.070	-0.160	0.122
-738.069	80.230	-0.366	0.393
-737.054	-200.000	-0.038	0.244
-736.039	329.659	-0.191	0.366
-735.025	210.495	0.110	0.172
-734.010	-110.307	-0.132	0.027
-732.996	800.000	0.077	-0.328
-731.981	30.856	-0.132	0.113
-730.966	149.113	-0.111	0.150
-729.952	84.891	-0.046	0.050
-728.937	-175.691	-0.340	-0.009
-727.923	-13.303	0.096	0.062
-726.908	30.977	0.112	-0.096
-725.894	-108.199	-0.355	-0.077
-724.879	-19.527	0.038	0.023
-723.864	-200.000	0.005	-0.351
-722.850	646.009	-0.068	-0.173
-721.835	189.950	0.042	0.063
-720.821	-200.000	0.066	0.347
-719.806	216.072	-0.091	-0.144
-718.791	-200.000	-0.033	-0.208
-717.777	-141.000	-0.202	0.021
-716.762	12.867	-0.142	-0.110
-715.748	800.000	0.044	0.130
-714.733	-200.000	0.051	-0.520
-713.718	-5.575	-0.131	0.090
-712.704	-179.509	0.097	0.002
-711.689	-74.942	-0.270	0.096
-710.675	-62.539	-0.164	-0.068
-709.660	800.000	0.011	0.046
-708.645	36.899	-0.081	-0.071
-707.631	191.944	0.034	0.051
-706.616	-200.000	0.004	0.099
-705.602	800.000	0.039	-0.130
-704.587	22.947	0.171	-0.139
-703.572	-91.964	-0.284	-0.080
-702.558	800.000	0.117	0.373
-701.543	-200.000	-0.028	-0.329
-700.529	193.038	0.014	0.021
-699.514	-9.358	0.143	-0.095
-698.499	436.810	0.113	-0.246
-697.485	-20.350	-0.439	-0.270
-696.470	-7.964	0.166	-0.112
-695.456	79.850	0.152	-0.163
-694.441	-38.454	-0.178	0.094
-693.426	-104.724	-0.333	-0.076
-692.412	800.000	0.112	0.395
-691.397	116.423	-0.032	-0.039
-690.383	274.723	0.038	-0.067
-689.368	37.324	-0.286	-0.253
-688.354	-200.000	-0.006	0.078
-687.339	-200.000	-0.017	-0.099
-686.324	191.899	0.131	0.196
-685.310	-131.577	-0.449	-0.059
-684.295	-11.301	0.203	-0.133
-683.281	316.113	-0.239	-0.450
-682.266	274.211	-0.174	-0.307
-681.251	-159.237	-0.364	-0.020
-680.237	217.977	-0.155	-0.247
-679.222	-117.930	-0.119	0.021
-678.208	311.795	0.079	0.148
-677.193	238.527	0.011	0.019
-676.178	-66.223	0.184	-0.073
-675.164	48.954	0.126	-0.118
-674.149	-200.000	0.001	-0.041
-673.135	800.000	0.052	-0.153
-672.120	-200.000	-0.045	-0.351
-671.105	-83.346	0.232	0.074
-670.091	-136.885	-0.261	0.030
-669.076	-200.000	0.009	-0.264
-668.062	26.209	0.119	-0.099
-667.047	153.381	-0.166	-0.226
-666.032	203.911	-0.077	0.119
-665.018	91.787	0.225	-0.253
-664.003	367.286	-0.082	-0.164
-662.989	368.067	-0.076	-0.152
-661.974	800.000	0.071	0.264
-660.959	-200.000	0.004	0.160
-659.945	31.774	0.242	-0.208
-658.930	-47.828	-0.460	-0.222
-657.916	-29.890	0.034	-0.020
-656.901	29.696	-0.093	0.079
-655.886	-130.568	0.279	0.037
-654.872	-200.000	-0.039	-0.270
-653.857	-200.000	-0.081	-0.392
-652.843	-78.302	-0.152	-0.052
-651.828	598.525	-0.142	0.351
-650.814	-158.982	0.235	0.013
-649.799	-200.000	-0.038	-0.228
-648.784	-200.000	-0.059	-0.426
-647.770	-100.773	-0.085	-0.021
-646.755	201.194	0.127	0.195
-645.741	-132.837	-0.311	0.039
-644.726	-45.381	-0.136	-0.067
-643.711	266.386	0.156	0.271
-642.697	800.000	-0.023	-0.075
-641.682	-200.000	0.022	-0.172
-640.668	-125.782	0.263	0.040
-639.653	-4.798	-0.189	0.130
-638.638	47.571	-0.103	-0.096
-637.624	-99.046	-0.271	0.068
-636.609	-114.873	-0.363	0.069
-635.595	-64.811	0.146	-0.059
-634.580	60.403	-0.261	-0.257
-633.565	-32.755	-0.135	0.075
-632.551	192.801	0.023	0.035
-631.536	-123.371	-0.333	0.053
-630.522	79.501	-0.217	0.232
-629.507	-123.316	-0.157	-0.025
-628.492	800.000	-0.043	0.135
-627.478	-200.000	0.028	-0.181
-626.463	208.201	-0.167	0.259
-625.449	800.000	-0.032	-0.109
-624.434	-160.758	-0.052	0.003
-623.419	178.011	0.038	0.056
-622.405	450.925	0.137	-0.301
-621.390	-200.000	0.026	0.129
-620.376	-200.000	-0.023	0.158
-619.361	48.447	-0.076	-0.071
-618.346	800.000	0.073	-0.310
-617.332	-200.000	-0.032	-0.223
-616.317	49.656	-0.240	-0.225
-615.303	800.000	-0.038	-0.145
-614.288	72.403	-0.207	0.214
-613.273	240.781	-0.120	0.200
-612.259	-63.119	-0.088	0.036
-611.244	800.000	0.063	-0.233
-610.230	-93.439	-0.502	0.138
-609.215	361.474	-0.173	-0.344
-608.201	73.500	0.121	-0.126
-607.186	-200.000	-0.009	0.334
-606.171	479.318	-0.105	0.236
-605.157	50.519	0.203	-0.191
-604.142	-45.083	-0.118	0.058
-603.128	-200.000	-0.014	0.127
-602.113	139.126	-0.149	0.194
-601.098	157.303	-0.138	0.189
-600.084	-200.000	0.006	-0.057
-599.069	800.000	-0.061	-0.226
-598.055	-200.000	-0.039	-0.326
-597.040	33.337	0.063	0.054
-596.025	621.200	-0.044	-0.111
-595.011	-15.742	-0.265	0.167
-593.996	-200.000	0.015	-0.352
-592.982	-129.258	-0.212	-0.029
-591.967	-9.748	-0.113	0.075
-590.952	-122.968	-0.177	0.028
-589.938	51.954	-0.005	0.005
-588.923	274.228	-0.229	-0.403
-587.909	24.221	0.184	0.151
-586.894	-199.594	-0.242	0.001
-585.879	-161.748	0.102	0.005
-584.865	-75.805	0.210	-0.074
-583.850	-12.433	-0.092	-0.060
-582.836	18.702	-0.267	-0.212
-581.821	101.765	-0.013	0.015
-580.806	-9.765	0.404	0.267
-579.792	142.079	0.093	-0.123
-578.777	-200.000	0.019	0.197
-577.763	-2.799	0.148	-0.103
-576.748	-126.006	0.118	0.018
-575.733	86.352	0.201	0.220
-574.719	-87.379	-0.143	0.043
-573.704	52.878	-0.184	-0.174
-572.690	-200.000	0.022	-0.410
-571.675	800.000	0.143	-0.412
-570.661	225.413	-0.134	0.216
-569.646	19.298	0.109	0.087
-568.631	124.350	0.164	-0.204
-567.617	800.000	-0.036	-0.137
-566.602	-64.245	-0.174	-0.070
-565.588	-13.782	-0.122	-0.078
-564.573	-200.000	0.010	0.257
-563.558	-0.860	0.069	0.048
-562.544	-119.504	0.227	0.039
-561.529	1.833	-0.071	0.051
-560.515	-76.498	-0.137	0.048
-559.500	57.643	-0.405	-0.393
-558.485	447.870	-0.102	-0.222
-557.471	-18.634	0.027	0.017
-556.456	292.194	0.128	-0.230
-555.442	800.000	-0.078	0.243
-554.427	-149.728	-0.425	-0.033
-553.412	784.456	-0.011	0.031
-552.398	475.237	0.132	0.295
-551.383	341.852	0.217	-0.420
-550.369	-54.838	-0.122	-0.055
-549.354	286.585	-0.190	0.339
-548.339	146.899	-0.083	-0.111
-547.325	800.000	-0.076	0.328
-546.310	-200.000	-0.059	-0.357
-545.296	-28.977	0.161	-0.092
-544.281	169.076	0.094	-0.133
-543.266	-28.940	-0.270	-0.154
-542.252	-131.153	-0.085	-0.011
-541.237	-45.849	0.204	0.100
-540.223	-129.090	0.197	-0.027
-539.208	409.403	-0.215	-0.451
-538.193	-102.759	0.184	-0.043
-537.179	-200.000	0.028	-0.136
-536.164	-44.072	0.118	-0.059
-535.150	-67.997	0.205	-0.079
-534.135	373.697	0.154	-0.310
-533.121	-200.000	-0.038	0.174
-532.106	285.857	0.099	0.178
-531.091	28.908	-0.075	0.063
-530.077	-146.839	-0.265	0.023
-529.062	-200.000	0.018	0.126
-528.048	-10.799	0.154	-0.101
-527.033	-134.746	-0.329	0.040
-526.018	-132.888	-0.271	-0.034
-525.004	-84.184	0.245	0.077
-523.989	292.054	0.038	0.069
-522.975	46.114	-0.266	0.244
-521.960	-200.000	0.023	0.277
-520.945	102.213	-0.202	-0.234
-519.931	-110.818	0.308	0.063
-518.916	78.360	-0.096	0.101
-517.902	-83.561	0.232	-0.074
-516.887	-24.371	-0.274	-0.162
-515.872	132.317	-0.263	0.336
-514.858	-200.000	0.018	-0.221
-513.843	89.354	-0.275	-0.303
-512.829	-200.000	-0.037	0.383
-511.814	29.644	0.246	0.208
-510.799	800.000	-0.098	0.322
-509.785	112.907	0.125	-0.150
-508.770	388.062	-0.101	0.208
-507.756	-200.000	0.000	0.183
-506.741	-47.374	0.230	0.111
-505.726	800.000	0.067	0.268
-504.712	-64.387	0.106	0.043
-503.697	800.000	0.026	0.104
-502.683	45.219	0.284	0.259
-501.668	-72.981	0.366	0.133
-500.653	-97.370	0.068	0.017
-499.639	221.577	-0.092	0.146
-498.624	252.580	-0.133	-0.224
-497.610	11.995	0.381	-0.290
-496.595	-143.866	0.131	-0.012
-495.581	-200.000	0.039	-0.269
-494.566	800.000	0.082	-0.269
-493.551	-30.885	-0.214	-0.120
-492.537	598.462	0.115	0.282
-491.522	800.000	-0.020	-0.083
-490.508	-63.812	0.345	-0.140
-489.493	800.000	-0.129	-0.356
-488.478	-28.403	-0.417	-0.238
-487.464	-200.000	0.019	-0.366
-486.449	597.785	0.045	-0.111
-485.435	-84.447	-0.191	0.060
-484.420	7.865	0.335	-0.248
-483.405	-37.272	-0.082	0.043
-482.391	74.717	0.325	-0.339
-481.376	-118.912	-0.175	0.030
-480.362	-200.000	0.024	-0.120
-479.347	-159.139	0.257	-0.014
-478.332	90.659	0.127	0.141
-477.318	136.869	0.137	-0.177
-476.303	-83.735	-0.394	0.124
-475.289	-1.479	-0.144	0.101
-474.274	84.732	0.138	-0.150
-473.259	-68.932	-0.087	-0.033
-472.245	-200.000	0.061	-0.278
-471.230	-91.662	-0.102	0.029
-470.216	64.781	0.171	-0.170
-469.201	800.000	-0.069	0.207
-468.186	-200.000	-0.029	-0.271
-467.172	13.150	0.117	0.090
-466.157	-31.699	0.046	0.025
-465.143	28.185	0.263	0.219
-464.128	-129.440	-0.196	-0.027
-463.113	-200.000	-0.026	-0.114
-462.099	-200.000	-0.032	-0.331
-461.084	-57.233	0.225	0.098
-460.070	395.269	0.203	0.418
-459.055	675.761	0.027	-0.069
-458.040	-200.000	0.019	0.453
-457.026	-41.224	-0.241	0.123
-456.011	-116.619	0.364	0.066
-454.997	800.000	-0.093	0.287
-453.982	800.000	-0.076	0.322
-452.968	282.382	0.118	-0.209
-451.953	128.286	0.171	0.215
-450.938	-27.475	0.250	0.143
-449.924	289.335	-0.161	0.287
-448.909	499.506	-0.172	0.393
-447.895	-76.504	0.216	0.075
-446.880	-150.620	-0.304	0.023
-445.865	-78.492	0.162	-0.055
-444.851	-1.521	0.169	0.117
-443.836	13.970	-0.205	-0.157
-442.822	-76.561	0.375	-0.130
-441.807	65.095	-0.234	0.233
-440.792	-161.391	0.193	0.010
-439.778	-71.146	0.269	0.100
-438.763	234.464	-0.121	0.197
-437.749	-200.000	0.055	-0.381
-436.734	-163.458	-0.391	-0.018
-435.719	7.846	0.218	-0.161
-434.705	15.630	-0.260	-0.202
-433.690	149.398	-0.098	0.130
-432.676	123.934	0.049	0.061
-431.661	9.688	-0.405	-0.303
-430.646	288.285	-0.170	-0.303
-429.632	800.000	0.060	-0.170
-428.617	260.054	0.071	0.121
-427.603	-151.017	0.198	-0.015
-426.588	-92.751	0.349	0.096
-425.573	488.155	0.041	-0.093
-424.559	30.389	0.017	0.014
-423.544	-200.000	0.022	-0.175
-422.530	-200.000	-0.047	0.270
-421.515	-77.230	-0.279	-0.096
-420.500	-3.963	-0.173	0.119
-419.486	-200.000	0.007	-0.138
-418.471	120.116	-0.214	-0.262
-417.457	155.155	-0.129	-0.175
-416.442	-200.000	-0.036	-0.239
-415.428	-10.931	0.071	0.046
-414.413	229.188	0.122	-0.197
-413.398	-153.390	-0.177	0.012
-412.384	-111.873	0.355	0.071
-411.369	-112.734	-0.281	0.055
-410.355	-200.000	0.016	0.186
-409.340	-104.104	0.141	0.032
-408.325	-200.000	-0.000	-0.103
-407.311	493.039	0.188	-0.424
-406.296	-27.398	-0.124	-0.071
-405.282	61.344	-0.126	-0.124
-404.267	-100.064	-0.079	-0.019
-403.252	-116.629	0.182	0.033
-402.238	177.144	-0.090	-0.130
-401.223	-58.780	0.211	0.090
-400.209	-200.000	0.034	0.298
-399.194	-83.299	0.238	0.075
-398.179	714.845	-0.039	-0.102
-397.165	800.000	-0.081	-0.256
-396.150	-126.474	0.230	0.034
-395.136	191.604	-0.061	-0.090
-394.121	236.657	-0.061	-0.099
-393.106	13.414	0.146	0.112
-392.092	800.000	-0.054	-0.196
-391.077	-116.481	-0.347	-0.063
-390.063	-133.351	0.192	-0.024
-389.048	299.544	0.029	0.053
-388.033	142.184	-0.140	-0.183
-387.019	-200.000	0.028	0.262
-386.004	-200.000	-0.051	0.268
-384.990	-129.465	-0.399	0.055
-383.975	-200.000	0.055	0.442
-382.960	-33.114	0.350	-0.191
-381.946	-200.000	-0.023	0.115
-380.931	-61.341	0.244	-0.101
-379.917	22.707	0.280	0.226
-378.902	467.552	-0.035	0.076
-377.888	-200.000	-0.043	0.272
-376.873	-30.908	0.089	0.050
-375.858	-200.000	0.004	-0.178
-374.844	-110.039	-0.193	0.040
-373.829	-100.628	0.254	-0.062
-372.815	-200.000	0.044	-0.344
-371.800	82.999	-0.287	0.308
-370.785	344.860	-0.188	-0.364
-369.771	33.142	-0.131	0.112
-368.756	143.891	0.232	0.304
-367.742	-200.000	0.054	-0.348
-366.727	96.262	-0.153	-0.173
-365.712	156.096	0.116	0.158
-364.698	10.688	0.100	0.075
-363.683	-200.000	0.002	0.354
-362.669	-42.322	0.189	-0.095
-361.654	-89.925	0.106	-0.030
-360.639	14.944	-0.123	0.094
-359.625	-109.809	0.215	0.045
-358.610	800.000	0.088	-0.320
-357.596	800.000	0.039	-0.146
-356.581	800.000	-0.041	-0.125
-355.566	52.470	-0.270	0.253
-354.552	-70.284	0.372	0.139
-353.537	-200.000	0.061	-0.264
-352.523	6.427	0.263	0.192
-351.508	174.728	0.168	-0.239
-350.493	144.191	-0.255	-0.334
-349.479	-32.464	0.114	0.063
-348.464	-69.582	0.090	0.034
-347.450	52.146	0.073	0.068
-346.435	65.706	0.287	0.286
-345.420	-87.962	-0.153	0.045
-344.406	-110.072	0.292	0.060
-343.391	98.899	0.160	0.182
-342.377	103.403	-0.033	-0.038
-341.362	-76.938	-0.169	0.058
-340.348	-71.394	-0.264	0.097
-339.333	-2.986	0.144	0.099
-338.318	401.130	0.097	0.199
-337.304	210.273	0.068	-0.106
-336.289	212.544	0.185	0.287
-335.275	143.064	0.250	0.327
-334.260	366.298	-0.207	0.409
-333.245	-28.645	-0.130	0.074
-332.231	-136.032	-0.396	0.046
-331.216	-200.000	-0.036	-0.271
-330.202	5.196	0.082	0.060
-329.187	-200.000	-0.028	-0.163
-328.172	-200.000	-0.002	-0.285
-327.158	-200.000	-0.030	0.145
-326.143	-18.471	-0.092	-0.057
-325.129	559.374	-0.065	0.154
-324.114	-71.643	0.171	0.063
-323.099	756.550	0.051	0.136
-322.085	-46.617	-0.094	0.045
-321.070	-152.612	0.048	-0.003
-320.056	182.088	0.222	0.321
-319.041	-200.000	0.012	0.262
-318.026	153.789	0.222	0.299
-317.012	113.711	0.242	0.289
-315.997	-200.000	-0.011	-0.097
-314.983	800.000	0.049	-0.193
-313.968	-200.000	0.060	-0.343
-312.953	-111.120	-0.262	-0.053
-311.939	99.042	0.121	-0.137
-310.924	-200.000	0.018	0.175
-309.910	-76.288	0.192	0.067
-308.895	22.905	-0.021	-0.017
-307.880	-160.328	0.365	-0.019
-306.866	800.000	0.061	0.233
-305.851	515.872	0.034	-0.079
-304.837	-200.000	0.094	0.434
-303.822	-177.515	-0.274	-0.007
-302.807	-26.373	0.292	0.168
-301.793	-200.000	-0.014	0.247
-300.778	486.129	-0.106	0.238
-299.764	-105.948	-0.212	0.047
-298.749	289.971	-0.082	-0.147
-297.735	-57.465	0.099	-0.042
-296.720	-34.690	-0.103	-0.056
-295.705	313.206	0.044	0.082
-294.691	-52.050	0.142	0.065
-293.676	-116.608	-0.248	0.045
-292.662	132.418	-0.035	-0.044
-291.647	283.892	-0.178	0.315
-290.632	-130.530	0.209	-0.028
-289.618	-81.205	0.319	-0.103
-288.603	101.343	-0.186	0.213
-287.589	-200.000	0.009	-0.153
-286.574	45.341	0.217	-0.196
-285.559	-200.000	0.026	-0.111
-284.545	211.283	0.227	0.350
-283.530	245.873	0.097	0.160
-282.516	-200.000	0.055	-0.312
-281.501	23.169	-0.248	-0.200
-280.486	-200.000	0.049	0.436
-279.472	-200.000	0.043	-0.198
-278.457	800.000	-0.065	-0.211
-277.443	-137.295	-0.571	-0.064
-276.428	131.535	-0.013	0.016
-275.413	-200.000	0.044	-0.200
-274.399	244.185	0.141	0.232
-273.384	800.000	0.055	-0.193
-272.370	-169.045	0.131	0.005
-271.355	-200.000	0.027	0.195
-270.340	-39.022	-0.225	0.116
-269.326	164.758	0.066	-0.091
-268.311	-141.445	0.262	0.026
-267.297	244.714	0.014	-0.023
-266.282	-72.436	0.188	-0.068
-265.267	-159.088	0.077	0.004
-264.253	800.000	0.077	0.296
-263.238	800.000	0.030	0.129
-262.224	410.731	-0.140	-0.292
-261.209	338.630	0.196	-0.374
-260.195	-200.000	-0.036	-0.165
-259.180	-200.000	0.009	-0.058
-258.165	153.646	0.082	-0.110
-257.151	-169.110	-0.235	0.009
-256.136	-124.644	-0.086	-0.013
-255.122	-200.000	-0.190	0.000
-254.107	289.057	-0.066	-0.118
-253.092	295.920	-0.118	0.211
-252.078	74.435	0.230	-0.237
-251.063	-200.000	0.024	0.165
-250.049	-141.784	-0.132	0.013
-249.034	-33.767	-0.278	0.150
-248.019	-34.789	-0.058	-0.031
-247.005	-200.000	0.071	0.359
-245.990	-94.574	-0.242	-0.065
-244.976	593.896	-0.096	0.233
-243.961	26.664	-0.324	0.265
-242.946	-200.000	-0.046	-0.241
-241.932	386.325	0.175	-0.354
-240.917	-200.000	-0.013	-0.081
-239.903	-23.171	-0.101	-0.059
-238.888	-25.244	0.180	0.104
-237.873	601.519	0.012	0.029
-236.859	800.000	-0.063	-0.173
-235.844	800.000	-0.147	0.436
-234.830	-200.000	-0.020	0.254
-233.815	67.130	-0.100	-0.100
-232.800	-62.819	-0.209	0.085
-231.786	-200.000	0.003	0.325
-230.771	19.826	-0.094	0.074
-229.757	-176.164	-0.169	0.004
-228.742	-118.687	-0.102	-0.018
-227.727	-200.000	-0.032	-0.205
-226.713	662.490	0.128	-0.323
-225.698	113.422	-0.094	-0.111
-224.684	95.329	-0.163	0.182
-223.669	368.493	-0.029	-0.058
-222.655	-37.492	-0.059	0.031
-221.640	461.495	-0.047	-0.103
-220.625	-106.286	0.202	0.044
-219.611	-45.412	0.246	-0.119
-218.596	592.435	-0.174	0.420
-217.582	-191.307	-0.213	0.002
-216.567	3.689	0.150	0.107
-215.552	-200.000	-0.010	0.281
-214.538	-108.653	0.163	0.034
-213.523	261.030	-0.136	0.231
-212.509	-26.414	0.094	0.054
-211.494	-200.000	-0.031	-0.207
-210.479	-200.000	-0.058	0.305
-209.465	242.313	0.047	0.077
-208.450	800.000	-0.040	-0.155
-207.436	800.000	0.097	-0.262
-206.421	-17.493	0.404	0.248
-205.406	43.251	0.070	0.063
-204.392	-200.000	-0.003	-0.075
-203.377	-71.179	0.122	-0.045
-202.363	-24.595	-0.029	-0.017
-201.348	-98.133	-0.162	-0.041
-200.333	60.496	-0.155	-0.150
-199.319	663.585	0.140	-0.352
-198.304	-94.125	0.099	0.026
-197.290	292.910	-0.109	-0.194
-196.275	120.889	-0.293	0.356
-195.260	800.000	0.068	-0.287
-194.246	106.000	-0.044	0.051
-193.231	-19.883	-0.167	-0.101
-192.217	-178.479	0.292	0.007
-191.202	101.169	-0.191	-0.218
-190.187	342.462	-0.094	0.181
-189.173	190.523	0.197	0.289
-188.158	-200.000	-0.001	-0.132
-187.144	-63.057	0.307	0.124
-186.129	51.076	-0.221	0.205
-185.114	92.482	0.115	-0.127
-184.100	369.690	-0.101	0.201
-183.085	-200.000	-0.010	-0.141
-182.071	87.220	0.153	0.165
-181.056	-200.000	-0.026	0.177
-180.042	-90.463	-0.093	-0.026
-179.027	596.541	0.097	-0.235
-178.012	-142.992	0.151	0.014
-176.998	216.245	0.191	-0.297
-175.983	-101.183	0.246	0.059
-174.969	-48.270	0.208	-0.098
-173.954	370.379	0.106	0.209
-172.939	13.749	-0.091	0.069
-171.925	-98.029	-0.110	0.028
-170.910	800.000	0.088	-0.267
-169.896	-200.000	-0.043	0.265
-168.881	-25.137	-0.225	0.130
-167.866	79.530	0.204	0.214
-166.852	800.000	-0.056	0.175
-165.837	-200.000	0.019	-0.177
-164.823	-161.436	0.301	0.015
-163.808	233.627	0.196	-0.315
-162.793	-85.040	0.147	0.045
-161.779	-133.101	0.302	0.037
-160.764	-200.000	-0.015	-0.263
-159.750	-200.000	0.032	-0.144
-158.735	-22.195	-0.070	-0.042
-157.720	800.000	-0.042	-0.179
-156.706	118.828	0.072	0.087
-155.691	307.881	-0.033	0.061
-154.677	-200.000	-0.020	-0.295
-153.662	294.296	-0.127	-0.226
-152.647	-154.258	-0.227	-0.015
-151.633	-34.281	0.209	0.112
-150.618	-200.000	0.004	0.200
-149.604	-29.136	-0.168	-0.094
-148.589	-111.990	-0.023	-0.005
-147.574	733.684	0.069	-0.180
-146.560	-200.000	-0.011	0.071
-145.545	59.997	0.302	-0.292
-144.531	51.912	0.165	0.153
-143.516	337.201	0.096	0.183
-142.502	-173.494	-0.134	-0.004
-141.487	300.629	0.053	0.095
-140.472	800.000	-0.044	0.159
-139.458	265.170	0.090	-0.153
-138.443	713.255	0.102	0.265
-137.429	690.672	0.068	0.173
-136.414	-140.110	0.400	0.041
-135.399	-91.642	0.184	0.051
-134.385	-126.348	0.187	0.027
-133.370	70.939	0.101	0.102
-132.356	365.626	0.062	-0.122
-131.341	-38.783	-0.118	0.060
-130.326	-200.000	0.008	-0.069
-129.312	-200.000	0.001	0.076
-128.297	-121.681	-0.061	0.010
-127.283	26.831	-0.326	-0.267
-126.268	-200.000	-0.019	-0.153
-125.253	-120.930	0.157	0.026
-124.239	92.362	0.048	0.053
-123.224	270.425	0.239	0.410
-122.210	245.001	0.150	0.246
-121.195	799.358	0.017	0.046
