DTS Sentinel unit serial number:	SN413079Multiplexer serial number:	ORYXHardware model number:	OX4-SRSoftware version number:	ORYX F/W v4.00 Oryx Data Collector v3.7.2.0data status	okinstallation	princeton_trtdifferential loss correction	single-endedforward channel	channel 2reverse channel	N/Adate	2019/09/13time	13:23:34forward acquisition time	60.00reverse acquisition time	0.00gamma	496.2192k internal	0.2315k external	0.2315temperature offset calibration	1.0210default loss term (dB/km)	0.3790temperature slope calibration	1.0000multiplexer offset coefficient	1.0000multiplexer slope coefficient	1.0000fibre end	0.00T internal ref (°C)	35.00T ext. ref 1 (°C)	4.57T ext. ref 2 (°C)	31.10length (m)	temperature (°C)	Stokes	anti-Stokes-747.200	-40.508	-0.115	0.060
-746.185	-1.359	-0.271	0.194
-745.171	-53.797	-0.275	0.127
-744.156	423.165	-0.082	0.178
-743.142	-55.611	0.199	0.090
-742.127	-68.376	0.187	-0.074
-741.112	-200.000	0.108	0.521
-740.098	215.056	-0.065	-0.105
-739.083	-116.209	-0.318	0.060
-738.069	267.008	-0.068	0.121
-737.054	-200.000	-0.011	0.164
-736.039	-200.000	-0.043	-0.329
-735.025	-124.497	-0.202	-0.032
-734.010	-86.785	-0.262	0.081
-732.996	-200.000	-0.016	-0.196
-731.981	800.000	-0.039	0.138
-730.966	-91.785	-0.284	0.082
-729.952	-47.936	-0.298	0.146
-728.937	120.791	-0.061	0.077
-727.923	12.268	0.367	-0.286
-726.908	-200.000	0.023	-0.392
-725.894	-85.913	0.100	-0.031
-724.879	-94.922	-0.009	0.003
-723.864	-90.450	-0.092	0.027
-722.850	-88.596	-0.274	0.083
-721.835	-65.001	-0.124	0.051
-720.821	12.863	-0.088	-0.069
-719.806	-190.777	0.372	-0.004
-718.791	-103.786	-0.037	0.009
-717.777	95.284	0.161	-0.186
-716.762	117.449	-0.105	0.131
-715.748	-82.575	0.042	-0.014
-714.733	65.716	0.217	0.223
-713.718	800.000	0.104	0.376
-712.704	48.401	-0.135	-0.128
-711.689	152.811	-0.106	0.146
-710.675	-94.519	-0.185	-0.051
-709.660	800.000	-0.022	-0.065
-708.645	249.915	0.155	0.267
-707.631	46.301	-0.341	0.320
-706.616	-73.522	0.243	-0.090
-705.602	364.144	0.094	-0.192
-704.587	571.899	0.114	0.281
-703.572	800.000	-0.045	-0.163
-702.558	800.000	0.089	-0.274
-701.543	5.757	-0.106	0.080
-700.529	202.191	-0.132	0.206
-699.514	800.000	-0.032	-0.139
-698.499	-200.000	0.014	-0.298
-697.485	-37.877	-0.202	-0.109
-696.470	-200.000	0.008	0.485
-695.456	-88.242	0.271	-0.082
-694.441	800.000	-0.037	-0.108
-693.426	-200.000	0.010	-0.080
-692.412	800.000	0.050	-0.220
-691.397	298.352	-0.048	-0.090
-690.383	58.589	0.190	-0.189
-689.368	-53.368	0.134	-0.062
-688.354	11.583	0.309	-0.240
-687.339	12.439	0.178	0.139
-686.324	-144.905	0.230	0.021
-685.310	-162.618	-0.390	-0.019
-684.295	-200.000	-0.004	-0.074
-683.281	203.987	0.024	0.038
-682.266	-4.979	0.089	0.062
-681.251	65.345	0.058	0.059
-680.237	-90.027	-0.382	0.113
-679.222	-118.657	0.268	-0.048
-678.208	-200.000	0.001	-0.017
-677.193	-200.000	0.015	0.312
-676.178	37.752	0.163	-0.146
-675.164	-44.371	-0.064	0.032
-674.149	12.543	-0.264	0.206
-673.135	-200.000	0.057	-0.332
-672.120	-200.000	-0.009	-0.289
-671.105	-200.000	-0.035	-0.329
-670.091	80.831	0.016	0.017
-669.076	-67.644	-0.123	0.049
-668.062	143.793	-0.138	-0.186
-667.047	-10.210	-0.204	0.137
-666.032	71.354	0.171	-0.179
-665.018	-200.000	0.007	-0.140
-664.003	222.371	0.189	-0.308
-662.989	535.395	0.044	0.106
-661.974	-200.000	0.056	-0.265
-660.959	-173.125	-0.105	0.003
-659.945	283.599	0.094	-0.170
-658.930	-104.595	-0.222	0.052
-657.916	-79.811	0.160	0.054
-656.901	58.129	-0.209	-0.207
-655.886	-200.000	0.058	-0.286
-654.872	74.470	-0.013	0.014
-653.857	-200.000	0.019	0.191
-652.843	404.973	-0.051	-0.109
-651.828	-85.717	0.205	-0.064
-650.814	-200.000	-0.002	-0.085
-649.799	373.381	0.046	0.095
-648.784	-7.802	0.198	0.135
-647.770	-81.613	0.226	-0.075
-646.755	800.000	0.010	-0.030
-645.741	-124.589	-0.358	-0.056
-644.726	-24.038	0.158	0.096
-643.711	-200.000	-0.002	0.119
-642.697	82.588	0.289	-0.317
-641.682	-106.022	0.203	0.046
-640.668	800.000	0.057	-0.245
-639.653	-124.011	-0.302	-0.048
-638.638	-200.000	-0.006	-0.528
-637.624	185.518	-0.148	-0.222
-636.609	137.969	-0.042	-0.055
-635.595	800.000	0.056	-0.193
-634.580	290.223	-0.164	-0.301
-633.565	-145.502	0.014	0.001
-632.551	-86.055	-0.423	0.132
-631.536	-45.195	-0.065	-0.032
-630.522	-62.408	0.253	0.106
-629.507	247.981	-0.088	0.151
-628.492	146.855	-0.063	0.085
-627.478	571.581	0.043	0.107
-626.463	-102.624	0.085	0.020
-625.449	92.254	-0.130	-0.147
-624.434	-91.856	0.179	-0.051
-623.419	-57.366	0.103	0.046
-622.405	800.000	-0.005	0.020
-621.390	345.648	0.068	0.135
-620.376	-100.933	-0.211	-0.052
-619.361	137.258	0.069	-0.091
-618.346	-187.670	0.268	0.004
-617.332	-166.856	0.181	-0.008
-616.317	-200.000	-0.009	0.123
-615.303	-200.000	-0.007	0.172
-614.288	800.000	-0.052	0.184
-613.273	800.000	-0.088	0.307
-612.259	120.197	0.115	-0.144
-611.244	351.647	-0.251	0.501
-610.230	-82.282	-0.199	-0.065
-609.215	-82.709	-0.197	0.064
-608.201	-200.000	-0.036	0.362
-607.186	-67.065	-0.300	0.119
-606.171	70.317	0.221	-0.230
-605.157	-200.000	-0.007	0.046
-604.142	1.318	0.109	0.079
-603.128	408.150	-0.126	0.269
-602.113	-136.388	-0.248	-0.029
-601.098	401.913	0.134	-0.284
-600.084	343.186	-0.099	0.196
-599.069	-100.503	-0.237	-0.059
-598.055	-58.267	0.108	-0.047
-597.040	80.504	0.102	-0.111
-596.025	94.952	-0.053	-0.060
-595.011	-84.177	0.203	-0.065
-593.996	-57.001	0.162	0.072
-592.982	-200.000	-0.018	0.142
-591.967	-64.092	-0.209	0.086
-590.952	-14.429	0.137	-0.089
-589.938	-134.997	-0.253	0.031
-588.923	-5.759	0.101	-0.069
-587.909	800.000	0.064	-0.192
-586.894	665.199	-0.080	-0.208
-585.879	-88.016	-0.235	-0.071
-584.865	417.980	0.097	-0.210
-583.850	15.194	-0.123	0.097
-582.836	67.151	0.220	0.226
-581.821	800.000	-0.038	0.115
-580.806	-47.995	0.172	0.084
-579.792	-200.000	-0.001	-0.221
-578.777	23.153	0.192	0.159
-577.763	-200.000	-0.012	-0.092
-576.748	-23.790	0.272	-0.164
-575.733	315.191	-0.091	-0.172
-574.719	-6.677	0.081	-0.056
-573.704	-103.392	0.428	0.101
-572.690	-128.784	0.124	-0.018
-571.675	-200.000	0.027	0.343
-570.661	-55.137	-0.288	-0.130
-569.646	-200.000	0.008	0.160
-568.631	132.698	-0.042	0.055
-567.617	-200.000	0.014	0.066
-566.602	-60.740	0.130	0.056
-565.588	-70.198	0.155	-0.059
-564.573	24.591	0.115	0.096
-563.558	-200.000	0.016	0.232
-562.544	-63.908	0.161	-0.066
-561.529	9.675	0.100	-0.076
-560.515	-40.678	0.208	-0.109
-559.500	268.717	0.049	-0.087
-558.485	-79.102	0.160	-0.055
-557.471	226.480	-0.057	-0.093
-556.456	-200.000	0.049	-0.298
-555.442	-155.540	-0.320	0.021
-554.427	434.403	0.142	-0.310
-553.412	242.411	-0.175	-0.294
-552.398	800.000	-0.039	0.128
-551.383	-200.000	0.019	-0.271
-550.369	-62.734	-0.073	0.030
-549.354	118.261	-0.065	-0.081
-548.339	143.433	-0.141	0.189
-547.325	412.870	-0.062	0.132
-546.310	200.968	-0.138	-0.214
-545.296	-200.000	-0.010	0.169
-544.281	132.825	0.192	-0.249
-543.266	-200.000	-0.023	-0.282
-542.252	-113.604	0.119	0.023
-541.237	-137.583	-0.438	-0.050
-540.223	226.457	0.173	-0.283
-539.208	150.257	-0.114	-0.156
-538.193	540.763	0.047	0.111
-537.179	-33.226	-0.221	0.123
-536.164	-105.923	-0.142	0.032
-535.150	-153.843	-0.403	0.028
-534.135	800.000	-0.084	-0.324
-533.121	-39.644	0.128	-0.067
-532.106	-200.000	0.026	-0.142
-531.091	195.105	-0.232	-0.354
-530.077	-58.158	0.181	0.079
-529.062	517.041	0.102	-0.239
-528.048	146.102	-0.154	0.208
-527.033	-200.000	0.010	-0.089
-526.018	-200.000	0.046	-0.434
-525.004	6.441	-0.175	-0.131
-523.989	-114.365	-0.075	0.014
-522.975	147.189	0.106	-0.143
-521.960	-80.003	0.206	0.069
-520.945	-200.000	-0.012	0.274
-519.931	-200.000	-0.003	-0.433
-518.916	-81.914	0.193	-0.063
-517.902	-200.000	-0.029	0.146
-516.887	160.135	0.070	0.097
-515.872	29.099	-0.128	0.109
-514.858	50.855	0.199	0.190
-513.843	75.395	-0.192	-0.204
-512.829	43.910	0.073	-0.067
-511.814	181.957	0.035	0.051
-510.799	-86.704	-0.112	-0.034
-509.785	-78.738	0.148	0.051
-508.770	636.587	0.129	0.328
-507.756	-38.989	0.161	0.085
-506.741	800.000	-0.048	0.151
-505.726	-159.969	-0.244	0.013
-504.712	800.000	-0.092	0.327
-503.697	53.217	-0.069	0.066
-502.683	-200.000	-0.018	-0.391
-501.668	-32.245	0.121	0.068
-500.653	-200.000	0.100	0.448
-499.639	-136.890	0.242	0.028
-498.624	130.403	0.159	0.204
-497.610	800.000	0.064	-0.188
-496.595	800.000	-0.052	-0.180
-495.581	-200.000	-0.005	0.135
-494.566	-96.326	0.151	0.040
-493.551	-42.406	-0.113	-0.058
-492.537	-160.239	-0.530	0.029
-491.522	34.399	0.109	0.096
-490.508	-16.142	0.171	0.109
-489.493	800.000	0.119	0.343
-488.478	-200.000	0.002	-0.064
-487.464	215.726	0.095	-0.152
-486.449	-43.597	0.241	0.122
-485.435	-200.000	-0.014	-0.097
-484.420	47.074	0.052	-0.048
-483.405	126.206	0.172	-0.218
-482.391	-200.000	-0.062	-0.277
-481.376	-45.687	0.009	-0.004
-480.362	-200.000	0.033	0.158
-479.347	-200.000	-0.007	0.064
-478.332	-17.431	0.150	0.094
-477.318	38.582	0.354	0.316
-476.303	-20.944	0.145	-0.089
-475.289	192.045	-0.140	0.212
-474.274	-42.708	-0.060	-0.031
-473.259	19.393	-0.311	-0.251
-472.245	-25.809	-0.144	0.085
-471.230	-0.151	0.103	0.073
-470.216	-132.655	-0.210	0.027
-469.201	-72.942	0.240	-0.088
-468.186	303.184	0.080	-0.149
-467.172	-160.310	-0.240	0.013
-466.157	-119.424	0.096	0.017
-465.143	800.000	0.055	-0.202
-464.128	240.369	-0.079	-0.132
-463.113	-17.244	-0.151	0.095
-462.099	-89.117	-0.231	0.069
-461.084	-77.663	0.288	-0.100
-460.070	-88.585	-0.356	-0.106
-459.055	800.000	0.033	0.140
-458.040	88.852	-0.102	0.114
-457.026	-144.402	-0.387	-0.036
-456.011	-200.000	-0.012	-0.205
-454.997	-200.000	-0.013	0.118
-453.982	674.799	-0.157	-0.408
-452.968	-125.548	-0.359	-0.055
-451.953	-106.048	0.143	0.032
-450.938	65.621	-0.184	0.186
-449.924	-57.517	-0.127	0.056
-448.909	-63.279	-0.223	-0.092
-447.895	-62.646	-0.362	0.150
-446.880	-92.958	0.350	0.098
-445.865	-98.758	0.205	0.052
-444.851	-17.932	0.102	-0.064
-443.836	253.423	0.149	-0.255
-442.822	-111.014	-0.431	-0.089
-441.807	333.813	-0.053	-0.104
-440.792	146.769	0.220	0.296
-439.778	2.947	0.243	-0.177
-438.763	123.812	-0.049	0.062
-437.749	-200.000	0.007	-0.048
-436.734	-200.000	-0.019	0.203
-435.719	176.948	-0.153	0.223
-434.705	-92.676	0.338	-0.095
-433.690	160.506	-0.081	0.113
-432.676	279.522	0.093	0.166
-431.661	-74.108	0.225	0.081
-430.646	-89.101	0.199	-0.059
-429.632	800.000	-0.064	-0.200
-428.617	498.311	0.114	0.263
-427.603	-76.329	0.299	-0.105
-426.588	-200.000	0.008	0.134
-425.573	-200.000	0.045	0.286
-424.559	-166.028	0.012	0.000
-423.544	504.472	-0.048	-0.112
-422.530	-106.675	0.122	-0.027
-421.515	-48.831	-0.125	-0.060
-420.500	-29.995	0.293	0.167
-419.486	74.481	-0.389	-0.409
-418.471	-62.391	-0.119	-0.049
-417.457	-136.407	-0.233	0.027
-416.442	-143.717	0.348	0.033
-415.428	-129.610	-0.238	0.033
-414.413	305.433	-0.143	0.267
-413.398	-81.004	0.248	0.082
-412.384	-200.000	0.039	-0.281
-411.369	-126.759	0.281	-0.042
-410.355	48.166	-0.046	0.043
-409.340	-172.121	-0.184	-0.006
-408.325	-200.000	-0.062	-0.366
-407.311	-20.542	0.352	-0.216
-406.296	-73.711	-0.373	0.136
-405.282	259.192	-0.151	0.261
-404.267	-60.714	-0.181	0.077
-403.252	157.648	-0.111	0.154
-402.238	167.066	-0.112	-0.159
-401.223	19.521	0.154	-0.124
-400.209	444.797	-0.166	0.364
-399.194	-135.192	-0.058	0.007
-398.179	159.808	0.104	-0.145
-397.165	50.642	-0.165	-0.156
-396.150	-46.208	0.124	-0.061
-395.136	-72.435	0.216	-0.080
-394.121	14.475	0.068	0.053
-393.106	-183.088	-0.284	-0.005
-392.092	37.051	-0.210	-0.186
-391.077	163.321	0.280	0.393
-390.063	-20.950	0.306	-0.187
-389.048	800.000	0.071	-0.258
-388.033	290.775	0.132	-0.239
-387.019	306.320	-0.044	0.082
-386.004	-200.000	-0.062	0.483
-384.990	-91.572	0.172	-0.049
-383.975	48.414	-0.106	0.099
-382.960	88.370	0.080	0.088
-381.946	-69.542	-0.347	0.133
-380.931	-155.610	0.065	-0.004
-379.917	387.212	0.063	0.131
-378.902	-39.441	0.187	0.098
-377.888	-95.220	-0.186	0.050
-376.873	38.085	0.162	0.144
-375.858	47.556	0.089	-0.083
-374.844	800.000	0.014	0.042
-373.829	289.511	0.025	-0.046
-372.815	187.048	0.236	0.351
-371.800	295.009	-0.086	0.157
-370.785	-26.273	-0.357	0.209
-369.771	-47.375	-0.219	0.106
-368.756	-41.148	-0.247	0.127
-367.742	-48.172	0.404	-0.195
-366.727	468.038	0.031	-0.070
-365.712	704.070	-0.079	-0.207
-364.698	-114.445	0.341	0.065
-363.683	-33.423	0.223	-0.123
-362.669	-163.219	-0.124	-0.006
-361.654	800.000	-0.063	-0.248
-360.639	369.425	-0.088	-0.179
-359.625	-102.659	-0.036	-0.009
-358.610	564.536	0.047	-0.113
-357.596	9.951	0.219	0.166
-356.581	112.617	-0.140	0.170
-355.566	362.920	0.229	-0.460
-354.552	-200.000	0.023	-0.188
-353.537	69.447	-0.068	-0.069
-352.523	43.631	0.258	-0.235
-351.508	-38.780	-0.054	-0.028
-350.493	-130.407	-0.433	0.059
-349.479	-42.066	-0.177	0.090
-348.464	800.000	0.064	0.179
-347.450	-200.000	0.006	0.146
-346.435	-200.000	0.021	0.216
-345.420	-200.000	-0.011	0.000
-344.406	-23.644	-0.053	0.032
-343.391	269.915	-0.017	-0.030
-342.377	111.311	-0.125	-0.150
-341.362	-122.559	0.127	0.021
-340.348	-200.000	0.031	0.224
-339.333	2.703	-0.044	-0.032
-338.318	-200.000	-0.001	-0.114
-337.304	-97.642	-0.354	0.092
-336.289	-13.774	0.015	-0.010
-335.275	-200.000	-0.023	0.270
-334.260	87.260	-0.312	0.344
-333.245	-35.656	-0.204	0.111
-332.231	614.694	-0.047	-0.116
-331.216	-18.380	-0.032	0.020
-330.202	314.730	0.130	0.244
-329.187	-82.712	0.166	0.054
-328.172	26.270	0.094	-0.079
-327.158	-55.383	0.081	0.036
-326.143	-81.800	0.173	-0.056
-325.129	-200.000	-0.020	-0.272
-324.114	-57.345	-0.213	0.093
-323.099	-200.000	0.023	-0.312
-322.085	-200.000	-0.009	-0.168
-321.070	-48.566	0.203	-0.097
-320.056	367.604	0.051	0.103
-319.041	-123.269	-0.062	0.010
-318.026	-200.000	0.000	0.120
-317.012	-42.774	0.228	-0.116
-315.997	-110.654	0.197	0.040
-314.983	-51.466	0.119	0.055
-313.968	800.000	-0.023	0.088
-312.953	-29.163	-0.321	0.183
-311.939	800.000	0.050	-0.141
-310.924	-199.520	-0.163	-0.001
-309.910	800.000	0.111	0.311
-308.895	55.800	0.089	0.086
-307.880	34.849	0.117	0.102
-306.866	118.961	-0.187	0.230
-305.851	-95.435	-0.266	0.071
-304.837	-24.621	-0.155	-0.092
-303.822	-2.952	0.129	-0.090
-302.807	36.475	-0.174	-0.153
-301.793	800.000	0.042	-0.125
-300.778	436.947	-0.020	0.043
-299.764	-48.954	-0.398	0.190
-298.749	-89.277	-0.232	0.068
-297.735	-177.845	0.118	0.003
-296.720	295.269	-0.051	0.093
-295.705	-32.766	0.262	0.145
-294.691	290.534	-0.162	0.292
-293.676	-162.756	-0.164	-0.008
-292.662	23.159	0.162	-0.132
-291.647	-200.000	0.031	-0.209
-290.632	-200.000	0.019	-0.197
-289.618	7.438	-0.210	0.156
-288.603	-37.422	-0.055	-0.029
-287.589	113.286	0.153	-0.185
-286.574	81.008	-0.147	-0.157
-285.559	38.680	0.093	0.083
-284.545	-200.000	-0.010	-0.109
-283.530	108.297	0.043	0.051
-282.516	-200.000	-0.049	0.331
-281.501	73.439	0.049	-0.051
-280.486	-48.326	-0.295	0.141
-279.472	210.769	0.119	0.186
-278.457	594.703	-0.030	-0.074
-277.443	92.779	-0.212	-0.238
-276.428	128.217	0.133	-0.168
-275.413	144.131	0.158	0.210
-274.399	508.360	0.053	0.123
-273.384	-54.272	0.281	-0.127
-272.370	-93.666	-0.279	0.077
-271.355	23.081	-0.184	-0.150
-270.340	-113.949	0.506	0.098
-269.326	34.388	0.183	-0.159
-268.311	2.096	-0.206	0.148
-267.297	19.077	0.174	-0.139
-266.282	19.527	-0.326	0.261
-265.267	318.697	0.094	0.178
-264.253	-152.892	0.189	-0.013
-263.238	111.290	-0.094	0.113
-262.224	296.782	-0.141	-0.257
-261.209	800.000	-0.040	-0.129
-260.195	294.038	-0.170	-0.308
-259.180	154.961	-0.070	0.096
-258.165	-200.000	-0.036	0.190
-257.151	-132.535	0.201	-0.026
-256.136	52.614	-0.085	0.081
-255.122	-64.838	-0.308	-0.124
-254.107	-65.263	0.162	0.065
-253.092	-200.000	0.002	0.071
-252.078	-200.000	0.001	0.177
-251.063	-28.746	-0.159	0.091
-250.049	-6.290	0.288	0.196
-249.034	-104.654	-0.190	-0.043
-248.019	426.524	-0.088	-0.188
-247.005	800.000	-0.060	-0.169
-245.990	-139.333	0.243	0.026
-244.976	-143.958	0.141	0.013
-243.961	-200.000	0.023	-0.174
-242.946	636.370	-0.058	0.147
-241.932	-56.773	-0.201	-0.088
-240.917	452.776	-0.050	-0.109
-239.903	50.592	0.037	-0.035
-238.888	476.504	0.021	-0.047
-237.873	-96.628	-0.058	-0.015
-236.859	279.566	-0.048	-0.084
-235.844	-200.000	-0.051	-0.000
-234.830	774.401	-0.096	0.260
-233.815	-40.492	0.275	-0.142
-232.800	32.288	0.070	0.060
-231.786	108.016	-0.051	0.060
-230.771	-200.000	0.017	-0.106
-229.757	199.882	0.176	-0.268
-228.742	-200.000	-0.021	0.137
-227.727	-200.000	0.043	0.207
-226.713	800.000	0.127	-0.365
-225.698	-200.000	0.043	-0.353
-224.684	-133.303	0.197	0.025
-223.669	-68.955	-0.139	0.053
-222.655	64.510	0.137	-0.137
-221.640	-74.219	0.110	-0.039
-220.625	-200.000	-0.003	0.070
-219.611	519.730	-0.127	0.295
-218.596	64.881	-0.152	0.152
-217.582	-44.917	0.253	-0.125
-216.567	-69.758	0.127	-0.048
-215.552	-200.000	0.070	0.383
-214.538	102.699	0.075	0.087
-213.523	-200.000	0.001	0.115
-212.509	-104.086	0.237	-0.055
-211.494	-128.076	0.420	-0.060
-210.479	800.000	-0.038	-0.129
-209.465	-189.287	-0.211	-0.002
-208.450	-33.664	-0.352	-0.193
-207.436	-26.360	0.170	-0.099
-206.421	-65.296	0.183	0.073
-205.406	230.414	-0.064	-0.104
-204.392	10.564	-0.094	0.071
-203.377	-87.356	0.085	0.026
-202.363	-200.000	0.004	-0.480
-201.348	-22.653	0.256	-0.153
-200.333	-200.000	-0.091	0.000
-199.319	-134.999	-0.267	-0.032
-198.304	-140.843	0.228	-0.023
-197.290	77.085	-0.084	-0.088
-196.275	327.372	0.101	-0.192
-195.260	-82.856	0.251	0.080
-194.246	38.562	0.139	0.123
-193.231	197.606	-0.096	-0.145
-192.217	136.791	0.123	-0.160
-191.202	2.711	0.264	-0.190
-190.187	144.740	0.222	-0.295
-189.173	-103.816	0.054	-0.012
-188.158	-21.699	0.200	-0.121
-187.144	-200.000	-0.014	0.155
-186.129	412.008	0.106	0.223
-185.114	20.575	-0.051	-0.041
-184.100	-200.000	0.008	-0.189
-183.085	291.349	-0.216	0.389
-182.071	-44.236	-0.098	-0.049
-181.056	186.695	-0.028	0.041
-180.042	800.000	-0.131	0.450
-179.027	331.431	0.075	-0.144
-178.012	47.209	-0.149	-0.138
-176.998	-62.507	-0.174	0.072
-175.983	547.963	-0.177	0.421
-174.969	104.824	-0.081	-0.095
-173.954	-200.000	0.000	-0.121
-172.939	-18.423	-0.128	0.079
-171.925	-134.703	0.280	-0.034
-170.910	-200.000	0.028	-0.316
-169.896	-113.820	0.208	-0.040
-168.881	-155.338	-0.192	0.012
-167.866	-14.222	0.100	-0.064
-166.852	-11.436	-0.309	-0.201
-165.837	800.000	0.070	0.218
-164.823	-200.000	-0.206	-0.000
-163.808	-200.000	-0.015	0.089
-162.793	-125.176	0.063	0.010
-161.779	105.254	0.022	0.025
-160.764	128.609	-0.251	0.317
-159.750	454.040	-0.060	0.132
-158.735	-99.841	0.100	-0.025
-157.720	155.554	-0.235	0.320
-156.706	226.446	-0.159	-0.255
-155.691	61.688	-0.217	0.214
-154.677	194.220	0.118	0.177
-153.662	24.330	0.149	0.122
-152.647	-200.000	0.004	0.152
-151.633	-77.235	0.144	0.050
-150.618	-132.182	-0.067	-0.009
-149.604	557.266	-0.106	-0.253
-148.589	-156.110	-0.310	-0.019
-147.574	9.051	0.074	-0.055
-146.560	-200.000	0.025	-0.158
-145.545	197.642	0.120	-0.182
-144.531	-36.173	0.310	-0.165
-143.516	-5.101	-0.238	0.162
-142.502	-200.000	0.002	0.045
-141.487	-49.875	0.163	0.077
-140.472	-19.499	0.237	-0.145
-139.458	-108.112	0.100	-0.021
-138.443	-119.630	-0.187	-0.032
-137.429	106.823	0.084	0.098
-136.414	13.299	-0.070	-0.054
-135.399	622.306	0.145	0.362
-134.385	218.119	0.129	0.203
-133.370	68.799	-0.311	-0.316
-132.356	124.115	0.158	0.197
-131.341	628.577	0.108	-0.270
-130.326	-200.000	-0.051	-0.316
-129.312	800.000	-0.089	0.264
-128.297	-38.989	-0.122	-0.064
-127.283	712.069	-0.174	-0.456
-126.268	657.972	-0.096	-0.243
-125.253	-200.000	-0.014	0.293
-124.239	800.000	-0.075	-0.319
-123.224	-8.234	0.226	-0.150
-122.210	120.909	-0.016	0.020
-121.195	484.534	0.142	-0.320
