DTS Sentinel unit serial number:	SN413079Multiplexer serial number:	ORYXHardware model number:	OX4-SRSoftware version number:	ORYX F/W v4.00 Oryx Data Collector v3.7.2.0data status	okinstallation	princeton_trtdifferential loss correction	single-endedforward channel	channel 2reverse channel	N/Adate	2019/09/14time	16:39:35forward acquisition time	60.00reverse acquisition time	0.00gamma	496.2192k internal	0.2307k external	0.2307temperature offset calibration	1.0122default loss term (dB/km)	0.3790temperature slope calibration	1.0000multiplexer offset coefficient	1.0000multiplexer slope coefficient	1.0000fibre end	0.00T internal ref (°C)	38.00T ext. ref 1 (°C)	5.04T ext. ref 2 (°C)	33.62length (m)	temperature (°C)	Stokes	anti-Stokes-747.200	-200.000	0.005	0.182
-746.185	-70.144	0.351	-0.136
-745.171	433.297	0.054	-0.119
-744.156	2.333	0.235	0.173
-743.142	-48.018	-0.185	-0.091
-742.127	144.720	0.023	0.032
-741.112	800.000	-0.021	0.072
-740.098	-17.267	-0.265	-0.170
-739.083	-51.351	0.162	0.077
-738.069	-200.000	-0.015	0.110
-737.054	-75.203	-0.332	0.121
-736.039	-120.163	-0.112	-0.019
-735.025	-100.467	0.211	0.053
-734.010	-200.000	0.013	-0.204
-732.996	-35.257	-0.138	-0.077
-731.981	-49.713	-0.331	-0.160
-730.966	800.000	0.066	-0.256
-729.952	-45.819	0.127	-0.064
-728.937	216.863	0.092	0.149
-727.923	-163.645	0.159	-0.008
-726.908	-49.886	-0.212	0.102
-725.894	233.559	-0.034	-0.057
-724.879	216.553	-0.084	-0.135
-723.864	-87.153	-0.314	0.097
-722.850	-58.350	-0.083	-0.037
-721.835	-31.516	-0.288	0.165
-720.821	-78.510	-0.370	0.129
-719.806	166.954	-0.168	-0.243
-718.791	-97.420	0.022	0.006
-717.777	-21.849	-0.291	0.180
-716.762	-200.000	-0.005	-0.096
-715.748	474.825	-0.040	-0.092
-714.733	671.968	-0.035	0.093
-713.718	-98.774	-0.130	0.034
-712.704	-123.492	0.365	0.059
-711.689	267.909	-0.088	-0.157
-710.675	-200.000	-0.003	-0.055
-709.660	303.509	-0.046	0.086
-708.645	-84.911	-0.077	0.024
-707.631	-46.614	0.150	-0.075
-706.616	-53.622	-0.214	-0.100
-705.602	-51.243	0.153	-0.073
-704.587	-152.581	-0.358	-0.026
-703.572	-169.125	0.227	0.009
-702.558	-200.000	0.009	-0.181
-701.543	572.941	0.049	-0.121
-700.529	-18.936	0.342	-0.216
-699.514	238.452	0.230	-0.387
-698.499	9.064	-0.184	0.141
-697.485	-200.000	-0.041	-0.290
-696.470	655.083	0.148	-0.386
-695.456	80.984	0.136	-0.148
-694.441	176.590	0.222	-0.327
-693.426	74.708	-0.114	-0.122
-692.412	-3.217	-0.073	0.052
-691.397	36.299	-0.138	0.124
-690.383	304.134	0.067	0.126
-689.368	180.739	0.102	-0.152
-688.354	136.855	-0.081	0.107
-687.339	-147.931	0.187	0.016
-686.324	108.401	-0.268	0.325
-685.310	-200.000	-0.047	0.415
-684.295	-21.842	-0.226	0.140
-683.281	-161.586	0.237	-0.012
-682.266	-166.347	0.320	-0.014
-681.251	-52.108	-0.312	0.147
-680.237	-200.000	-0.018	0.191
-679.222	234.267	-0.134	0.224
-678.208	401.025	-0.113	0.242
-677.193	29.979	-0.212	-0.184
-676.178	-200.000	-0.035	0.276
-675.164	-200.000	-0.005	0.064
-674.149	800.000	0.095	-0.326
-673.135	96.339	0.157	-0.182
-672.120	32.322	-0.148	-0.129
-671.105	-85.588	-0.216	0.068
-670.091	263.196	-0.044	0.078
-669.076	167.811	-0.139	0.200
-668.062	-200.000	0.017	0.250
-667.047	146.645	0.028	-0.039
-666.032	-200.000	-0.020	-0.335
-665.018	156.179	0.219	0.306
-664.003	-7.859	-0.163	-0.112
-662.989	156.863	-0.178	-0.250
-661.974	-122.181	-0.331	-0.055
-660.959	230.346	0.166	0.275
-659.945	-200.000	0.065	-0.324
-658.930	313.346	0.059	-0.113
-657.916	-32.373	-0.353	0.199
-656.901	602.499	-0.134	-0.337
-655.886	-200.000	-0.001	-0.051
-654.872	-92.663	0.235	-0.067
-653.857	800.000	0.034	-0.102
-652.843	-18.842	-0.213	-0.135
-651.828	38.667	-0.110	-0.099
-650.814	-92.680	-0.038	-0.011
-649.799	230.753	-0.112	0.186
-648.784	-131.169	-0.200	0.027
-647.770	-136.589	0.333	-0.039
-646.755	-146.478	0.087	0.008
-645.741	-200.000	0.008	-0.273
-644.726	55.119	-0.195	-0.191
-643.711	-137.937	0.097	0.011
-642.697	800.000	0.027	-0.110
-641.682	87.261	-0.188	-0.210
-640.668	-147.113	0.111	0.010
-639.653	294.457	0.055	-0.101
-638.638	161.397	0.136	0.192
-637.624	-10.265	-0.059	0.040
-636.609	-200.000	0.015	0.107
-635.595	800.000	-0.017	-0.068
-634.580	-98.083	-0.247	0.064
-633.565	-127.693	0.234	0.034
-632.551	461.373	-0.035	-0.080
-631.536	79.948	-0.175	-0.190
-630.522	800.000	-0.016	0.050
-629.507	68.812	-0.097	0.101
-628.492	800.000	-0.021	-0.073
-627.478	-200.000	-0.077	-0.375
-626.463	-31.185	-0.223	-0.127
-625.449	-94.956	-0.372	-0.102
-624.434	-181.975	-0.346	0.007
-623.419	-187.777	-0.136	-0.002
-622.405	-67.358	0.188	-0.075
-621.390	-200.000	0.010	0.281
-620.376	-34.339	0.218	-0.121
-619.361	212.565	-0.172	-0.274
-618.346	-63.331	-0.132	0.055
-617.332	-22.940	-0.307	0.187
-616.317	418.630	-0.130	-0.280
-615.303	-113.940	-0.399	-0.078
-614.288	12.082	0.162	-0.126
-613.273	-8.320	-0.128	-0.087
-612.259	-200.000	-0.045	-0.332
-611.244	47.795	0.040	0.038
-610.230	86.191	0.124	-0.138
-609.215	800.000	-0.063	-0.244
-608.201	-200.000	-0.004	0.205
-607.186	800.000	0.106	-0.345
-606.171	437.400	-0.054	0.118
-605.157	237.680	-0.135	-0.226
-604.142	-72.752	0.114	-0.043
-603.128	-40.899	0.198	0.103
-602.113	-28.788	-0.127	-0.074
-601.098	364.091	-0.121	0.246
-600.084	-101.553	0.222	-0.055
-599.069	379.528	-0.030	0.063
-598.055	-50.197	-0.143	-0.068
-597.040	800.000	0.022	0.078
-596.025	-172.479	-0.408	-0.013
-595.011	71.043	-0.151	0.158
-593.996	170.434	-0.089	-0.129
-592.982	142.818	0.095	-0.127
-591.967	-68.469	-0.167	0.066
-590.952	-59.484	-0.194	-0.084
-589.938	-136.091	-0.150	0.018
-588.923	-83.709	0.275	0.089
-587.909	-12.185	0.225	0.149
-586.894	800.000	-0.051	-0.181
-585.879	255.448	0.153	0.266
-584.865	14.884	-0.161	0.127
-583.850	-166.034	0.144	0.006
-582.836	633.446	-0.018	0.047
-581.821	-6.426	0.035	-0.024
-580.806	-43.111	-0.112	-0.057
-579.792	-42.887	-0.200	-0.103
-578.777	22.780	-0.224	-0.185
-577.763	174.558	0.113	-0.164
-576.748	-200.000	0.017	-0.449
-575.733	232.076	-0.157	-0.260
-574.719	-97.633	-0.147	0.038
-573.704	422.902	-0.137	0.297
-572.690	280.261	-0.082	0.148
-571.675	-200.000	0.024	0.254
-570.661	102.206	-0.226	-0.267
-569.646	78.209	0.218	0.235
-568.631	-62.250	0.284	-0.120
-567.617	700.914	-0.140	-0.373
-566.602	800.000	-0.067	-0.281
-565.588	-158.289	0.340	0.020
-564.573	-136.725	-0.186	0.022
-563.558	-188.721	0.278	-0.003
-562.544	-80.110	0.093	0.031
-561.529	800.000	0.082	-0.236
-560.515	91.090	-0.380	0.431
-559.500	-68.257	-0.259	0.102
-558.485	31.940	0.061	-0.053
-557.471	-141.917	-0.027	-0.003
-556.456	293.563	-0.076	0.140
-555.442	-76.479	0.332	0.118
-554.427	65.220	0.252	0.257
-553.412	58.833	-0.211	0.209
-552.398	-155.732	-0.186	0.012
-551.383	-79.177	-0.244	0.084
-550.369	102.389	0.137	0.161
-549.354	-83.636	-0.231	0.074
-548.339	17.273	-0.224	0.180
-547.325	-200.000	-0.037	0.226
-546.310	23.212	-0.035	-0.029
-545.296	800.000	0.140	-0.397
-544.281	800.000	-0.136	0.458
-543.266	-78.195	0.219	-0.076
-542.252	87.313	0.048	0.054
-541.237	50.896	0.292	-0.280
-540.223	32.084	-0.264	-0.230
-539.208	-151.874	-0.154	0.011
-538.193	-111.324	0.156	0.032
-537.179	-200.000	0.026	0.192
-536.164	800.000	0.062	-0.222
-535.150	10.336	-0.285	0.219
-534.135	320.154	-0.006	0.011
-533.121	-125.256	-0.140	0.022
-532.106	247.056	-0.115	0.195
-531.091	531.707	0.139	-0.331
-530.077	366.700	-0.085	-0.174
-529.062	19.701	-0.186	-0.151
-528.048	330.621	0.070	0.135
-527.033	800.000	0.075	-0.330
-526.018	-200.000	0.049	-0.267
-525.004	331.584	0.097	0.189
-523.989	174.086	-0.133	-0.194
-522.975	34.736	0.099	-0.087
-521.960	65.222	-0.016	-0.016
-520.945	185.851	0.125	0.187
-519.931	-91.303	0.335	0.097
-518.916	800.000	-0.121	0.342
-517.902	-33.866	0.055	0.030
-516.887	612.074	0.039	-0.099
-515.872	800.000	-0.066	0.217
-514.858	800.000	-0.132	-0.408
-513.843	-200.000	0.001	-0.330
-512.829	-200.000	0.024	-0.113
-511.814	140.544	0.078	-0.103
-510.799	31.443	0.200	-0.173
-509.785	51.787	0.183	-0.175
-508.770	100.766	-0.182	0.213
-507.756	-126.776	-0.075	-0.011
-506.741	8.919	-0.238	-0.181
-505.726	-80.644	0.040	0.013
-504.712	-106.934	0.148	-0.033
-503.697	-200.000	-0.017	-0.174
-502.683	-200.000	0.022	0.239
-501.668	-200.000	-0.062	0.469
-500.653	-40.942	-0.510	-0.265
-499.639	800.000	0.065	-0.197
-498.624	14.740	0.261	-0.206
-497.610	800.000	0.006	0.023
-496.595	-30.457	-0.131	0.075
-495.581	-200.000	0.025	-0.247
-494.566	54.145	0.118	-0.114
-493.551	-172.137	-0.095	0.003
-492.537	513.970	-0.196	-0.459
-491.522	-200.000	0.029	0.309
-490.508	2.068	0.084	0.061
-489.493	198.648	-0.193	-0.297
-488.478	-200.000	0.003	-0.217
-487.464	-99.066	-0.266	0.068
-486.449	-79.331	-0.044	-0.015
-485.435	-76.308	0.183	0.065
-484.420	-200.000	-0.007	0.260
-483.405	-140.471	-0.212	0.022
-482.391	-200.000	0.044	-0.342
-481.376	297.226	-0.113	-0.209
-480.362	2.260	-0.316	-0.230
-479.347	-118.371	-0.263	0.047
-478.332	800.000	0.020	0.064
-477.318	-24.752	-0.089	-0.053
-476.303	-200.000	0.006	-0.104
-475.289	44.976	-0.057	-0.052
-474.274	-200.000	-0.027	-0.124
-473.259	19.317	0.206	0.166
-472.245	92.855	-0.178	0.202
-471.230	-107.349	0.277	-0.061
-470.216	81.401	-0.286	0.311
-469.201	36.529	0.236	0.209
-468.186	243.362	0.076	-0.128
-467.172	394.144	0.055	-0.115
-466.157	-3.565	-0.043	0.030
-465.143	61.255	0.022	0.022
-464.128	-134.838	-0.211	-0.026
-463.113	-127.818	0.248	0.036
-462.099	-170.753	0.104	-0.004
-461.084	22.299	-0.141	-0.116
-460.070	-72.270	-0.229	0.085
-459.055	271.351	0.114	0.202
-458.040	-200.000	0.027	-0.260
-457.026	-130.683	-0.215	0.029
-456.011	-37.428	0.313	0.168
-454.997	-64.416	0.053	-0.022
-453.982	587.462	-0.085	-0.210
-452.968	100.144	0.089	-0.103
-451.953	-143.966	-0.119	0.011
-450.938	-57.133	0.057	-0.025
-449.924	-99.351	0.105	-0.027
-448.909	437.875	-0.088	0.192
-447.895	-14.716	-0.066	-0.043
-446.880	59.665	-0.201	0.199
-445.865	322.492	0.016	0.031
-444.851	114.501	0.062	-0.076
-443.836	420.296	0.058	-0.125
-442.822	55.601	0.172	-0.167
-441.807	75.349	0.365	-0.386
-440.792	-200.000	-0.004	0.167
-439.778	-49.350	0.201	-0.097
-438.763	-200.000	0.013	-0.101
-437.749	-200.000	-0.013	0.340
-436.734	384.501	-0.128	0.265
-435.719	-11.619	-0.086	-0.057
-434.705	191.619	0.147	0.222
-433.690	47.854	0.249	-0.234
-432.676	800.000	-0.036	-0.144
-431.661	-200.000	-0.023	0.144
-430.646	46.346	0.061	0.056
-429.632	-200.000	-0.044	0.256
-428.617	-143.455	0.395	0.038
-427.603	800.000	-0.013	0.044
-426.588	-200.000	0.056	-0.386
-425.573	81.314	0.146	-0.159
-424.559	-18.861	0.009	0.005
-423.544	-200.000	-0.019	0.288
-422.530	30.306	0.348	0.298
-421.515	246.626	0.200	-0.339
-420.500	402.714	0.044	-0.094
-419.486	-31.317	0.301	0.170
-418.471	-72.281	0.106	0.039
-417.457	-200.000	0.008	-0.294
-416.442	86.179	-0.150	0.166
-415.428	800.000	0.109	-0.335
-414.413	-200.000	0.055	0.629
-413.398	262.718	0.134	-0.234
-412.384	-166.856	-0.234	-0.010
-411.369	-200.000	-0.008	0.267
-410.355	800.000	-0.051	0.162
-409.340	116.869	0.074	-0.091
-408.325	-200.000	-0.001	-0.253
-407.311	254.374	-0.053	-0.091
-406.296	68.071	0.098	0.101
-405.282	-200.000	0.026	-0.225
-404.267	-155.247	-0.157	-0.010
-403.252	-45.168	-0.146	0.073
-402.238	-31.089	-0.308	0.175
-401.223	165.197	0.197	0.279
-400.209	-20.862	-0.212	-0.131
-399.194	227.221	-0.143	0.233
-398.179	-151.418	-0.481	-0.036
-397.165	-23.014	0.234	0.142
-396.150	-118.800	0.143	-0.025
-395.136	-109.868	-0.209	0.044
-394.121	-57.954	-0.202	0.088
-393.106	-200.000	-0.034	-0.168
-392.092	-169.163	0.023	0.001
-391.077	-138.813	0.220	-0.024
-390.063	800.000	-0.096	-0.285
-389.048	293.983	0.034	0.062
-388.033	-12.739	0.366	-0.239
-387.019	-200.000	-0.013	-0.123
-386.004	-200.000	0.048	0.437
-384.990	-200.000	0.027	0.129
-383.975	464.477	0.056	0.126
-382.960	8.058	-0.032	-0.024
-381.946	134.141	0.171	-0.222
-380.931	-141.274	-0.085	0.009
-379.917	-20.438	-0.261	0.161
-378.902	-56.513	0.120	-0.053
-377.888	130.021	-0.050	-0.064
-376.873	-93.676	-0.296	0.082
-375.858	-173.190	0.081	0.002
-374.844	-87.720	0.200	-0.060
-373.829	6.253	-0.203	0.151
-372.815	311.333	0.105	0.196
-371.800	-200.000	0.132	0.585
-370.785	800.000	0.062	0.252
-369.771	-185.849	0.088	0.001
-368.756	-6.774	-0.269	0.183
-367.742	-200.000	-0.040	0.217
-366.727	-200.000	-0.036	0.254
-365.712	-117.966	0.031	0.006
-364.698	142.541	0.100	-0.133
-363.683	-61.745	0.325	0.136
-362.669	230.957	0.063	-0.103
-361.654	291.851	0.185	0.338
-360.639	436.931	-0.116	0.253
-359.625	800.000	-0.083	-0.231
-358.610	-82.546	-0.092	0.030
-357.596	94.994	-0.330	0.376
-356.581	-13.352	0.182	0.118
-355.566	213.998	-0.186	-0.295
-354.552	-200.000	-0.016	-0.249
-353.537	-115.625	0.324	0.061
-352.523	56.669	0.184	0.179
-351.508	793.460	-0.075	0.206
-350.493	-53.625	-0.064	-0.029
-349.479	30.756	0.054	0.046
-348.464	359.427	0.043	0.086
-347.450	39.862	0.199	-0.179
-346.435	73.956	0.074	-0.078
-345.420	-49.953	0.160	0.076
-344.406	-186.907	-0.211	0.003
-343.391	-200.000	-0.020	-0.112
-342.377	63.874	-0.114	0.115
-341.362	-35.120	0.296	-0.162
-340.348	-200.000	0.031	-0.190
-339.333	534.076	-0.169	-0.401
-338.318	-79.188	-0.053	-0.018
-337.304	800.000	0.050	-0.201
-336.289	-2.014	0.084	-0.059
-335.275	-150.459	-0.232	-0.018
-334.260	-200.000	0.008	0.169
-333.245	-83.256	0.164	0.053
-332.231	44.231	-0.164	-0.151
-331.216	-82.482	-0.102	0.033
-330.202	-200.000	0.001	0.042
-329.187	-200.000	0.028	-0.233
-328.172	-2.611	-0.260	0.182
-327.158	68.687	0.185	-0.190
-326.143	262.793	0.068	0.118
-325.129	-31.603	0.099	-0.055
-324.114	597.612	0.045	-0.112
-323.099	-95.849	-0.331	-0.088
-322.085	-170.716	-0.242	-0.008
-321.070	-18.116	-0.019	0.012
-320.056	352.951	-0.057	0.114
-319.041	-65.210	-0.235	0.095
-318.026	800.000	0.071	-0.238
-317.012	-134.974	0.122	-0.015
-315.997	237.603	0.067	0.110
-314.983	37.095	0.137	-0.121
-313.968	-200.000	-0.061	-0.282
-312.953	800.000	-0.036	-0.113
-311.939	230.497	0.177	0.290
-310.924	800.000	-0.024	-0.101
-309.910	-60.156	0.080	-0.034
-308.895	-135.546	0.469	-0.056
-307.880	89.297	-0.035	-0.039
-306.866	-101.694	-0.237	-0.058
-305.851	91.930	-0.183	-0.206
-304.837	538.198	0.047	-0.113
-303.822	-159.854	-0.174	-0.010
-302.807	-200.000	-0.044	0.364
-301.793	75.110	-0.087	-0.091
-300.778	800.000	0.106	-0.317
-299.764	242.361	0.035	0.059
-298.749	-95.979	0.036	0.009
-297.735	800.000	0.098	0.394
-296.720	-200.000	0.064	-0.302
-295.705	65.815	0.135	0.137
-294.691	32.150	0.210	-0.181
-293.676	800.000	-0.076	-0.287
-292.662	-55.864	-0.128	-0.057
-291.647	-199.457	-0.235	-0.001
-290.632	56.728	0.049	0.048
-289.618	-200.000	0.030	-0.241
-288.603	81.247	-0.094	-0.101
-287.589	-113.590	0.248	-0.048
-286.574	328.220	0.072	-0.137
-285.559	269.439	-0.100	-0.176
-284.545	-200.000	0.043	0.225
-283.530	-32.324	0.064	0.036
-282.516	-113.764	-0.200	0.039
-281.501	50.011	0.135	0.127
-280.486	366.968	0.070	-0.140
-279.472	-35.736	0.251	0.136
-278.457	-200.000	0.031	0.253
-277.443	421.202	0.046	-0.099
-276.428	-25.492	0.339	0.200
-275.413	-172.443	0.277	-0.009
-274.399	800.000	0.035	0.130
-273.384	-200.000	0.029	-0.195
-272.370	781.476	0.151	-0.412
-271.355	-200.000	-0.015	-0.167
-270.340	-46.384	-0.145	-0.071
-269.326	-193.506	-0.461	0.004
-268.311	-122.060	0.230	0.038
-267.297	-200.000	-0.042	-0.250
-266.282	-38.038	-0.076	0.040
-265.267	194.020	-0.085	0.129
-264.253	45.096	0.124	0.114
-263.238	-26.173	0.421	-0.247
-262.224	13.557	-0.226	-0.175
-261.209	-27.820	-0.284	-0.164
-260.195	57.361	0.235	-0.229
-259.180	23.765	-0.261	0.215
-258.165	800.000	-0.045	0.189
-257.151	-75.812	-0.194	-0.069
-256.136	-15.522	0.294	-0.187
-255.122	461.858	0.097	-0.217
-254.107	212.825	0.059	0.092
-253.092	144.664	0.109	0.145
-252.078	366.449	-0.156	0.313
-251.063	800.000	0.055	0.170
-250.049	304.163	0.184	-0.341
-249.034	-174.143	-0.172	0.005
-248.019	-102.583	0.121	-0.029
-247.005	-55.174	0.178	0.080
-245.990	-101.997	-0.280	0.067
-244.976	-25.331	-0.075	0.044
-243.961	-152.609	0.062	0.004
-242.946	56.027	0.157	0.152
-241.932	91.570	0.060	0.067
-240.917	267.578	0.126	-0.219
-239.903	-200.000	-0.030	-0.170
-238.888	800.000	-0.032	-0.088
-237.873	-140.242	0.036	-0.004
-236.859	-134.896	0.235	-0.028
-235.844	-140.670	-0.068	-0.007
-234.830	170.554	-0.051	0.072
-233.815	-53.732	-0.107	-0.049
-232.800	-200.000	-0.022	0.233
-231.786	-43.577	-0.267	0.134
-230.771	616.142	-0.083	0.207
-229.757	-143.797	0.156	0.015
-228.742	-200.000	0.010	0.368
-227.727	-200.000	0.068	0.351
-226.713	291.325	0.071	-0.129
-225.698	109.253	0.127	-0.152
-224.684	137.407	-0.078	0.102
-223.669	-200.000	0.028	-0.299
-222.655	-200.000	0.472	-0.002
-221.640	-184.274	0.318	-0.005
-220.625	-200.000	0.051	0.251
-219.611	800.000	0.068	0.233
-218.596	37.841	0.195	0.173
-217.582	-12.263	-0.202	-0.131
-216.567	-126.373	0.188	0.028
-215.552	-117.201	0.247	-0.045
-214.538	-20.364	0.068	0.042
-213.523	800.000	-0.035	0.114
-212.509	-200.000	0.059	0.349
-211.494	800.000	0.047	0.193
-210.479	-22.620	0.037	0.023
-209.465	645.141	-0.090	0.230
-208.450	-37.369	0.159	0.085
-207.436	-19.790	-0.221	-0.136
-206.421	800.000	0.042	-0.181
-205.406	294.440	0.129	0.236
-204.392	800.000	-0.028	0.097
-203.377	570.892	-0.034	-0.082
-202.363	-22.572	0.153	-0.092
-201.348	-200.000	0.004	0.055
-200.333	-200.000	-0.016	0.175
-199.319	-200.000	0.043	0.202
-198.304	168.468	-0.207	0.294
-197.290	-200.000	0.042	0.216
-196.275	64.153	-0.113	-0.113
-195.260	-7.495	0.248	0.167
-194.246	349.415	0.173	0.339
-193.231	-55.526	0.255	-0.114
-192.217	-90.843	-0.269	-0.077
-191.202	-98.323	0.362	-0.092
-190.187	-31.066	-0.159	0.089
-189.173	581.481	-0.058	0.140
-188.158	800.000	-0.086	0.251
-187.144	-22.522	0.045	-0.027
-186.129	118.463	-0.263	-0.323
-185.114	800.000	-0.035	0.126
-184.100	-200.000	0.082	0.407
-183.085	191.964	0.094	0.141
-182.071	83.333	0.077	-0.083
-181.056	-200.000	0.046	-0.316
-180.042	800.000	0.064	0.179
-179.027	-42.461	-0.281	-0.143
-178.012	-68.280	0.159	0.062
-176.998	-169.691	-0.194	-0.007
-175.983	2.345	-0.192	0.138
-174.969	103.374	-0.177	0.206
-173.954	47.271	-0.295	-0.273
-172.939	44.283	0.100	0.092
-171.925	24.881	-0.106	0.087
-170.910	-114.058	-0.101	-0.019
-169.896	-84.240	0.335	0.106
-168.881	-16.456	-0.141	0.089
-167.866	-10.374	0.345	0.227
-166.852	-198.897	0.322	0.002
-165.837	159.537	0.201	-0.278
-164.823	508.175	-0.077	-0.178
-163.808	-146.682	-0.218	0.019
-162.793	800.000	0.016	0.043
-161.779	32.265	-0.097	0.083
-160.764	800.000	-0.039	0.124
-159.750	329.044	0.092	0.175
-158.735	180.837	0.069	-0.101
-157.720	-200.000	0.019	-0.296
-156.706	-189.299	0.154	-0.002
-155.691	410.291	-0.151	0.318
-154.677	-2.322	-0.054	0.038
-153.662	197.801	-0.035	0.053
-152.647	285.432	0.109	0.194
-151.633	216.930	-0.089	0.141
-150.618	-200.000	-0.004	-0.364
-149.604	800.000	-0.009	-0.035
-148.589	75.568	-0.060	0.063
-147.574	-43.729	-0.200	-0.100
-146.560	800.000	0.088	0.253
-145.545	22.301	-0.038	0.031
-144.531	-41.953	0.120	-0.061
-143.516	-200.000	-0.004	0.041
-142.502	-54.797	0.077	0.034
-141.487	172.732	0.026	0.037
-140.472	-54.520	-0.258	-0.116
-139.458	51.004	0.237	0.223
-138.443	-122.381	-0.265	0.043
-137.429	800.000	-0.024	-0.099
-136.414	-6.725	0.163	0.110
-135.399	664.702	-0.139	-0.356
-134.385	-186.603	-0.219	0.003
-133.370	-2.479	0.213	-0.148
-132.356	-67.803	0.166	-0.065
-131.341	800.000	0.033	-0.105
-130.326	-200.000	0.045	-0.243
-129.312	800.000	0.020	-0.066
-128.297	-200.000	-0.397	0.000
-127.283	-200.000	-0.036	-0.282
-126.268	-73.786	-0.129	-0.047
-125.253	438.021	0.113	-0.244
-124.239	62.390	0.298	-0.295
-123.224	-43.112	0.086	-0.043
-122.210	406.905	-0.046	-0.097
-121.195	63.832	-0.012	0.012
