DTS Sentinel unit serial number:	SN413079Multiplexer serial number:	ORYXHardware model number:	OX4-SRSoftware version number:	ORYX F/W v4.00 Oryx Data Collector v3.7.2.0data status	okinstallation	princeton_trtdifferential loss correction	single-endedforward channel	channel 2reverse channel	N/Adate	2019/09/15time	01:47:35forward acquisition time	60.00reverse acquisition time	0.00gamma	496.2192k internal	0.2325k external	0.2325temperature offset calibration	1.0030default loss term (dB/km)	0.3790temperature slope calibration	1.0000multiplexer offset coefficient	1.0000multiplexer slope coefficient	1.0000fibre end	0.00T internal ref (°C)	31.81T ext. ref 1 (°C)	4.51T ext. ref 2 (°C)	26.70length (m)	temperature (°C)	Stokes	anti-Stokes-747.200	-54.285	0.140	-0.064
-746.185	-74.264	0.284	-0.104
-745.171	800.000	-0.066	0.274
-744.156	-73.941	-0.108	-0.040
-743.142	-46.678	0.288	-0.142
-742.127	-43.238	-0.399	0.204
-741.112	178.513	-0.076	0.112
-740.098	655.917	-0.077	-0.201
-739.083	231.886	-0.084	0.139
-738.069	-200.000	0.005	0.299
-737.054	216.639	-0.037	-0.060
-736.039	79.074	-0.196	-0.212
-735.025	-200.000	0.012	0.144
-734.010	-200.000	-0.027	0.169
-732.996	-26.038	-0.243	-0.144
-731.981	-200.000	0.024	0.281
-730.966	-200.000	-0.032	-0.304
-729.952	19.956	0.202	-0.164
-728.937	-60.101	0.178	0.076
-727.923	27.036	0.179	0.152
-726.908	-199.383	0.180	-0.001
-725.894	-93.425	-0.136	-0.038
-724.879	-191.280	-0.282	0.003
-723.864	-86.526	0.182	-0.056
-722.850	30.436	-0.449	-0.387
-721.835	-27.608	0.393	0.230
-720.821	41.629	-0.106	0.097
-719.806	800.000	0.038	0.136
-718.791	-0.737	-0.303	0.216
-717.777	-48.321	0.109	0.053
-716.762	-91.677	0.193	-0.055
-715.748	428.506	-0.009	0.020
-714.733	-149.970	-0.071	0.006
-713.718	-200.000	0.015	0.114
-712.704	278.465	-0.260	-0.468
-711.689	-200.000	-0.002	-0.022
-710.675	-3.557	-0.224	-0.157
-709.660	800.000	0.028	-0.122
-708.645	800.000	-0.008	0.022
-707.631	800.000	0.050	-0.216
-706.616	366.764	0.113	-0.229
-705.602	570.444	0.151	-0.370
-704.587	780.667	-0.092	-0.255
-703.572	-91.838	0.076	0.022
-702.558	24.652	0.193	0.161
-701.543	-86.723	0.063	0.019
-700.529	294.387	0.093	-0.172
-699.514	264.181	-0.065	0.115
-698.499	-129.384	0.215	-0.030
-697.485	-200.000	0.000	0.106
-696.470	-200.000	-0.019	-0.137
-695.456	57.517	0.327	0.322
-694.441	-200.000	0.088	-0.408
-693.426	-200.000	-0.036	0.238
-692.412	-13.412	-0.142	-0.093
-691.397	-118.414	0.489	0.087
-690.383	-200.000	-0.017	0.085
-689.368	508.141	0.061	0.143
-688.354	-129.046	0.236	-0.033
-687.339	-90.851	0.290	0.084
-686.324	-200.000	0.014	0.197
-685.310	-178.052	-0.203	0.005
-684.295	22.662	-0.246	0.202
-683.281	496.303	-0.058	-0.134
-682.266	17.607	-0.327	-0.262
-681.251	382.735	0.156	-0.322
-680.237	-8.117	0.104	0.071
-679.222	149.629	-0.132	0.180
-678.208	-78.872	0.120	-0.041
-677.193	49.899	-0.161	0.152
-676.178	-64.177	-0.318	-0.131
-675.164	64.260	-0.514	-0.521
-674.149	-200.000	0.015	-0.094
-673.135	37.275	-0.319	-0.284
-672.120	-0.324	0.313	-0.224
-671.105	-64.903	-0.315	-0.128
-670.091	745.022	0.121	-0.327
-669.076	-185.241	0.273	0.004
-668.062	746.111	0.097	0.262
-667.047	220.592	-0.070	0.113
-666.032	-14.298	0.147	-0.095
-665.018	187.018	0.090	0.136
-664.003	29.801	-0.346	0.296
-662.989	253.810	0.215	0.370
-661.974	55.048	-0.132	0.128
-660.959	13.393	0.217	-0.169
-659.945	-87.612	0.031	0.009
-658.930	9.051	0.221	0.168
-657.916	272.464	-0.053	-0.095
-656.901	-89.404	-0.210	0.062
-655.886	340.996	-0.090	0.178
-654.872	219.230	0.064	0.103
-653.857	-200.000	-0.029	0.168
-652.843	50.179	0.180	0.171
-651.828	-42.065	0.208	-0.107
-650.814	-200.000	0.037	0.297
-649.799	-0.376	-0.273	0.195
-648.784	-101.991	0.149	-0.036
-647.770	341.883	0.060	-0.119
-646.755	800.000	0.054	-0.216
-645.741	3.712	-0.134	0.098
-644.726	-58.324	0.137	0.060
-643.711	444.330	-0.064	0.140
-642.697	-200.000	0.051	-0.541
-641.682	112.583	0.036	-0.044
-640.668	-182.580	0.212	-0.004
-639.653	117.766	-0.324	-0.401
-638.638	580.594	-0.033	-0.081
-637.624	431.879	0.130	0.283
-636.609	111.847	0.092	0.111
-635.595	-200.000	0.044	-0.212
-634.580	235.763	0.114	0.189
-633.565	-107.333	-0.655	-0.145
-632.551	194.091	0.031	0.047
-631.536	800.000	-0.043	0.131
-630.522	-20.525	-0.114	-0.070
-629.507	-47.469	-0.094	-0.046
-628.492	-200.000	-0.062	-0.349
-627.478	-184.781	0.292	0.005
-626.463	-87.377	-0.369	-0.112
-625.449	-5.172	0.130	0.090
-624.434	800.000	0.037	-0.136
-623.419	179.854	-0.129	-0.189
-622.405	800.000	-0.018	-0.061
-621.390	-157.171	0.082	0.005
-620.376	143.332	-0.175	-0.233
-619.361	208.726	0.021	-0.033
-618.346	-12.229	0.468	0.307
-617.332	-200.000	-0.371	0.001
-616.317	-22.522	-0.315	0.191
-615.303	68.897	-0.075	0.078
-614.288	29.011	-0.016	-0.013
-613.273	58.990	-0.131	0.130
-612.259	510.421	0.139	0.325
-611.244	-140.992	-0.250	-0.026
-610.230	800.000	0.044	0.135
-609.215	-49.191	-0.006	0.003
-608.201	-110.649	0.104	-0.022
-607.186	-83.947	-0.336	-0.107
-606.171	-19.796	0.305	0.189
-605.157	-198.671	-0.328	-0.002
-604.142	96.105	0.178	-0.204
-603.128	-7.956	-0.101	-0.068
-602.113	-54.943	0.141	0.064
-601.098	-67.551	-0.092	-0.036
-600.084	188.311	-0.067	-0.100
-599.069	-200.000	-0.017	0.358
-598.055	-200.000	0.011	0.151
-597.040	-98.404	-0.281	0.072
-596.025	18.264	-0.241	0.193
-595.011	-200.000	-0.024	0.190
-593.996	800.000	-0.035	0.111
-592.982	84.010	0.132	-0.145
-591.967	-200.000	-0.019	-0.188
-590.952	2.887	0.203	-0.148
-589.938	800.000	-0.077	-0.227
-588.923	328.217	0.167	0.321
-587.909	419.679	0.037	0.079
-586.894	779.398	-0.023	-0.063
-585.879	103.238	0.152	0.179
-584.865	44.787	0.134	-0.123
-583.850	-170.243	-0.106	-0.004
-582.836	-35.173	0.348	0.190
-581.821	800.000	-0.093	0.330
-580.806	-75.872	-0.217	-0.077
-579.792	62.196	0.102	-0.102
-578.777	-200.000	-0.002	0.259
-577.763	-82.035	-0.223	0.073
-576.748	-36.614	0.203	0.110
-575.733	-173.026	-0.085	0.003
-574.719	12.835	0.055	0.043
-573.704	-104.910	-0.135	0.031
-572.690	363.093	0.022	-0.045
-571.675	-1.470	-0.099	0.070
-570.661	27.612	-0.131	0.110
-569.646	-200.000	0.036	-0.171
-568.631	-56.167	0.241	-0.107
-567.617	-95.995	-0.239	0.064
-566.602	800.000	0.093	-0.324
-565.588	146.608	0.005	-0.007
-564.573	-189.153	-0.353	-0.004
-563.558	650.360	-0.059	-0.152
-562.544	-38.001	-0.149	0.079
-561.529	288.447	-0.093	-0.169
-560.515	800.000	-0.054	-0.178
-559.500	5.277	0.208	-0.154
-558.485	-79.655	-0.351	-0.119
-557.471	800.000	0.033	-0.100
-556.456	-200.000	0.011	-0.054
-555.442	273.032	0.153	0.271
-554.427	24.508	-0.146	0.121
-553.412	205.569	0.133	0.207
-552.398	3.801	0.146	0.107
-551.383	158.583	-0.111	-0.155
-550.369	800.000	-0.040	-0.157
-549.354	701.123	0.061	-0.160
-548.339	144.129	-0.163	-0.218
-547.325	246.617	-0.029	0.048
-546.310	800.000	-0.078	-0.300
-545.296	6.559	-0.086	-0.064
-544.281	-200.000	0.056	-0.268
-543.266	-111.435	0.252	0.051
-542.252	-4.171	0.139	-0.096
-541.237	-163.937	-0.485	0.023
-540.223	-51.926	0.482	0.224
-539.208	-82.961	-0.239	-0.077
-538.193	-123.838	-0.126	-0.020
-537.179	642.723	-0.035	0.089
-536.164	-60.788	0.105	-0.045
-535.150	800.000	0.044	0.123
-534.135	-5.960	-0.102	-0.070
-533.121	-200.000	0.051	-0.359
-532.106	200.416	0.170	0.262
-531.091	-61.376	0.231	0.097
-530.077	437.424	-0.150	-0.327
-529.062	32.717	0.008	0.007
-528.048	800.000	0.132	-0.392
-527.033	-93.950	-0.129	0.036
-526.018	147.124	0.128	0.172
-525.004	-184.206	-0.388	-0.006
-523.989	-200.000	-0.038	-0.249
-522.975	-122.010	-0.344	0.057
-521.960	84.464	-0.187	0.204
-520.945	88.206	0.043	-0.048
-519.931	-152.033	0.074	-0.005
-518.916	-82.800	-0.142	-0.046
-517.902	710.607	0.076	-0.201
-516.887	0.129	-0.087	0.062
-515.872	344.513	-0.051	0.100
-514.858	84.479	0.267	0.293
-513.843	79.613	0.264	-0.283
-512.829	-74.579	0.404	0.145
-511.814	-118.161	-0.154	0.028
-510.799	-56.279	-0.363	0.161
-509.785	800.000	-0.051	-0.211
-508.770	421.624	-0.120	-0.256
-507.756	-200.000	-0.031	0.244
-506.741	-91.392	0.075	-0.021
-505.726	187.588	-0.176	0.262
-504.712	17.281	0.111	-0.088
-503.697	-172.166	0.339	-0.011
-502.683	753.375	0.008	-0.023
-501.668	-200.000	0.031	-0.302
-500.653	800.000	0.056	-0.216
-499.639	29.903	-0.099	0.084
-498.624	39.787	0.126	0.113
-497.610	43.710	-0.198	0.181
-496.595	-44.017	-0.160	0.080
-495.581	12.071	-0.041	-0.031
-494.566	-123.746	0.179	-0.028
-493.551	800.000	-0.033	0.114
-492.537	-29.557	0.060	0.034
-491.522	-118.527	-0.343	-0.061
-490.508	139.544	-0.120	-0.157
-489.493	-103.089	-0.301	-0.071
-488.478	242.590	-0.172	0.288
-487.464	800.000	0.109	-0.329
-486.449	-95.954	0.367	-0.098
-485.435	-200.000	0.007	-0.212
-484.420	-107.275	-0.267	-0.059
-483.405	-144.031	0.075	0.007
-482.391	-84.453	0.092	-0.029
-481.376	-67.852	0.312	0.122
-480.362	-62.503	0.352	-0.146
-479.347	-72.417	-0.311	-0.115
-478.332	569.256	-0.138	-0.335
-477.318	-178.362	0.481	0.011
-476.303	148.102	-0.048	-0.065
-475.289	251.204	0.106	-0.179
-474.274	800.000	0.051	0.193
-473.259	84.998	0.104	0.114
-472.245	45.632	-0.087	-0.080
-471.230	219.016	-0.215	0.344
-470.216	-160.797	0.349	-0.018
-469.201	364.168	-0.227	-0.456
-468.186	228.200	-0.144	-0.233
-467.172	-200.000	-0.035	0.288
-466.157	-85.845	0.029	0.009
-465.143	250.792	-0.057	0.096
-464.128	-200.000	0.000	0.071
-463.113	395.409	-0.038	-0.079
-462.099	37.714	0.139	-0.123
-461.084	-85.088	0.482	0.151
-460.070	-120.782	-0.112	-0.019
-459.055	-7.059	0.143	-0.097
-458.040	53.381	0.070	0.067
-457.026	147.058	-0.239	0.321
-456.011	-29.930	0.119	0.067
-454.997	147.208	0.018	-0.025
-453.982	211.854	-0.106	-0.167
-452.968	-200.000	0.009	-0.141
-451.953	33.557	0.117	-0.101
-450.938	-200.000	0.006	0.117
-449.924	-91.529	-0.357	-0.101
-448.909	344.551	-0.032	-0.062
-447.895	68.160	0.064	-0.066
-446.880	-95.733	-0.156	0.041
-445.865	800.000	0.066	0.218
-444.851	352.768	-0.120	-0.237
-443.836	-200.000	-0.040	0.384
-442.822	800.000	0.116	0.357
-441.807	-107.664	0.041	0.009
-440.792	-17.887	0.177	0.111
-439.778	-130.334	-0.233	0.032
-438.763	-33.374	-0.367	-0.202
-437.749	-144.606	-0.163	-0.015
-436.734	301.685	0.173	-0.319
-435.719	800.000	0.047	-0.144
-434.705	-22.753	-0.203	-0.122
-433.690	404.316	-0.022	-0.045
-432.676	-137.543	-0.209	0.024
-431.661	-200.000	0.038	0.391
-430.646	-182.593	-0.191	-0.003
-429.632	-22.917	-0.047	-0.029
-428.617	-123.281	0.295	0.047
-427.603	137.890	-0.118	-0.154
-426.588	-200.000	-0.011	-0.367
-425.573	-55.231	0.166	0.074
-424.559	-200.000	-0.000	-0.138
-423.544	-50.336	-0.441	0.208
-422.530	-200.000	-0.006	0.201
-421.515	-142.806	-0.260	-0.025
-420.500	-86.489	0.195	0.060
-419.486	347.258	0.122	0.240
-418.471	126.482	0.126	-0.159
-417.457	549.590	-0.062	-0.148
-416.442	800.000	0.065	-0.281
-415.428	-200.000	0.001	0.235
-414.413	-152.258	-0.207	0.015
-413.398	-154.991	-0.311	-0.020
-412.384	-200.000	-0.122	0.572
-411.369	-52.132	-0.248	0.115
-410.355	-103.496	0.219	-0.051
-409.340	-200.000	-0.051	-0.249
-408.325	-200.000	-0.005	0.072
-407.311	775.079	0.095	-0.257
-406.296	122.701	0.117	0.145
-405.282	324.032	0.243	-0.462
-404.267	-120.026	0.086	0.015
-403.252	176.522	0.201	-0.291
-402.238	-49.757	-0.052	0.024
-401.223	551.153	-0.099	0.237
-400.209	-200.000	-0.018	-0.204
-399.194	-59.177	-0.151	-0.065
-398.179	-200.000	0.027	0.358
-397.165	132.656	-0.023	0.030
-396.150	132.555	-0.200	0.257
-395.136	135.359	0.193	0.250
-394.121	83.367	-0.052	0.057
-393.106	-75.357	-0.125	0.044
-392.092	692.061	-0.046	-0.120
-391.077	-173.217	0.272	0.008
-390.063	-200.000	-0.071	-0.321
-389.048	-57.490	0.017	0.008
-388.033	323.295	0.165	-0.313
-387.019	-165.804	0.210	0.009
-386.004	-73.466	-0.104	0.038
-384.990	171.851	0.126	-0.180
-383.975	-86.048	0.174	0.053
-382.960	17.968	-0.179	0.142
-381.946	-200.000	-0.004	-0.017
-380.931	-195.545	0.157	0.001
-379.917	-1.842	0.253	-0.177
-378.902	800.000	-0.093	-0.271
-377.888	-81.103	-0.164	-0.054
-376.873	40.185	0.035	-0.031
-375.858	-200.000	0.002	-0.194
-374.844	-91.184	-0.089	0.025
-373.829	-144.297	0.400	0.037
-372.815	-200.000	0.003	-0.079
-371.800	-117.483	0.183	0.033
-370.785	128.261	-0.217	-0.275
-369.771	279.817	-0.050	-0.089
-368.756	-87.822	-0.074	-0.022
-367.742	-119.639	0.134	-0.023
-366.727	-200.000	0.068	0.410
-365.712	-200.000	-0.017	0.129
-364.698	-48.848	-0.240	-0.115
-363.683	-24.998	0.068	-0.040
-362.669	63.166	-0.171	-0.170
-361.654	66.522	0.089	0.090
-360.639	2.193	0.190	-0.136
-359.625	800.000	-0.127	-0.450
-358.610	800.000	0.015	-0.065
-357.596	-82.533	0.179	0.058
-356.581	22.711	0.131	-0.106
-355.566	-127.360	0.152	-0.022
-354.552	-64.583	-0.131	-0.053
-353.537	800.000	0.092	0.259
-352.523	-134.792	-0.512	0.062
-351.508	-94.723	-0.339	-0.091
-350.493	-200.000	-0.027	0.212
-349.479	-129.891	0.237	-0.032
-348.464	192.603	0.118	0.177
-347.450	-200.000	-0.030	0.226
-346.435	44.158	-0.268	-0.244
-345.420	135.425	0.036	0.047
-344.406	-114.165	-0.050	-0.010
-343.391	-114.561	-0.345	0.066
-342.377	-52.482	-0.232	-0.107
-341.362	34.606	0.225	0.195
-340.348	-200.000	-0.102	-0.512
-339.333	-91.349	0.308	0.087
-338.318	462.418	-0.094	-0.207
-337.304	-89.296	-0.152	0.045
-336.289	136.138	-0.238	0.308
-335.275	-200.000	0.001	-0.164
-334.260	800.000	-0.116	0.367
-333.245	14.292	0.340	0.264
-332.231	172.461	-0.200	-0.286
-331.216	-200.000	0.002	-0.110
-330.202	800.000	-0.030	0.120
-329.187	-200.000	0.042	0.200
-328.172	73.309	0.221	0.230
-327.158	-200.000	-0.009	0.115
-326.143	-32.435	-0.113	-0.063
-325.129	-23.325	0.186	-0.111
-324.114	-16.460	0.250	-0.158
-323.099	-40.513	0.034	0.017
-322.085	457.707	-0.054	-0.119
-321.070	295.783	0.060	-0.110
-320.056	-32.960	0.136	0.075
-319.041	800.000	-0.070	0.252
-318.026	-144.627	0.350	0.032
-317.012	800.000	0.074	0.261
-315.997	-96.473	0.201	0.053
-314.983	-34.885	0.120	-0.065
-313.968	-19.148	-0.149	-0.092
-312.953	-20.128	0.011	0.006
-311.939	163.058	0.043	0.060
-310.924	-200.000	-0.011	0.107
-309.910	377.414	0.030	0.060
-308.895	-36.298	0.355	0.190
-307.880	-21.203	-0.069	0.042
-306.866	123.941	0.062	-0.078
-305.851	-78.838	-0.232	0.079
-304.837	-1.449	0.264	0.185
-303.822	-176.435	-0.244	-0.006
-302.807	-75.399	-0.076	0.027
-301.793	-63.312	-0.413	0.169
-300.778	-33.206	0.048	0.026
-299.764	-200.000	0.016	-0.293
-298.749	8.784	-0.168	-0.125
-297.735	28.228	0.185	0.155
-296.720	-38.565	-0.047	-0.025
-295.705	800.000	-0.023	-0.066
-294.691	-46.470	-0.236	0.115
-293.676	-114.758	-0.149	-0.028
-292.662	-200.000	-0.010	-0.156
-291.647	110.221	0.183	0.218
-290.632	264.564	0.149	0.257
-289.618	12.051	0.116	-0.088
-288.603	-137.753	-0.202	-0.022
-287.589	-48.194	0.163	-0.078
-286.574	-87.567	0.215	0.064
-285.559	406.252	-0.028	-0.059
-284.545	98.656	-0.054	0.061
-283.530	800.000	-0.026	0.085
-282.516	-73.542	0.103	0.037
-281.501	148.667	0.199	0.266
-280.486	-158.048	-0.144	-0.008
-279.472	800.000	0.100	0.374
-278.457	-12.523	-0.174	-0.113
-277.443	-127.727	0.155	-0.022
-276.428	-23.906	-0.137	-0.081
-275.413	55.338	-0.335	0.321
-274.399	-31.758	0.208	0.115
-273.384	-27.495	0.343	-0.197
-272.370	-26.435	-0.303	0.176
-271.355	-200.000	0.019	-0.303
-270.340	202.267	-0.041	-0.062
-269.326	-16.334	-0.234	0.147
-268.311	125.263	0.216	-0.270
-267.297	-165.263	0.560	0.024
-266.282	54.777	0.146	0.139
-265.267	257.090	0.260	0.442
-264.253	800.000	-0.057	0.194
-263.238	-200.000	0.022	0.134
-262.224	-94.283	-0.224	-0.061
-261.209	12.488	-0.178	0.136
-260.195	-35.979	-0.351	0.188
-259.180	800.000	-0.047	-0.185
-258.165	-31.374	-0.216	-0.120
-257.151	-64.774	0.039	-0.015
-256.136	800.000	0.056	-0.201
-255.122	344.576	0.088	-0.170
-254.107	-90.548	-0.135	-0.039
-253.092	443.972	-0.135	0.294
-252.078	-96.496	-0.122	0.032
-251.063	108.784	-0.110	-0.130
-250.049	159.206	-0.137	0.188
-249.034	-158.950	-0.027	-0.002
-248.019	66.543	0.197	-0.198
-247.005	-47.626	-0.318	0.153
-245.990	412.286	0.110	-0.232
-244.976	263.939	0.127	-0.218
-243.961	-64.461	0.289	-0.116
-242.946	222.742	-0.197	0.315
-241.932	-200.000	-0.034	-0.305
-240.917	-45.257	0.311	-0.153
-239.903	74.110	0.179	0.186
-238.888	-73.541	0.277	0.100
-237.873	-9.685	0.151	-0.100
-236.859	99.482	0.041	-0.047
-235.844	-200.000	-0.003	-0.028
-234.830	-158.352	0.131	0.008
-233.815	-200.000	-0.024	0.136
-232.800	315.018	-0.114	-0.212
-231.786	-153.676	0.079	-0.005
-230.771	52.040	-0.178	-0.168
-229.757	800.000	-0.013	0.044
-228.742	-200.000	-0.004	-0.056
-227.727	32.312	-0.296	0.253
-226.713	-51.351	-0.048	0.022
-225.698	-190.898	0.022	0.000
-224.684	-108.773	-0.144	0.031
-223.669	-34.157	-0.143	-0.077
-222.655	474.389	-0.089	0.198
-221.640	800.000	-0.052	0.221
-220.625	477.735	0.098	-0.220
-219.611	23.851	-0.192	-0.156
-218.596	-58.470	0.342	-0.147
-217.582	47.914	0.164	0.151
-216.567	182.765	0.080	0.117
-215.552	-55.802	-0.162	0.072
-214.538	-200.000	0.002	0.228
-213.523	-74.087	-0.183	-0.066
-212.509	-88.890	-0.131	0.038
-211.494	193.406	0.064	0.096
-210.479	279.751	-0.098	-0.173
-209.465	97.913	0.138	0.157
-208.450	-200.000	0.033	-0.192
-207.436	-200.000	-0.019	-0.248
-206.421	265.755	0.174	0.300
-205.406	-77.235	0.456	-0.157
-204.392	800.000	0.068	-0.190
-203.377	83.335	0.164	-0.177
-202.363	324.771	-0.040	-0.076
-201.348	226.710	-0.061	-0.098
-200.333	-140.865	0.329	0.033
-199.319	-72.009	-0.186	-0.068
-198.304	-90.590	0.282	0.080
-197.290	-188.382	0.138	0.002
-196.275	-111.620	-0.158	-0.032
-195.260	289.217	0.123	0.220
-194.246	-89.262	-0.185	0.054
-193.231	17.100	0.131	-0.103
-192.217	-200.000	-0.022	0.146
-191.202	-37.445	0.159	0.084
-190.187	-200.000	-0.070	-0.562
-189.173	23.838	0.234	0.190
-188.158	232.113	0.151	-0.244
-187.144	-82.544	-0.140	0.045
-186.129	-43.491	0.127	-0.063
-185.114	31.011	0.090	0.076
-184.100	38.649	0.197	0.173
-183.085	-100.656	-0.098	-0.024
-182.071	-200.000	-0.027	-0.178
-181.056	800.000	0.011	-0.045
-180.042	-86.904	0.209	0.063
-179.027	-200.000	-0.012	0.330
-178.012	510.965	0.067	0.153
-176.998	-9.358	0.281	-0.185
-175.983	-124.047	0.140	0.022
-174.969	800.000	0.061	-0.186
-173.954	-129.627	-0.156	0.021
-172.939	108.808	-0.063	0.074
-171.925	-1.944	-0.071	-0.050
-170.910	-142.746	-0.075	0.007
-169.896	370.627	-0.078	0.155
-168.881	800.000	0.045	-0.183
-167.866	-72.204	0.377	0.138
-166.852	83.714	-0.054	-0.058
-165.837	-200.000	0.042	0.316
-164.823	17.964	0.142	0.111
-163.808	-87.179	0.177	0.053
-162.793	42.227	-0.341	0.306
-161.779	7.377	0.095	0.070
-160.764	-179.722	0.192	0.004
-159.750	263.930	-0.114	-0.196
-158.735	390.097	0.060	0.123
-157.720	-121.865	-0.273	-0.044
-156.706	-200.000	0.002	0.327
-155.691	192.817	0.253	0.377
-154.677	498.156	0.039	-0.090
-153.662	738.143	0.122	0.322
-152.647	800.000	0.010	-0.034
-151.633	-122.029	0.144	-0.023
-150.618	44.768	-0.118	-0.107
-149.604	-36.092	0.156	-0.083
-148.589	-85.682	-0.273	-0.084
-147.574	199.843	0.029	0.044
-146.560	470.379	0.168	0.372
-145.545	118.555	0.167	0.203
-144.531	800.000	-0.125	0.486
-143.516	567.447	0.081	0.193
-142.502	-13.965	-0.054	0.034
-141.487	-110.369	0.291	-0.060
-140.472	-136.536	-0.376	-0.043
-139.458	800.000	-0.047	0.178
-138.443	146.339	0.245	0.325
-137.429	-95.739	0.223	-0.059
-136.414	-95.130	0.126	0.034
-135.399	-45.900	0.187	0.091
-134.385	-25.563	-0.260	-0.151
-133.370	-80.867	0.214	0.070
-132.356	65.192	-0.261	-0.260
-131.341	9.105	-0.229	0.170
-130.326	-200.000	-0.045	0.225
-129.312	-86.943	-0.228	0.068
-128.297	-40.503	0.206	-0.105
-127.283	-81.511	0.227	0.074
-126.268	-146.089	0.231	0.020
-125.253	-13.504	-0.132	0.084
-124.239	-200.000	-0.019	0.184
-123.224	-200.000	-0.007	0.213
-122.210	800.000	0.058	0.203
-121.195	-153.385	0.105	-0.007
-120.180	-53.936	-0.103	0.046
