DTS Sentinel unit serial number:	SN413079Multiplexer serial number:	ORYXHardware model number:	OX4-SRSoftware version number:	ORYX F/W v4.00 Oryx Data Collector v3.7.2.0data status	okinstallation	princeton_trtdifferential loss correction	single-endedforward channel	channel 2reverse channel	N/Adate	2019/09/13time	00:07:35forward acquisition time	60.00reverse acquisition time	0.00gamma	496.2192k internal	0.2332k external	0.2332temperature offset calibration	1.0174default loss term (dB/km)	0.3790temperature slope calibration	1.0000multiplexer offset coefficient	1.0000multiplexer slope coefficient	1.0000fibre end	0.00T internal ref (°C)	28.61T ext. ref 1 (°C)	3.79T ext. ref 2 (°C)	23.26length (m)	temperature (°C)	Stokes	anti-Stokes-747.200	354.892	-0.034	-0.067
-746.185	489.617	0.056	0.128
-745.171	120.327	0.121	0.152
-744.156	-53.757	-0.175	0.080
-743.142	-71.187	-0.123	-0.047
-742.127	442.438	-0.119	-0.262
-741.112	-51.669	0.309	0.145
-740.098	-200.000	-0.081	0.658
-739.083	-13.373	0.152	0.099
-738.069	-67.520	0.108	-0.043
-737.054	695.487	0.073	-0.193
-736.039	-68.608	-0.219	-0.085
-735.025	-15.460	0.137	0.088
-734.010	-54.409	-0.241	0.110
-732.996	-25.443	-0.057	-0.034
-731.981	67.405	-0.116	0.120
-730.966	-84.092	-0.197	-0.063
-729.952	-79.135	0.298	0.102
-728.937	-38.241	-0.261	-0.139
-727.923	347.789	0.109	0.217
-726.908	142.866	-0.126	-0.169
-725.894	116.064	-0.151	-0.186
-724.879	14.552	0.259	0.204
-723.864	113.815	-0.199	-0.243
-722.850	-104.460	0.080	0.019
-721.835	251.099	-0.074	-0.127
-720.821	-200.000	0.065	-0.561
-719.806	800.000	-0.098	-0.377
-718.791	135.987	0.085	0.112
-717.777	-200.000	0.079	-0.398
-716.762	633.888	0.051	-0.131
-715.748	53.507	-0.121	-0.116
-714.733	34.264	-0.172	-0.151
-713.718	-200.000	0.031	-0.226
-712.704	-200.000	-0.008	0.210
-711.689	73.780	-0.099	0.104
-710.675	800.000	0.044	-0.134
-709.660	-97.720	-0.079	-0.021
-708.645	-1.882	0.243	0.172
-707.631	-200.000	-0.033	0.151
-706.616	413.795	-0.084	-0.180
-705.602	342.837	-0.057	-0.112
-704.587	-67.891	-0.183	0.072
-703.572	-50.516	-0.210	0.100
-702.558	-200.000	-0.029	0.307
-701.543	-90.416	0.148	-0.043
-700.529	45.724	0.187	-0.174
-699.514	800.000	0.074	0.282
-698.499	281.614	0.112	-0.202
-697.485	-200.000	0.036	0.351
-696.470	-200.000	0.004	-0.026
-695.456	46.236	0.242	-0.225
-694.441	-83.449	0.324	0.104
-693.426	-200.000	-0.010	0.088
-692.412	-69.716	-0.185	0.071
-691.397	-200.000	0.017	-0.337
-690.383	-200.000	-0.032	-0.144
-689.368	-96.803	-0.580	0.153
-688.354	183.878	-0.103	0.152
-687.339	-159.926	-0.227	-0.012
-686.324	-200.000	-0.029	-0.146
-685.310	-120.796	-0.072	-0.012
-684.295	287.136	-0.115	0.208
-683.281	-133.488	-0.226	0.028
-682.266	270.303	0.084	-0.148
-681.251	800.000	0.039	-0.127
-680.237	179.408	-0.085	-0.124
-679.222	43.514	-0.211	-0.193
-678.208	-200.000	0.046	-0.269
-677.193	-28.101	0.081	0.047
-676.178	-200.000	0.054	-0.363
-675.164	-200.000	-0.007	0.225
-674.149	117.786	-0.079	-0.097
-673.135	6.268	-0.314	0.234
-672.120	-200.000	0.030	0.155
-671.105	292.038	-0.097	-0.176
-670.091	776.937	-0.054	-0.148
-669.076	-174.493	-0.408	-0.012
-668.062	-152.627	0.091	0.006
-667.047	320.482	-0.270	-0.513
-666.032	104.464	0.286	-0.337
-665.018	-200.000	0.023	0.382
-664.003	-14.168	-0.088	-0.057
-662.989	24.968	-0.154	0.128
-661.974	-200.000	0.019	-0.306
-660.959	800.000	-0.048	-0.168
-659.945	800.000	0.131	-0.402
-658.930	-200.000	-0.043	0.340
-657.916	-200.000	0.005	-0.071
-656.901	-126.472	-0.097	-0.015
-655.886	0.430	-0.424	-0.303
-654.872	456.710	-0.212	0.471
-653.857	-35.233	0.147	-0.080
-652.843	11.614	0.164	-0.126
-651.828	-168.797	0.240	-0.009
-650.814	800.000	-0.076	-0.281
-649.799	-140.339	0.343	-0.036
-648.784	-16.657	-0.181	-0.115
-647.770	-84.441	-0.077	0.024
-646.755	-41.043	0.228	0.118
-645.741	-66.047	-0.262	-0.105
-644.726	161.254	0.173	-0.242
-643.711	-77.548	0.227	0.079
-642.697	-13.580	0.215	-0.140
-641.682	130.711	-0.239	-0.307
-640.668	-166.164	0.147	-0.006
-639.653	800.000	-0.028	0.102
-638.638	389.181	0.047	0.098
-637.624	231.250	-0.072	0.118
-636.609	-200.000	-0.001	-0.170
-635.595	-200.000	-0.007	0.349
-634.580	-41.243	-0.308	0.159
-633.565	29.532	-0.244	0.207
-632.551	508.873	-0.047	0.110
-631.536	-142.574	-0.326	0.032
-630.522	-64.197	0.349	-0.143
-629.507	-154.824	-0.178	-0.012
-628.492	-65.358	-0.325	0.131
-627.478	-71.966	-0.274	-0.102
-626.463	-112.893	-0.138	0.027
-625.449	-146.619	-0.148	0.013
-624.434	289.893	-0.089	-0.162
-623.419	151.147	-0.153	-0.209
-622.405	800.000	-0.111	0.481
-621.390	-45.816	0.301	-0.149
-620.376	-200.000	0.060	-0.285
-619.361	-200.000	0.008	-0.082
-618.346	164.757	-0.186	0.263
-617.332	29.680	-0.108	0.092
-616.317	800.000	0.046	-0.141
-615.303	133.117	-0.096	0.123
-614.288	-200.000	-0.024	-0.111
-613.273	-132.525	-0.503	0.065
-612.259	66.795	0.227	-0.231
-611.244	800.000	-0.045	-0.181
-610.230	800.000	-0.065	-0.183
-609.215	69.163	-0.140	-0.144
-608.201	405.176	0.114	-0.240
-607.186	-200.000	-0.014	-0.491
-606.171	-149.527	0.262	-0.021
-605.157	68.287	-0.290	0.297
-604.142	603.432	0.017	-0.042
-603.128	-90.457	0.337	-0.098
-602.113	121.511	-0.047	-0.058
-601.098	283.500	-0.035	0.062
-600.084	-200.000	-0.021	-0.160
-599.069	-200.000	-0.083	0.403
-598.055	-88.513	-0.317	-0.095
-597.040	800.000	-0.006	0.025
-596.025	-39.241	0.072	0.038
-595.011	290.985	-0.027	-0.049
-593.996	106.712	-0.169	0.200
-592.982	-6.454	0.215	0.147
-591.967	-200.000	-0.026	-0.354
-590.952	800.000	-0.052	-0.155
-589.938	662.085	-0.079	-0.205
-588.923	-94.346	0.346	-0.094
-587.909	131.790	-0.257	0.330
-586.894	-49.693	-0.234	-0.111
-585.879	67.977	0.095	-0.097
-584.865	11.282	0.158	0.121
-583.850	4.974	0.091	-0.067
-582.836	-42.963	0.200	-0.101
-581.821	-65.497	-0.188	-0.076
-580.806	-52.660	0.179	0.083
-579.792	-129.996	0.429	-0.059
-578.777	583.169	-0.111	0.272
-577.763	-200.000	-0.060	-0.280
-576.748	774.124	-0.111	-0.303
-575.733	149.185	0.075	0.102
-574.719	219.727	-0.081	-0.130
-573.704	-108.541	0.207	-0.044
-572.690	-128.878	0.124	-0.017
-571.675	800.000	0.113	-0.342
-570.661	800.000	-0.062	0.228
-569.646	62.845	0.202	-0.202
-568.631	-200.000	0.064	-0.288
-567.617	-58.991	-0.376	-0.162
-566.602	-18.968	0.170	-0.106
-565.588	-93.163	0.186	-0.052
-564.573	198.967	0.076	-0.117
-563.558	755.981	0.125	-0.337
-562.544	800.000	0.110	-0.353
-561.529	800.000	-0.064	-0.198
-560.515	-94.050	-0.172	0.047
-559.500	119.618	0.148	0.183
-558.485	256.498	-0.055	-0.094
-557.471	148.655	0.064	0.087
-556.456	30.258	-0.332	-0.283
-555.442	-200.000	-0.032	-0.451
-554.427	9.288	-0.093	0.071
-553.412	-49.614	-0.139	0.066
-552.398	223.795	0.147	-0.237
-551.383	80.137	-0.355	0.381
-550.369	-98.441	0.263	0.067
-549.354	250.969	-0.105	0.178
-548.339	30.155	0.037	0.032
-547.325	220.687	0.061	0.098
-546.310	-17.134	-0.099	-0.062
-545.296	-123.767	-0.102	-0.016
-544.281	408.905	-0.038	-0.081
-543.266	-200.000	-0.013	0.334
-542.252	736.446	0.039	-0.104
-541.237	369.892	-0.203	0.410
-540.223	-3.186	0.387	-0.269
-539.208	9.843	0.193	0.146
-538.193	-30.755	-0.281	-0.159
-537.179	37.622	-0.327	-0.290
-536.164	-10.257	-0.195	0.129
-535.150	800.000	0.157	0.451
-534.135	183.515	0.068	0.101
-533.121	-68.159	-0.052	0.020
-532.106	-76.213	-0.217	0.076
-531.091	-200.000	0.009	-0.157
-530.077	89.676	0.095	0.106
-529.062	-85.839	0.322	-0.100
-528.048	-56.110	0.164	-0.073
-527.033	34.222	-0.034	0.029
-526.018	-200.000	0.001	-0.116
-525.004	92.038	-0.108	-0.121
-523.989	-200.000	0.037	0.266
-522.975	-109.791	0.316	0.066
-521.960	248.159	-0.155	0.261
-520.945	-200.000	0.041	0.391
-519.931	574.133	-0.014	0.035
-518.916	-11.268	0.418	-0.274
-517.902	800.000	-0.119	-0.405
-516.887	-161.854	-0.217	-0.011
-515.872	18.964	0.157	0.125
-514.858	-62.812	0.167	-0.069
-513.843	800.000	-0.030	0.100
-512.829	-118.163	-0.356	-0.063
-511.814	-200.000	0.045	0.224
-510.799	-59.431	0.262	0.112
-509.785	79.912	-0.131	0.140
-508.770	186.000	0.072	-0.107
-507.756	-89.341	0.132	-0.039
-506.741	-25.597	0.109	0.064
-505.726	800.000	0.042	0.133
-504.712	52.047	0.101	-0.096
-503.697	449.086	-0.048	-0.105
-502.683	-105.724	0.337	0.076
-501.668	-138.325	0.229	-0.025
-500.653	-89.029	0.377	0.111
-499.639	244.480	-0.168	-0.281
-498.624	-200.000	0.073	0.363
-497.610	83.349	0.116	-0.125
-496.595	-60.054	-0.392	0.167
-495.581	800.000	-0.099	-0.307
-494.566	409.750	-0.154	-0.326
-493.551	-200.000	0.003	0.089
-492.537	800.000	0.069	-0.194
-491.522	-64.062	-0.167	0.068
-490.508	55.469	-0.134	-0.129
-489.493	-200.000	-0.046	0.217
-488.478	134.872	-0.100	0.129
-487.464	-66.631	0.244	0.096
-486.449	-62.212	0.119	0.050
-485.435	34.039	0.302	-0.262
-484.420	-157.603	-0.361	0.021
-483.405	526.152	-0.116	0.273
-482.391	-156.518	-0.385	-0.024
-481.376	-200.000	0.009	0.067
-480.362	1.986	-0.109	-0.078
-479.347	224.397	-0.125	0.200
-478.332	-121.328	-0.250	-0.042
-477.318	-200.000	0.036	-0.220
-476.303	-23.340	0.196	0.117
-475.289	-86.062	0.177	0.054
-474.274	-115.516	0.044	0.008
-473.259	-31.112	-0.131	-0.074
-472.245	672.283	0.072	0.185
-471.230	-101.082	0.356	0.087
-470.216	223.594	-0.164	-0.263
-469.201	-60.178	-0.197	0.084
-468.186	136.004	0.328	-0.426
-467.172	206.177	0.151	-0.234
-466.157	142.214	-0.120	-0.158
-465.143	-120.789	0.338	-0.057
-464.128	-31.711	-0.202	0.113
-463.113	-200.000	0.037	0.321
-462.099	-181.135	-0.209	0.004
-461.084	-75.116	0.303	0.108
-460.070	633.963	-0.059	-0.148
-459.055	104.042	-0.034	-0.040
-458.040	417.499	-0.056	-0.119
-457.026	-97.368	0.251	0.065
-456.011	-200.000	-0.015	0.259
-454.997	-60.984	-0.180	-0.076
-453.982	-200.000	-0.021	-0.101
-452.968	-122.002	-0.315	0.052
-451.953	800.000	0.105	-0.301
-450.938	-34.813	-0.256	-0.139
-449.924	-200.000	0.001	0.142
-448.909	-93.856	-0.153	-0.042
-447.895	-105.216	0.158	-0.036
-446.880	-110.392	0.259	-0.054
-445.865	234.415	0.037	-0.060
-444.851	-183.120	0.019	-0.000
-443.836	-200.000	-0.002	0.023
-442.822	-200.000	0.040	0.266
-441.807	337.533	0.031	-0.060
-440.792	375.146	0.045	0.092
-439.778	173.632	0.014	-0.020
-438.763	-97.578	0.177	0.046
-437.749	119.569	0.120	-0.147
-436.734	158.187	0.140	-0.193
-435.719	430.086	-0.044	0.095
-434.705	77.586	-0.283	0.299
-433.690	20.704	0.144	-0.116
-432.676	-89.975	0.074	-0.022
-431.661	60.438	0.105	0.104
-430.646	-142.362	-0.084	-0.008
-429.632	800.000	0.052	0.160
-428.617	-50.522	-0.077	0.036
-427.603	-69.660	0.225	-0.086
-426.588	800.000	-0.066	0.221
-425.573	784.660	0.122	0.333
-424.559	-92.679	-0.209	-0.058
-423.544	-73.199	0.577	0.210
-422.530	-200.000	-0.028	-0.203
-421.515	-200.000	-0.227	-0.000
-420.500	-12.276	-0.058	0.037
-419.486	520.702	0.179	0.416
-418.471	67.319	0.116	-0.118
-417.457	-0.638	-0.248	-0.174
-416.442	-124.985	-0.249	-0.038
-415.428	125.433	-0.310	-0.389
-414.413	800.000	-0.079	-0.293
-413.398	62.195	0.151	-0.150
-412.384	17.790	0.242	-0.191
-411.369	-14.314	0.180	0.115
-410.355	9.002	-0.013	-0.010
-409.340	64.232	-0.115	-0.115
-408.325	-140.031	-0.341	0.036
-407.311	800.000	-0.100	-0.381
-406.296	117.621	0.079	0.097
-405.282	-15.134	-0.048	0.030
-404.267	-128.643	0.484	-0.068
-403.252	-141.298	-0.078	-0.008
-402.238	800.000	-0.036	-0.125
-401.223	216.177	-0.077	-0.122
-400.209	-21.074	-0.026	0.016
-399.194	-200.000	0.001	-0.106
-398.179	91.211	-0.278	0.310
-397.165	800.000	-0.041	0.154
-396.150	-97.525	0.278	-0.072
-395.136	800.000	0.057	0.240
-394.121	-29.079	-0.166	0.095
-393.106	-91.942	0.162	-0.046
-392.092	-120.741	-0.252	0.042
-391.077	63.799	-0.070	0.070
-390.063	-56.351	0.468	-0.206
-389.048	-146.380	0.484	0.042
-388.033	-200.000	0.007	0.132
-387.019	-51.375	0.163	0.076
-386.004	-4.132	0.188	-0.130
-384.990	-63.420	-0.083	-0.034
-383.975	71.954	-0.355	-0.366
-382.960	-44.143	0.085	0.043
-381.946	-70.446	-0.197	-0.074
-380.931	-158.663	-0.099	-0.006
-379.917	-46.413	0.065	0.032
-378.902	1.313	0.143	0.102
-377.888	13.858	-0.089	-0.069
-376.873	-69.615	-0.193	0.073
-375.858	-200.000	0.003	0.050
-374.844	-108.906	-0.247	-0.052
-373.829	800.000	0.082	0.233
-372.815	120.545	0.074	-0.091
-371.800	-43.860	-0.305	0.152
-370.785	69.718	-0.092	0.094
-369.771	-200.000	-0.068	0.386
-368.756	-69.353	0.042	-0.016
-367.742	-152.944	0.140	-0.010
-366.727	82.687	0.167	-0.180
-365.712	800.000	0.092	0.315
-364.698	-200.000	0.020	0.339
-363.683	37.094	0.149	-0.131
-362.669	-200.000	-0.016	-0.111
-361.654	-157.044	-0.070	0.004
-360.639	146.927	-0.118	0.157
-359.625	-69.293	-0.190	-0.072
-358.610	-95.281	0.287	0.077
-357.596	-200.000	0.002	0.065
-356.581	50.702	-0.075	0.071
-355.566	348.827	-0.074	0.144
-354.552	352.785	0.118	0.231
-353.537	-102.928	-0.194	0.046
-352.523	-200.000	0.014	-0.096
-351.508	184.718	-0.084	-0.123
-350.493	313.535	0.100	0.186
-349.479	-88.905	0.203	-0.060
-348.464	63.577	-0.115	0.114
-347.450	800.000	-0.038	0.129
-346.435	-97.984	-0.155	0.040
-345.420	763.803	0.057	0.154
-344.406	-200.000	-0.035	-0.171
-343.391	-22.083	0.096	0.057
-342.377	-200.000	0.037	-0.208
-341.362	-200.000	-0.024	0.215
-340.348	-200.000	-0.041	0.286
-339.333	10.284	0.180	0.136
-338.318	-130.496	-0.219	-0.029
-337.304	497.156	-0.089	0.204
-336.289	-53.742	-0.183	0.083
-335.275	47.459	-0.218	0.201
-334.260	1.597	-0.269	-0.192
-333.245	3.258	-0.148	-0.107
-332.231	3.179	0.243	0.175
-331.216	-42.421	-0.204	0.103
-330.202	15.264	0.204	0.159
-329.187	610.518	-0.097	-0.240
-328.172	-61.116	-0.256	0.107
-327.158	-200.000	0.040	-0.246
-326.143	293.167	-0.049	-0.089
-325.129	-165.842	-0.187	0.008
-324.114	-100.223	0.189	0.046
-323.099	-148.337	0.418	-0.034
-322.085	-91.111	0.074	0.021
-321.070	507.861	-0.107	0.245
-320.056	503.126	0.185	0.422
-319.041	51.453	-0.235	0.221
-318.026	-4.275	0.049	0.034
-317.012	-49.597	-0.073	0.034
-315.997	-200.000	0.017	-0.152
-314.983	-76.548	-0.145	0.050
-313.968	-137.529	0.190	0.021
-312.953	-200.000	-0.070	0.315
-311.939	200.632	-0.020	-0.031
-310.924	-55.187	0.270	0.120
-309.910	-200.000	0.057	-0.436
-308.895	-90.623	-0.486	0.139
-307.880	-200.000	0.001	0.180
-306.866	-152.466	-0.227	0.016
-305.851	-171.343	-0.228	0.008
-304.837	-200.000	0.043	0.411
-303.822	-200.000	0.044	-0.228
-302.807	-200.000	-0.015	-0.068
-301.793	244.860	0.060	-0.100
-300.778	9.231	-0.304	-0.228
-299.764	-18.357	0.176	-0.109
-298.749	-167.032	0.194	0.008
-297.735	800.000	0.065	0.241
-296.720	-106.598	-0.195	-0.043
-295.705	800.000	0.078	-0.234
-294.691	-127.391	0.208	0.030
-293.676	311.462	0.052	-0.096
-292.662	21.489	0.053	-0.043
-291.647	-49.460	-0.329	-0.155
-290.632	117.905	0.214	-0.260
-289.618	420.754	-0.087	0.184
-288.603	103.320	-0.076	-0.088
-287.589	-10.465	0.228	0.149
-286.574	-108.501	-0.184	-0.039
-285.559	-200.000	0.007	0.087
-284.545	-200.000	-0.047	0.254
-283.530	-200.000	0.000	-0.015
-282.516	-200.000	-0.015	0.226
-281.501	537.899	0.094	0.221
-280.486	-117.157	-0.034	0.006
-279.472	-95.729	0.088	0.023
-278.457	46.223	0.110	0.101
-277.443	800.000	-0.134	0.493
-276.428	-134.880	-0.213	0.025
-275.413	-121.793	-0.239	0.039
-274.399	-133.775	0.207	0.025
-273.384	203.886	0.037	-0.056
-272.370	224.510	0.171	0.272
-271.355	86.302	0.082	0.089
-270.340	-177.380	0.437	0.011
-269.326	86.630	-0.132	0.144
-268.311	104.498	-0.062	-0.072
-267.297	-48.842	-0.279	0.132
-266.282	50.903	-0.199	0.186
-265.267	-200.000	-0.003	0.083
-264.253	88.278	0.038	-0.041
-263.238	49.194	-0.268	-0.249
-262.224	-98.311	0.129	0.033
-261.209	-57.503	0.107	0.046
-260.195	-70.313	0.163	0.061
-259.180	3.924	-0.262	-0.189
-258.165	-17.421	0.218	0.136
-257.151	81.472	-0.127	0.136
-256.136	800.000	0.124	-0.387
-255.122	717.173	-0.004	0.011
-254.107	-94.096	-0.171	0.046
-253.092	-101.857	0.113	0.027
-252.078	-200.000	-0.048	-0.417
-251.063	-180.349	0.137	0.003
-250.049	153.329	0.229	0.310
-249.034	800.000	-0.076	0.235
-248.019	109.980	0.089	0.106
-247.005	106.896	-0.235	-0.275
-245.990	-114.331	0.161	0.031
-244.976	138.403	-0.230	0.298
-243.961	800.000	0.038	-0.139
-242.946	-165.917	-0.267	0.011
-241.932	584.663	-0.019	-0.047
-240.917	-93.319	0.487	0.133
-239.903	-200.000	0.059	-0.384
-238.888	-200.000	-0.014	-0.279
-237.873	-104.776	-0.112	-0.025
-236.859	117.344	0.187	-0.226
-235.844	141.257	-0.066	0.086
-234.830	590.668	0.105	0.256
-233.815	-200.000	-0.017	0.081
-232.800	28.476	0.215	-0.179
-231.786	-114.179	-0.164	-0.031
-230.771	89.720	0.089	0.098
-229.757	601.408	0.161	-0.394
-228.742	175.812	-0.091	-0.130
-227.727	-17.661	0.220	-0.136
-226.713	-134.725	-0.286	0.034
-225.698	800.000	0.027	-0.093
-224.684	48.438	0.362	0.334
-223.669	-13.464	0.112	0.071
-222.655	126.560	-0.079	0.099
-221.640	-49.944	0.200	-0.093
-220.625	-37.739	-0.387	-0.203
-219.611	-98.245	0.417	0.106
-218.596	-14.288	-0.103	0.065
-217.582	-66.860	0.339	0.132
-216.567	125.075	0.013	0.016
-215.552	-121.174	0.327	0.054
-214.538	-6.970	0.209	0.140
-213.523	2.452	0.238	-0.170
-212.509	-92.616	-0.511	0.141
-211.494	239.924	0.062	0.102
-210.479	-56.755	0.155	-0.068
-209.465	800.000	-0.055	0.176
-208.450	51.223	0.242	-0.226
-207.436	148.800	0.147	0.196
-206.421	-45.182	-0.109	0.054
-205.406	115.063	0.317	-0.381
-204.392	800.000	0.049	0.169
-203.377	-124.073	0.203	0.031
-202.363	12.294	-0.102	-0.078
-201.348	7.001	-0.138	-0.101
-200.333	12.987	0.242	-0.184
-199.319	800.000	-0.019	-0.058
-198.304	241.861	-0.085	0.141
-197.290	446.623	-0.110	-0.239
-196.275	-76.528	0.394	-0.136
-195.260	800.000	0.016	-0.057
-194.246	-151.843	-0.131	0.009
-193.231	-89.623	0.028	-0.008
-192.217	-132.970	-0.149	0.019
-191.202	216.223	-0.139	-0.217
-190.187	35.620	0.036	0.031
-189.173	-148.844	0.230	-0.018
-188.158	-47.403	0.225	0.108
-187.144	122.284	-0.084	-0.103
-186.129	-200.000	-0.002	0.281
-185.114	-93.539	-0.374	0.102
-184.100	-74.804	0.192	-0.068
-183.085	-200.000	0.024	-0.234
-182.071	137.405	-0.092	0.118
-181.056	-200.000	0.070	-0.395
-180.042	-200.000	-0.050	-0.225
-179.027	54.994	-0.172	-0.164
-178.012	-165.073	0.217	0.009
-176.998	249.075	0.187	0.311
-175.983	-200.000	0.017	-0.128
-174.969	38.294	-0.428	0.375
-173.954	153.557	0.145	-0.195
-172.939	-162.200	0.233	-0.011
-171.925	-117.405	-0.266	-0.047
-170.910	-200.000	-0.012	0.333
-169.896	800.000	0.142	-0.457
-168.881	-7.752	-0.073	-0.048
-167.866	44.744	-0.178	-0.161
-166.852	73.377	0.195	-0.201
-165.837	-129.062	-0.388	0.053
-164.823	-200.000	0.036	-0.501
-163.808	161.911	-0.285	0.393
-162.793	-200.000	0.031	0.136
-161.779	32.261	-0.048	-0.041
-160.764	-200.000	0.007	0.035
-159.750	56.102	-0.184	0.175
-158.735	-200.000	-0.013	0.254
-157.720	181.271	0.066	0.095
-156.706	-200.000	-0.004	-0.273
-155.691	-126.685	0.191	-0.028
-154.677	61.050	-0.204	0.199
-153.662	-96.728	-0.092	0.024
-152.647	-62.635	-0.196	0.080
-151.633	-7.669	-0.232	0.154
-150.618	255.550	-0.060	0.101
-149.604	800.000	-0.052	-0.217
-148.589	697.435	0.120	-0.309
-147.574	-200.000	-0.025	0.343
-146.560	-104.734	-0.027	0.006
-145.545	260.503	0.040	-0.069
-144.531	-10.519	-0.338	-0.220
-143.516	-200.000	0.006	0.096
-142.502	-49.039	0.268	0.126
-141.487	800.000	0.038	-0.131
-140.472	-80.096	-0.288	-0.095
-139.458	-53.123	-0.086	0.039
-138.443	-136.711	0.335	-0.038
-137.429	-31.002	0.236	0.131
-136.414	-76.168	-0.103	-0.036
-135.399	-135.698	0.068	-0.008
-134.385	-200.000	-0.011	0.087
-133.370	149.669	-0.099	0.132
-132.356	-133.222	-0.239	-0.030
-131.341	-133.736	-0.209	0.026
-130.326	-68.641	0.211	0.080
-129.312	-5.283	-0.049	-0.033
-128.297	-151.141	0.023	-0.002
-127.283	715.270	0.049	0.126
-126.268	159.670	0.108	0.147
-125.253	-113.470	-0.320	0.062
-124.239	183.213	-0.123	0.179
-123.224	-50.256	0.167	0.078
-122.210	800.000	0.045	-0.166
-121.195	-4.120	-0.280	0.190
