DTS Sentinel unit serial number:	SN413079Multiplexer serial number:	ORYXHardware model number:	OX4-SRSoftware version number:	ORYX F/W v4.00 Oryx Data Collector v3.7.2.0data status	okinstallation	princeton_trtdifferential loss correction	single-endedforward channel	channel 2reverse channel	N/Adate	2019/09/12time	20:55:35forward acquisition time	60.00reverse acquisition time	0.00gamma	496.2192k internal	0.2328k external	0.2328temperature offset calibration	1.0161default loss term (dB/km)	0.3790temperature slope calibration	1.0000multiplexer offset coefficient	1.0000multiplexer slope coefficient	1.0000fibre end	0.00T internal ref (°C)	30.94T ext. ref 1 (°C)	3.59T ext. ref 2 (°C)	25.50length (m)	temperature (°C)	Stokes	anti-Stokes-747.200	112.439	0.047	0.057
-746.185	36.204	-0.118	-0.105
-745.171	47.368	-0.088	0.083
-744.156	-200.000	0.025	0.205
-743.142	358.529	-0.118	0.237
-742.127	-183.694	0.255	-0.004
-741.112	-132.923	-0.206	0.026
-740.098	12.748	0.170	-0.133
-739.083	284.987	0.071	-0.128
-738.069	-113.791	-0.220	0.043
-737.054	-200.000	0.007	0.107
-736.039	32.321	-0.163	-0.142
-735.025	-16.545	-0.119	-0.076
-734.010	79.699	-0.256	-0.277
-732.996	-16.936	-0.247	-0.157
-731.981	-200.000	0.020	-0.308
-730.966	-86.698	-0.583	0.180
-729.952	-55.710	-0.299	-0.135
-728.937	-49.912	-0.166	-0.079
-727.923	29.536	0.040	-0.034
-726.908	-71.039	0.098	-0.037
-725.894	27.578	-0.046	-0.039
-724.879	-28.523	-0.252	-0.147
-723.864	-68.363	-0.078	0.030
-722.850	-200.000	-0.033	-0.186
-721.835	-194.977	-0.241	-0.002
-720.821	121.746	0.135	-0.169
-719.806	-67.870	-0.229	0.090
-718.791	115.031	0.193	-0.237
-717.777	44.935	0.140	0.130
-716.762	-165.005	-0.308	-0.014
-715.748	7.669	0.336	-0.253
-714.733	-200.000	0.002	-0.531
-713.718	51.199	0.125	0.120
-712.704	21.498	0.105	0.086
-711.689	-116.058	0.111	-0.021
-710.675	-49.940	-0.281	0.134
-709.660	-200.000	-0.016	0.152
-708.645	75.043	0.234	-0.248
-707.631	778.895	-0.079	-0.217
-706.616	-200.000	-0.085	-0.403
-705.602	120.366	-0.177	0.221
-704.587	-200.000	-0.000	-0.330
-703.572	5.588	-0.429	0.319
-702.558	2.166	0.051	-0.037
-701.543	-136.049	0.208	-0.025
-700.529	169.461	-0.027	0.039
-699.514	-121.324	-0.595	-0.100
-698.499	-45.022	-0.276	0.138
-697.485	-100.486	-0.190	-0.047
-696.470	-200.000	0.054	-0.331
-695.456	181.299	-0.096	0.142
-694.441	630.462	-0.151	-0.384
-693.426	98.832	-0.075	-0.087
-692.412	-145.643	-0.068	0.006
-691.397	-112.256	-0.353	-0.071
-690.383	57.316	-0.270	0.265
-689.368	-2.768	-0.305	0.214
-688.354	-200.000	0.022	0.109
-687.339	383.228	0.109	0.226
-686.324	600.523	-0.080	-0.199
-685.310	-200.000	0.017	0.260
-684.295	477.802	0.063	0.143
-683.281	203.752	0.157	0.244
-682.266	659.658	-0.034	-0.088
-681.251	-200.000	0.001	0.337
-680.237	-70.182	-0.370	-0.141
-679.222	-200.000	-0.011	-0.194
-678.208	9.719	0.119	-0.091
-677.193	-28.272	-0.285	0.165
-676.178	-23.369	-0.298	0.180
-675.164	48.210	-0.206	-0.194
-674.149	-13.769	0.094	0.061
-673.135	-132.254	-0.134	0.017
-672.120	-61.265	-0.456	0.193
-671.105	478.082	0.134	-0.306
-670.091	-200.000	-0.022	-0.255
-669.076	-32.961	0.205	-0.114
-668.062	459.989	0.050	-0.113
-667.047	-94.663	0.156	-0.042
-666.032	187.359	0.226	-0.339
-665.018	800.000	0.018	0.072
-664.003	-200.000	-0.015	-0.401
-662.989	-63.701	-0.124	-0.051
-661.974	-200.000	0.017	-0.095
-660.959	-200.000	0.043	-0.196
-659.945	37.978	-0.150	0.134
-658.930	800.000	0.018	-0.066
-657.916	241.713	-0.092	-0.155
-656.901	-73.613	0.144	0.053
-655.886	-47.125	0.063	-0.031
-654.872	-118.381	0.303	0.054
-653.857	38.466	0.273	-0.244
-652.843	-68.971	0.137	-0.053
-651.828	447.807	-0.049	-0.108
-650.814	800.000	0.084	-0.318
-649.799	184.744	0.220	-0.328
-648.784	27.724	0.210	-0.178
-647.770	25.904	-0.157	-0.131
-646.755	9.376	-0.231	0.175
-645.741	-92.041	-0.077	0.022
-644.726	-65.055	0.408	-0.165
-643.711	69.297	-0.293	-0.303
-642.697	-200.000	0.015	-0.111
-641.682	-200.000	0.066	0.365
-640.668	-200.000	-0.025	-0.229
-639.653	453.646	0.102	0.227
-638.638	118.186	0.066	-0.082
-637.624	-77.319	0.249	-0.087
-636.609	-143.953	0.208	0.020
-635.595	-31.960	0.428	-0.241
-634.580	800.000	-0.026	-0.111
-633.565	-84.248	0.217	0.069
-632.551	800.000	0.075	0.294
-631.536	666.886	-0.066	-0.172
-630.522	-120.295	0.202	-0.034
-629.507	-200.000	0.035	0.246
-628.492	70.840	0.264	0.274
-627.478	-54.581	-0.199	0.090
-626.463	40.003	-0.440	-0.397
-625.449	342.775	0.161	-0.317
-624.434	-127.999	-0.026	0.004
-623.419	-145.869	-0.028	-0.003
-622.405	-96.657	-0.056	-0.015
-621.390	149.531	-0.009	0.012
-620.376	-69.637	-0.182	0.070
-619.361	-16.573	-0.110	0.070
-618.346	440.153	0.105	-0.231
-617.332	49.491	-0.159	-0.150
-616.317	76.033	-0.141	0.149
-615.303	800.000	-0.075	-0.265
-614.288	-200.000	-0.006	-0.191
-613.273	380.607	0.033	0.068
-612.259	-141.967	-0.103	-0.010
-611.244	800.000	-0.089	-0.340
-610.230	107.595	-0.176	-0.211
-609.215	20.460	-0.160	0.130
-608.201	219.406	-0.188	0.302
-607.186	-13.737	0.066	-0.043
-606.171	-23.369	0.010	-0.006
-605.157	-125.253	0.139	-0.021
-604.142	90.771	-0.305	0.343
-603.128	-96.041	-0.181	-0.048
-602.113	447.019	0.194	-0.428
-601.098	-54.997	0.221	-0.100
-600.084	138.133	0.138	0.181
-599.069	-200.000	-0.014	0.143
-598.055	-57.014	0.372	0.164
-597.040	-200.000	0.024	-0.111
-596.025	-57.146	-0.257	0.113
-595.011	-125.197	-0.138	-0.021
-593.996	800.000	-0.086	0.329
-592.982	-77.641	0.077	0.027
-591.967	-200.000	-0.008	0.302
-590.952	430.265	-0.148	0.320
-589.938	-192.477	-0.419	0.004
-588.923	-200.000	0.031	0.428
-587.909	-200.000	-0.001	0.185
-586.894	-84.717	-0.389	-0.123
-585.879	-64.321	0.439	-0.179
-584.865	-40.920	0.240	0.124
-583.850	235.035	0.143	-0.236
-582.836	800.000	-0.059	0.216
-581.821	141.359	0.042	-0.055
-580.806	-125.861	0.255	-0.039
-579.792	31.065	-0.195	0.168
-578.777	-2.668	-0.232	-0.163
-577.763	-200.000	-0.002	-0.198
-576.748	-166.229	-0.052	0.002
-575.733	254.574	-0.270	0.463
-574.719	-200.000	0.013	0.354
-573.704	228.980	-0.042	0.069
-572.690	-200.000	-0.065	-0.313
-571.675	20.603	0.205	0.166
-570.661	2.687	-0.294	0.213
-569.646	-200.000	0.021	-0.192
-568.631	443.579	-0.051	-0.113
-567.617	219.987	0.128	-0.205
-566.602	-49.653	0.220	-0.105
-565.588	27.031	-0.100	0.084
-564.573	259.266	-0.117	-0.203
-563.558	-200.000	-0.041	-0.271
-562.544	-200.000	-0.095	-0.513
-561.529	-133.125	0.249	0.032
-560.515	0.398	-0.105	-0.075
-559.500	127.301	-0.048	0.061
-558.485	-3.032	-0.189	0.132
-557.471	80.874	-0.129	-0.139
-556.456	547.941	0.094	-0.226
-555.442	772.504	0.049	0.133
-554.427	-55.752	0.130	-0.058
-553.412	5.016	-0.159	-0.117
-552.398	60.195	0.104	-0.103
-551.383	-8.468	-0.118	-0.079
-550.369	-30.003	0.177	0.101
-549.354	563.055	-0.106	0.258
-548.339	-200.000	0.004	0.034
-547.325	414.821	-0.104	0.221
-546.310	-14.433	0.121	-0.078
-545.296	245.027	-0.005	-0.008
-544.281	30.985	-0.173	0.148
-543.266	800.000	0.068	-0.236
-542.252	800.000	-0.078	0.323
-541.237	-15.807	-0.138	-0.088
-540.223	-141.720	0.096	-0.010
-539.208	-200.000	-0.071	0.361
-538.193	39.377	-0.023	0.021
-537.179	108.171	0.134	-0.159
-536.164	11.877	-0.241	-0.185
-535.150	-75.955	-0.206	0.073
-534.135	-200.000	0.037	-0.304
-533.121	-26.151	-0.211	0.124
-532.106	76.173	-0.114	0.121
-531.091	-123.093	-0.135	-0.022
-530.077	135.400	-0.156	0.202
-529.062	98.620	-0.143	0.164
-528.048	34.760	0.137	-0.120
-527.033	-13.896	0.204	0.132
-526.018	-147.101	-0.083	0.007
-525.004	-92.981	-0.016	-0.005
-523.989	-119.152	0.370	-0.065
-522.975	41.061	0.052	0.046
-521.960	-51.276	0.261	0.122
-520.945	-100.875	-0.067	0.017
-519.931	559.876	-0.124	-0.300
-518.916	-95.178	0.271	0.073
-517.902	105.442	0.035	0.041
-516.887	-130.785	-0.185	0.025
-515.872	-99.411	0.347	0.087
-514.858	-89.194	-0.212	0.063
-513.843	-95.558	-0.325	-0.087
-512.829	-200.000	-0.018	-0.084
-511.814	800.000	-0.089	0.257
-510.799	-200.000	0.007	-0.166
-509.785	-33.665	-0.266	-0.146
-508.770	3.850	-0.151	-0.110
-507.756	-182.017	-0.244	-0.005
-506.741	-52.275	-0.284	0.131
-505.726	-33.618	0.224	0.123
-504.712	-71.667	-0.382	-0.142
-503.697	-58.466	-0.106	-0.046
-502.683	132.823	0.137	-0.177
-501.668	800.000	-0.028	-0.106
-500.653	156.357	0.211	0.291
-499.639	-200.000	-0.003	0.119
-498.624	-200.000	-0.012	0.239
-497.610	-200.000	0.030	-0.164
-496.595	-58.113	0.352	0.153
-495.581	5.078	-0.152	-0.112
-494.566	-70.741	-0.310	-0.117
-493.551	53.657	-0.160	0.153
-492.537	-23.309	0.183	0.110
-491.522	-146.454	-0.237	-0.021
-490.508	-200.000	0.059	-0.383
-489.493	78.057	-0.054	0.058
-488.478	-70.431	-0.369	-0.139
-487.464	42.239	0.063	0.057
-486.449	-108.965	0.286	0.061
-485.435	584.367	-0.084	-0.205
-484.420	-7.403	0.217	-0.147
-483.405	-15.210	-0.173	0.110
-482.391	261.528	-0.193	-0.334
-481.376	-97.281	-0.197	-0.051
-480.362	-200.000	0.009	-0.138
-479.347	-143.447	0.132	0.013
-478.332	4.275	-0.189	-0.138
-477.318	28.822	-0.234	-0.197
-476.303	174.532	0.131	-0.189
-475.289	-32.973	0.174	-0.096
-474.274	48.057	0.072	-0.067
-473.259	-2.066	-0.113	-0.079
-472.245	800.000	-0.032	0.098
-471.230	-200.000	-0.005	-0.245
-470.216	800.000	-0.071	0.237
-469.201	-122.125	0.418	-0.068
-468.186	-200.000	-0.038	0.205
-467.172	-183.649	0.096	-0.002
-466.157	-200.000	-0.017	-0.288
-465.143	115.547	0.111	0.136
-464.128	-25.570	-0.267	0.157
-463.113	110.088	0.121	0.145
-462.099	-132.154	0.405	-0.052
-461.084	-184.327	-0.145	-0.002
-460.070	44.678	0.261	0.239
-459.055	-147.281	0.317	0.027
-458.040	35.346	-0.156	-0.136
-457.026	800.000	0.027	-0.086
-456.011	-200.000	-0.012	-0.084
-454.997	800.000	0.048	-0.181
-453.982	-87.604	-0.295	-0.089
-452.968	66.346	-0.057	-0.058
-451.953	-75.891	-0.096	-0.034
-450.938	36.571	0.193	-0.170
-449.924	-2.309	-0.015	0.011
-448.909	79.934	-0.184	0.197
-447.895	545.070	0.152	-0.363
-446.880	514.220	-0.077	0.180
-445.865	-92.622	-0.362	0.101
-444.851	-200.000	0.046	-0.251
-443.836	-148.573	-0.253	-0.021
-442.822	264.019	0.155	-0.268
-441.807	20.557	-0.024	0.019
-440.792	37.021	-0.154	0.136
-439.778	-97.324	-0.086	0.022
-438.763	378.105	0.136	0.277
-437.749	419.584	-0.045	-0.097
-436.734	-102.996	-0.258	-0.061
-435.719	-200.000	0.010	-0.361
-434.705	-93.347	-0.178	0.049
-433.690	336.334	0.106	-0.205
-432.676	33.351	0.309	0.267
-431.661	76.617	-0.143	-0.151
-430.646	23.153	-0.292	0.239
-429.632	800.000	0.095	0.331
-428.617	29.420	-0.133	-0.113
-427.603	800.000	-0.099	-0.295
-426.588	-36.169	0.233	-0.125
-425.573	38.770	-0.414	0.368
-424.559	-36.888	-0.104	0.056
-423.544	-200.000	0.001	-0.065
-422.530	-100.538	-0.303	-0.075
-421.515	209.774	-0.032	0.049
-420.500	-200.000	0.008	0.174
-419.486	-30.562	-0.169	0.095
-418.471	69.816	0.293	0.301
-417.457	-59.876	0.357	-0.152
-416.442	289.298	0.212	-0.382
-415.428	800.000	-0.095	-0.268
-414.413	800.000	-0.017	-0.066
-413.398	-110.500	-0.233	-0.048
-412.384	800.000	0.034	0.130
-411.369	-172.429	0.270	0.009
-410.355	-101.209	0.046	-0.011
-409.340	-150.594	0.075	-0.006
-408.325	250.347	-0.045	0.075
-407.311	800.000	-0.103	-0.292
-406.296	-35.374	0.241	-0.131
-405.282	-91.289	-0.121	0.034
-404.267	278.969	-0.158	-0.281
-403.252	348.110	0.053	0.104
-402.238	420.732	-0.117	0.249
-401.223	-200.000	0.022	0.152
-400.209	134.246	-0.160	-0.206
-399.194	-86.525	0.282	0.086
-398.179	-68.327	0.120	-0.046
-397.165	195.491	-0.183	-0.276
-396.150	273.613	0.064	-0.113
-395.136	-200.000	0.019	0.147
-394.121	358.437	0.187	0.372
-393.106	-200.000	-0.030	-0.198
-392.092	277.906	-0.149	-0.263
-391.077	36.981	0.221	0.194
-390.063	800.000	0.036	-0.130
-389.048	-200.000	-0.026	0.274
-388.033	-55.123	0.254	0.114
-387.019	-79.692	0.152	0.051
-386.004	54.468	-0.151	0.145
-384.990	-70.061	0.328	0.124
-383.975	-14.533	-0.278	0.178
-382.960	84.192	0.109	0.118
-381.946	-200.000	0.010	-0.187
-380.931	214.498	-0.130	0.204
-379.917	-123.079	0.560	0.089
-378.902	486.590	0.112	0.254
-377.888	-200.000	-0.033	-0.194
-376.873	31.384	-0.056	-0.048
-375.858	-85.910	-0.291	-0.089
-374.844	317.483	-0.047	-0.089
-373.829	-55.139	-0.129	0.058
-372.815	-144.177	0.149	0.014
-371.800	800.000	-0.031	-0.103
-370.785	800.000	-0.059	0.162
-369.771	-121.888	0.057	0.009
-368.756	202.085	-0.117	-0.180
-367.742	800.000	-0.033	-0.137
-366.727	322.011	-0.071	0.135
-365.712	-36.201	-0.154	-0.083
-364.698	-38.467	0.159	-0.083
-363.683	-15.912	0.266	-0.168
-362.669	20.619	-0.201	-0.161
-361.654	-200.000	0.027	0.415
-360.639	128.457	0.057	0.072
-359.625	-200.000	-0.016	0.206
-358.610	273.877	0.087	-0.153
-357.596	-122.727	0.149	-0.024
-356.581	800.000	-0.047	-0.193
-355.566	-38.924	0.284	0.148
-354.552	800.000	0.164	0.494
-353.537	-200.000	0.025	-0.133
-352.523	32.296	-0.134	0.115
-351.508	52.557	0.098	-0.093
-350.493	-76.970	0.317	0.110
-349.479	38.295	0.229	0.203
-348.464	179.182	0.228	-0.331
-347.450	800.000	0.074	-0.213
-346.435	1.418	-0.111	-0.079
-345.420	-5.174	-0.173	0.118
-344.406	766.988	0.020	0.054
-343.391	-200.000	0.061	-0.332
-342.377	181.398	-0.134	0.196
-341.362	375.610	-0.138	0.278
-340.348	-200.000	0.026	0.137
-339.333	156.366	0.135	0.184
-338.318	-200.000	0.022	0.198
-337.304	-44.580	-0.457	-0.227
-336.289	-200.000	0.006	0.109
-335.275	99.892	0.234	0.269
-334.260	17.228	-0.108	-0.085
-333.245	92.427	0.078	0.087
-332.231	-200.000	-0.012	-0.320
-331.216	-43.604	-0.249	-0.125
-330.202	800.000	0.062	-0.202
-329.187	643.924	-0.179	0.452
-328.172	25.074	0.206	-0.169
-327.158	218.877	0.203	-0.322
-326.143	-167.194	0.290	-0.012
-325.129	-200.000	-0.019	-0.378
-324.114	151.170	0.136	0.184
-323.099	303.671	0.112	0.205
-322.085	624.069	-0.097	-0.243
-321.070	-142.730	-0.152	0.015
-320.056	156.149	-0.122	0.167
-319.041	78.720	-0.234	0.248
-318.026	-112.521	0.179	-0.035
-317.012	800.000	0.013	-0.044
-315.997	344.447	0.019	0.038
-314.983	-94.058	0.219	0.059
-313.968	-80.658	0.009	-0.003
-312.953	-118.277	0.146	-0.026
-311.939	-3.850	-0.179	-0.123
-310.924	248.955	-0.112	-0.188
-309.910	-200.000	0.026	0.278
-308.895	-200.000	0.002	0.352
-307.880	-44.232	-0.414	0.206
-306.866	48.661	0.310	0.288
-305.851	-91.935	0.239	-0.067
-304.837	770.794	0.056	-0.150
-303.822	-200.000	-0.088	-0.478
-302.807	-200.000	0.019	0.212
-301.793	81.587	0.162	0.174
-300.778	-179.879	-0.097	0.002
-299.764	800.000	-0.025	0.069
-298.749	-108.223	-0.234	-0.050
-297.735	-152.719	-0.127	0.009
-296.720	800.000	-0.062	-0.182
-295.705	-200.000	0.005	-0.029
-294.691	-167.904	-0.256	-0.010
-293.676	187.828	0.160	0.237
-292.662	-80.982	0.240	0.079
-291.647	800.000	0.046	0.142
-290.632	-20.032	0.044	-0.027
-289.618	-144.012	-0.336	0.031
-288.603	-162.163	0.185	-0.009
-287.589	-65.219	0.127	-0.051
-286.574	67.700	0.146	-0.148
-285.559	-67.584	0.272	-0.106
-284.545	800.000	-0.045	-0.155
-283.530	-81.671	0.197	-0.064
-282.516	-66.851	-0.275	-0.108
-281.501	99.381	-0.392	0.449
-280.486	-200.000	0.063	-0.463
-279.472	155.396	-0.120	-0.163
-278.457	-149.586	-0.358	0.028
-277.443	-65.542	0.266	-0.106
-276.428	195.556	-0.038	-0.057
-275.413	-200.000	-0.047	-0.268
-274.399	14.102	-0.278	0.214
-273.384	800.000	-0.087	0.263
-272.370	183.241	0.197	0.288
-271.355	-134.508	-0.133	-0.016
-270.340	800.000	-0.026	-0.091
-269.326	-200.000	0.051	0.446
-268.311	-200.000	-0.006	-0.331
-267.297	800.000	-0.016	-0.055
-266.282	-49.519	0.442	-0.208
-265.267	40.124	-0.181	0.161
-264.253	-42.871	0.259	0.130
-263.238	-69.615	0.227	-0.086
-262.224	-41.755	-0.339	0.172
-261.209	-167.542	-0.205	-0.008
-260.195	126.626	-0.025	-0.031
-259.180	22.252	0.226	-0.182
-258.165	800.000	-0.067	0.228
-257.151	-43.823	0.138	-0.069
-256.136	175.583	0.070	0.100
-255.122	136.876	-0.116	-0.150
-254.107	-30.667	0.161	0.090
-253.092	800.000	-0.060	-0.183
-252.078	63.472	-0.061	0.061
-251.063	354.786	-0.042	-0.082
-250.049	54.882	-0.338	0.323
-249.034	800.000	0.046	0.137
-248.019	-35.613	-0.206	-0.111
-247.005	26.657	-0.058	0.048
-245.990	-115.063	-0.111	-0.021
-244.976	-171.973	0.150	0.005
-243.961	-200.000	0.008	0.083
-242.946	-11.434	0.206	0.134
-241.932	7.497	0.221	0.164
-240.917	468.909	0.165	0.366
-239.903	-122.051	0.243	-0.039
-238.888	800.000	-0.048	-0.131
-237.873	-107.021	0.248	-0.054
-236.859	32.818	0.150	0.129
-235.844	-35.194	0.175	-0.094
-234.830	-200.000	-0.020	0.172
-233.815	-95.065	0.063	-0.017
-232.800	120.673	0.147	0.180
-231.786	68.861	-0.080	-0.081
-230.771	17.406	-0.185	0.145
-229.757	-156.347	0.326	0.020
-228.742	93.360	0.232	-0.260
-227.727	-10.515	-0.272	0.178
-226.713	29.722	0.198	-0.167
-225.698	-200.000	-0.023	0.464
-224.684	-72.164	-0.277	-0.101
-223.669	-117.880	-0.321	0.057
-222.655	336.373	-0.103	-0.197
-221.640	-66.983	0.176	0.069
-220.625	-126.195	0.179	0.026
-219.611	800.000	0.046	-0.142
-218.596	-200.000	0.051	0.311
-217.582	230.327	0.108	-0.175
-216.567	800.000	-0.037	0.158
-215.552	-96.182	0.174	0.046
-214.538	-200.000	0.006	0.033
-213.523	26.074	0.281	-0.231
-212.509	603.762	0.067	-0.164
-211.494	660.867	0.062	0.158
-210.479	558.910	0.109	0.259
-209.465	24.632	0.190	0.155
-208.450	-34.243	0.044	-0.024
-207.436	425.718	0.136	0.290
-206.421	800.000	0.037	-0.119
-205.406	100.303	0.193	0.221
-204.392	-24.939	0.336	0.197
-203.377	-3.737	-0.196	0.134
-202.363	313.735	0.193	0.358
-201.348	-106.091	-0.132	0.029
-200.333	-62.202	0.111	-0.045
-199.319	0.056	0.261	-0.183
-198.304	245.338	0.052	-0.086
-197.290	180.691	-0.110	-0.160
-196.275	308.696	-0.135	-0.249
-195.260	143.396	-0.102	0.133
-194.246	549.378	-0.116	-0.274
-193.231	-14.623	-0.206	-0.131
-192.217	63.908	0.154	0.153
-191.202	63.527	0.227	0.225
-190.187	-31.622	0.164	-0.091
-189.173	-108.503	0.148	-0.031
-188.158	-200.000	0.012	-0.253
-187.144	-12.093	-0.254	0.164
-186.129	-77.608	0.247	0.084
-185.114	56.116	0.176	0.168
-184.100	-10.158	0.101	0.066
-183.085	-136.615	-0.142	0.016
-182.071	-200.000	-0.035	-0.161
-181.056	800.000	0.051	0.182
-180.042	-144.009	0.260	-0.024
-179.027	436.752	-0.053	-0.113
-178.012	-200.000	-0.092	-0.542
-176.998	-200.000	-0.062	0.308
-175.983	-75.703	0.036	0.013
-174.969	800.000	0.035	0.139
-173.954	108.766	-0.249	-0.294
-172.939	-126.648	-0.366	-0.053
-171.925	800.000	-0.081	0.228
-170.910	154.007	-0.118	-0.159
-169.896	-75.434	-0.091	0.032
-168.881	22.249	0.206	-0.166
-167.866	382.508	-0.100	-0.203
-166.852	-95.569	-0.362	-0.096
-165.837	24.808	-0.266	-0.217
-164.823	338.094	0.104	-0.199
-163.808	12.328	-0.163	0.124
-162.793	-197.724	0.174	-0.001
-161.779	-200.000	-0.001	0.136
-160.764	800.000	-0.069	-0.280
-159.750	-145.870	0.126	-0.011
-158.735	1.358	-0.124	0.087
-157.720	-148.913	-0.135	-0.011
-156.706	-200.000	-0.036	0.259
-155.691	-200.000	-0.019	0.457
-154.677	-76.591	0.089	0.031
-153.662	-200.000	0.033	-0.423
-152.647	137.677	-0.111	-0.143
-151.633	639.171	0.085	0.212
-150.618	800.000	0.068	0.222
-149.604	-200.000	0.000	-0.047
-148.589	136.132	-0.150	-0.192
-147.574	-200.000	-0.017	0.174
-146.560	-200.000	0.001	0.121
-145.545	191.700	0.036	0.054
-144.531	219.254	-0.139	-0.219
-143.516	-62.056	0.224	0.092
-142.502	-2.195	-0.137	0.095
-141.487	-41.899	-0.218	0.110
-140.472	80.170	-0.027	-0.029
-139.458	342.149	-0.125	0.240
-138.443	-200.000	0.012	0.141
-137.429	347.395	-0.017	0.032
-136.414	-112.069	0.207	-0.041
-135.399	336.444	0.116	-0.222
-134.385	-96.446	0.389	-0.101
-133.370	800.000	-0.081	-0.272
-132.356	-31.625	0.134	0.074
-131.341	-200.000	-0.036	-0.184
-130.326	-149.208	-0.373	-0.029
-129.312	-194.010	-0.319	-0.003
-128.297	-78.545	0.093	0.031
-127.283	-21.087	0.260	0.157
-126.268	800.000	0.117	0.335
-125.253	243.446	-0.137	-0.225
-124.239	-46.376	0.242	0.117
-123.224	101.596	-0.154	0.176
-122.210	-33.354	0.249	0.135
-121.195	81.511	-0.088	-0.094
