DTS Sentinel unit serial number:	SN413079Multiplexer serial number:	ORYXHardware model number:	OX4-SRSoftware version number:	ORYX F/W v4.00 Oryx Data Collector v3.7.2.0data status	okinstallation	princeton_trtdifferential loss correction	single-endedforward channel	channel 2reverse channel	N/Adate	2019/09/12time	11:17:10forward acquisition time	60.00reverse acquisition time	0.00gamma	496.2192k internal	0.2304k external	0.2304temperature offset calibration	1.0071default loss term (dB/km)	0.3790temperature slope calibration	1.0000multiplexer offset coefficient	1.0000multiplexer slope coefficient	1.0000fibre end	0.00T internal ref (°C)	38.97T ext. ref 1 (°C)	1.95T ext. ref 2 (°C)	36.33length (m)	temperature (°C)	Stokes	anti-Stokes-747.200	800.000	-0.059	0.210
-746.185	-87.258	-0.171	-0.053
-745.171	-200.000	-0.046	0.420
-744.156	800.000	-0.085	0.337
-743.142	800.000	0.072	0.293
-742.127	-200.000	-0.060	0.366
-741.112	489.364	0.053	-0.123
-740.098	800.000	0.076	0.333
-739.083	178.448	-0.329	-0.489
-738.069	-14.066	-0.159	-0.105
-737.054	-160.635	0.057	-0.003
-736.039	36.423	-0.240	-0.215
-735.025	-138.303	0.077	0.009
-734.010	-92.119	-0.100	-0.029
-732.996	800.000	-0.088	-0.316
-731.981	274.104	0.033	0.060
-730.966	-200.000	-0.003	-0.288
-729.952	-59.052	-0.167	-0.073
-728.937	-200.000	0.051	0.248
-727.923	-105.603	-0.358	0.083
-726.908	-47.263	-0.227	-0.113
-725.894	-128.456	-0.182	-0.026
-724.879	49.904	-0.082	0.078
-723.864	251.671	0.110	-0.191
-722.850	37.062	-0.124	-0.112
-721.835	-200.000	0.207	-0.001
-720.821	317.057	-0.130	-0.250
-719.806	280.382	0.173	-0.315
-718.791	-37.870	0.159	0.086
-717.777	-52.958	0.176	0.082
-716.762	-9.733	-0.302	0.204
-715.748	-68.733	-0.399	-0.157
-714.733	-16.020	-0.310	-0.200
-713.718	-200.000	-0.009	-0.390
-712.704	-200.000	0.031	-0.274
-711.689	104.250	-0.103	0.124
-710.675	182.450	0.035	0.052
-709.660	-200.000	0.027	0.133
-708.645	-36.871	-0.371	-0.202
-707.631	-80.467	0.057	0.019
-706.616	280.335	0.102	-0.186
-705.602	-133.046	-0.297	-0.038
-704.587	-200.000	0.016	-0.250
-703.572	-51.960	-0.255	0.120
-702.558	242.495	0.113	-0.192
-701.543	-96.135	0.261	-0.070
-700.529	800.000	-0.080	-0.352
-699.514	-71.271	-0.117	0.045
-698.499	282.665	0.056	0.103
-697.485	59.493	0.115	0.115
-696.470	3.412	0.129	-0.096
-695.456	503.160	-0.089	-0.208
-694.441	36.521	-0.496	0.445
-693.426	110.496	-0.123	0.150
-692.412	800.000	-0.031	-0.126
-691.397	512.921	-0.034	0.081
-690.383	-125.086	0.244	0.038
-689.368	-200.000	-0.084	-0.415
-688.354	-118.122	0.301	0.055
-687.339	576.476	0.087	0.216
-686.324	312.099	0.018	-0.034
-685.310	-23.189	-0.129	0.079
-684.295	84.355	-0.219	0.244
-683.281	525.509	-0.132	-0.315
-682.266	53.385	0.228	-0.222
-681.251	800.000	0.122	-0.410
-680.237	-200.000	-0.015	0.118
-679.222	321.726	0.154	-0.297
-678.208	374.422	-0.101	-0.208
-677.193	800.000	0.072	-0.234
-676.178	184.313	-0.048	-0.072
-675.164	257.959	0.138	0.241
-674.149	-70.787	0.040	0.015
-673.135	-127.629	0.241	-0.035
-672.120	800.000	-0.018	0.069
-671.105	800.000	0.121	-0.369
-670.091	381.851	-0.019	0.041
-669.076	-200.000	0.000	-0.098
-668.062	11.304	-0.084	-0.065
-667.047	-71.066	-0.306	0.117
-666.032	-200.000	-0.013	0.136
-665.018	70.335	0.101	-0.105
-664.003	-28.254	-0.323	-0.189
-662.989	-157.589	-0.212	0.013
-661.974	-36.704	-0.296	-0.161
-660.959	-200.000	0.021	0.399
-659.945	-162.324	-0.267	0.014
-658.930	800.000	-0.021	-0.082
-657.916	-200.000	-0.007	0.233
-656.901	60.461	-0.317	-0.318
-655.886	-107.980	-0.186	-0.041
-654.872	344.007	-0.140	-0.278
-653.857	-200.000	-0.015	0.241
-652.843	-35.024	-0.197	0.109
-651.828	135.150	0.135	0.178
-650.814	-200.000	-0.003	0.207
-649.799	-128.334	-0.454	-0.066
-648.784	403.493	-0.135	0.288
-647.770	800.000	0.052	0.215
-646.755	673.351	-0.169	-0.443
-645.741	-66.917	0.062	-0.025
-644.726	778.742	0.043	-0.120
-643.711	-102.073	-0.145	0.035
-642.697	-100.822	-0.086	0.021
-641.682	243.712	0.122	0.207
-640.668	-160.324	0.101	-0.006
-639.653	564.487	0.080	-0.198
-638.638	-168.214	0.199	0.008
-637.624	800.000	-0.026	-0.112
-636.609	49.883	-0.217	-0.207
-635.595	403.950	-0.085	-0.181
-634.580	-156.092	0.157	0.010
-633.565	684.141	-0.126	0.333
-632.551	-72.670	0.318	0.119
-631.536	564.684	-0.035	-0.085
-630.522	114.092	0.126	0.156
-629.507	97.535	0.016	-0.018
-628.492	800.000	0.026	0.101
-627.478	-127.900	-0.496	-0.072
-626.463	-58.995	-0.041	0.018
-625.449	-200.000	0.011	0.088
-624.434	800.000	0.052	-0.210
-623.419	47.267	0.215	-0.203
-622.405	-34.864	-0.192	-0.106
-621.390	31.716	-0.308	0.269
-620.376	-44.917	-0.337	0.170
-619.361	-5.447	-0.275	0.191
-618.346	-16.657	-0.163	-0.104
-617.332	380.961	0.120	-0.250
-616.317	-66.978	-0.253	-0.101
-615.303	-111.560	0.071	-0.015
-614.288	-200.000	-0.024	0.433
-613.273	154.399	0.149	-0.208
-612.259	23.471	0.101	-0.084
-611.244	-60.458	-0.404	-0.174
-610.230	85.072	-0.148	-0.165
-609.215	1.908	0.114	-0.083
-608.201	800.000	0.016	0.070
-607.186	-100.520	0.251	-0.063
-606.171	-41.259	0.065	-0.034
-605.157	-42.963	-0.149	0.076
-604.142	-136.038	-0.291	0.035
-603.128	122.469	0.016	0.020
-602.113	-200.000	-0.052	0.349
-601.098	-43.112	0.183	-0.094
-600.084	-93.123	0.226	-0.064
-599.069	-127.133	0.398	-0.059
-598.055	-13.952	0.176	0.115
-597.040	-159.213	-0.157	0.009
-596.025	-27.798	0.216	0.127
-595.011	-71.578	0.095	-0.036
-593.996	-4.005	-0.177	-0.124
-592.982	-200.000	-0.029	0.344
-591.967	-56.896	-0.241	0.108
-590.952	800.000	0.022	-0.079
-589.938	10.845	0.252	0.195
-588.923	-200.000	0.016	0.107
-587.909	81.167	-0.270	-0.295
-586.894	-107.207	-0.227	0.051
-585.879	15.779	-0.231	-0.184
-584.865	81.438	-0.118	-0.129
-583.850	237.243	0.052	0.087
-582.836	-78.249	-0.280	-0.097
-581.821	-56.064	-0.097	0.044
-580.806	18.240	0.316	-0.255
-579.792	50.440	-0.123	0.117
-578.777	-108.698	0.061	-0.013
-577.763	-200.000	-0.061	-0.406
-576.748	-172.467	0.213	0.007
-575.733	500.957	-0.155	-0.362
-574.719	-72.473	-0.225	0.084
-573.704	-46.678	-0.151	0.075
-572.690	800.000	-0.046	-0.190
-571.675	63.914	-0.068	-0.070
-570.661	-200.000	0.001	0.007
-569.646	800.000	-0.120	-0.338
-568.631	63.728	-0.375	-0.381
-567.617	-45.768	0.194	0.097
-566.602	84.165	0.134	-0.148
-565.588	-24.854	-0.308	0.185
-564.573	408.700	-0.131	0.280
-563.558	-200.000	0.018	0.474
-562.544	-141.973	0.065	0.007
-561.529	37.220	0.350	-0.313
-560.515	-166.252	0.091	0.004
-559.500	-200.000	-0.015	0.140
-558.485	71.155	-0.224	-0.235
-557.471	-21.706	-0.270	-0.166
-556.456	-46.566	-0.062	-0.031
-555.442	-68.484	-0.191	-0.075
-554.427	-135.085	0.058	-0.007
-553.412	1.128	0.256	-0.186
-552.398	-98.284	0.024	0.006
-551.383	336.001	0.131	0.257
-550.369	148.033	0.193	0.263
-549.354	178.327	0.166	-0.245
-548.339	-98.170	0.065	-0.017
-547.325	800.000	-0.038	-0.131
-546.310	-37.032	-0.290	-0.157
-545.296	800.000	-0.104	-0.349
-544.281	-89.130	-0.091	0.027
-543.266	397.478	-0.040	-0.084
-542.252	-61.282	0.053	0.023
-541.237	274.766	-0.085	0.152
-540.223	-200.000	-0.011	-0.174
-539.208	-45.696	0.204	-0.102
-538.193	327.273	0.126	0.244
-537.179	-165.951	-0.157	0.007
-536.164	-173.427	-0.306	0.009
-535.150	115.120	-0.157	0.194
-534.135	31.745	0.145	0.126
-533.121	800.000	0.042	0.137
-532.106	259.896	0.086	-0.151
-531.091	-68.736	0.151	-0.059
-530.077	-16.635	0.109	-0.070
-529.062	-21.096	-0.084	0.052
-528.048	67.566	0.084	0.087
-527.033	-28.676	0.131	0.076
-526.018	-44.563	0.350	0.177
-525.004	-83.535	-0.322	-0.104
-523.989	-122.141	-0.075	0.012
-522.975	-200.000	0.003	-0.049
-521.960	-30.651	-0.137	0.078
-520.945	25.461	-0.142	-0.120
-519.931	229.001	0.063	0.104
-518.916	59.087	-0.170	0.169
-517.902	51.739	0.050	0.048
-516.887	97.713	0.070	-0.082
-515.872	64.060	-0.242	-0.246
-514.858	282.840	-0.078	0.142
-513.843	800.000	-0.103	-0.425
-512.829	-123.750	0.256	0.041
-511.814	800.000	0.064	0.210
-510.799	198.017	-0.150	-0.231
-509.785	-53.409	0.110	0.051
-508.770	-31.412	0.062	0.035
-507.756	583.959	-0.015	-0.036
-506.741	650.075	0.029	0.074
-505.726	-137.739	-0.224	0.025
-504.712	150.171	-0.007	0.010
-503.697	-35.338	0.194	0.106
-502.683	800.000	-0.042	-0.146
-501.668	-127.617	0.118	-0.017
-500.653	-176.954	-0.132	0.003
-499.639	800.000	0.093	-0.282
-498.624	-51.168	-0.300	-0.142
-497.610	-102.019	-0.309	-0.075
-496.595	711.208	0.069	0.184
-495.581	330.797	-0.008	-0.015
-494.566	3.191	-0.111	-0.081
-493.551	-160.935	-0.047	-0.003
-492.537	201.479	0.220	0.342
-491.522	-92.013	-0.305	0.087
-490.508	-98.020	-0.300	0.078
-489.493	-200.000	0.018	-0.198
-488.478	800.000	0.077	-0.217
-487.464	-60.028	-0.121	0.052
-486.449	-17.247	0.197	-0.125
-485.435	-112.293	-0.167	0.034
-484.420	-123.669	-0.364	-0.058
-483.405	-119.224	0.288	-0.051
-482.391	49.034	0.224	-0.212
-481.376	-200.000	-0.009	-0.156
-480.362	87.971	0.353	-0.394
-479.347	-200.000	0.010	-0.064
-478.332	118.448	0.237	0.294
-477.318	281.624	-0.046	0.083
-476.303	393.516	-0.106	0.222
-475.289	-101.041	0.076	0.019
-474.274	-85.517	0.108	-0.034
-473.259	147.345	-0.034	0.046
-472.245	78.268	-0.133	-0.143
-471.230	-19.042	-0.237	-0.148
-470.216	-52.783	0.364	0.169
-469.201	460.849	-0.066	0.149
-468.186	800.000	-0.107	0.317
-467.172	-200.000	0.084	0.513
-466.157	79.614	0.136	0.147
-465.143	82.756	0.163	0.178
-464.128	800.000	0.135	-0.477
-463.113	-87.527	-0.367	-0.112
-462.099	524.932	-0.127	0.301
-461.084	-93.167	-0.137	-0.038
-460.070	-20.774	0.179	-0.110
-459.055	-62.827	0.188	-0.078
-458.040	-86.453	0.267	0.083
-457.026	-42.667	0.366	0.187
-456.011	-17.293	-0.304	0.193
-454.997	60.390	-0.214	0.213
-453.982	11.823	0.262	-0.203
-452.968	-61.802	0.223	-0.094
-451.953	-200.000	0.003	0.242
-450.938	-56.646	-0.226	-0.101
-449.924	-200.000	-0.031	-0.396
-448.909	39.552	-0.305	-0.275
-447.895	-113.358	0.183	0.036
-446.880	-105.231	0.234	-0.054
-445.865	-104.091	-0.489	0.114
-444.851	-132.247	0.173	0.023
-443.836	148.344	-0.221	0.301
-442.822	-200.000	-0.012	-0.135
-441.807	150.462	0.114	-0.155
-440.792	-8.215	0.126	0.085
-439.778	-49.874	-0.179	-0.085
-438.763	800.000	-0.019	0.070
-437.749	-53.316	-0.058	0.027
-436.734	276.107	0.120	0.214
-435.719	-55.946	-0.419	-0.188
-434.705	299.361	-0.175	0.323
-433.690	800.000	0.058	-0.214
-432.676	315.754	0.172	0.327
-431.661	-200.000	-0.034	0.255
-430.646	-120.344	-0.337	0.058
-429.632	-142.574	0.040	-0.004
-428.617	-101.172	0.187	0.046
-427.603	-142.694	0.170	0.017
-426.588	262.722	0.080	-0.139
-425.573	16.637	-0.329	-0.261
-424.559	77.724	-0.129	0.138
-423.544	680.633	-0.080	-0.210
-422.530	456.469	0.135	0.300
-421.515	-83.342	0.225	-0.073
-420.500	800.000	-0.025	-0.092
-419.486	-57.748	-0.190	-0.084
-418.471	-200.000	-0.056	0.439
-417.457	-174.104	-0.153	-0.004
-416.442	-58.994	0.186	0.081
-415.428	-96.399	0.024	-0.006
-414.413	800.000	0.076	0.237
-413.398	-106.412	-0.359	-0.081
-412.384	283.612	0.088	0.159
-411.369	-28.688	0.078	0.045
-410.355	393.694	-0.089	-0.185
-409.340	-67.416	-0.251	0.099
-408.325	-200.000	0.065	-0.312
-407.311	-200.000	0.021	0.459
-406.296	-21.993	-0.280	-0.171
-405.282	145.598	0.180	0.243
-404.267	31.737	-0.063	0.054
-403.252	-200.000	-0.003	-0.060
-402.238	-162.154	-0.286	0.014
-401.223	84.944	-0.102	-0.113
-400.209	-33.004	0.153	0.085
-399.194	103.370	0.261	0.307
-398.179	287.417	-0.059	0.106
-397.165	12.410	-0.095	-0.074
-396.150	-49.395	0.295	0.141
-395.136	-200.000	-0.015	0.071
-394.121	-200.000	-0.032	0.339
-393.106	285.739	0.042	-0.076
-392.092	384.104	0.120	0.248
-391.077	-148.626	0.019	0.002
-390.063	800.000	-0.088	0.260
-389.048	280.704	0.103	0.185
-388.033	185.853	0.085	-0.127
-387.019	1.793	-0.091	0.066
-386.004	187.095	-0.153	0.229
-384.990	2.029	-0.128	0.093
-383.975	-55.219	0.137	0.062
-382.960	29.743	0.154	0.131
-381.946	-42.451	0.296	-0.152
-380.931	-200.000	-0.015	0.174
-379.917	-179.460	0.040	-0.001
-378.902	95.364	0.159	0.182
-377.888	-154.994	-0.350	-0.023
-376.873	79.134	-0.174	0.187
-375.858	-93.553	0.043	-0.012
-374.844	195.238	-0.157	0.239
-373.829	-9.946	0.165	0.110
-372.815	800.000	-0.009	-0.035
-371.800	243.720	-0.052	-0.087
-370.785	-36.869	0.326	-0.176
-369.771	800.000	0.100	-0.390
-368.756	-200.000	-0.000	-0.062
-367.742	-7.531	-0.051	0.035
-366.727	-200.000	-0.004	0.247
-365.712	256.149	-0.105	0.181
-364.698	-200.000	0.005	-0.172
-363.683	194.872	0.157	-0.239
-362.669	-53.771	-0.095	-0.043
-361.654	-31.654	-0.193	-0.109
-360.639	-62.916	0.122	0.051
-359.625	-200.000	-0.017	0.140
-358.610	-1.078	-0.263	-0.187
-357.596	-0.224	0.231	-0.165
-356.581	-200.000	0.054	0.306
-355.566	20.914	0.133	0.108
-354.552	800.000	0.040	-0.173
-353.537	-121.781	-0.258	-0.043
-352.523	-46.209	-0.301	-0.148
-351.508	8.948	0.153	0.116
-350.493	-102.640	-0.452	0.108
-349.479	800.000	0.034	0.108
-348.464	668.128	-0.068	0.176
-347.450	434.024	-0.069	0.150
-346.435	-70.901	-0.133	0.050
-345.420	194.762	-0.084	-0.127
-344.406	-80.862	-0.111	0.037
-343.391	800.000	-0.061	-0.211
-342.377	-200.000	-0.003	0.149
-341.362	-200.000	-0.011	0.073
-340.348	-33.012	0.149	-0.083
-339.333	322.444	0.055	0.105
-338.318	186.081	-0.102	-0.151
-337.304	-200.000	-0.060	0.461
-336.289	-143.515	-0.120	-0.011
-335.275	800.000	-0.066	0.280
-334.260	-200.000	0.006	0.080
-333.245	11.042	-0.324	0.248
-332.231	-200.000	-0.038	0.188
-331.216	-200.000	0.051	0.323
-330.202	-126.258	0.399	-0.060
-329.187	83.442	0.103	-0.112
-328.172	105.455	0.059	-0.070
-327.158	-139.930	0.390	0.041
-326.143	1.905	0.252	0.182
-325.129	318.569	0.160	-0.304
-324.114	379.263	0.046	-0.094
-323.099	4.533	0.152	0.112
-322.085	-62.137	-0.084	-0.035
-321.070	-126.233	0.105	0.016
-320.056	98.825	0.050	0.058
-319.041	-114.706	-0.090	0.017
-318.026	295.130	0.124	0.228
-317.012	-172.713	-0.393	0.012
-315.997	265.900	-0.191	0.334
-314.983	-200.000	-0.033	0.178
-313.968	-200.000	0.062	0.314
-312.953	-113.433	0.269	-0.053
-311.939	-100.219	0.248	-0.062
-310.924	800.000	0.046	-0.167
-309.910	-200.000	-0.001	-0.385
-308.895	54.000	-0.163	-0.157
-307.880	658.726	-0.131	-0.337
-306.866	-200.000	-0.001	-0.046
-305.851	-155.764	-0.260	-0.017
-304.837	-9.804	-0.242	-0.161
-303.822	-17.279	0.291	-0.183
-302.807	317.206	0.107	0.202
-301.793	-33.020	-0.156	-0.087
-300.778	61.027	0.186	-0.185
-299.764	-107.910	-0.080	0.017
-298.749	28.591	0.177	-0.150
-297.735	725.916	-0.181	-0.483
-296.720	-90.965	0.050	0.014
-295.705	-120.110	0.111	0.019
-294.691	625.749	-0.131	0.332
-293.676	-59.300	-0.186	-0.080
-292.662	410.563	0.139	-0.296
-291.647	-28.254	0.309	-0.179
-290.632	-200.000	-0.030	-0.171
-289.618	-1.497	-0.231	0.163
-288.603	114.428	0.035	0.043
-287.589	107.176	0.035	0.041
-286.574	63.631	-0.127	-0.128
-285.559	-200.000	0.293	0.001
-284.545	-30.708	0.184	0.104
-283.530	99.492	0.399	0.462
-282.516	800.000	0.042	-0.171
-281.501	-162.979	0.238	0.012
-280.486	-68.054	0.109	-0.042
-279.472	277.565	-0.022	-0.039
-278.457	29.696	0.195	-0.166
-277.443	216.241	0.229	0.365
-276.428	55.979	-0.188	0.183
-275.413	58.478	0.395	-0.387
-274.399	-105.043	0.077	0.018
-273.384	-53.418	0.104	0.047
-272.370	-200.000	-0.033	-0.425
-271.355	90.117	-0.064	0.072
-270.340	191.408	-0.185	0.278
-269.326	-13.125	-0.297	-0.193
-268.311	-19.315	-0.310	-0.192
-267.297	800.000	-0.095	0.291
-266.282	-120.213	-0.124	0.021
-265.267	-127.270	0.107	0.016
-264.253	-154.070	-0.269	-0.018
-263.238	65.992	-0.165	0.167
-262.224	316.716	0.174	-0.329
-261.209	-66.360	0.343	-0.136
-260.195	800.000	-0.063	0.225
-259.180	800.000	-0.142	0.522
-258.165	229.551	0.095	0.155
-257.151	185.495	-0.178	0.264
-256.136	512.964	0.075	-0.175
-255.122	-38.527	0.157	0.083
-254.107	-124.131	-0.259	0.041
-253.092	-127.357	0.112	-0.016
-252.078	-200.000	0.103	0.000
-251.063	-140.123	0.105	-0.011
-250.049	-41.367	0.267	0.137
-249.034	-169.439	0.076	0.003
-248.019	800.000	-0.032	-0.118
-247.005	487.369	-0.113	-0.257
-245.990	-52.833	-0.396	0.182
-244.976	451.551	-0.090	0.199
-243.961	162.256	0.070	0.097
-242.946	800.000	0.044	-0.157
-241.932	267.671	-0.126	0.220
-240.917	7.139	-0.017	0.013
-239.903	96.105	-0.281	0.320
-238.888	644.201	0.026	-0.066
-237.873	-67.732	0.143	-0.056
-236.859	-200.000	0.020	-0.415
-235.844	53.756	0.273	-0.262
-234.830	-137.904	0.482	-0.054
-233.815	192.898	-0.148	-0.223
-232.800	-126.296	-0.116	-0.017
-231.786	105.380	-0.077	-0.090
-230.771	-183.189	-0.115	0.002
-229.757	-90.049	0.118	0.034
-228.742	704.394	0.072	0.190
-227.727	313.487	-0.067	-0.126
-226.713	-93.736	0.407	-0.112
-225.698	616.275	0.002	-0.006
-224.684	-73.057	-0.161	-0.059
-223.669	800.000	0.016	0.056
-222.655	-129.984	0.173	0.024
-221.640	464.031	0.147	-0.327
-220.625	-200.000	-0.038	-0.489
-219.611	378.627	0.022	0.044
-218.596	-69.893	0.113	-0.043
-217.582	-74.682	0.143	-0.051
-216.567	-67.925	0.241	0.094
-215.552	707.249	0.096	-0.254
-214.538	-59.716	0.285	-0.122
-213.523	-200.000	0.045	-0.467
-212.509	2.666	0.099	-0.072
-211.494	135.616	0.170	-0.220
-210.479	-200.000	-0.035	0.282
-209.465	688.027	-0.146	0.380
-208.450	800.000	-0.020	-0.082
-207.436	-8.591	0.225	-0.151
-206.421	-116.107	-0.219	-0.041
-205.406	88.456	-0.240	0.266
-204.392	77.879	0.126	-0.134
-203.377	45.333	0.170	0.157
-202.363	-131.725	-0.150	0.020
-201.348	800.000	0.078	-0.241
-200.333	-26.398	-0.051	0.030
-199.319	4.532	-0.358	0.262
-198.304	610.237	-0.043	-0.107
-197.290	800.000	-0.060	-0.249
-196.275	-1.630	0.475	-0.333
-195.260	-117.450	0.176	0.032
-194.246	786.794	0.088	-0.241
-193.231	-200.000	-0.015	-0.093
-192.217	-22.137	0.134	-0.081
-191.202	550.947	0.117	0.280
-190.187	150.050	0.027	-0.037
-189.173	221.508	-0.117	-0.188
-188.158	-133.869	-0.176	0.022
-187.144	-36.967	0.165	0.088
-186.129	-90.442	0.114	0.033
-185.114	-200.000	0.003	-0.267
-184.100	-168.483	0.196	-0.007
-183.085	-57.345	-0.262	-0.115
-182.071	-63.531	-0.139	-0.057
-181.056	347.725	0.208	0.408
-180.042	-95.693	-0.079	-0.021
-179.027	-126.324	0.306	0.046
-178.012	306.480	0.095	-0.177
-176.998	-21.559	0.308	-0.187
-175.983	-111.721	-0.181	0.037
-174.969	-200.000	-0.013	-0.105
-173.954	-67.024	-0.137	0.054
-172.939	-69.499	-0.105	-0.040
-171.925	800.000	0.015	-0.055
-170.910	800.000	0.077	0.318
-169.896	-103.609	0.118	-0.027
-168.881	158.587	0.115	0.159
-167.866	-151.272	-0.099	0.007
-166.852	264.900	-0.034	-0.059
-165.837	-200.000	-0.010	0.130
-164.823	800.000	0.143	-0.472
-163.808	101.028	0.133	0.154
-162.793	546.402	0.070	-0.166
-161.779	-81.230	-0.329	0.108
-160.764	800.000	0.088	-0.328
-159.750	-10.583	0.284	0.187
-158.735	239.536	-0.099	0.164
-157.720	-200.000	0.008	0.378
-156.706	-68.849	0.272	0.104
-155.691	261.500	0.041	0.070
-154.677	-14.377	-0.107	-0.068
-153.662	-84.278	0.190	-0.060
-152.647	-18.319	0.121	-0.075
-151.633	430.136	0.098	-0.211
-150.618	-16.036	0.129	0.082
-149.604	162.328	-0.183	0.256
-148.589	296.340	0.157	0.286
-147.574	94.002	0.137	-0.154
-146.560	-72.878	0.140	0.051
-145.545	-200.000	0.032	-0.164
-144.531	-100.292	0.309	-0.076
-143.516	800.000	-0.037	0.104
-142.502	127.464	-0.089	0.112
-141.487	-200.000	0.024	0.115
-140.472	-169.047	-0.064	0.002
-139.458	-97.021	0.209	0.054
-138.443	562.421	0.124	-0.298
-137.429	-133.580	-0.050	0.006
-136.414	-4.393	0.036	0.025
-135.399	-132.504	0.202	-0.026
-134.385	-94.637	-0.084	0.023
-133.370	74.983	-0.126	0.132
-132.356	127.745	0.056	-0.071
-131.341	177.723	0.210	-0.305
-130.326	-17.248	0.220	-0.138
-129.312	-175.915	0.125	-0.003
-128.297	800.000	0.067	-0.209
-127.283	439.035	0.168	-0.364
-126.268	-61.439	-0.187	-0.078
-125.253	-102.832	-0.060	0.014
-124.239	341.781	-0.127	-0.247
-123.224	-54.006	-0.313	0.142
-122.210	-200.000	-0.014	0.084
-121.195	192.492	-0.215	0.322
