DTS Sentinel unit serial number:	SN413079Multiplexer serial number:	ORYXHardware model number:	OX4-SRSoftware version number:	ORYX F/W v4.00 Oryx Data Collector v3.7.2.0data status	okinstallation	princeton_trtdifferential loss correction	single-endedforward channel	channel 2reverse channel	N/Adate	2019/09/15time	04:15:34forward acquisition time	60.00reverse acquisition time	0.00gamma	496.2192k internal	0.2325k external	0.2325temperature offset calibration	1.0030default loss term (dB/km)	0.3790temperature slope calibration	1.0000multiplexer offset coefficient	1.0000multiplexer slope coefficient	1.0000fibre end	0.00T internal ref (°C)	30.92T ext. ref 1 (°C)	4.64T ext. ref 2 (°C)	25.71length (m)	temperature (°C)	Stokes	anti-Stokes-747.200	-26.681	-0.258	0.152
-746.185	-74.832	0.225	-0.081
-745.171	-172.451	-0.306	-0.010
-744.156	-123.199	-0.411	0.066
-743.142	-200.000	-0.026	0.181
-742.127	73.578	-0.340	0.359
-741.112	-138.199	-0.377	-0.042
-740.098	297.111	-0.035	-0.064
-739.083	-58.409	-0.097	0.042
-738.069	-38.718	-0.451	0.240
-737.054	-87.000	0.396	-0.122
-736.039	-200.000	-0.022	-0.402
-735.025	-200.000	0.038	0.224
-734.010	32.043	0.037	-0.032
-732.996	-73.716	0.330	0.121
-731.981	-200.000	0.004	0.124
-730.966	-200.000	0.048	-0.344
-729.952	-94.850	0.033	0.009
-728.937	7.297	-0.226	-0.170
-727.923	50.886	-0.097	-0.093
-726.908	19.046	-0.150	0.122
-725.894	-200.000	0.048	-0.227
-724.879	469.817	0.045	-0.101
-723.864	-200.000	-0.005	-0.196
-722.850	-82.003	-0.510	-0.168
-721.835	-7.770	0.093	-0.064
-720.821	-141.106	-0.279	0.029
-719.806	-34.921	-0.061	0.034
-718.791	222.080	0.153	0.248
-717.777	-2.867	-0.205	0.145
-716.762	14.770	-0.067	0.052
-715.748	70.656	-0.141	0.147
-714.733	-200.000	-0.512	0.002
-713.718	-117.833	-0.131	-0.024
-712.704	-78.172	-0.295	-0.102
-711.689	800.000	0.051	0.188
-710.675	-11.001	-0.078	0.052
-709.660	231.742	0.073	-0.121
-708.645	-9.330	-0.120	-0.081
-707.631	-200.000	0.024	0.160
-706.616	211.332	-0.068	-0.108
-705.602	280.511	-0.051	-0.091
-704.587	-56.374	-0.235	-0.105
-703.572	800.000	-0.038	0.152
-702.558	22.277	0.095	0.078
-701.543	-31.818	0.207	-0.117
-700.529	-167.316	-0.435	-0.018
-699.514	-96.266	0.118	-0.031
-698.499	214.484	0.112	-0.179
-697.485	150.007	0.173	0.236
-696.470	104.797	-0.211	-0.250
-695.456	-34.683	0.291	0.161
-694.441	77.592	-0.191	0.205
-693.426	800.000	0.020	-0.067
-692.412	-200.000	-0.033	-0.509
-691.397	6.400	0.112	-0.084
-690.383	402.487	0.040	-0.084
-689.368	-51.194	-0.293	0.138
-688.354	330.343	-0.094	-0.182
-687.339	-173.766	0.136	0.004
-686.324	800.000	-0.045	-0.146
-685.310	169.824	0.189	-0.272
-684.295	-92.908	-0.151	-0.042
-683.281	385.040	0.057	-0.118
-682.266	800.000	0.042	-0.137
-681.251	800.000	-0.061	0.203
-680.237	-200.000	-0.054	-0.319
-679.222	-200.000	-0.024	0.214
-678.208	800.000	-0.077	-0.303
-677.193	254.516	0.075	-0.130
-676.178	-160.629	-0.235	0.013
-675.164	-43.682	-0.403	0.205
-674.149	-200.000	0.007	0.183
-673.135	83.340	-0.230	0.252
-672.120	153.150	-0.202	-0.278
-671.105	-25.208	-0.351	0.209
-670.091	1.250	0.342	-0.247
-669.076	-200.000	-0.038	0.170
-668.062	-93.353	-0.114	0.032
-667.047	-200.000	-0.354	0.001
-666.032	-200.000	-0.004	0.203
-665.018	-79.480	0.202	0.069
-664.003	766.088	-0.091	0.250
-662.989	-56.077	-0.265	0.119
-661.974	-53.645	-0.399	-0.183
-660.959	-43.920	-0.439	-0.222
-659.945	95.314	0.189	0.216
-658.930	416.396	-0.075	-0.160
-657.916	104.400	0.165	-0.195
-656.901	-68.043	-0.328	0.129
-655.886	-40.371	-0.116	-0.060
-654.872	800.000	0.050	-0.191
-653.857	-59.899	-0.171	-0.074
-652.843	-138.240	-0.135	0.015
-651.828	-19.534	-0.200	-0.125
-650.814	461.728	0.043	0.097
-649.799	173.946	0.061	-0.089
-648.784	-200.000	0.065	-0.301
-647.770	-31.630	-0.109	0.062
-646.755	125.634	0.196	-0.248
-645.741	-200.000	-0.053	-0.238
-644.726	79.962	-0.192	-0.207
-643.711	700.162	-0.053	0.140
-642.697	-12.028	0.115	0.076
-641.682	139.459	-0.161	0.213
-640.668	49.599	-0.188	0.178
-639.653	422.890	-0.036	-0.077
-638.638	-200.000	-0.027	-0.149
-637.624	-1.995	-0.434	0.307
-636.609	800.000	-0.077	0.238
-635.595	-32.875	0.280	-0.156
-634.580	119.749	0.064	-0.079
-633.565	-66.276	-0.277	-0.111
-632.551	-168.336	0.136	0.005
-631.536	427.722	-0.074	-0.161
-630.522	-32.796	-0.400	0.223
-629.507	-12.508	0.206	0.135
-628.492	175.826	0.155	-0.225
-627.478	-102.894	0.282	-0.067
-626.463	-90.021	-0.416	-0.122
-625.449	800.000	-0.065	0.199
-624.434	-123.529	0.269	0.043
-623.419	130.554	-0.017	-0.021
-622.405	-86.387	0.279	0.086
-621.390	-65.941	0.067	-0.027
-620.376	-43.267	0.216	-0.110
-619.361	253.957	0.110	0.189
-618.346	-137.623	-0.417	-0.047
-617.332	-93.258	-0.482	-0.135
-616.317	-189.481	-0.489	-0.006
-615.303	27.746	-0.089	0.076
-614.288	-194.451	0.194	0.002
-613.273	-15.488	0.268	-0.172
-612.259	-4.687	-0.048	-0.033
-611.244	-200.000	-0.013	0.235
-610.230	800.000	-0.018	-0.076
-609.215	-114.599	-0.101	-0.019
-608.201	-8.085	0.096	0.065
-607.186	640.618	-0.027	0.068
-606.171	-106.226	-0.090	0.020
-605.157	6.103	0.163	-0.121
-604.142	-108.027	0.264	-0.057
-603.128	800.000	-0.047	0.167
-602.113	800.000	-0.043	0.183
-601.098	-200.000	-0.056	0.284
-600.084	800.000	0.014	0.045
-599.069	77.784	0.058	0.062
-598.055	44.090	0.166	0.153
-597.040	43.556	-0.165	-0.151
-596.025	49.343	0.204	-0.193
-595.011	-112.742	-0.051	-0.010
-593.996	-81.662	-0.002	-0.001
-592.982	496.020	-0.181	-0.416
-591.967	-200.000	-0.002	-0.269
-590.952	25.730	0.255	0.213
-589.938	69.779	-0.253	0.262
-588.923	-200.000	-0.049	-0.350
-587.909	57.171	0.210	0.206
-586.894	-200.000	-0.038	0.335
-585.879	-181.775	0.350	0.007
-584.865	800.000	0.087	0.279
-583.850	-107.710	0.321	0.070
-582.836	-125.100	0.019	-0.003
-581.821	800.000	0.054	0.197
-580.806	-34.585	-0.179	0.098
-579.792	-134.514	-0.171	0.021
-578.777	100.280	-0.249	0.290
-577.763	54.085	0.185	-0.179
-576.748	45.542	0.078	0.072
-575.733	-67.179	-0.170	0.067
-574.719	-104.506	0.106	0.025
-573.704	54.599	-0.119	0.115
-572.690	-200.000	0.310	0.000
-571.675	-108.724	0.471	0.101
-570.661	61.217	-0.028	-0.028
-569.646	800.000	-0.052	-0.208
-568.631	800.000	0.083	0.339
-567.617	-200.000	0.047	0.278
-566.602	43.222	-0.385	0.352
-565.588	9.063	0.085	-0.064
-564.573	-86.541	-0.387	-0.119
-563.558	462.683	0.113	0.254
-562.544	-29.131	-0.070	-0.040
-561.529	-200.000	0.049	0.227
-560.515	-63.073	0.209	-0.086
-559.500	-50.778	-0.095	-0.045
-558.485	222.570	0.111	-0.179
-557.471	-136.581	-0.285	-0.033
-556.456	255.143	-0.103	-0.176
-555.442	658.167	-0.012	-0.032
-554.427	-109.670	0.274	-0.058
-553.412	-152.719	-0.176	0.013
-552.398	-50.820	-0.386	0.182
-551.383	-200.000	0.038	-0.198
-550.369	146.614	-0.175	-0.235
-549.354	-200.000	0.015	0.106
-548.339	98.976	-0.148	0.171
-547.325	48.213	0.157	0.147
-546.310	800.000	-0.091	-0.259
-545.296	-200.000	0.008	0.114
-544.281	800.000	-0.050	0.211
-543.266	-84.505	-0.349	-0.110
-542.252	800.000	0.087	-0.248
-541.237	46.017	-0.255	0.236
-540.223	-200.000	-0.002	0.150
-539.208	218.693	0.105	-0.169
-538.193	159.018	-0.211	-0.293
-537.179	-22.053	-0.143	0.087
-536.164	254.672	-0.224	0.383
-535.150	-200.000	0.004	0.054
-534.135	-54.341	0.167	0.076
-533.121	37.922	-0.211	0.188
-532.106	352.552	-0.044	-0.088
-531.091	-96.308	-0.216	-0.057
-530.077	-200.000	0.000	0.167
-529.062	-69.030	0.362	-0.139
-528.048	-200.000	0.077	0.504
-527.033	155.107	0.115	0.158
-526.018	-26.585	0.137	-0.080
-525.004	15.489	0.227	-0.179
-523.989	-200.000	0.013	0.230
-522.975	-200.000	0.007	-0.288
-521.960	-58.685	0.201	0.087
-520.945	-9.655	0.136	0.091
-519.931	105.185	-0.314	0.371
-518.916	800.000	-0.141	-0.447
-517.902	237.830	0.078	-0.129
-516.887	-200.000	0.006	-0.098
-515.872	-107.757	0.394	0.086
-514.858	-73.443	0.191	0.070
-513.843	-126.987	0.460	-0.068
-512.829	-140.971	-0.194	0.020
-511.814	-9.253	-0.140	0.094
-510.799	255.939	-0.119	-0.204
-509.785	730.916	-0.082	0.219
-508.770	-13.560	-0.236	-0.153
-507.756	-109.110	0.079	-0.017
-506.741	199.981	0.161	-0.247
-505.726	800.000	0.039	-0.133
-504.712	136.255	-0.121	-0.157
-503.697	-84.554	-0.235	0.074
-502.683	-190.829	-0.288	0.003
-501.668	157.314	-0.107	-0.148
-500.653	335.789	-0.159	-0.308
-499.639	-145.843	0.171	-0.015
-498.624	353.042	0.137	0.271
-497.610	55.510	0.083	0.080
-496.595	-200.000	-0.002	-0.058
-495.581	9.709	0.144	0.109
-494.566	-3.878	0.235	-0.163
-493.551	-172.560	-0.239	0.008
-492.537	-200.000	-0.020	-0.320
-491.522	84.957	-0.061	-0.067
-490.508	17.556	0.308	0.245
-489.493	110.134	0.125	0.150
-488.478	711.778	0.057	-0.150
-487.464	297.743	-0.122	-0.224
-486.449	-47.704	0.278	0.135
-485.435	-200.000	0.007	0.053
-484.420	-151.657	0.094	-0.007
-483.405	800.000	0.067	0.190
-482.391	146.276	0.084	0.112
-481.376	-200.000	-0.022	-0.110
-480.362	429.780	-0.036	0.078
-479.347	139.052	-0.131	-0.172
-478.332	800.000	-0.077	-0.270
-477.318	-186.631	0.285	-0.004
-476.303	-145.896	-0.207	0.018
-475.289	-67.461	0.185	-0.073
-474.274	106.297	0.090	0.107
-473.259	-200.000	0.003	0.035
-472.245	-36.906	-0.135	-0.072
-471.230	52.880	0.181	0.173
-470.216	-200.000	0.023	-0.110
-469.201	-30.148	-0.223	-0.127
-468.186	11.178	0.394	0.301
-467.172	-33.585	0.117	0.064
-466.157	-34.907	-0.116	0.063
-465.143	-71.371	0.131	-0.049
-464.128	70.435	-0.018	0.018
-463.113	-40.015	0.148	0.077
-462.099	-88.527	0.118	0.035
-461.084	-112.590	-0.031	-0.006
-460.070	-119.395	-0.510	0.088
-459.055	335.363	-0.126	-0.244
-458.040	-117.581	-0.198	0.036
-457.026	289.676	-0.056	0.101
-456.011	302.484	0.092	0.169
-454.997	45.168	0.062	-0.057
-453.982	-13.316	-0.208	0.135
-452.968	100.099	-0.074	0.085
-451.953	117.706	-0.307	-0.377
-450.938	6.679	0.059	0.044
-449.924	-140.582	0.101	-0.010
-448.909	-145.415	-0.282	0.025
-447.895	-63.211	0.069	0.028
-446.880	800.000	0.129	0.358
-445.865	-160.787	0.223	-0.012
-444.851	-11.830	0.174	-0.114
-443.836	19.148	0.072	-0.057
-442.822	65.566	0.074	0.075
-441.807	-64.266	-0.189	0.077
-440.792	-12.797	0.085	-0.055
-439.778	479.747	0.048	0.108
-438.763	-153.887	0.279	-0.019
-437.749	-200.000	0.008	-0.252
-436.734	800.000	0.086	-0.333
-435.719	2.267	0.061	0.044
-434.705	-161.744	-0.234	-0.012
-433.690	129.354	-0.138	0.176
-432.676	-64.625	0.247	0.100
-431.661	-200.000	-0.024	0.110
-430.646	-96.128	-0.090	-0.024
-429.632	-200.000	-0.001	-0.145
-428.617	-108.569	0.157	-0.034
-427.603	-129.994	-0.102	-0.014
-426.588	-45.296	-0.213	0.106
-425.573	-200.000	-0.012	-0.295
-424.559	4.008	-0.399	-0.291
-423.544	-84.258	0.064	-0.020
-422.530	-98.147	-0.218	-0.056
-421.515	57.277	0.048	0.046
-420.500	42.195	0.091	0.082
-419.486	-128.964	-0.342	-0.048
-418.471	1.355	0.136	-0.097
-417.457	-81.389	0.115	0.038
-416.442	-36.033	0.163	-0.088
-415.428	-29.258	0.151	0.086
-414.413	800.000	-0.025	0.071
-413.398	301.565	0.063	0.117
-412.384	-32.323	-0.026	0.015
-411.369	-29.642	-0.047	-0.027
-410.355	0.444	-0.228	0.162
-409.340	800.000	-0.113	-0.334
-408.325	262.660	0.015	0.026
-407.311	91.361	-0.020	0.022
-406.296	800.000	-0.043	-0.164
-405.282	154.123	0.145	0.198
-404.267	535.243	0.098	-0.231
-403.252	85.616	0.057	0.062
-402.238	671.551	-0.038	-0.099
-401.223	328.641	0.070	0.133
-400.209	-76.280	0.262	-0.092
-399.194	-200.000	0.008	0.104
-398.179	239.990	0.175	0.290
-397.165	46.099	-0.358	-0.330
-396.150	-200.000	-0.006	-0.084
-395.136	533.108	-0.097	0.228
-394.121	-78.554	0.279	-0.095
-393.106	40.629	0.231	0.208
-392.092	90.913	-0.132	0.147
-391.077	105.605	0.109	0.128
-390.063	6.499	0.036	-0.027
-389.048	-200.000	-0.031	-0.217
-388.033	6.466	0.176	-0.130
-387.019	-200.000	0.023	-0.499
-386.004	48.433	0.409	0.381
-384.990	178.112	0.147	-0.214
-383.975	165.198	0.140	0.197
-382.960	-200.000	-0.044	-0.289
-381.946	-200.000	0.015	0.230
-380.931	566.810	0.020	0.047
-379.917	63.421	0.078	0.078
-378.902	800.000	0.047	0.152
-377.888	272.912	-0.065	0.115
-376.873	85.173	0.214	-0.233
-375.858	-200.000	0.026	-0.214
-374.844	-200.000	0.006	-0.323
-373.829	-46.074	-0.094	-0.046
-372.815	-30.593	-0.183	0.103
-371.800	-26.283	0.232	0.135
-370.785	-82.860	0.109	0.035
-369.771	-200.000	-0.055	-0.251
-368.756	800.000	0.023	-0.089
-367.742	17.647	-0.068	-0.054
-366.727	-6.896	-0.166	0.112
-365.712	-200.000	-0.052	-0.521
-364.698	191.366	-0.022	-0.033
-363.683	-140.398	-0.340	0.035
-362.669	65.826	-0.094	0.095
-361.654	359.856	0.081	0.162
-360.639	-108.890	0.099	0.021
-359.625	531.865	0.059	0.140
-358.610	800.000	-0.062	-0.201
-357.596	-166.655	-0.201	0.008
-356.581	135.396	-0.110	-0.143
-355.566	-41.667	0.372	-0.190
-354.552	-46.613	0.128	-0.062
-353.537	-72.513	0.065	-0.024
-352.523	-42.837	0.331	0.167
-351.508	-200.000	-0.057	-0.302
-350.493	53.892	0.209	0.200
-349.479	-50.538	-0.230	-0.108
-348.464	231.245	0.026	0.042
-347.450	-200.000	-0.012	-0.267
-346.435	257.722	-0.156	0.266
-345.420	-95.963	0.169	0.045
-344.406	-200.000	-0.006	0.085
-343.391	388.225	-0.140	-0.288
-342.377	-46.227	-0.188	0.092
-341.362	-200.000	-0.047	0.270
-340.348	82.551	-0.329	0.354
-339.333	251.929	-0.021	0.036
-338.318	183.516	-0.111	0.163
-337.304	81.150	-0.158	-0.170
-336.289	-63.906	-0.276	0.112
-335.275	-94.413	-0.265	-0.072
-334.260	-17.083	0.493	-0.309
-333.245	491.796	0.174	0.396
-332.231	226.860	0.259	0.417
-331.216	-200.000	-0.024	0.364
-330.202	542.537	0.048	0.114
-329.187	324.126	-0.103	-0.195
-328.172	-145.816	-0.323	0.029
-327.158	-39.250	-0.152	0.079
-326.143	242.412	0.109	-0.182
-325.129	157.390	0.057	0.078
-324.114	800.000	0.022	-0.069
-323.099	-90.385	-0.301	0.087
-322.085	66.031	0.047	-0.047
-321.070	-5.959	-0.375	0.255
-320.056	532.399	-0.075	-0.175
-319.041	472.698	0.095	-0.213
-318.026	20.202	0.064	-0.051
-317.012	-200.000	-0.003	-0.376
-315.997	328.686	-0.091	0.174
-314.983	50.379	-0.245	-0.230
-313.968	-53.418	0.105	-0.048
-312.953	680.411	-0.050	0.128
-311.939	-166.298	0.225	0.009
-310.924	-126.908	0.278	-0.041
-309.910	-200.000	-0.016	-0.157
-308.895	800.000	0.047	-0.169
-307.880	415.903	0.033	-0.070
-306.866	-38.508	0.142	0.074
-305.851	656.668	0.081	0.207
-304.837	392.129	-0.097	0.199
-303.822	-104.185	-0.172	0.040
-302.807	-146.571	0.057	0.005
-301.793	196.568	0.137	0.207
-300.778	287.532	0.121	0.218
-299.764	-1.719	-0.185	0.129
-298.749	40.889	0.513	-0.459
-297.735	432.208	-0.023	-0.049
-296.720	800.000	0.045	0.137
-295.705	-200.000	-0.027	-0.156
-294.691	-156.967	-0.185	0.011
-293.676	599.163	-0.052	0.127
-292.662	-29.666	0.250	-0.141
-291.647	-107.976	-0.184	-0.040
-290.632	-61.307	0.227	0.095
-289.618	266.411	0.082	0.143
-288.603	800.000	0.016	0.054
-287.589	-111.022	0.317	-0.064
-286.574	-106.363	-0.129	-0.028
-285.559	800.000	-0.163	-0.483
-284.545	108.157	0.129	-0.152
-283.530	-3.327	0.157	-0.108
-282.516	280.914	0.023	-0.042
-281.501	-136.518	-0.424	-0.049
-280.486	-121.428	-0.295	0.049
-279.472	-200.000	-0.013	-0.218
-278.457	-105.122	-0.315	0.071
-277.443	82.553	0.092	-0.099
-276.428	-69.866	-0.173	0.066
-275.413	800.000	0.191	0.562
-274.399	-61.839	0.344	0.143
-273.384	101.705	0.169	-0.196
-272.370	20.864	-0.188	-0.151
-271.355	-94.730	0.293	0.079
-270.340	405.815	0.125	0.262
-269.326	-200.000	0.004	0.275
-268.311	-14.772	-0.100	0.064
-267.297	336.589	0.110	-0.212
-266.282	-200.000	0.129	-0.000
-265.267	-116.750	-0.138	-0.025
-264.253	265.563	0.158	-0.273
-263.238	-51.532	-0.228	0.105
-262.224	-200.000	0.014	-0.233
-261.209	-136.715	-0.258	0.029
-260.195	550.374	0.094	0.223
-259.180	800.000	0.014	-0.054
-258.165	-6.989	0.283	-0.190
-257.151	-88.757	-0.149	0.044
-256.136	99.084	-0.061	-0.070
-255.122	443.093	0.052	0.112
-254.107	-72.141	0.102	0.038
-253.092	-200.000	-0.022	-0.231
-252.078	800.000	0.011	0.030
-251.063	40.389	0.133	-0.118
-250.049	-200.000	0.043	0.325
-249.034	52.283	-0.056	-0.053
-248.019	-76.217	0.160	0.056
-247.005	-200.000	0.008	-0.259
-245.990	-200.000	0.005	0.137
-244.976	21.110	0.204	0.164
-243.961	800.000	-0.023	-0.069
-242.946	-73.691	0.090	0.033
-241.932	800.000	0.063	-0.212
-240.917	428.411	-0.105	-0.225
-239.903	-35.544	0.164	0.088
-238.888	307.984	-0.203	0.375
-237.873	135.434	0.044	-0.057
-236.859	-101.929	-0.139	-0.033
-235.844	61.374	-0.072	0.071
-234.830	-15.826	0.096	0.061
-233.815	187.194	0.118	0.175
-232.800	800.000	0.092	0.281
-231.786	-129.202	0.176	-0.024
-230.771	182.585	0.098	-0.143
-229.757	132.522	-0.208	-0.265
-228.742	216.975	-0.046	0.072
-227.727	800.000	0.070	-0.246
-226.713	390.831	0.019	0.040
-225.698	-200.000	0.034	0.280
-224.684	-37.604	-0.202	0.106
-223.669	-200.000	-0.001	-0.007
-222.655	-139.736	-0.196	-0.021
-221.640	175.850	-0.130	0.187
-220.625	800.000	0.156	0.442
-219.611	493.946	-0.071	-0.161
-218.596	-31.452	0.258	0.144
-217.582	-149.072	-0.144	-0.011
-216.567	28.814	-0.167	-0.140
-215.552	28.407	-0.108	0.090
-214.538	-68.770	-0.056	-0.021
-213.523	-114.079	-0.318	-0.061
-212.509	800.000	-0.025	-0.082
-211.494	-76.640	-0.162	-0.056
-210.479	28.258	0.005	0.004
-209.465	175.473	0.083	-0.119
-208.450	-88.499	-0.353	0.104
-207.436	-122.615	-0.189	0.030
-206.421	-18.847	-0.068	-0.042
-205.406	-11.606	0.152	-0.098
-204.392	43.806	-0.173	0.156
-203.377	385.648	-0.129	-0.264
-202.363	-79.153	0.153	0.051
-201.348	568.484	0.019	0.045
-200.333	235.950	0.101	0.166
-199.319	2.406	-0.168	-0.120
-198.304	39.545	-0.283	-0.251
-197.290	104.750	-0.027	0.031
-196.275	-200.000	0.086	-0.464
-195.260	800.000	-0.033	-0.127
-194.246	-118.693	-0.137	-0.024
-193.231	227.272	-0.143	-0.230
-192.217	165.673	-0.181	0.252
-191.202	800.000	-0.075	0.254
-190.187	800.000	-0.086	0.276
-189.173	-200.000	-0.044	-0.256
-188.158	381.452	0.043	-0.087
-187.144	-200.000	-0.077	-0.359
-186.129	-200.000	-0.055	0.246
-185.114	800.000	0.106	0.397
-184.100	230.382	-0.103	0.166
-183.085	-122.365	0.261	0.042
-182.071	-118.024	0.399	0.070
-181.056	-200.000	-0.099	-0.571
-180.042	800.000	-0.051	-0.167
-179.027	-138.359	0.282	0.031
-178.012	34.529	-0.073	-0.063
-176.998	-92.631	0.200	-0.055
-175.983	561.114	-0.090	0.215
-174.969	-112.945	-0.238	0.046
-173.954	686.605	0.053	0.135
-172.939	-40.878	0.397	-0.203
-171.925	-112.784	-0.231	0.045
-170.910	78.039	-0.111	-0.117
-169.896	800.000	0.023	0.082
-168.881	197.214	-0.269	0.406
-167.866	255.753	0.024	-0.040
-166.852	800.000	0.062	0.254
-165.837	-52.259	0.246	-0.113
-164.823	-200.000	-0.029	-0.370
-163.808	800.000	-0.045	-0.136
-162.793	-200.000	-0.028	-0.130
-161.779	497.087	0.133	-0.301
-160.764	-105.308	0.175	0.039
-159.750	-36.084	-0.116	-0.062
-158.735	-200.000	-0.025	-0.163
-157.720	-71.519	0.353	-0.130
-156.706	137.544	0.069	-0.089
-155.691	-200.000	0.297	0.001
-154.677	-159.677	-0.210	-0.011
-153.662	-200.000	0.002	-0.016
-152.647	-200.000	-0.009	0.114
-151.633	-200.000	0.048	0.226
-150.618	169.504	0.111	-0.156
-149.604	-66.592	0.187	0.073
-148.589	-78.957	0.057	-0.019
-147.574	800.000	0.035	0.142
-146.560	39.585	0.221	0.195
-145.545	80.650	0.139	-0.147
-144.531	-121.011	-0.235	0.039
-143.516	-139.991	0.096	-0.010
-142.502	-28.531	-0.293	0.167
-141.487	267.671	0.103	0.178
-140.472	-200.000	-0.002	-0.129
-139.458	-200.000	-0.061	-0.296
-138.443	-200.000	0.021	-0.197
-137.429	-13.032	0.107	-0.069
-136.414	800.000	0.015	-0.047
-135.399	39.702	0.109	-0.097
-134.385	390.689	-0.130	0.266
-133.370	363.647	-0.119	0.236
-132.356	-103.994	0.242	0.056
-131.341	219.774	0.079	0.124
-130.326	179.713	-0.249	0.360
-129.312	800.000	0.009	-0.037
-128.297	90.247	-0.281	0.310
-127.283	406.915	-0.159	-0.331
-126.268	280.744	0.032	0.057
-125.253	116.343	-0.172	-0.207
-124.239	800.000	0.034	0.109
-123.224	-135.875	0.177	-0.021
-122.210	-98.079	0.451	-0.114
-121.195	-200.000	-0.046	0.310
