DTS Sentinel unit serial number:	SN413079Multiplexer serial number:	ORYXHardware model number:	OX4-SRSoftware version number:	ORYX F/W v4.00 Oryx Data Collector v3.7.2.0data status	okinstallation	princeton_trtdifferential loss correction	single-endedforward channel	channel 2reverse channel	N/Adate	2019/09/17time	00:19:35forward acquisition time	60.00reverse acquisition time	0.00gamma	496.2192k internal	0.2329k external	0.2329temperature offset calibration	0.9971default loss term (dB/km)	0.3790temperature slope calibration	1.0000multiplexer offset coefficient	1.0000multiplexer slope coefficient	1.0000fibre end	0.00T internal ref (°C)	29.52T ext. ref 1 (°C)	0.09T ext. ref 2 (°C)	23.59length (m)	temperature (°C)	Stokes	anti-Stokes-747.200	800.000	0.050	-0.206
-746.185	140.313	-0.048	0.064
-745.171	323.910	-0.103	-0.199
-744.156	-200.000	0.045	-0.215
-743.142	-67.418	0.202	-0.080
-742.127	234.057	0.126	0.209
-741.112	-78.227	0.064	-0.022
-740.098	252.622	-0.119	0.204
-739.083	367.800	-0.059	0.120
-738.069	-200.000	-0.093	0.431
-737.054	-200.000	0.004	-0.068
-736.039	447.124	-0.082	0.182
-735.025	-101.218	0.259	0.064
-734.010	-128.999	-0.106	0.015
-732.996	45.208	-0.166	0.154
-731.981	-200.000	-0.043	-0.221
-730.966	-129.138	-0.054	-0.008
-729.952	4.880	-0.308	0.228
-728.937	-100.605	-0.286	-0.071
-727.923	-200.000	-0.015	0.112
-726.908	-200.000	0.010	-0.295
-725.894	-200.000	0.010	-0.320
-724.879	207.064	-0.160	-0.251
-723.864	-200.000	0.020	0.115
-722.850	-200.000	-0.009	-0.178
-721.835	467.034	0.113	0.254
-720.821	119.153	-0.246	-0.306
-719.806	434.817	-0.106	0.231
-718.791	122.136	0.100	-0.126
-717.777	-200.000	0.035	-0.256
-716.762	-106.536	0.183	-0.041
-715.748	147.139	-0.134	0.181
-714.733	108.008	0.291	-0.349
-713.718	-57.359	-0.178	0.079
-712.704	-200.000	0.047	0.540
-711.689	-166.393	0.233	0.010
-710.675	421.805	-0.122	-0.263
-709.660	336.011	-0.168	-0.328
-708.645	-110.076	-0.226	0.047
-707.631	-71.866	0.205	-0.077
-706.616	-200.000	0.002	0.185
-705.602	485.699	0.147	-0.337
-704.587	-56.033	-0.073	0.033
-703.572	-200.000	0.001	0.011
-702.558	-200.000	-0.024	0.162
-701.543	-17.753	-0.202	0.127
-700.529	-23.177	0.208	0.126
-699.514	-128.389	-0.169	-0.024
-698.499	-83.381	-0.119	0.038
-697.485	-27.670	-0.043	0.025
-696.470	245.049	0.022	0.037
-695.456	76.483	0.188	0.201
-694.441	-21.963	-0.124	0.076
-693.426	-159.425	-0.389	-0.022
-692.412	4.379	0.138	-0.102
-691.397	553.995	0.019	-0.047
-690.383	159.234	-0.224	-0.312
-689.368	493.907	0.034	0.079
-688.354	800.000	-0.062	-0.186
-687.339	443.202	-0.073	-0.160
-686.324	123.219	0.238	-0.300
-685.310	-102.316	0.162	-0.039
-684.295	-108.077	-0.321	0.070
-683.281	-146.374	-0.131	-0.012
-682.266	-89.135	0.133	0.039
-681.251	499.614	-0.190	0.441
-680.237	-166.743	0.097	-0.004
-679.222	59.735	0.193	-0.191
-678.208	74.007	0.237	-0.250
-677.193	800.000	0.041	-0.145
-676.178	-63.537	0.118	-0.049
-675.164	145.619	0.065	0.087
-674.149	118.949	-0.045	-0.056
-673.135	-200.000	0.014	-0.149
-672.120	446.458	0.074	-0.163
-671.105	-200.000	0.003	-0.200
-670.091	78.267	0.110	-0.118
-669.076	-200.000	0.008	0.038
-668.062	249.802	-0.060	-0.102
-667.047	6.277	0.178	-0.133
-666.032	800.000	0.122	0.348
-665.018	123.673	-0.109	-0.137
-664.003	127.659	-0.114	-0.146
-662.989	560.886	0.120	-0.290
-661.974	81.009	-0.085	0.092
-660.959	-40.912	-0.076	-0.040
-659.945	-0.056	0.059	0.042
-658.930	-136.189	-0.229	-0.027
-657.916	800.000	-0.114	-0.436
-656.901	404.128	-0.109	0.230
-655.886	-51.987	0.537	0.251
-654.872	32.156	-0.254	0.220
-653.857	-127.147	-0.474	-0.070
-652.843	-107.540	-0.220	-0.048
-651.828	309.476	-0.149	-0.279
-650.814	-87.294	-0.150	-0.046
-649.799	-18.158	-0.084	0.053
-648.784	88.992	0.156	-0.174
-647.770	367.512	0.018	0.037
-646.755	-39.352	0.133	0.070
-645.741	-105.134	0.368	0.084
-644.726	-200.000	0.081	-0.470
-643.711	-42.571	0.456	-0.233
-642.697	800.000	-0.073	-0.285
-641.682	-142.723	-0.362	0.035
-640.668	-200.000	-0.045	-0.245
-639.653	-200.000	0.016	-0.185
-638.638	800.000	0.087	-0.288
-637.624	-200.000	0.007	-0.043
-636.609	195.152	-0.089	0.135
-635.595	-15.400	-0.168	0.108
-634.580	49.640	0.115	0.109
-633.565	-200.000	-0.048	-0.257
-632.551	44.125	-0.110	0.101
-631.536	-200.000	-0.012	0.064
-630.522	-106.949	-0.162	-0.036
-629.507	-22.692	-0.247	0.149
-628.492	-12.283	0.084	0.055
-627.478	3.216	0.208	0.152
-626.463	-26.616	-0.271	-0.159
-625.449	-200.000	-0.025	-0.139
-624.434	-36.698	0.198	0.107
-623.419	597.836	-0.147	-0.365
-622.405	231.868	0.081	0.133
-621.390	35.026	0.053	-0.047
-620.376	-50.824	-0.252	0.119
-619.361	800.000	0.061	0.247
-618.346	-74.106	-0.223	0.081
-617.332	-54.352	0.018	0.008
-616.317	-200.000	0.101	-0.469
-615.303	45.127	-0.111	-0.102
-614.288	800.000	0.040	-0.119
-613.273	580.813	0.060	-0.148
-612.259	-105.253	-0.216	0.049
-611.244	-200.000	-0.013	-0.239
-610.230	-115.898	-0.540	0.101
-609.215	58.959	-0.283	0.279
-608.201	449.206	-0.100	-0.220
-607.186	-15.451	0.157	0.100
-606.171	23.987	-0.173	-0.143
-605.157	-116.379	0.214	-0.040
-604.142	451.692	0.114	0.253
-603.128	38.061	0.305	-0.271
-602.113	224.033	0.119	0.192
-601.098	-131.362	-0.143	0.019
-600.084	692.276	0.079	-0.207
-599.069	0.110	0.033	0.023
-598.055	-7.476	-0.297	0.202
-597.040	-171.546	0.067	-0.002
-596.025	-122.510	0.217	-0.035
-595.011	-77.012	-0.380	-0.133
-593.996	-169.216	0.493	0.018
-592.982	-35.911	-0.094	-0.051
-591.967	76.450	0.085	-0.090
-590.952	95.400	-0.115	0.132
-589.938	218.055	-0.012	-0.019
-588.923	88.486	0.159	0.177
-587.909	-200.000	0.035	-0.404
-586.894	-136.809	-0.079	-0.009
-585.879	-78.756	-0.209	0.071
-584.865	800.000	-0.019	0.084
-583.850	-200.000	-0.030	-0.383
-582.836	-200.000	-0.026	-0.173
-581.821	800.000	-0.028	-0.097
-580.806	800.000	-0.059	-0.254
-579.792	-200.000	0.012	0.145
-578.777	40.360	0.152	0.137
-577.763	-126.408	-0.289	0.043
-576.748	800.000	0.128	-0.360
-575.733	-113.592	-0.370	-0.072
-574.719	-83.922	0.172	0.055
-573.704	-26.294	0.112	-0.066
-572.690	49.751	-0.345	-0.325
-571.675	184.378	-0.069	-0.103
-570.661	92.659	0.072	-0.081
-569.646	562.613	-0.135	-0.327
-568.631	-53.671	0.284	0.130
-567.617	-72.704	-0.100	0.037
-566.602	-200.000	-0.046	-0.425
-565.588	800.000	0.048	-0.198
-564.573	800.000	-0.066	0.182
-563.558	114.577	0.327	0.399
-562.544	146.313	-0.110	0.148
-561.529	-200.000	-0.053	-0.465
-560.515	-97.544	0.088	0.023
-559.500	100.640	-0.200	0.233
-558.485	-90.078	-0.053	0.016
-557.471	-42.764	-0.030	0.015
-556.456	91.420	-0.143	-0.161
-555.442	-21.282	0.445	0.272
-554.427	-54.310	-0.207	0.094
-553.412	-52.476	-0.412	0.191
-552.398	40.867	-0.114	0.103
-551.383	-63.704	-0.189	0.077
-550.369	-85.244	-0.506	0.158
-549.354	-6.221	-0.162	-0.111
-548.339	-156.380	-0.098	-0.006
-547.325	315.939	0.051	-0.097
-546.310	-200.000	-0.062	-0.404
-545.296	-114.081	-0.154	0.030
-544.281	-51.558	0.338	0.158
-543.266	19.221	0.113	-0.090
-542.252	171.744	0.130	-0.186
-541.237	-110.394	0.165	-0.034
-540.223	-200.000	-0.022	-0.121
-539.208	-200.000	0.030	-0.227
-538.193	-13.145	-0.125	-0.081
-537.179	277.209	-0.066	-0.118
-536.164	-118.509	0.262	0.046
-535.150	-141.870	0.116	-0.012
-534.135	-102.386	-0.406	-0.097
-533.121	130.132	-0.177	0.227
-532.106	-137.405	-0.332	-0.038
-531.091	-27.811	-0.271	-0.157
-530.077	404.143	0.087	-0.183
-529.062	800.000	0.018	0.061
-528.048	171.222	-0.179	-0.257
-527.033	800.000	-0.044	0.168
-526.018	-200.000	0.029	-0.205
-525.004	-150.173	0.197	-0.015
-523.989	228.207	-0.079	-0.128
-522.975	17.092	0.140	-0.111
-521.960	65.987	0.073	-0.074
-520.945	-113.075	-0.235	0.046
-519.931	-75.433	0.422	0.150
-518.916	333.823	0.043	0.083
-517.902	800.000	-0.138	0.471
-516.887	-127.319	-0.085	-0.012
-515.872	-200.000	0.014	-0.094
-514.858	160.619	0.090	0.126
-513.843	-122.733	0.216	-0.035
-512.829	-200.000	-0.006	-0.128
-511.814	45.891	-0.116	0.107
-510.799	1.895	0.282	0.203
-509.785	624.572	0.022	0.055
-508.770	800.000	0.046	-0.175
-507.756	264.074	-0.216	0.375
-506.741	-147.340	-0.242	-0.020
-505.726	800.000	0.043	0.188
-504.712	800.000	-0.057	-0.219
-503.697	-125.189	-0.016	-0.002
-502.683	179.156	-0.215	-0.314
-501.668	24.499	-0.056	-0.046
-500.653	-54.762	-0.271	-0.122
-499.639	-200.000	-0.042	0.202
-498.624	75.396	0.189	0.199
-497.610	-79.485	-0.179	0.060
-496.595	-40.487	0.214	-0.111
-495.581	-41.365	-0.216	-0.111
-494.566	604.399	0.076	-0.188
-493.551	-17.006	-0.269	-0.169
-492.537	-69.322	0.278	0.106
-491.522	491.799	-0.114	-0.261
-490.508	92.535	0.119	-0.133
-489.493	38.170	-0.114	-0.101
-488.478	36.494	0.199	0.175
-487.464	800.000	0.021	-0.078
-486.449	800.000	-0.040	-0.171
-485.435	90.149	0.156	-0.173
-484.420	-126.307	0.361	-0.054
-483.405	-84.811	-0.194	0.061
-482.391	92.156	0.172	0.193
-481.376	800.000	0.074	0.299
-480.362	24.370	0.106	-0.088
-479.347	-200.000	-0.062	-0.283
-478.332	-174.220	0.220	-0.006
-477.318	-28.581	0.173	0.099
-476.303	295.959	-0.158	0.289
-475.289	-49.434	0.137	0.065
-474.274	-154.402	-0.435	0.029
-473.259	-7.235	-0.171	-0.116
-472.245	-200.000	0.091	0.417
-471.230	-2.361	-0.180	0.126
-470.216	250.189	0.225	0.381
-469.201	425.454	0.075	0.160
-468.186	800.000	0.040	0.169
-467.172	-37.708	0.338	0.179
-466.157	800.000	0.044	-0.137
-465.143	80.394	-0.100	0.107
-464.128	-18.674	-0.257	0.160
-463.113	145.706	-0.135	0.180
-462.099	-200.000	-0.027	-0.120
-461.084	306.390	0.171	0.317
-460.070	-32.407	-0.252	0.140
-459.055	27.442	-0.277	-0.232
-458.040	-78.912	0.251	-0.085
-457.026	778.075	-0.033	0.089
-456.011	-27.509	0.124	0.072
-454.997	-6.531	0.082	-0.056
-453.982	-177.307	-0.345	0.008
-452.968	-9.541	0.204	-0.136
-451.953	-200.000	-0.021	0.206
-450.938	535.153	0.057	0.134
-449.924	58.547	0.241	0.236
-448.909	-200.000	-0.044	0.239
-447.895	272.557	-0.169	-0.297
-446.880	-126.436	-0.085	0.013
-445.865	87.480	0.266	0.293
-444.851	-88.758	-0.303	0.090
-443.836	-12.183	-0.114	-0.074
-442.822	-3.767	-0.119	-0.082
-441.807	-162.036	-0.365	0.018
-440.792	-200.000	-0.025	0.131
-439.778	382.627	-0.159	0.325
-438.763	-108.888	-0.173	0.037
-437.749	800.000	-0.131	-0.367
-436.734	351.802	0.187	-0.368
-435.719	491.666	0.160	0.364
-434.705	-78.441	-0.189	-0.065
-433.690	240.414	0.082	0.136
-432.676	2.633	0.147	0.106
-431.661	800.000	0.008	-0.023
-430.646	-103.848	0.184	-0.043
-429.632	-5.894	-0.185	-0.126
-428.617	800.000	-0.048	-0.192
-427.603	-107.022	0.130	0.029
-426.588	-1.692	-0.337	-0.236
-425.573	318.055	0.096	0.181
-424.559	3.110	0.253	-0.183
-423.544	-97.189	0.398	0.103
-422.530	800.000	-0.060	0.226
-421.515	-79.300	-0.395	-0.133
-420.500	627.916	0.103	-0.259
-419.486	54.828	-0.206	-0.198
-418.471	20.758	0.261	0.210
-417.457	108.289	0.040	-0.047
-416.442	318.843	0.187	-0.351
-415.428	-200.000	-0.048	-0.290
-414.413	800.000	0.042	-0.147
-413.398	-33.975	0.282	0.155
-412.384	800.000	0.183	0.527
-411.369	-40.138	0.223	-0.115
-410.355	-200.000	0.016	0.123
-409.340	217.799	0.159	-0.252
-408.325	800.000	-0.039	0.137
-407.311	-148.370	0.227	-0.019
-406.296	800.000	-0.015	0.044
-405.282	51.375	0.277	0.262
-404.267	-95.694	0.138	0.037
-403.252	-55.386	-0.368	-0.164
-402.238	-145.828	0.027	-0.002
-401.223	-20.557	-0.177	0.108
-400.209	-79.845	-0.204	0.068
-399.194	-108.810	-0.344	0.073
-398.179	5.277	-0.232	-0.170
-397.165	-200.000	-0.037	-0.189
-396.150	-155.265	0.262	-0.017
-395.136	-24.500	-0.145	-0.086
-394.121	-174.294	-0.325	0.009
-393.106	328.505	0.129	0.246
-392.092	-200.000	-0.006	-0.054
-391.077	117.006	-0.093	-0.114
-390.063	48.776	-0.220	0.205
-389.048	157.733	0.110	0.151
-388.033	629.841	-0.027	-0.068
-387.019	663.698	-0.130	0.332
-386.004	-27.131	0.133	0.077
-384.990	-200.000	-0.015	-0.215
-383.975	-63.164	0.319	-0.131
-382.960	800.000	-0.068	0.186
-381.946	800.000	-0.088	-0.329
-380.931	379.687	-0.019	0.038
-379.917	-137.323	0.227	-0.026
-378.902	24.503	-0.061	-0.050
-377.888	-127.429	0.159	0.023
-376.873	-200.000	-0.003	0.022
-375.858	-35.974	-0.056	0.030
-374.844	-85.747	-0.053	-0.016
-373.829	35.542	-0.004	0.003
-372.815	231.134	-0.068	-0.110
-371.800	800.000	0.107	0.367
-370.785	-144.468	-0.130	-0.012
-369.771	-123.372	0.152	0.024
-368.756	-84.869	0.290	0.090
-367.742	-200.000	0.022	-0.274
-366.727	-102.230	0.092	0.022
-365.712	800.000	-0.007	-0.022
-364.698	-163.182	-0.301	-0.014
-363.683	-21.986	-0.291	0.176
-362.669	-200.000	0.063	0.470
-361.654	-18.107	0.175	-0.108
-360.639	110.984	0.182	0.217
-359.625	-83.595	-0.474	-0.150
-358.610	-4.131	-0.336	-0.231
-357.596	132.276	0.209	0.267
-356.581	217.167	-0.104	0.164
-355.566	49.823	0.119	0.111
-354.552	-200.000	0.010	0.158
-353.537	-22.994	-0.237	-0.142
-352.523	-200.000	-0.019	-0.108
-351.508	-134.332	-0.385	-0.047
-350.493	233.037	0.185	-0.302
-349.479	-100.401	0.346	-0.085
-348.464	-183.462	0.122	0.002
-347.450	37.148	0.269	0.236
-346.435	-200.000	-0.020	-0.230
-345.420	46.660	-0.238	0.219
-344.406	-200.000	0.012	-0.060
-343.391	-98.458	0.348	-0.088
-342.377	763.875	0.125	-0.335
-341.362	-92.698	0.327	-0.091
-340.348	-88.321	0.139	0.041
-339.333	-89.936	0.169	-0.049
-338.318	75.507	0.050	-0.053
-337.304	-200.000	-0.009	-0.051
-336.289	-34.679	0.108	0.058
-335.275	464.348	0.160	-0.355
-334.260	-200.000	0.026	-0.368
-333.245	106.096	0.068	0.079
-332.231	379.257	0.139	-0.282
-331.216	234.979	0.065	-0.106
-330.202	-200.000	0.028	-0.145
-329.187	-10.835	-0.113	-0.074
-328.172	-85.281	0.295	-0.091
-327.158	773.719	-0.075	0.203
-326.143	-200.000	-0.005	-0.394
-325.129	-9.996	-0.124	-0.082
-324.114	-13.986	-0.078	-0.050
-323.099	-180.442	0.036	0.001
-322.085	72.123	0.124	0.128
-321.070	-61.839	-0.312	-0.129
-320.056	-155.241	0.253	0.016
-319.041	800.000	-0.026	-0.109
-318.026	-152.463	-0.146	0.010
-317.012	-82.774	0.223	0.071
-315.997	-158.860	-0.136	-0.008
-314.983	213.495	0.071	-0.111
-313.968	-155.685	0.246	0.016
-312.953	354.930	0.056	-0.110
-311.939	-200.000	0.004	-0.042
-310.924	251.028	0.084	0.141
-309.910	68.938	-0.089	0.090
-308.895	27.661	-0.113	0.094
-307.880	-34.138	-0.260	0.141
-306.866	243.337	-0.157	0.260
-305.851	86.705	-0.042	0.046
-304.837	800.000	-0.114	0.331
-303.822	-0.112	0.176	-0.124
-302.807	-200.000	-0.068	-0.394
-301.793	44.971	-0.178	-0.162
-300.778	259.877	-0.149	-0.255
-299.764	-81.640	-0.121	0.039
-298.749	240.798	-0.213	0.352
-297.735	22.402	0.044	0.036
-296.720	-74.344	0.270	-0.097
-295.705	-200.000	-0.001	0.042
-294.691	-103.842	-0.219	0.051
-293.676	800.000	-0.016	0.063
-292.662	171.233	0.096	0.137
-291.647	-200.000	0.024	-0.198
-290.632	313.556	0.097	-0.180
-289.618	-32.722	0.178	-0.098
-288.603	67.103	-0.174	0.175
-287.589	74.885	0.106	-0.110
-286.574	250.443	0.076	0.127
-285.559	-59.534	0.493	0.210
-284.545	-200.000	-0.000	0.034
-283.530	330.029	0.102	-0.195
-282.516	54.182	-0.133	0.126
-281.501	-56.923	0.390	-0.170
-280.486	-98.340	-0.153	0.039
-279.472	800.000	-0.061	0.227
-278.457	-126.779	0.410	0.060
-277.443	-200.000	-0.027	-0.395
-276.428	-173.266	-0.241	0.007
-275.413	-18.841	0.103	0.064
-274.399	-200.000	-0.000	-0.296
-273.384	53.997	-0.099	-0.094
-272.370	-15.729	0.022	-0.014
-271.355	287.773	0.205	-0.367
-270.340	-66.049	0.463	-0.183
-269.326	-96.689	0.122	0.032
-268.311	420.157	0.089	-0.188
-267.297	46.113	0.221	-0.203
-266.282	288.386	-0.166	0.298
-265.267	-63.392	-0.038	-0.015
-264.253	339.133	0.173	-0.333
-263.238	363.377	-0.106	-0.210
-262.224	21.334	-0.266	0.214
-261.209	-29.326	-0.167	0.095
-260.195	-200.000	-0.015	0.284
-259.180	25.151	0.054	0.045
-258.165	18.242	0.256	0.202
-257.151	-63.033	-0.209	-0.085
-256.136	-56.479	-0.100	-0.044
-255.122	179.106	-0.068	-0.098
-254.107	14.390	0.149	0.115
-253.092	506.776	-0.102	-0.234
-252.078	-182.821	0.626	-0.011
-251.063	-136.026	-0.261	0.030
-250.049	-145.618	-0.170	-0.015
-249.034	-200.000	0.027	0.277
-248.019	132.229	0.214	-0.272
-247.005	-200.000	0.018	-0.357
-245.990	72.302	-0.265	0.273
-244.976	-172.322	-0.434	0.014
-243.961	196.026	-0.179	-0.269
-242.946	-65.641	-0.251	0.099
-241.932	-54.626	-0.064	0.029
-240.917	483.285	0.134	0.302
-239.903	661.742	0.109	0.278
-238.888	242.542	-0.076	0.125
-237.873	693.004	0.116	-0.299
-236.859	800.000	0.027	0.086
-235.844	22.978	-0.167	-0.135
-234.830	-144.599	-0.054	0.005
-233.815	-99.095	0.180	0.045
-232.800	88.188	-0.137	0.150
-231.786	-4.665	0.235	-0.160
-230.771	-150.784	-0.121	0.009
-229.757	289.662	-0.250	0.448
-228.742	25.098	-0.172	-0.141
-227.727	-135.974	-0.064	-0.007
-226.713	55.429	0.069	0.066
-225.698	676.389	-0.051	0.131
-224.684	79.643	0.038	0.040
-223.669	-200.000	-0.012	0.139
-222.655	-200.000	0.031	0.358
-221.640	-151.832	-0.170	0.012
-220.625	306.908	0.156	0.286
-219.611	-56.886	0.365	0.159
-218.596	-52.598	0.276	0.126
-217.582	440.208	0.139	-0.300
-216.567	38.512	0.158	-0.139
-215.552	800.000	0.096	0.361
-214.538	-50.143	-0.057	-0.027
-213.523	2.408	0.091	-0.065
-212.509	800.000	-0.139	0.442
-211.494	-113.121	0.343	0.067
-210.479	-37.766	0.331	0.174
-209.465	-70.095	-0.225	0.084
-208.450	800.000	-0.085	-0.309
-207.436	-148.305	0.132	-0.011
-206.421	-80.538	-0.289	0.095
-205.406	51.852	0.234	0.220
-204.392	-149.922	0.102	0.008
-203.377	174.836	0.119	-0.169
-202.363	469.061	0.062	0.137
-201.348	-82.584	-0.138	0.044
-200.333	21.513	-0.055	-0.044
-199.319	143.424	0.128	0.168
-198.304	33.437	-0.292	0.250
-197.290	37.509	-0.182	0.159
-196.275	-18.856	0.218	0.134
-195.260	396.304	0.144	-0.296
-194.246	-121.085	-0.281	0.046
-193.231	-200.000	-0.031	0.296
-192.217	496.903	0.156	0.353
-191.202	179.728	0.052	0.075
-190.187	-58.969	0.114	-0.049
-189.173	-39.549	0.103	-0.053
-188.158	-200.000	-0.050	0.490
-187.144	174.001	-0.202	0.287
-186.129	-200.000	-0.031	0.423
-185.114	800.000	0.091	0.294
-184.100	220.745	-0.154	-0.244
-183.085	86.998	-0.058	0.064
-182.071	94.913	-0.024	0.026
-181.056	-200.000	0.027	0.213
-180.042	800.000	0.154	0.428
-179.027	158.903	0.198	0.271
-178.012	188.582	0.300	0.442
-176.998	37.368	0.111	0.097
-175.983	634.145	0.067	0.168
-174.969	85.865	-0.263	-0.285
-173.954	129.685	-0.142	-0.179
-172.939	-128.987	-0.012	-0.002
-171.925	-200.000	-0.027	0.243
-170.910	-5.540	0.239	0.162
-169.896	277.382	-0.136	-0.238
-168.881	290.461	0.098	0.176
-167.866	191.968	0.124	0.185
-166.852	694.849	-0.060	-0.156
-165.837	-115.463	0.125	0.023
-164.823	-131.573	0.159	-0.021
-163.808	-145.014	0.085	0.008
-162.793	124.361	-0.266	-0.330
-161.779	-200.000	-0.007	0.217
-160.764	25.759	-0.075	-0.062
-159.750	65.574	0.190	-0.190
-158.735	800.000	-0.126	-0.466
-157.720	-3.648	0.134	-0.092
-156.706	800.000	0.058	0.173
-155.691	-23.087	-0.155	-0.092
-154.677	-74.448	-0.371	-0.132
-153.662	81.151	0.075	-0.080
-152.647	800.000	-0.043	-0.161
-151.633	555.620	-0.025	-0.059
-150.618	-149.711	0.213	-0.016
-149.604	-200.000	0.030	-0.161
-148.589	-48.247	0.138	0.065
-147.574	-200.000	-0.042	-0.394
-146.560	-82.813	0.225	0.072
-145.545	-200.000	-0.036	0.317
-144.531	302.360	-0.037	0.068
-143.516	302.336	0.163	0.297
-142.502	-200.000	0.001	-0.020
-141.487	-82.433	0.579	-0.185
-140.472	361.654	0.052	0.103
-139.458	-90.367	-0.170	0.048
-138.443	-59.840	-0.195	-0.082
-137.429	102.491	0.105	0.121
-136.414	32.894	-0.158	-0.135
-135.399	-200.000	-0.006	0.042
-134.385	-122.515	0.451	-0.072
-133.370	4.986	0.163	0.118
-132.356	-148.894	-0.310	0.025
-131.341	-44.177	-0.228	0.113
-130.326	396.298	0.085	0.174
-129.312	74.801	-0.055	-0.057
-128.297	483.232	0.116	0.258
-127.283	-200.000	0.025	-0.114
-126.268	-11.581	-0.147	-0.095
-125.253	147.899	0.087	-0.115
-124.239	-109.870	-0.106	-0.022
-123.224	800.000	0.189	0.528
-122.210	-200.000	-0.051	0.288
-121.195	-87.696	-0.208	-0.062
