DTS Sentinel unit serial number:	SN413079Multiplexer serial number:	ORYXHardware model number:	OX4-SRSoftware version number:	ORYX F/W v4.00 Oryx Data Collector v3.7.2.0data status	okinstallation	princeton_trtdifferential loss correction	single-endedforward channel	channel 2reverse channel	N/Adate	2019/09/18time	20:19:34forward acquisition time	60.00reverse acquisition time	0.00gamma	496.2192k internal	0.2334k external	0.2334temperature offset calibration	1.0027default loss term (dB/km)	0.3790temperature slope calibration	1.0000multiplexer offset coefficient	1.0000multiplexer slope coefficient	1.0000fibre end	0.00T internal ref (°C)	28.98T ext. ref 1 (°C)	0.85T ext. ref 2 (°C)	19.73length (m)	temperature (°C)	Stokes	anti-Stokes-747.200	-49.213	0.019	0.009
-746.185	294.322	-0.165	0.302
-745.171	-200.000	0.002	0.091
-744.156	-200.000	0.024	0.179
-743.142	-51.455	0.241	0.113
-742.127	-200.000	-0.104	0.000
-741.112	-112.341	-0.196	-0.039
-740.098	408.273	-0.251	0.534
-739.083	-113.576	0.091	0.018
-738.069	35.330	-0.201	0.177
-737.054	-2.826	0.128	-0.090
-736.039	171.324	-0.322	-0.464
-735.025	-100.569	0.535	0.133
-734.010	-93.243	-0.297	0.083
-732.996	357.757	0.026	-0.051
-731.981	-120.762	-0.273	-0.046
-730.966	-159.952	-0.086	-0.005
-729.952	-92.169	-0.099	0.028
-728.937	372.297	0.084	-0.172
-727.923	132.245	-0.114	-0.147
-726.908	-200.000	-0.017	-0.128
-725.894	80.574	-0.311	0.337
-724.879	-67.431	0.070	-0.028
-723.864	-200.000	-0.055	-0.408
-722.850	-200.000	0.036	-0.179
-721.835	-115.536	0.265	0.050
-720.821	-145.410	-0.358	0.032
-719.806	800.000	-0.021	-0.090
-718.791	-131.422	0.131	0.017
-717.777	42.115	0.017	-0.015
-716.762	444.739	0.043	0.094
-715.748	-200.000	0.021	-0.320
-714.733	800.000	0.089	0.254
-713.718	-38.769	0.359	-0.190
-712.704	-115.731	-0.166	0.031
-711.689	-168.458	0.310	0.012
-710.675	325.143	-0.181	-0.347
-709.660	65.710	0.114	-0.116
-708.645	88.168	0.128	-0.142
-707.631	217.999	-0.147	-0.235
-706.616	800.000	0.113	-0.350
-705.602	297.577	-0.173	0.319
-704.587	-112.183	-0.181	0.036
-703.572	35.364	0.022	-0.020
-702.558	-25.542	0.114	-0.067
-701.543	696.636	-0.057	0.149
-700.529	0.292	-0.218	-0.156
-699.514	666.719	-0.029	0.076
-698.499	800.000	-0.078	-0.321
-697.485	11.496	0.195	-0.150
-696.470	-120.267	0.419	0.072
-695.456	284.029	-0.144	0.259
-694.441	-144.753	-0.200	0.018
-693.426	452.535	-0.052	-0.115
-692.412	422.748	-0.063	-0.135
-691.397	-80.822	-0.056	0.019
-690.383	-200.000	0.046	-0.269
-689.368	-12.393	-0.174	-0.114
-688.354	131.221	0.186	-0.239
-687.339	-200.000	-0.059	0.393
-686.324	-23.606	-0.289	0.174
-685.310	-134.520	0.299	0.037
-684.295	326.869	0.059	0.113
-683.281	-200.000	-0.042	0.205
-682.266	158.651	-0.171	-0.238
-681.251	-200.000	-0.044	0.470
-680.237	800.000	0.028	-0.082
-679.222	-29.045	-0.423	-0.243
-678.208	-200.000	0.087	0.459
-677.193	-85.427	-0.131	0.041
-676.178	-83.679	0.197	0.063
-675.164	-32.905	-0.195	0.109
-674.149	-200.000	-0.074	0.374
-673.135	-85.249	0.321	-0.101
-672.120	23.434	0.208	0.172
-671.105	112.557	-0.061	-0.074
-670.091	235.276	0.128	0.211
-669.076	162.774	-0.133	-0.187
-668.062	-200.000	0.025	0.116
-667.047	-200.000	-0.008	-0.075
-666.032	800.000	-0.154	-0.460
-665.018	-200.000	-0.029	-0.255
-664.003	-200.000	-0.040	-0.247
-662.989	-106.431	0.065	-0.014
-661.974	-144.637	-0.162	0.015
-660.959	800.000	-0.045	0.158
-659.945	-62.777	0.292	0.121
-658.930	192.483	0.187	-0.282
-657.916	800.000	-0.123	-0.425
-656.901	44.794	0.163	-0.150
-655.886	-44.219	0.255	-0.128
-654.872	298.948	-0.100	0.185
-653.857	-145.128	-0.517	0.047
-652.843	15.475	0.121	0.095
-651.828	380.439	-0.167	0.342
-650.814	9.572	0.059	-0.045
-649.799	-54.654	0.327	-0.148
-648.784	-86.389	-0.163	0.050
-647.770	-200.000	0.010	0.085
-646.755	624.887	-0.098	-0.249
-645.741	-28.113	0.198	-0.115
-644.726	-200.000	-0.021	-0.337
-643.711	800.000	0.090	-0.359
-642.697	-34.127	0.110	-0.061
-641.682	73.234	-0.117	-0.123
-640.668	235.532	0.158	0.261
-639.653	431.010	0.177	-0.383
-638.638	-180.470	-0.177	-0.004
-637.624	800.000	-0.066	0.218
-636.609	182.628	0.193	0.285
-635.595	52.644	-0.128	0.122
-634.580	-145.205	0.165	-0.015
-633.565	57.374	-0.199	0.195
-632.551	-17.739	-0.256	0.161
-631.536	249.047	0.064	0.108
-630.522	-108.934	-0.118	0.025
-629.507	129.212	0.147	-0.187
-628.492	102.457	0.224	-0.263
-627.478	-126.481	-0.039	-0.006
-626.463	734.065	-0.145	-0.387
-625.449	-96.044	-0.471	-0.125
-624.434	-35.086	-0.321	-0.175
-623.419	143.486	0.126	-0.168
-622.405	-178.169	-0.212	-0.005
-621.390	-113.618	-0.075	0.015
-620.376	-90.419	-0.356	0.103
-619.361	-200.000	-0.036	-0.253
-618.346	-129.020	0.062	0.009
-617.332	24.106	0.082	0.067
-616.317	110.627	-0.054	-0.065
-615.303	30.027	-0.151	-0.129
-614.288	94.214	0.108	-0.122
-613.273	-200.000	0.075	0.394
-612.259	800.000	0.055	0.157
-611.244	69.629	0.093	-0.096
-610.230	-200.000	0.022	0.235
-609.215	-200.000	0.050	0.296
-608.201	-200.000	-0.068	-0.312
-607.186	-133.068	0.419	0.053
-606.171	-29.756	0.105	-0.060
-605.157	270.553	0.066	0.116
-604.142	35.868	0.001	-0.001
-603.128	-179.188	0.193	-0.004
-602.113	800.000	-0.038	-0.124
-601.098	-3.638	0.121	-0.084
-600.084	-74.768	0.248	-0.089
-599.069	-165.485	-0.442	0.019
-598.055	800.000	-0.034	0.141
-597.040	800.000	0.054	-0.164
-596.025	800.000	-0.109	-0.428
-595.011	-200.000	0.018	0.117
-593.996	-126.140	-0.271	-0.041
-592.982	5.749	-0.158	0.117
-591.967	-97.385	0.262	-0.068
-590.952	-52.740	-0.213	0.098
-589.938	-156.406	0.070	0.004
-588.923	294.613	-0.089	0.162
-587.909	-102.683	0.090	0.022
-586.894	90.253	-0.228	-0.255
-585.879	21.669	-0.242	-0.197
-584.865	-10.603	0.198	-0.131
-583.850	-106.053	0.433	-0.097
-582.836	-48.124	0.144	-0.069
-581.821	-44.986	-0.308	0.153
-580.806	-200.000	-0.034	0.157
-579.792	-92.104	0.526	-0.149
-578.777	-24.050	-0.028	-0.016
-577.763	297.075	0.130	0.237
-576.748	-115.373	-0.120	-0.023
-575.733	-163.804	-0.174	-0.008
-574.719	-19.137	-0.217	0.134
-573.704	-77.115	0.237	-0.083
-572.690	-46.679	-0.134	0.065
-571.675	-200.000	-0.036	-0.218
-570.661	61.413	0.415	-0.412
-569.646	36.355	0.037	-0.033
-568.631	188.264	0.123	-0.184
-567.617	41.720	0.144	-0.131
-566.602	18.719	-0.141	-0.113
-565.588	798.807	0.046	0.127
-564.573	-86.713	0.196	0.060
-563.558	181.505	0.167	0.245
-562.544	-18.897	-0.214	-0.133
-561.529	-75.803	-0.158	-0.056
-560.515	-81.093	-0.058	0.019
-559.500	-115.507	-0.115	-0.022
-558.485	-104.964	0.237	-0.054
-557.471	-94.467	-0.190	-0.052
-556.456	269.216	0.102	0.179
-555.442	-132.822	-0.038	-0.005
-554.427	16.516	-0.212	-0.167
-553.412	339.417	0.118	0.229
-552.398	-59.277	0.121	0.052
-551.383	68.232	-0.059	-0.060
-550.369	-96.764	0.096	-0.025
-549.354	800.000	0.094	0.288
-548.339	59.984	0.011	-0.011
-547.325	-33.803	-0.262	-0.144
-546.310	206.207	-0.123	-0.191
-545.296	-65.728	-0.194	-0.077
-544.281	15.535	-0.097	-0.076
-543.266	-161.792	0.333	-0.017
-542.252	-200.000	-0.023	-0.506
-541.237	-93.095	0.258	-0.072
-540.223	130.154	-0.152	0.195
-539.208	-4.033	-0.131	-0.091
-538.193	-40.844	0.283	-0.146
-537.179	241.806	0.062	0.104
-536.164	168.684	-0.154	0.219
-535.150	-131.618	0.192	-0.025
-534.135	-186.663	-0.368	-0.005
-533.121	266.506	-0.125	-0.218
-532.106	74.935	-0.245	0.257
-531.091	148.545	0.197	0.265
-530.077	800.000	0.035	0.134
-529.062	-75.744	-0.427	0.151
-528.048	279.693	0.049	-0.088
-527.033	-124.188	-0.528	-0.082
-526.018	-112.148	0.088	-0.018
-525.004	9.954	-0.087	0.066
-523.989	32.393	0.306	-0.264
-522.975	562.014	-0.069	0.166
-521.960	-160.457	0.056	0.003
-520.945	-88.351	-0.066	0.020
-519.931	223.596	0.186	-0.299
-518.916	15.554	0.179	-0.140
-517.902	-12.438	-0.110	0.072
-516.887	39.104	-0.128	0.114
-515.872	-105.030	0.139	0.032
-514.858	302.897	-0.277	-0.512
-513.843	-42.395	0.082	0.042
-512.829	320.330	0.258	-0.487
-511.814	109.264	0.073	0.086
-510.799	-54.819	0.184	0.083
-509.785	175.962	-0.172	0.248
-508.770	89.656	0.029	0.032
-507.756	800.000	0.051	0.179
-506.741	800.000	-0.062	-0.192
-505.726	-80.390	-0.103	0.034
-504.712	-145.264	-0.038	0.003
-503.697	2.857	-0.154	0.111
-502.683	800.000	0.104	0.417
-501.668	502.912	-0.035	0.079
-500.653	308.065	-0.105	-0.194
-499.639	800.000	-0.116	0.349
-498.624	110.524	0.097	-0.115
-497.610	-47.958	0.100	0.048
-496.595	87.822	0.239	-0.263
-495.581	22.953	0.054	-0.044
-494.566	-200.000	-0.009	0.233
-493.551	-25.111	0.231	-0.136
-492.537	-200.000	0.035	0.253
-491.522	-63.801	-0.073	0.030
-490.508	29.425	0.047	0.039
-489.493	-200.000	0.034	-0.236
-488.478	-74.003	0.179	-0.064
-487.464	79.140	0.164	-0.175
-486.449	84.706	-0.140	-0.153
-485.435	99.408	-0.207	-0.238
-484.420	321.312	-0.150	0.283
-483.405	800.000	0.035	0.130
-482.391	-200.000	0.009	0.262
-481.376	-95.610	-0.209	0.056
-480.362	-200.000	0.032	-0.263
-479.347	24.910	0.110	-0.091
-478.332	-172.127	0.121	0.004
-477.318	155.588	0.157	-0.215
-476.303	120.081	-0.030	-0.036
-475.289	-200.000	0.017	-0.160
-474.274	-122.481	-0.170	0.027
-473.259	81.607	0.227	-0.244
-472.245	-200.000	-0.035	0.152
-471.230	-195.109	0.412	-0.003
-470.216	-102.322	0.382	-0.091
-469.201	-115.217	0.045	0.008
-468.186	-91.364	0.174	-0.049
-467.172	-119.284	0.232	0.040
-466.157	-3.220	-0.088	-0.061
-465.143	112.412	-0.243	-0.292
-464.128	253.996	0.260	0.442
-463.113	-200.000	0.018	0.411
-462.099	-108.424	-0.086	0.018
-461.084	185.814	-0.136	-0.201
-460.070	-183.041	-0.304	0.005
-459.055	-129.077	0.210	0.029
-458.040	-101.266	-0.124	0.030
-457.026	800.000	0.078	-0.299
-456.011	51.666	-0.151	0.143
-454.997	233.676	-0.125	-0.205
-453.982	-200.000	-0.012	0.120
-452.968	-200.000	-0.013	-0.241
-451.953	47.440	0.208	0.192
-450.938	-200.000	0.066	0.330
-449.924	-131.679	-0.352	-0.046
-448.909	266.321	0.061	0.105
-447.895	653.974	0.031	-0.079
-446.880	-200.000	-0.035	0.252
-445.865	-200.000	-0.023	-0.260
-444.851	647.110	-0.045	-0.115
-443.836	-47.785	-0.090	-0.043
-442.822	149.924	-0.079	0.106
-441.807	-142.638	0.340	-0.033
-440.792	-62.275	0.217	0.090
-439.778	-159.253	-0.185	-0.010
-438.763	56.418	-0.218	-0.211
-437.749	800.000	0.087	-0.239
-436.734	-79.889	0.303	-0.101
-435.719	-71.707	-0.064	-0.024
-434.705	-200.000	0.036	-0.307
-433.690	800.000	-0.098	0.286
-432.676	34.147	0.363	-0.314
-431.661	340.940	0.040	0.077
-430.646	-55.537	0.094	0.042
-429.632	346.963	0.083	-0.163
-428.617	168.741	-0.044	-0.063
-427.603	227.018	0.232	-0.374
-426.588	-200.000	0.036	0.199
-425.573	-102.845	0.342	0.081
-424.559	89.757	-0.158	0.175
-423.544	-200.000	-0.003	-0.230
-422.530	184.592	-0.141	-0.208
-421.515	-200.000	0.047	0.283
-420.500	-103.754	-0.130	0.030
-419.486	152.875	0.104	-0.142
-418.471	334.227	0.055	-0.105
-417.457	-9.584	0.067	0.044
-416.442	-71.957	0.451	-0.166
-415.428	120.257	-0.152	0.187
-414.413	-69.276	-0.114	-0.043
-413.398	238.526	0.101	-0.167
-412.384	-200.000	0.003	0.239
-411.369	267.187	-0.122	-0.212
-410.355	161.238	0.089	0.123
-409.340	42.928	-0.135	0.122
-408.325	-17.021	0.067	-0.042
-407.311	-101.275	-0.397	0.096
-406.296	31.473	0.160	0.136
-405.282	-200.000	-0.026	-0.147
-404.267	-131.501	0.045	0.006
-403.252	-85.305	0.171	0.053
-402.238	136.569	-0.101	-0.130
-401.223	25.571	0.087	-0.071
-400.209	8.147	0.183	-0.137
-399.194	275.485	-0.112	-0.197
-398.179	-39.540	0.069	0.036
-397.165	178.695	0.079	-0.115
-396.150	-78.664	-0.204	0.069
-395.136	391.078	-0.079	0.163
-394.121	4.375	-0.103	-0.075
-393.106	17.715	0.301	-0.238
-392.092	-25.671	-0.259	0.151
-391.077	-100.348	-0.314	0.077
-390.063	8.233	0.296	-0.221
-389.048	281.270	-0.145	-0.257
-388.033	-200.000	0.027	0.418
-387.019	800.000	0.027	-0.100
-386.004	-160.712	-0.398	0.021
-384.990	-200.000	-0.011	-0.103
-383.975	54.198	0.243	0.231
-382.960	59.731	0.097	0.095
-381.946	103.985	0.030	0.035
-380.931	-101.767	0.140	0.034
-379.917	197.688	-0.124	-0.188
-378.902	-14.333	0.160	-0.102
-377.888	27.095	-0.222	0.185
-376.873	49.588	0.256	-0.239
-375.858	-200.000	-0.029	0.305
-374.844	-22.469	-0.300	0.180
-373.829	493.459	0.024	-0.054
-372.815	110.368	-0.073	-0.087
-371.800	787.917	0.055	0.151
-370.785	103.150	0.060	-0.070
-369.771	-200.000	-0.046	0.332
-368.756	48.918	0.136	0.126
-367.742	-200.000	-0.046	-0.284
-366.727	-200.000	0.044	-0.263
-365.712	-135.364	0.155	-0.018
-364.698	58.742	-0.109	0.106
-363.683	-10.723	0.222	0.145
-362.669	-163.494	0.253	0.012
-361.654	314.740	-0.035	0.065
-360.639	104.991	-0.131	-0.153
-359.625	-67.765	0.247	-0.096
-358.610	-115.861	0.348	-0.064
-357.596	-7.406	0.267	-0.179
-356.581	800.000	-0.120	-0.368
-355.566	682.804	-0.015	0.039
-354.552	-200.000	-0.011	-0.247
-353.537	33.733	0.013	-0.011
-352.523	-144.872	0.089	0.008
-351.508	-109.658	0.418	0.087
-350.493	30.468	0.162	0.137
-349.479	800.000	-0.069	-0.199
-348.464	-100.293	-0.233	0.057
-347.450	800.000	0.027	-0.093
-346.435	-200.000	0.013	-0.191
-345.420	-159.048	-0.389	0.022
-344.406	800.000	0.144	0.476
-343.391	-30.924	-0.160	-0.089
-342.377	-67.196	-0.123	0.048
-341.362	404.358	-0.034	0.071
-340.348	-97.830	0.145	0.037
-339.333	2.647	-0.075	0.054
-338.318	800.000	0.074	0.233
-337.304	800.000	0.044	0.153
-336.289	30.664	-0.311	-0.263
-335.275	800.000	-0.088	-0.253
-334.260	111.823	-0.180	0.215
-333.245	-41.571	-0.169	0.086
-332.231	22.233	0.196	-0.158
-331.216	56.050	-0.202	0.194
-330.202	-84.585	0.175	0.054
-329.187	-200.000	0.338	-0.002
-328.172	-102.445	-0.143	-0.034
-327.158	-200.000	-0.019	0.293
-326.143	-129.985	0.372	0.050
-325.129	800.000	-0.008	-0.021
-324.114	50.243	-0.197	0.184
-323.099	-104.388	0.195	0.045
-322.085	-114.596	-0.088	-0.017
-321.070	34.298	-0.149	-0.128
-320.056	800.000	0.079	0.318
-319.041	754.715	-0.032	0.086
-318.026	-48.014	-0.163	0.078
-317.012	143.372	0.192	-0.252
-315.997	-200.000	-0.032	0.244
-314.983	-119.627	-0.404	0.069
-313.968	267.225	-0.023	0.040
-312.953	-24.706	-0.088	-0.052
-311.939	-68.511	-0.188	-0.072
-310.924	20.654	-0.052	0.042
-309.910	-200.000	-0.024	0.487
-308.895	-200.000	-0.034	0.190
-307.880	-200.000	0.012	-0.086
-306.866	-100.457	0.206	0.050
-305.851	122.611	0.107	-0.132
-304.837	-200.000	0.028	0.132
-303.822	-104.601	0.258	0.059
-302.807	220.017	0.201	0.319
-301.793	115.262	-0.206	-0.249
-300.778	-122.589	0.275	0.044
-299.764	80.802	0.172	0.183
-298.749	-158.119	-0.079	0.005
-297.735	-40.414	0.077	-0.040
-296.720	118.370	-0.099	-0.121
-295.705	33.679	-0.057	-0.049
-294.691	-98.918	0.292	0.073
-293.676	-200.000	0.064	0.388
-292.662	-11.760	-0.397	-0.258
-291.647	-52.188	0.261	0.120
-290.632	-83.640	-0.176	0.056
-289.618	-93.720	0.250	-0.068
-288.603	-102.196	0.121	-0.029
-287.589	-200.000	-0.029	0.175
-286.574	630.008	-0.037	0.093
-285.559	-68.521	-0.162	-0.062
-284.545	101.562	0.090	-0.103
-283.530	-102.195	-0.294	-0.070
-282.516	-110.166	-0.192	0.039
-281.501	83.062	-0.190	-0.204
-280.486	-156.744	-0.107	-0.007
-279.472	146.322	0.423	-0.560
-278.457	-54.866	-0.141	-0.063
-277.443	-75.059	-0.147	-0.052
-276.428	-165.194	0.194	-0.008
-275.413	3.540	-0.049	0.035
-274.399	-22.897	0.170	-0.101
-273.384	-200.000	0.014	-0.086
-272.370	-73.201	-0.127	-0.046
-271.355	-79.160	0.096	0.032
-270.340	-94.359	-0.155	-0.042
-269.326	36.688	-0.113	-0.099
-268.311	7.764	-0.173	-0.128
-267.297	-78.317	0.090	-0.030
-266.282	-1.064	-0.095	0.066
-265.267	-136.819	0.080	0.009
-264.253	13.355	0.232	-0.177
-263.238	-22.403	-0.047	0.028
-262.224	-200.000	-0.035	0.324
-261.209	48.271	0.061	0.056
-260.195	43.085	0.212	-0.190
-259.180	103.448	-0.152	0.176
-258.165	-6.737	-0.310	0.208
-257.151	748.979	0.033	-0.087
-256.136	185.960	0.214	0.313
-255.122	-200.000	0.000	0.100
-254.107	332.874	-0.153	-0.291
-253.092	-75.434	0.268	-0.094
-252.078	800.000	-0.098	-0.314
-251.063	-200.000	-0.022	0.314
-250.049	-57.056	-0.311	-0.135
-249.034	-63.332	-0.248	-0.101
-248.019	-178.287	-0.296	0.007
-247.005	164.428	-0.093	0.130
-245.990	-72.533	-0.202	0.073
-244.976	800.000	0.070	0.209
-243.961	-114.086	-0.233	0.044
-242.946	-200.000	0.002	0.203
-241.932	239.428	0.176	0.289
-240.917	105.742	-0.075	-0.087
-239.903	90.714	-0.158	-0.175
-238.888	723.737	-0.064	0.168
-237.873	-177.966	-0.108	0.003
-236.859	-143.428	0.153	0.014
-235.844	-112.180	0.207	0.041
-234.830	-200.000	0.034	0.219
-233.815	-69.398	0.128	-0.048
-232.800	-200.000	0.064	0.323
-231.786	-200.000	0.029	-0.146
-230.771	47.364	-0.227	0.208
-229.757	-200.000	0.048	0.300
-228.742	-27.887	0.340	0.194
-227.727	-200.000	0.043	0.220
-226.713	-200.000	0.029	0.180
-225.698	-79.615	0.090	0.030
-224.684	737.431	-0.123	-0.324
-223.669	-11.318	0.096	-0.062
-222.655	-78.027	-0.076	-0.026
-221.640	88.358	-0.130	0.143
-220.625	-48.022	0.165	-0.079
-219.611	-75.594	0.071	-0.025
-218.596	26.588	-0.109	-0.090
-217.582	590.512	0.099	-0.240
-216.567	216.181	-0.048	0.075
-215.552	197.668	0.100	-0.151
-214.538	-131.083	0.135	-0.018
-213.523	484.417	0.046	-0.102
-212.509	287.122	0.045	-0.081
-211.494	-175.948	-0.210	-0.005
-210.479	12.969	-0.156	-0.119
-209.465	-120.133	-0.147	0.025
-208.450	-107.890	-0.322	0.069
-207.436	-56.966	0.123	-0.054
-206.421	-14.169	-0.256	0.162
-205.406	-68.263	-0.205	-0.079
-204.392	-68.708	-0.228	0.087
-203.377	-200.000	-0.024	0.354
-202.363	8.730	-0.124	-0.092
-201.348	-59.311	0.243	0.103
-200.333	-71.150	0.152	-0.056
-199.319	-200.000	0.023	0.144
-198.304	63.138	0.057	0.056
-197.290	800.000	0.053	0.201
-196.275	-114.748	0.118	-0.022
-195.260	-2.095	0.163	0.113
-194.246	55.188	0.177	0.168
-193.231	685.479	0.041	0.105
-192.217	44.150	0.138	-0.124
-191.202	800.000	-0.022	-0.072
-190.187	-51.782	0.265	-0.122
-189.173	-62.424	0.050	0.020
-188.158	236.380	-0.086	0.140
-187.144	-84.778	-0.080	0.025
-186.129	800.000	-0.056	0.236
-185.114	35.073	-0.149	0.129
-184.100	472.946	-0.200	0.442
-183.085	800.000	-0.081	0.227
-182.071	84.706	-0.196	0.211
-181.056	-60.830	-0.300	-0.125
-180.042	-200.000	0.026	0.214
-179.027	800.000	0.065	0.179
-178.012	-169.287	-0.238	0.009
-176.998	14.492	0.066	-0.050
-175.983	175.773	-0.173	-0.247
-174.969	11.215	0.280	0.211
-173.954	468.474	0.020	-0.045
-172.939	-200.000	0.028	0.342
-171.925	-200.000	0.002	0.049
-170.910	322.692	0.116	0.218
-169.896	546.504	-0.112	0.264
-168.881	292.005	-0.045	0.080
-167.866	-160.347	0.169	0.009
-166.852	-144.497	-0.331	0.030
-165.837	193.927	0.190	0.282
-164.823	-166.557	-0.384	-0.016
-163.808	-200.000	-0.007	-0.166
-162.793	3.389	-0.114	0.081
-161.779	-61.937	-0.138	0.057
-160.764	-200.000	-0.038	-0.287
-159.750	800.000	0.050	-0.150
-158.735	136.376	0.174	-0.223
-157.720	-200.000	-0.010	-0.236
-156.706	-135.273	-0.234	-0.028
-155.691	800.000	-0.047	0.156
-154.677	269.694	0.136	-0.235
-153.662	-200.000	-0.002	-0.261
-152.647	-87.005	-0.320	0.096
-151.633	-175.685	0.066	-0.002
-150.618	32.999	-0.113	0.096
-149.604	-184.100	-0.179	-0.003
-148.589	-52.525	0.275	-0.125
-147.574	-28.963	0.243	0.137
-146.560	61.485	0.278	-0.271
-145.545	-52.593	0.262	0.119
-144.531	-58.195	-0.254	0.109
-143.516	-200.000	-0.020	-0.134
-142.502	263.382	0.044	0.075
-141.487	-200.000	-0.037	-0.284
-140.472	-200.000	-0.025	0.478
-139.458	-52.667	-0.115	0.052
-138.443	-114.105	-0.448	0.085
-137.429	103.238	0.140	0.161
-136.414	313.007	0.180	0.332
-135.399	-200.000	0.059	0.340
-134.385	-84.302	0.417	-0.129
-133.370	95.090	0.313	-0.350
-132.356	-17.968	-0.151	0.093
-131.341	-101.215	-0.436	-0.105
-130.326	800.000	0.066	-0.199
-129.312	-200.000	-0.034	0.277
-128.297	38.464	-0.151	0.132
-127.283	-200.000	0.076	0.404
-126.268	-200.000	0.025	0.249
-125.253	144.239	0.222	-0.291
-124.239	-175.618	0.251	-0.007
-123.224	161.671	0.113	-0.154
-122.210	746.073	0.083	-0.219
-121.195	87.101	0.049	-0.053
