DTS Sentinel unit serial number:	SN413079Multiplexer serial number:	ORYXHardware model number:	OX4-SRSoftware version number:	ORYX F/W v4.00 Oryx Data Collector v3.7.2.0data status	okinstallation	princeton_trtdifferential loss correction	single-endedforward channel	channel 2reverse channel	N/Adate	2019/09/16time	19:43:35forward acquisition time	60.00reverse acquisition time	0.00gamma	496.2192k internal	0.2325k external	0.2325temperature offset calibration	0.9965default loss term (dB/km)	0.3790temperature slope calibration	1.0000multiplexer offset coefficient	1.0000multiplexer slope coefficient	1.0000fibre end	0.00T internal ref (°C)	34.00T ext. ref 1 (°C)	0.06T ext. ref 2 (°C)	26.98length (m)	temperature (°C)	Stokes	anti-Stokes-747.200	234.247	-0.102	0.170
-746.185	800.000	0.013	-0.040
-745.171	-130.753	0.022	-0.003
-744.156	800.000	0.033	-0.125
-743.142	-93.197	-0.096	0.027
-742.127	101.064	-0.235	-0.276
-741.112	21.046	0.188	-0.154
-740.098	-6.505	0.279	0.192
-739.083	13.976	-0.263	-0.207
-738.069	46.652	0.165	0.154
-737.054	135.009	-0.154	0.202
-736.039	-200.000	-0.007	-0.155
-735.025	-137.696	0.246	-0.028
-734.010	201.022	0.166	0.258
-732.996	208.282	0.059	-0.094
-731.981	-116.162	-0.270	-0.050
-730.966	225.905	0.251	-0.410
-729.952	177.946	0.123	-0.181
-728.937	87.266	-0.140	0.156
-727.923	15.337	-0.153	-0.121
-726.908	-200.000	-0.000	-0.240
-725.894	-35.331	-0.272	-0.149
-724.879	800.000	-0.113	-0.391
-723.864	197.458	0.130	-0.200
-722.850	40.189	0.202	-0.183
-721.835	-2.860	0.157	-0.110
-720.821	95.647	-0.065	-0.075
-719.806	184.158	0.141	-0.210
-718.791	800.000	-0.052	-0.174
-717.777	100.491	0.162	0.189
-716.762	203.605	-0.167	-0.260
-715.748	-105.453	0.139	0.032
-714.733	644.691	-0.066	-0.170
-713.718	-113.318	0.216	-0.043
-712.704	-57.648	-0.235	0.104
-711.689	-200.000	-0.032	0.144
-710.675	-200.000	0.022	0.275
-709.660	-200.000	-0.032	0.347
-708.645	-121.714	0.144	0.024
-707.631	476.049	0.062	0.142
-706.616	-200.000	0.003	0.446
-705.602	625.806	-0.092	0.233
-704.587	11.993	-0.276	-0.214
-703.572	800.000	-0.051	-0.175
-702.558	-200.000	0.017	-0.082
-701.543	57.306	0.198	0.195
-700.529	34.176	-0.083	0.073
-699.514	-200.000	-0.017	0.096
-698.499	140.739	0.086	0.115
-697.485	-58.358	-0.048	0.021
-696.470	-44.478	-0.252	-0.127
-695.456	-200.000	-0.047	-0.248
-694.441	12.615	0.103	0.080
-693.426	50.000	-0.122	-0.116
-692.412	21.178	0.259	0.212
-691.397	-88.947	0.570	0.170
-690.383	-118.180	0.125	0.023
-689.368	-1.662	0.142	-0.101
-688.354	79.285	-0.077	0.083
-687.339	132.414	0.094	-0.122
-686.324	309.201	-0.145	-0.273
-685.310	139.275	0.148	-0.196
-684.295	123.751	-0.113	-0.142
-683.281	-200.000	-0.054	0.301
-682.266	-100.453	-0.060	0.015
-681.251	-200.000	0.043	-0.196
-680.237	-87.633	-0.099	-0.030
-679.222	800.000	0.079	-0.287
-678.208	78.157	-0.109	-0.117
-677.193	30.357	0.121	-0.104
-676.178	56.281	0.108	-0.106
-675.164	-48.185	-0.237	0.115
-674.149	406.942	-0.031	-0.066
-673.135	13.464	-0.166	-0.130
-672.120	242.216	-0.136	-0.228
-671.105	179.825	0.075	-0.111
-670.091	427.392	-0.097	-0.211
-669.076	-25.288	0.043	-0.026
-668.062	-31.469	0.129	0.073
-667.047	-96.371	-0.104	0.028
-666.032	2.483	-0.119	-0.087
-665.018	-108.437	0.608	-0.132
-664.003	800.000	-0.094	0.310
-662.989	-142.664	0.120	0.012
-661.974	-200.000	0.013	0.100
-660.959	-153.605	-0.240	-0.017
-659.945	162.568	-0.204	0.288
-658.930	287.743	-0.230	-0.419
-657.916	486.242	0.132	-0.303
-656.901	-5.587	0.007	-0.005
-655.886	-200.000	-0.074	-0.566
-654.872	-38.226	-0.286	-0.153
-653.857	313.510	0.066	0.125
-652.843	-200.000	0.077	0.420
-651.828	32.133	-0.313	0.271
-650.814	7.553	0.122	-0.091
-649.799	96.943	-0.108	0.124
-648.784	-200.000	-0.016	0.287
-647.770	800.000	-0.125	-0.417
-646.755	-53.314	0.222	0.102
-645.741	91.238	-0.095	0.107
-644.726	-200.000	-0.034	0.281
-643.711	-200.000	-0.056	-0.284
-642.697	-61.095	0.472	0.200
-641.682	289.109	-0.241	-0.440
-640.668	-152.348	0.097	-0.007
-639.653	-75.692	-0.212	-0.075
-638.638	-98.077	-0.050	0.013
-637.624	203.020	0.167	0.260
-636.609	34.268	-0.270	-0.237
-635.595	-200.000	0.008	-0.138
-634.580	-200.000	0.006	-0.063
-633.565	800.000	0.066	0.212
-632.551	-141.084	0.183	-0.019
-631.536	-200.000	0.016	0.220
-630.522	26.690	-0.246	-0.207
-629.507	128.618	-0.052	0.067
-628.492	2.289	0.046	0.033
-627.478	-74.952	-0.357	-0.128
-626.463	800.000	0.026	0.092
-625.449	659.925	-0.099	0.256
-624.434	800.000	0.083	0.341
-623.419	-200.000	-0.029	0.153
-622.405	800.000	-0.092	0.343
-621.390	-84.047	-0.063	0.020
-620.376	-38.645	0.211	0.112
-619.361	-48.279	-0.045	-0.022
-618.346	27.069	-0.072	0.061
-617.332	-200.000	-0.042	0.191
-616.317	-17.892	-0.211	-0.133
-615.303	-103.112	-0.176	-0.042
-614.288	-86.504	0.232	-0.072
-613.273	800.000	0.081	0.271
-612.259	-200.000	-0.014	-0.096
-611.244	12.832	-0.092	-0.071
-610.230	-110.355	-0.426	0.089
-609.215	800.000	0.054	-0.205
-608.201	-12.806	0.298	-0.195
-607.186	800.000	-0.051	0.200
-606.171	800.000	-0.076	0.244
-605.157	292.461	-0.100	0.184
-604.142	85.126	0.225	0.247
-603.128	-6.124	-0.138	0.094
-602.113	-200.000	-0.017	-0.122
-601.098	-77.699	0.057	-0.020
-600.084	-45.677	0.094	0.046
-599.069	-155.529	0.367	-0.024
-598.055	550.162	-0.015	-0.036
-597.040	483.762	-0.176	0.401
-596.025	-200.000	0.030	-0.339
-595.011	-200.000	0.098	-0.511
-593.996	122.993	0.136	-0.171
-592.982	-200.000	-0.003	-0.061
-591.967	-200.000	-0.053	-0.338
-590.952	-103.504	-0.216	-0.051
-589.938	-91.368	-0.102	0.029
-588.923	-42.343	-0.083	-0.042
-587.909	48.568	-0.165	-0.155
-586.894	-65.631	0.255	0.103
-585.879	-119.115	-0.056	0.010
-584.865	2.001	-0.137	0.099
-583.850	-39.689	-0.292	-0.153
-582.836	392.556	0.050	-0.104
-581.821	-106.272	0.261	-0.059
-580.806	-200.000	0.046	0.288
-579.792	-46.384	-0.194	-0.095
-578.777	142.560	0.078	-0.104
-577.763	61.750	0.107	-0.106
-576.748	-37.088	-0.217	0.117
-575.733	-174.647	-0.148	-0.004
-574.719	-124.642	-0.186	0.029
-573.704	-200.000	-0.028	-0.330
-572.690	-85.474	0.170	0.053
-571.675	210.924	-0.169	0.267
-570.661	191.704	-0.248	0.374
-569.646	-129.143	0.292	-0.041
-568.631	69.865	-0.081	-0.084
-567.617	800.000	0.055	-0.190
-566.602	109.959	-0.022	0.027
-565.588	10.739	-0.202	-0.155
-564.573	27.802	0.138	0.117
-563.558	72.121	-0.114	-0.119
-562.544	-149.636	0.193	0.015
-561.529	800.000	-0.032	-0.123
-560.515	265.508	-0.134	-0.234
-559.500	350.794	0.105	-0.208
-558.485	-117.950	-0.042	-0.008
-557.471	-200.000	-0.030	-0.305
-556.456	492.741	-0.078	-0.179
-555.442	800.000	0.045	0.147
-554.427	117.284	-0.101	0.124
-553.412	248.987	-0.116	0.197
-552.398	-45.763	0.208	-0.103
-551.383	-200.000	-0.009	0.191
-550.369	-200.000	-0.088	-0.395
-549.354	690.755	-0.096	-0.251
-548.339	-200.000	-0.018	-0.117
-547.325	404.243	0.087	0.184
-546.310	8.385	-0.311	-0.234
-545.296	800.000	-0.080	0.254
-544.281	146.418	-0.201	0.270
-543.266	157.690	-0.175	-0.243
-542.252	-95.656	0.075	0.020
-541.237	-200.000	0.030	0.210
-540.223	-11.220	0.159	-0.105
-539.208	241.455	0.037	0.061
-538.193	163.088	-0.070	-0.098
-537.179	800.000	-0.013	-0.051
-536.164	248.987	-0.100	0.170
-535.150	-89.610	0.346	0.102
-534.135	442.320	0.148	-0.324
-533.121	-182.694	-0.330	0.006
-532.106	47.756	-0.202	-0.189
-531.091	-118.891	-0.311	-0.055
-530.077	312.672	-0.083	0.157
-529.062	34.838	0.022	0.019
-528.048	68.573	0.308	0.316
-527.033	-96.349	-0.037	0.010
-526.018	-95.397	0.260	-0.070
-525.004	256.845	0.111	-0.190
-523.989	221.208	0.082	-0.132
-522.975	-2.960	0.081	0.056
-521.960	800.000	-0.101	0.352
-520.945	91.900	-0.083	-0.093
-519.931	453.587	-0.035	0.077
-518.916	71.904	0.172	0.179
-517.902	-200.000	0.098	0.550
-516.887	241.156	0.062	0.104
-515.872	-200.000	-0.018	0.113
-514.858	800.000	-0.023	-0.069
-513.843	-121.989	0.107	-0.018
-512.829	-200.000	-0.007	-0.166
-511.814	-96.665	-0.143	-0.038
-510.799	-74.678	0.361	0.130
-509.785	509.268	0.082	0.191
-508.770	-122.099	-0.191	-0.031
-507.756	-200.000	-0.075	0.426
-506.741	281.765	-0.079	0.142
-505.726	-101.380	-0.090	0.022
-504.712	96.604	-0.254	0.291
-503.697	-119.697	0.125	-0.022
-502.683	221.278	0.149	-0.239
-501.668	-200.000	0.050	0.255
-500.653	537.678	-0.030	-0.070
-499.639	453.600	0.051	-0.114
-498.624	-200.000	-0.001	0.258
-497.610	-200.000	-0.000	-0.197
-496.595	-105.811	-0.202	0.046
-495.581	516.306	0.037	-0.085
-494.566	23.602	0.069	-0.057
-493.551	-82.148	-0.262	-0.085
-492.537	-119.571	-0.092	0.016
-491.522	-114.680	-0.112	-0.021
-490.508	-200.000	-0.003	-0.069
-489.493	-200.000	0.001	-0.183
-488.478	-106.459	-0.210	-0.047
-487.464	-92.997	0.143	-0.040
-486.449	-94.553	0.123	-0.034
-485.435	72.007	-0.158	0.164
-484.420	800.000	0.063	0.182
-483.405	256.147	-0.205	0.352
-482.391	223.804	-0.229	0.369
-481.376	-21.447	-0.245	0.149
-480.362	151.753	-0.083	0.114
-479.347	-91.261	0.285	-0.081
-478.332	718.598	-0.034	0.091
-477.318	-74.759	-0.181	0.065
-476.303	89.112	0.063	0.070
-475.289	-43.450	-0.189	-0.095
-474.274	91.980	0.105	-0.118
-473.259	532.484	-0.079	-0.187
-472.245	800.000	0.013	-0.048
-471.230	49.505	-0.164	-0.155
-470.216	-200.000	0.024	0.107
-469.201	-102.986	0.075	0.018
-468.186	249.555	-0.092	0.155
-467.172	-200.000	0.117	-0.000
-466.157	108.503	0.137	-0.163
-465.143	239.334	0.363	-0.603
-464.128	243.020	0.088	0.147
-463.113	218.975	-0.073	-0.116
-462.099	300.754	-0.138	-0.255
-461.084	-200.000	0.051	0.249
-460.070	-200.000	0.059	-0.378
-459.055	158.247	0.302	0.418
-458.040	292.716	0.110	-0.200
-457.026	42.619	-0.050	-0.045
-456.011	-92.286	0.119	0.033
-454.997	-32.140	0.329	0.183
-453.982	-81.241	-0.061	-0.020
-452.968	-70.244	0.203	-0.077
-451.953	424.541	-0.068	-0.145
-450.938	-81.707	0.139	-0.045
-449.924	18.962	-0.140	-0.112
-448.909	91.031	0.128	-0.143
-447.895	-161.389	-0.237	0.012
-446.880	800.000	-0.028	0.084
-445.865	-42.432	-0.124	-0.063
-444.851	83.933	0.240	-0.261
-443.836	147.807	0.163	0.219
-442.822	-200.000	0.001	-0.074
-441.807	95.220	-0.099	0.113
-440.792	-172.490	0.323	0.010
-439.778	203.085	-0.252	0.389
-438.763	800.000	0.115	-0.403
-437.749	513.455	-0.126	-0.293
-436.734	-200.000	-0.021	-0.101
-435.719	4.230	0.020	0.015
-434.705	334.355	0.058	-0.112
-433.690	-64.162	-0.165	-0.067
-432.676	-200.000	-0.007	-0.299
-431.661	246.661	0.054	0.091
-430.646	-110.103	0.091	0.019
-429.632	312.379	0.032	-0.060
-428.617	481.868	-0.080	0.181
-427.603	-149.273	0.117	-0.009
-426.588	225.248	0.077	-0.125
-425.573	-137.443	-0.082	0.009
-424.559	-200.000	0.002	0.339
-423.544	4.455	0.353	0.258
-422.530	-200.000	0.067	0.378
-421.515	800.000	-0.011	-0.042
-420.500	142.006	-0.074	-0.097
-419.486	303.331	0.096	0.178
-418.471	-200.000	-0.005	-0.045
-417.457	-200.000	-0.030	0.305
-416.442	-114.841	0.248	-0.047
-415.428	-200.000	0.006	-0.052
-414.413	131.615	0.149	-0.191
-413.398	-158.888	-0.273	-0.015
-412.384	16.713	-0.112	-0.089
-411.369	764.522	-0.082	-0.222
-410.355	-10.081	-0.080	0.053
-409.340	-66.823	0.209	0.083
-408.325	38.013	-0.140	-0.124
-407.311	-92.284	-0.104	-0.029
-406.296	-200.000	0.059	-0.356
-405.282	800.000	0.051	0.164
-404.267	-200.000	-0.022	-0.149
-403.252	-200.000	0.007	0.155
-402.238	8.194	-0.480	0.359
-401.223	-67.038	-0.370	-0.145
-400.209	-71.643	0.170	0.063
-399.194	-120.949	0.144	0.024
-398.179	-77.404	0.205	0.071
-397.165	69.169	0.180	-0.185
-396.150	800.000	0.035	0.117
-395.136	-200.000	0.008	-0.047
-394.121	245.140	-0.156	-0.260
-393.106	-69.316	0.264	-0.101
-392.092	212.129	-0.085	-0.133
-391.077	113.058	0.060	0.073
-390.063	439.737	-0.159	0.345
-389.048	800.000	0.074	0.218
-388.033	-194.516	0.241	0.002
-387.019	55.917	0.090	0.087
-386.004	-115.540	0.272	0.051
-384.990	-57.033	-0.204	-0.090
-383.975	555.408	-0.157	-0.377
-382.960	-75.936	-0.137	0.048
-381.946	3.282	0.109	0.079
-380.931	-93.333	-0.152	-0.042
-379.917	112.111	0.051	-0.062
-378.902	-144.014	0.164	0.015
-377.888	800.000	0.038	-0.157
-376.873	-86.717	0.180	0.055
-375.858	239.869	-0.169	-0.280
-374.844	-44.508	-0.514	0.256
-373.829	76.705	0.211	0.223
-372.815	529.338	-0.056	-0.132
-371.800	186.476	0.249	-0.369
-370.785	-200.000	-0.008	-0.389
-369.771	182.277	0.198	-0.290
-368.756	651.833	-0.031	-0.079
-367.742	324.424	0.185	0.351
-366.727	-63.109	-0.234	-0.096
-365.712	84.524	-0.250	-0.272
-364.698	-200.000	0.026	-0.124
-363.683	-115.624	0.126	0.024
-362.669	153.362	-0.132	-0.180
-361.654	315.227	0.086	0.160
-360.639	800.000	0.052	-0.180
-359.625	-32.737	0.082	0.045
-358.610	76.842	-0.218	0.230
-357.596	25.088	-0.425	0.351
-356.581	-200.000	0.008	0.123
-355.566	-82.321	0.265	0.086
-354.552	442.735	-0.103	-0.225
-353.537	119.809	-0.103	-0.127
-352.523	-58.838	-0.212	0.091
-351.508	-79.171	-0.276	0.093
-350.493	-76.490	-0.206	-0.072
-349.479	-200.000	0.018	0.200
-348.464	750.658	0.104	0.278
-347.450	392.849	-0.039	-0.081
-346.435	800.000	0.044	0.187
-345.420	-115.542	-0.398	0.074
-344.406	6.363	-0.143	0.106
-343.391	-200.000	0.007	0.090
-342.377	-111.662	0.234	0.047
-341.362	118.559	0.079	0.097
-340.348	440.598	0.113	-0.246
-339.333	-69.812	0.158	-0.060
-338.318	-24.827	0.263	0.155
-337.304	-15.678	0.095	0.060
-336.289	-200.000	0.006	0.074
-335.275	-200.000	-0.008	-0.305
-334.260	-26.272	-0.175	-0.102
-333.245	83.570	0.147	-0.159
-332.231	-200.000	0.008	-0.228
-331.216	91.400	-0.355	-0.396
-330.202	-116.570	-0.389	-0.071
-329.187	301.707	-0.065	0.120
-328.172	-134.854	-0.242	-0.029
-327.158	38.457	0.159	0.141
-326.143	108.517	0.180	-0.213
-325.129	-114.936	-0.108	0.020
-324.114	154.299	0.178	0.243
-323.099	800.000	-0.012	0.044
-322.085	-114.930	0.151	-0.029
-321.070	-65.740	-0.074	-0.029
-320.056	-111.015	-0.118	0.024
-319.041	-200.000	0.016	0.084
-318.026	800.000	0.016	-0.056
-317.012	-88.084	-0.075	0.022
-315.997	-29.511	-0.184	0.104
-314.983	-9.922	0.096	0.063
-313.968	354.493	-0.150	0.296
-312.953	-200.000	0.002	0.178
-311.939	-67.961	-0.401	-0.155
-310.924	-200.000	-0.042	0.451
-309.910	-200.000	0.057	-0.248
-308.895	217.843	-0.036	0.058
-307.880	16.427	0.295	0.231
-306.866	-200.000	-0.013	0.261
-305.851	-193.321	0.230	-0.002
-304.837	-118.403	-0.505	0.089
-303.822	101.807	-0.164	0.190
-302.807	93.857	0.372	-0.418
-301.793	800.000	-0.107	-0.324
-300.778	-200.000	0.006	0.222
-299.764	82.711	0.072	0.078
-298.749	716.889	-0.044	0.116
-297.735	-68.425	-0.209	-0.080
-296.720	-200.000	0.021	0.279
-295.705	-89.424	-0.220	-0.064
-294.691	-37.616	-0.113	-0.060
-293.676	-0.618	0.041	-0.029
-292.662	-38.255	0.069	0.036
-291.647	130.428	0.316	-0.401
-290.632	297.381	-0.062	0.112
-289.618	-126.777	0.344	-0.050
-288.603	-200.000	0.022	-0.122
-287.589	-29.761	-0.128	0.072
-286.574	174.994	-0.118	0.169
-285.559	0.960	-0.243	-0.173
-284.545	-119.156	-0.171	-0.030
-283.530	-138.918	0.279	-0.030
-282.516	-200.000	-0.029	0.309
-281.501	-56.652	-0.194	0.085
-280.486	-58.504	0.326	-0.140
-279.472	-83.956	0.131	0.041
-278.457	23.718	-0.039	-0.032
-277.443	20.718	0.089	0.072
-276.428	-16.371	0.219	0.138
-275.413	-200.000	-0.017	-0.108
-274.399	95.134	-0.142	0.160
-273.384	33.779	-0.191	-0.165
-272.370	7.114	0.189	0.140
-271.355	57.081	0.180	-0.174
-270.340	48.346	0.143	-0.133
-269.326	-200.000	0.007	-0.055
-268.311	-96.803	0.257	0.067
-267.297	-20.319	-0.144	-0.088
-266.282	113.846	-0.110	-0.132
-265.267	14.757	0.295	0.229
-264.253	-34.423	0.098	0.053
-263.238	115.773	0.130	0.158
-262.224	188.883	-0.051	-0.076
-261.209	141.291	0.061	0.079
-260.195	-200.000	0.004	-0.100
-259.180	800.000	0.048	-0.204
-258.165	-167.054	-0.154	0.006
-257.151	-76.123	-0.192	-0.067
-256.136	67.669	-0.142	0.144
-255.122	-200.000	0.014	0.196
-254.107	-200.000	-0.008	0.149
-253.092	270.202	-0.068	-0.118
-252.078	-125.328	-0.140	-0.021
-251.063	-58.855	0.562	0.241
-250.049	630.931	0.024	0.060
-249.034	-75.761	-0.192	-0.068
-248.019	-53.159	0.194	-0.088
-247.005	745.464	-0.116	-0.309
-245.990	635.903	0.084	-0.212
-244.976	800.000	-0.022	0.080
-243.961	-57.527	-0.200	0.087
-242.946	696.312	0.171	0.445
-241.932	800.000	0.041	-0.172
-240.917	-158.424	0.185	0.011
-239.903	556.683	-0.082	-0.197
-238.888	800.000	0.105	-0.374
-237.873	-200.000	-0.099	-0.460
-236.859	-177.137	0.273	0.007
-235.844	-109.713	0.343	-0.071
-234.830	47.685	0.228	0.210
-233.815	800.000	0.061	-0.187
-232.800	378.652	0.111	-0.224
-231.786	156.371	0.132	0.180
-230.771	124.473	0.124	-0.155
-229.757	223.134	-0.085	-0.136
-228.742	-139.918	0.259	0.027
-227.727	404.202	0.155	0.322
-226.713	-51.022	0.125	-0.058
-225.698	90.603	0.149	-0.165
-224.684	-200.000	-0.025	-0.240
-223.669	442.268	0.163	-0.353
-222.655	-179.053	-0.311	0.007
-221.640	1.712	0.309	-0.220
-220.625	-115.221	0.104	-0.019
-219.611	163.480	-0.148	0.206
-218.596	-129.387	0.100	-0.014
-217.582	800.000	0.080	-0.224
-216.567	85.452	0.239	0.259
-215.552	184.480	0.125	0.184
-214.538	-59.973	0.394	0.166
-213.523	-56.607	-0.134	0.059
-212.509	30.803	-0.218	-0.185
-211.494	-148.651	-0.166	-0.013
-210.479	223.216	-0.135	0.216
-209.465	-127.177	-0.047	-0.007
-208.450	100.190	0.089	-0.102
-207.436	669.777	-0.221	0.566
-206.421	800.000	0.070	0.217
-205.406	447.079	-0.059	0.129
-204.392	47.199	0.174	0.160
-203.377	144.042	0.066	-0.087
-202.363	103.074	-0.200	0.231
-201.348	800.000	-0.057	0.226
-200.333	-113.767	-0.250	-0.048
-199.319	332.069	-0.063	-0.120
-198.304	588.189	-0.084	-0.204
-197.290	-171.532	0.376	-0.012
-196.275	-189.745	0.269	-0.003
-195.260	-114.557	0.428	0.081
-194.246	510.285	0.094	-0.217
-193.231	215.024	-0.090	-0.140
-192.217	88.095	0.048	0.052
-191.202	227.772	-0.044	0.071
-190.187	24.341	-0.328	0.268
-189.173	-101.264	-0.199	0.048
-188.158	-200.000	0.021	0.124
-187.144	-155.498	0.225	0.014
-186.129	130.724	-0.062	-0.078
-185.114	308.940	-0.189	0.350
-184.100	-4.949	0.008	-0.005
-183.085	213.898	-0.083	-0.129
-182.071	28.839	0.189	0.158
-181.056	-68.974	-0.264	0.101
-180.042	-200.000	0.016	0.266
-179.027	-42.592	0.220	-0.111
-178.012	178.643	0.084	-0.122
-176.998	49.218	-0.150	0.139
-175.983	-200.000	-0.010	0.071
-174.969	-144.007	-0.387	0.036
-173.954	-78.252	-0.386	0.131
-172.939	81.693	-0.110	-0.117
-171.925	-83.845	0.136	0.043
-170.910	-200.000	0.042	-0.260
-169.896	183.416	-0.064	-0.093
-168.881	-114.741	0.222	-0.042
-167.866	-200.000	-0.018	-0.189
-166.852	159.639	0.101	-0.139
-165.837	-200.000	0.005	0.101
-164.823	-87.407	0.267	-0.080
-163.808	-146.640	0.223	-0.019
-162.793	258.735	0.141	-0.239
-161.779	-200.000	0.003	0.348
-160.764	-86.831	-0.063	-0.019
-159.750	-118.360	-0.302	0.053
-158.735	-200.000	0.003	-0.253
-157.720	-200.000	0.009	-0.167
-156.706	4.562	-0.324	-0.235
-155.691	-2.802	0.064	0.044
-154.677	800.000	0.103	-0.283
-153.662	-43.114	0.480	-0.240
-152.647	177.527	-0.079	0.114
-151.633	-85.798	0.013	-0.004
-150.618	-140.359	-0.177	0.018
-149.604	-18.330	-0.168	-0.104
-148.589	-128.961	0.208	-0.029
-147.574	251.229	0.214	0.359
-146.560	800.000	0.069	0.253
-145.545	-67.891	-0.076	0.029
-144.531	-200.000	-0.008	0.194
-143.516	-86.754	0.194	0.059
-142.502	-200.000	-0.038	0.241
-141.487	-200.000	-0.012	-0.223
-140.472	11.487	-0.042	0.032
-139.458	152.317	0.136	-0.182
-138.443	-98.656	0.305	-0.077
-137.429	-200.000	-0.022	-0.227
-136.414	-62.034	-0.398	-0.164
-135.399	-174.389	0.154	-0.004
-134.385	-52.628	-0.218	-0.099
-133.370	-120.131	0.285	0.048
-132.356	-67.733	-0.076	-0.029
-131.341	-78.435	0.068	0.023
-130.326	44.666	-0.175	0.158
-129.312	-200.000	-0.018	-0.153
-128.297	800.000	-0.081	0.259
-127.283	346.215	0.108	0.210
-126.268	-12.851	-0.162	-0.104
-125.253	82.562	0.278	-0.298
-124.239	81.178	-0.129	-0.137
-123.224	26.936	0.097	-0.080
-122.210	1.809	-0.082	0.058
-121.195	-49.863	-0.136	-0.064
