DTS Sentinel unit serial number:	SN413079Multiplexer serial number:	ORYXHardware model number:	OX4-SRSoftware version number:	ORYX F/W v4.00 Oryx Data Collector v3.7.2.0data status	okinstallation	princeton_trtdifferential loss correction	single-endedforward channel	channel 2reverse channel	N/Adate	2019/09/13time	17:27:35forward acquisition time	60.00reverse acquisition time	0.00gamma	496.2192k internal	0.2311k external	0.2311temperature offset calibration	1.0166default loss term (dB/km)	0.3790temperature slope calibration	1.0000multiplexer offset coefficient	1.0000multiplexer slope coefficient	1.0000fibre end	0.00T internal ref (°C)	36.12T ext. ref 1 (°C)	4.97T ext. ref 2 (°C)	30.34length (m)	temperature (°C)	Stokes	anti-Stokes-747.200	-200.000	-0.052	-0.399
-746.185	170.209	0.088	-0.128
-745.171	-200.000	0.022	0.143
-744.156	119.688	-0.202	0.253
-743.142	-175.807	0.180	-0.005
-742.127	-76.079	-0.180	0.065
-741.112	219.492	0.064	0.103
-740.098	189.253	0.122	0.186
-739.083	-82.664	-0.127	-0.042
-738.069	-200.000	0.016	0.165
-737.054	-200.000	0.038	0.205
-736.039	108.227	-0.247	0.299
-735.025	-50.494	0.161	0.077
-734.010	-57.180	0.071	-0.032
-732.996	-200.000	-0.010	-0.097
-731.981	33.696	0.115	0.102
-730.966	-74.387	0.126	-0.046
-729.952	77.347	0.121	0.130
-728.937	-153.805	-0.478	-0.033
-727.923	-87.480	-0.265	-0.082
-726.908	2.311	-0.192	0.141
-725.894	-25.378	0.138	-0.083
-724.879	-200.000	-0.021	-0.147
-723.864	800.000	0.066	-0.275
-722.850	-69.259	-0.209	-0.082
-721.835	91.761	-0.149	-0.170
-720.821	-20.123	-0.378	-0.237
-719.806	800.000	0.107	0.423
-718.791	678.715	-0.012	0.031
-717.777	-12.661	0.165	-0.109
-716.762	-116.577	0.232	-0.043
-715.748	-45.217	-0.460	-0.232
-714.733	-200.000	-0.014	-0.068
-713.718	800.000	0.179	-0.568
-712.704	-24.726	0.268	0.161
-711.689	25.277	-0.076	0.064
-710.675	-200.000	-0.024	0.122
-709.660	23.257	-0.331	-0.276
-708.645	-200.000	0.033	-0.363
-707.631	724.691	-0.065	0.174
-706.616	644.736	0.174	-0.450
-705.602	-21.213	-0.242	-0.150
-704.587	569.393	-0.107	-0.264
-703.572	126.359	-0.049	0.063
-702.558	-200.000	-0.021	-0.130
-701.543	-70.009	0.232	-0.090
-700.529	-103.100	-0.402	-0.097
-699.514	-51.103	0.264	0.125
-698.499	689.950	0.139	-0.368
-697.485	-61.317	-0.204	-0.087
-696.470	34.198	-0.040	0.036
-695.456	37.676	-0.197	-0.177
-694.441	-200.000	0.029	-0.187
-693.426	-35.066	0.188	-0.104
-692.412	242.494	-0.042	-0.071
-691.397	-149.676	0.157	-0.013
-690.383	-200.000	0.019	-0.105
-689.368	214.413	0.066	-0.106
-688.354	-126.526	-0.325	-0.049
-687.339	158.689	-0.206	-0.289
-686.324	800.000	0.128	-0.494
-685.310	108.467	-0.174	0.210
-684.295	-80.933	0.269	0.090
-683.281	-62.120	-0.269	0.113
-682.266	-121.564	-0.247	-0.042
-681.251	-58.026	0.160	-0.071
-680.237	140.836	0.057	0.076
-679.222	-93.170	-0.351	-0.099
-678.208	-87.561	-0.385	-0.118
-677.193	-17.236	0.194	0.124
-676.178	-10.292	-0.169	-0.114
-675.164	-25.695	0.114	0.068
-674.149	38.910	-0.146	-0.132
-673.135	-200.000	-0.059	-0.406
-672.120	800.000	-0.081	-0.243
-671.105	-200.000	-0.003	-0.078
-670.091	49.732	0.084	-0.080
-669.076	-200.000	-0.053	0.351
-668.062	441.976	0.039	0.086
-667.047	78.826	0.105	-0.114
-666.032	-155.100	0.083	0.005
-665.018	-200.000	-0.025	-0.156
-664.003	486.604	0.150	-0.346
-662.989	220.626	0.181	0.293
-661.974	-106.997	-0.237	0.053
-660.959	30.768	-0.206	0.178
-659.945	374.782	0.065	0.134
-658.930	211.087	-0.019	-0.030
-657.916	28.123	-0.288	0.246
-656.901	-184.661	0.040	0.001
-655.886	16.807	0.196	-0.157
-654.872	-87.348	0.360	0.111
-653.857	-55.527	-0.166	0.075
-652.843	-47.199	-0.269	0.132
-651.828	-42.959	-0.262	-0.134
-650.814	-52.115	0.264	-0.124
-649.799	130.770	0.072	-0.094
-648.784	13.908	-0.279	-0.220
-647.770	121.866	-0.052	-0.066
-646.755	-83.711	-0.160	-0.052
-645.741	-67.026	-0.298	-0.119
-644.726	748.096	0.099	0.270
-643.711	-122.527	-0.297	-0.049
-642.697	161.986	0.062	-0.087
-641.682	11.089	0.337	0.260
-640.668	-24.419	-0.221	-0.133
-639.653	352.939	-0.118	-0.238
-638.638	-140.617	-0.348	-0.036
-637.624	-200.000	-0.016	0.383
-636.609	800.000	0.141	-0.398
-635.595	-200.000	0.013	0.265
-634.580	-200.000	-0.097	0.459
-633.565	-32.833	0.232	-0.130
-632.551	800.000	-0.093	-0.266
-631.536	480.994	0.083	-0.191
-630.522	19.055	0.026	0.021
-629.507	-120.159	0.135	-0.023
-628.492	-154.999	0.135	0.009
-627.478	-82.725	-0.085	-0.028
-626.463	-119.242	-0.189	-0.033
-625.449	46.673	0.317	0.298
-624.434	784.405	0.096	0.266
-623.419	-200.000	0.038	0.195
-622.405	427.041	-0.062	0.135
-621.390	79.137	0.074	0.080
-620.376	-76.863	0.137	0.048
-619.361	-145.844	-0.234	-0.021
-618.346	-160.103	-0.330	0.018
-617.332	175.798	-0.111	0.162
-616.317	37.831	-0.107	0.096
-615.303	102.579	-0.095	-0.112
-614.288	-79.952	-0.149	-0.051
-613.273	-200.000	-0.037	-0.186
-612.259	249.799	-0.059	-0.101
-611.244	72.939	0.124	-0.130
-610.230	-95.865	-0.152	-0.041
-609.215	20.226	-0.094	-0.077
-608.201	-30.212	-0.320	-0.183
-607.186	-123.054	-0.191	0.031
-606.171	57.876	-0.056	-0.055
-605.157	-94.245	0.186	-0.051
-604.142	228.813	-0.102	-0.169
-603.128	-200.000	-0.001	-0.138
-602.113	-3.967	-0.123	0.086
-601.098	-200.000	-0.016	0.180
-600.084	128.557	0.111	0.143
-599.069	800.000	-0.103	-0.306
-598.055	-114.647	-0.288	-0.056
-597.040	14.311	-0.196	-0.154
-596.025	587.114	0.051	-0.128
-595.011	-9.928	0.081	-0.054
-593.996	-71.822	-0.052	-0.020
-592.982	-200.000	0.018	-0.216
-591.967	-105.540	0.064	0.015
-590.952	-61.583	0.101	-0.043
-589.938	296.914	0.100	0.186
-588.923	547.062	-0.119	0.286
-587.909	-110.233	-0.182	0.038
-586.894	268.497	0.146	0.259
-585.879	-200.000	-0.008	0.114
-584.865	-200.000	-0.021	-0.244
-583.850	-200.000	-0.009	-0.160
-582.836	376.997	-0.106	-0.219
-581.821	-15.400	0.120	0.078
-580.806	-27.124	0.193	-0.114
-579.792	51.598	-0.056	-0.053
-578.777	-83.089	-0.126	-0.041
-577.763	-104.336	-0.172	-0.040
-576.748	-65.230	-0.132	-0.054
-575.733	344.420	0.077	-0.152
-574.719	36.670	-0.081	0.072
-573.704	800.000	-0.043	0.147
-572.690	7.961	0.140	-0.106
-571.675	228.044	0.083	0.137
-570.661	-83.507	0.095	-0.031
-569.646	-30.768	-0.145	0.083
-568.631	76.452	0.047	0.051
-567.617	53.547	0.051	-0.049
-566.602	-111.181	0.267	0.055
-565.588	15.457	-0.212	-0.168
-564.573	116.910	0.285	0.353
-563.558	84.006	-0.042	-0.046
-562.544	6.638	0.153	-0.115
-561.529	-114.830	0.107	0.021
-560.515	157.650	-0.157	0.220
-559.500	131.530	0.212	0.275
-558.485	-200.000	-0.019	-0.085
-557.471	273.712	-0.180	0.321
-556.456	69.151	0.192	-0.199
-555.442	-134.537	0.250	-0.031
-554.427	708.610	0.094	-0.250
-553.412	28.062	0.093	0.079
-552.398	-113.098	0.110	-0.022
-551.383	800.000	-0.026	-0.081
-550.369	43.902	-0.127	-0.117
-549.354	-90.678	0.335	0.097
-548.339	-51.751	0.097	0.045
-547.325	-7.322	0.194	0.132
-546.310	97.917	0.170	0.197
-545.296	109.410	0.068	0.082
-544.281	800.000	0.080	-0.288
-543.266	-178.238	0.171	0.004
-542.252	800.000	0.066	0.247
-541.237	-125.130	0.186	0.029
-540.223	-10.614	0.202	-0.134
-539.208	120.006	0.273	-0.341
-538.193	-180.479	0.199	-0.004
-537.179	223.759	-0.184	-0.299
-536.164	-175.908	-0.365	0.010
-535.150	-10.682	-0.186	0.124
-534.135	-67.268	0.316	0.125
-533.121	-152.427	0.139	-0.010
-532.106	13.672	0.213	0.167
-531.091	-200.000	0.251	-0.001
-530.077	-200.000	0.037	0.000
-529.062	350.194	-0.055	0.110
-528.048	-23.246	-0.352	0.213
-527.033	-58.141	0.359	0.158
-526.018	-5.309	0.128	-0.089
-525.004	-114.187	-0.151	0.029
-523.989	300.015	-0.078	-0.144
-522.975	-200.000	-0.005	0.342
-521.960	-22.600	-0.137	-0.083
-520.945	65.124	0.092	0.093
-519.931	80.678	-0.068	-0.074
-518.916	800.000	0.037	-0.133
-517.902	-100.509	0.335	0.083
-516.887	235.103	0.203	-0.337
-515.872	-84.461	-0.394	0.125
-514.858	-97.770	0.244	-0.063
-513.843	-63.068	-0.228	-0.095
-512.829	800.000	0.054	-0.172
-511.814	-200.000	-0.140	0.000
-510.799	800.000	0.041	-0.125
-509.785	160.318	-0.194	-0.273
-508.770	800.000	-0.045	0.140
-507.756	59.386	-0.180	-0.178
-506.741	-138.034	0.168	-0.019
-505.726	-105.901	0.131	-0.030
-504.712	-200.000	0.040	-0.286
-503.697	334.382	-0.198	0.385
-502.683	800.000	0.028	-0.113
-501.668	-120.800	-0.024	-0.004
-500.653	377.447	0.075	-0.155
-499.639	15.380	-0.106	0.084
-498.624	624.260	-0.122	0.308
-497.610	-3.882	-0.123	-0.086
-496.595	234.654	0.138	0.229
-495.581	-109.378	-0.123	0.026
-494.566	800.000	0.067	-0.196
-493.551	-6.056	0.038	-0.026
-492.537	-200.000	0.011	0.092
-491.522	-24.778	0.151	-0.090
-490.508	-70.315	0.270	-0.103
-489.493	-143.794	-0.329	-0.031
-488.478	199.229	0.066	-0.101
-487.464	671.399	0.025	0.066
-486.449	222.367	0.195	0.315
-485.435	-48.175	0.329	0.160
-484.420	302.516	-0.210	-0.390
-483.405	224.840	0.183	-0.298
-482.391	9.309	-0.120	0.091
-481.376	-200.000	0.006	-0.034
-480.362	-131.865	-0.407	-0.053
-479.347	199.449	-0.188	0.289
-478.332	-200.000	-0.011	0.062
-477.318	-26.095	0.078	-0.046
-476.303	482.362	-0.094	-0.214
-475.289	-113.085	0.399	-0.079
-474.274	-26.017	0.196	0.116
-473.259	76.234	-0.133	-0.142
-472.245	-61.479	-0.176	0.074
-471.230	-88.346	-0.225	-0.068
-470.216	64.799	-0.193	-0.195
-469.201	800.000	0.086	0.324
-468.186	339.425	-0.207	-0.406
-467.172	46.839	-0.217	-0.203
-466.157	107.633	-0.180	-0.216
-465.143	779.720	0.155	-0.426
-464.128	-200.000	0.066	0.336
-463.113	-22.075	-0.135	0.082
-462.099	-98.655	0.217	0.056
-461.084	-200.000	0.019	-0.189
-460.070	475.380	-0.041	-0.092
-459.055	560.592	0.154	-0.372
-458.040	123.098	0.244	0.307
-457.026	-91.973	0.044	0.013
-456.011	-97.441	-0.125	-0.033
-454.997	120.707	-0.117	-0.146
-453.982	-13.529	-0.201	0.130
-452.968	-54.324	0.027	-0.012
-451.953	-66.726	-0.084	0.033
-450.938	-54.362	-0.261	0.119
-449.924	-200.000	0.020	0.097
-448.909	-34.294	0.058	-0.032
-447.895	459.927	0.082	0.183
-446.880	-97.388	-0.125	-0.033
-445.865	408.539	-0.092	-0.196
-444.851	-107.908	-0.388	0.085
-443.836	375.725	-0.135	0.277
-442.822	-68.019	-0.080	0.031
-441.807	10.885	-0.295	0.226
-440.792	-200.000	0.014	-0.355
-439.778	14.089	-0.169	0.132
-438.763	-63.682	0.223	0.092
-437.749	-41.648	-0.187	0.096
-436.734	-200.000	0.031	-0.539
-435.719	-14.005	0.238	0.154
-434.705	170.976	-0.111	-0.160
-433.690	-200.000	-0.027	-0.159
-432.676	-121.982	0.111	0.018
-431.661	-7.768	0.038	-0.026
-430.646	65.042	-0.048	0.049
-429.632	342.301	-0.084	-0.164
-428.617	-23.168	-0.148	0.089
-427.603	-106.196	-0.160	0.036
-426.588	22.515	0.203	0.166
-425.573	-200.000	0.003	0.306
-424.559	224.390	-0.171	-0.277
-423.544	151.452	0.345	0.470
-422.530	-196.158	0.233	-0.002
-421.515	-90.463	0.408	-0.118
-420.500	-200.000	-0.038	-0.324
-419.486	512.456	-0.083	-0.194
-418.471	717.253	-0.052	-0.138
-417.457	-200.000	0.065	0.346
-416.442	50.470	0.128	0.121
-415.428	86.162	-0.350	0.386
-414.413	-200.000	-0.012	-0.187
-413.398	23.604	0.221	-0.182
-412.384	-65.171	-0.094	0.038
-411.369	-102.337	0.225	0.054
-410.355	39.471	0.122	-0.110
-409.340	170.465	0.183	0.263
-408.325	-139.740	-0.474	-0.050
-407.311	257.399	0.066	-0.114
-406.296	-200.000	0.012	0.074
-405.282	166.039	-0.058	-0.082
-404.267	49.400	0.121	0.114
-403.252	-200.000	-0.012	0.186
-402.238	-37.216	0.388	0.208
-401.223	650.597	0.087	-0.223
-400.209	780.130	0.039	-0.107
-399.194	43.198	0.167	0.153
-398.179	43.437	-0.073	-0.067
-397.165	81.368	0.181	-0.196
-396.150	-92.196	0.110	-0.031
-395.136	-15.473	-0.501	-0.320
-394.121	252.085	-0.114	0.194
-393.106	251.378	-0.045	-0.076
-392.092	1.321	0.182	0.131
-391.077	141.102	0.149	-0.197
-390.063	-52.365	-0.215	-0.100
-389.048	-65.478	0.211	-0.085
-388.033	-46.369	-0.172	-0.085
-387.019	-22.109	0.063	0.038
-386.004	-104.210	0.052	-0.012
-384.990	144.244	0.070	0.093
-383.975	-140.140	-0.120	0.013
-382.960	-113.864	0.153	0.030
-381.946	101.730	-0.062	0.073
-380.931	4.488	0.239	0.175
-379.917	48.896	0.333	-0.312
-378.902	-131.359	-0.280	0.037
-377.888	800.000	0.092	0.323
-376.873	23.833	0.167	-0.138
-375.858	800.000	-0.081	0.249
-374.844	-23.818	0.053	-0.032
-373.829	-200.000	-0.012	0.196
-372.815	56.215	0.244	0.237
-371.800	800.000	0.037	0.131
-370.785	800.000	0.050	0.139
-369.771	431.943	0.101	0.219
-368.756	-200.000	-0.004	0.205
-367.742	75.529	0.127	0.134
-366.727	170.895	-0.107	-0.154
-365.712	-200.000	-0.020	0.355
-364.698	459.626	0.083	0.185
-363.683	56.995	0.083	0.081
-362.669	-3.952	0.186	0.129
-361.654	290.956	0.152	0.276
-360.639	800.000	0.061	0.203
-359.625	61.251	0.119	-0.118
-358.610	401.431	0.134	-0.281
-357.596	-53.068	-0.358	0.164
-356.581	2.537	0.041	0.029
-355.566	-118.890	-0.486	-0.085
-354.552	-38.433	0.159	0.084
-353.537	158.754	-0.290	-0.403
-352.523	800.000	-0.107	-0.390
-351.508	-50.938	-0.114	-0.054
-350.493	-200.000	0.008	-0.188
-349.479	-137.182	0.186	-0.021
-348.464	800.000	-0.040	-0.118
-347.450	59.604	0.063	0.063
-346.435	-200.000	-0.249	-0.000
-345.420	-93.280	-0.581	0.161
-344.406	2.353	0.260	0.188
-343.391	800.000	-0.151	-0.455
-342.377	-134.563	0.398	-0.049
-341.362	-182.001	-0.117	-0.002
-340.348	-144.248	0.189	-0.018
-339.333	145.400	-0.159	-0.213
-338.318	-200.000	0.049	0.221
-337.304	49.212	0.168	0.158
-336.289	-155.535	0.296	0.019
-335.275	300.588	0.104	-0.192
-334.260	-188.439	-0.123	0.002
-333.245	-7.493	-0.097	0.066
-332.231	777.585	-0.179	-0.489
-331.216	319.829	0.171	0.323
-330.202	-179.548	-0.397	0.009
-329.187	-97.533	0.211	-0.055
-328.172	56.281	-0.259	0.251
-327.158	-154.207	-0.323	0.022
-326.143	145.983	0.011	-0.015
-325.129	208.489	0.159	0.249
-324.114	-31.071	-0.331	-0.187
-323.099	-52.202	-0.491	0.227
-322.085	-36.870	0.068	0.037
-321.070	-200.000	0.010	0.067
-320.056	-116.242	-0.158	-0.029
-319.041	-200.000	-0.002	0.456
-318.026	302.636	0.108	-0.200
-317.012	800.000	0.070	-0.197
-315.997	-71.235	-0.164	0.061
-314.983	161.612	-0.188	-0.262
-313.968	332.761	-0.167	-0.321
-312.953	25.131	0.167	-0.138
-311.939	-114.749	-0.412	0.079
-310.924	77.390	-0.310	-0.329
-309.910	-56.072	-0.332	-0.148
-308.895	-200.000	0.020	0.108
-307.880	800.000	-0.040	-0.167
-306.866	-57.970	0.125	-0.054
-305.851	-200.000	0.007	-0.106
-304.837	-5.152	0.213	0.146
-303.822	-200.000	-0.010	-0.119
-302.807	-83.933	0.138	-0.044
-301.793	150.292	0.199	-0.270
-300.778	-87.779	-0.157	-0.047
-299.764	729.082	-0.121	0.324
-298.749	96.322	0.270	0.308
-297.735	-200.000	0.018	0.260
-296.720	-102.703	0.277	-0.066
-295.705	-23.922	0.173	-0.103
-294.691	-200.000	-0.033	-0.230
-293.676	-28.286	0.223	0.129
-292.662	30.509	0.158	-0.135
-291.647	-200.000	0.020	-0.117
-290.632	44.173	0.415	-0.379
-289.618	18.957	-0.087	-0.069
-288.603	-64.934	0.205	-0.083
-287.589	54.981	-0.134	-0.129
-286.574	-200.000	0.014	0.238
-285.559	123.970	0.245	0.307
-284.545	-49.154	-0.034	0.016
-283.530	206.402	-0.106	-0.165
-282.516	-106.689	0.198	-0.044
-281.501	-45.585	-0.284	-0.140
-280.486	-150.338	-0.189	-0.015
-279.472	800.000	-0.035	0.140
-278.457	-200.000	-0.004	0.047
-277.443	-15.145	-0.170	0.109
-276.428	-70.829	-0.211	-0.079
-275.413	211.221	0.013	0.021
-274.399	99.377	-0.103	0.119
-273.384	66.110	-0.133	0.134
-272.370	152.435	-0.136	-0.185
-271.355	197.203	0.133	-0.203
-270.340	-200.000	-0.004	-0.285
-269.326	67.723	0.109	0.111
-268.311	-40.825	-0.043	0.022
-267.297	-200.000	0.007	0.187
-266.282	-11.532	0.248	0.163
-265.267	-200.000	-0.006	-0.032
-264.253	-171.684	0.244	0.008
-263.238	-103.306	0.155	0.036
-262.224	7.554	-0.255	0.190
-261.209	110.677	0.117	0.140
-260.195	134.808	-0.028	-0.036
-259.180	-200.000	-0.004	-0.254
-258.165	-200.000	0.032	0.187
-257.151	-84.034	0.123	-0.039
-256.136	-11.238	-0.410	0.269
-255.122	-41.361	-0.229	-0.118
-254.107	-200.000	-0.016	-0.216
-253.092	-155.391	-0.247	-0.016
-252.078	-75.940	0.235	-0.083
-251.063	-60.817	0.272	-0.115
-250.049	-26.034	0.257	-0.150
-249.034	800.000	0.013	0.049
-248.019	-112.639	0.295	0.058
-247.005	780.011	0.089	-0.242
-245.990	-200.000	-0.024	-0.119
-244.976	177.262	0.043	-0.063
-243.961	-200.000	0.008	0.043
-242.946	-143.175	0.262	0.025
-241.932	291.858	0.070	0.128
-240.917	217.289	-0.202	0.321
-239.903	-47.661	0.282	0.136
-238.888	474.430	0.085	-0.191
-237.873	-161.148	0.403	0.021
-236.859	-200.000	-0.050	-0.413
-235.844	-200.000	-0.025	-0.255
-234.830	393.746	-0.046	0.095
-233.815	30.744	-0.141	-0.120
-232.800	2.238	-0.130	0.094
-231.786	800.000	-0.112	0.431
-230.771	-61.230	-0.427	0.179
-229.757	714.415	-0.088	0.231
-228.742	-31.423	-0.156	-0.087
-227.727	620.439	0.065	0.163
-226.713	70.319	0.068	-0.070
-225.698	310.911	-0.137	0.255
-224.684	178.758	-0.218	0.318
-223.669	-200.000	-0.011	-0.139
-222.655	50.161	0.027	-0.026
-221.640	-117.232	-0.117	0.021
-220.625	-92.896	-0.186	-0.052
-219.611	-107.445	0.333	-0.073
-218.596	155.065	0.354	0.484
-217.582	697.456	0.043	0.114
-216.567	-97.553	0.329	0.085
-215.552	-100.191	-0.124	-0.031
-214.538	800.000	0.075	-0.213
-213.523	-108.688	-0.271	0.058
-212.509	41.597	0.287	0.258
-211.494	57.024	-0.235	0.228
-210.479	74.230	-0.041	0.043
-209.465	-128.095	-0.138	-0.020
-208.450	106.623	0.102	-0.120
-207.436	-91.565	-0.176	-0.050
-206.421	7.594	0.107	-0.079
-205.406	-200.000	0.010	0.122
-204.392	307.323	0.054	0.099
-203.377	-200.000	-0.001	0.108
-202.363	745.087	0.036	0.096
-201.348	-55.716	0.074	-0.033
-200.333	420.576	0.158	-0.336
-199.319	800.000	0.064	0.207
-198.304	97.543	0.149	0.170
-197.290	-200.000	0.027	-0.132
-196.275	-80.591	-0.145	-0.048
-195.260	4.301	0.587	0.427
-194.246	-200.000	0.025	-0.256
-193.231	10.612	-0.143	0.108
-192.217	-68.889	0.161	-0.062
-191.202	-104.784	0.180	0.041
-190.187	492.329	-0.213	-0.484
-189.173	30.233	-0.120	0.102
-188.158	75.468	0.112	0.117
-187.144	-38.440	-0.076	-0.040
-186.129	-67.906	-0.148	0.057
-185.114	26.431	0.029	0.024
-184.100	50.445	0.174	0.163
-183.085	291.931	-0.085	0.153
-182.071	63.326	0.181	-0.180
-181.056	800.000	-0.050	0.161
-180.042	66.868	-0.178	0.180
-179.027	5.177	-0.120	-0.088
-178.012	22.580	-0.106	-0.086
-176.998	21.892	-0.159	0.129
-175.983	-154.566	0.172	-0.011
-174.969	202.583	0.182	0.279
-173.954	-200.000	-0.015	0.137
-172.939	113.313	0.304	0.366
-171.925	59.284	0.134	-0.131
-170.910	221.254	-0.041	-0.066
-169.896	-200.000	0.036	-0.199
-168.881	-39.287	0.168	-0.088
-167.866	53.582	-0.254	0.242
-166.852	-199.398	-0.286	0.001
-165.837	183.536	-0.137	-0.201
-164.823	43.590	0.114	-0.104
-163.808	406.464	0.070	0.146
-162.793	-80.810	-0.125	0.041
-161.779	0.221	-0.181	0.128
-160.764	-200.000	0.070	-0.365
-159.750	96.880	0.148	-0.168
-158.735	-73.751	0.245	0.089
-157.720	44.129	-0.141	0.128
-156.706	-200.000	0.017	-0.274
-155.691	-104.531	0.114	-0.026
-154.677	43.299	-0.333	-0.301
-153.662	-177.674	-0.257	-0.006
-152.647	-200.000	-0.015	0.147
-151.633	-200.000	-0.196	0.000
-150.618	-200.000	-0.044	0.237
-149.604	-200.000	0.032	0.490
-148.589	191.346	0.102	-0.153
-147.574	-140.360	0.145	0.015
-146.560	-155.619	-0.174	-0.011
-145.545	48.217	-0.171	-0.159
-144.531	800.000	0.042	-0.128
-143.516	325.384	-0.204	0.387
-142.502	-82.412	0.316	-0.102
-141.487	-200.000	0.064	-0.318
-140.472	-200.000	-0.006	0.085
-139.458	-40.187	-0.149	0.077
-138.443	191.452	0.169	0.253
-137.429	800.000	-0.038	0.123
-136.414	-106.663	0.084	0.019
-135.399	34.127	-0.112	0.097
-134.385	570.119	-0.135	0.325
-133.370	-151.137	0.118	0.009
-132.356	-14.030	-0.083	-0.053
-131.341	672.427	0.165	0.423
-130.326	-3.774	0.128	-0.088
-129.312	44.150	-0.174	0.158
-128.297	-23.617	-0.181	0.108
-127.283	23.378	0.207	-0.169
-126.268	-200.000	-0.013	0.091
-125.253	-75.255	-0.252	0.089
-124.239	-114.429	0.238	-0.045
-123.224	516.128	-0.067	0.155
-122.210	-43.548	-0.147	-0.073
-121.195	-42.899	0.214	0.108
-120.180	279.238	-0.078	0.137
