DTS Sentinel unit serial number:	SN413079Multiplexer serial number:	ORYXHardware model number:	OX4-SRSoftware version number:	ORYX F/W v4.00 Oryx Data Collector v3.7.2.0data status	okinstallation	princeton_trtdifferential loss correction	single-endedforward channel	channel 2reverse channel	N/Adate	2019/09/13time	10:35:34forward acquisition time	60.00reverse acquisition time	0.00gamma	496.2192k internal	0.2323k external	0.2323temperature offset calibration	1.0192default loss term (dB/km)	0.3790temperature slope calibration	1.0000multiplexer offset coefficient	1.0000multiplexer slope coefficient	1.0000fibre end	0.00T internal ref (°C)	31.31T ext. ref 1 (°C)	4.56T ext. ref 2 (°C)	28.24length (m)	temperature (°C)	Stokes	anti-Stokes-747.200	-200.000	0.191	0.001
-746.185	303.381	0.135	0.253
-745.171	-100.318	0.101	-0.025
-744.156	755.242	0.043	0.117
-743.142	371.324	0.066	0.136
-742.127	-84.718	-0.388	0.123
-741.112	-106.094	-0.238	-0.054
-740.098	52.228	0.324	0.312
-739.083	800.000	-0.035	-0.148
-738.069	-200.000	-0.004	0.175
-737.054	51.834	-0.346	0.332
-736.039	-167.519	-0.360	0.015
-735.025	138.072	0.192	-0.254
-734.010	-197.899	-0.079	-0.000
-732.996	19.640	-0.206	-0.167
-731.981	-124.547	-0.261	-0.041
-730.966	-58.593	-0.127	-0.056
-729.952	163.795	-0.050	-0.071
-728.937	-200.000	0.003	0.150
-727.923	-109.568	-0.060	0.013
-726.908	720.393	-0.081	-0.217
-725.894	-200.000	-0.038	-0.203
-724.879	145.228	0.044	0.060
-723.864	-52.913	-0.281	0.131
-722.850	-200.000	0.187	0.000
-721.835	800.000	-0.038	-0.115
-720.821	61.682	-0.096	0.097
-719.806	-150.337	-0.209	0.016
-718.791	-200.000	0.009	-0.354
-717.777	431.934	0.133	-0.290
-716.762	16.612	-0.080	0.064
-715.748	-121.547	0.300	0.050
-714.733	-200.000	0.007	0.086
-713.718	-128.741	-0.013	0.002
-712.704	78.571	-0.150	-0.162
-711.689	800.000	-0.012	0.039
-710.675	489.921	-0.100	0.230
-709.660	-116.405	0.218	-0.041
-708.645	73.951	0.152	-0.160
-707.631	-185.456	0.214	-0.003
-706.616	19.018	-0.144	0.117
-705.602	-73.862	0.167	0.061
-704.587	-148.289	0.415	-0.034
-703.572	284.557	0.011	0.019
-702.558	-163.373	0.041	-0.002
-701.543	-200.000	0.014	0.080
-700.529	-12.354	-0.252	-0.166
-699.514	800.000	0.041	-0.145
-698.499	533.654	0.094	-0.226
-697.485	-150.106	-0.280	0.022
-696.470	800.000	0.029	-0.096
-695.456	-58.669	0.224	-0.098
-694.441	405.636	0.035	-0.075
-693.426	-49.519	0.343	-0.164
-692.412	-157.947	-0.279	0.017
-691.397	800.000	0.074	-0.251
-690.383	517.405	-0.026	-0.062
-689.368	-101.464	0.349	0.086
-688.354	54.582	0.072	-0.070
-687.339	121.213	0.167	-0.210
-686.324	213.080	0.144	0.230
-685.310	-44.061	-0.360	-0.182
-684.295	47.409	-0.083	0.078
-683.281	502.707	0.042	-0.097
-682.266	197.717	-0.157	-0.242
-681.251	76.937	0.019	0.020
-680.237	-188.295	0.188	-0.002
-679.222	-200.000	-0.008	0.113
-678.208	73.702	-0.201	-0.212
-677.193	174.270	-0.130	-0.189
-676.178	323.955	-0.145	0.280
-675.164	-91.252	-0.124	-0.036
-674.149	800.000	0.084	-0.285
-673.135	-157.017	0.231	0.014
-672.120	3.649	0.043	0.032
-671.105	-68.848	-0.221	-0.086
-670.091	-200.000	-0.027	0.268
-669.076	800.000	-0.067	-0.208
-668.062	-200.000	0.026	-0.125
-667.047	-126.450	-0.209	0.031
-666.032	43.413	0.184	0.169
-665.018	-111.440	-0.287	-0.059
-664.003	-88.819	0.105	-0.031
-662.989	112.526	-0.242	-0.295
-661.974	800.000	-0.024	-0.078
-660.959	-87.281	0.193	-0.059
-659.945	31.116	-0.200	0.173
-658.930	-10.038	0.134	0.090
-657.916	-93.022	-0.182	0.051
-656.901	800.000	-0.056	0.206
-655.886	488.429	-0.071	0.164
-654.872	-12.250	0.244	-0.160
-653.857	-32.617	0.307	-0.172
-652.843	52.328	0.229	-0.220
-651.828	-22.103	-0.173	0.106
-650.814	-200.000	0.007	0.351
-649.799	-80.585	-0.069	0.023
-648.784	-200.000	0.040	-0.230
-647.770	16.040	-0.523	-0.415
-646.755	-200.000	0.008	0.065
-645.741	-35.803	-0.173	-0.094
-644.726	-200.000	0.019	-0.210
-643.711	-200.000	-0.022	0.349
-642.697	10.044	0.112	0.086
-641.682	800.000	-0.119	-0.465
-640.668	-139.643	-0.125	-0.013
-639.653	234.930	-0.141	0.234
-638.638	-122.177	0.311	-0.051
-637.624	-81.696	-0.184	0.061
-636.609	-2.827	0.111	0.078
-635.595	800.000	0.130	-0.387
-634.580	-142.819	0.323	-0.032
-633.565	208.611	0.292	0.460
-632.551	97.772	0.156	-0.180
-631.536	99.997	0.135	-0.157
-630.522	-70.340	-0.097	0.037
-629.507	278.013	0.103	0.184
-628.492	191.189	-0.101	-0.152
-627.478	334.582	0.103	-0.200
-626.463	-94.590	-0.319	0.087
-625.449	-200.000	0.018	-0.263
-624.434	-121.145	0.257	-0.043
-623.419	-34.749	-0.358	0.197
-622.405	-146.057	-0.279	-0.025
-621.390	129.318	0.036	-0.046
-620.376	24.508	-0.177	0.147
-619.361	70.792	-0.298	-0.310
-618.346	85.906	-0.182	-0.201
-617.332	800.000	-0.065	-0.198
-616.317	-46.442	0.351	0.173
-615.303	-200.000	0.003	0.117
-614.288	79.575	-0.107	-0.115
-613.273	-157.988	0.295	0.017
-612.259	-85.798	-0.288	-0.090
-611.244	69.141	-0.204	-0.210
-610.230	75.307	0.072	-0.077
-609.215	-104.925	-0.149	0.034
-608.201	205.873	0.112	-0.176
-607.186	304.161	0.087	0.162
-606.171	51.495	0.265	0.253
-605.157	32.311	-0.155	-0.134
-604.142	190.620	-0.082	-0.124
-603.128	-105.753	-0.152	-0.035
-602.113	9.905	0.053	-0.040
-601.098	-9.949	0.266	-0.177
-600.084	800.000	0.040	-0.123
-599.069	201.446	0.155	0.240
-598.055	-200.000	0.015	-0.136
-597.040	-161.525	-0.126	0.006
-596.025	-139.547	-0.320	-0.034
-595.011	-164.791	0.279	0.013
-593.996	556.814	0.015	0.037
-592.982	-19.159	-0.133	-0.083
-591.967	239.475	0.060	0.100
-590.952	800.000	-0.091	0.304
-589.938	272.928	-0.089	-0.157
-588.923	119.155	-0.136	-0.169
-587.909	14.536	-0.207	0.162
-586.894	-149.684	-0.137	-0.011
-585.879	164.186	-0.183	-0.259
-584.865	14.604	0.052	-0.041
-583.850	-183.623	-0.239	0.004
-582.836	19.869	0.142	-0.115
-581.821	443.729	-0.141	0.311
-580.806	-200.000	-0.025	0.111
-579.792	310.742	-0.049	-0.092
-578.777	54.118	-0.201	0.194
-577.763	-61.993	-0.190	0.079
-576.748	63.601	-0.203	0.204
-575.733	-124.737	-0.070	0.011
-574.719	189.846	-0.025	0.037
-573.704	-39.367	0.089	0.047
-572.690	-43.756	-0.103	-0.052
-571.675	197.339	-0.093	-0.142
-570.661	-110.015	0.337	0.071
-569.646	-8.070	0.154	0.104
-568.631	800.000	-0.031	-0.094
-567.617	112.206	-0.122	-0.148
-566.602	136.854	0.109	0.143
-565.588	-200.000	-0.006	-0.086
-564.573	228.358	-0.086	0.140
-563.558	-111.196	0.165	0.034
-562.544	-106.471	-0.532	0.119
-561.529	-33.458	-0.083	0.046
-560.515	-200.000	0.007	0.278
-559.500	71.322	-0.224	0.233
-558.485	-200.000	-0.051	0.305
-557.471	800.000	0.080	0.343
-556.456	-27.759	-0.267	-0.155
-555.442	248.236	0.131	-0.222
-554.427	-114.733	-0.073	0.014
-553.412	69.902	-0.049	-0.051
-552.398	28.294	-0.211	-0.178
-551.383	-10.795	-0.066	0.043
-550.369	-200.000	0.009	-0.127
-549.354	-200.000	0.007	0.085
-548.339	-103.117	0.390	-0.092
-547.325	-200.000	-0.000	0.204
-546.310	-200.000	-0.031	-0.270
-545.296	269.236	0.049	0.087
-544.281	228.727	-0.200	-0.327
-543.266	85.969	0.169	-0.187
-542.252	70.540	-0.114	0.118
-541.237	96.119	0.267	0.306
-540.223	766.396	-0.060	0.162
-539.208	-76.963	-0.029	-0.010
-538.193	120.310	-0.077	-0.096
-537.179	368.297	0.143	-0.289
-536.164	148.615	0.073	-0.098
-535.150	3.769	-0.141	-0.103
-534.135	-24.890	0.094	0.056
-533.121	47.045	0.091	-0.085
-532.106	800.000	-0.075	-0.255
-531.091	61.719	-0.160	0.160
-530.077	1.011	0.241	-0.173
-529.062	-200.000	-0.012	-0.125
-528.048	622.468	0.058	0.145
-527.033	-146.024	0.216	0.019
-526.018	365.612	0.108	0.218
-525.004	499.692	0.060	-0.138
-523.989	28.427	0.160	0.136
-522.975	-200.000	0.083	-0.435
-521.960	-47.525	0.200	-0.097
-520.945	62.662	-0.220	-0.220
-519.931	-107.784	-0.163	0.036
-518.916	800.000	-0.065	0.278
-517.902	149.507	-0.162	-0.220
-516.887	800.000	-0.113	-0.381
-515.872	-174.037	0.479	0.014
-514.858	-161.971	0.489	0.025
-513.843	-55.919	-0.156	-0.070
-512.829	320.114	0.167	-0.318
-511.814	-79.932	-0.214	0.072
-510.799	-200.000	-0.034	0.186
-509.785	-182.427	-0.194	-0.004
-508.770	21.912	-0.044	-0.036
-507.756	259.643	-0.155	-0.268
-506.741	-200.000	-0.023	0.110
-505.726	-0.273	-0.114	-0.081
-504.712	-74.502	0.290	-0.104
-503.697	411.552	-0.058	-0.123
-502.683	227.437	0.074	-0.120
-501.668	-118.726	0.203	-0.036
-500.653	-200.000	0.035	0.231
-499.639	-200.000	-0.016	-0.099
-498.624	111.279	0.394	-0.475
-497.610	245.612	-0.103	-0.173
-496.595	-200.000	-0.267	-0.000
-495.581	-91.374	0.034	-0.010
-494.566	800.000	-0.059	0.248
-493.551	314.860	-0.083	-0.156
-492.537	-90.425	0.124	0.036
-491.522	-200.000	-0.030	-0.228
-490.508	156.486	-0.028	0.039
-489.493	-197.671	0.223	-0.001
-488.478	-200.000	0.018	-0.095
-487.464	28.646	0.025	-0.021
-486.449	-200.000	0.005	-0.108
-485.435	222.861	0.071	0.115
-484.420	-33.744	-0.060	-0.033
-483.405	800.000	-0.044	-0.138
-482.391	800.000	0.044	-0.156
-481.376	139.442	-0.205	0.269
-480.362	-32.937	-0.343	-0.190
-479.347	15.940	0.139	-0.109
-478.332	111.673	-0.182	0.219
-477.318	800.000	0.027	0.089
-476.303	-200.000	0.027	0.125
-475.289	-51.801	-0.135	0.063
-474.274	-107.415	0.300	-0.066
-473.259	39.471	-0.375	0.336
-472.245	112.259	-0.074	0.089
-471.230	327.736	-0.115	0.220
-470.216	800.000	-0.069	-0.263
-469.201	242.046	-0.102	-0.170
-468.186	55.737	-0.164	0.159
-467.172	78.344	-0.104	0.111
-466.157	800.000	-0.028	0.122
-465.143	-71.978	-0.343	0.127
-464.128	-128.622	0.315	0.044
-463.113	416.319	0.041	-0.087
-462.099	18.885	0.126	0.101
-461.084	779.256	-0.024	-0.064
-460.070	53.809	-0.261	-0.251
-459.055	-86.880	0.591	0.180
-458.040	465.809	-0.047	0.105
-457.026	202.534	0.076	0.117
-456.011	222.875	0.104	0.167
-454.997	245.802	0.157	0.263
-453.982	287.357	-0.086	-0.155
-452.968	-82.612	-0.144	-0.046
-451.953	401.574	0.053	0.111
-450.938	-20.470	0.180	0.111
-449.924	32.713	-0.166	-0.143
-448.909	-173.286	0.228	0.007
-447.895	-118.656	-0.342	0.060
-446.880	338.368	0.104	-0.201
-445.865	209.898	0.097	-0.152
-444.851	152.553	-0.069	-0.094
-443.836	452.201	0.047	-0.103
-442.822	354.865	0.142	-0.281
-441.807	-20.635	-0.329	-0.202
-440.792	-12.789	0.250	-0.163
-439.778	55.393	0.124	-0.120
-438.763	-35.681	-0.176	-0.095
-437.749	103.169	-0.217	-0.254
-436.734	51.176	-0.297	-0.281
-435.719	800.000	0.093	-0.360
-434.705	-200.000	-0.004	-0.092
-433.690	-200.000	-0.051	-0.240
-432.676	-1.909	-0.141	0.099
-431.661	-135.346	0.080	-0.010
-430.646	800.000	0.065	-0.233
-429.632	707.467	0.124	0.327
-428.617	135.072	-0.112	0.145
-427.603	-200.000	-0.005	0.027
-426.588	-77.764	0.114	-0.039
-425.573	800.000	-0.025	-0.088
-424.559	800.000	-0.103	0.430
-423.544	40.176	-0.279	0.250
-422.530	-131.965	-0.334	0.043
-421.515	68.864	-0.122	0.125
-420.500	-192.714	-0.489	-0.004
-419.486	-18.121	0.228	0.142
-418.471	-16.144	-0.303	-0.192
-417.457	409.718	-0.147	-0.310
-416.442	-90.617	-0.206	-0.059
-415.428	-76.650	0.213	0.075
-414.413	-46.429	-0.229	0.112
-413.398	-200.000	-0.017	0.279
-412.384	-29.408	-0.166	-0.095
-411.369	-48.174	0.224	-0.108
-410.355	-106.372	-0.136	0.030
-409.340	-55.377	0.163	-0.073
-408.325	-200.000	0.028	-0.177
-407.311	-91.590	0.067	0.019
-406.296	-55.413	0.372	0.166
-405.282	33.363	0.296	-0.256
-404.267	79.257	-0.290	-0.310
-403.252	171.039	0.232	0.331
-402.238	-127.253	-0.207	-0.030
-401.223	-40.429	-0.107	-0.055
-400.209	13.654	0.187	-0.145
-399.194	35.794	0.249	-0.218
-398.179	-170.880	0.214	-0.007
-397.165	800.000	0.050	0.161
-396.150	-200.000	-0.007	0.038
-395.136	-30.561	0.257	0.145
-394.121	85.220	-0.118	-0.129
-393.106	98.882	-0.027	-0.031
-392.092	499.139	0.057	0.131
-391.077	-200.000	-0.007	0.041
-390.063	163.716	-0.099	-0.139
-389.048	-200.000	0.004	0.135
-388.033	-200.000	0.002	0.209
-387.019	420.603	0.148	-0.316
-386.004	-200.000	0.020	-0.173
-384.990	-200.000	-0.037	-0.168
-383.975	-63.142	0.250	-0.103
-382.960	179.221	0.246	-0.359
-381.946	764.600	-0.083	-0.225
-380.931	-83.954	0.272	-0.086
-379.917	159.884	0.164	0.227
-378.902	32.875	0.158	0.136
-377.888	-27.930	0.247	-0.143
-376.873	-163.852	-0.176	-0.008
-375.858	800.000	-0.096	-0.294
-374.844	800.000	0.073	-0.219
-373.829	-88.485	0.100	0.030
-372.815	-165.135	0.178	0.008
-371.800	800.000	0.045	-0.154
-370.785	-76.285	-0.233	-0.082
-369.771	-97.069	-0.194	0.050
-368.756	-131.857	0.282	-0.037
-367.742	359.888	0.047	-0.094
-366.727	-104.601	-0.200	-0.046
-365.712	22.635	-0.172	-0.140
-364.698	28.398	0.143	0.120
-363.683	-108.429	-0.229	-0.049
-362.669	216.285	-0.222	0.352
-361.654	-21.017	-0.183	0.112
-360.639	800.000	0.010	-0.039
-359.625	468.464	0.052	-0.116
-358.610	0.554	-0.255	0.181
-357.596	-56.378	-0.100	-0.044
-356.581	-102.503	0.116	0.028
-355.566	14.496	-0.162	-0.126
-354.552	-106.283	0.062	0.014
-353.537	20.517	0.137	0.110
-352.523	-34.564	0.101	-0.055
-351.508	206.978	-0.112	0.173
-350.493	800.000	-0.078	-0.329
-349.479	274.019	-0.157	0.276
-348.464	-131.841	-0.102	-0.013
-347.450	102.171	0.038	-0.044
-346.435	490.740	0.034	-0.077
-345.420	154.788	-0.184	-0.251
-344.406	800.000	-0.028	0.111
-343.391	-200.000	-0.001	0.125
-342.377	800.000	0.011	-0.042
-341.362	-24.254	-0.097	-0.057
-340.348	53.046	0.120	0.114
-339.333	435.850	-0.053	-0.115
-338.318	336.970	-0.021	-0.040
-337.304	2.768	0.350	-0.252
-336.289	-200.000	0.014	-0.424
-335.275	-200.000	-0.002	0.160
-334.260	-158.766	-0.315	0.018
-333.245	-200.000	0.018	-0.221
-332.231	-41.217	-0.021	-0.011
-331.216	18.537	0.161	-0.128
-330.202	36.256	0.099	0.087
-329.187	-200.000	0.004	0.023
-328.172	-62.866	-0.173	-0.071
-327.158	384.778	0.118	-0.243
-326.143	-200.000	-0.075	0.445
-325.129	-66.610	0.223	0.088
-324.114	46.098	0.145	0.133
-323.099	-200.000	0.012	-0.342
-322.085	-39.552	-0.269	-0.140
-321.070	90.504	-0.106	-0.118
-320.056	-53.482	0.225	0.102
-319.041	12.159	-0.223	-0.170
-318.026	800.000	-0.029	0.108
-317.012	12.993	-0.160	-0.123
-315.997	-200.000	-0.078	0.358
-314.983	800.000	0.047	0.131
-313.968	4.561	-0.510	-0.372
-312.953	-46.082	0.065	0.032
-311.939	-110.207	-0.665	-0.138
-310.924	-55.846	0.350	-0.155
-309.910	-73.180	-0.184	0.067
-308.895	-200.000	0.017	0.163
-307.880	-156.633	0.294	0.018
-306.866	223.289	-0.133	0.214
-305.851	53.819	0.269	0.257
-304.837	188.329	0.174	0.259
-303.822	58.104	-0.128	-0.124
-302.807	-38.052	0.232	-0.122
-301.793	183.041	-0.134	0.196
-300.778	-200.000	0.022	-0.142
-299.764	-100.494	-0.202	-0.050
-298.749	-5.018	0.162	-0.111
-297.735	21.552	-0.442	-0.357
-296.720	344.553	0.161	0.313
-295.705	116.460	0.062	-0.075
-294.691	-84.356	0.065	-0.020
-293.676	89.899	0.156	0.173
-292.662	-2.822	0.150	0.104
-291.647	-200.000	0.054	0.329
-290.632	200.647	-0.054	-0.082
-289.618	67.049	0.097	-0.098
-288.603	800.000	0.064	0.190
-287.589	356.159	0.170	-0.336
-286.574	-200.000	0.016	0.228
-285.559	368.269	0.135	0.271
-284.545	15.161	-0.178	0.138
-283.530	-4.372	-0.294	0.201
-282.516	92.504	0.058	-0.065
-281.501	-200.000	0.027	-0.166
-280.486	-200.000	-0.017	0.127
-279.472	-89.942	-0.235	-0.068
-278.457	-175.286	0.072	-0.002
-277.443	-200.000	-0.019	-0.113
-276.428	-178.249	0.186	-0.004
-275.413	-200.000	-0.014	0.090
-274.399	-90.806	0.050	-0.014
-273.384	-200.000	0.006	0.043
-272.370	-58.844	-0.380	0.163
-271.355	-200.000	0.027	0.223
-270.340	151.378	-0.105	-0.141
-269.326	208.424	-0.122	-0.190
-268.311	-107.442	-0.214	-0.047
-267.297	455.519	-0.131	0.288
-266.282	-81.367	0.160	0.052
-265.267	800.000	-0.077	-0.233
-264.253	-200.000	0.000	-0.048
-263.238	-96.908	0.375	0.098
-262.224	195.044	0.202	0.303
-261.209	246.584	-0.072	0.120
-260.195	-65.071	0.072	-0.029
-259.180	29.081	0.222	-0.187
-258.165	-79.378	0.258	-0.087
-257.151	-99.279	-0.243	-0.061
-256.136	-138.778	0.188	-0.020
-255.122	-200.000	-0.022	-0.140
-254.107	800.000	0.147	0.405
-253.092	-166.900	-0.303	-0.012
-252.078	-152.970	-0.222	0.016
-251.063	800.000	0.064	-0.224
-250.049	248.277	0.176	0.294
-249.034	87.710	0.085	0.093
-248.019	160.047	-0.109	-0.150
-247.005	59.411	0.110	-0.108
-245.990	204.321	-0.029	0.045
-244.976	800.000	-0.085	0.270
-243.961	374.970	-0.065	0.131
-242.946	-83.942	0.189	0.059
-241.932	-92.439	0.336	0.094
-240.917	800.000	-0.016	-0.050
-239.903	-200.000	0.024	-0.320
-238.888	800.000	-0.018	0.058
-237.873	-200.000	-0.023	0.221
-236.859	-96.433	-0.216	0.057
-235.844	-14.157	0.391	0.250
-234.830	391.799	-0.105	0.215
-233.815	405.867	0.085	0.177
-232.800	-58.453	0.393	0.169
-231.786	266.442	-0.114	0.198
-230.771	-103.431	0.184	-0.043
-229.757	-97.091	0.059	0.015
-228.742	89.861	-0.074	0.082
-227.727	110.092	0.161	-0.191
-226.713	-22.150	0.103	-0.062
-225.698	87.386	0.139	0.152
-224.684	-200.000	-0.038	0.263
-223.669	73.343	-0.185	-0.192
-222.655	180.665	-0.066	0.096
-221.640	581.654	-0.039	-0.094
-220.625	800.000	0.037	-0.104
-219.611	800.000	-0.047	0.180
-218.596	800.000	-0.068	0.248
-217.582	800.000	0.119	0.419
-216.567	-200.000	-0.005	-0.132
-215.552	451.435	-0.076	0.166
-214.538	522.235	0.111	0.257
-213.523	-176.569	0.057	0.001
-212.509	-17.731	0.142	0.088
-211.494	-95.919	-0.311	-0.082
-210.479	-137.060	0.136	0.015
-209.465	61.766	0.315	0.310
-208.450	88.079	0.249	0.273
-207.436	636.574	-0.095	-0.238
-206.421	-156.143	-0.225	0.014
-205.406	-78.813	-0.033	-0.011
-204.392	77.095	0.028	0.030
-203.377	25.751	-0.030	-0.025
-202.363	38.543	0.245	-0.216
-201.348	-139.734	0.235	0.025
-200.333	-200.000	-0.000	0.025
-199.319	-128.141	0.261	-0.037
-198.304	800.000	-0.063	0.238
-197.290	-200.000	0.024	-0.145
-196.275	-0.658	0.151	0.106
-195.260	-50.759	0.409	0.190
-194.246	800.000	0.075	0.310
-193.231	49.112	0.248	0.230
-192.217	63.554	-0.234	-0.232
-191.202	105.716	0.059	0.069
-190.187	-200.000	0.061	0.388
-189.173	-100.289	0.138	-0.034
-188.158	-148.549	-0.129	-0.010
-187.144	800.000	-0.041	-0.123
-186.129	792.479	-0.119	0.324
-185.114	-60.157	0.100	0.042
-184.100	-29.242	0.105	0.059
-183.085	800.000	0.028	0.087
-182.071	800.000	0.038	0.135
-181.056	250.298	0.145	-0.243
-180.042	-200.000	-0.094	0.483
-179.027	-51.290	0.182	0.084
-178.012	-50.522	0.212	0.099
-176.998	-81.545	0.216	-0.070
-175.983	800.000	0.044	0.186
-174.969	800.000	0.085	0.264
-173.954	0.675	-0.153	0.108
-172.939	-200.000	-0.016	0.218
-171.925	673.993	0.101	-0.259
-170.910	95.614	0.225	0.253
-169.896	339.128	0.041	-0.078
-168.881	-200.000	0.008	0.115
-167.866	-116.336	-0.246	0.045
-166.852	800.000	-0.068	-0.274
-165.837	465.013	-0.068	-0.150
-164.823	800.000	0.065	0.191
-163.808	-79.667	0.168	0.056
-162.793	-146.860	-0.110	-0.009
-161.779	30.900	0.084	-0.071
-160.764	198.917	0.161	0.244
-159.750	-158.418	-0.210	-0.012
-158.735	-99.493	-0.190	0.047
-157.720	86.402	-0.143	0.156
-156.706	-200.000	-0.004	-0.095
-155.691	-110.293	-0.154	0.032
-154.677	362.858	-0.123	0.244
-153.662	64.367	0.070	-0.070
-152.647	-151.693	0.204	-0.015
-151.633	92.043	0.183	-0.203
-150.618	-200.000	0.001	0.228
-149.604	-26.202	-0.129	0.075
-148.589	96.340	0.167	0.188
-147.574	-142.550	0.347	-0.034
-146.560	-65.102	-0.358	0.142
-145.545	-71.510	0.299	-0.110
-144.531	609.653	-0.061	-0.149
-143.516	276.923	-0.079	0.139
-142.502	222.258	-0.075	-0.119
-141.487	186.565	-0.050	0.073
-140.472	-149.126	-0.407	0.032
-139.458	572.626	-0.138	-0.331
-138.443	-160.838	0.228	-0.012
-137.429	84.653	0.154	0.166
-136.414	298.535	0.023	0.042
-135.399	172.895	-0.210	0.298
-134.385	-124.995	0.226	-0.034
-133.370	42.493	0.111	-0.099
-132.356	-126.892	0.207	-0.030
-131.341	649.875	-0.087	-0.220
-130.326	402.851	0.150	-0.311
-129.312	74.044	-0.083	-0.086
-128.297	-84.657	0.292	-0.091
-127.283	204.049	-0.076	-0.116
-126.268	-118.685	-0.131	-0.023
-125.253	130.111	-0.042	-0.052
-124.239	-13.802	0.280	0.178
-123.224	-200.000	0.037	0.244
-122.210	800.000	-0.032	-0.116
-121.195	-135.631	-0.114	-0.013
