DTS Sentinel unit serial number:	SN413079Multiplexer serial number:	ORYXHardware model number:	OX4-SRSoftware version number:	ORYX F/W v4.00 Oryx Data Collector v3.7.2.0data status	okinstallation	princeton_trtdifferential loss correction	single-endedforward channel	channel 2reverse channel	N/Adate	2019/09/16time	04:23:34forward acquisition time	60.00reverse acquisition time	0.00gamma	496.2192k internal	0.2335k external	0.2335temperature offset calibration	0.9973default loss term (dB/km)	0.3790temperature slope calibration	1.0000multiplexer offset coefficient	1.0000multiplexer slope coefficient	1.0000fibre end	0.00T internal ref (°C)	27.31T ext. ref 1 (°C)	10.81T ext. ref 2 (°C)	21.40length (m)	temperature (°C)	Stokes	anti-Stokes-747.200	533.348	-0.123	-0.293
-746.185	34.483	-0.160	0.140
-745.171	38.619	-0.049	0.044
-744.156	-200.000	0.064	0.286
-743.142	9.913	0.251	0.192
-742.127	-109.918	-0.309	0.065
-741.112	-183.539	-0.472	-0.008
-740.098	208.922	0.261	0.411
-739.083	-200.000	-0.004	0.183
-738.069	-134.141	-0.477	-0.059
-737.054	15.481	0.163	-0.129
-736.039	-56.203	0.034	0.015
-735.025	-200.000	0.077	0.392
-734.010	274.706	0.188	0.334
-732.996	461.474	0.126	-0.283
-731.981	8.982	0.081	0.062
-730.966	26.003	-0.224	0.188
-729.952	-12.968	-0.151	0.099
-728.937	800.000	-0.132	-0.404
-727.923	-56.911	-0.331	0.147
-726.908	-88.220	0.348	-0.105
-725.894	-102.516	0.214	-0.051
-724.879	-142.730	0.129	-0.013
-723.864	157.920	0.133	0.185
-722.850	-12.128	0.078	-0.051
-721.835	77.212	-0.134	-0.143
-720.821	11.935	-0.289	0.223
-719.806	-23.152	-0.437	0.264
-718.791	-200.000	0.000	0.104
-717.777	-84.852	0.261	0.082
-716.762	-74.148	0.079	0.029
-715.748	800.000	0.134	-0.376
-714.733	800.000	0.073	0.287
-713.718	29.819	-0.203	0.174
-712.704	146.950	-0.189	0.254
-711.689	-96.173	0.200	0.053
-710.675	-125.943	0.126	0.019
-709.660	800.000	-0.084	-0.335
-708.645	-124.371	-0.257	-0.040
-707.631	-57.642	0.148	0.065
-706.616	800.000	-0.057	0.209
-705.602	148.829	0.072	0.097
-704.587	-99.902	-0.156	0.039
-703.572	18.551	-0.250	-0.200
-702.558	-200.000	-0.015	0.201
-701.543	-200.000	-0.029	0.222
-700.529	-32.123	-0.294	-0.165
-699.514	258.115	-0.045	0.078
-698.499	595.056	-0.041	0.101
-697.485	263.397	-0.032	-0.056
-696.470	-86.295	-0.319	0.099
-695.456	-200.000	0.039	0.234
-694.441	-173.044	0.106	-0.003
-693.426	30.877	-0.057	0.049
-692.412	635.039	-0.107	-0.271
-691.397	3.031	0.300	-0.219
-690.383	-48.812	-0.235	-0.113
-689.368	-65.330	-0.240	0.097
-688.354	210.034	-0.036	0.057
-687.339	-161.106	-0.053	-0.003
-686.324	-49.608	-0.094	-0.045
-685.310	-200.000	-0.010	-0.110
-684.295	-122.978	-0.154	0.025
-683.281	207.220	-0.115	0.179
-682.266	257.539	-0.073	-0.126
-681.251	-54.544	0.288	-0.131
-680.237	-143.492	0.158	-0.015
-679.222	90.393	-0.030	-0.034
-678.208	-200.000	-0.006	0.433
-677.193	74.487	-0.273	-0.287
-676.178	-200.000	-0.035	-0.358
-675.164	39.843	-0.299	-0.269
-674.149	800.000	0.076	0.216
-673.135	-138.913	-0.192	0.021
-672.120	199.042	-0.058	-0.089
-671.105	-27.711	-0.216	0.126
-670.091	143.355	0.129	-0.172
-669.076	-200.000	-0.004	-0.067
-668.062	800.000	0.082	0.275
-667.047	156.705	0.109	0.151
-666.032	356.951	0.156	-0.311
-665.018	-144.905	-0.287	0.026
-664.003	800.000	-0.059	-0.171
-662.989	-200.000	-0.008	-0.055
-661.974	-33.716	-0.280	0.155
-660.959	67.176	-0.071	0.073
-659.945	265.815	0.114	0.199
-658.930	-200.000	0.018	0.428
-657.916	-64.596	0.306	0.124
-656.901	-200.000	0.004	0.068
-655.886	-200.000	0.039	0.172
-654.872	92.674	-0.189	0.214
-653.857	245.905	0.117	-0.198
-652.843	-200.000	-0.009	-0.109
-651.828	-7.109	-0.225	0.153
-650.814	-9.389	-0.124	0.083
-649.799	-200.000	0.002	-0.062
-648.784	-48.637	-0.077	-0.037
-647.770	144.873	0.257	0.344
-646.755	-22.321	-0.167	-0.101
-645.741	-198.098	-0.272	0.002
-644.726	56.425	0.091	0.089
-643.711	-200.000	-0.043	0.209
-642.697	9.927	0.111	-0.084
-641.682	-200.000	-0.002	-0.179
-640.668	8.720	-0.098	0.074
-639.653	543.405	0.099	-0.235
-638.638	29.983	-0.220	0.188
-637.624	-87.044	0.106	-0.032
-636.609	-76.659	-0.141	-0.049
-635.595	-200.000	-0.021	0.152
-634.580	-62.536	-0.248	-0.103
-633.565	-63.560	-0.075	-0.031
-632.551	-200.000	-0.032	-0.188
-631.536	477.234	-0.069	-0.156
-630.522	224.366	0.074	0.119
-629.507	800.000	-0.041	-0.114
-628.492	800.000	-0.092	0.274
-627.478	-174.272	-0.378	0.011
-626.463	-22.272	0.298	0.181
-625.449	-200.000	0.005	0.209
-624.434	-66.389	0.101	0.040
-623.419	800.000	-0.062	0.208
-622.405	765.129	0.112	-0.305
-621.390	155.106	-0.035	0.049
-620.376	-17.521	-0.278	0.175
-619.361	800.000	0.045	-0.183
-618.346	-27.997	0.097	-0.056
-617.332	-47.475	-0.189	0.092
-616.317	401.842	-0.060	-0.126
-615.303	-102.166	-0.219	0.053
-614.288	800.000	-0.051	0.224
-613.273	-200.000	-0.019	0.177
-612.259	-200.000	0.032	-0.170
-611.244	800.000	0.054	0.226
-610.230	-78.829	0.175	-0.060
-609.215	-122.611	-0.264	0.043
-608.201	-72.462	0.204	-0.075
-607.186	-165.049	-0.069	0.003
-606.171	-50.615	-0.341	-0.161
-605.157	3.754	0.033	-0.024
-604.142	220.832	-0.145	-0.233
-603.128	193.735	0.184	-0.278
-602.113	-132.203	-0.238	0.031
-601.098	-146.844	0.185	-0.016
-600.084	233.300	0.056	0.093
-599.069	-77.264	-0.249	0.087
-598.055	800.000	0.016	-0.048
-597.040	58.183	-0.178	-0.174
-596.025	-136.421	-0.132	0.015
-595.011	-104.746	-0.428	0.098
-593.996	-200.000	-0.034	-0.496
-592.982	800.000	0.068	-0.272
-591.967	35.506	-0.191	0.168
-590.952	-162.957	0.272	0.013
-589.938	390.958	0.107	0.221
-588.923	-92.552	-0.100	0.028
-587.909	-34.997	-0.163	-0.089
-586.894	800.000	0.026	0.106
-585.879	-124.533	-0.061	0.010
-584.865	-77.409	-0.457	-0.158
-583.850	514.647	0.038	0.088
-582.836	-177.836	-0.357	0.009
-581.821	-115.996	0.311	-0.058
-580.806	342.791	0.168	0.329
-579.792	6.373	-0.120	0.089
-578.777	-200.000	0.032	-0.245
-577.763	-151.335	0.131	-0.010
-576.748	261.243	0.035	0.060
-575.733	-200.000	0.002	0.038
-574.719	-160.964	-0.184	-0.010
-573.704	-132.431	-0.380	-0.049
-572.690	-95.042	-0.119	-0.032
-571.675	-126.793	0.251	0.037
-570.661	332.395	0.063	-0.122
-569.646	312.331	0.049	0.091
-568.631	397.682	-0.120	0.250
-567.617	-95.190	-0.230	-0.062
-566.602	-200.000	-0.008	-0.204
-565.588	433.831	0.138	-0.298
-564.573	-200.000	0.564	-0.001
-563.558	-87.513	-0.255	0.077
-562.544	-58.846	0.286	-0.124
-561.529	108.812	0.135	-0.161
-560.515	291.972	0.207	0.377
-559.500	108.835	0.124	0.147
-558.485	35.459	0.252	-0.221
-557.471	-53.161	-0.272	-0.125
-556.456	-30.020	-0.021	0.012
-555.442	4.857	-0.269	0.197
-554.427	-100.661	0.199	-0.049
-553.412	-200.000	0.009	-0.212
-552.398	36.846	-0.037	-0.032
-551.383	83.657	-0.252	-0.274
-550.369	-200.000	0.038	-0.350
-549.354	-77.391	0.175	-0.061
-548.339	-200.000	0.001	-0.027
-547.325	610.600	0.126	0.313
-546.310	76.628	0.148	0.156
-545.296	108.336	0.177	-0.211
-544.281	151.944	0.087	-0.118
-543.266	307.446	0.237	0.441
-542.252	584.156	0.079	0.193
-541.237	-111.182	0.357	-0.073
-540.223	-22.268	-0.253	-0.153
-539.208	509.336	0.073	-0.169
-538.193	-156.360	0.269	-0.017
-537.179	-10.591	0.091	-0.060
-536.164	-174.716	-0.277	0.008
-535.150	22.352	-0.110	0.090
-534.135	-23.645	0.263	-0.157
-533.121	-156.544	-0.343	0.021
-532.106	-101.715	0.070	-0.017
-531.091	-92.347	-0.336	0.094
-530.077	800.000	-0.026	-0.111
-529.062	-200.000	-0.005	0.179
-528.048	-200.000	-0.015	0.097
-527.033	244.177	-0.163	-0.273
-526.018	-48.637	0.309	-0.148
-525.004	330.676	-0.073	-0.139
-523.989	-200.000	-0.038	0.175
-522.975	-200.000	0.050	0.305
-521.960	-85.586	-0.090	-0.028
-520.945	204.838	0.103	0.159
-519.931	800.000	-0.065	-0.250
-518.916	-200.000	0.009	-0.066
-517.902	168.531	0.159	-0.225
-516.887	-97.629	0.145	0.037
-515.872	79.019	0.143	0.153
-514.858	800.000	0.029	0.095
-513.843	205.226	-0.088	-0.137
-512.829	151.436	0.157	-0.213
-511.814	121.273	0.227	-0.281
-510.799	-77.377	-0.134	-0.046
-509.785	98.686	-0.098	-0.112
-508.770	-200.000	-0.048	0.214
-507.756	-140.676	-0.136	0.014
-506.741	501.640	-0.062	-0.142
-505.726	-51.191	-0.203	-0.095
-504.712	74.000	0.075	0.078
-503.697	-200.000	-0.011	-0.107
-502.683	-136.763	0.311	-0.036
-501.668	323.651	0.076	-0.145
-500.653	31.641	0.146	-0.125
-499.639	-200.000	-0.004	-0.097
-498.624	14.184	-0.045	0.035
-497.610	240.757	0.247	-0.410
-496.595	-200.000	-0.029	0.148
-495.581	-34.125	-0.159	0.087
-494.566	62.918	0.167	0.166
-493.551	178.077	-0.294	0.426
-492.537	38.114	0.071	0.062
-491.522	111.221	-0.184	-0.221
-490.508	-39.940	-0.044	-0.023
-489.493	666.094	-0.031	-0.081
-488.478	-30.491	-0.044	-0.025
-487.464	154.303	0.087	-0.118
-486.449	96.128	-0.156	0.177
-485.435	-43.556	0.037	0.018
-484.420	-200.000	-0.114	0.497
-483.405	-200.000	0.017	-0.182
-482.391	-19.354	0.363	-0.224
-481.376	429.133	0.053	-0.115
-480.362	72.907	-0.240	-0.249
-479.347	-15.576	0.133	-0.084
-478.332	42.288	-0.168	0.151
-477.318	37.802	0.020	-0.017
-476.303	-85.957	-0.242	0.074
-475.289	-15.804	-0.307	-0.195
-474.274	-200.000	0.004	0.095
-473.259	800.000	0.046	-0.183
-472.245	444.763	-0.040	-0.088
-471.230	343.757	0.272	-0.531
-470.216	-100.469	-0.173	-0.043
-469.201	-54.571	0.041	0.019
-468.186	426.700	0.041	-0.089
-467.172	-65.870	-0.031	0.012
-466.157	519.830	0.086	-0.199
-465.143	267.154	0.015	-0.027
-464.128	-69.618	0.219	0.083
-463.113	62.439	0.170	-0.169
-462.099	-90.349	0.495	-0.143
-461.084	-9.413	-0.155	-0.103
-460.070	-200.000	-0.033	0.189
-459.055	233.263	-0.086	0.140
-458.040	65.612	0.305	-0.307
-457.026	-28.621	-0.344	0.197
-456.011	-160.976	-0.280	-0.015
-454.997	1.804	-0.178	0.128
-453.982	590.166	0.028	-0.069
-452.968	125.477	-0.196	-0.245
-451.953	-200.000	-0.053	-0.285
-450.938	-13.720	0.163	-0.105
-449.924	-83.301	0.108	-0.035
-448.909	800.000	0.005	0.014
-447.895	-111.200	-0.270	-0.055
-446.880	20.053	0.235	0.188
-445.865	10.406	-0.062	-0.047
-444.851	800.000	0.068	-0.216
-443.836	164.844	0.087	0.121
-442.822	-200.000	0.035	0.272
-441.807	176.024	-0.096	-0.139
-440.792	800.000	-0.046	-0.136
-439.778	81.944	0.094	-0.101
-438.763	-200.000	-0.005	0.238
-437.749	-90.137	-0.081	0.023
-436.734	136.031	-0.070	-0.090
-435.719	222.174	0.118	0.189
-434.705	-112.356	-0.193	-0.038
-433.690	-30.519	0.103	0.058
-432.676	280.434	-0.094	0.167
-431.661	800.000	-0.109	-0.304
-430.646	-140.013	0.087	-0.009
-429.632	130.828	-0.029	0.037
-428.617	-57.465	-0.381	-0.166
-427.603	-137.690	-0.632	0.070
-426.588	-35.411	0.130	-0.070
-425.573	247.099	0.091	-0.153
-424.559	-200.000	0.045	0.309
-423.544	-117.525	0.157	0.028
-422.530	8.462	-0.217	0.162
-421.515	-154.180	0.063	-0.004
-420.500	-200.000	0.044	-0.233
-419.486	74.580	-0.098	-0.102
-418.471	15.077	-0.123	-0.095
-417.457	24.995	-0.153	-0.126
-416.442	-103.195	-0.093	0.022
-415.428	80.504	-0.141	0.151
-414.413	-43.401	-0.057	-0.029
-413.398	0.265	0.158	0.112
-412.384	-200.000	0.074	0.332
-411.369	-200.000	0.012	-0.181
-410.355	22.873	-0.121	0.098
-409.340	-131.605	0.344	0.045
-408.325	-24.900	-0.237	-0.140
-407.311	-200.000	0.050	-0.235
-406.296	21.260	-0.185	-0.149
-405.282	-200.000	0.002	-0.220
-404.267	788.030	-0.053	0.145
-403.252	-24.682	-0.381	-0.224
-402.238	579.748	-0.055	-0.133
-401.223	-200.000	-0.020	-0.249
-400.209	-200.000	0.068	-0.343
-399.194	38.324	-0.117	-0.103
-398.179	800.000	-0.056	-0.242
-397.165	761.705	-0.062	0.166
-396.150	-200.000	-0.020	-0.183
-395.136	-92.647	0.113	-0.031
-394.121	261.601	-0.198	0.340
-393.106	582.604	-0.076	0.185
-392.092	-99.663	0.133	-0.033
-391.077	93.628	-0.195	0.219
-390.063	800.000	0.119	0.369
-389.048	-101.027	-0.213	0.052
-388.033	-148.347	0.111	0.009
-387.019	-122.447	0.252	-0.041
-386.004	-200.000	0.014	0.289
-384.990	281.806	-0.123	-0.218
-383.975	-128.855	0.145	0.020
-382.960	-146.335	-0.440	0.038
-381.946	-200.000	0.001	0.259
-380.931	-90.183	0.231	0.067
-379.917	251.671	-0.123	0.208
-378.902	-151.913	-0.177	0.013
-377.888	-6.713	0.372	-0.251
-376.873	-200.000	0.036	-0.171
-375.858	-200.000	-0.042	0.370
-374.844	-26.494	-0.091	-0.053
-373.829	69.858	0.147	0.150
-372.815	150.406	0.156	-0.209
-371.800	196.458	0.131	0.197
-370.785	442.713	0.113	0.246
-369.771	-200.000	-0.032	0.316
-368.756	-68.773	0.024	-0.009
-367.742	36.415	0.321	-0.281
-366.727	-77.053	-0.082	-0.028
-365.712	40.384	0.132	0.118
-364.698	5.445	0.143	0.104
-363.683	120.616	0.266	0.327
-362.669	-200.000	-0.002	-0.200
-361.654	-95.420	-0.215	0.057
-360.639	480.982	0.125	-0.280
-359.625	34.897	-0.115	-0.100
-358.610	-81.836	0.059	0.019
-357.596	634.290	-0.059	0.148
-356.581	317.982	0.022	-0.042
-355.566	207.345	0.104	0.161
-354.552	78.406	-0.008	0.009
-353.537	-200.000	-0.019	-0.195
-352.523	-35.958	0.478	0.256
-351.508	-70.082	0.151	-0.057
-350.493	-172.988	-0.217	-0.007
-349.479	-135.242	0.261	0.031
-348.464	442.559	0.073	0.159
-347.450	-77.827	-0.084	-0.029
-346.435	2.464	-0.177	0.127
-345.420	-23.905	0.115	-0.068
-344.406	-200.000	-0.021	-0.234
-343.391	-200.000	0.014	0.235
-342.377	26.673	-0.117	-0.097
-341.362	-45.645	-0.160	-0.078
-340.348	2.969	0.331	-0.238
-339.333	-44.772	-0.236	-0.117
-338.318	-22.315	0.233	0.140
-337.304	800.000	0.050	0.175
-336.289	46.246	0.077	-0.070
-335.275	3.360	0.034	0.025
-334.260	541.335	0.076	0.179
-333.245	-112.749	0.469	0.092
-332.231	466.046	0.074	0.163
-331.216	800.000	-0.062	0.211
-330.202	-79.045	0.162	0.054
-329.187	-200.000	-0.020	-0.355
-328.172	-5.356	0.156	0.106
-327.158	-33.953	0.349	-0.190
-326.143	-200.000	0.000	0.041
-325.129	-13.433	0.098	0.063
-324.114	264.757	0.114	0.196
-323.099	-200.000	-0.010	0.124
-322.085	132.672	-0.088	-0.112
-321.070	800.000	0.129	0.511
-320.056	-200.000	0.013	-0.149
-319.041	-151.509	-0.187	-0.014
-318.026	515.216	-0.162	-0.373
-317.012	416.717	0.100	-0.212
-315.997	530.225	-0.131	-0.307
-314.983	-79.187	-0.054	0.018
-313.968	-103.160	-0.048	0.011
-312.953	17.305	0.112	0.088
-311.939	800.000	0.057	0.173
-310.924	138.945	0.016	-0.020
-309.910	800.000	-0.046	0.192
-308.895	134.949	-0.087	-0.112
-307.880	-4.513	0.170	-0.116
-306.866	-16.431	0.260	0.163
-305.851	800.000	-0.061	0.245
-304.837	-200.000	-0.026	-0.187
-303.822	-99.214	-0.093	0.023
-302.807	800.000	0.037	-0.103
-301.793	800.000	-0.051	-0.172
-300.778	236.552	0.099	-0.163
-299.764	-40.284	-0.116	0.060
-298.749	-123.305	-0.300	-0.047
-297.735	-34.753	0.289	0.156
-296.720	459.790	-0.122	-0.269
-295.705	-62.570	-0.252	-0.103
-294.691	-200.000	0.060	0.279
-293.676	-200.000	0.030	0.175
-292.662	122.812	-0.201	0.249
-291.647	-39.471	-0.198	0.103
-290.632	-62.318	0.029	-0.012
-289.618	-69.844	-0.199	-0.075
-288.603	-184.144	0.206	0.003
-287.589	14.151	0.097	0.075
-286.574	-113.560	-0.244	-0.047
-285.559	379.392	0.103	-0.209
-284.545	800.000	0.025	0.107
-283.530	97.481	-0.041	0.047
-282.516	-107.612	0.179	0.039
-281.501	2.390	-0.271	0.193
-280.486	-123.548	0.279	-0.044
-279.472	-200.000	-0.007	0.063
-278.457	36.463	-0.020	0.017
-277.443	-33.941	-0.193	0.105
-276.428	-200.000	0.015	0.102
-275.413	0.522	0.480	0.339
-274.399	84.482	0.187	0.202
-273.384	123.121	0.128	-0.158
-272.370	800.000	-0.148	-0.454
-271.355	-94.050	0.266	-0.072
-270.340	423.222	0.058	0.122
-269.326	-20.246	0.146	0.089
-268.311	-104.204	-0.210	0.048
-267.297	200.832	-0.132	-0.200
-266.282	-119.388	0.174	-0.030
-265.267	-88.953	-0.167	-0.049
-264.253	800.000	0.074	0.297
-263.238	-137.154	-0.203	-0.023
-262.224	-60.215	-0.307	0.129
-261.209	557.496	0.115	0.272
-260.195	-200.000	0.027	-0.460
-259.180	418.024	0.143	0.302
-258.165	-176.683	-0.072	-0.002
-257.151	-200.000	0.003	-0.269
-256.136	-73.178	0.303	-0.109
-255.122	289.836	-0.021	-0.037
-254.107	231.277	0.061	0.099
-253.092	-167.858	-0.133	-0.005
-252.078	22.365	0.066	0.053
-251.063	-200.000	0.054	0.251
-250.049	-128.015	0.195	-0.028
-249.034	23.718	-0.216	0.175
-248.019	-200.000	0.022	0.209
-247.005	158.738	-0.266	0.365
-245.990	-55.495	0.122	0.054
-244.976	-21.651	-0.120	-0.072
-243.961	-86.783	-0.038	0.012
-242.946	-119.464	0.117	-0.020
-241.932	-200.000	-0.026	0.228
-240.917	301.515	-0.021	0.038
-239.903	600.026	0.051	0.125
-238.888	744.971	-0.078	0.208
-237.873	-200.000	0.046	-0.434
-236.859	800.000	0.113	0.393
-235.844	-50.741	-0.085	-0.040
-234.830	-53.343	0.190	0.086
-233.815	259.223	-0.071	0.121
-232.800	-104.633	-0.126	0.029
-231.786	-87.761	0.313	-0.093
-230.771	-82.495	0.050	-0.016
-229.757	452.489	-0.115	0.251
-228.742	174.387	0.152	0.216
-227.727	-116.803	0.150	-0.027
-226.713	-67.735	0.263	-0.101
-225.698	401.374	0.041	0.084
-224.684	351.026	0.061	0.120
-223.669	800.000	0.078	0.227
-222.655	388.505	0.077	0.156
-221.640	-109.245	0.064	0.013
-220.625	7.315	0.122	0.090
-219.611	-200.000	-0.042	0.503
-218.596	312.497	-0.090	0.166
-217.582	-200.000	-0.028	-0.125
-216.567	121.580	0.121	0.148
-215.552	170.082	-0.155	0.219
-214.538	-110.311	0.166	-0.034
-213.523	-200.000	-0.067	0.307
-212.509	10.319	0.165	-0.123
-211.494	-16.547	-0.151	-0.094
-210.479	-143.646	0.334	-0.031
-209.465	329.920	-0.104	-0.197
-208.450	440.380	-0.061	-0.132
-207.436	-200.000	-0.041	0.389
-206.421	236.435	0.110	-0.180
-205.406	800.000	-0.063	-0.193
-204.392	-44.235	0.247	0.122
-203.377	589.499	0.119	-0.288
-202.363	-200.000	0.004	0.301
-201.348	80.878	0.275	-0.292
-200.333	-23.443	0.139	0.082
-199.319	-200.000	0.023	0.444
-198.304	-40.872	0.371	0.189
-197.290	-117.629	-0.334	-0.059
-196.275	-200.000	-0.006	-0.143
-195.260	-68.881	0.209	-0.079
-194.246	275.512	0.153	0.266
-193.231	92.018	-0.067	0.074
-192.217	800.000	0.039	0.112
-191.202	111.958	0.158	-0.187
-190.187	-57.513	-0.314	0.136
-189.173	-75.185	-0.432	-0.152
-188.158	374.781	0.100	-0.200
-187.144	-69.636	-0.105	-0.040
-186.129	-85.462	-0.505	-0.155
-185.114	302.363	-0.027	0.049
-184.100	-104.175	-0.362	0.083
-183.085	-200.000	0.027	0.170
-182.071	-200.000	-0.002	0.132
-181.056	346.374	0.069	-0.134
-180.042	-200.000	0.057	-0.431
-179.027	-13.428	0.187	-0.119
-178.012	-175.476	0.450	0.012
-176.998	-99.909	-0.192	0.047
-175.983	277.694	0.102	-0.178
-174.969	-200.000	-0.210	-0.000
-173.954	271.475	-0.091	-0.157
-172.939	-200.000	-0.008	-0.127
-171.925	94.819	-0.055	-0.061
-170.910	-19.427	0.188	0.115
-169.896	203.269	0.089	0.135
-168.881	-81.761	-0.368	-0.118
-167.866	-14.608	0.106	-0.067
-166.852	423.783	0.059	-0.125
-165.837	-200.000	-0.008	-0.268
-164.823	184.497	0.135	0.197
-163.808	535.287	-0.042	0.097
-162.793	5.053	-0.080	-0.058
-161.779	234.350	0.085	-0.137
-160.764	800.000	-0.101	-0.328
-159.750	305.165	-0.175	-0.318
-158.735	-7.201	-0.367	0.244
-157.720	-200.000	-0.003	0.256
-156.706	-110.697	0.200	-0.041
-155.691	-90.973	-0.291	-0.082
-154.677	-35.301	-0.174	-0.093
-153.662	26.669	0.261	-0.215
-152.647	106.810	0.237	0.276
-151.633	-148.681	-0.357	0.029
-150.618	-64.691	0.192	0.076
-149.604	58.669	-0.082	0.079
-148.589	378.895	-0.116	-0.234
-147.574	-43.232	-0.062	0.031
-146.560	22.277	0.068	-0.055
-145.545	63.469	-0.135	0.133
-144.531	366.941	0.120	0.238
-143.516	-118.476	-0.169	-0.029
-142.502	275.342	-0.180	-0.313
-141.487	131.071	-0.099	0.124
-140.472	274.446	-0.039	0.068
-139.458	-109.977	-0.350	-0.072
-138.443	51.772	-0.240	0.224
-137.429	472.456	-0.069	-0.152
-136.414	133.079	-0.127	0.161
-135.399	-55.645	0.210	-0.092
-134.385	-140.245	-0.088	-0.009
-133.370	86.271	-0.277	0.300
-132.356	2.919	-0.116	-0.082
-131.341	121.774	-0.123	-0.151
-130.326	393.129	-0.157	-0.321
-129.312	-35.017	-0.202	-0.108
-128.297	128.651	-0.259	-0.324
-127.283	-104.183	-0.321	0.073
-126.268	-82.444	-0.120	-0.038
-125.253	-41.962	-0.262	0.131
-124.239	-31.339	0.125	-0.069
-123.224	35.374	-0.141	-0.121
-122.210	-162.006	-0.284	0.014
-121.195	-200.000	-0.022	0.128
