DTS Sentinel unit serial number:	SN413079Multiplexer serial number:	ORYXHardware model number:	OX4-SRSoftware version number:	ORYX F/W v4.00 Oryx Data Collector v3.7.2.0data status	okinstallation	princeton_trtdifferential loss correction	single-endedforward channel	channel 2reverse channel	N/Adate	2019/09/14time	10:39:35forward acquisition time	60.00reverse acquisition time	0.00gamma	496.2192k internal	0.2316k external	0.2316temperature offset calibration	1.0140default loss term (dB/km)	0.3790temperature slope calibration	1.0000multiplexer offset coefficient	1.0000multiplexer slope coefficient	1.0000fibre end	0.00T internal ref (°C)	35.22T ext. ref 1 (°C)	4.25T ext. ref 2 (°C)	33.10length (m)	temperature (°C)	Stokes	anti-Stokes-747.200	-8.462	0.244	0.166
-746.185	483.214	-0.202	0.465
-745.171	-71.676	0.085	0.032
-744.156	-200.000	-0.054	0.349
-743.142	-200.000	0.036	0.195
-742.127	800.000	0.065	0.224
-741.112	-189.782	-0.592	-0.007
-740.098	800.000	-0.127	0.461
-739.083	371.633	-0.074	0.151
-738.069	800.000	0.051	-0.208
-737.054	148.292	0.058	-0.079
-736.039	-26.233	-0.103	0.061
-735.025	-104.377	0.407	-0.096
-734.010	19.396	-0.159	-0.130
-732.996	-188.548	-0.366	-0.005
-731.981	245.189	-0.118	-0.201
-730.966	51.949	-0.257	-0.248
-729.952	-149.431	0.220	-0.018
-728.937	-2.273	-0.221	0.157
-727.923	-99.588	0.063	-0.016
-726.908	-158.817	-0.144	-0.008
-725.894	82.821	-0.139	-0.153
-724.879	4.330	-0.273	-0.203
-723.864	-115.848	0.221	-0.042
-722.850	-32.167	0.253	-0.143
-721.835	179.706	0.064	-0.095
-720.821	-2.901	0.024	0.017
-719.806	-3.548	0.138	-0.097
-718.791	-200.000	-0.034	-0.311
-717.777	79.983	-0.235	-0.255
-716.762	-25.249	0.146	0.087
-715.748	800.000	-0.057	-0.225
-714.733	-200.000	-0.039	0.248
-713.718	-200.000	0.011	-0.081
-712.704	800.000	-0.033	0.112
-711.689	-110.817	-0.140	-0.029
-710.675	800.000	0.054	-0.199
-709.660	800.000	0.106	0.340
-708.645	-144.968	0.056	0.005
-707.631	-83.526	0.127	0.041
-706.616	34.030	-0.081	0.072
-705.602	524.052	-0.097	-0.230
-704.587	-200.000	-0.016	-0.143
-703.572	-120.103	-0.279	-0.048
-702.558	800.000	0.121	0.461
-701.543	3.735	0.257	0.190
-700.529	269.777	0.046	-0.081
-699.514	20.520	0.134	-0.110
-698.499	-200.000	-0.015	-0.074
-697.485	-200.000	0.002	0.430
-696.470	800.000	-0.027	0.082
-695.456	407.148	-0.045	0.096
-694.441	463.010	-0.114	-0.257
-693.426	-72.812	-0.283	-0.105
-692.412	-200.000	-0.029	0.129
-691.397	50.768	-0.190	0.182
-690.383	328.230	0.047	-0.092
-689.368	-13.270	-0.266	-0.174
-688.354	597.361	0.084	-0.211
-687.339	-44.298	-0.229	-0.116
-686.324	-200.000	0.009	0.047
-685.310	-99.107	0.441	-0.113
-684.295	250.905	-0.269	-0.463
-683.281	800.000	-0.070	-0.234
-682.266	-163.757	0.372	-0.018
-681.251	27.532	0.189	0.161
-680.237	-58.336	-0.257	-0.113
-679.222	-200.000	0.004	-0.076
-678.208	244.320	-0.034	0.058
-677.193	-80.864	-0.378	0.127
-676.178	-115.339	0.185	0.035
-675.164	800.000	-0.019	0.081
-674.149	-56.660	-0.115	-0.052
-673.135	107.820	-0.175	-0.211
-672.120	670.377	-0.053	-0.140
-671.105	-156.846	0.312	0.019
-670.091	-70.873	0.201	0.077
-669.076	46.039	0.012	0.011
-668.062	427.379	-0.094	-0.205
-667.047	-73.366	-0.039	-0.015
-666.032	-177.714	0.394	0.010
-665.018	-29.641	0.210	-0.121
-664.003	425.970	0.132	-0.286
-662.989	-49.590	-0.304	0.146
-661.974	24.370	-0.186	0.155
-660.959	-123.457	0.170	0.027
-659.945	38.813	0.306	-0.276
-658.930	6.843	0.146	-0.109
-657.916	-126.266	0.176	-0.027
-656.901	-200.000	-0.035	0.208
-655.886	-140.012	-0.464	-0.049
-654.872	-200.000	-0.007	0.200
-653.857	304.428	-0.052	0.097
-652.843	-200.000	0.007	0.374
-651.828	166.381	-0.094	-0.134
-650.814	-87.733	0.068	-0.021
-649.799	589.836	-0.051	0.126
-648.784	800.000	0.103	0.366
-647.770	-43.486	0.182	0.093
-646.755	-200.000	0.040	-0.197
-645.741	128.767	0.191	0.246
-644.726	159.932	-0.104	0.147
-643.711	-112.450	0.265	0.053
-642.697	489.428	-0.129	-0.297
-641.682	487.282	0.101	-0.232
-640.668	-25.078	0.214	-0.128
-639.653	-69.056	0.442	-0.172
-638.638	28.209	0.269	-0.229
-637.624	-19.457	-0.239	0.149
-636.609	-200.000	-0.006	0.301
-635.595	800.000	-0.024	-0.095
-634.580	-135.182	-0.243	-0.029
-633.565	-18.179	0.123	0.078
-632.551	800.000	-0.031	-0.121
-631.536	-51.809	0.220	0.103
-630.522	-86.228	0.188	0.058
-629.507	79.772	0.113	-0.122
-628.492	60.131	0.057	0.056
-627.478	22.512	-0.269	-0.222
-626.463	-0.898	-0.195	-0.140
-625.449	-13.816	0.272	0.177
-624.434	75.639	-0.114	-0.121
-623.419	-177.410	-0.161	0.004
-622.405	-200.000	0.070	0.344
-621.390	-200.000	-0.055	-0.276
-620.376	283.005	-0.061	-0.110
-619.361	-30.984	0.192	-0.109
-618.346	96.712	-0.084	-0.097
-617.332	297.319	-0.126	0.233
-616.317	80.511	0.328	0.356
-615.303	800.000	0.062	0.216
-614.288	-69.955	-0.210	-0.081
-613.273	-142.498	0.177	-0.018
-612.259	40.769	0.440	0.400
-611.244	-200.000	0.024	-0.232
-610.230	-91.789	0.129	0.037
-609.215	451.679	0.105	0.234
-608.201	414.279	0.088	0.188
-607.186	-200.000	-0.002	0.149
-606.171	314.199	-0.136	0.258
-605.157	800.000	0.073	-0.295
-604.142	316.857	0.092	-0.175
-603.128	358.047	-0.075	0.150
-602.113	-87.520	-0.300	-0.091
-601.098	148.804	-0.159	-0.217
-600.084	13.353	-0.178	0.139
-599.069	-119.644	-0.252	-0.044
-598.055	-200.000	0.048	-0.217
-597.040	105.203	-0.142	0.169
-596.025	-89.584	0.088	-0.026
-595.011	-70.224	-0.160	0.061
-593.996	-79.773	0.037	0.013
-592.982	28.107	0.195	0.165
-591.967	-100.263	0.242	0.060
-590.952	-139.587	0.044	0.005
-589.938	-200.000	0.025	-0.297
-588.923	800.000	0.103	-0.393
-587.909	390.863	-0.071	-0.148
-586.894	-10.032	0.256	-0.172
-585.879	-101.743	-0.179	-0.044
-584.865	52.866	-0.224	-0.215
-583.850	30.942	0.180	-0.155
-582.836	800.000	-0.123	-0.357
-581.821	800.000	-0.060	-0.225
-580.806	-49.713	0.216	0.103
-579.792	-26.137	-0.125	-0.074
-578.777	800.000	-0.015	-0.047
-577.763	-159.685	0.303	0.017
-576.748	-151.763	-0.106	0.008
-575.733	-86.529	-0.236	-0.073
-574.719	-200.000	0.017	-0.468
-573.704	-62.672	-0.135	0.056
-572.690	-138.873	0.338	0.037
-571.675	23.710	0.187	-0.155
-570.661	-200.000	0.083	-0.386
-569.646	-102.268	-0.125	-0.030
-568.631	333.453	-0.011	-0.022
-567.617	12.270	-0.178	-0.138
-566.602	-88.914	0.564	-0.168
-565.588	-200.000	0.012	-0.374
-564.573	-200.000	0.030	-0.272
-563.558	-47.200	0.202	0.099
-562.544	250.676	-0.152	0.260
-561.529	-134.193	0.246	-0.030
-560.515	-134.584	0.063	0.008
-559.500	-99.495	-0.278	0.070
-558.485	38.598	-0.188	0.168
-557.471	-46.501	0.118	-0.058
-556.456	90.546	0.244	-0.274
-555.442	800.000	0.061	-0.252
-554.427	237.943	0.060	-0.101
-553.412	620.081	-0.175	0.443
-552.398	281.078	-0.166	-0.299
-551.383	-200.000	0.051	0.289
-550.369	220.471	-0.118	0.190
-549.354	-86.196	-0.375	-0.116
-548.339	-200.000	0.039	0.290
-547.325	389.846	-0.083	-0.173
-546.310	-0.105	-0.283	0.203
-545.296	280.662	0.059	0.107
-544.281	-158.285	-0.098	0.006
-543.266	800.000	0.021	-0.070
-542.252	-11.162	-0.135	-0.089
-541.237	-200.000	0.023	0.172
-540.223	244.961	-0.072	0.122
-539.208	-200.000	0.033	-0.221
-538.193	-57.937	-0.285	-0.125
-537.179	369.063	0.083	-0.168
-536.164	98.291	-0.105	0.122
-535.150	32.573	0.290	0.252
-534.135	-131.373	0.193	-0.026
-533.121	-10.152	-0.067	0.044
-532.106	800.000	0.055	0.222
-531.091	-97.296	-0.033	0.009
-530.077	44.463	-0.093	0.086
-529.062	-200.000	0.017	-0.241
-528.048	-111.589	-0.193	0.039
-527.033	616.963	0.159	0.401
-526.018	-200.000	-0.025	-0.151
-525.004	-200.000	0.014	0.083
-523.989	16.784	0.139	0.110
-522.975	800.000	-0.022	-0.065
-521.960	-93.406	-0.230	0.064
-520.945	800.000	-0.045	-0.193
-519.931	-8.539	-0.143	-0.097
-518.916	-200.000	-0.033	-0.281
-517.902	438.001	-0.093	0.203
-516.887	-75.988	0.039	-0.014
-515.872	-13.347	-0.062	-0.040
-514.858	-69.276	-0.286	-0.110
-513.843	-95.384	0.162	-0.044
-512.829	-25.689	-0.088	0.052
-511.814	52.042	0.119	0.114
-510.799	-33.064	-0.265	0.148
-509.785	253.961	0.116	-0.199
-508.770	-200.000	0.006	0.065
-507.756	800.000	-0.096	0.328
-506.741	639.239	-0.023	0.059
-505.726	-106.666	-0.202	-0.045
-504.712	-92.997	0.298	0.083
-503.697	-78.479	-0.282	-0.097
-502.683	-200.000	0.031	-0.179
-501.668	-200.000	0.048	-0.262
-500.653	-58.218	-0.091	-0.040
-499.639	-144.704	-0.168	0.016
-498.624	550.887	-0.113	0.272
-497.610	-30.942	0.055	0.031
-496.595	800.000	-0.096	-0.281
-495.581	480.503	0.049	-0.112
-494.566	61.756	0.244	-0.244
-493.551	-129.980	-0.075	-0.010
-492.537	-200.000	0.031	-0.300
-491.522	48.659	0.062	-0.058
-490.508	65.705	-0.141	0.144
-489.493	106.480	-0.128	0.153
-488.478	282.316	-0.075	0.135
-487.464	800.000	-0.081	0.294
-486.449	-122.796	0.302	0.049
-485.435	-46.109	-0.251	0.124
-484.420	800.000	-0.068	-0.249
-483.405	275.190	-0.126	0.223
-482.391	-151.117	-0.248	0.019
-481.376	800.000	-0.046	-0.173
-480.362	800.000	0.089	-0.282
-479.347	-72.277	-0.066	-0.025
-478.332	73.900	-0.253	-0.267
-477.318	143.397	0.103	0.138
-476.303	-170.671	0.144	0.005
-475.289	-101.291	-0.124	0.030
-474.274	-12.473	0.039	0.026
-473.259	532.490	0.049	-0.116
-472.245	695.720	-0.122	0.322
-471.230	-117.709	0.267	0.048
-470.216	800.000	-0.041	0.151
-469.201	-146.404	-0.206	0.018
-468.186	-200.000	0.014	-0.297
-467.172	-112.104	0.255	0.051
-466.157	40.324	-0.268	0.242
-465.143	-25.391	0.245	0.145
-464.128	800.000	0.029	-0.125
-463.113	-102.993	-0.132	-0.031
-462.099	-45.402	0.126	-0.063
-461.084	212.800	0.157	-0.249
-460.070	-128.916	0.137	-0.019
-459.055	-176.181	0.231	0.006
-458.040	294.487	-0.121	-0.221
-457.026	-173.362	-0.131	0.004
-456.011	-89.659	-0.303	0.089
-454.997	-107.419	0.068	-0.015
-453.982	-40.785	0.256	0.133
-452.968	-97.862	0.213	-0.055
-451.953	13.487	-0.203	0.157
-450.938	-200.000	0.011	0.067
-449.924	-200.000	-0.007	-0.301
-448.909	-115.151	-0.165	0.031
-447.895	-43.276	-0.102	0.052
-446.880	-2.277	-0.207	0.146
-445.865	314.293	-0.043	0.082
-444.851	-200.000	0.008	-0.053
-443.836	-35.944	0.071	0.038
-442.822	175.114	-0.238	-0.346
-441.807	-118.670	-0.105	-0.019
-440.792	-11.115	-0.182	0.120
-439.778	800.000	-0.105	0.321
-438.763	27.304	-0.147	-0.123
-437.749	14.867	-0.205	-0.161
-436.734	-200.000	0.027	-0.164
-435.719	201.165	0.171	0.264
-434.705	-200.000	-0.036	-0.165
-433.690	-22.987	-0.089	0.054
-432.676	536.598	-0.149	0.354
-431.661	10.015	0.031	-0.024
-430.646	-102.955	0.240	-0.057
-429.632	-162.788	0.284	0.014
-428.617	189.432	-0.096	-0.145
-427.603	6.481	-0.166	-0.124
-426.588	-127.369	-0.326	-0.047
-425.573	127.903	-0.232	0.296
-424.559	-141.194	-0.153	-0.016
-423.544	-200.000	0.007	-0.107
-422.530	-200.000	-0.040	0.354
-421.515	-15.383	-0.300	-0.192
-420.500	800.000	-0.073	0.204
-419.486	187.316	-0.196	0.293
-418.471	48.777	0.122	-0.115
-417.457	-20.801	-0.179	-0.110
-416.442	-81.412	-0.353	-0.116
-415.428	-142.684	-0.377	-0.037
-414.413	-173.096	-0.057	0.002
-413.398	800.000	0.038	-0.129
-412.384	-124.278	0.310	0.048
-411.369	800.000	-0.052	-0.175
-410.355	-46.157	-0.138	0.068
-409.340	162.308	-0.098	0.138
-408.325	204.028	-0.075	0.117
-407.311	800.000	0.007	0.020
-406.296	-119.731	0.107	0.019
-405.282	102.081	-0.137	0.160
-404.267	-200.000	-0.003	-0.134
-403.252	-133.087	-0.279	-0.035
-402.238	-24.001	-0.250	-0.150
-401.223	175.359	-0.143	-0.207
-400.209	353.197	0.097	0.193
-399.194	19.222	-0.377	-0.303
-398.179	-200.000	0.020	-0.405
-397.165	-39.964	0.209	0.109
-396.150	26.650	-0.222	-0.185
-395.136	-62.016	-0.340	-0.142
-394.121	800.000	0.024	0.085
-393.106	-200.000	0.069	-0.389
-392.092	129.061	-0.190	0.242
-391.077	-109.476	0.270	0.057
-390.063	95.026	0.066	-0.075
-389.048	-200.000	-0.014	0.530
-388.033	-177.022	-0.088	0.002
-387.019	-91.880	0.188	0.053
-386.004	-143.828	0.258	0.024
-384.990	238.627	-0.117	0.194
-383.975	-124.731	0.099	-0.015
-382.960	-0.005	0.140	-0.100
-381.946	71.287	-0.184	-0.191
-380.931	-79.072	-0.284	0.096
-379.917	313.019	-0.177	-0.333
-378.902	605.727	-0.034	0.085
-377.888	4.691	0.222	-0.163
-376.873	-159.238	0.146	-0.008
-375.858	119.875	0.059	-0.073
-374.844	621.780	-0.104	0.262
-373.829	-158.504	-0.113	-0.007
-372.815	800.000	0.061	-0.222
-371.800	-200.000	0.036	-0.209
-370.785	-200.000	-0.021	0.143
-369.771	-137.898	-0.308	-0.034
-368.756	93.856	0.227	0.257
-367.742	-166.140	0.294	-0.012
-366.727	27.557	0.171	-0.144
-365.712	401.309	0.082	-0.173
-364.698	103.807	-0.335	0.393
-363.683	800.000	-0.053	0.166
-362.669	78.892	0.175	-0.187
-361.654	-140.709	-0.265	-0.027
-360.639	123.736	0.186	-0.233
-359.625	-61.518	0.223	-0.093
-358.610	-151.194	0.214	0.016
-357.596	-167.841	0.080	-0.003
-356.581	49.099	0.094	-0.088
-355.566	-200.000	0.002	0.287
-354.552	800.000	-0.011	-0.045
-353.537	-78.965	-0.085	0.029
-352.523	800.000	0.009	0.035
-351.508	-81.074	0.194	-0.064
-350.493	-200.000	-0.050	0.231
-349.479	-129.190	-0.176	-0.024
-348.464	-117.758	0.305	-0.055
-347.450	475.511	0.140	0.315
-346.435	349.910	0.124	-0.245
-345.420	800.000	0.052	0.180
-344.406	-128.115	0.446	-0.064
-343.391	-126.472	0.365	0.054
-342.377	-200.000	0.018	-0.118
-341.362	800.000	-0.054	-0.206
-340.348	800.000	0.036	0.125
-339.333	274.134	0.165	0.291
-338.318	10.536	-0.066	-0.050
-337.304	800.000	-0.039	-0.132
-336.289	800.000	0.115	-0.467
-335.275	488.714	-0.102	-0.233
-334.260	-104.117	-0.241	-0.056
-333.245	-200.000	0.017	-0.172
-332.231	-73.220	0.144	0.052
-331.216	-104.148	0.248	-0.057
-330.202	-189.052	0.083	0.001
-329.187	455.054	-0.153	0.337
-328.172	-17.124	0.440	-0.276
-327.158	135.016	-0.117	-0.152
-326.143	-104.920	-0.379	0.087
-325.129	-141.712	0.444	0.044
-324.114	215.446	0.234	-0.371
-323.099	-63.593	-0.136	0.055
-322.085	800.000	0.068	0.239
-321.070	-86.447	-0.165	-0.050
-320.056	-48.570	-0.066	-0.032
-319.041	262.139	0.095	0.164
-318.026	204.245	-0.261	0.403
-317.012	-55.892	0.279	-0.124
-315.997	-56.951	-0.163	-0.072
-314.983	-63.451	-0.215	-0.088
-313.968	-70.165	0.385	0.146
-312.953	308.356	-0.093	0.173
-311.939	800.000	-0.084	0.344
-310.924	-53.753	0.294	-0.134
-309.910	-200.000	0.051	-0.272
-308.895	-40.824	0.033	0.017
-307.880	-43.114	0.262	-0.132
-306.866	800.000	0.043	0.172
-305.851	-74.509	0.217	0.078
-304.837	-36.970	0.025	-0.013
-303.822	-200.000	0.035	-0.282
-302.807	510.864	-0.116	-0.270
-301.793	52.466	-0.036	-0.034
-300.778	-119.719	-0.116	0.020
-299.764	129.673	-0.201	0.256
-298.749	-200.000	0.013	0.180
-297.735	-200.000	0.039	-0.233
-296.720	-86.959	-0.024	0.007
-295.705	-95.936	-0.209	-0.056
-294.691	800.000	0.080	0.255
-293.676	800.000	0.047	-0.183
-292.662	-150.750	-0.173	-0.013
-291.647	18.716	0.068	0.054
-290.632	80.906	0.084	0.091
-289.618	-122.606	0.197	0.032
-288.603	-200.000	0.041	-0.416
-287.589	-200.000	0.006	-0.202
-286.574	-200.000	-0.020	-0.178
-285.559	-174.158	-0.191	-0.006
-284.545	-118.929	0.347	-0.061
-283.530	800.000	-0.069	-0.291
-282.516	99.003	-0.074	-0.085
-281.501	92.962	0.133	-0.150
-280.486	800.000	0.018	-0.068
-279.472	-14.962	0.171	0.109
-278.457	703.924	0.056	-0.146
-277.443	-62.944	-0.095	0.039
-276.428	800.000	-0.048	0.174
-275.413	74.437	-0.077	0.080
-274.399	-64.364	0.243	-0.098
-273.384	-200.000	0.087	-0.435
-272.370	-105.683	0.323	-0.073
-271.355	-129.886	-0.484	0.066
-270.340	92.938	0.069	-0.077
-269.326	-111.674	0.067	0.013
-268.311	-200.000	0.015	0.085
-267.297	-73.763	-0.209	0.076
-266.282	313.414	-0.156	0.292
-265.267	-12.754	-0.220	0.143
-264.253	-7.610	-0.485	0.326
-263.238	-200.000	0.070	0.381
-262.224	245.946	0.098	0.164
-261.209	81.350	-0.096	-0.103
-260.195	-37.768	-0.203	0.107
-259.180	-95.416	0.179	0.048
-258.165	-200.000	-0.038	0.443
-257.151	-50.495	0.116	0.054
-256.136	-85.898	0.079	0.024
-255.122	800.000	-0.045	0.183
-254.107	13.301	-0.123	-0.094
-253.092	81.922	0.190	0.204
-252.078	-58.935	0.070	-0.030
-251.063	-200.000	0.104	0.583
-250.049	-200.000	0.037	-0.163
-249.034	80.912	0.295	-0.316
-248.019	180.729	0.055	-0.081
-247.005	-88.902	0.418	-0.123
-245.990	-200.000	0.020	-0.250
-244.976	235.423	0.012	-0.020
-243.961	-200.000	0.029	-0.392
-242.946	-200.000	0.011	0.181
-241.932	674.747	-0.117	-0.303
-240.917	-8.713	-0.147	-0.098
-239.903	800.000	0.112	-0.310
-238.888	-36.899	-0.464	0.247
-237.873	112.842	0.151	0.182
-236.859	551.936	0.021	-0.050
-235.844	-43.349	0.299	0.150
-234.830	-200.000	0.001	0.362
-233.815	-200.000	0.011	0.337
-232.800	-200.000	-0.026	0.220
-231.786	30.520	-0.200	0.169
-230.771	31.131	-0.051	0.044
-229.757	-200.000	0.005	0.120
-228.742	677.236	0.095	-0.244
-227.727	-1.689	-0.099	-0.069
-226.713	-200.000	-0.004	0.081
-225.698	-143.961	-0.632	0.059
-224.684	-43.503	0.506	0.254
-223.669	-133.942	0.319	-0.039
-222.655	604.125	0.075	-0.184
-221.640	-85.151	0.180	0.056
-220.625	2.196	-0.194	0.139
-219.611	26.320	0.170	-0.141
-218.596	0.403	-0.105	0.075
-217.582	-68.406	0.045	-0.017
-216.567	-175.490	0.103	0.003
-215.552	135.160	-0.149	-0.192
-214.538	94.469	-0.135	-0.152
-213.523	-31.042	-0.230	0.129
-212.509	249.331	0.073	-0.123
-211.494	800.000	-0.057	-0.203
-210.479	127.660	-0.117	-0.147
-209.465	78.453	-0.185	0.196
-208.450	267.328	0.173	-0.300
-207.436	745.535	0.024	-0.065
-206.421	-138.408	0.189	-0.021
-205.406	-200.000	0.039	-0.174
-204.392	2.133	0.198	0.142
-203.377	-135.532	-0.024	0.003
-202.363	-200.000	0.036	-0.163
-201.348	-200.000	-0.260	-0.000
-200.333	-129.859	0.133	0.018
-199.319	346.673	0.214	0.417
-198.304	-28.772	-0.240	0.137
-197.290	-130.395	-0.115	0.015
-196.275	-200.000	0.014	0.264
-195.260	-194.842	-0.272	-0.002
-194.246	-9.025	-0.112	-0.075
-193.231	-200.000	0.022	-0.191
-192.217	41.117	0.179	0.161
-191.202	109.775	-0.053	0.063
-190.187	43.532	-0.389	0.353
-189.173	-200.000	0.069	0.346
-188.158	159.479	0.080	0.110
-187.144	155.767	0.105	0.143
-186.129	137.469	0.084	-0.109
-185.114	-200.000	0.435	-0.002
-184.100	-200.000	0.008	-0.062
-183.085	-200.000	0.057	0.313
-182.071	196.973	-0.099	-0.149
-181.056	301.606	0.177	0.324
-180.042	-50.407	0.151	0.071
-179.027	349.687	-0.088	-0.171
-178.012	-200.000	0.004	0.120
-176.998	-73.564	0.121	0.044
-175.983	204.421	0.185	0.284
-174.969	-106.464	0.186	0.041
-173.954	-120.676	-0.220	0.037
-172.939	33.394	-0.257	0.221
-171.925	-200.000	0.013	0.118
-170.910	405.481	0.042	-0.088
-169.896	-100.812	0.256	-0.062
-168.881	-93.348	0.285	0.078
-167.866	-10.132	0.206	0.136
-166.852	64.082	0.210	0.209
-165.837	189.176	-0.209	-0.310
-164.823	51.681	0.012	-0.012
-163.808	-23.771	-0.212	0.126
-162.793	-20.136	0.262	0.160
-161.779	-10.318	-0.154	-0.101
-160.764	84.772	-0.136	0.148
-159.750	108.511	0.281	0.332
-158.735	-84.916	-0.168	-0.052
-157.720	134.540	0.063	-0.081
-156.706	84.583	-0.296	0.320
-155.691	135.253	0.110	0.142
-154.677	-70.903	-0.446	-0.166
-153.662	280.291	-0.051	-0.090
-152.647	-51.979	0.332	-0.153
-151.633	742.664	-0.032	-0.085
-150.618	800.000	0.075	-0.258
-149.604	285.160	-0.138	-0.247
-148.589	-200.000	0.024	0.231
-147.574	-200.000	-0.028	-0.326
-146.560	800.000	0.025	-0.105
-145.545	-36.960	-0.161	0.085
-144.531	-9.033	0.226	0.150
-143.516	52.394	0.211	0.199
-142.502	30.424	-0.188	0.159
-141.487	212.869	0.134	-0.210
-140.472	-200.000	0.028	0.130
-139.458	800.000	0.022	0.085
-138.443	-200.000	0.050	0.543
-137.429	-200.000	0.018	0.201
-136.414	-30.824	-0.296	0.165
-135.399	101.515	0.124	-0.143
-134.385	-141.646	-0.214	0.021
-133.370	800.000	0.088	-0.274
-132.356	-66.703	0.185	0.073
-131.341	-200.000	0.001	0.181
-130.326	-200.000	-0.001	-0.022
-129.312	51.855	-0.230	-0.217
-128.297	-119.302	-0.086	0.015
-127.283	-162.512	0.256	-0.012
-126.268	-200.000	-0.014	0.115
-125.253	166.490	0.145	-0.204
-124.239	107.749	-0.077	-0.090
-123.224	240.219	-0.080	-0.131
-122.210	232.387	-0.103	-0.168
