DTS Sentinel unit serial number:	SN413079Multiplexer serial number:	ORYXHardware model number:	OX4-SRSoftware version number:	ORYX F/W v4.00 Oryx Data Collector v3.7.2.0data status	okinstallation	princeton_trtdifferential loss correction	single-endedforward channel	channel 2reverse channel	N/Adate	2019/09/19time	08:15:34forward acquisition time	60.00reverse acquisition time	0.00gamma	496.2192k internal	0.2352k external	0.2352temperature offset calibration	1.0004default loss term (dB/km)	0.3790temperature slope calibration	1.0000multiplexer offset coefficient	1.0000multiplexer slope coefficient	1.0000fibre end	0.00T internal ref (°C)	20.25T ext. ref 1 (°C)	0.56T ext. ref 2 (°C)	15.90length (m)	temperature (°C)	Stokes	anti-Stokes-747.200	-41.994	0.370	0.189
-746.185	-81.335	-0.234	0.077
-745.171	800.000	-0.060	0.166
-744.156	-200.000	-0.007	0.032
-743.142	92.801	-0.046	0.052
-742.127	-200.000	-0.047	0.222
-741.112	334.636	-0.235	0.454
-740.098	466.985	-0.107	0.239
-739.083	800.000	0.155	0.448
-738.069	-127.498	0.232	0.034
-737.054	301.021	-0.138	0.254
-736.039	203.087	-0.238	-0.367
-735.025	511.259	0.123	0.285
-734.010	734.967	0.094	-0.250
-732.996	-82.348	-0.237	-0.077
-731.981	-200.000	0.017	-0.128
-730.966	-54.231	0.201	0.091
-729.952	-126.279	0.298	-0.044
-728.937	-67.999	-0.288	-0.112
-727.923	-200.000	-0.003	-0.014
-726.908	319.997	0.166	-0.314
-725.894	-200.000	-0.022	0.255
-724.879	-84.565	0.342	0.107
-723.864	-91.087	-0.495	-0.142
-722.850	-178.470	0.449	0.010
-721.835	12.912	-0.328	0.252
-720.821	-52.559	-0.279	-0.128
-719.806	737.401	0.054	0.144
-718.791	800.000	0.063	0.268
-717.777	-89.999	-0.086	0.025
-716.762	-54.481	0.197	-0.089
-715.748	258.778	0.165	0.284
-714.733	334.633	0.038	-0.074
-713.718	6.933	-0.211	-0.156
-712.704	-5.619	-0.056	-0.038
-711.689	-0.416	0.065	-0.046
-710.675	409.833	0.155	0.328
-709.660	-14.691	0.046	0.029
-708.645	159.752	-0.194	0.269
-707.631	-66.662	-0.331	-0.131
-706.616	-200.000	0.019	-0.197
-705.602	253.505	-0.130	-0.222
-704.587	800.000	-0.041	0.162
-703.572	-181.122	-0.138	0.003
-702.558	154.215	0.223	0.305
-701.543	179.009	0.045	-0.065
-700.529	800.000	-0.035	-0.144
-699.514	800.000	0.050	0.163
-698.499	-130.301	-0.385	-0.052
-697.485	-119.134	-0.187	-0.033
-696.470	-59.280	0.164	-0.070
-695.456	165.386	0.039	0.055
-694.441	-200.000	-0.004	-0.060
-693.426	90.710	-0.122	0.136
-692.412	-146.591	0.235	-0.020
-691.397	-1.846	-0.109	0.076
-690.383	-16.824	0.318	-0.200
-689.368	800.000	0.087	-0.240
-688.354	-30.474	-0.223	-0.126
-687.339	19.411	0.203	-0.163
-686.324	574.392	-0.054	-0.131
-685.310	13.277	0.238	-0.184
-684.295	-47.533	-0.214	0.103
-683.281	-28.411	-0.213	0.122
-682.266	-34.645	-0.057	0.031
-681.251	-200.000	-0.001	0.024
-680.237	-12.309	-0.240	0.156
-679.222	-178.072	-0.104	0.002
-678.208	800.000	-0.054	0.170
-677.193	-69.157	0.283	0.108
-676.178	-42.543	0.140	0.071
-675.164	44.874	-0.283	-0.259
-674.149	193.667	0.080	-0.120
-673.135	-56.935	0.207	0.091
-672.120	-164.271	-0.087	0.004
-671.105	13.718	0.252	0.195
-670.091	101.920	-0.242	0.281
-669.076	-86.818	-0.150	-0.045
-668.062	-90.003	0.100	0.029
-667.047	-123.182	-0.367	-0.059
-666.032	129.451	-0.100	0.127
-665.018	264.113	-0.063	0.109
-664.003	-64.987	0.415	-0.167
-662.989	-81.224	-0.101	-0.033
-661.974	450.084	-0.147	0.322
-660.959	-200.000	-0.025	-0.227
-659.945	-68.441	-0.455	-0.175
-658.930	-143.876	0.053	-0.005
-657.916	232.357	-0.053	-0.087
-656.901	-32.002	0.137	0.076
-655.886	-200.000	-0.017	0.151
-654.872	-43.631	-0.139	0.070
-653.857	17.830	-0.257	0.203
-652.843	-17.274	-0.333	-0.209
-651.828	-47.076	-0.264	-0.128
-650.814	21.470	0.180	0.145
-649.799	-164.481	-0.105	-0.005
-648.784	-44.348	-0.219	-0.109
-647.770	539.914	-0.091	0.215
-646.755	-200.000	-0.003	-0.179
-645.741	-123.940	-0.245	-0.038
-644.726	29.952	0.326	-0.276
-643.711	261.623	-0.175	-0.302
-642.697	34.685	-0.259	-0.225
-641.682	719.822	-0.072	-0.190
-640.668	-46.760	-0.063	0.031
-639.653	-200.000	-0.022	-0.300
-638.638	800.000	0.038	-0.140
-637.624	72.862	-0.160	0.166
-636.609	-100.591	0.089	0.022
-635.595	-200.000	-0.030	0.293
-634.580	289.099	0.057	0.103
-633.565	-32.175	-0.178	-0.099
-632.551	248.396	0.150	-0.252
-631.536	-18.503	0.179	0.111
-630.522	-200.000	0.015	-0.102
-629.507	-73.958	-0.177	-0.064
-628.492	-125.741	0.207	0.031
-627.478	314.945	-0.072	-0.135
-626.463	-200.000	0.078	-0.390
-625.449	237.531	-0.039	-0.065
-624.434	800.000	-0.065	0.280
-623.419	-200.000	-0.071	0.310
-622.405	-66.423	-0.530	0.209
-621.390	568.941	0.148	0.357
-620.376	-112.913	0.160	0.032
-619.361	800.000	-0.086	-0.372
-618.346	-46.510	0.143	-0.070
-617.332	0.063	0.286	0.202
-616.317	-10.595	0.136	0.090
-615.303	-73.916	0.228	-0.082
-614.288	-200.000	0.038	-0.260
-613.273	51.444	-0.230	-0.216
-612.259	-112.927	0.181	-0.036
-611.244	-200.000	-0.072	0.329
-610.230	396.055	0.146	0.303
-609.215	800.000	-0.044	-0.160
-608.201	762.192	-0.017	0.045
-607.186	-200.000	-0.023	0.203
-606.171	-33.228	0.276	-0.151
-605.157	-39.387	-0.220	-0.115
-604.142	-129.500	0.088	-0.012
-603.128	-200.000	-0.029	0.137
-602.113	67.535	-0.032	0.032
-601.098	-60.975	0.341	-0.143
-600.084	800.000	0.034	-0.128
-599.069	229.687	-0.085	-0.137
-598.055	164.792	0.047	0.066
-597.040	800.000	-0.101	0.280
-596.025	37.786	-0.117	-0.103
-595.011	-20.869	-0.332	-0.202
-593.996	-102.947	-0.146	-0.034
-592.982	17.982	0.129	-0.102
-591.967	800.000	-0.118	-0.336
-590.952	-200.000	-0.042	-0.280
-589.938	-45.405	0.134	-0.066
-588.923	110.279	-0.023	-0.027
-587.909	67.752	-0.122	0.123
-586.894	-158.605	-0.296	0.017
-585.879	324.578	0.111	0.211
-584.865	-200.000	-0.014	0.182
-583.850	-200.000	0.028	0.203
-582.836	140.216	-0.250	-0.327
-581.821	129.226	0.161	-0.204
-580.806	-35.201	0.390	0.210
-579.792	80.428	0.040	-0.043
-578.777	-37.497	0.212	0.112
-577.763	130.856	0.171	-0.217
-576.748	399.193	-0.109	0.225
-575.733	0.114	-0.099	0.070
-574.719	719.642	-0.020	0.052
-573.704	-200.000	-0.077	-0.576
-572.690	-200.000	-0.031	-0.139
-571.675	-34.609	0.105	0.057
-570.661	-23.900	-0.101	-0.060
-569.646	-120.022	0.183	0.031
-568.631	-25.093	-0.345	0.202
-567.617	-94.095	-0.208	0.057
-566.602	-200.000	-0.031	0.144
-565.588	800.000	0.226	-0.656
-564.573	34.425	0.306	0.264
-563.558	-62.093	-0.328	-0.136
-562.544	-86.885	0.118	-0.036
-561.529	202.570	-0.128	-0.195
-560.515	-70.525	-0.087	0.033
-559.500	118.822	0.163	-0.199
-558.485	31.345	-0.164	-0.140
-557.471	-200.000	-0.090	0.431
-556.456	-63.600	0.272	-0.111
-555.442	-147.915	-0.146	-0.012
-554.427	188.802	0.215	-0.318
-553.412	-25.858	-0.339	-0.198
-552.398	-200.000	-0.040	-0.211
-551.383	-200.000	0.005	-0.112
-550.369	-161.681	-0.161	0.008
-549.354	-200.000	0.014	0.238
-548.339	-30.120	-0.374	-0.211
-547.325	-154.555	-0.089	-0.006
-546.310	154.263	-0.165	0.224
-545.296	766.247	0.109	0.294
-544.281	-27.125	0.147	0.085
-543.266	800.000	0.191	-0.542
-542.252	800.000	0.047	-0.131
-541.237	25.541	0.142	0.117
-540.223	-72.939	0.314	-0.114
-539.208	33.947	-0.225	0.194
-538.193	608.526	0.066	-0.163
-537.179	140.450	-0.104	0.135
-536.164	-155.061	0.249	-0.016
-535.150	217.453	-0.065	-0.102
-534.135	-153.799	0.291	-0.020
-533.121	-140.323	-0.154	-0.016
-532.106	-200.000	0.000	0.177
-531.091	634.020	-0.097	-0.242
-530.077	-63.707	-0.299	-0.121
-529.062	-68.022	-0.373	0.144
-528.048	-26.689	0.158	-0.092
-527.033	-22.533	0.106	-0.064
-526.018	123.786	-0.115	-0.143
-525.004	-80.907	-0.585	0.192
-523.989	-200.000	0.042	0.218
-522.975	458.988	0.110	0.242
-521.960	800.000	-0.048	0.191
-520.945	-38.200	0.196	0.103
-519.931	195.008	-0.109	0.164
-518.916	800.000	-0.120	0.375
-517.902	800.000	0.097	-0.264
-516.887	321.989	-0.161	-0.304
-515.872	-44.269	-0.276	-0.137
-514.858	83.415	-0.121	0.130
-513.843	-16.642	0.440	0.276
-512.829	480.268	-0.115	-0.258
-511.814	106.148	0.127	-0.149
-510.799	-200.000	-0.044	-0.308
-509.785	-200.000	-0.070	0.358
-508.770	259.982	-0.084	-0.143
-507.756	179.819	0.209	-0.303
-506.741	190.091	0.052	0.077
-505.726	-75.603	0.108	-0.038
-504.712	-132.037	0.133	0.017
-503.697	-29.346	0.236	0.134
-502.683	74.334	-0.175	0.181
-501.668	-200.000	-0.006	0.210
-500.653	39.950	0.263	0.233
-499.639	-91.303	-0.413	0.117
-498.624	-200.000	0.001	-0.026
-497.610	217.160	-0.075	0.118
-496.595	-4.821	-0.249	0.169
-495.581	-22.985	-0.132	-0.078
-494.566	243.754	-0.073	-0.121
-493.551	43.609	-0.011	-0.009
-492.537	-162.771	-0.201	0.010
-491.522	13.348	-0.032	-0.025
-490.508	-118.849	-0.111	-0.019
-489.493	159.213	0.173	0.238
-488.478	-89.893	-0.273	-0.079
-487.464	-34.100	-0.229	-0.124
-486.449	21.184	-0.262	-0.210
-485.435	579.986	-0.049	0.119
-484.420	-130.679	0.152	-0.020
-483.405	800.000	-0.062	-0.261
-482.391	-102.706	-0.269	0.063
-481.376	65.511	-0.162	-0.162
-480.362	-31.737	-0.094	-0.052
-479.347	-140.437	-0.485	-0.050
-478.332	-180.344	-0.148	-0.003
-477.318	-43.403	0.125	-0.063
-476.303	12.159	-0.207	-0.158
-475.289	-61.639	0.066	-0.027
-474.274	-183.027	0.215	0.004
-473.259	-200.000	0.029	0.297
-472.245	800.000	-0.140	0.471
-471.230	-200.000	-0.050	-0.368
-470.216	213.722	-0.138	0.215
-469.201	-14.863	-0.194	0.123
-468.186	-84.520	-0.307	0.096
-467.172	-200.000	-0.082	0.397
-466.157	-129.864	-0.189	0.026
-465.143	-112.585	0.107	0.021
-464.128	711.373	0.041	0.108
-463.113	69.347	-0.130	-0.132
-462.099	12.844	0.322	0.246
-461.084	-79.738	-0.124	-0.041
-460.070	800.000	0.066	0.214
-459.055	-104.989	0.396	0.089
-458.040	-17.662	0.093	-0.058
-457.026	-37.100	-0.201	0.106
-456.011	521.886	-0.085	0.196
-454.997	-143.259	-0.077	0.007
-453.982	800.000	-0.080	-0.308
-452.968	120.374	-0.203	0.249
-451.953	493.330	-0.110	0.248
-450.938	-60.507	0.091	-0.038
-449.924	-95.812	-0.220	-0.058
-448.909	167.700	-0.207	-0.290
-447.895	-137.526	-0.075	0.008
-446.880	521.295	0.077	0.178
-445.865	-41.475	0.029	0.014
-444.851	-200.000	-0.045	0.301
-443.836	78.918	0.127	0.134
-442.822	144.282	-0.157	0.207
-441.807	-66.210	0.300	-0.118
-440.792	187.199	-0.150	0.221
-439.778	-102.652	-0.137	0.032
-438.763	319.280	-0.109	0.204
-437.749	-73.368	0.234	0.084
-436.734	272.160	-0.066	0.115
-435.719	-200.000	-0.027	-0.447
-434.705	-150.002	0.126	-0.010
-433.690	91.507	0.129	0.143
-432.676	235.310	-0.143	0.233
-431.661	-103.835	-0.201	0.046
-430.646	-200.000	0.047	0.306
-429.632	49.305	0.153	-0.141
-428.617	-12.661	0.147	-0.094
-427.603	106.647	-0.136	0.159
-426.588	-160.843	0.011	0.001
-425.573	-139.420	0.121	-0.013
-424.559	122.442	0.111	0.137
-423.544	-151.757	0.148	-0.011
-422.530	29.796	-0.167	-0.140
-421.515	-152.884	0.225	0.016
-420.500	-105.088	-0.269	-0.061
-419.486	85.706	-0.098	0.107
-418.471	10.779	0.095	-0.071
-417.457	173.619	0.096	-0.137
-416.442	392.873	-0.140	0.286
-415.428	-140.532	-0.317	-0.032
-414.413	-125.113	0.268	0.040
-413.398	45.575	0.277	0.252
-412.384	-200.000	-0.001	-0.106
-411.369	164.338	-0.080	0.111
-410.355	293.016	-0.031	-0.056
-409.340	800.000	0.010	0.034
-408.325	-200.000	0.031	-0.164
-407.311	462.764	0.025	-0.054
-406.296	-82.676	-0.225	-0.072
-405.282	27.389	0.233	0.193
-404.267	-1.478	0.254	-0.176
-403.252	132.884	-0.234	-0.297
-402.238	359.418	0.056	-0.110
-401.223	97.074	-0.123	-0.139
-400.209	477.569	0.151	0.337
-399.194	-106.981	-0.319	-0.069
-398.179	-151.129	-0.263	0.019
-397.165	-7.567	-0.166	0.110
-396.150	-159.375	0.216	-0.012
-395.136	800.000	0.007	-0.022
-394.121	-121.183	-0.234	-0.039
-393.106	129.622	-0.193	-0.243
-392.092	-95.018	0.236	-0.063
-391.077	-200.000	-0.002	0.037
-390.063	-121.387	-0.181	-0.030
-389.048	85.276	0.042	-0.045
-388.033	155.716	-0.156	0.212
-387.019	-200.000	0.079	0.348
-386.004	74.689	0.149	0.154
-384.990	-70.794	0.259	0.096
-383.975	39.544	0.299	0.264
-382.960	-10.285	-0.287	0.187
-381.946	213.095	-0.024	-0.038
-380.931	-200.000	0.019	-0.260
-379.917	-92.388	0.118	-0.033
-378.902	683.597	0.046	0.117
-377.888	281.444	0.049	0.086
-376.873	407.437	-0.071	-0.147
-375.858	-23.301	0.185	0.110
-374.844	27.958	0.323	-0.268
-373.829	-200.000	0.075	-0.332
-372.815	41.254	0.150	0.133
-371.800	-200.000	-0.061	0.362
-370.785	-200.000	0.028	0.247
-369.771	120.390	-0.020	0.024
-368.756	800.000	0.066	0.182
-367.742	169.369	0.078	0.109
-366.727	-186.160	0.191	0.003
-365.712	110.932	0.151	0.178
-364.698	-97.052	-0.238	-0.061
-363.683	35.521	-0.163	0.141
-362.669	-132.421	0.188	0.024
-361.654	211.206	0.078	0.120
-360.639	136.133	0.036	-0.046
-359.625	84.997	-0.154	0.166
-358.610	76.569	0.218	0.228
-357.596	15.413	-0.205	0.158
-356.581	54.096	0.085	-0.081
-355.566	112.712	-0.170	-0.202
-354.552	-74.883	-0.080	0.028
-353.537	199.990	-0.078	0.118
-352.523	-150.542	0.352	0.026
-351.508	-80.014	0.198	-0.065
-350.493	-56.912	-0.275	0.119
-349.479	104.439	-0.015	0.018
-348.464	-200.000	0.038	-0.317
-347.450	28.579	-0.095	0.079
-346.435	0.108	0.152	0.106
-345.420	-110.118	0.192	0.039
-344.406	-200.000	0.019	-0.085
-343.391	-182.491	0.271	-0.005
-342.377	-60.649	0.195	-0.081
-341.362	76.187	0.536	-0.557
-340.348	492.084	0.116	0.261
-339.333	19.923	-0.060	0.047
-338.318	-168.966	0.289	-0.011
-337.304	629.529	0.114	-0.282
-336.289	-121.432	-0.378	-0.062
-335.275	-91.576	0.142	0.040
-334.260	-160.341	0.173	-0.009
-333.245	15.676	0.077	0.059
-332.231	-154.789	-0.223	0.014
-331.216	-82.390	0.228	0.073
-330.202	-200.000	-0.027	0.251
-329.187	800.000	0.008	0.025
-328.172	52.352	0.092	-0.086
-327.158	-65.508	-0.238	0.094
-326.143	33.307	0.356	0.303
-325.129	18.515	0.331	0.260
-324.114	61.569	0.327	-0.320
-323.099	201.800	0.066	-0.100
-322.085	-79.427	-0.135	0.045
-321.070	-200.000	-0.005	0.277
-320.056	47.870	-0.163	0.149
-319.041	800.000	-0.071	-0.198
-318.026	-20.229	-0.115	0.070
-317.012	-173.225	-0.060	-0.002
-315.997	-160.515	-0.052	0.003
-314.983	-200.000	0.085	0.448
-313.968	37.013	0.421	-0.365
-312.953	142.424	-0.148	-0.193
-311.939	-200.000	-0.016	0.236
-310.924	-200.000	0.005	0.334
-309.910	727.062	-0.088	-0.231
-308.895	-200.000	0.002	0.339
-307.880	-77.403	-0.150	0.051
-306.866	-200.000	-0.045	-0.255
-305.851	49.985	-0.113	-0.105
-304.837	50.913	0.169	-0.157
-303.822	-81.797	-0.221	0.071
-302.807	800.000	-0.129	-0.455
-301.793	-200.000	-0.010	-0.301
-300.778	-43.027	0.206	-0.103
-299.764	31.541	0.135	0.114
-298.749	105.941	-0.117	-0.136
-297.735	510.456	0.067	0.154
-296.720	136.684	-0.312	-0.399
-295.705	63.169	0.162	0.159
-294.691	-200.000	0.014	-0.316
-293.676	-55.571	-0.165	-0.072
-292.662	-85.178	-0.037	0.011
-291.647	-200.000	0.023	-0.100
-290.632	284.466	-0.039	-0.069
-289.618	214.173	0.104	0.162
-288.603	-200.000	0.013	-0.412
-287.589	47.012	0.130	-0.118
-286.574	44.004	0.073	-0.065
-285.559	397.645	-0.009	0.019
-284.545	-200.000	0.032	0.269
-283.530	-134.176	-0.170	-0.021
-282.516	-185.378	-0.129	-0.002
-281.501	-143.249	-0.286	0.027
-280.486	158.764	0.195	-0.266
-279.472	47.603	-0.199	0.182
-278.457	800.000	0.075	-0.277
-277.443	-200.000	0.045	0.203
-276.428	-105.841	-0.445	0.098
-275.413	800.000	-0.080	-0.241
-274.399	-11.031	-0.095	-0.062
-273.384	-22.054	0.198	0.118
-272.370	-122.219	-0.210	0.034
-271.355	-200.000	0.025	0.296
-270.340	800.000	0.022	-0.064
-269.326	-27.680	-0.062	-0.035
-268.311	-103.143	0.220	-0.051
-267.297	-200.000	0.016	0.161
-266.282	257.346	0.215	-0.362
-265.267	-200.000	0.033	-0.226
-264.253	-158.181	0.298	-0.017
-263.238	432.700	-0.071	-0.151
-262.224	-18.141	0.237	-0.145
-261.209	59.765	-0.071	0.068
-260.195	800.000	0.078	-0.236
-259.180	121.686	0.169	0.207
-258.165	-200.000	0.019	-0.448
-257.151	52.308	-0.185	0.173
-256.136	321.942	0.086	-0.161
-255.122	-100.711	-0.324	-0.078
-254.107	219.922	-0.210	-0.328
-253.092	436.534	0.113	-0.240
-252.078	143.605	0.046	-0.061
-251.063	-179.558	-0.372	0.008
-250.049	-200.000	-0.040	0.211
-249.034	-50.494	0.338	-0.156
-248.019	800.000	-0.019	0.053
-247.005	800.000	-0.025	-0.074
-245.990	-85.842	-0.393	0.119
-244.976	277.516	0.256	0.445
-243.961	421.898	0.128	0.268
-242.946	356.498	0.118	-0.230
-241.932	-127.861	-0.068	-0.010
-240.917	800.000	-0.047	-0.197
-239.903	-200.000	-0.019	-0.358
-238.888	-152.187	-0.284	0.020
-237.873	86.636	-0.125	0.134
-236.859	-53.694	0.217	-0.097
-235.844	-186.029	-0.155	-0.002
-234.830	-200.000	-0.017	0.111
-233.815	800.000	-0.079	-0.273
-232.800	-200.000	0.000	-0.273
-231.786	800.000	0.081	-0.251
-230.771	-73.563	0.202	-0.072
-229.757	133.441	-0.076	0.096
-228.742	-29.252	-0.172	-0.096
-227.727	122.731	-0.052	-0.064
-226.713	110.515	-0.099	0.116
-225.698	800.000	-0.074	0.234
-224.684	130.570	0.107	-0.134
-223.669	-117.989	0.347	-0.061
-222.655	-117.898	0.193	-0.034
-221.640	-200.000	-0.016	0.350
-220.625	-200.000	-0.001	-0.135
-219.611	247.892	-0.128	0.212
-218.596	25.391	-0.164	0.133
-217.582	160.354	0.175	-0.238
-216.567	-155.032	0.015	-0.001
-215.552	-41.540	-0.251	0.126
-214.538	-200.000	-0.014	0.111
-213.523	169.004	0.084	0.118
-212.509	-200.000	-0.026	-0.166
-211.494	25.145	0.062	-0.050
-210.479	-200.000	0.003	-0.109
-209.465	-200.000	0.027	-0.203
-208.450	312.151	0.143	-0.262
-207.436	-50.303	-0.263	0.121
-206.421	-55.353	0.183	0.080
-205.406	192.727	0.119	0.175
-204.392	-43.337	0.302	0.149
-203.377	800.000	0.085	0.284
-202.363	-100.685	-0.116	0.028
-201.348	-94.168	0.449	0.120
-200.333	279.416	-0.067	0.118
-199.319	60.671	0.028	0.027
-198.304	-45.159	0.197	-0.096
-197.290	258.623	-0.024	-0.041
-196.275	800.000	0.071	-0.194
-195.260	29.693	0.164	-0.136
-194.246	-123.671	0.137	-0.021
-193.231	288.261	0.166	-0.294
-192.217	-169.796	-0.289	0.010
-191.202	-200.000	-0.022	0.230
-190.187	301.776	-0.202	0.364
-189.173	-200.000	-0.023	-0.191
-188.158	-113.975	-0.211	0.040
-187.144	800.000	-0.042	0.124
-186.129	767.262	0.032	-0.085
-185.114	15.953	0.209	0.161
-184.100	-76.337	0.229	0.079
-183.085	591.034	-0.252	-0.607
-182.071	-200.000	-0.029	0.131
-181.056	-106.945	0.282	-0.061
-180.042	169.221	0.120	0.166
-179.027	800.000	-0.082	-0.346
-178.012	-111.721	0.248	-0.049
-176.998	-85.572	-0.176	0.054
-175.983	-36.691	0.356	-0.186
-174.969	-57.381	0.312	-0.134
-173.954	174.632	0.065	0.091
-172.939	235.905	0.129	0.207
-171.925	-200.000	-0.025	0.113
-170.910	-4.450	0.125	0.084
-169.896	667.221	-0.090	-0.226
-168.881	800.000	-0.111	0.327
-167.866	-25.083	-0.265	0.153
-166.852	800.000	-0.042	0.175
-165.837	-90.749	0.440	-0.124
-164.823	621.402	0.127	-0.312
-163.808	-88.399	0.167	0.049
-162.793	-200.000	0.012	0.279
-161.779	231.092	0.280	0.448
-160.764	-123.684	0.358	0.055
-159.750	569.818	-0.111	0.264
-158.735	-93.187	-0.312	0.085
-157.720	485.634	0.079	0.175
-156.706	6.460	0.068	0.049
-155.691	434.470	-0.079	-0.168
-154.677	-142.650	0.235	0.022
-153.662	-30.919	0.195	0.107
-152.647	231.074	-0.109	-0.174
-151.633	-45.268	-0.187	0.091
-150.618	-200.000	-0.026	0.302
-149.604	259.366	-0.049	0.083
-148.589	161.536	-0.032	-0.044
-147.574	800.000	0.059	-0.167
-146.560	-200.000	-0.030	0.150
-145.545	-64.138	0.239	0.095
-144.531	-139.865	0.286	0.030
-143.516	543.862	-0.067	0.156
-142.502	205.794	-0.098	0.148
-141.487	-88.613	-0.409	-0.119
-140.472	800.000	0.020	-0.057
-139.458	228.889	0.105	-0.167
-138.443	-200.000	-0.078	0.526
-137.429	346.547	0.166	-0.318
-136.414	-8.437	-0.271	-0.177
-135.399	-89.927	0.031	0.009
-134.385	191.523	0.117	0.171
-133.370	303.335	-0.076	-0.138
-132.356	90.963	0.105	0.114
-131.341	800.000	-0.056	-0.233
-130.326	676.568	-0.043	0.109
-129.312	225.763	0.164	0.259
-128.297	-46.529	0.212	0.101
-127.283	-49.655	0.035	-0.016
-126.268	800.000	0.085	0.276
-125.253	800.000	-0.046	-0.124
-124.239	800.000	-0.133	0.373
-123.224	130.659	-0.207	0.258
-122.210	-200.000	0.012	-0.219
