DTS Sentinel unit serial number:	SN413079Multiplexer serial number:	ORYXHardware model number:	OX4-SRSoftware version number:	ORYX F/W v4.00 Oryx Data Collector v3.7.2.0data status	okinstallation	princeton_trtdifferential loss correction	single-endedforward channel	channel 2reverse channel	N/Adate	2019/09/11time	01:17:10forward acquisition time	60.00reverse acquisition time	0.00gamma	496.2192k internal	0.2332k external	0.2332temperature offset calibration	0.9943default loss term (dB/km)	0.3790temperature slope calibration	1.0000multiplexer offset coefficient	1.0000multiplexer slope coefficient	1.0000fibre end	0.00T internal ref (°C)	29.12T ext. ref 1 (°C)	-0.30T ext. ref 2 (°C)	23.15length (m)	temperature (°C)	Stokes	anti-Stokes-747.200	-31.812	-0.112	0.063
-746.185	87.315	0.118	0.131
-745.171	-129.040	-0.282	-0.040
-744.156	252.767	0.142	-0.244
-743.142	573.634	-0.039	-0.096
-742.127	-70.828	0.195	0.074
-741.112	800.000	-0.047	-0.148
-740.098	-200.000	0.021	0.214
-739.083	464.901	0.064	0.145
-738.069	323.592	0.145	0.278
-737.054	-140.285	-0.074	0.008
-736.039	800.000	0.018	0.054
-735.025	-54.948	0.109	-0.049
-734.010	800.000	-0.114	-0.330
-732.996	-200.000	0.039	-0.183
-731.981	132.232	-0.050	0.064
-730.966	-200.000	-0.004	-0.076
-729.952	-54.230	0.127	-0.058
-728.937	-118.750	-0.089	-0.016
-727.923	159.732	-0.244	-0.341
-726.908	-120.256	-0.112	0.019
-725.894	-200.000	0.044	0.251
-724.879	588.578	0.097	-0.240
-723.864	131.153	-0.160	-0.206
-722.850	-200.000	-0.016	-0.117
-721.835	-56.438	-0.165	0.074
-720.821	122.511	-0.163	0.205
-719.806	230.535	-0.055	0.090
-718.791	-79.540	-0.166	-0.056
-717.777	-169.290	-0.220	-0.008
-716.762	601.660	0.023	-0.058
-715.748	-61.425	0.201	-0.085
-714.733	122.613	0.038	-0.047
-713.718	33.794	-0.101	-0.088
-712.704	-128.547	-0.270	-0.038
-711.689	-68.980	-0.190	0.074
-710.675	-64.175	-0.221	-0.091
-709.660	-108.901	0.129	-0.028
-708.645	800.000	0.061	-0.217
-707.631	110.785	-0.124	-0.150
-706.616	255.917	-0.120	0.206
-705.602	212.435	0.266	0.421
-704.587	-132.075	0.303	0.040
-703.572	361.632	-0.220	-0.444
-702.558	-31.066	0.072	0.041
-701.543	9.886	-0.183	0.140
-700.529	-91.910	-0.250	0.071
-699.514	-51.124	0.110	0.052
-698.499	393.070	-0.028	0.059
-697.485	132.081	-0.144	-0.187
-696.470	-29.326	0.278	0.160
-695.456	-165.619	-0.347	0.015
-694.441	-147.495	-0.224	0.019
-693.426	-200.000	-0.035	-0.336
-692.412	-5.028	-0.150	0.104
-691.397	800.000	-0.082	-0.245
-690.383	-72.737	-0.042	-0.016
-689.368	-134.043	0.401	-0.050
-688.354	-61.832	-0.343	0.144
-687.339	232.401	-0.236	0.389
-686.324	800.000	0.039	0.121
-685.310	127.432	0.125	0.159
-684.295	-5.636	0.048	-0.033
-683.281	-186.446	-0.030	0.000
-682.266	-158.541	-0.322	-0.019
-681.251	123.675	0.224	-0.282
-680.237	54.826	0.168	0.162
-679.222	-96.851	0.135	-0.036
-678.208	-200.000	0.026	0.226
-677.193	74.135	0.305	0.322
-676.178	-123.726	-0.227	-0.036
-675.164	-150.404	-0.219	-0.017
-674.149	-75.988	-0.234	0.083
-673.135	-17.578	0.138	0.087
-672.120	90.557	0.165	-0.185
-671.105	287.669	-0.072	-0.131
-670.091	-106.835	0.192	-0.043
-669.076	-46.705	0.248	0.122
-668.062	-50.832	-0.147	-0.070
-667.047	800.000	-0.044	-0.179
-666.032	432.483	-0.062	0.135
-665.018	-107.443	0.330	0.073
-664.003	-2.070	0.072	0.050
-662.989	-200.000	0.001	-0.176
-661.974	-126.878	-0.053	0.008
-660.959	-59.829	0.146	0.063
-659.945	-187.503	-0.268	0.004
-658.930	800.000	-0.045	0.153
-657.916	800.000	-0.031	-0.105
-656.901	-15.930	0.102	0.065
-655.886	398.394	0.053	-0.111
-654.872	-10.145	-0.012	-0.008
-653.857	-173.340	-0.079	0.002
-652.843	-29.938	-0.184	-0.105
-651.828	-200.000	0.009	-0.226
-650.814	142.596	-0.113	-0.151
-649.799	-103.873	0.295	0.069
-648.784	158.645	-0.160	0.223
-647.770	109.425	0.061	-0.073
-646.755	437.647	0.224	0.489
-645.741	-152.884	-0.177	-0.013
-644.726	-200.000	0.003	-0.026
-643.711	160.654	-0.173	-0.242
-642.697	800.000	0.074	-0.273
-641.682	-200.000	0.009	0.106
-640.668	125.356	-0.047	-0.060
-639.653	-200.000	0.012	0.084
-638.638	-163.563	-0.191	0.009
-637.624	33.535	-0.061	-0.053
-636.609	-131.758	-0.165	-0.022
-635.595	-200.000	-0.015	0.343
-634.580	-117.455	-0.234	0.042
-633.565	-200.000	-0.060	-0.282
-632.551	208.016	-0.087	-0.136
-631.536	-117.401	0.320	-0.058
-630.522	-28.146	-0.200	-0.116
-629.507	-80.437	0.144	-0.048
-628.492	57.316	-0.294	-0.288
-627.478	-122.420	-0.148	-0.024
-626.463	195.977	0.052	-0.079
-625.449	-46.783	-0.218	-0.107
-624.434	-140.397	-0.392	-0.041
-623.419	279.015	0.106	-0.189
-622.405	64.968	0.172	-0.174
-621.390	16.774	-0.066	0.052
-620.376	166.395	-0.119	0.169
-619.361	537.152	-0.149	-0.355
-618.346	-200.000	0.018	0.100
-617.332	176.715	0.121	0.175
-616.317	113.985	0.084	0.103
-615.303	75.335	-0.024	0.026
-614.288	-21.481	-0.373	-0.228
-613.273	-45.386	-0.485	0.241
-612.259	343.028	0.146	-0.285
-611.244	-200.000	0.061	0.314
-610.230	-15.740	-0.178	0.114
-609.215	302.054	-0.096	-0.177
-608.201	-200.000	0.046	-0.239
-607.186	-97.456	0.218	0.057
-606.171	189.541	0.124	0.187
-605.157	-50.929	0.352	0.165
-604.142	250.842	0.123	-0.209
-603.128	-157.919	-0.041	0.002
-602.113	-12.454	0.122	0.079
-601.098	-3.431	-0.261	0.182
-600.084	-200.000	-0.007	0.338
-599.069	-200.000	0.013	0.157
-598.055	-78.525	-0.071	0.024
-597.040	59.095	-0.125	-0.123
-596.025	76.942	-0.132	0.140
-595.011	-200.000	0.485	0.002
-593.996	-23.197	-0.135	0.081
-592.982	-116.284	-0.186	-0.034
-591.967	-52.609	0.315	0.146
-590.952	-140.018	-0.274	-0.029
-589.938	26.586	0.188	0.158
-588.923	11.088	-0.081	0.062
-587.909	213.758	-0.117	0.184
-586.894	-95.720	0.121	-0.032
-585.879	-200.000	0.006	-0.330
-584.865	64.784	-0.317	-0.319
-583.850	800.000	-0.016	0.051
-582.836	800.000	0.101	0.364
-581.821	249.735	-0.112	-0.190
-580.806	-92.101	0.057	0.016
-579.792	31.351	0.120	-0.103
-578.777	-73.716	0.231	-0.084
-577.763	-119.923	-0.120	0.021
-576.748	-200.000	-0.020	0.238
-575.733	542.127	-0.068	0.162
-574.719	91.704	0.173	0.194
-573.704	335.687	-0.266	-0.516
-572.690	374.215	0.214	0.435
-571.675	1.497	0.399	-0.287
-570.661	484.725	-0.105	-0.238
-569.646	-127.236	0.204	0.030
-568.631	-1.482	-0.024	-0.017
-567.617	47.913	-0.197	-0.184
-566.602	-200.000	-0.001	0.325
-565.588	-36.289	0.105	0.056
-564.573	800.000	-0.076	0.278
-563.558	363.980	0.061	-0.123
-562.544	-17.454	-0.302	-0.189
-561.529	-168.240	-0.138	0.005
-560.515	125.355	-0.214	-0.270
-559.500	112.870	-0.092	0.111
-558.485	-70.015	-0.335	0.127
-557.471	246.007	0.199	0.335
-556.456	-200.000	0.008	-0.102
-555.442	-200.000	0.023	-0.213
-554.427	-200.000	-0.008	-0.164
-553.412	-133.527	-0.283	0.035
-552.398	-200.000	0.009	-0.102
-551.383	53.697	0.041	0.039
-550.369	-9.499	0.122	-0.081
-549.354	800.000	0.041	0.142
-548.339	-90.014	0.130	0.038
-547.325	-200.000	-0.031	0.155
-546.310	-81.896	-0.093	-0.031
-545.296	709.534	0.066	0.175
-544.281	-55.724	0.075	-0.033
-543.266	800.000	-0.046	0.155
-542.252	-200.000	-0.001	0.107
-541.237	37.559	0.033	0.029
-540.223	287.848	-0.034	0.061
-539.208	160.357	0.074	0.103
-538.193	-200.000	-0.094	0.470
-537.179	800.000	-0.071	0.305
-536.164	5.234	-0.019	0.014
-535.150	105.036	0.127	0.149
-534.135	-10.709	0.135	-0.089
-533.121	-86.921	0.245	0.075
-532.106	-145.268	-0.281	0.025
-531.091	5.957	0.139	-0.103
-530.077	-95.013	-0.357	-0.096
-529.062	-53.073	-0.155	-0.071
-528.048	69.883	0.283	-0.291
-527.033	60.266	-0.287	0.283
-526.018	108.523	-0.080	-0.095
-525.004	32.823	0.055	0.047
-523.989	86.143	-0.217	-0.238
-522.975	-73.792	0.307	-0.111
-521.960	-200.000	-0.023	0.126
-520.945	-200.000	0.009	-0.102
-519.931	-200.000	-0.015	-0.130
-518.916	-38.625	0.077	0.040
-517.902	164.574	-0.065	-0.091
-516.887	-71.316	-0.271	0.101
-515.872	-63.655	-0.166	-0.068
-514.858	86.346	0.064	-0.071
-513.843	-94.544	0.360	-0.098
-512.829	-19.308	0.089	-0.055
-511.814	-55.655	-0.221	-0.098
-510.799	-200.000	0.041	0.234
-509.785	-200.000	0.016	-0.242
-508.770	-200.000	-0.001	-0.080
-507.756	95.815	0.274	0.312
-506.741	112.562	0.090	0.108
-505.726	-200.000	-0.026	0.215
-504.712	160.056	-0.248	0.344
-503.697	-19.371	-0.483	-0.298
-502.683	-125.271	0.124	-0.019
-501.668	-112.208	0.149	0.030
-500.653	23.666	0.145	-0.119
-499.639	-200.000	0.006	0.039
-498.624	-200.000	0.034	-0.150
-497.610	38.082	0.142	-0.126
-496.595	-200.000	0.001	0.211
-495.581	-142.740	-0.183	-0.018
-494.566	353.502	0.088	-0.173
-493.551	-18.298	0.060	-0.037
-492.537	800.000	0.030	0.096
-491.522	70.500	-0.291	-0.300
-490.508	-200.000	0.047	-0.316
-489.493	443.929	0.170	-0.372
-488.478	80.494	0.061	-0.065
-487.464	800.000	0.062	0.175
-486.449	-69.456	0.179	-0.069
-485.435	-121.761	0.118	-0.019
-484.420	181.878	0.039	0.058
-483.405	-147.740	-0.522	-0.044
-482.391	800.000	0.026	-0.110
-481.376	800.000	-0.115	0.334
-480.362	117.500	0.184	-0.225
-479.347	165.200	-0.124	-0.174
-478.332	0.416	0.091	-0.065
-477.318	45.402	-0.103	-0.094
-476.303	46.389	-0.044	0.041
-475.289	61.843	0.073	-0.072
-474.274	-90.155	0.275	0.080
-473.259	-200.000	0.009	0.156
-472.245	210.727	0.187	-0.293
-471.230	-80.315	-0.125	-0.041
-470.216	311.858	0.159	0.297
-469.201	800.000	0.011	-0.033
-468.186	-73.210	0.272	0.099
-467.172	149.537	0.105	0.142
-466.157	-35.800	-0.645	-0.347
-465.143	800.000	-0.042	-0.168
-464.128	-200.000	-0.009	-0.084
-463.113	545.739	0.152	-0.361
-462.099	-36.038	-0.065	0.035
-461.084	-69.679	-0.299	-0.114
-460.070	-106.301	0.405	-0.090
-459.055	-22.623	-0.272	-0.163
-458.040	-50.806	-0.151	-0.071
-457.026	61.715	-0.188	-0.186
-456.011	154.937	0.119	0.162
-454.997	497.933	0.095	0.218
-453.982	800.000	-0.101	0.345
-452.968	-104.998	0.219	0.050
-451.953	-200.000	-0.022	-0.284
-450.938	68.746	-0.148	-0.151
-449.924	143.859	-0.130	0.172
-448.909	800.000	0.025	-0.097
-447.895	81.529	0.245	0.264
-446.880	455.794	-0.043	-0.095
-445.865	-39.399	0.148	-0.077
-444.851	100.076	-0.058	-0.067
-443.836	-132.365	0.178	0.023
-442.822	142.378	-0.032	0.042
-441.807	115.164	0.026	0.032
-440.792	800.000	-0.037	0.107
-439.778	168.294	-0.190	0.269
-438.763	-73.042	-0.371	-0.135
-437.749	-13.092	-0.215	-0.139
-436.734	-156.388	-0.157	-0.010
-435.719	246.477	0.169	0.283
-434.705	-22.149	0.147	-0.089
-433.690	-46.831	0.326	-0.158
-432.676	-200.000	-0.034	-0.147
-431.661	-71.020	-0.180	0.067
-430.646	-94.654	0.147	0.040
-429.632	-132.871	0.117	-0.015
-428.617	-167.817	0.326	0.013
-427.603	-161.552	0.163	-0.008
-426.588	255.119	-0.131	-0.224
-425.573	221.987	-0.192	-0.307
-424.559	13.281	-0.352	0.271
-423.544	-200.000	-0.026	0.159
-422.530	139.385	0.296	0.386
-421.515	-25.218	0.021	-0.012
-420.500	800.000	-0.073	0.207
-419.486	276.522	-0.100	-0.176
-418.471	-176.720	0.066	0.002
-417.457	334.747	0.046	-0.088
-416.442	101.613	-0.167	0.193
-415.428	194.829	0.275	0.414
-414.413	-85.302	0.098	0.030
-413.398	-107.177	0.175	-0.038
-412.384	-200.000	-0.037	0.188
-411.369	42.941	0.104	0.094
-410.355	800.000	0.057	-0.159
-409.340	800.000	0.067	0.223
-408.325	-159.836	-0.280	-0.015
-407.311	241.324	-0.054	-0.090
-406.296	660.504	0.071	-0.181
-405.282	354.417	0.073	-0.144
-404.267	-200.000	-0.077	-0.396
-403.252	117.848	-0.150	-0.184
-402.238	-108.756	0.154	0.033
-401.223	-200.000	0.041	0.322
-400.209	-108.844	-0.104	0.022
-399.194	-111.959	-0.121	-0.024
-398.179	-127.462	0.239	-0.035
-397.165	-122.536	0.058	-0.009
-396.150	-84.336	0.421	-0.132
-395.136	800.000	0.076	-0.229
-394.121	88.103	-0.019	0.021
-393.106	121.020	-0.133	-0.164
-392.092	-106.728	-0.087	0.019
-391.077	800.000	-0.023	-0.082
-390.063	-122.756	-0.023	0.004
-389.048	800.000	-0.006	0.024
-388.033	-122.358	0.217	0.035
-387.019	-18.984	-0.249	-0.154
-386.004	-200.000	0.044	0.286
-384.990	237.077	0.205	0.337
-383.975	328.627	-0.137	-0.261
-382.960	-200.000	0.010	0.047
-381.946	45.131	0.074	0.067
-380.931	-101.657	0.129	0.031
-379.917	-81.426	0.040	-0.013
-378.902	37.686	-0.370	-0.326
-377.888	-163.992	0.401	-0.019
-376.873	-200.000	0.034	0.212
-375.858	152.593	-0.043	0.058
-374.844	-200.000	0.023	-0.117
-373.829	85.963	0.269	0.294
-372.815	527.616	0.097	-0.228
-371.800	82.464	-0.101	-0.108
-370.785	-62.649	0.436	0.179
-369.771	31.329	-0.155	0.132
-368.756	25.013	0.045	0.037
-367.742	39.717	-0.158	0.140
-366.727	58.228	0.147	-0.143
-365.712	-144.397	-0.298	0.027
-364.698	800.000	-0.032	0.126
-363.683	20.666	-0.172	-0.138
-362.669	-47.189	0.237	-0.114
-361.654	41.947	-0.150	-0.135
-360.639	33.216	-0.308	0.265
-359.625	-66.680	0.359	0.141
-358.610	-200.000	-0.001	0.083
-357.596	-158.771	-0.619	-0.035
-356.581	485.778	-0.111	0.250
-355.566	170.859	0.082	-0.116
-354.552	-82.381	0.156	0.050
-353.537	800.000	-0.079	0.283
-352.523	-38.192	0.050	-0.026
-351.508	698.501	-0.128	0.332
-350.493	251.823	-0.101	-0.170
-349.479	-116.362	-0.216	-0.040
-348.464	320.526	0.026	-0.048
-347.450	-44.123	0.171	0.085
-346.435	-200.000	-0.015	-0.129
-345.420	-200.000	0.019	-0.103
-344.406	343.004	0.158	0.306
-343.391	359.045	-0.050	0.099
-342.377	663.137	0.130	0.332
-341.362	-39.518	0.160	0.083
-340.348	327.657	0.094	0.178
-339.333	800.000	-0.094	0.283
-338.318	-200.000	0.000	0.132
-337.304	35.656	0.286	0.248
-336.289	173.349	-0.140	0.200
-335.275	101.938	0.224	-0.259
-334.260	-98.921	-0.105	0.026
-333.245	465.998	0.131	0.291
-332.231	-200.000	-0.006	0.197
-331.216	38.304	0.327	-0.288
-330.202	-6.823	0.249	-0.167
-329.187	90.311	-0.208	0.230
-328.172	-53.551	0.082	-0.037
-327.158	-72.843	0.115	-0.042
-326.143	68.254	0.105	0.107
-325.129	-45.491	-0.174	0.085
-324.114	-109.569	-0.249	-0.052
-323.099	800.000	0.098	0.394
-322.085	-200.000	0.042	-0.205
-321.070	147.924	-0.174	-0.233
-320.056	-200.000	-0.033	0.158
-319.041	523.275	0.076	-0.176
-318.026	-12.074	-0.055	0.035
-317.012	67.390	0.185	-0.187
-315.997	-200.000	-0.002	0.070
-314.983	-141.387	0.334	-0.033
-313.968	-200.000	0.001	0.110
-312.953	800.000	0.079	-0.280
-311.939	302.334	-0.060	-0.109
-310.924	-53.160	0.217	-0.099
-309.910	-200.000	0.040	-0.275
-308.895	56.664	-0.221	0.213
-307.880	278.725	-0.108	0.191
-306.866	-113.910	-0.131	-0.025
-305.851	654.083	-0.040	0.102
-304.837	281.189	0.036	0.064
-303.822	-170.690	-0.390	0.013
-302.807	-200.000	0.008	0.036
-301.793	165.891	-0.184	-0.257
-300.778	-60.821	0.473	0.198
-299.764	-200.000	0.070	-0.347
-298.749	800.000	-0.018	-0.077
-297.735	-129.621	-0.231	0.032
-296.720	82.160	0.093	-0.099
-295.705	761.883	-0.064	-0.172
-294.691	-109.757	-0.186	-0.039
-293.676	-53.686	-0.081	0.036
-292.662	62.447	0.112	0.111
-291.647	-71.539	-0.244	-0.090
-290.632	16.171	0.252	0.196
-289.618	-159.724	-0.422	-0.023
-288.603	-152.091	0.155	0.011
-287.589	241.675	0.089	0.147
-286.574	-164.802	-0.093	-0.004
-285.559	150.021	-0.183	-0.246
-284.545	-200.000	0.081	-0.481
-283.530	577.613	0.100	-0.241
-282.516	-50.838	0.088	-0.041
-281.501	-200.000	-0.017	-0.166
-280.486	106.393	-0.265	0.310
-279.472	-126.216	0.117	-0.017
-278.457	-200.000	-0.000	0.011
-277.443	-112.317	0.219	-0.043
-276.428	-50.913	-0.224	0.104
-275.413	58.506	0.137	0.133
-274.399	-108.779	0.177	0.037
-273.384	-20.244	-0.277	0.169
-272.370	81.313	0.137	-0.146
-271.355	-131.146	-0.327	-0.043
-270.340	800.000	-0.017	0.053
-269.326	798.633	0.044	0.121
-268.311	272.974	-0.033	-0.057
-267.297	164.305	-0.131	0.182
-266.282	-75.359	0.282	-0.099
-265.267	131.299	-0.228	0.290
-264.253	42.009	-0.252	0.226
-263.238	714.499	-0.062	-0.161
-262.224	-200.000	-0.030	0.174
-261.209	-78.163	0.432	0.147
-260.195	-1.310	-0.253	-0.176
-259.180	236.945	0.051	0.083
-258.165	62.944	0.404	0.399
-257.151	-114.251	0.346	-0.066
-256.136	37.455	-0.216	0.189
-255.122	-123.564	-0.143	0.022
-254.107	-200.000	0.029	-0.138
-253.092	-71.763	0.211	0.078
-252.078	-87.726	-0.229	-0.068
-251.063	-200.000	-0.007	0.074
-250.049	215.658	0.192	0.302
-249.034	-67.704	0.155	-0.060
-248.019	800.000	0.034	-0.097
-247.005	466.922	0.100	0.221
-245.990	42.103	0.230	-0.206
-244.976	-103.640	0.183	-0.042
-243.961	77.426	0.081	-0.085
-242.946	54.139	0.314	-0.298
-241.932	46.095	0.183	-0.167
-240.917	-163.867	-0.151	0.007
-239.903	152.743	-0.083	0.112
-238.888	-47.053	-0.043	0.021
-237.873	800.000	-0.121	-0.354
-236.859	52.280	-0.047	-0.044
-235.844	-117.454	0.272	0.049
-234.830	512.046	-0.160	-0.368
-233.815	-133.056	-0.249	-0.031
-232.800	531.324	0.028	0.066
-231.786	69.904	0.282	0.287
-230.771	-19.600	-0.136	-0.083
-229.757	-188.850	0.497	0.006
-228.742	800.000	0.046	-0.134
-227.727	-93.907	-0.075	0.020
-226.713	49.806	0.252	-0.234
-225.698	199.062	0.210	-0.318
-224.684	132.054	0.152	-0.194
-223.669	-200.000	-0.010	-0.200
-222.655	211.425	0.275	-0.427
-221.640	-21.511	-0.132	0.079
-220.625	70.413	-0.145	-0.148
-219.611	170.434	-0.059	-0.083
-218.596	212.489	-0.148	-0.229
-217.582	404.309	-0.051	0.106
-216.567	-146.737	0.190	0.016
-215.552	505.552	-0.029	0.067
-214.538	-59.952	-0.274	-0.115
-213.523	-112.591	-0.098	0.019
-212.509	-87.846	-0.289	0.086
-211.494	800.000	-0.065	0.221
-210.479	71.553	-0.169	-0.172
-209.465	-200.000	0.021	-0.287
-208.450	695.954	-0.087	0.224
-207.436	-200.000	0.012	0.289
-206.421	72.903	0.185	-0.190
-205.406	-32.640	-0.131	0.072
-204.392	-156.926	-0.101	0.006
-203.377	-139.950	0.129	-0.013
-202.363	-11.811	0.181	0.117
-201.348	-143.869	-0.404	-0.037
-200.333	-200.000	0.035	-0.199
-199.319	33.494	-0.192	-0.164
-198.304	492.176	-0.053	-0.120
-197.290	10.445	0.237	-0.177
-196.275	171.672	0.042	0.060
-195.260	800.000	-0.010	-0.027
-194.246	486.294	-0.053	0.119
-193.231	128.966	-0.031	-0.038
-192.217	70.393	0.167	0.170
-191.202	147.480	-0.111	-0.147
-190.187	-45.195	-0.181	-0.089
-189.173	-155.764	0.281	0.018
-188.158	124.032	-0.121	0.149
-187.144	22.377	0.207	-0.167
-186.129	-200.000	0.040	0.207
-185.114	-92.576	0.133	0.037
-184.100	-200.000	-0.034	0.217
-183.085	7.526	-0.067	0.050
-182.071	275.547	-0.077	0.135
-181.056	-133.074	0.284	0.035
-180.042	12.728	-0.120	-0.091
-179.027	-20.873	0.177	-0.107
-178.012	131.960	-0.071	-0.090
-176.998	140.070	0.121	0.157
-175.983	-99.870	-0.139	0.034
-174.969	800.000	-0.037	0.130
-173.954	-200.000	-0.001	-0.331
-172.939	-54.144	0.235	0.105
-171.925	3.261	-0.388	-0.277
-170.910	800.000	-0.035	-0.115
-169.896	140.348	0.083	0.108
-168.881	25.958	-0.328	-0.269
-167.866	-82.085	0.304	-0.098
-166.852	588.870	-0.047	-0.114
-165.837	12.324	0.038	0.029
-164.823	173.969	0.112	0.159
-163.808	20.410	-0.223	0.177
-162.793	522.925	0.195	0.450
-161.779	-175.155	-0.212	0.006
-160.764	-200.000	0.007	-0.102
-159.750	-125.848	0.121	-0.018
-158.735	-200.000	-0.004	-0.223
-157.720	-105.391	-0.099	0.022
-156.706	-106.816	0.177	-0.039
-155.691	170.821	0.105	0.149
-154.677	-200.000	-0.011	0.184
-153.662	8.158	0.159	0.117
-152.647	-17.078	-0.262	0.162
-151.633	-114.299	-0.186	-0.035
-150.618	63.307	0.403	0.397
-149.604	800.000	-0.061	0.230
-148.589	70.570	0.182	0.185
-147.574	50.979	-0.066	-0.062
-146.560	-59.356	0.157	0.066
-145.545	-94.897	0.443	0.118
-144.531	277.781	-0.090	0.157
-143.516	-200.000	0.021	0.298
-142.502	-200.000	0.007	0.204
-141.487	-137.162	-0.130	-0.015
-140.472	-200.000	0.035	-0.247
-139.458	700.525	0.079	-0.205
-138.443	-79.725	0.193	0.064
-137.429	457.521	-0.062	0.136
-136.414	-93.261	0.320	0.087
-135.399	-200.000	0.019	0.116
-134.385	3.832	0.312	0.224
-133.370	-136.550	0.403	0.046
-132.356	-35.445	0.264	-0.141
-131.341	-200.000	0.025	0.154
-130.326	-94.277	-0.328	-0.088
-129.312	-99.603	0.217	-0.054
-128.297	124.665	0.054	-0.067
-127.283	-34.766	-0.292	-0.157
-126.268	-55.230	0.197	0.087
-125.253	-44.532	0.198	-0.097
-124.239	-30.380	0.269	0.150
-123.224	800.000	0.044	-0.180
-122.210	-46.239	-0.080	-0.039
-121.195	-40.853	0.294	-0.149
