DTS Sentinel unit serial number:	SN413079Multiplexer serial number:	ORYXHardware model number:	OX4-SRSoftware version number:	ORYX F/W v4.00 Oryx Data Collector v3.7.2.0data status	okinstallation	princeton_trtdifferential loss correction	single-endedforward channel	channel 2reverse channel	N/Adate	2019/09/13time	20:43:35forward acquisition time	60.00reverse acquisition time	0.00gamma	496.2192k internal	0.2334k external	0.2334temperature offset calibration	1.0126default loss term (dB/km)	0.3790temperature slope calibration	1.0000multiplexer offset coefficient	1.0000multiplexer slope coefficient	1.0000fibre end	0.00T internal ref (°C)	28.87T ext. ref 1 (°C)	3.09T ext. ref 2 (°C)	23.50length (m)	temperature (°C)	Stokes	anti-Stokes-747.200	-200.000	0.010	0.510
-746.185	800.000	0.067	0.218
-745.171	-159.881	0.137	-0.008
-744.156	-11.851	-0.279	0.184
-743.142	-172.437	-0.181	-0.006
-742.127	-200.000	-0.045	-0.235
-741.112	800.000	0.061	-0.218
-740.098	800.000	0.131	0.445
-739.083	800.000	0.165	0.483
-738.069	12.557	-0.136	0.105
-737.054	-45.131	0.233	0.116
-736.039	361.025	0.057	0.114
-735.025	196.079	0.127	0.194
-734.010	-2.699	-0.160	-0.113
-732.996	25.739	0.144	-0.121
-731.981	-200.000	0.075	-0.356
-730.966	71.032	0.060	0.062
-729.952	-200.000	-0.025	-0.268
-728.937	-62.965	0.236	-0.098
-727.923	-200.000	-0.023	-0.298
-726.908	-163.221	-0.138	-0.007
-725.894	-12.885	-0.320	-0.210
-724.879	14.791	0.063	0.049
-723.864	-117.681	-0.381	-0.069
-722.850	162.225	-0.179	-0.252
-721.835	-55.221	0.183	-0.083
-720.821	-11.027	-0.196	-0.130
-719.806	28.800	0.242	-0.206
-718.791	-84.558	0.225	-0.071
-717.777	-70.559	-0.128	-0.049
-716.762	197.844	0.058	0.089
-715.748	244.862	-0.085	0.144
-714.733	800.000	0.054	-0.200
-713.718	-45.620	-0.047	-0.024
-712.704	-76.360	0.081	0.028
-711.689	-72.440	-0.098	-0.036
-710.675	-12.244	-0.181	-0.119
-709.660	-131.506	-0.490	0.065
-708.645	11.602	-0.176	0.135
-707.631	-55.823	0.125	-0.056
-706.616	26.795	-0.210	-0.177
-705.602	800.000	-0.063	-0.272
-704.587	800.000	0.100	-0.316
-703.572	-37.716	0.164	-0.088
-702.558	800.000	0.065	-0.252
-701.543	800.000	0.077	0.296
-700.529	27.517	-0.126	0.106
-699.514	-200.000	0.050	0.351
-698.499	-18.833	0.283	-0.177
-697.485	-64.840	-0.427	-0.173
-696.470	-79.121	-0.158	-0.054
-695.456	-93.503	0.046	0.013
-694.441	-15.349	-0.042	0.027
-693.426	-200.000	0.052	0.315
-692.412	56.363	-0.114	0.111
-691.397	800.000	-0.027	-0.111
-690.383	-200.000	-0.004	-0.445
-689.368	14.301	0.278	-0.218
-688.354	294.575	0.154	-0.283
-687.339	568.604	0.150	0.366
-686.324	76.435	-0.288	0.306
-685.310	28.344	0.130	-0.110
-684.295	-135.039	-0.131	0.016
-683.281	-35.516	0.344	0.187
-682.266	293.396	-0.025	0.046
-681.251	40.366	0.096	-0.086
-680.237	214.805	-0.207	-0.328
-679.222	-46.570	0.193	0.095
-678.208	27.037	-0.149	0.125
-677.193	-27.727	-0.236	-0.137
-676.178	-121.350	-0.240	-0.040
-675.164	-21.038	0.266	-0.163
-674.149	236.201	-0.047	-0.078
-673.135	32.285	0.368	0.318
-672.120	-12.589	0.063	-0.041
-671.105	41.739	0.134	0.122
-670.091	-2.016	0.132	0.093
-669.076	221.658	0.224	-0.360
-668.062	19.039	-0.265	-0.213
-667.047	-200.000	0.010	-0.242
-666.032	-104.138	-0.123	0.029
-665.018	-200.000	-0.015	0.161
-664.003	80.156	0.201	0.217
-662.989	-119.326	-0.181	0.032
-661.974	31.345	0.246	0.211
-660.959	-77.728	0.363	0.126
-659.945	89.838	0.088	-0.098
-658.930	800.000	-0.038	-0.125
-657.916	105.917	-0.350	0.415
-656.901	-49.449	0.175	-0.084
-655.886	247.649	-0.030	-0.051
-654.872	149.178	-0.133	-0.180
-653.857	-13.889	-0.122	-0.079
-652.843	800.000	0.035	0.138
-651.828	-123.688	-0.145	0.023
-650.814	-168.642	-0.284	-0.011
-649.799	800.000	-0.052	-0.209
-648.784	-61.182	0.237	-0.100
-647.770	-200.000	-0.048	0.356
-646.755	206.653	-0.037	-0.058
-645.741	-170.051	0.191	-0.007
-644.726	-14.644	0.281	-0.181
-643.711	800.000	-0.093	-0.380
-642.697	800.000	-0.044	-0.146
-641.682	-59.667	-0.223	0.096
-640.668	160.879	-0.123	-0.172
-639.653	268.909	-0.075	-0.131
-638.638	-133.274	0.137	-0.017
-637.624	-200.000	-0.030	0.233
-636.609	-129.272	-0.367	0.051
-635.595	-118.917	-0.165	-0.029
-634.580	-15.689	0.207	-0.132
-633.565	-200.000	-0.058	-0.264
-632.551	-121.921	-0.265	-0.044
-631.536	-27.178	-0.093	0.054
-630.522	-28.820	0.218	0.125
-629.507	-39.247	-0.235	0.124
-628.492	800.000	0.110	0.378
-627.478	-200.000	0.028	-0.296
-626.463	-166.098	-0.118	-0.005
-625.449	-19.460	-0.271	0.168
-624.434	652.505	0.027	-0.070
-623.419	-200.000	-0.058	-0.316
-622.405	-200.000	-0.000	-0.180
-621.390	115.921	-0.151	0.184
-620.376	-150.076	0.149	0.012
-619.361	56.007	-0.113	-0.110
-618.346	44.968	0.147	-0.135
-617.332	-41.432	-0.319	0.164
-616.317	-79.306	-0.053	-0.018
-615.303	657.642	-0.110	-0.284
-614.288	-30.680	0.007	0.004
-613.273	99.832	0.276	-0.320
-612.259	10.616	-0.117	-0.089
-611.244	-13.094	-0.191	0.124
-610.230	138.294	-0.045	-0.059
-609.215	96.764	0.096	-0.110
-608.201	800.000	-0.069	-0.231
-607.186	-179.757	-0.171	-0.004
-606.171	-200.000	-0.015	-0.148
-605.157	-14.608	-0.513	-0.329
-604.142	-16.561	-0.248	0.157
-603.128	-200.000	0.040	-0.407
-602.113	-73.568	0.105	-0.038
-601.098	-200.000	0.010	0.145
-600.084	-200.000	0.005	0.062
-599.069	800.000	0.115	-0.320
-598.055	-20.534	-0.092	-0.057
-597.040	-200.000	-0.023	-0.171
-596.025	800.000	0.069	0.279
-595.011	-138.602	0.075	0.008
-593.996	-11.550	-0.054	0.035
-592.982	216.251	-0.061	0.097
-591.967	-76.097	0.109	0.039
-590.952	-67.291	-0.070	0.028
-589.938	-35.560	-0.351	-0.191
-588.923	235.692	0.071	-0.116
-587.909	-200.000	-0.016	0.080
-586.894	-42.957	0.304	-0.154
-585.879	-22.991	0.203	0.122
-584.865	-153.095	-0.247	0.017
-583.850	279.878	-0.043	-0.076
-582.836	41.020	-0.371	0.334
-581.821	-51.150	-0.178	0.083
-580.806	-13.855	0.178	0.115
-579.792	48.925	-0.208	0.195
-578.777	556.768	0.104	0.250
-577.763	43.585	0.181	-0.166
-576.748	-50.684	0.302	0.142
-575.733	-94.222	-0.255	-0.070
-574.719	-46.226	0.207	-0.102
-573.704	274.966	-0.109	-0.193
-572.690	152.035	-0.107	0.146
-571.675	-200.000	-0.004	-0.049
-570.661	-14.364	0.255	0.164
-569.646	-100.809	-0.307	0.075
-568.631	800.000	0.046	0.135
-567.617	-29.484	0.155	-0.089
-566.602	385.774	-0.045	0.093
-565.588	-138.239	-0.259	-0.029
-564.573	-46.095	0.110	0.054
-563.558	-161.057	-0.207	0.011
-562.544	153.923	-0.187	0.256
-561.529	-40.547	0.203	-0.105
-560.515	-200.000	-0.004	-0.116
-559.500	-98.668	-0.082	-0.021
-558.485	69.725	-0.082	0.084
-557.471	-200.000	-0.005	0.106
-556.456	-93.096	-0.264	0.073
-555.442	-138.635	-0.335	0.037
-554.427	144.023	0.069	0.092
-553.412	-41.668	-0.229	0.117
-552.398	53.086	-0.149	0.143
-551.383	238.502	-0.121	0.201
-550.369	800.000	-0.083	0.228
-549.354	-200.000	0.000	0.123
-548.339	-200.000	-0.017	0.206
-547.325	-200.000	0.028	-0.259
-546.310	-99.831	0.097	0.024
-545.296	6.128	0.168	0.124
-544.281	-77.688	0.196	-0.067
-543.266	-200.000	-0.023	-0.127
-542.252	-200.000	-0.038	0.289
-541.237	-65.388	0.425	-0.170
-540.223	157.739	-0.161	0.222
-539.208	-200.000	-0.041	0.219
-538.193	238.808	-0.148	-0.245
-537.179	-42.389	0.179	-0.091
-536.164	204.955	-0.127	0.196
-535.150	-10.172	-0.249	-0.165
-534.135	-66.496	-0.203	-0.080
-533.121	-7.502	-0.328	-0.221
-532.106	266.679	0.131	-0.228
-531.091	131.598	0.113	0.144
-530.077	-108.208	0.456	0.098
-529.062	10.765	-0.365	0.277
-528.048	-17.406	-0.041	0.026
-527.033	-200.000	0.013	-0.137
-526.018	-200.000	-0.026	-0.144
-525.004	342.099	-0.090	0.175
-523.989	-103.651	-0.281	-0.066
-522.975	62.648	0.037	0.037
-521.960	-158.095	0.018	0.001
-520.945	-89.668	0.094	0.028
-519.931	215.026	-0.064	-0.101
-518.916	-84.369	-0.083	0.026
-517.902	-200.000	0.015	0.131
-516.887	-200.000	0.020	-0.299
-515.872	251.195	0.022	-0.037
-514.858	73.399	-0.164	-0.171
-513.843	192.056	0.056	0.085
-512.829	-26.455	0.057	0.033
-511.814	263.320	-0.128	-0.221
-510.799	-200.000	-0.026	-0.224
-509.785	680.141	-0.091	-0.235
-508.770	-87.926	0.176	0.053
-507.756	-200.000	-0.048	-0.282
-506.741	-200.000	-0.053	-0.389
-505.726	-200.000	0.003	-0.178
-504.712	800.000	-0.075	0.210
-503.697	364.381	0.139	-0.278
-502.683	342.357	-0.125	-0.244
-501.668	-83.843	-0.249	0.079
-500.653	-200.000	0.048	-0.220
-499.639	-200.000	-0.022	0.284
-498.624	128.457	0.240	0.305
-497.610	-200.000	0.009	0.143
-496.595	185.063	-0.110	0.163
-495.581	104.149	0.324	0.379
-494.566	-148.111	0.351	-0.029
-493.551	168.508	-0.077	0.109
-492.537	800.000	-0.053	0.159
-491.522	-164.727	0.132	-0.006
-490.508	-19.122	0.196	-0.121
-489.493	40.955	-0.081	0.073
-488.478	-90.658	0.104	-0.030
-487.464	800.000	0.078	-0.296
-486.449	183.056	0.168	0.247
-485.435	-7.233	-0.283	-0.191
-484.420	-94.750	-0.212	-0.057
-483.405	-84.643	0.300	-0.094
-482.391	-200.000	0.031	-0.207
-481.376	-94.730	0.174	-0.047
-480.362	-200.000	-0.051	0.276
-479.347	-200.000	0.009	-0.195
-478.332	98.297	0.086	0.099
-477.318	-91.217	0.319	0.091
-476.303	-91.478	-0.193	-0.055
-475.289	97.617	-0.018	-0.021
-474.274	-38.810	0.280	-0.147
-473.259	295.051	-0.115	0.209
-472.245	99.077	0.127	-0.145
-471.230	-51.828	0.312	0.145
-470.216	104.234	0.143	0.168
-469.201	800.000	-0.054	0.183
-468.186	-60.189	0.069	-0.029
-467.172	-95.218	-0.192	-0.051
-466.157	565.061	-0.019	-0.045
-465.143	-144.588	-0.184	-0.017
-464.128	-27.524	-0.199	-0.115
-463.113	800.000	-0.085	-0.277
-462.099	-95.541	0.214	0.057
-461.084	285.444	0.085	0.153
-460.070	800.000	0.104	0.301
-459.055	241.661	0.152	0.252
-458.040	-200.000	-0.008	-0.074
-457.026	262.841	0.121	0.209
-456.011	800.000	0.112	-0.342
-454.997	11.558	-0.114	0.087
-453.982	-200.000	0.008	0.366
-452.968	114.006	0.061	-0.074
-451.953	-85.402	-0.211	0.065
-450.938	-200.000	-0.001	0.564
-449.924	100.612	-0.104	-0.120
-448.909	-38.415	0.357	0.188
-447.895	-72.622	0.137	-0.050
-446.880	-102.927	0.038	0.009
-445.865	216.383	0.066	-0.104
-444.851	-89.549	-0.132	0.039
-443.836	-108.239	-0.093	0.020
-442.822	-99.629	0.253	-0.063
-441.807	-4.332	0.116	-0.079
-440.792	800.000	-0.071	0.261
-439.778	-148.687	0.145	0.012
-438.763	-72.429	0.199	-0.073
-437.749	77.846	0.348	0.369
-436.734	-156.498	-0.393	0.024
-435.719	137.620	0.075	-0.097
-434.705	-103.672	0.066	-0.015
-433.690	-17.943	-0.277	-0.173
-432.676	-110.486	0.164	0.034
-431.661	248.082	-0.114	0.191
-430.646	-200.000	-0.009	0.072
-429.632	456.052	0.129	-0.285
-428.617	-164.012	0.331	-0.015
-427.603	-84.894	-0.196	-0.061
-426.588	33.874	-0.111	0.096
-425.573	-6.825	0.149	-0.101
-424.559	-129.926	0.206	0.028
-423.544	800.000	-0.068	-0.276
-422.530	303.074	-0.236	-0.434
-421.515	-200.000	0.011	-0.074
-420.500	-63.055	-0.068	0.028
-419.486	34.846	0.170	0.147
-418.471	800.000	-0.046	-0.139
-417.457	800.000	0.071	-0.241
-416.442	520.905	-0.057	0.133
-415.428	-137.204	0.153	-0.017
-414.413	-51.534	0.042	-0.019
-413.398	-200.000	-0.066	-0.290
-412.384	-91.228	-0.263	-0.075
-411.369	136.235	0.151	0.195
-410.355	187.275	-0.048	-0.072
-409.340	-41.092	-0.317	0.162
-408.325	14.816	-0.072	0.056
-407.311	-200.000	0.028	-0.260
-406.296	777.528	0.015	0.040
-405.282	-27.863	0.035	-0.020
-404.267	92.065	0.131	0.147
-403.252	474.045	-0.030	-0.067
-402.238	-200.000	-0.350	0.001
-401.223	-200.000	0.034	0.201
-400.209	800.000	0.071	0.219
-399.194	-200.000	-0.059	-0.514
-398.179	800.000	-0.100	0.288
-397.165	196.721	-0.096	0.145
-396.150	-50.848	-0.506	0.236
-395.136	314.803	0.089	0.166
-394.121	-0.363	0.373	-0.262
-393.106	800.000	0.109	-0.300
-392.092	12.662	-0.245	0.187
-391.077	-112.888	0.052	-0.010
-390.063	455.047	-0.105	-0.230
-389.048	-164.648	0.116	0.005
-388.033	30.989	0.325	-0.276
-387.019	261.282	-0.103	0.176
-386.004	-50.812	0.152	0.071
-384.990	185.796	-0.136	0.200
-383.975	-35.689	0.286	0.154
-382.960	150.289	-0.065	0.087
-381.946	-57.748	0.162	-0.070
-380.931	-97.640	0.095	-0.024
-379.917	-22.469	-0.217	0.130
-378.902	-161.317	-0.341	0.018
-377.888	128.266	0.099	0.125
-376.873	-166.431	0.303	-0.013
-375.858	-82.390	0.024	0.008
-374.844	-200.000	-0.046	-0.240
-373.829	37.690	0.052	0.046
-372.815	-37.232	0.172	-0.091
-371.800	380.414	-0.148	0.301
-370.785	63.174	-0.137	-0.136
-369.771	-200.000	-0.040	-0.245
-368.756	346.337	0.108	0.211
-367.742	-168.279	-0.307	0.012
-366.727	48.519	-0.230	0.213
-365.712	-51.601	0.169	-0.078
-364.698	55.770	-0.225	-0.216
-363.683	45.131	0.094	0.086
-362.669	54.888	-0.225	0.215
-361.654	-200.000	-0.074	0.346
-360.639	-143.706	0.043	-0.004
-359.625	79.171	-0.219	0.232
-358.610	189.751	-0.133	-0.197
-357.596	-200.000	0.037	-0.172
-356.581	-134.918	-0.030	0.004
-355.566	167.229	-0.065	0.091
-354.552	-22.738	-0.241	0.144
-353.537	-74.468	-0.245	0.088
-352.523	800.000	-0.115	0.363
-351.508	-110.658	0.383	-0.078
-350.493	800.000	-0.007	-0.018
-349.479	375.399	-0.068	-0.137
-348.464	290.962	-0.030	-0.054
-347.450	-200.000	0.007	-0.120
-346.435	35.127	-0.207	-0.180
-345.420	-200.000	-0.032	-0.435
-344.406	214.156	0.123	-0.193
-343.391	-139.357	0.264	0.028
-342.377	266.703	0.059	-0.102
-341.362	-200.000	-0.014	0.215
-340.348	-115.966	-0.277	-0.051
-339.333	280.247	0.150	0.266
-338.318	-128.840	0.124	-0.017
-337.304	321.023	0.126	0.237
-336.289	-71.963	-0.269	0.099
-335.275	322.218	0.057	0.108
-334.260	-172.558	0.361	0.011
-333.245	58.542	-0.068	0.066
-332.231	-200.000	-0.002	0.158
-331.216	112.067	-0.162	0.193
-330.202	800.000	0.051	-0.139
-329.187	-26.062	0.368	-0.214
-328.172	-86.792	-0.238	0.072
-327.158	-102.651	-0.357	-0.084
-326.143	100.094	-0.132	0.151
-325.129	-45.019	0.231	-0.113
-324.114	434.037	-0.110	0.236
-323.099	45.741	0.123	0.112
-322.085	-67.207	-0.199	-0.077
-321.070	-125.329	0.189	0.028
-320.056	94.722	0.271	-0.305
-319.041	800.000	0.075	0.306
-318.026	800.000	0.073	0.266
-317.012	602.629	-0.025	0.061
-315.997	-187.568	-0.135	-0.002
-314.983	-200.000	-0.030	0.345
-313.968	-67.981	0.207	0.080
-312.953	493.229	0.094	-0.213
-311.939	800.000	0.029	0.085
-310.924	23.638	-0.093	-0.075
-309.910	75.126	0.290	0.302
-308.895	-72.678	-0.207	0.075
-307.880	20.817	-0.293	-0.235
-306.866	-200.000	-0.009	-0.387
-305.851	-82.337	0.281	-0.090
-304.837	313.850	0.169	-0.314
-303.822	800.000	0.019	-0.079
-302.807	-200.000	0.025	0.207
-301.793	92.682	-0.075	-0.083
-300.778	-26.854	-0.173	-0.100
-299.764	90.797	-0.139	-0.153
-298.749	-59.757	0.130	0.055
-297.735	60.447	-0.113	-0.111
-296.720	256.151	-0.216	-0.365
-295.705	747.732	0.042	-0.111
-294.691	800.000	-0.081	-0.225
-293.676	101.525	-0.140	-0.161
-292.662	-135.607	0.260	0.031
-291.647	-72.717	-0.370	0.135
-290.632	-200.000	-0.115	0.000
-289.618	-200.000	0.098	0.531
-288.603	-47.916	0.403	0.192
-287.589	-72.353	0.137	-0.050
-286.574	21.272	-0.244	-0.196
-285.559	800.000	0.083	-0.245
-284.545	82.569	0.053	0.056
-283.530	14.933	0.238	-0.184
-282.516	-80.719	0.102	-0.033
-281.501	133.817	-0.166	0.212
-280.486	-6.711	0.088	-0.059
-279.472	-200.000	-0.037	0.272
-278.457	-70.949	0.115	-0.043
-277.443	63.166	0.105	0.104
-276.428	800.000	-0.080	-0.230
-275.413	-4.965	-0.317	0.216
-274.399	-156.350	0.118	-0.007
-273.384	-200.000	-0.002	-0.016
-272.370	-74.960	0.177	-0.063
-271.355	800.000	-0.093	-0.266
-270.340	544.012	-0.065	-0.152
-269.326	502.747	-0.105	0.239
-268.311	-46.004	0.161	-0.078
-267.297	-139.410	0.356	-0.038
-266.282	23.209	-0.220	0.178
-265.267	-90.074	0.080	-0.023
-264.253	-43.277	0.209	-0.104
-263.238	732.375	-0.019	-0.050
-262.224	-102.131	0.089	0.021
-261.209	178.654	-0.072	0.104
-260.195	-85.985	-0.103	0.031
-259.180	800.000	-0.051	0.139
-258.165	-11.611	-0.220	-0.142
-257.151	213.699	-0.167	-0.260
-256.136	-188.030	-0.398	0.005
-255.122	-5.994	0.293	0.198
-254.107	649.313	0.105	-0.265
-253.092	258.145	-0.073	0.123
-252.078	-121.342	-0.030	-0.005
-251.063	-26.392	0.248	-0.144
-250.049	13.075	-0.094	0.072
-249.034	18.463	-0.191	-0.151
-248.019	44.471	-0.190	0.172
-247.005	-200.000	0.030	0.251
-245.990	56.560	-0.128	-0.122
-244.976	158.851	-0.151	0.206
-243.961	-90.298	-0.259	0.074
-242.946	-109.642	0.277	0.058
-241.932	421.503	-0.140	0.295
-240.917	20.382	-0.100	0.080
-239.903	217.530	0.038	0.060
-238.888	800.000	-0.046	-0.141
-237.873	-96.008	0.071	-0.019
-236.859	-72.990	0.119	-0.043
-235.844	-126.913	-0.205	-0.030
-234.830	322.049	0.099	0.185
-233.815	-75.981	0.205	0.071
-232.800	-108.387	-0.217	-0.046
-231.786	85.408	0.141	-0.152
-230.771	11.795	0.351	0.266
-229.757	-100.037	-0.282	-0.069
-228.742	-111.546	0.170	0.034
-227.727	-30.568	0.153	-0.085
-226.713	405.575	0.107	0.223
-225.698	-131.969	-0.236	-0.030
-224.684	298.979	-0.093	0.169
-223.669	188.502	0.092	-0.136
-222.655	-24.118	0.135	-0.079
-221.640	59.364	-0.186	0.180
-220.625	-117.360	0.155	0.028
-219.611	15.487	0.314	-0.243
-218.596	800.000	-0.144	-0.454
-217.582	-91.284	-0.228	0.064
-216.567	27.429	0.245	0.203
-215.552	800.000	-0.041	0.158
-214.538	-200.000	-0.034	0.484
-213.523	-136.612	-0.233	-0.027
-212.509	-200.000	0.029	0.229
-211.494	-84.218	0.182	-0.057
-210.479	8.438	-0.240	0.178
-209.465	194.269	-0.040	-0.059
-208.450	-88.674	0.098	-0.029
-207.436	-185.848	0.192	-0.003
-206.421	72.578	-0.163	0.168
-205.406	-200.000	0.013	0.149
-204.392	434.195	0.143	-0.306
-203.377	599.379	-0.066	-0.162
-202.363	11.248	0.188	-0.142
-201.348	78.663	-0.093	0.098
-200.333	160.961	-0.071	-0.097
-199.319	-200.000	0.018	0.202
-198.304	-62.434	-0.119	0.049
-197.290	-200.000	0.062	-0.309
-196.275	800.000	-0.016	0.060
-195.260	42.557	0.170	-0.153
-194.246	-104.117	0.280	0.064
-193.231	800.000	0.042	-0.127
-192.217	-200.000	0.014	0.442
-191.202	-156.461	0.123	0.008
-190.187	-63.285	0.174	-0.070
-189.173	800.000	-0.088	-0.315
-188.158	-200.000	-0.011	-0.167
-187.144	73.193	0.034	-0.035
-186.129	-34.739	-0.251	-0.135
-185.114	194.283	0.141	0.211
-184.100	-130.095	-0.323	-0.043
-183.085	124.909	-0.042	0.052
-182.071	800.000	0.084	-0.254
-181.056	-154.769	0.321	0.021
-180.042	380.996	-0.198	0.400
-179.027	47.325	-0.084	-0.077
-178.012	-83.994	0.290	-0.091
-176.998	-200.000	-0.017	-0.282
-175.983	155.599	0.189	-0.255
-174.969	-200.000	-0.003	-0.092
-173.954	83.284	-0.070	0.075
-172.939	107.400	0.408	-0.476
-171.925	-5.778	-0.153	-0.103
-170.910	-200.000	0.079	-0.518
-169.896	800.000	0.079	0.318
-168.881	-84.076	0.285	-0.089
-167.866	-200.000	0.027	-0.191
-166.852	-121.594	-0.154	0.025
-165.837	-32.162	0.377	0.207
-164.823	-200.000	-0.089	0.492
-163.808	765.462	0.041	-0.109
-162.793	40.428	0.246	0.217
-161.779	456.669	-0.045	0.099
-160.764	321.386	0.187	0.349
-159.750	-60.209	0.223	0.093
-158.735	-200.000	0.453	0.001
-157.720	-59.649	0.188	0.079
-156.706	-200.000	0.032	0.264
-155.691	-39.616	-0.295	-0.152
-154.677	-200.000	0.019	-0.239
-153.662	-104.276	0.224	0.051
-152.647	503.540	-0.079	-0.180
-151.633	-127.605	0.301	0.043
-150.618	-33.738	0.094	0.051
-149.604	445.037	-0.057	-0.123
-148.589	-124.921	-0.038	-0.006
-147.574	-39.026	-0.117	0.060
-146.560	62.937	-0.270	0.265
-145.545	-200.000	0.234	0.001
-144.531	800.000	-0.041	0.173
-143.516	199.477	-0.223	-0.336
-142.502	-90.528	0.197	0.056
-141.487	643.691	0.037	-0.093
-140.472	800.000	-0.053	-0.157
-139.458	193.904	-0.076	-0.113
-138.443	-57.762	0.227	-0.097
-137.429	-111.581	0.177	0.035
-136.414	-21.203	0.270	0.162
-135.399	-200.000	-0.013	-0.061
-134.385	-85.208	-0.066	-0.020
-133.370	-182.909	-0.084	-0.001
-132.356	-200.000	0.065	-0.346
-131.341	40.241	0.062	0.055
-130.326	-63.477	0.089	-0.036
-129.312	518.374	0.153	-0.351
-128.297	243.469	0.032	-0.052
-127.283	-140.361	0.077	0.008
-126.268	-200.000	0.017	-0.258
-125.253	54.202	0.135	0.127
-124.239	102.555	-0.037	0.042
-123.224	-128.474	-0.119	0.017
-122.210	674.620	-0.045	0.114
