DTS Sentinel unit serial number:	SN413079Multiplexer serial number:	ORYXHardware model number:	OX4-SRSoftware version number:	ORYX F/W v4.00 Oryx Data Collector v3.7.2.0data status	okinstallation	princeton_trtdifferential loss correction	single-endedforward channel	channel 2reverse channel	N/Adate	2019/09/15time	09:19:35forward acquisition time	60.00reverse acquisition time	0.00gamma	496.2192k internal	0.2317k external	0.2317temperature offset calibration	1.0017default loss term (dB/km)	0.3790temperature slope calibration	1.0000multiplexer offset coefficient	1.0000multiplexer slope coefficient	1.0000fibre end	0.00T internal ref (°C)	33.44T ext. ref 1 (°C)	4.97T ext. ref 2 (°C)	30.57length (m)	temperature (°C)	Stokes	anti-Stokes-747.200	-98.067	-0.248	-0.065
-746.185	92.949	0.165	0.189
-745.171	-200.000	-0.006	0.048
-744.156	67.748	-0.206	0.213
-743.142	-60.673	0.072	-0.031
-742.127	45.569	-0.094	-0.088
-741.112	-167.682	-0.276	-0.011
-740.098	666.611	-0.058	-0.153
-739.083	-147.575	-0.219	-0.019
-738.069	-170.145	0.143	0.005
-737.054	-200.000	-0.021	-0.295
-736.039	-20.339	-0.275	-0.171
-735.025	26.949	-0.111	-0.095
-734.010	-112.331	-0.457	-0.093
-732.996	-136.577	-0.147	0.017
-731.981	29.171	-0.131	0.113
-730.966	137.076	0.130	0.172
-729.952	-1.979	0.180	0.128
-728.937	800.000	0.052	-0.155
-727.923	51.292	0.230	-0.221
-726.908	-57.592	-0.073	-0.033
-725.894	283.220	0.129	-0.235
-724.879	-106.245	0.157	0.036
-723.864	174.850	-0.046	0.067
-722.850	578.491	0.022	-0.056
-721.835	-0.576	0.119	-0.085
-720.821	132.040	0.034	-0.044
-719.806	74.457	-0.072	-0.077
-718.791	44.567	0.138	-0.128
-717.777	-16.571	0.074	-0.048
-716.762	15.847	-0.223	0.178
-715.748	96.306	-0.071	-0.082
-714.733	91.973	0.080	0.091
-713.718	-77.721	-0.068	0.024
-712.704	-99.421	0.212	-0.054
-711.689	86.737	0.208	-0.232
-710.675	-100.691	-0.104	0.026
-709.660	-28.851	0.190	-0.111
-708.645	-37.896	-0.275	0.148
-707.631	61.610	0.128	0.129
-706.616	-200.000	-0.007	0.168
-705.602	-57.649	0.018	0.008
-704.587	377.666	-0.087	-0.179
-703.572	692.435	-0.105	-0.278
-702.558	-200.000	0.004	-0.280
-701.543	800.000	-0.042	0.126
-700.529	126.972	0.108	0.139
-699.514	94.684	0.146	-0.168
-698.499	659.633	0.057	-0.148
-697.485	-86.291	0.197	-0.061
-696.470	-200.000	-0.014	-0.271
-695.456	-76.408	0.249	-0.088
-694.441	99.267	0.208	0.243
-693.426	-131.894	-0.106	-0.014
-692.412	727.258	-0.044	0.119
-691.397	-87.130	-0.157	-0.048
-690.383	-154.050	-0.237	-0.016
-689.368	-139.670	-0.133	-0.014
-688.354	-54.138	0.265	-0.122
-687.339	-10.267	-0.111	0.075
-686.324	507.251	-0.022	0.053
-685.310	-23.284	0.219	-0.133
-684.295	800.000	0.074	0.313
-683.281	-5.679	0.056	0.039
-682.266	-200.000	0.040	-0.339
-681.251	4.968	0.136	-0.101
-680.237	-50.988	0.177	-0.084
-679.222	246.527	-0.069	-0.117
-678.208	143.609	0.024	0.033
-677.193	-130.196	0.164	-0.023
-676.178	-29.720	0.102	-0.059
-675.164	-75.858	-0.397	0.142
-674.149	69.447	0.160	-0.166
-673.135	-140.225	-0.262	0.028
-672.120	-84.732	-0.361	-0.115
-671.105	-172.270	0.428	-0.014
-670.091	-30.732	0.083	-0.047
-669.076	171.188	0.064	-0.092
-668.062	-104.128	-0.226	0.053
-667.047	-200.000	0.014	0.195
-666.032	-135.029	-0.165	0.020
-665.018	-15.411	-0.280	-0.181
-664.003	209.067	-0.152	-0.241
-662.989	-200.000	0.063	0.612
-661.974	-200.000	0.010	0.109
-660.959	-23.357	0.104	-0.063
-659.945	508.617	0.045	-0.105
-658.930	243.801	-0.141	-0.239
-657.916	184.690	0.284	-0.424
-656.901	-174.477	0.114	-0.003
-655.886	-166.957	-0.444	-0.018
-654.872	64.363	0.167	0.170
-653.857	800.000	0.143	0.401
-652.843	-96.712	-0.368	-0.098
-651.828	-57.912	-0.318	0.140
-650.814	800.000	-0.030	0.130
-649.799	222.453	0.135	0.219
-648.784	151.649	-0.219	-0.300
-647.770	-200.000	0.042	0.350
-646.755	-123.527	0.243	0.039
-645.741	800.000	0.004	-0.012
-644.726	-97.553	-0.367	0.096
-643.711	-32.314	0.296	0.166
-642.697	701.245	-0.060	0.158
-641.682	-112.250	-0.084	0.017
-640.668	-80.411	-0.127	-0.043
-639.653	145.024	-0.141	0.190
-638.638	800.000	0.039	0.114
-637.624	800.000	-0.019	0.059
-636.609	-156.040	-0.184	-0.012
-635.595	800.000	0.031	0.092
-634.580	800.000	0.043	-0.143
-633.565	-101.625	-0.193	-0.047
-632.551	232.247	-0.043	-0.072
-631.536	706.440	-0.046	-0.123
-630.522	-172.953	-0.106	-0.003
-629.507	246.426	-0.101	0.172
-628.492	-112.801	-0.088	0.018
-627.478	228.945	-0.174	-0.287
-626.463	-91.263	0.166	0.048
-625.449	800.000	0.055	0.216
-624.434	70.194	0.021	-0.022
-623.419	-200.000	-0.055	0.293
-622.405	-19.721	0.009	0.006
-621.390	436.573	0.115	-0.251
-620.376	258.414	0.035	-0.060
-619.361	-20.671	-0.319	-0.197
-618.346	390.198	0.031	0.065
-617.332	-200.000	0.076	0.344
-616.317	149.360	-0.131	-0.179
-615.303	800.000	-0.019	-0.059
-614.288	-200.000	-0.036	-0.517
-613.273	121.712	-0.117	0.147
-612.259	73.965	-0.120	-0.127
-611.244	185.632	-0.159	-0.238
-610.230	800.000	0.027	-0.093
-609.215	-54.447	0.064	-0.029
-608.201	-32.014	-0.125	0.070
-607.186	470.386	0.022	-0.051
-606.171	191.160	0.266	-0.404
-605.157	-55.377	0.216	-0.097
-604.142	-55.480	-0.046	0.021
-603.128	800.000	0.060	-0.171
-602.113	800.000	-0.027	-0.112
-601.098	483.836	0.186	0.426
-600.084	351.546	-0.147	-0.294
-599.069	4.609	0.285	0.211
-598.055	121.997	0.229	-0.288
-597.040	-200.000	0.031	0.158
-596.025	-200.000	-0.037	0.208
-595.011	-157.804	0.178	-0.011
-593.996	52.329	-0.193	0.185
-592.982	154.586	0.114	-0.157
-591.967	-23.799	0.344	-0.208
-590.952	-100.422	0.225	-0.056
-589.938	-45.600	-0.313	0.156
-588.923	-35.608	0.333	-0.182
-587.909	-200.000	0.028	-0.155
-586.894	800.000	0.047	0.152
-585.879	800.000	0.073	-0.260
-584.865	-58.941	0.155	0.067
-583.850	422.596	-0.069	-0.148
-582.836	-81.319	-0.226	-0.075
-581.821	-140.981	-0.298	0.031
-580.806	800.000	0.090	-0.269
-579.792	-133.979	0.047	0.006
-578.777	123.720	0.084	-0.107
-577.763	111.610	0.226	-0.275
-576.748	341.035	0.158	0.310
-575.733	-200.000	-0.004	-0.314
-574.719	111.979	-0.146	-0.178
-573.704	800.000	0.046	0.194
-572.690	-46.541	0.306	-0.151
-571.675	-147.256	0.294	0.025
-570.661	209.147	0.131	0.206
-569.646	-119.097	-0.215	0.038
-568.631	800.000	0.165	0.584
-567.617	-15.395	-0.190	0.122
-566.602	111.450	-0.107	-0.130
-565.588	233.654	-0.110	-0.182
-564.573	-200.000	0.021	-0.344
-563.558	23.118	0.337	-0.278
-562.544	-37.569	0.266	0.143
-561.529	21.287	0.132	-0.108
-560.515	-61.929	0.095	0.040
-559.500	800.000	0.104	0.330
-558.485	479.586	0.039	-0.089
-557.471	80.566	0.174	0.188
-556.456	-115.352	-0.244	-0.046
-555.442	71.820	-0.059	-0.061
-554.427	324.459	-0.100	-0.192
-553.412	-10.235	0.018	0.012
-552.398	318.372	-0.073	0.139
-551.383	800.000	-0.066	-0.187
-550.369	-79.040	-0.149	-0.051
-549.354	-109.316	-0.149	0.032
-548.339	-200.000	-0.031	-0.147
-547.325	-200.000	0.036	0.470
-546.310	-50.125	-0.129	0.061
-545.296	-200.000	0.076	0.350
-544.281	164.013	-0.085	0.121
-543.266	267.647	-0.035	-0.061
-542.252	-103.185	-0.352	0.084
-541.237	326.187	0.084	-0.162
-540.223	800.000	0.120	0.363
-539.208	195.548	0.062	-0.094
-538.193	-181.756	-0.275	-0.005
-537.179	461.624	0.102	-0.228
-536.164	-79.494	0.273	0.093
-535.150	201.568	-0.175	0.271
-534.135	-200.000	0.037	0.205
-533.121	-97.645	-0.217	0.056
-532.106	800.000	-0.184	-0.560
-531.091	425.475	0.091	0.197
-530.077	-29.125	0.209	0.121
-529.062	-117.732	-0.274	-0.049
-528.048	793.679	0.029	0.081
-527.033	-200.000	0.012	-0.080
-526.018	84.123	0.120	-0.132
-525.004	27.975	0.127	-0.107
-523.989	-147.847	-0.104	-0.009
-522.975	189.911	-0.122	0.183
-521.960	24.836	0.276	-0.229
-520.945	-47.087	-0.215	-0.105
-519.931	87.126	-0.133	-0.148
-518.916	15.269	-0.106	-0.083
-517.902	-200.000	0.042	-0.239
-516.887	800.000	0.164	-0.626
-515.872	28.467	0.104	-0.089
-514.858	-200.000	-0.008	0.152
-513.843	106.118	-0.106	-0.126
-512.829	-200.000	0.019	0.109
-511.814	-48.429	-0.364	-0.176
-510.799	-116.118	0.044	-0.008
-509.785	-94.101	-0.037	0.010
-508.770	-58.964	-0.344	0.149
-507.756	9.079	0.116	0.088
-506.741	-13.559	0.065	-0.042
-505.726	-65.242	0.201	-0.081
-504.712	-63.436	0.229	0.094
-503.697	-65.244	0.464	-0.187
-502.683	-200.000	0.028	0.166
-501.668	476.669	-0.043	0.097
-500.653	13.476	0.268	0.208
-499.639	603.046	-0.076	-0.188
-498.624	-158.393	-0.063	0.004
-497.610	-200.000	0.001	-0.085
-496.595	-36.252	-0.127	0.069
-495.581	-200.000	0.045	-0.223
-494.566	108.867	0.107	0.128
-493.551	-46.906	-0.415	-0.203
-492.537	45.590	-0.083	-0.076
-491.522	-200.000	-0.009	-0.140
-490.508	151.640	0.186	-0.254
-489.493	-35.838	0.144	0.078
-488.478	155.301	-0.052	-0.071
-487.464	-200.000	-0.015	-0.121
-486.449	282.235	-0.124	0.222
-485.435	-200.000	-0.004	-0.191
-484.420	-82.844	0.224	-0.073
-483.405	-200.000	-0.030	-0.174
-482.391	-200.000	-0.002	-0.065
-481.376	144.177	-0.220	0.294
-480.362	26.933	0.238	0.200
-479.347	-200.000	0.021	-0.112
-478.332	800.000	-0.018	0.061
-477.318	-9.641	-0.148	-0.099
-476.303	8.021	-0.179	-0.135
-475.289	800.000	0.078	-0.322
-474.274	800.000	-0.020	-0.062
-473.259	98.785	0.151	0.174
-472.245	-177.982	-0.172	0.004
-471.230	-90.320	-0.274	0.080
-470.216	-35.101	-0.050	-0.027
-469.201	271.097	-0.015	-0.026
-468.186	18.146	-0.172	0.138
-467.172	-123.441	-0.110	-0.017
-466.157	96.686	-0.149	-0.171
-465.143	800.000	0.074	0.206
-464.128	-200.000	-0.014	-0.270
-463.113	-200.000	-0.013	-0.333
-462.099	800.000	-0.010	0.034
-461.084	800.000	-0.037	-0.110
-460.070	61.070	-0.044	0.044
-459.055	-200.000	0.031	-0.352
-458.040	-134.766	0.140	0.017
-457.026	-200.000	-0.005	0.164
-456.011	-14.885	-0.224	-0.144
-454.997	-80.493	0.121	0.041
-453.982	156.475	0.087	-0.120
-452.968	-21.095	-0.216	0.132
-451.953	71.326	0.043	0.045
-450.938	-200.000	-0.003	-0.015
-449.924	-200.000	-0.055	0.376
-448.909	800.000	0.087	0.297
-447.895	-133.320	0.202	0.025
-446.880	268.651	-0.151	0.265
-445.865	-107.111	0.526	-0.116
-444.851	481.891	-0.041	0.093
-443.836	-18.667	0.096	-0.060
-442.822	-200.000	-0.030	-0.184
-441.807	-4.251	0.155	0.107
-440.792	428.309	0.078	0.168
-439.778	-182.824	-0.126	-0.002
-438.763	-88.101	0.358	0.107
-437.749	198.018	0.143	0.219
-436.734	-81.456	-0.207	0.068
-435.719	-60.347	-0.162	-0.069
-434.705	122.176	-0.191	-0.238
-433.690	307.400	-0.112	0.208
-432.676	27.154	-0.174	-0.146
-431.661	-200.000	-0.023	0.215
-430.646	-200.000	-0.055	0.310
-429.632	13.393	-0.129	0.100
-428.617	-166.773	0.161	-0.007
-427.603	-101.161	-0.130	0.032
-426.588	-21.061	-0.306	0.187
-425.573	136.997	0.120	0.157
-424.559	-111.835	-0.089	0.018
-423.544	172.725	0.070	-0.100
-422.530	-200.000	-0.015	-0.109
-421.515	-32.816	0.254	0.141
-420.500	-80.397	0.224	-0.075
-419.486	-144.680	-0.353	-0.033
-418.471	-55.895	0.081	-0.036
-417.457	-139.113	0.286	0.031
-416.442	148.496	-0.212	0.286
-415.428	60.731	0.316	0.313
-414.413	-96.135	0.252	-0.067
-413.398	-200.000	-0.020	0.096
-412.384	-42.115	-0.330	0.169
-411.369	-200.000	-0.006	0.141
-410.355	-111.937	-0.118	-0.024
-409.340	-200.000	0.057	0.000
-408.325	-200.000	0.013	0.240
-407.311	-101.765	0.379	0.092
-406.296	311.957	-0.123	-0.231
-405.282	126.625	-0.102	-0.129
-404.267	132.783	-0.197	-0.254
-403.252	-200.000	0.002	0.107
-402.238	-60.094	0.126	-0.054
-401.223	165.342	-0.034	0.047
-400.209	1.073	-0.180	0.129
-399.194	262.722	-0.103	-0.178
-398.179	800.000	-0.069	-0.294
-397.165	116.823	-0.045	-0.055
-396.150	-200.000	0.013	-0.060
-395.136	800.000	0.056	0.177
-394.121	-200.000	0.038	-0.254
-393.106	0.669	0.167	-0.120
-392.092	598.856	-0.080	-0.199
-391.077	97.852	0.355	0.407
-390.063	800.000	-0.100	-0.296
-389.048	767.440	0.108	-0.293
-388.033	-138.783	-0.362	-0.039
-387.019	502.630	-0.085	-0.196
-386.004	-200.000	0.045	-0.231
-384.990	-30.261	0.068	0.039
-383.975	82.879	-0.254	-0.276
-382.960	548.050	-0.080	-0.190
-381.946	414.242	-0.008	0.018
-380.931	464.918	0.112	-0.251
-379.917	133.444	-0.073	-0.094
-378.902	227.767	0.017	0.027
-377.888	394.548	-0.115	-0.239
-376.873	-156.971	-0.344	0.021
-375.858	-83.048	0.270	-0.087
-374.844	-54.497	0.156	0.071
-373.829	85.112	0.115	-0.126
-372.815	-130.124	-0.250	0.034
-371.800	-200.000	-0.013	-0.083
-370.785	389.432	0.128	-0.266
-369.771	800.000	0.047	0.131
-368.756	279.930	-0.138	0.247
-367.742	62.703	0.075	0.075
-366.727	-60.064	-0.312	0.133
-365.712	162.487	0.071	-0.099
-364.698	371.345	0.095	-0.193
-363.683	-85.646	-0.257	0.080
-362.669	-144.143	-0.263	0.025
-361.654	800.000	-0.044	-0.166
-360.639	52.075	-0.080	0.076
-359.625	260.694	0.116	0.200
-358.610	97.408	-0.157	-0.180
-357.596	-96.384	-0.280	0.074
-356.581	27.688	0.112	-0.094
-355.566	-22.450	-0.059	0.036
-354.552	23.685	0.192	-0.158
-353.537	-200.000	0.003	-0.047
-352.523	142.152	-0.170	-0.225
-351.508	-5.621	-0.133	-0.091
-350.493	800.000	-0.039	0.130
-349.479	101.432	-0.050	0.058
-348.464	-52.907	0.190	0.087
-347.450	-200.000	-0.006	-0.057
-346.435	-52.940	0.120	-0.055
-345.420	20.761	-0.114	-0.092
-344.406	98.209	0.157	0.180
-343.391	-200.000	-0.083	0.505
-342.377	67.718	0.111	-0.113
-341.362	-67.069	-0.608	-0.239
-340.348	-200.000	0.008	-0.191
-339.333	-52.324	0.436	0.201
-338.318	195.374	-0.101	-0.153
-337.304	95.890	-0.216	0.245
-336.289	-124.943	-0.141	0.022
-335.275	800.000	-0.030	-0.127
-334.260	-130.272	0.144	0.020
-333.245	-122.223	-0.170	0.028
-332.231	-200.000	0.034	0.272
-331.216	800.000	0.094	0.361
-330.202	-200.000	-0.005	0.211
-329.187	800.000	0.019	-0.068
-328.172	396.287	-0.142	-0.295
-327.158	800.000	-0.061	0.231
-326.143	47.242	-0.120	0.111
-325.129	-72.344	-0.359	0.132
-324.114	-200.000	0.008	0.142
-323.099	-74.748	0.198	-0.071
-322.085	18.373	-0.157	-0.125
-321.070	-200.000	-0.000	-0.212
-320.056	259.463	0.108	0.186
-319.041	469.004	-0.041	-0.091
-318.026	800.000	-0.041	0.116
-317.012	-98.562	-0.131	0.033
-315.997	210.322	-0.094	-0.147
-314.983	-35.363	-0.206	0.112
-313.968	-200.000	0.039	0.279
-312.953	-98.437	-0.028	-0.007
-311.939	-133.744	0.229	-0.028
-310.924	20.298	0.189	0.152
-309.910	58.218	-0.090	0.088
-308.895	24.711	0.252	0.207
-307.880	800.000	0.104	-0.415
-306.866	800.000	0.056	0.186
-305.851	-25.196	-0.316	0.186
-304.837	82.324	0.048	0.052
-303.822	-60.613	0.102	0.043
-302.807	81.512	-0.159	0.171
-301.793	800.000	0.031	-0.116
-300.778	115.205	0.174	-0.212
-299.764	584.858	0.082	-0.201
-298.749	415.296	0.152	0.322
-297.735	30.479	-0.183	-0.155
-296.720	269.236	0.106	0.185
-295.705	800.000	-0.043	-0.159
-294.691	800.000	-0.029	0.089
-293.676	-45.326	-0.139	-0.068
-292.662	800.000	0.066	0.199
-291.647	800.000	0.050	-0.171
-290.632	-102.600	0.318	-0.076
-289.618	-90.678	-0.211	-0.061
-288.603	-16.190	-0.310	-0.196
-287.589	52.616	-0.054	-0.051
-286.574	-44.061	-0.132	-0.066
-285.559	-178.215	-0.042	0.001
-284.545	-200.000	0.009	-0.100
-283.530	-77.752	0.362	-0.124
-282.516	250.903	0.068	-0.115
-281.501	-97.196	0.157	-0.041
-280.486	800.000	-0.085	-0.291
-279.472	202.469	0.110	-0.168
-278.457	115.574	0.104	-0.126
-277.443	210.877	-0.229	-0.358
-276.428	-64.666	0.166	0.067
-275.413	-200.000	0.035	-0.339
-274.399	-200.000	-0.001	-0.101
-273.384	-200.000	0.008	-0.145
-272.370	800.000	-0.070	0.296
-271.355	-93.491	0.201	-0.055
-270.340	-165.016	0.291	-0.013
-269.326	267.524	-0.107	-0.186
-268.311	524.658	-0.018	0.043
-267.297	347.399	-0.084	0.164
-266.282	75.818	0.072	-0.075
-265.267	90.162	0.237	0.263
-264.253	224.938	-0.049	0.078
-263.238	53.276	-0.188	0.179
-262.224	-106.888	0.110	0.024
-261.209	-104.430	0.311	0.071
-260.195	120.602	0.052	-0.064
-259.180	-200.000	-0.013	0.174
-258.165	-101.689	-0.071	-0.017
-257.151	-159.774	0.246	0.013
-256.136	186.319	-0.125	-0.184
-255.122	56.072	0.267	0.258
-254.107	393.433	0.142	0.294
-253.092	-200.000	0.035	0.391
-252.078	-200.000	0.017	0.134
-251.063	-68.532	0.080	-0.031
-250.049	-42.686	0.225	0.114
-249.034	20.320	-0.231	0.186
-248.019	-200.000	-0.012	-0.257
-247.005	110.842	0.038	-0.045
-245.990	-89.715	-0.157	0.046
-244.976	-63.947	-0.215	-0.087
-243.961	380.475	0.119	-0.243
-242.946	-200.000	-0.047	0.458
-241.932	-71.327	-0.059	0.022
-240.917	-200.000	0.021	0.149
-239.903	800.000	0.087	0.278
-238.888	-200.000	-0.044	-0.343
-237.873	-200.000	-0.010	-0.057
-236.859	-167.320	-0.283	-0.011
-235.844	29.396	0.348	0.293
-234.830	-200.000	0.012	0.109
-233.815	92.081	-0.041	0.046
-232.800	179.514	0.043	0.062
-231.786	7.486	-0.170	0.126
-230.771	162.034	0.142	-0.197
-229.757	79.554	0.219	-0.233
-228.742	277.711	0.086	0.152
-227.727	-200.000	0.005	-0.452
-226.713	251.426	-0.114	-0.193
-225.698	119.539	0.099	0.122
-224.684	117.804	-0.271	0.331
-223.669	-200.000	-0.007	0.067
-222.655	181.147	0.067	-0.098
-221.640	-200.000	0.035	0.269
-220.625	800.000	-0.052	0.186
-219.611	29.790	-0.138	0.116
-218.596	-63.928	-0.174	0.071
-217.582	284.353	-0.038	-0.068
-216.567	-12.526	0.276	0.179
-215.552	-103.454	0.145	-0.034
-214.538	-200.000	-0.015	0.153
-213.523	-186.605	0.065	0.001
-212.509	45.532	-0.472	0.433
-211.494	-23.033	0.286	0.171
-210.479	178.485	-0.098	0.142
-209.465	108.234	-0.081	0.096
-208.450	153.807	-0.129	0.175
-207.436	-14.783	0.302	-0.192
-206.421	155.234	0.081	-0.110
-205.406	-3.793	0.086	-0.059
-204.392	112.141	-0.177	-0.212
-203.377	81.614	-0.094	0.100
-202.363	150.039	-0.116	0.156
-201.348	-182.807	0.151	0.003
-200.333	-144.578	0.155	0.014
-199.319	338.552	0.132	-0.256
-198.304	254.331	-0.151	-0.256
-197.290	-57.166	-0.078	-0.034
-196.275	550.101	0.070	0.165
-195.260	-200.000	0.020	-0.093
-194.246	365.461	-0.049	0.098
-193.231	44.021	-0.154	0.140
-192.217	-38.988	-0.162	-0.085
-191.202	-200.000	-0.013	0.154
-190.187	-49.585	0.097	0.046
-189.173	-102.812	-0.276	-0.065
-188.158	-200.000	-0.010	-0.100
-187.144	-59.275	0.270	-0.115
-186.129	385.922	-0.116	0.238
-185.114	-200.000	0.039	0.303
-184.100	-112.435	-0.333	-0.066
-183.085	-28.812	0.397	-0.226
-182.071	800.000	0.053	0.173
-181.056	-41.552	-0.137	-0.070
-180.042	-76.790	0.303	0.105
-179.027	-90.260	-0.290	0.083
-178.012	-200.000	0.007	-0.083
-176.998	33.993	0.104	0.089
-175.983	248.092	0.098	0.164
-174.969	-79.872	-0.358	-0.119
-173.954	133.828	0.233	-0.298
-172.939	48.892	-0.093	0.086
-171.925	-200.000	-0.037	-0.221
-170.910	-76.105	0.113	0.039
-169.896	800.000	-0.042	0.181
-168.881	309.792	0.043	0.079
-167.866	157.399	-0.031	0.043
-166.852	782.884	0.142	0.385
-165.837	32.570	0.160	-0.137
-164.823	-168.377	0.182	-0.007
-163.808	-67.598	-0.327	0.127
-162.793	-179.778	-0.242	-0.005
-161.779	-15.268	0.360	-0.228
-160.764	309.335	0.055	0.102
-159.750	800.000	0.098	0.281
-158.735	800.000	0.024	0.074
-157.720	-97.244	0.275	-0.071
-156.706	-129.701	0.232	0.032
-155.691	521.520	-0.103	0.239
-154.677	35.848	-0.207	-0.180
-153.662	-155.522	0.215	-0.014
-152.647	130.369	0.062	-0.079
-151.633	-51.247	0.153	0.071
-150.618	54.066	-0.229	0.218
-149.604	-54.457	-0.104	-0.047
-148.589	517.731	-0.111	0.258
-147.574	14.622	0.161	0.124
-146.560	118.297	-0.155	0.189
-145.545	110.180	-0.032	0.038
-144.531	-138.739	-0.175	0.019
-143.516	58.837	0.213	-0.207
-142.502	-126.526	-0.109	0.016
-141.487	294.947	-0.067	-0.122
-140.472	18.381	-0.178	0.141
-139.458	-131.264	0.337	0.044
-138.443	-54.091	0.198	0.089
-137.429	-50.115	-0.186	-0.087
-136.414	-35.443	0.434	0.233
-135.399	7.867	-0.101	0.075
-134.385	-200.000	-0.026	0.256
-133.370	-200.000	0.071	0.328
-132.356	74.439	0.062	-0.065
-131.341	57.750	0.351	0.340
-130.326	381.928	-0.069	0.139
-129.312	-86.081	0.338	0.103
-128.297	18.611	-0.275	0.217
-127.283	-121.629	0.202	-0.033
-126.268	-39.632	-0.254	0.131
-125.253	139.572	0.152	0.197
-124.239	63.538	0.076	0.075
-123.224	-168.052	-0.130	0.005
-122.210	-200.000	0.000	-0.050
-121.195	-113.289	0.211	-0.041
