DTS Sentinel unit serial number:	SN413079Multiplexer serial number:	ORYXHardware model number:	OX4-SRSoftware version number:	ORYX F/W v4.00 Oryx Data Collector v3.7.2.0data status	okinstallation	princeton_trtdifferential loss correction	single-endedforward channel	channel 2reverse channel	N/Adate	2019/09/14time	17:59:35forward acquisition time	60.00reverse acquisition time	0.00gamma	496.2192k internal	0.2313k external	0.2313temperature offset calibration	1.0112default loss term (dB/km)	0.3790temperature slope calibration	1.0000multiplexer offset coefficient	1.0000multiplexer slope coefficient	1.0000fibre end	0.00T internal ref (°C)	37.31T ext. ref 1 (°C)	4.95T ext. ref 2 (°C)	31.89length (m)	temperature (°C)	Stokes	anti-Stokes-747.200	800.000	0.126	0.421
-746.185	800.000	-0.114	0.349
-745.171	-119.972	-0.380	-0.066
-744.156	629.430	-0.062	0.159
-743.142	800.000	-0.092	-0.312
-742.127	-200.000	-0.066	0.404
-741.112	1.801	0.263	0.192
-740.098	-200.000	0.002	0.380
-739.083	-200.000	0.005	0.028
-738.069	88.304	0.197	0.221
-737.054	232.351	-0.057	0.095
-736.039	-200.000	0.010	0.163
-735.025	800.000	-0.065	-0.254
-734.010	800.000	0.041	-0.119
-732.996	-200.000	-0.014	-0.196
-731.981	0.028	0.069	-0.050
-730.966	-200.000	0.064	0.332
-729.952	-114.095	0.142	-0.028
-728.937	-164.115	0.362	0.017
-727.923	747.735	-0.072	-0.196
-726.908	-114.297	-0.085	0.017
-725.894	-106.851	-0.089	0.020
-724.879	-31.508	-0.367	0.209
-723.864	-40.026	0.220	0.116
-722.850	-200.000	-0.035	-0.215
-721.835	800.000	-0.074	-0.327
-720.821	296.278	-0.072	-0.134
-719.806	800.000	0.092	-0.312
-718.791	-75.401	0.082	0.030
-717.777	-109.951	0.245	0.052
-716.762	-37.056	-0.002	0.001
-715.748	440.117	-0.119	0.263
-714.733	-52.753	-0.274	-0.128
-713.718	-200.000	-0.015	0.440
-712.704	141.968	-0.158	-0.213
-711.689	-200.000	0.015	-0.169
-710.675	800.000	-0.078	0.231
-709.660	39.806	-0.256	0.233
-708.645	-200.000	-0.318	-0.001
-707.631	-35.657	0.156	-0.086
-706.616	-23.071	0.134	0.082
-705.602	-87.474	0.309	-0.095
-704.587	483.327	0.061	-0.141
-703.572	-170.844	0.399	-0.014
-702.558	-100.325	-0.073	0.018
-701.543	800.000	0.079	-0.304
-700.529	800.000	0.084	-0.335
-699.514	-87.211	-0.184	0.057
-698.499	800.000	-0.021	0.075
-697.485	146.753	0.143	0.194
-696.470	-37.132	-0.090	0.049
-695.456	-141.498	0.161	-0.017
-694.441	-200.000	0.031	0.198
-693.426	294.225	-0.151	-0.280
-692.412	-200.000	-0.021	-0.167
-691.397	-33.494	-0.039	-0.022
-690.383	800.000	-0.007	0.028
-689.368	-187.185	0.287	0.004
-688.354	-129.334	-0.259	0.036
-687.339	119.718	0.102	0.128
-686.324	77.730	0.145	0.157
-685.310	-200.000	-0.037	0.228
-684.295	-97.585	0.401	-0.105
-683.281	274.196	0.077	0.137
-682.266	-200.000	-0.007	0.251
-681.251	-97.698	-0.056	0.015
-680.237	-200.000	0.010	-0.198
-679.222	800.000	-0.114	-0.326
-678.208	800.000	0.094	-0.280
-677.193	0.248	-0.327	0.236
-676.178	-68.625	-0.086	-0.034
-675.164	-59.538	0.150	-0.065
-674.149	-167.583	-0.283	-0.011
-673.135	800.000	0.037	0.130
-672.120	-44.725	-0.336	0.169
-671.105	800.000	-0.097	0.351
-670.091	94.090	0.189	0.216
-669.076	107.050	-0.077	0.092
-668.062	-90.571	0.297	0.087
-667.047	-53.648	0.358	0.165
-666.032	121.199	0.079	0.100
-665.018	800.000	0.086	0.319
-664.003	-31.692	0.198	-0.112
-662.989	-17.845	-0.177	-0.112
-661.974	-200.000	0.010	0.071
-660.959	7.952	0.221	0.168
-659.945	-142.211	-0.158	-0.016
-658.930	-55.752	-0.196	-0.088
-657.916	-123.037	0.059	-0.010
-656.901	-51.184	0.227	0.108
-655.886	-79.109	0.266	0.091
-654.872	24.505	0.100	0.084
-653.857	-106.422	0.021	0.005
-652.843	498.405	0.008	0.018
-651.828	126.671	0.201	-0.257
-650.814	800.000	0.078	-0.247
-649.799	93.412	0.154	-0.176
-648.784	-49.361	-0.279	0.135
-647.770	-200.000	-0.042	-0.281
-646.755	-63.465	0.157	0.065
-645.741	51.658	-0.289	0.278
-644.726	-126.327	-0.239	0.036
-643.711	-61.539	0.276	0.117
-642.697	-124.115	0.350	0.055
-641.682	-200.000	0.009	-0.125
-640.668	64.177	-0.187	-0.190
-639.653	-71.275	-0.249	0.094
-638.638	-42.573	0.280	-0.144
-637.624	35.074	0.211	0.186
-636.609	443.810	-0.069	-0.153
-635.595	-72.906	0.083	0.031
-634.580	-200.000	0.025	-0.290
-633.565	-10.579	-0.316	0.211
-632.551	-200.000	-0.038	-0.344
-631.536	150.726	0.225	-0.309
-630.522	-200.000	-0.024	-0.153
-629.507	39.867	-0.153	0.139
-628.492	-6.778	-0.063	-0.043
-627.478	-43.590	-0.182	0.093
-626.463	-200.000	-0.036	-0.365
-625.449	-200.000	0.015	-0.306
-624.434	218.997	-0.159	0.257
-623.419	62.262	0.243	0.245
-622.405	800.000	0.101	0.443
-621.390	31.478	-0.044	0.038
-620.376	-27.865	-0.117	-0.068
-619.361	-29.113	-0.442	0.256
-618.346	800.000	-0.060	0.232
-617.332	-200.000	0.045	0.201
-616.317	-35.295	-0.125	-0.068
-615.303	130.907	-0.188	-0.243
-614.288	174.056	0.066	0.096
-613.273	11.008	0.038	0.029
-612.259	553.968	-0.049	-0.119
-611.244	21.286	0.157	0.129
-610.230	-180.525	0.245	-0.005
-609.215	198.885	-0.110	0.171
-608.201	-114.531	-0.102	0.020
-607.186	800.000	-0.048	-0.183
-606.171	-173.285	0.177	0.005
-605.157	60.600	-0.027	0.027
-604.142	203.565	-0.071	-0.110
-603.128	800.000	-0.123	0.348
-602.113	-200.000	0.008	0.151
-601.098	-117.764	-0.149	-0.027
-600.084	-109.624	-0.287	-0.061
-599.069	-200.000	0.039	-0.274
-598.055	28.060	0.190	0.162
-597.040	32.700	0.270	-0.236
-596.025	261.172	0.120	0.209
-595.011	244.815	0.103	-0.175
-593.996	458.300	-0.096	0.215
-592.982	90.664	0.082	0.093
-591.967	464.393	-0.062	-0.139
-590.952	-27.748	-0.137	0.080
-589.938	800.000	0.078	0.310
-588.923	-7.284	0.374	0.256
-587.909	78.613	0.035	-0.038
-586.894	-6.821	-0.212	-0.145
-585.879	126.914	-0.171	0.219
-584.865	-82.058	-0.059	-0.019
-583.850	-100.531	-0.093	-0.023
-582.836	-200.000	0.055	-0.500
-581.821	244.948	-0.116	-0.196
-580.806	-192.372	-0.153	-0.001
-579.792	-28.866	0.276	-0.160
-578.777	-73.696	-0.386	0.142
-577.763	800.000	0.090	0.300
-576.748	398.501	-0.106	-0.224
-575.733	383.872	0.061	0.127
-574.719	-200.000	0.001	0.027
-573.704	15.273	-0.153	-0.121
-572.690	-28.713	0.236	-0.137
-571.675	85.222	-0.121	-0.134
-570.661	-200.000	0.005	-0.315
-569.646	-143.344	-0.097	-0.009
-568.631	194.709	0.230	0.352
-567.617	800.000	-0.126	0.359
-566.602	167.825	-0.172	-0.247
-565.588	90.287	-0.232	-0.261
-564.573	304.238	0.041	0.076
-563.558	-137.821	-0.349	-0.039
-562.544	-200.000	-0.018	-0.301
-561.529	-200.000	-0.059	-0.405
-560.515	-200.000	0.055	-0.289
-559.500	39.358	0.081	-0.073
-558.485	-39.423	-0.017	-0.009
-557.471	-114.188	0.133	0.026
-556.456	-91.835	-0.171	0.049
-555.442	31.906	-0.076	0.066
-554.427	96.126	0.036	-0.042
-553.412	260.524	-0.044	0.077
-552.398	-120.574	-0.447	-0.076
-551.383	-51.694	0.203	-0.095
-550.369	-200.000	0.014	-0.420
-549.354	88.203	-0.133	0.149
-548.339	-52.915	-0.250	0.116
-547.325	800.000	0.020	0.071
-546.310	140.124	-0.136	-0.180
-545.296	67.464	-0.159	0.163
-544.281	-200.000	-0.029	0.165
-543.266	489.062	0.102	0.234
-542.252	85.944	0.115	-0.127
-541.237	-53.328	-0.039	-0.018
-540.223	-148.411	-0.366	-0.030
-539.208	357.951	-0.086	-0.172
-538.193	-200.000	0.031	0.237
-537.179	-14.697	0.222	0.143
-536.164	-22.995	0.064	0.039
-535.150	20.698	-0.055	-0.045
-534.135	-35.086	-0.567	0.311
-533.121	800.000	0.045	-0.155
-532.106	125.981	0.080	-0.102
-531.091	1.411	-0.264	0.191
-530.077	-142.709	0.222	-0.022
-529.062	-21.947	-0.068	-0.042
-528.048	443.378	-0.072	-0.160
-527.033	-98.892	-0.276	-0.070
-526.018	-131.324	0.570	0.076
-525.004	51.873	0.232	-0.222
-523.989	21.707	-0.159	-0.131
-522.975	-178.151	-0.321	-0.008
-521.960	-104.153	-0.173	-0.040
-520.945	31.484	0.031	-0.027
-519.931	-86.419	0.212	-0.066
-518.916	122.412	0.040	-0.051
-517.902	-200.000	-0.038	0.283
-516.887	-124.309	-0.057	-0.009
-515.872	-62.272	-0.101	-0.042
-514.858	-3.585	0.100	-0.070
-513.843	82.538	0.196	-0.214
-512.829	-146.510	-0.150	-0.013
-511.814	-3.271	-0.158	0.111
-510.799	406.156	-0.080	0.169
-509.785	-72.620	-0.157	0.058
-508.770	-200.000	0.017	-0.345
-507.756	-200.000	-0.032	-0.175
-506.741	-200.000	-0.067	-0.448
-505.726	-129.471	-0.485	0.068
-504.712	800.000	-0.047	0.203
-503.697	-110.148	-0.163	-0.034
-502.683	-200.000	-0.058	0.416
-501.668	-174.462	0.194	-0.006
-500.653	30.855	-0.027	0.023
-499.639	193.369	-0.142	-0.215
-498.624	44.046	0.161	-0.148
-497.610	-43.578	0.052	-0.026
-496.595	614.096	0.057	-0.144
-495.581	44.412	0.058	0.054
-494.566	-46.641	-0.206	-0.102
-493.551	-200.000	0.015	0.185
-492.537	170.322	-0.044	-0.063
-491.522	6.438	0.226	-0.169
-490.508	800.000	-0.105	-0.442
-489.493	462.604	-0.078	0.175
-488.478	178.369	-0.208	0.305
-487.464	-0.419	0.092	0.066
-486.449	800.000	-0.049	-0.189
-485.435	276.035	-0.184	0.328
-484.420	800.000	0.105	0.320
-483.405	256.563	0.218	0.375
-482.391	-148.465	0.212	0.017
-481.376	-151.230	-0.174	0.013
-480.362	178.283	-0.072	0.105
-479.347	123.235	-0.131	0.165
-478.332	-98.927	-0.245	0.062
-477.318	335.610	-0.143	0.279
-476.303	-171.871	0.406	0.013
-475.289	44.005	0.133	0.122
-474.274	-118.086	0.211	-0.038
-473.259	-8.381	0.268	0.181
-472.245	646.777	0.028	0.071
-471.230	-25.577	-0.112	-0.067
-470.216	-33.806	0.162	-0.090
-469.201	-200.000	-0.057	-0.312
-468.186	145.439	0.188	-0.252
-467.172	-125.171	0.295	-0.045
-466.157	349.910	-0.172	-0.341
-465.143	800.000	0.067	-0.281
-464.128	441.178	0.072	-0.158
-463.113	212.678	-0.080	-0.127
-462.099	-106.761	-0.257	-0.057
-461.084	199.425	-0.193	0.297
-460.070	-31.710	0.067	-0.038
-459.055	-200.000	-0.021	0.124
-458.040	-112.656	-0.200	-0.040
-457.026	-119.920	-0.208	-0.036
-456.011	53.297	0.180	0.173
-454.997	623.597	0.107	-0.270
-453.982	680.294	-0.068	-0.177
-452.968	750.626	0.109	-0.295
-451.953	435.940	0.066	-0.143
-450.938	-29.276	-0.203	0.116
-449.924	-54.996	0.241	0.109
-448.909	-112.693	0.236	0.047
-447.895	713.942	0.047	-0.126
-446.880	-101.358	0.174	-0.043
-445.865	130.151	0.070	0.090
-444.851	-200.000	-0.017	0.383
-443.836	-96.694	-0.358	-0.094
-442.822	-79.978	-0.076	-0.025
-441.807	10.146	-0.251	-0.191
-440.792	-63.935	0.180	0.074
-439.778	209.261	-0.186	0.292
-438.763	-200.000	-0.009	-0.165
-437.749	-200.000	-0.041	0.303
-436.734	-159.089	-0.065	-0.004
-435.719	800.000	-0.058	-0.165
-434.705	-21.470	0.278	-0.170
-433.690	641.788	-0.089	-0.228
-432.676	-56.658	0.182	0.081
-431.661	-70.555	0.182	0.069
-430.646	181.407	0.126	0.186
-429.632	-6.877	0.345	0.235
-428.617	800.000	0.029	-0.125
-427.603	800.000	-0.132	-0.412
-426.588	800.000	-0.036	0.112
-425.573	-157.436	0.263	0.016
-424.559	-29.486	-0.158	-0.091
-423.544	-71.312	0.073	-0.027
-422.530	-63.132	-0.108	-0.044
-421.515	198.411	-0.129	-0.197
-420.500	94.725	-0.224	0.255
-419.486	537.111	-0.014	0.033
-418.471	-97.748	0.223	-0.058
-417.457	-200.000	0.006	0.126
-416.442	-32.877	0.229	-0.127
-415.428	-52.846	-0.334	0.154
-414.413	-200.000	0.010	-0.088
-413.398	47.066	0.202	0.188
-412.384	-84.753	0.111	0.035
-411.369	-82.857	-0.200	0.065
-410.355	82.234	0.234	0.254
-409.340	-139.615	0.116	-0.012
-408.325	127.584	-0.129	0.164
-407.311	-50.899	0.082	0.038
-406.296	58.897	0.216	-0.213
-405.282	676.401	0.071	0.184
-404.267	-153.110	0.512	0.036
-403.252	329.718	0.118	0.227
-402.238	-33.035	-0.184	-0.102
-401.223	175.510	-0.105	0.153
-400.209	-200.000	0.015	-0.149
-399.194	259.413	-0.029	0.050
-398.179	800.000	-0.010	0.031
-397.165	282.899	0.196	-0.351
-396.150	-150.702	-0.114	-0.009
-395.136	-200.000	-0.011	0.251
-394.121	-156.322	-0.012	0.001
-393.106	-70.434	0.066	0.025
-392.092	-200.000	0.020	0.150
-391.077	-114.624	0.489	-0.094
-390.063	-200.000	0.044	0.208
-389.048	-40.399	0.151	0.078
-388.033	-142.881	0.136	-0.013
-387.019	800.000	-0.092	-0.386
-386.004	509.653	0.106	0.246
-384.990	-57.244	-0.025	-0.011
-383.975	-92.973	0.461	-0.129
-382.960	33.128	-0.189	0.164
-381.946	-120.333	-0.306	-0.052
-380.931	-164.816	0.207	0.009
-379.917	-77.521	0.228	0.079
-378.902	-200.000	0.037	0.223
-377.888	-200.000	-0.041	0.323
-376.873	8.713	0.107	-0.081
-375.858	496.981	-0.094	-0.216
-374.844	-200.000	0.003	-0.195
-373.829	-200.000	-0.025	-0.266
-372.815	-106.763	-0.255	0.057
-371.800	-53.639	0.111	0.051
-370.785	-99.673	0.137	0.034
-369.771	369.152	0.074	-0.149
-368.756	-110.595	-0.050	-0.010
-367.742	-25.106	0.114	0.067
-366.727	800.000	0.042	-0.181
-365.712	-200.000	-0.006	-0.025
-364.698	800.000	-0.019	-0.065
-363.683	15.215	-0.114	0.089
-362.669	-126.746	-0.435	0.064
-361.654	23.526	0.109	0.090
-360.639	347.698	0.025	-0.050
-359.625	79.585	0.213	-0.229
-358.610	128.698	-0.053	-0.067
-357.596	800.000	-0.078	0.303
-356.581	-24.050	0.298	-0.178
-355.566	-129.349	0.145	0.020
-354.552	84.956	-0.189	-0.207
-353.537	100.605	0.058	0.067
-352.523	-200.000	-0.069	0.588
-351.508	-91.973	0.160	0.045
-350.493	-200.000	-0.145	0.001
-349.479	-200.000	0.009	0.041
-348.464	-115.340	-0.109	0.021
-347.450	570.287	-0.046	-0.111
-346.435	121.177	0.204	0.253
-345.420	-200.000	-0.053	0.237
-344.406	-59.103	0.210	-0.091
-343.391	345.897	0.023	-0.044
-342.377	-119.183	0.201	0.035
-341.362	109.859	-0.231	0.277
-340.348	217.091	-0.020	-0.032
-339.333	-124.715	-0.303	0.047
-338.318	-200.000	-0.045	0.229
-337.304	337.309	-0.121	0.235
-336.289	-20.332	-0.153	0.094
-335.275	-118.370	0.401	0.071
-334.260	129.821	0.014	-0.018
-333.245	-156.368	0.225	-0.014
-332.231	-200.000	-0.033	0.195
-331.216	-200.000	0.033	-0.202
-330.202	-30.210	0.049	0.028
-329.187	-36.711	0.076	-0.040
-328.172	-200.000	-0.035	-0.253
-327.158	-21.035	0.247	0.151
-326.143	-74.651	-0.208	0.075
-325.129	25.366	0.154	-0.128
-324.114	800.000	-0.066	-0.188
-323.099	-99.383	-0.440	0.111
-322.085	91.027	0.208	0.232
-321.070	197.273	0.071	-0.108
-320.056	800.000	-0.027	-0.101
-319.041	-87.725	-0.311	-0.094
-318.026	-180.177	0.094	-0.002
-317.012	-106.727	-0.309	-0.069
-315.997	-200.000	-0.005	0.138
-314.983	12.355	-0.211	-0.162
-313.968	-149.500	0.272	0.021
-312.953	-147.464	-0.206	0.017
-311.939	293.969	0.108	0.197
-310.924	-182.242	0.174	-0.003
-309.910	-200.000	-0.040	-0.247
-308.895	36.654	0.003	0.003
-307.880	-21.720	0.288	0.175
-306.866	315.277	-0.191	0.360
-305.851	-200.000	-0.062	-0.311
-304.837	-200.000	0.067	-0.477
-303.822	800.000	0.040	-0.175
-302.807	80.691	0.047	0.050
-301.793	-200.000	-0.050	0.269
-300.778	32.738	0.382	-0.330
-299.764	281.249	-0.137	-0.244
-298.749	-10.136	-0.198	-0.131
-297.735	-94.084	0.169	-0.046
-296.720	131.202	-0.063	0.081
-295.705	-112.019	-0.130	-0.026
-294.691	187.364	-0.115	-0.171
-293.676	637.139	0.099	-0.250
-292.662	344.498	0.162	-0.318
-291.647	151.637	0.078	-0.106
-290.632	-30.346	-0.280	0.159
-289.618	572.011	-0.107	-0.259
-288.603	800.000	0.108	-0.373
-287.589	-200.000	0.046	0.202
-286.574	-200.000	-0.025	-0.273
-285.559	196.047	0.072	0.110
-284.545	-88.280	0.115	0.034
-283.530	31.236	0.142	0.121
-282.516	-131.477	0.207	-0.027
-281.501	-58.246	0.207	0.090
-280.486	800.000	-0.067	-0.248
-279.472	-159.440	-0.175	-0.010
-278.457	-10.052	-0.182	-0.121
-277.443	-29.645	-0.080	0.046
-276.428	-65.338	0.259	0.104
-275.413	-200.000	0.019	-0.271
-274.399	-200.000	-0.012	0.302
-273.384	-39.832	-0.420	-0.218
-272.370	274.855	0.150	-0.265
-271.355	-185.178	-0.093	0.001
-270.340	39.532	-0.195	-0.174
-269.326	800.000	0.070	-0.197
-268.311	-68.696	-0.246	0.095
-267.297	273.368	0.071	-0.125
-266.282	196.119	-0.129	-0.195
-265.267	91.858	-0.154	0.172
-264.253	800.000	-0.051	0.195
-263.238	-127.790	0.133	-0.019
-262.224	46.828	0.188	-0.174
-261.209	-45.369	0.198	0.098
-260.195	152.665	-0.153	0.208
-259.180	107.267	-0.137	0.162
-258.165	302.254	-0.191	0.352
-257.151	584.091	-0.054	-0.131
-256.136	220.362	0.029	0.046
-255.122	56.226	0.116	0.113
-254.107	800.000	-0.070	-0.218
-253.092	-200.000	0.001	0.260
-252.078	-155.895	0.167	0.011
-251.063	-200.000	-0.008	0.148
-250.049	75.679	-0.032	0.033
-249.034	-60.081	-0.231	0.098
-248.019	-88.906	0.101	-0.030
-247.005	-85.153	0.255	-0.079
-245.990	174.367	-0.126	0.181
-244.976	640.126	0.043	-0.110
-243.961	4.781	0.438	-0.320
-242.946	-0.130	0.244	-0.173
-241.932	339.367	0.033	-0.064
-240.917	-6.048	-0.248	0.169
-239.903	-56.592	0.189	-0.083
-238.888	108.022	0.108	0.128
-237.873	-91.062	-0.336	0.096
-236.859	-33.807	0.104	0.057
-235.844	297.950	0.047	-0.086
-234.830	800.000	-0.086	-0.279
-233.815	330.978	0.119	0.228
-232.800	162.000	-0.101	0.140
-231.786	-104.875	0.409	-0.093
-230.771	359.868	-0.121	0.240
-229.757	-23.445	0.104	0.062
-228.742	-181.582	0.126	-0.002
-227.727	188.318	0.176	0.262
-226.713	-49.290	0.302	-0.143
-225.698	46.706	-0.036	-0.033
-224.684	7.395	-0.238	-0.177
-223.669	-129.620	0.186	0.026
-222.655	346.459	0.163	-0.319
-221.640	-20.349	0.303	0.185
-220.625	-146.951	-0.278	0.024
-219.611	-64.136	-0.084	-0.034
-218.596	94.548	-0.132	-0.149
-217.582	-91.168	0.104	-0.030
-216.567	800.000	-0.074	0.284
-215.552	-69.935	-0.366	0.139
-214.538	-33.064	-0.246	0.135
-213.523	-142.793	-0.167	-0.016
-212.509	-139.624	0.171	0.018
-211.494	45.285	-0.170	0.156
-210.479	56.501	-0.055	0.053
-209.465	-200.000	-0.021	0.143
-208.450	-119.898	-0.196	-0.033
-207.436	129.007	-0.192	-0.244
-206.421	800.000	-0.042	0.132
-205.406	-177.339	0.120	-0.003
-204.392	800.000	0.067	-0.208
-203.377	124.702	-0.189	0.236
-202.363	9.200	0.120	-0.090
-201.348	-200.000	-0.014	-0.230
-200.333	-113.136	-0.219	0.043
-199.319	43.400	-0.127	0.115
-198.304	-88.780	0.281	0.083
-197.290	30.801	-0.199	-0.169
-196.275	7.732	0.126	0.093
-195.260	-192.606	0.327	0.003
-194.246	-166.726	-0.245	0.010
-193.231	-146.283	-0.322	-0.028
-192.217	-200.000	-0.038	-0.228
-191.202	36.996	-0.235	-0.206
-190.187	-118.285	0.068	0.012
-189.173	-147.955	-0.288	0.024
-188.158	-152.661	-0.064	0.005
-187.144	-200.000	0.004	0.119
-186.129	45.713	0.275	0.252
-185.114	510.850	0.064	0.148
-184.100	-79.512	0.056	-0.019
-183.085	227.072	0.046	-0.074
-182.071	-97.266	0.405	-0.105
-181.056	18.335	0.336	0.266
-180.042	326.467	-0.262	0.498
-179.027	-8.727	0.283	0.188
-178.012	189.918	0.154	0.230
-176.998	-200.000	0.010	-0.215
-175.983	-46.351	-0.247	-0.120
-174.969	39.675	-0.264	0.235
-173.954	-49.442	0.232	0.110
-172.939	-136.947	0.334	0.038
-171.925	-32.452	0.148	-0.082
-170.910	299.052	0.141	-0.258
-169.896	145.735	0.202	0.268
-168.881	270.942	-0.011	0.020
-167.866	145.985	0.082	-0.109
-166.852	-200.000	-0.003	0.180
-165.837	800.000	-0.040	-0.135
-164.823	-18.553	-0.298	-0.184
-163.808	-148.579	0.136	-0.011
-162.793	-102.870	0.270	0.064
-161.779	-190.792	0.235	0.002
-160.764	63.876	0.238	0.238
-159.750	-200.000	0.008	0.387
-158.735	-142.097	0.134	0.013
-157.720	-200.000	-0.045	0.367
-156.706	68.012	-0.082	0.083
-155.691	-200.000	-0.039	-0.326
-154.677	-47.506	-0.198	-0.095
-153.662	199.745	-0.181	-0.276
-152.647	-89.749	-0.051	0.015
-151.633	24.023	0.246	0.201
-150.618	201.649	0.165	0.252
-149.604	-200.000	-0.008	0.142
-148.589	-155.781	0.256	0.016
-147.574	800.000	-0.117	-0.373
-146.560	88.148	-0.133	-0.147
-145.545	-88.189	0.222	-0.066
-144.531	111.267	0.139	-0.166
-143.516	603.273	0.047	-0.116
-142.502	110.109	-0.098	-0.117
-141.487	491.688	0.134	-0.304
-140.472	271.042	-0.136	0.237
-139.458	-200.000	0.006	0.245
-138.443	-20.818	0.067	-0.041
-137.429	-11.511	0.119	-0.078
-136.414	-76.027	-0.356	-0.125
-135.399	475.078	0.112	0.250
-134.385	-200.000	0.026	0.308
-133.370	324.134	0.154	-0.292
-132.356	92.112	-0.101	0.113
-131.341	115.474	-0.117	-0.141
-130.326	23.042	-0.290	-0.236
-129.312	-145.938	-0.426	0.037
-128.297	766.481	-0.079	-0.213
-127.283	-23.983	0.268	0.158
-126.268	18.775	0.081	0.064
-125.253	-200.000	0.027	-0.147
-124.239	800.000	0.081	-0.274
-123.224	545.665	0.066	-0.156
-122.210	800.000	0.020	-0.072
-121.195	20.049	-0.214	-0.171
