DTS Sentinel unit serial number:	SN413079Multiplexer serial number:	ORYXHardware model number:	OX4-SRSoftware version number:	ORYX F/W v4.00 Oryx Data Collector v3.7.2.0data status	okinstallation	princeton_trtdifferential loss correction	single-endedforward channel	channel 2reverse channel	N/Adate	2019/09/12time	06:05:11forward acquisition time	60.00reverse acquisition time	0.00gamma	496.2192k internal	0.2325k external	0.2325temperature offset calibration	1.0062default loss term (dB/km)	0.3790temperature slope calibration	1.0000multiplexer offset coefficient	1.0000multiplexer slope coefficient	1.0000fibre end	0.00T internal ref (°C)	32.12T ext. ref 1 (°C)	1.59T ext. ref 2 (°C)	27.38length (m)	temperature (°C)	Stokes	anti-Stokes-747.200	-9.103	0.111	0.075
-746.185	-200.000	-0.136	0.000
-745.171	800.000	0.048	0.172
-744.156	-24.115	0.354	0.213
-743.142	800.000	0.044	-0.183
-742.127	101.888	0.207	-0.243
-741.112	185.348	0.020	-0.030
-740.098	159.029	-0.149	-0.210
-739.083	153.893	0.080	0.110
-738.069	-43.232	-0.005	-0.003
-737.054	792.085	-0.104	-0.287
-736.039	188.594	-0.138	0.208
-735.025	-200.000	0.015	-0.101
-734.010	-71.720	-0.085	0.032
-732.996	-12.902	-0.303	0.199
-731.981	-24.100	-0.285	0.172
-730.966	146.603	-0.318	-0.431
-729.952	800.000	-0.094	0.278
-728.937	-78.358	-0.187	0.065
-727.923	121.187	0.298	-0.375
-726.908	800.000	0.045	-0.154
-725.894	-125.053	-0.161	0.025
-724.879	-151.756	-0.165	0.012
-723.864	-47.842	0.060	-0.029
-722.850	-150.480	0.199	0.015
-721.835	144.878	0.153	0.207
-720.821	103.707	-0.094	-0.111
-719.806	-168.744	-0.485	0.018
-718.791	576.406	-0.019	0.046
-717.777	-84.246	0.178	-0.057
-716.762	-62.601	-0.066	-0.028
-715.748	172.074	-0.140	0.202
-714.733	-123.244	-0.272	-0.044
-713.718	53.537	0.179	-0.173
-712.704	-51.503	-0.226	-0.106
-711.689	-38.798	0.095	0.050
-710.675	800.000	0.030	-0.086
-709.660	120.048	-0.141	0.176
-708.645	-162.417	-0.106	0.005
-707.631	-158.567	-0.402	-0.023
-706.616	235.875	-0.072	-0.120
-705.602	-123.948	-0.431	-0.068
-704.587	-55.516	-0.301	0.136
-703.572	19.003	0.360	-0.291
-702.558	-68.605	-0.231	-0.090
-701.543	35.685	0.244	0.216
-700.529	800.000	-0.079	-0.283
-699.514	-200.000	-0.013	0.332
-698.499	76.221	-0.039	-0.042
-697.485	102.294	0.082	-0.097
-696.470	-200.000	-0.001	-0.151
-695.456	136.046	0.213	0.280
-694.441	-88.473	-0.149	0.045
-693.426	-87.857	-0.318	-0.096
-692.412	318.016	0.044	-0.084
-691.397	-65.858	0.264	0.106
-690.383	223.458	-0.054	0.087
-689.368	43.145	0.188	-0.173
-688.354	-200.000	0.003	0.211
-687.339	-166.396	0.286	-0.012
-686.324	124.335	-0.184	-0.233
-685.310	306.858	-0.058	-0.108
-684.295	109.105	-0.074	0.090
-683.281	-94.770	0.285	0.078
-682.266	-180.204	0.424	0.009
-681.251	-92.505	-0.168	0.047
-680.237	646.839	-0.161	-0.413
-679.222	-200.000	0.017	-0.120
-678.208	129.248	-0.044	-0.057
-677.193	-73.202	-0.077	-0.028
-676.178	800.000	-0.028	0.114
-675.164	83.266	0.208	-0.227
-674.149	-200.000	-0.024	-0.128
-673.135	618.382	-0.083	-0.209
-672.120	-200.000	-0.013	0.254
-671.105	-127.457	0.058	0.009
-670.091	-15.982	-0.080	-0.051
-669.076	-200.000	0.016	-0.084
-668.062	-0.098	-0.070	0.050
-667.047	-41.789	-0.166	0.086
-666.032	264.684	-0.223	0.391
-665.018	5.055	0.346	0.257
-664.003	-22.781	0.221	-0.134
-662.989	595.064	0.111	-0.277
-661.974	-10.762	0.146	0.097
-660.959	-200.000	0.021	0.095
-659.945	367.367	-0.055	-0.112
-658.930	58.636	-0.077	0.076
-657.916	376.433	-0.150	0.308
-656.901	-77.526	-0.417	-0.145
-655.886	-200.000	-0.160	0.001
-654.872	-111.638	-0.267	-0.054
-653.857	-9.119	0.004	0.003
-652.843	-139.386	0.211	0.023
-651.828	202.500	0.048	0.074
-650.814	-200.000	-0.000	-0.077
-649.799	-50.670	0.290	-0.137
-648.784	-35.312	-0.178	0.097
-647.770	-200.000	-0.011	0.093
-646.755	126.267	-0.179	0.228
-645.741	112.734	-0.199	-0.242
-644.726	-143.038	0.283	0.028
-643.711	-200.000	0.006	0.282
-642.697	-200.000	-0.023	-0.222
-641.682	-116.859	-0.063	0.012
-640.668	-38.106	0.215	-0.115
-639.653	678.906	-0.181	-0.472
-638.638	-200.000	0.029	-0.261
-637.624	800.000	0.002	0.007
-636.609	-200.000	0.078	0.405
-635.595	-200.000	0.061	-0.271
-634.580	359.475	-0.098	-0.197
-633.565	-52.200	-0.015	-0.007
-632.551	34.103	-0.088	0.077
-631.536	-45.049	-0.171	-0.086
-630.522	-27.786	0.086	-0.050
-629.507	-200.000	-0.011	-0.361
-628.492	-200.000	-0.046	0.223
-627.478	32.796	0.153	-0.133
-626.463	110.837	-0.200	0.242
-625.449	-115.971	0.514	0.096
-624.434	-200.000	0.016	0.440
-623.419	-161.367	0.082	0.004
-622.405	-123.807	-0.136	-0.022
-621.390	525.054	-0.112	0.265
-620.376	-89.435	0.142	0.042
-619.361	-97.118	-0.091	-0.024
-618.346	-134.934	0.171	0.021
-617.332	-192.973	0.059	0.001
-616.317	-0.365	-0.255	-0.182
-615.303	-148.683	0.282	-0.023
-614.288	74.946	0.112	-0.118
-613.273	800.000	0.030	0.103
-612.259	27.869	-0.109	0.093
-611.244	-83.169	0.233	0.075
-610.230	-0.524	0.099	-0.071
-609.215	-200.000	-0.007	-0.244
-608.201	0.008	0.160	0.114
-607.186	100.115	0.133	-0.155
-606.171	149.809	-0.148	-0.202
-605.157	-132.952	-0.169	-0.022
-604.142	-106.009	-0.347	-0.078
-603.128	496.631	-0.078	0.180
-602.113	-45.833	-0.097	0.048
-601.098	185.575	-0.197	0.294
-600.084	-145.537	0.188	-0.017
-599.069	-73.910	-0.130	-0.047
-598.055	100.853	-0.105	0.122
-597.040	800.000	0.039	-0.126
-596.025	40.901	0.218	-0.197
-595.011	133.467	-0.169	-0.219
-593.996	-28.366	0.403	0.233
-592.982	353.618	-0.186	-0.371
-591.967	800.000	0.089	-0.249
-590.952	376.649	-0.125	-0.256
-589.938	108.745	-0.062	0.074
-588.923	0.289	-0.032	-0.023
-587.909	10.851	-0.431	-0.330
-586.894	298.869	-0.056	-0.104
-585.879	-200.000	-0.004	0.184
-584.865	393.138	-0.189	0.395
-583.850	-30.546	-0.250	-0.142
-582.836	154.580	0.111	0.153
-581.821	-200.000	-0.030	0.245
-580.806	-48.863	-0.228	0.109
-579.792	-183.823	0.117	-0.002
-578.777	562.950	0.069	-0.167
-577.763	294.170	-0.191	-0.351
-576.748	-200.000	0.050	0.251
-575.733	-21.430	-0.262	-0.161
-574.719	800.000	-0.033	-0.102
-573.704	-200.000	0.012	-0.228
-572.690	-26.788	0.282	-0.165
-571.675	-200.000	-0.032	0.313
-570.661	-52.318	0.189	0.088
-569.646	-69.738	-0.245	-0.094
-568.631	-76.280	-0.243	-0.086
-567.617	-200.000	0.046	-0.221
-566.602	800.000	-0.031	0.105
-565.588	7.984	0.185	0.139
-564.573	-200.000	-0.013	0.250
-563.558	-12.590	-0.367	0.240
-562.544	-200.000	0.042	0.251
-561.529	45.815	-0.231	0.214
-560.515	-30.125	-0.086	0.049
-559.500	37.079	-0.452	-0.401
-558.485	161.224	-0.075	-0.104
-557.471	33.958	0.327	0.286
-556.456	-200.000	-0.066	-0.478
-555.442	-98.139	0.142	-0.037
-554.427	-134.253	0.176	0.022
-553.412	800.000	0.070	0.304
-552.398	-122.738	-0.323	-0.052
-551.383	346.413	-0.086	0.170
-550.369	-54.585	0.147	0.067
-549.354	-150.006	0.242	-0.019
-548.339	244.848	0.077	-0.130
-547.325	54.714	0.186	-0.180
-546.310	-56.934	-0.210	0.093
-545.296	-200.000	-0.020	-0.197
-544.281	-143.575	0.250	0.024
-543.266	-68.693	-0.075	0.029
-542.252	106.425	0.177	-0.210
-541.237	-198.805	0.124	0.001
-540.223	-200.000	0.016	-0.211
-539.208	206.438	-0.236	0.368
-538.193	-148.669	-0.334	0.027
-537.179	800.000	-0.038	-0.131
-536.164	727.548	0.030	0.079
-535.150	13.760	0.185	-0.144
-534.135	-109.218	-0.213	-0.045
-533.121	-109.009	0.254	0.054
-532.106	-108.375	0.382	-0.082
-531.091	-29.232	-0.204	0.117
-530.077	800.000	-0.048	-0.198
-529.062	64.104	0.100	0.100
-528.048	27.902	0.246	0.208
-527.033	98.948	0.204	-0.236
-526.018	-200.000	-0.022	0.187
-525.004	76.260	0.263	0.279
-523.989	138.981	-0.387	0.509
-522.975	-70.949	-0.200	0.075
-521.960	166.744	-0.246	0.349
-520.945	-136.254	0.482	0.056
-519.931	-16.762	-0.346	-0.219
-518.916	800.000	0.066	0.191
-517.902	-38.893	0.206	0.109
-516.887	-43.044	0.232	-0.118
-515.872	-39.908	-0.195	0.102
-514.858	-118.828	-0.536	-0.094
-513.843	-123.418	0.097	-0.015
-512.829	-200.000	0.004	-0.292
-511.814	39.199	0.086	-0.077
-510.799	41.229	-0.286	0.259
-509.785	74.312	0.236	0.248
-508.770	573.102	-0.111	-0.270
-507.756	-125.549	-0.372	-0.057
-506.741	-119.981	-0.287	0.049
-505.726	-146.780	0.345	0.030
-504.712	-54.719	-0.287	-0.130
-503.697	631.197	-0.056	-0.143
-502.683	-123.013	-0.333	-0.054
-501.668	800.000	-0.023	-0.092
-500.653	-200.000	0.012	-0.182
-499.639	63.876	0.260	-0.262
-498.624	-47.048	-0.222	-0.108
-497.610	-180.934	-0.380	0.008
-496.595	800.000	0.032	0.100
-495.581	21.916	-0.261	0.213
-494.566	-137.841	-0.474	0.053
-493.551	107.675	-0.118	-0.140
-492.537	-200.000	0.071	0.370
-491.522	-200.000	0.029	0.321
-490.508	-200.000	-0.040	0.203
-489.493	-200.000	-0.041	-0.363
-488.478	454.167	0.039	0.086
-487.464	253.707	-0.087	-0.148
-486.449	725.598	-0.030	-0.079
-485.435	-53.153	-0.311	0.143
-484.420	130.306	-0.098	-0.126
-483.405	-21.261	0.246	-0.150
-482.391	606.485	0.092	-0.228
-481.376	372.409	0.098	0.199
-480.362	518.732	-0.089	0.209
-479.347	800.000	-0.098	0.282
-478.332	614.648	0.048	-0.120
-477.318	434.431	0.113	-0.246
-476.303	86.920	0.125	0.138
-475.289	168.790	-0.075	-0.106
-474.274	-51.023	-0.289	-0.136
-473.259	12.330	-0.193	0.148
-472.245	-121.602	0.208	0.034
-471.230	-119.182	-0.387	0.067
-470.216	0.854	0.115	0.082
-469.201	-200.000	-0.001	-0.193
-468.186	236.861	0.139	0.230
-467.172	297.902	0.120	-0.220
-466.157	-200.000	-0.012	-0.409
-465.143	-23.979	-0.086	-0.052
-464.128	130.193	-0.065	0.084
-463.113	74.950	0.313	0.329
-462.099	-84.012	0.277	-0.088
-461.084	-200.000	-0.018	0.200
-460.070	-200.000	-0.058	-0.266
-459.055	-134.516	-0.179	0.022
-458.040	-90.343	0.302	-0.088
-457.026	-141.557	0.347	0.035
-456.011	-145.042	-0.036	-0.003
-454.997	29.998	0.160	-0.136
-453.982	450.501	0.032	-0.070
-452.968	-113.636	-0.144	0.028
-451.953	445.273	0.143	0.314
-450.938	61.379	-0.063	-0.063
-449.924	314.728	-0.139	-0.261
-448.909	148.327	-0.219	-0.295
-447.895	-200.000	-0.020	-0.117
-446.880	116.385	-0.221	0.270
-445.865	-13.921	0.145	0.094
-444.851	-200.000	-0.007	-0.053
-443.836	124.386	-0.217	0.272
-442.822	-37.170	-0.161	0.086
-441.807	-10.902	-0.282	0.186
-440.792	43.964	0.122	0.111
-439.778	800.000	-0.065	-0.276
-438.763	-53.820	-0.212	-0.096
-437.749	83.113	0.143	-0.156
-436.734	-200.000	0.007	0.128
-435.719	-66.997	0.454	-0.179
-434.705	261.203	0.235	0.406
-433.690	-200.000	0.003	-0.146
-432.676	7.386	-0.074	-0.055
-431.661	44.649	-0.415	0.381
-430.646	321.600	0.074	0.140
-429.632	-81.123	-0.375	0.124
-428.617	70.526	0.136	-0.140
-427.603	53.657	0.040	-0.038
-426.588	-187.613	0.016	-0.000
-425.573	381.827	-0.109	0.222
-424.559	-94.487	0.220	-0.060
-423.544	36.502	0.050	0.044
-422.530	-139.834	-0.146	0.015
-421.515	-59.407	-0.083	-0.036
-420.500	800.000	0.087	0.330
-419.486	249.881	-0.127	-0.215
-418.471	24.771	0.137	-0.113
-417.457	-143.403	-0.159	-0.015
-416.442	24.357	0.129	-0.106
-415.428	-86.431	0.273	0.083
-414.413	61.996	-0.292	-0.290
-413.398	-14.277	0.164	-0.106
-412.384	73.040	0.207	-0.215
-411.369	438.070	0.075	-0.163
-410.355	-37.154	0.354	0.189
-409.340	181.249	-0.181	0.265
-408.325	311.473	0.074	0.137
-407.311	-129.155	0.144	0.020
-406.296	-15.947	0.226	0.143
-405.282	800.000	-0.075	0.309
-404.267	75.300	0.045	-0.047
-403.252	-200.000	0.032	-0.199
-402.238	655.797	-0.046	0.118
-401.223	800.000	0.132	0.519
-400.209	-132.171	0.330	-0.043
-399.194	-103.605	0.233	0.055
-398.179	793.372	0.107	0.293
-397.165	54.234	0.204	0.195
-396.150	800.000	0.166	0.529
-395.136	58.154	-0.105	0.102
-394.121	25.781	-0.246	-0.204
-393.106	-185.369	-0.006	0.000
-392.092	-191.450	-0.257	-0.003
-391.077	-14.647	-0.167	0.107
-390.063	582.234	0.086	-0.210
-389.048	95.723	-0.214	-0.243
-388.033	-98.353	0.220	0.056
-387.019	-147.153	0.086	-0.007
-386.004	800.000	0.060	0.191
-384.990	-17.036	0.186	0.117
-383.975	-82.943	-0.297	0.095
-382.960	-200.000	0.034	0.244
-381.946	690.769	-0.129	-0.337
-380.931	17.399	0.094	0.074
-379.917	27.423	0.015	-0.013
-378.902	34.419	-0.070	0.061
-377.888	800.000	-0.037	0.132
-376.873	-200.000	-0.001	0.278
-375.858	299.598	0.123	0.225
-374.844	34.924	0.166	0.144
-373.829	11.275	0.266	-0.203
-372.815	165.910	0.138	-0.195
-371.800	800.000	-0.077	0.281
-370.785	-150.767	-0.217	0.016
-369.771	-103.879	0.333	-0.077
-368.756	-200.000	-0.016	0.252
-367.742	16.206	-0.114	0.090
-366.727	139.856	-0.168	-0.221
-365.712	121.326	0.187	-0.231
-364.698	388.526	0.080	-0.164
-363.683	-139.919	0.119	-0.013
-362.669	-33.685	0.271	0.149
-361.654	-13.285	-0.094	-0.061
-360.639	227.029	-0.074	0.120
-359.625	-59.336	0.167	-0.071
-358.610	-8.559	-0.191	-0.127
-357.596	-200.000	-0.000	0.073
-356.581	-169.297	-0.092	0.003
-355.566	800.000	-0.105	0.330
-354.552	800.000	-0.115	0.343
-353.537	-31.413	0.227	-0.127
-352.523	-43.270	-0.296	-0.149
-351.508	413.666	-0.054	-0.114
-350.493	252.453	0.187	0.317
-349.479	-200.000	-0.057	0.336
-348.464	-68.980	-0.358	-0.137
-347.450	-96.435	0.306	-0.080
-346.435	-70.937	0.295	-0.110
-345.420	-165.852	-0.325	-0.014
-344.406	80.037	0.164	-0.175
-343.391	-116.491	0.165	-0.030
-342.377	800.000	-0.069	0.191
-341.362	800.000	-0.057	-0.229
-340.348	66.469	0.309	-0.312
-339.333	-200.000	0.019	0.095
-338.318	-100.644	0.058	-0.014
-337.304	202.009	0.265	-0.407
-336.289	503.918	0.062	-0.142
-335.275	60.613	0.135	0.133
-334.260	-200.000	0.041	0.262
-333.245	800.000	0.009	-0.033
-332.231	-200.000	0.042	-0.191
-331.216	114.158	-0.179	0.217
-330.202	98.875	0.177	0.203
-329.187	-118.420	0.108	0.019
-328.172	800.000	-0.030	0.113
-327.158	570.469	-0.127	0.306
-326.143	-166.999	0.112	0.005
-325.129	462.863	-0.048	-0.107
-324.114	800.000	0.011	-0.036
-323.099	-107.105	0.202	-0.044
-322.085	118.754	0.243	-0.298
-321.070	37.726	-0.149	0.132
-320.056	800.000	0.069	-0.291
-319.041	-200.000	-0.025	0.129
-318.026	-94.363	0.151	0.041
-317.012	224.625	-0.176	-0.283
-315.997	-69.204	-0.105	-0.040
-314.983	-106.585	0.221	-0.049
-313.968	-96.450	-0.247	0.065
-312.953	99.138	0.277	-0.318
-311.939	-200.000	0.001	0.157
-310.924	-39.161	-0.208	0.108
-309.910	520.426	-0.028	0.066
-308.895	-200.000	0.038	0.215
-307.880	141.306	-0.162	-0.213
-306.866	800.000	-0.005	0.014
-305.851	316.845	-0.103	-0.192
-304.837	-136.299	0.183	0.021
-303.822	800.000	-0.078	0.339
-302.807	-157.780	-0.210	0.012
-301.793	273.688	0.105	-0.185
-300.778	313.066	-0.113	-0.210
-299.764	613.397	-0.064	0.160
-298.749	800.000	-0.025	-0.074
-297.735	-200.000	0.025	-0.157
-296.720	-128.644	0.230	0.032
-295.705	373.649	-0.048	0.097
-294.691	-200.000	0.048	0.327
-293.676	-140.753	0.332	-0.034
-292.662	800.000	0.046	0.177
-291.647	-32.035	0.224	-0.124
-290.632	3.778	-0.261	0.189
-289.618	-200.000	-0.008	-0.243
-288.603	17.533	-0.144	-0.114
-287.589	-42.225	0.143	-0.072
-286.574	1.273	0.132	0.094
-285.559	-200.000	-0.009	-0.059
-284.545	724.435	-0.058	-0.153
-283.530	-17.183	0.227	0.142
-282.516	-200.000	-0.011	-0.090
-281.501	350.917	-0.168	0.330
-280.486	-62.309	0.263	0.109
-279.472	-71.489	0.174	0.065
-278.457	-200.000	0.035	-0.201
-277.443	-200.000	0.002	0.088
-276.428	-200.000	0.026	0.329
-275.413	-95.309	-0.452	0.121
-274.399	-200.000	-0.026	0.301
-273.384	429.361	0.133	0.285
-272.370	-164.343	-0.309	-0.014
-271.355	147.227	-0.147	-0.195
-270.340	-200.000	-0.009	0.309
-269.326	-82.806	0.207	0.066
-268.311	-200.000	-0.045	-0.350
-267.297	125.563	-0.162	-0.203
-266.282	-159.004	0.126	0.007
-265.267	218.813	0.189	-0.300
-264.253	-125.999	-0.458	-0.068
-263.238	23.264	-0.074	-0.060
-262.224	162.571	0.039	0.054
-261.209	-104.059	0.216	-0.050
-260.195	-70.810	0.358	-0.134
-259.180	153.734	0.121	-0.165
-258.165	-39.799	0.224	-0.116
-257.151	122.688	-0.096	-0.119
-256.136	-99.858	0.244	0.060
-255.122	558.420	-0.113	-0.271
-254.107	698.549	-0.048	0.125
-253.092	225.867	0.096	-0.154
-252.078	151.918	0.205	0.276
-251.063	20.091	-0.199	-0.159
-250.049	-60.302	0.058	-0.024
-249.034	800.000	-0.152	-0.584
-248.019	431.197	-0.079	-0.169
-247.005	-200.000	0.014	-0.084
-245.990	-200.000	-0.003	-0.259
-244.976	-79.650	-0.010	-0.003
-243.961	245.240	0.039	-0.065
-242.946	208.649	-0.134	0.208
-241.932	-200.000	-0.144	0.000
-240.917	-125.088	0.226	-0.034
-239.903	-200.000	0.019	-0.312
-238.888	143.468	0.082	0.108
-237.873	76.975	0.077	0.081
-236.859	-200.000	-0.003	-0.110
-235.844	168.758	-0.008	-0.011
-234.830	-28.974	0.350	0.199
-233.815	150.160	-0.113	-0.152
-232.800	-127.439	-0.137	0.020
-231.786	-97.874	-0.160	-0.041
-230.771	419.160	0.235	0.497
-229.757	-15.041	-0.257	0.163
-228.742	-177.201	-0.171	-0.004
-227.727	-148.775	-0.358	0.029
-226.713	-200.000	0.006	-0.035
-225.698	62.831	0.080	-0.079
-224.684	-200.000	0.003	0.089
-223.669	50.104	0.097	-0.091
-222.655	569.818	0.041	0.099
-221.640	84.766	0.147	-0.159
-220.625	-200.000	0.111	-0.657
-219.611	-131.167	-0.164	-0.022
-218.596	-200.000	-0.011	-0.138
-217.582	-34.303	0.295	0.160
-216.567	-4.234	0.209	0.143
-215.552	180.374	0.107	-0.155
-214.538	-91.200	0.083	-0.023
-213.523	-1.434	-0.133	-0.092
-212.509	53.056	-0.095	-0.090
-211.494	29.117	0.311	0.261
-210.479	-38.441	-0.264	0.138
-209.465	-70.416	-0.135	0.051
-208.450	-200.000	-0.365	-0.000
-207.436	-112.283	-0.248	0.049
-206.421	-123.431	0.072	-0.011
-205.406	-144.959	-0.106	-0.010
-204.392	105.219	-0.146	-0.170
-203.377	-200.000	0.024	-0.137
-202.363	800.000	-0.133	-0.501
-201.348	-65.128	-0.253	-0.101
-200.333	40.142	-0.264	-0.234
-199.319	-57.402	0.190	0.082
-198.304	15.263	-0.146	0.113
-197.290	217.088	-0.092	-0.144
-196.275	-77.595	0.217	-0.074
-195.260	247.257	-0.066	-0.110
-194.246	188.749	0.107	-0.157
-193.231	-45.227	-0.080	-0.039
-192.217	-70.610	0.384	0.144
-191.202	30.655	0.175	-0.148
-190.187	-99.890	-0.170	-0.042
-189.173	-157.861	-0.098	0.006
-188.158	32.388	0.258	-0.220
-187.144	440.336	-0.027	0.058
-186.129	112.120	-0.053	0.063
-185.114	-84.901	-0.274	0.085
-184.100	800.000	0.066	0.227
-183.085	140.346	0.287	-0.373
-182.071	48.394	0.250	0.231
-181.056	800.000	0.055	-0.175
-180.042	-200.000	-0.023	0.369
-179.027	-200.000	0.040	-0.235
-178.012	47.937	0.102	-0.094
-176.998	4.996	-0.173	-0.126
-175.983	-77.288	0.347	-0.119
-174.969	112.929	-0.187	0.223
-173.954	103.685	-0.223	-0.259
-172.939	124.134	-0.170	0.211
-171.925	-162.415	0.299	0.015
-170.910	314.307	-0.182	0.338
-169.896	1.310	-0.075	0.053
-168.881	94.086	-0.202	-0.226
-167.866	-82.293	0.113	-0.036
-166.852	-75.037	0.204	-0.072
-165.837	800.000	0.065	0.242
-164.823	77.013	-0.197	0.206
-163.808	-58.069	0.066	0.028
-162.793	137.403	-0.092	-0.119
-161.779	91.793	-0.097	0.107
-160.764	44.527	0.233	-0.211
-159.750	-86.792	-0.213	-0.064
-158.735	-44.737	0.134	0.066
-157.720	78.995	-0.094	0.100
-156.706	2.978	0.170	0.122
-155.691	-3.212	0.249	-0.171
-154.677	-200.000	0.052	0.351
-153.662	131.457	-0.185	0.234
-152.647	-59.919	0.086	0.036
-151.633	-102.769	0.163	-0.038
-150.618	258.105	0.151	0.256
-149.604	800.000	-0.096	-0.338
-148.589	-79.616	-0.408	-0.136
-147.574	64.506	-0.173	0.172
-146.560	-27.561	-0.151	0.087
-145.545	327.302	-0.092	-0.173
-144.531	28.477	-0.177	0.147
-143.516	466.908	-0.078	-0.171
-142.502	-135.620	0.366	0.043
-141.487	337.722	-0.047	0.090
-140.472	370.431	0.104	0.208
-139.458	-129.069	0.256	0.035
-138.443	-200.000	0.010	-0.440
-137.429	90.860	0.056	0.062
-136.414	800.000	-0.076	0.263
-135.399	14.673	0.150	-0.116
-134.385	-71.450	-0.353	-0.130
-133.370	-200.000	-0.013	-0.080
-132.356	-107.921	0.283	-0.061
-131.341	34.774	0.262	0.226
-130.326	456.940	0.241	0.527
-129.312	6.524	0.251	-0.184
-128.297	-109.929	0.220	0.045
-127.283	-104.551	0.100	0.023
-126.268	-85.240	0.214	0.066
-125.253	800.000	0.036	-0.124
-124.239	82.193	0.221	0.236
-123.224	763.339	-0.074	0.199
-122.210	-200.000	-0.029	0.149
-121.195	117.693	-0.218	0.264
