DTS Sentinel unit serial number:	SN413079Multiplexer serial number:	ORYXHardware model number:	OX4-SRSoftware version number:	ORYX F/W v4.00 Oryx Data Collector v3.7.2.0data status	okinstallation	princeton_trtdifferential loss correction	single-endedforward channel	channel 2reverse channel	N/Adate	2019/09/16time	17:27:35forward acquisition time	60.00reverse acquisition time	0.00gamma	496.2192k internal	0.2310k external	0.2310temperature offset calibration	0.9945default loss term (dB/km)	0.3790temperature slope calibration	1.0000multiplexer offset coefficient	1.0000multiplexer slope coefficient	1.0000fibre end	0.00T internal ref (°C)	38.56T ext. ref 1 (°C)	15.45T ext. ref 2 (°C)	32.58length (m)	temperature (°C)	Stokes	anti-Stokes-747.200	-126.923	-0.173	-0.026
-746.185	163.811	-0.067	-0.095
-745.171	-200.000	-0.016	0.507
-744.156	-142.753	-0.298	0.029
-743.142	21.863	-0.236	0.196
-742.127	-131.609	0.105	0.014
-741.112	-111.647	0.165	-0.034
-740.098	-50.162	-0.068	0.032
-739.083	129.257	-0.229	-0.297
-738.069	800.000	-0.049	0.182
-737.054	-81.814	0.190	-0.063
-736.039	-133.213	-0.015	0.002
-735.025	-200.000	-0.015	-0.219
-734.010	247.375	-0.157	-0.269
-732.996	161.006	0.173	-0.246
-731.981	188.803	0.064	-0.098
-730.966	-14.189	-0.077	0.050
-729.952	800.000	0.027	-0.089
-728.937	-2.184	0.227	0.162
-727.923	1.166	0.048	-0.035
-726.908	-79.111	-0.601	0.207
-725.894	-200.000	-0.011	-0.055
-724.879	8.848	-0.067	0.051
-723.864	800.000	-0.095	-0.289
-722.850	312.456	0.099	0.188
-721.835	-24.524	-0.102	-0.062
-720.821	112.841	-0.113	0.139
-719.806	36.113	0.136	-0.122
-718.791	-200.000	-0.016	-0.100
-717.777	-200.000	-0.009	0.233
-716.762	-144.808	0.112	0.010
-715.748	-200.000	0.009	0.330
-714.733	-200.000	0.027	-0.264
-713.718	-39.856	0.139	-0.073
-712.704	-40.509	-0.284	0.149
-711.689	156.000	-0.190	0.266
-710.675	800.000	0.057	0.188
-709.660	-89.729	0.060	-0.018
-708.645	149.542	-0.138	-0.190
-707.631	113.052	-0.157	-0.193
-706.616	49.464	-0.130	-0.124
-705.602	-103.545	0.059	-0.014
-704.587	-39.298	-0.119	0.063
-703.572	-200.000	0.071	-0.349
-702.558	-43.728	0.180	-0.092
-701.543	-200.000	-0.019	0.119
-700.529	461.316	0.053	-0.120
-699.514	-60.213	0.185	-0.080
-698.499	674.381	-0.051	-0.134
-697.485	-55.063	0.139	-0.063
-696.470	-78.196	0.259	-0.090
-695.456	-155.041	-0.218	0.014
-694.441	-200.000	-0.035	0.375
-693.426	356.190	-0.029	0.059
-692.412	46.513	0.184	0.173
-691.397	-153.851	0.401	-0.028
-690.383	58.566	-0.234	-0.233
-689.368	-39.941	-0.153	0.081
-688.354	-200.000	0.010	0.071
-687.339	-15.701	-0.217	-0.140
-686.324	199.060	0.026	-0.040
-685.310	-123.155	0.172	0.028
-684.295	-85.914	0.210	-0.066
-683.281	94.290	0.106	0.122
-682.266	93.297	0.102	-0.117
-681.251	-41.038	-0.169	0.089
-680.237	-64.601	-0.093	0.038
-679.222	-200.000	-0.049	0.278
-678.208	-151.650	0.164	-0.012
-677.193	-200.000	-0.078	0.591
-676.178	-175.473	0.265	0.007
-675.164	-63.016	0.119	-0.050
-674.149	42.239	-0.216	-0.198
-673.135	800.000	-0.042	0.147
-672.120	-110.336	0.140	0.030
-671.105	356.219	-0.094	0.189
-670.091	-200.000	0.020	0.239
-669.076	6.102	0.179	-0.134
-668.062	-134.075	-0.370	0.046
-667.047	-200.000	-0.006	0.066
-666.032	-0.049	0.173	0.125
-665.018	44.739	0.157	-0.146
-664.003	-17.035	0.046	0.029
-662.989	92.248	-0.238	0.271
-661.974	-133.827	-0.224	0.028
-660.959	-200.000	0.075	-0.344
-659.945	40.477	0.360	0.328
-658.930	39.870	-0.264	-0.240
-657.916	372.671	-0.109	0.223
-656.901	-62.156	-0.287	-0.121
-655.886	-94.302	0.207	-0.057
-654.872	-73.661	0.278	0.102
-653.857	669.756	-0.120	-0.314
-652.843	-200.000	-0.028	0.137
-651.828	245.647	0.081	0.137
-650.814	-200.000	0.008	-0.076
-649.799	2.232	-0.225	0.164
-648.784	-80.639	0.206	0.070
-647.770	-200.000	-0.050	-0.379
-646.755	-200.000	-0.002	-0.064
-645.741	418.157	-0.069	-0.148
-644.726	-139.726	0.107	-0.011
-643.711	428.063	0.034	0.074
-642.697	246.797	0.107	-0.182
-641.682	-184.350	-0.266	-0.004
-640.668	-99.903	0.297	0.075
-639.653	17.550	-0.224	0.180
-638.638	-200.000	0.020	0.298
-637.624	-200.000	0.005	0.123
-636.609	800.000	-0.010	-0.029
-635.595	-18.878	0.274	0.173
-634.580	-82.134	0.251	0.083
-633.565	-134.053	-0.068	0.008
-632.551	-200.000	-0.038	0.366
-631.536	-47.208	0.241	-0.119
-630.522	3.168	-0.387	0.285
-629.507	150.681	-0.084	0.115
-628.492	348.106	-0.049	0.097
-627.478	-107.705	0.330	0.073
-626.463	-81.477	0.152	-0.050
-625.449	-11.547	-0.130	-0.086
-624.434	37.345	0.198	0.178
-623.419	-66.177	-0.450	-0.181
-622.405	-114.936	-0.270	0.052
-621.390	341.577	0.121	0.239
-620.376	-111.356	0.334	0.069
-619.361	102.601	-0.104	-0.123
-618.346	-61.103	0.109	-0.047
-617.332	800.000	0.089	-0.260
-616.317	-159.294	0.239	-0.014
-615.303	-158.449	0.277	0.016
-614.288	198.891	-0.088	0.137
-613.273	496.425	0.086	-0.199
-612.259	-163.116	-0.057	0.003
-611.244	-93.117	-0.337	-0.095
-610.230	-200.000	0.030	-0.350
-609.215	800.000	0.020	-0.080
-608.201	800.000	0.109	-0.428
-607.186	181.015	0.065	0.096
-606.171	246.589	0.166	-0.284
-605.157	-170.344	-0.114	0.004
-604.142	67.466	-0.080	0.082
-603.128	67.803	-0.230	0.238
-602.113	69.515	-0.099	0.103
-601.098	-200.000	-0.005	0.154
-600.084	119.402	0.068	0.085
-599.069	-109.315	0.297	-0.064
-598.055	49.076	-0.299	-0.284
-597.040	-42.875	-0.090	-0.046
-596.025	-108.965	0.180	0.039
-595.011	161.493	-0.220	0.310
-593.996	191.839	-0.235	-0.357
-592.982	-35.051	-0.213	0.117
-591.967	460.748	-0.210	0.472
-590.952	-44.883	0.370	-0.186
-589.938	800.000	0.022	0.079
-588.923	276.592	0.065	-0.117
-587.909	800.000	0.061	0.193
-586.894	-6.578	0.074	-0.051
-585.879	240.430	-0.046	0.077
-584.865	800.000	0.058	0.239
-583.850	143.934	0.125	-0.168
-582.836	-102.224	-0.372	-0.090
-581.821	30.073	0.221	-0.190
-580.806	711.218	-0.180	0.482
-579.792	-84.461	-0.265	-0.084
-578.777	-46.995	0.150	-0.074
-577.763	800.000	-0.070	0.250
-576.748	533.090	-0.122	-0.292
-575.733	13.768	0.088	-0.069
-574.719	-9.447	-0.208	0.140
-573.704	-199.737	0.153	-0.001
-572.690	-200.000	-0.310	-0.001
-571.675	-107.280	-0.174	-0.039
-570.661	707.128	-0.042	0.112
-569.646	186.241	-0.175	0.263
-568.631	-164.141	0.053	-0.002
-567.617	-66.816	-0.344	-0.137
-566.602	-143.166	0.351	-0.034
-565.588	-126.678	-0.248	-0.037
-564.573	800.000	0.024	0.101
-563.558	-0.000	-0.211	0.151
-562.544	-41.717	0.098	-0.051
-561.529	-21.938	0.167	-0.103
-560.515	-86.000	-0.226	0.071
-559.500	-56.396	0.212	0.095
-558.485	284.558	0.035	0.064
-557.471	-86.323	-0.212	-0.066
-556.456	181.377	0.148	-0.220
-555.442	704.210	-0.031	0.081
-554.427	98.873	-0.136	0.159
-553.412	-122.886	-0.198	-0.032
-552.398	43.006	-0.036	0.033
-551.383	141.766	0.071	0.095
-550.369	160.181	0.425	0.597
-549.354	-62.318	-0.081	0.034
-548.339	-67.498	-0.300	-0.119
-547.325	112.879	-0.036	-0.044
-546.310	-60.620	-0.098	0.042
-545.296	-115.889	-0.252	-0.048
-544.281	-47.691	-0.326	-0.159
-543.266	175.888	-0.158	-0.231
-542.252	-42.601	-0.140	-0.072
-541.237	-121.280	-0.315	-0.053
-540.223	-200.000	-0.039	-0.227
-539.208	-128.725	-0.090	0.013
-538.193	-159.207	0.219	-0.012
-537.179	800.000	0.043	-0.151
-536.164	-200.000	-0.004	0.162
-535.150	-200.000	0.009	0.084
-534.135	-181.115	-0.186	0.004
-533.121	-156.779	-0.285	-0.018
-532.106	-133.546	-0.361	0.046
-531.091	800.000	-0.045	0.145
-530.077	800.000	0.080	-0.278
-529.062	-163.937	0.181	-0.008
-528.048	-200.000	0.001	-0.110
-527.033	-125.412	-0.455	-0.070
-526.018	-46.226	0.090	0.045
-525.004	-39.651	0.181	-0.096
-523.989	3.013	-0.031	0.023
-522.975	-38.171	-0.185	-0.099
-521.960	-56.698	0.103	-0.046
-520.945	-144.494	-0.317	-0.030
-519.931	-200.000	-0.016	-0.125
-518.916	162.402	0.081	-0.114
-517.902	153.409	0.100	-0.138
-516.887	185.715	-0.011	0.017
-515.872	237.996	0.073	-0.121
-514.858	20.128	-0.062	-0.050
-513.843	-20.980	0.188	-0.116
-512.829	-56.284	0.263	-0.118
-511.814	-109.382	0.383	-0.082
-510.799	61.508	0.115	0.115
-509.785	332.287	-0.032	0.063
-508.770	100.263	0.175	-0.204
-507.756	-200.000	-0.060	0.290
-506.741	373.756	0.144	0.294
-505.726	-50.168	-0.176	0.084
-504.712	-136.991	0.294	0.034
-503.697	-131.207	-0.009	-0.001
-502.683	-138.314	0.120	0.013
-501.668	144.084	-0.246	0.330
-500.653	800.000	0.076	0.270
-499.639	18.717	0.131	-0.106
-498.624	584.358	0.072	0.179
-497.610	800.000	0.045	0.137
-496.595	-200.000	-0.018	0.114
-495.581	303.333	-0.168	-0.313
-494.566	-183.495	-0.071	-0.001
-493.551	800.000	-0.010	-0.038
-492.537	5.957	-0.084	0.063
-491.522	-200.000	0.045	0.318
-490.508	476.338	0.166	-0.378
-489.493	-42.152	0.212	0.109
-488.478	-17.419	0.179	0.114
-487.464	90.123	0.073	-0.082
-486.449	-200.000	0.000	-0.202
-485.435	197.833	0.081	0.124
-484.420	-120.460	-0.329	0.056
-483.405	-200.000	-0.040	0.294
-482.391	483.753	-0.101	0.232
-481.376	-200.000	0.026	-0.139
-480.362	-0.493	0.181	-0.129
-479.347	-72.542	0.234	0.087
-478.332	85.945	0.103	-0.114
-477.318	-72.736	-0.123	0.046
-476.303	6.016	-0.119	-0.088
-475.289	-38.128	0.245	-0.131
-474.274	-200.000	0.036	0.345
-473.259	-159.788	-0.320	0.018
-472.245	800.000	-0.037	-0.103
-471.230	42.693	0.123	-0.112
-470.216	-77.446	-0.089	-0.031
-469.201	421.868	-0.018	0.038
-468.186	800.000	-0.044	0.154
-467.172	236.070	0.134	0.222
-466.157	-200.000	0.025	-0.129
-465.143	-80.775	-0.179	-0.060
-464.128	359.009	-0.083	-0.167
-463.113	481.704	0.066	-0.151
-462.099	-195.709	-0.219	0.002
-461.084	92.018	0.077	-0.087
-460.070	-101.184	-0.053	0.013
-459.055	23.853	0.089	-0.074
-458.040	36.306	0.146	-0.129
-457.026	800.000	-0.059	-0.251
-456.011	392.765	0.105	0.220
-454.997	-84.131	-0.219	0.070
-453.982	183.760	0.066	-0.098
-452.968	-72.743	-0.010	-0.004
-451.953	-145.058	0.103	0.009
-450.938	-200.000	0.018	0.084
-449.924	-48.658	0.204	0.098
-448.909	-18.500	-0.399	0.250
-447.895	-64.702	0.297	0.121
-446.880	25.793	-0.189	-0.158
-445.865	-200.000	0.016	-0.106
-444.851	800.000	-0.061	0.204
-443.836	-105.269	-0.233	-0.053
-442.822	-200.000	-0.008	-0.213
-441.807	-37.034	-0.307	-0.165
-440.792	800.000	-0.043	-0.127
-439.778	-140.488	0.165	-0.017
-438.763	-133.200	-0.111	-0.014
-437.749	46.906	0.020	0.019
-436.734	758.637	0.109	-0.297
-435.719	118.978	0.075	-0.093
-434.705	394.109	-0.135	0.281
-433.690	-131.435	-0.045	-0.006
-432.676	-118.716	0.144	-0.025
-431.661	180.901	0.179	0.263
-430.646	221.095	-0.120	-0.193
-429.632	-60.868	-0.216	0.091
-428.617	-76.091	0.115	0.041
-427.603	800.000	0.062	-0.234
-426.588	-200.000	-0.010	-0.373
-425.573	46.467	-0.286	0.266
-424.559	532.897	0.174	-0.414
-423.544	-154.093	-0.076	0.005
-422.530	-200.000	0.017	-0.193
-421.515	-36.319	-0.422	0.228
-420.500	800.000	0.076	-0.274
-419.486	94.142	0.205	-0.233
-418.471	115.751	0.269	-0.330
-417.457	-73.976	-0.225	0.082
-416.442	-88.872	-0.182	-0.054
-415.428	-200.000	-0.046	-0.237
-414.413	-200.000	0.045	0.418
-413.398	99.580	0.378	-0.439
-412.384	-112.002	0.239	0.048
-411.369	70.748	0.301	-0.313
-410.355	2.165	0.264	-0.191
-409.340	800.000	0.033	-0.145
-408.325	-85.174	-0.251	0.079
-407.311	-136.775	-0.158	-0.018
-406.296	4.571	-0.104	-0.077
-405.282	800.000	-0.038	-0.136
-404.267	-102.113	0.504	-0.122
-403.252	-200.000	0.028	0.167
-402.238	436.825	-0.113	0.247
-401.223	310.958	-0.070	-0.131
-400.209	152.893	-0.092	-0.126
-399.194	-85.439	0.189	0.059
-398.179	-116.385	0.321	0.060
-397.165	-69.711	-0.300	-0.115
-396.150	268.501	0.123	0.216
-395.136	-2.938	0.147	-0.103
-394.121	-110.438	0.330	0.069
-393.106	-200.000	-0.001	0.139
-392.092	0.113	0.116	-0.083
-391.077	388.273	0.181	0.376
-390.063	-38.878	0.191	-0.101
-389.048	54.764	0.139	-0.135
-388.033	81.559	-0.031	0.034
-387.019	-62.226	-0.093	-0.039
-386.004	-200.000	0.004	-0.047
-384.990	-200.000	-0.003	-0.225
-383.975	29.172	-0.194	-0.165
-382.960	800.000	0.118	-0.446
-381.946	-163.893	0.215	-0.010
-380.931	-200.000	-0.039	0.219
-379.917	11.950	-0.226	0.174
-378.902	-84.151	-0.261	-0.083
-377.888	800.000	-0.060	0.215
-376.873	-84.349	0.101	-0.032
-375.858	184.803	0.173	-0.257
-374.844	54.419	-0.073	-0.071
-373.829	663.717	0.104	0.270
-372.815	90.914	-0.310	0.348
-371.800	-200.000	-0.010	-0.250
-370.785	96.137	0.158	-0.181
-369.771	-46.917	-0.193	0.094
-368.756	116.996	0.079	-0.097
-367.742	-200.000	-0.016	-0.178
-366.727	27.079	-0.131	-0.110
-365.712	-200.000	-0.007	0.103
-364.698	-200.000	-0.030	-0.194
-363.683	800.000	-0.029	-0.120
-362.669	800.000	-0.035	0.117
-361.654	296.105	0.101	0.184
-360.639	-200.000	0.075	-0.337
-359.625	-200.000	0.079	0.394
-358.610	128.928	-0.129	-0.165
-357.596	-100.241	0.107	-0.027
-356.581	445.405	-0.106	-0.234
-355.566	-20.305	0.112	-0.069
-354.552	136.907	0.322	0.421
-353.537	56.192	-0.166	-0.161
-352.523	-200.000	0.032	-0.250
-351.508	-36.973	0.250	0.134
-350.493	76.107	0.058	0.061
-349.479	-3.665	0.374	0.260
-348.464	-67.898	-0.202	-0.079
-347.450	800.000	-0.132	-0.383
-346.435	800.000	0.055	0.237
-345.420	153.352	0.044	0.060
-344.406	-112.940	0.356	0.070
-343.391	202.722	0.020	0.032
-342.377	-200.000	0.049	-0.298
-341.362	-139.369	0.168	0.018
-340.348	800.000	-0.111	0.352
-339.333	-46.612	-0.313	0.153
-338.318	34.946	-0.148	-0.129
-337.304	-43.649	0.250	-0.126
-336.289	2.196	0.143	-0.103
-335.275	-200.000	-0.019	-0.226
-334.260	-82.666	-0.345	0.112
-333.245	-155.357	-0.216	0.014
-332.231	31.075	-0.116	-0.099
-331.216	-79.631	0.301	0.102
-330.202	-33.834	-0.310	-0.171
-329.187	-40.453	-0.112	-0.058
-328.172	106.206	-0.102	-0.121
-327.158	553.718	0.038	0.091
-326.143	24.381	0.131	0.109
-325.129	-200.000	0.061	0.300
-324.114	-59.818	-0.299	0.128
-323.099	-97.071	0.375	0.098
-322.085	10.062	0.076	-0.057
-321.070	65.612	-0.172	0.174
-320.056	-96.063	-0.140	0.037
-319.041	800.000	-0.043	-0.146
-318.026	-87.385	0.182	-0.055
-317.012	-26.362	0.246	0.144
-315.997	800.000	-0.090	-0.278
-314.983	170.859	-0.186	-0.267
-313.968	33.696	0.275	-0.238
-312.953	800.000	0.099	-0.278
-311.939	475.367	0.011	-0.025
-310.924	99.065	-0.260	0.300
-309.910	176.554	0.143	-0.208
-308.895	-22.289	-0.305	-0.185
-307.880	-200.000	0.021	-0.360
-306.866	-200.000	0.049	0.219
-305.851	81.357	-0.136	-0.147
-304.837	246.108	0.097	0.163
-303.822	-33.930	-0.171	0.094
-302.807	-200.000	-0.002	0.326
-301.793	675.879	0.133	0.344
-300.778	-118.972	0.235	-0.041
-299.764	433.443	-0.073	0.157
-298.749	-200.000	-0.036	0.162
-297.735	272.069	0.155	-0.274
-296.720	229.890	-0.016	0.026
-295.705	117.600	0.097	-0.119
-294.691	758.231	0.070	-0.188
-293.676	464.466	0.115	0.257
-292.662	216.605	-0.186	-0.295
-291.647	0.326	0.255	-0.182
-290.632	-200.000	-0.007	0.032
-289.618	-200.000	0.031	-0.271
-288.603	-82.663	0.179	0.058
-287.589	-152.404	0.231	0.017
-286.574	703.607	-0.091	-0.239
-285.559	-2.706	0.246	0.171
-284.545	38.629	-0.204	-0.181
-283.530	4.971	-0.159	-0.116
-282.516	-24.744	0.050	0.030
-281.501	37.126	0.216	0.190
-280.486	-139.654	-0.135	-0.014
-279.472	26.017	0.081	0.068
-278.457	800.000	-0.051	-0.180
-277.443	-200.000	0.000	0.230
-276.428	800.000	-0.044	-0.123
-275.413	-25.400	-0.172	0.101
-274.399	121.980	0.352	0.438
-273.384	-93.408	-0.328	0.091
-272.370	800.000	0.027	0.114
-271.355	-200.000	0.007	-0.090
-270.340	800.000	0.060	-0.189
-269.326	-47.207	-0.108	0.052
-268.311	800.000	0.040	0.155
-267.297	-200.000	0.003	0.496
-266.282	55.102	0.297	0.286
-265.267	323.789	-0.101	-0.192
-264.253	153.907	0.093	-0.126
-263.238	-200.000	0.013	-0.156
-262.224	476.782	0.228	-0.514
-261.209	162.815	0.066	0.092
-260.195	16.598	0.158	-0.125
-259.180	-144.721	-0.245	-0.022
-258.165	-17.394	0.084	-0.053
-257.151	-30.353	0.173	0.098
-256.136	-200.000	0.010	-0.050
-255.122	91.196	0.154	0.172
-254.107	800.000	-0.104	0.289
-253.092	93.228	-0.187	0.211
-252.078	-72.354	-0.245	-0.090
-251.063	800.000	-0.086	0.313
-250.049	134.824	0.098	-0.127
-249.034	-200.000	-0.007	0.139
-248.019	-50.934	0.068	0.032
-247.005	207.008	0.097	0.150
-245.990	-128.480	-0.162	-0.023
-244.976	-70.716	-0.044	0.017
-243.961	-200.000	-0.065	0.378
-242.946	93.492	-0.174	0.197
-241.932	-200.000	0.023	-0.305
-240.917	-48.443	0.138	-0.066
-239.903	56.787	0.070	-0.068
-238.888	800.000	0.096	0.313
-237.873	-200.000	0.013	0.133
-236.859	176.934	0.081	0.118
-235.844	216.093	-0.127	-0.202
-234.830	-48.643	-0.050	0.024
-233.815	-27.990	-0.234	0.135
-232.800	-200.000	0.007	0.044
-231.786	-200.000	0.020	0.262
-230.771	-200.000	-0.014	-0.220
-229.757	-37.096	0.199	-0.106
-228.742	201.168	0.095	-0.145
-227.727	285.043	-0.061	-0.109
-226.713	-137.840	-0.213	-0.024
-225.698	800.000	0.068	0.250
-224.684	295.517	-0.159	0.289
-223.669	-22.557	-0.382	-0.230
-222.655	118.729	-0.267	0.328
-221.640	-135.702	-0.191	-0.023
-220.625	219.551	0.021	-0.033
-219.611	-26.124	-0.184	0.108
-218.596	-83.211	0.163	0.052
-217.582	-200.000	-0.023	0.115
-216.567	800.000	0.013	-0.041
-215.552	668.821	0.100	-0.259
-214.538	278.076	-0.082	-0.146
-213.523	62.329	-0.150	-0.149
-212.509	-89.721	-0.240	-0.070
-211.494	413.842	0.039	-0.082
-210.479	96.586	0.100	-0.114
-209.465	-37.239	0.236	-0.126
-208.450	53.012	-0.064	-0.061
-207.436	-125.754	-0.043	-0.006
-206.421	-200.000	-0.003	0.198
-205.406	695.876	-0.061	-0.159
-204.392	156.487	0.058	-0.079
-203.377	-4.095	0.160	-0.110
-202.363	10.720	-0.158	-0.120
-201.348	99.217	-0.166	0.190
-200.333	800.000	0.070	0.282
-199.319	-200.000	-0.032	0.372
-198.304	18.958	0.102	0.082
-197.290	800.000	0.056	0.232
-196.275	-75.192	0.193	-0.068
-195.260	-200.000	-0.020	0.111
-194.246	-145.271	0.370	-0.033
-193.231	-97.871	-0.260	0.067
-192.217	-97.972	0.246	0.063
-191.202	-200.000	0.033	0.314
-190.187	-152.595	0.154	0.011
-189.173	144.088	-0.138	0.183
-188.158	330.145	0.152	-0.292
-187.144	256.829	-0.094	-0.161
-186.129	42.689	0.164	0.148
-185.114	162.353	-0.107	0.149
-184.100	43.504	-0.176	-0.160
-183.085	154.910	-0.204	-0.279
-182.071	-50.257	0.087	-0.041
-181.056	800.000	-0.114	0.442
-180.042	-200.000	-0.080	0.445
-179.027	612.781	0.058	0.144
-178.012	-200.000	-0.010	-0.125
-176.998	151.950	0.096	-0.130
-175.983	602.821	0.020	-0.050
-174.969	-200.000	-0.023	-0.172
-173.954	-200.000	0.015	0.176
-172.939	-200.000	-0.010	-0.049
-171.925	-141.855	-0.070	0.007
-170.910	-200.000	-0.021	-0.324
-169.896	-28.704	0.151	0.086
-168.881	-177.906	0.092	-0.002
-167.866	-200.000	-0.062	-0.286
-166.852	290.648	0.082	-0.148
-165.837	800.000	-0.125	0.363
-164.823	256.627	0.107	-0.182
-163.808	79.531	0.159	0.169
-162.793	-1.834	0.158	0.110
-161.779	34.590	0.130	-0.113
-160.764	109.552	-0.125	0.149
-159.750	-76.288	-0.105	-0.037
-158.735	397.291	-0.066	-0.136
-157.720	-84.606	0.135	0.042
-156.706	532.700	-0.074	0.173
-155.691	-200.000	-0.005	0.118
-154.677	65.818	0.130	0.131
-153.662	-115.924	0.113	-0.021
-152.647	-171.145	-0.171	-0.006
-151.633	-200.000	0.037	-0.234
-150.618	492.811	0.135	0.306
-149.604	-200.000	-0.025	-0.244
-148.589	-200.000	0.013	0.099
-147.574	800.000	0.095	-0.292
-146.560	4.147	0.083	0.060
-145.545	76.667	-0.153	0.160
-144.531	743.180	-0.075	-0.200
-143.516	-200.000	-0.026	0.169
-142.502	-7.975	-0.193	0.129
-141.487	69.779	-0.147	-0.150
-140.472	5.516	0.217	0.159
-139.458	-111.229	-0.141	-0.029
-138.443	71.159	-0.167	-0.172
-137.429	-200.000	0.017	0.338
-136.414	-200.000	-0.038	-0.297
-135.399	284.880	-0.251	0.449
-134.385	-181.497	-0.240	0.005
-133.370	-144.514	-0.346	0.032
-132.356	108.101	-0.189	-0.223
-131.341	-200.000	-0.013	-0.083
-130.326	-80.496	-0.120	-0.040
-129.312	1.662	-0.085	0.060
-128.297	15.067	0.172	-0.133
-127.283	-144.472	-0.297	0.027
-126.268	-200.000	-0.029	0.181
-125.253	554.423	0.058	-0.138
-124.239	169.513	-0.082	0.116
-123.224	263.753	-0.261	0.450
-122.210	-67.184	0.008	-0.003
-121.195	-103.784	0.149	-0.035
