DTS Sentinel unit serial number:	SN413079Multiplexer serial number:	ORYXHardware model number:	OX4-SRSoftware version number:	ORYX F/W v4.00 Oryx Data Collector v3.7.2.0data status	okinstallation	princeton_trtdifferential loss correction	single-endedforward channel	channel 2reverse channel	N/Adate	2019/09/14time	06:59:35forward acquisition time	60.00reverse acquisition time	0.00gamma	496.2192k internal	0.2338k external	0.2338temperature offset calibration	1.0137default loss term (dB/km)	0.3790temperature slope calibration	1.0000multiplexer offset coefficient	1.0000multiplexer slope coefficient	1.0000fibre end	0.00T internal ref (°C)	26.19T ext. ref 1 (°C)	3.46T ext. ref 2 (°C)	20.98length (m)	temperature (°C)	Stokes	anti-Stokes-747.200	-200.000	0.050	0.330
-746.185	800.000	-0.049	0.171
-745.171	800.000	0.016	0.065
-744.156	-120.202	-0.070	0.012
-743.142	-29.920	-0.237	-0.135
-742.127	530.393	0.058	0.136
-741.112	-143.208	0.401	0.039
-740.098	-68.737	-0.215	0.083
-739.083	-200.000	0.012	-0.117
-738.069	400.220	-0.122	0.257
-737.054	-126.159	-0.312	0.047
-736.039	50.743	-0.152	0.145
-735.025	-111.893	0.244	0.049
-734.010	800.000	0.121	-0.356
-732.996	-200.000	0.034	0.370
-731.981	-200.000	-0.020	0.290
-730.966	64.935	0.155	0.157
-729.952	-126.110	-0.049	-0.007
-728.937	563.038	-0.062	0.152
-727.923	-55.198	-0.315	0.142
-726.908	-13.373	-0.285	0.186
-725.894	-9.955	-0.253	-0.169
-724.879	-143.825	0.106	0.010
-723.864	-200.000	-0.024	0.350
-722.850	-0.428	-0.277	0.197
-721.835	141.265	0.140	-0.186
-720.821	-144.705	-0.280	-0.026
-719.806	-190.698	-0.203	-0.002
-718.791	161.126	0.141	-0.198
-717.777	270.138	-0.169	0.298
-716.762	243.941	0.131	-0.221
-715.748	120.566	0.207	0.257
-714.733	-104.379	-0.302	0.070
-713.718	-66.917	-0.086	-0.034
-712.704	533.131	-0.049	0.115
-711.689	-133.761	-0.135	0.017
-710.675	159.697	-0.128	-0.179
-709.660	-200.000	-0.039	0.253
-708.645	110.792	-0.250	-0.301
-707.631	25.529	-0.198	0.165
-706.616	170.825	0.266	0.382
-705.602	11.801	0.083	-0.064
-704.587	-89.711	0.089	-0.026
-703.572	-121.596	-0.104	-0.017
-702.558	-169.478	-0.186	0.007
-701.543	-200.000	0.049	-0.271
-700.529	191.921	0.246	0.372
-699.514	-200.000	-0.040	-0.349
-698.499	800.000	-0.051	-0.186
-697.485	-133.579	0.079	-0.010
-696.470	-200.000	0.015	-0.095
-695.456	-93.323	-0.196	0.054
-694.441	-160.809	0.182	-0.010
-693.426	800.000	0.051	0.163
-692.412	-200.000	0.137	-0.000
-691.397	-118.406	-0.224	-0.040
-690.383	41.059	0.032	-0.029
-689.368	-92.979	-0.058	-0.016
-688.354	63.948	-0.079	0.079
-687.339	92.359	0.111	0.125
-686.324	-68.286	0.200	0.078
-685.310	-103.904	0.258	0.060
-684.295	12.628	-0.237	0.183
-683.281	-95.265	0.257	0.069
-682.266	-199.369	-0.197	0.001
-681.251	800.000	0.030	-0.091
-680.237	-58.645	0.181	0.079
-679.222	-58.548	0.120	-0.052
-678.208	-100.031	-0.292	-0.073
-677.193	253.152	0.178	0.305
-676.178	312.074	-0.108	-0.203
-675.164	104.344	0.073	0.086
-674.149	255.615	0.053	0.091
-673.135	-8.518	-0.175	-0.118
-672.120	-23.983	0.190	-0.114
-671.105	-120.671	0.052	-0.009
-670.091	-96.474	-0.064	-0.017
-669.076	-42.557	-0.240	-0.122
-668.062	115.065	0.116	-0.141
-667.047	-86.380	-0.050	-0.015
-666.032	0.539	0.320	-0.229
-665.018	681.628	-0.126	0.329
-664.003	-200.000	0.005	0.050
-662.989	34.210	0.116	0.101
-661.974	-96.941	0.094	0.025
-660.959	-200.000	-0.041	-0.305
-659.945	-25.809	0.017	0.010
-658.930	196.047	-0.089	0.135
-657.916	643.104	-0.030	-0.077
-656.901	303.652	0.044	-0.082
-655.886	-16.062	0.277	0.176
-654.872	-82.591	-0.328	-0.106
-653.857	-57.944	0.202	-0.088
-652.843	-10.029	0.232	-0.154
-651.828	110.465	-0.031	-0.037
-650.814	232.459	0.029	0.048
-649.799	24.668	0.126	-0.105
-648.784	-19.605	0.120	-0.075
-647.770	800.000	-0.121	-0.425
-646.755	-153.394	-0.259	-0.018
-645.741	2.014	-0.337	0.243
-644.726	-186.409	0.087	0.001
-643.711	502.684	0.083	0.192
-642.697	-82.671	-0.148	-0.048
-641.682	-200.000	-0.057	0.273
-640.668	228.493	-0.027	0.044
-639.653	-200.000	-0.050	0.224
-638.638	469.896	0.034	0.077
-637.624	35.882	0.266	-0.233
-636.609	235.614	-0.073	0.120
-635.595	-104.432	-0.167	0.039
-634.580	-2.844	-0.278	-0.194
-633.565	-38.451	0.219	0.116
-632.551	37.768	0.242	-0.215
-631.536	106.032	-0.267	0.315
-630.522	800.000	-0.041	0.173
-629.507	-200.000	-0.047	-0.291
-628.492	105.997	0.029	-0.034
-627.478	-14.220	-0.209	-0.135
-626.463	-5.531	0.245	-0.168
-625.449	-200.000	0.029	-0.187
-624.434	-31.162	-0.178	-0.100
-623.419	800.000	-0.029	0.084
-622.405	800.000	-0.036	0.111
-621.390	-105.724	0.273	-0.062
-620.376	-200.000	0.023	0.157
-619.361	-122.160	-0.340	-0.056
-618.346	-130.923	-0.041	0.006
-617.332	198.174	-0.102	-0.156
-616.317	-19.659	-0.317	-0.196
-615.303	108.591	-0.225	-0.269
-614.288	800.000	0.104	-0.328
-613.273	-139.487	-0.225	0.024
-612.259	-44.378	-0.083	0.041
-611.244	-40.494	0.155	0.080
-610.230	-200.000	-0.018	0.245
-609.215	-200.000	0.027	0.256
-608.201	-78.085	0.080	-0.028
-607.186	542.402	0.144	0.343
-606.171	95.667	0.191	-0.218
-605.157	-108.123	-0.164	-0.035
-604.142	-200.000	-0.049	-0.292
-603.128	418.079	-0.183	-0.390
-602.113	-22.207	0.187	-0.113
-601.098	-7.866	-0.217	-0.146
-600.084	-13.883	-0.266	-0.171
-599.069	-21.657	0.133	-0.081
-598.055	176.220	-0.110	0.160
-597.040	-88.800	-0.055	-0.016
-596.025	-32.094	0.191	0.107
-595.011	26.701	-0.127	0.106
-593.996	-135.468	-0.113	0.013
-592.982	99.208	-0.162	-0.187
-591.967	371.133	0.133	0.269
-590.952	197.075	0.111	0.168
-589.938	-91.328	-0.099	0.028
-588.923	303.313	0.028	-0.051
-587.909	-24.735	-0.120	0.071
-586.894	49.756	0.031	0.029
-585.879	-111.013	0.326	0.067
-584.865	441.936	0.065	0.143
-583.850	-200.000	0.016	-0.175
-582.836	-200.000	-0.015	-0.084
-581.821	-43.536	-0.043	0.022
-580.806	105.702	-0.256	0.302
-579.792	-23.853	0.188	-0.112
-578.777	365.485	-0.039	-0.078
-577.763	-200.000	0.270	-0.001
-576.748	174.771	-0.222	0.320
-575.733	-94.493	-0.454	0.123
-574.719	-3.231	-0.179	-0.125
-573.704	-10.218	-0.257	-0.170
-572.690	101.003	-0.116	-0.134
-571.675	-141.389	0.271	0.027
-570.661	800.000	0.049	0.194
-569.646	800.000	-0.121	0.365
-568.631	-200.000	0.007	0.220
-567.617	177.492	-0.131	0.190
-566.602	337.454	-0.196	0.380
-565.588	-200.000	-0.054	-0.251
-564.573	-200.000	-0.004	-0.270
-563.558	-36.598	-0.292	-0.157
-562.544	18.186	-0.200	0.159
-561.529	-49.847	0.175	0.083
-560.515	218.969	0.244	-0.389
-559.500	800.000	-0.037	0.133
-558.485	-200.000	0.028	-0.229
-557.471	598.413	-0.134	-0.332
-556.456	-200.000	-0.028	0.519
-555.442	24.633	-0.326	-0.269
-554.427	96.339	0.148	-0.169
-553.412	800.000	-0.021	-0.081
-552.398	98.788	0.242	0.279
-551.383	-138.124	-0.114	0.013
-550.369	-29.534	-0.140	0.080
-549.354	18.905	-0.191	-0.152
-548.339	527.073	-0.112	-0.264
-547.325	-66.374	0.271	-0.107
-546.310	800.000	0.118	-0.506
-545.296	-48.216	-0.122	0.059
-544.281	9.782	0.057	0.043
-543.266	-200.000	0.027	-0.443
-542.252	800.000	-0.108	-0.346
-541.237	-83.751	-0.132	-0.042
-540.223	-5.896	0.246	0.167
-539.208	-200.000	0.033	0.304
-538.193	-89.021	-0.146	-0.043
-537.179	156.649	0.190	0.261
-536.164	-200.000	0.022	0.158
-535.150	-57.824	0.127	0.055
-534.135	-29.985	0.236	0.134
-533.121	800.000	0.035	0.139
-532.106	77.176	0.162	0.172
-531.091	-200.000	-0.028	-0.170
-530.077	226.465	0.103	-0.166
-529.062	800.000	-0.093	-0.266
-528.048	56.648	-0.344	-0.333
-527.033	75.083	0.172	-0.180
-526.018	59.709	0.217	-0.213
-525.004	253.699	0.003	0.006
-523.989	-18.615	-0.173	-0.108
-522.975	229.622	-0.117	0.190
-521.960	269.857	0.058	-0.102
-520.945	24.971	-0.044	0.037
-519.931	-29.107	-0.260	0.148
-518.916	-200.000	-0.016	-0.142
-517.902	800.000	0.061	0.215
-516.887	14.535	0.067	-0.052
-515.872	9.356	-0.303	0.228
-514.858	-200.000	-0.030	0.245
-513.843	-95.996	-0.218	-0.058
-512.829	160.372	0.211	-0.293
-511.814	76.859	-0.151	0.159
-510.799	-22.614	0.184	-0.111
-509.785	33.166	0.157	0.135
-508.770	-166.116	-0.160	-0.007
-507.756	-123.914	0.148	-0.023
-506.741	312.462	-0.158	-0.296
-505.726	-55.532	-0.107	-0.047
-504.712	101.499	-0.231	0.267
-503.697	512.792	0.040	0.093
-502.683	-115.136	0.108	-0.020
-501.668	-40.002	0.235	-0.122
-500.653	387.914	-0.052	0.107
-499.639	-58.507	0.237	0.102
-498.624	330.706	0.043	-0.082
-497.610	20.509	0.195	-0.156
-496.595	38.812	0.115	-0.102
-495.581	800.000	-0.088	0.363
-494.566	-43.926	0.136	0.068
-493.551	-156.089	-0.248	-0.016
-492.537	68.148	-0.107	0.109
-491.522	29.563	-0.059	-0.050
-490.508	-72.076	-0.167	0.061
-489.493	-200.000	0.060	0.264
-488.478	0.203	-0.117	-0.083
-487.464	137.819	-0.095	-0.124
-486.449	-200.000	0.012	-0.459
-485.435	-200.000	0.029	0.361
-484.420	-200.000	-0.019	0.279
-483.405	-200.000	-0.038	-0.241
-482.391	-129.831	-0.372	0.051
-481.376	-200.000	0.092	-0.459
-480.362	-45.001	-0.221	-0.109
-479.347	-81.294	-0.334	0.110
-478.332	-35.909	0.181	-0.097
-477.318	-132.168	-0.043	-0.005
-476.303	434.034	0.159	0.342
-475.289	800.000	-0.061	-0.208
-474.274	227.388	0.112	-0.181
-473.259	255.487	-0.155	-0.264
-472.245	800.000	0.048	-0.158
-471.230	46.377	-0.298	0.274
-470.216	-28.688	0.037	0.021
-469.201	163.149	-0.085	-0.119
-468.186	34.578	-0.247	0.215
-467.172	29.797	-0.082	-0.069
-466.157	-200.000	0.000	-0.053
-465.143	-40.098	0.147	0.076
-464.128	-55.571	0.100	0.044
-463.113	187.301	-0.110	-0.163
-462.099	46.093	-0.127	-0.117
-461.084	-200.000	-0.006	-0.304
-460.070	-175.211	-0.202	0.006
-459.055	-200.000	-0.056	-0.258
-458.040	5.043	-0.200	0.146
-457.026	221.946	0.154	0.246
-456.011	-53.851	0.123	-0.056
-454.997	76.693	-0.287	0.302
-453.982	49.083	0.254	-0.237
-452.968	62.367	0.185	0.183
-451.953	-200.000	-0.021	-0.112
-450.938	233.433	-0.046	0.075
-449.924	-200.000	0.021	-0.145
-448.909	76.157	-0.289	0.304
-447.895	-67.118	0.495	0.193
-446.880	-67.302	-0.191	-0.075
-445.865	1.254	0.208	0.148
-444.851	-184.040	-0.143	0.002
-443.836	607.434	-0.101	-0.250
-442.822	179.603	0.126	-0.183
-441.807	64.365	0.076	-0.076
-440.792	800.000	0.028	0.113
-439.778	-200.000	-0.026	0.260
-438.763	-48.367	0.119	-0.057
-437.749	-145.853	-0.449	-0.040
-436.734	-90.140	0.395	-0.114
-435.719	-126.771	0.227	0.033
-434.705	800.000	-0.052	-0.193
-433.690	-161.806	0.281	-0.014
-432.676	416.969	0.130	0.274
-431.661	-33.935	-0.160	0.088
-430.646	33.935	0.211	-0.182
-429.632	-121.662	0.146	0.024
-428.617	-200.000	0.022	-0.137
-427.603	20.975	0.115	-0.093
-426.588	-150.955	0.044	0.003
-425.573	-25.099	-0.197	-0.116
-424.559	-200.000	0.016	-0.130
-423.544	109.306	-0.087	-0.104
-422.530	800.000	-0.055	0.156
-421.515	-180.003	0.039	-0.001
-420.500	166.108	-0.093	-0.131
-419.486	153.248	-0.039	0.053
-418.471	-10.970	0.155	0.101
-417.457	162.324	-0.174	-0.242
-416.442	186.599	-0.060	-0.089
-415.428	-158.181	0.349	0.020
-414.413	-200.000	-0.013	-0.081
-413.398	-146.613	0.122	-0.010
-412.384	345.533	-0.140	0.273
-411.369	157.806	-0.084	-0.116
-410.355	-42.359	-0.170	-0.086
-409.340	-200.000	0.000	-0.029
-408.325	94.128	-0.354	-0.398
-407.311	675.148	0.114	0.293
-406.296	-118.579	0.134	-0.023
-405.282	-74.827	0.353	0.126
-404.267	6.556	0.167	-0.123
-403.252	-25.328	-0.294	0.173
-402.238	-200.000	-0.023	-0.153
-401.223	126.565	0.146	-0.183
-400.209	-55.421	0.394	0.175
-399.194	-129.773	0.095	-0.013
-398.179	-182.292	0.274	-0.005
-397.165	14.454	0.025	0.019
-396.150	-200.000	0.007	-0.094
-395.136	-200.000	-0.031	0.280
-394.121	-41.136	0.070	0.036
-393.106	304.759	-0.130	-0.239
-392.092	261.264	0.023	0.039
-391.077	127.959	0.398	-0.500
-390.063	59.863	0.200	-0.195
-389.048	-132.676	-0.339	0.043
-388.033	-83.237	0.263	0.083
-387.019	726.296	-0.050	-0.132
-386.004	-200.000	0.007	0.042
-384.990	10.715	-0.114	0.086
-383.975	-60.756	-0.377	0.158
-382.960	138.128	-0.105	0.136
-381.946	627.760	-0.093	0.232
-380.931	242.309	0.091	0.151
-379.917	-200.000	-0.061	-0.372
-378.902	-49.367	0.257	-0.121
-377.888	-200.000	0.002	0.146
-376.873	-200.000	0.084	-0.389
-375.858	41.644	-0.344	-0.308
-374.844	56.059	0.069	-0.066
-373.829	-200.000	-0.015	-0.330
-372.815	-200.000	0.016	-0.176
-371.800	203.980	0.119	0.183
-370.785	-120.476	0.252	-0.042
-369.771	-35.729	0.055	-0.029
-368.756	-129.765	0.170	0.023
-367.742	800.000	0.073	0.273
-366.727	-91.748	-0.240	0.067
-365.712	-42.363	-0.107	-0.054
-364.698	-88.373	-0.137	-0.040
-363.683	-120.476	-0.087	0.015
-362.669	-200.000	-0.044	-0.208
-361.654	800.000	-0.057	-0.161
-360.639	-93.942	-0.083	0.023
-359.625	-108.396	0.139	-0.030
-358.610	-85.629	0.348	0.107
-357.596	35.289	0.025	-0.022
-356.581	13.679	0.085	0.066
-355.566	18.444	-0.121	0.095
-354.552	-124.122	-0.278	0.043
-353.537	79.661	-0.123	-0.131
-352.523	358.771	0.039	-0.078
-351.508	161.696	-0.189	0.262
-350.493	-8.083	-0.253	0.168
-349.479	-200.000	0.059	-0.313
-348.464	52.153	-0.124	0.116
-347.450	-51.566	-0.155	-0.072
-346.435	-200.000	-0.040	0.268
-345.420	-72.771	0.150	0.054
-344.406	-200.000	-0.005	0.057
-343.391	800.000	0.059	-0.195
-342.377	-200.000	0.026	-0.199
-341.362	-200.000	-0.014	0.154
-340.348	-108.288	-0.103	-0.022
-339.333	-33.768	0.239	0.130
-338.318	12.092	-0.340	-0.259
-337.304	800.000	0.048	0.145
-336.289	-64.452	-0.273	0.110
-335.275	37.047	-0.203	-0.177
-334.260	136.957	0.153	-0.197
-333.245	-110.483	0.219	-0.045
-332.231	84.114	0.098	0.106
-331.216	144.387	0.169	-0.223
-330.202	148.687	-0.174	-0.232
-329.187	170.618	0.112	0.159
-328.172	-200.000	0.050	0.266
-327.158	-11.115	0.103	0.067
-326.143	-31.621	0.034	0.019
-325.129	-132.759	0.206	0.026
-324.114	-184.553	0.198	0.003
-323.099	-21.436	-0.247	0.149
-322.085	-200.000	-0.005	-0.128
-321.070	-200.000	0.043	0.258
-320.056	100.956	-0.222	0.255
-319.041	-24.897	0.037	-0.022
-318.026	-34.454	-0.196	0.106
-317.012	-149.524	0.275	-0.022
-315.997	800.000	-0.050	0.140
-314.983	800.000	-0.068	-0.206
-313.968	115.234	0.119	-0.143
-312.953	-16.123	-0.062	-0.039
-311.939	-200.000	0.037	0.401
-310.924	-104.519	-0.275	-0.063
-309.910	800.000	0.066	-0.205
-308.895	96.618	0.068	0.077
-307.880	30.102	0.316	-0.266
-306.866	484.446	-0.114	-0.256
-305.851	-46.750	-0.250	-0.121
-304.837	-46.863	-0.317	0.153
-303.822	800.000	-0.023	-0.064
-302.807	30.556	-0.197	-0.167
-301.793	350.244	0.194	0.379
-300.778	800.000	-0.149	0.514
-299.764	-4.694	0.144	-0.098
-298.749	418.296	-0.102	0.214
-297.735	-28.237	0.190	-0.108
-296.720	160.189	0.204	-0.281
-295.705	-200.000	0.026	0.155
-294.691	-112.412	0.318	-0.063
-293.676	800.000	0.086	0.356
-292.662	-200.000	-0.064	0.408
-291.647	-200.000	-0.003	0.071
-290.632	48.818	0.396	-0.367
-289.618	-200.000	-0.007	-0.205
-288.603	-84.378	0.084	-0.026
-287.589	-27.644	-0.247	-0.141
-286.574	-53.298	-0.376	0.170
-285.559	40.523	0.141	-0.125
-284.545	-200.000	0.012	0.180
-283.530	800.000	-0.058	0.190
-282.516	-32.778	-0.143	-0.078
-281.501	-200.000	-0.015	-0.124
-280.486	136.385	-0.126	-0.161
-279.472	800.000	-0.013	-0.050
-278.457	-157.320	-0.334	-0.020
-277.443	-49.517	-0.101	-0.047
-276.428	-72.943	-0.072	-0.026
-275.413	378.894	0.175	0.353
-274.399	-200.000	0.057	0.255
-273.384	-167.052	0.039	-0.002
-272.370	93.608	0.138	0.153
-271.355	-150.620	-0.133	0.010
-270.340	104.570	-0.026	0.031
-269.326	187.293	0.204	0.299
-268.311	-118.785	0.122	0.021
-267.297	411.820	0.156	0.326
-266.282	-200.000	0.016	0.309
-265.267	-200.000	0.015	-0.160
-264.253	528.741	-0.046	-0.108
-263.238	800.000	0.080	0.270
-262.224	-151.679	-0.155	-0.011
-261.209	-119.530	0.441	0.075
-260.195	-124.090	0.053	0.008
-259.180	-100.157	-0.248	-0.061
-258.165	352.876	0.045	-0.087
-257.151	-200.000	0.019	0.227
-256.136	89.311	-0.155	0.170
-255.122	422.598	-0.088	0.186
-254.107	-67.433	-0.123	-0.048
-253.092	-0.539	0.097	0.068
-252.078	-138.995	0.147	0.016
-251.063	270.491	-0.027	-0.046
-250.049	7.521	0.275	0.203
-249.034	-185.183	0.062	0.001
-248.019	31.819	-0.192	-0.163
-247.005	800.000	0.080	0.237
-245.990	511.828	0.140	0.320
-244.976	65.641	-0.101	-0.101
-243.961	-200.000	-0.027	0.343
-242.946	-197.053	0.383	0.002
-241.932	-50.100	0.338	-0.157
-240.917	290.036	0.055	-0.099
-239.903	-92.287	-0.211	0.058
-238.888	345.096	0.283	-0.547
-237.873	58.501	-0.208	-0.201
-236.859	-129.563	0.317	-0.043
-235.844	80.936	0.281	0.298
-234.830	-200.000	0.028	0.556
-233.815	-98.930	-0.200	-0.050
-232.800	75.831	-0.155	0.161
-231.786	-200.000	-0.045	-0.254
-230.771	-73.351	0.187	-0.067
-229.757	-200.000	0.021	-0.128
-228.742	96.873	0.055	0.062
-227.727	201.872	0.097	0.147
-226.713	-200.000	0.062	0.422
-225.698	-200.000	0.007	0.382
-224.684	-200.000	-0.049	0.291
-223.669	37.696	0.259	-0.226
-222.655	296.073	-0.089	0.159
-221.640	125.717	0.138	-0.171
-220.625	6.300	0.206	0.150
-219.611	-124.379	0.368	-0.057
-218.596	676.040	-0.114	0.290
-217.582	-32.766	-0.206	0.113
-216.567	578.259	0.122	-0.294
-215.552	18.828	-0.101	0.080
-214.538	-11.013	-0.123	0.080
-213.523	-123.621	0.280	-0.044
-212.509	50.951	0.250	-0.233
-211.494	-63.512	0.212	-0.085
-210.479	61.611	-0.197	-0.193
-209.465	42.127	0.013	0.012
-208.450	91.451	0.211	0.233
-207.436	-42.212	0.082	-0.041
-206.421	-6.353	-0.232	-0.156
-205.406	21.120	-0.110	0.088
-204.392	-124.487	-0.293	0.045
-203.377	250.539	0.162	0.271
-202.363	-140.432	0.092	0.009
-201.348	-38.706	-0.083	-0.043
-200.333	-38.352	-0.151	0.079
-199.319	-118.374	0.213	-0.037
-198.304	-200.000	-0.028	-0.280
-197.290	-200.000	-0.012	-0.193
-196.275	-112.546	0.124	0.024
-195.260	146.589	0.173	-0.229
-194.246	325.673	-0.166	-0.311
-193.231	-159.973	0.279	-0.015
-192.217	-200.000	-0.030	-0.207
-191.202	-184.487	0.176	0.003
-190.187	-24.888	0.109	0.064
-189.173	591.912	-0.084	-0.204
-188.158	-122.549	-0.150	0.024
-187.144	136.694	0.118	0.151
-186.129	-129.715	0.411	-0.056
-185.114	299.056	0.090	0.162
-184.100	-146.904	-0.138	-0.012
-183.085	-200.000	-0.015	0.342
-182.071	357.519	0.182	0.356
-181.056	-95.070	0.403	-0.107
-180.042	-94.675	-0.108	-0.029
-179.027	7.435	-0.126	0.092
-178.012	49.681	0.098	-0.090
-176.998	172.576	0.159	-0.224
-175.983	-200.000	0.029	0.125
-174.969	-200.000	-0.026	-0.260
-173.954	-16.910	-0.125	0.077
-172.939	-200.000	0.001	0.214
-171.925	800.000	-0.055	-0.193
-170.910	-112.473	0.123	0.024
-169.896	-159.915	-0.067	0.004
-168.881	-102.305	0.083	-0.020
-167.866	-200.000	0.024	-0.157
-166.852	16.199	0.126	-0.097
-165.837	-200.000	-0.049	0.231
-164.823	-82.355	0.219	-0.070
-163.808	230.464	0.049	-0.078
-162.793	-69.636	-0.105	0.040
-161.779	-103.403	-0.184	0.043
-160.764	56.952	-0.082	0.078
-159.750	-88.148	-0.300	-0.088
-158.735	-168.112	0.023	0.001
-157.720	156.606	0.046	0.062
-156.706	800.000	0.053	-0.224
-155.691	318.801	-0.091	0.170
-154.677	-144.578	0.175	-0.016
-153.662	50.232	-0.184	0.170
-152.647	459.344	-0.019	0.041
-151.633	800.000	-0.098	0.311
-150.618	-200.000	0.062	0.311
-149.604	-7.414	-0.174	-0.116
-148.589	-200.000	-0.060	-0.277
-147.574	81.553	-0.186	-0.197
-146.560	-177.903	0.221	-0.005
-145.545	182.775	0.122	0.176
-144.531	195.517	0.116	-0.173
-143.516	431.347	-0.106	-0.224
-142.502	14.495	0.187	-0.143
-141.487	306.998	-0.079	0.143
-140.472	-15.844	-0.078	0.049
-139.458	155.446	0.134	-0.181
-138.443	-200.000	-0.002	-0.059
-137.429	78.868	0.290	0.304
-136.414	-152.521	-0.448	-0.031
-135.399	-16.287	0.264	0.164
-134.385	-14.757	-0.253	-0.159
-133.370	-122.755	-0.388	-0.061
-132.356	-49.592	0.043	-0.020
-131.341	-15.658	-0.217	0.136
-130.326	-156.542	-0.312	0.019
-129.312	-200.000	0.041	0.240
-128.297	110.924	0.101	0.119
-127.283	800.000	-0.137	0.429
-126.268	120.798	0.184	-0.224
-125.253	521.445	0.030	0.069
-124.239	322.720	-0.054	-0.101
-123.224	800.000	-0.169	-0.487
-122.210	-200.000	-0.018	0.147
