DTS Sentinel unit serial number:	SN413079Multiplexer serial number:	ORYXHardware model number:	OX4-SRSoftware version number:	ORYX F/W v4.00 Oryx Data Collector v3.7.2.0data status	okinstallation	princeton_trtdifferential loss correction	single-endedforward channel	channel 2reverse channel	N/Adate	2019/09/13time	00:39:34forward acquisition time	60.00reverse acquisition time	0.00gamma	496.2192k internal	0.2332k external	0.2332temperature offset calibration	1.0164default loss term (dB/km)	0.3790temperature slope calibration	1.0000multiplexer offset coefficient	1.0000multiplexer slope coefficient	1.0000fibre end	0.00T internal ref (°C)	28.27T ext. ref 1 (°C)	3.70T ext. ref 2 (°C)	22.85length (m)	temperature (°C)	Stokes	anti-Stokes-747.200	63.186	0.159	0.161
-746.185	-75.960	0.186	0.066
-745.171	138.432	0.076	0.101
-744.156	-200.000	-0.010	-0.313
-743.142	-134.407	-0.236	-0.029
-742.127	-141.299	-0.432	-0.044
-741.112	248.203	0.091	-0.155
-740.098	-157.541	-0.061	-0.004
-739.083	800.000	0.088	0.335
-738.069	-18.588	-0.155	-0.097
-737.054	-101.786	-0.090	-0.022
-736.039	-125.202	-0.178	-0.027
-735.025	92.103	-0.129	-0.146
-734.010	-79.123	-0.062	-0.021
-732.996	-103.316	-0.181	-0.043
-731.981	800.000	-0.101	-0.298
-730.966	800.000	-0.069	-0.209
-729.952	-200.000	-0.043	0.251
-728.937	794.123	0.036	0.101
-727.923	382.398	-0.155	0.319
-726.908	24.145	0.150	-0.125
-725.894	-98.702	0.116	-0.030
-724.879	185.724	-0.100	-0.150
-723.864	55.999	0.042	-0.041
-722.850	53.469	-0.191	-0.184
-721.835	47.941	0.080	-0.075
-720.821	-50.182	-0.305	0.145
-719.806	-147.661	-0.161	-0.014
-718.791	-79.576	0.065	0.022
-717.777	-200.000	-0.025	-0.295
-716.762	24.528	0.209	-0.174
-715.748	26.610	-0.178	-0.150
-714.733	636.084	-0.030	0.075
-713.718	-2.869	-0.372	0.261
-712.704	-99.805	0.201	0.051
-711.689	-200.000	-0.007	-0.153
-710.675	190.502	0.062	0.093
-709.660	130.687	-0.053	-0.068
-708.645	-61.738	0.260	0.109
-707.631	55.767	-0.123	0.120
-706.616	-195.912	0.228	-0.002
-705.602	0.243	-0.175	0.125
-704.587	0.844	0.227	-0.163
-703.572	-84.181	0.008	-0.003
-702.558	354.640	-0.156	0.311
-701.543	-84.641	0.120	0.038
-700.529	-57.419	-0.124	-0.055
-699.514	579.773	0.125	-0.308
-698.499	800.000	0.083	-0.285
-697.485	105.266	-0.116	-0.138
-696.470	156.254	-0.281	-0.390
-695.456	-200.000	0.007	-0.089
-694.441	-43.913	-0.083	0.042
-693.426	198.730	0.091	0.139
-692.412	-101.214	0.400	-0.098
-691.397	112.610	-0.104	0.127
-690.383	800.000	-0.088	-0.258
-689.368	-200.000	0.031	0.167
-688.354	29.063	0.209	-0.178
-687.339	4.435	0.067	-0.049
-686.324	124.666	0.008	-0.010
-685.310	20.576	0.057	0.046
-684.295	-200.000	0.062	-0.317
-683.281	-46.938	0.140	0.069
-682.266	-200.000	0.020	0.292
-681.251	-146.773	0.274	0.024
-680.237	244.622	0.007	-0.012
-679.222	-192.394	-0.412	0.004
-678.208	-154.210	0.105	-0.007
-677.193	-131.845	-0.147	-0.019
-676.178	117.881	0.166	-0.205
-675.164	72.117	0.266	0.278
-674.149	-95.428	0.153	0.041
-673.135	-200.000	0.054	-0.390
-672.120	-44.779	-0.280	-0.140
-671.105	67.946	-0.046	0.047
-670.091	-200.000	-0.012	0.193
-669.076	116.533	0.039	-0.048
-668.062	-34.805	0.083	-0.045
-667.047	-200.000	0.010	-0.057
-666.032	149.868	0.170	-0.231
-665.018	-164.928	-0.259	0.012
-664.003	-200.000	0.065	-0.288
-662.989	-57.461	0.044	-0.019
-661.974	-200.000	0.020	0.461
-660.959	109.605	-0.122	0.147
-659.945	23.013	-0.136	-0.112
-658.930	180.830	0.110	0.162
-657.916	-123.233	0.288	0.046
-656.901	800.000	-0.040	-0.123
-655.886	800.000	0.011	0.038
-654.872	-152.850	0.073	-0.005
-653.857	100.794	-0.197	-0.230
-652.843	427.575	-0.054	0.118
-651.828	-170.995	-0.539	0.018
-650.814	-163.508	-0.165	-0.008
-649.799	-74.265	-0.114	0.041
-648.784	-0.902	-0.121	0.086
-647.770	800.000	-0.018	-0.074
-646.755	-131.117	-0.148	-0.020
-645.741	-57.271	0.230	-0.101
-644.726	-142.337	-0.175	-0.017
-643.711	315.743	-0.134	0.253
-642.697	479.841	0.008	-0.019
-641.682	-98.994	-0.301	-0.077
-640.668	62.053	0.133	-0.133
-639.653	-88.486	-0.065	0.019
-638.638	-8.640	0.023	-0.016
-637.624	-94.568	-0.200	-0.055
-636.609	-67.339	0.332	-0.131
-635.595	800.000	-0.079	0.272
-634.580	224.306	-0.194	-0.314
-633.565	91.946	0.115	-0.129
-632.551	-200.000	0.010	0.144
-631.536	-87.743	0.093	0.028
-630.522	69.578	0.054	0.055
-629.507	-104.212	-0.257	-0.060
-628.492	-16.457	-0.173	0.110
-627.478	-84.548	-0.135	-0.043
-626.463	800.000	0.015	-0.054
-625.449	102.505	0.074	0.087
-624.434	-98.639	0.180	-0.046
-623.419	-200.000	0.057	-0.264
-622.405	7.538	-0.135	0.101
-621.390	-64.762	-0.233	-0.094
-620.376	-88.948	-0.297	-0.088
-619.361	54.056	-0.212	-0.204
-618.346	800.000	-0.019	0.065
-617.332	146.239	-0.139	0.187
-616.317	87.088	-0.135	-0.149
-615.303	-200.000	0.017	0.118
-614.288	-200.000	0.035	0.286
-613.273	93.283	0.202	0.229
-612.259	-74.023	0.125	-0.045
-611.244	-200.000	-0.017	-0.132
-610.230	-148.941	0.270	-0.022
-609.215	130.465	-0.115	-0.148
-608.201	-15.636	0.120	0.077
-607.186	-132.269	0.333	-0.043
-606.171	94.919	0.063	0.071
-605.157	800.000	0.073	0.228
-604.142	52.517	-0.186	-0.178
-603.128	800.000	0.021	-0.082
-602.113	98.697	-0.130	-0.150
-601.098	-115.069	0.080	0.015
-600.084	-77.438	-0.058	-0.020
-599.069	264.086	-0.070	0.122
-598.055	-54.313	0.166	0.075
-597.040	800.000	0.035	0.102
-596.025	574.402	-0.128	-0.311
-595.011	561.729	0.135	0.327
-593.996	9.705	0.034	0.026
-592.982	252.978	0.143	0.244
-591.967	-78.013	0.375	0.129
-590.952	157.570	0.067	0.093
-589.938	-200.000	-0.021	0.399
-588.923	-42.381	-0.090	-0.046
-587.909	9.758	0.247	0.188
-586.894	800.000	0.069	0.193
-585.879	-200.000	-0.066	-0.384
-584.865	82.058	-0.027	-0.030
-583.850	-7.205	-0.080	-0.054
-582.836	-200.000	0.016	-0.127
-581.821	27.395	-0.148	-0.124
-580.806	93.048	0.077	-0.087
-579.792	361.939	0.100	-0.200
-578.777	265.941	-0.235	0.411
-577.763	-200.000	0.005	0.400
-576.748	-200.000	-0.021	-0.092
-575.733	165.243	-0.097	0.136
-574.719	54.026	-0.180	-0.173
-573.704	154.211	-0.180	0.247
-572.690	157.513	-0.117	0.162
-571.675	800.000	0.053	-0.165
-570.661	-200.000	-0.009	-0.442
-569.646	772.228	0.158	-0.430
-568.631	-194.469	0.279	0.002
-567.617	21.788	0.163	-0.133
-566.602	-200.000	0.010	0.125
-565.588	-111.253	-0.170	0.035
-564.573	155.028	0.117	-0.161
-563.558	-146.473	-0.364	-0.032
-562.544	-114.208	-0.223	-0.043
-561.529	186.591	-0.307	-0.457
-560.515	86.187	0.080	-0.087
-559.500	57.139	-0.105	-0.102
-558.485	-200.000	0.011	-0.498
-557.471	-87.055	0.063	-0.019
-556.456	205.974	0.246	0.382
-555.442	-11.619	-0.312	-0.205
-554.427	-111.482	-0.191	0.039
-553.412	41.488	0.095	-0.086
-552.398	-200.000	0.044	-0.349
-551.383	99.018	-0.065	0.075
-550.369	-95.231	-0.202	-0.054
-549.354	-46.831	0.198	0.097
-548.339	274.161	0.029	-0.051
-547.325	342.419	0.049	0.095
-546.310	-200.000	0.004	0.083
-545.296	243.432	0.104	-0.174
-544.281	68.331	0.136	0.139
-543.266	-200.000	-0.046	0.215
-542.252	-76.947	0.135	0.047
-541.237	84.068	-0.084	0.092
-540.223	-53.846	0.070	-0.032
-539.208	49.380	0.232	-0.218
-538.193	-88.109	0.152	-0.045
-537.179	73.546	-0.166	0.173
-536.164	155.719	-0.127	-0.174
-535.150	684.932	-0.060	-0.157
-534.135	-200.000	-0.023	-0.273
-533.121	-45.558	0.213	0.105
-532.106	-83.157	-0.066	-0.021
-531.091	-68.969	-0.291	-0.112
-530.077	-13.427	-0.055	0.035
-529.062	800.000	-0.048	0.191
-528.048	-184.616	0.110	-0.002
-527.033	-111.793	-0.298	0.060
-526.018	296.934	0.090	0.164
-525.004	466.018	0.068	-0.152
-523.989	-200.000	-0.412	0.000
-522.975	420.063	0.061	0.130
-521.960	-162.867	-0.131	-0.006
-520.945	-200.000	-0.000	0.011
-519.931	-200.000	-0.045	0.262
-518.916	-88.860	-0.202	-0.060
-517.902	-23.116	-0.333	-0.200
-516.887	44.253	0.165	-0.151
-515.872	-45.420	0.069	0.034
-514.858	-33.216	-0.366	0.202
-513.843	50.223	-0.123	0.116
-512.829	135.067	0.079	-0.102
-511.814	101.833	-0.242	0.281
-510.799	-200.000	-0.043	0.228
-509.785	761.546	-0.035	-0.096
-508.770	-31.998	-0.418	-0.233
-507.756	-138.397	0.266	0.029
-506.741	-168.962	-0.142	-0.005
-505.726	-164.748	0.407	0.018
-504.712	18.675	-0.130	-0.103
-503.697	-150.450	-0.415	0.032
-502.683	-200.000	-0.026	-0.151
-501.668	800.000	0.076	-0.305
-500.653	74.946	-0.132	0.139
-499.639	800.000	0.042	-0.151
-498.624	800.000	0.057	-0.239
-497.610	93.359	0.094	-0.106
-496.595	349.226	0.051	0.099
-495.581	-23.595	0.061	0.037
-494.566	793.159	-0.123	-0.338
-493.551	800.000	-0.074	-0.314
-492.537	151.440	0.107	0.145
-491.522	-200.000	-0.006	-0.188
-490.508	-140.481	-0.201	0.021
-489.493	-41.049	-0.223	0.115
-488.478	-140.578	-0.316	0.033
-487.464	-41.658	0.196	-0.100
-486.449	-120.227	-0.356	-0.060
-485.435	435.749	-0.143	-0.310
-484.420	-91.459	-0.083	-0.024
-483.405	-200.000	0.006	0.000
-482.391	233.778	-0.136	0.224
-481.376	212.733	-0.224	0.352
-480.362	4.103	0.150	-0.109
-479.347	-200.000	-0.039	0.203
-478.332	65.654	-0.065	-0.065
-477.318	21.815	-0.121	0.098
-476.303	-200.000	-0.027	-0.352
-475.289	-200.000	0.012	-0.134
-474.274	-117.452	0.233	0.042
-473.259	800.000	0.085	0.298
-472.245	-148.556	-0.381	-0.031
-471.230	-32.673	-0.327	0.181
-470.216	263.761	0.137	-0.237
-469.201	-200.000	-0.024	0.353
-468.186	120.448	-0.018	0.023
-467.172	-58.209	0.131	-0.057
-466.157	211.992	0.163	-0.255
-465.143	-46.005	0.176	-0.086
-464.128	800.000	-0.120	0.376
-463.113	131.035	-0.214	0.274
-462.099	-200.000	0.009	-0.190
-461.084	800.000	0.045	0.187
-460.070	166.764	-0.187	0.264
-459.055	800.000	0.066	0.183
-458.040	-31.445	0.233	0.130
-457.026	800.000	0.096	-0.321
-456.011	-101.730	-0.299	0.072
-454.997	-67.913	-0.344	-0.134
-453.982	800.000	-0.025	-0.084
-452.968	-200.000	-0.065	-0.292
-451.953	-45.627	0.208	-0.102
-450.938	126.323	-0.101	-0.127
-449.924	-6.030	-0.083	-0.056
-448.909	800.000	0.029	0.126
-447.895	67.298	-0.173	-0.176
-446.880	219.696	-0.166	-0.264
-445.865	2.778	-0.094	0.068
-444.851	33.383	0.263	-0.227
-443.836	800.000	0.085	-0.298
-442.822	-120.914	-0.168	-0.028
-441.807	43.059	-0.141	-0.128
-440.792	731.275	-0.114	0.303
-439.778	-97.349	0.151	-0.039
-438.763	-89.679	-0.127	-0.037
-437.749	64.822	0.047	-0.047
-436.734	206.252	-0.083	-0.128
-435.719	-200.000	0.019	-0.472
-434.705	318.160	-0.038	0.071
-433.690	14.411	0.084	0.065
-432.676	-200.000	0.084	0.380
-431.661	-200.000	-0.022	0.124
-430.646	63.524	-0.083	-0.082
-429.632	-200.000	0.023	-0.123
-428.617	-200.000	0.011	0.094
-427.603	-136.001	-0.358	0.042
-426.588	113.351	-0.186	0.224
-425.573	-27.275	-0.364	-0.211
-424.559	161.597	-0.120	-0.167
-423.544	-22.713	0.194	-0.116
-422.530	-97.095	0.241	0.063
-421.515	-55.747	-0.145	0.065
-420.500	594.563	0.051	0.125
-419.486	291.965	0.225	0.407
-418.471	-200.000	0.012	-0.117
-417.457	322.261	0.141	0.266
-416.442	-200.000	0.003	0.035
-415.428	-200.000	0.024	0.263
-414.413	800.000	0.063	-0.209
-413.398	-200.000	-0.010	0.175
-412.384	118.518	0.065	0.079
-411.369	486.718	0.094	-0.212
-410.355	218.576	0.085	0.136
-409.340	-42.551	0.357	0.181
-408.325	181.829	0.097	0.141
-407.311	-200.000	0.002	-0.163
-406.296	34.850	0.227	0.197
-405.282	-167.284	0.329	-0.013
-404.267	27.953	-0.232	0.194
-403.252	66.852	0.076	0.077
-402.238	293.881	0.163	-0.295
-401.223	492.061	-0.065	0.148
-400.209	-23.136	-0.089	0.053
-399.194	286.497	0.173	-0.311
-398.179	-105.095	-0.270	-0.061
-397.165	599.055	0.105	-0.258
-396.150	-200.000	0.021	0.141
-395.136	147.750	-0.125	0.167
-394.121	349.711	0.132	0.259
-393.106	-62.977	0.217	0.089
-392.092	-118.007	-0.348	-0.062
-391.077	293.028	0.093	-0.169
-390.063	-77.878	0.151	0.052
-389.048	253.397	-0.215	0.364
-388.033	-81.511	0.102	-0.033
-387.019	-30.028	0.082	-0.047
-386.004	-82.525	-0.114	-0.037
-384.990	-119.339	-0.223	0.038
-383.975	800.000	0.164	-0.531
-382.960	-95.012	0.487	-0.130
-381.946	362.621	-0.198	-0.394
-380.931	-137.580	-0.193	0.022
-379.917	206.589	-0.106	-0.163
-378.902	208.746	0.124	-0.192
-377.888	-172.219	-0.298	-0.009
-376.873	-200.000	0.020	0.345
-375.858	-56.854	0.218	0.096
-374.844	220.033	0.029	-0.047
-373.829	476.258	-0.061	0.137
-372.815	-200.000	-0.071	-0.411
-371.800	-95.375	0.263	0.070
-370.785	-89.670	0.177	-0.052
-369.771	-34.925	0.093	-0.050
-368.756	434.415	-0.038	0.083
-367.742	-159.417	0.188	-0.010
-366.727	-147.926	0.217	-0.018
-365.712	-18.939	-0.276	-0.170
-364.698	-59.380	0.141	0.060
-363.683	196.777	-0.045	0.068
-362.669	-200.000	-0.037	-0.231
-361.654	-6.837	0.106	-0.071
-360.639	566.584	0.136	0.328
-359.625	-75.149	0.160	-0.057
-358.610	117.597	0.122	-0.148
-357.596	-78.239	-0.145	0.049
-356.581	39.349	0.240	0.213
-355.566	-94.197	0.184	-0.050
-354.552	364.814	-0.139	-0.278
-353.537	540.898	0.045	-0.107
-352.523	-200.000	-0.051	0.242
-351.508	40.205	0.135	-0.120
-350.493	231.867	0.110	-0.179
-349.479	-138.210	-0.160	0.018
-348.464	118.161	-0.199	0.243
-347.450	-175.120	-0.156	-0.004
-346.435	800.000	0.065	0.249
-345.420	22.046	0.155	-0.125
-344.406	-200.000	-0.034	0.166
-343.391	-93.946	0.153	-0.042
-342.377	-39.483	0.258	-0.134
-341.362	-88.251	-0.155	-0.046
-340.348	-200.000	-0.061	-0.306
-339.333	-177.204	0.271	-0.007
-338.318	-70.173	0.118	0.045
-337.304	-4.044	-0.118	-0.081
-336.289	690.168	0.121	0.314
-335.275	424.481	0.069	0.147
-334.260	-200.000	-0.018	0.093
-333.245	169.362	-0.133	-0.188
-332.231	-81.612	-0.191	-0.062
-331.216	622.197	0.173	0.432
-330.202	7.428	0.091	-0.067
-329.187	87.607	-0.056	0.062
-328.172	-200.000	0.034	-0.260
-327.158	-34.610	-0.086	-0.047
-326.143	64.406	-0.301	-0.300
-325.129	1.659	0.210	0.150
-324.114	-200.000	0.005	-0.042
-323.099	-200.000	-0.023	0.190
-322.085	32.552	0.162	0.139
-321.070	60.086	0.190	0.186
-320.056	1.971	0.094	-0.067
-319.041	212.781	-0.116	0.180
-318.026	-127.313	0.473	0.068
-317.012	545.214	-0.085	0.201
-315.997	5.250	-0.066	-0.048
-314.983	-200.000	-0.020	0.364
-313.968	89.870	0.094	0.104
-312.953	-36.547	-0.246	-0.131
-311.939	800.000	-0.003	0.012
-310.924	-145.608	-0.171	0.015
-309.910	-138.589	-0.187	-0.020
-308.895	-200.000	-0.038	-0.294
-307.880	800.000	-0.054	0.156
-306.866	-200.000	0.009	-0.101
-305.851	-97.166	0.125	0.032
-304.837	48.854	0.377	-0.349
-303.822	49.947	-0.079	0.074
-302.807	61.783	-0.025	-0.025
-301.793	3.930	-0.240	0.173
-300.778	-56.698	0.294	0.128
-299.764	800.000	-0.076	0.296
-298.749	196.385	-0.258	0.389
-297.735	96.364	0.231	0.261
-296.720	-200.000	0.016	-0.198
-295.705	-66.309	0.503	-0.198
-294.691	-180.554	-0.139	0.003
-293.676	-22.290	-0.261	-0.156
-292.662	98.882	0.081	-0.092
-291.647	-41.653	-0.129	0.065
-290.632	-52.511	0.272	-0.124
-289.618	187.515	-0.192	0.283
-288.603	-200.000	-0.002	0.150
-287.589	-68.186	0.240	-0.092
-286.574	-200.000	-0.015	-0.099
-285.559	-136.799	-0.207	-0.024
-284.545	-130.026	0.224	0.030
-283.530	82.310	0.123	0.132
-282.516	-73.415	-0.263	0.095
-281.501	800.000	-0.048	-0.160
-280.486	-94.199	-0.303	0.082
-279.472	-130.582	0.272	0.036
-278.457	-200.000	0.050	-0.355
-277.443	279.743	0.063	-0.111
-276.428	800.000	0.154	0.442
-275.413	-200.000	-0.027	-0.131
-274.399	-36.580	-0.163	0.087
-273.384	800.000	-0.112	0.357
-272.370	10.094	0.175	0.131
-271.355	59.215	0.037	-0.036
-270.340	-200.000	-0.008	-0.056
-269.326	-200.000	0.023	-0.179
-268.311	-59.130	0.089	0.038
-267.297	-132.972	0.267	-0.033
-266.282	209.045	-0.044	0.069
-265.267	-25.453	0.249	0.146
-264.253	-156.448	-0.262	-0.016
-263.238	125.882	-0.078	0.097
-262.224	800.000	-0.092	-0.317
-261.209	174.459	0.155	-0.221
-260.195	-134.485	0.185	-0.022
-259.180	44.874	0.131	-0.119
-258.165	-37.905	0.059	-0.031
-257.151	152.490	0.093	-0.126
-256.136	4.156	-0.147	-0.106
-255.122	63.015	0.094	0.093
-254.107	-80.139	0.167	0.055
-253.092	-200.000	0.005	0.093
-252.078	475.696	0.110	-0.246
-251.063	3.723	-0.273	-0.196
-250.049	-156.540	0.072	-0.004
-249.034	800.000	0.025	0.069
-248.019	-168.589	0.178	0.007
-247.005	-173.632	-0.242	0.007
-245.990	633.226	0.029	0.071
-244.976	122.970	-0.091	0.112
-243.961	57.047	-0.122	0.117
-242.946	779.572	0.044	0.118
-241.932	-117.938	-0.151	-0.027
-240.917	-88.602	0.332	-0.098
-239.903	-157.556	0.520	-0.031
-238.888	442.500	-0.223	-0.481
-237.873	800.000	-0.036	-0.117
-236.859	-200.000	-0.051	0.227
-235.844	-200.000	0.021	-0.284
-234.830	-105.796	0.367	0.082
-233.815	-31.299	0.106	-0.059
-232.800	-111.091	0.156	0.031
-231.786	276.955	-0.025	-0.043
-230.771	-74.671	-0.108	0.038
-229.757	-4.924	-0.146	0.099
-228.742	-100.606	0.083	-0.020
-227.727	-29.423	0.298	0.168
-226.713	-120.858	0.337	-0.056
-225.698	800.000	0.037	0.154
-224.684	-200.000	0.062	-0.463
-223.669	229.676	0.092	0.148
-222.655	-7.285	0.121	0.081
-221.640	-200.000	0.010	0.092
-220.625	-200.000	-0.011	-0.064
-219.611	800.000	-0.044	-0.184
-218.596	-130.861	0.055	0.007
-217.582	-200.000	0.008	-0.298
-216.567	233.156	-0.036	0.059
-215.552	593.226	0.075	-0.183
-214.538	-149.720	-0.261	0.020
-213.523	-87.075	0.260	-0.078
-212.509	800.000	0.098	-0.303
-211.494	-137.304	0.460	-0.051
-210.479	-16.653	-0.359	0.224
-209.465	297.638	0.183	0.330
-208.450	351.688	-0.126	0.247
-207.436	-102.991	-0.198	0.046
-206.421	-200.000	0.043	0.188
-205.406	210.904	0.140	-0.216
-204.392	-51.531	0.224	0.103
-203.377	-5.371	-0.284	-0.192
-202.363	-45.948	0.085	-0.041
-201.348	107.514	0.090	0.106
-200.333	6.910	0.305	0.224
-199.319	-84.279	0.185	-0.058
-198.304	-21.301	-0.198	0.119
-197.290	-72.532	0.348	-0.127
-196.275	800.000	0.058	0.164
-195.260	104.117	-0.267	0.310
-194.246	-134.122	0.127	-0.015
-193.231	577.292	-0.190	-0.456
-192.217	800.000	-0.082	0.272
-191.202	800.000	-0.096	0.280
-190.187	-200.000	-0.018	-0.187
-189.173	52.708	-0.173	0.163
-188.158	-200.000	-0.012	-0.055
-187.144	-59.533	0.195	-0.082
-186.129	-200.000	-0.009	0.228
-185.114	-32.609	-0.070	0.039
-184.100	60.479	-0.135	-0.132
-183.085	-135.507	-0.511	-0.060
-182.071	769.951	0.071	0.191
-181.056	-200.000	0.018	0.278
-180.042	-109.134	0.213	0.045
-179.027	-200.000	-0.005	-0.128
-178.012	103.681	-0.242	-0.280
-176.998	-109.612	0.406	0.084
-175.983	800.000	-0.029	-0.082
-174.969	-121.194	0.136	-0.022
-173.954	800.000	0.049	-0.199
-172.939	-38.586	-0.255	0.132
-171.925	800.000	-0.028	-0.087
-170.910	-18.322	0.212	-0.130
-169.896	-200.000	-0.005	-0.109
-168.881	-200.000	0.070	0.304
-167.866	147.709	-0.221	0.293
-166.852	-200.000	-0.031	-0.163
-165.837	-200.000	0.009	0.188
-164.823	161.053	0.244	-0.336
-163.808	-200.000	-0.057	0.265
-162.793	-45.496	0.423	0.206
-161.779	-200.000	-0.030	0.380
-160.764	-200.000	-0.029	0.134
-159.750	-200.000	0.002	0.098
-158.735	-22.547	-0.172	-0.102
-157.720	59.008	-0.305	0.295
-156.706	104.582	-0.096	-0.111
-155.691	126.509	0.237	0.295
-154.677	-200.000	-0.012	0.108
-153.662	800.000	0.038	-0.138
-152.647	-40.135	-0.071	0.036
-151.633	385.745	-0.069	0.139
-150.618	-12.524	-0.114	0.073
-149.604	-200.000	0.033	-0.187
-148.589	-60.292	0.116	-0.048
-147.574	-200.000	0.007	0.076
-146.560	-26.782	0.132	-0.076
-145.545	-200.000	-0.026	-0.170
-144.531	-200.000	0.003	0.161
-143.516	79.411	0.171	-0.180
-142.502	-60.070	-0.165	-0.069
-141.487	210.812	0.110	0.169
-140.472	62.941	0.164	-0.161
-139.458	109.716	-0.147	-0.174
-138.443	-87.498	0.047	0.014
-137.429	552.068	-0.082	0.194
-136.414	33.798	-0.506	-0.433
-135.399	75.764	-0.104	-0.108
-134.385	-29.809	0.117	-0.065
-133.370	-164.696	0.136	-0.006
-132.356	-200.000	0.009	0.125
-131.341	451.056	0.035	0.076
-130.326	414.771	0.109	-0.227
-129.312	800.000	0.100	0.350
-128.297	-123.256	-0.266	-0.042
-127.283	-65.461	0.078	0.031
-126.268	4.423	0.193	0.139
-125.253	-143.073	0.150	0.014
-124.239	691.709	-0.034	0.088
-123.224	289.604	0.087	-0.154
-122.210	-157.087	-0.173	-0.010
-121.195	-196.264	0.158	0.001
