DTS Sentinel unit serial number:	SN413079Multiplexer serial number:	ORYXHardware model number:	OX4-SRSoftware version number:	ORYX F/W v4.00 Oryx Data Collector v3.7.2.0data status	okinstallation	princeton_trtdifferential loss correction	single-endedforward channel	channel 2reverse channel	N/Adate	2019/09/14time	22:59:35forward acquisition time	60.00reverse acquisition time	0.00gamma	496.2192k internal	0.2323k external	0.2323temperature offset calibration	1.0060default loss term (dB/km)	0.3790temperature slope calibration	1.0000multiplexer offset coefficient	1.0000multiplexer slope coefficient	1.0000fibre end	0.00T internal ref (°C)	32.44T ext. ref 1 (°C)	4.66T ext. ref 2 (°C)	27.48length (m)	temperature (°C)	Stokes	anti-Stokes-747.200	53.551	0.204	-0.197
-746.185	36.339	0.204	0.182
-745.171	141.257	-0.195	0.261
-744.156	-131.745	-0.116	0.015
-743.142	-181.406	-0.124	-0.002
-742.127	-66.918	-0.327	0.130
-741.112	462.631	0.193	0.435
-740.098	-40.611	-0.287	0.150
-739.083	-200.000	-0.027	-0.316
-738.069	104.627	-0.175	0.209
-737.054	458.620	0.093	-0.209
-736.039	-1.634	0.043	-0.031
-735.025	367.124	0.059	0.120
-734.010	61.884	0.224	-0.226
-732.996	-104.631	-0.488	-0.114
-731.981	-188.671	-0.384	-0.005
-730.966	96.538	-0.054	0.063
-729.952	-58.623	-0.183	-0.080
-728.937	796.121	-0.085	-0.237
-727.923	77.029	0.040	-0.043
-726.908	800.000	-0.053	-0.231
-725.894	-200.000	-0.009	-0.127
-724.879	351.133	-0.040	0.081
-723.864	-191.017	-0.167	0.002
-722.850	22.239	0.286	-0.235
-721.835	389.944	-0.163	-0.342
-720.821	356.523	0.238	-0.478
-719.806	-183.698	-0.171	0.003
-718.791	-28.377	0.105	0.061
-717.777	800.000	-0.015	0.061
-716.762	297.226	0.121	0.224
-715.748	-200.000	-0.015	-0.173
-714.733	-20.427	-0.197	-0.122
-713.718	-121.867	-0.206	0.034
-712.704	579.410	-0.144	-0.356
-711.689	-101.394	-0.071	0.017
-710.675	-84.008	-0.152	0.049
-709.660	486.779	0.076	-0.174
-708.645	-53.448	-0.063	0.029
-707.631	-140.624	0.282	0.030
-706.616	-160.203	0.140	0.008
-705.602	-106.787	-0.033	-0.007
-704.587	55.152	-0.169	0.165
-703.572	53.405	-0.135	0.130
-702.558	-200.000	-0.009	-0.258
-701.543	-200.000	-0.000	-0.119
-700.529	-17.927	-0.236	-0.149
-699.514	-108.601	-0.232	-0.050
-698.499	-131.360	-0.271	-0.036
-697.485	-42.408	-0.174	-0.089
-696.470	-99.738	0.081	0.020
-695.456	-83.638	0.119	-0.038
-694.441	-108.338	-0.189	-0.041
-693.426	-46.726	-0.467	0.231
-692.412	537.664	-0.031	0.073
-691.397	48.826	0.125	0.118
-690.383	-131.169	-0.361	-0.048
-689.368	-200.000	0.046	-0.227
-688.354	-200.000	0.007	-0.424
-687.339	-200.000	0.070	0.354
-686.324	-16.474	-0.354	-0.226
-685.310	150.327	0.039	-0.053
-684.295	86.990	-0.158	0.175
-683.281	6.980	0.205	0.154
-682.266	-200.000	0.094	-0.560
-681.251	-79.418	0.482	0.164
-680.237	-138.282	-0.079	0.009
-679.222	542.131	0.182	-0.438
-678.208	65.350	0.184	-0.188
-677.193	-43.452	0.286	-0.146
-676.178	40.424	-0.194	-0.176
-675.164	23.103	-0.087	-0.072
-674.149	-200.000	0.004	-0.100
-673.135	141.291	0.072	-0.095
-672.120	-200.000	-0.029	-0.430
-671.105	-134.746	-0.088	0.011
-670.091	-82.551	0.309	-0.101
-669.076	132.077	0.137	0.178
-668.062	161.101	-0.333	0.468
-667.047	-200.000	-0.036	-0.210
-666.032	34.906	-0.162	0.143
-665.018	-110.933	0.107	0.022
-664.003	181.552	-0.058	-0.086
-662.989	35.649	0.135	-0.120
-661.974	-200.000	-0.021	-0.146
-660.959	-96.807	0.030	0.008
-659.945	800.000	0.056	0.158
-658.930	-47.807	-0.046	0.022
-657.916	-86.351	0.235	0.073
-656.901	45.483	-0.080	-0.074
-655.886	-200.000	-0.059	0.269
-654.872	-200.000	-0.016	0.221
-653.857	-200.000	0.000	-0.047
-652.843	-111.847	0.134	-0.027
-651.828	23.555	-0.286	0.236
-650.814	-129.899	-0.100	-0.014
-649.799	-56.255	0.169	-0.076
-648.784	35.230	-0.198	0.174
-647.770	-14.262	-0.185	-0.120
-646.755	-91.884	0.207	-0.059
-645.741	-18.900	0.135	0.085
-644.726	-98.827	-0.186	0.047
-643.711	-55.299	-0.132	-0.059
-642.697	-151.215	-0.174	-0.013
-641.682	-21.786	-0.088	-0.054
-640.668	-200.000	0.012	-0.079
-639.653	-67.054	-0.355	0.141
-638.638	800.000	0.099	-0.340
-637.624	-200.000	-0.005	-0.283
-636.609	8.740	-0.284	-0.215
-635.595	612.084	-0.078	-0.195
-634.580	-85.134	0.170	0.053
-633.565	-22.233	-0.313	-0.191
-632.551	800.000	-0.043	0.174
-631.536	-200.000	-0.016	0.240
-630.522	-54.352	0.154	-0.070
-629.507	319.559	0.151	-0.288
-628.492	-34.470	0.203	-0.112
-627.478	-18.690	0.206	-0.129
-626.463	-200.000	0.015	0.135
-625.449	158.510	0.020	-0.028
-624.434	-200.000	-0.022	-0.153
-623.419	716.605	0.014	-0.036
-622.405	800.000	0.035	0.131
-621.390	39.346	0.250	0.225
-620.376	-118.338	0.345	-0.062
-619.361	109.626	0.052	0.062
-618.346	313.509	0.080	0.151
-617.332	-91.317	0.380	-0.109
-616.317	0.127	-0.291	-0.209
-615.303	112.898	-0.254	0.309
-614.288	114.397	-0.201	-0.246
-613.273	-51.255	-0.172	-0.081
-612.259	52.691	-0.248	-0.238
-611.244	-189.757	-0.150	-0.002
-610.230	-200.000	0.001	0.047
-609.215	59.735	0.164	-0.163
-608.201	105.726	0.289	-0.343
-607.186	-200.000	0.027	-0.223
-606.171	-146.389	-0.131	-0.011
-605.157	-200.000	-0.045	0.211
-604.142	-40.043	-0.077	0.040
-603.128	-29.886	-0.170	-0.097
-602.113	-157.940	0.434	-0.026
-601.098	-200.000	0.005	0.219
-600.084	254.804	0.102	0.175
-599.069	-200.000	0.027	0.126
-598.055	-52.795	-0.175	-0.081
-597.040	293.597	0.138	0.252
-596.025	-29.651	0.029	-0.017
-595.011	-71.382	0.139	0.052
-593.996	-200.000	0.036	0.372
-592.982	-200.000	0.302	-0.001
-591.967	-92.538	-0.310	-0.087
-590.952	-145.842	-0.165	0.015
-589.938	-25.513	-0.053	0.031
-588.923	-118.212	0.109	0.020
-587.909	-75.279	-0.108	-0.039
-586.894	221.006	-0.167	0.268
-585.879	-70.027	0.236	0.090
-584.865	-115.401	0.226	0.043
-583.850	800.000	-0.033	-0.125
-582.836	800.000	-0.019	-0.064
-581.821	316.427	-0.129	0.245
-580.806	-200.000	-0.045	0.389
-579.792	-200.000	-0.003	0.024
-578.777	88.555	0.101	0.113
-577.763	119.822	-0.188	-0.234
-576.748	-32.309	-0.229	0.128
-575.733	-115.275	0.229	-0.043
-574.719	-123.387	-0.276	0.044
-573.704	-200.000	-0.011	0.068
-572.690	-39.063	-0.194	0.102
-571.675	-76.186	0.147	0.052
-570.661	305.172	-0.146	0.273
-569.646	232.630	0.151	0.249
-568.631	-75.503	0.325	-0.116
-567.617	136.645	-0.188	-0.246
-566.602	173.321	-0.118	-0.170
-565.588	800.000	0.101	-0.282
-564.573	-83.652	0.131	-0.042
-563.558	-111.126	-0.478	-0.098
-562.544	594.978	-0.031	-0.078
-561.529	-80.852	0.175	0.058
-560.515	68.017	0.111	-0.114
-559.500	-200.000	0.026	-0.139
-558.485	54.421	-0.079	0.076
-557.471	-200.000	-0.011	-0.284
-556.456	431.371	-0.090	-0.196
-555.442	93.302	0.029	-0.033
-554.427	-200.000	-0.038	0.175
-553.412	800.000	-0.110	-0.399
-552.398	-80.358	-0.194	0.065
-551.383	204.850	0.098	0.152
-550.369	-158.736	-0.180	0.010
-549.354	-93.340	0.298	0.083
-548.339	800.000	0.007	0.031
-547.325	100.586	-0.085	0.099
-546.310	147.588	0.079	-0.107
-545.296	800.000	0.044	0.180
-544.281	89.092	-0.177	0.197
-543.266	219.940	0.118	0.190
-542.252	800.000	0.110	0.336
-541.237	87.450	-0.154	-0.171
-540.223	54.048	-0.263	-0.253
-539.208	800.000	0.131	0.427
-538.193	-106.669	0.163	0.036
-537.179	-27.336	0.099	0.058
-536.164	-110.501	0.035	0.007
-535.150	-84.285	-0.152	-0.048
-534.135	-118.451	0.277	0.049
-533.121	-79.636	-0.125	0.042
-532.106	-47.595	-0.244	-0.119
-531.091	-200.000	0.052	-0.230
-530.077	-84.543	0.283	-0.089
-529.062	-113.748	0.119	0.023
-528.048	-147.821	-0.130	0.011
-527.033	-200.000	-0.006	-0.164
-526.018	-200.000	-0.003	-0.181
-525.004	-62.712	0.328	0.136
-523.989	-200.000	0.076	-0.373
-522.975	-200.000	-0.025	-0.215
-521.960	-60.162	0.118	0.050
-520.945	372.417	0.034	-0.070
-519.931	-111.330	-0.384	0.078
-518.916	28.239	0.211	-0.179
-517.902	47.146	-0.111	-0.103
-516.887	-194.233	0.222	-0.002
-515.872	800.000	0.024	-0.090
-514.858	800.000	-0.085	-0.279
-513.843	-16.300	-0.289	-0.183
-512.829	628.935	-0.064	0.162
-511.814	-124.219	0.021	0.003
-510.799	-123.263	-0.261	0.042
-509.785	81.543	0.167	0.180
-508.770	-96.165	-0.098	0.026
-507.756	-137.449	-0.131	-0.015
-506.741	366.804	-0.026	0.053
-505.726	144.390	0.070	0.093
-504.712	0.293	0.301	-0.215
-503.697	800.000	-0.041	0.162
-502.683	77.845	0.138	-0.147
-501.668	-11.296	0.093	-0.062
-500.653	236.558	-0.183	-0.303
-499.639	800.000	-0.073	-0.317
-498.624	-123.049	0.069	-0.011
-497.610	303.788	-0.072	0.134
-496.595	56.237	-0.246	0.239
-495.581	-116.379	-0.326	-0.060
-494.566	-200.000	0.034	-0.170
-493.551	-2.007	-0.158	-0.111
-492.537	208.462	0.232	0.363
-491.522	-167.214	0.303	-0.012
-490.508	-200.000	-0.067	0.443
-489.493	800.000	0.126	0.433
-488.478	800.000	0.062	-0.183
-487.464	303.484	0.050	-0.093
-486.449	16.645	0.144	-0.114
-485.435	-99.808	-0.134	-0.034
-484.420	270.890	-0.150	-0.264
-483.405	-61.719	-0.128	-0.054
-482.391	-200.000	-0.041	0.204
-481.376	-57.417	-0.032	-0.014
-480.362	104.875	-0.206	-0.243
-479.347	800.000	-0.121	-0.425
-478.332	-134.097	0.050	0.006
-477.318	42.769	-0.161	-0.146
-476.303	-50.443	0.127	-0.060
-475.289	-95.710	0.169	-0.045
-474.274	-200.000	0.009	-0.125
-473.259	-200.000	0.032	0.161
-472.245	800.000	0.050	-0.145
-471.230	109.097	0.146	-0.175
-470.216	581.062	0.156	-0.382
-469.201	91.540	-0.068	-0.076
-468.186	800.000	0.047	0.156
-467.172	320.834	0.087	-0.166
-466.157	-200.000	0.027	-0.214
-465.143	-200.000	0.005	-0.066
-464.128	-74.608	-0.213	-0.076
-463.113	126.254	0.087	0.111
-462.099	-118.165	-0.378	-0.067
-461.084	-60.141	-0.197	0.084
-460.070	188.277	-0.075	-0.112
-459.055	-2.084	-0.040	-0.028
-458.040	764.818	0.071	-0.193
-457.026	378.155	0.028	-0.057
-456.011	800.000	0.046	0.140
-454.997	77.956	0.251	0.268
-453.982	-31.374	-0.158	-0.088
-452.968	800.000	0.052	0.150
-451.953	800.000	-0.050	-0.174
-450.938	155.090	-0.245	0.337
-449.924	-200.000	0.021	-0.097
-448.909	29.137	0.188	0.159
-447.895	-52.236	0.203	0.094
-446.880	-51.332	0.247	-0.115
-445.865	501.712	-0.086	0.198
-444.851	116.255	0.189	-0.232
-443.836	46.707	-0.158	-0.147
-442.822	800.000	-0.055	-0.186
-441.807	-108.606	-0.292	-0.063
-440.792	118.254	0.157	-0.193
-439.778	35.047	-0.161	-0.141
-438.763	-200.000	-0.008	-0.166
-437.749	-14.110	-0.052	-0.033
-436.734	-21.420	-0.246	0.150
-435.719	36.068	-0.160	0.141
-434.705	800.000	-0.143	0.441
-433.690	-128.392	0.147	0.021
-432.676	-25.843	0.027	-0.016
-431.661	347.985	0.068	0.134
-430.646	-91.521	0.207	0.059
-429.632	-193.278	-0.353	0.003
-428.617	-200.000	-0.043	0.209
-427.603	131.411	-0.084	-0.107
-426.588	26.759	-0.171	-0.143
-425.573	800.000	-0.078	0.299
-424.559	80.902	0.198	-0.213
-423.544	-2.494	-0.269	0.188
-422.530	312.474	0.090	0.168
-421.515	-148.247	-0.326	0.027
-420.500	26.141	0.078	-0.065
-419.486	234.503	-0.116	0.190
-418.471	-200.000	0.022	0.118
-417.457	437.100	-0.249	0.540
-416.442	257.477	0.041	0.071
-415.428	-200.000	-0.065	-0.409
-414.413	240.427	0.023	0.039
-413.398	800.000	0.070	0.210
-412.384	166.780	0.214	0.302
-411.369	-143.310	0.177	0.017
-410.355	-200.000	-0.012	-0.094
-409.340	-200.000	-0.011	-0.372
-408.325	-7.209	-0.191	0.129
-407.311	-60.865	-0.329	-0.139
-406.296	-67.572	-0.234	-0.091
-405.282	-72.184	0.163	0.060
-404.267	800.000	-0.057	0.212
-403.252	800.000	0.022	-0.093
-402.238	448.437	-0.068	0.149
-401.223	-200.000	0.010	0.173
-400.209	57.258	0.255	-0.248
-399.194	232.645	-0.029	-0.048
-398.179	437.591	0.040	0.086
-397.165	-42.726	0.142	-0.072
-396.150	128.949	0.242	0.307
-395.136	-200.000	-0.075	0.395
-394.121	-200.000	-0.017	0.337
-393.106	41.249	0.054	-0.049
-392.092	-108.933	-0.235	0.050
-391.077	128.823	0.014	0.018
-390.063	800.000	-0.052	0.190
-389.048	131.155	0.036	0.046
-388.033	-60.952	-0.216	0.091
-387.019	608.963	0.161	0.401
-386.004	289.689	0.018	-0.032
-384.990	82.272	-0.052	-0.056
-383.975	-37.552	0.033	-0.018
-382.960	335.369	-0.063	0.122
-381.946	57.845	0.228	0.222
-380.931	-142.118	-0.130	0.013
-379.917	800.000	-0.048	-0.147
-378.902	-23.047	-0.098	-0.059
-377.888	-104.649	0.223	0.051
-376.873	95.228	0.094	-0.106
-375.858	-30.308	0.118	0.067
-374.844	-200.000	-0.058	0.306
-373.829	-192.556	0.170	-0.002
-372.815	-13.655	-0.395	0.254
-371.800	22.294	0.134	-0.109
-370.785	52.964	0.302	-0.287
-369.771	-200.000	-0.205	0.000
-368.756	-105.349	0.293	0.066
-367.742	-76.697	-0.061	-0.021
-366.727	0.081	0.229	-0.162
-365.712	191.452	0.191	-0.287
-364.698	-79.569	-0.104	-0.035
-363.683	27.441	-0.163	0.136
-362.669	201.808	0.153	0.234
-361.654	43.725	0.195	-0.178
-360.639	-17.248	0.268	0.168
-359.625	-58.945	-0.127	0.054
-358.610	227.296	0.174	-0.281
-357.596	-37.694	-0.081	-0.043
-356.581	-0.906	-0.190	-0.134
-355.566	-64.848	-0.334	0.135
-354.552	0.497	-0.092	0.065
-353.537	578.403	-0.085	-0.208
-352.523	179.139	-0.046	0.067
-351.508	-47.908	-0.125	-0.060
-350.493	-22.780	-0.279	-0.167
-349.479	62.681	-0.153	-0.152
-348.464	379.293	0.006	0.011
-347.450	-200.000	0.030	0.231
-346.435	800.000	-0.010	0.042
-345.420	296.929	0.067	-0.122
-344.406	-139.172	0.151	-0.016
-343.391	259.793	0.098	0.168
-342.377	198.478	-0.071	0.108
-341.362	-13.762	-0.173	0.111
-340.348	-12.384	-0.081	0.052
-339.333	-72.929	0.032	-0.012
-338.318	800.000	-0.063	0.224
-337.304	-83.474	-0.162	0.051
-336.289	50.150	0.299	-0.281
-335.275	-95.722	0.123	-0.033
-334.260	-34.874	-0.299	-0.162
-333.245	101.808	-0.180	-0.209
-332.231	-200.000	-0.084	-0.365
-331.216	705.609	0.112	-0.293
-330.202	23.059	0.312	0.254
-329.187	-31.747	-0.190	-0.106
-328.172	-160.492	0.346	0.018
-327.158	647.319	0.032	-0.080
-326.143	28.337	-0.222	0.186
-325.129	-7.270	0.166	-0.112
-324.114	117.190	0.038	0.047
-323.099	94.191	0.013	-0.015
-322.085	8.837	-0.136	-0.102
-321.070	142.213	0.103	-0.136
-320.056	63.673	-0.186	0.186
-319.041	221.547	-0.174	-0.277
-318.026	459.786	0.049	-0.109
-317.012	91.792	0.258	0.288
-315.997	-182.186	0.190	0.004
-314.983	299.156	-0.108	-0.197
-313.968	-136.623	-0.246	-0.028
-312.953	800.000	-0.104	-0.298
-311.939	-12.264	-0.225	-0.146
-310.924	-95.265	0.231	0.062
-309.910	463.486	0.076	-0.167
-308.895	-101.061	-0.177	0.043
-307.880	-199.182	0.219	0.001
-306.866	-200.000	-0.007	0.230
-305.851	-200.000	0.001	0.122
-304.837	-25.898	0.157	-0.092
-303.822	-109.933	0.150	0.031
-302.807	80.517	0.243	0.260
-301.793	47.146	0.245	0.226
-300.778	-95.369	0.178	0.048
-299.764	-200.000	0.015	-0.181
-298.749	-200.000	0.007	0.163
-297.735	-200.000	0.027	0.328
-296.720	21.262	-0.219	-0.177
-295.705	45.523	-0.293	0.268
-294.691	130.342	-0.324	-0.412
-293.676	129.805	-0.341	0.433
-292.662	495.646	0.058	0.132
-291.647	-50.047	-0.185	0.087
-290.632	183.070	-0.160	-0.234
-289.618	-60.626	0.132	0.056
-288.603	216.841	0.023	0.036
-287.589	5.800	0.106	-0.078
-286.574	-164.720	-0.174	0.008
-285.559	23.384	0.117	0.096
-284.545	800.000	-0.073	-0.227
-283.530	-70.510	-0.166	0.062
-282.516	104.083	0.133	0.155
-281.501	116.948	-0.301	-0.367
-280.486	-200.000	0.000	0.099
-279.472	66.109	0.058	-0.059
-278.457	-200.000	-0.002	-0.126
-277.443	187.190	0.101	0.149
-276.428	800.000	0.039	0.128
-275.413	158.429	0.012	-0.017
-274.399	-2.539	0.127	0.088
-273.384	-71.094	0.122	0.045
-272.370	-200.000	0.010	0.305
-271.355	174.629	0.117	0.168
-270.340	-85.635	-0.392	-0.121
-269.326	-200.000	-0.016	-0.272
-268.311	382.980	-0.090	-0.183
-267.297	800.000	0.046	-0.142
-266.282	-58.378	0.103	-0.044
-265.267	-200.000	-0.079	0.364
-264.253	-137.866	-0.283	-0.031
-263.238	49.010	0.104	0.097
-262.224	-200.000	0.048	-0.276
-261.209	40.710	-0.173	0.155
-260.195	800.000	0.038	-0.139
-259.180	-165.094	0.209	0.009
-258.165	225.471	0.131	-0.210
-257.151	-39.349	0.199	0.103
-256.136	-200.000	0.061	0.286
-255.122	30.499	-0.192	-0.163
-254.107	318.472	0.176	-0.330
-253.092	800.000	0.039	-0.109
-252.078	-133.962	-0.178	-0.022
-251.063	34.088	-0.306	-0.264
-250.049	293.744	-0.091	-0.165
-249.034	-4.207	-0.226	0.155
-248.019	193.567	0.187	-0.280
-247.005	46.247	-0.103	0.095
-245.990	-200.000	0.003	-0.290
-244.976	-196.367	0.377	-0.003
-243.961	419.852	0.097	0.207
-242.946	3.366	0.304	-0.219
-241.932	-47.220	-0.116	-0.056
-240.917	21.631	0.449	0.362
-239.903	653.965	0.150	0.380
-238.888	800.000	0.041	-0.168
-237.873	-200.000	0.006	-0.077
-236.859	102.044	0.196	0.226
-235.844	-55.084	0.286	0.127
-234.830	-165.455	-0.044	0.002
-233.815	800.000	-0.035	-0.151
-232.800	-200.000	0.047	0.244
-231.786	35.374	-0.197	-0.171
-230.771	-80.354	-0.124	0.041
-229.757	451.973	0.119	0.260
-228.742	160.468	0.084	0.116
-227.727	223.000	0.240	0.382
-226.713	-200.000	0.012	0.114
-225.698	-120.723	-0.239	0.040
-224.684	789.847	0.172	0.467
-223.669	800.000	0.117	0.336
-222.655	426.983	-0.143	-0.304
-221.640	-141.688	-0.114	-0.011
-220.625	490.792	0.104	0.236
-219.611	2.378	-0.170	0.122
-218.596	-3.511	0.152	0.105
-217.582	28.526	-0.116	0.097
-216.567	-67.111	-0.285	0.111
-215.552	50.439	0.301	-0.282
-214.538	-200.000	0.022	0.162
-213.523	-200.000	0.003	-0.201
-212.509	-200.000	0.047	-0.362
-211.494	706.469	0.067	-0.176
-210.479	71.987	0.052	0.053
-209.465	7.552	0.322	0.238
-208.450	-79.145	-0.195	0.066
-207.436	12.480	0.223	0.170
-206.421	104.484	0.109	-0.127
-205.406	800.000	0.056	-0.179
-204.392	800.000	0.094	-0.316
-203.377	-152.059	-0.253	-0.018
-202.363	105.572	-0.245	0.286
-201.348	-112.050	0.167	-0.033
-200.333	-200.000	0.001	0.092
-199.319	141.971	-0.158	-0.207
-198.304	133.840	0.153	0.196
-197.290	323.172	-0.063	0.118
-196.275	-200.000	0.003	0.082
-195.260	84.463	-0.199	0.215
-194.246	-43.128	0.377	-0.189
-193.231	451.161	0.078	0.170
-192.217	-160.079	0.198	0.011
-191.202	-200.000	-0.007	-0.122
-190.187	56.394	0.210	0.201
-189.173	-8.007	0.211	-0.141
-188.158	-118.857	-0.163	-0.028
-187.144	-200.000	0.024	0.242
-186.129	-200.000	0.004	-0.232
-185.114	81.638	0.104	0.111
-184.100	90.514	-0.219	-0.242
-183.085	800.000	-0.058	-0.157
-182.071	16.695	0.079	0.061
-181.056	-62.842	0.464	-0.190
-180.042	-49.344	0.106	0.050
-179.027	98.251	-0.089	0.102
-178.012	800.000	-0.008	-0.027
-176.998	-75.044	0.192	0.068
-175.983	-81.136	-0.186	0.061
-174.969	575.717	-0.046	-0.110
-173.954	-98.394	0.058	0.015
-172.939	-200.000	0.006	0.029
-171.925	-200.000	-0.010	0.160
-170.910	-129.480	-0.048	-0.007
-169.896	341.645	-0.049	-0.095
-168.881	-200.000	-0.006	0.168
-167.866	594.197	-0.070	0.171
-166.852	-77.478	-0.281	-0.096
-165.837	-200.000	0.031	-0.227
-164.823	214.960	-0.040	0.062
-163.808	79.686	-0.141	-0.150
-162.793	446.638	0.126	-0.274
-161.779	-73.412	0.052	-0.019
-160.764	189.509	0.047	-0.069
-159.750	-55.784	0.184	-0.081
-158.735	110.755	-0.090	0.107
-157.720	-200.000	-0.051	-0.234
-156.706	-200.000	0.022	0.208
-155.691	227.727	0.074	0.118
-154.677	-77.765	0.239	-0.082
-153.662	734.106	0.040	-0.105
-152.647	508.747	-0.047	0.107
-151.633	223.800	0.099	0.158
-150.618	-200.000	-0.023	-0.161
-149.604	-137.969	0.205	0.023
-148.589	144.739	-0.149	0.197
-147.574	-140.516	0.235	-0.024
-146.560	-200.000	0.021	0.185
-145.545	196.713	0.105	0.158
-144.531	800.000	0.054	-0.153
-143.516	467.873	-0.066	-0.147
-142.502	12.506	-0.175	-0.133
-141.487	-24.795	-0.208	0.122
-140.472	-23.554	-0.126	0.074
-139.458	-62.204	0.170	0.070
-138.443	-120.793	0.163	-0.027
-137.429	-89.420	0.074	0.021
-136.414	-18.874	-0.153	-0.094
-135.399	-200.000	0.003	0.407
-134.385	-141.677	-0.073	-0.007
-133.370	-41.935	0.202	0.102
-132.356	-28.982	0.067	0.038
-131.341	-19.253	-0.179	-0.109
-130.326	535.067	-0.102	0.238
-129.312	-200.000	-0.048	-0.212
-128.297	72.900	0.147	0.151
-127.283	-68.544	0.154	-0.059
-126.268	517.362	-0.093	-0.215
-125.253	4.175	0.307	0.221
-124.239	316.712	-0.108	-0.202
-123.224	296.577	-0.105	0.190
-122.210	574.651	0.132	-0.317
-121.195	-31.986	-0.075	0.042
