DTS Sentinel unit serial number:	SN413079Multiplexer serial number:	ORYXHardware model number:	OX4-SRSoftware version number:	ORYX F/W v4.00 Oryx Data Collector v3.7.2.0data status	okinstallation	princeton_trtdifferential loss correction	single-endedforward channel	channel 2reverse channel	N/Adate	2019/09/14time	09:47:35forward acquisition time	60.00reverse acquisition time	0.00gamma	496.2192k internal	0.2321k external	0.2321temperature offset calibration	1.0131default loss term (dB/km)	0.3790temperature slope calibration	1.0000multiplexer offset coefficient	1.0000multiplexer slope coefficient	1.0000fibre end	0.00T internal ref (°C)	32.33T ext. ref 1 (°C)	3.93T ext. ref 2 (°C)	30.50length (m)	temperature (°C)	Stokes	anti-Stokes-747.200	57.805	0.190	0.188
-746.185	165.645	-0.048	-0.068
-745.171	-200.000	0.002	0.145
-744.156	351.152	0.140	0.279
-743.142	-9.196	-0.050	-0.034
-742.127	-22.332	0.299	0.183
-741.112	264.017	0.142	0.249
-740.098	18.088	-0.187	-0.150
-739.083	-200.000	0.063	0.514
-738.069	203.107	-0.132	0.207
-737.054	247.747	0.218	0.372
-736.039	-66.846	-0.124	0.050
-735.025	-200.000	-0.000	-0.046
-734.010	-14.812	0.297	0.193
-732.996	107.233	-0.144	0.173
-731.981	800.000	0.027	0.121
-730.966	456.221	0.086	0.192
-729.952	-73.518	-0.160	0.059
-728.937	-109.396	0.031	-0.007
-727.923	-18.895	-0.174	0.110
-726.908	-78.280	0.134	-0.046
-725.894	98.280	-0.027	-0.031
-724.879	800.000	0.033	0.106
-723.864	503.211	0.049	0.115
-722.850	-200.000	0.077	-0.411
-721.835	35.389	-0.138	-0.122
-720.821	800.000	-0.089	-0.302
-719.806	-27.496	-0.199	0.117
-718.791	88.055	0.081	-0.091
-717.777	-70.186	-0.232	-0.089
-716.762	87.762	-0.142	-0.159
-715.748	-147.773	-0.368	0.031
-714.733	-91.255	-0.510	-0.147
-713.718	-65.636	-0.086	0.035
-712.704	-154.579	-0.263	-0.018
-711.689	2.778	0.398	-0.291
-710.675	-57.680	0.087	0.038
-709.660	203.229	-0.051	0.079
-708.645	270.368	-0.137	0.244
-707.631	229.409	0.086	0.142
-706.616	-29.688	0.128	-0.074
-705.602	-26.000	-0.118	0.070
-704.587	-181.294	-0.123	0.002
-703.572	184.988	0.106	0.158
-702.558	-68.325	-0.266	-0.104
-701.543	800.000	-0.052	0.214
-700.529	-200.000	-0.016	-0.239
-699.514	183.330	0.041	-0.061
-698.499	-138.967	-0.083	-0.009
-697.485	800.000	-0.082	-0.319
-696.470	-40.383	0.306	0.160
-695.456	-179.563	0.124	-0.003
-694.441	138.801	0.061	-0.081
-693.426	-35.696	-0.370	0.203
-692.412	-31.899	0.306	-0.173
-691.397	341.219	0.081	-0.161
-690.383	-111.232	-0.103	0.021
-689.368	240.423	-0.240	-0.404
-688.354	800.000	-0.027	-0.080
-687.339	79.370	0.086	0.093
-686.324	30.408	-0.158	-0.136
-685.310	15.699	-0.187	0.148
-684.295	-200.000	0.013	0.093
-683.281	54.818	-0.128	-0.124
-682.266	287.468	-0.215	-0.392
-681.251	-68.630	0.150	-0.058
-680.237	-81.252	-0.238	-0.079
-679.222	12.530	0.244	0.190
-678.208	-90.547	-0.219	-0.064
-677.193	-155.372	-0.290	0.019
-676.178	360.964	-0.055	-0.111
-675.164	-80.117	-0.260	-0.088
-674.149	-200.000	-0.002	0.110
-673.135	-63.336	-0.435	0.180
-672.120	60.325	0.069	0.069
-671.105	29.626	0.036	0.031
-670.091	-12.860	-0.238	0.156
-669.076	-118.803	-0.117	-0.021
-668.062	137.801	0.132	0.174
-667.047	800.000	-0.012	-0.042
-666.032	-200.000	-0.015	-0.100
-665.018	-67.476	0.035	0.014
-664.003	-200.000	-0.067	-0.312
-662.989	226.494	-0.085	-0.139
-661.974	-61.184	0.098	0.042
-660.959	767.166	0.087	0.239
-659.945	800.000	0.069	-0.198
-658.930	504.406	-0.023	0.055
-657.916	-200.000	0.010	-0.130
-656.901	-64.204	-0.106	0.044
-655.886	239.626	-0.009	-0.014
-654.872	-200.000	-0.006	-0.109
-653.857	234.143	-0.183	0.303
-652.843	800.000	0.026	-0.091
-651.828	-200.000	-0.044	-0.291
-650.814	63.385	-0.235	-0.237
-649.799	-79.774	0.126	-0.043
-648.784	-194.685	-0.194	-0.002
-647.770	332.056	0.157	-0.306
-646.755	-99.722	-0.204	-0.052
-645.741	-80.131	-0.176	-0.059
-644.726	-200.000	-0.015	0.154
-643.711	-0.472	0.060	0.043
-642.697	-53.245	0.139	-0.064
-641.682	126.526	0.216	0.275
-640.668	114.533	-0.320	-0.393
-639.653	327.765	0.024	0.047
-638.638	-72.625	0.506	-0.188
-637.624	-152.535	0.184	0.013
-636.609	309.534	0.095	0.179
-635.595	800.000	-0.015	-0.065
-634.580	-200.000	0.012	0.133
-633.565	264.149	-0.019	0.033
-632.551	116.856	-0.181	0.223
-631.536	-96.878	-0.153	0.040
-630.522	151.117	-0.139	0.191
-629.507	27.437	-0.145	0.123
-628.492	2.525	-0.190	-0.139
-627.478	0.100	-0.124	0.089
-626.463	-135.116	0.288	-0.035
-625.449	-200.000	-0.004	-0.213
-624.434	-27.760	-0.413	-0.241
-623.419	201.269	0.064	-0.100
-622.405	-67.310	0.203	0.080
-621.390	153.020	0.178	-0.245
-620.376	800.000	-0.090	0.362
-619.361	281.793	-0.040	0.072
-618.346	-200.000	-0.019	0.143
-617.332	129.443	0.098	0.126
-616.317	340.017	0.082	-0.161
-615.303	208.415	-0.275	-0.432
-614.288	-200.000	0.017	-0.122
-613.273	10.423	-0.164	-0.126
-612.259	-69.376	-0.179	-0.069
-611.244	-200.000	0.019	-0.410
-610.230	-200.000	0.050	-0.270
-609.215	-121.413	-0.255	0.043
-608.201	280.911	0.083	0.150
-607.186	-200.000	-0.006	-0.049
-606.171	7.191	-0.109	0.082
-605.157	26.692	-0.210	0.177
-604.142	-200.000	0.054	0.405
-603.128	-77.940	-0.101	-0.035
-602.113	-198.142	-0.085	-0.000
-601.098	-95.318	-0.396	-0.107
-600.084	-7.436	0.261	0.178
-599.069	582.346	0.116	-0.287
-598.055	-76.368	0.252	0.089
-597.040	-200.000	0.026	-0.245
-596.025	284.338	-0.167	-0.301
-595.011	-113.630	-0.070	-0.014
-593.996	113.841	-0.031	0.038
-592.982	-109.718	-0.222	-0.047
-591.967	95.681	0.314	0.360
-590.952	502.039	-0.080	-0.186
-589.938	-84.378	-0.239	0.076
-588.923	-179.420	-0.063	-0.001
-587.909	222.524	-0.058	0.093
-586.894	-141.747	-0.227	0.023
-585.879	301.840	-0.022	0.042
-584.865	128.542	0.156	0.199
-583.850	403.392	-0.020	0.042
-582.836	302.786	0.126	-0.233
-581.821	14.581	-0.035	0.028
-580.806	-126.242	0.315	-0.047
-579.792	-200.000	0.063	0.325
-578.777	-172.532	-0.208	-0.007
-577.763	-99.168	-0.253	0.064
-576.748	-66.884	-0.367	0.146
-575.733	-148.723	-0.264	-0.022
-574.719	-165.493	0.316	-0.014
-573.704	-97.650	0.015	-0.004
-572.690	119.673	-0.090	0.112
-571.675	237.859	0.068	-0.112
-570.661	-88.958	0.140	0.042
-569.646	-66.309	0.224	-0.090
-568.631	-17.659	-0.229	-0.144
-567.617	-86.580	-0.007	-0.002
-566.602	81.822	0.025	-0.027
-565.588	-200.000	0.028	-0.196
-564.573	296.775	0.132	0.242
-563.558	-200.000	-0.046	-0.262
-562.544	65.144	0.194	-0.197
-561.529	47.198	-0.113	0.105
-560.515	9.723	-0.264	0.201
-559.500	800.000	0.044	-0.138
-558.485	800.000	0.066	0.187
-557.471	428.693	0.115	0.249
-556.456	-200.000	0.064	-0.311
-555.442	0.330	-0.113	0.081
-554.427	-73.274	0.219	0.080
-553.412	-200.000	0.007	-0.305
-552.398	-200.000	0.006	-0.050
-551.383	-154.545	0.289	-0.019
-550.369	-200.000	-0.006	-0.032
-549.354	-17.663	0.198	0.125
-548.339	-13.343	-0.230	-0.149
-547.325	337.885	-0.083	0.163
-546.310	112.629	0.149	0.181
-545.296	-132.478	-0.083	0.011
-544.281	121.827	0.184	-0.230
-543.266	40.380	-0.024	0.022
-542.252	203.602	0.092	-0.143
-541.237	10.164	0.116	0.089
-540.223	-200.000	-0.027	-0.318
-539.208	56.158	-0.151	0.147
-538.193	195.270	0.092	0.141
-537.179	370.832	0.044	-0.090
-536.164	-200.000	0.025	0.203
-535.150	728.562	-0.079	0.211
-534.135	15.504	0.117	0.092
-533.121	-92.643	0.127	-0.036
-532.106	195.738	0.170	-0.259
-531.091	522.449	-0.017	0.041
-530.077	-93.743	-0.203	0.056
-529.062	800.000	-0.067	0.254
-528.048	239.575	0.107	0.179
-527.033	-200.000	-0.001	-0.008
-526.018	-79.616	-0.142	0.048
-525.004	-200.000	-0.076	0.368
-523.989	-200.000	-0.006	0.248
-522.975	337.863	0.052	0.102
-521.960	-91.901	-0.329	0.093
-520.945	58.295	0.106	0.104
-519.931	-131.180	-0.316	0.042
-518.916	-119.815	0.415	-0.072
-517.902	-64.547	-0.391	0.159
-516.887	645.577	0.032	0.082
-515.872	-41.726	-0.333	-0.171
-514.858	-200.000	-0.028	0.129
-513.843	-200.000	-0.019	0.341
-512.829	-12.238	-0.160	-0.105
-511.814	207.332	-0.074	-0.116
-510.799	-33.523	-0.180	-0.099
-509.785	162.747	0.073	0.102
-508.770	227.319	-0.066	0.107
-507.756	-35.667	0.078	-0.042
-506.741	800.000	-0.049	0.201
-505.726	-55.248	-0.324	0.146
-504.712	-111.674	0.230	-0.047
-503.697	-76.026	-0.143	0.051
-502.683	109.501	-0.212	0.254
-501.668	-200.000	0.007	0.072
-500.653	800.000	-0.017	0.074
-499.639	64.792	0.228	-0.230
-498.624	500.299	-0.115	-0.266
-497.610	12.132	-0.233	-0.180
-496.595	-23.412	0.112	-0.067
-495.581	-11.665	-0.078	0.051
-494.566	302.273	-0.106	-0.196
-493.551	-200.000	-0.021	0.154
-492.537	-48.231	-0.255	-0.123
-491.522	95.824	0.137	0.157
-490.508	156.274	-0.091	0.126
-489.493	-52.814	0.238	-0.110
-488.478	-109.783	0.398	-0.084
-487.464	-200.000	0.012	-0.346
-486.449	57.031	0.102	-0.099
-485.435	-198.084	-0.291	0.002
-484.420	800.000	-0.129	-0.512
-483.405	41.544	-0.020	0.018
-482.391	-40.232	0.178	-0.092
-481.376	111.313	-0.265	-0.319
-480.362	-101.147	-0.044	-0.011
-479.347	-200.000	-0.091	-0.529
-478.332	800.000	-0.137	0.448
-477.318	-115.176	-0.306	-0.058
-476.303	-134.049	0.205	0.025
-475.289	110.587	-0.092	-0.110
-474.274	735.564	0.097	0.259
-473.259	-16.816	-0.367	0.232
-472.245	-149.913	0.130	0.010
-471.230	-200.000	0.098	0.465
-470.216	-200.000	-0.012	0.082
-469.201	71.284	-0.237	0.246
-468.186	85.057	0.114	-0.125
-467.172	32.867	0.035	-0.030
-466.157	113.277	-0.064	-0.077
-465.143	-105.912	-0.225	-0.051
-464.128	800.000	-0.053	0.185
-463.113	-62.108	0.072	-0.030
-462.099	-52.859	-0.137	-0.063
-461.084	-126.131	0.037	-0.006
-460.070	-200.000	-0.035	0.229
-459.055	-127.839	-0.187	-0.027
-458.040	-77.446	0.232	0.080
-457.026	-2.100	0.302	0.212
-456.011	95.105	0.116	-0.132
-454.997	-200.000	0.002	0.224
-453.982	101.658	0.058	-0.068
-452.968	-45.806	-0.058	0.028
-451.953	457.259	0.084	-0.186
-450.938	-12.771	0.057	0.037
-449.924	-36.702	0.132	-0.071
-448.909	-91.039	-0.079	0.023
-447.895	800.000	-0.094	-0.298
-446.880	57.749	0.241	0.235
-445.865	800.000	-0.161	-0.448
-444.851	100.491	0.114	0.132
-443.836	-83.241	0.140	-0.045
-442.822	-200.000	0.005	-0.033
-441.807	-5.112	-0.220	0.152
-440.792	16.321	-0.260	-0.205
-439.778	192.048	-0.091	0.136
-438.763	90.456	0.052	-0.058
-437.749	800.000	0.073	-0.291
-436.734	136.406	-0.075	0.098
-435.719	-77.152	0.274	0.095
-434.705	99.434	0.140	-0.162
-433.690	800.000	0.066	-0.265
-432.676	-124.941	-0.078	-0.012
-431.661	-118.215	0.342	0.061
-430.646	-85.753	0.097	0.030
-429.632	-104.867	0.205	0.047
-428.617	-200.000	0.027	0.147
-427.603	146.035	-0.199	-0.267
-426.588	69.158	0.111	0.114
-425.573	174.454	0.228	0.329
-424.559	-65.227	0.397	0.160
-423.544	800.000	-0.087	-0.267
-422.530	-10.811	0.017	-0.011
-421.515	-103.169	0.301	0.071
-420.500	143.466	0.161	0.214
-419.486	31.442	0.045	0.039
-418.471	393.654	0.086	-0.178
-417.457	83.772	0.129	0.141
-416.442	-200.000	-0.001	0.164
-415.428	646.534	0.098	-0.249
-414.413	115.423	0.241	-0.294
-413.398	800.000	0.039	0.135
-412.384	61.141	-0.122	-0.121
-411.369	80.440	-0.086	0.092
-410.355	-135.412	0.171	-0.020
-409.340	129.654	-0.067	-0.085
-408.325	-78.971	-0.124	-0.042
-407.311	800.000	0.016	-0.067
-406.296	-5.135	0.302	0.207
-405.282	98.952	-0.218	-0.251
-404.267	197.894	-0.104	-0.159
-403.252	-96.328	-0.121	0.032
-402.238	800.000	-0.078	0.322
-401.223	-15.769	-0.238	0.152
-400.209	-200.000	0.027	-0.329
-399.194	800.000	0.038	-0.143
-398.179	-131.502	-0.269	0.035
-397.165	-200.000	0.053	-0.304
-396.150	-200.000	0.053	0.257
-395.136	-130.903	0.170	-0.023
-394.121	196.957	-0.076	-0.115
-393.106	106.081	0.115	0.136
-392.092	18.099	-0.073	0.058
-391.077	-200.000	0.021	-0.333
-390.063	8.402	0.111	0.083
-389.048	170.391	0.073	0.105
-388.033	479.887	-0.052	0.118
-387.019	-200.000	0.032	-0.267
-386.004	-142.840	0.279	0.027
-384.990	-85.426	0.164	0.051
-383.975	-87.545	-0.319	-0.096
-382.960	800.000	-0.130	0.494
-381.946	193.346	-0.062	0.093
-380.931	-157.642	0.046	0.003
-379.917	-118.763	0.207	-0.036
-378.902	-200.000	-0.071	-0.388
-377.888	-200.000	-0.025	0.239
-376.873	-144.544	0.109	0.010
-375.858	-51.707	-0.200	-0.093
-374.844	-70.630	-0.203	0.076
-373.829	-127.154	0.366	-0.053
-372.815	-88.219	0.198	-0.059
-371.800	-182.737	-0.317	0.006
-370.785	-40.589	-0.249	-0.129
-369.771	-200.000	-0.014	-0.150
-368.756	-200.000	-0.033	0.150
-367.742	344.857	-0.051	0.101
-366.727	162.304	-0.103	0.144
-365.712	-76.375	-0.189	-0.066
-364.698	-99.108	0.057	0.014
-363.683	-76.868	-0.197	-0.069
-362.669	11.148	-0.101	0.077
-361.654	-73.106	0.179	0.065
-360.639	256.007	0.198	-0.337
-359.625	-184.746	-0.423	-0.007
-358.610	-200.000	0.002	0.114
-357.596	-53.441	-0.272	0.124
-356.581	75.691	0.251	0.264
-355.566	-200.000	-0.004	0.197
-354.552	29.976	-0.264	0.224
-353.537	-30.023	-0.165	-0.093
-352.523	-15.846	-0.272	-0.172
-351.508	-53.077	0.035	-0.016
-350.493	56.583	0.208	0.202
-349.479	-63.651	-0.370	-0.151
-348.464	27.799	-0.328	0.275
-347.450	153.431	0.058	-0.078
-346.435	229.525	-0.094	-0.153
-345.420	40.969	-0.154	0.138
-344.406	-167.416	0.195	0.008
-343.391	62.853	-0.154	-0.153
-342.377	105.242	0.144	-0.170
-341.362	-121.877	-0.114	-0.019
-340.348	-108.530	-0.407	-0.087
-339.333	17.556	0.233	0.184
-338.318	45.029	0.146	0.134
-337.304	-108.814	0.307	-0.065
-336.289	-200.000	0.037	-0.262
-335.275	-74.070	0.292	0.105
-334.260	-22.849	-0.197	0.118
-333.245	800.000	0.113	-0.446
-332.231	-8.774	0.246	0.164
-331.216	-102.578	-0.050	0.012
-330.202	-23.466	-0.054	-0.032
-329.187	198.791	-0.237	-0.360
-328.172	-200.000	0.008	-0.382
-327.158	-78.416	0.198	0.067
-326.143	353.834	0.065	-0.128
-325.129	-38.461	-0.103	0.054
-324.114	143.878	-0.072	-0.095
-323.099	-125.716	0.188	-0.028
-322.085	500.052	0.088	-0.201
-321.070	800.000	0.040	-0.138
-320.056	-21.503	0.044	0.027
-319.041	600.701	0.061	0.151
-318.026	-36.516	0.133	-0.071
-317.012	159.449	0.063	-0.087
-315.997	-33.063	-0.191	-0.105
-314.983	-200.000	-0.008	-0.210
-313.968	252.826	-0.124	0.211
-312.953	-0.628	0.080	-0.056
-311.939	-122.074	0.107	0.017
-310.924	9.899	0.292	-0.220
-309.910	-200.000	-0.032	-0.291
-308.895	235.915	-0.115	-0.189
-307.880	800.000	0.072	0.237
-306.866	-123.904	0.159	0.025
-305.851	182.658	-0.170	-0.250
-304.837	-37.981	-0.058	-0.031
-303.822	-0.295	-0.138	-0.098
-302.807	-117.381	0.173	0.031
-301.793	91.187	-0.126	-0.141
-300.778	-80.258	0.071	-0.024
-299.764	-69.572	0.151	-0.058
-298.749	555.340	0.057	0.137
-297.735	800.000	0.175	0.511
-296.720	31.286	0.141	0.120
-295.705	109.167	0.121	0.143
-294.691	-200.000	0.044	0.276
-293.676	-70.735	-0.180	-0.068
-292.662	-59.462	0.300	-0.128
-291.647	-63.362	-0.296	0.121
-290.632	0.789	0.268	0.190
-289.618	-78.715	0.261	0.088
-288.603	-200.000	0.054	0.315
-287.589	-30.342	0.082	-0.046
-286.574	617.068	0.027	0.068
-285.559	-200.000	-0.023	-0.312
-284.545	-142.335	-0.201	-0.020
-283.530	800.000	-0.072	0.296
-282.516	-200.000	-0.056	-0.247
-281.501	-121.970	0.178	0.029
-280.486	-200.000	0.058	0.383
-279.472	27.746	-0.057	-0.048
-278.457	-85.997	-0.027	0.008
-277.443	85.898	-0.180	0.196
-276.428	-8.432	-0.172	0.115
-275.413	103.683	-0.138	-0.161
-274.399	-65.297	-0.021	0.009
-273.384	-200.000	0.034	-0.333
-272.370	79.906	-0.113	-0.120
-271.355	-34.885	0.212	0.115
-270.340	-160.983	0.126	-0.007
-269.326	-91.532	-0.051	-0.014
-268.311	800.000	0.065	0.188
-267.297	-17.197	-0.270	0.169
-266.282	24.247	0.247	0.203
-265.267	-145.428	-0.429	-0.038
-264.253	800.000	-0.025	0.092
-263.238	-171.964	0.167	-0.005
-262.224	-84.977	0.371	-0.115
-261.209	-200.000	0.018	-0.233
-260.195	-3.562	-0.305	0.210
-259.180	800.000	-0.036	-0.131
-258.165	503.791	0.064	-0.147
-257.151	-43.816	0.319	-0.159
-256.136	214.783	0.113	-0.177
-255.122	-125.139	-0.120	0.018
-254.107	-200.000	0.009	0.056
-253.092	352.891	-0.056	0.110
-252.078	774.759	-0.094	-0.254
-251.063	800.000	-0.034	0.138
-250.049	15.787	0.180	0.140
-249.034	22.069	-0.037	-0.030
-248.019	17.799	0.087	-0.069
-247.005	374.893	0.107	0.216
-245.990	-57.552	0.074	0.032
-244.976	149.461	0.156	-0.209
-243.961	800.000	0.052	0.155
-242.946	291.919	0.023	0.041
-241.932	-200.000	-0.045	0.245
-240.917	800.000	0.058	-0.186
-239.903	768.555	-0.121	-0.325
-238.888	121.506	0.117	-0.144
-237.873	-120.199	0.249	0.042
-236.859	-10.676	-0.151	-0.099
-235.844	-200.000	0.026	0.400
-234.830	98.900	-0.165	0.189
-233.815	-193.173	-0.077	0.001
-232.800	-56.838	0.323	0.141
-231.786	75.216	-0.098	0.103
-230.771	-200.000	0.011	-0.054
-229.757	11.569	-0.145	-0.110
-228.742	102.516	0.136	0.158
-227.727	54.794	0.169	-0.161
-226.713	-77.048	0.404	0.139
-225.698	-83.032	0.184	0.059
-224.684	-24.090	0.058	-0.034
-223.669	-200.000	0.035	-0.246
-222.655	489.231	-0.132	0.299
-221.640	148.290	-0.157	0.209
-220.625	-101.910	-0.228	0.055
-219.611	800.000	0.087	-0.266
-218.596	28.208	-0.089	0.074
-217.582	-148.647	0.091	0.007
-216.567	719.989	0.036	-0.095
-215.552	-95.574	-0.146	0.039
-214.538	-200.000	0.003	0.048
-213.523	-200.000	-0.004	-0.112
-212.509	516.084	-0.119	-0.276
-211.494	-12.444	-0.070	0.045
-210.479	133.136	-0.153	-0.196
-209.465	800.000	0.088	-0.245
-208.450	-200.000	-0.062	0.273
-207.436	-200.000	0.067	0.295
-206.421	31.029	0.093	-0.079
-205.406	-83.295	0.243	0.077
-204.392	-117.958	0.121	0.021
-203.377	-137.670	0.233	0.026
-202.363	96.478	0.018	0.021
-201.348	-176.713	0.361	-0.009
-200.333	-200.000	0.048	-0.351
-199.319	-35.232	0.349	-0.188
-198.304	-108.749	-0.358	0.076
-197.290	73.593	-0.043	0.044
-196.275	-53.140	0.103	-0.047
-195.260	454.484	0.069	0.151
-194.246	-26.818	-0.167	-0.097
-193.231	800.000	-0.078	-0.233
-192.217	765.643	-0.024	0.066
-191.202	-119.974	-0.406	0.069
-190.187	-30.129	-0.103	-0.058
-189.173	-90.956	0.275	0.078
-188.158	97.007	-0.154	0.174
-187.144	-200.000	0.014	0.446
-186.129	-88.919	-0.299	0.088
-185.114	63.855	0.078	0.078
-184.100	181.893	0.136	-0.198
-183.085	-6.380	0.114	-0.077
-182.071	8.747	0.251	0.187
-181.056	124.675	0.182	-0.226
-180.042	-10.367	-0.134	-0.088
-179.027	2.427	-0.164	0.118
-178.012	-200.000	0.022	0.237
-176.998	79.224	0.229	-0.243
-175.983	-10.094	-0.259	0.170
-174.969	-126.429	-0.182	0.027
-173.954	-161.388	0.007	-0.000
-172.939	800.000	0.022	0.065
-171.925	-107.721	0.198	0.043
-170.910	-200.000	0.059	0.265
-169.896	-70.768	-0.267	0.100
-168.881	-78.198	-0.255	0.087
-167.866	-200.000	0.020	0.096
-166.852	-105.115	-0.192	0.043
-165.837	-104.514	0.111	-0.025
-164.823	-168.772	0.499	-0.019
-163.808	800.000	-0.055	0.229
-162.793	-137.143	-0.084	0.009
-161.779	-49.125	-0.039	0.018
-160.764	157.386	0.141	0.193
-159.750	14.891	0.237	0.184
-158.735	44.177	0.083	0.075
-157.720	163.304	-0.244	-0.339
-156.706	-198.022	-0.087	-0.001
-155.691	162.231	0.198	-0.274
-154.677	800.000	-0.088	-0.327
-153.662	191.888	0.092	-0.137
-152.647	-200.000	-0.009	-0.077
-151.633	158.115	-0.163	-0.224
-150.618	-90.505	-0.094	-0.027
-149.604	32.377	0.307	-0.262
-148.589	-200.000	0.011	0.224
-147.574	-200.000	0.007	-0.032
-146.560	-200.000	0.043	0.264
-145.545	390.744	0.033	-0.067
-144.531	472.779	-0.160	0.357
-143.516	-35.340	-0.189	0.101
-142.502	43.753	-0.239	0.216
-141.487	-43.027	0.172	-0.086
-140.472	-88.245	0.046	-0.014
-139.458	-200.000	-0.022	0.339
-138.443	-200.000	0.020	-0.305
-137.429	217.656	0.055	0.086
-136.414	800.000	0.025	-0.106
-135.399	38.008	0.048	-0.042
-134.385	12.335	0.299	-0.227
-133.370	-44.687	0.051	0.025
-132.356	-50.967	-0.045	-0.021
-131.341	376.707	-0.206	0.415
-130.326	-200.000	0.005	0.133
-129.312	92.468	-0.151	0.168
-128.297	-52.990	-0.185	-0.084
-127.283	195.370	-0.155	-0.233
-126.268	79.467	-0.213	0.225
-125.253	-70.391	-0.273	-0.102
-124.239	-110.045	0.227	0.047
-123.224	188.642	0.101	-0.150
-122.210	-119.988	0.118	0.020
-121.195	-59.022	0.042	0.018
-120.180	386.986	-0.040	-0.082
