DTS Sentinel unit serial number:	SN413079Multiplexer serial number:	ORYXHardware model number:	OX4-SRSoftware version number:	ORYX F/W v4.00 Oryx Data Collector v3.7.2.0data status	okinstallation	princeton_trtdifferential loss correction	single-endedforward channel	channel 2reverse channel	N/Adate	2019/09/13time	17:07:35forward acquisition time	60.00reverse acquisition time	0.00gamma	496.2192k internal	0.2310k external	0.2310temperature offset calibration	1.0200default loss term (dB/km)	0.3790temperature slope calibration	1.0000multiplexer offset coefficient	1.0000multiplexer slope coefficient	1.0000fibre end	0.00T internal ref (°C)	35.23T ext. ref 1 (°C)	4.82T ext. ref 2 (°C)	35.11length (m)	temperature (°C)	Stokes	anti-Stokes-747.200	-64.307	0.121	-0.050
-746.185	800.000	-0.066	0.225
-745.171	-8.376	0.349	0.238
-744.156	-10.982	0.065	0.044
-743.142	218.842	-0.159	0.258
-742.127	525.583	-0.151	0.362
-741.112	115.928	-0.375	0.466
-740.098	317.916	0.045	-0.087
-739.083	23.767	-0.170	-0.142
-738.069	19.555	-0.287	0.234
-737.054	532.324	-0.157	-0.378
-736.039	-200.000	0.026	-0.119
-735.025	-46.847	-0.267	-0.133
-734.010	-39.567	-0.120	-0.064
-732.996	-200.000	-0.045	-0.439
-731.981	800.000	-0.067	-0.273
-730.966	-47.915	-0.306	0.150
-729.952	-138.930	-0.316	-0.035
-728.937	67.544	0.017	-0.018
-727.923	-94.043	-0.278	0.077
-726.908	73.964	-0.211	-0.224
-725.894	-4.831	0.211	-0.148
-724.879	-200.000	-0.039	-0.318
-723.864	-200.000	0.033	-0.228
-722.850	-200.000	-0.063	-0.356
-721.835	800.000	0.056	-0.218
-720.821	-200.000	-0.027	-0.254
-719.806	-94.543	0.173	0.048
-718.791	800.000	0.132	-0.395
-717.777	-168.157	-0.237	-0.009
-716.762	-104.206	-0.229	-0.054
-715.748	-200.000	-0.018	-0.384
-714.733	24.524	-0.278	-0.233
-713.718	-34.957	0.221	-0.122
-712.704	-200.000	-0.007	-0.165
-711.689	-133.156	-0.126	0.016
-710.675	327.893	0.053	-0.103
-709.660	127.657	-0.228	0.293
-708.645	-100.503	-0.121	0.030
-707.631	-53.495	0.041	-0.019
-706.616	-64.873	0.164	0.067
-705.602	38.526	-0.367	0.332
-704.587	800.000	0.022	0.074
-703.572	400.528	-0.057	0.121
-702.558	-194.392	0.010	0.000
-701.543	-200.000	0.032	-0.222
-700.529	800.000	-0.051	-0.169
-699.514	800.000	-0.091	-0.278
-698.499	56.519	-0.247	0.244
-697.485	-200.000	0.009	0.117
-696.470	800.000	0.037	0.136
-695.456	95.954	0.333	-0.386
-694.441	751.747	-0.051	0.140
-693.426	-200.000	-0.034	-0.230
-692.412	-47.577	-0.062	-0.031
-691.397	357.787	-0.085	-0.172
-690.383	144.637	0.091	0.123
-689.368	-200.000	-0.009	0.239
-688.354	-200.000	0.056	-0.440
-687.339	95.876	-0.060	-0.070
-686.324	182.050	0.152	0.227
-685.310	-200.000	-0.053	0.347
-684.295	800.000	0.074	-0.223
-683.281	800.000	-0.079	0.228
-682.266	-72.456	-0.324	0.122
-681.251	-175.334	0.112	-0.003
-680.237	59.844	0.078	0.078
-679.222	17.547	0.243	0.196
-678.208	-200.000	-0.060	-0.275
-677.193	373.608	-0.039	-0.080
-676.178	-23.695	-0.177	-0.107
-675.164	-12.814	-0.065	0.043
-674.149	-200.000	-0.038	0.316
-673.135	-40.234	-0.309	-0.163
-672.120	6.637	-0.100	0.075
-671.105	229.566	-0.110	-0.183
-670.091	-58.550	0.195	0.086
-669.076	-156.304	-0.143	-0.009
-668.062	-112.205	-0.273	-0.056
-667.047	-68.463	0.083	0.033
-666.032	33.715	0.238	-0.210
-665.018	30.628	-0.164	-0.142
-664.003	-39.996	-0.136	-0.072
-662.989	-200.000	0.006	-0.034
-661.974	800.000	-0.048	-0.195
-660.959	-89.281	-0.342	0.102
-659.945	-200.000	-0.047	-0.237
-658.930	-200.000	-0.050	-0.273
-657.916	-126.262	-0.177	0.027
-656.901	-9.103	-0.089	-0.060
-655.886	30.771	-0.202	-0.175
-654.872	-15.029	0.084	-0.055
-653.857	455.610	-0.061	-0.138
-652.843	-95.189	0.145	0.039
-651.828	-99.895	0.210	0.053
-650.814	-66.285	-0.053	0.021
-649.799	207.978	-0.224	-0.354
-648.784	-200.000	0.005	0.355
-647.770	16.432	0.243	-0.194
-646.755	800.000	-0.066	-0.235
-645.741	-200.000	-0.059	0.000
-644.726	389.197	-0.135	0.283
-643.711	89.294	0.138	0.155
-642.697	79.359	0.074	0.080
-641.682	-142.884	-0.164	0.016
-640.668	13.020	-0.147	-0.115
-639.653	-110.468	0.195	0.041
-638.638	-102.848	-0.211	-0.051
-637.624	-96.100	-0.083	0.022
-636.609	-30.229	0.640	-0.368
-635.595	-200.000	-0.032	-0.180
-634.580	-54.053	-0.048	-0.022
-633.565	-166.114	0.202	-0.009
-632.551	-200.000	-0.030	0.172
-631.536	-200.000	0.026	0.216
-630.522	-135.714	0.149	-0.018
-629.507	68.919	0.082	-0.085
-628.492	-113.812	-0.436	-0.086
-627.478	-55.250	0.179	0.081
-626.463	684.693	0.093	-0.246
-625.449	31.687	0.296	-0.257
-624.434	18.282	0.106	0.086
-623.419	339.964	0.058	-0.114
-622.405	-71.685	-0.142	-0.054
-621.390	85.491	0.049	-0.054
-620.376	800.000	-0.043	-0.126
-619.361	145.336	-0.161	-0.218
-618.346	-5.442	-0.323	-0.224
-617.332	174.349	0.102	-0.149
-616.317	-19.660	0.332	-0.207
-615.303	-76.184	0.156	0.056
-614.288	106.141	-0.092	0.110
-613.273	800.000	-0.082	-0.282
-612.259	201.704	0.117	-0.182
-611.244	494.065	-0.061	-0.142
-610.230	-200.000	-0.013	-0.135
-609.215	-149.385	-0.171	0.014
-608.201	53.058	-0.432	0.417
-607.186	800.000	-0.061	-0.251
-606.171	-200.000	0.562	0.001
-605.157	-36.453	-0.093	0.051
-604.142	229.166	-0.157	-0.258
-603.128	372.645	-0.068	-0.140
-602.113	17.990	-0.168	0.135
-601.098	-179.577	-0.454	0.010
-600.084	-72.417	-0.281	0.105
-599.069	236.421	0.099	0.166
-598.055	-99.214	-0.149	0.038
-597.040	-46.649	0.215	-0.107
-596.025	-12.972	-0.209	-0.137
-595.011	24.817	0.110	0.092
-593.996	-200.000	-0.009	0.147
-592.982	47.794	-0.106	-0.100
-591.967	-31.130	-0.119	-0.068
-590.952	-115.225	0.108	-0.021
-589.938	72.555	-0.135	-0.142
-588.923	139.665	0.050	0.067
-587.909	11.204	0.045	-0.035
-586.894	508.216	-0.085	-0.199
-585.879	800.000	0.063	-0.230
-584.865	-145.471	-0.159	0.014
-583.850	-94.829	-0.110	-0.030
-582.836	-200.000	-0.001	0.219
-581.821	-200.000	-0.065	-0.367
-580.806	145.997	-0.085	0.115
-579.792	800.000	-0.109	0.461
-578.777	-200.000	0.002	0.039
-577.763	-149.468	-0.363	-0.029
-576.748	-43.159	-0.061	0.031
-575.733	261.307	0.059	-0.102
-574.719	-148.282	-0.140	0.012
-573.704	69.685	-0.191	0.198
-572.690	-76.968	-0.275	0.097
-571.675	-104.356	-0.242	0.056
-570.661	90.187	-0.139	-0.157
-569.646	146.467	0.121	-0.164
-568.631	800.000	-0.064	-0.226
-567.617	26.627	0.183	0.154
-566.602	-200.000	0.059	-0.314
-565.588	-100.265	0.143	0.036
-564.573	-159.578	-0.222	-0.012
-563.558	800.000	-0.027	-0.080
-562.544	-89.711	0.219	-0.065
-561.529	5.768	-0.097	-0.072
-560.515	800.000	-0.041	0.124
-559.500	800.000	0.128	-0.399
-558.485	331.616	-0.134	-0.260
-557.471	586.476	-0.147	-0.365
-556.456	-200.000	0.003	-0.017
-555.442	-13.622	-0.243	0.159
-554.427	-10.893	0.215	0.143
-553.412	137.259	-0.112	-0.148
-552.398	544.818	-0.095	-0.228
-551.383	-200.000	0.039	-0.304
-550.369	-31.272	-0.095	0.054
-549.354	-65.387	0.161	0.065
-548.339	-113.889	-0.274	0.054
-547.325	130.324	-0.211	-0.272
-546.310	77.773	-0.116	-0.125
-545.296	321.015	0.112	-0.215
-544.281	291.241	0.094	0.173
-543.266	327.565	0.108	0.209
-542.252	-200.000	-0.013	-0.175
-541.237	-200.000	-0.006	-0.099
-540.223	-158.292	-0.209	-0.012
-539.208	-70.878	-0.164	0.062
-538.193	-29.286	-0.348	0.201
-537.179	-200.000	-0.013	0.209
-536.164	5.038	0.225	0.167
-535.150	479.569	0.164	-0.374
-534.135	273.788	0.073	-0.131
-533.121	28.825	0.280	0.239
-532.106	125.970	-0.248	-0.316
-531.091	105.559	0.108	0.129
-530.077	283.672	-0.169	-0.305
-529.062	296.043	-0.116	-0.214
-528.048	148.779	0.060	0.082
-527.033	38.634	0.123	0.110
-526.018	-200.000	0.018	0.116
-525.004	-51.664	0.289	-0.136
-523.989	-200.000	0.010	-0.166
-522.975	-7.372	0.033	-0.022
-521.960	58.934	-0.121	-0.120
-520.945	246.964	0.193	0.328
-519.931	-2.902	0.322	0.227
-518.916	63.525	-0.071	0.072
-517.902	800.000	-0.044	-0.173
-516.887	276.468	0.100	0.179
-515.872	-200.000	0.033	-0.225
-514.858	72.535	-0.209	0.219
-513.843	-200.000	-0.009	0.086
-512.829	-107.956	0.490	0.107
-511.814	-200.000	-0.010	0.084
-510.799	173.750	-0.067	-0.098
-509.785	800.000	0.050	-0.213
-508.770	800.000	-0.048	0.140
-507.756	-9.684	0.061	0.041
-506.741	147.816	-0.072	0.098
-505.726	-111.462	0.407	0.083
-504.712	77.005	0.067	-0.072
-503.697	46.454	-0.149	-0.139
-502.683	74.168	-0.137	0.145
-501.668	234.351	0.053	0.088
-500.653	-17.795	0.132	-0.083
-499.639	-106.074	-0.206	-0.047
-498.624	-87.207	0.163	0.050
-497.610	109.951	0.093	0.112
-496.595	292.031	0.118	-0.216
-495.581	-200.000	-0.005	0.149
-494.566	-200.000	-0.013	-0.102
-493.551	172.396	0.071	-0.102
-492.537	-11.075	0.136	-0.090
-491.522	-200.000	-0.040	0.195
-490.508	5.656	-0.311	0.231
-489.493	249.613	0.048	0.083
-488.478	-61.552	-0.080	-0.034
-487.464	-153.427	-0.407	0.028
-486.449	-200.000	-0.007	-0.122
-485.435	-9.449	0.115	-0.077
-484.420	-82.070	0.124	-0.041
-483.405	97.196	-0.395	0.455
-482.391	118.819	0.069	-0.085
-481.376	32.218	-0.156	-0.135
-480.362	85.410	0.213	-0.235
-479.347	-100.792	-0.368	0.091
-478.332	126.253	0.087	-0.110
-477.318	-134.227	0.310	-0.038
-476.303	288.533	0.180	0.327
-475.289	156.333	0.079	0.109
-474.274	-6.884	0.033	0.023
-473.259	-112.300	-0.118	0.024
-472.245	-200.000	0.022	-0.433
-471.230	-200.000	-0.025	-0.273
-470.216	0.929	-0.155	-0.112
-469.201	-74.691	-0.319	-0.115
-468.186	106.883	0.197	0.235
-467.172	90.925	-0.037	0.042
-466.157	800.000	-0.052	0.205
-465.143	472.858	0.093	-0.212
-464.128	646.269	0.122	-0.313
-463.113	-144.846	0.420	-0.039
-462.099	-62.029	-0.066	0.028
-461.084	151.716	-0.102	-0.139
-460.070	-134.645	-0.309	0.038
-459.055	413.635	-0.139	-0.297
-458.040	-104.253	-0.340	0.079
-457.026	800.000	-0.067	0.213
-456.011	16.022	0.130	0.103
-454.997	-200.000	0.004	0.148
-453.982	367.025	-0.138	-0.280
-452.968	-72.658	0.100	-0.037
-451.953	-87.832	-0.335	-0.101
-450.938	586.766	-0.189	-0.467
-449.924	-125.230	0.193	-0.030
-448.909	-96.294	-0.188	0.050
-447.895	-200.000	0.000	0.086
-446.880	800.000	0.152	-0.427
-445.865	-186.663	-0.262	-0.004
-444.851	-140.587	-0.106	0.011
-443.836	-64.906	0.267	0.108
-442.822	-200.000	-0.021	0.101
-441.807	-103.885	0.078	-0.018
-440.792	-200.000	0.022	-0.399
-439.778	118.360	0.046	-0.057
-438.763	800.000	0.019	0.058
-437.749	132.633	0.300	-0.388
-436.734	557.790	0.056	0.136
-435.719	156.432	-0.088	0.122
-434.705	-141.775	0.198	-0.020
-433.690	250.957	-0.221	0.377
-432.676	188.422	0.226	0.339
-431.661	114.147	0.096	-0.117
-430.646	-81.597	-0.186	-0.061
-429.632	-140.715	-0.007	0.001
-428.617	-180.395	0.237	0.005
-427.603	-200.000	-0.059	0.281
-426.588	142.165	-0.152	-0.202
-425.573	-44.101	0.063	-0.032
-424.559	-186.454	0.192	-0.003
-423.544	800.000	0.130	-0.417
-422.530	-27.316	0.155	0.091
-421.515	487.855	0.056	-0.128
-420.500	292.439	-0.211	0.385
-419.486	-16.422	-0.095	-0.060
-418.471	52.783	0.157	-0.150
-417.457	7.638	-0.169	-0.127
-416.442	18.928	0.177	-0.142
-415.428	-101.719	0.235	0.057
-414.413	-41.299	0.048	-0.025
-413.398	-118.500	0.012	-0.002
-412.384	800.000	-0.095	0.381
-411.369	87.205	-0.096	-0.106
-410.355	-40.938	0.177	-0.092
-409.340	248.545	0.181	0.308
-408.325	-61.529	0.351	0.148
-407.311	-107.015	-0.120	-0.027
-406.296	-140.975	0.315	-0.032
-405.282	-200.000	0.046	0.208
-404.267	-35.790	0.095	-0.052
-403.252	-96.832	0.303	-0.080
-402.238	-149.865	-0.292	0.023
-401.223	-106.678	-0.127	0.028
-400.209	-92.006	0.256	-0.073
-399.194	235.066	0.034	0.057
-398.179	82.243	0.134	0.145
-397.165	-118.273	0.072	0.013
-396.150	-14.324	-0.061	0.039
-395.136	-200.000	-0.026	0.337
-394.121	20.069	-0.276	0.223
-393.106	-200.000	-0.043	-0.273
-392.092	170.753	-0.077	-0.110
-391.077	471.968	-0.102	0.229
-390.063	11.658	0.147	-0.113
-389.048	-55.853	0.336	0.150
-388.033	-200.000	-0.024	0.120
-387.019	13.204	-0.237	0.184
-386.004	800.000	-0.042	-0.123
-384.990	132.053	-0.100	-0.129
-383.975	351.174	0.075	0.148
-382.960	-200.000	-0.007	0.172
-381.946	800.000	-0.011	0.030
-380.931	-200.000	-0.018	-0.112
-379.917	-200.000	0.007	-0.042
-378.902	800.000	0.074	-0.220
-377.888	-135.514	0.163	0.019
-376.873	138.319	-0.035	0.046
-375.858	164.000	0.046	0.065
-374.844	149.665	-0.139	-0.188
-373.829	-200.000	0.017	0.146
-372.815	-200.000	-0.006	-0.035
-371.800	18.762	-0.231	-0.185
-370.785	71.662	-0.074	0.077
-369.771	-200.000	-0.033	0.271
-368.756	-200.000	0.008	0.050
-367.742	-40.417	0.147	0.076
-366.727	2.579	-0.079	-0.057
-365.712	-58.903	-0.184	-0.080
-364.698	599.752	-0.147	-0.366
-363.683	-200.000	0.002	-0.194
-362.669	-92.567	0.381	0.107
-361.654	-42.533	-0.296	0.151
-360.639	-200.000	0.002	0.044
-359.625	33.682	-0.290	-0.252
-358.610	69.949	-0.097	-0.100
-357.596	209.177	0.091	-0.143
-356.581	46.442	-0.158	-0.147
-355.566	-22.532	0.075	-0.045
-354.552	-1.919	0.110	-0.078
-353.537	101.073	0.141	-0.164
-352.523	90.572	-0.053	0.059
-351.508	-72.498	0.076	0.028
-350.493	800.000	-0.074	-0.277
-349.479	39.180	0.173	-0.155
-348.464	-139.624	-0.374	-0.040
-347.450	-99.674	-0.273	0.068
-346.435	88.104	-0.106	0.117
-345.420	112.243	-0.205	0.248
-344.406	-56.699	-0.172	-0.076
-343.391	-200.000	0.050	0.345
-342.377	800.000	0.104	0.413
-341.362	-67.980	-0.040	0.015
-340.348	-47.750	0.232	0.112
-339.333	-62.298	0.160	-0.067
-338.318	140.348	0.084	0.110
-337.304	-7.232	-0.076	0.051
-336.289	800.000	0.085	-0.273
-335.275	-102.181	0.039	-0.009
-334.260	112.818	0.133	-0.161
-333.245	169.816	-0.020	-0.028
-332.231	800.000	0.045	0.160
-331.216	-31.089	-0.118	0.066
-330.202	-97.307	0.290	0.075
-329.187	-132.079	-0.180	0.023
-328.172	-52.201	0.049	0.023
-327.158	-57.137	0.259	-0.114
-326.143	208.910	-0.031	-0.049
-325.129	10.997	0.207	-0.158
-324.114	-54.211	-0.260	0.118
-323.099	52.224	-0.079	0.075
-322.085	-200.000	0.049	0.338
-321.070	156.480	-0.127	0.175
-320.056	117.356	-0.297	0.365
-319.041	-82.822	0.182	0.059
-318.026	-55.504	0.052	-0.023
-317.012	-198.534	0.090	0.001
-315.997	-59.287	0.230	0.099
-314.983	-134.828	0.282	-0.034
-313.968	-200.000	0.048	0.235
-312.953	-33.929	-0.167	0.092
-311.939	800.000	-0.035	0.124
-310.924	-122.180	0.107	0.018
-309.910	130.434	0.090	-0.115
-308.895	166.503	0.186	0.263
-307.880	-200.000	0.033	0.259
-306.866	-72.756	0.149	-0.055
-305.851	800.000	0.102	-0.313
-304.837	-81.111	0.280	0.092
-303.822	-15.849	0.245	0.156
-302.807	398.875	0.174	0.364
-301.793	-122.171	-0.209	-0.034
-300.778	163.175	-0.183	-0.257
-299.764	673.628	-0.186	0.481
-298.749	-85.192	-0.239	-0.075
-297.735	-200.000	-0.003	0.084
-296.720	143.787	-0.085	0.113
-295.705	32.633	0.070	-0.061
-294.691	-21.018	-0.219	-0.134
-293.676	27.973	-0.036	-0.031
-292.662	632.319	0.020	0.050
-291.647	336.972	0.171	0.332
-290.632	-200.000	-0.071	-0.419
-289.618	-1.537	0.456	-0.321
-288.603	-61.692	-0.229	-0.096
-287.589	223.998	-0.034	0.055
-286.574	358.982	0.075	0.150
-285.559	-92.544	-0.217	0.061
-284.545	-111.374	0.128	0.026
-283.530	379.239	0.073	0.149
-282.516	-56.568	0.141	0.062
-281.501	191.221	0.065	0.098
-280.486	37.785	-0.077	0.068
-279.472	-114.148	-0.189	-0.036
-278.457	-150.660	-0.173	-0.013
-277.443	-125.266	0.266	0.041
-276.428	800.000	0.036	-0.099
-275.413	409.831	0.068	0.144
-274.399	52.414	0.165	-0.157
-273.384	800.000	-0.083	-0.279
-272.370	53.106	0.257	0.246
-271.355	69.913	-0.193	0.199
-270.340	800.000	-0.053	0.156
-269.326	25.226	-0.271	0.224
-268.311	-178.353	0.055	-0.001
-267.297	-58.722	0.086	0.037
-266.282	49.997	0.284	0.267
-265.267	-200.000	0.003	0.403
-264.253	-200.000	-0.003	-0.102
-263.238	238.249	0.127	0.210
-262.224	176.258	-0.191	0.277
-261.209	236.461	0.124	-0.205
-260.195	550.374	-0.085	-0.203
-259.180	339.754	0.052	-0.101
-258.165	63.670	-0.418	-0.418
-257.151	295.506	-0.170	0.310
-256.136	-72.715	0.120	0.044
-255.122	-200.000	-0.002	-0.031
-254.107	180.057	-0.132	0.193
-253.092	800.000	-0.074	0.273
-252.078	368.411	-0.063	0.127
-251.063	-195.246	0.060	-0.000
-250.049	-200.000	-0.061	-0.324
-249.034	35.972	-0.127	-0.112
-248.019	467.020	-0.108	-0.241
-247.005	800.000	0.081	0.328
-245.990	-125.244	-0.083	0.013
-244.976	-64.567	0.187	-0.076
-243.961	6.343	0.160	0.118
-242.946	-110.496	-0.383	0.079
-241.932	800.000	-0.110	0.350
-240.917	-186.961	0.290	0.004
-239.903	-200.000	-0.032	0.204
-238.888	800.000	0.080	-0.241
-237.873	800.000	0.093	0.256
-236.859	-200.000	-0.032	0.400
-235.844	92.417	0.225	0.253
-234.830	92.302	0.118	-0.132
-233.815	-136.734	-0.275	-0.032
-232.800	5.593	-0.334	-0.245
-231.786	195.844	-0.230	0.348
-230.771	-122.555	-0.350	-0.057
-229.757	163.922	0.108	0.151
-228.742	-200.000	0.054	-0.319
-227.727	-16.862	-0.130	0.082
-226.713	-100.333	-0.194	0.048
-225.698	-200.000	-0.024	0.205
-224.684	51.536	0.156	0.148
-223.669	-55.598	0.259	-0.115
-222.655	21.409	-0.120	0.097
-221.640	-37.343	-0.508	-0.270
-220.625	166.698	0.211	-0.298
-219.611	-165.342	0.219	0.010
-218.596	-153.106	-0.117	0.008
-217.582	-34.437	-0.143	0.078
-216.567	-200.000	0.078	0.359
-215.552	-128.268	0.311	0.044
-214.538	64.707	0.300	-0.301
-213.523	-151.566	-0.138	-0.010
-212.509	-127.945	-0.027	-0.004
-211.494	800.000	-0.008	0.026
-210.479	-35.027	0.159	-0.086
-209.465	127.572	-0.090	0.114
-208.450	119.554	0.147	-0.181
-207.436	325.315	-0.092	0.175
-206.421	800.000	0.059	-0.181
-205.406	136.020	-0.065	-0.084
-204.392	484.148	-0.076	-0.171
-203.377	-101.570	0.146	-0.035
-202.363	35.571	-0.095	0.083
-201.348	12.632	0.409	-0.314
-200.333	800.000	0.043	0.174
-199.319	103.764	0.264	0.308
-198.304	198.106	0.128	-0.194
-197.290	377.481	0.150	-0.304
-196.275	-49.895	-0.158	-0.074
-195.260	3.216	0.189	-0.137
-194.246	16.865	-0.125	0.099
-193.231	-66.353	0.254	0.100
-192.217	87.480	-0.191	0.210
-191.202	-200.000	0.022	0.127
-190.187	800.000	0.066	0.208
-189.173	-43.971	-0.326	0.163
-188.158	-200.000	-0.022	-0.448
-187.144	38.522	-0.347	0.307
-186.129	-56.565	0.163	-0.072
-185.114	-111.126	-0.215	-0.044
-184.100	63.287	-0.152	-0.151
-183.085	93.041	0.122	-0.137
-182.071	-128.263	0.201	-0.028
-181.056	49.107	0.053	0.050
-180.042	-49.252	-0.160	0.076
-179.027	-50.332	0.173	-0.081
-178.012	113.348	0.054	0.065
-176.998	-54.419	0.209	-0.094
-175.983	-123.065	-0.070	0.011
-174.969	39.495	0.124	0.110
-173.954	15.273	-0.397	0.309
-172.939	-122.781	0.312	0.050
-171.925	213.312	-0.090	-0.141
-170.910	-200.000	-0.004	0.171
-169.896	-200.000	0.085	0.383
-168.881	406.485	-0.015	0.032
-167.866	113.620	0.030	-0.036
-166.852	-142.761	-0.168	0.016
-165.837	-159.446	0.399	0.022
-164.823	10.472	-0.139	0.105
-163.808	-148.917	-0.152	0.012
-162.793	-200.000	0.000	0.001
-161.779	-200.000	0.026	0.117
-160.764	-102.419	-0.061	0.014
-159.750	-181.577	-0.123	-0.002
-158.735	-200.000	-0.025	0.188
-157.720	-14.460	0.452	-0.288
-156.706	-1.163	0.180	-0.126
-155.691	-137.305	-0.400	0.045
-154.677	56.326	0.275	0.265
-153.662	121.551	0.334	-0.413
-152.647	-200.000	0.000	0.038
-151.633	-140.802	0.216	0.022
-150.618	-200.000	-0.117	0.001
-149.604	-127.552	0.202	-0.029
-148.589	-200.000	0.058	-0.274
-147.574	-200.000	0.141	-0.627
-146.560	-200.000	-0.026	-0.355
-145.545	-79.358	0.453	-0.152
-144.531	800.000	0.051	0.198
-143.516	-10.468	-0.063	-0.042
-142.502	800.000	-0.049	0.204
-141.487	6.662	-0.161	-0.119
-140.472	-171.758	-0.088	0.003
-139.458	-136.133	0.107	-0.012
-138.443	-200.000	-0.038	-0.347
-137.429	155.953	-0.322	0.441
-136.414	-52.815	0.204	-0.093
-135.399	-37.867	-0.195	0.103
-134.385	-200.000	0.064	0.461
-133.370	89.361	-0.201	-0.222
-132.356	-69.942	-0.227	0.086
-131.341	-57.191	0.255	-0.111
-130.326	800.000	0.064	0.254
-129.312	146.998	0.042	-0.056
-128.297	-92.471	0.123	-0.034
-127.283	372.535	-0.113	0.229
-126.268	169.354	0.139	-0.197
-125.253	212.759	-0.117	-0.184
-124.239	-57.782	0.190	-0.083
-123.224	385.361	-0.100	0.205
-122.210	624.049	-0.053	-0.133
-121.195	-200.000	-0.056	0.276
