DTS Sentinel unit serial number:	SN413079Multiplexer serial number:	ORYXHardware model number:	OX4-SRSoftware version number:	ORYX F/W v4.00 Oryx Data Collector v3.7.2.0data status	okinstallation	princeton_trtdifferential loss correction	single-endedforward channel	channel 2reverse channel	N/Adate	2019/09/12time	19:05:48forward acquisition time	15.00reverse acquisition time	0.00gamma	496.2192k internal	0.2325k external	0.2325temperature offset calibration	1.0133default loss term (dB/km)	0.3790temperature slope calibration	1.0000multiplexer offset coefficient	1.0000multiplexer slope coefficient	1.0000fibre end	0.00T internal ref (°C)	32.69T ext. ref 1 (°C)	3.05T ext. ref 2 (°C)	27.17length (m)	temperature (°C)	Stokes	anti-Stokes-747.200	88.623	-0.072	0.081
-746.185	-154.866	-1.017	-0.068
-745.171	-122.995	0.355	-0.058
-744.156	800.000	0.030	0.086
-743.142	-110.998	-0.892	0.185
-742.127	-200.000	-0.136	-0.702
-741.112	-2.274	0.361	0.256
-740.098	-24.794	-0.371	-0.222
-739.083	-69.937	-0.624	0.240
-738.069	-136.305	-0.238	-0.028
-737.054	-6.332	0.130	0.089
-736.039	800.000	-0.244	0.750
-735.025	123.244	-0.170	0.215
-734.010	-132.295	-0.609	-0.079
-732.996	192.907	-0.134	0.204
-731.981	-138.626	0.510	-0.056
-730.966	-2.385	0.541	-0.382
-729.952	-171.570	-1.086	0.036
-728.937	-200.000	0.013	0.264
-727.923	800.000	-0.109	0.408
-726.908	-92.722	-0.189	0.053
-725.894	-200.000	-0.047	-0.723
-724.879	67.714	-0.224	0.231
-723.864	45.630	0.690	-0.643
-722.850	146.636	0.155	-0.210
-721.835	-40.936	0.099	0.051
-720.821	-47.902	0.520	-0.254
-719.806	-200.000	-0.006	0.514
-718.791	-200.000	0.059	0.570
-717.777	-96.141	-0.525	0.140
-716.762	80.621	0.286	-0.311
-715.748	-118.725	0.403	-0.072
-714.733	-14.504	-0.163	0.106
-713.718	288.121	-0.207	0.377
-712.704	150.125	0.446	-0.610
-711.689	800.000	0.139	-0.557
-710.675	-181.474	0.392	-0.008
-709.660	800.000	-0.028	0.107
-708.645	26.885	0.052	-0.044
-707.631	-200.000	0.127	-0.917
-706.616	80.253	0.292	-0.317
-705.602	-52.808	-0.376	-0.175
-704.587	87.174	-0.569	0.634
-703.572	42.332	0.375	-0.343
-702.558	800.000	-0.055	-0.221
-701.543	800.000	0.294	-0.992
-700.529	800.000	-0.193	0.608
-699.514	74.599	-0.124	-0.131
-698.499	306.029	-0.171	0.320
-697.485	-175.591	0.463	-0.013
-696.470	-92.905	-1.015	0.286
-695.456	-158.303	0.308	-0.018
-694.441	-41.592	0.696	-0.360
-693.426	-200.000	-0.043	-0.322
-692.412	-42.596	-0.073	0.038
-691.397	-200.000	0.095	-0.581
-690.383	800.000	-0.064	-0.203
-689.368	31.926	-0.181	0.157
-688.354	-33.214	0.502	0.280
-687.339	321.821	-0.393	-0.753
-686.324	68.590	-0.545	-0.563
-685.310	-200.000	0.137	-0.703
-684.295	-105.479	0.372	-0.085
-683.281	-200.000	0.105	0.530
-682.266	-120.359	-0.264	0.045
-681.251	1.133	0.280	0.202
-680.237	800.000	0.249	-1.029
-679.222	-200.000	0.176	-0.819
-678.208	50.339	-0.711	-0.676
-677.193	231.357	0.239	0.395
-676.178	47.871	0.667	0.626
-675.164	-35.297	-0.096	0.052
-674.149	681.225	-0.123	-0.322
-673.135	-200.000	0.045	0.761
-672.120	206.607	0.213	-0.334
-671.105	-34.332	-0.131	-0.072
-670.091	-200.000	-0.190	-1.187
-669.076	-60.125	-0.598	-0.257
-668.062	800.000	-0.100	-0.398
-667.047	-200.000	0.238	-1.109
-666.032	766.244	0.121	-0.331
-665.018	214.723	0.110	0.176
-664.003	-134.213	-0.545	0.068
-662.989	-149.926	0.257	-0.020
-661.974	800.000	0.186	-0.726
-660.959	228.583	-0.242	-0.397
-659.945	768.945	-0.127	-0.348
-658.930	139.328	0.268	0.354
-657.916	-98.301	0.823	-0.212
-656.901	-114.727	-0.183	-0.035
-655.886	371.047	-0.336	0.685
-654.872	718.269	0.071	-0.190
-653.857	800.000	-0.131	-0.386
-652.843	528.381	-0.171	0.407
-651.828	210.500	-0.043	0.067
-650.814	89.463	-0.926	-1.038
-649.799	-58.855	0.287	0.125
-648.784	76.772	-0.141	0.150
-647.770	20.859	-0.229	-0.187
-646.755	-1.091	0.283	0.202
-645.741	93.989	-0.081	-0.093
-644.726	94.142	-0.490	-0.559
-643.711	325.761	0.527	-1.013
-642.697	-200.000	-0.079	0.651
-641.682	69.966	-0.317	-0.329
-640.668	-89.840	-0.863	-0.253
-639.653	-37.312	0.387	0.208
-638.638	281.777	-0.078	-0.141
-637.624	13.443	0.115	-0.090
-636.609	124.434	0.445	0.562
-635.595	-84.389	0.133	0.042
-634.580	35.994	-0.352	0.311
-633.565	-200.000	0.002	-0.136
-632.551	-90.373	-0.487	0.142
-631.536	-200.000	0.183	-0.914
-630.522	35.538	0.804	-0.709
-629.507	-200.000	0.243	-0.001
-628.492	201.377	0.242	0.374
-627.478	142.004	-0.219	-0.291
-626.463	69.515	0.391	0.404
-625.449	544.894	0.048	0.116
-624.434	110.373	-0.077	-0.093
-623.419	-101.959	-0.247	0.060
-622.405	-200.000	-0.044	-0.675
-621.390	40.515	-0.279	-0.253
-620.376	-111.702	-0.709	-0.144
-619.361	800.000	-0.073	0.259
-618.346	122.603	0.219	0.274
-617.332	86.008	0.246	-0.272
-616.317	-200.000	0.038	-0.186
-615.303	-29.264	0.326	0.187
-614.288	35.032	0.314	-0.276
-613.273	-19.141	-0.218	-0.136
-612.259	-130.548	0.351	-0.048
-611.244	-57.162	0.748	-0.331
-610.230	455.647	0.228	0.508
-609.215	-31.242	0.526	-0.298
-608.201	-16.021	-0.562	-0.359
-607.186	-200.000	0.029	0.215
-606.171	-200.000	-0.039	-0.408
-605.157	-94.526	0.498	-0.136
-604.142	-130.164	-0.198	-0.027
-603.128	-40.732	0.614	-0.319
-602.113	-110.989	0.478	-0.099
-601.098	-9.251	0.742	0.497
-600.084	-73.028	-0.728	-0.268
-599.069	235.160	-0.507	0.840
-598.055	685.428	-0.166	0.436
-597.040	-76.308	0.560	-0.198
-596.025	477.403	-0.276	0.625
-595.011	-34.751	-0.489	0.268
-593.996	800.000	0.157	-0.519
-592.982	-130.027	0.416	0.057
-591.967	91.156	0.128	0.144
-590.952	-1.620	-0.250	0.177
-589.938	-97.154	0.291	-0.076
-588.923	283.414	-0.305	-0.550
-587.909	-88.520	0.671	0.201
-586.894	211.035	0.326	0.514
-585.879	-10.875	-0.549	0.364
-584.865	-14.849	0.702	-0.452
-583.850	139.891	0.165	-0.218
-582.836	-151.678	0.511	0.038
-581.821	519.835	-0.073	-0.171
-580.806	-200.000	0.069	0.475
-579.792	-9.652	0.658	0.440
-578.777	800.000	-0.135	0.413
-577.763	263.439	-0.170	-0.296
-576.748	-109.502	-0.617	-0.131
-575.733	187.996	-0.128	0.192
-574.719	800.000	0.051	0.205
-573.704	-29.858	0.613	-0.350
-572.690	-114.030	-0.293	-0.057
-571.675	184.600	-0.139	-0.206
-570.661	-200.000	-0.162	1.031
-569.646	13.088	0.691	0.536
-568.631	-200.000	0.199	-0.919
-567.617	127.385	-0.097	-0.123
-566.602	-138.654	0.494	0.054
-565.588	438.888	0.223	0.487
-564.573	-200.000	-0.002	-0.790
-563.558	-166.315	0.725	-0.031
-562.544	662.848	0.112	-0.289
-561.529	-112.903	-0.346	-0.069
-560.515	185.614	-0.246	0.366
-559.500	232.414	0.717	1.180
-558.485	800.000	0.119	-0.397
-557.471	-127.521	0.962	-0.140
-556.456	753.255	0.210	0.567
-555.442	-50.702	0.294	-0.139
-554.427	-120.052	-0.631	0.108
-553.412	794.371	0.109	-0.302
-552.398	-200.000	-0.032	0.863
-551.383	800.000	-0.152	0.437
-550.369	92.970	0.674	-0.762
-549.354	-200.000	0.085	-0.667
-548.339	-200.000	-0.055	0.270
-547.325	110.060	-0.192	0.231
-546.310	-182.359	-1.270	-0.024
-545.296	190.760	0.462	-0.696
-544.281	639.189	0.210	0.534
-543.266	197.646	-0.261	0.399
-542.252	-200.000	0.026	-0.668
-541.237	76.682	0.261	0.277
-540.223	-19.714	-0.299	-0.185
-539.208	-28.322	0.257	-0.149
-538.193	54.274	-0.612	-0.590
-537.179	17.297	0.242	0.192
-536.164	-65.437	-0.765	0.308
-535.150	46.650	0.214	-0.199
-534.135	-200.000	0.068	-1.173
-533.121	-13.694	-0.724	-0.469
-532.106	12.922	-0.328	-0.254
-531.091	374.790	-0.331	-0.674
-530.077	460.908	0.208	0.463
-529.062	-51.088	0.674	-0.316
-528.048	-66.558	-0.288	0.114
-527.033	800.000	0.132	-0.377
-526.018	-200.000	-0.154	1.065
-525.004	800.000	0.057	0.179
-523.989	-26.735	-0.584	-0.342
-522.975	170.537	-0.443	-0.635
-521.960	-75.853	-0.531	-0.188
-520.945	748.179	0.207	-0.559
-519.931	126.576	-0.385	-0.488
-518.916	426.486	-0.151	0.325
-517.902	222.287	0.056	0.090
-516.887	732.440	-0.261	-0.698
-515.872	-125.255	-0.140	0.021
-514.858	58.194	-0.609	-0.597
-513.843	98.571	-0.782	-0.901
-512.829	658.139	0.196	-0.504
-511.814	259.115	0.456	0.786
-510.799	-200.000	-0.009	-0.549
-509.785	527.841	0.114	-0.268
-508.770	-57.056	0.612	0.270
-507.756	-13.717	-0.211	-0.136
-506.741	-127.589	0.730	-0.106
-505.726	139.457	0.346	0.455
-504.712	800.000	0.032	-0.094
-503.697	26.898	0.239	-0.200
-502.683	377.266	-0.107	-0.219
-501.668	-200.000	0.094	0.674
-500.653	800.000	-0.161	0.686
-499.639	100.435	-0.351	-0.408
-498.624	-123.074	0.193	-0.031
-497.610	587.708	-0.170	0.419
-496.595	-200.000	-0.065	0.518
-495.581	30.430	0.397	0.339
-494.566	-30.428	0.156	-0.088
-493.551	-200.000	0.095	0.628
-492.537	131.995	0.546	0.702
-491.522	800.000	-0.129	0.478
-490.508	-98.711	-0.848	-0.216
-489.493	-148.161	0.683	-0.056
-488.478	304.854	0.471	0.874
-487.464	-90.387	-0.308	-0.089
-486.449	-147.808	-0.296	0.025
-485.435	-33.368	-0.609	-0.336
-484.420	48.935	0.024	0.022
-483.405	-42.708	0.496	-0.252
-482.391	800.000	-0.227	-0.683
-481.376	-99.564	0.475	-0.119
-480.362	-170.626	1.137	-0.039
-479.347	224.179	-0.282	0.455
-478.332	-61.210	0.341	0.144
-477.318	-200.000	0.134	0.633
-476.303	178.677	-0.210	-0.306
-475.289	185.795	-0.386	0.573
-474.274	800.000	0.026	-0.104
-473.259	254.600	-0.431	0.736
-472.245	800.000	-0.223	-0.798
-471.230	577.675	-0.247	0.602
-470.216	257.903	-0.268	0.460
-469.201	18.961	-0.615	0.492
-468.186	209.423	-0.450	-0.704
-467.172	116.768	0.421	-0.515
-466.157	-200.000	-0.042	0.304
-465.143	-200.000	-0.012	0.279
-464.128	-106.042	0.465	-0.104
-463.113	-146.820	-0.388	-0.033
-462.099	224.195	-0.184	0.296
-461.084	-92.415	0.136	0.038
-460.070	-115.284	-1.174	0.221
-459.055	-125.347	-0.196	0.030
-458.040	800.000	0.150	-0.609
-457.026	-200.000	-0.007	-0.165
-456.011	800.000	0.141	0.482
-454.997	472.553	0.126	-0.283
-453.982	51.165	0.045	-0.043
-452.968	-75.884	0.904	-0.319
-451.953	-85.299	0.517	-0.161
-450.938	0.316	0.670	0.477
-449.924	-200.000	-0.006	0.179
-448.909	-135.172	0.619	0.074
-447.895	-27.067	0.163	-0.095
-446.880	-200.000	0.035	0.447
-445.865	-126.766	0.684	-0.101
-444.851	-200.000	0.028	0.508
-443.836	-37.902	-0.492	0.261
-442.822	47.902	0.450	-0.420
-441.807	133.759	-0.187	-0.241
-440.792	-151.639	-0.613	-0.045
-439.778	-144.585	0.416	-0.038
-438.763	-14.058	-0.498	-0.320
-437.749	19.332	1.103	-0.883
-436.734	109.963	-0.604	-0.723
-435.719	-200.000	-0.068	0.605
-434.705	-71.209	0.225	0.084
-433.690	800.000	-0.241	0.743
-432.676	16.756	-0.730	0.576
-431.661	-12.608	-0.872	0.567
-430.646	-200.000	0.177	1.055
-429.632	-48.843	-0.537	-0.256
-428.617	-59.862	0.258	-0.110
-427.603	96.760	-0.299	0.342
-426.588	155.936	-0.255	-0.350
-425.573	-200.000	-0.024	-0.378
-424.559	-78.295	-0.234	0.080
-423.544	209.712	-0.090	0.140
-422.530	120.228	0.210	-0.260
-421.515	-84.580	0.512	0.161
-420.500	800.000	-0.138	0.478
-419.486	70.037	0.485	-0.499
-418.471	42.996	-0.560	0.508
-417.457	186.507	-0.463	-0.686
-416.442	-29.388	0.660	-0.376
-415.428	18.948	0.352	0.281
-414.413	-60.929	-0.429	-0.181
-413.398	137.403	0.660	0.860
-412.384	-165.140	0.464	0.020
-411.369	644.730	-0.267	0.679
-410.355	24.935	0.396	0.327
-409.340	134.373	0.521	0.673
-408.325	163.872	-0.105	0.147
-407.311	-72.509	-0.267	0.098
-406.296	-27.990	0.625	0.360
-405.282	-200.000	-0.016	-0.449
-404.267	56.613	-0.180	0.174
-403.252	369.770	0.216	-0.436
-402.238	-71.068	0.548	0.205
-401.223	424.602	-0.276	0.592
-400.209	81.095	0.373	0.401
-399.194	-200.000	-0.134	-0.683
-398.179	800.000	-0.041	-0.125
-397.165	153.188	-0.258	0.352
-396.150	72.221	-0.476	-0.494
-395.136	-200.000	0.005	0.876
-394.121	-31.978	-0.287	-0.160
-393.106	10.148	-0.090	0.068
-392.092	3.445	-0.314	-0.228
-391.077	157.290	-0.082	0.113
-390.063	-24.177	0.763	-0.453
-389.048	800.000	0.223	0.750
-388.033	-200.000	-0.021	0.392
-387.019	369.952	0.171	-0.344
-386.004	35.293	0.108	0.094
-384.990	56.089	0.892	0.861
-383.975	-122.477	0.411	0.067
-382.960	-130.588	1.050	0.141
-381.946	95.544	-0.606	-0.687
-380.931	75.353	0.362	0.380
-379.917	-122.974	0.563	-0.090
-378.902	-65.327	0.146	-0.058
-377.888	-17.913	-0.791	-0.493
-376.873	-42.756	-0.882	-0.446
-375.858	-26.505	0.349	0.203
-374.844	75.943	-0.647	-0.681
-373.829	-200.000	-0.022	-0.222
-372.815	-103.069	-0.433	-0.102
-371.800	-194.306	0.338	-0.003
-370.785	-41.913	-0.480	0.244
-369.771	62.348	-0.603	-0.598
-368.756	20.756	-0.533	-0.429
-367.742	-200.000	-0.060	0.720
-366.727	-200.000	-0.007	0.211
-365.712	-60.157	-0.471	-0.200
-364.698	800.000	0.172	-0.573
-363.683	65.000	0.508	-0.510
-362.669	-9.185	-0.068	-0.045
-361.654	30.860	0.325	-0.277
-360.639	-118.220	-0.476	0.084
-359.625	572.405	0.166	0.401
-358.610	351.332	-0.174	-0.342
-357.596	-200.000	-0.005	-0.044
-356.581	154.559	0.596	0.814
-355.566	-200.000	-0.062	-0.304
-354.552	-200.000	-0.059	0.427
-353.537	-200.000	-0.033	0.328
-352.523	149.251	0.136	0.183
-351.508	-200.000	-0.064	-0.997
-350.493	-42.428	-0.756	-0.383
-349.479	-200.000	-0.037	0.533
-348.464	312.724	0.230	-0.429
-347.450	220.170	0.585	0.932
-346.435	-200.000	-0.106	0.598
-345.420	144.276	0.100	0.132
-344.406	171.432	-0.408	-0.582
-343.391	-37.788	0.612	-0.323
-342.377	-83.122	-1.081	-0.346
-341.362	-157.801	0.797	-0.047
-340.348	252.937	0.415	0.703
-339.333	-117.530	-0.499	-0.090
-338.318	-26.038	0.468	-0.273
-337.304	-130.007	-0.821	-0.112
-336.289	128.664	0.451	-0.570
-335.275	-57.829	0.739	0.321
-334.260	114.491	-0.437	0.529
-333.245	118.007	-0.339	0.414
-332.231	149.529	0.283	-0.380
-331.216	-1.939	-0.260	0.182
-330.202	-126.319	0.833	0.123
-329.187	-200.000	0.095	0.538
-328.172	-200.000	0.081	-0.387
-327.158	800.000	0.172	-0.591
-326.143	394.867	0.088	0.183
-325.129	291.722	-0.494	0.892
-324.114	-94.366	-0.295	0.080
-323.099	-173.291	0.453	0.014
-322.085	12.234	-0.556	0.425
-321.070	800.000	0.062	0.208
-320.056	419.150	-0.269	-0.572
-319.041	800.000	0.084	0.262
-318.026	129.376	0.487	-0.617
-317.012	84.833	-0.207	0.225
-315.997	330.187	0.277	-0.529
-314.983	-51.500	0.398	-0.185
-313.968	-128.199	-0.734	-0.104
-312.953	-2.104	-0.663	-0.462
-311.939	800.000	0.073	0.216
-310.924	19.317	0.130	-0.103
-309.910	800.000	0.095	0.303
-308.895	-114.331	-0.787	-0.150
-307.880	66.093	0.473	-0.476
-306.866	-200.000	0.100	0.739
-305.851	-200.000	-0.056	0.324
-304.837	31.826	0.220	0.188
-303.822	-32.120	0.294	-0.163
-302.807	158.445	-0.170	0.235
-301.793	368.076	-0.701	1.404
-300.778	-24.742	0.383	-0.226
-299.764	-75.713	0.394	0.139
-298.749	-24.567	-0.759	0.448
-297.735	-56.703	0.373	-0.164
-296.720	539.085	-0.238	0.561
-295.705	-200.000	-0.187	-0.940
-294.691	508.187	-0.216	-0.498
-293.676	-80.429	0.552	0.183
-292.662	-22.933	-0.849	-0.508
-291.647	-131.569	0.422	0.055
-290.632	-32.327	-0.146	-0.081
-289.618	8.247	0.346	-0.258
-288.603	-173.713	0.261	-0.008
-287.589	-200.000	0.008	0.657
-286.574	-56.043	0.234	-0.103
-285.559	79.913	-0.591	-0.629
-284.545	-101.776	-0.643	-0.154
-283.530	-118.076	-0.064	0.011
-282.516	-200.000	-0.033	-0.616
-281.501	-15.602	-0.665	0.420
-280.486	99.714	0.261	-0.299
-279.472	-137.713	0.729	0.081
-278.457	-7.623	0.580	0.388
-277.443	511.829	-0.242	0.558
-276.428	-97.834	-0.421	-0.108
-275.413	105.462	0.569	-0.666
-274.399	-200.000	0.075	0.391
-273.384	-200.000	-0.222	1.038
-272.370	-200.000	0.064	0.488
-271.355	357.786	-0.191	-0.377
-270.340	264.773	-0.158	0.272
-269.326	-78.154	-0.285	0.097
-268.311	-141.114	0.756	-0.077
-267.297	-92.970	-1.205	-0.333
-266.282	-200.000	-0.034	0.178
-265.267	-169.806	0.343	0.012
-264.253	-120.779	0.866	-0.145
-263.238	-9.125	-0.793	0.526
-262.224	116.968	0.407	0.495
-261.209	-200.000	0.030	-0.228
-260.195	-73.007	0.307	-0.112
-259.180	222.363	-0.100	-0.159
-258.165	-44.757	0.707	-0.349
-257.151	-200.000	0.124	0.565
-256.136	800.000	-0.317	-0.921
-255.122	300.145	-0.281	-0.513
-254.107	16.465	-1.427	1.115
-253.092	-125.077	-0.426	0.065
-252.078	-136.744	-0.442	0.050
-251.063	-200.000	-0.020	0.330
-250.049	-94.660	0.387	-0.104
-249.034	653.562	0.157	0.398
-248.019	-64.939	-0.542	0.217
-247.005	-10.831	-0.377	-0.246
-245.990	-95.398	0.119	-0.032
-244.976	238.995	0.268	-0.441
-243.961	-148.903	-0.936	-0.075
-242.946	-200.000	0.067	-0.453
-241.932	-136.654	0.499	0.057
-240.917	333.918	-0.387	-0.740
-239.903	42.766	0.287	-0.258
-238.888	134.380	-0.147	0.189
-237.873	-156.569	0.216	0.013
-236.859	-105.494	-0.726	0.163
-235.844	-132.886	-0.805	0.102
-234.830	-134.908	-0.695	-0.083
-233.815	-22.628	0.118	-0.070
-232.800	-114.627	0.514	0.097
-231.786	410.642	-0.415	-0.871
-230.771	-115.362	-0.932	0.174
-229.757	24.372	0.525	-0.429
-228.742	-14.161	-0.698	0.445
-227.727	-98.094	0.480	0.122
-226.713	800.000	0.228	-0.940
-225.698	395.576	-0.101	-0.209
-224.684	-200.000	-0.016	-0.092
-223.669	332.594	-0.212	0.404
-222.655	279.869	-0.179	-0.316
-221.640	-200.000	-0.015	-0.244
-220.625	64.969	-0.611	0.610
-219.611	109.238	0.108	0.128
-218.596	16.980	-0.338	0.265
-217.582	-200.000	0.046	-0.765
-216.567	-73.135	-0.930	0.337
-215.552	-200.000	0.008	0.396
-214.538	-88.463	1.109	0.327
-213.523	420.561	-0.221	0.468
-212.509	-90.801	-0.390	0.111
-211.494	-76.818	0.583	-0.202
-210.479	-131.789	-0.208	0.027
-209.465	355.697	0.238	-0.468
-208.450	800.000	0.356	1.371
-207.436	-200.000	0.121	-0.975
-206.421	-32.303	0.195	-0.107
-205.406	800.000	0.074	-0.232
-204.392	-24.822	-0.449	0.264
-203.377	176.272	0.355	0.509
-202.363	-163.610	0.628	0.029
-201.348	108.084	0.259	0.305
-200.333	-200.000	0.064	-0.599
-199.319	40.054	0.480	0.426
-198.304	-200.000	-0.008	-0.267
-197.290	49.704	-0.458	-0.426
-196.275	-129.548	-0.254	-0.035
-195.260	-105.390	-0.918	-0.206
-194.246	189.060	0.436	-0.645
-193.231	276.503	0.316	-0.555
-192.217	69.118	-0.597	-0.606
-191.202	29.676	-0.492	0.414
-190.187	-154.733	-0.675	-0.044
-189.173	183.079	-0.227	-0.331
-188.158	-108.744	0.544	0.115
-187.144	363.177	-0.237	-0.470
-186.129	-200.000	-0.059	-0.837
-185.114	-99.329	0.667	-0.166
-184.100	182.353	0.135	0.196
-183.085	-112.879	0.512	0.100
-182.071	-56.579	-0.991	0.434
-181.056	-107.526	0.752	0.163
-180.042	278.125	0.270	0.474
-179.027	-51.193	-0.196	-0.091
-178.012	-200.000	0.107	-1.025
-176.998	152.975	-0.216	0.291
-175.983	-108.905	1.219	-0.257
-174.969	-130.976	0.441	0.058
-173.954	176.980	0.333	-0.478
-172.939	758.567	0.148	0.397
-171.925	344.240	0.392	0.759
-170.910	-41.815	-0.664	0.336
-169.896	33.346	0.113	0.097
-168.881	800.000	-0.130	0.386
-167.866	288.862	-0.218	0.389
-166.852	82.166	-0.423	-0.453
-165.837	-117.447	-0.897	0.160
-164.823	-36.305	-0.674	0.358
-163.808	77.892	-0.637	-0.670
-162.793	-185.554	0.255	0.004
-161.779	146.818	0.347	0.461
-160.764	800.000	-0.175	-0.624
-159.750	286.259	0.145	-0.257
-158.735	-200.000	0.084	-0.605
-157.720	-8.874	0.652	0.431
-156.706	-200.000	-0.098	-0.693
-155.691	-67.666	0.117	0.045
-154.677	135.431	-0.115	-0.147
-153.662	126.092	0.417	0.520
-152.647	-12.980	-0.276	-0.177
-151.633	-200.000	0.014	-0.164
-150.618	-32.586	-0.324	0.178
-149.604	800.000	0.227	0.782
-148.589	-44.335	-0.423	-0.209
-147.574	286.787	-0.195	0.347
-146.560	345.268	0.267	-0.517
-145.545	-200.000	0.087	-0.660
-144.531	-139.562	0.478	-0.050
-143.516	800.000	0.173	-0.579
-142.502	244.894	0.290	0.480
-141.487	-173.171	0.165	-0.005
-140.472	-129.640	1.143	0.156
-139.458	-200.000	-0.026	0.264
-138.443	-87.113	-0.656	0.197
-137.429	-200.000	0.174	1.009
-136.414	-48.392	0.404	-0.192
-135.399	626.547	-0.079	-0.197
-134.385	-200.000	0.008	-0.439
-133.370	800.000	-0.060	-0.227
-132.356	-146.507	-0.412	0.035
-131.341	513.863	0.169	0.389
-130.326	-200.000	0.065	-0.982
-129.312	-200.000	0.004	0.118
-128.297	800.000	-0.026	-0.099
-127.283	53.572	0.692	-0.654
-126.268	187.511	-0.176	-0.258
-125.253	-160.425	-0.284	0.015
-124.239	-200.000	0.114	0.937
-123.224	534.407	-0.263	0.613
-122.210	-24.711	-0.526	0.308
