DTS Sentinel unit serial number:	SN413079Multiplexer serial number:	ORYXHardware model number:	OX4-SRSoftware version number:	ORYX F/W v4.00 Oryx Data Collector v3.7.2.0data status	okinstallation	princeton_trtdifferential loss correction	single-endedforward channel	channel 2reverse channel	N/Adate	2019/09/15time	12:55:34forward acquisition time	60.00reverse acquisition time	0.00gamma	496.2192k internal	0.2310k external	0.2310temperature offset calibration	1.0007default loss term (dB/km)	0.3790temperature slope calibration	1.0000multiplexer offset coefficient	1.0000multiplexer slope coefficient	1.0000fibre end	0.00T internal ref (°C)	36.23T ext. ref 1 (°C)	5.01T ext. ref 2 (°C)	34.19length (m)	temperature (°C)	Stokes	anti-Stokes-747.200	13.703	-0.362	0.286
-746.185	-200.000	-0.028	0.199
-745.171	800.000	-0.035	0.103
-744.156	6.007	-0.077	0.058
-743.142	-138.786	-0.172	-0.019
-742.127	800.000	-0.125	0.464
-741.112	-200.000	0.014	0.194
-740.098	-200.000	-0.033	0.179
-739.083	800.000	0.084	0.252
-738.069	-126.762	-0.298	0.045
-737.054	36.635	0.194	-0.174
-736.039	-72.118	-0.140	0.053
-735.025	155.102	0.192	0.269
-734.010	-200.000	0.011	0.235
-732.996	-95.761	-0.205	-0.056
-731.981	6.013	0.083	0.062
-730.966	351.101	-0.083	0.168
-729.952	-139.790	0.144	0.016
-728.937	-166.579	-0.445	0.019
-727.923	-48.545	-0.312	-0.152
-726.908	-188.962	-0.179	0.002
-725.894	-46.846	-0.336	-0.167
-724.879	90.873	-0.200	-0.228
-723.864	93.624	0.231	0.265
-722.850	-32.305	-0.399	0.226
-721.835	194.445	0.160	-0.246
-720.821	-200.000	0.022	0.215
-719.806	20.740	-0.108	0.088
-718.791	-200.000	0.032	-0.279
-717.777	-64.995	0.061	-0.025
-716.762	587.549	0.061	-0.152
-715.748	73.856	-0.040	-0.043
-714.733	247.034	0.266	0.456
-713.718	-60.925	-0.304	0.131
-712.704	800.000	0.062	0.273
-711.689	-200.000	-0.024	-0.111
-710.675	-147.287	-0.057	-0.005
-709.660	-200.000	0.114	0.000
-708.645	-200.000	0.019	-0.293
-707.631	-200.000	-0.018	-0.285
-706.616	280.289	0.200	-0.362
-705.602	-106.122	-0.164	0.037
-704.587	-200.000	0.008	0.264
-703.572	-42.076	0.139	-0.072
-702.558	800.000	-0.060	0.178
-701.543	-66.040	0.109	-0.044
-700.529	800.000	-0.076	0.252
-699.514	-67.142	-0.086	-0.034
-698.499	-29.130	-0.112	0.065
-697.485	319.993	0.105	0.202
-696.470	-23.259	-0.057	-0.035
-695.456	-200.000	-0.001	-0.368
-694.441	-200.000	-0.033	-0.208
-693.426	-200.000	0.038	-0.261
-692.412	-39.403	0.220	-0.117
-691.397	511.897	-0.017	-0.040
-690.383	-200.000	-0.000	-0.090
-689.368	-131.173	-0.136	-0.018
-688.354	41.049	-0.082	0.075
-687.339	800.000	0.021	-0.072
-686.324	-200.000	0.030	0.313
-685.310	-160.329	-0.343	-0.019
-684.295	-200.000	0.008	-0.081
-683.281	254.398	-0.129	0.223
-682.266	29.262	-0.382	-0.329
-681.251	-77.789	-0.230	0.080
-680.237	800.000	-0.119	-0.415
-679.222	184.487	0.148	0.222
-678.208	30.395	-0.128	-0.111
-677.193	70.677	0.060	0.063
-676.178	-76.601	-0.377	0.134
-675.164	28.823	-0.211	-0.181
-674.149	8.125	-0.256	0.195
-673.135	228.171	-0.203	0.334
-672.120	67.798	0.279	-0.289
-671.105	-123.394	-0.018	0.003
-670.091	383.358	0.041	0.086
-669.076	-101.670	0.197	-0.048
-668.062	558.430	0.187	-0.456
-667.047	-200.000	-0.013	-0.202
-666.032	598.866	-0.024	0.060
-665.018	-200.000	0.011	0.200
-664.003	-64.429	-0.038	0.016
-662.989	-16.755	-0.387	-0.248
-661.974	-200.000	-0.049	-0.304
-660.959	303.191	0.125	-0.234
-659.945	9.264	-0.125	0.096
-658.930	-160.174	-0.041	-0.002
-657.916	-23.560	-0.286	-0.174
-656.901	113.896	-0.238	0.293
-655.886	-120.260	-0.045	-0.008
-654.872	-112.317	0.198	0.040
-653.857	-60.887	-0.393	-0.168
-652.843	-33.707	0.131	-0.073
-651.828	202.532	0.062	-0.097
-650.814	800.000	-0.077	0.232
-649.799	-119.239	-0.088	-0.016
-648.784	69.539	-0.212	-0.221
-647.770	8.239	-0.109	0.083
-646.755	107.884	-0.063	0.076
-645.741	15.001	0.185	-0.147
-644.726	-63.561	-0.130	-0.054
-643.711	135.301	0.105	-0.138
-642.697	-200.000	-0.018	0.192
-641.682	269.889	-0.144	-0.257
-640.668	-135.674	0.308	-0.037
-639.653	796.362	0.089	-0.248
-638.638	302.688	0.045	-0.084
-637.624	15.072	0.088	0.070
-636.609	-124.859	0.163	0.025
-635.595	-76.238	-0.242	0.086
-634.580	800.000	0.049	-0.184
-633.565	-108.939	-0.240	0.052
-632.551	-23.889	-0.286	-0.173
-631.536	-200.000	-0.003	0.231
-630.522	-24.479	0.155	-0.093
-629.507	354.979	-0.137	0.276
-628.492	-13.532	0.173	-0.113
-627.478	800.000	0.075	-0.301
-626.463	-26.730	-0.315	-0.186
-625.449	384.402	-0.064	-0.132
-624.434	-200.000	-0.045	-0.278
-623.419	-121.887	0.095	-0.016
-622.405	-7.513	0.074	0.051
-621.390	160.645	0.165	-0.233
-620.376	-15.211	-0.179	0.116
-619.361	-71.038	-0.116	-0.044
-618.346	89.559	0.094	-0.107
-617.332	-36.227	0.037	-0.020
-616.317	-200.000	0.004	0.204
-615.303	-133.730	0.437	0.055
-614.288	489.613	-0.290	-0.669
-613.273	-102.180	-0.104	-0.025
-612.259	-99.681	-0.220	-0.056
-611.244	-142.013	-0.191	0.019
-610.230	-189.175	-0.095	0.001
-609.215	800.000	0.046	-0.161
-608.201	47.744	-0.120	0.114
-607.186	13.962	0.258	-0.202
-606.171	-200.000	0.006	-0.097
-605.157	-0.088	-0.111	0.080
-604.142	-51.270	0.234	0.111
-603.128	339.529	-0.017	-0.033
-602.113	45.102	0.142	0.132
-601.098	117.021	-0.054	0.068
-600.084	-4.843	-0.279	-0.194
-599.069	33.657	0.182	-0.160
-598.055	-40.658	-0.027	0.014
-597.040	-81.564	-0.238	-0.079
-596.025	-99.615	0.206	0.052
-595.011	-59.642	0.297	-0.129
-593.996	-200.000	0.000	0.184
-592.982	-36.281	-0.100	0.055
-591.967	-53.202	-0.254	-0.118
-590.952	-126.733	0.155	-0.023
-589.938	50.117	-0.130	0.124
-588.923	-200.000	-0.008	-0.191
-587.909	138.743	0.171	0.227
-586.894	-78.183	0.222	0.077
-585.879	-171.499	0.165	-0.006
-584.865	-8.665	-0.228	-0.155
-583.850	121.120	-0.088	0.111
-582.836	339.602	-0.104	-0.204
-581.821	219.396	-0.138	-0.223
-580.806	-200.000	-0.048	0.309
-579.792	67.569	0.066	0.068
-578.777	57.164	0.275	0.271
-577.763	-22.780	-0.276	0.168
-576.748	-200.000	0.052	0.249
-575.733	-200.000	0.085	-0.434
-574.719	-200.000	0.011	0.065
-573.704	-6.112	-0.241	0.166
-572.690	265.429	-0.135	-0.238
-571.675	298.195	0.115	-0.214
-570.661	174.660	-0.157	-0.229
-569.646	800.000	0.044	-0.131
-568.631	33.764	-0.257	-0.225
-567.617	-54.572	0.163	-0.074
-566.602	89.097	-0.102	-0.115
-565.588	17.868	-0.233	0.187
-564.573	43.898	0.096	-0.089
-563.558	227.573	-0.026	0.042
-562.544	-200.000	-0.038	-0.483
-561.529	348.004	-0.128	-0.255
-560.515	182.057	-0.208	-0.309
-559.500	-139.034	0.401	-0.044
-558.485	270.985	0.147	0.262
-557.471	29.189	-0.050	0.043
-556.456	-120.527	-0.477	0.082
-555.442	53.863	-0.235	-0.228
-554.427	246.951	-0.063	0.107
-553.412	93.170	-0.089	-0.102
-552.398	40.266	0.165	0.150
-551.383	-200.000	-0.009	-0.498
-550.369	96.592	0.081	-0.094
-549.354	418.036	0.070	-0.151
-548.339	800.000	0.084	0.236
-547.325	-125.989	0.122	-0.018
-546.310	-51.824	-0.219	0.103
-545.296	-200.000	-0.028	-0.259
-544.281	31.583	0.167	0.144
-543.266	-200.000	-0.001	-0.188
-542.252	93.353	0.028	-0.032
-541.237	-54.596	0.393	-0.179
-540.223	490.264	0.068	-0.156
-539.208	151.200	0.214	-0.293
-538.193	-81.421	0.326	-0.108
-537.179	-59.989	0.455	-0.196
-536.164	489.025	0.124	0.285
-535.150	232.821	0.104	-0.172
-534.135	-200.000	-0.004	0.172
-533.121	800.000	0.055	-0.230
-532.106	800.000	-0.125	-0.509
-531.091	72.840	-0.099	0.105
-530.077	800.000	-0.120	0.356
-529.062	-143.630	0.114	0.011
-528.048	51.411	-0.154	-0.148
-527.033	-102.247	-0.335	-0.081
-526.018	46.086	-0.090	-0.084
-525.004	-41.740	0.413	0.214
-523.989	-24.995	0.145	-0.086
-522.975	-173.260	0.153	0.005
-521.960	693.832	-0.069	0.181
-520.945	-74.690	0.072	0.026
-519.931	251.077	0.183	0.313
-518.916	114.397	-0.231	0.283
-517.902	70.956	-0.043	0.045
-516.887	-102.041	0.220	0.053
-515.872	586.532	-0.169	0.418
-514.858	48.674	-0.201	0.190
-513.843	684.056	0.049	0.128
-512.829	-162.843	0.066	0.003
-511.814	-200.000	-0.038	-0.227
-510.799	-37.220	0.392	-0.211
-509.785	-200.000	0.018	-0.190
-508.770	-200.000	0.023	-0.180
-507.756	108.128	0.111	0.134
-506.741	174.954	-0.218	0.318
-505.726	800.000	-0.020	0.069
-504.712	-177.644	-0.229	0.006
-503.697	-99.890	-0.143	0.036
-502.683	648.630	-0.116	-0.298
-501.668	-200.000	-0.010	0.070
-500.653	199.453	-0.247	0.382
-499.639	-129.972	-0.344	-0.047
-498.624	188.364	0.061	-0.092
-497.610	-58.846	0.270	-0.117
-496.595	254.631	0.048	0.082
-495.581	-91.709	-0.054	-0.015
-494.566	-77.799	-0.031	-0.011
-493.551	-61.386	-0.236	-0.100
-492.537	-183.635	-0.109	0.002
-491.522	-75.781	0.278	-0.099
-490.508	-48.033	0.158	-0.077
-489.493	-200.000	0.035	-0.176
-488.478	358.550	0.043	0.087
-487.464	-128.746	0.141	-0.020
-486.449	246.448	-0.110	-0.187
-485.435	207.531	0.130	-0.204
-484.420	538.491	0.147	-0.352
-483.405	-59.488	-0.412	0.178
-482.391	-11.925	-0.316	-0.208
-481.376	-70.699	-0.177	0.067
-480.362	-72.331	0.018	0.007
-479.347	-199.002	-0.021	0.000
-478.332	40.985	0.064	-0.058
-477.318	9.894	0.232	-0.177
-476.303	-200.000	0.010	0.049
-475.289	66.704	0.115	-0.118
-474.274	88.205	-0.227	0.253
-473.259	399.374	-0.068	-0.143
-472.245	-163.431	-0.398	-0.019
-471.230	-25.400	0.168	-0.100
-470.216	-200.000	0.004	-0.288
-469.201	-200.000	0.037	-0.172
-468.186	136.486	0.050	-0.065
-467.172	-166.154	0.272	-0.012
-466.157	-84.202	0.250	0.080
-465.143	-62.286	0.137	0.058
-464.128	800.000	0.084	0.270
-463.113	-65.767	-0.284	-0.114
-462.099	-200.000	0.050	0.278
-461.084	40.099	-0.018	0.016
-460.070	-91.927	0.149	-0.042
-459.055	800.000	0.150	0.423
-458.040	-103.442	0.296	0.070
-457.026	132.350	-0.209	-0.271
-456.011	-200.000	-0.038	-0.189
-454.997	108.822	-0.078	-0.094
-453.982	-17.426	-0.175	0.111
-452.968	-138.159	0.121	-0.014
-451.953	-23.551	0.116	0.070
-450.938	41.043	-0.025	0.023
-449.924	364.444	0.125	-0.253
-448.909	-69.007	-0.161	-0.062
-447.895	207.806	0.106	0.166
-446.880	-200.000	0.096	0.000
-445.865	33.369	0.085	-0.074
-444.851	-106.844	0.121	0.027
-443.836	-200.000	0.026	0.140
-442.822	-93.130	-0.238	0.067
-441.807	263.999	-0.205	-0.358
-440.792	-157.270	-0.184	-0.011
-439.778	-188.357	0.555	-0.007
-438.763	151.899	-0.071	-0.097
-437.749	-24.818	-0.191	0.114
-436.734	-138.758	0.283	0.031
-435.719	-73.854	-0.213	-0.078
-434.705	800.000	-0.042	-0.166
-433.690	-28.693	-0.019	-0.011
-432.676	-149.573	-0.297	0.024
-431.661	-89.790	-0.123	0.036
-430.646	-140.919	-0.273	0.028
-429.632	-29.179	-0.371	-0.213
-428.617	-58.568	0.145	-0.063
-427.603	-43.834	0.243	0.123
-426.588	800.000	0.022	0.061
-425.573	-112.472	-0.139	-0.028
-424.559	800.000	0.058	0.187
-423.544	-82.271	-0.408	-0.133
-422.530	800.000	-0.163	-0.458
-421.515	-104.694	-0.335	-0.077
-420.500	533.520	-0.144	0.341
-419.486	18.577	0.211	-0.169
-418.471	301.328	0.158	0.293
-417.457	122.355	0.210	0.263
-416.442	-102.000	-0.185	0.045
-415.428	73.979	-0.116	0.122
-414.413	416.014	0.176	0.377
-413.398	-200.000	-0.077	0.458
-412.384	-187.027	0.148	0.002
-411.369	417.952	-0.088	0.189
-410.355	22.488	-0.108	0.088
-409.340	8.359	0.091	-0.068
-408.325	102.854	0.050	0.058
-407.311	-27.442	-0.131	0.076
-406.296	10.072	0.343	0.262
-405.282	-130.309	0.057	0.008
-404.267	80.525	-0.159	0.172
-403.252	-137.111	-0.134	-0.015
-402.238	200.442	-0.106	-0.163
-401.223	-200.000	0.003	-0.296
-400.209	177.495	-0.157	0.229
-399.194	35.161	-0.059	0.052
-398.179	303.433	-0.094	0.175
-397.165	-103.059	-0.254	0.060
-396.150	-135.148	0.080	0.010
-395.136	800.000	-0.015	-0.050
-394.121	800.000	-0.012	-0.041
-393.106	800.000	0.073	0.215
-392.092	-133.856	-0.103	-0.013
-391.077	66.994	-0.157	0.160
-390.063	24.635	0.456	0.378
-389.048	143.465	-0.126	0.169
-388.033	-158.746	-0.139	0.008
-387.019	-200.000	0.061	0.282
-386.004	291.723	0.130	0.236
-384.990	107.919	0.099	0.118
-383.975	238.088	-0.073	-0.121
-382.960	800.000	-0.114	-0.396
-381.946	66.942	0.049	-0.050
-380.931	800.000	-0.040	0.130
-379.917	-67.234	0.285	-0.112
-378.902	83.043	-0.097	-0.105
-377.888	-200.000	0.003	0.141
-376.873	-85.083	-0.155	-0.049
-375.858	-200.000	0.045	-0.306
-374.844	-92.158	0.501	0.142
-373.829	-1.495	0.073	-0.052
-372.815	44.252	-0.144	0.133
-371.800	-122.175	0.344	0.056
-370.785	470.210	-0.085	-0.190
-369.771	800.000	0.052	-0.201
-368.756	72.955	-0.324	0.339
-367.742	-200.000	-0.019	0.215
-366.727	53.641	0.182	0.175
-365.712	-73.270	-0.229	0.084
-364.698	-104.604	0.216	0.050
-363.683	-200.000	0.008	0.053
-362.669	800.000	-0.057	0.219
-361.654	800.000	0.015	-0.055
-360.639	800.000	-0.112	0.361
-359.625	-200.000	-0.008	-0.218
-358.610	800.000	-0.046	0.143
-357.596	22.223	0.027	0.022
-356.581	8.820	-0.184	-0.139
-355.566	534.309	-0.009	-0.022
-354.552	800.000	0.077	-0.276
-353.537	-141.310	-0.323	0.033
-352.523	-150.708	-0.163	0.012
-351.508	-200.000	0.001	0.176
-350.493	83.977	0.138	0.150
-349.479	800.000	0.072	0.237
-348.464	538.152	0.028	0.066
-347.450	-45.882	-0.045	0.022
-346.435	53.557	-0.277	-0.265
-345.420	-67.500	-0.189	-0.074
-344.406	-97.880	0.310	-0.080
-343.391	-200.000	0.012	0.316
-342.377	-159.254	-0.020	0.001
-341.362	-42.190	0.153	-0.078
-340.348	-200.000	0.002	0.072
-339.333	-200.000	0.030	-0.135
-338.318	409.404	-0.066	-0.140
-337.304	-133.099	0.236	0.030
-336.289	13.092	0.046	0.036
-335.275	-200.000	-0.045	0.278
-334.260	-150.460	-0.581	0.045
-333.245	-39.180	0.288	0.151
-332.231	800.000	0.045	-0.161
-331.216	800.000	-0.067	-0.210
-330.202	-54.916	0.101	-0.046
-329.187	-29.254	-0.202	-0.115
-328.172	118.546	-0.159	-0.196
-327.158	161.594	0.245	-0.342
-326.143	-200.000	0.011	0.128
-325.129	92.567	-0.184	-0.207
-324.114	-200.000	0.011	0.335
-323.099	62.848	-0.305	0.304
-322.085	302.047	-0.090	-0.166
-321.070	-36.779	0.059	-0.031
-320.056	-10.016	0.077	0.051
-319.041	564.948	-0.069	-0.167
-318.026	199.447	0.152	0.234
-317.012	-121.473	-0.373	0.062
-315.997	800.000	0.050	-0.197
-314.983	630.706	-0.002	0.005
-313.968	-18.042	0.225	-0.140
-312.953	-20.458	0.145	0.089
-311.939	-97.109	0.418	0.109
-310.924	235.662	0.184	-0.303
-309.910	14.826	0.156	-0.122
-308.895	800.000	-0.065	0.198
-307.880	142.881	0.068	0.091
-306.866	-66.167	-0.228	0.091
-305.851	41.991	-0.140	-0.127
-304.837	-57.723	0.098	0.043
-303.822	-171.053	0.287	0.010
-302.807	-82.092	-0.057	-0.019
-301.793	-200.000	0.021	-0.201
-300.778	-121.913	0.340	0.056
-299.764	-200.000	0.015	0.293
-298.749	-96.311	0.146	0.039
-297.735	800.000	-0.014	0.058
-296.720	-200.000	0.005	0.273
-295.705	62.841	-0.133	0.133
-294.691	-200.000	-0.011	0.133
-293.676	-81.085	0.187	0.062
-292.662	-127.157	-0.139	-0.020
-291.647	800.000	0.066	0.244
-290.632	-200.000	-0.011	0.191
-289.618	-200.000	-0.010	0.118
-288.603	800.000	-0.038	-0.133
-287.589	-200.000	-0.061	0.436
-286.574	-200.000	0.018	-0.179
-285.559	409.945	0.064	0.136
-284.545	-200.000	0.000	0.066
-283.530	176.013	0.105	0.153
-282.516	352.274	0.203	0.401
-281.501	-68.912	-0.152	0.059
-280.486	54.433	-0.266	-0.256
-279.472	-200.000	0.022	-0.096
-278.457	20.212	0.026	-0.021
-277.443	800.000	0.042	-0.149
-276.428	-200.000	-0.024	-0.141
-275.413	306.677	0.053	-0.098
-274.399	-7.107	-0.236	-0.160
-273.384	0.578	0.157	-0.112
-272.370	-158.013	-0.017	0.001
-271.355	-135.822	0.436	-0.051
-270.340	-107.630	-0.231	-0.050
-269.326	97.758	0.058	-0.066
-268.311	-1.487	-0.241	0.169
-267.297	-200.000	-0.070	0.423
-266.282	-114.194	0.115	0.022
-265.267	316.762	-0.125	-0.236
-264.253	34.621	0.185	0.161
-263.238	-200.000	-0.016	0.547
-262.224	-200.000	0.049	0.249
-261.209	-90.889	-0.170	0.049
-260.195	-200.000	0.033	-0.173
-259.180	-200.000	-0.012	0.151
-258.165	-48.015	-0.241	0.116
-257.151	-200.000	-0.068	0.308
-256.136	800.000	0.041	-0.179
-255.122	-200.000	0.023	0.140
-254.107	481.563	0.191	0.433
-253.092	524.830	-0.183	0.429
-252.078	-71.864	0.197	-0.073
-251.063	-42.498	0.271	-0.138
-250.049	66.924	-0.302	-0.307
-249.034	-200.000	0.015	-0.075
-248.019	-39.681	-0.211	0.110
-247.005	-200.000	-0.007	-0.091
-245.990	33.247	0.087	-0.075
-244.976	-167.844	0.362	0.014
-243.961	-69.944	-0.271	0.103
-242.946	-55.507	0.207	-0.092
-241.932	13.701	0.112	-0.087
-240.917	-200.000	-0.004	-0.073
-239.903	-81.796	0.155	-0.050
-238.888	-104.409	0.097	-0.022
-237.873	-77.971	0.455	0.156
-236.859	-8.062	0.153	0.102
-235.844	161.988	-0.165	0.230
-234.830	800.000	-0.040	-0.131
-233.815	81.390	0.178	-0.192
-232.800	108.039	-0.169	0.200
-231.786	146.492	0.198	-0.265
-230.771	800.000	0.072	0.218
-229.757	185.399	0.120	0.177
-228.742	360.873	0.087	0.174
-227.727	800.000	0.053	-0.155
-226.713	-64.485	-0.031	0.012
-225.698	-152.282	-0.313	0.023
-224.684	800.000	-0.030	0.085
-223.669	-200.000	0.001	-0.278
-222.655	268.930	-0.136	-0.238
-221.640	24.872	0.235	-0.194
-220.625	-67.691	-0.081	-0.031
-219.611	129.069	-0.183	0.232
-218.596	-156.487	0.269	-0.017
-217.582	347.562	0.138	-0.270
-216.567	282.253	0.055	0.097
-215.552	9.198	-0.151	-0.113
-214.538	-65.511	-0.025	0.010
-213.523	-123.110	-0.406	0.065
-212.509	-200.000	0.007	0.158
-211.494	-13.619	-0.161	-0.103
-210.479	165.624	-0.097	0.137
-209.465	-42.273	-0.074	-0.038
-208.450	-3.681	0.174	0.120
-207.436	-100.779	0.540	-0.132
-206.421	800.000	0.042	-0.124
-205.406	-44.518	0.231	-0.115
-204.392	36.081	0.141	0.124
-203.377	-90.325	-0.323	-0.093
-202.363	-200.000	0.021	-0.263
-201.348	47.961	0.212	-0.197
-200.333	67.857	0.020	-0.020
-199.319	483.214	-0.065	0.148
-198.304	-132.265	-0.245	0.032
-197.290	-161.085	0.276	0.014
-196.275	97.089	-0.121	-0.138
-195.260	-109.933	-0.163	-0.034
-194.246	-110.748	0.198	-0.041
-193.231	-120.655	0.124	-0.021
-192.217	-56.070	0.121	-0.054
-191.202	-100.238	0.231	-0.057
-190.187	-68.229	0.037	-0.014
-189.173	30.783	0.278	0.236
-188.158	608.006	-0.102	-0.254
-187.144	800.000	-0.015	0.046
-186.129	800.000	-0.039	0.145
-185.114	-23.996	-0.342	0.203
-184.100	-200.000	0.009	0.127
-183.085	-102.124	-0.152	0.036
-182.071	184.251	-0.068	-0.100
-181.056	-200.000	0.005	-0.153
-180.042	-53.226	0.268	-0.122
-179.027	-200.000	-0.051	-0.322
-178.012	-97.279	-0.089	0.023
-176.998	800.000	0.077	0.325
-175.983	-102.687	-0.198	0.047
-174.969	-91.985	0.258	-0.073
-173.954	480.720	-0.135	-0.304
-172.939	125.216	-0.204	-0.255
-171.925	742.302	0.073	0.196
-170.910	-143.052	0.156	-0.015
-169.896	-118.516	-0.182	0.032
-168.881	729.963	0.119	0.315
-167.866	-200.000	-0.002	0.056
-166.852	585.149	0.053	-0.131
-165.837	800.000	-0.065	-0.261
-164.823	455.298	0.035	0.077
-163.808	300.664	-0.050	0.091
-162.793	159.317	-0.037	0.051
-161.779	-33.591	-0.226	-0.124
-160.764	800.000	-0.048	0.135
-159.750	582.800	-0.089	0.216
-158.735	-200.000	-0.031	0.149
-157.720	384.076	0.031	-0.063
-156.706	-171.762	0.233	-0.008
-155.691	167.398	0.283	0.399
-154.677	128.335	-0.297	0.375
-153.662	800.000	0.059	-0.179
-152.647	-200.000	0.014	-0.079
-151.633	296.846	-0.096	-0.174
-150.618	56.597	0.142	0.137
-149.604	-21.311	-0.186	0.113
-148.589	-200.000	0.027	-0.126
-147.574	800.000	-0.012	-0.050
-146.560	250.324	0.153	-0.258
-145.545	413.073	0.098	0.207
-144.531	-121.527	0.039	0.006
-143.516	800.000	-0.063	-0.197
-142.502	-200.000	0.033	0.194
-141.487	247.881	-0.285	-0.478
-140.472	-86.512	0.250	0.076
-139.458	365.841	-0.123	-0.245
-138.443	-200.000	0.064	0.284
-137.429	-200.000	-0.015	0.083
-136.414	-200.000	0.010	0.191
-135.399	-57.881	-0.195	-0.085
-134.385	-103.130	0.244	0.057
-133.370	111.583	0.142	0.169
-132.356	-200.000	0.049	0.214
-131.341	-60.780	-0.378	0.159
-130.326	289.595	-0.131	0.236
-129.312	-48.560	0.451	-0.215
-128.297	-200.000	-0.054	-0.300
-127.283	-35.038	0.078	-0.042
-126.268	-71.594	-0.369	0.137
-125.253	161.510	0.041	-0.057
-124.239	9.480	-0.122	-0.092
-123.224	-200.000	0.037	-0.199
-122.210	-1.522	-0.193	-0.135
-121.195	-66.450	0.374	0.147
