DTS Sentinel unit serial number:	SN413079Multiplexer serial number:	ORYXHardware model number:	OX4-SRSoftware version number:	ORYX F/W v4.00 Oryx Data Collector v3.7.2.0data status	okinstallation	princeton_trtdifferential loss correction	single-endedforward channel	channel 2reverse channel	N/Adate	2019/09/17time	04:03:35forward acquisition time	60.00reverse acquisition time	0.00gamma	496.2192k internal	0.2327k external	0.2327temperature offset calibration	0.9972default loss term (dB/km)	0.3790temperature slope calibration	1.0000multiplexer offset coefficient	1.0000multiplexer slope coefficient	1.0000fibre end	0.00T internal ref (°C)	29.87T ext. ref 1 (°C)	0.12T ext. ref 2 (°C)	24.38length (m)	temperature (°C)	Stokes	anti-Stokes-747.200	-124.494	-0.245	0.038
-746.185	-2.589	0.150	-0.106
-745.171	476.412	0.062	0.141
-744.156	-140.387	-0.232	0.024
-743.142	154.329	0.306	-0.423
-742.127	-200.000	0.032	0.186
-741.112	8.767	0.039	-0.030
-740.098	164.785	0.157	0.224
-739.083	-200.000	0.013	0.103
-738.069	-200.000	0.021	0.251
-737.054	212.993	-0.075	-0.119
-736.039	-31.382	-0.400	0.227
-735.025	800.000	0.036	0.121
-734.010	-154.775	0.154	-0.010
-732.996	-33.268	0.157	0.087
-731.981	45.595	-0.237	-0.221
-730.966	84.780	-0.032	0.035
-729.952	156.602	0.227	-0.316
-728.937	274.408	-0.111	-0.197
-727.923	-155.096	0.110	0.007
-726.908	-128.462	-0.227	-0.032
-725.894	241.866	0.074	-0.125
-724.879	-31.637	-0.288	0.163
-723.864	276.845	0.044	-0.079
-722.850	116.237	-0.226	-0.279
-721.835	357.073	-0.061	-0.123
-720.821	-57.918	0.306	-0.135
-719.806	-200.000	-0.029	0.173
-718.791	-200.000	0.019	0.142
-717.777	-18.629	0.026	0.017
-716.762	-200.000	0.001	-0.287
-715.748	-120.719	0.299	-0.051
-714.733	800.000	0.052	0.149
-713.718	-140.839	-0.220	0.023
-712.704	117.322	-0.133	-0.165
-711.689	-200.000	-0.096	0.537
-710.675	192.262	-0.137	-0.209
-709.660	-70.621	-0.213	0.081
-708.645	-89.562	0.130	0.039
-707.631	-40.774	0.193	0.101
-706.616	244.450	0.163	-0.276
-705.602	-109.965	-0.301	0.063
-704.587	-20.372	-0.292	-0.181
-703.572	-65.744	-0.075	0.030
-702.558	-53.688	0.113	-0.052
-701.543	135.107	0.199	-0.260
-700.529	-200.000	-0.039	-0.222
-699.514	-94.762	-0.376	-0.103
-698.499	-77.544	0.167	0.058
-697.485	800.000	-0.078	-0.253
-696.470	110.504	-0.129	0.156
-695.456	-22.294	0.282	0.172
-694.441	-200.000	0.011	0.390
-693.426	9.467	0.108	-0.082
-692.412	-41.197	0.415	0.215
-691.397	94.578	-0.073	-0.083
-690.383	-87.705	0.120	0.036
-689.368	-200.000	-0.016	0.122
-688.354	-15.261	0.144	-0.093
-687.339	572.221	-0.118	0.288
-686.324	800.000	0.050	-0.217
-685.310	-90.997	0.262	0.076
-684.295	348.456	0.105	-0.208
-683.281	38.871	-0.103	0.093
-682.266	-50.411	0.279	0.132
-681.251	-134.802	0.074	0.009
-680.237	-30.115	-0.075	-0.043
-679.222	132.314	0.322	-0.418
-678.208	-99.721	0.283	0.071
-677.193	252.567	-0.147	0.252
-676.178	-68.900	0.329	-0.128
-675.164	-6.500	-0.264	-0.181
-674.149	143.332	-0.133	0.177
-673.135	-67.885	0.398	0.156
-672.120	800.000	-0.031	0.086
-671.105	-135.362	-0.151	-0.018
-670.091	-128.258	0.202	0.029
-669.076	-55.399	0.141	-0.063
-668.062	66.655	-0.062	-0.063
-667.047	31.110	0.264	-0.227
-666.032	800.000	-0.126	-0.467
-665.018	-200.000	0.004	-0.248
-664.003	334.790	0.141	-0.274
-662.989	800.000	0.021	0.084
-661.974	25.434	-0.111	0.093
-660.959	3.986	-0.243	0.178
-659.945	126.435	0.187	0.238
-658.930	139.946	-0.111	-0.147
-657.916	-127.315	-0.183	0.027
-656.901	800.000	-0.108	-0.321
-655.886	-39.962	0.180	-0.094
-654.872	800.000	-0.099	-0.298
-653.857	490.312	-0.098	0.225
-652.843	138.958	0.074	-0.097
-651.828	22.643	-0.170	-0.140
-650.814	-200.000	-0.035	-0.170
-649.799	-200.000	-0.036	-0.296
-648.784	-89.918	-0.249	-0.073
-647.770	-200.000	0.024	-0.173
-646.755	124.821	0.080	0.101
-645.741	119.960	-0.167	-0.208
-644.726	-28.732	-0.060	0.035
-643.711	155.453	0.114	0.158
-642.697	-200.000	-0.008	0.061
-641.682	-104.378	-0.402	-0.094
-640.668	-106.533	0.148	0.033
-639.653	-137.861	-0.037	0.004
-638.638	-200.000	0.043	0.226
-637.624	-88.399	0.247	0.074
-636.609	-19.400	-0.158	-0.098
-635.595	-146.485	0.231	-0.020
-634.580	194.169	0.140	-0.213
-633.565	-90.296	0.199	-0.058
-632.551	-26.534	-0.221	-0.130
-631.536	-127.130	-0.233	-0.034
-630.522	494.302	0.081	0.186
-629.507	-106.800	-0.250	-0.056
-628.492	-107.004	0.437	0.097
-627.478	-46.573	-0.052	-0.026
-626.463	800.000	-0.012	0.049
-625.449	-197.923	-0.224	-0.001
-624.434	115.519	0.264	-0.324
-623.419	-55.466	0.103	0.046
-622.405	-108.165	0.145	0.032
-621.390	137.316	-0.119	-0.156
-620.376	-58.945	-0.158	0.069
-619.361	354.289	-0.075	0.150
-618.346	-200.000	0.030	-0.205
-617.332	-200.000	-0.018	0.377
-616.317	281.748	-0.033	-0.059
-615.303	-120.121	-0.162	-0.028
-614.288	-163.379	-0.369	0.018
-613.273	-101.528	-0.115	0.028
-612.259	-200.000	0.016	-0.131
-611.244	19.421	0.196	0.158
-610.230	-200.000	0.010	0.107
-609.215	308.836	-0.267	-0.500
-608.201	147.154	0.115	0.155
-607.186	66.471	-0.348	0.355
-606.171	90.732	-0.158	-0.177
-605.157	129.574	0.183	0.235
-604.142	800.000	0.070	-0.199
-603.128	0.230	0.214	-0.153
-602.113	-200.000	-0.023	0.290
-601.098	427.026	-0.013	-0.029
-600.084	-101.985	-0.184	0.045
-599.069	-4.161	-0.286	0.198
-598.055	345.710	0.124	-0.245
-597.040	-200.000	0.009	-0.098
-596.025	-26.051	-0.091	-0.053
-595.011	10.126	0.187	0.143
-593.996	81.374	0.074	0.081
-592.982	-200.000	0.049	-0.362
-591.967	-95.827	0.073	-0.019
-590.952	77.578	0.146	-0.156
-589.938	-68.134	-0.171	-0.067
-588.923	-80.633	0.243	-0.081
-587.909	-132.515	0.135	0.017
-586.894	2.193	-0.276	-0.200
-585.879	800.000	0.147	-0.587
-584.865	800.000	-0.008	-0.036
-583.850	-43.134	-0.429	0.218
-582.836	72.801	0.109	-0.114
-581.821	-32.268	0.178	-0.100
-580.806	76.221	0.386	0.409
-579.792	-105.029	0.140	-0.032
-578.777	142.521	0.303	0.402
-577.763	-200.000	0.012	-0.164
-576.748	-200.000	-0.016	0.176
-575.733	-60.401	0.119	-0.051
-574.719	443.299	-0.069	-0.151
-573.704	512.896	0.082	-0.191
-572.690	680.672	0.050	0.129
-571.675	-16.824	-0.423	0.268
-570.661	233.734	0.110	0.182
-569.646	12.421	0.190	0.147
-568.631	8.916	-0.164	0.124
-567.617	360.332	0.156	0.313
-566.602	-200.000	-0.039	0.224
-565.588	83.068	0.033	-0.036
-564.573	-37.777	-0.141	0.075
-563.558	118.905	0.154	-0.190
-562.544	-200.000	0.009	-0.114
-561.529	800.000	-0.044	-0.180
-560.515	-0.161	-0.234	0.167
-559.500	-200.000	-0.010	0.136
-558.485	-63.771	0.182	0.074
-557.471	-44.417	0.124	0.062
-556.456	-64.495	-0.122	-0.050
-555.442	13.735	0.129	-0.100
-554.427	-166.883	0.112	0.005
-553.412	-200.000	-0.014	-0.122
-552.398	-200.000	0.029	0.307
-551.383	-200.000	0.079	0.433
-550.369	438.603	-0.172	0.376
-549.354	-94.353	0.353	0.097
-548.339	800.000	0.112	-0.332
-547.325	-13.478	0.217	0.140
-546.310	-155.851	-0.268	-0.017
-545.296	-196.709	-0.337	-0.002
-544.281	-95.720	-0.111	0.030
-543.266	6.245	-0.219	-0.162
-542.252	-200.000	0.069	-0.328
-541.237	151.452	-0.052	0.071
-540.223	-48.192	-0.372	-0.179
-539.208	-200.000	0.036	0.244
-538.193	-200.000	0.004	0.256
-537.179	800.000	-0.027	0.113
-536.164	157.017	-0.115	0.159
-535.150	159.491	0.065	0.091
-534.135	-200.000	0.003	-0.034
-533.121	60.441	0.048	0.047
-532.106	-102.293	-0.107	0.026
-531.091	102.555	0.132	0.154
-530.077	-200.000	-0.020	0.119
-529.062	-54.465	-0.127	-0.058
-528.048	15.454	-0.255	-0.200
-527.033	146.593	0.106	-0.143
-526.018	164.397	-0.039	0.055
-525.004	421.402	-0.112	-0.240
-523.989	56.854	-0.284	-0.277
-522.975	115.118	0.213	0.260
-521.960	-25.014	-0.166	0.098
-520.945	-200.000	0.027	-0.273
-519.931	204.850	0.250	0.388
-518.916	-26.149	-0.557	0.327
-517.902	-79.288	-0.193	-0.065
-516.887	509.438	-0.198	0.460
-515.872	40.259	0.115	-0.103
-514.858	-78.603	0.332	0.113
-513.843	9.937	-0.172	0.131
-512.829	-94.327	0.140	0.038
-511.814	-145.401	-0.267	-0.024
-510.799	398.781	0.066	-0.138
-509.785	-38.003	0.182	-0.096
-508.770	-86.593	-0.035	0.011
-507.756	390.605	0.085	0.175
-506.741	522.541	0.014	0.033
-505.726	-141.016	-0.383	-0.039
-504.712	-118.435	0.141	0.025
-503.697	-57.384	0.344	-0.151
-502.683	800.000	-0.052	0.213
-501.668	800.000	-0.086	0.241
-500.653	13.467	-0.212	0.164
-499.639	128.404	0.060	0.077
-498.624	-108.138	-0.080	-0.017
-497.610	-57.781	0.490	-0.214
-496.595	-200.000	-0.008	0.034
-495.581	711.558	-0.039	0.102
-494.566	368.015	0.142	-0.287
-493.551	-125.324	-0.132	-0.020
-492.537	-200.000	-0.061	-0.379
-491.522	138.391	0.152	-0.199
-490.508	800.000	-0.090	0.354
-489.493	-200.000	0.021	0.215
-488.478	-200.000	0.024	-0.290
-487.464	-89.016	0.170	0.050
-486.449	-200.000	-0.058	0.283
-485.435	-22.031	-0.435	-0.264
-484.420	-42.125	0.050	-0.026
-483.405	506.068	-0.174	0.403
-482.391	-14.788	0.155	0.099
-481.376	145.141	-0.103	-0.137
-480.362	-139.949	0.355	-0.037
-479.347	-49.375	-0.125	-0.060
-478.332	-79.515	-0.192	-0.065
-477.318	-78.754	-0.136	-0.046
-476.303	800.000	-0.084	0.262
-475.289	-88.174	-0.400	-0.120
-474.274	109.100	-0.097	-0.116
-473.259	21.682	-0.156	-0.127
-472.245	468.269	-0.006	0.013
-471.230	107.681	-0.206	-0.245
-470.216	52.776	0.096	0.092
-469.201	-138.120	0.447	-0.050
-468.186	-60.649	0.159	-0.067
-467.172	-87.898	-0.291	0.087
-466.157	65.324	-0.190	0.192
-465.143	-137.541	-0.101	0.011
-464.128	26.619	0.049	0.041
-463.113	-128.452	0.114	0.016
-462.099	165.392	0.124	-0.175
-461.084	603.816	-0.067	-0.166
-460.070	160.195	-0.090	0.125
-459.055	-49.450	-0.281	-0.133
-458.040	271.367	-0.171	-0.299
-457.026	-45.175	0.089	0.044
-456.011	127.179	0.178	0.225
-454.997	461.635	-0.042	-0.094
-453.982	-167.126	0.384	0.016
-452.968	186.327	0.049	0.073
-451.953	-27.554	-0.078	0.045
-450.938	-126.682	0.260	0.038
-449.924	-74.735	-0.353	0.126
-448.909	-29.316	0.071	-0.041
-447.895	18.888	-0.354	-0.283
-446.880	790.393	0.077	-0.211
-445.865	109.647	0.258	-0.308
-444.851	-200.000	0.019	-0.174
-443.836	11.994	0.203	0.156
-442.822	800.000	0.068	0.209
-441.807	800.000	-0.044	0.157
-440.792	403.910	0.175	-0.368
-439.778	800.000	0.040	-0.128
-438.763	22.064	-0.072	0.058
-437.749	-200.000	-0.006	0.174
-436.734	18.220	-0.093	0.074
-435.719	-105.916	-0.168	0.038
-434.705	-37.349	0.201	-0.107
-433.690	800.000	-0.079	-0.284
-432.676	44.973	-0.150	0.137
-431.661	204.602	-0.118	-0.182
-430.646	-114.891	-0.067	-0.013
-429.632	-156.180	-0.194	0.012
-428.617	33.825	0.196	0.170
-427.603	-39.026	0.142	-0.075
-426.588	275.919	-0.068	-0.121
-425.573	316.271	0.136	0.256
-424.559	-111.274	0.219	0.044
-423.544	7.779	-0.051	0.038
-422.530	163.112	-0.030	-0.042
-421.515	-58.895	-0.073	-0.031
-420.500	-200.000	0.005	-0.151
-419.486	63.039	0.097	-0.096
-418.471	-72.167	0.317	0.117
-417.457	-88.296	0.114	-0.034
-416.442	-89.350	-0.257	0.075
-415.428	51.955	0.228	0.216
-414.413	-88.837	0.211	-0.062
-413.398	-3.336	-0.080	-0.055
-412.384	-152.966	0.125	-0.009
-411.369	-44.152	0.353	-0.176
-410.355	-130.898	-0.110	0.015
-409.340	800.000	0.076	0.283
-408.325	386.685	0.030	0.062
-407.311	-200.000	0.008	-0.280
-406.296	-200.000	0.043	0.352
-405.282	317.322	-0.184	-0.346
-404.267	467.843	-0.057	-0.127
-403.252	-142.296	0.087	0.009
-402.238	-132.725	0.100	-0.013
-401.223	733.289	-0.046	-0.122
-400.209	-200.000	-0.028	-0.321
-399.194	-58.072	-0.084	0.036
-398.179	706.202	-0.105	-0.276
-397.165	-86.960	-0.421	0.128
-396.150	42.390	0.256	-0.231
-395.136	0.003	0.047	-0.034
-394.121	-200.000	0.382	-0.001
-393.106	537.256	-0.221	0.522
-392.092	-72.145	0.218	0.081
-391.077	800.000	0.146	0.401
-390.063	115.720	-0.152	-0.185
-389.048	71.541	0.319	-0.329
-388.033	422.206	-0.104	-0.221
-387.019	122.486	0.100	-0.124
-386.004	242.036	0.065	-0.108
-384.990	-19.606	0.273	-0.168
-383.975	-163.598	0.373	-0.018
-382.960	506.162	-0.014	-0.033
-381.946	137.578	0.148	0.193
-380.931	-11.537	0.130	0.085
-379.917	-83.992	0.141	0.045
-378.902	202.525	-0.142	-0.218
-377.888	800.000	-0.034	0.094
-376.873	-200.000	-0.027	-0.244
-375.858	-200.000	-0.011	0.184
-374.844	-76.043	-0.201	-0.070
-373.829	106.523	0.098	-0.115
-372.815	-200.000	0.004	-0.141
-371.800	800.000	-0.120	-0.467
-370.785	427.468	-0.061	-0.131
-369.771	213.982	-0.117	-0.184
-368.756	660.519	0.228	-0.583
-367.742	-92.455	-0.053	-0.015
-366.727	100.597	-0.068	-0.078
-365.712	-91.708	0.388	-0.110
-364.698	800.000	-0.080	0.329
-363.683	75.200	0.071	-0.075
-362.669	-76.490	0.183	-0.064
-361.654	-62.230	-0.352	0.146
-360.639	-200.000	-0.060	0.409
-359.625	-35.155	-0.263	0.142
-358.610	-200.000	-0.012	0.066
-357.596	-119.366	0.161	-0.028
-356.581	-200.000	0.027	-0.310
-355.566	2.447	-0.199	0.143
-354.552	-78.515	-0.022	0.007
-353.537	-135.363	-0.056	-0.007
-352.523	-100.151	-0.182	-0.045
-351.508	-200.000	-0.046	0.285
-350.493	-94.680	0.291	-0.079
-349.479	-63.055	0.029	-0.012
-348.464	712.898	0.109	0.286
-347.450	-81.514	0.105	0.034
-346.435	-153.517	-0.356	-0.024
-345.420	800.000	0.065	-0.253
-344.406	-19.845	0.115	-0.070
-343.391	-200.000	-0.019	-0.381
-342.377	-1.508	-0.235	-0.164
-341.362	-14.771	-0.273	-0.174
-340.348	49.410	0.280	0.261
-339.333	165.167	-0.088	-0.123
-338.318	44.533	0.201	0.183
-337.304	128.106	0.187	0.236
-336.289	800.000	-0.129	0.368
-335.275	-138.368	0.298	-0.033
-334.260	800.000	-0.115	0.367
-333.245	-4.797	-0.064	0.044
-332.231	155.940	-0.122	-0.166
-331.216	384.710	-0.065	0.134
-330.202	100.138	-0.179	0.206
-329.187	280.618	-0.100	-0.177
-328.172	-160.362	0.361	-0.019
-327.158	-149.896	-0.170	0.013
-326.143	34.753	0.192	-0.167
-325.129	67.765	-0.059	-0.059
-324.114	271.483	-0.029	0.050
-323.099	182.314	0.076	0.111
-322.085	144.034	0.211	0.279
-321.070	-73.770	-0.065	0.024
-320.056	129.762	0.171	-0.217
-319.041	-200.000	0.007	-0.087
-318.026	800.000	0.041	-0.147
-317.012	-83.119	0.237	0.076
-315.997	377.427	0.129	0.261
-314.983	205.609	0.167	0.258
-313.968	-57.086	-0.209	0.091
-312.953	800.000	0.096	-0.295
-311.939	94.532	0.180	0.203
-310.924	-177.179	-0.091	-0.002
-309.910	620.290	-0.060	0.149
-308.895	800.000	-0.054	0.164
-307.880	-56.292	0.184	0.081
-306.866	-200.000	0.002	-0.045
-305.851	78.971	0.038	0.041
-304.837	46.151	0.161	-0.148
-303.822	-129.841	-0.338	0.046
-302.807	-200.000	0.059	0.263
-301.793	-108.236	0.153	0.033
-300.778	373.559	0.052	-0.104
-299.764	57.921	0.148	-0.143
-298.749	-103.561	0.099	-0.023
-297.735	-200.000	0.004	0.076
-296.720	251.757	-0.031	0.052
-295.705	-141.392	-0.507	-0.051
-294.691	13.434	0.040	0.031
-293.676	-146.070	0.121	-0.011
-292.662	85.776	-0.189	-0.206
-291.647	46.127	-0.254	-0.233
-290.632	800.000	-0.025	-0.087
-289.618	-6.843	0.302	0.203
-288.603	8.225	-0.248	-0.184
-287.589	-10.193	-0.179	-0.117
-286.574	63.870	-0.082	-0.081
-285.559	-12.272	-0.106	0.069
-284.545	-139.345	-0.222	-0.024
-283.530	-30.842	0.205	0.114
-282.516	547.712	0.130	0.307
-281.501	687.692	-0.056	-0.146
-280.486	-200.000	-0.002	-0.081
-279.472	13.322	-0.389	0.299
-278.457	-55.316	-0.096	0.043
-277.443	351.310	-0.068	0.134
-276.428	-200.000	-0.027	-0.197
-275.413	-161.999	-0.383	0.019
-274.399	497.050	-0.081	-0.185
-273.384	63.318	0.098	-0.098
-272.370	-108.310	0.249	-0.053
-271.355	-1.271	0.121	-0.084
-270.340	280.619	-0.165	-0.292
-269.326	109.952	0.085	0.101
-268.311	257.718	0.144	0.246
-267.297	-107.032	-0.136	0.030
-266.282	-200.000	-0.000	-0.021
-265.267	7.307	-0.275	-0.203
-264.253	-50.068	0.336	0.157
-263.238	129.831	-0.151	0.191
-262.224	174.575	-0.033	-0.047
-261.209	-32.291	-0.037	-0.021
-260.195	-101.377	0.364	0.088
-259.180	-48.361	-0.364	-0.174
-258.165	-200.000	-0.027	0.263
-257.151	345.223	0.199	-0.388
-256.136	42.647	0.268	-0.242
-255.122	220.334	0.112	-0.177
-254.107	-200.000	0.061	0.307
-253.092	-200.000	-0.014	-0.212
-252.078	-77.198	0.233	-0.080
-251.063	-70.869	0.199	0.074
-250.049	-200.000	0.035	0.220
-249.034	800.000	-0.070	-0.207
-248.019	-200.000	-0.005	0.183
-247.005	72.489	-0.096	0.099
-245.990	-69.984	-0.173	-0.065
-244.976	-93.766	0.133	0.036
-243.961	-200.000	-0.026	0.165
-242.946	-86.752	0.359	0.109
-241.932	-200.000	0.013	-0.061
-240.917	97.181	-0.239	-0.271
-239.903	-113.825	-0.100	0.019
-238.888	800.000	-0.048	0.201
-237.873	-17.684	0.214	-0.133
-236.859	635.627	-0.147	0.368
-235.844	3.692	0.122	0.088
-234.830	-61.855	-0.133	-0.055
-233.815	69.069	0.045	-0.046
-232.800	-93.456	0.171	-0.047
-231.786	-200.000	0.019	0.172
-230.771	800.000	-0.088	0.311
-229.757	-73.688	0.185	-0.067
-228.742	12.974	-0.159	-0.121
-227.727	99.796	0.161	0.184
-226.713	-67.948	-0.287	-0.111
-225.698	142.900	0.194	0.255
-224.684	-200.000	0.045	0.300
-223.669	333.063	-0.121	-0.231
-222.655	-200.000	-0.031	-0.195
-221.640	800.000	0.063	-0.187
-220.625	31.775	0.162	-0.138
-219.611	36.571	-0.195	0.170
-218.596	530.796	-0.044	0.102
-217.582	-200.000	-0.006	-0.186
-216.567	55.500	-0.063	-0.060
-215.552	91.347	0.227	0.251
-214.538	36.442	-0.216	0.188
-213.523	14.473	-0.301	0.232
-212.509	26.168	0.023	-0.019
-211.494	-200.000	-0.007	0.112
-210.479	353.465	-0.062	0.121
-209.465	-33.761	-0.278	0.151
-208.450	712.142	0.107	-0.281
-207.436	-49.379	-0.139	-0.066
-206.421	800.000	0.037	-0.108
-205.406	338.093	-0.072	0.138
-204.392	-149.243	-0.184	0.015
-203.377	-27.237	0.104	-0.060
-202.363	2.570	0.270	-0.193
-201.348	71.708	-0.170	-0.174
-200.333	250.649	-0.049	-0.083
-199.319	771.459	0.113	0.304
-198.304	-172.418	0.028	0.001
-197.290	665.445	-0.021	0.053
-196.275	-125.036	0.258	0.039
-195.260	-15.110	0.219	0.138
-194.246	97.603	-0.247	0.280
-193.231	-103.812	0.098	-0.023
-192.217	-25.170	-0.116	-0.068
-191.202	6.672	0.027	-0.020
-190.187	-128.998	-0.363	0.050
-189.173	-200.000	-0.238	-0.000
-188.158	-9.090	0.162	0.107
-187.144	-104.453	0.313	0.071
-186.129	386.182	-0.087	0.177
-185.114	-76.850	0.021	-0.007
-184.100	-161.507	0.179	-0.009
-183.085	-200.000	-0.021	0.120
-182.071	56.180	0.257	0.246
-181.056	-39.840	-0.192	0.099
-180.042	-162.795	0.178	0.009
-179.027	-84.887	0.050	-0.016
-178.012	-200.000	-0.067	-0.631
-176.998	-68.794	-0.094	-0.036
-175.983	-145.341	0.373	-0.033
-174.969	-12.729	-0.418	-0.268
-173.954	55.516	-0.192	0.183
-172.939	-138.028	0.096	-0.011
-171.925	202.153	0.110	-0.168
-170.910	65.426	-0.044	0.044
-169.896	-16.242	0.064	0.040
-168.881	-139.102	0.086	-0.009
-167.866	160.237	-0.070	-0.096
-166.852	-45.597	0.160	-0.078
-165.837	-119.004	-0.093	0.016
-164.823	-140.249	0.540	-0.056
-163.808	800.000	0.063	0.257
-162.793	-200.000	0.019	0.133
-161.779	689.021	-0.212	-0.547
-160.764	27.613	-0.098	-0.081
-159.750	104.281	0.078	0.090
-158.735	435.828	0.147	0.316
-157.720	130.999	-0.171	-0.216
-156.706	-63.946	-0.100	0.040
-155.691	-200.000	-0.042	0.206
-154.677	287.513	-0.086	-0.153
-153.662	-200.000	-0.007	-0.168
-152.647	151.255	-0.051	-0.068
-151.633	-200.000	-0.075	-0.345
-150.618	-59.321	-0.183	-0.077
-149.604	30.260	0.277	0.233
-148.589	800.000	-0.080	-0.305
-147.574	142.724	0.118	0.155
-146.560	99.218	-0.148	0.169
-145.545	76.413	0.174	-0.181
-144.531	-62.240	0.245	-0.101
-143.516	-109.787	-0.140	0.029
-142.502	-98.083	0.302	0.077
-141.487	34.123	0.326	-0.280
-140.472	142.647	0.205	-0.268
-139.458	-200.000	0.097	-0.442
-138.443	43.825	-0.064	-0.058
-137.429	-200.000	0.044	-0.275
-136.414	-33.476	0.421	0.229
-135.399	-9.032	-0.128	0.085
-134.385	161.050	0.246	-0.338
-133.370	233.923	0.288	-0.468
-132.356	68.467	-0.070	0.070
-131.341	118.152	0.183	0.222
-130.326	-200.000	0.045	0.224
-129.312	-121.227	-0.269	0.044
-128.297	145.586	0.183	0.242
-127.283	-92.973	-0.042	-0.011
-126.268	800.000	0.081	-0.253
-125.253	800.000	-0.110	0.298
-124.239	21.623	-0.580	0.464
-123.224	-43.372	0.200	-0.100
-122.210	17.335	-0.217	0.169
-121.195	-164.802	-0.087	0.004
