DTS Sentinel unit serial number:	SN413079Multiplexer serial number:	ORYXHardware model number:	OX4-SRSoftware version number:	ORYX F/W v4.00 Oryx Data Collector v3.7.2.0data status	okinstallation	princeton_trtdifferential loss correction	single-endedforward channel	channel 2reverse channel	N/Adate	2019/09/16time	00:59:34forward acquisition time	60.00reverse acquisition time	0.00gamma	496.2192k internal	0.2337k external	0.2337temperature offset calibration	0.9964default loss term (dB/km)	0.3790temperature slope calibration	1.0000multiplexer offset coefficient	1.0000multiplexer slope coefficient	1.0000fibre end	0.00T internal ref (°C)	27.33T ext. ref 1 (°C)	9.73T ext. ref 2 (°C)	21.30length (m)	temperature (°C)	Stokes	anti-Stokes-747.200	800.000	0.038	-0.107
-746.185	-6.985	0.252	0.172
-745.171	-36.858	0.363	-0.196
-744.156	-83.833	-0.397	0.127
-743.142	-200.000	-0.038	-0.241
-742.127	142.310	-0.189	0.252
-741.112	-200.000	-0.005	0.082
-740.098	-24.292	-0.206	0.123
-739.083	-59.057	-0.147	-0.064
-738.069	-200.000	0.024	0.157
-737.054	-81.843	0.266	0.087
-736.039	-139.859	-0.099	-0.011
-735.025	-61.394	-0.374	0.158
-734.010	224.531	-0.071	0.115
-732.996	58.185	-0.170	0.167
-731.981	-49.602	-0.212	-0.101
-730.966	44.413	0.030	-0.028
-729.952	147.693	-0.221	0.299
-728.937	-110.750	-0.314	0.065
-727.923	-102.028	-0.085	-0.021
-726.908	-149.455	-0.449	-0.036
-725.894	800.000	-0.104	0.292
-724.879	-55.564	-0.362	-0.163
-723.864	800.000	0.063	-0.238
-722.850	124.770	-0.182	-0.230
-721.835	193.534	0.050	0.076
-720.821	86.922	-0.225	-0.249
-719.806	800.000	-0.044	0.147
-718.791	800.000	-0.051	0.156
-717.777	94.839	-0.188	-0.215
-716.762	191.391	-0.190	-0.286
-715.748	163.988	-0.093	0.132
-714.733	-2.373	0.041	-0.029
-713.718	74.247	0.175	-0.185
-712.704	-200.000	0.061	-0.543
-711.689	-79.510	0.328	0.111
-710.675	110.776	0.214	-0.258
-709.660	207.955	-0.033	0.051
-708.645	-135.054	0.200	-0.024
-707.631	-128.925	0.351	-0.049
-706.616	-97.775	0.090	0.023
-705.602	800.000	0.079	-0.336
-704.587	78.373	0.147	0.157
-703.572	686.845	0.012	0.031
-702.558	800.000	0.096	0.270
-701.543	774.907	-0.052	-0.141
-700.529	242.000	-0.055	-0.093
-699.514	-146.380	-0.408	-0.036
-698.499	-67.944	-0.266	-0.104
-697.485	-122.019	-0.231	0.038
-696.470	159.126	0.086	-0.120
-695.456	82.342	0.071	-0.077
-694.441	-8.524	0.343	0.231
-693.426	-200.000	0.078	-0.363
-692.412	-107.540	0.143	-0.031
-691.397	-116.114	-0.370	0.069
-690.383	-200.000	-0.065	-0.319
-689.368	-82.242	0.250	-0.081
-688.354	-46.461	0.100	0.049
-687.339	-95.488	-0.405	-0.109
-686.324	-184.000	0.160	-0.003
-685.310	-86.202	-0.206	-0.064
-684.295	-53.970	0.181	0.083
-683.281	20.387	-0.286	-0.231
-682.266	-111.528	-0.142	0.029
-681.251	216.696	-0.038	0.061
-680.237	111.699	0.211	0.255
-679.222	-200.000	0.009	-0.258
-678.208	-168.441	-0.402	-0.015
-677.193	-35.495	-0.056	0.031
-676.178	-90.602	-0.292	-0.084
-675.164	-153.569	-0.197	0.014
-674.149	49.022	-0.191	0.180
-673.135	-116.212	-0.319	-0.059
-672.120	-200.000	-0.012	-0.257
-671.105	-108.369	-0.106	-0.023
-670.091	576.129	0.008	0.020
-669.076	94.601	-0.132	0.150
-668.062	-103.940	-0.446	0.104
-667.047	800.000	-0.087	-0.251
-666.032	-76.564	-0.220	-0.077
-665.018	-200.000	-0.011	-0.046
-664.003	79.229	0.321	0.344
-662.989	351.446	-0.157	0.312
-661.974	-200.000	0.031	-0.213
-660.959	499.170	0.160	-0.368
-659.945	-200.000	-0.028	-0.395
-658.930	-200.000	0.023	-0.109
-657.916	712.022	-0.088	0.234
-656.901	-52.145	-0.151	0.070
-655.886	448.801	-0.148	0.326
-654.872	184.175	-0.081	0.120
-653.857	-76.424	0.130	0.046
-652.843	620.483	-0.089	0.223
-651.828	800.000	0.065	-0.278
-650.814	-91.268	-0.085	0.024
-649.799	800.000	-0.058	0.203
-648.784	-200.000	0.004	-0.034
-647.770	713.502	0.067	-0.177
-646.755	-79.970	-0.306	-0.103
-645.741	-200.000	-0.006	-0.032
-644.726	33.001	0.155	-0.134
-643.711	158.473	-0.241	0.335
-642.697	800.000	0.075	-0.213
-641.682	800.000	0.022	0.072
-640.668	-169.007	0.178	0.007
-639.653	-200.000	-0.012	-0.377
-638.638	58.762	0.249	0.245
-637.624	61.846	0.138	-0.137
-636.609	-200.000	0.073	0.393
-635.595	108.710	0.152	-0.182
-634.580	-33.257	-0.058	0.032
-633.565	-125.839	-0.290	0.044
-632.551	-91.864	-0.153	0.043
-631.536	151.099	0.076	-0.103
-630.522	-31.912	0.222	-0.124
-629.507	-200.000	0.070	0.319
-628.492	-2.540	0.173	0.121
-627.478	148.004	-0.023	0.030
-626.463	90.773	-0.252	0.282
-625.449	-119.134	0.051	0.009
-624.434	8.432	0.350	-0.263
-623.419	800.000	0.036	0.114
-622.405	6.811	0.064	-0.048
-621.390	-69.550	-0.405	0.155
-620.376	259.105	0.160	0.275
-619.361	-200.000	-0.022	0.150
-618.346	631.944	-0.108	-0.274
-617.332	-200.000	0.030	-0.323
-616.317	-27.243	0.199	0.115
-615.303	-8.381	-0.055	0.037
-614.288	76.072	0.148	-0.156
-613.273	249.030	-0.054	0.091
-612.259	-200.000	0.003	0.039
-611.244	-200.000	-0.003	-0.288
-610.230	-53.812	0.118	0.054
-609.215	-101.149	-0.320	0.078
-608.201	147.809	0.148	0.199
-607.186	178.536	0.058	-0.085
-606.171	-50.847	-0.429	0.201
-605.157	-14.896	-0.282	-0.181
-604.142	11.212	-0.182	-0.139
-603.128	180.212	-0.069	0.101
-602.113	510.646	0.035	0.081
-601.098	-200.000	0.051	-0.252
-600.084	286.472	0.189	-0.341
-599.069	-162.943	-0.297	-0.014
-598.055	450.920	0.118	0.261
-597.040	-200.000	0.071	0.317
-596.025	92.668	-0.043	0.048
-595.011	-135.914	-0.266	-0.031
-593.996	-200.000	0.003	0.127
-592.982	-117.827	0.248	-0.045
-591.967	210.346	-0.050	-0.079
-590.952	281.421	-0.088	0.157
-589.938	-200.000	0.019	0.205
-588.923	-168.225	0.149	0.006
-587.909	-18.676	0.239	0.149
-586.894	-200.000	-0.014	-0.111
-585.879	319.053	-0.073	-0.138
-584.865	-5.932	0.375	-0.256
-583.850	450.836	0.106	-0.234
-582.836	-35.996	-0.098	0.053
-581.821	20.777	0.081	0.065
-580.806	165.367	0.166	0.234
-579.792	-200.000	-0.005	-0.128
-578.777	-124.194	-0.224	0.035
-577.763	-84.209	0.336	-0.106
-576.748	-200.000	0.007	0.156
-575.733	93.683	-0.205	0.232
-574.719	-55.420	0.262	-0.117
-573.704	-200.000	0.041	0.291
-572.690	-22.399	-0.186	0.112
-571.675	-17.935	-0.107	-0.067
-570.661	-112.951	-0.160	0.032
-569.646	150.560	0.069	-0.094
-568.631	28.864	0.259	0.219
-567.617	-200.000	-0.019	-0.162
-566.602	800.000	0.158	-0.442
-565.588	173.788	0.042	0.060
-564.573	495.706	-0.102	0.235
-563.558	-45.371	-0.333	-0.165
-562.544	-21.428	-0.378	0.230
-561.529	-152.337	-0.334	0.024
-560.515	26.623	0.175	0.146
-559.500	-200.000	0.031	-0.304
-558.485	-102.708	0.109	0.026
-557.471	-137.392	-0.151	0.017
-556.456	-3.435	-0.171	-0.119
-555.442	-200.000	-0.053	0.286
-554.427	-200.000	0.066	-0.408
-553.412	-200.000	0.006	-0.413
-552.398	-200.000	0.007	-0.222
-551.383	24.600	0.233	0.192
-550.369	800.000	0.064	0.194
-549.354	49.374	-0.037	0.035
-548.339	-33.895	-0.246	-0.135
-547.325	-88.562	0.065	0.019
-546.310	-101.542	0.031	0.007
-545.296	-200.000	-0.027	0.169
-544.281	-200.000	0.007	-0.166
-543.266	46.582	-0.303	-0.280
-542.252	-200.000	-0.064	-0.349
-541.237	-116.718	-0.291	0.053
-540.223	105.655	0.250	-0.294
-539.208	-152.929	-0.174	0.012
-538.193	-200.000	-0.002	0.161
-537.179	238.024	0.036	-0.059
-536.164	-26.964	-0.245	0.142
-535.150	-200.000	0.055	0.352
-534.135	-120.836	0.156	0.026
-533.121	-150.809	-0.137	0.010
-532.106	-57.246	-0.060	-0.026
-531.091	6.603	-0.202	-0.149
-530.077	-104.332	-0.188	0.043
-529.062	57.938	-0.166	0.162
-528.048	475.313	-0.055	-0.124
-527.033	98.150	-0.008	-0.009
-526.018	-77.798	0.078	0.027
-525.004	-99.111	-0.030	0.008
-523.989	-130.731	-0.192	-0.026
-522.975	-73.920	0.367	0.133
-521.960	114.304	-0.071	-0.086
-520.945	-24.553	-0.141	-0.084
-519.931	323.139	0.099	-0.188
-518.916	800.000	0.084	-0.281
-517.902	-200.000	0.006	-0.207
-516.887	357.171	0.106	0.209
-515.872	-200.000	-0.051	0.310
-514.858	800.000	-0.081	-0.301
-513.843	714.248	-0.182	-0.481
-512.829	-115.678	0.335	0.063
-511.814	44.252	0.039	0.036
-510.799	0.197	0.230	-0.163
-509.785	374.903	0.223	-0.453
-508.770	-41.431	-0.025	-0.013
-507.756	108.324	-0.113	0.135
-506.741	135.970	0.122	-0.158
-505.726	-150.155	0.094	0.007
-504.712	800.000	-0.059	0.183
-503.697	21.961	-0.058	0.047
-502.683	800.000	-0.080	-0.329
-501.668	-200.000	0.011	0.303
-500.653	-71.042	-0.381	-0.142
-499.639	23.270	0.174	-0.142
-498.624	800.000	0.037	-0.154
-497.610	-200.000	-0.006	0.174
-496.595	800.000	-0.058	0.193
-495.581	130.575	-0.253	0.323
-494.566	-120.846	-0.203	0.034
-493.551	110.058	0.126	-0.150
-492.537	-122.199	-0.348	0.057
-491.522	161.365	-0.154	-0.215
-490.508	145.438	0.247	0.329
-489.493	-159.735	-0.100	0.005
-488.478	800.000	0.110	-0.406
-487.464	127.671	0.213	0.269
-486.449	106.595	0.166	-0.196
-485.435	513.143	0.087	-0.201
-484.420	701.358	-0.038	-0.100
-483.405	-200.000	-0.015	0.402
-482.391	237.353	0.104	-0.171
-481.376	376.411	0.112	-0.227
-480.362	-127.047	-0.236	0.034
-479.347	-106.295	0.145	0.032
-478.332	454.913	0.105	0.231
-477.318	-123.368	-0.572	-0.091
-476.303	-93.517	0.165	0.045
-475.289	-200.000	0.023	0.305
-474.274	4.074	0.090	-0.066
-473.259	800.000	-0.019	-0.058
-472.245	-179.867	0.315	-0.007
-471.230	-34.388	-0.099	0.054
-470.216	3.249	-0.257	0.186
-469.201	288.147	-0.069	-0.124
-468.186	35.438	0.152	0.133
-467.172	-113.691	-0.172	0.033
-466.157	-28.635	0.249	0.142
-465.143	-46.227	-0.208	0.102
-464.128	-187.234	0.151	0.002
-463.113	10.234	-0.096	-0.072
-462.099	448.512	-0.106	-0.231
-461.084	107.858	0.083	-0.098
-460.070	-79.218	-0.071	0.024
-459.055	32.791	-0.086	0.074
-458.040	41.754	0.175	-0.157
-457.026	91.428	0.157	-0.175
-456.011	-42.186	-0.202	0.102
-454.997	369.437	0.015	0.030
-453.982	113.190	0.099	-0.120
-452.968	46.446	-0.239	-0.220
-451.953	151.107	-0.206	-0.278
-450.938	16.601	-0.207	0.163
-449.924	800.000	-0.042	-0.170
-448.909	800.000	0.088	0.342
-447.895	424.162	-0.144	0.306
-446.880	-71.940	0.035	-0.013
-445.865	-200.000	0.068	-0.320
-444.851	71.951	0.259	-0.267
-443.836	800.000	-0.122	-0.426
-442.822	271.717	-0.237	0.414
-441.807	-27.890	-0.178	-0.102
-440.792	-12.108	-0.471	0.306
-439.778	-75.103	-0.157	-0.056
-438.763	117.856	0.180	0.220
-437.749	-9.348	-0.156	-0.103
-436.734	1.457	0.289	0.206
-435.719	342.653	-0.034	-0.067
-434.705	-76.696	0.124	0.043
-433.690	-40.136	0.218	-0.113
-432.676	99.672	-0.138	0.159
-431.661	800.000	0.097	0.281
-430.646	-186.360	0.196	0.003
-429.632	-143.787	-0.004	0.000
-428.617	-34.187	-0.130	-0.071
-427.603	-200.000	-0.040	0.201
-426.588	15.906	-0.060	0.047
-425.573	69.525	0.051	0.052
-424.559	22.830	-0.035	-0.028
-423.544	800.000	-0.092	0.282
-422.530	-31.885	0.321	0.178
-421.515	-200.000	0.009	-0.137
-420.500	226.170	0.195	-0.314
-419.486	-35.750	-0.266	-0.143
-418.471	-200.000	-0.001	-0.035
-417.457	544.668	-0.072	-0.171
-416.442	375.233	-0.036	0.072
-415.428	214.800	0.090	-0.142
-414.413	50.506	0.022	0.020
-413.398	-36.068	0.289	0.155
-412.384	-128.068	0.166	0.024
-411.369	199.024	0.206	-0.313
-410.355	800.000	-0.024	0.091
-409.340	-77.379	-0.149	0.051
-408.325	-74.141	0.108	-0.039
-407.311	628.411	0.079	0.197
-406.296	100.304	0.150	-0.172
-405.282	-19.095	-0.272	-0.167
-404.267	-77.843	0.336	-0.115
-403.252	721.641	-0.052	-0.137
-402.238	-194.303	0.446	-0.004
-401.223	800.000	-0.029	-0.102
-400.209	-200.000	-0.064	-0.469
-399.194	56.536	-0.122	-0.118
-398.179	-200.000	-0.014	-0.164
-397.165	800.000	-0.114	0.439
-396.150	-78.734	0.187	0.063
-395.136	-90.686	-0.254	-0.073
-394.121	84.949	-0.247	0.268
-393.106	-162.450	0.215	-0.011
-392.092	-200.000	-0.054	0.448
-391.077	662.556	0.012	0.031
-390.063	-23.774	0.264	0.156
-389.048	115.739	0.069	0.084
-388.033	-87.812	0.352	0.105
-387.019	800.000	-0.094	0.353
-386.004	432.170	-0.069	0.148
-384.990	73.119	-0.112	0.116
-383.975	-160.491	-0.165	0.009
-382.960	595.298	0.149	-0.366
-381.946	-18.269	-0.092	0.057
-380.931	130.750	0.069	0.088
-379.917	-52.293	-0.228	-0.105
-378.902	-130.396	-0.235	0.032
-377.888	157.039	0.204	0.279
-376.873	103.920	0.016	0.018
-375.858	-40.886	-0.101	-0.052
-374.844	-187.178	0.420	-0.006
-373.829	20.009	-0.117	0.093
-372.815	-81.347	-0.225	-0.073
-371.800	40.937	-0.072	-0.064
-370.785	692.620	-0.156	-0.405
-369.771	800.000	0.032	0.094
-368.756	269.176	0.180	-0.313
-367.742	800.000	-0.115	-0.389
-366.727	442.149	-0.085	0.184
-365.712	-200.000	0.044	-0.237
-364.698	-6.330	-0.096	-0.065
-363.683	115.450	0.099	0.119
-362.669	-121.131	0.244	0.040
-361.654	-135.196	-0.095	0.011
-360.639	272.397	0.051	-0.088
-359.625	-32.295	-0.277	0.153
-358.610	-200.000	-0.019	0.117
-357.596	800.000	-0.077	-0.275
-356.581	-126.633	0.378	-0.055
-355.566	-103.818	-0.291	-0.067
-354.552	468.594	0.078	0.172
-353.537	85.731	0.069	-0.074
-352.523	11.782	-0.198	-0.150
-351.508	800.000	0.089	0.379
-350.493	-200.000	-0.004	-0.051
-349.479	800.000	0.063	-0.223
-348.464	-103.644	0.353	-0.082
-347.450	158.259	0.265	0.363
-346.435	-52.969	0.115	-0.052
-345.420	-200.000	0.009	-0.214
-344.406	-200.000	0.003	0.317
-343.391	202.010	0.105	0.160
-342.377	182.385	0.076	-0.111
-341.362	39.447	-0.145	-0.128
-340.348	18.434	-0.219	-0.173
-339.333	-200.000	-0.044	-0.213
-338.318	-9.082	-0.230	0.152
-337.304	-131.540	0.276	0.036
-336.289	-92.506	0.230	-0.064
-335.275	-200.000	0.018	-0.171
-334.260	48.620	-0.122	0.113
-333.245	-12.159	-0.125	-0.081
-332.231	49.484	0.214	-0.199
-331.216	141.642	-0.069	-0.090
-330.202	63.629	0.220	-0.218
-329.187	-83.468	0.059	0.019
-328.172	-85.662	-0.081	-0.025
-327.158	-200.000	-0.041	0.280
-326.143	-7.143	-0.231	0.155
-325.129	-78.851	-0.097	-0.033
-324.114	800.000	-0.075	-0.280
-323.099	168.171	-0.163	0.230
-322.085	-200.000	-0.011	-0.170
-321.070	800.000	0.109	-0.297
-320.056	13.374	-0.279	0.213
-319.041	-184.904	-0.274	0.004
-318.026	-200.000	0.013	0.113
-317.012	13.673	-0.193	-0.148
-315.997	-173.923	-0.123	-0.004
-314.983	11.492	-0.198	0.149
-313.968	738.869	0.048	0.126
-312.953	-75.061	0.218	0.077
-311.939	558.268	-0.052	-0.123
-310.924	800.000	0.078	0.233
-309.910	693.910	-0.073	0.189
-308.895	-200.000	-0.010	-0.132
-307.880	-26.495	-0.092	-0.053
-306.866	-51.193	0.170	0.078
-305.851	800.000	-0.036	-0.102
-304.837	487.941	0.024	0.054
-303.822	40.602	-0.270	-0.240
-302.807	-183.490	-0.069	0.001
-301.793	800.000	-0.021	0.065
-300.778	58.529	0.127	0.123
-299.764	149.154	-0.208	0.278
-298.749	8.892	0.022	0.016
-297.735	-10.458	0.271	-0.177
-296.720	775.427	0.070	0.188
-295.705	213.071	0.080	0.124
-294.691	-153.657	0.273	0.019
-293.676	527.782	0.183	0.425
-292.662	-200.000	-0.017	0.144
-291.647	-81.389	0.199	-0.065
-290.632	-37.385	-0.159	-0.084
-289.618	48.971	-0.064	-0.060
-288.603	685.734	-0.092	-0.236
-287.589	800.000	0.063	0.225
-286.574	7.100	-0.124	-0.091
-285.559	-200.000	0.022	-0.097
-284.545	496.164	0.109	0.247
-283.530	-44.373	0.332	0.164
-282.516	-77.734	-0.158	-0.054
-281.501	-105.184	0.072	0.016
-280.486	-200.000	0.013	-0.073
-279.472	-119.592	0.118	-0.020
-278.457	159.395	-0.114	0.156
-277.443	-100.517	-0.087	-0.021
-276.428	256.803	-0.092	0.156
-275.413	800.000	0.037	0.133
-274.399	-33.157	-0.057	-0.031
-273.384	-158.264	0.108	0.006
-272.370	37.666	0.121	-0.106
-271.355	88.618	-0.140	-0.153
-270.340	-200.000	-0.014	0.070
-269.326	800.000	0.127	0.466
-268.311	-32.739	-0.329	-0.180
-267.297	-157.431	-0.321	-0.019
-266.282	-200.000	0.029	0.142
-265.267	-147.371	0.217	-0.018
-264.253	800.000	-0.154	-0.446
-263.238	627.877	0.126	0.312
-262.224	-100.106	0.233	0.057
-261.209	800.000	0.012	0.045
-260.195	375.335	0.040	-0.080
-259.180	137.238	-0.341	-0.439
-258.165	-200.000	0.021	-0.169
-257.151	40.962	0.180	0.160
-256.136	184.247	0.171	0.250
-255.122	248.849	-0.091	0.151
-254.107	-0.488	0.130	0.091
-253.092	677.316	-0.109	0.280
-252.078	-142.846	0.108	0.010
-251.063	-141.716	0.071	-0.007
-250.049	-62.725	0.431	-0.176
-249.034	800.000	-0.008	-0.035
-248.019	286.148	-0.079	-0.140
-247.005	573.828	0.142	-0.341
-245.990	-10.678	0.355	0.231
-244.976	800.000	0.163	0.508
-243.961	-94.452	-0.192	0.052
-242.946	775.162	-0.128	0.344
-241.932	65.398	0.176	-0.175
-240.917	129.614	-0.161	-0.202
-239.903	800.000	0.046	-0.173
-238.888	-57.198	0.287	-0.124
-237.873	147.935	0.178	0.236
-236.859	-200.000	-0.068	0.430
-235.844	-61.172	-0.106	0.044
-234.830	-51.340	0.071	0.033
-233.815	-200.000	0.027	-0.345
-232.800	-23.174	-0.073	-0.043
-231.786	-29.070	-0.125	0.071
-230.771	-54.238	-0.243	0.108
-229.757	184.615	0.044	-0.064
-228.742	301.675	0.088	0.159
-227.727	-174.951	-0.189	-0.005
-226.713	-123.576	-0.106	0.017
-225.698	-0.212	-0.101	-0.070
-224.684	2.684	0.085	0.061
-223.669	537.346	0.074	0.174
-222.655	-78.237	0.127	0.043
-221.640	-158.533	-0.188	-0.011
-220.625	72.334	-0.140	0.143
-219.611	-174.748	0.389	0.011
-218.596	800.000	0.057	0.184
-217.582	146.132	-0.023	0.030
-216.567	-8.946	-0.266	-0.175
-215.552	418.294	-0.075	0.158
-214.538	8.457	0.131	0.097
-213.523	-200.000	-0.019	-0.180
-212.509	-41.007	-0.330	-0.168
-211.494	800.000	0.085	0.274
-210.479	-92.017	0.240	-0.067
-209.465	305.723	-0.096	-0.176
-208.450	-118.359	-0.313	-0.055
-207.436	203.796	0.119	0.181
-206.421	-153.982	0.274	0.018
-205.406	-47.677	-0.070	-0.033
-204.392	-45.291	0.111	-0.054
-203.377	-62.022	-0.066	0.027
-202.363	104.511	-0.116	-0.134
-201.348	-200.000	0.010	0.163
-200.333	-133.427	0.217	0.027
-199.319	82.279	-0.151	-0.161
-198.304	107.788	0.152	-0.178
-197.290	-128.376	0.212	0.030
-196.275	800.000	0.060	-0.253
-195.260	-200.000	0.022	0.353
-194.246	-94.544	0.071	0.019
-193.231	-200.000	-0.014	0.085
-192.217	-117.232	-0.192	0.034
-191.202	57.779	-0.250	-0.240
-190.187	-150.505	0.164	-0.012
-189.173	440.710	0.056	-0.121
-188.158	800.000	0.063	-0.193
-187.144	-22.526	0.291	-0.173
-186.129	-174.548	0.210	0.006
-185.114	-93.885	-0.266	0.072
-184.100	104.528	-0.048	-0.056
-183.085	-50.834	0.139	-0.064
-182.071	-195.620	0.514	0.004
-181.056	-102.838	0.154	0.036
-180.042	-104.445	0.084	-0.019
-179.027	372.850	-0.032	-0.064
-178.012	-200.000	0.018	0.104
-176.998	-30.495	0.205	-0.114
-175.983	206.193	-0.206	-0.315
-174.969	325.844	0.072	0.136
-173.954	397.514	-0.083	-0.170
-172.939	800.000	-0.045	-0.124
-171.925	21.218	-0.190	0.152
-170.910	230.099	-0.141	0.226
-169.896	150.674	-0.193	0.257
-168.881	-200.000	-0.030	-0.232
-167.866	-159.764	-0.147	0.008
-166.852	-200.000	0.015	-0.448
-165.837	307.691	0.080	-0.147
-164.823	-111.841	0.392	0.078
-163.808	-43.625	-0.144	0.071
-162.793	800.000	0.065	0.249
-161.779	225.833	-0.036	0.058
-160.764	369.180	-0.104	0.207
-159.750	-92.285	-0.150	0.041
-158.735	-200.000	0.014	-0.143
-157.720	-200.000	-0.002	0.284
-156.706	-26.229	0.196	-0.113
-155.691	-17.066	-0.305	0.189
-154.677	-200.000	0.005	-0.043
-153.662	18.316	-0.112	-0.088
-152.647	4.027	0.074	-0.053
-151.633	20.778	-0.032	0.025
-150.618	190.159	-0.157	0.232
-149.604	800.000	-0.018	-0.065
-148.589	-92.313	0.348	0.096
-147.574	-200.000	0.101	0.454
-146.560	389.828	0.167	0.339
-145.545	-108.204	-0.013	0.003
-144.531	707.865	-0.034	-0.089
-143.516	227.948	0.094	0.150
-142.502	-200.000	-0.010	0.150
-141.487	377.948	-0.058	0.117
-140.472	20.096	0.155	-0.123
-139.458	-2.517	-0.254	0.174
-138.443	204.386	0.107	-0.163
-137.429	160.460	0.196	-0.268
-136.414	-45.673	-0.035	0.017
-135.399	-83.903	-0.208	-0.065
-134.385	-11.937	-0.209	-0.134
-133.370	-137.344	0.270	0.030
-132.356	104.468	-0.019	0.022
-131.341	312.004	-0.110	-0.203
-130.326	173.416	0.221	0.313
-129.312	-145.703	-0.082	-0.007
-128.297	-200.000	-0.008	0.122
-127.283	-146.066	0.138	0.012
-126.268	583.558	0.097	-0.232
-125.253	385.061	-0.106	-0.214
-124.239	-200.000	0.000	0.005
-123.224	93.381	-0.077	0.085
-122.210	155.930	0.027	-0.037
-121.195	-73.842	-0.258	-0.092
