DTS Sentinel unit serial number:	SN413079Multiplexer serial number:	ORYXHardware model number:	OX4-SRSoftware version number:	ORYX F/W v4.00 Oryx Data Collector v3.7.2.0data status	okinstallation	princeton_trtdifferential loss correction	single-endedforward channel	channel 2reverse channel	N/Adate	2019/09/13time	13:43:35forward acquisition time	60.00reverse acquisition time	0.00gamma	496.2192k internal	0.2315k external	0.2315temperature offset calibration	1.0207default loss term (dB/km)	0.3790temperature slope calibration	1.0000multiplexer offset coefficient	1.0000multiplexer slope coefficient	1.0000fibre end	0.00T internal ref (°C)	35.12T ext. ref 1 (°C)	4.58T ext. ref 2 (°C)	31.31length (m)	temperature (°C)	Stokes	anti-Stokes-747.200	-156.993	0.327	0.020
-746.185	118.077	-0.252	0.315
-745.171	113.919	0.046	0.056
-744.156	688.969	0.167	0.443
-743.142	-142.632	0.162	0.016
-742.127	800.000	0.113	0.407
-741.112	-112.518	0.261	0.053
-740.098	800.000	0.034	0.147
-739.083	130.582	-0.113	-0.147
-738.069	-28.476	-0.296	0.173
-737.054	553.921	-0.015	-0.038
-736.039	-200.000	-0.034	0.271
-735.025	-83.875	-0.257	0.083
-734.010	-111.037	-0.240	-0.050
-732.996	800.000	0.068	-0.270
-731.981	800.000	-0.061	-0.210
-730.966	20.287	-0.077	0.063
-729.952	-127.372	-0.160	0.024
-728.937	-200.000	0.025	-0.626
-727.923	269.039	-0.005	-0.008
-726.908	29.709	-0.332	-0.286
-725.894	-10.608	0.114	0.076
-724.879	-200.000	-0.006	0.050
-723.864	-96.880	-0.188	0.050
-722.850	-16.420	0.203	-0.130
-721.835	250.341	-0.121	-0.208
-720.821	800.000	0.047	-0.155
-719.806	-200.000	-0.017	-0.161
-718.791	-79.888	-0.475	0.162
-717.777	107.340	0.062	0.075
-716.762	800.000	0.093	-0.362
-715.748	-25.962	-0.186	-0.111
-714.733	46.507	-0.148	0.139
-713.718	-7.765	-0.154	0.105
-712.704	133.186	-0.088	-0.116
-711.689	-114.260	0.175	0.034
-710.675	800.000	0.059	-0.188
-709.660	44.245	-0.100	-0.092
-708.645	-103.108	-0.115	0.028
-707.631	34.784	-0.121	0.107
-706.616	318.756	-0.195	-0.374
-705.602	102.571	-0.124	-0.147
-704.587	-200.000	-0.004	-0.428
-703.572	-3.422	0.096	0.068
-702.558	-140.339	0.025	-0.003
-701.543	303.029	0.011	-0.021
-700.529	120.747	-0.129	-0.162
-699.514	-33.968	-0.417	-0.232
-698.499	49.154	0.203	0.193
-697.485	170.772	-0.149	-0.216
-696.470	800.000	-0.037	0.157
-695.456	-106.122	-0.322	-0.073
-694.441	-2.810	0.388	-0.274
-693.426	800.000	-0.021	0.065
-692.412	-47.991	-0.280	-0.137
-691.397	334.766	0.133	-0.260
-690.383	623.005	0.109	-0.278
-689.368	29.808	0.147	-0.127
-688.354	16.851	-0.115	0.092
-687.339	-52.303	-0.110	0.051
-686.324	369.603	0.146	-0.300
-685.310	180.062	-0.087	-0.129
-684.295	403.296	-0.073	-0.155
-683.281	-11.800	-0.200	0.133
-682.266	304.095	-0.105	-0.198
-681.251	-52.547	-0.232	-0.108
-680.237	-99.245	0.027	0.007
-679.222	183.294	-0.305	0.455
-678.208	-26.823	0.162	-0.096
-677.193	-42.678	-0.261	0.134
-676.178	-81.744	0.247	0.082
-675.164	-43.673	0.301	0.153
-674.149	-200.000	-0.027	0.166
-673.135	-200.000	0.023	-0.138
-672.120	156.831	-0.101	0.141
-671.105	87.549	0.147	-0.164
-670.091	-126.557	0.359	-0.054
-669.076	472.549	-0.052	-0.118
-668.062	4.995	-0.221	-0.165
-667.047	324.022	-0.225	-0.433
-666.032	-66.462	0.056	0.022
-665.018	800.000	-0.081	-0.234
-664.003	285.193	0.084	0.152
-662.989	-200.000	0.045	-0.206
-661.974	42.252	-0.174	-0.160
-660.959	-81.988	-0.105	0.035
-659.945	-200.000	0.022	-0.173
-658.930	-77.126	-0.244	0.086
-657.916	-107.120	-0.369	-0.082
-656.901	392.019	0.061	-0.127
-655.886	114.193	0.107	-0.132
-654.872	83.161	-0.072	-0.079
-653.857	800.000	-0.053	-0.181
-652.843	-75.354	-0.271	0.097
-651.828	-6.888	0.226	-0.155
-650.814	-139.955	0.078	0.008
-649.799	-200.000	0.011	-0.257
-648.784	4.669	0.178	-0.132
-647.770	-64.538	0.178	-0.073
-646.755	459.738	0.069	-0.155
-645.741	609.339	-0.052	-0.132
-644.726	324.941	0.069	-0.132
-643.711	-200.000	0.007	0.132
-642.697	681.663	0.124	0.326
-641.682	62.229	-0.090	0.091
-640.668	497.146	-0.094	-0.217
-639.653	-200.000	-0.055	0.308
-638.638	-13.040	0.238	0.156
-637.624	-200.000	0.018	-0.260
-636.609	-200.000	0.009	-0.328
-635.595	-14.355	0.247	0.161
-634.580	-200.000	-0.003	0.301
-633.565	-180.419	-0.202	-0.004
-632.551	-49.880	-0.405	-0.194
-631.536	284.730	0.151	0.274
-630.522	46.639	-0.150	-0.140
-629.507	800.000	0.016	-0.055
-628.492	-160.801	0.070	-0.004
-627.478	74.417	0.316	0.335
-626.463	-5.187	0.188	-0.130
-625.449	574.077	-0.110	-0.271
-624.434	-200.000	-0.007	-0.106
-623.419	800.000	-0.052	-0.186
-622.405	-86.483	-0.073	0.023
-621.390	-200.000	0.024	-0.253
-620.376	-137.149	0.215	0.025
-619.361	-135.130	-0.083	0.010
-618.346	-170.517	0.233	-0.008
-617.332	-108.609	0.115	0.025
-616.317	-18.064	-0.283	-0.179
-615.303	-57.908	0.325	-0.143
-614.288	-200.000	-0.067	-0.299
-613.273	800.000	-0.023	0.086
-612.259	-187.239	0.572	0.008
-611.244	-17.813	0.053	0.034
-610.230	800.000	-0.066	0.272
-609.215	-5.306	-0.179	-0.124
-608.201	253.467	0.058	-0.100
-607.186	-200.000	-0.018	-0.119
-606.171	800.000	0.078	-0.285
-605.157	371.123	0.122	0.249
-604.142	48.187	-0.193	0.182
-603.128	-200.000	0.049	-0.267
-602.113	36.329	0.265	0.236
-601.098	182.009	-0.091	0.136
-600.084	-71.892	-0.353	0.132
-599.069	-170.202	-0.119	0.004
-598.055	-159.756	-0.096	0.005
-597.040	329.685	-0.187	0.363
-596.025	533.752	0.095	-0.227
-595.011	122.762	0.042	0.053
-593.996	-107.386	0.131	0.029
-592.982	-128.598	-0.241	-0.034
-591.967	24.459	-0.310	-0.259
-590.952	-170.508	0.370	0.013
-589.938	-78.147	-0.251	-0.087
-588.923	305.687	-0.130	0.244
-587.909	-61.752	0.104	-0.044
-586.894	-200.000	-0.019	0.118
-585.879	-200.000	-0.015	-0.077
-584.865	155.725	-0.155	0.215
-583.850	250.107	-0.175	0.300
-582.836	63.551	-0.171	0.173
-581.821	-189.119	0.237	-0.003
-580.806	119.496	-0.170	0.212
-579.792	-32.663	-0.171	-0.096
-578.777	136.244	0.182	-0.239
-577.763	642.646	-0.130	-0.334
-576.748	-12.056	0.305	-0.201
-575.733	234.926	-0.187	-0.311
-574.719	-136.179	-0.371	-0.044
-573.704	145.108	-0.126	-0.170
-572.690	106.978	-0.103	0.123
-571.675	-98.812	0.275	-0.070
-570.661	800.000	-0.073	0.307
-569.646	-200.000	-0.029	0.436
-568.631	-146.304	-0.420	0.037
-567.617	-200.000	0.039	0.174
-566.602	-140.271	-0.109	-0.012
-565.588	41.361	0.078	0.071
-564.573	-200.000	-0.023	0.188
-563.558	159.935	-0.123	-0.173
-562.544	-200.000	-0.033	0.209
-561.529	-73.779	-0.117	0.043
-560.515	422.528	0.127	-0.275
-559.500	-200.000	0.006	-0.073
-558.485	97.357	0.410	0.474
-557.471	-88.200	0.352	0.106
-556.456	-124.024	-0.087	-0.014
-555.442	-153.510	0.157	0.011
-554.427	714.457	-0.026	-0.070
-553.412	0.506	0.194	0.140
-552.398	-53.299	-0.266	-0.123
-551.383	-200.000	0.035	0.399
-550.369	-124.736	-0.267	0.042
-549.354	-125.354	-0.181	-0.028
-548.339	-13.281	-0.089	0.058
-547.325	-91.993	-0.213	-0.061
-546.310	-132.136	-0.119	0.016
-545.296	-136.625	-0.388	-0.045
-544.281	-9.477	-0.165	-0.111
-543.266	2.548	0.171	0.125
-542.252	-94.406	0.256	0.070
-541.237	16.267	-0.063	0.050
-540.223	60.620	-0.211	-0.210
-539.208	17.219	0.035	0.028
-538.193	-191.718	0.052	0.001
-537.179	-200.000	0.003	-0.103
-536.164	-0.779	0.207	-0.147
-535.150	-41.368	-0.261	0.135
-534.135	54.107	-0.115	0.111
-533.121	-29.252	-0.408	0.235
-532.106	137.659	-0.147	-0.194
-531.091	23.452	-0.217	0.179
-530.077	331.667	-0.079	0.153
-529.062	-48.874	0.120	0.058
-528.048	39.235	-0.045	-0.040
-527.033	-50.251	0.355	0.169
-526.018	800.000	0.036	-0.106
-525.004	30.059	0.104	-0.090
-523.989	-125.002	-0.328	-0.051
-522.975	800.000	0.059	0.173
-521.960	-200.000	-0.087	-0.443
-520.945	103.140	-0.174	-0.205
-519.931	-140.096	-0.127	0.013
-518.916	-127.323	-0.066	0.010
-517.902	-96.689	0.203	-0.054
-516.887	-200.000	0.005	-0.050
-515.872	0.342	-0.022	0.016
-514.858	279.995	0.114	-0.204
-513.843	-200.000	-0.010	0.144
-512.829	800.000	-0.071	-0.212
-511.814	156.969	-0.035	-0.048
-510.799	-200.000	-0.004	0.080
-509.785	71.848	0.109	0.114
-508.770	-111.740	-0.177	-0.036
-507.756	163.215	0.117	0.165
-506.741	-200.000	0.011	-0.169
-505.726	-138.670	0.130	0.014
-504.712	-200.000	-0.008	0.280
-503.697	28.215	0.099	-0.084
-502.683	359.545	-0.210	-0.422
-501.668	517.229	0.086	-0.201
-500.653	-200.000	0.004	0.193
-499.639	800.000	-0.034	-0.143
-498.624	-95.402	-0.313	-0.084
-497.610	-80.579	0.424	0.142
-496.595	-11.286	0.174	0.115
-495.581	35.055	0.121	0.106
-494.566	800.000	-0.053	-0.213
-493.551	-82.245	-0.376	-0.123
-492.537	-52.670	-0.152	-0.071
-491.522	113.175	-0.344	0.419
-490.508	0.934	0.185	-0.133
-489.493	27.797	0.323	-0.273
-488.478	-16.242	0.050	0.032
-487.464	-28.513	0.057	0.033
-486.449	-166.090	0.307	-0.013
-485.435	-182.332	-0.132	-0.002
-484.420	-200.000	-0.028	-0.135
-483.405	-148.212	-0.134	-0.011
-482.391	358.989	-0.049	0.098
-481.376	-34.099	0.241	0.133
-480.362	41.470	-0.075	-0.068
-479.347	-200.000	0.015	0.141
-478.332	-177.151	0.260	0.006
-477.318	-200.000	0.049	0.327
-476.303	-25.967	-0.129	0.076
-475.289	-200.000	-0.005	0.153
-474.274	476.988	0.172	-0.390
-473.259	226.468	-0.142	-0.231
-472.245	-49.223	0.239	0.115
-471.230	26.548	-0.077	0.065
-470.216	25.782	-0.136	0.114
-469.201	681.446	0.113	-0.294
-468.186	-113.020	-0.188	-0.037
-467.172	-58.878	0.334	0.145
-466.157	-7.062	-0.215	0.146
-465.143	-143.287	-0.437	-0.042
-464.128	117.319	-0.073	-0.090
-463.113	8.468	0.190	0.144
-462.099	-2.033	-0.275	0.193
-461.084	-93.165	-0.182	-0.051
-460.070	800.000	0.116	-0.434
-459.055	-200.000	-0.056	0.408
-458.040	-200.000	0.010	0.101
-457.026	-45.236	-0.301	0.150
-456.011	800.000	0.032	-0.138
-454.997	-121.074	-0.174	0.029
-453.982	-97.172	0.240	0.063
-452.968	-64.419	0.159	-0.065
-451.953	-173.640	-0.308	-0.009
-450.938	-70.957	0.082	0.031
-449.924	-200.000	-0.023	0.118
-448.909	-4.049	-0.224	0.155
-447.895	75.630	0.079	0.083
-446.880	-154.990	-0.254	-0.017
-445.865	-46.104	-0.164	-0.081
-444.851	-191.032	0.035	0.000
-443.836	-200.000	0.011	0.102
-442.822	-55.731	0.229	-0.102
-441.807	-200.000	-0.054	0.271
-440.792	-200.000	-0.009	0.112
-439.778	-200.000	0.007	0.149
-438.763	388.705	0.026	-0.053
-437.749	399.705	-0.153	-0.322
-436.734	-200.000	-0.044	0.251
-435.719	-200.000	-0.002	-0.157
-434.705	-144.083	-0.371	0.035
-433.690	274.053	-0.025	0.044
-432.676	-145.362	-0.361	-0.033
-431.661	200.083	0.133	-0.204
-430.646	-106.866	-0.297	-0.066
-429.632	2.871	-0.210	0.153
-428.617	-78.128	0.254	-0.087
-427.603	-42.381	0.336	0.171
-426.588	-200.000	0.070	0.359
-425.573	-200.000	0.005	-0.261
-424.559	-61.764	0.126	-0.053
-423.544	-200.000	0.014	-0.185
-422.530	-200.000	0.032	-0.202
-421.515	86.387	-0.072	-0.080
-420.500	800.000	0.022	-0.083
-419.486	-24.826	0.221	-0.131
-418.471	498.452	0.126	-0.290
-417.457	243.088	0.073	0.122
-416.442	389.768	-0.089	-0.185
-415.428	2.548	-0.128	-0.093
-414.413	80.831	0.183	0.198
-413.398	326.810	0.178	-0.341
-412.384	78.322	-0.205	0.219
-411.369	-154.632	0.218	0.015
-410.355	-58.194	-0.088	-0.038
-409.340	800.000	0.028	0.103
-408.325	387.620	0.051	-0.106
-407.311	64.906	0.179	0.181
-406.296	-38.204	0.366	0.194
-405.282	691.180	0.067	0.176
-404.267	180.310	0.074	0.108
-403.252	-47.827	0.154	-0.075
-402.238	51.948	-0.172	-0.164
-401.223	-200.000	0.053	0.292
-400.209	-125.698	-0.204	0.031
-399.194	-95.530	-0.285	0.076
-398.179	-200.000	0.018	0.082
-397.165	-83.568	0.219	-0.070
-396.150	-30.469	0.234	-0.133
-395.136	-41.647	0.309	0.159
-394.121	440.230	-0.117	-0.255
-393.106	-11.786	-0.195	0.128
-392.092	-11.011	0.251	-0.166
-391.077	800.000	0.066	0.211
-390.063	103.824	-0.117	-0.138
-389.048	103.502	0.180	0.211
-388.033	26.108	-0.130	0.109
-387.019	-113.486	0.230	0.045
-386.004	134.835	-0.015	-0.019
-384.990	186.430	0.107	0.159
-383.975	800.000	-0.085	0.262
-382.960	-200.000	-0.003	-0.060
-381.946	-34.315	-0.057	0.031
-380.931	-200.000	0.009	0.090
-379.917	-117.394	-0.245	0.044
-378.902	-200.000	0.014	-0.135
-377.888	-200.000	0.017	-0.139
-376.873	800.000	-0.036	0.137
-375.858	-52.746	0.345	-0.159
-374.844	-200.000	0.017	-0.166
-373.829	53.695	-0.045	-0.043
-372.815	86.203	-0.074	-0.082
-371.800	-200.000	-0.014	0.138
-370.785	-79.305	0.073	0.025
-369.771	-156.251	-0.164	0.010
-368.756	6.638	0.121	0.090
-367.742	-57.061	0.221	0.097
-366.727	-78.419	0.268	0.092
-365.712	-32.178	-0.069	-0.039
-364.698	155.749	-0.152	-0.209
-363.683	-79.955	0.109	0.037
-362.669	-134.086	0.046	-0.006
-361.654	-200.000	-0.007	-0.304
-360.639	86.388	-0.156	0.172
-359.625	-200.000	0.024	0.175
-358.610	-5.840	-0.155	-0.106
-357.596	66.606	0.093	-0.095
-356.581	141.765	0.162	-0.215
-355.566	-64.757	-0.222	0.090
-354.552	-37.180	0.470	0.251
-353.537	-44.539	-0.319	0.159
-352.523	-120.368	-0.118	0.020
-351.508	-124.533	-0.541	0.084
-350.493	-112.322	-0.231	-0.046
-349.479	14.796	0.085	0.067
-348.464	25.112	0.132	0.110
-347.450	197.315	-0.267	-0.407
-346.435	-90.678	0.369	-0.106
-345.420	-126.943	-0.047	-0.007
-344.406	62.372	-0.151	-0.150
-343.391	-200.000	-0.037	-0.226
-342.377	333.517	-0.148	0.285
-341.362	-28.089	0.195	0.112
-340.348	109.493	-0.247	-0.295
-339.333	97.871	0.222	0.255
-338.318	-13.790	-0.116	-0.075
-337.304	-96.552	-0.085	-0.022
-336.289	-97.151	-0.254	0.066
-335.275	7.017	0.120	0.089
-334.260	-47.207	-0.078	-0.038
-333.245	168.855	0.083	-0.117
-332.231	-64.928	-0.430	0.173
-331.216	-151.675	-0.124	0.009
-330.202	-125.316	0.219	0.033
-329.187	317.415	-0.088	0.166
-328.172	244.469	-0.034	0.058
-327.158	-200.000	-0.006	-0.034
-326.143	-200.000	-0.034	-0.190
-325.129	33.399	0.038	-0.033
-324.114	20.332	-0.003	0.002
-323.099	222.408	0.086	0.138
-322.085	-200.000	0.021	0.277
-321.070	-12.899	-0.116	-0.075
-320.056	-123.123	0.330	-0.053
-319.041	800.000	0.077	-0.304
-318.026	-200.000	-0.041	0.292
-317.012	138.142	0.064	-0.083
-315.997	26.972	0.060	0.050
-314.983	82.585	0.104	0.112
-313.968	800.000	0.064	-0.243
-312.953	-24.980	-0.207	-0.123
-311.939	-200.000	-0.058	0.267
-310.924	-14.195	0.030	0.019
-309.910	-200.000	0.013	0.141
-308.895	-135.722	0.240	0.028
-307.880	-200.000	-0.005	0.284
-306.866	-29.538	-0.107	-0.061
-305.851	800.000	-0.055	0.161
-304.837	262.001	0.076	-0.132
-303.822	347.095	0.048	-0.094
-302.807	121.268	0.227	0.281
-301.793	-93.906	-0.284	0.078
-300.778	-117.508	-0.210	-0.038
-299.764	54.035	-0.108	-0.104
-298.749	276.285	0.208	-0.368
-297.735	-10.416	-0.361	0.238
-296.720	658.632	-0.085	-0.218
-295.705	-115.870	-0.013	0.002
-294.691	5.048	0.170	-0.125
-293.676	-28.598	0.141	-0.081
-292.662	535.291	-0.075	0.178
-291.647	449.639	0.115	0.253
-290.632	56.966	0.292	-0.283
-289.618	-76.773	0.298	-0.104
-288.603	-108.610	-0.369	0.079
-287.589	800.000	0.077	0.298
-286.574	-200.000	-0.196	-0.001
-285.559	195.785	0.031	-0.046
-284.545	531.207	-0.111	-0.261
-283.530	77.390	0.223	-0.236
-282.516	2.616	-0.220	0.159
-281.501	-50.536	0.125	0.058
-280.486	-81.877	0.263	-0.086
-279.472	19.228	-0.092	0.073
-278.457	78.367	-0.138	-0.147
-277.443	49.558	-0.089	-0.083
-276.428	-200.000	0.017	-0.188
-275.413	800.000	0.051	-0.145
-274.399	96.113	-0.251	-0.286
-273.384	29.122	-0.287	-0.242
-272.370	-8.429	-0.169	-0.113
-271.355	105.054	-0.225	0.264
-270.340	800.000	0.067	-0.215
-269.326	1.435	0.151	0.108
-268.311	171.105	0.238	-0.339
-267.297	-200.000	-0.058	-0.351
-266.282	201.248	0.242	0.371
-265.267	80.682	-0.155	-0.166
-264.253	-15.107	0.096	0.061
-263.238	-200.000	0.030	0.191
-262.224	482.843	0.035	-0.078
-261.209	336.101	-0.095	-0.183
-260.195	673.445	-0.098	-0.252
-259.180	800.000	-0.099	-0.393
-258.165	800.000	-0.040	0.150
-257.151	53.217	-0.185	0.176
-256.136	43.412	-0.189	-0.172
-255.122	59.569	0.385	-0.377
-254.107	301.308	-0.037	-0.068
-253.092	-105.949	0.169	0.038
-252.078	-200.000	-0.010	-0.045
-251.063	36.433	0.144	0.126
-250.049	-200.000	0.008	0.120
-249.034	172.969	0.165	0.237
-248.019	169.631	0.156	-0.221
-247.005	-15.807	-0.129	-0.082
-245.990	-200.000	-0.019	0.240
-244.976	-41.737	0.406	0.207
-243.961	-200.000	0.029	0.176
-242.946	-200.000	0.051	0.229
-241.932	203.908	0.125	0.192
-240.917	-130.831	-0.063	-0.008
-239.903	-1.726	0.230	-0.161
-238.888	144.779	0.120	-0.160
-237.873	-36.398	0.110	-0.059
-236.859	200.302	-0.035	0.053
-235.844	-171.868	0.291	-0.009
-234.830	-52.672	-0.375	0.172
-233.815	238.896	0.152	0.251
-232.800	-88.735	0.175	0.052
-231.786	-200.000	0.115	0.582
-230.771	-49.623	-0.165	0.078
-229.757	9.600	0.225	-0.169
-228.742	-200.000	0.019	-0.105
-227.727	15.759	-0.238	0.186
-226.713	190.652	-0.203	0.303
-225.698	-50.183	0.203	0.095
-224.684	70.727	0.215	-0.221
-223.669	800.000	0.042	-0.139
-222.655	-133.616	0.135	0.017
-221.640	20.468	-0.107	0.086
-220.625	143.968	0.063	-0.084
-219.611	24.831	-0.207	-0.171
-218.596	-80.273	0.199	-0.066
-217.582	12.843	0.108	-0.083
-216.567	-18.438	-0.254	0.158
-215.552	39.678	0.141	0.126
-214.538	-85.349	0.374	0.116
-213.523	-1.762	0.148	-0.103
-212.509	-200.000	0.013	-0.123
-211.494	1.672	0.238	0.170
-210.479	-6.556	0.288	-0.195
-209.465	-61.929	0.167	0.069
-208.450	540.263	0.043	-0.101
-207.436	240.797	0.133	0.221
-206.421	-52.359	-0.211	0.097
-205.406	362.517	0.117	0.234
-204.392	-200.000	-0.001	-0.114
-203.377	48.885	0.109	0.101
-202.363	-125.668	0.261	-0.039
-201.348	168.490	-0.084	0.119
-200.333	-58.230	0.251	0.109
-199.319	102.047	0.132	0.153
-198.304	-184.381	0.158	-0.003
-197.290	577.489	-0.054	0.131
-196.275	208.675	-0.155	0.240
-195.260	800.000	-0.076	-0.240
-194.246	-41.093	-0.203	-0.104
-193.231	-200.000	-0.011	0.546
-192.217	585.788	0.079	0.192
-191.202	-111.213	0.111	-0.022
-190.187	-115.004	-0.364	-0.069
-189.173	-141.070	0.195	-0.020
-188.158	-176.072	-0.211	-0.006
-187.144	465.554	0.027	0.061
-186.129	-112.938	-0.261	-0.051
-185.114	-36.401	0.246	-0.131
-184.100	57.692	0.171	0.166
-183.085	800.000	0.091	-0.305
-182.071	-200.000	-0.002	-0.189
-181.056	684.465	-0.104	-0.270
-180.042	137.993	0.129	-0.168
-179.027	800.000	0.054	0.183
-178.012	-4.198	0.072	0.049
-176.998	-57.399	0.154	-0.067
-175.983	96.229	0.057	-0.065
-174.969	-25.257	-0.085	0.050
-173.954	-74.448	-0.334	-0.119
-172.939	800.000	0.072	0.214
-171.925	321.190	0.065	0.123
-170.910	-200.000	-0.042	-0.202
-169.896	-34.274	-0.138	-0.075
-168.881	-27.882	-0.059	-0.034
-167.866	-86.902	-0.201	0.061
-166.852	-117.000	-0.094	-0.017
-165.837	-200.000	0.009	-0.076
-164.823	514.757	0.111	-0.258
-163.808	-200.000	-0.005	0.117
-162.793	-131.078	-0.267	-0.035
-161.779	800.000	-0.056	-0.177
-160.764	204.186	0.239	-0.367
-159.750	-59.655	-0.181	0.077
-158.735	-75.893	0.283	-0.099
-157.720	-89.932	-0.328	-0.095
-156.706	-95.429	-0.178	0.047
-155.691	-78.111	0.267	0.091
-154.677	800.000	-0.067	-0.200
-153.662	184.462	-0.140	-0.205
-152.647	182.397	0.123	-0.180
-151.633	800.000	-0.051	0.213
-150.618	87.035	-0.095	-0.104
-149.604	49.277	-0.046	0.043
-148.589	137.522	0.321	0.416
-147.574	25.488	-0.250	-0.206
-146.560	-69.888	0.006	0.002
-145.545	-20.103	0.235	-0.143
-144.531	-9.884	0.348	-0.229
-143.516	-145.036	0.342	0.031
-142.502	-200.000	0.004	-0.095
-141.487	190.257	-0.295	0.438
-140.472	-200.000	0.029	0.249
-139.458	203.151	0.219	-0.335
-138.443	-200.000	-0.056	0.347
-137.429	800.000	-0.035	-0.136
-136.414	125.874	0.226	0.283
-135.399	630.521	0.094	0.235
-134.385	-99.915	0.241	0.060
-133.370	276.627	-0.056	0.099
-132.356	-87.287	0.185	0.056
-131.341	-59.927	-0.226	-0.096
-130.326	43.850	0.170	-0.154
-129.312	-200.000	0.051	-0.230
-128.297	-50.504	-0.156	-0.073
-127.283	110.356	-0.219	-0.260
-126.268	-37.408	-0.116	-0.061
-125.253	-200.000	0.080	0.424
-124.239	241.151	0.216	-0.356
-123.224	-200.000	-0.011	-0.264
-122.210	695.643	0.072	0.186
-121.195	-96.396	0.099	-0.026
