DTS Sentinel unit serial number:	SN413079Multiplexer serial number:	ORYXHardware model number:	OX4-SRSoftware version number:	ORYX F/W v4.00 Oryx Data Collector v3.7.2.0data status	okinstallation	princeton_trtdifferential loss correction	single-endedforward channel	channel 2reverse channel	N/Adate	2019/09/16time	22:03:35forward acquisition time	60.00reverse acquisition time	0.00gamma	496.2192k internal	0.2327k external	0.2327temperature offset calibration	0.9970default loss term (dB/km)	0.3790temperature slope calibration	1.0000multiplexer offset coefficient	1.0000multiplexer slope coefficient	1.0000fibre end	0.00T internal ref (°C)	31.14T ext. ref 1 (°C)	0.07T ext. ref 2 (°C)	25.17length (m)	temperature (°C)	Stokes	anti-Stokes-747.200	-200.000	-0.004	0.117
-746.185	369.294	-0.163	0.332
-745.171	-7.477	-0.207	0.141
-744.156	94.781	-0.149	0.171
-743.142	254.354	0.044	-0.076
-742.127	-145.927	0.261	-0.023
-741.112	137.204	-0.177	-0.234
-740.098	99.663	-0.180	0.210
-739.083	73.277	-0.210	0.221
-738.069	800.000	0.091	0.255
-737.054	466.365	-0.174	0.392
-736.039	55.152	-0.265	-0.258
-735.025	800.000	-0.028	0.083
-734.010	800.000	-0.114	-0.353
-732.996	-200.000	-0.052	-0.338
-731.981	224.466	0.113	-0.184
-730.966	-137.701	0.149	0.017
-729.952	-87.120	-0.462	0.142
-728.937	-65.192	-0.251	0.102
-727.923	516.213	-0.060	0.140
-726.908	69.944	-0.143	-0.148
-725.894	33.323	0.290	0.253
-724.879	-74.124	-0.440	0.161
-723.864	-76.637	-0.174	-0.061
-722.850	-167.407	0.073	0.003
-721.835	-121.643	-0.420	-0.070
-720.821	137.861	-0.094	0.124
-719.806	-41.961	0.221	-0.114
-718.791	405.254	0.104	-0.221
-717.777	484.901	-0.053	-0.121
-716.762	331.969	-0.035	-0.069
-715.748	-90.068	0.215	-0.063
-714.733	-16.377	-0.249	-0.159
-713.718	55.978	0.167	-0.163
-712.704	800.000	0.059	-0.219
-711.689	-21.701	-0.162	-0.099
-710.675	77.214	-0.251	0.269
-709.660	42.602	-0.241	0.221
-708.645	-200.000	0.030	0.000
-707.631	-111.471	0.189	-0.039
-706.616	-144.236	-0.112	-0.011
-705.602	194.437	-0.132	-0.202
-704.587	-200.000	-0.017	0.079
-703.572	214.459	-0.070	0.111
-702.558	-200.000	0.028	0.183
-701.543	-200.000	-0.008	0.189
-700.529	450.054	0.084	-0.186
-699.514	13.658	-0.281	-0.220
-698.499	-69.011	0.046	0.018
-697.485	-200.000	-0.065	-0.449
-696.470	-200.000	0.025	-0.391
-695.456	-51.729	-0.241	-0.113
-694.441	-200.000	-0.005	-0.193
-693.426	-58.646	0.188	0.082
-692.412	-200.000	0.028	-0.147
-691.397	-101.272	0.298	0.073
-690.383	-200.000	-0.006	0.104
-689.368	-78.977	0.198	-0.068
-688.354	800.000	-0.012	-0.038
-687.339	91.489	-0.165	-0.186
-686.324	482.593	0.156	-0.357
-685.310	-140.384	-0.179	-0.019
-684.295	664.186	0.080	0.209
-683.281	-200.000	-0.043	-0.347
-682.266	-91.612	-0.146	-0.042
-681.251	324.661	-0.045	-0.087
-680.237	360.324	-0.187	0.377
-679.222	154.946	-0.146	0.201
-678.208	-106.937	-0.347	0.077
-677.193	30.363	0.131	0.113
-676.178	152.395	-0.019	0.026
-675.164	122.282	-0.095	0.119
-674.149	-200.000	-0.092	-0.460
-673.135	362.023	-0.029	0.059
-672.120	274.637	0.040	0.072
-671.105	-117.439	0.382	-0.070
-670.091	-55.192	0.180	-0.081
-669.076	55.298	-0.220	-0.214
-668.062	337.451	-0.160	0.312
-667.047	86.925	0.026	0.029
-666.032	800.000	0.090	-0.255
-665.018	800.000	-0.048	-0.195
-664.003	21.089	0.181	0.148
-662.989	562.845	0.042	0.101
-661.974	39.795	-0.351	-0.316
-660.959	-10.774	-0.236	0.157
-659.945	-138.764	-0.372	0.041
-658.930	-36.307	-0.284	0.154
-657.916	800.000	0.066	-0.269
-656.901	-200.000	0.015	-0.086
-655.886	-31.323	-0.270	-0.153
-654.872	-60.173	-0.100	0.043
-653.857	-200.000	-0.082	-0.433
-652.843	-93.727	-0.115	-0.032
-651.828	-169.611	-0.244	-0.009
-650.814	-200.000	0.046	0.248
-649.799	118.271	-0.185	0.229
-648.784	-200.000	0.033	0.234
-647.770	-166.919	-0.382	0.016
-646.755	110.846	0.093	0.112
-645.741	-165.490	0.305	0.013
-644.726	96.344	-0.187	0.214
-643.711	-153.694	-0.284	-0.020
-642.697	226.903	0.127	-0.207
-641.682	-200.000	-0.031	0.385
-640.668	-159.753	0.284	0.016
-639.653	-137.194	-0.104	0.012
-638.638	536.810	0.112	-0.266
-637.624	3.365	-0.050	-0.037
-636.609	-101.722	-0.164	-0.040
-635.595	-135.612	0.336	-0.040
-634.580	358.797	0.135	0.270
-633.565	-85.855	-0.069	-0.021
-632.551	10.188	0.135	0.103
-631.536	-143.751	-0.056	-0.005
-630.522	220.154	-0.104	0.168
-629.507	-50.820	-0.086	0.040
-628.492	-45.704	0.170	-0.084
-627.478	99.816	-0.124	-0.144
-626.463	-103.197	0.016	0.004
-625.449	-200.000	-0.034	-0.216
-624.434	-135.361	-0.178	0.021
-623.419	228.817	0.154	0.252
-622.405	-200.000	0.013	0.157
-621.390	88.211	0.292	0.325
-620.376	-161.027	0.340	-0.018
-619.361	698.375	-0.006	0.015
-618.346	-200.000	0.030	0.318
-617.332	99.954	0.134	-0.155
-616.317	-155.037	0.454	-0.030
-615.303	-158.068	0.244	-0.014
-614.288	-128.564	-0.232	0.033
-613.273	-183.583	-0.224	-0.004
-612.259	-200.000	0.010	0.119
-611.244	-22.193	-0.019	-0.012
-610.230	-56.098	-0.067	-0.030
-609.215	800.000	0.070	-0.269
-608.201	287.594	-0.067	0.121
-607.186	-200.000	-0.005	0.178
-606.171	26.767	-0.129	-0.109
-605.157	77.722	0.127	-0.136
-604.142	408.258	-0.045	-0.096
-603.128	735.066	0.084	-0.224
-602.113	-86.893	-0.164	-0.050
-601.098	39.460	-0.204	-0.183
-600.084	-62.470	0.264	0.110
-599.069	102.025	-0.182	0.213
-598.055	-120.240	0.077	0.013
-597.040	9.968	-0.187	0.142
-596.025	-200.000	-0.023	0.113
-595.011	90.800	-0.264	-0.296
-593.996	-48.591	-0.380	-0.183
-592.982	-98.799	-0.111	-0.028
-591.967	-200.000	-0.033	-0.372
-590.952	441.136	-0.162	0.355
-589.938	-89.252	0.464	0.137
-588.923	-111.044	0.340	-0.070
-587.909	13.953	-0.104	0.081
-586.894	447.083	0.052	-0.115
-585.879	226.497	-0.080	0.130
-584.865	-28.727	0.176	-0.102
-583.850	-84.588	0.106	-0.033
-582.836	-93.173	-0.169	0.047
-581.821	57.934	-0.079	-0.078
-580.806	-200.000	-0.004	0.027
-579.792	-37.938	0.166	0.088
-578.777	368.021	0.152	-0.308
-577.763	800.000	-0.019	0.084
-576.748	23.591	-0.123	-0.101
-575.733	-27.542	0.304	0.177
-574.719	327.485	0.040	0.077
-573.704	-200.000	0.006	-0.045
-572.690	44.602	-0.129	0.119
-571.675	55.996	-0.209	0.203
-570.661	-156.360	-0.431	0.027
-569.646	-200.000	0.027	0.179
-568.631	244.146	-0.311	-0.524
-567.617	-200.000	-0.018	-0.148
-566.602	-25.910	0.128	0.075
-565.588	-200.000	0.019	0.165
-564.573	800.000	-0.041	-0.130
-563.558	308.839	0.164	0.306
-562.544	87.754	-0.085	0.095
-561.529	-75.330	0.110	0.039
-560.515	41.631	-0.240	-0.218
-559.500	185.341	-0.129	0.192
-558.485	576.093	0.140	-0.342
-557.471	-200.000	0.022	-0.239
-556.456	-200.000	-0.036	-0.175
-555.442	-62.927	-0.226	0.093
-554.427	-1.845	-0.121	0.085
-553.412	-38.093	-0.146	-0.078
-552.398	-19.364	-0.089	0.055
-551.383	175.165	-0.146	-0.211
-550.369	200.343	-0.183	-0.281
-549.354	800.000	-0.048	-0.170
-548.339	144.722	-0.081	0.109
-547.325	-200.000	0.040	0.214
-546.310	-200.000	-0.000	0.002
-545.296	-42.485	0.158	0.081
-544.281	4.246	0.237	0.174
-543.266	-149.396	-0.135	-0.011
-542.252	800.000	0.097	-0.386
-541.237	-18.035	-0.352	0.220
-540.223	336.244	0.054	-0.105
-539.208	-83.348	0.261	0.084
-538.193	-17.714	-0.291	-0.183
-537.179	-106.158	0.094	0.021
-536.164	59.122	-0.114	-0.112
-535.150	-200.000	-0.008	0.052
-534.135	-146.826	-0.143	0.012
-533.121	-200.000	-0.012	0.076
-532.106	-81.226	-0.328	0.108
-531.091	745.968	0.123	-0.331
-530.077	800.000	0.051	-0.166
-529.062	-12.113	0.064	-0.042
-528.048	-200.000	-0.002	-0.376
-527.033	184.223	-0.106	-0.156
-526.018	-128.818	0.246	0.035
-525.004	-200.000	-0.084	0.470
-523.989	-200.000	-0.029	0.287
-522.975	6.539	-0.302	-0.224
-521.960	800.000	-0.087	0.342
-520.945	151.132	-0.053	0.072
-519.931	-25.846	-0.066	0.039
-518.916	349.909	0.109	0.216
-517.902	-74.003	-0.217	0.079
-516.887	-200.000	-0.069	-0.391
-515.872	322.324	-0.169	0.321
-514.858	533.322	0.011	0.025
-513.843	-63.512	0.210	-0.086
-512.829	364.634	-0.197	-0.396
-511.814	-88.565	-0.297	-0.088
-510.799	800.000	0.046	-0.157
-509.785	216.654	0.166	-0.263
-508.770	-200.000	0.010	0.194
-507.756	-107.591	0.162	0.035
-506.741	-200.000	-0.013	-0.065
-505.726	-82.178	0.062	0.020
-504.712	122.929	0.066	0.082
-503.697	268.923	0.147	-0.257
-502.683	-172.548	-0.387	-0.012
-501.668	-112.227	-0.234	-0.047
-500.653	-127.842	0.041	-0.006
-499.639	76.578	0.264	-0.279
-498.624	-47.476	-0.340	0.165
-497.610	-200.000	0.006	-0.027
-496.595	103.058	-0.179	0.210
-495.581	-48.271	-0.214	0.103
-494.566	184.936	-0.060	0.089
-493.551	-94.415	0.314	0.085
-492.537	28.774	-0.121	-0.103
-491.522	-200.000	-0.008	-0.068
-490.508	21.250	-0.122	0.099
-489.493	-76.877	-0.027	0.009
-488.478	-83.943	-0.334	-0.106
-487.464	-90.415	0.246	0.071
-486.449	-53.460	-0.115	-0.053
-485.435	-83.975	-0.165	-0.052
-484.420	-200.000	0.020	-0.098
-483.405	-32.876	0.095	0.052
-482.391	800.000	0.076	0.332
-481.376	-149.852	-0.116	0.009
-480.362	203.694	-0.047	0.073
-479.347	-156.844	0.288	-0.018
-478.332	-26.192	-0.145	0.085
-477.318	-110.733	0.146	0.030
-476.303	9.064	0.135	0.101
-475.289	206.414	0.147	0.228
-474.274	-200.000	-0.024	0.366
-473.259	-25.248	0.145	0.085
-472.245	-110.549	0.261	0.054
-471.230	-200.000	0.021	0.102
-470.216	167.277	-0.223	-0.316
-469.201	800.000	0.070	0.231
-468.186	-39.969	0.234	0.122
-467.172	53.711	-0.043	0.041
-466.157	-173.258	-0.446	-0.014
-465.143	192.851	0.127	-0.192
-464.128	2.026	0.309	0.222
-463.113	-29.709	-0.177	0.101
-462.099	-12.806	0.200	0.130
-461.084	-64.473	-0.430	0.174
-460.070	-53.466	-0.288	0.131
-459.055	-27.938	-0.246	0.142
-458.040	114.929	0.068	-0.083
-457.026	-129.407	0.085	0.012
-456.011	-56.297	0.388	0.172
-454.997	219.606	0.167	0.267
-453.982	-25.287	0.171	0.101
-452.968	92.879	0.226	0.254
-451.953	-47.089	-0.104	0.051
-450.938	-81.254	0.302	0.099
-449.924	-21.732	0.074	-0.045
-448.909	113.490	-0.158	-0.191
-447.895	-4.398	-0.156	-0.108
-446.880	35.596	-0.187	-0.164
-445.865	-84.651	0.362	0.114
-444.851	800.000	0.068	0.194
-443.836	-139.900	0.171	-0.018
-442.822	760.229	0.077	0.209
-441.807	-111.048	-0.046	-0.009
-440.792	800.000	0.044	0.147
-439.778	32.471	-0.158	-0.136
-438.763	800.000	-0.054	0.211
-437.749	186.087	0.089	-0.131
-436.734	-167.081	0.201	-0.008
-435.719	156.516	-0.239	0.328
-434.705	-110.929	0.234	0.048
-433.690	800.000	0.085	0.258
-432.676	-200.000	-0.007	-0.199
-431.661	-200.000	-0.026	-0.161
-430.646	38.758	0.171	-0.152
-429.632	-46.921	0.194	0.094
-428.617	30.412	-0.196	-0.167
-427.603	56.968	0.048	0.047
-426.588	109.809	-0.076	-0.091
-425.573	84.383	-0.220	-0.239
-424.559	111.145	-0.141	-0.170
-423.544	-200.000	0.001	-0.269
-422.530	-45.151	0.169	0.084
-421.515	-93.446	-0.139	0.038
-420.500	-125.636	0.152	-0.023
-419.486	178.696	0.020	-0.029
-418.471	-118.586	0.123	0.022
-417.457	-163.093	0.299	0.014
-416.442	46.823	0.205	0.189
-415.428	56.535	0.093	-0.090
-414.413	-56.568	-0.387	0.171
-413.398	-190.249	0.050	0.001
-412.384	-20.311	-0.104	0.064
-411.369	-18.466	0.196	0.122
-410.355	121.832	0.120	-0.149
-409.340	-20.771	0.365	0.223
-408.325	741.137	0.085	-0.227
-407.311	265.894	0.143	-0.247
-406.296	-103.440	0.564	-0.132
-405.282	800.000	0.155	-0.426
-404.267	-118.466	-0.258	-0.045
-403.252	-84.068	-0.215	0.068
-402.238	167.361	0.074	-0.105
-401.223	-120.286	0.321	-0.055
-400.209	-169.878	-0.058	0.002
-399.194	-200.000	0.119	-0.529
-398.179	-3.639	-0.194	-0.134
-397.165	800.000	0.038	-0.144
-396.150	800.000	0.053	-0.193
-395.136	-92.388	0.410	-0.115
-394.121	789.042	-0.141	-0.385
-393.106	295.312	0.080	-0.146
-392.092	800.000	0.071	-0.282
-391.077	-200.000	0.038	-0.230
-390.063	-144.854	-0.096	-0.009
-389.048	-54.968	-0.274	0.123
-388.033	-45.852	-0.376	0.185
-387.019	254.244	0.050	0.085
-386.004	197.101	-0.147	-0.224
-384.990	-17.479	-0.157	0.098
-383.975	-36.938	-0.166	0.088
-382.960	800.000	0.061	0.255
-381.946	62.354	0.188	0.186
-380.931	-200.000	-0.060	-0.407
-379.917	800.000	0.131	0.376
-378.902	569.853	0.057	0.139
-377.888	-57.004	-0.170	0.075
-376.873	-65.853	0.129	-0.051
-375.858	734.710	-0.097	-0.258
-374.844	-200.000	0.022	0.096
-373.829	-24.969	-0.065	0.038
-372.815	22.839	-0.097	0.079
-371.800	120.384	0.228	-0.281
-370.785	137.462	-0.136	-0.177
-369.771	213.182	-0.196	-0.307
-368.756	247.582	0.087	0.146
-367.742	409.686	-0.080	0.169
-366.727	-1.675	0.125	-0.087
-365.712	-200.000	0.036	0.232
-364.698	259.322	0.072	0.123
-363.683	-200.000	0.044	0.478
-362.669	196.512	-0.153	-0.232
-361.654	-200.000	0.006	0.037
-360.639	85.693	-0.185	0.202
-359.625	-200.000	0.000	0.261
-358.610	-49.296	-0.239	0.113
-357.596	-18.603	-0.153	0.095
-356.581	-130.663	-0.177	-0.024
-355.566	-200.000	0.268	0.001
-354.552	142.714	-0.073	-0.096
-353.537	633.962	-0.054	0.136
-352.523	27.545	0.193	-0.161
-351.508	-200.000	-0.002	0.196
-350.493	123.855	-0.077	0.096
-349.479	19.340	0.276	0.220
-348.464	122.983	-0.150	-0.186
-347.450	-200.000	-0.023	-0.118
-346.435	177.260	-0.001	0.001
-345.420	800.000	0.113	-0.385
-344.406	-140.527	0.094	-0.010
-343.391	-7.373	-0.265	0.178
-342.377	-56.225	0.078	-0.034
-341.362	-200.000	0.017	-0.162
-340.348	-121.018	-0.242	0.040
-339.333	800.000	0.086	0.287
-338.318	-200.000	-0.050	-0.308
-337.304	336.206	0.063	0.121
-336.289	10.901	0.249	0.189
-335.275	-200.000	-0.007	-0.038
-334.260	-10.696	0.268	-0.176
-333.245	400.582	-0.061	0.127
-332.231	190.081	-0.112	-0.166
-331.216	-200.000	0.039	-0.265
-330.202	55.095	0.125	-0.120
-329.187	-94.222	0.215	-0.058
-328.172	-95.108	-0.082	0.022
-327.158	-82.426	0.074	-0.024
-326.143	-85.572	0.374	0.115
-325.129	7.074	-0.049	-0.036
-324.114	-200.000	0.048	-0.457
-323.099	81.316	-0.035	-0.037
-322.085	641.031	0.111	-0.281
-321.070	-81.039	0.006	-0.002
-320.056	-81.863	-0.371	0.120
-319.041	800.000	-0.059	0.189
-318.026	119.812	0.170	-0.209
-317.012	260.549	-0.055	-0.094
-315.997	362.911	0.080	0.158
-314.983	-0.325	0.208	-0.147
-313.968	-52.070	-0.056	-0.026
-312.953	-136.811	0.143	-0.016
-311.939	-34.680	-0.104	-0.056
-310.924	-200.000	0.007	0.100
-309.910	285.360	0.073	0.130
-308.895	-200.000	0.044	-0.233
-307.880	-12.101	0.119	-0.077
-306.866	-24.685	-0.313	-0.185
-305.851	-81.189	0.177	-0.058
-304.837	142.943	-0.241	0.317
-303.822	-141.027	-0.297	-0.030
-302.807	-49.273	0.381	-0.180
-301.793	-200.000	-0.007	-0.135
-300.778	-174.393	-0.197	0.006
-299.764	800.000	0.052	-0.212
-298.749	259.340	-0.066	-0.112
-297.735	-72.372	0.261	0.096
-296.720	800.000	0.072	0.292
-295.705	-88.762	-0.405	0.119
-294.691	-200.000	-0.014	-0.123
-293.676	314.226	-0.132	-0.245
-292.662	-57.144	-0.309	-0.135
-291.647	-55.217	-0.242	0.108
-290.632	173.756	-0.202	-0.289
-289.618	252.460	0.096	0.162
-288.603	800.000	0.056	-0.200
-287.589	-15.081	-0.147	-0.094
-286.574	-27.952	0.161	0.092
-285.559	29.163	-0.037	0.031
-284.545	6.414	0.084	0.062
-283.530	163.695	0.110	0.153
-282.516	250.601	-0.131	0.220
-281.501	-87.653	0.066	0.020
-280.486	35.980	-0.113	0.099
-279.472	-137.727	-0.062	-0.007
-278.457	142.341	0.205	0.270
-277.443	-200.000	0.198	-0.001
-276.428	107.526	0.241	-0.284
-275.413	-97.531	0.367	-0.094
-274.399	94.938	-0.135	-0.152
-273.384	-92.503	0.024	0.007
-272.370	54.183	0.220	-0.209
-271.355	-200.000	-0.018	-0.146
-270.340	51.886	0.222	-0.209
-269.326	-200.000	-0.009	0.066
-268.311	-52.399	-0.127	-0.058
-267.297	-81.040	-0.049	-0.016
-266.282	800.000	-0.096	0.274
-265.267	38.697	-0.132	-0.117
-264.253	427.504	-0.099	-0.212
-263.238	234.799	0.123	-0.201
-262.224	-200.000	-0.028	-0.309
-261.209	-87.710	-0.175	-0.052
-260.195	9.463	0.284	0.213
-259.180	0.342	0.187	0.132
-258.165	-109.926	0.222	-0.046
-257.151	-95.473	-0.236	0.063
-256.136	-129.582	0.374	-0.051
-255.122	-200.000	0.045	-0.217
-254.107	46.574	-0.207	0.190
-253.092	800.000	0.059	0.202
-252.078	4.858	0.235	0.171
-251.063	-200.000	-0.018	-0.283
-250.049	75.593	-0.191	-0.199
-249.034	21.224	0.128	0.103
-248.019	-42.415	-0.286	0.144
-247.005	-95.368	-0.452	0.120
-245.990	800.000	-0.024	0.092
-244.976	-173.305	-0.201	0.006
-243.961	87.925	0.202	0.221
-242.946	224.277	-0.099	0.158
-241.932	59.837	0.251	0.245
-240.917	122.400	0.136	-0.168
-239.903	302.489	-0.112	0.206
-238.888	-56.061	-0.145	0.064
-237.873	287.124	-0.131	0.234
-236.859	-200.000	0.057	0.334
-235.844	47.656	-0.082	0.076
-234.830	-98.312	-0.135	-0.034
-233.815	800.000	0.081	0.316
-232.800	-141.997	-0.392	-0.039
-231.786	32.773	0.360	-0.308
-230.771	-200.000	0.035	-0.292
-229.757	468.786	-0.030	0.066
-228.742	800.000	-0.044	-0.187
-227.727	800.000	-0.099	-0.304
-226.713	405.870	0.135	-0.282
-225.698	-35.910	0.266	-0.142
-224.684	800.000	-0.023	0.098
-223.669	504.737	0.023	0.052
-222.655	114.047	0.099	0.119
-221.640	-126.093	0.193	-0.029
-220.625	28.856	-0.087	-0.073
-219.611	326.028	-0.040	-0.076
-218.596	102.001	-0.146	0.168
-217.582	165.569	0.086	-0.120
-216.567	-200.000	0.014	-0.069
-215.552	800.000	0.059	-0.194
-214.538	-102.444	-0.135	-0.032
-213.523	800.000	-0.024	-0.072
-212.509	800.000	-0.120	-0.374
-211.494	-200.000	0.051	0.258
-210.479	48.751	0.089	0.083
-209.465	-33.845	0.305	-0.166
-208.450	-82.461	0.140	0.045
-207.436	34.437	0.198	-0.171
-206.421	599.368	0.053	0.129
-205.406	-56.891	-0.087	-0.038
-204.392	87.989	0.300	-0.328
-203.377	-200.000	0.101	-0.461
-202.363	-70.481	-0.113	-0.042
-201.348	-200.000	0.004	0.283
-200.333	448.507	0.149	0.325
-199.319	-200.000	-0.012	0.351
-198.304	-132.104	-0.212	-0.027
-197.290	-139.292	0.154	-0.016
-196.275	-200.000	-0.017	0.169
-195.260	-200.000	0.031	0.247
-194.246	75.785	-0.058	-0.060
-193.231	357.938	0.084	0.166
-192.217	149.579	-0.050	-0.066
-191.202	131.602	0.053	-0.068
-190.187	40.390	0.339	-0.301
-189.173	371.005	-0.118	0.236
-188.158	-103.662	0.155	-0.036
-187.144	81.899	-0.171	0.183
-186.129	-109.591	-0.252	-0.052
-185.114	800.000	0.039	-0.141
-184.100	31.783	-0.128	0.108
-183.085	539.531	0.076	-0.178
-182.071	-149.677	0.103	0.008
-181.056	125.516	-0.150	-0.186
-180.042	800.000	0.097	0.345
-179.027	4.548	0.118	-0.085
-178.012	-200.000	-0.049	0.218
-176.998	-200.000	-0.014	0.272
-175.983	179.564	-0.152	0.220
-174.969	-30.567	-0.224	-0.125
-173.954	134.809	0.126	-0.162
-172.939	-200.000	-0.074	0.386
-171.925	-32.795	-0.377	0.206
-170.910	-96.085	-0.018	-0.005
-169.896	228.776	0.052	-0.083
-168.881	3.697	0.051	0.037
-167.866	-83.304	-0.177	0.056
-166.852	-101.604	0.198	0.047
-165.837	-131.415	0.251	-0.033
-164.823	800.000	0.011	-0.043
-163.808	328.419	-0.138	-0.261
-162.793	-200.000	-0.003	0.539
-161.779	-200.000	0.011	0.368
-160.764	21.151	-0.264	0.211
-159.750	539.940	-0.152	-0.357
-158.735	161.730	-0.187	-0.257
-157.720	-200.000	0.031	0.147
-156.706	86.665	0.120	-0.130
-155.691	-200.000	-0.015	0.137
-154.677	-166.716	-0.277	0.011
-153.662	-147.208	-0.155	0.013
-152.647	-131.435	-0.099	0.013
-151.633	-126.558	0.468	-0.068
-150.618	-200.000	-0.002	-0.042
-149.604	-200.000	-0.020	0.091
-148.589	-162.207	0.166	0.008
-147.574	-16.928	0.019	0.012
-146.560	-200.000	0.017	0.211
-145.545	-140.277	0.051	0.005
-144.531	264.183	-0.269	0.461
-143.516	213.627	-0.073	-0.113
-142.502	70.404	-0.082	-0.083
-141.487	184.269	-0.194	0.283
-140.472	-189.814	-0.132	0.001
-139.458	-117.068	-0.282	0.051
-138.443	75.050	-0.222	-0.230
-137.429	134.906	-0.150	-0.191
-136.414	123.947	0.172	0.212
-135.399	88.793	0.088	0.097
-134.385	-68.892	-0.216	-0.082
-133.370	-1.228	0.139	0.096
-132.356	800.000	-0.048	-0.137
-131.341	-7.476	0.148	-0.098
-130.326	-98.743	-0.091	0.023
-129.312	279.800	-0.168	0.296
-128.297	-200.000	0.010	0.048
-127.283	-57.617	-0.125	-0.054
-126.268	1.158	0.241	0.171
-125.253	471.163	0.214	0.474
-124.239	800.000	0.034	-0.143
-123.224	-95.989	0.245	0.064
-122.210	470.645	0.195	0.431
-121.195	-200.000	0.048	-0.285
