DTS Sentinel unit serial number:	SN413079Multiplexer serial number:	ORYXHardware model number:	OX4-SRSoftware version number:	ORYX F/W v4.00 Oryx Data Collector v3.7.2.0data status	okinstallation	princeton_trtdifferential loss correction	single-endedforward channel	channel 2reverse channel	N/Adate	2019/09/16time	21:27:35forward acquisition time	60.00reverse acquisition time	0.00gamma	496.2192k internal	0.2329k external	0.2329temperature offset calibration	0.9969default loss term (dB/km)	0.3790temperature slope calibration	1.0000multiplexer offset coefficient	1.0000multiplexer slope coefficient	1.0000fibre end	0.00T internal ref (°C)	31.52T ext. ref 1 (°C)	0.05T ext. ref 2 (°C)	25.50length (m)	temperature (°C)	Stokes	anti-Stokes-747.200	193.731	-0.078	0.118
-746.185	-200.000	0.017	0.330
-745.171	-38.787	-0.090	-0.048
-744.156	703.615	-0.223	0.591
-743.142	-165.818	0.173	0.008
-742.127	70.790	-0.148	0.155
-741.112	284.290	-0.159	-0.289
-740.098	187.821	-0.122	0.184
-739.083	-200.000	-0.008	0.047
-738.069	-200.000	-0.022	0.217
-737.054	-25.252	-0.116	-0.069
-736.039	396.323	-0.105	0.221
-735.025	-130.370	0.128	0.017
-734.010	-125.883	-0.383	-0.058
-732.996	37.036	-0.112	0.100
-731.981	248.904	-0.018	-0.031
-730.966	-200.000	0.040	0.454
-729.952	-80.817	-0.140	-0.047
-728.937	-200.000	-0.036	-0.429
-727.923	-31.557	-0.170	0.096
-726.908	12.484	0.397	0.308
-725.894	-75.285	0.255	-0.092
-724.879	337.810	0.055	0.107
-723.864	-109.230	0.134	0.029
-722.850	123.519	0.225	-0.284
-721.835	-88.706	0.277	0.083
-720.821	-160.921	-0.136	0.007
-719.806	-125.180	-0.205	-0.032
-718.791	-86.183	-0.216	-0.067
-717.777	-200.000	-0.068	0.456
-716.762	800.000	0.101	0.373
-715.748	65.898	-0.123	0.125
-714.733	-200.000	-0.004	-0.400
-713.718	-84.546	-0.091	-0.029
-712.704	-200.000	-0.001	-0.041
-711.689	-32.710	0.018	0.010
-710.675	-113.249	-0.245	-0.048
-709.660	-143.220	-0.302	0.029
-708.645	-41.708	0.030	-0.016
-707.631	-176.759	0.222	-0.006
-706.616	54.794	0.165	-0.161
-705.602	68.845	0.179	0.185
-704.587	-200.000	0.003	0.078
-703.572	-200.000	0.029	-0.174
-702.558	800.000	0.071	-0.218
-701.543	539.786	-0.051	0.122
-700.529	-17.422	0.341	-0.216
-699.514	-27.382	0.228	0.133
-698.499	-19.312	-0.214	0.134
-697.485	-200.000	-0.033	-0.164
-696.470	-120.264	0.234	0.040
-695.456	-1.980	-0.156	-0.110
-694.441	-68.792	-0.384	0.149
-693.426	-45.056	-0.155	-0.078
-692.412	483.917	0.173	-0.396
-691.397	190.656	0.353	-0.533
-690.383	-57.770	-0.281	-0.123
-689.368	800.000	0.036	0.132
-688.354	129.706	-0.136	0.174
-687.339	19.310	-0.164	0.133
-686.324	155.450	-0.221	0.305
-685.310	-200.000	-0.024	-0.320
-684.295	800.000	-0.107	-0.297
-683.281	299.512	-0.046	0.085
-682.266	-194.137	-0.083	0.001
-681.251	-70.730	0.292	0.111
-680.237	207.076	0.123	-0.193
-679.222	37.611	-0.256	-0.229
-678.208	49.090	-0.224	0.211
-677.193	587.264	-0.166	-0.412
-676.178	100.250	0.211	0.246
-675.164	160.561	-0.144	0.201
-674.149	-198.922	-0.151	0.001
-673.135	-25.879	-0.218	0.129
-672.120	315.024	0.135	-0.255
-671.105	-32.576	-0.180	-0.101
-670.091	491.731	0.176	-0.405
-669.076	-200.000	-0.001	0.094
-668.062	-63.783	0.219	-0.090
-667.047	-57.480	0.228	-0.101
-666.032	-200.000	0.041	0.194
-665.018	-200.000	0.067	0.334
-664.003	-139.596	-0.109	-0.012
-662.989	-200.000	-0.008	-0.264
-661.974	371.493	-0.073	-0.148
-660.959	-200.000	-0.051	0.308
-659.945	-200.000	0.022	0.168
-658.930	800.000	0.038	-0.165
-657.916	-40.375	0.160	0.083
-656.901	-200.000	0.043	0.276
-655.886	-200.000	0.045	0.207
-654.872	44.599	0.264	0.244
-653.857	-140.022	0.258	0.027
-652.843	-29.893	-0.292	0.167
-651.828	162.852	-0.160	0.226
-650.814	242.691	-0.098	0.164
-649.799	-80.860	0.154	-0.051
-648.784	747.239	0.095	-0.257
-647.770	84.321	-0.292	-0.320
-646.755	-135.060	-0.401	0.049
-645.741	25.696	-0.092	0.077
-644.726	800.000	0.055	0.240
-643.711	-0.500	0.154	-0.109
-642.697	-70.756	0.161	-0.061
-641.682	124.807	0.171	-0.216
-640.668	-28.203	-0.179	-0.104
-639.653	-153.478	-0.430	-0.030
-638.638	225.654	-0.113	-0.184
-637.624	-123.659	0.361	0.057
-636.609	800.000	0.057	0.163
-635.595	-200.000	-0.039	0.181
-634.580	69.495	-0.119	-0.123
-633.565	800.000	0.058	-0.183
-632.551	107.711	-0.276	0.329
-631.536	-94.668	0.065	0.018
-630.522	-99.069	-0.202	0.051
-629.507	-94.616	0.273	-0.074
-628.492	170.592	0.125	0.180
-627.478	-12.752	-0.204	0.133
-626.463	-200.000	-0.023	0.439
-625.449	800.000	0.027	0.099
-624.434	338.944	0.103	0.201
-623.419	364.872	0.124	0.250
-622.405	-171.489	0.297	0.010
-621.390	108.194	0.101	0.121
-620.376	18.886	0.175	-0.140
-619.361	162.448	-0.085	-0.120
-618.346	295.458	-0.151	-0.277
-617.332	89.453	0.144	0.161
-616.317	800.000	-0.097	-0.333
-615.303	103.139	0.162	-0.190
-614.288	790.596	-0.121	0.333
-613.273	177.875	-0.204	0.298
-612.259	-200.000	-0.052	-0.320
-611.244	-92.196	-0.385	0.109
-610.230	35.359	-0.044	0.039
-609.215	800.000	0.080	-0.312
-608.201	-81.291	-0.246	0.081
-607.186	21.733	0.101	-0.083
-606.171	-200.000	-0.030	-0.178
-605.157	-200.000	0.004	0.182
-604.142	515.430	0.091	-0.213
-603.128	-133.445	0.220	-0.028
-602.113	-112.284	-0.219	0.044
-601.098	10.928	-0.152	0.116
-600.084	-39.090	-0.143	0.075
-599.069	-71.179	-0.253	0.095
-598.055	-77.278	-0.101	-0.035
-597.040	337.245	-0.090	0.175
-596.025	274.448	-0.081	0.143
-595.011	-143.131	-0.242	0.023
-593.996	-14.519	0.094	-0.060
-592.982	71.882	-0.106	0.110
-591.967	-93.419	0.205	-0.057
-590.952	0.685	-0.269	-0.193
-589.938	202.673	0.044	0.068
-588.923	-101.964	0.290	0.070
-587.909	-44.164	-0.295	0.148
-586.894	800.000	-0.044	0.131
-585.879	-200.000	0.095	-0.494
-584.865	-13.694	0.101	0.066
-583.850	-110.493	0.238	-0.049
-582.836	-16.904	-0.402	0.254
-581.821	-200.000	0.038	0.178
-580.806	-200.000	0.027	0.342
-579.792	-81.684	-0.179	0.059
-578.777	264.981	0.049	-0.086
-577.763	-193.534	0.117	0.001
-576.748	36.005	-0.214	0.188
-575.733	13.976	0.149	0.116
-574.719	181.633	-0.125	-0.184
-573.704	564.296	0.063	0.152
-572.690	39.177	0.352	0.315
-571.675	800.000	-0.030	-0.094
-570.661	80.575	-0.024	0.026
-569.646	98.950	-0.301	-0.348
-568.631	-200.000	-0.028	0.178
-567.617	742.165	-0.024	0.065
-566.602	-72.367	-0.191	-0.071
-565.588	-138.461	-0.491	-0.054
-564.573	224.539	-0.227	-0.367
-563.558	-172.135	0.225	0.007
-562.544	88.061	-0.226	0.251
-561.529	800.000	0.159	0.496
-560.515	-68.812	0.127	0.049
-559.500	-25.300	-0.126	-0.075
-558.485	-129.519	-0.256	-0.035
-557.471	592.153	-0.118	-0.291
-556.456	161.766	0.189	-0.265
-555.442	800.000	-0.051	-0.149
-554.427	217.456	0.076	-0.121
-553.412	30.390	-0.168	0.144
-552.398	-190.798	0.247	0.003
-551.383	303.957	0.055	0.103
-550.369	92.046	-0.264	0.297
-549.354	62.702	0.166	0.166
-548.339	800.000	-0.046	-0.146
-547.325	117.692	0.100	0.123
-546.310	800.000	-0.142	-0.444
-545.296	-200.000	0.035	-0.348
-544.281	-165.740	0.156	-0.007
-543.266	-185.090	0.321	0.005
-542.252	-74.700	-0.076	0.027
-541.237	-55.345	-0.264	-0.119
-540.223	-102.722	0.272	0.065
-539.208	749.006	0.088	-0.236
-538.193	-67.309	-0.344	0.135
-537.179	190.777	-0.142	0.214
-536.164	-200.000	-0.001	0.082
-535.150	-158.603	0.358	0.021
-534.135	75.106	0.009	-0.010
-533.121	-200.000	-0.037	-0.253
-532.106	-200.000	-0.012	-0.250
-531.091	-22.402	-0.242	0.147
-530.077	-72.946	0.491	-0.180
-529.062	-159.548	-0.233	-0.013
-528.048	-47.845	-0.322	-0.156
-527.033	-200.000	0.002	-0.088
-526.018	448.512	0.130	0.286
-525.004	-122.161	0.153	-0.025
-523.989	800.000	0.089	-0.307
-522.975	800.000	0.088	-0.282
-521.960	-74.604	0.139	-0.050
-520.945	-200.000	0.003	-0.092
-519.931	-200.000	-0.007	-0.212
-518.916	-102.806	-0.110	0.026
-517.902	-200.000	-0.012	-0.240
-516.887	-200.000	-0.046	0.371
-515.872	-133.753	-0.141	0.018
-514.858	-200.000	0.032	0.304
-513.843	91.925	-0.059	-0.067
-512.829	-187.292	-0.145	-0.002
-511.814	-84.528	-0.333	0.105
-510.799	-60.588	0.199	0.084
-509.785	57.399	-0.139	-0.135
-508.770	245.385	0.227	-0.382
-507.756	-200.000	-0.051	-0.244
-506.741	800.000	-0.009	-0.029
-505.726	310.370	0.167	-0.312
-504.712	-29.655	-0.253	-0.144
-503.697	-163.525	0.240	0.011
-502.683	-86.907	0.396	-0.121
-501.668	22.787	-0.088	-0.072
-500.653	152.629	0.131	0.178
-499.639	-188.192	-0.157	-0.002
-498.624	-79.011	0.266	0.090
-497.610	121.769	-0.109	0.136
-496.595	-75.243	0.180	0.064
-495.581	-32.984	-0.037	-0.021
-494.566	-200.000	-0.001	-0.085
-493.551	800.000	-0.015	0.048
-492.537	800.000	0.070	0.200
-491.522	-114.234	0.226	-0.044
-490.508	50.719	-0.262	0.247
-489.493	-23.145	-0.122	0.073
-488.478	-200.000	0.010	0.289
-487.464	196.825	-0.164	-0.249
-486.449	174.347	0.131	-0.189
-485.435	800.000	-0.081	0.275
-484.420	-144.980	-0.099	0.009
-483.405	515.113	-0.067	0.156
-482.391	653.514	0.062	0.158
-481.376	-53.991	-0.256	0.116
-480.362	-200.000	0.011	-0.092
-479.347	0.450	-0.174	-0.124
-478.332	-108.961	-0.113	-0.024
-477.318	2.006	-0.133	0.095
-476.303	23.647	0.151	-0.124
-475.289	-107.990	-0.301	-0.065
-474.274	-31.357	-0.170	-0.095
-473.259	11.284	-0.277	-0.211
-472.245	-200.000	-0.014	0.067
-471.230	-0.005	0.135	-0.096
-470.216	18.991	-0.251	0.201
-469.201	-92.197	0.123	-0.035
-468.186	800.000	0.026	-0.097
-467.172	-18.929	-0.139	0.086
-466.157	-200.000	-0.005	0.037
-465.143	-200.000	-0.009	-0.041
-464.128	463.588	0.050	0.110
-463.113	47.591	0.214	-0.199
-462.099	18.343	-0.377	-0.300
-461.084	126.110	-0.110	-0.139
-460.070	47.872	0.114	0.106
-459.055	442.284	-0.111	-0.242
-458.040	-200.000	0.006	-0.249
-457.026	800.000	-0.032	0.116
-456.011	-9.123	-0.092	0.061
-454.997	468.693	0.153	0.341
-453.982	470.103	-0.033	0.074
-452.968	-200.000	-0.007	-0.257
-451.953	-117.882	0.150	0.027
-450.938	-107.910	-0.157	0.034
-449.924	93.915	0.223	-0.252
-448.909	-200.000	0.008	0.122
-447.895	-200.000	0.145	-0.681
-446.880	-200.000	0.012	-0.062
-445.865	-15.018	-0.213	0.136
-444.851	7.904	-0.127	-0.095
-443.836	-37.196	0.083	0.044
-442.822	-6.908	0.076	-0.051
-441.807	29.868	-0.131	0.111
-440.792	-200.000	-0.019	-0.179
-439.778	-200.000	0.044	0.215
-438.763	-48.528	0.325	-0.156
-437.749	800.000	0.106	-0.337
-436.734	-7.338	0.230	0.155
-435.719	30.162	-0.161	-0.137
-434.705	330.876	-0.126	-0.241
-433.690	800.000	0.108	-0.333
-432.676	271.537	-0.081	0.143
-431.661	-127.249	0.155	0.023
-430.646	-200.000	-0.033	0.340
-429.632	-58.873	-0.302	0.130
-428.617	485.646	-0.020	-0.045
-427.603	-7.617	-0.311	0.209
-426.588	-87.243	-0.303	-0.092
-425.573	-111.953	-0.350	-0.070
-424.559	-140.830	0.160	-0.016
-423.544	-28.570	-0.022	0.013
-422.530	-156.264	-0.139	-0.009
-421.515	42.558	0.261	0.236
-420.500	8.645	0.223	0.167
-419.486	104.009	-0.122	0.142
-418.471	-83.647	0.185	0.059
-417.457	800.000	0.110	0.308
-416.442	-90.184	-0.104	-0.030
-415.428	43.129	-0.215	-0.195
-414.413	-200.000	0.021	0.201
-413.398	-100.223	-0.129	0.032
-412.384	-40.242	-0.124	0.064
-411.369	89.678	-0.177	0.196
-410.355	800.000	0.088	0.259
-409.340	175.837	-0.066	0.096
-408.325	-93.005	-0.357	0.099
-407.311	800.000	-0.067	0.202
-406.296	800.000	0.055	-0.194
-405.282	265.521	0.018	-0.031
-404.267	222.091	-0.194	0.310
-403.252	47.035	0.283	0.261
-402.238	-200.000	-0.015	-0.226
-401.223	-9.499	-0.264	0.175
-400.209	-176.257	0.019	-0.001
-399.194	363.789	-0.137	-0.274
-398.179	322.441	0.119	0.225
-397.165	129.016	0.253	-0.321
-396.150	800.000	0.060	0.251
-395.136	800.000	-0.041	0.154
-394.121	272.264	0.233	0.408
-393.106	-11.637	0.195	-0.128
-392.092	184.320	0.132	-0.194
-391.077	-9.775	-0.208	-0.138
-390.063	206.948	0.111	-0.172
-389.048	-7.534	-0.112	0.076
-388.033	-128.098	-0.254	-0.036
-387.019	-73.946	-0.276	-0.100
-386.004	212.503	0.030	0.047
-384.990	110.809	-0.224	-0.268
-383.975	65.723	0.354	-0.356
-382.960	-200.000	-0.001	0.252
-381.946	-200.000	-0.003	-0.053
-380.931	-142.819	-0.251	-0.024
-379.917	35.142	-0.218	0.190
-378.902	-200.000	0.002	-0.227
-377.888	-29.121	0.079	0.045
-376.873	-198.444	0.267	-0.002
-375.858	-20.601	0.146	0.089
-374.844	-63.272	-0.198	-0.081
-373.829	120.392	0.187	-0.230
-372.815	-158.412	-0.110	0.006
-371.800	-188.058	-0.053	0.001
-370.785	198.904	0.146	-0.221
-369.771	800.000	0.051	0.171
-368.756	-194.552	0.165	0.001
-367.742	-200.000	0.017	0.093
-366.727	-51.026	0.330	-0.154
-365.712	800.000	-0.119	-0.368
-364.698	-123.196	0.322	0.051
-363.683	-11.653	0.289	0.188
-362.669	-149.604	-0.210	0.016
-361.654	-34.442	-0.136	0.074
-360.639	127.684	0.118	0.148
-359.625	-137.509	0.226	0.025
-358.610	-72.436	-0.110	0.040
-357.596	-200.000	-0.017	0.123
-356.581	-200.000	0.037	0.239
-355.566	46.178	0.072	0.067
-354.552	55.096	0.271	0.260
-353.537	-200.000	-0.012	0.062
-352.523	-182.750	0.109	-0.002
-351.508	-163.321	-0.306	0.014
-350.493	-200.000	-0.095	-0.463
-349.479	190.590	0.268	0.400
-348.464	-107.742	0.134	0.029
-347.450	-200.000	0.004	0.035
-346.435	-143.717	0.221	0.021
-345.420	112.335	-0.122	0.146
-344.406	-200.000	0.063	0.313
-343.391	147.890	0.254	-0.339
-342.377	349.909	-0.125	0.245
-341.362	-125.193	-0.215	0.033
-340.348	30.302	-0.145	0.122
-339.333	800.000	-0.101	-0.298
-338.318	-200.000	-0.008	0.179
-337.304	800.000	0.090	0.292
-336.289	72.391	0.137	0.141
-335.275	93.290	0.142	0.160
-334.260	-163.421	0.430	0.020
-333.245	-4.151	0.067	-0.046
-332.231	356.864	-0.103	-0.203
-331.216	800.000	-0.046	0.195
-330.202	-69.610	0.235	0.089
-329.187	800.000	0.075	0.308
-328.172	-134.483	-0.327	-0.040
-327.158	-67.995	-0.247	0.095
-326.143	-55.377	0.170	0.076
-325.129	112.778	-0.245	-0.294
-324.114	-200.000	0.008	-0.124
-323.099	-77.761	0.057	0.020
-322.085	-123.282	-0.023	-0.004
-321.070	-0.202	0.111	0.078
-320.056	800.000	-0.041	-0.169
-319.041	245.615	-0.194	-0.324
-318.026	109.397	0.133	-0.158
-317.012	800.000	-0.076	-0.268
-315.997	-34.914	0.023	0.012
-314.983	65.994	-0.196	-0.196
-313.968	-101.987	-0.318	0.076
-312.953	66.657	0.165	0.166
-311.939	-200.000	0.008	-0.054
-310.924	36.429	0.125	0.109
-309.910	-75.404	0.259	-0.091
-308.895	800.000	0.098	0.284
-307.880	349.222	-0.043	0.084
-306.866	175.069	-0.018	0.025
-305.851	495.304	-0.059	0.135
-304.837	-98.030	-0.184	0.047
-303.822	395.749	0.121	-0.250
-302.807	488.750	-0.073	0.166
-301.793	120.339	0.198	0.243
-300.778	-1.591	-0.032	0.022
-299.764	-103.103	-0.088	-0.021
-298.749	-135.215	0.022	0.003
-297.735	800.000	-0.090	0.262
-296.720	-187.478	-0.399	0.005
-295.705	800.000	-0.075	0.249
-294.691	-107.042	0.284	0.062
-293.676	124.424	-0.115	-0.144
-292.662	-189.781	0.124	-0.001
-291.647	800.000	-0.115	-0.362
-290.632	-94.256	-0.116	-0.031
-289.618	394.342	-0.110	0.227
-288.603	800.000	-0.128	0.370
-287.589	679.897	0.085	-0.218
-286.574	-6.372	0.335	-0.226
-285.559	760.587	-0.022	0.058
-284.545	119.315	0.094	0.115
-283.530	-200.000	-0.013	0.219
-282.516	28.788	-0.182	-0.153
-281.501	-156.331	0.311	0.019
-280.486	212.206	0.147	0.230
-279.472	723.847	0.057	-0.149
-278.457	26.406	-0.079	0.066
-277.443	345.503	-0.112	-0.218
-276.428	129.126	0.144	0.182
-275.413	357.695	-0.096	0.190
-274.399	215.392	0.081	0.127
-273.384	-200.000	-0.228	0.000
-272.370	-200.000	0.031	0.419
-271.355	176.096	-0.140	-0.202
-270.340	-42.267	0.190	0.096
-269.326	-102.330	0.073	-0.017
-268.311	65.242	-0.432	-0.432
-267.297	-200.000	-0.002	-0.200
-266.282	3.481	0.263	-0.190
-265.267	-146.060	-0.376	-0.033
-264.253	800.000	0.040	-0.112
-263.238	-122.256	0.224	-0.036
-262.224	249.088	0.315	-0.528
-261.209	-200.000	0.036	0.168
-260.195	-162.601	-0.301	0.015
-259.180	288.681	0.195	-0.349
-258.165	558.333	0.065	0.155
-257.151	61.584	-0.159	-0.157
-256.136	-126.201	-0.310	-0.046
-255.122	20.571	-0.178	0.142
-254.107	-200.000	-0.025	-0.157
-253.092	401.755	-0.161	-0.335
-252.078	-200.000	-0.024	0.109
-251.063	-200.000	-0.033	0.225
-250.049	130.256	0.008	-0.010
-249.034	209.700	0.171	0.265
-248.019	-200.000	0.019	-0.095
-247.005	-59.655	-0.104	0.044
-245.990	-200.000	0.005	0.321
-244.976	-76.247	0.213	0.074
-243.961	-14.723	0.299	0.190
-242.946	728.315	-0.047	0.124
-241.932	-102.016	0.185	0.044
-240.917	-76.120	0.283	0.099
-239.903	20.577	-0.220	-0.176
-238.888	-54.543	-0.258	0.115
-237.873	-58.505	-0.226	0.097
-236.859	800.000	0.021	-0.065
-235.844	172.778	0.379	-0.539
-234.830	-130.046	0.142	0.019
-233.815	-5.953	-0.236	-0.160
-232.800	118.189	0.211	0.257
-231.786	280.744	0.107	-0.189
-230.771	-63.486	0.381	-0.155
-229.757	-70.248	0.303	0.114
-228.742	-92.368	-0.136	0.038
-227.727	-73.704	0.323	-0.116
-226.713	260.892	0.168	0.287
-225.698	41.913	0.295	-0.264
-224.684	-111.872	0.208	-0.041
-223.669	79.517	-0.127	0.135
-222.655	800.000	-0.123	0.415
-221.640	-25.161	0.144	-0.084
-220.625	74.692	-0.117	-0.121
-219.611	-53.298	0.158	0.071
-218.596	-57.313	-0.168	-0.073
-217.582	171.845	0.066	0.093
-216.567	444.041	-0.144	0.312
-215.552	-62.198	0.085	0.035
-214.538	528.184	0.072	0.168
-213.523	648.131	0.076	-0.191
-212.509	-200.000	-0.061	0.286
-211.494	-58.225	0.198	0.085
-210.479	60.140	0.062	0.061
-209.465	-93.385	0.216	-0.059
-208.450	140.166	-0.151	-0.196
-207.436	-200.000	-0.007	-0.350
-206.421	-200.000	0.058	0.267
-205.406	-152.533	-0.270	-0.019
-204.392	-140.625	0.199	0.020
-203.377	516.792	0.096	-0.222
-202.363	-200.000	-0.058	-0.442
-201.348	4.009	-0.135	-0.097
-200.333	-122.330	0.285	-0.046
-199.319	800.000	0.107	0.314
-198.304	-108.297	-0.298	0.063
-197.290	123.303	0.215	-0.266
-196.275	-200.000	-0.026	-0.151
-195.260	-117.428	-0.351	-0.063
-194.246	-106.762	0.161	0.035
-193.231	-47.709	0.259	-0.124
-192.217	238.227	0.160	-0.262
-191.202	100.270	0.168	-0.192
-190.187	662.633	-0.067	0.171
-189.173	-100.357	0.327	0.080
-188.158	-200.000	0.052	0.335
-187.144	-49.794	-0.279	-0.131
-186.129	66.303	-0.415	-0.416
-185.114	-200.000	0.010	0.181
-184.100	-67.270	0.131	-0.051
-183.085	-47.438	0.321	0.154
-182.071	225.626	0.078	-0.125
-181.056	88.423	-0.164	0.180
-180.042	-117.920	0.247	-0.044
-179.027	-170.013	0.362	0.013
-178.012	-200.000	0.026	-0.379
-176.998	-200.000	0.002	0.157
-175.983	-200.000	0.037	-0.208
-174.969	-200.000	0.004	-0.125
-173.954	248.820	-0.060	-0.100
-172.939	-200.000	-0.026	-0.192
-171.925	288.180	0.095	-0.170
-170.910	-5.324	-0.065	-0.044
-169.896	-200.000	-0.006	0.211
-168.881	164.872	0.162	0.226
-167.866	-134.865	0.364	0.043
-166.852	-65.679	0.193	0.076
-165.837	-97.298	0.296	0.076
-164.823	438.905	0.101	-0.216
-163.808	-200.000	0.046	-0.250
-162.793	318.123	-0.026	-0.048
-161.779	-45.886	0.110	-0.053
-160.764	-3.422	-0.184	0.126
-159.750	-52.947	-0.196	0.089
-158.735	800.000	-0.018	-0.052
-157.720	676.972	0.024	-0.061
-156.706	246.351	-0.150	0.249
-155.691	-110.761	-0.114	0.023
-154.677	57.593	-0.096	0.092
-153.662	-114.278	0.149	-0.028
-152.647	-100.550	-0.336	-0.082
-151.633	110.342	0.149	0.177
-150.618	-200.000	-0.083	0.390
-149.604	-200.000	0.027	0.562
-148.589	-200.000	-0.023	0.278
-147.574	800.000	-0.085	-0.346
-146.560	292.976	0.113	0.203
-145.545	800.000	0.056	0.237
-144.531	800.000	0.015	0.056
-143.516	-200.000	0.003	0.304
-142.502	108.755	-0.173	0.203
-141.487	57.788	-0.088	0.084
-140.472	-2.236	0.471	-0.325
-139.458	64.120	-0.099	-0.098
-138.443	23.198	-0.177	0.143
-137.429	-119.866	-0.385	0.065
-136.414	-147.750	0.093	0.008
-135.399	304.091	0.025	-0.045
-134.385	57.800	-0.108	0.104
-133.370	-200.000	0.015	0.096
-132.356	800.000	-0.153	-0.443
-131.341	-130.614	0.290	-0.038
-130.326	-200.000	-0.005	-0.183
-129.312	-169.183	-0.221	-0.008
-128.297	-59.532	-0.285	-0.120
-127.283	215.757	0.116	-0.181
-126.268	-31.357	-0.152	0.084
-125.253	800.000	0.027	-0.083
-124.239	800.000	0.040	0.170
-123.224	-200.000	0.003	-0.051
-122.210	-53.925	-0.087	0.039
-121.195	800.000	-0.035	0.127
