DTS Sentinel unit serial number:	SN413079Multiplexer serial number:	ORYXHardware model number:	OX4-SRSoftware version number:	ORYX F/W v4.00 Oryx Data Collector v3.7.2.0data status	okinstallation	princeton_trtdifferential loss correction	single-endedforward channel	channel 2reverse channel	N/Adate	2019/09/19time	02:23:34forward acquisition time	60.00reverse acquisition time	0.00gamma	496.2192k internal	0.2353k external	0.2353temperature offset calibration	1.0012default loss term (dB/km)	0.3790temperature slope calibration	1.0000multiplexer offset coefficient	1.0000multiplexer slope coefficient	1.0000fibre end	0.00T internal ref (°C)	21.06T ext. ref 1 (°C)	0.67T ext. ref 2 (°C)	14.67length (m)	temperature (°C)	Stokes	anti-Stokes-747.200	-200.000	0.058	-0.290
-746.185	-23.762	0.104	0.062
-745.171	42.082	-0.169	0.153
-744.156	-39.260	0.109	0.057
-743.142	695.628	0.082	0.214
-742.127	-200.000	0.028	0.283
-741.112	42.078	-0.208	0.188
-740.098	-25.636	0.051	-0.030
-739.083	-200.000	0.009	-0.267
-738.069	366.573	-0.074	0.149
-737.054	-59.649	0.196	0.084
-736.039	-6.061	-0.327	0.223
-735.025	-129.867	-0.060	-0.008
-734.010	343.071	0.016	0.031
-732.996	-200.000	-0.027	-0.175
-731.981	-200.000	-0.056	-0.533
-730.966	-200.000	0.323	-0.001
-729.952	-8.047	0.271	-0.182
-728.937	-129.197	-0.326	0.045
-727.923	800.000	0.139	0.505
-726.908	118.705	-0.263	-0.323
-725.894	94.735	0.254	-0.287
-724.879	16.352	-0.080	0.063
-723.864	24.211	0.222	0.183
-722.850	13.097	0.111	0.086
-721.835	-62.482	0.162	-0.067
-720.821	800.000	0.080	0.235
-719.806	607.490	0.047	0.116
-718.791	198.800	-0.100	-0.152
-717.777	-25.780	-0.143	-0.084
-716.762	-111.783	0.207	0.042
-715.748	787.416	-0.077	-0.211
-714.733	-200.000	0.044	-0.268
-713.718	30.980	-0.313	-0.267
-712.704	64.646	0.057	0.057
-711.689	66.909	-0.305	0.309
-710.675	-68.044	0.185	-0.072
-709.660	194.034	0.094	0.142
-708.645	36.642	-0.147	0.130
-707.631	800.000	0.052	0.198
-706.616	-200.000	-0.000	-0.502
-705.602	-105.482	-0.065	-0.015
-704.587	-5.687	0.178	-0.121
-703.572	625.089	-0.029	-0.072
-702.558	71.929	0.164	-0.169
-701.543	-200.000	-0.070	-0.406
-700.529	33.734	0.122	0.105
-699.514	105.045	0.280	-0.329
-698.499	-53.514	-0.224	-0.102
-697.485	-10.945	-0.322	0.212
-696.470	-200.000	0.012	-0.072
-695.456	70.810	0.124	-0.128
-694.441	-42.989	-0.341	0.172
-693.426	110.152	0.051	-0.060
-692.412	177.711	0.075	0.109
-691.397	-43.962	-0.189	-0.094
-690.383	-89.684	0.107	-0.031
-689.368	-157.809	-0.407	-0.024
-688.354	-179.379	-0.147	-0.003
-687.339	-65.520	0.138	-0.055
-686.324	189.398	-0.100	0.149
-685.310	43.850	-0.126	-0.114
-684.295	-200.000	-0.009	-0.239
-683.281	57.175	-0.026	0.026
-682.266	-24.483	0.041	-0.024
-681.251	800.000	-0.061	-0.181
-680.237	-200.000	0.039	-0.364
-679.222	-67.947	0.287	0.112
-678.208	-57.051	-0.242	-0.106
-677.193	126.643	-0.162	-0.204
-676.178	-200.000	-0.040	-0.232
-675.164	800.000	0.098	-0.312
-674.149	-200.000	-0.031	0.203
-673.135	800.000	0.040	-0.161
-672.120	-6.781	-0.079	0.054
-671.105	-115.806	-0.118	0.022
-670.091	-152.421	-0.344	-0.025
-669.076	-36.958	0.158	-0.084
-668.062	800.000	0.067	-0.236
-667.047	195.019	-0.162	-0.245
-666.032	-155.146	-0.439	0.029
-665.018	8.647	0.215	0.161
-664.003	442.664	-0.129	0.280
-662.989	800.000	-0.055	0.159
-661.974	-200.000	-0.004	0.195
-660.959	-111.508	0.398	-0.081
-659.945	-200.000	-0.027	0.191
-658.930	69.853	-0.382	-0.392
-657.916	196.411	-0.154	-0.234
-656.901	-161.104	0.154	0.008
-655.886	800.000	-0.057	-0.219
-654.872	-61.943	0.080	-0.033
-653.857	-148.741	0.107	0.009
-652.843	34.196	0.193	0.167
-651.828	342.525	-0.181	0.352
-650.814	-140.624	-0.144	0.015
-649.799	39.355	-0.093	-0.083
-648.784	-200.000	0.025	0.290
-647.770	800.000	0.019	-0.082
-646.755	162.996	-0.152	0.213
-645.741	212.148	-0.053	0.083
-644.726	-146.762	0.266	-0.023
-643.711	-17.280	-0.311	0.195
-642.697	-186.613	0.210	-0.003
-641.682	-200.000	-0.017	-0.183
-640.668	90.315	0.268	-0.298
-639.653	800.000	0.026	-0.108
-638.638	34.470	0.197	-0.171
-637.624	-4.309	0.153	-0.105
-636.609	0.063	-0.150	0.106
-635.595	-11.974	-0.194	0.126
-634.580	375.614	-0.050	-0.101
-633.565	-77.584	-0.058	0.020
-632.551	-74.493	0.224	0.080
-631.536	800.000	-0.029	-0.103
-630.522	-200.000	0.032	-0.273
-629.507	178.574	-0.194	0.281
-628.492	-39.782	-0.194	0.101
-627.478	263.488	-0.238	-0.410
-626.463	12.237	0.337	0.257
-625.449	800.000	0.080	0.334
-624.434	-200.000	-0.022	0.148
-623.419	-88.238	0.067	0.020
-622.405	-1.908	-0.106	0.074
-621.390	-31.945	0.028	-0.015
-620.376	-112.672	0.137	-0.027
-619.361	29.914	-0.103	-0.087
-618.346	800.000	0.036	-0.130
-617.332	-168.118	-0.122	-0.005
-616.317	800.000	-0.048	0.178
-615.303	-200.000	0.056	0.259
-614.288	-19.238	0.211	-0.130
-613.273	577.421	-0.075	0.182
-612.259	-90.367	-0.181	-0.052
-611.244	-12.496	-0.348	0.226
-610.230	-28.467	-0.190	-0.109
-609.215	-11.987	0.243	0.158
-608.201	-1.019	0.137	-0.096
-607.186	-114.982	-0.117	0.022
-606.171	-108.868	0.368	-0.078
-605.157	-67.127	0.241	0.094
-604.142	-65.619	-0.345	0.137
-603.128	525.402	0.185	-0.431
-602.113	8.473	-0.095	-0.071
-601.098	-200.000	0.007	0.322
-600.084	-200.000	0.019	0.322
-599.069	-85.346	0.388	0.120
-598.055	800.000	0.039	0.122
-597.040	-80.857	0.185	-0.061
-596.025	8.753	-0.183	0.137
-595.011	129.409	-0.166	0.210
-593.996	-156.920	-0.288	-0.017
-592.982	-63.581	0.249	-0.101
-591.967	-26.760	-0.197	0.114
-590.952	-145.376	-0.038	-0.003
-589.938	-7.243	-0.105	-0.071
-588.923	470.047	0.045	0.100
-587.909	-61.409	-0.134	-0.056
-586.894	-10.090	-0.115	-0.076
-585.879	-200.000	0.031	-0.444
-584.865	-130.652	0.145	-0.019
-583.850	208.829	0.090	0.140
-582.836	-12.296	0.101	0.065
-581.821	191.219	-0.101	-0.151
-580.806	506.141	-0.004	-0.009
-579.792	-200.000	-0.009	0.185
-578.777	-8.895	0.093	0.062
-577.763	-22.002	0.011	-0.007
-576.748	217.441	-0.107	-0.168
-575.733	186.841	-0.128	-0.189
-574.719	604.568	0.198	-0.487
-573.704	-66.768	-0.332	-0.130
-572.690	125.585	-0.236	-0.295
-571.675	-187.152	0.056	0.001
-570.661	-94.976	0.055	0.015
-569.646	-190.490	-0.015	0.000
-568.631	342.786	0.105	-0.204
-567.617	-200.000	0.007	0.283
-566.602	-200.000	-0.004	0.346
-565.588	119.574	0.279	0.342
-564.573	52.798	0.208	-0.196
-563.558	800.000	-0.092	0.268
-562.544	305.156	-0.080	0.146
-561.529	29.581	-0.166	0.140
-560.515	800.000	0.036	0.113
-559.500	800.000	-0.014	-0.052
-558.485	800.000	-0.045	-0.168
-557.471	-200.000	0.021	0.250
-556.456	-138.554	0.361	-0.039
-555.442	-72.741	0.209	-0.076
-554.427	-200.000	0.002	0.089
-553.412	-161.551	0.286	-0.015
-552.398	-200.000	-0.010	-0.226
-551.383	-60.944	-0.181	-0.076
-550.369	-46.123	-0.278	0.136
-549.354	152.695	-0.126	-0.170
-548.339	-103.329	0.104	-0.024
-547.325	25.008	-0.186	0.153
-546.310	21.038	-0.209	0.167
-545.296	285.170	-0.158	0.281
-544.281	26.153	-0.247	0.204
-543.266	-46.958	0.289	0.140
-542.252	-120.432	-0.494	-0.083
-541.237	88.361	0.124	-0.136
-540.223	366.564	-0.041	0.082
-539.208	186.344	-0.053	-0.078
-538.193	-159.424	0.330	-0.018
-537.179	41.082	-0.208	-0.186
-536.164	795.301	-0.054	0.148
-535.150	-113.908	0.340	-0.065
-534.135	600.533	0.121	-0.296
-533.121	-121.514	-0.092	-0.015
-532.106	21.811	0.196	0.158
-531.091	168.067	0.065	-0.092
-530.077	76.612	0.092	-0.097
-529.062	-200.000	0.019	0.178
-528.048	-115.044	-0.382	-0.072
-527.033	51.119	0.142	-0.133
-526.018	-200.000	0.041	0.179
-525.004	38.241	0.164	-0.144
-523.989	800.000	0.020	-0.074
-522.975	1.876	0.355	-0.253
-521.960	-200.000	0.035	0.156
-520.945	139.336	0.159	0.207
-519.931	37.814	-0.309	-0.272
-518.916	-200.000	-0.032	0.230
-517.902	-182.534	-0.440	-0.008
-516.887	-47.197	-0.259	0.125
-515.872	-86.383	0.062	0.019
-514.858	58.234	-0.106	-0.102
-513.843	-157.851	0.298	-0.017
-512.829	-93.009	0.040	0.011
-511.814	52.502	-0.075	-0.070
-510.799	-14.534	-0.163	-0.103
-509.785	800.000	-0.052	0.180
-508.770	800.000	0.025	-0.104
-507.756	271.678	0.044	-0.076
-506.741	-19.730	0.167	-0.102
-505.726	-63.523	-0.208	-0.084
-504.712	-200.000	-0.016	-0.195
-503.697	-141.388	-0.338	0.034
-502.683	9.266	-0.140	-0.104
-501.668	-20.956	0.166	0.100
-500.653	-198.278	-0.256	-0.001
-499.639	226.515	-0.132	-0.211
-498.624	203.753	-0.149	0.227
-497.610	294.753	-0.148	0.268
-496.595	-141.813	-0.277	-0.027
-495.581	296.701	-0.131	0.238
-494.566	-31.279	-0.292	0.163
-493.551	-116.919	0.156	-0.028
-492.537	800.000	0.075	0.257
-491.522	800.000	0.085	0.331
-490.508	-200.000	0.024	0.278
-489.493	53.802	0.173	0.164
-488.478	800.000	-0.095	-0.379
-487.464	251.573	-0.084	0.141
-486.449	123.343	-0.168	0.208
-485.435	-24.107	0.136	0.080
-484.420	376.745	-0.092	0.185
-483.405	-200.000	0.021	-0.132
-482.391	-121.035	-0.261	-0.043
-481.376	55.240	-0.333	0.318
-480.362	510.384	-0.035	-0.080
-479.347	51.169	-0.247	-0.232
-478.332	181.608	0.107	0.156
-477.318	-15.843	-0.214	-0.134
-476.303	16.663	0.116	0.091
-475.289	-11.429	0.130	-0.084
-474.274	-110.298	-0.124	0.025
-473.259	-72.961	0.305	-0.111
-472.245	51.634	-0.087	-0.082
-471.230	240.489	0.028	0.047
-470.216	-2.156	0.102	0.070
-469.201	-69.630	0.140	-0.053
-468.186	-200.000	0.032	0.190
-467.172	-200.000	0.008	-0.288
-466.157	24.365	0.131	0.107
-465.143	0.074	-0.147	0.103
-464.128	-31.669	0.466	-0.258
-463.113	42.262	-0.387	-0.347
-462.099	-184.479	-0.193	-0.003
-461.084	-200.000	0.046	-0.291
-460.070	59.055	-0.046	0.045
-459.055	800.000	0.105	0.321
-458.040	-200.000	0.065	-0.426
-457.026	-200.000	0.006	0.177
-456.011	335.643	-0.174	0.333
-454.997	-200.000	-0.015	0.109
-453.982	57.193	-0.225	0.217
-452.968	800.000	0.049	-0.165
-451.953	-200.000	-0.004	0.102
-450.938	800.000	0.016	0.063
-449.924	-200.000	-0.013	-0.394
-448.909	800.000	0.008	-0.022
-447.895	-200.000	0.013	0.267
-446.880	-200.000	0.002	-0.016
-445.865	-189.002	-0.051	0.001
-444.851	32.735	0.311	0.265
-443.836	-101.200	-0.254	0.061
-442.822	480.654	-0.037	-0.083
-441.807	-38.171	-0.141	0.074
-440.792	-3.417	0.203	0.139
-439.778	64.370	0.222	0.220
-438.763	145.183	-0.105	-0.138
-437.749	6.655	-0.320	-0.234
-436.734	-200.000	-0.047	0.241
-435.719	-118.952	0.166	0.029
-434.705	800.000	-0.112	0.454
-433.690	800.000	-0.098	0.419
-432.676	-29.725	0.185	-0.104
-431.661	-117.821	0.228	0.040
-430.646	663.672	0.057	-0.144
-429.632	-200.000	-0.052	0.327
-428.617	154.779	0.160	0.216
-427.603	-150.578	0.191	0.014
-426.588	-200.000	0.020	0.156
-425.573	-4.375	0.135	0.092
-424.559	-25.039	-0.157	-0.091
-423.544	800.000	0.016	-0.065
-422.530	634.293	0.044	-0.109
-421.515	14.882	-0.157	-0.121
-420.500	-200.000	0.007	0.104
-419.486	237.310	0.156	0.255
-418.471	-200.000	-0.008	-0.068
-417.457	663.426	-0.147	0.373
-416.442	-200.000	-0.033	0.176
-415.428	170.588	0.063	0.089
-414.413	-200.000	-0.033	-0.158
-413.398	367.101	-0.142	-0.281
-412.384	-47.151	-0.036	0.017
-411.369	60.979	0.219	-0.214
-410.355	-143.982	-0.098	0.009
-409.340	-200.000	0.060	-0.409
-408.325	-40.735	-0.313	0.160
-407.311	-200.000	0.060	-0.283
-406.296	-200.000	-0.052	0.253
-405.282	-67.708	-0.271	0.104
-404.267	-117.344	-0.183	-0.033
-403.252	-51.262	0.401	0.185
-402.238	519.144	0.089	-0.205
-401.223	-82.233	-0.081	0.026
-400.209	800.000	-0.047	-0.133
-399.194	-101.157	-0.226	-0.054
-398.179	298.368	-0.129	-0.234
-397.165	-200.000	-0.057	-0.334
-396.150	-200.000	0.004	0.144
-395.136	-60.249	0.104	0.043
-394.121	73.414	-0.108	-0.112
-393.106	111.428	-0.143	0.169
-392.092	-66.243	0.209	-0.082
-391.077	515.106	-0.168	-0.386
-390.063	-122.435	0.294	0.047
-389.048	-76.759	0.300	0.103
-388.033	87.007	0.054	0.059
-387.019	800.000	0.108	-0.359
-386.004	-134.126	0.247	0.030
-384.990	34.196	-0.244	0.209
-383.975	302.080	0.095	0.173
-382.960	800.000	0.043	0.119
-381.946	-120.243	0.498	-0.084
-380.931	-137.107	-0.172	0.019
-379.917	214.506	-0.162	-0.251
-378.902	94.085	0.169	-0.189
-377.888	113.690	0.127	0.151
-376.873	-54.654	-0.168	0.075
-375.858	344.846	-0.197	0.380
-374.844	58.103	0.062	-0.060
-373.829	55.848	-0.184	-0.175
-372.815	800.000	0.038	-0.109
-371.800	344.709	-0.036	0.069
-370.785	551.558	0.124	-0.292
-369.771	162.410	0.110	-0.151
-368.756	355.338	-0.018	0.036
-367.742	-77.175	0.187	-0.064
-366.727	62.401	-0.329	0.323
-365.712	127.763	-0.175	-0.219
-364.698	158.495	-0.117	-0.160
-363.683	91.575	0.173	-0.191
-362.669	-97.667	0.114	-0.029
-361.654	93.237	-0.079	0.088
-360.639	-148.633	-0.283	-0.023
-359.625	-62.206	0.148	0.061
-358.610	-200.000	0.073	0.381
-357.596	-200.000	0.037	0.186
-356.581	-61.908	0.125	-0.051
-355.566	-200.000	-0.005	-0.022
-354.552	18.225	0.179	-0.140
-353.537	53.813	0.053	0.050
-352.523	620.057	-0.150	-0.369
-351.508	800.000	0.018	-0.054
-350.493	126.664	0.210	-0.262
-349.479	250.484	-0.081	0.135
-348.464	564.112	0.102	0.242
-347.450	334.843	0.189	-0.360
-346.435	800.000	-0.026	-0.111
-345.420	-175.709	-0.007	0.000
-344.406	-200.000	0.039	0.266
-343.391	-141.778	-0.376	-0.037
-342.377	208.870	-0.088	-0.135
-341.362	197.531	-0.151	0.226
-340.348	-200.000	0.032	0.193
-339.333	-200.000	0.032	0.146
-338.318	716.616	-0.088	-0.230
-337.304	255.830	-0.050	0.084
-336.289	-11.481	-0.254	0.164
-335.275	277.104	0.074	0.130
-334.260	32.016	-0.137	0.116
-333.245	800.000	0.116	-0.454
-332.231	-10.330	-0.235	-0.153
-331.216	-45.191	0.291	-0.142
-330.202	533.648	-0.040	-0.094
-329.187	44.669	0.141	0.127
-328.172	723.696	-0.042	0.109
-327.158	299.623	-0.053	0.095
-326.143	253.908	-0.092	-0.155
-325.129	21.368	-0.215	-0.172
-324.114	313.163	0.044	0.081
-323.099	183.219	-0.117	-0.170
-322.085	6.114	-0.196	-0.143
-321.070	-200.000	-0.055	-0.392
-320.056	-70.586	-0.305	-0.113
-319.041	-189.754	-0.036	-0.000
-318.026	-200.000	-0.011	0.123
-317.012	-18.397	-0.091	0.056
-315.997	-48.163	-0.191	-0.090
-314.983	56.454	-0.098	0.094
-313.968	-200.000	0.052	-0.255
-312.953	297.659	0.277	-0.499
-311.939	-71.730	-0.153	0.056
-310.924	33.837	0.143	-0.122
-309.910	-11.234	-0.171	-0.110
-308.895	314.794	0.026	-0.048
-307.880	71.356	0.281	-0.285
-306.866	259.241	-0.163	-0.276
-305.851	95.737	-0.165	-0.184
-304.837	142.556	0.184	-0.239
-303.822	-200.000	0.003	0.131
-302.807	-54.147	-0.237	0.106
-301.793	-200.000	0.018	0.165
-300.778	800.000	0.050	0.140
-299.764	-136.592	0.197	-0.022
-298.749	800.000	-0.069	-0.258
-297.735	-200.000	0.046	-0.237
-296.720	-200.000	-0.002	-0.123
-295.705	69.660	0.131	-0.132
-294.691	14.753	0.176	0.135
-293.676	128.805	-0.146	0.182
-292.662	52.140	-0.078	0.073
-291.647	124.790	0.283	-0.349
-290.632	-200.000	0.008	0.211
-289.618	-119.721	0.123	-0.021
-288.603	-44.613	0.188	0.092
-287.589	-97.207	0.345	0.088
-286.574	-72.149	-0.292	-0.106
-285.559	76.370	0.220	0.228
-284.545	-98.318	-0.120	-0.030
-283.530	292.351	0.043	-0.076
-282.516	800.000	-0.034	0.104
-281.501	-103.212	0.424	0.098
-280.486	-100.252	-0.493	0.120
-279.472	-200.000	0.021	-0.120
-278.457	429.965	-0.079	-0.168
-277.443	-200.000	-0.012	0.102
-276.428	-200.000	-0.018	0.096
-275.413	-200.000	-0.084	-0.389
-274.399	-74.057	0.208	0.074
-273.384	251.938	0.175	-0.291
-272.370	-200.000	0.017	0.150
-271.355	519.654	-0.140	0.320
-270.340	69.997	-0.075	0.076
-269.326	-73.562	0.100	0.036
-268.311	57.963	0.157	0.150
-267.297	-102.647	0.272	-0.063
-266.282	-121.148	-0.174	-0.029
-265.267	-69.607	-0.183	0.068
-264.253	-200.000	0.028	0.197
-263.238	30.133	0.126	-0.105
-262.224	800.000	0.026	0.103
-261.209	166.964	0.218	0.303
-260.195	-125.450	0.213	0.032
-259.180	413.739	-0.139	0.290
-258.165	-86.825	-0.220	0.066
-257.151	800.000	0.078	0.228
-256.136	-93.406	-0.161	-0.044
-255.122	29.183	0.133	-0.110
-254.107	-2.182	0.242	0.166
-253.092	-200.000	0.066	-0.300
-252.078	-200.000	0.076	0.375
-251.063	155.628	0.139	-0.188
-250.049	-0.754	0.065	-0.045
-249.034	348.389	-0.091	-0.175
-248.019	655.218	-0.106	-0.266
-247.005	-173.316	0.164	-0.005
-245.990	107.383	0.138	-0.161
-244.976	38.970	-0.064	-0.056
-243.961	153.538	0.072	0.096
-242.946	-127.356	0.254	0.036
-241.932	-52.724	0.284	-0.128
-240.917	301.960	0.044	-0.080
-239.903	-109.871	-0.301	-0.062
-238.888	-49.972	-0.198	0.092
-237.873	-154.696	0.332	0.022
-236.859	111.997	0.173	0.204
-235.844	-200.000	0.009	-0.199
-234.830	54.024	-0.146	0.137
-233.815	33.901	0.218	-0.185
-232.800	33.888	-0.247	-0.210
-231.786	-172.856	-0.213	-0.006
-230.771	152.869	-0.085	-0.114
-229.757	800.000	0.025	0.089
-228.742	710.993	-0.069	-0.179
-227.727	-96.953	-0.209	-0.054
-226.713	123.734	0.072	0.089
-225.698	-200.000	-0.001	0.126
-224.684	-60.660	0.208	-0.086
-223.669	450.486	0.043	-0.093
-222.655	800.000	0.156	0.457
-221.640	-64.451	0.289	0.115
-220.625	205.728	0.064	-0.097
-219.611	-27.846	0.244	0.138
-218.596	6.891	-0.235	-0.171
-217.582	82.899	-0.446	-0.474
-216.567	90.216	-0.220	0.240
-215.552	-94.470	0.302	-0.080
-214.538	529.902	0.056	-0.130
-213.523	207.893	0.090	-0.137
-212.509	-200.000	0.024	0.275
-211.494	-200.000	-0.019	-0.322
-210.479	147.964	0.056	-0.074
-209.465	800.000	-0.005	-0.018
-208.450	201.007	0.138	-0.207
-207.436	545.438	-0.069	0.161
-206.421	13.276	0.049	0.037
-205.406	36.103	0.120	-0.103
-204.392	-151.938	-0.073	-0.005
-203.377	226.171	-0.093	-0.148
-202.363	-72.404	0.207	-0.075
-201.348	-200.000	-0.025	-0.184
-200.333	517.581	0.051	0.117
-199.319	296.468	-0.145	0.259
-198.304	-30.493	0.296	0.164
-197.290	-20.411	-0.165	0.099
-196.275	-51.625	-0.022	-0.010
-195.260	-119.559	-0.131	0.022
-194.246	308.801	-0.119	0.217
-193.231	-134.699	0.145	0.017
-192.217	16.069	-0.179	-0.137
-191.202	317.032	0.100	0.184
-190.187	142.211	0.058	-0.075
-189.173	307.886	0.078	-0.142
-188.158	-200.000	0.069	0.319
-187.144	622.828	-0.044	0.109
-186.129	32.698	-0.094	0.080
-185.114	23.070	-0.187	-0.150
-184.100	229.147	0.104	-0.165
-183.085	37.781	-0.264	-0.228
-182.071	147.703	-0.065	0.086
-181.056	-48.867	-0.105	0.049
-180.042	-200.000	0.017	-0.369
-179.027	311.643	-0.183	0.335
-178.012	380.719	-0.147	0.295
-176.998	407.100	0.160	0.330
-175.983	-113.420	0.075	0.014
-174.969	208.954	0.202	0.308
-173.954	441.952	-0.278	0.592
-172.939	168.520	-0.103	-0.143
-171.925	-84.157	0.156	-0.048
-170.910	21.399	0.157	0.124
-169.896	-107.568	0.124	-0.027
-168.881	37.328	0.076	0.065
-167.866	442.734	0.117	-0.249
-166.852	54.048	0.220	-0.206
-165.837	16.661	0.161	-0.124
-164.823	800.000	0.032	-0.097
-163.808	-200.000	-0.004	0.088
-162.793	49.751	0.106	0.097
-161.779	19.981	0.076	0.060
-160.764	35.097	0.217	-0.185
-159.750	-142.251	-0.314	-0.030
-158.735	-129.728	-0.184	-0.025
-157.720	102.612	-0.199	-0.227
-156.706	-200.000	-0.016	0.094
-155.691	22.442	0.044	-0.035
-154.677	-125.951	0.456	-0.067
-153.662	37.733	0.251	-0.218
-152.647	305.752	0.048	-0.088
-151.633	-200.000	-0.018	-0.317
-150.618	-200.000	0.074	0.444
-149.604	-90.492	0.248	0.070
-148.589	170.963	-0.045	0.063
-147.574	493.268	0.070	-0.156
-146.560	31.948	-0.232	0.195
-145.545	-39.411	0.317	0.162
-144.531	-200.000	0.022	0.123
-143.516	489.516	-0.019	0.041
-142.502	268.921	-0.183	0.312
-141.487	-10.872	-0.106	-0.068
-140.472	68.756	0.242	-0.242
-139.458	800.000	0.083	-0.327
-138.443	642.917	-0.126	0.314
-137.429	-200.000	-0.040	0.472
-136.414	800.000	-0.088	-0.249
-135.399	434.061	-0.042	-0.088
-134.385	800.000	-0.042	-0.161
-133.370	800.000	-0.052	-0.161
-132.356	111.685	-0.276	0.324
-131.341	230.595	-0.062	0.098
-130.326	221.350	0.036	-0.056
-129.312	800.000	0.059	0.221
-128.297	232.759	-0.157	-0.251
-127.283	-41.619	0.159	-0.079
-126.268	-60.460	-0.072	-0.030
-125.253	800.000	-0.052	0.188
-124.239	-113.599	0.286	-0.054
-123.224	796.707	-0.077	-0.207
-122.210	-146.804	0.409	0.034
-121.195	-200.000	0.017	-0.117
-120.180	26.227	0.075	0.061
