DTS Sentinel unit serial number:	SN413079Multiplexer serial number:	ORYXHardware model number:	OX4-SRSoftware version number:	ORYX F/W v4.00 Oryx Data Collector v3.7.2.0data status	okinstallation	princeton_trtdifferential loss correction	single-endedforward channel	channel 2reverse channel	N/Adate	2019/09/14time	22:07:35forward acquisition time	60.00reverse acquisition time	0.00gamma	496.2192k internal	0.2324k external	0.2324temperature offset calibration	1.0066default loss term (dB/km)	0.3790temperature slope calibration	1.0000multiplexer offset coefficient	1.0000multiplexer slope coefficient	1.0000fibre end	0.00T internal ref (°C)	32.66T ext. ref 1 (°C)	4.72T ext. ref 2 (°C)	27.65length (m)	temperature (°C)	Stokes	anti-Stokes-747.200	-200.000	-0.089	0.410
-746.185	140.674	-0.114	0.152
-745.171	-193.702	0.161	-0.001
-744.156	178.875	-0.109	0.161
-743.142	-64.947	-0.192	0.078
-742.127	36.712	-0.194	0.173
-741.112	800.000	-0.057	0.160
-740.098	-200.000	0.039	0.382
-739.083	800.000	-0.044	0.143
-738.069	800.000	-0.061	0.239
-737.054	102.792	-0.258	-0.304
-736.039	39.833	-0.104	-0.094
-735.025	-12.322	-0.169	0.111
-734.010	-91.808	0.131	0.038
-732.996	-148.785	0.262	-0.021
-731.981	43.826	-0.084	-0.077
-730.966	-141.336	0.144	-0.015
-729.952	-23.795	-0.126	-0.076
-728.937	246.854	-0.061	-0.104
-727.923	-46.226	0.247	-0.122
-726.908	800.000	-0.038	-0.158
-725.894	-80.536	-0.190	-0.064
-724.879	-42.196	-0.195	-0.101
-723.864	407.698	-0.071	-0.150
-722.850	15.826	-0.136	0.108
-721.835	70.911	-0.285	-0.298
-720.821	800.000	-0.063	-0.240
-719.806	393.670	-0.069	0.144
-718.791	-18.835	-0.364	0.229
-717.777	-79.158	0.098	0.034
-716.762	-200.000	-0.018	-0.167
-715.748	-184.767	-0.105	-0.002
-714.733	319.374	0.089	0.171
-713.718	767.448	-0.025	0.068
-712.704	-135.341	-0.281	-0.034
-711.689	18.426	0.324	0.261
-710.675	-200.000	0.015	0.250
-709.660	-85.938	-0.351	-0.110
-708.645	143.528	-0.061	-0.082
-707.631	-200.000	0.024	-0.107
-706.616	-38.415	-0.042	0.023
-705.602	-116.992	0.042	-0.008
-704.587	220.154	0.027	-0.043
-703.572	71.270	-0.112	0.117
-702.558	800.000	-0.007	0.025
-701.543	-145.198	0.040	0.004
-700.529	148.850	0.102	0.139
-699.514	-190.003	0.178	0.002
-698.499	-150.932	-0.074	0.006
-697.485	-103.099	0.305	0.073
-696.470	-148.094	-0.431	-0.036
-695.456	687.810	-0.096	-0.253
-694.441	800.000	-0.042	-0.174
-693.426	-200.000	0.025	-0.130
-692.412	800.000	0.016	0.052
-691.397	79.415	0.189	-0.204
-690.383	-82.673	-0.160	0.052
-689.368	-122.692	0.227	0.037
-688.354	477.028	0.126	0.287
-687.339	800.000	-0.023	-0.090
-686.324	-200.000	0.015	-0.126
-685.310	177.466	0.236	-0.346
-684.295	-200.000	-0.051	0.330
-683.281	-73.316	-0.392	-0.144
-682.266	800.000	0.062	-0.195
-681.251	-80.600	0.094	0.032
-680.237	-119.613	-0.134	0.023
-679.222	-183.133	0.179	-0.003
-678.208	365.350	-0.050	-0.102
-677.193	-50.315	-0.173	0.082
-676.178	-78.159	-0.305	0.106
-675.164	-75.187	0.153	0.055
-674.149	219.307	-0.047	-0.076
-673.135	800.000	0.080	0.237
-672.120	103.594	-0.079	0.093
-671.105	-93.257	-0.200	0.056
-670.091	87.986	0.140	0.157
-669.076	-200.000	0.006	-0.319
-668.062	800.000	-0.056	-0.226
-667.047	98.644	-0.188	-0.219
-666.032	-122.746	0.109	-0.018
-665.018	637.269	-0.094	0.240
-664.003	276.216	-0.100	-0.179
-662.989	149.855	-0.172	0.234
-661.974	448.727	0.100	0.221
-660.959	-46.532	-0.106	0.052
-659.945	-200.000	-0.010	0.055
-658.930	-7.071	0.169	-0.115
-657.916	800.000	-0.026	-0.088
-656.901	-19.211	-0.268	-0.167
-655.886	800.000	0.034	-0.108
-654.872	358.174	0.014	-0.028
-653.857	232.721	-0.280	-0.462
-652.843	-114.472	-0.312	-0.060
-651.828	-200.000	0.059	-0.305
-650.814	-51.846	-0.047	-0.022
-649.799	-9.077	0.072	-0.048
-648.784	22.720	0.388	-0.320
-647.770	-32.541	-0.133	0.074
-646.755	-174.436	0.398	-0.011
-645.741	-77.500	-0.269	-0.094
-644.726	-197.477	-0.343	-0.002
-643.711	-116.986	0.162	0.030
-642.697	-200.000	0.051	-0.288
-641.682	-152.148	0.196	-0.014
-640.668	-113.653	-0.120	-0.024
-639.653	87.148	-0.311	0.345
-638.638	79.087	-0.068	-0.073
-637.624	112.498	-0.163	-0.198
-636.609	-21.390	-0.167	0.102
-635.595	-200.000	-0.021	-0.302
-634.580	544.760	-0.131	-0.314
-633.565	-47.665	-0.307	-0.150
-632.551	-200.000	-0.025	0.228
-631.536	-200.000	0.006	0.232
-630.522	243.815	-0.041	-0.069
-629.507	-155.714	0.354	0.023
-628.492	-200.000	-0.074	-0.405
-627.478	-3.362	0.077	0.054
-626.463	-102.779	-0.228	0.055
-625.449	202.923	0.061	0.095
-624.434	565.787	-0.150	-0.366
-623.419	800.000	0.044	-0.186
-622.405	800.000	-0.044	0.130
-621.390	-200.000	0.020	-0.250
-620.376	-65.161	-0.352	0.143
-619.361	183.605	-0.135	0.200
-618.346	-118.524	0.157	-0.028
-617.332	-137.548	-0.216	0.024
-616.317	38.691	0.131	-0.117
-615.303	-25.646	-0.079	0.047
-614.288	342.823	-0.107	-0.210
-613.273	-186.765	-0.039	0.001
-612.259	318.155	0.079	-0.149
-611.244	-69.274	-0.078	0.030
-610.230	-34.606	0.182	-0.100
-609.215	-200.000	-0.057	0.262
-608.201	-15.523	-0.190	0.122
-607.186	-72.694	0.306	-0.113
-606.171	51.814	-0.102	0.098
-605.157	11.489	0.084	0.065
-604.142	-102.575	0.314	0.075
-603.128	132.976	-0.089	-0.115
-602.113	351.500	0.051	-0.101
-601.098	800.000	-0.138	-0.404
-600.084	223.772	0.034	0.055
-599.069	-127.376	-0.124	-0.018
-598.055	-63.714	0.240	-0.099
-597.040	-146.146	0.192	-0.017
-596.025	-20.112	0.184	-0.114
-595.011	-143.071	0.150	-0.015
-593.996	-138.869	-0.169	-0.018
-592.982	406.074	-0.188	-0.398
-591.967	800.000	0.142	-0.445
-590.952	-200.000	-0.024	-0.218
-589.938	800.000	0.020	-0.056
-588.923	252.356	0.097	0.166
-587.909	7.792	-0.176	-0.132
-586.894	124.641	0.108	-0.137
-585.879	800.000	0.031	0.119
-584.865	58.019	-0.234	0.230
-583.850	365.848	-0.181	-0.366
-582.836	-155.156	-0.073	-0.005
-581.821	-11.724	-0.166	0.109
-580.806	-200.000	0.029	0.141
-579.792	-77.864	0.257	-0.089
-578.777	-200.000	0.050	-0.395
-577.763	-200.000	-0.014	0.167
-576.748	-3.018	-0.079	-0.055
-575.733	-79.732	0.195	0.066
-574.719	-12.866	0.122	-0.080
-573.704	702.473	0.162	-0.428
-572.690	226.989	-0.088	-0.144
-571.675	49.800	-0.045	-0.043
-570.661	-123.921	-0.415	0.066
-569.646	31.295	-0.155	0.134
-568.631	-200.000	0.005	-0.067
-567.617	86.186	-0.036	-0.040
-566.602	-36.714	0.153	0.082
-565.588	800.000	0.109	-0.348
-564.573	-88.037	-0.124	0.037
-563.558	-9.819	0.051	-0.034
-562.544	46.560	-0.031	0.029
-561.529	800.000	-0.144	0.405
-560.515	-53.314	-0.207	-0.095
-559.500	377.476	-0.049	-0.101
-558.485	245.211	0.052	-0.087
-557.471	800.000	-0.051	-0.150
-556.456	-200.000	-0.032	-0.242
-555.442	-70.503	0.281	-0.106
-554.427	537.998	0.115	-0.275
-553.412	-1.616	-0.169	0.120
-552.398	800.000	0.066	0.253
-551.383	-88.648	-0.343	0.102
-550.369	-182.144	-0.136	-0.003
-549.354	23.878	-0.076	0.062
-548.339	-120.130	0.388	-0.067
-547.325	-200.000	-0.098	-0.461
-546.310	361.219	0.082	0.165
-545.296	-104.451	-0.313	-0.073
-544.281	-71.413	-0.228	-0.086
-543.266	56.332	0.219	0.213
-542.252	-140.140	0.160	0.017
-541.237	25.569	-0.219	-0.183
-540.223	556.511	-0.085	-0.206
-539.208	-200.000	-0.017	-0.094
-538.193	-200.000	0.003	0.154
-537.179	230.193	-0.294	0.481
-536.164	100.771	0.095	0.111
-535.150	265.926	0.114	-0.199
-534.135	-200.000	0.009	-0.233
-533.121	87.828	0.166	-0.184
-532.106	-155.935	0.080	-0.005
-531.091	-134.200	0.277	-0.034
-530.077	-200.000	-0.029	-0.256
-529.062	50.310	-0.189	-0.179
-528.048	-159.236	0.371	0.021
-527.033	-200.000	-0.074	0.369
-526.018	156.696	0.231	0.319
-525.004	800.000	0.041	0.116
-523.989	-86.326	0.224	-0.069
-522.975	358.792	0.154	0.309
-521.960	-72.035	-0.170	0.063
-520.945	-179.549	0.146	-0.003
-519.931	207.050	0.058	0.091
-518.916	-52.554	0.152	-0.070
-517.902	286.572	-0.094	0.171
-516.887	48.229	0.166	0.155
-515.872	368.756	-0.072	-0.147
-514.858	-41.431	0.320	-0.165
-513.843	-166.546	-0.392	-0.016
-512.829	800.000	0.046	-0.182
-511.814	122.698	-0.137	-0.172
-510.799	800.000	-0.098	-0.323
-509.785	63.132	-0.198	-0.198
-508.770	75.900	-0.024	0.025
-507.756	-200.000	-0.011	-0.069
-506.741	-92.173	-0.054	-0.015
-505.726	-200.000	0.002	-0.088
-504.712	525.254	0.066	-0.156
-503.697	800.000	0.074	0.230
-502.683	-14.051	0.191	-0.123
-501.668	123.838	0.211	0.265
-500.653	-167.263	-0.278	0.011
-499.639	87.493	-0.149	-0.164
-498.624	800.000	0.050	-0.206
-497.610	12.105	-0.150	-0.115
-496.595	-200.000	-0.055	0.259
-495.581	52.917	0.066	-0.063
-494.566	246.476	-0.029	-0.049
-493.551	56.171	0.165	-0.160
-492.537	-86.134	0.227	0.070
-491.522	-158.068	-0.251	-0.015
-490.508	-183.715	0.388	0.007
-489.493	-11.812	0.191	-0.125
-488.478	800.000	-0.089	-0.252
-487.464	-86.145	-0.165	-0.051
-486.449	564.901	-0.005	0.011
-485.435	800.000	-0.103	0.384
-484.420	80.746	0.082	-0.088
-483.405	-200.000	0.009	-0.207
-482.391	-200.000	-0.025	-0.329
-481.376	-28.427	-0.199	-0.115
-480.362	-200.000	-0.045	-0.400
-479.347	-200.000	-0.058	0.275
-478.332	-200.000	0.022	-0.280
-477.318	-200.000	-0.029	-0.187
-476.303	615.354	-0.135	-0.338
-475.289	-88.840	-0.070	0.021
-474.274	78.911	0.173	0.185
-473.259	366.426	-0.097	-0.195
-472.245	133.413	0.031	0.041
-471.230	-54.970	-0.064	-0.029
-470.216	-182.476	-0.263	0.005
-469.201	-120.158	0.213	0.036
-468.186	-200.000	-0.037	0.397
-467.172	-77.823	-0.174	0.060
-466.157	383.870	-0.088	0.180
-465.143	231.858	0.158	-0.259
-464.128	52.743	-0.328	0.313
-463.113	-132.111	0.273	-0.035
-462.099	-200.000	-0.008	0.384
-461.084	-57.742	-0.178	0.078
-460.070	-200.000	-0.058	-0.331
-459.055	800.000	-0.082	0.311
-458.040	10.632	0.248	-0.189
-457.026	-36.528	0.207	-0.111
-456.011	-150.340	-0.527	-0.041
-454.997	307.770	-0.186	-0.346
-453.982	-81.082	0.216	-0.071
-452.968	-2.931	-0.218	0.152
-451.953	-200.000	0.005	-0.497
-450.938	-132.958	0.273	-0.035
-449.924	131.013	0.162	0.208
-448.909	113.437	-0.260	-0.314
-447.895	-18.426	-0.139	-0.087
-446.880	-200.000	-0.025	-0.157
-445.865	-112.913	0.281	-0.056
-444.851	-97.075	0.198	0.052
-443.836	-200.000	-0.001	0.091
-442.822	3.786	-0.307	0.224
-441.807	-117.945	0.184	0.033
-440.792	-147.513	-0.218	0.018
-439.778	-176.771	-0.195	-0.005
-438.763	486.519	0.120	0.272
-437.749	-200.000	0.000	-0.100
-436.734	-200.000	-0.009	-0.052
-435.719	149.426	-0.056	-0.075
-434.705	43.519	0.083	-0.076
-433.690	-200.000	-0.007	0.173
-432.676	14.375	0.042	-0.033
-431.661	-61.592	0.244	0.102
-430.646	-200.000	-0.019	-0.195
-429.632	68.976	-0.195	-0.199
-428.617	329.914	0.085	-0.162
-427.603	-141.760	-0.124	0.012
-426.588	157.673	-0.046	-0.064
-425.573	-33.672	-0.241	0.133
-424.559	111.669	0.379	-0.456
-423.544	800.000	0.080	-0.284
-422.530	-200.000	0.009	-0.375
-421.515	-97.017	-0.119	-0.031
-420.500	360.987	-0.131	-0.261
-419.486	-90.996	-0.040	0.011
-418.471	-155.454	-0.230	0.015
-417.457	800.000	0.042	-0.146
-416.442	-54.979	-0.039	-0.018
-415.428	137.324	0.080	0.104
-414.413	800.000	-0.061	0.228
-413.398	-200.000	0.033	0.187
-412.384	574.545	0.078	-0.190
-411.369	-40.203	0.143	0.074
-410.355	123.293	0.384	-0.479
-409.340	-178.782	0.069	0.002
-408.325	-117.679	0.071	0.013
-407.311	-113.727	-0.238	0.046
-406.296	-53.500	0.071	0.032
-405.282	-25.316	0.169	0.099
-404.267	117.634	0.116	0.142
-403.252	-67.948	-0.337	0.131
-402.238	800.000	0.018	0.071
-401.223	-0.630	0.188	-0.133
-400.209	286.780	0.140	-0.253
-399.194	481.177	0.156	0.353
-398.179	-5.468	0.258	0.177
-397.165	165.433	-0.083	-0.117
-396.150	-163.222	0.403	0.019
-395.136	-89.634	-0.168	-0.049
-394.121	295.655	-0.113	-0.206
-393.106	-65.398	0.298	0.119
-392.092	-44.674	0.305	0.151
-391.077	-200.000	-0.015	0.106
-390.063	-164.629	0.225	-0.010
-389.048	-192.078	-0.086	0.001
-388.033	465.287	0.076	0.170
-387.019	193.663	-0.100	-0.151
-386.004	800.000	0.058	0.182
-384.990	-193.164	0.144	0.001
-383.975	-71.645	0.266	0.099
-382.960	-16.173	-0.143	0.090
-381.946	181.303	0.142	0.208
-380.931	800.000	0.043	0.144
-379.917	277.357	0.278	0.492
-378.902	689.712	-0.120	0.312
-377.888	800.000	-0.088	0.335
-376.873	52.429	-0.141	0.134
-375.858	800.000	-0.048	-0.203
-374.844	77.794	-0.264	0.280
-373.829	-200.000	-0.029	-0.220
-372.815	-200.000	0.053	-0.360
-371.800	-110.730	-0.072	-0.015
-370.785	-71.339	0.291	0.109
-369.771	-200.000	0.016	0.153
-368.756	-154.582	0.200	0.013
-367.742	800.000	-0.031	-0.116
-366.727	368.112	0.124	-0.249
-365.712	323.022	-0.037	0.070
-364.698	-200.000	0.044	0.253
-363.683	7.023	0.057	-0.042
-362.669	-74.158	0.196	-0.070
-361.654	0.630	0.078	0.056
-360.639	-168.189	0.098	-0.004
-359.625	-94.457	0.218	-0.059
-358.610	173.096	0.123	-0.176
-357.596	-200.000	0.033	0.288
-356.581	-188.340	0.325	-0.004
-355.566	146.933	-0.322	0.430
-354.552	24.974	-0.101	-0.084
-353.537	-200.000	-0.019	-0.309
-352.523	-39.032	0.465	0.243
-351.508	17.147	0.088	0.069
-350.493	-85.558	-0.297	0.092
-349.479	221.905	-0.094	-0.150
-348.464	-200.000	0.036	0.350
-347.450	370.104	0.132	0.266
-346.435	-129.537	-0.548	0.075
-345.420	-73.500	0.269	-0.098
-344.406	414.806	0.045	-0.096
-343.391	77.204	0.134	0.142
-342.377	216.815	-0.022	0.035
-341.362	-68.889	0.056	-0.022
-340.348	409.408	-0.067	-0.140
-339.333	-94.553	-0.353	-0.096
-338.318	-125.664	0.143	0.022
-337.304	800.000	-0.065	0.192
-336.289	425.488	0.073	-0.156
-335.275	93.233	-0.084	0.095
-334.260	698.827	-0.062	-0.161
-333.245	-29.688	-0.127	0.072
-332.231	97.702	0.117	-0.133
-331.216	-136.991	-0.293	-0.033
-330.202	14.838	0.332	0.258
-329.187	12.407	0.215	-0.165
-328.172	-200.000	-0.007	-0.053
-327.158	-132.005	-0.101	-0.013
-326.143	54.706	0.082	0.079
-325.129	-84.641	-0.292	-0.091
-324.114	800.000	0.113	0.327
-323.099	593.809	-0.098	0.239
-322.085	1.193	-0.100	0.071
-321.070	72.257	-0.125	-0.129
-320.056	-33.295	0.084	0.046
-319.041	-60.687	-0.109	-0.046
-318.026	800.000	0.127	-0.432
-317.012	450.148	-0.037	0.082
-315.997	157.099	0.126	-0.174
-314.983	-82.838	0.168	-0.054
-313.968	138.085	0.150	0.195
-312.953	87.767	0.296	0.325
-311.939	25.908	0.145	-0.120
-310.924	76.951	-0.044	-0.046
-309.910	360.394	-0.220	0.436
-308.895	100.116	-0.133	-0.153
-307.880	625.205	0.048	0.121
-306.866	37.920	0.144	0.127
-305.851	291.294	-0.025	-0.045
-304.837	583.726	0.182	0.444
-303.822	-197.031	0.175	0.001
-302.807	-32.259	0.086	0.048
-301.793	-182.451	-0.296	-0.005
-300.778	-200.000	-0.010	0.340
-299.764	-4.286	-0.197	0.135
-298.749	-200.000	-0.018	-0.128
-297.735	800.000	-0.049	-0.151
-296.720	175.137	0.106	0.152
-295.705	800.000	-0.054	0.186
-294.691	-50.251	-0.103	-0.048
-293.676	-121.139	-0.130	0.022
-292.662	763.439	-0.071	0.192
-291.647	-116.125	-0.200	0.037
-290.632	272.455	-0.138	-0.242
-289.618	114.397	-0.060	0.072
-288.603	50.411	0.221	0.207
-287.589	374.965	0.063	-0.127
-286.574	62.281	0.029	0.028
-285.559	-8.748	0.341	-0.227
-284.545	-44.524	-0.285	0.142
-283.530	314.074	0.084	0.158
-282.516	86.592	0.352	0.385
-281.501	800.000	-0.034	0.117
-280.486	-13.949	0.063	0.040
-279.472	-57.728	0.119	-0.052
-278.457	139.695	0.210	0.274
-277.443	49.024	-0.197	0.183
-276.428	84.795	-0.128	-0.139
-275.413	800.000	-0.084	0.302
-274.399	800.000	-0.043	-0.128
-273.384	205.159	-0.264	0.406
-272.370	344.036	-0.092	0.178
-271.355	192.491	-0.008	0.013
-270.340	-112.947	-0.220	0.043
-269.326	-20.377	-0.081	-0.049
-268.311	331.168	-0.030	0.056
-267.297	-200.000	-0.008	-0.048
-266.282	70.938	0.177	-0.181
-265.267	-34.757	0.293	-0.159
-264.253	-200.000	0.047	0.297
-263.238	105.539	-0.094	-0.110
-262.224	800.000	0.019	-0.075
-261.209	75.453	-0.193	0.202
-260.195	255.748	0.220	0.375
-259.180	-200.000	-0.002	0.026
-258.165	67.228	-0.166	0.168
-257.151	650.985	0.066	0.168
-256.136	91.329	0.102	0.113
-255.122	-56.747	-0.136	0.059
-254.107	-200.000	-0.008	0.159
-253.092	259.992	0.188	0.322
-252.078	-200.000	0.027	-0.367
-251.063	-28.074	0.256	0.147
-250.049	282.618	-0.022	0.039
-249.034	50.828	-0.155	0.145
-248.019	800.000	-0.071	-0.213
-247.005	-200.000	0.059	-0.505
-245.990	-200.000	-0.050	-0.270
-244.976	66.908	0.139	0.140
-243.961	311.703	-0.179	-0.332
-242.946	52.929	-0.097	0.092
-241.932	289.495	0.062	-0.111
-240.917	-93.301	0.397	-0.109
-239.903	29.141	-0.118	-0.099
-238.888	-121.603	0.060	-0.010
-237.873	-173.057	0.125	0.004
-236.859	-141.865	0.527	0.052
-235.844	339.958	0.091	0.176
-234.830	69.162	-0.154	-0.156
-233.815	42.730	0.010	0.009
-232.800	800.000	0.013	0.047
-231.786	-19.246	0.197	0.121
-230.771	20.838	-0.155	0.124
-229.757	33.494	0.025	0.022
-228.742	800.000	-0.085	0.304
-227.727	256.758	-0.112	-0.190
-226.713	21.416	0.069	-0.056
-225.698	-119.481	-0.341	-0.059
-224.684	800.000	-0.081	0.229
-223.669	-62.653	0.041	0.017
-222.655	35.688	0.219	-0.191
-221.640	306.869	0.079	0.145
-220.625	-51.994	-0.140	0.064
-219.611	-61.197	0.276	0.115
-218.596	-67.610	-0.041	-0.016
-217.582	636.764	-0.087	-0.220
-216.567	-166.531	0.081	-0.003
-215.552	-17.406	0.177	0.110
-214.538	25.567	-0.218	0.179
-213.523	-200.000	-0.018	0.118
-212.509	250.824	0.105	0.177
-211.494	-135.740	-0.375	0.044
-210.479	95.662	0.121	0.137
-209.465	-80.482	-0.089	-0.029
-208.450	460.411	0.130	0.287
-207.436	-200.000	-0.017	-0.250
-206.421	118.770	-0.194	0.237
-205.406	-200.000	0.007	0.176
-204.392	-119.004	0.101	-0.018
-203.377	800.000	-0.039	0.125
-202.363	117.455	0.306	0.372
-201.348	-200.000	-0.060	0.462
-200.333	56.323	-0.104	0.100
-199.319	-200.000	-0.010	0.095
-198.304	-102.084	-0.196	0.047
-197.290	-200.000	-0.020	0.383
-196.275	-93.639	-0.318	0.087
-195.260	-200.000	-0.023	-0.110
-194.246	-67.872	-0.275	0.106
-193.231	311.620	-0.158	-0.293
-192.217	-111.928	0.197	0.039
-191.202	205.312	0.198	0.304
-190.187	-123.711	-0.465	0.073
-189.173	57.490	0.047	0.045
-188.158	309.714	0.046	0.085
-187.144	-80.232	0.081	0.027
-186.129	-200.000	-0.013	-0.298
-185.114	-36.439	0.034	0.018
-184.100	158.066	0.064	0.087
-183.085	218.034	0.088	-0.138
-182.071	-168.113	-0.207	0.008
-181.056	800.000	0.111	-0.352
-180.042	505.928	0.141	0.322
-179.027	19.231	0.148	-0.118
-178.012	-1.296	-0.392	-0.273
-176.998	486.779	-0.022	0.049
-175.983	-127.585	0.022	-0.003
-174.969	800.000	-0.015	-0.056
-173.954	111.201	-0.295	0.351
-172.939	-32.064	-0.087	0.048
-171.925	-200.000	0.011	-0.245
-170.910	17.338	-0.282	0.221
-169.896	-23.520	-0.457	-0.271
-168.881	-140.715	0.164	0.017
-167.866	-200.000	-0.006	0.101
-166.852	800.000	-0.008	0.034
-165.837	293.955	0.051	-0.093
-164.823	-200.000	0.013	-0.228
-163.808	-121.031	-0.213	-0.035
-162.793	-142.261	-0.334	0.033
-161.779	-78.357	-0.158	0.053
-160.764	-3.165	-0.241	0.166
-159.750	-140.225	0.311	-0.032
-158.735	-200.000	-0.013	0.271
-157.720	499.343	-0.117	-0.267
-156.706	134.434	-0.159	-0.203
-155.691	-128.253	0.191	0.027
-154.677	-29.934	0.208	-0.117
-153.662	-55.506	0.197	-0.087
-152.647	-35.107	-0.097	0.052
-151.633	-127.787	0.184	0.026
-150.618	214.147	0.159	-0.249
-149.604	4.930	0.118	0.085
-148.589	75.001	0.167	0.173
-147.574	-135.764	0.092	0.011
-146.560	17.733	-0.254	0.199
-145.545	89.910	-0.122	0.134
-144.531	-200.000	0.042	0.370
-143.516	-200.000	-0.033	0.394
-142.502	800.000	-0.105	-0.362
-141.487	-200.000	0.006	0.262
-140.472	-125.132	0.069	0.010
-139.458	-134.819	-0.077	-0.009
-138.443	20.896	-0.319	0.255
-137.429	-92.402	0.228	0.063
-136.414	147.164	-0.074	0.098
-135.399	-9.673	-0.122	-0.080
-134.385	-96.102	0.228	-0.060
-133.370	-171.456	-0.455	0.015
-132.356	-168.050	-0.285	0.011
-131.341	61.724	-0.181	-0.178
-130.326	498.137	-0.059	0.134
-129.312	-164.086	0.314	-0.014
-128.297	-112.063	-0.329	-0.065
-127.283	507.054	-0.056	-0.127
-126.268	-35.834	-0.069	-0.037
-125.253	507.267	-0.036	-0.082
-124.239	800.000	0.007	-0.026
-123.224	-89.823	0.223	0.064
-122.210	36.221	0.298	-0.259
