DTS Sentinel unit serial number:	SN413079Multiplexer serial number:	ORYXHardware model number:	OX4-SRSoftware version number:	ORYX F/W v4.00 Oryx Data Collector v3.7.2.0data status	okinstallation	princeton_trtdifferential loss correction	single-endedforward channel	channel 2reverse channel	N/Adate	2019/09/15time	00:27:35forward acquisition time	60.00reverse acquisition time	0.00gamma	496.2192k internal	0.2324k external	0.2324temperature offset calibration	1.0044default loss term (dB/km)	0.3790temperature slope calibration	1.0000multiplexer offset coefficient	1.0000multiplexer slope coefficient	1.0000fibre end	0.00T internal ref (°C)	32.12T ext. ref 1 (°C)	4.58T ext. ref 2 (°C)	27.18length (m)	temperature (°C)	Stokes	anti-Stokes-747.200	-149.405	-0.053	0.004
-746.185	-122.953	-0.353	0.057
-745.171	57.665	-0.103	-0.102
-744.156	214.470	0.092	0.147
-743.142	-125.310	0.063	-0.010
-742.127	-77.879	0.170	0.059
-741.112	-35.517	0.178	0.098
-740.098	291.858	-0.209	0.383
-739.083	404.530	0.222	0.472
-738.069	-92.688	-0.485	0.137
-737.054	130.760	-0.189	-0.245
-736.039	-200.000	0.034	-0.171
-735.025	-134.155	0.412	-0.051
-734.010	-157.002	-0.423	-0.026
-732.996	800.000	-0.035	0.116
-731.981	64.291	-0.140	0.142
-730.966	-200.000	-0.002	0.030
-729.952	-141.560	-0.345	-0.035
-728.937	-200.000	0.049	0.230
-727.923	38.739	-0.138	-0.124
-726.908	766.606	0.121	-0.331
-725.894	800.000	-0.145	0.459
-724.879	-106.856	0.252	0.056
-723.864	50.118	-0.175	-0.167
-722.850	-100.010	0.014	-0.004
-721.835	63.364	0.113	-0.114
-720.821	158.744	-0.215	-0.301
-719.806	252.624	0.023	-0.039
-718.791	-117.124	0.141	0.026
-717.777	800.000	0.022	0.096
-716.762	324.633	-0.087	0.167
-715.748	-162.922	-0.366	-0.018
-714.733	-93.381	-0.131	0.037
-713.718	47.925	0.263	0.248
-712.704	-169.428	-0.023	0.001
-711.689	-8.474	0.069	-0.047
-710.675	-5.878	0.155	-0.107
-709.660	-200.000	-0.006	-0.381
-708.645	-105.489	0.320	-0.073
-707.631	3.518	-0.234	-0.172
-706.616	99.619	-0.117	-0.136
-705.602	-200.000	0.059	-0.273
-704.587	-52.626	-0.349	-0.163
-703.572	133.762	-0.153	0.199
-702.558	261.992	0.173	0.303
-701.543	477.447	0.135	-0.308
-700.529	100.581	-0.175	0.205
-699.514	643.171	0.083	-0.214
-698.499	-175.600	-0.401	0.011
-697.485	-200.000	-0.006	0.154
-696.470	1.042	0.409	0.295
-695.456	-27.535	0.047	-0.028
-694.441	-149.860	-0.351	0.028
-693.426	-9.159	0.068	0.046
-692.412	-48.929	0.179	0.086
-691.397	-200.000	0.001	-0.250
-690.383	35.587	-0.207	-0.184
-689.368	-156.844	0.493	-0.031
-688.354	-102.595	-0.256	-0.062
-687.339	-95.632	-0.196	0.053
-686.324	-197.989	-0.091	0.001
-685.310	-2.888	-0.312	0.220
-684.295	-77.237	-0.347	0.122
-683.281	-189.809	0.250	0.003
-682.266	0.133	-0.249	0.179
-681.251	-200.000	-0.035	-0.204
-680.237	325.109	-0.098	-0.188
-679.222	247.928	-0.180	0.306
-678.208	-48.658	-0.251	-0.121
-677.193	514.021	-0.052	0.121
-676.178	-65.138	0.331	0.135
-675.164	-130.057	0.208	-0.029
-674.149	-73.918	-0.144	0.053
-673.135	-99.780	-0.212	-0.054
-672.120	658.469	-0.083	-0.215
-671.105	92.235	-0.265	-0.300
-670.091	-200.000	-0.026	-0.231
-669.076	-143.806	-0.179	-0.017
-668.062	111.317	-0.107	-0.130
-667.047	-200.000	-0.006	-0.059
-666.032	-51.017	-0.175	0.082
-665.018	55.504	0.091	0.089
-664.003	-200.000	-0.003	-0.104
-662.989	800.000	-0.094	0.300
-661.974	-200.000	0.022	-0.333
-660.959	-116.240	-0.463	0.086
-659.945	115.301	0.183	-0.225
-658.930	-22.619	0.363	-0.221
-657.916	214.691	-0.151	0.240
-656.901	260.512	-0.049	-0.085
-655.886	-38.673	0.004	0.002
-654.872	-200.000	0.026	0.142
-653.857	-200.000	-0.035	0.234
-652.843	43.557	-0.131	0.121
-651.828	-127.925	-0.323	-0.047
-650.814	150.037	0.078	0.106
-649.799	-27.880	0.295	-0.172
-648.784	49.448	0.152	0.144
-647.770	114.105	-0.138	-0.169
-646.755	-48.712	0.080	-0.039
-645.741	406.656	-0.091	-0.193
-644.726	-200.000	-0.015	0.259
-643.711	77.998	-0.097	0.104
-642.697	-143.923	0.246	-0.023
-641.682	216.155	-0.057	-0.090
-640.668	143.038	-0.206	0.276
-639.653	-200.000	-0.023	0.178
-638.638	31.064	-0.096	-0.083
-637.624	319.450	-0.188	-0.359
-636.609	-200.000	0.060	-0.318
-635.595	800.000	-0.010	-0.030
-634.580	-116.934	-0.159	0.029
-633.565	-144.411	-0.160	-0.015
-632.551	13.220	0.244	-0.190
-631.536	800.000	0.057	-0.206
-630.522	-200.000	0.014	-0.314
-629.507	800.000	-0.131	-0.571
-628.492	88.217	0.083	0.092
-627.478	23.987	0.247	-0.205
-626.463	-13.532	-0.327	0.213
-625.449	270.220	0.096	-0.170
-624.434	800.000	-0.026	-0.078
-623.419	40.287	-0.129	0.117
-622.405	97.496	0.082	-0.094
-621.390	-200.000	-0.037	-0.164
-620.376	62.832	-0.204	0.205
-619.361	113.822	0.229	-0.280
-618.346	-200.000	0.017	0.186
-617.332	-200.000	0.001	-0.084
-616.317	-65.456	-0.107	0.043
-615.303	-1.133	0.248	-0.176
-614.288	120.257	0.100	0.125
-613.273	-71.313	0.392	0.148
-612.259	-88.738	-0.441	-0.132
-611.244	-72.899	0.267	-0.099
-610.230	-68.245	0.319	0.125
-609.215	177.215	0.192	0.280
-608.201	-90.410	0.371	0.108
-607.186	-136.305	0.171	0.020
-606.171	-200.000	-0.015	0.160
-605.157	192.333	-0.100	0.152
-604.142	-200.000	-0.001	0.032
-603.128	-24.192	-0.251	0.150
-602.113	-200.000	-0.013	-0.328
-601.098	-124.154	0.074	-0.012
-600.084	-16.480	0.128	0.081
-599.069	800.000	0.067	0.248
-598.055	-200.000	0.015	0.066
-597.040	324.471	0.107	0.206
-596.025	86.159	0.115	0.127
-595.011	-82.338	0.250	-0.082
-593.996	59.323	0.029	-0.028
-592.982	-200.000	-0.041	-0.332
-591.967	-128.656	-0.305	-0.043
-590.952	-125.946	0.284	0.043
-589.938	800.000	0.059	0.203
-588.923	-78.707	0.055	-0.019
-587.909	358.297	-0.162	0.325
-586.894	220.665	-0.160	-0.257
-585.879	-98.899	-0.205	0.052
-584.865	644.416	-0.094	0.241
-583.850	-71.551	-0.297	-0.111
-582.836	52.773	0.152	0.146
-581.821	501.698	0.043	-0.100
-580.806	-83.159	0.017	-0.006
-579.792	156.876	-0.134	-0.185
-578.777	14.188	-0.200	0.156
-577.763	-91.237	-0.294	0.084
-576.748	-200.000	-0.042	0.189
-575.733	-90.859	-0.128	-0.037
-574.719	642.403	-0.044	-0.113
-573.704	-168.397	0.269	-0.010
-572.690	27.853	-0.272	-0.230
-571.675	-104.412	-0.247	0.057
-570.661	800.000	0.066	0.228
-569.646	-188.751	-0.045	-0.001
-568.631	-190.929	-0.273	-0.003
-567.617	267.145	0.109	-0.190
-566.602	-91.927	0.084	-0.024
-565.588	709.484	-0.078	-0.206
-564.573	-200.000	0.021	-0.106
-563.558	221.376	-0.076	0.123
-562.544	800.000	-0.093	-0.312
-561.529	-200.000	-0.049	-0.419
-560.515	800.000	0.074	0.304
-559.500	-43.565	-0.095	0.048
-558.485	-38.855	0.188	0.099
-557.471	36.436	0.229	0.202
-556.456	-82.936	0.073	0.024
-555.442	448.159	0.027	-0.060
-554.427	-30.102	-0.338	0.193
-553.412	-102.869	0.340	0.081
-552.398	-120.455	-0.080	0.014
-551.383	510.687	-0.109	0.253
-550.369	252.121	0.075	0.129
-549.354	-123.081	0.027	-0.004
-548.339	-200.000	0.008	-0.117
-547.325	355.867	0.085	-0.169
-546.310	-112.956	-0.127	-0.025
-545.296	-200.000	-0.042	0.195
-544.281	71.622	0.175	0.182
-543.266	501.342	0.145	-0.335
-542.252	-46.663	-0.016	0.008
-541.237	-101.534	0.305	0.074
-540.223	-180.678	0.089	-0.002
-539.208	-129.383	0.145	-0.020
-538.193	-91.230	-0.242	0.069
-537.179	-200.000	-0.025	0.190
-536.164	183.913	0.080	0.119
-535.150	-103.044	0.050	0.012
-534.135	-83.035	-0.153	-0.049
-533.121	800.000	-0.053	0.177
-532.106	-200.000	-0.018	-0.257
-531.091	-200.000	0.009	-0.372
-530.077	279.141	-0.007	0.012
-529.062	800.000	0.063	-0.176
-528.048	-44.261	-0.214	-0.108
-527.033	152.732	-0.034	0.046
-526.018	62.633	-0.242	-0.242
-525.004	800.000	0.060	0.174
-523.989	-28.267	-0.185	-0.107
-522.975	-28.905	-0.308	0.177
-521.960	-146.324	0.081	0.007
-520.945	42.120	-0.187	0.170
-519.931	140.428	-0.297	-0.393
-518.916	-141.381	-0.350	0.036
-517.902	-106.044	-0.217	-0.049
-516.887	800.000	0.048	0.148
-515.872	-86.429	0.156	-0.048
-514.858	-146.658	-0.356	0.031
-513.843	-200.000	-0.045	0.253
-512.829	800.000	-0.096	0.271
-511.814	-68.494	-0.241	0.093
-510.799	-62.188	-0.043	-0.018
-509.785	62.586	0.048	0.048
-508.770	-75.417	0.224	-0.080
-507.756	231.308	0.058	0.096
-506.741	-53.395	0.081	0.037
-505.726	-200.000	0.056	0.332
-504.712	78.058	0.113	-0.120
-503.697	-101.231	-0.245	0.060
-502.683	-105.133	0.246	-0.056
-501.668	363.870	0.099	0.200
-500.653	104.347	-0.218	0.257
-499.639	211.761	-0.074	0.116
-498.624	10.249	0.495	0.377
-497.610	-112.820	-0.290	0.058
-496.595	-23.178	0.236	0.142
-495.581	-6.100	0.088	0.060
-494.566	304.276	-0.117	0.216
-493.551	-65.242	-0.184	0.074
-492.537	-200.000	-0.096	0.426
-491.522	335.544	-0.078	-0.151
-490.508	67.776	0.210	-0.214
-489.493	70.217	-0.184	-0.190
-488.478	105.906	-0.204	0.241
-487.464	-200.000	0.015	0.177
-486.449	-105.447	-0.278	-0.063
-485.435	800.000	-0.060	0.227
-484.420	-36.586	0.197	0.106
-483.405	-99.893	0.160	0.040
-482.391	-143.681	-0.353	0.033
-481.376	-93.032	0.404	-0.113
-480.362	35.920	-0.152	0.134
-479.347	124.674	0.063	0.079
-478.332	-178.820	-0.416	-0.009
-477.318	-28.535	0.218	0.126
-476.303	498.701	-0.064	-0.148
-475.289	-200.000	0.005	0.066
-474.274	-36.412	-0.147	0.079
-473.259	373.720	-0.183	0.372
-472.245	-200.000	-0.002	0.281
-471.230	-200.000	-0.009	-0.048
-470.216	-200.000	0.006	0.299
-469.201	-135.670	-0.195	-0.023
-468.186	-200.000	0.015	0.147
-467.172	-8.199	-0.257	-0.173
-466.157	-89.433	-0.241	0.071
-465.143	-167.103	0.298	0.012
-464.128	-69.100	0.038	0.014
-463.113	-74.060	-0.168	0.061
-462.099	-39.014	-0.109	-0.057
-461.084	303.596	0.133	0.246
-460.070	-119.429	0.186	0.032
-459.055	61.653	-0.227	0.226
-458.040	368.663	-0.106	-0.214
-457.026	403.092	-0.169	-0.355
-456.011	261.672	-0.075	-0.130
-454.997	-84.418	0.219	0.069
-453.982	-200.000	-0.009	-0.255
-452.968	-125.086	0.053	0.008
-451.953	800.000	0.077	-0.293
-450.938	-173.332	0.080	-0.002
-449.924	238.749	-0.108	-0.179
-448.909	-162.758	-0.123	-0.006
-447.895	-200.000	0.001	-0.364
-446.880	-30.173	0.207	-0.118
-445.865	-42.096	0.209	0.106
-444.851	266.228	0.116	-0.203
-443.836	-29.643	0.233	-0.133
-442.822	-200.000	0.008	-0.138
-441.807	497.789	0.165	0.378
-440.792	800.000	0.035	0.135
-439.778	133.663	0.167	0.215
-438.763	-200.000	-0.010	-0.134
-437.749	-15.382	-0.185	-0.118
-436.734	61.806	-0.198	0.196
-435.719	800.000	-0.086	-0.242
-434.705	-200.000	0.060	0.379
-433.690	-169.102	0.123	-0.005
-432.676	355.376	0.087	-0.172
-431.661	-200.000	-0.116	0.000
-430.646	344.822	-0.123	-0.242
-429.632	354.062	0.199	0.393
-428.617	-66.404	0.225	-0.089
-427.603	-200.000	-0.006	0.139
-426.588	148.484	0.030	0.040
-425.573	-200.000	-0.018	0.090
-424.559	-200.000	0.030	0.391
-423.544	-64.548	-0.118	0.048
-422.530	-32.604	0.112	0.062
-421.515	38.698	-0.116	0.103
-420.500	-92.985	-0.109	-0.030
-419.486	800.000	0.117	-0.408
-418.471	-28.218	0.326	0.188
-417.457	-22.999	-0.112	0.067
-416.442	-200.000	0.033	-0.184
-415.428	256.217	-0.060	0.103
-414.413	-59.553	0.015	0.006
-413.398	-80.708	-0.223	-0.074
-412.384	-12.977	-0.202	-0.131
-411.369	45.933	-0.121	-0.111
-410.355	-148.955	-0.389	-0.031
-409.340	-200.000	-0.003	0.097
-408.325	0.942	0.379	-0.271
-407.311	-143.925	0.170	0.016
-406.296	580.350	-0.122	0.298
-405.282	-200.000	-0.100	0.590
-404.267	800.000	-0.019	-0.073
-403.252	15.277	0.132	-0.103
-402.238	165.776	0.116	0.164
-401.223	-48.642	0.162	-0.077
-400.209	-2.276	0.070	-0.049
-399.194	416.447	-0.056	-0.120
-398.179	324.342	-0.132	0.251
-397.165	-109.841	0.147	-0.031
-396.150	279.625	0.131	-0.234
-395.136	129.901	0.133	0.170
-394.121	-159.848	0.026	0.001
-393.106	-167.802	-0.122	0.005
-392.092	-156.553	0.183	-0.011
-391.077	-25.468	0.188	-0.110
-390.063	-61.217	-0.294	-0.124
-389.048	47.393	-0.031	-0.029
-388.033	-21.181	0.454	0.277
-387.019	-23.378	0.062	0.037
-386.004	-126.594	-0.369	0.054
-384.990	137.487	0.208	-0.271
-383.975	26.917	0.066	0.055
-382.960	-200.000	0.006	-0.200
-381.946	-200.000	-0.081	-0.519
-380.931	5.324	-0.289	-0.212
-379.917	-200.000	-0.016	0.116
-378.902	250.991	-0.037	-0.062
-377.888	210.534	0.271	0.424
-376.873	-11.314	0.307	0.201
-375.858	46.812	0.099	0.091
-374.844	-22.625	-0.235	-0.141
-373.829	220.260	0.096	0.152
-372.815	31.164	0.110	0.094
-371.800	800.000	-0.049	0.145
-370.785	-130.466	0.193	0.026
-369.771	113.958	-0.088	-0.106
-368.756	39.420	-0.101	0.090
-367.742	-200.000	0.002	0.013
-366.727	-200.000	-0.039	-0.238
-365.712	34.369	0.281	-0.244
-364.698	-34.897	0.205	0.111
-363.683	-96.948	-0.269	-0.070
-362.669	-11.931	0.017	0.011
-361.654	29.618	0.276	0.234
-360.639	-119.228	-0.461	-0.080
-359.625	-60.855	0.125	0.053
-358.610	251.006	0.157	-0.266
-357.596	30.785	-0.280	0.239
-356.581	-56.552	-0.125	-0.055
-355.566	42.726	0.288	-0.261
-354.552	-199.708	0.051	-0.000
-353.537	-162.662	0.212	0.010
-352.523	431.544	-0.129	-0.279
-351.508	-200.000	0.042	-0.261
-350.493	-200.000	-0.047	0.227
-349.479	-65.565	0.364	-0.145
-348.464	-183.183	0.222	0.004
-347.450	50.346	0.123	0.115
-346.435	-200.000	0.023	-0.172
-345.420	578.993	-0.102	-0.249
-344.406	9.577	0.268	-0.202
-343.391	-109.808	-0.100	-0.021
-342.377	-200.000	-0.051	-0.284
-341.362	-71.025	0.075	-0.028
-340.348	59.329	0.206	-0.201
-339.333	-45.438	0.115	0.057
-338.318	30.489	-0.184	0.156
-337.304	-166.811	0.179	-0.007
-336.289	800.000	-0.043	-0.168
-335.275	800.000	0.049	-0.181
-334.260	800.000	-0.016	-0.056
-333.245	-161.559	0.145	0.007
-332.231	-105.508	0.135	0.030
-331.216	-200.000	-0.001	-0.067
-330.202	-200.000	-0.021	-0.136
-329.187	-167.081	0.219	0.009
-328.172	173.522	-0.082	0.117
-327.158	800.000	-0.109	0.335
-326.143	-200.000	0.017	-0.126
-325.129	-200.000	-0.018	0.104
-324.114	-53.382	-0.052	-0.024
-323.099	-58.194	-0.279	0.120
-322.085	60.247	0.181	0.178
-321.070	32.009	-0.281	-0.241
-320.056	800.000	-0.031	-0.092
-319.041	301.038	0.072	0.132
-318.026	-200.000	-0.012	-0.286
-317.012	-9.821	0.055	-0.037
-315.997	-128.423	0.443	0.063
-314.983	-7.095	-0.038	-0.026
-313.968	509.098	-0.085	0.196
-312.953	60.439	0.310	0.305
-311.939	-200.000	0.021	0.224
-310.924	443.091	-0.128	-0.279
-309.910	-157.283	0.189	0.011
-308.895	13.753	0.067	0.052
-307.880	800.000	0.019	0.053
-306.866	-200.000	-0.021	0.112
-305.851	-200.000	0.001	-0.098
-304.837	-62.202	-0.170	0.070
-303.822	194.741	0.247	-0.371
-302.807	-39.181	0.244	0.127
-301.793	-120.556	-0.100	0.017
-300.778	-200.000	-0.036	-0.351
-299.764	49.920	0.163	0.153
-298.749	-78.515	0.112	-0.038
-297.735	296.718	-0.085	0.154
-296.720	-200.000	-0.003	-0.050
-295.705	-4.727	0.067	0.046
-294.691	195.783	-0.099	0.149
-293.676	-200.000	-0.021	0.169
-292.662	295.738	0.078	0.141
-291.647	-97.092	-0.204	-0.053
-290.632	-200.000	-0.039	0.450
-289.618	-148.876	-0.195	0.016
-288.603	108.551	-0.146	0.173
-287.589	280.546	-0.094	0.167
-286.574	800.000	-0.124	-0.407
-285.559	800.000	0.077	-0.240
-284.545	212.442	-0.098	0.154
-283.530	800.000	-0.051	-0.212
-282.516	800.000	0.030	-0.085
-281.501	-200.000	-0.001	-0.084
-280.486	-30.781	0.078	0.044
-279.472	-200.000	0.023	-0.110
-278.457	800.000	-0.038	-0.135
-277.443	-21.975	0.156	0.094
-276.428	-90.269	-0.071	-0.021
-275.413	-200.000	-0.021	0.124
-274.399	78.810	0.243	0.258
-273.384	-36.641	-0.146	-0.078
-272.370	-200.000	-0.000	0.039
-271.355	-200.000	0.024	-0.285
-270.340	800.000	0.030	-0.097
-269.326	-19.562	0.433	0.266
-268.311	-14.016	0.250	0.160
-267.297	-70.461	0.111	-0.042
-266.282	59.232	-0.250	-0.244
-265.267	-105.305	-0.058	-0.013
-264.253	-164.274	-0.105	-0.005
-263.238	800.000	-0.051	-0.202
-262.224	117.305	-0.143	0.174
-261.209	-200.000	-0.027	0.286
-260.195	368.741	-0.125	0.251
-259.180	-95.972	0.173	-0.046
-258.165	-15.731	-0.064	-0.040
-257.151	-80.725	-0.450	-0.148
-256.136	-118.565	0.631	-0.110
-255.122	-200.000	0.019	0.389
-254.107	721.564	-0.095	-0.249
-253.092	92.290	0.062	0.069
-252.078	800.000	-0.122	-0.374
-251.063	38.685	-0.188	-0.166
-250.049	326.640	-0.220	-0.417
-249.034	238.938	-0.102	0.167
-248.019	18.132	-0.109	-0.086
-247.005	-200.000	0.019	-0.234
-245.990	800.000	-0.016	0.063
-244.976	-145.243	-0.135	-0.012
-243.961	56.887	-0.132	0.128
-242.946	-200.000	0.025	-0.478
-241.932	210.840	0.130	0.203
-240.917	800.000	0.110	0.305
-239.903	-11.313	-0.173	0.112
-238.888	-125.033	-0.343	-0.052
-237.873	289.446	-0.177	0.317
-236.859	-96.488	-0.071	-0.019
-235.844	-156.353	-0.200	-0.012
-234.830	-66.530	0.185	-0.073
-233.815	-200.000	-0.004	-0.107
-232.800	285.109	-0.073	-0.131
-231.786	-57.458	0.020	0.009
-230.771	-133.484	0.135	-0.017
-229.757	184.809	0.344	-0.505
-228.742	-200.000	0.048	-0.503
-227.727	47.008	-0.198	0.183
-226.713	75.868	0.209	-0.219
-225.698	92.051	0.229	-0.255
-224.684	19.335	0.146	0.116
-223.669	-24.492	-0.274	0.161
-222.655	-76.412	-0.249	0.087
-221.640	317.409	0.082	-0.153
-220.625	121.970	0.247	-0.305
-219.611	224.548	0.068	-0.108
-218.596	205.134	-0.082	-0.126
-217.582	-200.000	0.025	0.351
-216.567	-106.335	-0.155	0.034
-215.552	173.728	0.260	-0.372
-214.538	800.000	-0.102	-0.342
-213.523	48.811	-0.098	-0.091
-212.509	-3.729	-0.098	-0.068
-211.494	-154.591	0.089	-0.006
-210.479	-200.000	0.040	-0.510
-209.465	23.883	0.055	-0.045
-208.450	193.495	0.076	0.113
-207.436	303.018	-0.068	0.125
-206.421	-45.465	0.343	-0.168
-205.406	110.243	-0.297	-0.353
-204.392	297.451	0.121	-0.220
-203.377	186.882	0.252	-0.372
-202.363	-200.000	0.011	-0.170
-201.348	800.000	-0.033	-0.116
-200.333	-200.000	-0.066	0.358
-199.319	-35.297	0.378	0.203
-198.304	53.670	0.193	0.183
-197.290	43.589	-0.376	0.340
-196.275	496.211	0.045	-0.103
-195.260	81.718	0.085	0.091
-194.246	164.645	0.009	-0.012
-193.231	7.867	0.176	-0.130
-192.217	-47.117	-0.249	-0.120
-191.202	800.000	-0.100	-0.403
-190.187	-165.630	-0.134	-0.006
-189.173	800.000	-0.046	-0.181
-188.158	-66.957	-0.219	0.085
-187.144	385.278	-0.212	0.433
-186.129	374.513	-0.090	0.182
-185.114	-54.205	0.184	0.083
-184.100	38.480	0.157	-0.138
-183.085	-200.000	-0.031	0.443
-182.071	403.058	0.081	0.169
-181.056	-117.710	0.251	-0.045
-180.042	253.819	-0.127	0.214
-179.027	-88.343	-0.124	0.036
-178.012	-128.278	-0.174	-0.024
-176.998	100.951	-0.193	0.222
-175.983	-91.137	0.358	0.101
-174.969	229.706	-0.146	-0.236
-173.954	-4.645	0.296	0.202
-172.939	-200.000	-0.016	0.079
-171.925	-65.356	-0.223	-0.088
-170.910	-26.080	0.184	0.107
-169.896	-200.000	-0.054	-0.389
-168.881	-8.884	-0.091	0.061
-167.866	126.226	0.190	0.237
-166.852	21.497	0.091	0.073
-165.837	-41.622	-0.056	-0.028
-164.823	-148.978	-0.289	0.023
-163.808	-90.611	0.166	0.047
-162.793	-12.422	-0.474	-0.306
-161.779	-22.123	0.186	0.112
-160.764	-122.563	-0.132	-0.021
-159.750	800.000	-0.065	0.252
-158.735	-121.485	0.222	0.036
-157.720	195.995	-0.133	0.200
-156.706	-85.454	0.112	0.034
-155.691	-172.314	0.343	-0.011
-154.677	-32.267	-0.371	0.205
-153.662	419.555	-0.152	0.320
-152.647	-66.814	0.175	-0.068
-151.633	-152.732	-0.288	0.020
-150.618	-72.280	0.102	-0.037
-149.604	404.069	-0.029	0.060
-148.589	176.221	0.119	-0.171
-147.574	-148.484	0.061	0.005
-146.560	244.670	0.074	0.122
-145.545	360.396	-0.084	-0.165
-144.531	-200.000	0.107	-0.467
-143.516	448.990	0.161	0.350
-142.502	-51.000	-0.076	0.035
-141.487	800.000	-0.069	-0.287
-140.472	800.000	0.076	0.247
-139.458	208.157	0.005	-0.008
-138.443	91.952	0.053	0.058
-137.429	-200.000	0.051	0.241
-136.414	-107.840	-0.220	0.047
-135.399	82.099	-0.140	-0.150
-134.385	-200.000	-0.019	0.193
-133.370	30.272	-0.210	-0.177
-132.356	-200.000	-0.014	-0.120
-131.341	-7.871	-0.209	-0.139
-130.326	-0.652	-0.086	-0.060
-129.312	800.000	0.059	0.220
-128.297	-104.453	0.128	0.029
-127.283	250.011	0.186	0.311
-126.268	483.634	0.025	0.057
-125.253	-147.578	-0.152	-0.013
-124.239	224.949	0.045	0.072
-123.224	69.421	0.243	0.246
-122.210	-127.351	-0.176	-0.025
