DTS Sentinel unit serial number:	SN413079Multiplexer serial number:	ORYXHardware model number:	OX4-SRSoftware version number:	ORYX F/W v4.00 Oryx Data Collector v3.7.2.0data status	okinstallation	princeton_trtdifferential loss correction	single-endedforward channel	channel 2reverse channel	N/Adate	2019/09/19time	00:59:35forward acquisition time	60.00reverse acquisition time	0.00gamma	496.2192k internal	0.2353k external	0.2353temperature offset calibration	1.0017default loss term (dB/km)	0.3790temperature slope calibration	1.0000multiplexer offset coefficient	1.0000multiplexer slope coefficient	1.0000fibre end	0.00T internal ref (°C)	21.94T ext. ref 1 (°C)	0.71T ext. ref 2 (°C)	15.43length (m)	temperature (°C)	Stokes	anti-Stokes-747.200	800.000	-0.068	0.286
-746.185	-23.307	0.132	0.079
-745.171	-197.661	-0.142	0.001
-744.156	80.968	0.132	0.142
-743.142	-98.347	0.406	-0.104
-742.127	800.000	-0.136	0.442
-741.112	-129.724	0.183	-0.025
-740.098	316.532	-0.117	0.221
-739.083	-92.273	0.203	0.057
-738.069	64.755	0.029	-0.030
-737.054	211.285	-0.176	-0.277
-736.039	183.181	-0.130	0.192
-735.025	-200.000	0.055	-0.270
-734.010	-119.017	-0.242	-0.042
-732.996	125.207	-0.104	0.131
-731.981	71.374	-0.107	0.111
-730.966	86.527	-0.054	-0.059
-729.952	173.497	0.173	-0.248
-728.937	-150.717	-0.059	-0.004
-727.923	800.000	-0.073	0.298
-726.908	-200.000	0.022	0.099
-725.894	-66.588	-0.114	-0.045
-724.879	-200.000	-0.023	-0.309
-723.864	-45.588	0.111	-0.055
-722.850	-7.699	-0.020	-0.014
-721.835	-16.551	0.148	0.093
-720.821	-76.908	-0.174	0.060
-719.806	-105.866	0.273	0.061
-718.791	656.249	0.142	0.362
-717.777	91.181	-0.109	0.122
-716.762	-200.000	-0.018	0.202
-715.748	257.725	-0.199	-0.341
-714.733	800.000	0.061	-0.237
-713.718	522.782	-0.161	-0.377
-712.704	162.801	0.134	0.187
-711.689	483.823	-0.148	0.335
-710.675	47.902	0.232	-0.216
-709.660	-43.039	-0.207	-0.104
-708.645	-126.050	-0.364	0.054
-707.631	344.064	0.143	0.279
-706.616	-85.910	0.041	0.013
-705.602	-200.000	-0.004	-0.178
-704.587	64.623	-0.258	-0.259
-703.572	800.000	-0.059	0.220
-702.558	-107.052	-0.088	-0.019
-701.543	103.413	0.031	0.036
-700.529	-134.476	0.321	0.039
-699.514	256.490	0.059	0.101
-698.499	40.942	-0.103	-0.092
-697.485	-90.881	-0.265	-0.076
-696.470	144.655	0.069	-0.092
-695.456	800.000	0.084	0.261
-694.441	-80.113	0.200	-0.067
-693.426	167.993	-0.113	0.161
-692.412	547.012	-0.060	-0.143
-691.397	-200.000	-0.015	-0.401
-690.383	-109.127	-0.168	0.036
-689.368	800.000	0.111	-0.444
-688.354	369.225	0.018	0.036
-687.339	12.960	0.126	-0.097
-686.324	800.000	0.034	0.099
-685.310	137.692	-0.208	0.271
-684.295	-64.693	0.102	0.041
-683.281	-41.178	-0.066	-0.034
-682.266	266.693	-0.092	0.160
-681.251	-54.118	-0.072	-0.032
-680.237	-96.089	-0.334	0.088
-679.222	800.000	0.091	-0.267
-678.208	-2.104	-0.079	0.055
-677.193	162.046	-0.181	-0.253
-676.178	-20.461	-0.316	0.193
-675.164	800.000	-0.031	-0.128
-674.149	40.047	0.085	0.076
-673.135	-74.458	-0.236	0.085
-672.120	-200.000	-0.042	-0.226
-671.105	165.365	-0.112	-0.157
-670.091	14.207	-0.246	-0.191
-669.076	800.000	0.039	-0.169
-668.062	510.278	0.092	0.214
-667.047	59.720	0.188	0.185
-666.032	304.740	0.168	0.311
-665.018	-73.235	-0.274	-0.100
-664.003	-200.000	-0.046	-0.255
-662.989	41.042	-0.236	0.212
-661.974	209.726	0.040	0.063
-660.959	-200.000	0.023	0.305
-659.945	-134.462	-0.245	0.030
-658.930	-200.000	-0.022	-0.121
-657.916	-4.293	-0.134	0.092
-656.901	401.633	-0.135	0.282
-655.886	-200.000	0.018	0.217
-654.872	-26.593	0.244	-0.142
-653.857	21.898	-0.294	-0.238
-652.843	-115.149	0.127	-0.024
-651.828	11.436	-0.136	-0.104
-650.814	-97.804	-0.080	0.021
-649.799	55.340	0.230	-0.221
-648.784	-41.960	0.149	-0.076
-647.770	-57.580	0.295	-0.128
-646.755	-32.105	0.357	0.198
-645.741	84.727	0.178	-0.194
-644.726	-23.137	-0.225	-0.134
-643.711	32.453	0.281	0.241
-642.697	800.000	-0.137	-0.432
-641.682	122.445	-0.074	0.092
-640.668	-142.216	-0.233	0.023
-639.653	-97.305	0.029	0.007
-638.638	23.874	0.118	0.096
-637.624	291.579	-0.184	-0.333
-636.609	-148.428	-0.183	0.015
-635.595	346.332	-0.068	-0.132
-634.580	625.186	0.058	0.146
-633.565	-183.514	-0.261	-0.004
-632.551	218.287	-0.026	0.041
-631.536	267.362	0.067	0.117
-630.522	306.281	-0.099	-0.183
-629.507	25.055	0.307	-0.253
-628.492	424.660	-0.026	-0.055
-627.478	800.000	0.049	-0.160
-626.463	157.182	-0.106	-0.145
-625.449	144.582	-0.078	0.103
-624.434	118.378	0.079	0.096
-623.419	-120.287	-0.234	-0.040
-622.405	800.000	-0.033	0.131
-621.390	-49.050	-0.095	-0.045
-620.376	800.000	0.073	-0.281
-619.361	-200.000	-0.033	-0.336
-618.346	211.385	0.020	0.030
-617.332	582.845	-0.040	0.097
-616.317	-72.104	-0.537	-0.198
-615.303	126.604	0.061	0.076
-614.288	-98.702	-0.108	-0.027
-613.273	227.261	-0.071	-0.114
-612.259	-96.841	0.191	-0.050
-611.244	446.000	0.069	0.150
-610.230	-162.393	0.106	0.005
-609.215	-139.257	-0.443	-0.047
-608.201	-89.575	0.262	0.076
-607.186	107.263	0.205	0.241
-606.171	634.294	-0.128	-0.322
-605.157	232.362	-0.288	-0.469
-604.142	61.267	0.143	0.141
-603.128	-99.208	-0.182	0.046
-602.113	258.902	-0.066	0.113
-601.098	-200.000	-0.028	-0.150
-600.084	-90.957	-0.100	0.029
-599.069	69.857	-0.018	-0.019
-598.055	-200.000	0.054	0.268
-597.040	-103.865	0.146	0.034
-596.025	41.481	0.043	-0.039
-595.011	-191.760	0.306	-0.003
-593.996	-200.000	0.042	-0.276
-592.982	-60.160	-0.259	0.109
-591.967	57.873	0.123	-0.119
-590.952	800.000	0.077	-0.244
-589.938	770.182	-0.075	-0.203
-588.923	-200.000	-0.022	-0.365
-587.909	-109.850	0.382	-0.079
-586.894	198.266	-0.206	-0.313
-585.879	800.000	0.131	0.408
-584.865	23.527	-0.113	0.092
-583.850	346.103	0.104	-0.203
-582.836	88.233	0.270	-0.297
-581.821	10.052	-0.232	-0.175
-580.806	-200.000	0.015	0.197
-579.792	-13.742	-0.094	-0.060
-578.777	72.969	-0.218	0.226
-577.763	-24.517	0.070	0.041
-576.748	-200.000	0.010	0.418
-575.733	-49.136	-0.030	0.014
-574.719	-145.055	0.021	0.002
-573.704	-73.077	-0.475	-0.173
-572.690	800.000	-0.092	-0.318
-571.675	375.331	0.107	-0.216
-570.661	48.899	0.201	-0.187
-569.646	-92.948	0.221	-0.061
-568.631	8.045	0.050	0.037
-567.617	269.505	0.212	0.369
-566.602	-119.371	-0.227	-0.039
-565.588	-174.140	0.135	0.004
-564.573	87.754	0.036	0.039
-563.558	-110.376	-0.104	0.021
-562.544	-164.431	0.196	0.009
-561.529	-65.841	0.125	-0.049
-560.515	800.000	-0.016	0.045
-559.500	-200.000	-0.028	-0.247
-558.485	197.906	0.026	-0.039
-557.471	304.455	-0.101	0.185
-556.456	-94.702	-0.368	0.099
-555.442	-109.407	-0.194	-0.041
-554.427	800.000	-0.113	-0.328
-553.412	-200.000	-0.072	-0.455
-552.398	-200.000	-0.040	-0.238
-551.383	-40.497	0.183	0.094
-550.369	-200.000	-0.040	0.460
-549.354	664.613	-0.025	-0.063
-548.339	110.441	-0.049	0.058
-547.325	-200.000	-0.018	0.220
-546.310	-102.386	-0.228	0.054
-545.296	-12.627	-0.294	-0.190
-544.281	-27.533	0.261	-0.150
-543.266	-160.211	-0.187	-0.010
-542.252	-69.650	-0.370	0.140
-541.237	131.992	-0.104	0.132
-540.223	-7.293	-0.157	-0.105
-539.208	463.065	0.099	-0.219
-538.193	226.912	0.227	-0.365
-537.179	800.000	-0.030	0.087
-536.164	-200.000	0.004	0.032
-535.150	-200.000	-0.008	0.139
-534.135	199.766	0.259	0.393
-533.121	-200.000	-0.015	0.287
-532.106	-59.380	0.318	0.135
-531.091	-96.461	-0.214	0.056
-530.077	-162.276	-0.040	-0.002
-529.062	800.000	-0.088	0.244
-528.048	253.724	-0.045	-0.076
-527.033	311.430	-0.097	0.180
-526.018	-200.000	0.049	-0.271
-525.004	57.597	0.188	-0.182
-523.989	420.675	-0.072	-0.152
-522.975	177.486	-0.099	-0.143
-521.960	800.000	0.007	-0.022
-520.945	-42.589	-0.225	0.113
-519.931	-45.100	-0.181	0.089
-518.916	800.000	0.089	-0.276
-517.902	-200.000	-0.066	0.559
-516.887	800.000	-0.046	0.177
-515.872	93.220	-0.198	-0.221
-514.858	800.000	0.089	-0.248
-513.843	-200.000	-0.015	0.093
-512.829	25.856	-0.353	-0.291
-511.814	29.132	0.363	-0.304
-510.799	-169.896	0.148	0.005
-509.785	-200.000	-0.002	-0.064
-508.770	-200.000	0.025	0.167
-507.756	-18.852	-0.303	-0.186
-506.741	223.629	0.160	0.255
-505.726	246.249	0.021	-0.035
-504.712	-38.098	-0.156	-0.082
-503.697	800.000	0.091	0.370
-502.683	-22.164	0.327	0.196
-501.668	800.000	0.021	-0.075
-500.653	-90.735	-0.165	0.047
-499.639	-200.000	0.079	0.342
-498.624	-53.062	-0.279	-0.127
-497.610	-200.000	0.010	0.101
-496.595	-129.604	0.096	0.013
-495.581	93.787	-0.103	-0.115
-494.566	205.225	-0.103	0.158
-493.551	173.241	0.257	-0.366
-492.537	-200.000	0.008	0.056
-491.522	-186.176	-0.266	0.004
-490.508	425.515	-0.099	0.211
-489.493	141.785	-0.065	0.085
-488.478	196.271	0.045	-0.067
-487.464	800.000	0.028	-0.101
-486.449	-200.000	0.008	-0.331
-485.435	-115.360	-0.207	-0.039
-484.420	-200.000	0.040	0.257
-483.405	57.584	-0.152	-0.146
-482.391	-200.000	0.064	0.366
-481.376	-22.189	0.301	0.180
-480.362	800.000	0.039	0.130
-479.347	-129.999	-0.218	-0.029
-478.332	188.640	0.103	0.152
-477.318	-9.909	0.186	0.122
-476.303	354.699	-0.106	0.208
-475.289	-169.196	0.130	-0.005
-474.274	-28.108	0.246	0.140
-473.259	-172.534	0.275	0.009
-472.245	-147.036	-0.204	0.017
-471.230	-49.424	0.229	-0.108
-470.216	96.295	-0.209	0.236
-469.201	-148.467	-0.159	0.013
-468.186	82.816	0.091	-0.097
-467.172	252.813	0.045	-0.076
-466.157	-141.153	0.303	-0.030
-465.143	-80.635	-0.280	0.092
-464.128	283.801	0.152	0.269
-463.113	7.808	-0.129	0.095
-462.099	377.392	0.189	0.381
-461.084	110.307	0.007	0.008
-460.070	228.521	-0.115	-0.185
-459.055	800.000	0.072	-0.280
-458.040	386.869	-0.111	-0.226
-457.026	-123.795	0.215	0.033
-456.011	-200.000	0.042	0.200
-454.997	-147.661	0.263	-0.022
-453.982	-200.000	0.001	-0.113
-452.968	-49.077	0.216	-0.102
-451.953	-200.000	0.067	0.302
-450.938	-53.329	-0.063	0.028
-449.924	52.582	-0.275	-0.259
-448.909	-49.191	-0.327	0.154
-447.895	-30.960	-0.140	-0.078
-446.880	-81.167	0.213	0.070
-445.865	-32.140	-0.149	0.082
-444.851	-200.000	-0.005	-0.043
-443.836	800.000	-0.060	-0.213
-442.822	-162.911	-0.338	-0.016
-441.807	380.600	-0.040	-0.081
-440.792	306.431	-0.164	0.301
-439.778	-13.365	0.268	-0.172
-438.763	35.212	0.142	-0.123
-437.749	-200.000	-0.005	0.091
-436.734	-108.398	0.242	-0.051
-435.719	-133.134	0.083	-0.010
-434.705	24.103	0.177	0.144
-433.690	89.363	-0.096	-0.105
-432.676	-200.000	0.061	0.339
-431.661	-200.000	0.002	0.076
-430.646	-200.000	0.021	-0.407
-429.632	-84.301	0.176	0.055
-428.617	-83.042	0.178	0.057
-427.603	-6.817	-0.234	0.157
-426.588	156.027	0.178	0.242
-425.573	766.302	-0.059	0.157
-424.559	-118.710	-0.230	-0.040
-423.544	-77.441	-0.050	-0.017
-422.530	-76.264	-0.362	0.126
-421.515	-200.000	-0.010	0.318
-420.500	-91.556	-0.386	-0.108
-419.486	539.588	0.141	-0.330
-418.471	-200.000	-0.079	-0.485
-417.457	-58.120	0.065	0.028
-416.442	-156.019	0.195	0.012
-415.428	121.105	0.196	-0.241
-414.413	106.013	0.176	-0.206
-413.398	-93.959	-0.084	-0.023
-412.384	-134.473	0.326	-0.039
-411.369	109.321	-0.256	0.302
-410.355	-39.374	0.140	-0.072
-409.340	-71.898	0.380	0.139
-408.325	-147.321	0.167	-0.014
-407.311	-200.000	0.020	0.132
-406.296	-200.000	0.045	0.217
-405.282	137.450	0.046	-0.060
-404.267	-96.603	-0.392	-0.102
-403.252	-200.000	0.060	0.309
-402.238	-143.006	-0.408	-0.039
-401.223	-200.000	0.029	-0.453
-400.209	23.456	0.187	0.151
-399.194	-82.518	0.169	-0.054
-398.179	800.000	-0.117	-0.324
-397.165	800.000	-0.104	0.330
-396.150	480.292	-0.055	0.124
-395.136	79.094	0.156	-0.164
-394.121	474.007	-0.136	0.302
-393.106	224.612	0.174	0.277
-392.092	124.004	0.226	0.279
-391.077	-20.985	0.095	0.057
-390.063	6.670	0.249	0.182
-389.048	-16.103	-0.180	-0.112
-388.033	-200.000	0.025	0.134
-387.019	188.751	0.065	-0.096
-386.004	-200.000	-0.035	0.212
-384.990	191.797	0.248	-0.368
-383.975	-79.631	0.121	-0.040
-382.960	-200.000	0.045	0.243
-381.946	800.000	0.063	0.215
-380.931	-14.725	-0.221	-0.140
-379.917	74.598	-0.282	0.292
-378.902	-155.475	-0.202	0.013
-377.888	322.706	-0.046	0.087
-376.873	19.965	-0.176	-0.140
-375.858	363.468	0.227	-0.449
-374.844	-200.000	-0.013	-0.092
-373.829	46.544	-0.144	0.131
-372.815	-85.133	-0.223	0.069
-371.800	56.712	0.043	-0.041
-370.785	-169.660	-0.334	0.012
-369.771	23.375	-0.208	0.168
-368.756	-132.213	-0.286	-0.036
-367.742	-97.673	0.088	-0.022
-366.727	239.341	-0.019	-0.031
-365.712	452.430	-0.109	-0.236
-364.698	395.686	-0.127	-0.261
-363.683	-79.823	0.284	-0.094
-362.669	125.988	-0.161	-0.200
-361.654	121.539	-0.150	-0.184
-360.639	-200.000	0.007	-0.104
-359.625	493.911	0.049	0.110
-358.610	-200.000	0.007	0.506
-357.596	108.554	-0.118	-0.139
-356.581	244.804	-0.033	0.054
-355.566	-151.117	-0.262	-0.019
-354.552	800.000	0.127	-0.347
-353.537	-137.707	-0.085	-0.009
-352.523	-200.000	0.020	-0.232
-351.508	-82.146	-0.162	-0.052
-350.493	-62.621	0.114	0.047
-349.479	-88.772	0.013	-0.004
-348.464	68.767	-0.214	-0.215
-347.450	-200.000	-0.034	-0.207
-346.435	-47.806	-0.352	0.168
-345.420	-27.886	0.083	0.047
-344.406	-87.947	0.284	-0.084
-343.391	93.343	-0.103	-0.114
-342.377	-200.000	-0.023	0.278
-341.362	-200.000	0.003	0.020
-340.348	29.269	0.212	0.177
-339.333	227.980	-0.064	-0.102
-338.318	376.721	0.089	0.178
-337.304	133.201	-0.119	0.150
-336.289	0.932	0.204	0.143
-335.275	34.251	-0.113	0.096
-334.260	13.647	-0.114	0.087
-333.245	-200.000	0.002	0.148
-332.231	518.918	0.094	0.216
-331.216	118.402	0.007	0.009
-330.202	-119.356	-0.196	-0.033
-329.187	119.444	0.130	0.158
-328.172	208.662	0.117	-0.180
-327.158	45.641	-0.122	-0.111
-326.143	-186.654	-0.250	0.003
-325.129	-200.000	0.025	0.194
-324.114	252.258	0.152	0.255
-323.099	73.985	0.145	0.149
-322.085	173.936	-0.335	-0.475
-321.070	119.193	0.097	-0.118
-320.056	204.513	-0.126	-0.192
-319.041	-145.485	-0.188	0.017
-318.026	-200.000	0.012	-0.382
-317.012	50.548	0.269	-0.250
-315.997	306.700	0.064	-0.117
-314.983	711.689	0.058	-0.151
-313.968	229.086	-0.080	-0.127
-312.953	191.113	-0.113	-0.167
-311.939	-200.000	0.006	0.169
-310.924	86.069	0.079	0.085
-309.910	280.847	-0.109	-0.192
-308.895	-151.673	0.396	-0.029
-307.880	-200.000	-0.036	0.169
-306.866	-13.355	0.381	0.242
-305.851	800.000	-0.086	0.249
-304.837	276.766	0.319	0.556
-303.822	-86.733	0.309	-0.093
-302.807	181.664	-0.098	0.141
-301.793	-200.000	-0.033	0.147
-300.778	-200.000	0.022	-0.196
-299.764	398.695	-0.141	-0.288
-298.749	-200.000	-0.020	0.263
-297.735	259.468	0.114	0.193
-296.720	-200.000	-0.025	-0.273
-295.705	103.987	0.100	-0.115
-294.691	-200.000	-0.006	-0.143
-293.676	-200.000	-0.020	-0.103
-292.662	311.709	-0.119	0.219
-291.647	800.000	-0.039	0.126
-290.632	-84.532	0.102	0.032
-289.618	-200.000	0.022	-0.288
-288.603	-92.012	-0.022	0.006
-287.589	-200.000	0.007	0.128
-286.574	-200.000	-0.048	-0.324
-285.559	-200.000	-0.015	-0.087
-284.545	-34.223	0.149	0.080
-283.530	-156.625	0.378	-0.023
-282.516	79.481	0.139	0.146
-281.501	173.293	0.169	-0.239
-280.486	-200.000	0.022	-0.304
-279.472	-41.237	0.334	0.169
-278.457	-200.000	-0.060	0.594
-277.443	-193.397	0.273	-0.002
-276.428	-45.105	-0.139	0.068
-275.413	133.205	-0.149	0.188
-274.399	-200.000	0.016	-0.148
-273.384	-84.206	0.046	-0.014
-272.370	483.784	-0.065	0.144
-271.355	-116.831	0.133	0.024
-270.340	-13.156	0.232	-0.147
-269.326	-46.481	-0.233	0.112
-268.311	800.000	-0.060	0.185
-267.297	232.430	0.060	-0.097
-266.282	-83.033	0.220	-0.069
-265.267	156.810	0.163	-0.220
-264.253	-74.641	-0.122	0.043
-263.238	473.718	-0.157	-0.347
-262.224	-26.796	0.130	0.074
-261.209	-167.358	0.157	-0.006
-260.195	-113.845	0.251	0.048
-259.180	-85.889	-0.097	0.029
-258.165	-106.783	0.315	-0.068
-257.151	286.791	0.061	-0.108
-256.136	-136.266	-0.153	-0.018
-255.122	280.713	-0.127	0.222
-254.107	-200.000	0.037	0.243
-253.092	-159.813	0.224	0.012
-252.078	-200.000	-0.048	0.211
-251.063	-200.000	0.030	0.314
-250.049	40.137	-0.050	0.044
-249.034	78.189	-0.095	0.099
-248.019	-190.342	-0.237	-0.003
-247.005	127.526	-0.144	-0.179
-245.990	-112.503	-0.517	0.101
-244.976	-200.000	0.021	0.269
-243.961	389.644	-0.051	0.104
-242.946	94.124	-0.151	-0.167
-241.932	-200.000	-0.012	0.066
-240.917	211.444	-0.129	0.199
-239.903	-126.424	0.348	0.051
-238.888	704.147	0.099	-0.254
-237.873	221.142	0.022	-0.034
-236.859	180.058	0.333	0.477
-235.844	83.085	-0.100	-0.106
-234.830	800.000	-0.126	0.346
-233.815	-27.814	-0.482	-0.273
-232.800	245.273	0.194	0.319
-231.786	421.538	-0.088	0.184
-230.771	-200.000	0.046	-0.235
-229.757	-200.000	-0.027	-0.197
-228.742	-177.317	0.235	0.006
-227.727	198.961	-0.019	-0.028
-226.713	-200.000	-0.015	0.107
-225.698	110.129	0.123	-0.144
-224.684	135.678	0.056	-0.072
-223.669	-60.798	-0.171	-0.071
-222.655	800.000	-0.038	-0.152
-221.640	148.889	-0.123	-0.163
-220.625	-200.000	0.012	0.188
-219.611	94.336	0.229	-0.254
-218.596	-121.270	-0.310	0.051
-217.582	-200.000	-0.023	0.165
-216.567	110.754	0.220	-0.258
-215.552	-164.073	0.154	-0.007
-214.538	27.422	-0.071	0.059
-213.523	800.000	-0.119	0.413
-212.509	-59.624	-0.082	-0.035
-211.494	-120.862	0.181	-0.030
-210.479	-94.405	0.054	0.014
-209.465	-79.577	0.241	-0.079
-208.450	135.418	0.131	0.167
-207.436	233.466	-0.204	0.327
-206.421	-117.421	-0.158	0.028
-205.406	201.164	-0.199	-0.299
-204.392	800.000	-0.102	-0.423
-203.377	-80.413	-0.151	0.049
-202.363	-200.000	-0.010	-0.231
-201.348	-146.609	0.156	0.013
-200.333	297.248	0.099	0.177
-199.319	-38.187	-0.232	-0.120
-198.304	131.578	-0.159	-0.200
-197.290	-114.284	0.170	-0.032
-196.275	-36.645	-0.413	0.217
-195.260	269.164	-0.045	-0.077
-194.246	800.000	-0.061	0.261
-193.231	408.406	-0.030	0.062
-192.217	-115.618	0.349	-0.064
-191.202	-114.220	-0.232	0.044
-190.187	800.000	-0.044	-0.166
-189.173	126.034	0.073	0.090
-188.158	61.249	0.078	0.076
-187.144	5.592	0.092	-0.066
-186.129	705.339	0.076	0.196
-185.114	423.012	-0.132	0.277
-184.100	255.256	-0.106	0.178
-183.085	-11.507	-0.245	0.157
-182.071	-200.000	-0.061	0.290
-181.056	-90.700	-0.137	0.039
-180.042	103.233	-0.030	-0.035
-179.027	158.869	-0.221	-0.300
-178.012	284.762	-0.028	-0.048
-176.998	-30.565	0.163	-0.090
-175.983	-58.134	0.288	-0.122
-174.969	-200.000	0.026	-0.135
-173.954	-70.453	0.215	0.079
-172.939	106.053	0.208	0.240
-171.925	-153.294	-0.319	0.022
-170.910	800.000	-0.048	-0.198
-169.896	133.640	0.056	-0.070
-168.881	82.499	0.238	-0.251
-167.866	-200.000	-0.062	-0.405
-166.852	57.168	-0.180	0.171
-165.837	-43.232	0.251	-0.124
-164.823	-200.000	0.066	-0.329
-163.808	-200.000	0.368	0.000
-162.793	160.974	0.234	0.318
-161.779	-200.000	0.082	0.378
-160.764	168.853	0.103	0.143
-159.750	10.678	-0.087	-0.065
-158.735	800.000	0.067	0.195
-157.720	-200.000	-0.028	-0.156
-156.706	45.298	-0.118	0.106
-155.691	-200.000	0.025	-0.309
-154.677	100.943	0.174	0.197
-153.662	160.240	-0.198	0.269
-152.647	-84.964	0.219	0.067
-151.633	-8.803	0.353	-0.231
-150.618	-62.935	0.127	0.051
-149.604	-65.586	-0.154	-0.060
-148.589	-21.992	-0.169	-0.100
-147.574	-200.000	-0.077	-0.385
-146.560	43.493	0.252	-0.225
-145.545	-133.100	0.152	0.019
-144.531	-36.846	-0.301	-0.157
-143.516	133.204	-0.177	-0.223
-142.502	-54.443	-0.103	-0.045
-141.487	800.000	0.100	-0.378
-140.472	-129.073	-0.126	-0.017
-139.458	-65.951	0.120	0.047
-138.443	-177.495	0.194	-0.005
-137.429	-140.937	-0.166	-0.017
-136.414	351.032	-0.064	-0.123
-135.399	286.178	-0.078	-0.136
-134.385	332.688	0.092	-0.173
-133.370	-200.000	-0.002	-0.156
-132.356	800.000	0.148	-0.440
-131.341	-136.954	-0.086	-0.010
-130.326	-25.831	0.115	0.066
-129.312	-152.781	-0.237	0.016
-128.297	-92.851	0.106	-0.029
-127.283	800.000	-0.046	0.125
-126.268	-119.893	-0.479	0.080
-125.253	-165.104	0.112	-0.005
-124.239	312.183	0.140	0.255
-123.224	-200.000	0.055	0.400
-122.210	219.755	-0.184	-0.287
