DTS Sentinel unit serial number:	SN413079Multiplexer serial number:	ORYXHardware model number:	OX4-SRSoftware version number:	ORYX F/W v4.00 Oryx Data Collector v3.7.2.0data status	okinstallation	princeton_trtdifferential loss correction	single-endedforward channel	channel 2reverse channel	N/Adate	2019/09/18time	09:03:35forward acquisition time	60.00reverse acquisition time	0.00gamma	496.2192k internal	0.2339k external	0.2339temperature offset calibration	0.9979default loss term (dB/km)	0.3790temperature slope calibration	1.0000multiplexer offset coefficient	1.0000multiplexer slope coefficient	1.0000fibre end	0.00T internal ref (°C)	25.19T ext. ref 1 (°C)	0.23T ext. ref 2 (°C)	22.15length (m)	temperature (°C)	Stokes	anti-Stokes-747.200	800.000	0.061	0.202
-746.185	44.233	0.123	0.113
-745.171	-147.832	-0.362	-0.030
-744.156	-200.000	-0.069	0.316
-743.142	-200.000	0.020	0.220
-742.127	163.945	0.299	0.423
-741.112	42.388	0.263	-0.240
-740.098	85.117	-0.098	-0.108
-739.083	-200.000	0.014	0.271
-738.069	1.786	0.214	-0.155
-737.054	-76.374	-0.106	-0.037
-736.039	-200.000	0.037	-0.177
-735.025	266.766	0.173	0.303
-734.010	-71.487	-0.445	-0.167
-732.996	-200.000	-0.006	-0.243
-731.981	32.722	-0.202	0.175
-730.966	-31.768	-0.298	-0.168
-729.952	235.773	-0.132	-0.218
-728.937	138.607	-0.140	-0.184
-727.923	-53.614	-0.204	-0.093
-726.908	-106.964	0.131	-0.029
-725.894	-200.000	-0.077	0.425
-724.879	800.000	-0.037	0.133
-723.864	-61.622	0.169	-0.071
-722.850	10.384	0.218	-0.166
-721.835	-164.012	-0.415	-0.019
-720.821	18.775	0.251	0.202
-719.806	-36.284	0.056	0.030
-718.791	26.057	-0.111	-0.093
-717.777	506.588	-0.064	-0.149
-716.762	-200.000	0.024	-0.159
-715.748	34.391	0.148	0.129
-714.733	-161.269	0.159	0.008
-713.718	-111.778	0.273	0.055
-712.704	53.709	-0.084	-0.080
-711.689	-32.660	0.196	-0.109
-710.675	24.121	0.164	0.136
-709.660	653.656	-0.092	-0.237
-708.645	323.786	0.157	-0.300
-707.631	-200.000	-0.029	-0.158
-706.616	-54.872	-0.060	-0.027
-705.602	255.790	0.080	0.138
-704.587	203.727	0.024	0.038
-703.572	264.222	-0.154	-0.268
-702.558	54.624	0.113	-0.109
-701.543	-59.341	-0.287	-0.124
-700.529	327.366	0.093	0.179
-699.514	157.188	0.018	0.026
-698.499	-200.000	0.032	-0.170
-697.485	-20.017	-0.343	0.212
-696.470	-200.000	-0.072	0.555
-695.456	-200.000	-0.060	0.317
-694.441	141.112	0.231	-0.305
-693.426	-20.856	0.315	-0.193
-692.412	39.929	0.232	0.208
-691.397	90.700	-0.157	0.176
-690.383	-200.000	0.187	0.001
-689.368	800.000	0.050	0.168
-688.354	-44.384	-0.349	0.175
-687.339	-200.000	0.008	0.178
-686.324	395.118	0.124	-0.258
-685.310	-2.795	0.101	-0.071
-684.295	-172.951	0.255	-0.008
-683.281	-69.050	-0.106	0.041
-682.266	-183.695	-0.145	0.002
-681.251	7.716	-0.345	0.259
-680.237	26.605	-0.101	-0.084
-679.222	-82.550	-0.165	0.054
-678.208	-144.201	-0.198	0.019
-677.193	195.313	0.083	0.126
-676.178	-171.839	-0.153	0.005
-675.164	800.000	-0.017	0.051
-674.149	13.745	-0.173	-0.134
-673.135	-55.579	-0.453	-0.203
-672.120	40.552	-0.312	0.281
-671.105	140.809	-0.135	-0.179
-670.091	-115.200	-0.210	0.040
-669.076	-3.594	0.235	-0.163
-668.062	84.939	-0.245	0.269
-667.047	-46.001	0.119	-0.059
-666.032	67.398	0.039	0.040
-665.018	272.336	-0.018	-0.032
-664.003	-200.000	0.154	-0.000
-662.989	-94.254	-0.054	0.015
-661.974	12.022	-0.150	0.116
-660.959	218.345	-0.168	0.268
-659.945	-55.644	-0.181	-0.081
-658.930	-200.000	0.016	0.195
-657.916	24.441	0.189	0.156
-656.901	-130.855	-0.140	0.019
-655.886	79.646	-0.129	-0.138
-654.872	81.115	0.305	0.329
-653.857	-49.730	-0.186	0.089
-652.843	-200.000	0.007	0.216
-651.828	-200.000	0.001	-0.012
-650.814	800.000	0.107	-0.323
-649.799	8.013	-0.185	-0.138
-648.784	469.403	0.068	-0.152
-647.770	481.107	-0.030	-0.069
-646.755	115.381	0.209	-0.256
-645.741	96.256	0.220	-0.252
-644.726	84.615	0.195	-0.214
-643.711	-109.820	-0.089	-0.019
-642.697	-102.564	0.146	-0.035
-641.682	161.882	-0.084	0.117
-640.668	516.967	-0.061	0.143
-639.653	-200.000	-0.043	-0.251
-638.638	148.374	-0.050	-0.067
-637.624	-31.021	0.118	0.066
-636.609	163.881	0.050	0.071
-635.595	800.000	0.042	-0.122
-634.580	-84.330	0.088	-0.028
-633.565	800.000	-0.003	0.009
-632.551	-123.288	0.554	0.088
-631.536	-40.759	-0.175	-0.090
-630.522	358.703	0.191	-0.380
-629.507	-172.238	-0.217	0.007
-628.492	800.000	-0.068	0.212
-627.478	-79.698	-0.140	-0.047
-626.463	-187.014	0.276	0.004
-625.449	71.895	0.117	0.122
-624.434	61.837	-0.249	-0.247
-623.419	166.163	-0.204	-0.288
-622.405	-187.113	-0.296	-0.004
-621.390	-68.314	0.185	0.072
-620.376	-200.000	0.028	0.138
-619.361	355.597	-0.141	0.281
-618.346	-200.000	-0.022	0.134
-617.332	-200.000	0.001	0.406
-616.317	-159.548	-0.087	-0.005
-615.303	232.944	-0.039	-0.064
-614.288	-42.071	-0.276	0.141
-613.273	-200.000	-0.051	-0.232
-612.259	800.000	0.075	-0.276
-611.244	176.608	0.075	0.108
-610.230	800.000	0.094	-0.299
-609.215	161.048	0.066	0.093
-608.201	-200.000	-0.054	0.326
-607.186	596.093	-0.078	-0.192
-606.171	39.100	0.149	0.133
-605.157	-200.000	-0.009	-0.041
-604.142	-33.282	-0.044	-0.025
-603.128	800.000	-0.013	0.049
-602.113	-112.717	-0.281	0.056
-601.098	-93.357	0.223	0.062
-600.084	96.759	-0.292	-0.334
-599.069	-29.514	-0.247	0.141
-598.055	-64.025	0.174	-0.071
-597.040	800.000	-0.099	0.313
-596.025	139.619	0.267	-0.351
-595.011	217.667	-0.169	0.269
-593.996	81.534	0.203	-0.219
-592.982	-200.000	0.014	-0.169
-591.967	54.964	-0.233	-0.224
-590.952	-128.131	0.185	-0.026
-589.938	800.000	0.119	0.359
-588.923	-200.000	-0.002	-0.068
-587.909	-17.286	-0.110	-0.069
-586.894	-200.000	-0.047	-0.365
-585.879	-200.000	0.072	0.358
-584.865	-65.798	0.132	-0.053
-583.850	-200.000	0.029	-0.446
-582.836	402.757	0.134	0.282
-581.821	-110.060	-0.274	-0.057
-580.806	4.876	-0.216	-0.159
-579.792	-200.000	-0.001	-0.101
-578.777	-57.190	0.026	-0.012
-577.763	-148.999	0.206	0.017
-576.748	197.458	0.092	0.140
-575.733	-200.000	-0.008	0.181
-574.719	-200.000	-0.042	0.217
-573.704	71.051	-0.151	0.156
-572.690	-200.000	-0.019	-0.333
-571.675	318.964	-0.088	-0.167
-570.661	-90.937	-0.177	0.051
-569.646	39.316	-0.197	0.176
-568.631	-17.279	0.150	0.094
-567.617	257.436	0.152	-0.261
-566.602	-46.787	-0.191	-0.093
-565.588	-200.000	0.008	-0.076
-564.573	126.743	-0.079	-0.100
-563.558	-200.000	0.014	-0.189
-562.544	-200.000	-0.086	-0.384
-561.529	-27.071	0.055	-0.032
-560.515	-184.556	-0.306	-0.005
-559.500	-131.128	-0.103	0.014
-558.485	-15.198	-0.161	0.102
-557.471	26.682	-0.010	0.009
-556.456	5.861	0.378	-0.279
-555.442	165.171	-0.151	-0.212
-554.427	-200.000	-0.022	0.331
-553.412	-52.119	-0.101	-0.047
-552.398	-62.528	0.184	0.076
-551.383	-173.087	-0.350	-0.011
-550.369	7.865	-0.108	0.080
-549.354	-35.245	-0.353	0.191
-548.339	213.567	-0.105	-0.165
-547.325	508.103	-0.133	0.306
-546.310	19.934	0.216	-0.173
-545.296	-30.800	-0.136	0.076
-544.281	800.000	-0.086	-0.247
-543.266	-55.289	0.157	-0.070
-542.252	800.000	0.071	-0.258
-541.237	-73.447	0.061	-0.022
-540.223	157.606	0.065	-0.089
-539.208	78.724	-0.058	0.062
-538.193	-200.000	-0.004	-0.163
-537.179	-96.311	-0.219	-0.058
-536.164	-164.084	0.184	-0.008
-535.150	580.529	-0.083	-0.201
-534.135	18.122	-0.170	0.135
-533.121	-85.095	0.269	-0.084
-532.106	-200.000	-0.059	0.000
-531.091	-169.623	-0.211	-0.008
-530.077	251.027	0.207	0.350
-529.062	-46.533	-0.173	0.084
-528.048	800.000	0.032	-0.114
-527.033	-200.000	-0.060	0.405
-526.018	292.427	0.159	0.288
-525.004	-200.000	0.008	0.090
-523.989	173.409	-0.207	0.296
-522.975	87.456	-0.203	-0.224
-521.960	234.297	0.206	-0.338
-520.945	-43.110	0.199	0.100
-519.931	551.854	-0.081	0.194
-518.916	-200.000	0.013	0.079
-517.902	-11.330	0.205	0.134
-516.887	55.031	-0.210	-0.202
-515.872	-157.159	-0.391	-0.024
-514.858	88.834	0.116	-0.128
-513.843	387.207	0.153	-0.315
-512.829	112.191	0.178	-0.214
-511.814	-66.468	-0.181	0.071
-510.799	-107.899	-0.393	-0.085
-509.785	-200.000	0.063	0.397
-508.770	-200.000	-0.031	-0.293
-507.756	-98.018	0.457	0.117
-506.741	-7.183	0.338	0.228
-505.726	-200.000	-0.063	0.322
-504.712	800.000	-0.086	0.357
-503.697	470.558	-0.077	-0.171
-502.683	681.080	0.029	0.076
-501.668	-200.000	-0.007	0.085
-500.653	148.248	0.148	0.198
-499.639	108.125	-0.086	-0.101
-498.624	-58.572	0.322	0.139
-497.610	-173.646	-0.226	-0.007
-496.595	548.870	-0.038	-0.092
-495.581	-61.842	0.279	0.116
-494.566	-200.000	-0.029	0.189
-493.551	78.836	-0.113	0.120
-492.537	128.521	-0.134	-0.170
-491.522	-200.000	0.022	-0.111
-490.508	800.000	0.076	0.277
-489.493	800.000	-0.021	-0.085
-488.478	-141.685	0.340	0.034
-487.464	424.518	-0.081	0.172
-486.449	-116.908	-0.424	-0.077
-485.435	-127.726	0.300	-0.043
-484.420	-85.510	0.259	0.080
-483.405	-41.566	-0.323	-0.165
-482.391	79.780	-0.183	-0.195
-481.376	-140.352	0.161	0.017
-480.362	-30.962	0.276	0.155
-479.347	783.297	-0.117	0.319
-478.332	800.000	-0.047	-0.128
-477.318	-138.210	-0.149	0.016
-476.303	-200.000	0.068	0.303
-475.289	-171.699	0.246	-0.008
-474.274	-200.000	-0.025	-0.379
-473.259	-200.000	0.063	-0.341
-472.245	378.183	0.143	-0.290
-471.230	-14.941	-0.152	-0.096
-470.216	-147.845	0.189	0.016
-469.201	797.863	0.046	-0.127
-468.186	258.644	0.012	0.021
-467.172	-22.439	-0.062	0.037
-466.157	179.974	0.157	0.229
-465.143	-200.000	0.057	-0.277
-464.128	-200.000	-0.031	0.138
-463.113	-76.760	0.238	0.083
-462.099	-200.000	0.007	-0.184
-461.084	-33.093	0.073	0.040
-460.070	78.708	-0.083	-0.088
-459.055	-135.730	-0.258	-0.030
-458.040	56.279	-0.167	0.161
-457.026	6.738	0.216	-0.160
-456.011	414.568	-0.062	-0.130
-454.997	167.622	-0.185	-0.261
-453.982	22.895	0.265	-0.216
-452.968	800.000	-0.080	-0.336
-451.953	-80.428	0.098	-0.033
-450.938	110.444	-0.129	0.154
-449.924	18.618	-0.038	-0.030
-448.909	23.812	0.217	0.177
-447.895	95.003	0.070	0.079
-446.880	-84.270	-0.224	0.070
-445.865	-47.772	0.206	-0.099
-444.851	-113.635	-0.290	-0.056
-443.836	-32.700	-0.163	-0.090
-442.822	-200.000	0.015	0.214
-441.807	2.631	-0.063	-0.045
-440.792	14.316	-0.203	-0.157
-439.778	-88.101	0.372	-0.111
-438.763	800.000	-0.061	0.220
-437.749	-97.291	-0.237	-0.061
-436.734	-32.466	0.113	-0.062
-435.719	-200.000	0.065	0.286
-434.705	-200.000	-0.021	0.232
-433.690	184.102	-0.035	0.052
-432.676	25.992	-0.162	-0.134
-431.661	-93.357	-0.174	0.048
-430.646	-200.000	0.019	-0.258
-429.632	800.000	-0.113	-0.366
-428.617	71.539	0.240	-0.247
-427.603	800.000	0.059	0.193
-426.588	-46.174	-0.116	0.056
-425.573	800.000	0.050	0.180
-424.559	-200.000	-0.024	0.183
-423.544	149.074	-0.170	0.228
-422.530	19.879	0.346	-0.276
-421.515	66.310	0.136	-0.137
-420.500	155.951	0.188	-0.257
-419.486	404.807	0.148	-0.308
-418.471	336.986	0.161	-0.311
-417.457	180.090	-0.114	-0.165
-416.442	-200.000	0.003	-0.181
-415.428	-41.020	-0.114	0.058
-414.413	-10.246	0.190	0.125
-413.398	606.581	-0.094	-0.233
-412.384	-92.916	0.277	0.077
-411.369	147.286	-0.150	0.200
-410.355	-123.569	0.268	0.042
-409.340	277.324	-0.145	0.255
-408.325	-197.472	-0.223	-0.001
-407.311	800.000	-0.016	0.048
-406.296	673.373	0.005	-0.014
-405.282	150.953	-0.091	0.122
-404.267	800.000	-0.066	0.180
-403.252	-146.175	0.488	-0.042
-402.238	-200.000	-0.106	0.779
-401.223	800.000	0.118	-0.338
-400.209	-189.698	-0.075	0.001
-399.194	-9.816	0.179	0.118
-398.179	188.121	0.072	-0.106
-397.165	354.378	-0.102	0.201
-396.150	800.000	0.037	0.130
-395.136	-200.000	-0.046	-0.319
-394.121	-2.831	0.033	0.023
-393.106	-198.632	-0.223	-0.001
-392.092	-183.667	0.322	0.005
-391.077	275.083	-0.134	-0.235
-390.063	220.811	0.027	-0.042
-389.048	63.918	0.164	0.163
-388.033	111.104	0.152	0.181
-387.019	800.000	0.072	-0.293
-386.004	374.436	-0.060	-0.122
-384.990	800.000	-0.082	0.262
-383.975	-200.000	0.021	0.159
-382.960	201.229	-0.191	0.291
-381.946	233.539	0.071	0.116
-380.931	78.764	0.036	0.038
-379.917	35.420	-0.183	0.159
-378.902	-87.124	0.028	0.009
-377.888	-200.000	-0.058	-0.384
-376.873	97.148	0.075	0.085
-375.858	-32.763	-0.037	0.020
-374.844	-200.000	0.011	0.108
-373.829	36.813	0.376	0.329
-372.815	-104.772	0.199	0.045
-371.800	-2.723	-0.173	0.120
-370.785	-47.107	-0.439	0.212
-369.771	800.000	0.163	0.464
-368.756	44.205	-0.185	-0.168
-367.742	800.000	0.051	0.199
-366.727	103.540	-0.077	-0.089
-365.712	-117.759	-0.114	-0.020
-364.698	-200.000	0.033	-0.212
-363.683	128.213	0.215	0.271
-362.669	-152.622	-0.268	0.019
-361.654	800.000	0.025	-0.073
-360.639	113.684	0.234	-0.281
-359.625	108.378	-0.134	0.158
-358.610	168.308	0.051	-0.072
-357.596	-111.548	0.049	0.010
-356.581	-0.126	-0.146	-0.103
-355.566	-39.730	0.287	-0.148
-354.552	786.272	-0.081	-0.220
-353.537	-95.476	-0.241	0.064
-352.523	-112.164	-0.176	0.035
-351.508	-131.724	0.258	-0.033
-350.493	-80.274	0.045	0.015
-349.479	-118.021	-0.356	-0.063
-348.464	-200.000	-0.027	0.244
-347.450	800.000	-0.054	-0.198
-346.435	-144.383	-0.189	0.017
-345.420	42.069	-0.201	0.180
-344.406	-68.630	0.096	0.037
-343.391	800.000	0.041	-0.147
-342.377	674.165	-0.060	0.153
-341.362	354.240	0.038	0.075
-340.348	-200.000	0.031	0.235
-339.333	52.682	0.223	-0.211
-338.318	166.535	-0.137	0.192
-337.304	745.453	0.041	0.109
-336.289	-55.554	-0.200	-0.088
-335.275	91.007	-0.188	0.208
-334.260	-200.000	0.044	0.226
-333.245	-120.430	-0.351	0.059
-332.231	800.000	-0.032	0.129
-331.216	-200.000	-0.060	-0.299
-330.202	66.636	-0.258	-0.259
-329.187	-200.000	0.002	0.283
-328.172	-200.000	-0.006	0.062
-327.158	181.618	-0.049	-0.071
-326.143	25.174	-0.154	-0.127
-325.129	34.002	0.166	-0.143
-324.114	66.220	0.149	0.150
-323.099	-74.321	0.077	0.027
-322.085	-75.323	0.195	-0.069
-321.070	61.313	-0.087	-0.086
-320.056	-68.931	-0.269	0.102
-319.041	-200.000	-0.021	-0.283
-318.026	-200.000	0.026	-0.445
-317.012	-75.293	0.147	-0.052
-315.997	4.237	-0.199	0.144
-314.983	231.852	0.098	-0.159
-313.968	-200.000	0.042	-0.382
-312.953	159.393	0.066	0.090
-311.939	-8.530	0.225	0.149
-310.924	240.892	0.103	0.170
-309.910	406.299	0.082	0.171
-308.895	323.326	-0.028	0.053
-307.880	-46.107	-0.196	-0.095
-306.866	-200.000	0.038	0.212
-305.851	-130.608	-0.412	0.055
-304.837	-200.000	-0.015	-0.217
-303.822	159.648	-0.092	-0.127
-302.807	800.000	0.113	0.346
-301.793	65.333	0.328	0.327
-300.778	800.000	0.042	0.144
-299.764	14.319	-0.176	-0.136
-298.749	800.000	0.025	-0.091
-297.735	-73.430	0.284	-0.102
-296.720	85.636	-0.134	0.145
-295.705	646.175	0.082	-0.206
-294.691	-142.756	-0.312	0.030
-293.676	-35.773	-0.149	-0.080
-292.662	87.371	-0.408	-0.445
-291.647	-200.000	0.001	-0.022
-290.632	800.000	-0.018	0.064
-289.618	-0.081	0.157	0.110
-288.603	57.980	-0.175	-0.169
-287.589	620.712	-0.141	-0.349
-286.574	19.720	-0.020	-0.016
-285.559	338.306	0.133	-0.256
-284.545	-200.000	-0.001	-0.232
-283.530	339.001	-0.112	0.215
-282.516	-99.579	-0.218	-0.054
-281.501	-120.976	0.196	0.032
-280.486	58.082	-0.125	-0.120
-279.472	-71.155	-0.165	-0.061
-278.457	-102.546	0.399	0.094
-277.443	140.239	0.090	-0.117
-276.428	-62.052	0.252	0.104
-275.413	78.589	0.050	-0.052
-274.399	-25.091	-0.213	0.124
-273.384	-173.479	-0.167	-0.005
-272.370	-200.000	-0.079	-0.000
-271.355	-94.824	0.131	0.035
-270.340	114.327	0.086	0.103
-269.326	72.031	-0.102	-0.104
-268.311	-29.716	-0.033	-0.019
-267.297	-200.000	-0.000	0.045
-266.282	-200.000	-0.004	0.185
-265.267	-200.000	0.027	0.369
-264.253	-200.000	-0.028	0.167
-263.238	-200.000	0.026	0.344
-262.224	10.323	-0.141	-0.106
-261.209	-200.000	-0.018	0.156
-260.195	-200.000	0.035	-0.373
-259.180	186.759	-0.159	-0.233
-258.165	-106.376	0.049	-0.011
-257.151	204.056	-0.162	-0.247
-256.136	104.483	-0.116	0.134
-255.122	-145.877	-0.096	0.008
-254.107	-89.485	-0.186	-0.054
-253.092	-9.863	0.077	-0.050
-252.078	-54.990	0.025	0.011
-251.063	166.584	0.025	0.035
-250.049	653.769	0.092	0.232
-249.034	-38.893	0.246	-0.128
-248.019	-66.217	-0.085	-0.033
-247.005	405.182	0.079	0.163
-245.990	259.077	-0.038	-0.065
-244.976	-200.000	0.014	0.273
-243.961	-200.000	-0.069	0.304
-242.946	-118.808	0.241	0.042
-241.932	-126.668	-0.153	-0.022
-240.917	-93.076	0.247	-0.068
-239.903	-29.948	0.191	-0.107
-238.888	-200.000	0.040	0.322
-237.873	-98.923	0.481	0.120
-236.859	-53.405	-0.236	-0.106
-235.844	-200.000	-0.026	-0.277
-234.830	-98.925	-0.247	-0.062
-233.815	-200.000	0.013	-0.539
-232.800	-28.101	0.203	0.115
-231.786	-147.688	0.159	-0.013
-230.771	-200.000	0.056	0.305
-229.757	538.621	-0.111	-0.260
-228.742	38.905	0.224	-0.196
-227.727	5.930	0.275	0.200
-226.713	34.349	-0.303	0.260
-225.698	-74.846	-0.128	-0.045
-224.684	223.224	0.055	0.088
-223.669	800.000	-0.134	-0.526
-222.655	59.222	0.218	-0.211
-221.640	14.127	-0.169	-0.130
-220.625	296.940	-0.157	0.283
-219.611	29.620	-0.069	0.058
-218.596	800.000	-0.105	0.383
-217.582	46.445	-0.152	0.139
-216.567	-200.000	-0.007	-0.102
-215.552	-75.295	-0.159	0.056
-214.538	271.720	0.019	-0.033
-213.523	151.103	-0.242	0.323
-212.509	665.034	0.107	0.272
-211.494	332.698	-0.058	-0.111
-210.479	-83.139	0.214	-0.068
-209.465	493.583	-0.040	-0.091
-208.450	-200.000	-0.008	0.059
-207.436	-145.804	0.072	-0.006
-206.421	-18.731	-0.025	0.015
-205.406	105.747	0.058	0.068
-204.392	11.509	0.167	-0.126
-203.377	43.144	0.360	0.323
-202.363	-50.707	-0.114	-0.053
-201.348	-88.540	0.265	0.078
-200.333	665.805	0.057	0.144
-199.319	-18.776	0.307	-0.188
-198.304	800.000	0.034	0.112
-197.290	-1.289	-0.239	-0.166
-196.275	-66.096	0.382	-0.150
-195.260	21.923	0.284	0.227
-194.246	-101.610	-0.230	0.055
-193.231	-181.904	0.061	0.001
-192.217	-66.132	0.187	0.073
-191.202	-200.000	0.034	-0.381
-190.187	-24.342	0.033	-0.019
-189.173	149.009	-0.185	-0.245
-188.158	-52.282	0.285	0.129
-187.144	9.682	0.099	-0.074
-186.129	-51.227	0.334	0.153
-185.114	765.063	0.083	0.222
-184.100	-200.000	0.011	-0.161
-183.085	-123.643	0.237	-0.037
-182.071	31.013	-0.134	0.113
-181.056	45.013	0.137	0.124
-180.042	84.170	0.127	0.136
-179.027	83.657	0.107	0.114
-178.012	40.597	-0.145	-0.128
-176.998	-200.000	0.009	-0.077
-175.983	760.420	-0.092	-0.246
-174.969	800.000	-0.068	0.267
-173.954	-200.000	-0.036	-0.176
-172.939	-30.678	-0.174	0.097
-171.925	-63.997	0.074	0.030
-170.910	320.881	-0.052	0.097
-169.896	93.160	0.219	0.243
-168.881	779.421	0.047	0.125
-167.866	201.311	0.144	-0.218
-166.852	41.004	0.187	0.166
-165.837	471.795	-0.129	0.284
-164.823	-32.063	-0.139	-0.076
-163.808	-200.000	0.095	0.494
-162.793	-15.202	-0.162	-0.101
-161.779	-27.706	-0.128	0.073
-160.764	270.592	0.027	0.046
-159.750	-128.185	-0.222	0.031
-158.735	-117.729	0.135	0.024
-157.720	188.065	0.079	0.116
-156.706	135.803	-0.146	-0.186
-155.691	-122.634	0.198	0.031
-154.677	800.000	-0.025	0.085
-153.662	800.000	0.103	-0.327
-152.647	-147.122	-0.158	-0.013
-151.633	216.729	0.019	0.030
-150.618	-180.843	0.185	0.004
-149.604	168.671	0.144	0.201
-148.589	800.000	-0.038	-0.131
-147.574	-68.842	-0.210	-0.079
-146.560	-34.345	0.202	-0.108
-145.545	-78.751	-0.214	0.071
-144.531	221.218	-0.050	-0.078
-143.516	21.622	-0.231	-0.185
-142.502	-200.000	-0.068	0.423
-141.487	474.190	0.018	0.040
-140.472	-200.000	0.014	0.299
-139.458	111.541	-0.096	0.113
-138.443	-74.953	0.220	0.077
-137.429	47.766	-0.213	-0.195
-136.414	-200.000	-0.042	0.382
-135.399	80.583	0.211	0.223
-134.385	74.221	-0.083	0.086
-133.370	96.197	-0.374	0.419
-132.356	50.670	0.257	0.239
-131.341	-158.967	0.410	0.023
-130.326	-46.489	-0.135	-0.065
-129.312	-191.030	-0.111	0.001
-128.297	-61.455	-0.241	-0.099
-127.283	800.000	-0.083	0.313
-126.268	800.000	0.050	-0.201
-125.253	-200.000	-0.026	-0.145
-124.239	-90.533	0.104	0.029
-123.224	-200.000	-0.024	0.205
-122.210	-118.406	0.120	0.021
-121.195	-57.387	-0.139	-0.060
