DTS Sentinel unit serial number:	SN413079Multiplexer serial number:	ORYXHardware model number:	OX4-SRSoftware version number:	ORYX F/W v4.00 Oryx Data Collector v3.7.2.0data status	okinstallation	princeton_trtdifferential loss correction	single-endedforward channel	channel 2reverse channel	N/Adate	2019/09/19time	08:03:35forward acquisition time	60.00reverse acquisition time	0.00gamma	496.2192k internal	0.2352k external	0.2352temperature offset calibration	1.0007default loss term (dB/km)	0.3790temperature slope calibration	1.0000multiplexer offset coefficient	1.0000multiplexer slope coefficient	1.0000fibre end	0.00T internal ref (°C)	19.92T ext. ref 1 (°C)	0.55T ext. ref 2 (°C)	15.54length (m)	temperature (°C)	Stokes	anti-Stokes-747.200	-78.940	-0.123	-0.042
-746.185	-200.000	-0.007	0.135
-745.171	-109.034	0.330	-0.070
-744.156	-35.385	-0.514	0.279
-743.142	-200.000	0.024	-0.236
-742.127	75.787	-0.263	-0.277
-741.112	-49.872	0.149	-0.070
-740.098	800.000	-0.018	0.074
-739.083	-167.371	0.298	0.012
-738.069	40.016	-0.081	-0.073
-737.054	92.538	-0.234	-0.263
-736.039	-81.565	-0.395	0.129
-735.025	-200.000	0.024	0.266
-734.010	800.000	-0.081	-0.353
-732.996	-118.209	-0.146	-0.026
-731.981	348.506	-0.152	0.299
-730.966	31.623	0.199	-0.171
-729.952	-49.216	-0.188	-0.090
-728.937	-123.595	-0.398	-0.063
-727.923	-4.312	0.059	-0.041
-726.908	50.613	0.276	-0.260
-725.894	-200.000	0.004	0.060
-724.879	186.254	0.065	0.096
-723.864	-200.000	0.102	-0.508
-722.850	-77.445	-0.191	0.066
-721.835	800.000	-0.092	0.290
-720.821	386.012	-0.049	-0.101
-719.806	-141.261	-0.094	-0.010
-718.791	366.844	-0.052	-0.104
-717.777	102.095	0.230	-0.268
-716.762	-56.419	-0.082	0.036
-715.748	-200.000	0.019	0.354
-714.733	800.000	0.090	-0.383
-713.718	800.000	0.069	0.194
-712.704	-200.000	0.030	-0.247
-711.689	800.000	0.054	-0.214
-710.675	29.297	-0.167	-0.141
-709.660	-33.788	0.146	0.080
-708.645	91.969	-0.165	-0.185
-707.631	-8.739	-0.295	-0.197
-706.616	477.441	0.094	-0.212
-705.602	-96.229	-0.090	0.024
-704.587	150.262	0.168	-0.227
-703.572	188.627	-0.075	-0.112
-702.558	4.212	-0.364	-0.265
-701.543	-52.475	0.305	0.140
-700.529	-74.783	0.182	0.065
-699.514	-178.160	-0.222	-0.005
-698.499	-119.744	0.135	-0.023
-697.485	-82.346	-0.335	0.109
-696.470	-200.000	-0.050	-0.230
-695.456	174.638	-0.083	0.119
-694.441	579.233	-0.020	-0.048
-693.426	4.848	0.044	-0.032
-692.412	249.760	-0.040	-0.067
-691.397	-200.000	0.016	-0.128
-690.383	-3.044	-0.089	-0.062
-689.368	800.000	-0.123	-0.347
-688.354	-134.232	0.295	0.036
-687.339	62.907	-0.047	0.047
-686.324	117.077	-0.233	0.285
-685.310	800.000	0.048	0.140
-684.295	139.822	0.128	-0.168
-683.281	391.301	0.175	-0.362
-682.266	57.536	-0.139	-0.135
-681.251	-119.672	0.149	-0.026
-680.237	800.000	0.078	0.295
-679.222	-75.956	-0.065	0.023
-678.208	-16.247	0.049	0.031
-677.193	563.314	0.112	-0.270
-676.178	-56.090	-0.263	-0.117
-675.164	-43.888	0.440	0.220
-674.149	-200.000	-0.058	-0.322
-673.135	792.315	-0.049	0.134
-672.120	-131.365	0.022	0.003
-671.105	706.065	-0.177	-0.464
-670.091	-13.898	0.297	-0.191
-669.076	-200.000	0.001	-0.181
-668.062	274.993	-0.043	-0.076
-667.047	186.038	-0.128	0.190
-666.032	98.332	0.186	0.213
-665.018	800.000	-0.130	-0.399
-664.003	800.000	-0.051	0.209
-662.989	332.542	-0.069	-0.133
-661.974	-44.217	0.187	0.093
-660.959	-115.942	0.099	0.018
-659.945	180.290	0.024	-0.036
-658.930	122.033	0.095	-0.118
-657.916	-200.000	-0.016	-0.247
-656.901	516.760	-0.147	-0.342
-655.886	-200.000	0.019	-0.124
-654.872	-111.979	-0.033	-0.007
-653.857	800.000	-0.113	-0.357
-652.843	800.000	0.135	-0.419
-651.828	23.026	-0.248	0.202
-650.814	-195.169	0.239	-0.002
-649.799	246.065	0.238	-0.399
-648.784	-200.000	-0.053	-0.272
-647.770	15.327	-0.142	0.110
-646.755	-149.235	-0.237	-0.019
-645.741	-200.000	0.025	-0.295
-644.726	-54.335	-0.157	-0.071
-643.711	128.018	0.411	-0.519
-642.697	800.000	-0.064	-0.213
-641.682	209.212	-0.116	0.180
-640.668	17.267	-0.131	0.103
-639.653	90.242	0.050	-0.056
-638.638	139.922	-0.224	0.294
-637.624	-26.064	0.230	0.135
-636.609	-200.000	-0.033	-0.199
-635.595	62.994	0.082	0.082
-634.580	181.579	0.027	0.039
-633.565	145.318	0.116	0.154
-632.551	-159.791	-0.337	-0.018
-631.536	-200.000	-0.005	0.395
-630.522	605.820	-0.106	0.263
-629.507	761.963	-0.119	0.321
-628.492	-77.485	0.145	0.050
-627.478	-174.418	-0.245	-0.007
-626.463	-106.559	0.136	0.030
-625.449	40.984	0.108	-0.097
-624.434	-5.896	-0.063	0.043
-623.419	169.411	0.239	-0.339
-622.405	115.892	-0.136	0.166
-621.390	113.236	-0.312	0.376
-620.376	343.583	-0.102	0.198
-619.361	-101.954	0.063	-0.015
-618.346	52.886	-0.272	-0.259
-617.332	510.209	0.076	0.175
-616.317	107.370	0.350	0.413
-615.303	-200.000	0.020	-0.204
-614.288	-176.446	0.190	0.005
-613.273	-67.581	0.292	0.114
-612.259	-168.883	-0.155	0.006
-611.244	170.708	0.126	-0.180
-610.230	88.917	0.248	-0.274
-609.215	80.486	-0.179	-0.191
-608.201	-125.445	-0.396	-0.060
-607.186	148.018	0.078	-0.104
-606.171	-200.000	0.075	0.359
-605.157	800.000	-0.029	-0.084
-604.142	-81.515	0.194	-0.063
-603.128	-51.175	-0.141	0.066
-602.113	-133.817	-0.335	-0.041
-601.098	-93.028	-0.144	0.040
-600.084	203.775	-0.046	-0.070
-599.069	505.827	-0.065	-0.149
-598.055	12.134	-0.124	0.094
-597.040	-200.000	0.006	-0.149
-596.025	-162.290	0.309	0.015
-595.011	-175.919	-0.120	-0.003
-593.996	78.658	-0.115	0.122
-592.982	-84.679	-0.201	-0.063
-591.967	2.616	-0.081	0.058
-590.952	-75.925	0.140	-0.049
-589.938	470.152	0.095	0.213
-588.923	695.698	-0.128	-0.334
-587.909	-56.859	-0.246	-0.108
-586.894	217.479	-0.180	-0.284
-585.879	-32.570	-0.116	0.064
-584.865	136.255	0.093	-0.120
-583.850	-8.393	0.074	0.049
-582.836	800.000	0.090	0.319
-581.821	45.646	0.177	-0.163
-580.806	-80.542	0.226	-0.075
-579.792	111.572	-0.063	0.076
-578.777	800.000	0.060	0.220
-577.763	-200.000	-0.024	0.182
-576.748	-67.417	0.201	0.078
-575.733	62.182	0.248	0.245
-574.719	-25.849	0.139	-0.081
-573.704	37.358	-0.087	0.076
-572.690	11.573	-0.147	0.111
-571.675	-4.496	0.266	-0.182
-570.661	-77.305	-0.122	-0.042
-569.646	-200.000	-0.013	-0.254
-568.631	162.175	-0.111	-0.154
-567.617	-91.485	0.243	-0.069
-566.602	-119.308	0.079	0.014
-565.588	-162.960	-0.293	-0.014
-564.573	-200.000	-0.008	0.161
-563.558	-200.000	0.026	0.240
-562.544	-200.000	-0.010	-0.405
-561.529	194.764	-0.104	-0.156
-560.515	-200.000	-0.019	-0.188
-559.500	-88.475	-0.292	0.086
-558.485	-200.000	0.008	0.049
-557.471	196.671	-0.168	0.254
-556.456	-200.000	-0.013	0.139
-555.442	-47.290	-0.299	-0.144
-554.427	-104.061	-0.148	0.034
-553.412	-60.768	0.310	0.130
-552.398	61.248	-0.386	0.380
-551.383	54.868	0.210	-0.201
-550.369	-200.000	-0.021	-0.169
-549.354	800.000	0.075	0.227
-548.339	64.758	-0.185	0.185
-547.325	800.000	-0.074	0.268
-546.310	-70.094	-0.122	-0.046
-545.296	9.843	0.388	-0.291
-544.281	-200.000	-0.016	-0.089
-543.266	-200.000	0.001	-0.116
-542.252	-125.842	-0.173	0.026
-541.237	-125.560	-0.108	0.016
-540.223	149.485	0.177	-0.237
-539.208	-83.006	0.335	-0.107
-538.193	27.809	-0.150	0.125
-537.179	-14.056	-0.183	-0.117
-536.164	-159.947	-0.065	0.004
-535.150	-135.600	0.389	-0.046
-534.135	26.519	0.268	0.222
-533.121	-64.332	0.507	0.204
-532.106	330.285	0.181	-0.345
-531.091	800.000	0.097	0.268
-530.077	95.145	-0.109	0.123
-529.062	-72.995	0.099	0.036
-528.048	-161.236	-0.135	0.007
-527.033	476.979	0.087	0.194
-526.018	125.770	-0.048	-0.060
-525.004	-69.681	-0.297	0.112
-523.989	-69.670	-0.131	-0.049
-522.975	789.511	0.082	0.223
-521.960	-200.000	-0.060	-0.409
-520.945	-200.000	0.027	-0.240
-519.931	-187.744	-0.191	0.002
-518.916	-75.997	0.216	-0.076
-517.902	549.654	-0.113	0.268
-516.887	182.923	0.129	0.189
-515.872	372.860	-0.082	0.165
-514.858	32.078	0.064	-0.055
-513.843	88.884	0.171	0.188
-512.829	493.562	-0.077	-0.175
-511.814	800.000	-0.055	-0.200
-510.799	68.493	0.055	0.056
-509.785	800.000	-0.059	-0.174
-508.770	-91.768	-0.188	-0.053
-507.756	69.298	-0.142	-0.144
-506.741	-149.201	-0.040	-0.003
-505.726	14.869	0.307	-0.237
-504.712	84.181	0.080	-0.087
-503.697	239.790	-0.116	-0.191
-502.683	258.918	-0.078	-0.133
-501.668	151.248	0.055	-0.074
-500.653	-41.972	-0.118	0.060
-499.639	-123.022	0.101	-0.016
-498.624	-166.347	-0.186	-0.008
-497.610	-71.128	-0.223	-0.083
-496.595	-200.000	0.047	-0.223
-495.581	512.434	0.134	0.308
-494.566	-134.737	-0.442	-0.053
-493.551	-200.000	0.065	-0.282
-492.537	800.000	-0.051	-0.155
-491.522	51.250	0.174	-0.163
-490.508	-79.649	-0.332	-0.110
-489.493	34.179	-0.069	0.059
-488.478	-97.377	-0.443	-0.114
-487.464	-84.057	0.258	0.081
-486.449	-200.000	-0.030	0.307
-485.435	486.574	-0.068	-0.152
-484.420	-20.847	0.116	-0.070
-483.405	-66.658	-0.123	-0.048
-482.391	176.307	-0.045	0.064
-481.376	-200.000	0.044	0.458
-480.362	680.772	-0.100	-0.258
-479.347	8.319	0.146	0.108
-478.332	800.000	-0.024	-0.088
-477.318	-200.000	0.016	0.107
-476.303	-200.000	-0.012	0.270
-475.289	-37.051	0.059	0.031
-474.274	-200.000	-0.048	-0.263
-473.259	-200.000	-0.004	-0.091
-472.245	-50.041	0.068	-0.032
-471.230	-93.908	0.298	0.081
-470.216	138.892	-0.149	0.193
-469.201	209.801	-0.149	0.231
-468.186	-168.212	0.253	-0.010
-467.172	54.549	-0.042	-0.040
-466.157	-55.222	-0.176	-0.078
-465.143	-159.581	-0.124	0.007
-464.128	-200.000	-0.027	0.304
-463.113	84.364	0.210	-0.226
-462.099	182.836	0.228	-0.332
-461.084	-77.128	-0.332	-0.114
-460.070	-72.522	0.101	-0.037
-459.055	146.220	0.192	0.255
-458.040	741.955	-0.083	0.219
-457.026	-6.918	-0.093	0.062
-456.011	-155.388	0.228	-0.015
-454.997	40.483	0.063	-0.056
-453.982	-20.664	0.264	0.160
-452.968	-78.493	0.209	0.071
-451.953	420.970	-0.121	-0.255
-450.938	79.378	0.010	0.011
-449.924	-81.492	0.112	0.036
-448.909	800.000	-0.094	0.331
-447.895	202.183	-0.091	-0.139
-446.880	-200.000	-0.047	0.524
-445.865	-84.970	-0.052	0.016
-444.851	28.469	0.119	0.099
-443.836	-8.213	0.231	-0.154
-442.822	-58.891	0.263	0.112
-441.807	-200.000	0.029	-0.290
-440.792	-200.000	-0.029	-0.181
-439.778	-200.000	-0.019	0.328
-438.763	94.384	0.256	0.286
-437.749	57.563	0.210	0.202
-436.734	246.954	-0.240	0.398
-435.719	-73.975	0.053	0.019
-434.705	-200.000	0.015	0.124
-433.690	-200.000	0.013	0.198
-432.676	-91.930	-0.296	0.083
-431.661	15.457	-0.055	-0.043
-430.646	-80.639	-0.184	0.060
-429.632	-166.506	0.195	-0.008
-428.617	-79.757	0.211	0.070
-427.603	-200.000	0.025	0.385
-426.588	263.275	0.082	-0.141
-425.573	-11.085	-0.061	-0.040
-424.559	86.500	-0.215	-0.234
-423.544	-200.000	0.059	-0.598
-422.530	139.266	0.122	-0.158
-421.515	800.000	-0.079	-0.297
-420.500	-200.000	0.055	-0.252
-419.486	-200.000	-0.013	-0.499
-418.471	800.000	0.120	0.361
-417.457	43.963	0.334	-0.302
-416.442	-104.622	0.148	-0.034
-415.428	-145.379	-0.164	-0.015
-414.413	-67.202	-0.293	-0.114
-413.398	-120.032	0.198	0.033
-412.384	192.932	0.181	-0.269
-411.369	-91.577	-0.280	0.078
-410.355	-195.611	0.192	-0.001
-409.340	-187.887	-0.230	0.003
-408.325	-21.803	-0.188	0.113
-407.311	436.583	0.150	0.321
-406.296	49.959	-0.321	0.298
-405.282	-21.056	0.117	0.071
-404.267	800.000	0.031	-0.124
-403.252	-102.960	0.200	0.047
-402.238	-50.617	0.218	-0.101
-401.223	800.000	0.076	-0.217
-400.209	-25.211	-0.168	0.098
-399.194	431.734	0.186	-0.396
-398.179	-200.000	-0.013	0.064
-397.165	257.627	-0.175	0.296
-396.150	-149.604	0.300	-0.023
-395.136	279.503	-0.149	-0.261
-394.121	-30.778	0.189	-0.105
-393.106	-47.653	0.296	0.141
-392.092	48.909	0.258	0.238
-391.077	-200.000	-0.006	0.133
-390.063	43.823	-0.242	0.218
-389.048	-200.000	-0.032	-0.283
-388.033	-16.170	0.300	-0.187
-387.019	-187.352	0.359	-0.005
-386.004	-147.183	-0.189	0.016
-384.990	-200.000	-0.012	0.712
-383.975	-200.000	0.004	0.092
-382.960	91.340	-0.110	0.122
-381.946	408.818	0.126	0.262
-380.931	-200.000	-0.025	0.409
-379.917	800.000	-0.072	-0.226
-378.902	800.000	0.101	-0.303
-377.888	-41.136	0.134	0.068
-376.873	-15.055	-0.136	0.085
-375.858	-200.000	-0.023	-0.184
-374.844	-66.566	-0.095	0.037
-373.829	-92.857	0.237	-0.065
-372.815	-200.000	-0.041	0.263
-371.800	135.027	0.064	-0.082
-370.785	263.986	0.091	0.156
-369.771	800.000	-0.066	0.195
-368.756	-97.004	-0.191	0.049
-367.742	-130.216	-0.113	0.015
-366.727	800.000	-0.024	-0.085
-365.712	-70.457	0.039	0.014
-364.698	-109.804	0.274	0.057
-363.683	-100.814	-0.134	0.032
-362.669	-200.000	0.006	-0.028
-361.654	-200.000	-0.004	0.090
-360.639	800.000	0.057	-0.162
-359.625	132.149	-0.078	-0.099
-358.610	-200.000	-0.024	0.133
-357.596	-151.647	-0.374	0.027
-356.581	38.293	-0.276	0.241
-355.566	-68.195	-0.185	-0.071
-354.552	698.446	0.044	-0.113
-353.537	-123.779	0.092	0.014
-352.523	227.971	-0.165	-0.264
-351.508	271.085	0.078	-0.135
-350.493	-200.000	-0.064	0.366
-349.479	423.571	-0.130	-0.275
-348.464	141.465	0.110	-0.143
-347.450	-25.387	0.387	-0.225
-346.435	-101.884	-0.064	-0.015
-345.420	387.120	-0.041	0.084
-344.406	344.967	0.228	-0.440
-343.391	15.918	0.098	-0.076
-342.377	800.000	-0.109	-0.357
-341.362	240.183	-0.115	0.187
-340.348	-75.188	0.132	0.046
-339.333	-101.302	-0.084	0.020
-338.318	-31.858	0.362	-0.199
-337.304	40.871	-0.183	0.162
-336.289	-200.000	0.035	0.268
-335.275	208.903	0.173	-0.266
-334.260	-83.049	-0.219	-0.069
-333.245	-70.663	0.125	0.047
-332.231	-200.000	0.018	-0.085
-331.216	-148.531	-0.125	0.010
-330.202	526.541	0.060	0.138
-329.187	11.493	-0.231	-0.174
-328.172	-1.284	-0.163	-0.113
-327.158	-200.000	0.016	0.096
-326.143	242.553	0.082	0.135
-325.129	-153.179	0.273	0.019
-324.114	288.334	0.121	0.216
-323.099	-200.000	0.036	-0.563
-322.085	-20.847	-0.417	0.251
-321.070	37.783	0.307	0.268
-320.056	331.421	-0.011	-0.021
-319.041	219.808	-0.212	0.333
-318.026	110.654	0.100	0.118
-317.012	233.018	0.196	0.315
-315.997	644.533	0.046	-0.115
-314.983	209.305	-0.060	0.092
-313.968	-16.826	0.166	-0.103
-312.953	-122.290	-0.268	0.043
-311.939	-6.561	0.159	-0.106
-310.924	211.537	-0.095	0.146
-309.910	-77.878	-0.254	0.086
-308.895	223.998	0.129	0.204
-307.880	-105.713	0.168	0.037
-306.866	-200.000	0.042	0.359
-305.851	-69.409	0.199	0.075
-304.837	-147.214	-0.501	-0.042
-303.822	-18.976	0.198	0.121
-302.807	19.189	-0.032	0.025
-301.793	-43.748	-0.246	0.122
-300.778	-200.000	0.016	0.163
-299.764	31.211	0.038	-0.032
-298.749	146.040	-0.022	-0.029
-297.735	-200.000	-0.018	0.317
-296.720	-200.000	-0.028	0.236
-295.705	172.599	-0.136	0.192
-294.691	800.000	0.069	-0.221
-293.676	-70.164	-0.225	0.084
-292.662	-200.000	0.007	-0.125
-291.647	389.294	-0.112	-0.228
-290.632	56.958	-0.059	-0.057
-289.618	-18.503	0.278	0.170
-288.603	-32.582	-0.109	0.059
-287.589	75.694	-0.134	0.138
-286.574	748.657	0.162	0.428
-285.559	-200.000	-0.013	-0.176
-284.545	153.229	0.289	-0.387
-283.530	66.905	-0.129	-0.128
-282.516	63.088	0.051	-0.050
-281.501	328.809	-0.163	-0.306
-280.486	-146.057	0.127	-0.011
-279.472	-43.935	0.496	-0.244
-278.457	351.368	-0.071	-0.138
-277.443	186.016	-0.071	0.103
-276.428	175.844	0.084	0.120
-275.413	-40.485	-0.226	-0.115
-274.399	-111.805	0.178	-0.035
-273.384	32.325	-0.253	0.214
-272.370	-200.000	0.008	-0.087
-271.355	-130.352	0.227	-0.030
-270.340	177.494	0.144	-0.206
-269.326	298.544	0.128	-0.230
-268.311	88.569	-0.078	0.085
-267.297	396.526	-0.049	-0.101
-266.282	11.213	0.097	-0.073
-265.267	789.886	0.053	0.142
-264.253	319.676	0.144	-0.267
-263.238	800.000	-0.093	-0.281
-262.224	800.000	0.054	-0.162
-261.209	800.000	-0.064	0.242
-260.195	47.895	0.102	0.093
-259.180	800.000	0.028	0.076
-258.165	-200.000	0.020	-0.437
-257.151	233.508	0.172	0.277
-256.136	800.000	-0.047	0.199
-255.122	-200.000	0.012	-0.328
-254.107	-200.000	0.044	0.319
-253.092	800.000	0.069	0.221
-252.078	-151.732	-0.108	-0.008
-251.063	53.605	-0.051	-0.048
-250.049	358.960	-0.069	0.135
-249.034	252.153	0.068	0.113
-248.019	-87.624	-0.151	-0.045
-247.005	27.836	0.313	-0.258
-245.990	-117.469	0.197	-0.035
-244.976	-167.155	-0.328	0.013
-243.961	61.280	0.188	-0.183
-242.946	-41.618	-0.283	-0.142
-241.932	120.211	-0.323	-0.392
-240.917	84.223	0.157	0.168
-239.903	374.344	0.021	-0.043
-238.888	800.000	0.064	0.184
-237.873	-79.150	-0.185	0.062
-236.859	-200.000	-0.031	-0.164
-235.844	-9.556	-0.049	0.032
-234.830	-200.000	-0.023	-0.143
-233.815	345.004	0.050	-0.097
-232.800	-47.075	-0.286	0.137
-231.786	-65.406	-0.215	-0.084
-230.771	-42.545	0.121	0.060
-229.757	181.657	0.090	-0.130
-228.742	800.000	-0.047	-0.177
-227.727	180.876	-0.158	0.226
-226.713	86.661	0.059	0.063
-225.698	800.000	0.042	-0.134
-224.684	274.771	0.115	0.200
-223.669	800.000	0.024	-0.081
-222.655	-200.000	-0.010	-0.238
-221.640	-184.229	-0.144	0.002
-220.625	127.176	0.177	0.219
-219.611	-200.000	-0.019	-0.228
-218.596	-200.000	-0.014	-0.344
-217.582	800.000	-0.020	0.082
-216.567	-25.616	0.427	-0.246
-215.552	145.971	0.176	0.231
-214.538	232.457	0.049	0.079
-213.523	-29.632	0.137	0.076
-212.509	-126.639	-0.075	-0.011
-211.494	120.064	-0.130	-0.158
-210.479	-126.774	-0.292	-0.042
-209.465	-200.000	0.008	0.293
-208.450	5.424	0.178	-0.129
-207.436	-195.233	0.035	0.000
-206.421	-200.000	-0.034	-0.208
-205.406	-128.487	0.242	0.033
-204.392	-158.854	0.120	-0.007
-203.377	445.521	-0.071	-0.153
-202.363	38.178	-0.157	0.136
-201.348	21.515	0.070	0.056
-200.333	-21.076	0.221	-0.132
-199.319	-68.024	-0.139	-0.053
-198.304	-1.918	-0.122	0.084
-197.290	162.014	-0.037	-0.051
-196.275	-200.000	-0.011	0.236
-195.260	-86.878	-0.286	0.085
-194.246	-111.562	-0.623	-0.124
-193.231	-200.000	-0.029	-0.129
-192.217	-25.703	-0.201	-0.116
-191.202	-200.000	0.001	-0.142
-190.187	800.000	-0.049	0.160
-189.173	-200.000	-0.023	0.177
-188.158	-200.000	0.026	-0.143
-187.144	16.285	0.236	-0.182
-186.129	105.882	-0.175	-0.202
-185.114	-20.095	0.301	-0.181
-184.100	121.300	0.105	0.127
-183.085	-90.851	0.058	-0.016
-182.071	-59.496	0.062	0.026
-181.056	-79.944	-0.250	0.082
-180.042	-40.035	0.291	-0.148
-179.027	3.988	-0.151	0.108
-178.012	43.987	-0.220	-0.197
-176.998	167.580	-0.272	0.377
-175.983	800.000	0.111	0.321
-174.969	6.026	0.091	-0.066
-173.954	-2.588	-0.154	0.105
-172.939	800.000	0.140	0.511
-171.925	140.214	-0.119	-0.153
-170.910	216.045	0.047	-0.072
-169.896	307.627	-0.127	-0.231
-168.881	800.000	-0.054	-0.151
-167.866	423.798	0.164	0.344
-166.852	-200.000	0.062	0.413
-165.837	517.797	0.135	-0.308
-164.823	126.800	-0.106	-0.131
-163.808	-200.000	-0.053	-0.311
-162.793	193.087	-0.177	0.260
-161.779	-21.043	-0.175	-0.105
-160.764	-200.000	0.010	-0.105
-159.750	6.837	0.255	0.185
-158.735	-200.000	-0.034	-0.250
-157.720	-3.894	-0.058	0.039
-156.706	798.743	-0.063	-0.170
-155.691	-97.420	0.109	0.028
-154.677	-152.499	-0.077	-0.005
-153.662	280.160	0.128	0.222
-152.647	-36.346	-0.089	-0.047
-151.633	-85.162	-0.056	0.017
-150.618	-117.916	0.097	0.017
-149.604	543.530	-0.016	-0.038
-148.589	-100.767	-0.406	-0.097
-147.574	-200.000	0.001	-0.072
-146.560	-34.189	0.212	-0.113
-145.545	426.001	-0.026	0.055
-144.531	681.203	0.069	-0.175
-143.516	800.000	-0.054	-0.199
-142.502	172.343	0.221	-0.310
-141.487	169.678	-0.166	0.231
-140.472	-35.367	-0.063	-0.034
-139.458	-9.938	-0.236	0.153
-138.443	779.872	-0.113	-0.302
-137.429	800.000	0.043	0.123
-136.414	800.000	0.044	0.179
-135.399	-200.000	0.051	0.376
-134.385	-200.000	0.017	0.175
-133.370	-66.595	-0.204	-0.079
-132.356	-134.703	0.293	-0.035
-131.341	-200.000	0.028	0.160
-130.326	-34.218	0.179	-0.096
-129.312	40.802	-0.395	-0.347
-128.297	-88.046	0.213	-0.062
-127.283	0.037	0.129	-0.089
-126.268	457.329	0.061	-0.131
-125.253	386.885	-0.124	0.249
-124.239	800.000	-0.022	0.071
-123.224	-102.500	-0.500	-0.116
-122.210	-61.818	0.198	-0.081
