DTS Sentinel unit serial number:	SN413079Multiplexer serial number:	ORYXHardware model number:	OX4-SRSoftware version number:	ORYX F/W v4.00 Oryx Data Collector v3.7.2.0data status	okinstallation	princeton_trtdifferential loss correction	single-endedforward channel	channel 2reverse channel	N/Adate	2019/09/17time	07:51:34forward acquisition time	60.00reverse acquisition time	0.00gamma	496.2192k internal	0.2334k external	0.2334temperature offset calibration	0.9975default loss term (dB/km)	0.3790temperature slope calibration	1.0000multiplexer offset coefficient	1.0000multiplexer slope coefficient	1.0000fibre end	0.00T internal ref (°C)	27.19T ext. ref 1 (°C)	0.11T ext. ref 2 (°C)	22.15length (m)	temperature (°C)	Stokes	anti-Stokes-747.200	601.902	0.019	-0.048
-746.185	10.922	0.112	0.086
-745.171	-98.504	0.200	-0.051
-744.156	-32.872	-0.126	0.070
-743.142	-5.989	-0.347	0.238
-742.127	-105.809	-0.027	0.006
-741.112	100.256	-0.220	0.256
-740.098	110.003	0.214	0.258
-739.083	281.395	-0.082	0.147
-738.069	212.598	0.163	-0.258
-737.054	800.000	0.032	-0.115
-736.039	100.813	0.058	-0.068
-735.025	254.133	0.310	0.533
-734.010	-124.099	0.160	-0.025
-732.996	-91.255	0.286	-0.082
-731.981	-16.624	-0.276	-0.175
-730.966	-200.000	0.050	-0.325
-729.952	-200.000	0.048	0.274
-728.937	-169.345	-0.402	-0.015
-727.923	49.484	0.228	0.216
-726.908	800.000	0.027	-0.098
-725.894	-200.000	-0.036	0.246
-724.879	-63.060	-0.463	-0.192
-723.864	13.514	0.259	-0.202
-722.850	-61.688	-0.271	-0.114
-721.835	-1.114	-0.171	0.121
-720.821	4.470	0.353	-0.260
-719.806	-181.602	0.259	0.005
-718.791	301.531	-0.217	-0.403
-717.777	35.783	0.230	0.203
-716.762	-105.070	-0.174	0.040
-715.748	-24.332	-0.293	-0.175
-714.733	53.161	-0.215	-0.207
-713.718	164.842	0.194	-0.275
-712.704	193.438	0.074	-0.112
-711.689	-84.250	-0.097	0.031
-710.675	542.804	0.097	-0.233
-709.660	800.000	-0.033	-0.099
-708.645	470.674	0.085	-0.192
-707.631	-124.965	-0.293	-0.045
-706.616	106.553	-0.166	-0.198
-705.602	-150.905	0.484	-0.037
-704.587	31.685	0.109	-0.094
-703.572	6.552	-0.092	0.068
-702.558	-200.000	0.017	0.085
-701.543	7.442	0.044	0.033
-700.529	-200.000	-0.051	-0.262
-699.514	-74.332	-0.260	-0.094
-698.499	-1.282	-0.230	-0.163
-697.485	-200.000	0.028	-0.226
-696.470	212.615	0.086	-0.135
-695.456	800.000	0.035	0.129
-694.441	281.722	0.119	0.215
-693.426	167.842	0.163	0.232
-692.412	48.192	-0.270	0.253
-691.397	-63.091	-0.076	-0.031
-690.383	-50.877	0.123	-0.058
-689.368	800.000	-0.042	0.145
-688.354	800.000	0.069	0.212
-687.339	131.883	0.137	0.176
-686.324	86.943	0.095	-0.106
-685.310	-81.461	-0.183	-0.060
-684.295	-40.377	-0.176	-0.092
-683.281	340.856	-0.149	0.292
-682.266	-122.061	0.226	-0.037
-681.251	181.282	0.083	-0.123
-680.237	-200.000	0.043	-0.249
-679.222	-26.780	0.144	0.084
-678.208	222.451	-0.217	-0.351
-677.193	76.057	-0.127	0.135
-676.178	-14.535	-0.080	-0.052
-675.164	-200.000	0.078	-0.557
-674.149	800.000	-0.083	0.313
-673.135	-200.000	-0.003	0.355
-672.120	800.000	-0.048	-0.143
-671.105	48.183	0.249	-0.233
-670.091	428.911	0.148	-0.320
-669.076	90.278	0.087	-0.098
-668.062	800.000	0.078	-0.260
-667.047	102.221	-0.195	0.229
-666.032	235.317	0.198	-0.328
-665.018	-200.000	0.013	0.153
-664.003	-200.000	-0.017	-0.214
-662.989	-87.543	-0.094	-0.029
-661.974	68.899	0.170	-0.175
-660.959	105.730	0.154	-0.183
-659.945	-84.462	-0.206	-0.065
-658.930	-34.316	0.145	0.080
-657.916	-15.040	-0.033	0.021
-656.901	-200.000	0.018	0.186
-655.886	-200.000	0.010	0.252
-654.872	-200.000	-0.044	0.519
-653.857	186.917	0.133	-0.199
-652.843	-84.014	-0.244	-0.078
-651.828	-20.223	-0.119	-0.073
-650.814	800.000	0.044	0.180
-649.799	-8.811	0.088	0.059
-648.784	-24.639	0.132	-0.078
-647.770	-200.000	-0.002	-0.288
-646.755	24.583	0.111	0.092
-645.741	102.123	0.097	-0.114
-644.726	-61.305	0.176	0.074
-643.711	96.413	0.148	0.169
-642.697	-200.000	-0.027	-0.235
-641.682	-174.638	0.082	0.002
-640.668	781.541	0.018	-0.048
-639.653	800.000	-0.017	0.058
-638.638	-7.406	-0.110	0.075
-637.624	89.746	-0.248	-0.277
-636.609	179.916	-0.219	-0.322
-635.595	385.075	-0.060	0.124
-634.580	433.853	-0.055	0.121
-633.565	-42.397	0.108	-0.055
-632.551	107.981	-0.118	-0.141
-631.536	-175.266	-0.230	0.006
-630.522	-200.000	0.010	0.103
-629.507	800.000	0.079	-0.227
-628.492	-54.227	0.344	-0.156
-627.478	5.757	-0.259	-0.192
-626.463	-103.264	-0.148	-0.035
-625.449	-41.335	-0.353	0.182
-624.434	-57.413	-0.314	-0.138
-623.419	-101.289	-0.186	0.045
-622.405	-65.319	0.081	0.032
-621.390	-200.000	0.008	0.165
-620.376	157.348	-0.228	0.315
-619.361	800.000	-0.059	0.200
-618.346	-16.665	-0.319	0.202
-617.332	764.457	0.104	-0.282
-616.317	57.519	0.266	0.260
-615.303	184.270	0.052	0.077
-614.288	335.378	-0.138	-0.268
-613.273	-88.136	0.290	0.087
-612.259	-200.000	-0.072	0.378
-611.244	314.002	0.148	-0.278
-610.230	-167.051	-0.313	-0.013
-609.215	174.089	-0.141	-0.204
-608.201	-83.604	-0.223	0.071
-607.186	106.972	-0.048	-0.057
-606.171	-45.353	0.333	-0.165
-605.157	-75.802	-0.210	-0.074
-604.142	800.000	-0.087	0.358
-603.128	800.000	-0.077	0.216
-602.113	-69.367	0.245	0.094
-601.098	18.401	0.114	0.091
-600.084	37.788	0.137	0.122
-599.069	-161.056	-0.063	-0.003
-598.055	-59.764	0.220	0.094
-597.040	-73.159	-0.076	0.028
-596.025	-60.311	-0.155	0.066
-595.011	-70.406	-0.222	0.084
-593.996	629.552	0.050	0.127
-592.982	333.662	0.059	-0.114
-591.967	679.410	0.104	-0.269
-590.952	403.230	-0.045	-0.095
-589.938	-200.000	0.019	-0.191
-588.923	800.000	0.102	0.315
-587.909	-95.192	0.215	0.058
-586.894	-135.876	-0.162	0.019
-585.879	-200.000	-0.047	-0.258
-584.865	-200.000	-0.014	-0.312
-583.850	-109.687	-0.092	0.019
-582.836	-11.457	0.028	-0.018
-581.821	736.388	0.025	0.067
-580.806	-19.028	-0.241	0.149
-579.792	11.871	-0.096	0.074
-578.777	-83.689	-0.357	0.114
-577.763	202.059	-0.166	-0.256
-576.748	-85.412	0.377	-0.117
-575.733	-123.541	-0.530	-0.084
-574.719	469.537	0.125	-0.281
-573.704	345.963	0.056	0.109
-572.690	-200.000	0.015	0.101
-571.675	211.378	-0.056	-0.089
-570.661	-49.816	-0.125	-0.059
-569.646	-200.000	-0.023	-0.292
-568.631	173.930	0.110	-0.158
-567.617	158.326	-0.073	0.101
-566.602	-151.935	-0.205	0.015
-565.588	209.252	0.157	0.245
-564.573	-33.865	-0.479	0.263
-563.558	-62.079	-0.333	-0.139
-562.544	-163.805	0.133	0.006
-561.529	-3.669	0.050	-0.035
-560.515	-200.000	-0.018	-0.085
-559.500	-200.000	0.008	0.058
-558.485	-108.744	0.248	0.053
-557.471	-51.822	-0.015	0.007
-556.456	-200.000	0.009	-0.249
-555.442	-200.000	0.029	0.144
-554.427	537.757	0.013	0.030
-553.412	-4.870	-0.248	-0.170
-552.398	-0.863	-0.051	-0.036
-551.383	-5.855	0.220	-0.150
-550.369	82.287	-0.168	-0.182
-549.354	738.421	0.048	0.129
-548.339	42.779	0.048	-0.044
-547.325	9.182	-0.238	0.179
-546.310	-200.000	0.021	0.133
-545.296	-4.211	0.093	0.065
-544.281	289.176	0.100	0.180
-543.266	59.554	0.080	0.079
-542.252	133.936	-0.027	-0.034
-541.237	57.585	0.257	-0.250
-540.223	43.674	-0.145	-0.133
-539.208	-12.337	0.282	-0.184
-538.193	-98.593	-0.311	0.079
-537.179	138.782	0.197	0.258
-536.164	-200.000	0.009	0.091
-535.150	-115.216	0.139	0.026
-534.135	38.331	-0.227	0.201
-533.121	26.026	-0.165	0.137
-532.106	173.826	-0.066	0.096
-531.091	573.440	-0.108	0.262
-530.077	-200.000	0.023	-0.143
-529.062	-132.651	0.297	-0.038
-528.048	759.588	0.139	0.376
-527.033	192.562	-0.111	-0.167
-526.018	232.339	0.216	-0.353
-525.004	48.658	-0.113	-0.105
-523.989	-71.643	0.124	0.046
-522.975	91.165	-0.070	0.078
-521.960	800.000	-0.060	-0.208
-520.945	41.154	-0.116	-0.105
-519.931	13.867	-0.129	0.100
-518.916	-200.000	0.029	0.202
-517.902	-200.000	0.012	-0.107
-516.887	-200.000	-0.015	-0.106
-515.872	252.556	0.023	0.039
-514.858	-200.000	-0.034	0.236
-513.843	800.000	0.008	-0.031
-512.829	22.275	-0.154	-0.125
-511.814	-68.758	0.065	0.025
-510.799	-25.347	0.106	-0.063
-509.785	215.859	-0.191	0.301
-508.770	-43.850	-0.120	-0.060
-507.756	-63.103	0.191	-0.079
-506.741	-200.000	0.015	-0.485
-505.726	740.358	-0.121	0.323
-504.712	-200.000	0.015	-0.309
-503.697	-25.859	-0.161	-0.095
-502.683	-84.210	0.218	0.069
-501.668	-153.278	-0.286	-0.020
-500.653	207.138	0.132	-0.204
-499.639	155.475	0.171	-0.234
-498.624	74.455	0.099	-0.104
-497.610	43.138	0.100	-0.091
-496.595	26.534	0.183	0.152
-495.581	-71.025	0.271	0.101
-494.566	-200.000	0.006	-0.057
-493.551	-200.000	-0.008	0.387
-492.537	-69.510	-0.049	-0.019
-491.522	-77.084	0.541	0.188
-490.508	-200.000	-0.069	0.461
-489.493	800.000	0.100	0.358
-488.478	30.191	0.073	-0.062
-487.464	265.770	-0.051	0.089
-486.449	47.040	-0.170	0.157
-485.435	-26.095	0.481	-0.281
-484.420	-72.541	0.046	-0.017
-483.405	800.000	0.092	-0.297
-482.391	-121.828	0.394	0.065
-481.376	-200.000	-0.006	-0.096
-480.362	800.000	-0.041	0.120
-479.347	6.584	0.047	-0.034
-478.332	-119.216	-0.465	-0.081
-477.318	-200.000	-0.128	-0.610
-476.303	-80.578	-0.122	0.040
-475.289	-170.716	0.258	0.009
-474.274	-12.375	0.080	-0.052
-473.259	242.964	-0.067	0.112
-472.245	72.490	0.056	-0.058
-471.230	-200.000	0.008	0.181
-470.216	800.000	-0.192	-0.541
-469.201	-179.586	0.238	0.005
-468.186	-200.000	-0.024	-0.445
-467.172	242.615	-0.136	-0.226
-466.157	31.871	-0.223	-0.191
-465.143	-200.000	0.026	0.138
-464.128	552.108	0.064	0.153
-463.113	-126.411	0.076	0.011
-462.099	-29.255	0.172	-0.098
-461.084	-133.445	-0.238	0.030
-460.070	-106.259	0.103	-0.023
-459.055	655.696	-0.099	-0.252
-458.040	-109.632	0.201	0.042
-457.026	800.000	0.087	0.291
-456.011	584.602	-0.017	-0.041
-454.997	-28.049	-0.044	0.025
-453.982	-106.331	-0.213	0.047
-452.968	229.015	0.042	0.067
-451.953	-69.519	-0.374	-0.142
-450.938	-107.054	0.245	0.054
-449.924	-185.866	-0.271	0.004
-448.909	-200.000	-0.033	-0.209
-447.895	-27.675	-0.158	-0.091
-446.880	285.313	0.130	0.233
-445.865	26.514	0.140	-0.117
-444.851	69.392	0.362	0.370
-443.836	-49.766	0.146	-0.069
-442.822	741.537	0.038	-0.103
-441.807	60.679	-0.152	-0.150
-440.792	-6.765	-0.130	-0.088
-439.778	279.439	0.121	-0.215
-438.763	-65.829	-0.317	-0.126
-437.749	-111.354	0.328	0.066
-436.734	800.000	0.074	0.264
-435.719	-77.683	-0.359	0.124
-434.705	28.082	0.148	-0.124
-433.690	-173.234	0.274	0.008
-432.676	-200.000	0.022	0.180
-431.661	-59.398	-0.271	-0.116
-430.646	-34.142	-0.093	-0.051
-429.632	-89.932	-0.211	-0.061
-428.617	-200.000	0.014	-0.183
-427.603	314.825	0.110	-0.206
-426.588	-200.000	0.017	-0.229
-425.573	-68.613	0.246	0.094
-424.559	205.097	0.155	0.239
-423.544	405.153	-0.094	0.197
-422.530	29.049	0.119	-0.100
-421.515	800.000	-0.028	-0.110
-420.500	-50.771	0.218	0.102
-419.486	156.289	0.048	0.066
-418.471	800.000	0.066	-0.209
-417.457	5.244	0.052	-0.038
-416.442	14.166	-0.237	-0.183
-415.428	-164.272	0.328	-0.015
-414.413	283.166	0.081	-0.145
-413.398	-200.000	0.390	0.002
-412.384	-134.649	-0.168	0.020
-411.369	-200.000	-0.062	-0.484
-410.355	478.510	-0.175	0.393
-409.340	-101.408	0.355	-0.086
-408.325	-156.442	-0.215	0.013
-407.311	-200.000	-0.062	-0.394
-406.296	271.151	0.158	0.276
-405.282	58.249	-0.150	-0.146
-404.267	-20.744	0.157	0.095
-403.252	115.078	0.187	0.226
-402.238	-200.000	0.036	0.183
-401.223	-200.000	0.026	-0.206
-400.209	-200.000	-0.008	-0.142
-399.194	800.000	0.112	0.413
-398.179	-200.000	-0.018	0.139
-397.165	296.116	0.087	-0.158
-396.150	152.353	0.114	-0.155
-395.136	-200.000	0.014	0.072
-394.121	800.000	-0.014	-0.061
-393.106	-2.921	0.153	-0.106
-392.092	-83.322	-0.357	0.113
-391.077	171.748	0.116	-0.165
-390.063	364.222	0.068	-0.135
-389.048	800.000	-0.098	-0.418
-388.033	-15.769	0.112	0.071
-387.019	800.000	-0.024	0.078
-386.004	-9.445	-0.160	0.106
-384.990	-89.056	-0.150	0.044
-383.975	121.309	0.043	-0.053
-382.960	711.017	0.109	-0.285
-381.946	-116.102	-0.121	-0.022
-380.931	148.814	0.143	0.192
-379.917	-57.171	0.157	0.068
-378.902	-18.829	0.136	-0.084
-377.888	-36.040	0.239	-0.128
-376.873	638.845	0.141	0.355
-375.858	-12.819	-0.249	-0.161
-374.844	-29.634	0.279	0.158
-373.829	79.295	0.062	0.066
-372.815	-200.000	0.026	-0.154
-371.800	800.000	-0.088	-0.275
-370.785	-36.111	0.155	0.083
-369.771	-68.597	-0.309	-0.119
-368.756	-32.415	-0.297	-0.164
-367.742	102.213	-0.191	0.220
-366.727	-200.000	-0.003	0.193
-365.712	145.280	0.066	0.088
-364.698	-155.064	-0.256	0.017
-363.683	156.843	0.166	-0.227
-362.669	620.299	-0.089	0.221
-361.654	800.000	-0.112	0.404
-360.639	-52.591	0.087	0.040
-359.625	746.358	0.053	-0.142
-358.610	598.230	-0.123	-0.302
-357.596	-96.372	-0.145	-0.038
-356.581	372.086	-0.099	0.199
-355.566	-25.517	0.302	-0.177
-354.552	37.066	0.072	0.063
-353.537	-200.000	0.005	-0.137
-352.523	-138.110	0.088	0.010
-351.508	-93.646	0.047	0.013
-350.493	-146.563	0.128	0.011
-349.479	202.496	-0.097	-0.148
-348.464	402.025	-0.140	0.291
-347.450	358.807	-0.100	0.199
-346.435	539.124	0.073	0.171
-345.420	800.000	-0.089	-0.337
-344.406	335.803	0.101	0.194
-343.391	-31.436	0.127	0.071
-342.377	440.107	-0.189	0.409
-341.362	-141.306	0.211	0.021
-340.348	325.615	-0.158	-0.298
-339.333	0.041	-0.307	-0.216
-338.318	-28.925	0.241	-0.137
-337.304	-111.647	-0.249	0.050
-336.289	-200.000	-0.002	0.128
-335.275	-200.000	0.017	-0.186
-334.260	549.233	-0.040	-0.094
-333.245	-164.562	0.301	-0.014
-332.231	26.079	-0.265	0.219
-331.216	733.912	0.019	0.050
-330.202	14.562	0.386	-0.298
-329.187	287.829	-0.097	0.173
-328.172	390.276	-0.038	-0.077
-327.158	-118.945	0.170	0.029
-326.143	-10.442	-0.105	0.069
-325.129	-200.000	0.001	0.145
-324.114	-200.000	0.032	-0.214
-323.099	-152.160	0.342	-0.024
-322.085	95.956	0.133	-0.150
-321.070	-75.472	0.270	-0.095
-320.056	800.000	0.037	0.143
-319.041	800.000	0.081	0.312
-318.026	251.594	-0.191	0.321
-317.012	-200.000	-0.030	-0.214
-315.997	800.000	-0.109	-0.302
-314.983	280.896	0.072	-0.128
-313.968	-134.773	-0.234	0.028
-312.953	179.372	0.113	0.163
-311.939	-95.222	-0.153	-0.041
-310.924	800.000	-0.063	-0.191
-309.910	285.168	0.147	-0.262
-308.895	-63.942	-0.275	-0.111
-307.880	145.601	-0.109	-0.144
-306.866	754.437	-0.025	-0.067
-305.851	393.010	-0.091	0.187
-304.837	800.000	0.032	0.140
-303.822	-200.000	0.077	0.454
-302.807	51.247	-0.224	0.210
-301.793	102.321	0.081	-0.093
-300.778	85.682	0.049	-0.053
-299.764	-200.000	-0.063	0.301
-298.749	-61.008	0.247	-0.103
-297.735	218.189	0.184	0.291
-296.720	-187.754	0.220	-0.003
-295.705	767.159	-0.035	0.095
-294.691	-173.223	0.387	0.012
-293.676	221.319	-0.162	0.258
-292.662	-14.178	0.039	-0.025
-291.647	182.874	-0.127	-0.186
-290.632	-200.000	-0.006	-0.115
-289.618	-200.000	-0.005	-0.116
-288.603	800.000	0.050	0.141
-287.589	152.465	-0.225	0.304
-286.574	-54.727	-0.416	0.186
-285.559	297.927	-0.074	-0.135
-284.545	-51.698	-0.204	0.094
-283.530	-200.000	-0.021	0.193
-282.516	800.000	0.169	-0.476
-281.501	-11.675	0.137	0.089
-280.486	800.000	0.067	0.233
-279.472	4.536	-0.157	-0.114
-278.457	56.071	-0.251	0.241
-277.443	-122.801	-0.249	0.040
-276.428	-133.609	-0.283	-0.035
-275.413	281.688	-0.109	-0.192
-274.399	24.040	-0.085	-0.069
-273.384	255.716	0.067	-0.113
-272.370	44.409	-0.242	-0.219
-271.355	800.000	0.052	0.204
-270.340	78.667	-0.140	0.147
-269.326	800.000	0.058	-0.206
-268.311	630.413	-0.183	0.458
-267.297	288.106	0.030	0.054
-266.282	313.048	0.102	-0.190
-265.267	500.870	0.132	0.301
-264.253	800.000	-0.004	0.012
-263.238	297.018	-0.075	0.136
-262.224	-123.169	0.349	-0.055
-261.209	-10.027	-0.094	-0.062
-260.195	-200.000	0.035	-0.220
-259.180	278.589	0.204	-0.359
-258.165	219.197	-0.092	-0.144
-257.151	493.905	-0.023	-0.051
-256.136	82.720	0.101	0.109
-255.122	-24.494	-0.155	0.091
-254.107	-4.523	-0.070	-0.047
-253.092	394.951	0.157	-0.323
-252.078	-54.303	0.179	-0.080
-251.063	197.438	-0.028	0.043
-250.049	404.677	0.051	0.107
-249.034	800.000	0.065	-0.228
-248.019	-200.000	0.003	-0.073
-247.005	800.000	-0.046	0.129
-245.990	-108.104	0.172	0.037
-244.976	-124.962	-0.076	-0.012
-243.961	54.754	-0.027	-0.025
-242.946	-108.881	-0.235	-0.050
-241.932	482.065	-0.128	-0.287
-240.917	420.625	0.070	-0.148
-239.903	260.813	0.059	-0.101
-238.888	-89.422	0.110	-0.032
-237.873	-74.364	0.523	0.186
-236.859	160.380	-0.086	0.119
-235.844	-12.957	0.197	0.126
-234.830	-109.151	-0.285	0.060
-233.815	800.000	-0.092	0.255
-232.800	19.485	0.301	0.238
-231.786	-91.120	0.403	0.114
-230.771	-76.397	0.373	0.129
-229.757	62.532	0.162	0.160
-228.742	-200.000	-0.026	0.159
-227.727	800.000	-0.022	-0.093
-226.713	-22.695	-0.055	0.033
-225.698	800.000	-0.094	0.396
-224.684	-79.305	-0.150	-0.050
-223.669	800.000	-0.080	-0.314
-222.655	56.282	0.213	-0.204
-221.640	-129.520	-0.222	0.030
-220.625	56.733	-0.104	0.100
-219.611	0.364	0.371	-0.261
-218.596	237.758	-0.130	-0.212
-217.582	-62.572	-0.269	0.110
-216.567	-138.115	0.182	-0.020
-215.552	579.396	0.047	0.112
-214.538	-33.212	0.603	0.329
-213.523	-75.332	-0.355	-0.125
-212.509	-175.561	-0.111	0.003
-211.494	-105.748	-0.226	-0.050
-210.479	83.254	-0.254	0.272
-209.465	88.748	0.206	-0.225
-208.450	-194.998	-0.177	0.001
-207.436	-106.674	0.115	-0.025
-206.421	159.732	0.040	0.055
-205.406	194.978	0.179	-0.268
-204.392	800.000	-0.081	-0.301
-203.377	270.091	-0.087	-0.150
-202.363	372.149	-0.101	-0.201
-201.348	145.306	0.179	0.235
-200.333	-200.000	0.003	-0.145
-199.319	-71.068	-0.206	0.076
-198.304	-58.311	0.276	0.118
-197.290	349.548	-0.057	-0.111
-196.275	-200.000	-0.067	0.294
-195.260	800.000	-0.074	0.204
-194.246	-200.000	0.057	0.356
-193.231	-200.000	0.001	0.185
-192.217	800.000	-0.076	0.265
-191.202	-13.484	-0.163	0.104
-190.187	800.000	-0.094	0.278
-189.173	294.733	0.187	0.337
-188.158	183.895	0.229	-0.334
-187.144	-104.828	-0.233	0.053
-186.129	800.000	0.048	-0.162
-185.114	-46.179	0.133	-0.064
-184.100	339.392	0.039	0.075
-183.085	117.954	-0.289	0.351
-182.071	800.000	-0.058	-0.179
-181.056	-46.827	-0.453	0.218
-180.042	800.000	0.108	0.338
-179.027	-200.000	0.001	-0.218
-178.012	-31.809	-0.181	0.100
-176.998	134.351	-0.118	0.150
-175.983	113.764	0.257	0.307
-174.969	34.310	-0.072	0.062
-173.954	641.547	0.105	0.264
-172.939	395.474	0.061	0.126
-171.925	-119.900	-0.116	-0.020
-170.910	-200.000	0.050	-0.350
-169.896	225.588	0.083	0.132
-168.881	226.864	-0.104	-0.165
-167.866	-132.891	0.192	0.024
-166.852	-91.096	0.291	-0.082
-165.837	-176.234	-0.173	-0.004
-164.823	-200.000	0.009	-0.123
-163.808	296.669	-0.065	-0.116
-162.793	-180.850	-0.284	-0.006
-161.779	-58.039	-0.389	-0.167
-160.764	-54.017	0.182	0.081
-159.750	-125.172	-0.227	0.034
-158.735	223.121	0.123	0.195
-157.720	32.804	0.201	0.171
-156.706	800.000	0.018	0.069
-155.691	86.407	0.161	-0.175
-154.677	102.308	-0.073	-0.084
-153.662	-35.713	0.268	-0.143
-152.647	122.810	0.012	-0.015
-151.633	21.907	-0.147	0.118
-150.618	-96.653	0.080	-0.021
-149.604	-5.176	0.216	0.146
-148.589	281.796	-0.031	0.055
-147.574	611.015	-0.044	-0.109
-146.560	755.592	0.125	-0.333
-145.545	-22.539	0.177	0.105
-144.531	-176.485	0.396	0.010
-143.516	742.818	-0.168	0.444
-142.502	118.761	-0.049	0.059
-141.487	-95.029	-0.138	0.037
-140.472	-124.761	-0.205	0.031
-139.458	351.816	0.096	-0.186
-138.443	257.951	-0.151	0.255
-137.429	85.457	-0.196	-0.211
-136.414	-106.580	0.116	-0.025
-135.399	-97.902	0.208	-0.053
-134.385	800.000	0.015	0.040
-133.370	-114.997	-0.091	-0.017
-132.356	800.000	-0.026	0.075
-131.341	-57.682	0.517	0.222
-130.326	12.061	-0.291	-0.220
-129.312	800.000	-0.061	0.211
-128.297	-89.148	0.142	0.041
-127.283	-124.313	-0.395	0.061
-126.268	-125.147	0.277	0.042
-125.253	-55.185	-0.163	-0.072
-124.239	-10.291	0.373	-0.243
-123.224	-200.000	0.065	-0.346
-122.210	-86.408	0.061	0.019
-121.195	-200.000	0.014	0.353
-120.180	-200.000	-0.017	-0.117
