DTS Sentinel unit serial number:	SN413079Multiplexer serial number:	ORYXHardware model number:	OX4-SRSoftware version number:	ORYX F/W v4.00 Oryx Data Collector v3.7.2.0data status	okinstallation	princeton_trtdifferential loss correction	single-endedforward channel	channel 2reverse channel	N/Adate	2019/09/10time	21:29:11forward acquisition time	60.00reverse acquisition time	0.00gamma	496.2192k internal	0.2330k external	0.2330temperature offset calibration	0.9943default loss term (dB/km)	0.3790temperature slope calibration	1.0000multiplexer offset coefficient	1.0000multiplexer slope coefficient	1.0000fibre end	0.00T internal ref (°C)	31.16T ext. ref 1 (°C)	-0.31T ext. ref 2 (°C)	24.36length (m)	temperature (°C)	Stokes	anti-Stokes-747.200	800.000	-0.091	-0.287
-746.185	-200.000	0.017	0.299
-745.171	290.089	0.037	0.067
-744.156	-71.870	-0.205	0.077
-743.142	288.215	0.063	0.115
-742.127	-173.872	-0.331	0.010
-741.112	-53.475	-0.280	-0.129
-740.098	68.660	-0.147	0.151
-739.083	26.237	-0.042	0.035
-738.069	800.000	0.161	0.466
-737.054	-200.000	-0.021	-0.166
-736.039	-200.000	-0.053	-0.244
-735.025	-118.406	0.267	0.048
-734.010	-200.000	-0.002	0.133
-732.996	-200.000	0.025	-0.268
-731.981	-80.278	-0.291	-0.098
-730.966	-108.747	-0.115	-0.025
-729.952	-200.000	-0.084	-0.525
-728.937	-200.000	-0.031	-0.176
-727.923	49.707	-0.192	-0.182
-726.908	55.607	-0.086	-0.084
-725.894	-75.180	0.118	0.042
-724.879	-96.329	-0.165	-0.044
-723.864	-200.000	0.022	0.161
-722.850	-200.000	0.080	-0.357
-721.835	800.000	-0.119	0.469
-720.821	-200.000	0.029	0.166
-719.806	151.591	0.170	-0.233
-718.791	84.699	0.092	-0.102
-717.777	108.524	-0.187	0.225
-716.762	168.006	0.180	-0.258
-715.748	-38.693	0.194	-0.103
-714.733	-200.000	-0.049	0.323
-713.718	-149.817	-0.073	-0.006
-712.704	-200.000	-0.002	-0.166
-711.689	-190.139	-0.338	0.004
-710.675	-75.709	-0.225	-0.080
-709.660	688.784	0.023	0.059
-708.645	-29.229	-0.405	0.233
-707.631	-16.703	0.083	0.053
-706.616	-135.921	0.235	-0.028
-705.602	-116.957	0.414	0.076
-704.587	7.550	0.351	0.264
-703.572	-9.064	0.147	-0.099
-702.558	800.000	0.142	-0.436
-701.543	595.102	-0.086	0.214
-700.529	409.358	0.075	-0.159
-699.514	106.108	-0.087	0.103
-698.499	548.551	0.123	-0.297
-697.485	800.000	-0.035	-0.134
-696.470	-6.364	0.217	0.149
-695.456	-29.297	-0.228	-0.131
-694.441	800.000	0.038	-0.112
-693.426	60.678	0.114	-0.114
-692.412	-9.516	-0.314	0.210
-691.397	81.143	0.237	0.257
-690.383	143.644	0.131	0.175
-689.368	101.108	0.023	-0.026
-688.354	-200.000	-0.046	0.337
-687.339	-200.000	0.081	-0.460
-686.324	-67.060	-0.313	0.124
-685.310	111.738	-0.234	-0.284
-684.295	195.972	0.009	0.013
-683.281	-108.587	0.343	-0.074
-682.266	75.680	0.195	-0.207
-681.251	248.698	0.107	0.183
-680.237	-176.254	0.178	0.005
-679.222	7.668	-0.193	0.145
-678.208	-74.841	-0.121	-0.044
-677.193	98.541	0.085	-0.099
-676.178	800.000	-0.073	0.215
-675.164	-59.069	0.454	0.197
-674.149	198.281	0.238	0.365
-673.135	-181.690	-0.035	-0.001
-672.120	-200.000	-0.005	0.053
-671.105	335.783	-0.081	0.157
-670.091	-156.996	0.330	0.020
-669.076	111.701	0.293	-0.355
-668.062	-28.182	-0.435	-0.252
-667.047	800.000	0.019	0.064
-666.032	261.002	-0.074	0.129
-665.018	504.353	-0.075	-0.174
-664.003	91.928	-0.069	0.078
-662.989	450.821	0.098	0.217
-661.974	-200.000	0.023	0.215
-660.959	593.308	-0.078	-0.193
-659.945	-149.937	0.548	-0.043
-658.930	800.000	0.038	0.137
-657.916	-200.000	0.013	-0.061
-656.901	-55.259	-0.121	-0.054
-655.886	93.559	0.040	0.046
-654.872	-76.299	-0.115	-0.041
-653.857	133.509	-0.086	0.111
-652.843	493.798	-0.079	-0.182
-651.828	-185.723	-0.084	-0.001
-650.814	-134.566	0.205	-0.025
-649.799	-200.000	0.013	0.272
-648.784	262.718	0.101	-0.176
-647.770	94.901	-0.171	0.195
-646.755	800.000	-0.082	0.277
-645.741	-200.000	-0.015	-0.390
-644.726	-107.733	-0.174	0.038
-643.711	-143.838	0.287	0.027
-642.697	40.996	0.110	-0.100
-641.682	-200.000	0.055	-0.276
-640.668	800.000	0.100	0.311
-639.653	-200.000	-0.006	-0.118
-638.638	145.526	-0.152	0.204
-637.624	452.245	0.066	0.146
-636.609	-134.704	-0.125	-0.015
-635.595	301.118	0.087	-0.161
-634.580	173.554	-0.297	0.429
-633.565	800.000	0.098	-0.311
-632.551	40.021	-0.105	-0.095
-631.536	800.000	-0.064	0.229
-630.522	-22.982	0.314	-0.190
-629.507	129.844	-0.110	-0.140
-628.492	-200.000	-0.064	-0.362
-627.478	-200.000	-0.056	-0.255
-626.463	642.313	-0.087	0.221
-625.449	3.007	0.068	-0.050
-624.434	219.080	-0.158	-0.254
-623.419	162.774	-0.209	0.294
-622.405	-102.626	-0.341	-0.082
-621.390	-84.499	0.174	-0.055
-620.376	-16.299	0.129	0.082
-619.361	800.000	0.025	0.104
-618.346	-142.284	-0.142	-0.014
-617.332	-100.197	0.191	0.048
-616.317	7.712	-0.263	-0.197
-615.303	-53.254	0.402	-0.185
-614.288	61.876	-0.246	-0.245
-613.273	-125.773	0.078	-0.012
-612.259	-167.379	-0.227	-0.009
-611.244	232.050	-0.143	0.235
-610.230	-107.749	0.190	0.042
-609.215	-76.801	0.293	0.103
-608.201	-200.000	-0.000	-0.051
-607.186	-200.000	0.014	0.132
-606.171	-200.000	-0.003	0.137
-605.157	191.688	-0.032	-0.049
-604.142	-200.000	0.030	-0.221
-603.128	104.550	-0.190	0.224
-602.113	-200.000	0.002	-0.083
-601.098	-38.184	-0.141	-0.075
-600.084	800.000	-0.131	-0.414
-599.069	-200.000	0.006	-0.061
-598.055	-6.692	-0.110	-0.075
-597.040	78.612	-0.193	-0.207
-596.025	76.935	0.061	-0.064
-595.011	-200.000	-0.003	-0.018
-593.996	-25.742	0.322	0.190
-592.982	706.911	0.076	-0.201
-591.967	114.893	0.172	-0.210
-590.952	-11.926	-0.192	-0.126
-589.938	-110.856	-0.379	-0.078
-588.923	-41.685	-0.137	-0.071
-587.909	-200.000	-0.046	0.294
-586.894	148.691	-0.094	0.127
-585.879	-127.817	-0.137	-0.020
-584.865	-4.964	0.244	-0.168
-583.850	-200.000	-0.034	-0.239
-582.836	187.259	-0.174	-0.260
-581.821	660.607	-0.152	-0.393
-580.806	-120.323	0.057	-0.010
-579.792	426.755	0.079	-0.171
-578.777	-200.000	-0.021	0.144
-577.763	800.000	0.101	-0.296
-576.748	362.883	0.149	-0.300
-575.733	-200.000	-0.019	0.104
-574.719	-200.000	-0.031	0.165
-573.704	-61.112	-0.219	-0.093
-572.690	-70.634	-0.200	0.076
-571.675	799.737	-0.172	-0.475
-570.661	639.839	-0.157	0.400
-569.646	644.561	-0.038	0.098
-568.631	235.312	-0.087	0.144
-567.617	-26.536	-0.156	0.091
-566.602	-200.000	-0.010	-0.074
-565.588	63.152	0.335	0.336
-564.573	-142.942	-0.365	-0.035
-563.558	164.631	0.075	0.105
-562.544	800.000	-0.054	0.180
-561.529	-200.000	-0.011	0.109
-560.515	-40.456	-0.025	0.013
-559.500	-103.779	-0.223	-0.052
-558.485	95.588	-0.241	-0.275
-557.471	190.821	0.094	-0.141
-556.456	-0.986	0.225	-0.159
-555.442	134.353	0.132	-0.171
-554.427	-106.704	0.284	0.063
-553.412	-50.586	-0.108	0.051
-552.398	89.487	0.139	0.155
-551.383	-200.000	0.030	0.291
-550.369	-46.966	-0.281	-0.137
-549.354	-141.002	0.114	-0.012
-548.339	186.290	0.161	-0.239
-547.325	90.654	0.176	0.197
-546.310	-200.000	-0.006	0.147
-545.296	38.857	0.105	-0.094
-544.281	-200.000	-0.011	-0.176
-543.266	800.000	-0.108	0.424
-542.252	-200.000	0.048	0.245
-541.237	59.513	-0.266	0.262
-540.223	37.634	-0.137	0.122
-539.208	800.000	-0.069	-0.299
-538.193	800.000	0.141	-0.421
-537.179	-42.835	0.295	-0.149
-536.164	-35.432	-0.360	0.195
-535.150	-200.000	-0.014	0.252
-534.135	-175.221	-0.196	0.005
-533.121	-43.938	-0.218	-0.110
-532.106	363.229	-0.016	-0.033
-531.091	-25.820	0.163	0.096
-530.077	-60.569	0.196	0.083
-529.062	-11.209	-0.110	-0.072
-528.048	92.507	-0.262	-0.295
-527.033	-150.192	0.283	-0.022
-526.018	201.558	-0.120	-0.184
-525.004	-200.000	-0.045	-0.231
-523.989	800.000	-0.087	-0.272
-522.975	-200.000	-0.014	-0.239
-521.960	-28.682	0.154	-0.088
-520.945	-85.603	0.232	0.072
-519.931	-200.000	0.017	0.307
-518.916	-51.104	-0.072	0.034
-517.902	-169.562	-0.541	-0.020
-516.887	-33.609	0.148	-0.081
-515.872	800.000	-0.010	-0.035
-514.858	58.510	-0.047	-0.046
-513.843	-200.000	-0.027	-0.194
-512.829	-157.754	-0.151	-0.009
-511.814	-200.000	-0.060	-0.307
-510.799	-200.000	0.008	0.311
-509.785	59.017	0.119	0.117
-508.770	-53.864	-0.106	-0.048
-507.756	53.222	0.126	-0.121
-506.741	800.000	-0.028	-0.081
-505.726	315.886	-0.068	0.129
-504.712	11.928	-0.074	-0.057
-503.697	-46.481	0.347	-0.170
-502.683	800.000	-0.069	-0.246
-501.668	654.310	-0.103	0.263
-500.653	-200.000	-0.027	0.192
-499.639	537.506	-0.139	-0.328
-498.624	-88.602	0.254	-0.075
-497.610	-94.680	0.027	0.007
-496.595	-200.000	-0.052	-0.254
-495.581	-200.000	-0.001	-0.007
-494.566	800.000	0.038	-0.115
-493.551	247.032	-0.045	-0.075
-492.537	-52.567	0.075	0.035
-491.522	-100.121	0.027	-0.007
-490.508	27.003	-0.180	-0.151
-489.493	278.477	0.077	-0.136
-488.478	800.000	-0.087	-0.346
-487.464	-129.642	-0.446	-0.061
-486.449	800.000	0.071	-0.204
-485.435	-200.000	-0.018	-0.309
-484.420	-119.354	-0.321	0.056
-483.405	-200.000	-0.029	-0.143
-482.391	-200.000	0.046	0.217
-481.376	11.980	-0.117	0.089
-480.362	-31.843	-0.295	0.165
-479.347	-86.500	-0.348	0.107
-478.332	70.097	0.295	0.304
-477.318	296.350	-0.063	-0.114
-476.303	-84.025	-0.137	-0.043
-475.289	782.311	-0.103	0.280
-474.274	-21.780	0.122	0.074
-473.259	800.000	-0.047	-0.183
-472.245	-41.332	0.142	-0.073
-471.230	800.000	0.040	-0.121
-470.216	-25.110	-0.046	0.027
-469.201	-143.475	-0.246	0.023
-468.186	8.888	-0.207	0.155
-467.172	43.959	0.146	-0.133
-466.157	-25.011	0.133	-0.078
-465.143	-148.545	-0.241	0.020
-464.128	46.905	-0.025	0.023
-463.113	115.992	0.102	0.125
-462.099	209.066	0.242	0.377
-461.084	31.244	0.101	-0.086
-460.070	158.121	0.067	-0.093
-459.055	800.000	0.049	0.194
-458.040	-200.000	0.082	0.388
-457.026	-97.236	0.238	-0.062
-456.011	-200.000	0.021	-0.180
-454.997	196.508	0.116	0.176
-453.982	678.817	0.049	0.127
-452.968	-48.595	-0.343	0.164
-451.953	-200.000	0.006	-0.142
-450.938	24.964	-0.171	-0.141
-449.924	172.211	-0.122	-0.174
-448.909	800.000	0.020	0.071
-447.895	-177.098	-0.373	-0.009
-446.880	366.681	0.027	0.054
-445.865	11.866	0.098	0.075
-444.851	116.382	0.061	0.074
-443.836	-4.534	0.091	-0.062
-442.822	-116.065	0.231	-0.043
-441.807	618.377	-0.120	0.301
-440.792	246.807	-0.186	-0.313
-439.778	578.564	0.057	-0.138
-438.763	-39.452	0.081	0.042
-437.749	-118.448	0.335	0.059
-436.734	265.079	-0.099	0.172
-435.719	800.000	-0.023	0.092
-434.705	1.379	0.070	-0.050
-433.690	-74.694	0.123	0.044
-432.676	41.651	-0.250	-0.225
-431.661	178.527	0.141	-0.205
-430.646	-54.655	0.192	-0.086
-429.632	-150.380	-0.257	-0.020
-428.617	117.450	0.044	0.054
-427.603	-200.000	0.006	0.181
-426.588	8.709	-0.065	0.049
-425.573	800.000	-0.057	-0.203
-424.559	-200.000	-0.024	0.129
-423.544	-200.000	0.028	-0.133
-422.530	-148.463	-0.108	-0.009
-421.515	126.484	-0.180	0.226
-420.500	-200.000	0.012	0.280
-419.486	-75.765	-0.129	0.046
-418.471	-200.000	0.028	-0.191
-417.457	-133.278	-0.452	-0.057
-416.442	18.912	-0.218	-0.173
-415.428	-200.000	-0.038	0.486
-414.413	-90.063	-0.475	-0.138
-413.398	203.008	-0.153	-0.235
-412.384	-97.922	-0.472	0.121
-411.369	-25.153	0.238	-0.140
-410.355	-110.610	0.325	-0.067
-409.340	89.909	-0.242	0.269
-408.325	461.129	-0.208	0.460
-407.311	257.318	-0.081	0.138
-406.296	-70.119	-0.213	-0.081
-405.282	256.612	-0.074	0.126
-404.267	-200.000	-0.039	0.249
-403.252	103.183	-0.075	0.088
-402.238	-47.730	-0.207	-0.100
-401.223	-109.458	0.101	-0.021
-400.209	171.887	-0.103	0.147
-399.194	-133.887	-0.255	0.032
-398.179	-200.000	0.009	0.126
-397.165	-118.063	-0.262	-0.046
-396.150	-126.092	0.167	-0.025
-395.136	-200.000	-0.041	-0.446
-394.121	-35.880	0.292	0.157
-393.106	150.291	0.085	0.114
-392.092	6.720	0.087	-0.065
-391.077	758.495	0.099	0.266
-390.063	111.713	-0.060	0.072
-389.048	-46.257	-0.057	-0.028
-388.033	236.387	0.109	-0.179
-387.019	-70.287	0.170	-0.064
-386.004	47.563	-0.062	0.057
-384.990	137.411	-0.044	-0.057
-383.975	-81.840	0.102	0.033
-382.960	-23.631	0.150	-0.089
-381.946	-147.556	-0.114	0.010
-380.931	-109.421	0.165	0.035
-379.917	-156.173	-0.298	0.019
-378.902	-17.276	0.255	0.159
-377.888	-120.606	-0.108	0.018
-376.873	-73.025	-0.162	-0.059
-375.858	-51.897	-0.113	-0.052
-374.844	-95.034	-0.285	-0.076
-373.829	9.056	-0.207	0.155
-372.815	-41.873	0.318	0.162
-371.800	5.083	0.382	-0.279
-370.785	-122.980	0.292	0.047
-369.771	294.720	0.075	-0.137
-368.756	49.105	-0.143	0.133
-367.742	-42.671	0.363	0.183
-366.727	800.000	0.066	0.243
-365.712	-50.151	0.279	0.131
-364.698	-59.373	0.207	0.088
-363.683	525.758	0.044	0.102
-362.669	-116.441	-0.249	-0.046
-361.654	224.173	0.238	0.381
-360.639	-137.240	0.185	-0.021
-359.625	-55.984	-0.192	-0.085
-358.610	800.000	0.066	0.257
-357.596	5.042	0.215	-0.157
-356.581	-200.000	-0.001	-0.061
-355.566	800.000	0.109	-0.361
-354.552	-2.691	-0.171	0.119
-353.537	-126.784	0.398	-0.058
-352.523	214.257	0.079	0.124
-351.508	115.263	0.145	0.176
-350.493	800.000	-0.092	0.363
-349.479	-200.000	0.035	0.189
-348.464	-77.795	-0.208	-0.071
-347.450	-200.000	0.011	0.119
-346.435	8.304	0.162	-0.121
-345.420	-29.632	-0.224	-0.127
-344.406	-98.944	0.220	-0.055
-343.391	372.976	-0.046	0.093
-342.377	67.224	-0.089	0.090
-341.362	-200.000	-0.067	0.368
-340.348	26.842	0.086	-0.071
-339.333	-200.000	0.014	-0.321
-338.318	-93.795	-0.236	-0.064
-337.304	598.356	-0.077	-0.190
-336.289	-200.000	-0.012	-0.261
-335.275	190.870	0.137	0.204
-334.260	-84.994	-0.041	0.013
-333.245	-200.000	0.014	-0.326
-332.231	191.580	0.083	0.123
-331.216	-165.758	0.366	0.016
-330.202	65.285	0.317	0.318
-329.187	800.000	0.015	0.045
-328.172	-108.121	0.344	0.074
-327.158	-200.000	0.049	-0.358
-326.143	-200.000	0.051	0.265
-325.129	41.539	0.347	0.311
-324.114	-146.436	0.165	0.014
-323.099	68.160	0.268	-0.272
-322.085	-91.309	0.156	-0.044
-321.070	-63.129	-0.217	0.089
-320.056	53.610	0.144	-0.137
-319.041	-72.179	-0.261	0.096
-318.026	134.412	0.136	0.175
-317.012	800.000	-0.099	0.277
-315.997	3.789	0.210	-0.152
-314.983	-200.000	0.056	-0.425
-313.968	800.000	-0.087	0.269
-312.953	523.262	0.097	0.225
-311.939	1.041	0.177	0.125
-310.924	417.569	-0.168	-0.356
-309.910	-130.391	0.194	0.026
-308.895	-164.132	0.430	-0.020
-307.880	-61.900	0.179	0.074
-306.866	-59.547	-0.295	-0.125
-305.851	-200.000	0.009	0.106
-304.837	256.893	-0.229	0.390
-303.822	-1.253	0.390	0.272
-302.807	144.238	-0.166	0.219
-301.793	14.325	0.054	0.041
-300.778	60.725	-0.168	-0.165
-299.764	800.000	0.068	-0.234
-298.749	800.000	0.040	-0.139
-297.735	-120.031	0.207	0.035
-296.720	331.311	0.052	-0.099
-295.705	70.744	-0.095	0.098
-294.691	-60.734	0.165	-0.069
-293.676	109.026	-0.113	-0.134
-292.662	-51.535	-0.364	0.168
-291.647	-62.090	0.206	-0.085
-290.632	-73.768	0.093	0.034
-289.618	-157.781	0.117	0.007
-288.603	-49.916	-0.117	0.055
-287.589	-131.281	-0.225	-0.029
-286.574	-81.040	0.190	0.062
-285.559	-87.749	0.258	-0.077
-284.545	248.859	0.042	0.071
-283.530	-200.000	-0.006	0.033
-282.516	67.464	-0.241	0.244
-281.501	800.000	0.040	-0.137
-280.486	-49.089	0.350	0.166
-279.472	800.000	-0.009	0.037
-278.457	-200.000	-0.005	0.227
-277.443	4.387	-0.075	0.054
-276.428	-61.813	0.511	-0.211
-275.413	52.866	-0.259	-0.244
-274.399	-32.983	0.299	-0.164
-273.384	-89.751	0.274	0.079
-272.370	35.644	0.245	0.213
-271.355	121.104	-0.077	0.095
-270.340	-200.000	0.025	0.133
-269.326	258.664	-0.106	0.180
-268.311	-200.000	0.002	0.045
-267.297	-200.000	-0.003	-0.033
-266.282	800.000	0.032	-0.089
-265.267	-169.200	-0.156	0.006
-264.253	-76.040	0.250	-0.087
-263.238	416.247	-0.183	0.385
-262.224	256.379	0.103	0.175
-261.209	-200.000	-0.031	-0.199
-260.195	4.199	0.098	0.071
-259.180	212.238	-0.186	-0.289
-258.165	550.941	0.082	-0.194
-257.151	7.426	-0.303	0.224
-256.136	46.829	-0.085	-0.078
-255.122	-117.629	0.160	-0.028
-254.107	-200.000	0.017	0.150
-253.092	280.794	-0.081	0.142
-252.078	768.309	0.224	0.601
-251.063	250.800	-0.095	-0.160
-250.049	34.753	-0.247	-0.214
-249.034	-78.221	0.281	-0.095
-248.019	173.108	-0.106	0.151
-247.005	-4.301	-0.317	-0.217
-245.990	67.623	0.121	0.122
-244.976	65.774	-0.154	-0.154
-243.961	-74.026	0.435	-0.156
-242.946	62.153	-0.074	0.073
-241.932	-140.834	0.298	-0.030
-240.917	-166.186	-0.233	-0.010
-239.903	104.786	-0.281	-0.327
-238.888	-200.000	-0.027	-0.423
-237.873	-42.185	0.402	0.203
-236.859	-72.942	-0.117	0.042
-235.844	-95.689	0.297	-0.078
-234.830	800.000	-0.053	-0.212
-233.815	800.000	-0.034	0.110
-232.800	-41.134	-0.157	0.080
-231.786	-200.000	0.008	-0.066
-230.771	-77.967	0.134	0.045
-229.757	-33.578	-0.140	0.076
-228.742	-200.000	-0.066	-0.310
-227.727	-29.199	0.235	0.133
-226.713	-73.425	0.047	-0.017
-225.698	-200.000	-0.006	0.214
-224.684	-147.653	0.235	0.019
-223.669	-200.000	-0.374	0.000
-222.655	-99.853	0.201	0.050
-221.640	-192.484	-0.329	0.003
-220.625	84.365	0.086	0.093
-219.611	-83.389	-0.271	0.086
-218.596	-85.223	-0.416	-0.128
-217.582	70.114	-0.305	-0.310
-216.567	-151.334	0.269	0.020
-215.552	-39.767	0.214	0.110
-214.538	389.574	-0.121	0.246
-213.523	-200.000	0.043	0.237
-212.509	9.509	0.128	0.096
-211.494	128.193	0.309	-0.388
-210.479	0.085	0.203	-0.143
-209.465	35.054	-0.103	0.089
-208.450	-21.361	0.087	0.052
-207.436	-91.582	0.193	-0.054
-206.421	-71.570	0.180	0.066
-205.406	-200.000	-0.041	0.357
-204.392	372.294	0.123	0.245
-203.377	-100.704	0.269	0.065
-202.363	-140.389	-0.139	-0.014
-201.348	-104.402	0.180	-0.041
-200.333	33.703	0.306	0.263
-199.319	-95.227	0.100	-0.026
-198.304	-200.000	-0.042	0.263
-197.290	22.645	0.130	0.105
-196.275	800.000	0.068	-0.259
-195.260	115.202	0.059	0.071
-194.246	50.670	0.111	0.103
-193.231	-200.000	0.016	0.253
-192.217	-128.621	0.319	-0.044
-191.202	-110.590	-0.112	0.023
-190.187	22.714	-0.201	-0.162
-189.173	800.000	0.021	-0.087
-188.158	-130.159	0.133	-0.018
-187.144	-84.688	-0.358	0.111
-186.129	-200.000	-0.028	-0.240
-185.114	319.104	0.045	0.085
-184.100	-9.493	-0.077	0.050
-183.085	-200.000	0.010	0.096
-182.071	-200.000	-0.012	0.164
-181.056	-101.297	0.103	0.025
-180.042	-179.671	-0.385	0.008
-179.027	95.855	-0.186	0.209
-178.012	43.740	-0.307	0.277
-176.998	563.781	0.045	-0.108
-175.983	30.698	0.067	0.057
-174.969	-79.317	-0.469	-0.157
-173.954	-46.873	-0.119	-0.057
-172.939	20.812	0.168	-0.134
-171.925	-200.000	0.023	-0.131
-170.910	-1.298	-0.114	-0.079
-169.896	-200.000	-0.023	-0.233
-168.881	171.465	-0.060	-0.084
-167.866	237.418	0.370	-0.604
-166.852	800.000	-0.074	-0.220
-165.837	84.894	0.147	-0.158
-164.823	-200.000	-0.001	0.268
-163.808	800.000	-0.024	0.095
-162.793	26.340	0.190	-0.157
-161.779	96.672	-0.150	0.169
-160.764	-20.896	-0.099	0.060
-159.750	545.320	0.067	0.157
-158.735	-160.154	0.115	0.006
-157.720	9.409	0.253	-0.188
-156.706	-185.682	-0.176	-0.003
-155.691	76.044	-0.136	0.141
-154.677	98.083	-0.068	-0.077
-153.662	-200.000	0.023	-0.240
-152.647	-176.572	0.331	0.008
-151.633	-43.097	0.191	-0.095
-150.618	25.977	0.208	-0.171
-149.604	109.425	-0.178	0.209
-148.589	395.033	-0.066	0.135
-147.574	-85.407	-0.424	-0.130
-146.560	-2.976	0.112	0.077
-145.545	-200.000	0.027	0.140
-144.531	800.000	0.114	0.431
-143.516	-101.766	-0.222	-0.053
-142.502	130.885	0.215	0.271
-141.487	0.808	-0.122	0.086
-140.472	194.951	0.085	0.127
-139.458	-71.707	-0.330	-0.121
-138.443	-179.479	0.093	-0.002
-137.429	189.840	-0.299	0.441
-136.414	279.745	-0.093	-0.163
-135.399	-108.791	-0.046	0.010
-134.385	362.590	-0.107	-0.212
-133.370	59.542	0.141	0.137
-132.356	-200.000	-0.021	0.123
-131.341	-114.136	0.325	-0.062
-130.326	36.614	-0.157	0.136
-129.312	-200.000	-0.016	-0.097
-128.297	-89.829	0.210	-0.060
-127.283	-164.067	0.223	0.010
-126.268	34.829	0.040	-0.034
-125.253	-87.300	-0.199	0.059
-124.239	181.266	0.129	0.187
-123.224	279.057	-0.089	-0.156
-122.210	800.000	-0.080	-0.222
-121.195	800.000	-0.112	-0.389
