DTS Sentinel unit serial number:	SN413079Multiplexer serial number:	ORYXHardware model number:	OX4-SRSoftware version number:	ORYX F/W v4.00 Oryx Data Collector v3.7.2.0data status	okinstallation	princeton_trtdifferential loss correction	single-endedforward channel	channel 2reverse channel	N/Adate	2019/09/17time	17:23:35forward acquisition time	60.00reverse acquisition time	0.00gamma	496.2192k internal	0.2289k external	0.2289temperature offset calibration	0.9979default loss term (dB/km)	0.3790temperature slope calibration	1.0000multiplexer offset coefficient	1.0000multiplexer slope coefficient	1.0000fibre end	0.00T internal ref (°C)	43.06T ext. ref 1 (°C)	0.35T ext. ref 2 (°C)	38.89length (m)	temperature (°C)	Stokes	anti-Stokes-747.200	-4.545	-0.131	-0.092
-746.185	34.643	-0.287	0.257
-745.171	138.266	0.125	-0.168
-744.156	56.349	-0.219	0.218
-743.142	800.000	-0.139	-0.427
-742.127	-127.167	-0.192	0.029
-741.112	444.363	0.103	0.232
-740.098	-89.300	-0.151	-0.046
-739.083	800.000	-0.136	-0.440
-738.069	-200.000	-0.004	0.197
-737.054	-30.449	0.272	0.158
-736.039	800.000	-0.059	-0.225
-735.025	101.925	0.291	0.347
-734.010	44.750	-0.182	-0.172
-732.996	546.631	0.074	0.181
-731.981	-47.492	0.214	0.107
-730.966	-98.724	-0.106	-0.028
-729.952	-33.113	0.253	-0.144
-728.937	800.000	0.057	-0.257
-727.923	-99.288	0.094	0.024
-726.908	-176.873	-0.176	-0.005
-725.894	-53.182	0.370	-0.174
-724.879	-200.000	0.091	0.417
-723.864	-93.125	-0.489	0.139
-722.850	-200.000	-0.014	0.065
-721.835	163.143	-0.149	0.214
-720.821	-78.577	-0.133	0.046
-719.806	-142.551	0.216	0.022
-718.791	-106.096	-0.256	-0.059
-717.777	-137.265	-0.129	0.015
-716.762	-52.955	0.177	-0.083
-715.748	-47.415	-0.265	-0.132
-714.733	-80.147	-0.261	-0.090
-713.718	-97.727	0.102	0.027
-712.704	800.000	0.122	-0.443
-711.689	199.519	-0.115	-0.180
-710.675	42.964	-0.380	-0.354
-709.660	-151.591	0.204	-0.015
-708.645	-200.000	0.034	-0.281
-707.631	297.119	0.105	0.198
-706.616	-8.507	-0.120	0.082
-705.602	-200.000	0.004	0.112
-704.587	-101.579	-0.201	0.050
-703.572	-52.663	-0.268	0.126
-702.558	-87.296	-0.181	0.056
-701.543	240.886	-0.027	-0.046
-700.529	-200.000	0.011	-0.353
-699.514	111.372	0.007	-0.009
-698.499	26.316	-0.061	0.052
-697.485	-104.957	0.165	-0.039
-696.470	-148.302	0.226	0.019
-695.456	-200.000	0.031	0.143
-694.441	38.938	-0.118	0.108
-693.426	800.000	0.069	-0.199
-692.412	-30.450	0.166	0.096
-691.397	-35.077	-0.166	-0.092
-690.383	-26.573	0.078	0.047
-689.368	93.050	-0.088	0.101
-688.354	64.021	0.099	0.101
-687.339	-200.000	-0.019	0.089
-686.324	-29.254	-0.067	0.040
-685.310	-29.291	0.223	-0.131
-684.295	-103.792	0.273	0.065
-683.281	129.050	-0.078	0.102
-682.266	27.065	0.121	-0.104
-681.251	-27.464	0.125	-0.074
-680.237	-200.000	-0.011	-0.528
-679.222	800.000	-0.048	0.174
-678.208	-200.000	-0.026	-0.470
-677.193	557.747	-0.073	0.180
-676.178	63.114	0.030	0.031
-675.164	46.919	-0.310	0.294
-674.149	-200.000	0.038	0.277
-673.135	195.224	0.048	0.074
-672.120	-200.000	0.024	0.395
-671.105	97.926	-0.123	-0.144
-670.091	-200.000	0.000	-0.269
-669.076	-200.000	0.020	0.104
-668.062	262.330	0.107	0.190
-667.047	-41.203	-0.240	-0.126
-666.032	129.081	0.069	-0.090
-665.018	-200.000	-0.001	0.201
-664.003	-200.000	-0.010	-0.161
-662.989	510.521	0.169	-0.401
-661.974	-94.401	0.598	0.167
-660.959	35.442	-0.210	-0.188
-659.945	123.394	-0.112	0.143
-658.930	-200.000	-0.013	-0.237
-657.916	-53.588	-0.130	0.061
-656.901	-200.000	0.016	-0.097
-655.886	800.000	0.086	0.268
-654.872	-91.103	0.228	0.067
-653.857	24.792	-0.268	-0.227
-652.843	538.851	0.028	-0.069
-651.828	-200.000	0.073	-0.411
-650.814	269.918	0.114	-0.205
-649.799	62.000	-0.147	0.150
-648.784	-11.927	-0.120	-0.080
-647.770	219.467	-0.094	-0.154
-646.755	68.799	0.090	-0.094
-645.741	-124.769	0.145	0.023
-644.726	333.645	-0.149	-0.293
-643.711	158.472	-0.031	0.043
-642.697	77.611	0.106	-0.115
-641.682	-200.000	0.032	0.143
-640.668	-131.206	-0.392	-0.053
-639.653	-16.580	-0.137	-0.089
-638.638	-114.384	-0.102	0.020
-637.624	800.000	-0.124	0.377
-636.609	357.155	-0.115	0.235
-635.595	119.702	-0.083	-0.104
-634.580	-200.000	0.065	0.307
-633.565	-123.813	0.508	0.082
-632.551	18.032	-0.187	0.152
-631.536	-127.718	-0.282	-0.042
-630.522	12.239	-0.244	0.191
-629.507	48.298	-0.183	-0.175
-628.492	-200.000	0.047	0.226
-627.478	-200.000	-0.094	0.448
-626.463	800.000	0.066	-0.213
-625.449	462.068	0.123	-0.279
-624.434	-107.712	-0.207	-0.046
-623.419	-28.920	-0.142	-0.083
-622.405	-51.423	-0.126	-0.060
-621.390	-43.477	-0.132	-0.068
-620.376	215.752	0.011	0.019
-619.361	-110.900	0.388	0.082
-618.346	106.328	-0.096	-0.115
-617.332	-200.000	-0.020	-0.328
-616.317	-81.276	0.262	0.088
-615.303	156.169	0.069	-0.097
-614.288	-94.975	0.376	-0.104
-613.273	-8.268	-0.309	-0.212
-612.259	131.417	0.259	0.339
-611.244	-123.823	0.074	-0.012
-610.230	-121.206	-0.139	0.024
-609.215	-47.126	-0.109	-0.054
-608.201	794.288	0.014	0.040
-607.186	-131.455	0.268	0.036
-606.171	421.021	-0.098	-0.214
-605.157	-48.192	-0.131	-0.064
-604.142	-77.433	-0.127	0.045
-603.128	132.843	-0.194	-0.255
-602.113	29.907	-0.188	-0.163
-601.098	150.718	0.142	0.197
-600.084	225.830	-0.136	-0.224
-599.069	-135.917	0.050	0.006
-598.055	789.464	0.055	-0.153
-597.040	474.655	-0.082	0.188
-596.025	56.439	0.205	-0.203
-595.011	800.000	-0.004	-0.016
-593.996	320.658	-0.059	-0.114
-592.982	800.000	-0.095	0.324
-591.967	800.000	-0.129	-0.366
-590.952	137.646	-0.101	-0.134
-589.938	122.583	0.042	0.054
-588.923	-200.000	0.017	-0.291
-587.909	-113.570	0.231	0.046
-586.894	-91.061	0.251	0.074
-585.879	337.106	-0.026	-0.051
-584.865	-200.000	-0.002	-0.027
-583.850	194.531	-0.146	-0.226
-582.836	800.000	-0.051	0.175
-581.821	-111.989	0.250	0.051
-580.806	-65.608	-0.107	-0.044
-579.792	800.000	-0.060	-0.206
-578.777	-1.771	0.357	0.256
-577.763	-200.000	-0.002	-0.294
-576.748	-177.895	0.075	0.002
-575.733	85.594	-0.417	-0.466
-574.719	495.084	-0.051	-0.120
-573.704	557.252	-0.156	-0.384
-572.690	131.014	-0.281	0.367
-571.675	-19.794	0.326	0.205
-570.661	137.874	0.135	-0.180
-569.646	82.956	0.136	-0.150
-568.631	4.519	0.412	-0.307
-567.617	40.386	-0.064	0.058
-566.602	-200.000	0.015	0.174
-565.588	83.039	0.213	0.236
-564.573	-137.043	-0.203	0.024
-563.558	800.000	-0.053	-0.184
-562.544	-70.377	0.333	-0.129
-561.529	132.155	0.137	-0.180
-560.515	800.000	0.039	0.120
-559.500	517.515	-0.042	-0.099
-558.485	-107.025	0.174	0.039
-557.471	415.307	-0.145	-0.315
-556.456	237.351	-0.121	-0.205
-555.442	-78.511	-0.121	-0.042
-554.427	148.079	-0.100	-0.137
-553.412	38.449	0.274	0.248
-552.398	281.749	-0.211	-0.384
-551.383	192.042	0.221	0.339
-550.369	-200.000	-0.057	0.260
-549.354	180.933	0.244	0.365
-548.339	-87.612	-0.253	0.078
-547.325	482.596	0.126	-0.292
-546.310	176.013	-0.029	-0.043
-545.296	-5.782	0.082	-0.057
-544.281	193.277	0.123	0.189
-543.266	-20.247	-0.223	0.139
-542.252	-5.320	0.217	0.152
-541.237	800.000	-0.070	0.230
-540.223	800.000	0.087	0.270
-539.208	309.788	0.144	0.273
-538.193	-200.000	0.043	0.271
-537.179	-200.000	0.050	0.320
-536.164	457.328	-0.072	-0.163
-535.150	-83.113	-0.169	0.055
-534.135	-73.336	-0.229	-0.085
-533.121	-122.978	0.228	0.037
-532.106	-123.825	0.257	-0.041
-531.091	-49.421	-0.136	0.066
-530.077	497.820	0.011	-0.027
-529.062	-37.087	0.223	0.121
-528.048	800.000	-0.081	0.254
-527.033	-40.162	-0.329	-0.174
-526.018	124.607	0.255	-0.326
-525.004	-43.498	0.112	0.057
-523.989	78.281	0.164	0.178
-522.975	298.842	-0.093	0.174
-521.960	-83.619	0.173	-0.056
-520.945	-200.000	-0.002	-0.232
-519.931	308.143	-0.025	0.048
-518.916	-200.000	-0.163	0.001
-517.902	95.339	0.109	-0.126
-516.887	6.915	0.178	0.135
-515.872	216.634	-0.184	-0.297
-514.858	101.896	0.158	-0.187
-513.843	-25.437	-0.271	-0.163
-512.829	-87.486	0.284	0.087
-511.814	107.268	-0.092	0.111
-510.799	-78.955	-0.253	0.088
-509.785	-46.225	0.334	0.167
-508.770	-42.162	0.252	-0.131
-507.756	-105.107	-0.160	-0.037
-506.741	-98.735	0.100	-0.026
-505.726	273.285	-0.124	-0.222
-504.712	-112.245	-0.209	-0.043
-503.697	-73.092	0.087	-0.032
-502.683	163.579	0.033	0.046
-501.668	-29.830	-0.214	0.124
-500.653	-107.834	0.175	0.039
-499.639	179.535	-0.168	-0.249
-498.624	800.000	0.148	0.514
-497.610	-129.433	0.097	0.014
-496.595	-200.000	0.011	-0.405
-495.581	800.000	-0.069	-0.283
-494.566	800.000	-0.063	0.214
-493.551	-6.182	0.313	0.217
-492.537	263.058	0.104	0.184
-491.522	-122.602	0.267	-0.044
-490.508	-200.000	0.018	0.082
-489.493	47.817	-0.050	-0.048
-488.478	-49.671	0.104	0.050
-487.464	-200.000	-0.040	-0.345
-486.449	-172.385	0.258	-0.008
-485.435	392.076	-0.108	-0.227
-484.420	-23.787	-0.221	0.134
-483.405	301.245	0.133	0.250
-482.391	-122.377	0.207	0.034
-481.376	31.256	0.098	-0.086
-480.362	-47.334	-0.043	-0.021
-479.347	-128.415	-0.090	-0.013
-478.332	-95.048	-0.034	0.009
-477.318	67.811	0.266	0.276
-476.303	-110.875	0.038	0.008
-475.289	800.000	0.128	0.373
-474.274	236.335	-0.166	-0.279
-473.259	-200.000	-0.066	-0.376
-472.245	-82.960	-0.244	0.080
-471.230	-200.000	-0.041	0.394
-470.216	800.000	0.053	0.175
-469.201	-94.861	-0.193	0.053
-468.186	-104.272	-0.049	0.011
-467.172	-86.273	0.278	-0.087
-466.157	128.443	-0.168	-0.217
-465.143	-200.000	0.022	0.113
-464.128	-97.506	-0.277	0.073
-463.113	-81.998	-0.065	0.021
-462.099	151.859	0.121	-0.167
-461.084	48.401	-0.050	0.048
-460.070	-51.474	-0.274	0.130
-459.055	198.248	-0.128	0.198
-458.040	146.388	-0.176	0.240
-457.026	74.619	0.120	-0.128
-456.011	-135.909	-0.345	0.041
-454.997	-65.183	-0.075	0.030
-453.982	78.632	0.128	0.139
-452.968	-63.004	-0.106	-0.044
-451.953	-200.000	0.027	-0.146
-450.938	-200.000	0.040	-0.206
-449.924	-200.000	-0.036	0.192
-448.909	185.323	-0.227	0.341
-447.895	174.990	-0.043	-0.064
-446.880	-46.214	-0.193	-0.096
-445.865	-200.000	0.010	-0.104
-444.851	800.000	-0.031	0.105
-443.836	52.124	0.206	0.199
-442.822	-109.173	0.258	-0.055
-441.807	41.975	-0.218	0.200
-440.792	-200.000	-0.024	0.245
-439.778	165.433	-0.159	0.227
-438.763	-15.350	0.067	0.043
-437.749	157.411	0.014	0.020
-436.734	-63.525	0.265	-0.110
-435.719	-103.597	0.074	-0.018
-434.705	-86.956	-0.078	0.024
-433.690	-21.313	-0.173	-0.107
-432.676	-8.544	-0.076	0.052
-431.661	102.181	-0.226	-0.268
-430.646	-169.324	-0.379	0.014
-429.632	189.716	0.203	-0.308
-428.617	-200.000	-0.022	0.178
-427.603	-38.712	-0.202	0.108
-426.588	800.000	-0.117	0.364
-425.573	-200.000	-0.017	0.234
-424.559	54.522	-0.240	-0.234
-423.544	800.000	-0.072	-0.239
-422.530	78.694	-0.174	-0.188
-421.515	-30.813	0.111	0.063
-420.500	800.000	-0.037	-0.120
-419.486	239.851	-0.073	0.122
-418.471	-200.000	-0.011	0.182
-417.457	-87.240	0.052	0.016
-416.442	613.928	-0.078	0.198
-415.428	-58.002	-0.078	-0.035
-414.413	160.723	0.252	0.356
-413.398	-200.000	0.015	-0.238
-412.384	43.085	-0.190	-0.176
-411.369	-103.597	-0.131	0.031
-410.355	-132.958	0.075	0.010
-409.340	-123.175	-0.322	-0.052
-408.325	-139.363	-0.184	0.020
-407.311	43.191	0.166	-0.153
-406.296	79.752	0.142	-0.154
-405.282	574.561	-0.181	0.446
-404.267	32.738	0.235	-0.205
-403.252	-200.000	0.004	-0.323
-402.238	48.389	-0.111	-0.105
-401.223	-36.838	0.145	-0.079
-400.209	-200.000	0.017	-0.110
-399.194	-200.000	-0.010	0.053
-398.179	-18.516	0.255	0.161
-397.165	-37.316	-0.210	0.114
-396.150	-174.841	0.184	0.005
-395.136	-2.084	0.115	-0.082
-394.121	191.258	-0.157	-0.239
-393.106	-200.000	-0.060	0.370
-392.092	-129.923	0.141	0.019
-391.077	143.383	-0.109	-0.146
-390.063	-200.000	0.030	0.249
-389.048	93.130	-0.088	-0.100
-388.033	63.688	-0.240	-0.244
-387.019	176.719	-0.033	-0.048
-386.004	-91.118	-0.270	0.078
-384.990	-5.650	-0.198	0.137
-383.975	568.878	-0.077	0.188
-382.960	-11.488	0.341	0.227
-381.946	-124.009	0.306	-0.049
-380.931	-21.720	0.114	0.070
-379.917	102.700	0.330	-0.390
-378.902	20.149	-0.189	-0.154
-377.888	-93.941	-0.132	-0.037
-376.873	-200.000	-0.005	-0.047
-375.858	-145.355	0.097	-0.009
-374.844	-200.000	-0.002	-0.092
-373.829	-200.000	0.026	0.129
-372.815	-46.710	0.246	-0.122
-371.800	546.501	-0.087	-0.209
-370.785	164.800	0.244	0.348
-369.771	367.224	0.097	0.199
-368.756	17.736	0.099	0.080
-367.742	196.681	-0.212	0.326
-366.727	-49.581	0.223	-0.107
-365.712	165.290	-0.154	0.220
-364.698	-129.286	-0.222	-0.031
-363.683	21.281	0.031	-0.025
-362.669	729.559	-0.124	0.334
-361.654	-50.369	0.311	-0.149
-360.639	57.104	0.098	0.096
-359.625	800.000	0.042	-0.145
-358.610	58.498	0.146	0.145
-357.596	-200.000	-0.032	0.197
-356.581	-140.231	-0.250	0.026
-355.566	-63.927	-0.255	0.105
-354.552	-174.312	0.265	-0.008
-353.537	-55.580	-0.169	0.076
-352.523	-200.000	0.019	0.147
-351.508	-195.216	0.249	-0.002
-350.493	-129.387	0.124	0.017
-349.479	-200.000	-0.014	0.230
-348.464	-32.123	-0.316	-0.178
-347.450	-190.975	-0.201	0.002
-346.435	-47.736	0.153	0.075
-345.420	11.629	-0.209	-0.162
-344.406	-200.000	0.035	-0.486
-343.391	-200.000	0.015	0.210
-342.377	466.689	-0.096	-0.217
-341.362	96.897	0.079	0.091
-340.348	-182.790	0.309	0.006
-339.333	-200.000	0.036	0.165
-338.318	-200.000	0.017	-0.083
-337.304	286.387	0.221	-0.402
-336.289	-44.328	-0.244	-0.123
-335.275	-81.030	-0.231	-0.077
-334.260	800.000	0.129	-0.469
-333.245	-2.437	-0.156	-0.110
-332.231	-200.000	0.012	-0.205
-331.216	74.766	-0.150	-0.160
-330.202	-78.353	0.233	-0.081
-329.187	687.928	0.059	-0.154
-328.172	44.945	0.197	0.183
-327.158	32.826	-0.242	0.211
-326.143	-200.000	-0.006	0.104
-325.129	170.977	-0.153	0.221
-324.114	-89.230	-0.154	-0.046
-323.099	-69.842	-0.207	0.080
-322.085	-200.000	0.062	-0.299
-321.070	33.275	0.279	0.244
-320.056	369.765	-0.135	-0.275
-319.041	-200.000	-0.000	-0.220
-318.026	245.590	-0.027	0.046
-317.012	86.091	0.137	0.152
-315.997	800.000	-0.137	0.421
-314.983	-4.793	-0.097	0.068
-313.968	-13.309	-0.321	0.210
-312.953	13.608	-0.087	-0.068
-311.939	-200.000	-0.028	-0.204
-310.924	800.000	0.075	0.228
-309.910	555.921	-0.074	0.180
-308.895	-90.939	0.187	-0.054
-307.880	-29.154	-0.269	-0.155
-306.866	-39.227	0.255	0.135
-305.851	487.910	0.102	-0.234
-304.837	532.233	0.040	0.096
-303.822	192.796	0.046	0.070
-302.807	-200.000	0.010	0.286
-301.793	-93.532	0.485	0.135
-300.778	-50.080	0.360	-0.172
-299.764	800.000	0.028	-0.116
-298.749	-156.954	-0.114	0.007
-297.735	270.276	0.100	0.178
-296.720	-92.193	0.099	-0.028
-295.705	336.194	-0.146	0.284
-294.691	-77.903	0.354	-0.123
-293.676	140.649	-0.060	-0.080
-292.662	164.609	-0.110	0.156
-291.647	-34.334	-0.084	0.046
-290.632	-83.244	0.123	0.040
-289.618	-128.980	-0.077	-0.011
-288.603	-141.847	-0.161	0.016
-287.589	-48.268	0.266	-0.129
-286.574	-189.550	-0.156	0.002
-285.559	146.246	0.073	-0.098
-284.545	800.000	-0.062	-0.220
-283.530	434.787	0.129	-0.283
-282.516	-200.000	0.022	-0.236
-281.501	5.146	0.085	0.063
-280.486	-94.578	0.290	0.079
-279.472	-74.542	-0.068	0.024
-278.457	-200.000	0.020	0.114
-277.443	340.779	-0.037	0.073
-276.428	-200.000	0.397	0.001
-275.413	-200.000	0.018	-0.172
-274.399	21.423	-0.309	-0.253
-273.384	-84.042	-0.116	0.037
-272.370	-58.823	0.097	0.042
-271.355	-1.751	0.043	0.031
-270.340	-104.460	-0.168	-0.039
-269.326	203.909	0.035	-0.054
-268.311	-181.069	0.116	-0.002
-267.297	379.036	0.067	0.137
-266.282	-200.000	0.026	0.199
-265.267	800.000	-0.103	-0.306
-264.253	-73.534	0.227	-0.083
-263.238	124.325	0.149	0.188
-262.224	-175.558	0.137	0.004
-261.209	-200.000	0.012	-0.237
-260.195	-200.000	0.001	-0.416
-259.180	-95.945	0.342	0.092
-258.165	101.215	0.265	-0.310
-257.151	-56.585	0.203	0.091
-256.136	-152.862	-0.193	-0.014
-255.122	-200.000	-0.015	0.140
-254.107	-200.000	-0.005	0.169
-253.092	-200.000	-0.016	0.145
-252.078	354.399	0.032	0.064
-251.063	-7.329	0.107	-0.073
-250.049	-200.000	0.000	-0.146
-249.034	117.159	-0.077	0.095
-248.019	518.805	0.155	-0.365
-247.005	-39.391	-0.235	0.124
-245.990	-70.587	-0.059	0.023
-244.976	-21.473	-0.140	0.086
-243.961	-77.712	0.131	-0.046
-242.946	-13.733	-0.214	-0.139
-241.932	800.000	-0.047	0.133
-240.917	-104.657	0.384	0.089
-239.903	37.898	-0.198	-0.177
-238.888	-137.258	0.257	-0.029
-237.873	-200.000	0.034	0.156
-236.859	229.889	0.142	-0.233
-235.844	800.000	-0.054	-0.217
-234.830	46.648	-0.163	-0.152
-233.815	149.858	-0.176	-0.240
-232.800	227.409	-0.130	0.212
-231.786	168.321	0.116	-0.165
-230.771	5.672	-0.205	0.152
-229.757	-62.206	-0.142	0.059
-228.742	333.296	0.247	-0.479
-227.727	406.404	0.029	0.061
-226.713	-200.000	-0.020	-0.098
-225.698	-144.341	-0.444	-0.042
-224.684	-99.080	0.175	0.045
-223.669	-200.000	-0.036	-0.456
-222.655	800.000	0.112	-0.321
-221.640	-89.645	0.171	-0.050
-220.625	-136.739	0.319	0.037
-219.611	-200.000	-0.029	0.346
-218.596	292.154	-0.073	-0.134
-217.582	-45.529	-0.111	-0.055
-216.567	-139.634	0.211	-0.023
-215.552	-6.831	0.310	0.212
-214.538	-200.000	-0.023	0.184
-213.523	400.354	0.039	0.082
-212.509	-159.955	0.232	0.013
-211.494	426.740	-0.043	0.092
-210.479	201.753	-0.094	0.145
-209.465	-200.000	0.003	-0.109
-208.450	329.699	0.176	0.340
-207.436	800.000	-0.094	0.295
-206.421	-200.000	0.006	0.049
-205.406	800.000	-0.057	-0.166
-204.392	146.945	0.083	-0.112
-203.377	119.626	0.248	-0.309
-202.363	645.785	-0.158	0.404
-201.348	-168.783	0.109	-0.004
-200.333	-200.000	0.006	0.139
-199.319	-133.334	0.087	-0.011
-198.304	228.986	-0.092	-0.151
-197.290	-200.000	-0.021	0.193
-196.275	-124.153	-0.442	-0.069
-195.260	-144.248	-0.414	0.039
-194.246	800.000	0.007	0.023
-193.231	210.196	-0.082	-0.129
-192.217	-70.935	-0.261	-0.099
-191.202	-13.430	-0.439	0.286
-190.187	-162.245	-0.205	-0.010
-189.173	-200.000	-0.002	0.173
-188.158	36.091	-0.200	-0.177
-187.144	-59.945	0.291	-0.125
-186.129	55.625	0.093	-0.090
-185.114	-19.783	0.219	-0.136
-184.100	274.624	0.132	0.234
-183.085	-60.780	-0.137	-0.058
-182.071	-168.180	-0.072	0.003
-181.056	-173.006	-0.147	-0.005
-180.042	164.672	-0.034	0.049
-179.027	169.040	-0.033	-0.047
-178.012	87.198	-0.066	0.073
-176.998	-94.712	-0.228	0.062
-175.983	248.898	0.042	0.071
-174.969	323.009	0.073	-0.139
-173.954	5.690	0.318	0.236
-172.939	538.060	-0.061	-0.146
-171.925	-79.507	0.071	0.024
-170.910	-38.148	-0.021	-0.011
-169.896	-200.000	-0.023	-0.172
-168.881	-77.199	0.285	-0.100
-167.866	4.001	0.171	-0.125
-166.852	-90.411	0.129	0.037
-165.837	90.397	-0.066	0.074
-164.823	186.353	-0.269	0.401
-163.808	324.304	0.278	0.533
-162.793	253.738	-0.039	-0.066
-161.779	-133.706	0.054	0.007
-160.764	3.999	-0.207	0.151
-159.750	-4.135	-0.139	-0.097
-158.735	-24.530	-0.330	0.197
-157.720	-58.089	-0.179	-0.078
-156.706	800.000	0.033	-0.124
-155.691	800.000	-0.059	0.221
-154.677	-98.801	0.197	-0.050
-153.662	-119.368	0.032	-0.006
-152.647	-151.572	0.304	-0.023
-151.633	-149.413	-0.134	0.011
-150.618	-200.000	0.034	-0.152
-149.604	800.000	0.072	0.287
-148.589	-119.563	0.052	0.009
-147.574	0.821	-0.123	0.088
-146.560	259.786	0.040	0.069
-145.545	-130.694	0.352	0.047
-144.531	457.318	-0.041	0.092
-143.516	-90.581	0.115	-0.033
-142.502	800.000	-0.037	0.124
-141.487	0.424	-0.150	0.108
-140.472	23.680	-0.299	-0.247
-139.458	-200.000	0.043	-0.207
-138.443	-200.000	-0.028	-0.181
-137.429	-200.000	0.024	0.272
-136.414	-65.331	-0.304	-0.123
-135.399	120.993	0.119	-0.148
-134.385	9.851	-0.376	-0.285
-133.370	214.442	0.105	0.166
-132.356	-12.990	0.184	-0.120
-131.341	-200.000	-0.013	0.128
-130.326	-73.319	0.085	-0.031
-129.312	-16.201	-0.077	-0.049
-128.297	-106.506	0.190	0.042
-127.283	342.056	0.100	0.196
-126.268	-3.064	-0.163	-0.113
-125.253	-116.864	-0.161	0.030
-124.239	-200.000	0.010	-0.113
-123.224	800.000	-0.069	-0.217
-122.210	800.000	0.125	0.417
