DTS Sentinel unit serial number:	SN413079Multiplexer serial number:	ORYXHardware model number:	OX4-SRSoftware version number:	ORYX F/W v4.00 Oryx Data Collector v3.7.2.0data status	okinstallation	princeton_trtdifferential loss correction	single-endedforward channel	channel 2reverse channel	N/Adate	2019/09/16time	02:43:35forward acquisition time	60.00reverse acquisition time	0.00gamma	496.2192k internal	0.2335k external	0.2335temperature offset calibration	0.9968default loss term (dB/km)	0.3790temperature slope calibration	1.0000multiplexer offset coefficient	1.0000multiplexer slope coefficient	1.0000fibre end	0.00T internal ref (°C)	27.75T ext. ref 1 (°C)	10.34T ext. ref 2 (°C)	22.38length (m)	temperature (°C)	Stokes	anti-Stokes-747.200	-173.482	0.245	-0.007
-746.185	62.769	-0.030	0.031
-745.171	537.172	-0.016	-0.037
-744.156	8.143	-0.141	0.107
-743.142	-112.987	-0.296	-0.059
-742.127	-40.521	-0.212	-0.111
-741.112	-200.000	0.015	-0.073
-740.098	-200.000	-0.025	0.157
-739.083	-123.661	0.071	0.011
-738.069	-200.000	0.051	0.231
-737.054	-106.465	0.299	0.067
-736.039	86.401	-0.082	0.090
-735.025	144.228	0.069	-0.092
-734.010	-135.454	-0.527	0.063
-732.996	-69.661	0.269	0.103
-731.981	-83.960	0.127	-0.041
-730.966	256.241	-0.118	0.204
-729.952	603.756	-0.146	0.364
-728.937	219.081	-0.034	-0.054
-727.923	-200.000	0.053	-0.319
-726.908	-200.000	-0.020	-0.461
-725.894	-31.188	0.158	-0.089
-724.879	-35.970	-0.102	0.055
-723.864	-44.840	-0.086	-0.043
-722.850	-124.369	-0.202	-0.032
-721.835	71.766	0.037	-0.039
-720.821	800.000	0.106	-0.324
-719.806	136.123	-0.100	-0.131
-718.791	-127.635	0.374	0.054
-717.777	8.246	-0.131	-0.098
-716.762	114.052	-0.236	0.289
-715.748	-17.263	-0.027	-0.017
-714.733	260.392	0.153	0.265
-713.718	-200.000	-0.014	-0.086
-712.704	800.000	-0.098	-0.306
-711.689	-23.817	-0.174	-0.104
-710.675	-176.367	0.431	0.011
-709.660	-46.431	0.304	0.150
-708.645	-36.337	0.225	-0.121
-707.631	800.000	0.016	-0.059
-706.616	-200.000	-0.011	-0.108
-705.602	-3.288	-0.160	-0.112
-704.587	-105.436	-0.209	0.048
-703.572	-42.996	-0.139	0.071
-702.558	-200.000	-0.050	-0.386
-701.543	-34.415	-0.161	-0.089
-700.529	-136.409	0.309	0.036
-699.514	-122.360	-0.267	0.044
-698.499	800.000	0.071	0.263
-697.485	-200.000	0.002	0.354
-696.470	554.687	-0.106	0.255
-695.456	-79.049	-0.219	0.075
-694.441	-53.359	-0.454	0.208
-693.426	-77.359	0.379	-0.132
-692.412	-48.533	-0.352	-0.170
-691.397	177.650	-0.173	-0.253
-690.383	800.000	-0.066	0.289
-689.368	-143.720	-0.350	-0.033
-688.354	71.409	-0.037	0.039
-687.339	238.178	-0.081	0.134
-686.324	-200.000	-0.019	-0.096
-685.310	-200.000	-0.101	0.526
-684.295	-132.528	0.164	0.021
-683.281	-10.283	0.061	-0.041
-682.266	-27.097	0.115	0.067
-681.251	-40.893	-0.426	-0.221
-680.237	-200.000	-0.019	0.115
-679.222	800.000	-0.050	0.150
-678.208	238.540	-0.192	0.320
-677.193	-44.129	0.244	-0.123
-676.178	-134.165	0.353	0.044
-675.164	70.584	0.198	-0.205
-674.149	-18.875	-0.128	0.080
-673.135	151.797	0.272	0.372
-672.120	11.415	-0.250	-0.192
-671.105	-22.946	-0.153	0.092
-670.091	800.000	-0.059	-0.237
-669.076	-200.000	-0.214	-0.001
-668.062	-109.401	0.277	-0.059
-667.047	-138.782	-0.278	0.030
-666.032	-105.988	0.310	-0.070
-665.018	-31.561	0.080	-0.045
-664.003	77.883	0.189	0.202
-662.989	59.382	-0.056	0.055
-661.974	20.239	-0.250	0.202
-660.959	-96.037	0.135	0.036
-659.945	-14.556	-0.267	-0.172
-658.930	188.787	0.157	0.235
-657.916	129.000	0.166	-0.212
-656.901	-46.176	-0.098	-0.048
-655.886	67.560	0.201	-0.206
-654.872	23.746	-0.140	0.115
-653.857	-65.541	-0.076	0.030
-652.843	-98.288	-0.319	0.082
-651.828	-8.079	0.406	0.274
-650.814	-200.000	-0.050	0.284
-649.799	760.422	-0.060	-0.162
-648.784	184.585	0.191	0.284
-647.770	-200.000	-0.025	0.433
-646.755	-125.979	0.220	-0.033
-645.741	-90.766	0.262	0.076
-644.726	137.253	0.025	-0.033
-643.711	-32.592	0.175	0.097
-642.697	38.492	-0.304	-0.271
-641.682	184.252	0.216	0.321
-640.668	800.000	0.127	0.359
-639.653	81.050	-0.078	0.084
-638.638	-89.449	0.125	0.037
-637.624	-61.195	0.054	-0.023
-636.609	-81.982	0.241	-0.079
-635.595	27.913	0.066	-0.055
-634.580	-162.716	-0.305	0.015
-633.565	7.683	0.101	0.076
-632.551	-136.649	0.108	-0.012
-631.536	336.930	-0.104	0.201
-630.522	366.374	0.073	-0.147
-629.507	800.000	0.107	0.364
-628.492	800.000	0.038	-0.159
-627.478	800.000	0.033	-0.121
-626.463	-65.752	-0.246	-0.098
-625.449	113.451	0.247	-0.300
-624.434	-200.000	0.032	0.238
-623.419	-200.000	-0.014	-0.286
-622.405	151.330	-0.166	0.226
-621.390	-109.435	-0.240	-0.051
-620.376	-93.291	0.249	-0.069
-619.361	-200.000	-0.005	-0.116
-618.346	-76.916	0.270	0.094
-617.332	194.257	-0.093	-0.141
-616.317	-97.178	0.131	-0.034
-615.303	1.036	0.257	0.184
-614.288	-71.808	0.324	0.121
-613.273	-200.000	-0.021	0.143
-612.259	-200.000	-0.009	-0.121
-611.244	-156.436	0.243	-0.015
-610.230	-100.750	0.304	-0.075
-609.215	40.917	-0.265	-0.239
-608.201	-200.000	-0.008	-0.244
-607.186	-79.761	0.276	-0.093
-606.171	-200.000	0.032	-0.174
-605.157	609.570	0.066	-0.166
-604.142	-182.927	0.234	-0.004
-603.128	-20.791	-0.255	-0.156
-602.113	-10.679	0.017	-0.011
-601.098	-178.449	-0.039	-0.001
-600.084	-200.000	-0.000	-0.010
-599.069	-73.109	-0.077	-0.028
-598.055	-23.573	0.165	-0.099
-597.040	56.169	-0.047	-0.046
-596.025	135.768	-0.183	0.239
-595.011	280.304	0.090	0.161
-593.996	-141.464	0.175	-0.018
-592.982	88.693	0.084	0.093
-591.967	58.510	-0.196	0.192
-590.952	144.303	0.014	-0.018
-589.938	-167.807	0.321	-0.013
-588.923	16.615	-0.085	-0.067
-587.909	-115.270	-0.210	0.040
-586.894	104.647	0.266	0.313
-585.879	-30.904	-0.289	-0.163
-584.865	35.592	-0.137	0.120
-583.850	106.769	0.148	0.175
-582.836	-200.000	-0.029	-0.393
-581.821	-200.000	0.015	-0.403
-580.806	-24.642	0.162	0.096
-579.792	-130.868	-0.247	-0.033
-578.777	235.615	0.192	-0.316
-577.763	-77.095	0.015	-0.005
-576.748	11.298	-0.281	-0.215
-575.733	800.000	-0.054	-0.227
-574.719	-136.421	0.146	-0.017
-573.704	162.028	-0.192	-0.268
-572.690	277.053	0.093	-0.164
-571.675	-83.911	0.388	-0.123
-570.661	177.473	-0.045	0.066
-569.646	372.504	0.062	-0.126
-568.631	-164.592	-0.148	-0.007
-567.617	567.663	0.161	0.390
-566.602	13.215	0.138	0.106
-565.588	-68.708	0.141	-0.054
-564.573	-23.843	-0.180	0.108
-563.558	800.000	-0.113	0.487
-562.544	-111.876	-0.469	0.094
-561.529	182.695	-0.087	-0.127
-560.515	282.477	0.037	0.067
-559.500	-200.000	0.043	-0.387
-558.485	7.637	-0.016	0.012
-557.471	-200.000	-0.029	-0.309
-556.456	32.103	0.196	0.168
-555.442	800.000	0.056	0.209
-554.427	-200.000	0.046	0.232
-553.412	179.061	0.137	-0.200
-552.398	38.514	0.280	-0.249
-551.383	-148.266	-0.078	-0.006
-550.369	-144.834	0.543	0.050
-549.354	-200.000	-0.039	-0.280
-548.339	-79.271	0.226	0.076
-547.325	-200.000	-0.000	-0.009
-546.310	-200.000	0.030	0.210
-545.296	50.444	0.298	-0.281
-544.281	-98.859	-0.309	0.078
-543.266	-112.262	0.521	0.104
-542.252	-96.052	-0.428	0.114
-541.237	-30.682	0.159	-0.090
-540.223	-37.529	-0.133	-0.070
-539.208	800.000	0.055	-0.181
-538.193	556.196	0.081	0.195
-537.179	17.959	0.237	0.189
-536.164	-64.613	0.328	0.133
-535.150	-72.352	0.135	-0.050
-534.135	145.876	-0.303	-0.405
-533.121	-59.531	0.074	-0.032
-532.106	162.712	0.175	-0.245
-531.091	800.000	0.068	0.269
-530.077	-29.723	-0.072	-0.041
-529.062	101.534	-0.192	-0.223
-528.048	596.653	0.037	0.092
-527.033	422.841	0.081	-0.174
-526.018	7.407	-0.091	-0.068
-525.004	6.873	-0.123	-0.091
-523.989	-170.579	-0.395	-0.014
-522.975	18.691	0.201	-0.160
-521.960	-200.000	0.025	0.315
-520.945	-12.416	0.078	0.051
-519.931	-135.090	-0.508	-0.061
-518.916	50.472	0.309	-0.291
-517.902	17.395	-0.156	0.123
-516.887	800.000	-0.070	0.228
-515.872	-200.000	-0.032	0.239
-514.858	-149.723	0.197	0.015
-513.843	-117.814	0.305	-0.055
-512.829	800.000	0.077	0.320
-511.814	-182.757	0.207	-0.004
-510.799	-111.334	0.191	-0.039
-509.785	205.766	-0.044	0.069
-508.770	623.289	0.011	0.027
-507.756	-94.342	0.064	0.017
-506.741	431.294	-0.134	0.288
-505.726	-200.000	-0.022	0.238
-504.712	-159.797	-0.239	-0.013
-503.697	151.634	0.129	-0.175
-502.683	408.543	0.090	-0.190
-501.668	-163.165	0.096	0.005
-500.653	-25.476	-0.111	0.065
-499.639	-187.651	-0.190	0.002
-498.624	-149.833	-0.167	0.013
-497.610	-53.397	0.104	0.047
-496.595	39.089	0.138	-0.122
-495.581	-104.168	-0.088	0.020
-494.566	18.397	-0.176	0.140
-493.551	8.338	-0.158	0.118
-492.537	-165.841	0.455	-0.019
-491.522	83.210	-0.248	0.269
-490.508	-100.564	-0.343	-0.084
-489.493	-137.829	0.136	0.015
-488.478	-55.086	0.034	0.015
-487.464	-200.000	0.008	-0.192
-486.449	-36.974	-0.241	0.128
-485.435	-200.000	-0.027	0.293
-484.420	-200.000	0.068	-0.313
-483.405	-200.000	0.011	0.112
-482.391	800.000	-0.128	-0.365
-481.376	584.145	0.084	-0.205
-480.362	330.226	-0.097	0.185
-479.347	-153.756	-0.231	-0.016
-478.332	-200.000	0.010	-0.057
-477.318	-177.333	-0.206	-0.005
-476.303	-86.323	-0.456	-0.139
-475.289	-49.328	0.276	0.131
-474.274	-200.000	-0.067	-0.454
-473.259	-200.000	-0.012	-0.452
-472.245	248.025	-0.152	0.255
-471.230	800.000	0.135	0.498
-470.216	-142.714	0.142	0.014
-469.201	304.309	-0.022	0.041
-468.186	-49.007	-0.174	-0.083
-467.172	-143.439	0.047	0.004
-466.157	55.969	0.277	0.267
-465.143	159.857	-0.131	0.182
-464.128	-21.532	-0.380	0.230
-463.113	-124.553	0.186	0.029
-462.099	800.000	-0.057	0.180
-461.084	13.664	-0.216	0.167
-460.070	674.918	0.071	0.182
-459.055	800.000	0.049	0.195
-458.040	800.000	-0.037	0.115
-457.026	-3.526	0.136	-0.094
-456.011	145.805	-0.112	-0.150
-454.997	-200.000	-0.014	-0.155
-453.982	-86.807	-0.105	0.032
-452.968	-151.770	-0.218	-0.016
-451.953	-200.000	0.003	0.036
-450.938	-40.686	-0.189	0.098
-449.924	262.955	0.251	0.433
-448.909	-200.000	-0.025	-0.141
-447.895	91.307	0.144	-0.160
-446.880	193.260	0.008	-0.011
-445.865	18.572	-0.313	-0.249
-444.851	224.561	-0.044	-0.071
-443.836	-102.181	-0.155	0.037
-442.822	800.000	0.050	-0.191
-441.807	424.531	-0.059	0.126
-440.792	-4.760	0.316	-0.216
-439.778	-70.200	-0.256	0.097
-438.763	404.339	0.169	-0.354
-437.749	-155.023	0.269	-0.018
-436.734	-104.698	0.272	-0.062
-435.719	305.775	-0.067	0.124
-434.705	-46.061	-0.302	0.148
-433.690	-100.882	0.021	-0.005
-432.676	-156.562	0.206	0.013
-431.661	8.734	0.165	0.123
-430.646	141.143	-0.027	0.035
-429.632	-129.837	0.149	-0.020
-428.617	62.050	-0.079	-0.078
-427.603	800.000	-0.097	0.270
-426.588	174.646	-0.116	0.166
-425.573	574.718	-0.057	0.138
-424.559	296.783	0.122	-0.222
-423.544	800.000	-0.037	-0.102
-422.530	20.549	0.148	-0.119
-421.515	-59.675	-0.084	0.036
-420.500	-200.000	0.031	0.272
-419.486	10.163	0.162	-0.122
-418.471	-200.000	-0.030	0.347
-417.457	185.528	-0.181	-0.267
-416.442	-56.237	0.184	0.081
-415.428	-25.595	-0.120	-0.070
-414.413	-105.829	0.132	0.030
-413.398	-11.103	-0.271	0.177
-412.384	800.000	0.085	-0.287
-411.369	-84.093	-0.157	0.049
-410.355	57.782	-0.183	0.178
-409.340	50.237	-0.372	-0.349
-408.325	-200.000	0.011	0.110
-407.311	800.000	-0.059	0.183
-406.296	0.685	0.203	-0.144
-405.282	-42.726	-0.320	0.162
-404.267	49.824	0.279	0.261
-403.252	-70.769	0.082	0.031
-402.238	169.372	0.058	0.083
-401.223	546.938	0.085	0.201
-400.209	-89.362	0.248	0.072
-399.194	239.379	0.116	-0.192
-398.179	204.452	-0.064	0.098
-397.165	-200.000	-0.034	0.226
-396.150	-200.000	0.056	0.354
-395.136	-192.807	-0.135	-0.001
-394.121	-200.000	0.008	0.243
-393.106	92.057	0.077	-0.085
-392.092	-5.625	0.022	0.015
-391.077	800.000	0.008	-0.025
-390.063	-71.512	0.069	0.026
-389.048	-93.712	-0.098	0.027
-388.033	800.000	-0.047	0.131
-387.019	-60.300	-0.177	-0.075
-386.004	-143.160	0.397	0.038
-384.990	684.069	-0.031	0.081
-383.975	-200.000	-0.240	0.000
-382.960	800.000	0.033	-0.128
-381.946	341.386	0.048	0.094
-380.931	1.237	-0.229	0.163
-379.917	333.294	-0.049	-0.094
-378.902	190.641	-0.112	0.166
-377.888	-57.407	-0.184	0.080
-376.873	503.384	0.046	0.105
-375.858	121.269	-0.158	-0.195
-374.844	-58.270	-0.053	-0.023
-373.829	29.456	0.087	0.073
-372.815	-200.000	-0.052	-0.265
-371.800	9.422	0.123	0.092
-370.785	33.599	-0.149	0.128
-369.771	625.818	0.119	-0.298
-368.756	72.154	0.114	-0.118
-367.742	800.000	-0.082	0.294
-366.727	-107.817	0.186	-0.040
-365.712	334.046	-0.138	-0.264
-364.698	-200.000	0.029	-0.263
-363.683	-140.459	0.280	0.029
-362.669	800.000	0.040	0.134
-361.654	-200.000	-0.007	0.049
-360.639	-200.000	-0.010	0.076
-359.625	-85.378	0.088	0.027
-358.610	167.341	0.090	0.127
-357.596	-200.000	-0.048	-0.388
-356.581	-200.000	0.012	-0.126
-355.566	800.000	-0.113	-0.408
-354.552	199.664	0.080	0.122
-353.537	129.335	-0.108	0.137
-352.523	-131.448	-0.513	0.067
-351.508	62.436	0.057	0.057
-350.493	-200.000	0.022	-0.150
-349.479	800.000	0.081	0.228
-348.464	183.428	-0.216	-0.315
-347.450	60.125	0.058	0.056
-346.435	195.790	0.107	0.162
-345.420	198.260	0.138	-0.209
-344.406	-20.603	-0.096	0.059
-343.391	80.095	-0.268	-0.285
-342.377	1.097	0.018	0.013
-341.362	113.631	0.022	0.026
-340.348	-80.466	-0.089	-0.029
-339.333	10.606	-0.105	0.079
-338.318	-144.863	0.038	-0.003
-337.304	-134.779	0.426	0.051
-336.289	-88.395	0.090	0.027
-335.275	13.718	0.090	-0.069
-334.260	-200.000	-0.060	0.279
-333.245	-10.350	-0.045	-0.029
-332.231	41.288	-0.153	0.136
-331.216	85.374	-0.131	-0.142
-330.202	465.597	0.113	0.250
-329.187	384.689	0.096	-0.197
-328.172	554.321	0.047	0.111
-327.158	-37.307	0.047	-0.025
-326.143	62.964	0.044	-0.043
-325.129	640.225	0.189	-0.475
-324.114	-200.000	0.007	0.255
-323.099	-149.300	0.045	-0.004
-322.085	-100.124	0.259	-0.064
-321.070	51.598	-0.247	-0.232
-320.056	-200.000	-0.002	-0.199
-319.041	-200.000	0.004	0.144
-318.026	-200.000	-0.024	0.396
-317.012	-51.630	-0.167	0.077
-315.997	137.998	0.247	-0.319
-314.983	201.037	0.078	0.119
-313.968	-200.000	-0.066	-0.298
-312.953	67.744	0.102	-0.103
-311.939	245.683	-0.080	-0.133
-310.924	-63.301	0.190	-0.077
-309.910	-200.000	0.006	0.193
-308.895	77.836	0.119	0.126
-307.880	-79.217	-0.170	-0.057
-306.866	-65.449	-0.035	-0.014
-305.851	-36.468	-0.090	-0.048
-304.837	-4.985	0.058	0.039
-303.822	800.000	0.056	0.196
-302.807	49.818	-0.184	-0.171
-301.793	-34.592	0.101	-0.054
-300.778	-200.000	0.008	0.119
-299.764	-200.000	-0.045	0.232
-298.749	-66.409	-0.462	-0.181
-297.735	61.950	-0.093	0.091
-296.720	83.792	-0.085	-0.092
-295.705	-200.000	0.009	0.422
-294.691	-168.432	0.426	0.016
-293.676	78.772	0.242	0.255
-292.662	99.711	-0.064	-0.073
-291.647	74.657	0.457	-0.474
-290.632	-200.000	-0.054	-0.244
-289.618	-50.841	-0.110	0.051
-288.603	92.406	0.142	0.159
-287.589	521.039	0.109	-0.252
-286.574	47.721	-0.138	-0.127
-285.559	107.246	0.171	-0.201
-284.545	375.023	-0.153	0.307
-283.530	800.000	-0.110	0.393
-282.516	-140.218	-0.403	-0.042
-281.501	-77.707	-0.446	0.152
-280.486	408.386	0.037	0.078
-279.472	800.000	-0.018	-0.055
-278.457	800.000	0.049	-0.149
-277.443	250.560	-0.071	0.119
-276.428	-115.472	0.141	-0.026
-275.413	147.276	-0.179	-0.237
-274.399	116.493	0.147	0.177
-273.384	-200.000	-0.023	0.119
-272.370	-98.791	0.327	-0.082
-271.355	800.000	-0.035	-0.129
-270.340	-132.149	-0.338	0.043
-269.326	-79.440	-0.202	-0.067
-268.311	-123.190	-0.235	0.037
-267.297	10.106	0.094	-0.070
-266.282	-136.717	-0.097	-0.011
-265.267	-200.000	-0.024	0.118
-264.253	-116.282	0.087	-0.016
-263.238	51.967	0.269	0.253
-262.224	-90.427	-0.105	0.030
-261.209	-200.000	-0.009	0.143
-260.195	401.892	0.089	0.185
-259.180	44.774	0.160	-0.145
-258.165	42.591	0.171	0.154
-257.151	68.421	0.168	-0.170
-256.136	-168.033	-0.377	0.015
-255.122	-173.015	-0.296	0.009
-254.107	-36.931	0.272	-0.144
-253.092	-26.923	0.241	0.139
-252.078	-200.000	-0.063	0.289
-251.063	648.751	0.088	0.222
-250.049	800.000	-0.085	-0.305
-249.034	-200.000	-0.007	0.364
-248.019	305.328	-0.105	-0.192
-247.005	101.236	-0.203	-0.233
-245.990	594.001	-0.006	-0.014
-244.976	146.526	0.269	0.356
-243.961	-26.377	0.149	-0.086
-242.946	271.778	-0.118	0.205
-241.932	-30.339	0.059	-0.033
-240.917	18.842	-0.341	0.269
-239.903	645.192	-0.127	0.320
-238.888	45.333	0.006	0.005
-237.873	7.363	0.036	0.027
-236.859	-114.211	0.255	-0.049
-235.844	419.042	-0.095	0.199
-234.830	800.000	0.040	0.148
-233.815	720.566	-0.081	-0.213
-232.800	-200.000	0.022	-0.146
-231.786	800.000	-0.148	-0.410
-230.771	24.571	0.039	-0.032
-229.757	-122.355	0.056	-0.009
-228.742	800.000	-0.089	-0.293
-227.727	364.379	-0.027	0.054
-226.713	-15.037	0.250	0.158
-225.698	34.339	-0.178	0.153
-224.684	-28.056	0.094	-0.053
-223.669	-113.484	-0.157	-0.030
-222.655	-200.000	-0.012	-0.073
-221.640	-200.000	0.003	-0.059
-220.625	-200.000	-0.041	-0.391
-219.611	108.172	-0.236	-0.277
-218.596	544.596	-0.076	-0.179
-217.582	-107.081	-0.098	-0.021
-216.567	367.555	-0.078	-0.154
-215.552	25.974	0.225	0.185
-214.538	800.000	0.083	-0.305
-213.523	-160.156	0.091	0.005
-212.509	-87.117	-0.138	0.041
-211.494	800.000	0.102	-0.326
-210.479	13.367	-0.210	-0.160
-209.465	-200.000	-0.082	-0.405
-208.450	-163.239	0.398	0.019
-207.436	-14.960	-0.301	0.190
-206.421	67.926	-0.127	-0.128
-205.406	-87.677	-0.032	-0.009
-204.392	800.000	0.056	-0.212
-203.377	33.900	-0.088	0.075
-202.363	19.859	-0.200	-0.158
-201.348	-181.800	-0.229	-0.004
-200.333	329.209	-0.111	0.211
-199.319	-121.233	-0.392	-0.064
-198.304	115.896	0.168	-0.202
-197.290	800.000	0.046	0.133
-196.275	78.121	0.038	0.039
-195.260	-200.000	-0.025	-0.383
-194.246	158.829	-0.075	-0.102
-193.231	800.000	-0.052	0.172
-192.217	81.922	-0.133	-0.142
-191.202	100.028	0.050	-0.057
-190.187	-101.493	-0.280	-0.067
-189.173	-23.424	0.167	-0.098
-188.158	-74.499	-0.178	-0.063
-187.144	-68.030	-0.132	0.051
-186.129	76.767	-0.015	-0.016
-185.114	800.000	0.057	-0.198
-184.100	800.000	-0.109	0.404
-183.085	800.000	-0.081	-0.272
-182.071	-52.089	0.207	0.094
-181.056	-36.808	-0.204	0.108
-180.042	163.818	0.194	0.269
-179.027	-15.294	0.242	-0.152
-178.012	-200.000	-0.056	-0.341
-176.998	-30.416	0.230	0.128
-175.983	-180.142	-0.395	-0.008
-174.969	-200.000	0.043	0.316
-173.954	-4.188	0.160	0.109
-172.939	800.000	-0.080	0.233
-171.925	99.095	0.144	0.164
-170.910	-200.000	-0.053	0.364
-169.896	418.556	-0.041	-0.086
-168.881	-62.849	-0.104	-0.042
-167.866	-91.151	-0.427	0.120
-166.852	800.000	0.093	-0.350
-165.837	290.295	0.042	-0.075
-164.823	-147.938	0.272	-0.022
-163.808	-200.000	-0.035	0.166
-162.793	644.052	0.072	-0.181
-161.779	-1.161	0.127	0.088
-160.764	275.351	-0.224	-0.390
-159.750	-162.494	-0.351	0.017
-158.735	-200.000	0.029	0.235
-157.720	27.424	0.084	-0.070
-156.706	-81.562	-0.217	-0.070
-155.691	-73.359	0.424	-0.152
-154.677	-20.953	-0.387	0.233
-153.662	628.828	0.107	-0.265
-152.647	-197.347	0.171	-0.001
-151.633	-200.000	-0.012	0.301
-150.618	-152.589	0.272	0.019
-149.604	-129.452	-0.592	0.081
-148.589	388.450	-0.072	0.147
-147.574	-105.568	-0.243	-0.054
-146.560	108.947	0.162	0.190
-145.545	342.278	0.124	-0.238
-144.531	431.434	0.066	-0.140
-143.516	48.377	0.198	-0.182
-142.502	313.793	0.210	0.387
-141.487	-109.335	0.316	-0.066
-140.472	493.027	-0.126	0.284
-139.458	9.186	0.167	0.124
-138.443	102.294	-0.092	-0.106
-137.429	-51.470	0.203	-0.093
-136.414	-23.109	0.235	0.139
-135.399	-200.000	-0.063	0.480
-134.385	235.172	0.104	-0.168
-133.370	800.000	-0.031	0.113
-132.356	-200.000	0.000	-0.071
-131.341	-200.000	-0.041	0.299
-130.326	247.370	0.078	-0.129
-129.312	244.063	0.169	-0.277
-128.297	25.117	-0.376	0.306
-127.283	-200.000	-0.066	0.442
-126.268	800.000	0.038	0.120
-125.253	-26.175	-0.311	0.179
-124.239	-114.970	-0.095	-0.018
-123.224	800.000	0.032	-0.129
-122.210	-141.296	0.302	0.030
-121.195	66.342	-0.219	-0.219
