DTS Sentinel unit serial number:	SN413079Multiplexer serial number:	ORYXHardware model number:	OX4-SRSoftware version number:	ORYX F/W v4.00 Oryx Data Collector v3.7.2.0data status	okinstallation	princeton_trtdifferential loss correction	single-endedforward channel	channel 2reverse channel	N/Adate	2019/09/15time	07:39:35forward acquisition time	60.00reverse acquisition time	0.00gamma	496.2192k internal	0.2326k external	0.2326temperature offset calibration	1.0032default loss term (dB/km)	0.3790temperature slope calibration	1.0000multiplexer offset coefficient	1.0000multiplexer slope coefficient	1.0000fibre end	0.00T internal ref (°C)	30.62T ext. ref 1 (°C)	4.97T ext. ref 2 (°C)	25.52length (m)	temperature (°C)	Stokes	anti-Stokes-747.200	273.458	0.179	0.319
-746.185	334.669	0.048	0.094
-745.171	21.715	-0.039	0.032
-744.156	40.285	0.115	0.105
-743.142	41.266	-0.250	0.228
-742.127	62.809	-0.233	0.235
-741.112	339.372	-0.068	0.134
-740.098	-200.000	-0.011	0.064
-739.083	323.021	-0.012	-0.023
-738.069	60.154	-0.346	0.345
-737.054	-66.878	0.233	0.093
-736.039	8.768	-0.290	0.221
-735.025	133.819	-0.120	0.156
-734.010	-59.603	-0.256	-0.111
-732.996	53.623	-0.068	-0.066
-731.981	110.683	-0.026	0.031
-730.966	-200.000	-0.036	0.320
-729.952	24.043	0.100	-0.083
-728.937	-200.000	0.093	0.410
-727.923	-187.273	-0.140	-0.002
-726.908	98.767	-0.169	0.197
-725.894	-181.176	-0.319	0.006
-724.879	-200.000	0.062	0.295
-723.864	-51.790	0.184	0.086
-722.850	23.209	-0.167	0.138
-721.835	35.580	0.025	-0.022
-720.821	130.600	0.139	0.179
-719.806	237.289	-0.300	-0.501
-718.791	-144.473	0.283	-0.026
-717.777	143.843	-0.183	0.246
-716.762	-52.416	-0.154	0.072
-715.748	800.000	0.069	0.204
-714.733	713.880	0.051	-0.136
-713.718	-61.429	0.304	0.129
-712.704	-200.000	-0.030	-0.136
-711.689	-200.000	0.016	-0.125
-710.675	293.314	-0.038	0.070
-709.660	800.000	0.076	-0.293
-708.645	291.166	0.154	-0.282
-707.631	177.137	0.024	0.035
-706.616	800.000	-0.025	-0.084
-705.602	-114.826	0.266	0.051
-704.587	180.035	-0.120	0.178
-703.572	248.509	0.162	-0.277
-702.558	106.558	0.053	-0.063
-701.543	800.000	-0.018	0.079
-700.529	-140.435	0.194	-0.020
-699.514	-79.772	-0.108	0.037
-698.499	-200.000	0.003	0.323
-697.485	45.224	-0.118	0.109
-696.470	152.462	0.114	0.157
-695.456	-6.984	0.197	0.135
-694.441	3.201	-0.134	-0.098
-693.426	800.000	0.083	-0.244
-692.412	56.070	0.184	-0.180
-691.397	49.295	0.144	0.137
-690.383	303.990	0.018	-0.034
-689.368	131.216	0.171	0.221
-688.354	-93.509	-0.210	0.059
-687.339	-200.000	-0.033	-0.241
-686.324	-200.000	-0.015	-0.189
-685.310	800.000	-0.047	-0.156
-684.295	-32.856	0.220	0.123
-683.281	135.288	0.180	-0.235
-682.266	49.872	0.174	0.165
-681.251	-160.293	0.197	0.011
-680.237	-34.450	0.198	0.109
-679.222	-93.448	-0.183	0.051
-678.208	-200.000	0.016	0.109
-677.193	-200.000	-0.021	0.251
-676.178	-136.174	-0.199	0.023
-675.164	133.214	0.137	0.179
-674.149	48.967	-0.146	0.138
-673.135	290.384	0.142	0.259
-672.120	800.000	-0.045	-0.142
-671.105	52.153	0.152	-0.145
-670.091	78.134	0.109	-0.116
-669.076	431.800	-0.228	-0.496
-668.062	25.897	-0.208	0.174
-667.047	69.064	-0.075	-0.077
-666.032	-200.000	-0.048	-0.295
-665.018	800.000	0.049	0.197
-664.003	164.169	-0.062	-0.088
-662.989	800.000	-0.003	-0.010
-661.974	28.053	-0.192	0.163
-660.959	-138.434	-0.438	-0.048
-659.945	800.000	0.092	-0.391
-658.930	-99.177	-0.146	-0.037
-657.916	-28.676	-0.128	0.074
-656.901	-200.000	0.005	-0.063
-655.886	203.315	-0.165	0.257
-654.872	-76.137	0.329	0.117
-653.857	141.912	0.123	-0.164
-652.843	-86.599	-0.118	-0.036
-651.828	800.000	0.052	-0.205
-650.814	0.558	-0.110	0.079
-649.799	-63.935	-0.144	-0.059
-648.784	592.721	-0.108	0.267
-647.770	615.140	-0.042	-0.105
-646.755	-3.727	-0.132	-0.092
-645.741	-24.940	0.104	0.062
-644.726	800.000	-0.088	-0.288
-643.711	800.000	0.058	0.222
-642.697	250.015	0.074	-0.125
-641.682	-51.843	-0.201	-0.094
-640.668	-70.773	-0.154	0.058
-639.653	-200.000	-0.002	0.044
-638.638	-200.000	0.039	-0.358
-637.624	204.945	-0.062	0.097
-636.609	-48.623	-0.147	-0.071
-635.595	-27.241	-0.209	-0.122
-634.580	200.063	-0.090	-0.138
-633.565	800.000	-0.075	0.323
-632.551	-46.953	-0.132	0.065
-631.536	14.736	0.202	-0.158
-630.522	-121.589	0.179	-0.030
-629.507	-56.173	0.144	-0.064
-628.492	135.709	-0.198	0.258
-627.478	41.599	-0.109	-0.100
-626.463	800.000	-0.024	-0.088
-625.449	72.072	0.262	-0.274
-624.434	571.747	-0.162	-0.396
-623.419	-200.000	0.005	-0.025
-622.405	116.638	0.159	0.196
-621.390	118.342	-0.116	0.144
-620.376	-156.327	-0.078	-0.005
-619.361	495.843	0.096	0.222
-618.346	446.112	0.260	-0.574
-617.332	800.000	-0.103	0.284
-616.317	133.479	-0.235	0.305
-615.303	-194.585	0.192	-0.002
-614.288	47.166	0.191	0.179
-613.273	-24.010	0.168	-0.101
-612.259	-4.251	-0.316	0.219
-611.244	39.653	0.165	0.148
-610.230	-200.000	-0.022	0.099
-609.215	-108.904	0.198	0.043
-608.201	90.088	0.179	-0.201
-607.186	172.335	-0.234	0.338
-606.171	-106.175	0.084	0.019
-605.157	-110.989	-0.273	0.056
-604.142	-200.000	-0.006	0.073
-603.128	-95.286	0.157	0.043
-602.113	0.742	0.329	-0.237
-601.098	367.876	-0.035	0.070
-600.084	91.441	0.091	0.103
-599.069	68.327	-0.056	0.058
-598.055	-200.000	0.006	-0.204
-597.040	48.343	-0.138	-0.130
-596.025	195.185	-0.040	0.061
-595.011	-48.638	-0.286	-0.138
-593.996	-200.000	0.045	0.446
-592.982	-200.000	0.022	0.448
-591.967	189.229	-0.049	0.074
-590.952	394.955	-0.055	-0.116
-589.938	105.238	-0.148	-0.175
-588.923	-200.000	0.009	0.064
-587.909	-54.501	-0.139	-0.063
-586.894	-200.000	0.004	0.078
-585.879	-12.919	0.100	-0.065
-584.865	-144.992	-0.262	0.024
-583.850	-50.122	-0.238	-0.113
-582.836	649.491	-0.090	0.232
-581.821	-100.972	0.296	0.073
-580.806	-74.354	-0.273	0.099
-579.792	-177.395	0.301	0.007
-578.777	800.000	0.036	-0.113
-577.763	-140.631	0.243	-0.025
-576.748	61.894	-0.054	0.054
-575.733	-115.249	-0.239	0.045
-574.719	624.514	0.146	0.370
-573.704	104.160	0.123	0.145
-572.690	-114.973	-0.197	-0.038
-571.675	171.601	-0.159	0.228
-570.661	-43.474	-0.150	0.076
-569.646	-96.189	0.200	0.053
-568.631	284.868	0.125	-0.225
-567.617	-200.000	0.024	0.338
-566.602	105.579	-0.124	-0.147
-565.588	-98.294	-0.242	0.062
-564.573	586.436	0.057	0.140
-563.558	-200.000	-0.037	-0.212
-562.544	111.653	0.224	0.271
-561.529	-119.539	0.184	-0.032
-560.515	-99.352	0.278	0.070
-559.500	112.971	-0.144	0.175
-558.485	57.264	-0.323	0.316
-557.471	27.337	0.128	0.108
-556.456	-39.660	0.083	0.043
-555.442	295.751	-0.025	0.045
-554.427	-200.000	0.014	0.139
-553.412	-4.414	-0.096	0.066
-552.398	-19.617	0.209	0.129
-551.383	800.000	-0.072	0.314
-550.369	800.000	0.032	0.138
-549.354	90.918	0.185	-0.208
-548.339	800.000	0.042	-0.141
-547.325	-200.000	-0.056	0.457
-546.310	94.132	0.335	0.381
-545.296	-200.000	-0.009	0.284
-544.281	-141.577	-0.104	0.010
-543.266	-65.354	0.150	-0.060
-542.252	146.108	-0.133	-0.178
-541.237	-96.054	0.199	-0.053
-540.223	-114.039	0.151	-0.029
-539.208	24.313	0.112	-0.092
-538.193	800.000	0.130	-0.402
-537.179	-171.504	-0.245	-0.008
-536.164	-103.856	-0.366	0.086
-535.150	-128.066	-0.217	-0.031
-534.135	-110.182	0.252	0.053
-533.121	-141.438	0.111	-0.011
-532.106	-200.000	0.007	-0.161
-531.091	0.309	0.212	0.151
-530.077	-200.000	-0.031	0.272
-529.062	-137.825	0.108	-0.012
-528.048	-112.141	-0.121	0.024
-527.033	800.000	0.083	0.339
-526.018	108.760	0.104	-0.124
-525.004	800.000	-0.106	-0.372
-523.989	-200.000	0.000	0.063
-522.975	-58.922	0.260	0.112
-521.960	-200.000	0.011	-0.058
-520.945	48.443	-0.068	-0.063
-519.931	800.000	0.078	0.236
-518.916	-35.404	0.196	-0.106
-517.902	-200.000	0.016	0.076
-516.887	112.305	0.311	-0.375
-515.872	-59.187	-0.514	0.222
-514.858	-200.000	0.008	0.038
-513.843	582.738	0.073	-0.179
-512.829	13.777	-0.148	-0.115
-511.814	-200.000	0.023	0.169
-510.799	398.160	-0.212	0.443
-509.785	-64.884	-0.362	0.146
-508.770	-167.730	0.214	0.008
-507.756	24.231	-0.221	0.182
-506.741	175.691	0.193	-0.280
-505.726	-20.872	0.211	0.129
-504.712	-200.000	-0.315	0.001
-503.697	294.324	0.113	0.205
-502.683	104.410	-0.210	-0.247
-501.668	800.000	0.079	-0.239
-500.653	-200.000	0.039	-0.269
-499.639	-5.165	-0.382	-0.262
-498.624	-59.286	-0.244	-0.105
-497.610	-97.467	-0.124	0.032
-496.595	-29.716	0.148	0.085
-495.581	-124.422	-0.104	-0.016
-494.566	-61.302	-0.194	-0.081
-493.551	215.836	-0.047	0.074
-492.537	174.981	-0.197	-0.285
-491.522	264.250	-0.199	-0.346
-490.508	343.606	0.220	-0.431
-489.493	13.659	-0.196	-0.152
-488.478	29.245	0.034	0.029
-487.464	-116.280	0.272	-0.050
-486.449	115.953	0.268	0.327
-485.435	-200.000	0.017	-0.193
-484.420	-4.854	-0.191	0.132
-483.405	584.586	0.119	-0.292
-482.391	-2.513	-0.113	0.079
-481.376	420.888	-0.135	0.288
-480.362	22.259	0.253	-0.207
-479.347	348.796	-0.165	0.326
-478.332	57.356	-0.123	-0.120
-477.318	-108.576	-0.355	-0.076
-476.303	-200.000	-0.036	0.219
-475.289	-40.696	-0.189	0.098
-474.274	-200.000	-0.001	-0.067
-473.259	-140.541	0.308	-0.032
-472.245	-53.991	0.123	0.056
-471.230	-200.000	0.027	0.195
-470.216	199.913	0.065	0.100
-469.201	-200.000	-0.037	-0.198
-468.186	-25.126	0.071	-0.042
-467.172	-200.000	0.005	-0.066
-466.157	94.627	-0.104	-0.118
-465.143	-64.010	0.269	0.110
-464.128	19.005	0.146	0.117
-463.113	19.524	-0.155	-0.124
-462.099	65.447	-0.448	-0.452
-461.084	-200.000	0.046	-0.416
-460.070	-28.256	0.114	-0.066
-459.055	-125.885	-0.199	0.030
-458.040	-103.349	-0.121	0.028
-457.026	800.000	0.056	0.170
-456.011	396.982	-0.103	0.214
-454.997	234.434	-0.114	-0.188
-453.982	-138.160	0.524	-0.058
-452.968	-148.015	-0.254	0.021
-451.953	-200.000	-0.019	-0.292
-450.938	-200.000	0.020	0.176
-449.924	800.000	0.044	-0.157
-448.909	-200.000	-0.076	-0.334
-447.895	-116.943	-0.285	-0.052
-446.880	-137.505	-0.345	-0.039
-445.865	800.000	0.016	-0.055
-444.851	34.812	-0.158	-0.137
-443.836	161.306	0.114	0.159
-442.822	-93.834	0.182	0.050
-441.807	14.430	0.109	0.085
-440.792	-76.227	-0.438	-0.154
-439.778	205.839	-0.134	0.208
-438.763	74.884	0.115	-0.121
-437.749	800.000	-0.009	0.029
-436.734	-200.000	0.010	-0.199
-435.719	-200.000	-0.006	0.093
-434.705	-61.160	-0.112	0.047
-433.690	-175.012	0.234	-0.007
-432.676	-89.602	0.165	0.048
-431.661	151.903	0.117	0.160
-430.646	19.569	-0.136	0.109
-429.632	166.737	-0.187	0.264
-428.617	-200.000	-0.013	0.224
-427.603	238.263	0.101	0.167
-426.588	-200.000	0.006	0.132
-425.573	-150.228	-0.138	-0.011
-424.559	152.006	-0.221	0.301
-423.544	28.781	-0.059	-0.050
-422.530	-6.786	0.103	-0.070
-421.515	-80.402	-0.205	-0.068
-420.500	461.405	0.124	0.275
-419.486	-111.292	-0.306	-0.062
-418.471	-200.000	-0.065	-0.286
-417.457	-200.000	-0.009	0.162
-416.442	-13.801	-0.206	-0.133
-415.428	800.000	-0.068	0.261
-414.413	-200.000	0.004	0.039
-413.398	-125.524	-0.212	0.032
-412.384	800.000	0.023	-0.065
-411.369	-82.004	-0.287	0.093
-410.355	-89.105	0.228	0.067
-409.340	-200.000	-0.003	-0.448
-408.325	70.117	0.144	0.148
-407.311	414.345	0.138	0.292
-406.296	-68.332	-0.240	-0.093
-405.282	234.744	-0.028	-0.046
-404.267	160.145	-0.099	0.137
-403.252	-55.596	-0.257	-0.114
-402.238	800.000	-0.057	-0.184
-401.223	800.000	-0.032	0.105
-400.209	61.602	0.078	0.077
-399.194	-70.513	-0.290	0.109
-398.179	20.237	-0.226	-0.182
-397.165	-63.073	0.277	-0.114
-396.150	-69.038	0.133	0.051
-395.136	-200.000	-0.033	-0.168
-394.121	800.000	-0.092	0.322
-393.106	-84.129	0.202	0.064
-392.092	-107.214	0.094	-0.021
-391.077	264.285	0.042	-0.073
-390.063	12.594	0.208	0.160
-389.048	319.163	0.126	0.238
-388.033	800.000	-0.082	0.245
-387.019	563.452	-0.149	-0.359
-386.004	-66.422	0.081	-0.032
-384.990	185.535	0.064	-0.094
-383.975	201.954	-0.075	-0.115
-382.960	118.954	0.191	0.235
-381.946	180.750	-0.220	0.321
-380.931	-200.000	-0.080	-0.000
-379.917	200.089	0.176	0.269
-378.902	86.370	-0.163	0.178
-377.888	-178.328	0.263	-0.006
-376.873	-108.830	0.069	0.015
-375.858	-111.516	0.088	0.018
-374.844	329.513	-0.110	-0.210
-373.829	-109.807	0.123	0.026
-372.815	800.000	-0.053	0.162
-371.800	800.000	-0.012	0.036
-370.785	-149.464	0.188	-0.015
-369.771	-147.468	-0.109	0.009
-368.756	-47.390	-0.474	-0.229
-367.742	518.715	-0.072	-0.166
-366.727	800.000	-0.076	0.310
-365.712	-49.776	-0.133	0.063
-364.698	-78.779	0.179	-0.061
-363.683	82.582	0.176	0.190
-362.669	-84.264	-0.332	0.104
-361.654	-9.636	-0.166	-0.110
-360.639	-51.485	-0.182	-0.085
-359.625	-200.000	0.069	0.377
-358.610	-29.101	-0.376	0.214
-357.596	800.000	0.116	0.349
-356.581	88.407	0.110	-0.121
-355.566	268.248	0.037	-0.064
-354.552	-200.000	0.013	-0.131
-353.537	772.524	0.119	-0.322
-352.523	-124.877	-0.043	0.007
-351.508	176.647	-0.183	-0.265
-350.493	-88.016	0.247	0.074
-349.479	-93.992	0.060	0.016
-348.464	-60.055	0.278	-0.118
-347.450	-200.000	0.017	-0.162
-346.435	749.647	-0.077	0.207
-345.420	-37.540	-0.156	0.082
-344.406	-102.052	0.288	0.069
-343.391	-14.689	0.044	0.028
-342.377	800.000	0.101	-0.325
-341.362	-22.509	0.154	-0.093
-340.348	-138.603	-0.364	0.040
-339.333	111.435	0.138	-0.165
-338.318	-110.956	0.220	-0.045
-337.304	-200.000	-0.028	0.248
-336.289	536.511	-0.091	-0.216
-335.275	92.485	0.193	-0.216
-334.260	-21.578	-0.344	-0.208
-333.245	-100.495	0.224	-0.055
-332.231	556.428	-0.096	0.230
-331.216	3.904	-0.218	0.158
-330.202	497.197	0.081	-0.186
-329.187	188.796	-0.051	-0.076
-328.172	63.697	-0.171	0.170
-327.158	-58.964	-0.180	0.077
-326.143	800.000	-0.152	-0.441
-325.129	800.000	0.081	-0.297
-324.114	576.555	0.103	-0.250
-323.099	109.884	-0.139	0.166
-322.085	-68.646	0.369	-0.142
-321.070	366.306	0.147	-0.294
-320.056	-66.259	-0.302	0.119
-319.041	-110.204	0.137	0.028
-318.026	32.047	-0.216	-0.185
-317.012	226.331	-0.046	-0.074
-315.997	-75.065	0.097	-0.035
-314.983	366.662	0.098	-0.197
-313.968	-200.000	0.046	-0.335
-312.953	53.478	0.184	-0.175
-311.939	12.281	0.209	-0.159
-310.924	376.628	0.178	-0.361
-309.910	275.945	-0.074	-0.129
-308.895	800.000	0.097	0.372
-307.880	-200.000	-0.007	-0.075
-306.866	800.000	0.108	-0.305
-305.851	-4.021	-0.076	-0.052
-304.837	800.000	0.013	-0.043
-303.822	-200.000	0.010	-0.295
-302.807	-75.488	0.304	0.107
-301.793	409.103	-0.090	0.190
-300.778	-76.549	-0.327	-0.114
-299.764	-200.000	0.033	-0.217
-298.749	210.333	-0.120	-0.186
-297.735	800.000	-0.035	-0.117
-296.720	-200.000	0.013	0.328
-295.705	366.047	-0.058	0.116
-294.691	-33.337	0.063	-0.034
-293.676	94.028	0.255	-0.287
-292.662	54.137	0.175	0.167
-291.647	800.000	-0.027	0.105
-290.632	800.000	-0.053	0.161
-289.618	-200.000	-0.007	0.561
-288.603	-200.000	-0.002	0.196
-287.589	8.646	0.137	0.102
-286.574	179.107	-0.181	-0.262
-285.559	94.171	-0.035	-0.039
-284.545	-35.433	-0.198	0.106
-283.530	-60.482	0.067	-0.028
-282.516	800.000	-0.098	-0.328
-281.501	-200.000	-0.008	0.238
-280.486	-154.952	0.375	0.024
-279.472	66.777	0.015	-0.015
-278.457	-200.000	-0.029	0.132
-277.443	-200.000	-0.008	0.368
-276.428	310.682	-0.182	-0.338
-275.413	760.470	0.058	0.157
-274.399	402.696	0.118	-0.247
-273.384	-73.041	-0.112	0.041
-272.370	70.799	-0.108	0.111
-271.355	-139.393	0.243	-0.026
-270.340	-136.398	-0.249	0.029
-269.326	-18.186	0.073	-0.045
-268.311	-200.000	0.008	-0.499
-267.297	-200.000	0.003	0.345
-266.282	24.864	0.108	0.089
-265.267	-98.293	0.088	-0.022
-264.253	-168.194	-0.262	0.010
-263.238	-89.088	0.277	-0.081
-262.224	-41.589	-0.203	0.103
-261.209	180.164	0.115	-0.167
-260.195	24.024	-0.273	0.223
-259.180	-77.752	0.309	0.106
-258.165	86.421	0.109	0.119
-257.151	-200.000	0.026	0.245
-256.136	155.978	0.099	0.135
-255.122	800.000	-0.099	0.392
-254.107	-123.350	0.401	-0.063
-253.092	-7.852	0.314	0.210
-252.078	800.000	-0.084	-0.278
-251.063	-14.033	-0.180	0.115
-250.049	288.207	0.173	-0.310
-249.034	800.000	-0.069	-0.268
-248.019	-127.308	0.151	-0.022
-247.005	75.293	-0.164	-0.171
-245.990	88.482	-0.088	0.096
-244.976	-177.237	-0.078	-0.002
-243.961	-132.979	0.346	-0.043
-242.946	-41.943	-0.262	-0.133
-241.932	409.048	0.118	-0.247
-240.917	700.789	0.133	-0.347
-239.903	-200.000	-0.022	-0.562
-238.888	-200.000	-0.001	0.073
-237.873	86.497	0.044	0.048
-236.859	-200.000	0.030	0.295
-235.844	-124.598	-0.201	-0.031
-234.830	607.509	0.070	-0.172
-233.815	-200.000	0.033	0.167
-232.800	207.861	-0.111	-0.171
-231.786	38.152	0.296	0.261
-230.771	-25.386	0.077	-0.045
-229.757	766.577	-0.143	0.386
-228.742	244.030	0.096	0.159
-227.727	668.654	-0.069	0.176
-226.713	800.000	-0.062	0.251
-225.698	800.000	0.110	0.431
-224.684	31.285	0.069	0.058
-223.669	1.934	-0.282	-0.201
-222.655	-29.696	0.077	0.043
-221.640	171.993	-0.215	0.306
-220.625	-200.000	0.000	0.127
-219.611	-200.000	0.057	-0.354
-218.596	280.096	0.098	0.173
-217.582	-77.829	0.213	0.073
-216.567	-170.006	0.123	0.004
-215.552	-85.973	0.341	0.104
-214.538	97.357	0.113	-0.129
-213.523	-68.072	-0.073	-0.028
-212.509	-48.599	0.099	-0.047
-211.494	-108.856	-0.157	0.033
-210.479	-200.000	-0.008	0.214
-209.465	800.000	0.062	-0.241
-208.450	-113.095	-0.160	-0.031
-207.436	-19.932	0.130	0.079
-206.421	285.934	-0.075	-0.134
-205.406	-85.184	-0.180	-0.056
-204.392	68.794	0.182	0.184
-203.377	-108.071	-0.181	0.039
-202.363	-106.921	0.190	0.042
-201.348	-97.915	-0.121	-0.031
-200.333	-192.397	-0.270	-0.003
-199.319	768.957	0.021	-0.056
-198.304	-36.065	-0.212	-0.113
-197.290	-72.007	0.188	-0.069
-196.275	-34.159	-0.226	0.123
-195.260	21.389	0.520	-0.417
-194.246	96.497	0.245	-0.277
-193.231	-44.829	0.335	-0.165
-192.217	-22.120	0.200	0.120
-191.202	-68.010	0.178	-0.069
-190.187	-71.216	0.178	-0.066
-189.173	-52.758	0.333	0.152
-188.158	95.243	0.149	0.167
-187.144	-109.389	0.146	-0.030
-186.129	-94.818	-0.182	0.049
-185.114	282.684	0.135	-0.239
-184.100	800.000	0.090	-0.285
-183.085	-93.127	0.240	-0.066
-182.071	-152.011	0.136	-0.010
-181.056	-170.523	0.072	0.002
-180.042	-200.000	-0.024	-0.217
-179.027	-94.807	0.234	0.063
-178.012	-14.894	-0.236	0.150
-176.998	-154.060	-0.059	0.004
-175.983	-157.299	-0.087	-0.005
-174.969	-114.358	0.286	-0.054
-173.954	-116.719	-0.270	-0.049
-172.939	-200.000	-0.029	-0.165
-171.925	-43.111	0.179	-0.090
-170.910	-45.743	0.203	-0.099
-169.896	-17.682	0.260	0.161
-168.881	-161.769	0.070	0.004
-167.866	171.186	-0.287	0.405
-166.852	-200.000	-0.009	0.124
-165.837	-104.290	0.162	0.037
-164.823	127.394	0.134	-0.168
-163.808	-121.579	-0.138	0.023
-162.793	-200.000	-0.007	0.096
-161.779	-75.662	-0.260	0.091
-160.764	154.833	-0.071	-0.096
-159.750	-73.507	0.315	-0.113
-158.735	-99.519	-0.549	-0.136
-157.720	-30.057	0.213	-0.119
-156.706	-200.000	-0.030	-0.351
-155.691	101.594	-0.105	0.120
-154.677	800.000	0.041	-0.117
-153.662	88.967	-0.266	-0.292
-152.647	251.371	-0.150	-0.251
-151.633	-115.426	0.303	0.056
-150.618	-60.326	0.120	0.050
-149.604	398.772	0.093	-0.192
-148.589	323.314	0.070	-0.132
-147.574	-200.000	-0.074	-0.334
-146.560	245.915	0.231	-0.384
-145.545	-200.000	0.014	0.262
-144.531	444.299	-0.139	0.301
-143.516	89.064	-0.092	-0.101
-142.502	481.095	-0.092	-0.205
-141.487	-200.000	0.048	-0.319
-140.472	-176.525	0.119	-0.003
-139.458	-155.762	-0.167	0.011
-138.443	-10.792	-0.049	0.032
-137.429	-47.142	-0.053	-0.026
-136.414	613.992	0.156	0.384
-135.399	67.785	-0.048	0.048
-134.385	156.155	-0.073	0.099
-133.370	38.840	0.086	0.076
-132.356	-16.272	0.255	0.159
-131.341	800.000	0.121	0.343
-130.326	-162.854	0.188	0.009
-129.312	7.083	-0.127	0.093
-128.297	-88.256	0.068	-0.020
-127.283	-30.917	0.185	0.103
-126.268	800.000	-0.095	0.283
-125.253	-200.000	-0.012	0.205
-124.239	-19.751	-0.285	0.174
-123.224	-75.614	0.343	-0.120
-122.210	800.000	-0.078	0.219
-121.195	693.910	0.042	0.109
-120.180	-200.000	0.014	-0.067
