DTS Sentinel unit serial number:	SN413079Multiplexer serial number:	ORYXHardware model number:	OX4-SRSoftware version number:	ORYX F/W v4.00 Oryx Data Collector v3.7.2.0data status	okinstallation	princeton_trtdifferential loss correction	single-endedforward channel	channel 2reverse channel	N/Adate	2019/09/14time	13:43:35forward acquisition time	60.00reverse acquisition time	0.00gamma	496.2192k internal	0.2307k external	0.2307temperature offset calibration	1.0153default loss term (dB/km)	0.3790temperature slope calibration	1.0000multiplexer offset coefficient	1.0000multiplexer slope coefficient	1.0000fibre end	0.00T internal ref (°C)	37.86T ext. ref 1 (°C)	4.93T ext. ref 2 (°C)	32.73length (m)	temperature (°C)	Stokes	anti-Stokes-747.200	800.000	-0.027	-0.086
-746.185	-200.000	0.007	0.159
-745.171	27.769	0.044	-0.038
-744.156	557.456	0.101	0.248
-743.142	106.679	0.260	-0.313
-742.127	100.557	-0.045	-0.053
-741.112	-200.000	-0.006	0.171
-740.098	709.299	-0.061	0.164
-739.083	-200.000	0.028	0.173
-738.069	-200.000	-0.003	0.022
-737.054	51.479	-0.165	-0.159
-736.039	-72.116	0.257	-0.097
-735.025	13.402	0.155	-0.122
-734.010	-146.541	-0.196	-0.017
-732.996	-96.469	-0.228	-0.061
-731.981	-200.000	0.045	-0.321
-730.966	800.000	0.110	0.345
-729.952	-36.515	-0.262	-0.143
-728.937	-181.983	-0.242	0.005
-727.923	-99.443	-0.232	-0.059
-726.908	-200.000	-0.027	0.173
-725.894	-139.116	0.128	0.014
-724.879	-200.000	-0.008	-0.208
-723.864	577.420	-0.189	-0.469
-722.850	-200.000	-0.008	-0.205
-721.835	-195.037	-0.113	-0.001
-720.821	564.484	-0.117	-0.288
-719.806	800.000	-0.047	-0.181
-718.791	27.313	-0.182	0.156
-717.777	-89.556	-0.242	-0.072
-716.762	-169.696	-0.160	-0.006
-715.748	-152.949	-0.138	-0.010
-714.733	-200.000	-0.038	-0.544
-713.718	271.775	-0.043	-0.078
-712.704	-7.797	-0.101	0.069
-711.689	-200.000	0.025	-0.164
-710.675	-200.000	0.007	-0.187
-709.660	-91.829	0.156	-0.045
-708.645	-60.867	0.158	-0.068
-707.631	6.340	0.159	0.120
-706.616	-131.534	-0.154	-0.021
-705.602	32.763	0.194	0.170
-704.587	5.672	0.309	-0.232
-703.572	-29.149	-0.153	-0.089
-702.558	-18.958	-0.245	-0.155
-701.543	-83.685	-0.090	0.029
-700.529	477.882	0.186	0.427
-699.514	-200.000	-0.070	0.453
-698.499	31.940	0.038	-0.033
-697.485	-53.352	0.175	-0.081
-696.470	322.370	-0.088	0.170
-695.456	-200.000	-0.001	0.078
-694.441	-93.398	-0.258	-0.073
-693.426	-83.695	-0.044	-0.014
-692.412	-110.754	-0.125	0.026
-691.397	-22.132	-0.242	-0.149
-690.383	124.890	0.120	-0.153
-689.368	800.000	-0.039	-0.125
-688.354	164.224	-0.132	-0.189
-687.339	-63.391	-0.264	0.110
-686.324	22.037	0.239	-0.198
-685.310	407.721	-0.048	0.103
-684.295	-105.312	-0.117	-0.027
-683.281	-77.619	0.079	-0.028
-682.266	-200.000	-0.017	-0.154
-681.251	626.228	-0.094	0.241
-680.237	800.000	-0.070	-0.273
-679.222	194.197	0.214	-0.328
-678.208	-116.396	0.107	0.020
-677.193	16.791	-0.249	-0.200
-676.178	-163.091	0.084	-0.004
-675.164	60.276	-0.142	0.142
-674.149	221.300	0.043	-0.070
-673.135	155.518	0.128	-0.178
-672.120	114.358	0.092	0.113
-671.105	-108.837	0.029	-0.006
-670.091	-99.314	-0.049	-0.013
-669.076	-113.459	0.314	-0.062
-668.062	796.706	0.048	-0.134
-667.047	800.000	0.046	0.194
-666.032	-200.000	-0.042	0.201
-665.018	324.013	-0.083	-0.160
-664.003	-59.477	-0.059	-0.026
-662.989	-59.788	-0.134	-0.058
-661.974	-128.201	-0.026	-0.004
-660.959	-111.907	0.409	-0.084
-659.945	-52.677	-0.204	0.095
-658.930	-60.398	-0.236	-0.102
-657.916	-116.806	0.060	-0.011
-656.901	214.245	0.149	-0.239
-655.886	-119.197	0.109	-0.019
-654.872	-183.026	-0.198	0.004
-653.857	92.510	0.034	0.039
-652.843	-85.523	0.162	-0.051
-651.828	178.273	-0.243	-0.360
-650.814	-200.000	0.019	0.090
-649.799	163.121	-0.124	-0.177
-648.784	235.717	0.026	0.044
-647.770	568.602	0.075	-0.184
-646.755	-149.958	-0.122	-0.010
-645.741	52.899	-0.157	-0.152
-644.726	-200.000	-0.004	-0.190
-643.711	-41.082	-0.214	-0.112
-642.697	-88.698	0.198	0.059
-641.682	800.000	0.062	-0.258
-640.668	-200.000	0.029	0.168
-639.653	71.699	-0.110	0.116
-638.638	-171.342	-0.154	0.005
-637.624	-33.483	-0.355	0.199
-636.609	-47.083	0.058	0.029
-635.595	240.345	-0.282	-0.475
-634.580	-54.009	0.140	0.064
-633.565	-42.942	0.200	0.103
-632.551	8.868	-0.050	0.038
-631.536	-10.034	-0.121	0.081
-630.522	-71.071	0.149	0.057
-629.507	-89.359	-0.102	-0.030
-628.492	652.751	-0.060	0.155
-627.478	800.000	0.034	0.137
-626.463	-75.166	-0.171	0.062
-625.449	-71.320	0.200	-0.076
-624.434	58.171	0.232	-0.230
-623.419	190.106	-0.206	-0.313
-622.405	-200.000	0.039	0.318
-621.390	-200.000	0.028	0.673
-620.376	101.791	-0.074	0.087
-619.361	-38.337	0.266	0.143
-618.346	335.283	-0.024	-0.047
-617.332	-131.153	-0.253	-0.034
-616.317	104.814	-0.098	0.117
-615.303	150.065	0.173	0.238
-614.288	-73.735	-0.268	0.098
-613.273	-192.461	-0.040	-0.000
-612.259	-168.194	-0.049	-0.002
-611.244	146.614	0.137	-0.186
-610.230	7.942	-0.018	0.014
-609.215	8.236	-0.083	0.063
-608.201	214.173	0.016	-0.026
-607.186	23.620	-0.212	0.176
-606.171	47.025	-0.008	-0.008
-605.157	-200.000	0.002	-0.185
-604.142	-144.101	-0.102	0.010
-603.128	10.880	-0.299	0.231
-602.113	-65.387	0.093	-0.038
-601.098	156.561	-0.186	-0.260
-600.084	-35.281	-0.330	-0.181
-599.069	800.000	-0.049	-0.197
-598.055	182.975	0.044	0.066
-597.040	768.887	0.080	-0.221
-596.025	-90.558	0.338	0.099
-595.011	-77.611	0.101	-0.035
-593.996	44.363	0.237	0.220
-592.982	194.763	0.018	-0.027
-591.967	28.075	-0.202	-0.172
-590.952	-200.000	0.018	0.142
-589.938	800.000	0.032	-0.109
-588.923	-200.000	0.017	-0.308
-587.909	232.658	-0.014	-0.023
-586.894	19.933	0.037	-0.030
-585.879	105.016	0.097	-0.115
-584.865	81.783	0.144	0.157
-583.850	33.329	0.315	-0.276
-582.836	-200.000	-0.010	-0.202
-581.821	-136.317	0.089	-0.011
-580.806	52.802	0.251	-0.243
-579.792	-200.000	-0.006	0.035
-578.777	800.000	-0.029	-0.120
-577.763	42.106	0.077	-0.071
-576.748	-200.000	0.030	-0.234
-575.733	-200.000	-0.000	-0.083
-574.719	-147.789	0.047	-0.004
-573.704	-110.953	-0.238	-0.050
-572.690	60.215	0.122	0.122
-571.675	-200.000	-0.014	0.249
-570.661	-142.594	0.137	0.014
-569.646	-30.102	0.328	0.188
-568.631	-139.858	-0.364	-0.039
-567.617	128.984	-0.082	-0.105
-566.602	-67.445	-0.280	-0.111
-565.588	-60.012	0.275	-0.119
-564.573	-170.367	-0.358	-0.013
-563.558	-96.381	-0.163	0.044
-562.544	19.189	0.066	0.053
-561.529	-76.367	0.343	0.122
-560.515	-200.000	0.003	-0.310
-559.500	-200.000	0.016	0.081
-558.485	20.247	0.046	0.038
-557.471	79.848	-0.054	0.059
-556.456	-162.393	0.268	-0.013
-555.442	-0.759	-0.327	-0.234
-554.427	-153.586	-0.254	0.018
-553.412	176.900	-0.119	0.175
-552.398	-200.000	-0.046	-0.218
-551.383	0.285	-0.398	-0.286
-550.369	230.143	-0.321	0.529
-549.354	72.717	-0.066	-0.070
-548.339	-200.000	0.020	-0.227
-547.325	49.096	0.119	0.113
-546.310	800.000	0.041	-0.173
-545.296	-155.352	0.127	-0.008
-544.281	-55.608	-0.213	0.096
-543.266	-104.598	0.312	-0.073
-542.252	-56.977	-0.245	-0.109
-541.237	17.031	-0.191	0.152
-540.223	-200.000	-0.006	0.196
-539.208	-200.000	-0.006	-0.274
-538.193	-200.000	0.043	0.232
-537.179	-200.000	0.002	-0.192
-536.164	40.347	-0.063	-0.057
-535.150	-133.851	0.402	-0.050
-534.135	-162.687	0.292	0.014
-533.121	-122.153	-0.043	0.007
-532.106	-200.000	-0.092	0.433
-531.091	94.908	0.210	-0.241
-530.077	-101.215	-0.321	-0.079
-529.062	-146.381	-0.138	-0.012
-528.048	396.784	-0.035	-0.075
-527.033	-200.000	0.056	-0.422
-526.018	-77.999	-0.362	-0.126
-525.004	12.324	0.238	-0.185
-523.989	50.482	-0.162	0.155
-522.975	-156.867	-0.168	0.010
-521.960	135.127	-0.164	-0.215
-520.945	-169.687	0.143	0.005
-519.931	-193.435	-0.194	0.002
-518.916	40.221	-0.305	-0.276
-517.902	-111.833	-0.202	0.041
-516.887	800.000	0.043	-0.135
-515.872	-80.337	0.129	0.044
-514.858	721.557	-0.080	0.215
-513.843	-189.426	0.511	-0.006
-512.829	83.397	0.058	-0.063
-511.814	-133.861	-0.074	-0.009
-510.799	-88.603	0.351	0.105
-509.785	-14.752	0.216	-0.140
-508.770	364.876	0.206	-0.419
-507.756	416.996	0.017	-0.036
-506.741	-121.264	-0.413	0.069
-505.726	-65.404	-0.172	0.069
-504.712	800.000	-0.026	-0.089
-503.697	-100.810	0.226	0.056
-502.683	-200.000	0.051	-0.247
-501.668	30.538	-0.022	-0.019
-500.653	-200.000	-0.021	0.160
-499.639	-200.000	0.249	-0.000
-498.624	-61.829	-0.263	0.111
-497.610	-200.000	0.007	0.179
-496.595	147.242	0.076	0.103
-495.581	4.600	-0.135	-0.100
-494.566	-43.334	-0.280	-0.142
-493.551	378.453	-0.097	-0.200
-492.537	-200.000	-0.009	0.199
-491.522	-17.309	-0.305	-0.194
-490.508	-165.743	-0.143	-0.006
-489.493	-90.505	0.184	0.054
-488.478	-200.000	-0.023	0.175
-487.464	-164.040	-0.306	0.014
-486.449	-37.354	-0.090	-0.048
-485.435	-63.657	0.260	0.107
-484.420	83.799	0.203	0.222
-483.405	-36.599	0.125	-0.068
-482.391	92.162	0.099	-0.112
-481.376	31.900	0.205	-0.177
-480.362	800.000	0.054	0.214
-479.347	-172.677	-0.092	-0.003
-478.332	-32.324	-0.198	-0.111
-477.318	-121.849	0.345	-0.057
-476.303	-164.921	-0.511	-0.023
-475.289	67.116	-0.040	-0.041
-474.274	-79.323	-0.341	0.116
-473.259	-200.000	0.019	0.194
-472.245	-102.394	0.164	0.040
-471.230	-159.571	-0.142	-0.008
-470.216	-111.142	0.150	0.031
-469.201	164.600	-0.182	0.259
-468.186	10.378	-0.041	-0.031
-467.172	-144.597	-0.057	0.005
-466.157	-4.535	-0.068	-0.047
-465.143	-80.900	-0.159	0.053
-464.128	238.771	-0.088	0.147
-463.113	-1.630	-0.126	0.089
-462.099	-200.000	0.024	-0.142
-461.084	-2.422	-0.227	-0.160
-460.070	-128.478	0.341	-0.049
-459.055	62.944	0.232	-0.234
-458.040	33.009	-0.022	-0.019
-457.026	110.509	-0.104	-0.126
-456.011	-57.645	-0.371	-0.163
-454.997	59.459	0.064	0.064
-453.982	-120.911	0.251	-0.042
-452.968	-200.000	-0.044	0.201
-451.953	-59.696	0.029	0.012
-450.938	-200.000	-0.080	0.359
-449.924	800.000	0.056	0.181
-448.909	-88.882	-0.058	0.017
-447.895	-84.078	-0.324	0.103
-446.880	-98.667	0.460	-0.118
-445.865	21.701	0.169	0.138
-444.851	237.048	-0.076	0.126
-443.836	800.000	-0.106	0.421
-442.822	-120.623	0.333	-0.057
-441.807	-163.976	0.153	0.007
-440.792	23.061	-0.199	-0.164
-439.778	-3.004	0.235	-0.165
-438.763	-31.860	0.150	-0.085
-437.749	-29.142	-0.212	0.122
-436.734	-200.000	0.002	0.315
-435.719	-46.812	-0.315	-0.155
-434.705	800.000	0.044	-0.129
-433.690	79.182	-0.106	-0.115
-432.676	185.315	0.059	-0.087
-431.661	-30.882	0.060	0.034
-430.646	106.858	0.286	0.341
-429.632	9.731	0.137	0.105
-428.617	393.850	-0.135	-0.283
-427.603	-80.875	0.175	0.058
-426.588	-114.425	0.191	-0.037
-425.573	293.548	0.101	-0.185
-424.559	148.947	-0.130	0.177
-423.544	-200.000	0.125	-0.570
-422.530	388.786	0.071	0.147
-421.515	-200.000	-0.078	0.377
-420.500	347.496	0.034	-0.068
-419.486	-110.743	-0.125	-0.026
-418.471	171.405	0.065	-0.094
-417.457	417.518	0.079	0.170
-416.442	-45.959	0.176	0.087
-415.428	279.000	-0.077	0.137
-414.413	-135.555	-0.196	-0.023
-413.398	-14.661	0.245	0.158
-412.384	-72.871	0.037	0.014
-411.369	-113.996	0.304	-0.059
-410.355	340.298	0.112	0.219
-409.340	126.296	-0.127	0.161
-408.325	364.688	0.029	-0.058
-407.311	69.865	0.038	-0.040
-406.296	-144.529	-0.196	-0.018
-405.282	-32.137	0.185	-0.104
-404.267	195.966	-0.088	-0.134
-403.252	-113.006	0.148	-0.029
-402.238	-154.457	-0.144	0.010
-401.223	-200.000	0.007	-0.038
-400.209	12.521	0.124	0.096
-399.194	-86.369	-0.202	0.062
-398.179	-72.492	-0.078	-0.029
-397.165	790.315	-0.072	0.198
-396.150	29.613	0.041	0.035
-395.136	142.292	-0.102	-0.136
-394.121	375.947	0.212	-0.434
-393.106	-200.000	0.052	-0.357
-392.092	-72.871	0.165	-0.061
-391.077	-90.870	-0.334	0.096
-390.063	103.663	0.259	-0.305
-389.048	-77.860	0.094	0.032
-388.033	120.556	0.233	-0.290
-387.019	-100.770	-0.359	-0.089
-386.004	-8.915	0.195	-0.131
-384.990	-68.676	-0.258	-0.100
-383.975	-200.000	-0.034	-0.349
-382.960	-74.174	0.150	0.054
-381.946	21.552	0.098	-0.080
-380.931	34.118	0.155	0.135
-379.917	210.391	0.082	0.129
-378.902	190.275	0.119	0.179
-377.888	-126.451	0.204	0.030
-376.873	-200.000	-0.002	-0.260
-375.858	778.827	0.074	-0.203
-374.844	800.000	0.098	-0.342
-373.829	-104.085	0.256	0.060
-372.815	391.397	0.078	0.161
-371.800	49.647	-0.196	0.185
-370.785	-137.220	-0.055	0.006
-369.771	36.997	-0.094	0.084
-368.756	62.014	-0.283	-0.283
-367.742	-133.635	-0.069	-0.009
-366.727	-97.602	0.186	-0.048
-365.712	-65.408	0.154	0.062
-364.698	-200.000	0.013	0.110
-363.683	-200.000	-0.041	0.203
-362.669	688.017	0.065	-0.170
-361.654	-200.000	0.010	-0.114
-360.639	16.707	0.031	-0.024
-359.625	-85.071	0.102	-0.032
-358.610	-67.687	0.088	0.034
-357.596	-200.000	0.014	-0.167
-356.581	-145.124	-0.313	-0.028
-355.566	54.977	0.062	-0.060
-354.552	-108.553	0.106	0.023
-353.537	-106.333	-0.251	-0.056
-352.523	171.370	0.254	0.365
-351.508	-200.000	-0.189	-0.001
-350.493	-200.000	0.005	-0.114
-349.479	-48.153	-0.280	-0.135
-348.464	186.418	-0.061	0.091
-347.450	-124.038	0.162	-0.025
-346.435	128.683	0.137	-0.174
-345.420	-9.965	0.150	-0.100
-344.406	202.535	-0.103	0.159
-343.391	-200.000	-0.032	0.142
-342.377	-200.000	0.074	-0.348
-341.362	-92.025	-0.245	-0.069
-340.348	-200.000	0.011	0.174
-339.333	544.953	0.103	0.245
-338.318	-124.328	0.432	-0.067
-337.304	-139.286	0.455	-0.049
-336.289	-56.642	-0.226	0.100
-335.275	-44.649	0.186	0.093
-334.260	-135.868	-0.348	0.041
-333.245	-74.443	-0.139	0.050
-332.231	114.903	-0.093	-0.113
-331.216	11.860	-0.329	-0.253
-330.202	-44.709	-0.114	0.057
-329.187	-6.334	0.112	-0.076
-328.172	150.650	0.071	-0.097
-327.158	-29.546	-0.157	-0.090
-326.143	-144.880	0.172	0.016
-325.129	-175.221	0.072	0.002
-324.114	497.368	-0.049	0.113
-323.099	-79.120	-0.424	-0.144
-322.085	-20.070	0.379	-0.234
-321.070	800.000	0.029	-0.116
-320.056	253.901	-0.041	-0.070
-319.041	-101.069	0.185	0.045
-318.026	-200.000	0.037	-0.198
-317.012	-112.201	0.139	-0.028
-315.997	111.966	-0.197	-0.238
-314.983	800.000	0.029	-0.102
-313.968	-200.000	-0.011	0.157
-312.953	22.313	0.136	-0.111
-311.939	149.439	0.106	0.143
-310.924	-45.773	0.163	-0.081
-309.910	-147.348	0.095	0.008
-308.895	126.281	-0.182	-0.230
-307.880	-148.595	0.257	0.021
-306.866	800.000	-0.048	0.162
-305.851	584.997	0.070	0.172
-304.837	-41.295	-0.096	-0.049
-303.822	285.239	0.199	-0.358
-302.807	-103.640	0.262	-0.061
-301.793	302.966	-0.064	-0.118
-300.778	438.078	0.157	-0.342
-299.764	-155.886	-0.228	-0.015
-298.749	-155.549	0.151	-0.010
-297.735	-200.000	0.043	0.285
-296.720	-86.027	0.352	0.109
-295.705	-102.936	-0.150	0.036
-294.691	-200.000	0.002	-0.263
-293.676	577.154	0.018	0.045
-292.662	-53.671	-0.301	-0.138
-291.647	800.000	-0.041	0.124
-290.632	-106.027	-0.131	-0.029
-289.618	78.509	-0.251	0.268
-288.603	95.356	0.216	0.246
-287.589	-200.000	-0.004	0.473
-286.574	-36.710	-0.222	-0.119
-285.559	800.000	0.034	-0.131
-284.545	248.293	-0.126	0.213
-283.530	-46.463	-0.184	-0.090
-282.516	-156.309	-0.136	-0.009
-281.501	-1.168	-0.354	0.250
-280.486	138.097	0.068	0.089
-279.472	82.716	-0.045	0.049
-278.457	498.356	0.041	0.095
-277.443	-200.000	-0.002	-0.224
-276.428	25.005	0.116	0.096
-275.413	452.323	0.061	-0.134
-274.399	-80.468	-0.129	-0.043
-273.384	455.291	-0.160	-0.355
-272.370	95.522	-0.047	-0.054
-271.355	9.070	-0.162	-0.122
-270.340	-53.947	-0.215	0.098
-269.326	0.604	-0.053	-0.038
-268.311	12.424	-0.207	0.159
-267.297	86.403	-0.203	-0.223
-266.282	-200.000	0.414	-0.002
-265.267	-7.499	0.221	0.149
-264.253	-200.000	-0.023	0.239
-263.238	-52.719	-0.128	-0.059
-262.224	800.000	-0.055	0.205
-261.209	255.224	0.124	0.212
-260.195	307.368	0.096	-0.179
-259.180	91.613	0.228	-0.256
-258.165	572.722	0.074	-0.180
-257.151	274.704	-0.074	-0.131
-256.136	-200.000	-0.070	0.315
-255.122	-70.238	0.041	-0.016
-254.107	-90.121	0.233	0.068
-253.092	332.597	-0.135	0.261
-252.078	-20.478	0.335	0.205
-251.063	104.175	-0.221	-0.259
-250.049	-171.270	-0.237	-0.008
-249.034	-90.466	0.171	0.049
-248.019	-200.000	0.046	0.365
-247.005	-105.944	0.317	0.071
-245.990	-116.554	0.193	-0.035
-244.976	800.000	0.071	-0.261
-243.961	-160.540	-0.090	0.005
-242.946	-117.352	-0.144	-0.026
-241.932	-150.102	-0.263	-0.020
-240.917	-200.000	0.029	0.301
-239.903	-58.507	-0.152	-0.066
-238.888	-200.000	0.000	0.216
-237.873	209.359	-0.015	-0.023
-236.859	-101.057	0.355	-0.087
-235.844	-53.154	-0.154	0.071
-234.830	-130.053	-0.393	0.054
-233.815	-3.860	-0.091	0.063
-232.800	-119.784	-0.055	0.010
-231.786	800.000	-0.110	-0.327
-230.771	268.575	-0.131	-0.229
-229.757	-95.092	-0.292	0.079
-228.742	-154.511	0.305	-0.020
-227.727	418.269	-0.033	-0.071
-226.713	800.000	0.095	-0.285
-225.698	-115.182	0.271	0.051
-224.684	-200.000	0.025	0.216
-223.669	36.363	0.300	0.264
-222.655	-98.965	0.205	0.052
-221.640	85.244	0.298	0.326
-220.625	800.000	-0.078	0.264
-219.611	204.948	-0.095	0.147
-218.596	800.000	0.012	0.037
-217.582	490.931	-0.065	0.149
-216.567	153.499	-0.223	0.304
-215.552	77.085	0.268	0.283
-214.538	145.569	-0.122	0.163
-213.523	20.741	-0.123	0.100
-212.509	391.390	0.024	-0.050
-211.494	800.000	0.132	0.380
-210.479	-200.000	0.012	0.072
-209.465	-89.355	-0.078	0.023
-208.450	-122.028	-0.062	-0.010
-207.436	-96.300	0.162	-0.043
-206.421	-78.604	-0.151	-0.051
-205.406	-58.662	-0.125	-0.054
-204.392	141.065	-0.080	0.105
-203.377	-200.000	-0.063	0.386
-202.363	-56.541	0.139	-0.061
-201.348	78.411	0.104	-0.110
-200.333	-160.028	0.539	0.029
-199.319	800.000	-0.048	-0.160
-198.304	-70.755	-0.123	0.046
-197.290	-162.693	0.099	0.005
-196.275	388.953	-0.155	-0.319
-195.260	-150.611	-0.165	-0.013
-194.246	-200.000	0.003	0.043
-193.231	518.785	0.037	0.087
-192.217	-120.157	-0.024	0.004
-191.202	-200.000	-0.008	-0.119
-190.187	-41.092	-0.280	0.144
-189.173	67.572	0.120	0.122
-188.158	-105.154	0.286	-0.065
-187.144	-184.409	0.296	0.005
-186.129	800.000	0.070	0.242
-185.114	526.927	-0.141	0.329
-184.100	-74.530	-0.053	-0.019
-183.085	-143.342	-0.371	0.035
-182.071	448.260	-0.197	-0.430
-181.056	279.477	-0.036	0.063
-180.042	56.154	0.081	0.078
-179.027	-21.083	-0.171	0.104
-178.012	-68.775	-0.171	0.066
-176.998	-200.000	-0.004	-0.111
-175.983	270.368	0.071	-0.125
-174.969	-143.301	-0.302	-0.029
-173.954	18.490	0.107	0.085
-172.939	41.657	-0.108	-0.097
-171.925	-148.078	0.229	0.019
-170.910	-146.536	-0.263	0.023
-169.896	217.060	-0.187	0.297
-168.881	-53.869	-0.023	0.011
-167.866	392.104	-0.181	-0.375
-166.852	370.285	0.039	-0.079
-165.837	51.680	0.244	0.230
-164.823	-112.046	0.375	0.075
-163.808	800.000	-0.113	0.329
-162.793	-88.775	0.353	0.104
-161.779	33.611	0.099	0.085
-160.764	800.000	0.050	-0.188
-159.750	-200.000	-0.023	0.176
-158.735	800.000	-0.062	0.210
-157.720	19.569	0.350	0.280
-156.706	-42.616	0.307	0.155
-155.691	-167.843	0.178	-0.007
-154.677	208.839	0.188	0.293
-153.662	-165.028	-0.144	-0.006
-152.647	-92.591	0.179	0.050
-151.633	-83.044	-0.122	0.039
-150.618	800.000	0.050	-0.169
-149.604	218.817	0.179	-0.284
-148.589	-64.206	0.379	0.153
-147.574	-115.376	0.456	0.085
-146.560	-23.000	-0.286	0.171
-145.545	-59.231	0.267	-0.114
-144.531	499.291	-0.130	-0.299
-143.516	461.697	-0.093	0.206
-142.502	183.316	0.109	-0.160
-141.487	-200.000	0.028	-0.202
-140.472	-23.697	-0.185	0.110
-139.458	454.310	-0.124	0.273
-138.443	50.331	0.144	0.135
-137.429	-141.309	0.310	-0.031
-136.414	128.927	0.303	0.384
-135.399	-174.800	0.296	-0.008
-134.385	305.396	-0.114	-0.209
-133.370	166.998	0.145	-0.205
-132.356	-101.871	-0.301	0.072
-131.341	-15.403	0.103	-0.065
-130.326	20.471	0.182	0.146
-129.312	54.630	-0.146	-0.140
-128.297	446.817	0.064	-0.139
-127.283	-200.000	-0.016	-0.173
-126.268	619.617	-0.109	0.271
-125.253	-10.000	-0.312	-0.206
-124.239	800.000	-0.141	-0.443
-123.224	-200.000	0.022	0.106
