DTS Sentinel unit serial number:	SN413079Multiplexer serial number:	ORYXHardware model number:	OX4-SRSoftware version number:	ORYX F/W v4.00 Oryx Data Collector v3.7.2.0data status	okinstallation	princeton_trtdifferential loss correction	single-endedforward channel	channel 2reverse channel	N/Adate	2019/09/13time	17:31:35forward acquisition time	60.00reverse acquisition time	0.00gamma	496.2192k internal	0.2312k external	0.2312temperature offset calibration	1.0190default loss term (dB/km)	0.3790temperature slope calibration	1.0000multiplexer offset coefficient	1.0000multiplexer slope coefficient	1.0000fibre end	0.00T internal ref (°C)	36.09T ext. ref 1 (°C)	5.32T ext. ref 2 (°C)	29.60length (m)	temperature (°C)	Stokes	anti-Stokes-747.200	-50.407	-0.058	0.028
-746.185	148.350	0.031	0.043
-745.171	474.687	-0.083	-0.191
-744.156	-56.856	-0.242	0.108
-743.142	-99.997	0.275	0.070
-742.127	-200.000	-0.004	0.207
-741.112	800.000	0.098	0.285
-740.098	-26.593	0.387	0.230
-739.083	-55.833	0.228	0.103
-738.069	-127.819	-0.385	-0.056
-737.054	-200.000	-0.020	-0.167
-736.039	61.639	-0.170	-0.172
-735.025	25.221	-0.185	0.156
-734.010	-200.000	0.004	0.047
-732.996	113.480	-0.120	0.148
-731.981	-176.601	-0.250	0.007
-730.966	30.949	-0.235	-0.204
-729.952	-188.105	-0.298	-0.004
-728.937	-127.351	-0.226	0.033
-727.923	-95.053	-0.154	0.042
-726.908	117.633	-0.086	0.107
-725.894	191.877	-0.133	0.204
-724.879	-151.003	-0.142	0.011
-723.864	210.206	0.164	-0.261
-722.850	-200.000	-0.066	-0.631
-721.835	295.888	-0.114	-0.211
-720.821	28.929	0.210	-0.181
-719.806	-132.858	-0.385	-0.050
-718.791	-200.000	-0.011	0.101
-717.777	11.017	-0.085	-0.066
-716.762	23.356	-0.250	0.208
-715.748	195.906	-0.080	-0.124
-714.733	-75.602	0.151	-0.055
-713.718	465.707	-0.105	0.238
-712.704	42.319	-0.117	0.108
-711.689	2.039	0.157	0.115
-710.675	-112.963	-0.135	0.027
-709.660	-74.401	-0.178	0.065
-708.645	-122.592	-0.141	0.023
-707.631	-112.656	-0.146	0.029
-706.616	115.727	-0.189	-0.235
-705.602	42.048	0.306	-0.282
-704.587	-200.000	0.004	0.054
-703.572	-200.000	0.054	-0.263
-702.558	752.559	-0.068	-0.187
-701.543	-33.758	-0.048	-0.027
-700.529	51.013	0.039	0.037
-699.514	224.713	-0.193	0.316
-698.499	441.392	0.098	0.218
-697.485	-126.297	0.188	-0.028
-696.470	121.939	0.120	0.151
-695.456	800.000	-0.046	-0.135
-694.441	800.000	-0.040	-0.138
-693.426	44.868	0.038	-0.035
-692.412	-200.000	-0.014	0.065
-691.397	2.000	-0.265	-0.194
-690.383	-19.350	-0.312	0.196
-689.368	-161.267	-0.099	-0.005
-688.354	263.990	-0.122	0.214
-687.339	-21.099	-0.295	0.183
-686.324	-116.056	-0.038	-0.007
-685.310	-149.416	-0.238	-0.019
-684.295	-57.149	-0.152	0.068
-683.281	5.831	0.045	0.033
-682.266	-174.920	-0.135	-0.004
-681.251	-200.000	-0.019	-0.296
-680.237	-152.284	-0.288	0.021
-679.222	128.318	-0.088	0.113
-678.208	-60.966	-0.115	0.049
-677.193	-36.922	-0.108	-0.058
-676.178	12.529	0.227	-0.177
-675.164	-102.864	-0.481	0.116
-674.149	-200.000	0.058	-0.471
-673.135	30.861	0.108	-0.094
-672.120	-74.298	-0.150	0.055
-671.105	800.000	-0.019	0.063
-670.091	-162.484	-0.122	0.006
-669.076	323.704	0.155	0.300
-668.062	-200.000	-0.021	-0.102
-667.047	17.927	-0.129	-0.104
-666.032	-200.000	-0.008	-0.269
-665.018	-64.549	0.130	-0.053
-664.003	134.622	-0.063	0.083
-662.989	-200.000	-0.016	-0.267
-661.974	800.000	-0.022	-0.071
-660.959	252.854	-0.209	-0.361
-659.945	10.323	0.067	-0.051
-658.930	-106.008	-0.092	0.021
-657.916	413.911	-0.099	0.213
-656.901	800.000	-0.076	-0.290
-655.886	-179.817	-0.130	0.003
-654.872	-106.692	0.457	0.103
-653.857	-180.625	-0.149	-0.003
-652.843	135.582	-0.388	0.510
-651.828	-200.000	0.002	0.130
-650.814	-122.655	0.073	0.012
-649.799	-181.018	-0.116	-0.002
-648.784	-137.755	0.311	0.035
-647.770	-31.549	-0.098	0.056
-646.755	800.000	0.087	-0.245
-645.741	800.000	-0.029	0.094
-644.726	75.259	-0.048	0.052
-643.711	-80.760	-0.178	0.060
-642.697	378.197	-0.054	-0.112
-641.682	-124.077	0.155	-0.025
-640.668	-66.306	-0.247	-0.099
-639.653	-144.183	0.129	0.012
-638.638	-79.008	-0.193	0.066
-637.624	119.897	0.134	-0.168
-636.609	101.536	0.092	-0.108
-635.595	-49.325	-0.211	-0.102
-634.580	-200.000	0.049	-0.405
-633.565	25.947	0.321	0.271
-632.551	-123.347	-0.219	0.035
-631.536	200.126	-0.185	0.287
-630.522	-149.305	-0.161	-0.013
-629.507	22.161	-0.185	0.152
-628.492	127.727	0.085	-0.109
-627.478	256.301	0.031	-0.053
-626.463	136.328	-0.152	0.200
-625.449	-88.946	0.044	0.013
-624.434	76.633	0.103	0.110
-623.419	-200.000	-0.021	0.100
-622.405	-200.000	0.005	0.270
-621.390	-88.140	0.042	-0.013
-620.376	-40.464	0.197	-0.103
-619.361	800.000	0.049	-0.208
-618.346	-147.704	-0.108	0.009
-617.332	800.000	0.062	-0.267
-616.317	119.268	0.094	0.117
-615.303	290.876	-0.060	0.110
-614.288	-7.556	-0.290	-0.198
-613.273	89.246	-0.136	0.153
-612.259	-200.000	0.005	-0.113
-611.244	-200.000	-0.018	0.226
-610.230	720.276	-0.051	-0.137
-609.215	8.998	0.259	0.197
-608.201	-200.000	-0.034	0.180
-607.186	-33.866	0.215	0.119
-606.171	-103.538	-0.181	0.043
-605.157	13.682	0.048	-0.038
-604.142	-200.000	0.002	0.037
-603.128	92.701	0.178	0.203
-602.113	-173.117	-0.345	-0.011
-601.098	-5.695	0.143	0.099
-600.084	800.000	-0.005	0.017
-599.069	-200.000	-0.060	-0.296
-598.055	-19.192	0.296	0.186
-597.040	-92.240	0.095	0.027
-596.025	800.000	-0.027	0.091
-595.011	565.315	0.101	0.246
-593.996	-150.447	0.330	-0.026
-592.982	383.525	0.100	-0.207
-591.967	135.593	-0.050	0.065
-590.952	-200.000	0.014	-0.192
-589.938	-99.765	0.230	0.058
-588.923	-193.569	-0.084	-0.001
-587.909	24.199	-0.120	-0.100
-586.894	-86.807	0.065	0.020
-585.879	93.327	0.086	-0.098
-584.865	-142.433	0.122	-0.012
-583.850	-1.961	0.200	-0.142
-582.836	-200.000	-0.019	-0.128
-581.821	800.000	0.081	-0.349
-580.806	-200.000	-0.038	-0.226
-579.792	322.345	0.083	-0.160
-578.777	607.991	0.047	-0.118
-577.763	800.000	-0.005	0.017
-576.748	57.946	0.126	0.125
-575.733	-15.464	0.299	0.193
-574.719	-26.911	-0.221	0.130
-573.704	-79.662	0.297	-0.101
-572.690	-130.361	-0.317	-0.043
-571.675	381.855	-0.127	0.264
-570.661	-43.145	0.179	-0.091
-569.646	-114.093	-0.208	0.041
-568.631	-141.803	-0.269	0.027
-567.617	-200.000	-0.035	-0.229
-566.602	131.775	-0.252	-0.327
-565.588	-200.000	0.039	-0.310
-564.573	-200.000	0.030	0.163
-563.558	325.081	0.134	0.259
-562.544	49.148	-0.271	-0.257
-561.529	-70.849	0.202	0.077
-560.515	624.178	-0.107	0.271
-559.500	-200.000	-0.028	-0.131
-558.485	-108.442	-0.116	0.025
-557.471	9.711	0.141	-0.108
-556.456	23.067	-0.231	0.191
-555.442	-112.174	-0.077	0.016
-554.427	-165.503	-0.189	-0.008
-553.412	-200.000	-0.037	-0.354
-552.398	-122.165	-0.159	-0.026
-551.383	800.000	0.076	-0.217
-550.369	68.142	-0.104	0.107
-549.354	-86.273	0.355	-0.110
-548.339	33.022	0.172	0.150
-547.325	734.626	-0.073	-0.197
-546.310	-152.600	-0.043	-0.003
-545.296	-200.000	0.016	-0.081
-544.281	800.000	0.088	-0.313
-543.266	44.993	0.186	-0.172
-542.252	-153.433	-0.280	0.020
-541.237	-41.408	-0.241	0.125
-540.223	582.210	0.111	-0.273
-539.208	-19.989	0.100	0.062
-538.193	-95.432	-0.277	-0.075
-537.179	143.568	-0.139	-0.187
-536.164	-110.312	0.149	-0.031
-535.150	89.526	-0.089	0.100
-534.135	-66.819	0.109	0.043
-533.121	-32.023	-0.093	-0.052
-532.106	-200.000	-0.075	0.423
-531.091	-193.442	0.189	-0.002
-530.077	-1.504	-0.124	-0.088
-529.062	-200.000	-0.012	0.077
-528.048	39.647	0.160	0.144
-527.033	800.000	-0.036	-0.113
-526.018	-200.000	0.039	0.273
-525.004	388.989	-0.113	0.235
-523.989	-73.582	0.146	-0.053
-522.975	362.930	0.126	-0.254
-521.960	-200.000	0.016	-0.125
-520.945	-81.507	-0.212	0.070
-519.931	-137.769	-0.143	-0.016
-518.916	-50.574	-0.119	0.056
-517.902	-20.010	-0.010	-0.006
-516.887	413.345	0.162	-0.346
-515.872	89.090	0.220	-0.246
-514.858	-168.149	-0.155	0.006
-513.843	-61.793	0.533	0.224
-512.829	-77.718	0.233	0.081
-511.814	76.849	0.103	-0.109
-510.799	-62.244	0.122	0.051
-509.785	319.385	0.104	0.199
-508.770	-59.772	-0.189	0.082
-507.756	-28.170	-0.189	0.110
-506.741	-81.339	0.106	-0.035
-505.726	-4.076	-0.211	-0.147
-504.712	22.085	0.187	0.153
-503.697	-156.865	-0.319	-0.020
-502.683	-98.688	-0.282	0.072
-501.668	-200.000	0.040	0.537
-500.653	-172.727	-0.221	0.007
-499.639	800.000	0.057	-0.210
-498.624	33.743	-0.176	-0.154
-497.610	24.821	-0.261	-0.217
-496.595	127.435	-0.137	-0.175
-495.581	-200.000	-0.063	0.359
-494.566	-135.817	-0.281	0.033
-493.551	7.072	0.317	0.237
-492.537	395.959	-0.085	-0.178
-491.522	800.000	0.188	-0.534
-490.508	-122.564	-0.136	-0.022
-489.493	28.498	-0.064	0.055
-488.478	-58.092	0.102	0.044
-487.464	-200.000	-0.021	0.123
-486.449	-15.213	-0.191	-0.123
-485.435	34.937	0.105	-0.092
-484.420	-144.670	0.390	-0.036
-483.405	167.922	0.298	-0.426
-482.391	-200.000	-0.108	0.485
-481.376	-148.822	0.217	-0.018
-480.362	-114.515	-0.446	-0.086
-479.347	212.502	0.202	-0.319
-478.332	-200.000	0.006	0.129
-477.318	348.684	-0.084	0.166
-476.303	142.988	-0.181	0.242
-475.289	-97.981	0.142	0.037
-474.274	162.356	0.158	-0.223
-473.259	-200.000	0.022	0.152
-472.245	800.000	-0.025	-0.088
-471.230	23.853	0.147	-0.122
-470.216	-108.006	0.348	-0.076
-469.201	-132.515	-0.403	-0.052
-468.186	69.629	0.093	0.096
-467.172	-200.000	-0.006	0.277
-466.157	-75.256	-0.385	0.138
-465.143	244.299	-0.081	0.137
-464.128	201.302	-0.218	-0.337
-463.113	-27.322	0.123	-0.072
-462.099	-18.506	0.025	0.016
-461.084	800.000	-0.099	0.356
-460.070	-99.653	0.106	-0.027
-459.055	-200.000	0.008	-0.276
-458.040	-200.000	-0.045	0.315
-457.026	693.425	-0.057	-0.150
-456.011	35.735	0.410	-0.362
-454.997	54.735	0.121	0.117
-453.982	588.942	-0.067	-0.166
-452.968	-200.000	0.027	-0.452
-451.953	800.000	0.088	-0.381
-450.938	176.940	0.197	0.287
-449.924	-158.207	-0.243	0.014
-448.909	330.353	-0.067	-0.129
-447.895	-93.378	0.078	0.022
-446.880	-105.027	-0.356	-0.082
-445.865	289.579	0.032	0.059
-444.851	800.000	-0.109	0.412
-443.836	495.913	-0.078	-0.179
-442.822	-64.945	0.099	-0.040
-441.807	297.662	-0.136	0.250
-440.792	166.031	-0.151	-0.215
-439.778	8.582	-0.175	-0.132
-438.763	-36.210	-0.232	-0.126
-437.749	279.172	0.073	0.131
-436.734	-120.928	-0.124	-0.021
-435.719	-200.000	-0.023	0.214
-434.705	13.261	0.300	-0.233
-433.690	-87.106	0.372	-0.113
-432.676	47.039	0.115	-0.107
-431.661	-200.000	-0.016	0.146
-430.646	-56.482	-0.135	-0.060
-429.632	-177.751	0.079	0.002
-428.617	-20.785	-0.457	-0.281
-427.603	7.348	-0.245	-0.183
-426.588	-19.022	0.021	-0.013
-425.573	117.817	0.130	0.161
-424.559	-7.799	0.148	-0.100
-423.544	-106.767	-0.223	0.050
-422.530	109.487	-0.120	0.144
-421.515	-200.000	-0.020	0.144
-420.500	-61.033	0.174	-0.074
-419.486	-105.129	0.358	0.082
-418.471	800.000	0.091	0.271
-417.457	206.667	-0.134	0.208
-416.442	800.000	-0.068	-0.196
-415.428	72.768	0.288	0.301
-414.413	337.886	-0.020	0.039
-413.398	117.666	0.307	0.379
-412.384	52.628	-0.177	-0.169
-411.369	-49.008	0.238	0.114
-410.355	800.000	0.130	-0.461
-409.340	76.964	-0.182	-0.194
-408.325	150.417	0.159	0.216
-407.311	84.343	0.121	-0.133
-406.296	26.397	-0.109	0.091
-405.282	-200.000	-0.019	-0.158
-404.267	800.000	0.021	-0.058
-403.252	-200.000	-0.016	0.105
-402.238	37.245	-0.124	0.110
-401.223	132.773	0.253	0.327
-400.209	-3.268	0.197	-0.137
-399.194	-3.172	0.140	0.098
-398.179	333.210	0.109	0.210
-397.165	47.768	0.123	-0.115
-396.150	80.232	0.038	0.041
-395.136	-55.245	-0.131	0.059
-394.121	-120.567	-0.164	-0.028
-393.106	-111.625	-0.037	0.008
-392.092	40.137	-0.153	0.137
-391.077	-70.736	0.190	-0.072
-390.063	-47.140	0.268	-0.131
-389.048	43.366	0.217	-0.198
-388.033	301.838	-0.153	-0.283
-387.019	387.097	-0.095	-0.197
-386.004	-134.045	0.294	0.036
-384.990	-200.000	-0.002	-0.115
-383.975	55.763	-0.095	0.092
-382.960	-97.722	-0.227	0.059
-381.946	373.695	0.106	0.217
-380.931	-95.723	0.217	0.058
-379.917	-162.927	-0.403	-0.020
-378.902	-200.000	0.013	0.266
-377.888	-62.963	-0.118	0.049
-376.873	800.000	0.053	-0.160
-375.858	-18.638	-0.294	-0.183
-374.844	132.721	-0.097	0.126
-373.829	1.907	0.065	0.047
-372.815	-200.000	-0.008	-0.243
-371.800	800.000	-0.055	0.231
-370.785	246.027	0.168	-0.283
-369.771	800.000	-0.043	0.129
-368.756	-162.250	-0.238	-0.012
-367.742	-200.000	0.049	-0.347
-366.727	312.408	0.096	-0.181
-365.712	-59.748	0.190	0.081
-364.698	86.404	-0.079	0.087
-363.683	-22.952	0.067	-0.040
-362.669	-17.601	0.397	0.249
-361.654	81.055	-0.140	0.151
-360.639	-200.000	-0.022	0.104
-359.625	182.824	-0.101	0.149
-358.610	82.680	-0.217	0.236
-357.596	217.996	-0.182	0.291
-356.581	-200.000	0.052	0.400
-355.566	-78.912	0.120	0.041
-354.552	-200.000	0.042	-0.276
-353.537	-200.000	0.022	-0.410
-352.523	-20.545	0.341	-0.209
-351.508	-200.000	-0.017	-0.216
-350.493	-200.000	0.017	0.079
-349.479	-13.428	-0.133	0.086
-348.464	800.000	-0.014	-0.057
-347.450	22.861	-0.242	-0.198
-346.435	-168.772	0.306	0.012
-345.420	-200.000	0.006	-0.139
-344.406	493.800	-0.025	0.057
-343.391	800.000	0.055	0.223
-342.377	800.000	-0.042	0.148
-341.362	129.617	-0.150	0.191
-340.348	-150.089	-0.161	-0.012
-339.333	-200.000	0.017	0.174
-338.318	40.033	0.290	0.260
-337.304	15.394	0.075	0.059
-336.289	800.000	0.029	0.081
-335.275	800.000	0.052	-0.177
-334.260	-17.891	-0.265	-0.166
-333.245	103.277	0.266	0.311
-332.231	-81.729	-0.150	-0.049
-331.216	-35.191	0.337	0.183
-330.202	-6.490	0.186	0.127
-329.187	800.000	-0.062	-0.177
-328.172	-200.000	-0.005	0.079
-327.158	-200.000	0.028	-0.178
-326.143	-1.020	-0.147	-0.104
-325.129	800.000	-0.042	-0.164
-324.114	105.393	0.138	0.163
-323.099	-42.408	0.161	0.082
-322.085	-19.542	0.253	0.157
-321.070	-200.000	-0.030	0.315
-320.056	800.000	0.032	-0.135
-319.041	-200.000	-0.025	-0.128
-318.026	-49.184	-0.140	0.067
-317.012	-81.567	0.129	0.042
-315.997	378.815	-0.051	-0.103
-314.983	-34.795	0.293	-0.160
-313.968	-200.000	0.010	-0.097
-312.953	-145.709	0.421	-0.038
-311.939	87.416	-0.152	0.168
-310.924	496.487	-0.132	0.304
-309.910	-130.297	0.140	0.019
-308.895	-119.726	0.114	0.020
-307.880	68.602	-0.063	-0.064
-306.866	58.580	-0.182	-0.178
-305.851	-139.749	0.168	0.018
-304.837	24.972	0.189	0.156
-303.822	-200.000	-0.003	-0.151
-302.807	-46.640	0.141	-0.069
-301.793	-89.438	0.050	-0.015
-300.778	-200.000	0.015	0.073
-299.764	-34.576	0.185	0.101
-298.749	-200.000	0.035	-0.226
-297.735	292.414	-0.088	-0.160
-296.720	-58.500	-0.235	0.102
-295.705	-30.241	-0.069	-0.039
-294.691	-75.715	-0.356	-0.126
-293.676	135.198	-0.152	-0.197
-292.662	-22.579	0.416	0.251
-291.647	-200.000	-0.046	0.564
-290.632	800.000	0.101	0.377
-289.618	800.000	-0.017	-0.073
-288.603	800.000	-0.033	0.110
-287.589	-75.689	-0.082	-0.029
-286.574	34.049	-0.197	0.171
-285.559	40.261	-0.201	-0.180
-284.545	800.000	-0.026	0.113
-283.530	105.399	-0.164	0.193
-282.516	692.327	0.064	-0.168
-281.501	152.181	-0.058	-0.080
-280.486	306.102	-0.108	0.201
-279.472	439.585	-0.131	-0.285
-278.457	-176.513	-0.168	0.004
-277.443	-200.000	-0.032	-0.197
-276.428	-77.728	-0.262	-0.090
-275.413	-19.587	0.110	-0.068
-274.399	-123.439	-0.025	-0.004
-273.384	-200.000	0.063	0.483
-272.370	42.648	0.161	0.146
-271.355	-59.945	-0.154	0.066
-270.340	-129.790	-0.069	-0.009
-269.326	453.666	-0.085	0.187
-268.311	-200.000	-0.018	-0.280
-267.297	-36.600	0.271	-0.145
-266.282	-98.016	0.106	0.027
-265.267	251.546	-0.086	-0.146
-264.253	6.887	-0.049	-0.036
-263.238	566.208	-0.090	0.218
-262.224	-200.000	-0.055	-0.266
-261.209	3.612	0.205	-0.149
-260.195	-135.316	-0.236	-0.028
-259.180	800.000	0.075	0.256
-258.165	102.097	0.194	-0.226
-257.151	-66.995	-0.138	-0.054
-256.136	-163.295	-0.183	-0.009
-255.122	-200.000	-0.007	-0.202
-254.107	20.461	0.042	-0.034
-253.092	-200.000	-0.015	0.122
-252.078	-149.421	0.325	0.026
-251.063	800.000	-0.050	-0.186
-250.049	-119.200	0.440	0.076
-249.034	520.113	0.046	-0.108
-248.019	-200.000	-0.042	-0.185
-247.005	-107.024	-0.170	0.037
-245.990	-19.866	0.307	0.189
-244.976	-110.030	0.198	-0.041
-243.961	-87.117	0.053	0.016
-242.946	-27.304	-0.471	0.273
-241.932	-19.939	0.225	0.138
-240.917	-171.631	-0.099	0.003
-239.903	-125.144	0.174	0.027
-238.888	-200.000	0.016	0.237
-237.873	-200.000	0.002	-0.060
-236.859	-200.000	0.010	-0.195
-235.844	108.481	-0.146	0.174
-234.830	677.795	0.159	0.412
-233.815	-66.404	0.164	0.065
-232.800	-200.000	0.011	-0.164
-231.786	-200.000	-0.048	-0.429
-230.771	300.650	-0.076	-0.139
-229.757	123.921	0.203	-0.254
-228.742	-86.230	0.191	-0.058
-227.727	190.100	0.052	0.077
-226.713	-49.978	0.145	0.068
-225.698	800.000	0.079	0.292
-224.684	275.893	-0.130	0.229
-223.669	-37.072	-0.347	-0.185
-222.655	-14.274	-0.317	-0.203
-221.640	19.695	-0.332	0.265
-220.625	88.763	0.130	-0.144
-219.611	459.883	0.096	0.213
-218.596	-35.837	-0.089	-0.048
-217.582	-200.000	0.009	-0.254
-216.567	509.131	0.247	-0.569
-215.552	729.258	0.103	-0.274
-214.538	112.557	0.138	0.166
-213.523	26.966	-0.194	-0.162
-212.509	-30.064	-0.270	0.153
-211.494	-85.772	0.143	0.044
-210.479	461.733	0.105	0.232
-209.465	60.781	0.113	0.111
-208.450	-55.918	0.145	0.064
-207.436	800.000	0.063	0.266
-206.421	32.015	-0.095	-0.081
-205.406	-61.659	0.288	-0.120
-204.392	800.000	-0.032	0.124
-203.377	-200.000	0.030	0.209
-202.363	-105.501	0.124	-0.028
-201.348	3.047	0.079	-0.057
-200.333	-200.000	0.038	0.386
-199.319	-200.000	0.026	-0.260
-198.304	14.899	-0.070	0.055
-197.290	7.302	0.159	0.118
-196.275	50.820	0.072	0.067
-195.260	-68.533	-0.309	0.119
-194.246	-101.522	-0.112	-0.027
-193.231	-137.128	-0.465	0.053
-192.217	39.345	0.086	-0.077
-191.202	-143.290	0.428	0.041
-190.187	82.173	-0.100	-0.108
-189.173	-14.757	-0.231	0.147
-188.158	7.083	0.067	0.049
-187.144	126.623	0.211	-0.265
-186.129	-200.000	-0.031	0.287
-185.114	-200.000	-0.111	-0.517
-184.100	800.000	-0.050	-0.161
-183.085	111.832	-0.118	-0.142
-182.071	-63.256	-0.180	-0.074
-181.056	-194.013	-0.287	-0.002
-180.042	70.207	0.164	-0.168
-179.027	-200.000	0.099	0.498
-178.012	-200.000	-0.003	0.045
-176.998	-146.986	-0.286	0.024
-175.983	131.020	0.060	0.077
-174.969	56.155	0.314	-0.303
-173.954	785.588	-0.033	0.089
-172.939	32.866	0.164	0.141
-171.925	132.823	0.133	-0.170
-170.910	-200.000	0.012	-0.114
-169.896	-200.000	0.037	-0.175
-168.881	-150.516	-0.134	-0.010
-167.866	-200.000	0.015	0.289
-166.852	19.162	-0.061	0.049
-165.837	136.332	-0.075	0.096
-164.823	125.235	-0.191	0.239
-163.808	-3.307	-0.194	0.134
-162.793	59.740	-0.171	-0.168
-161.779	-106.054	-0.063	0.014
-160.764	-95.111	-0.342	0.092
-159.750	560.186	-0.100	-0.240
-158.735	-9.571	0.192	-0.127
-157.720	800.000	0.122	0.370
-156.706	0.630	-0.243	-0.172
-155.691	-194.812	-0.517	0.004
-154.677	-111.833	0.141	0.028
-153.662	800.000	0.061	-0.178
-152.647	297.887	-0.015	0.027
-151.633	-2.158	-0.378	0.263
-150.618	351.948	0.102	-0.200
-149.604	-171.458	0.171	-0.006
-148.589	430.145	-0.174	-0.374
-147.574	13.459	-0.121	-0.093
-146.560	-47.416	-0.117	0.056
-145.545	43.405	-0.299	-0.271
-144.531	-45.972	-0.097	-0.047
-143.516	237.849	-0.159	0.262
-142.502	-115.690	-0.203	-0.038
-141.487	-164.615	0.311	-0.014
-140.472	-17.086	0.067	-0.042
-139.458	800.000	0.176	0.502
-138.443	-148.356	0.137	0.011
-137.429	-153.710	-0.270	-0.018
-136.414	-56.065	-0.033	0.015
-135.399	-95.162	-0.169	0.045
-134.385	73.952	-0.086	0.089
-133.370	113.242	0.192	0.231
-132.356	713.164	-0.066	-0.173
-131.341	-79.007	-0.241	0.081
-130.326	104.032	0.259	0.302
-129.312	0.791	-0.166	-0.118
-128.297	278.309	-0.106	0.188
-127.283	-40.374	0.099	-0.051
-126.268	-75.024	-0.066	-0.023
-125.253	800.000	-0.100	0.377
-124.239	260.882	-0.060	-0.102
-123.224	-200.000	0.003	-0.067
-122.210	-102.493	-0.138	-0.033
