DTS Sentinel unit serial number:	SN413079Multiplexer serial number:	ORYXHardware model number:	OX4-SRSoftware version number:	ORYX F/W v4.00 Oryx Data Collector v3.7.2.0data status	okinstallation	princeton_trtdifferential loss correction	single-endedforward channel	channel 2reverse channel	N/Adate	2019/09/16time	10:55:35forward acquisition time	60.00reverse acquisition time	0.00gamma	496.2192k internal	0.2316k external	0.2316temperature offset calibration	0.9956default loss term (dB/km)	0.3790temperature slope calibration	1.0000multiplexer offset coefficient	1.0000multiplexer slope coefficient	1.0000fibre end	0.00T internal ref (°C)	36.61T ext. ref 1 (°C)	12.73T ext. ref 2 (°C)	34.30length (m)	temperature (°C)	Stokes	anti-Stokes-747.200	10.517	0.038	0.029
-746.185	-121.499	0.176	-0.030
-745.171	-200.000	0.020	0.423
-744.156	-130.353	-0.229	0.031
-743.142	-55.245	-0.232	0.106
-742.127	93.265	0.159	-0.182
-741.112	720.990	-0.021	-0.057
-740.098	275.091	-0.036	-0.065
-739.083	800.000	0.051	0.168
-738.069	-200.000	-0.038	0.475
-737.054	-36.369	-0.121	-0.066
-736.039	262.074	-0.231	-0.406
-735.025	159.511	0.236	0.332
-734.010	388.740	0.009	0.019
-732.996	598.631	-0.085	0.213
-731.981	-42.858	-0.154	-0.079
-730.966	-21.065	0.026	0.016
-729.952	-200.000	0.000	-0.175
-728.937	124.901	-0.172	-0.220
-727.923	800.000	0.128	-0.499
-726.908	74.344	0.141	-0.150
-725.894	800.000	0.016	-0.058
-724.879	-77.542	-0.232	-0.082
-723.864	2.665	-0.516	-0.379
-722.850	-23.138	0.107	0.065
-721.835	109.554	0.046	0.056
-720.821	502.380	-0.098	0.228
-719.806	-200.000	0.040	0.288
-718.791	-101.949	-0.165	-0.040
-717.777	315.209	-0.213	-0.406
-716.762	85.791	-0.087	0.097
-715.748	800.000	-0.152	0.453
-714.733	-94.902	0.225	-0.062
-713.718	-200.000	-0.029	-0.338
-712.704	-55.893	0.169	-0.076
-711.689	-30.016	-0.190	-0.110
-710.675	-45.274	-0.284	0.143
-709.660	-165.920	-0.028	-0.001
-708.645	-28.537	0.328	-0.191
-707.631	800.000	0.017	0.059
-706.616	-63.904	-0.151	0.062
-705.602	21.996	-0.084	-0.069
-704.587	-200.000	0.005	-0.308
-703.572	-200.000	-0.018	-0.181
-702.558	-114.810	0.235	0.045
-701.543	-67.284	-0.039	-0.016
-700.529	-10.679	0.092	-0.062
-699.514	-107.324	0.086	-0.019
-698.499	-55.567	0.166	0.075
-697.485	282.344	0.151	0.275
-696.470	-62.756	-0.281	0.118
-695.456	-101.575	-0.239	0.059
-694.441	-200.000	0.000	-0.067
-693.426	-6.701	-0.099	-0.068
-692.412	-95.682	0.246	-0.067
-691.397	-145.066	-0.445	0.041
-690.383	800.000	-0.048	0.184
-689.368	-200.000	-0.022	0.274
-688.354	-200.000	-0.003	0.123
-687.339	529.956	0.049	-0.116
-686.324	-105.162	0.189	0.044
-685.310	-112.346	0.129	0.026
-684.295	295.767	-0.172	-0.318
-683.281	76.524	0.216	-0.231
-682.266	-14.824	-0.287	0.186
-681.251	210.422	-0.045	0.071
-680.237	-61.701	-0.218	-0.092
-679.222	-82.941	-0.079	-0.026
-678.208	-178.856	-0.198	0.005
-677.193	55.945	0.043	0.042
-676.178	-200.000	-0.052	-0.298
-675.164	14.552	0.061	-0.048
-674.149	153.488	-0.130	-0.180
-673.135	-200.000	0.041	0.342
-672.120	218.660	-0.097	-0.156
-671.105	172.496	0.102	-0.149
-670.091	11.903	0.100	-0.078
-669.076	800.000	-0.034	-0.099
-668.062	-200.000	0.067	-0.324
-667.047	-81.674	-0.184	-0.061
-666.032	-200.000	-0.019	-0.234
-665.018	98.020	-0.089	0.103
-664.003	13.937	-0.172	0.135
-662.989	99.905	-0.118	-0.138
-661.974	800.000	-0.078	-0.311
-660.959	-130.692	0.028	0.004
-659.945	-200.000	-0.005	-0.027
-658.930	158.933	-0.042	-0.059
-657.916	411.185	0.081	0.174
-656.901	-200.000	-0.052	-0.266
-655.886	800.000	-0.037	-0.112
-654.872	-6.485	-0.082	-0.057
-653.857	59.237	0.159	-0.159
-652.843	-200.000	0.001	0.219
-651.828	-95.003	0.182	-0.050
-650.814	-101.741	0.113	0.028
-649.799	-91.504	0.247	-0.071
-648.784	-200.000	0.061	-0.552
-647.770	-20.150	-0.237	0.147
-646.755	800.000	-0.110	0.363
-645.741	-52.665	-0.149	-0.069
-644.726	214.026	-0.206	-0.329
-643.711	109.398	-0.150	-0.182
-642.697	-27.179	-0.118	-0.069
-641.682	-104.990	-0.175	0.040
-640.668	-200.000	0.005	0.065
-639.653	800.000	0.065	0.236
-638.638	-60.458	0.238	0.102
-637.624	-200.000	0.015	0.249
-636.609	-85.286	-0.197	-0.062
-635.595	-76.062	-0.102	-0.036
-634.580	-200.000	0.054	0.268
-633.565	-200.000	0.014	-0.111
-632.551	191.133	-0.091	-0.138
-631.536	-107.952	-0.266	0.058
-630.522	75.497	0.124	0.132
-629.507	-200.000	-0.066	-0.327
-628.492	6.023	-0.344	0.257
-627.478	163.877	0.112	0.159
-626.463	-101.643	-0.153	0.038
-625.449	-21.283	0.124	0.076
-624.434	-63.252	0.306	0.127
-623.419	-200.000	-0.022	-0.262
-622.405	-6.352	-0.058	-0.040
-621.390	61.416	0.215	-0.216
-620.376	266.901	0.176	0.311
-619.361	-153.243	0.092	0.006
-618.346	107.968	0.135	-0.163
-617.332	800.000	-0.113	0.418
-616.317	681.879	0.049	0.129
-615.303	-67.964	-0.086	0.034
-614.288	-150.676	0.210	0.016
-613.273	-101.822	-0.115	-0.028
-612.259	-1.557	0.064	-0.046
-611.244	638.429	-0.119	0.305
-610.230	118.703	0.162	-0.201
-609.215	-200.000	-0.027	0.179
-608.201	132.846	0.223	-0.290
-607.186	178.787	0.124	-0.182
-606.171	89.253	0.068	0.076
-605.157	-83.559	0.079	0.026
-604.142	150.336	0.225	-0.308
-603.128	251.862	-0.080	-0.138
-602.113	800.000	-0.086	-0.345
-601.098	-9.425	0.393	-0.264
-600.084	-164.082	-0.222	0.010
-599.069	279.505	-0.163	-0.293
-598.055	-200.000	0.009	0.144
-597.040	36.236	0.198	0.176
-596.025	-42.975	0.027	0.014
-595.011	-79.257	0.331	0.113
-593.996	-15.544	-0.076	-0.049
-592.982	-35.780	-0.085	0.046
-591.967	28.231	0.293	0.250
-590.952	-89.396	0.103	-0.030
-589.938	388.778	0.094	0.196
-588.923	800.000	-0.094	0.315
-587.909	-113.445	-0.373	-0.074
-586.894	44.083	0.247	0.228
-585.879	-200.000	-0.029	-0.246
-584.865	148.892	0.148	-0.202
-583.850	-68.522	0.072	-0.028
-582.836	-200.000	-0.091	-0.405
-581.821	-55.435	0.136	-0.061
-580.806	-200.000	0.046	-0.359
-579.792	216.287	0.188	-0.301
-578.777	-114.134	0.158	0.031
-577.763	231.359	0.137	0.226
-576.748	-200.000	-0.061	-0.407
-575.733	-58.947	0.191	0.083
-574.719	59.290	-0.078	0.077
-573.704	-113.865	-0.414	0.081
-572.690	-200.000	-0.040	0.280
-571.675	330.021	0.178	-0.344
-570.661	-6.480	-0.208	0.142
-569.646	-200.000	0.031	-0.237
-568.631	800.000	0.047	0.146
-567.617	23.582	0.287	-0.237
-566.602	-88.544	0.353	0.106
-565.588	-15.707	0.156	0.100
-564.573	-103.892	-0.303	-0.071
-563.558	-161.343	0.152	-0.008
-562.544	318.078	0.102	0.194
-561.529	230.278	-0.133	0.218
-560.515	744.705	0.170	0.461
-559.500	257.611	0.091	0.157
-558.485	-200.000	-0.005	-0.236
-557.471	114.256	-0.086	-0.105
-556.456	10.048	-0.123	-0.094
-555.442	210.102	0.042	0.066
-554.427	-144.091	0.052	-0.005
-553.412	-200.000	-0.002	0.138
-552.398	-42.395	0.266	0.136
-551.383	-61.239	-0.160	-0.068
-550.369	-200.000	-0.013	-0.070
-549.354	-150.205	0.343	0.027
-548.339	-81.414	-0.073	-0.024
-547.325	-154.866	-0.262	-0.017
-546.310	-200.000	0.030	0.339
-545.296	142.627	0.302	0.404
-544.281	-116.168	-0.263	0.049
-543.266	-91.735	-0.056	0.016
-542.252	682.637	-0.085	0.223
-541.237	-200.000	0.026	0.359
-540.223	-200.000	0.023	-0.161
-539.208	-160.253	0.174	0.009
-538.193	71.287	0.257	0.268
-537.179	85.109	0.147	0.162
-536.164	90.885	0.146	0.165
-535.150	-166.351	0.155	-0.007
-534.135	-200.000	0.013	-0.423
-533.121	-200.000	0.000	-0.101
-532.106	55.126	0.057	0.055
-531.091	236.729	-0.202	-0.336
-530.077	-11.431	-0.093	-0.061
-529.062	623.726	0.015	0.037
-528.048	-111.605	-0.323	-0.066
-527.033	-124.360	-0.142	-0.022
-526.018	-7.909	-0.162	0.110
-525.004	-200.000	-0.020	0.197
-523.989	-145.476	0.292	0.026
-522.975	-31.215	0.159	-0.090
-521.960	-135.540	-0.280	-0.033
-520.945	64.441	-0.146	-0.148
-519.931	30.432	0.101	0.086
-518.916	212.170	0.123	-0.195
-517.902	-146.830	0.150	-0.013
-516.887	-192.233	-0.198	0.002
-515.872	-2.514	-0.157	0.111
-514.858	-85.261	0.013	0.004
-513.843	-74.406	0.036	0.013
-512.829	-86.437	-0.175	0.054
-511.814	-102.007	-0.302	0.073
-510.799	-74.035	-0.088	0.032
-509.785	135.758	-0.073	-0.096
-508.770	-116.749	-0.232	-0.043
-507.756	-57.494	-0.228	-0.100
-506.741	-200.000	0.010	0.094
-505.726	131.778	-0.140	0.181
-504.712	170.287	0.057	0.082
-503.697	-200.000	0.008	-0.126
-502.683	800.000	0.018	-0.059
-501.668	-200.000	-0.008	0.113
-500.653	-44.774	-0.230	-0.115
-499.639	800.000	-0.066	-0.225
-498.624	106.581	-0.186	0.221
-497.610	800.000	-0.142	-0.401
-496.595	24.797	0.122	-0.101
-495.581	-39.032	0.350	0.185
-494.566	-67.550	-0.284	-0.112
-493.551	-52.271	0.170	0.079
-492.537	38.599	0.105	-0.094
-491.522	-56.577	0.151	-0.067
-490.508	-40.265	0.054	0.028
-489.493	-84.017	0.231	0.074
-488.478	535.287	0.087	-0.208
-487.464	-66.382	-0.286	0.114
-486.449	139.273	0.075	-0.099
-485.435	-104.240	0.279	0.065
-484.420	-12.626	0.202	-0.132
-483.405	-108.635	-0.138	0.030
-482.391	-67.269	-0.046	0.018
-481.376	-146.733	-0.131	-0.011
-480.362	-200.000	0.024	-0.187
-479.347	-66.022	0.135	-0.054
-478.332	800.000	0.040	0.150
-477.318	800.000	-0.047	-0.143
-476.303	72.173	0.197	0.205
-475.289	-96.811	0.221	0.058
-474.274	287.550	-0.101	0.183
-473.259	-35.987	0.168	-0.091
-472.245	800.000	-0.039	-0.144
-471.230	97.805	0.135	-0.155
-470.216	736.471	-0.057	0.153
-469.201	800.000	-0.010	-0.034
-468.186	259.574	-0.044	-0.077
-467.172	137.565	0.299	-0.392
-466.157	223.949	-0.119	0.193
-465.143	421.277	-0.082	-0.175
-464.128	-89.343	-0.229	0.067
-463.113	153.116	-0.160	0.219
-462.099	25.035	0.309	0.257
-461.084	-84.117	0.312	-0.099
-460.070	134.227	0.137	-0.177
-459.055	-87.937	0.255	-0.077
-458.040	298.920	-0.222	-0.410
-457.026	182.966	0.079	-0.117
-456.011	358.976	-0.045	0.091
-454.997	104.137	0.157	0.185
-453.982	278.119	-0.038	0.068
-452.968	-104.685	0.292	-0.067
-451.953	84.945	-0.234	0.257
-450.938	-88.619	-0.376	-0.112
-449.924	158.081	0.080	-0.111
-448.909	229.115	-0.216	-0.353
-447.895	106.101	0.098	0.117
-446.880	93.499	0.052	-0.059
-445.865	-6.465	0.137	-0.093
-444.851	-200.000	-0.007	0.220
-443.836	-136.544	0.094	0.011
-442.822	193.727	-0.280	-0.424
-441.807	-200.000	0.002	-0.010
-440.792	177.104	-0.061	0.090
-439.778	30.484	0.292	0.250
-438.763	-21.166	-0.333	0.204
-437.749	-9.634	0.114	0.076
-436.734	-36.920	0.292	-0.157
-435.719	-63.449	-0.146	0.060
-434.705	6.615	-0.118	0.088
-433.690	800.000	0.099	0.317
-432.676	136.134	0.163	0.213
-431.661	423.174	-0.051	0.110
-430.646	800.000	0.024	-0.089
-429.632	59.734	-0.063	-0.062
-428.617	-200.000	0.022	0.128
-427.603	-200.000	0.032	0.252
-426.588	-94.118	0.171	-0.047
-425.573	-49.606	0.097	-0.046
-424.559	-94.571	0.184	-0.050
-423.544	160.219	0.112	-0.156
-422.530	83.234	0.061	0.067
-421.515	95.400	-0.134	0.153
-420.500	800.000	0.043	-0.146
-419.486	-105.510	0.221	0.050
-418.471	108.538	0.181	0.216
-417.457	-116.978	-0.457	0.084
-416.442	334.704	0.057	-0.111
-415.428	-22.657	-0.245	0.148
-414.413	112.890	0.040	0.048
-413.398	-35.203	-0.118	-0.064
-412.384	-200.000	0.010	0.210
-411.369	587.777	-0.236	0.582
-410.355	-95.275	-0.300	0.081
-409.340	-200.000	-0.017	-0.183
-408.325	470.134	-0.096	-0.216
-407.311	-200.000	0.085	-0.440
-406.296	-141.214	-0.267	-0.027
-405.282	800.000	-0.150	-0.426
-404.267	-73.833	-0.303	0.110
-403.252	-12.345	-0.158	-0.103
-402.238	98.073	-0.017	-0.019
-401.223	-20.940	-0.143	-0.088
-400.209	-59.813	0.142	-0.061
-399.194	-125.468	0.182	-0.028
-398.179	35.861	-0.290	0.255
-397.165	618.563	0.131	0.330
-396.150	35.033	-0.223	0.195
-395.136	-185.072	0.073	0.001
-394.121	-200.000	0.046	-0.216
-393.106	-200.000	-0.003	0.411
-392.092	-119.135	-0.270	0.047
-391.077	800.000	0.117	-0.382
-390.063	-140.870	0.157	0.016
-389.048	-55.024	0.299	0.134
-388.033	94.684	-0.263	0.299
-387.019	800.000	0.030	0.097
-386.004	800.000	0.040	0.158
-384.990	-7.806	-0.189	0.127
-383.975	-97.729	-0.199	0.052
-382.960	64.797	0.153	0.155
-381.946	72.969	-0.140	-0.146
-380.931	-200.000	0.044	-0.313
-379.917	-200.000	-0.002	-0.140
-378.902	800.000	-0.052	-0.162
-377.888	367.632	0.094	-0.189
-376.873	800.000	0.044	0.171
-375.858	800.000	0.086	-0.284
-374.844	800.000	-0.064	-0.236
-373.829	-34.248	-0.052	0.029
-372.815	155.332	0.044	0.061
-371.800	-77.003	0.306	-0.107
-370.785	-200.000	-0.048	-0.214
-369.771	407.484	-0.070	0.148
-368.756	90.651	0.055	-0.061
-367.742	-15.330	0.210	0.134
-366.727	800.000	-0.051	0.212
-365.712	-126.481	-0.131	0.019
-364.698	404.057	-0.059	0.124
-363.683	441.065	-0.047	0.103
-362.669	13.238	0.181	-0.140
-361.654	69.544	-0.242	0.248
-360.639	800.000	0.066	-0.277
-359.625	142.209	0.117	-0.156
-358.610	23.818	-0.055	-0.045
-357.596	-178.386	-0.228	0.005
-356.581	-80.591	-0.086	-0.029
-355.566	-200.000	-0.001	-0.117
-354.552	800.000	-0.082	0.256
-353.537	92.794	0.061	-0.068
-352.523	-126.947	-0.204	0.030
-351.508	-200.000	-0.005	-0.073
-350.493	-200.000	-0.032	-0.412
-349.479	-147.415	-0.229	-0.019
-348.464	786.737	0.084	-0.230
-347.450	28.055	0.227	0.191
-346.435	-32.188	-0.369	0.206
-345.420	-200.000	-0.019	-0.083
-344.406	187.294	0.160	0.238
-343.391	-89.300	0.118	-0.035
-342.377	-200.000	-0.063	-0.310
-341.362	11.179	-0.190	-0.145
-340.348	-165.730	-0.233	0.010
-339.333	800.000	0.040	-0.133
-338.318	-110.898	-0.232	-0.048
-337.304	-200.000	-0.009	0.284
-336.289	-78.667	0.097	-0.033
-335.275	258.297	0.039	-0.068
-334.260	-200.000	0.036	0.237
-333.245	-26.361	-0.048	0.028
-332.231	-80.441	-0.205	-0.068
-331.216	80.399	-0.219	0.235
-330.202	-71.884	0.106	-0.040
-329.187	-54.077	0.165	0.075
-328.172	38.009	-0.172	0.153
-327.158	-200.000	-0.013	0.294
-326.143	-43.179	-0.326	-0.164
-325.129	-129.273	0.252	-0.035
-324.114	47.058	0.186	-0.172
-323.099	383.404	0.070	-0.143
-322.085	-14.718	-0.387	0.247
-321.070	134.516	-0.080	0.104
-320.056	-139.968	0.297	0.031
-319.041	-88.863	0.090	-0.027
-318.026	-77.309	0.233	0.081
-317.012	481.477	0.082	0.185
-315.997	-200.000	0.029	-0.229
-314.983	-0.660	-0.136	0.096
-313.968	-179.752	0.188	-0.004
-312.953	26.562	0.278	-0.231
-311.939	89.912	0.023	0.025
-310.924	-179.968	-0.128	-0.003
-309.910	-12.233	0.061	0.040
-308.895	800.000	0.027	0.096
-307.880	453.892	-0.110	0.242
-306.866	-143.700	0.299	-0.028
-305.851	190.209	-0.212	-0.317
-304.837	-183.567	-0.265	0.005
-303.822	800.000	-0.112	0.428
-302.807	611.961	-0.016	0.040
-301.793	200.131	-0.084	-0.128
-300.778	156.428	-0.121	-0.166
-299.764	-82.492	0.276	-0.089
-298.749	-148.430	-0.198	0.016
-297.735	-200.000	0.014	0.320
-296.720	-2.628	-0.101	0.070
-295.705	76.146	-0.336	-0.355
-294.691	-157.963	-0.239	0.014
-293.676	800.000	0.137	-0.429
-292.662	800.000	-0.037	-0.115
-291.647	-200.000	-0.024	-0.233
-290.632	283.298	-0.155	0.277
-289.618	-92.247	0.148	0.042
-288.603	22.702	0.234	-0.190
-287.589	-66.696	-0.191	0.075
-286.574	55.311	-0.178	-0.171
-285.559	76.000	-0.094	0.098
-284.545	72.035	0.175	0.181
-283.530	-200.000	-0.037	0.193
-282.516	110.029	0.101	0.120
-281.501	-59.893	-0.240	-0.102
-280.486	-70.498	0.366	-0.138
-279.472	-200.000	-0.017	0.186
-278.457	-36.123	-0.118	-0.064
-277.443	-143.970	-0.176	0.016
-276.428	-200.000	0.021	0.105
-275.413	-12.504	0.392	0.254
-274.399	72.500	-0.144	-0.149
-273.384	-64.350	-0.101	-0.041
-272.370	219.139	0.119	-0.189
-271.355	-200.000	0.114	0.000
-270.340	-200.000	-0.034	-0.263
-269.326	-75.505	-0.021	0.007
-268.311	-112.579	-0.372	-0.074
-267.297	190.853	-0.098	-0.147
-266.282	-80.520	-0.139	0.046
-265.267	121.762	0.166	-0.205
-264.253	-113.863	-0.206	-0.040
-263.238	40.675	0.049	-0.044
-262.224	800.000	0.124	0.362
-261.209	-200.000	-0.016	-0.075
-260.195	-95.552	0.189	0.050
-259.180	42.631	-0.246	0.223
-258.165	173.499	0.056	0.080
-257.151	199.881	-0.075	0.114
-256.136	-113.931	0.462	0.089
-255.122	-60.586	-0.105	0.044
-254.107	-73.156	-0.057	-0.021
-253.092	128.340	-0.226	-0.286
-252.078	-200.000	0.031	-0.190
-251.063	-61.148	0.281	-0.118
-250.049	111.299	-0.042	0.051
-249.034	164.303	-0.142	0.198
-248.019	110.519	0.134	0.160
-247.005	418.512	-0.109	0.232
-245.990	-200.000	-0.035	0.241
-244.976	-200.000	0.002	0.118
-243.961	22.766	-0.078	0.063
-242.946	-141.396	-0.392	-0.040
-241.932	800.000	-0.076	-0.252
-240.917	-20.568	0.193	-0.118
-239.903	-200.000	-0.039	0.370
-238.888	-200.000	0.034	-0.285
-237.873	-200.000	0.256	-0.000
-236.859	161.954	-0.130	-0.180
-235.844	-200.000	-0.019	-0.145
-234.830	-120.299	-0.092	0.016
-233.815	800.000	0.060	0.249
-232.800	28.640	-0.217	0.183
-231.786	-200.000	-0.029	0.173
-230.771	-200.000	-0.012	-0.186
-229.757	-123.838	-0.140	-0.022
-228.742	-2.743	0.099	0.069
-227.727	-36.774	-0.093	-0.049
-226.713	324.151	-0.253	0.480
-225.698	-200.000	-0.014	-0.146
-224.684	-81.892	0.316	0.103
-223.669	800.000	0.082	-0.229
-222.655	103.511	0.134	-0.156
-221.640	-0.135	-0.341	0.241
-220.625	135.033	0.062	0.079
-219.611	-200.000	-0.018	-0.231
-218.596	-161.748	-0.316	0.016
-217.582	28.743	-0.218	0.183
-216.567	-163.573	-0.179	0.008
-215.552	211.082	0.079	-0.123
-214.538	-155.874	0.258	0.016
-213.523	0.252	0.261	-0.185
-212.509	800.000	0.059	-0.256
-211.494	-57.911	0.169	0.073
-210.479	27.508	-0.119	-0.099
-209.465	-200.000	-0.004	0.018
-208.450	-200.000	0.000	-0.009
-207.436	-30.486	-0.223	0.126
-206.421	-50.300	0.212	-0.100
-205.406	800.000	0.078	0.241
-204.392	-200.000	0.058	-0.396
-203.377	-122.588	0.247	0.040
-202.363	413.077	0.013	0.028
-201.348	-200.000	0.026	0.355
-200.333	44.132	0.418	0.380
-199.319	-93.771	0.213	0.058
-198.304	-45.785	-0.185	-0.091
-197.290	800.000	0.054	-0.213
-196.275	309.575	0.136	0.251
-195.260	-200.000	0.017	-0.301
-194.246	800.000	0.081	-0.285
-193.231	-155.633	-0.158	0.010
-192.217	-113.424	0.176	-0.034
-191.202	-156.102	0.126	-0.008
-190.187	800.000	0.108	0.304
-189.173	-104.426	0.132	-0.030
-188.158	-74.034	0.305	0.110
-187.144	-22.481	-0.272	0.163
-186.129	11.897	-0.077	0.059
-185.114	-200.000	-0.003	0.126
-184.100	-48.735	0.301	0.143
-183.085	9.311	0.241	-0.180
-182.071	5.001	0.521	-0.380
-181.056	-106.162	-0.117	0.026
-180.042	-108.487	0.200	0.043
-179.027	-190.602	-0.172	-0.002
-178.012	42.065	-0.193	0.174
-176.998	-105.589	-0.341	0.077
-175.983	-139.203	-0.390	0.042
-174.969	-28.385	0.428	-0.245
-173.954	-84.822	0.234	-0.073
-172.939	7.200	0.346	-0.256
-171.925	169.593	-0.173	-0.244
-170.910	-200.000	0.006	0.279
-169.896	-200.000	-0.001	0.044
-168.881	-200.000	0.002	-0.030
-167.866	591.304	0.163	-0.398
-166.852	-198.860	-0.390	-0.002
-165.837	137.571	0.039	-0.050
-164.823	800.000	-0.115	-0.462
-163.808	-73.030	-0.194	-0.070
-162.793	-89.211	-0.212	-0.062
-161.779	-200.000	-0.007	0.233
-160.764	-200.000	0.065	-0.409
-159.750	-200.000	-0.046	0.254
-158.735	-119.560	0.104	-0.018
-157.720	800.000	0.060	0.187
-156.706	-127.851	0.115	-0.016
-155.691	60.426	-0.158	-0.155
-154.677	115.649	0.104	0.125
-153.662	-104.360	-0.177	0.041
-152.647	-2.551	-0.158	-0.109
-151.633	800.000	-0.049	0.144
-150.618	241.573	-0.165	0.273
-149.604	-200.000	0.012	0.444
-148.589	95.812	-0.067	-0.076
-147.574	800.000	-0.086	0.238
-146.560	-16.024	0.271	-0.171
-145.545	-101.285	0.100	-0.024
-144.531	-82.599	0.360	-0.115
-143.516	129.212	0.187	-0.236
-142.502	166.491	0.160	0.224
-141.487	106.883	0.170	-0.200
-140.472	12.229	0.170	0.130
-139.458	800.000	0.035	-0.130
-138.443	117.844	0.151	-0.184
-137.429	-70.339	0.213	0.080
-136.414	800.000	0.061	-0.251
-135.399	92.337	0.055	0.061
-134.385	-200.000	0.012	-0.062
-133.370	71.648	-0.175	-0.180
-132.356	647.794	0.129	-0.327
-131.341	800.000	-0.040	0.164
-130.326	19.117	-0.207	0.164
-129.312	155.097	0.098	0.134
-128.297	-200.000	-0.032	0.311
-127.283	-49.843	0.244	0.115
-126.268	-200.000	0.051	-0.487
-125.253	-23.348	0.265	-0.157
-124.239	12.465	0.176	-0.134
-123.224	117.824	-0.133	0.162
-122.210	265.896	-0.095	0.163
