DTS Sentinel unit serial number:	SN413079Multiplexer serial number:	ORYXHardware model number:	OX4-SRSoftware version number:	ORYX F/W v4.00 Oryx Data Collector v3.7.2.0data status	okinstallation	princeton_trtdifferential loss correction	single-endedforward channel	channel 2reverse channel	N/Adate	2019/09/13time	20:39:35forward acquisition time	60.00reverse acquisition time	0.00gamma	496.2192k internal	0.2334k external	0.2334temperature offset calibration	1.0136default loss term (dB/km)	0.3790temperature slope calibration	1.0000multiplexer offset coefficient	1.0000multiplexer slope coefficient	1.0000fibre end	0.00T internal ref (°C)	28.94T ext. ref 1 (°C)	3.26T ext. ref 2 (°C)	23.49length (m)	temperature (°C)	Stokes	anti-Stokes-747.200	87.049	-0.217	-0.241
-746.185	-76.336	-0.308	0.109
-745.171	-200.000	0.003	0.354
-744.156	-200.000	-0.039	0.252
-743.142	97.706	0.190	-0.219
-742.127	-101.498	-0.311	-0.076
-741.112	800.000	0.049	0.145
-740.098	421.107	0.032	0.068
-739.083	-96.276	0.072	0.019
-738.069	-189.179	0.122	-0.001
-737.054	4.675	-0.056	0.042
-736.039	-171.981	-0.136	-0.004
-735.025	56.428	0.236	0.231
-734.010	-60.591	-0.334	0.143
-732.996	29.164	0.199	-0.169
-731.981	-71.973	-0.074	0.028
-730.966	-53.174	-0.151	-0.070
-729.952	-200.000	-0.019	-0.175
-728.937	-72.742	-0.063	-0.023
-727.923	-200.000	-0.444	0.002
-726.908	-139.810	-0.328	0.035
-725.894	-18.909	-0.248	0.155
-724.879	800.000	0.033	-0.093
-723.864	800.000	0.020	0.067
-722.850	-118.241	-0.454	-0.081
-721.835	-200.000	-0.010	-0.471
-720.821	234.226	0.008	-0.013
-719.806	-63.596	0.245	-0.101
-718.791	355.428	0.153	0.305
-717.777	-178.968	-0.470	-0.011
-716.762	-60.653	0.230	-0.098
-715.748	543.088	-0.037	0.089
-714.733	-107.350	-0.045	0.010
-713.718	-91.139	-0.068	-0.020
-712.704	800.000	-0.045	0.188
-711.689	8.714	0.173	-0.131
-710.675	-200.000	0.014	-0.625
-709.660	-92.401	-0.265	-0.075
-708.645	153.065	0.038	-0.052
-707.631	532.620	-0.223	-0.530
-706.616	173.155	-0.142	-0.206
-705.602	13.289	0.542	-0.421
-704.587	757.462	-0.049	0.134
-703.572	551.184	0.057	0.138
-702.558	162.823	0.134	-0.189
-701.543	-84.551	-0.314	0.100
-700.529	-119.605	-0.303	-0.053
-699.514	201.795	0.087	-0.135
-698.499	-27.384	-0.235	0.137
-697.485	351.232	0.097	-0.193
-696.470	-40.997	0.005	0.002
-695.456	-11.149	0.251	0.166
-694.441	441.045	0.147	-0.323
-693.426	284.989	-0.069	-0.124
-692.412	6.134	-0.178	-0.132
-691.397	310.085	0.058	-0.110
-690.383	-200.000	-0.017	-0.210
-689.368	-147.825	-0.145	-0.012
-688.354	-135.508	-0.262	-0.031
-687.339	3.302	-0.057	-0.041
-686.324	-200.000	0.015	-0.114
-685.310	-89.285	0.201	0.059
-684.295	-3.186	-0.032	0.023
-683.281	-83.245	-0.355	-0.114
-682.266	228.900	0.187	-0.306
-681.251	800.000	-0.035	0.107
-680.237	386.792	0.068	0.141
-679.222	-96.282	-0.387	-0.103
-678.208	61.630	-0.059	-0.059
-677.193	-56.804	-0.320	0.142
-676.178	-200.000	-0.009	0.236
-675.164	-122.204	-0.352	-0.058
-674.149	-200.000	0.175	0.000
-673.135	-200.000	-0.004	0.054
-672.120	201.499	0.168	-0.259
-671.105	308.659	-0.029	0.055
-670.091	-35.150	-0.147	-0.080
-669.076	800.000	0.027	0.106
-668.062	800.000	-0.045	0.180
-667.047	800.000	-0.069	0.258
-666.032	-35.689	0.249	-0.136
-665.018	29.545	-0.251	-0.214
-664.003	-90.119	-0.053	-0.015
-662.989	-54.611	0.063	-0.029
-661.974	-97.878	0.130	0.034
-660.959	-200.000	-0.033	-0.148
-659.945	224.459	-0.029	-0.048
-658.930	-180.221	-0.133	-0.003
-657.916	-164.018	0.178	-0.008
-656.901	-122.918	-0.245	0.039
-655.886	771.520	-0.114	-0.310
-654.872	-182.906	-0.238	-0.004
-653.857	-134.649	-0.076	-0.009
-652.843	180.435	0.139	-0.204
-651.828	173.602	-0.194	0.280
-650.814	111.948	0.118	0.143
-649.799	800.000	-0.036	-0.156
-648.784	-200.000	0.009	0.090
-647.770	175.187	0.183	-0.265
-646.755	224.766	0.067	0.108
-645.741	34.189	0.054	0.047
-644.726	209.703	-0.059	-0.093
-643.711	108.999	-0.198	-0.237
-642.697	-134.828	0.292	0.035
-641.682	219.027	0.165	0.264
-640.668	-49.872	0.177	0.084
-639.653	-200.000	0.016	-0.072
-638.638	-35.249	0.051	-0.028
-637.624	-91.943	-0.191	-0.054
-636.609	51.939	-0.083	0.079
-635.595	-26.215	-0.127	-0.075
-634.580	137.379	-0.260	0.340
-633.565	-200.000	-0.005	-0.118
-632.551	118.318	0.207	0.255
-631.536	-200.000	0.012	0.061
-630.522	-15.624	-0.182	-0.116
-629.507	452.817	-0.101	-0.224
-628.492	4.773	-0.241	-0.177
-627.478	-40.703	0.005	0.002
-626.463	205.205	-0.096	0.149
-625.449	348.144	0.018	0.035
-624.434	148.294	-0.158	-0.213
-623.419	-84.642	0.083	0.026
-622.405	11.467	0.329	-0.252
-621.390	-151.184	-0.307	0.023
-620.376	28.644	-0.145	0.123
-619.361	-109.414	-0.044	-0.009
-618.346	-55.300	-0.208	-0.094
-617.332	-163.371	0.175	0.008
-616.317	-164.228	-0.022	-0.001
-615.303	-42.441	0.144	-0.073
-614.288	-200.000	-0.007	0.211
-613.273	-34.598	0.082	-0.045
-612.259	-200.000	0.025	0.133
-611.244	-200.000	-0.033	0.280
-610.230	-37.690	0.112	-0.060
-609.215	-118.804	0.114	-0.020
-608.201	-10.550	0.230	0.152
-607.186	-63.041	0.068	-0.028
-606.171	166.658	-0.098	0.139
-605.157	157.500	0.043	-0.060
-604.142	22.825	-0.228	0.187
-603.128	89.927	0.144	-0.161
-602.113	-56.120	-0.187	-0.083
-601.098	800.000	0.074	-0.270
-600.084	27.983	0.276	-0.233
-599.069	380.499	0.107	0.219
-598.055	35.115	-0.039	0.035
-597.040	-116.518	-0.065	0.012
-596.025	-48.945	-0.379	-0.181
-595.011	150.266	0.109	-0.148
-593.996	-200.000	-0.051	-0.534
-592.982	61.469	-0.161	-0.160
-591.967	-61.661	-0.211	-0.089
-590.952	800.000	0.061	-0.201
-589.938	576.717	-0.031	0.075
-588.923	-113.903	0.325	-0.063
-587.909	-54.001	-0.399	-0.182
-586.894	-157.932	-0.156	0.009
-585.879	286.830	-0.162	0.292
-584.865	-171.895	0.238	0.008
-583.850	-93.699	0.052	0.014
-582.836	267.058	0.007	-0.013
-581.821	709.458	0.051	-0.135
-580.806	-124.836	-0.361	0.056
-579.792	-138.343	0.254	-0.028
-578.777	227.432	0.039	0.063
-577.763	547.046	0.084	-0.201
-576.748	286.174	0.100	0.181
-575.733	-132.453	-0.057	0.007
-574.719	132.890	-0.315	-0.406
-573.704	-198.259	-0.098	-0.001
-572.690	-200.000	-0.044	-0.369
-571.675	103.257	-0.167	-0.196
-570.661	218.720	0.071	-0.113
-569.646	-200.000	-0.040	-0.342
-568.631	-22.986	0.125	-0.075
-567.617	-48.322	0.334	-0.161
-566.602	-154.687	-0.072	0.005
-565.588	-200.000	-0.006	0.120
-564.573	23.841	-0.303	-0.249
-563.558	37.372	0.125	0.111
-562.544	174.664	0.061	0.088
-561.529	800.000	0.023	-0.067
-560.515	239.575	0.123	-0.204
-559.500	376.240	0.170	-0.346
-558.485	-200.000	0.054	-0.349
-557.471	24.059	0.143	-0.118
-556.456	280.050	-0.160	0.285
-555.442	-96.197	-0.064	0.017
-554.427	172.873	-0.108	-0.155
-553.412	185.415	-0.101	0.150
-552.398	13.087	0.252	0.194
-551.383	-59.261	-0.249	0.107
-550.369	60.828	0.083	0.082
-549.354	360.422	-0.137	-0.274
-548.339	34.046	-0.157	-0.137
-547.325	98.452	0.031	0.036
-546.310	165.738	-0.136	0.192
-545.296	-43.112	0.065	0.033
-544.281	97.056	0.142	-0.162
-543.266	-71.307	0.333	-0.124
-542.252	-114.803	-0.357	-0.068
-541.237	-23.121	0.063	0.038
-540.223	111.656	-0.034	-0.040
-539.208	123.810	-0.088	-0.110
-538.193	-136.128	-0.338	0.039
-537.179	-90.606	-0.367	0.106
-536.164	16.984	0.078	0.062
-535.150	-78.280	0.137	0.047
-534.135	-153.597	-0.343	0.024
-533.121	-10.745	-0.106	0.070
-532.106	-9.540	-0.454	-0.302
-531.091	-200.000	0.014	0.377
-530.077	-127.047	0.200	0.029
-529.062	522.361	0.078	0.182
-528.048	-200.000	0.002	-0.078
-527.033	188.571	-0.117	0.174
-526.018	49.847	-0.163	0.153
-525.004	-168.359	0.181	-0.007
-523.989	-200.000	-0.037	-0.178
-522.975	-125.537	-0.347	0.053
-521.960	157.803	0.241	0.332
-520.945	90.574	0.160	0.178
-519.931	39.199	-0.128	-0.114
-518.916	-200.000	-0.005	-0.075
-517.902	284.165	0.135	0.242
-516.887	-200.000	0.037	0.280
-515.872	-7.585	-0.164	0.110
-514.858	510.657	0.108	0.250
-513.843	88.569	-0.040	-0.045
-512.829	-69.092	0.053	0.020
-511.814	686.920	0.100	0.260
-510.799	-65.180	-0.092	-0.037
-509.785	-142.724	0.241	0.023
-508.770	51.377	0.195	0.185
-507.756	13.760	-0.275	-0.213
-506.741	371.130	0.119	0.241
-505.726	-45.149	0.130	0.064
-504.712	-14.755	0.161	-0.103
-503.697	800.000	0.113	-0.440
-502.683	101.572	0.144	-0.168
-501.668	108.452	0.308	0.366
-500.653	264.330	0.165	0.286
-499.639	55.861	-0.404	0.390
-498.624	-112.481	0.397	-0.079
-497.610	-135.017	-0.144	0.017
-496.595	73.451	0.262	-0.273
-495.581	-125.786	0.361	0.054
-494.566	-200.000	0.019	-0.184
-493.551	-186.365	0.426	0.006
-492.537	46.133	-0.305	0.281
-491.522	-200.000	0.049	0.235
-490.508	73.210	-0.069	0.072
-489.493	-200.000	-0.015	0.139
-488.478	-14.354	-0.056	0.036
-487.464	211.481	-0.133	-0.208
-486.449	-159.021	-0.077	0.004
-485.435	50.012	-0.210	0.197
-484.420	-15.935	0.205	0.130
-483.405	90.541	0.283	0.315
-482.391	33.798	-0.189	-0.164
-481.376	-43.434	-0.163	0.082
-480.362	-200.000	-0.016	-0.081
-479.347	800.000	-0.012	0.053
-478.332	-200.000	0.065	-0.388
-477.318	65.995	0.183	0.184
-476.303	-60.892	0.349	0.147
-475.289	-31.831	-0.486	0.271
-474.274	63.415	-0.209	-0.209
-473.259	220.708	-0.138	-0.220
-472.245	-107.870	-0.305	-0.066
-471.230	-200.000	-0.063	-0.305
-470.216	-200.000	0.051	0.291
-469.201	158.684	0.193	-0.267
-468.186	-55.139	-0.098	-0.044
-467.172	130.257	0.132	0.168
-466.157	51.992	0.142	-0.134
-465.143	509.724	-0.017	0.038
-464.128	315.960	-0.023	0.044
-463.113	104.117	-0.070	-0.082
-462.099	107.252	-0.129	-0.153
-461.084	74.844	-0.157	-0.164
-460.070	-111.791	-0.121	0.024
-459.055	337.130	-0.103	-0.199
-458.040	800.000	0.057	0.211
-457.026	106.818	0.128	0.151
-456.011	-80.648	-0.090	0.030
-454.997	-107.371	-0.192	-0.042
-453.982	384.599	-0.022	-0.046
-452.968	-113.018	0.117	-0.023
-451.953	56.746	-0.230	-0.222
-450.938	-93.623	0.242	0.066
-449.924	800.000	0.054	0.227
-448.909	46.706	-0.149	-0.138
-447.895	69.274	-0.262	0.268
-446.880	476.566	-0.154	0.347
-445.865	374.347	-0.165	-0.333
-444.851	-93.846	0.231	-0.063
-443.836	800.000	0.096	-0.290
-442.822	13.205	0.121	0.093
-441.807	-109.720	0.229	0.048
-440.792	-116.944	-0.115	0.021
-439.778	-200.000	0.009	0.046
-438.763	73.046	0.108	-0.112
-437.749	-166.027	0.364	-0.015
-436.734	-200.000	-0.009	0.189
-435.719	362.806	0.061	-0.121
-434.705	-140.087	-0.210	0.022
-433.690	-200.000	0.035	0.172
-432.676	-200.000	0.009	0.277
-431.661	-56.085	-0.143	0.063
-430.646	379.034	0.065	-0.132
-429.632	-101.330	-0.137	0.033
-428.617	-200.000	0.089	0.466
-427.603	-37.558	-0.069	-0.037
-426.588	-80.049	-0.183	-0.061
-425.573	-123.877	-0.317	0.050
-424.559	-50.414	-0.195	0.091
-423.544	524.352	-0.065	0.151
-422.530	-200.000	0.203	-0.001
-421.515	-200.000	0.002	0.446
-420.500	510.764	-0.050	-0.116
-419.486	447.810	0.119	0.259
-418.471	800.000	-0.016	0.070
-417.457	-90.228	-0.164	0.047
-416.442	-135.743	-0.130	0.015
-415.428	-200.000	-0.013	-0.312
-414.413	-66.237	0.238	0.094
-413.398	-90.373	0.296	-0.085
-412.384	210.250	-0.152	-0.237
-411.369	-44.063	-0.169	0.084
-410.355	-61.375	0.056	0.023
-409.340	800.000	0.086	0.251
-408.325	-98.863	0.062	0.016
-407.311	-47.798	-0.130	0.062
-406.296	800.000	0.068	0.284
-405.282	144.576	-0.080	0.106
-404.267	-139.407	-0.120	-0.013
-403.252	142.439	0.199	0.262
-402.238	-143.884	0.645	-0.060
-401.223	800.000	-0.024	0.089
-400.209	18.517	-0.393	-0.311
-399.194	-200.000	0.007	0.256
-398.179	-99.008	0.197	0.050
-397.165	-200.000	0.005	-0.048
-396.150	53.650	-0.066	0.063
-395.136	-182.003	-0.096	0.002
-394.121	-41.398	0.045	-0.023
-393.106	125.527	0.179	0.224
-392.092	-75.726	-0.102	0.036
-391.077	-51.188	-0.187	0.087
-390.063	-72.060	-0.164	-0.060
-389.048	34.764	0.101	-0.088
-388.033	501.522	-0.035	0.080
-387.019	-200.000	-0.022	-0.175
-386.004	800.000	0.068	-0.249
-384.990	-153.397	-0.371	0.026
-383.975	494.563	0.021	0.049
-382.960	6.990	-0.303	0.224
-381.946	-127.351	0.346	0.050
-380.931	29.472	0.277	-0.234
-379.917	-200.000	0.020	-0.139
-378.902	800.000	-0.124	-0.438
-377.888	-138.046	0.264	0.029
-376.873	-200.000	-0.033	-0.166
-375.858	-200.000	-0.020	-0.186
-374.844	800.000	0.019	0.081
-373.829	-88.085	0.105	-0.031
-372.815	-85.328	0.302	0.093
-371.800	545.622	-0.072	0.170
-370.785	276.749	-0.063	0.111
-369.771	800.000	0.076	-0.280
-368.756	800.000	-0.091	-0.379
-367.742	-157.545	0.192	-0.011
-366.727	320.344	0.128	0.241
-365.712	-88.743	-0.171	0.050
-364.698	-146.695	-0.389	0.033
-363.683	-103.448	-0.048	0.011
-362.669	264.643	0.065	-0.113
-361.654	13.756	0.322	0.248
-360.639	418.732	0.093	-0.196
-359.625	-121.186	-0.274	0.045
-358.610	193.057	-0.093	0.139
-357.596	-151.919	0.220	0.016
-356.581	138.415	-0.103	-0.134
-355.566	155.282	0.032	0.043
-354.552	-200.000	-0.009	0.061
-353.537	261.725	-0.107	0.184
-352.523	81.100	0.147	-0.157
-351.508	34.661	0.258	0.223
-350.493	39.103	0.260	0.230
-349.479	6.191	0.129	0.094
-348.464	800.000	-0.058	0.179
-347.450	-200.000	-0.023	0.191
-346.435	-200.000	-0.019	-0.140
-345.420	167.092	0.232	0.325
-344.406	67.703	0.083	-0.084
-343.391	-76.584	-0.144	-0.050
-342.377	-200.000	0.037	0.196
-341.362	-117.973	-0.228	-0.040
-340.348	1.891	-0.277	-0.198
-339.333	-11.168	0.027	0.018
-338.318	-125.806	0.260	-0.039
-337.304	-200.000	-0.084	-0.366
-336.289	36.897	0.139	-0.122
-335.275	331.553	-0.113	-0.216
-334.260	294.098	0.134	-0.242
-333.245	-200.000	0.018	0.389
-332.231	-62.062	0.054	0.022
-331.216	193.468	-0.031	-0.046
-330.202	800.000	-0.048	-0.166
-329.187	-30.079	0.157	0.088
-328.172	11.575	-0.041	-0.031
-327.158	800.000	-0.030	0.092
-326.143	-103.411	0.141	-0.033
-325.129	-88.995	0.293	-0.086
-324.114	459.209	0.096	-0.211
-323.099	-200.000	0.038	0.257
-322.085	-35.751	0.139	0.074
-321.070	-110.341	-0.193	0.040
-320.056	-115.598	-0.152	-0.028
-319.041	-136.484	-0.333	-0.038
-318.026	800.000	-0.013	-0.051
-317.012	-143.663	0.302	0.028
-315.997	-200.000	0.002	-0.300
-314.983	-200.000	0.018	0.218
-313.968	-113.009	0.062	0.012
-312.953	-168.793	-0.092	0.003
-311.939	-122.602	0.435	0.070
-310.924	-33.665	-0.065	0.035
-309.910	800.000	0.135	-0.386
-308.895	-62.723	-0.073	-0.030
-307.880	712.827	-0.105	-0.275
-306.866	-102.142	-0.499	-0.119
-305.851	-48.342	-0.155	0.074
-304.837	-4.166	-0.113	-0.077
-303.822	-0.473	0.041	0.029
-302.807	487.834	0.051	-0.116
-301.793	155.862	0.012	0.016
-300.778	412.360	-0.083	-0.175
-299.764	-62.242	0.234	0.096
-298.749	306.971	0.115	-0.211
-297.735	-141.625	-0.256	-0.025
-296.720	265.014	0.112	0.193
-295.705	7.145	-0.137	-0.101
-294.691	186.932	-0.038	-0.056
-293.676	-25.454	0.059	-0.035
-292.662	-200.000	-0.004	0.070
-291.647	745.021	0.117	-0.311
-290.632	-143.500	0.278	0.026
-289.618	490.927	0.082	-0.185
-288.603	350.382	-0.106	0.206
-287.589	-200.000	-0.018	-0.260
-286.574	800.000	-0.035	0.121
-285.559	715.051	0.099	-0.259
-284.545	159.182	0.362	-0.497
-283.530	-48.171	0.281	-0.134
-282.516	75.182	0.051	0.053
-281.501	78.269	-0.212	0.224
-280.486	-15.621	0.226	-0.142
-279.472	2.909	-0.189	0.135
-278.457	10.842	-0.232	0.175
-277.443	-1.509	0.041	-0.028
-276.428	83.508	-0.195	0.210
-275.413	-138.811	0.242	-0.026
-274.399	-200.000	-0.025	-0.196
-273.384	-67.258	0.309	0.120
-272.370	-128.472	-0.099	-0.014
-271.355	-15.228	0.172	-0.108
-270.340	22.418	0.031	-0.025
-269.326	-9.658	0.106	0.070
-268.311	-138.753	-0.226	-0.024
-267.297	800.000	-0.042	-0.159
-266.282	-174.758	-0.137	-0.004
-265.267	431.484	-0.097	-0.208
-264.253	363.316	-0.035	0.069
-263.238	-200.000	0.029	0.131
-262.224	-119.493	0.192	0.033
-261.209	-44.784	-0.101	0.050
-260.195	-200.000	0.076	-0.359
-259.180	118.991	0.251	-0.306
-258.165	800.000	0.070	0.222
-257.151	197.188	-0.177	0.266
-256.136	-36.567	0.035	-0.019
-255.122	368.613	-0.021	-0.041
-254.107	-86.315	0.535	-0.162
-253.092	-105.164	-0.142	-0.032
-252.078	-66.614	-0.186	0.073
-251.063	137.780	-0.116	0.150
-250.049	-29.176	-0.148	-0.084
-249.034	-87.041	0.218	-0.066
-248.019	363.052	0.032	0.063
-247.005	-200.000	-0.120	-0.529
-245.990	800.000	0.077	0.219
-244.976	-200.000	0.030	0.160
-243.961	74.184	-0.175	-0.181
-242.946	84.883	-0.221	0.238
-241.932	-200.000	0.052	-0.234
-240.917	-200.000	0.015	-0.107
-239.903	97.271	0.130	-0.147
-238.888	104.691	-0.108	-0.126
-237.873	130.551	0.128	-0.162
-236.859	-200.000	0.017	-0.316
-235.844	52.137	-0.249	0.234
-234.830	-200.000	0.025	0.177
-233.815	-200.000	0.013	-0.063
-232.800	800.000	0.056	0.157
-231.786	222.038	-0.209	0.331
-230.771	457.641	-0.118	0.259
-229.757	-16.212	-0.288	0.180
-228.742	-35.426	0.091	-0.048
-227.727	-46.069	-0.350	0.170
-226.713	31.813	0.096	0.081
-225.698	412.948	0.107	-0.223
-224.684	332.765	0.046	-0.088
-223.669	-4.651	0.064	-0.043
-222.655	736.622	-0.081	0.213
-221.640	-200.000	-0.011	-0.298
-220.625	224.243	0.059	-0.094
-219.611	-14.734	0.039	0.025
-218.596	559.911	-0.098	-0.233
-217.582	32.184	0.387	0.329
-216.567	42.108	-0.189	0.169
-215.552	9.139	0.116	-0.086
-214.538	48.918	0.208	0.192
-213.523	-34.580	0.025	0.014
-212.509	80.853	-0.084	0.089
-211.494	91.110	0.043	-0.048
-210.479	-43.680	-0.128	-0.064
-209.465	-200.000	0.015	0.141
-208.450	222.125	0.106	0.168
-207.436	666.221	0.070	-0.178
-206.421	-186.704	-0.180	-0.002
-205.406	188.060	-0.266	0.392
-204.392	-200.000	-0.071	0.420
-203.377	-200.000	0.061	0.296
-202.363	-135.359	-0.391	0.046
-201.348	-200.000	-0.016	-0.320
-200.333	-63.978	-0.232	0.093
-199.319	-132.322	0.252	-0.032
-198.304	-105.063	0.120	-0.027
-197.290	-200.000	0.005	-0.344
-196.275	-173.920	0.173	-0.005
-195.260	-59.966	0.230	0.097
-194.246	-70.834	0.130	0.048
-193.231	184.059	0.177	-0.257
-192.217	84.447	0.093	0.100
-191.202	800.000	-0.071	0.195
-190.187	126.736	-0.136	0.169
-189.173	111.434	0.253	-0.300
-188.158	123.131	0.035	-0.043
-187.144	-200.000	-0.025	0.199
-186.129	508.912	0.118	0.270
-185.114	-144.776	-0.236	-0.021
-184.100	-138.411	-0.143	0.015
-183.085	-200.000	0.054	-0.274
-182.071	-94.403	-0.274	-0.073
-181.056	-99.746	-0.076	-0.019
-180.042	-200.000	-0.053	0.233
-179.027	-200.000	-0.014	-0.100
-178.012	106.162	-0.147	-0.171
-176.998	64.887	0.330	0.327
-175.983	-97.974	0.086	0.022
-174.969	-200.000	0.042	0.226
-173.954	20.812	0.230	-0.183
-172.939	-65.523	-0.145	0.057
-171.925	227.883	-0.202	0.322
-170.910	800.000	0.135	0.454
-169.896	43.739	0.176	0.159
-168.881	-60.508	-0.244	0.102
-167.866	-200.000	-0.000	-0.068
-166.852	549.774	0.059	0.139
-165.837	589.941	0.074	-0.178
-164.823	39.150	-0.428	0.376
-163.808	-83.943	0.291	0.091
-162.793	-200.000	-0.005	-0.245
-161.779	-200.000	0.005	-0.093
-160.764	-200.000	-0.001	-0.199
-159.750	-14.345	0.196	-0.124
-158.735	-200.000	0.064	-0.297
-157.720	222.108	0.065	0.103
-156.706	444.749	0.166	-0.357
-155.691	-53.598	-0.294	0.132
-154.677	-173.191	-0.351	0.011
-153.662	-69.815	-0.077	-0.029
-152.647	85.526	-0.084	0.090
-151.633	-138.013	0.281	0.031
-150.618	778.759	0.043	0.116
-149.604	-0.444	-0.235	0.164
-148.589	226.518	0.123	-0.195
-147.574	-82.980	-0.170	-0.054
-146.560	-200.000	0.019	0.162
-145.545	542.278	0.059	-0.138
-144.531	-153.141	0.104	0.007
-143.516	-109.400	0.119	0.025
-142.502	-31.885	-0.360	-0.198
-141.487	-200.000	-0.040	-0.208
-140.472	-200.000	0.006	-0.285
-139.458	228.677	0.051	-0.082
-138.443	-127.508	0.347	0.049
-137.429	-56.951	0.163	-0.071
-136.414	662.073	-0.042	-0.107
-135.399	-159.837	-0.211	-0.011
-134.385	-27.841	0.236	-0.134
-133.370	-12.117	-0.360	-0.231
-132.356	-75.466	-0.280	-0.098
-131.341	-46.965	-0.174	-0.084
-130.326	286.515	0.076	0.135
-129.312	2.433	0.408	0.290
-128.297	-200.000	-0.013	-0.114
-127.283	136.975	0.117	0.149
-126.268	48.760	-0.148	0.136
-125.253	800.000	0.032	0.124
-124.239	183.574	-0.224	0.326
-123.224	108.137	0.210	0.246
-122.210	320.554	-0.098	0.182
-121.195	-71.566	0.455	0.167
