DTS Sentinel unit serial number:	SN413079Multiplexer serial number:	ORYXHardware model number:	OX4-SRSoftware version number:	ORYX F/W v4.00 Oryx Data Collector v3.7.2.0data status	okinstallation	princeton_trtdifferential loss correction	single-endedforward channel	channel 2reverse channel	N/Adate	2019/09/12time	22:23:35forward acquisition time	60.00reverse acquisition time	0.00gamma	496.2192k internal	0.2330k external	0.2330temperature offset calibration	1.0178default loss term (dB/km)	0.3790temperature slope calibration	1.0000multiplexer offset coefficient	1.0000multiplexer slope coefficient	1.0000fibre end	0.00T internal ref (°C)	29.75T ext. ref 1 (°C)	3.74T ext. ref 2 (°C)	24.33length (m)	temperature (°C)	Stokes	anti-Stokes-747.200	74.107	-0.143	-0.151
-746.185	-172.170	-0.392	-0.013
-745.171	-200.000	-0.005	-0.281
-744.156	202.885	-0.035	0.054
-743.142	214.521	-0.131	-0.209
-742.127	108.061	0.025	-0.029
-741.112	-200.000	0.018	0.217
-740.098	-51.337	0.249	0.117
-739.083	-44.679	-0.358	-0.180
-738.069	-200.000	-0.042	0.247
-737.054	190.483	-0.147	0.222
-736.039	-72.430	-0.458	-0.170
-735.025	350.069	-0.018	0.036
-734.010	-135.454	0.338	-0.041
-732.996	-200.000	-0.034	-0.298
-731.981	-68.339	-0.098	-0.038
-730.966	-32.058	0.395	0.222
-729.952	231.309	0.054	-0.089
-728.937	-101.531	-0.331	-0.081
-727.923	-138.324	-0.296	0.033
-726.908	119.622	-0.291	-0.363
-725.894	-54.735	-0.256	-0.116
-724.879	800.000	-0.057	0.162
-723.864	-113.217	-0.336	-0.067
-722.850	305.986	-0.043	-0.081
-721.835	-10.349	0.077	0.051
-720.821	-73.177	0.138	-0.051
-719.806	131.944	-0.113	-0.146
-718.791	-200.000	-0.024	0.106
-717.777	-200.000	0.002	-0.111
-716.762	-200.000	-0.005	-0.159
-715.748	-91.591	0.100	-0.029
-714.733	800.000	0.005	0.018
-713.718	-109.124	0.265	0.057
-712.704	-28.919	-0.303	-0.175
-711.689	18.883	-0.140	-0.113
-710.675	647.051	-0.088	-0.225
-709.660	-200.000	-0.038	-0.188
-708.645	103.974	-0.137	0.162
-707.631	-200.000	0.042	0.218
-706.616	430.166	-0.109	-0.237
-705.602	465.122	-0.070	0.158
-704.587	364.763	-0.061	-0.123
-703.572	71.896	-0.084	0.088
-702.558	164.333	-0.140	-0.198
-701.543	-180.890	0.084	-0.002
-700.529	-76.794	0.121	-0.042
-699.514	69.807	0.332	-0.344
-698.499	-98.171	-0.412	-0.106
-697.485	95.696	-0.364	-0.417
-696.470	72.317	0.048	-0.050
-695.456	-43.906	-0.195	0.098
-694.441	559.529	0.092	0.222
-693.426	84.644	-0.124	-0.137
-692.412	136.639	0.055	0.073
-691.397	-200.000	-0.039	-0.278
-690.383	211.303	-0.319	-0.504
-689.368	323.757	0.097	-0.186
-688.354	469.022	-0.185	-0.417
-687.339	-200.000	-0.025	-0.127
-686.324	-100.528	-0.143	0.035
-685.310	-200.000	-0.001	-0.011
-684.295	356.378	-0.091	-0.182
-683.281	82.598	0.374	0.408
-682.266	-200.000	-0.006	0.037
-681.251	-48.292	0.096	-0.047
-680.237	-105.945	0.188	-0.042
-679.222	-200.000	-0.005	0.205
-678.208	-199.791	-0.147	0.001
-677.193	-95.331	-0.161	0.044
-676.178	105.618	0.094	0.111
-675.164	51.160	-0.038	0.036
-674.149	800.000	-0.043	0.161
-673.135	-200.000	0.006	0.060
-672.120	300.115	-0.076	-0.141
-671.105	-115.065	-0.266	0.051
-670.091	-99.430	0.330	-0.084
-669.076	-156.386	-0.273	-0.017
-668.062	-66.607	-0.079	0.031
-667.047	28.782	0.147	-0.125
-666.032	-200.000	0.020	-0.318
-665.018	-1.264	0.320	-0.227
-664.003	-200.000	-0.009	-0.046
-662.989	-75.606	0.239	0.085
-661.974	162.925	0.119	0.168
-660.959	-61.300	-0.171	-0.072
-659.945	-93.865	-0.360	-0.099
-658.930	3.149	-0.319	0.232
-657.916	-200.000	-0.268	0.001
-656.901	-122.701	0.107	-0.017
-655.886	-200.000	-0.013	0.102
-654.872	209.701	-0.075	-0.119
-653.857	800.000	-0.067	0.192
-652.843	-200.000	-0.010	0.061
-651.828	-131.111	0.412	-0.055
-650.814	-47.204	-0.231	0.113
-649.799	13.847	0.033	0.026
-648.784	-60.471	-0.068	0.029
-647.770	-78.222	-0.187	0.065
-646.755	-200.000	0.006	-0.223
-645.741	-43.862	0.193	0.097
-644.726	-200.000	-0.064	0.322
-643.711	295.506	-0.077	-0.142
-642.697	335.796	-0.091	0.178
-641.682	-200.000	0.018	-0.231
-640.668	-200.000	-0.019	0.215
-639.653	350.430	-0.139	-0.276
-638.638	-158.771	0.193	0.011
-637.624	-200.000	0.004	0.048
-636.609	250.271	-0.095	-0.162
-635.595	320.075	0.170	-0.323
-634.580	-120.482	0.312	0.053
-633.565	-47.044	-0.398	-0.195
-632.551	-62.335	0.327	0.136
-631.536	5.771	-0.041	-0.031
-630.522	55.148	-0.490	0.475
-629.507	-200.000	-0.017	-0.106
-628.492	527.310	0.072	0.170
-627.478	800.000	-0.047	-0.142
-626.463	120.981	0.211	-0.263
-625.449	198.259	-0.126	-0.193
-624.434	-200.000	0.022	-0.201
-623.419	-48.112	0.083	0.040
-622.405	-109.315	-0.093	-0.020
-621.390	127.973	-0.104	0.133
-620.376	-200.000	0.010	0.071
-619.361	-59.751	0.136	0.058
-618.346	798.335	-0.060	0.165
-617.332	-200.000	0.012	0.155
-616.317	42.700	0.210	0.191
-615.303	162.655	0.151	0.213
-614.288	-200.000	-0.047	0.244
-613.273	-14.709	-0.056	-0.036
-612.259	15.554	0.059	0.047
-611.244	-103.119	-0.072	0.017
-610.230	-111.867	0.354	-0.072
-609.215	328.692	0.019	0.036
-608.201	-135.629	-0.215	0.026
-607.186	-200.000	0.002	-0.046
-606.171	-8.355	-0.060	-0.040
-605.157	37.512	-0.213	0.189
-604.142	-14.676	0.088	0.056
-603.128	-71.550	0.195	0.073
-602.113	-25.974	0.107	-0.063
-601.098	-3.766	-0.061	-0.043
-600.084	41.448	0.265	0.240
-599.069	310.723	-0.023	-0.043
-598.055	66.837	-0.340	-0.346
-597.040	-200.000	0.049	-0.393
-596.025	-200.000	0.007	-0.082
-595.011	-53.040	0.073	-0.033
-593.996	142.331	0.155	0.205
-592.982	382.165	-0.109	-0.224
-591.967	77.294	0.046	0.049
-590.952	40.109	-0.030	-0.027
-589.938	-200.000	0.011	0.103
-588.923	-62.798	-0.148	0.061
-587.909	-200.000	0.064	-0.340
-586.894	-200.000	-0.033	-0.174
-585.879	-92.752	0.092	0.026
-584.865	-128.448	-0.288	-0.041
-583.850	307.929	-0.178	-0.333
-582.836	51.572	0.215	-0.204
-581.821	637.525	-0.115	0.291
-580.806	-200.000	0.018	0.148
-579.792	-137.090	-0.434	-0.050
-578.777	180.359	-0.186	0.273
-577.763	77.408	0.252	0.268
-576.748	58.990	-0.047	0.046
-575.733	-200.000	0.013	0.087
-574.719	-85.808	-0.357	0.111
-573.704	-200.000	-0.001	-0.071
-572.690	332.488	-0.130	0.252
-571.675	-147.807	-0.432	0.036
-570.661	93.072	-0.093	0.105
-569.646	328.664	-0.082	0.158
-568.631	-84.109	0.397	-0.126
-567.617	800.000	-0.169	-0.498
-566.602	-123.117	-0.356	-0.057
-565.588	-88.372	-0.449	-0.134
-564.573	-122.960	-0.056	0.009
-563.558	-151.169	0.407	0.030
-562.544	-200.000	0.040	0.263
-561.529	30.226	0.051	0.043
-560.515	800.000	0.169	-0.501
-559.500	42.194	-0.098	-0.089
-558.485	-115.685	0.292	0.055
-557.471	-12.133	0.358	-0.234
-556.456	98.672	-0.270	-0.311
-555.442	733.842	-0.101	-0.271
-554.427	-200.000	0.019	-0.110
-553.412	800.000	0.061	-0.215
-552.398	756.064	0.177	-0.479
-551.383	-115.046	-0.093	0.018
-550.369	800.000	-0.136	-0.419
-549.354	26.477	0.062	0.052
-548.339	800.000	0.069	0.244
-547.325	-11.885	-0.193	-0.127
-546.310	-68.485	-0.431	-0.167
-545.296	-149.620	0.278	-0.022
-544.281	525.104	0.108	0.254
-543.266	800.000	0.063	-0.211
-542.252	172.012	-0.105	-0.150
-541.237	-200.000	0.022	0.345
-540.223	-40.383	-0.069	-0.036
-539.208	800.000	0.044	0.125
-538.193	543.888	-0.139	-0.331
-537.179	-200.000	-0.016	-0.154
-536.164	406.676	0.263	-0.555
-535.150	-192.026	0.177	0.002
-534.135	266.711	-0.024	0.042
-533.121	-22.193	-0.336	-0.203
-532.106	-60.534	-0.254	0.108
-531.091	2.987	0.158	-0.115
-530.077	129.419	0.162	0.207
-529.062	-200.000	0.049	-0.439
-528.048	-83.292	-0.668	0.214
-527.033	398.254	-0.134	0.280
-526.018	279.413	-0.050	0.089
-525.004	491.595	0.012	-0.027
-523.989	-112.355	0.261	0.052
-522.975	-72.330	0.141	-0.052
-521.960	-200.000	-0.003	0.149
-520.945	-159.390	0.281	0.016
-519.931	-62.102	-0.125	-0.052
-518.916	-34.022	-0.064	0.035
-517.902	35.715	0.246	-0.216
-516.887	-200.000	-0.001	-0.303
-515.872	302.180	-0.123	0.228
-514.858	-143.019	0.236	-0.023
-513.843	-93.494	0.336	-0.093
-512.829	800.000	-0.030	-0.112
-511.814	1.132	-0.088	0.063
-510.799	64.409	-0.026	0.026
-509.785	-200.000	-0.011	0.220
-508.770	-134.874	0.281	0.034
-507.756	168.165	0.099	-0.140
-506.741	800.000	-0.052	-0.175
-505.726	286.366	-0.087	-0.156
-504.712	-111.577	0.416	0.084
-503.697	-200.000	0.019	0.301
-502.683	800.000	-0.033	0.140
-501.668	21.872	0.189	-0.153
-500.653	-200.000	0.008	0.199
-499.639	-200.000	0.193	0.000
-498.624	-22.483	0.222	-0.134
-497.610	-11.716	-0.126	-0.083
-496.595	-200.000	-0.017	-0.505
-495.581	108.732	-0.127	0.151
-494.566	-15.159	-0.224	-0.143
-493.551	225.319	-0.214	-0.345
-492.537	-28.873	-0.214	-0.123
-491.522	-200.000	-0.026	0.143
-490.508	-94.211	0.045	-0.012
-489.493	-200.000	0.012	0.370
-488.478	-64.597	0.177	-0.071
-487.464	-51.449	-0.221	0.103
-486.449	800.000	-0.185	-0.562
-485.435	64.069	0.125	0.125
-484.420	800.000	-0.069	0.214
-483.405	800.000	-0.097	0.361
-482.391	-45.963	-0.286	0.141
-481.376	22.027	0.270	-0.220
-480.362	282.416	0.085	-0.151
-479.347	-200.000	0.283	-0.000
-478.332	20.550	0.188	0.152
-477.318	-58.794	-0.194	-0.084
-476.303	-116.377	-0.124	-0.023
-475.289	800.000	0.017	-0.050
-474.274	-129.536	-0.242	-0.033
-473.259	-105.335	-0.356	0.081
-472.245	44.936	-0.196	-0.179
-471.230	77.421	0.164	-0.174
-470.216	501.141	0.078	-0.179
-469.201	-109.810	0.146	0.031
-468.186	-131.239	0.209	0.028
-467.172	-170.928	0.170	-0.006
-466.157	474.866	-0.042	0.095
-465.143	-49.395	-0.069	0.033
-464.128	196.124	0.008	0.013
-463.113	-200.000	0.024	-0.279
-462.099	-93.764	0.279	-0.077
-461.084	-132.797	-0.112	0.014
-460.070	195.061	0.137	0.207
-459.055	-146.550	-0.050	0.004
-458.040	-65.150	-0.126	0.051
-457.026	-113.054	-0.334	0.066
-456.011	-200.000	-0.081	0.361
-454.997	-156.452	-0.129	0.008
-453.982	-190.361	0.416	0.005
-452.968	-54.872	-0.175	0.079
-451.953	-36.736	0.063	-0.034
-450.938	-200.000	0.004	-0.232
-449.924	92.751	-0.221	-0.248
-448.909	301.059	-0.104	0.190
-447.895	-104.702	-0.097	0.022
-446.880	-69.445	-0.077	-0.029
-445.865	289.143	0.056	0.102
-444.851	-33.602	0.200	0.110
-443.836	-14.002	-0.354	0.228
-442.822	-69.101	-0.177	-0.068
-441.807	-200.000	-0.023	0.193
-440.792	181.467	0.249	0.365
-439.778	-200.000	-0.010	0.139
-438.763	196.809	0.101	0.154
-437.749	-92.213	-0.208	-0.058
-436.734	64.838	-0.104	0.105
-435.719	27.635	-0.100	0.083
-434.705	156.155	0.055	0.075
-433.690	-19.416	0.187	-0.115
-432.676	33.859	0.281	0.244
-431.661	-161.398	0.365	0.019
-430.646	800.000	-0.022	0.076
-429.632	-67.290	0.086	0.033
-428.617	800.000	-0.034	0.118
-427.603	-144.562	0.209	-0.019
-426.588	800.000	-0.111	0.309
-425.573	-200.000	0.019	0.248
-424.559	-200.000	-0.001	0.017
-423.544	800.000	0.060	-0.247
-422.530	-200.000	0.016	-0.356
-421.515	-200.000	0.077	-0.335
-420.500	323.855	0.056	0.106
-419.486	-200.000	0.030	-0.277
-418.471	-200.000	0.049	0.271
-417.457	18.181	0.086	-0.068
-416.442	572.109	0.097	0.236
-415.428	16.046	-0.168	-0.132
-414.413	80.036	0.154	0.165
-413.398	-31.343	0.057	0.032
-412.384	40.835	0.023	0.020
-411.369	-18.937	0.310	-0.192
-410.355	-90.895	0.010	-0.003
-409.340	-89.138	-0.130	0.038
-408.325	-40.244	0.213	0.110
-407.311	161.013	-0.127	0.176
-406.296	-194.828	-0.308	0.002
-405.282	122.410	0.094	-0.117
-404.267	-64.059	-0.141	0.057
-403.252	426.769	0.068	-0.147
-402.238	43.309	0.163	-0.148
-401.223	90.698	-0.228	0.254
-400.209	800.000	-0.014	-0.048
-399.194	-41.946	-0.112	0.057
-398.179	146.836	-0.228	-0.304
-397.165	-101.667	-0.361	0.087
-396.150	26.323	0.346	0.287
-395.136	-33.255	0.129	0.071
-394.121	717.337	-0.106	0.281
-393.106	27.015	-0.005	0.005
-392.092	85.045	0.159	-0.173
-391.077	56.312	-0.246	0.237
-390.063	-200.000	0.018	0.222
-389.048	800.000	0.054	0.152
-388.033	-15.418	0.248	0.157
-387.019	748.557	0.075	0.201
-386.004	-200.000	-0.008	-0.159
-384.990	77.158	0.143	-0.151
-383.975	-74.362	0.239	-0.086
-382.960	433.337	-0.033	-0.071
-381.946	-159.320	-0.315	-0.018
-380.931	800.000	-0.064	-0.264
-379.917	-73.196	0.239	-0.087
-378.902	-96.415	0.202	0.053
-377.888	-200.000	0.079	-0.443
-376.873	-32.609	-0.015	0.008
-375.858	-7.094	-0.214	-0.144
-374.844	93.650	-0.283	-0.319
-373.829	-7.118	0.009	-0.006
-372.815	-131.718	-0.066	0.009
-371.800	316.508	0.066	0.123
-370.785	-136.878	-0.322	-0.037
-369.771	-147.289	-0.324	0.027
-368.756	-134.117	0.122	-0.015
-367.742	-50.720	-0.097	-0.045
-366.727	-104.619	0.202	0.046
-365.712	-200.000	0.013	-0.133
-364.698	-155.853	-0.072	-0.005
-363.683	-32.416	0.160	-0.089
-362.669	-12.924	0.322	-0.208
-361.654	109.348	0.218	-0.259
-360.639	-131.593	-0.031	0.004
-359.625	-72.088	0.171	-0.063
-358.610	76.449	-0.078	-0.082
-357.596	61.040	0.065	-0.064
-356.581	-151.654	0.275	-0.020
-355.566	64.693	0.092	-0.092
-354.552	168.445	-0.068	0.095
-353.537	66.239	-0.105	0.105
-352.523	40.573	-0.177	0.158
-351.508	62.298	0.112	0.111
-350.493	-99.529	-0.180	-0.045
-349.479	70.252	-0.227	0.233
-348.464	-200.000	-0.028	0.190
-347.450	-54.508	0.360	-0.162
-346.435	-200.000	-0.077	-0.351
-345.420	-30.526	-0.433	0.243
-344.406	800.000	0.029	0.093
-343.391	371.515	0.187	0.377
-342.377	145.871	0.186	-0.248
-341.362	27.734	0.107	-0.089
-340.348	-14.513	-0.037	0.024
-339.333	-87.200	-0.223	-0.067
-338.318	161.273	-0.071	-0.099
-337.304	-105.035	-0.228	-0.052
-336.289	-140.718	0.330	-0.034
-335.275	-200.000	0.037	0.287
-334.260	157.184	-0.333	0.456
-333.245	-200.000	0.006	0.047
-332.231	-200.000	0.017	0.193
-331.216	15.145	-0.220	0.171
-330.202	-27.616	-0.156	-0.090
-329.187	-200.000	-0.018	-0.086
-328.172	-96.450	-0.484	-0.127
-327.158	800.000	-0.111	-0.438
-326.143	800.000	-0.047	-0.164
-325.129	-29.629	0.161	0.091
-324.114	-48.510	0.194	0.093
-323.099	-200.000	-0.019	-0.204
-322.085	-169.887	-0.324	0.011
-321.070	-44.868	0.113	0.056
-320.056	197.714	0.188	0.284
-319.041	109.047	0.155	-0.183
-318.026	-200.000	-0.019	-0.297
-317.012	2.410	0.309	-0.222
-315.997	800.000	0.114	-0.318
-314.983	237.471	0.052	-0.085
-313.968	-38.503	-0.109	-0.057
-312.953	800.000	-0.028	-0.110
-311.939	736.946	-0.044	-0.116
-310.924	-179.350	0.163	0.004
-309.910	-0.032	-0.140	0.099
-308.895	-3.730	-0.098	-0.068
-307.880	56.300	0.054	0.052
-306.866	-143.467	0.171	0.016
-305.851	45.726	-0.169	0.155
-304.837	2.916	0.135	-0.097
-303.822	-136.022	0.235	0.027
-302.807	95.960	-0.267	-0.302
-301.793	-53.035	-0.311	-0.142
-300.778	-200.000	0.019	-0.092
-299.764	-167.578	-0.363	0.014
-298.749	-97.233	0.191	0.049
-297.735	180.300	0.032	-0.047
-296.720	479.140	-0.090	-0.201
-295.705	-16.514	0.018	0.011
-294.691	800.000	0.048	0.173
-293.676	324.298	-0.072	-0.136
-292.662	459.891	-0.105	0.232
-291.647	30.641	0.191	-0.162
-290.632	7.764	0.208	0.154
-289.618	-101.225	0.272	0.066
-288.603	-200.000	-0.014	0.077
-287.589	461.845	0.044	0.096
-286.574	-93.600	-0.301	0.082
-285.559	121.963	-0.181	0.223
-284.545	147.157	0.186	0.247
-283.530	761.631	-0.021	0.057
-282.516	800.000	0.084	-0.258
-281.501	-87.440	0.080	-0.024
-280.486	300.637	0.095	-0.174
-279.472	164.770	0.092	0.128
-278.457	235.330	0.157	0.256
-277.443	274.463	-0.079	0.138
-276.428	-52.860	-0.381	0.173
-275.413	-52.312	0.242	0.111
-274.399	-200.000	-0.047	0.228
-273.384	-150.659	0.111	0.008
-272.370	800.000	0.105	0.338
-271.355	-29.380	0.168	0.095
-270.340	-200.000	0.079	0.386
-269.326	-106.108	-0.399	0.089
-268.311	44.505	-0.258	-0.235
-267.297	-43.832	0.243	0.121
-266.282	243.885	0.219	0.363
-265.267	34.639	-0.046	0.040
-264.253	173.470	0.079	0.112
-263.238	-20.377	-0.391	0.238
-262.224	800.000	-0.161	-0.486
-261.209	-41.510	-0.058	0.029
-260.195	770.881	0.049	0.133
-259.180	131.310	0.127	0.162
-258.165	-44.896	-0.126	0.062
-257.151	800.000	0.165	0.517
-256.136	-200.000	0.022	-0.115
-255.122	-13.617	-0.133	0.085
-254.107	121.250	0.123	0.152
-253.092	281.598	0.188	-0.332
-252.078	23.517	-0.250	-0.203
-251.063	-200.000	0.013	0.254
-250.049	311.594	0.040	0.074
-249.034	-47.630	0.420	-0.201
-248.019	-65.732	0.138	-0.054
-247.005	-138.989	0.139	-0.015
-245.990	252.708	-0.075	0.127
-244.976	-80.625	0.157	-0.052
-243.961	-55.007	-0.371	0.165
-242.946	261.445	-0.094	0.162
-241.932	-117.915	-0.130	0.023
-240.917	285.411	0.082	0.145
-239.903	-144.380	0.281	-0.026
-238.888	-48.737	0.237	-0.112
-237.873	-52.325	0.137	-0.062
-236.859	378.280	0.091	-0.184
-235.844	-22.511	0.273	-0.163
-234.830	-200.000	0.002	-0.021
-233.815	-200.000	0.058	-0.464
-232.800	-137.959	0.181	0.020
-231.786	-89.555	-0.311	0.090
-230.771	62.605	0.075	0.074
-229.757	0.038	-0.232	0.163
-228.742	-200.000	-0.003	0.219
-227.727	-115.906	-0.121	-0.022
-226.713	-200.000	0.057	0.276
-225.698	-200.000	0.008	0.193
-224.684	-7.367	-0.105	-0.070
-223.669	-7.191	0.276	-0.185
-222.655	37.757	0.081	0.071
-221.640	10.715	-0.209	-0.158
-220.625	623.589	-0.060	-0.150
-219.611	-97.380	0.262	-0.067
-218.596	-200.000	0.037	0.336
-217.582	-127.674	0.201	-0.029
-216.567	-147.508	0.236	0.020
-215.552	140.476	0.133	0.173
-214.538	79.023	0.085	-0.090
-213.523	-200.000	0.030	0.188
-212.509	132.553	-0.135	-0.172
-211.494	-135.294	0.245	-0.029
-210.479	800.000	-0.162	0.529
-209.465	-200.000	0.041	-0.548
-208.450	-87.679	0.316	0.094
-207.436	251.904	0.044	0.074
-206.421	800.000	0.022	-0.077
-205.406	800.000	0.072	0.212
-204.392	154.533	-0.044	-0.060
-203.377	3.767	0.051	0.037
-202.363	183.447	-0.058	0.085
-201.348	-119.868	-0.199	-0.034
-200.333	-200.000	-0.017	-0.106
-199.319	-79.558	-0.184	0.061
-198.304	327.855	-0.060	-0.113
-197.290	-200.000	-0.004	0.185
-196.275	800.000	0.035	-0.127
-195.260	-4.399	-0.341	-0.233
-194.246	-60.007	0.071	-0.030
-193.231	-58.448	-0.190	-0.081
-192.217	-124.760	-0.302	0.046
-191.202	82.966	-0.199	0.213
-190.187	181.708	-0.163	-0.237
-189.173	-28.411	0.344	0.196
-188.158	127.185	0.163	-0.204
-187.144	-200.000	-0.003	-0.146
-186.129	394.431	0.047	0.097
-185.114	560.046	0.037	0.088
-184.100	34.837	-0.176	0.152
-183.085	-39.062	0.271	0.140
-182.071	-89.182	-0.151	-0.044
-181.056	-200.000	0.031	-0.223
-180.042	800.000	-0.063	-0.243
-179.027	-98.373	0.308	0.078
-178.012	97.798	-0.072	-0.081
-176.998	240.108	0.052	0.085
-175.983	800.000	0.060	-0.228
-174.969	-46.833	0.330	-0.159
-173.954	288.953	0.106	0.188
-172.939	744.677	0.071	-0.188
-171.925	-16.289	-0.180	0.113
-170.910	183.659	-0.083	0.121
-169.896	-106.974	0.134	-0.029
-168.881	-200.000	-0.017	0.110
-167.866	-50.327	0.240	0.112
-166.852	170.328	0.129	-0.182
-165.837	-200.000	-0.093	0.415
-164.823	44.895	0.124	0.113
-163.808	87.725	-0.082	-0.089
-162.793	43.519	-0.089	-0.080
-161.779	28.636	-0.288	-0.240
-160.764	-42.975	-0.026	-0.013
-159.750	-28.207	-0.243	-0.138
-158.735	255.263	-0.145	0.245
-157.720	-6.137	-0.375	0.252
-156.706	337.197	-0.207	-0.395
-155.691	-112.650	-0.093	-0.018
-154.677	23.879	0.250	0.202
-153.662	-200.000	0.030	0.138
-152.647	-200.000	0.057	0.360
-151.633	-80.170	-0.180	-0.059
-150.618	-61.618	-0.106	-0.044
-149.604	-104.280	-0.345	0.079
-148.589	-200.000	0.000	-0.149
-147.574	-121.090	0.342	0.056
-146.560	-78.176	-0.081	0.027
-145.545	111.234	0.090	0.106
-144.531	-166.442	0.173	0.007
-143.516	271.974	0.199	0.346
-142.502	-200.000	-0.018	0.085
-141.487	-200.000	0.007	0.119
-140.472	48.323	0.151	0.139
-139.458	-52.568	-0.019	-0.009
-138.443	-75.979	0.343	-0.119
-137.429	-200.000	0.011	0.354
-136.414	534.438	0.061	0.142
-135.399	514.390	0.063	0.146
-134.385	-49.600	0.227	-0.106
-133.370	20.928	-0.046	-0.037
-132.356	335.213	0.170	0.324
-131.341	-200.000	0.028	-0.183
-130.326	800.000	-0.045	0.135
-129.312	-114.311	0.227	0.043
-128.297	-82.802	-0.398	-0.127
-127.283	-51.617	0.380	-0.174
-126.268	-200.000	0.013	0.156
-125.253	181.642	-0.149	0.215
-124.239	-200.000	0.008	0.217
-123.224	800.000	-0.032	-0.135
-122.210	800.000	0.007	-0.025
-121.195	-200.000	0.025	-0.201
