DTS Sentinel unit serial number:	SN413079Multiplexer serial number:	ORYXHardware model number:	OX4-SRSoftware version number:	ORYX F/W v4.00 Oryx Data Collector v3.7.2.0data status	okinstallation	princeton_trtdifferential loss correction	single-endedforward channel	channel 2reverse channel	N/Adate	2019/09/16time	03:47:35forward acquisition time	60.00reverse acquisition time	0.00gamma	496.2192k internal	0.2334k external	0.2334temperature offset calibration	0.9972default loss term (dB/km)	0.3790temperature slope calibration	1.0000multiplexer offset coefficient	1.0000multiplexer slope coefficient	1.0000fibre end	0.00T internal ref (°C)	27.56T ext. ref 1 (°C)	10.66T ext. ref 2 (°C)	21.63length (m)	temperature (°C)	Stokes	anti-Stokes-747.200	169.416	-0.073	-0.105
-746.185	446.905	0.121	0.267
-745.171	-113.922	-0.081	-0.016
-744.156	-200.000	0.008	-0.108
-743.142	-124.437	0.287	-0.045
-742.127	800.000	-0.030	0.092
-741.112	-25.100	-0.179	-0.107
-740.098	397.235	0.069	0.144
-739.083	-125.235	0.320	-0.049
-738.069	-63.520	-0.116	0.048
-737.054	664.062	0.123	-0.319
-736.039	-27.994	-0.289	-0.168
-735.025	-110.684	-0.258	-0.053
-734.010	52.441	0.162	0.156
-732.996	-200.000	0.009	-0.204
-731.981	-72.180	0.079	-0.030
-730.966	-155.785	-0.039	0.003
-729.952	-200.000	0.032	0.250
-728.937	-200.000	-0.032	-0.158
-727.923	-81.375	-0.235	0.078
-726.908	-200.000	0.025	-0.223
-725.894	-200.000	-0.009	-0.340
-724.879	23.248	-0.145	-0.120
-723.864	800.000	-0.091	-0.299
-722.850	231.441	0.075	0.124
-721.835	-200.000	-0.013	0.181
-720.821	-103.070	0.150	-0.036
-719.806	-200.000	-0.020	0.236
-718.791	50.127	-0.147	-0.139
-717.777	776.291	-0.027	0.073
-716.762	72.798	0.134	-0.141
-715.748	620.765	-0.055	0.140
-714.733	-132.298	0.150	0.019
-713.718	800.000	0.079	0.233
-712.704	91.217	-0.272	-0.307
-711.689	263.676	0.144	-0.251
-710.675	-27.852	0.180	-0.105
-709.660	304.246	-0.135	-0.252
-708.645	-64.454	-0.024	-0.010
-707.631	-200.000	-0.026	-0.129
-706.616	800.000	-0.139	0.386
-705.602	-77.282	0.387	-0.135
-704.587	-62.508	-0.274	0.114
-703.572	178.816	0.108	0.158
-702.558	-26.976	-0.134	0.078
-701.543	43.568	0.148	0.136
-700.529	11.167	0.205	-0.157
-699.514	-200.000	-0.010	0.133
-698.499	432.173	0.150	0.326
-697.485	-117.369	0.080	0.015
-696.470	-200.000	0.005	0.270
-695.456	-101.162	-0.117	0.029
-694.441	-200.000	-0.019	-0.486
-693.426	-9.379	-0.251	-0.168
-692.412	33.132	0.062	0.054
-691.397	-200.000	0.010	0.150
-690.383	143.537	0.098	0.131
-689.368	-200.000	0.028	0.166
-688.354	-39.161	0.251	-0.132
-687.339	-200.000	0.007	-0.191
-686.324	347.831	0.168	0.332
-685.310	800.000	0.076	-0.329
-684.295	52.960	-0.068	0.065
-683.281	-200.000	0.004	-0.145
-682.266	-166.706	-0.146	0.006
-681.251	-42.243	0.169	-0.086
-680.237	152.092	0.064	-0.088
-679.222	125.913	0.021	-0.027
-678.208	-200.000	0.074	-0.336
-677.193	-177.006	0.273	-0.007
-676.178	92.261	0.077	0.087
-675.164	356.921	0.169	-0.338
-674.149	-64.140	0.267	0.109
-673.135	4.300	0.268	-0.197
-672.120	800.000	0.049	0.138
-671.105	-23.067	-0.190	-0.115
-670.091	800.000	0.105	-0.408
-669.076	9.118	0.186	-0.141
-668.062	800.000	-0.151	0.529
-667.047	-200.000	0.013	0.092
-666.032	-200.000	-0.023	0.248
-665.018	-166.213	-0.307	0.013
-664.003	-131.961	-0.129	-0.017
-662.989	30.216	-0.105	-0.090
-661.974	329.195	-0.189	0.364
-660.959	7.804	-0.199	0.149
-659.945	368.711	-0.137	-0.277
-658.930	194.217	-0.146	-0.221
-657.916	800.000	-0.017	0.072
-656.901	800.000	-0.077	0.234
-655.886	-96.520	-0.069	-0.018
-654.872	12.864	0.135	-0.105
-653.857	-200.000	0.015	-0.081
-652.843	-91.211	-0.148	0.043
-651.828	-200.000	-0.013	0.207
-650.814	158.212	-0.119	0.166
-649.799	121.153	-0.110	-0.137
-648.784	-200.000	-0.033	0.249
-647.770	-24.892	0.102	-0.061
-646.755	622.570	-0.104	-0.263
-645.741	-86.418	-0.123	0.038
-644.726	56.701	-0.149	0.146
-643.711	-200.000	0.029	0.151
-642.697	97.783	-0.160	0.184
-641.682	399.742	-0.137	0.288
-640.668	46.310	0.212	0.197
-639.653	-200.000	0.014	0.181
-638.638	22.472	-0.049	-0.040
-637.624	-111.118	0.261	-0.053
-636.609	257.425	0.082	-0.141
-635.595	800.000	0.101	-0.332
-634.580	-147.688	0.194	0.016
-633.565	-200.000	-0.046	0.216
-632.551	-4.525	0.316	-0.218
-631.536	-49.787	0.210	-0.100
-630.522	-200.000	0.035	0.178
-629.507	800.000	-0.097	-0.275
-628.492	800.000	-0.027	0.091
-627.478	11.045	0.110	-0.084
-626.463	-200.000	0.015	0.126
-625.449	58.900	-0.239	-0.235
-624.434	-124.027	0.372	0.058
-623.419	-200.000	-0.020	0.328
-622.405	280.351	0.148	-0.265
-621.390	-13.112	-0.134	-0.087
-620.376	67.431	0.139	-0.142
-619.361	-200.000	0.039	-0.176
-618.346	-200.000	0.002	0.153
-617.332	-124.473	-0.387	0.060
-616.317	-70.011	-0.092	0.035
-615.303	-35.489	0.251	-0.136
-614.288	-200.000	0.014	-0.521
-613.273	800.000	-0.058	-0.236
-612.259	-200.000	-0.006	-0.183
-611.244	-200.000	0.037	-0.347
-610.230	800.000	-0.041	0.140
-609.215	329.164	0.089	-0.171
-608.201	-37.865	-0.320	0.170
-607.186	800.000	-0.023	0.068
-606.171	-100.693	0.157	-0.039
-605.157	54.727	-0.036	0.035
-604.142	800.000	0.016	-0.049
-603.128	199.912	0.177	0.271
-602.113	-200.000	-0.023	0.156
-601.098	-200.000	0.010	-0.163
-600.084	738.395	0.039	-0.105
-599.069	-91.345	0.191	0.055
-598.055	-80.188	0.219	0.073
-597.040	-200.000	0.044	0.242
-596.025	217.641	0.155	0.247
-595.011	622.035	-0.040	0.100
-593.996	-1.609	-0.151	-0.106
-592.982	14.789	0.228	0.178
-591.967	-23.442	0.242	0.145
-590.952	-200.000	-0.002	0.222
-589.938	-102.521	0.113	-0.027
-588.923	-200.000	-0.002	-0.211
-587.909	-200.000	0.009	-0.128
-586.894	-200.000	-0.026	-0.228
-585.879	264.954	0.115	-0.200
-584.865	-5.279	0.184	0.127
-583.850	173.080	0.021	0.031
-582.836	133.417	-0.127	-0.164
-581.821	73.385	0.173	-0.181
-580.806	-100.418	-0.315	0.078
-579.792	149.796	0.156	-0.211
-578.777	-22.381	-0.060	-0.036
-577.763	-200.000	0.038	-0.255
-576.748	209.953	-0.337	-0.528
-575.733	-54.807	-0.084	0.038
-574.719	-62.579	0.482	-0.200
-573.704	800.000	0.083	-0.275
-572.690	-71.693	-0.109	0.041
-571.675	-200.000	0.009	0.099
-570.661	-138.484	0.280	0.031
-569.646	-200.000	-0.030	0.148
-568.631	39.880	0.052	-0.047
-567.617	324.938	-0.128	-0.244
-566.602	-200.000	-0.026	-0.161
-565.588	-200.000	0.035	0.254
-564.573	-134.734	-0.427	0.052
-563.558	507.450	-0.113	0.262
-562.544	178.315	-0.297	0.433
-561.529	21.229	0.266	-0.215
-560.515	-4.313	0.133	0.092
-559.500	104.213	0.168	0.198
-558.485	-8.855	-0.144	-0.096
-557.471	800.000	-0.048	0.135
-556.456	509.413	0.090	0.210
-555.442	-200.000	0.040	-0.252
-554.427	83.864	-0.138	-0.150
-553.412	-62.175	0.085	-0.035
-552.398	406.557	0.175	0.368
-551.383	71.888	-0.166	-0.172
-550.369	94.587	0.082	-0.093
-549.354	-189.326	0.136	0.002
-548.339	800.000	0.036	0.129
-547.325	386.073	-0.019	-0.039
-546.310	88.695	-0.221	0.245
-545.296	-200.000	-0.053	0.236
-544.281	800.000	0.096	0.269
-543.266	-200.000	0.006	-0.121
-542.252	87.102	-0.110	0.121
-541.237	91.400	-0.114	-0.127
-540.223	-126.091	-0.176	0.026
-539.208	78.612	-0.155	-0.165
-538.193	-96.626	-0.352	-0.093
-537.179	2.125	0.162	0.117
-536.164	800.000	-0.142	-0.442
-535.150	-63.273	-0.396	0.163
-534.135	226.005	-0.149	0.242
-533.121	66.134	-0.163	-0.165
-532.106	740.374	0.035	0.093
-531.091	-107.482	-0.315	-0.069
-530.077	-128.927	-0.372	0.052
-529.062	-200.000	-0.027	0.144
-528.048	-85.824	0.231	-0.071
-527.033	-28.863	-0.397	0.227
-526.018	-10.147	-0.421	0.279
-525.004	38.926	-0.251	-0.223
-523.989	-78.565	-0.195	-0.067
-522.975	273.821	0.053	-0.093
-521.960	-200.000	-0.029	0.202
-520.945	-4.029	-0.120	-0.083
-519.931	63.808	0.062	0.062
-518.916	-136.492	-0.314	-0.036
-517.902	153.133	-0.088	0.120
-516.887	127.887	-0.086	0.109
-515.872	67.828	-0.141	-0.144
-514.858	116.699	0.066	-0.081
-513.843	-23.563	0.322	-0.192
-512.829	-114.413	0.411	0.079
-511.814	758.938	-0.065	0.175
-510.799	85.909	0.259	0.284
-509.785	-200.000	0.024	-0.324
-508.770	-75.904	0.244	-0.086
-507.756	207.834	-0.097	0.151
-506.741	-60.032	0.200	0.085
-505.726	800.000	0.063	0.173
-504.712	-200.000	-0.043	0.394
-503.697	345.233	0.137	0.268
-502.683	240.742	0.092	-0.154
-501.668	24.765	-0.131	-0.108
-500.653	126.074	0.081	0.102
-499.639	-164.260	-0.435	-0.020
-498.624	398.333	-0.088	-0.184
-497.610	-92.488	-0.066	-0.018
-496.595	645.193	-0.027	-0.068
-495.581	679.438	-0.064	0.166
-494.566	81.507	0.120	-0.129
-493.551	-160.119	-0.162	0.009
-492.537	139.714	0.095	-0.124
-491.522	-200.000	0.011	0.402
-490.508	-98.558	-0.138	0.035
-489.493	-200.000	-0.023	0.135
-488.478	25.735	-0.051	-0.043
-487.464	30.962	0.303	-0.258
-486.449	-26.935	-0.206	-0.120
-485.435	-78.500	0.124	0.042
-484.420	-73.866	0.092	-0.033
-483.405	-64.043	0.206	-0.084
-482.391	481.381	0.158	0.356
-481.376	800.000	-0.081	-0.310
-480.362	-18.547	0.172	-0.107
-479.347	555.782	0.172	-0.411
-478.332	-139.078	-0.072	-0.008
-477.318	-165.059	0.232	-0.010
-476.303	-141.429	-0.205	0.021
-475.289	-21.778	-0.067	0.041
-474.274	214.628	-0.094	0.148
-473.259	159.023	-0.091	0.125
-472.245	257.802	-0.014	0.024
-471.230	-200.000	0.010	-0.285
-470.216	11.892	0.161	0.123
-469.201	43.451	-0.341	-0.310
-468.186	-8.375	-0.049	-0.033
-467.172	-49.771	-0.107	0.051
-466.157	-91.517	-0.118	-0.033
-465.143	800.000	0.091	0.363
-464.128	-42.910	0.325	-0.164
-463.113	89.172	-0.110	0.122
-462.099	-110.850	-0.234	0.048
-461.084	146.756	0.156	-0.208
-460.070	655.830	-0.139	0.354
-459.055	-200.000	0.006	0.109
-458.040	-200.000	-0.017	0.234
-457.026	-21.568	-0.056	0.034
-456.011	800.000	0.049	-0.172
-454.997	-14.454	0.265	0.170
-453.982	-200.000	0.003	0.035
-452.968	108.163	0.151	-0.179
-451.953	-89.917	-0.252	0.073
-450.938	398.769	0.100	-0.208
-449.924	302.221	0.130	-0.239
-448.909	485.180	0.048	0.109
-447.895	-200.000	0.053	-0.358
-446.880	35.976	0.175	0.153
-445.865	57.586	0.145	-0.141
-444.851	800.000	0.125	-0.514
-443.836	-38.057	-0.183	-0.096
-442.822	800.000	-0.036	0.105
-441.807	179.412	-0.057	-0.083
-440.792	800.000	-0.025	-0.072
-439.778	420.186	0.102	0.217
-438.763	507.291	-0.070	0.161
-437.749	-68.449	0.354	0.136
-436.734	506.675	0.097	0.222
-435.719	174.481	0.032	-0.046
-434.705	-114.513	-0.186	0.035
-433.690	-200.000	-0.006	-0.053
-432.676	-79.639	-0.087	-0.029
-431.661	342.900	-0.227	-0.441
-430.646	-170.684	0.112	0.004
-429.632	381.703	-0.017	-0.035
-428.617	800.000	0.082	0.259
-427.603	-154.110	0.149	0.010
-426.588	148.632	-0.260	0.349
-425.573	-185.540	-0.229	-0.003
-424.559	51.701	0.240	-0.227
-423.544	126.675	-0.007	0.008
-422.530	-93.135	0.088	-0.024
-421.515	114.998	-0.367	-0.445
-420.500	-200.000	-0.054	0.351
-419.486	-200.000	-0.026	0.377
-418.471	-12.418	-0.203	0.132
-417.457	212.545	0.043	-0.067
-416.442	-200.000	-0.011	0.059
-415.428	-200.000	0.046	-0.218
-414.413	190.913	-0.171	0.255
-413.398	269.380	0.047	0.083
-412.384	-49.761	0.214	-0.101
-411.369	274.246	0.078	-0.138
-410.355	37.867	-0.075	0.066
-409.340	72.402	0.022	0.023
-408.325	800.000	0.064	-0.188
-407.311	281.893	-0.073	-0.130
-406.296	-83.974	-0.396	-0.125
-405.282	439.877	-0.081	-0.176
-404.267	115.784	0.171	-0.207
-403.252	-181.926	-0.069	0.001
-402.238	-46.214	-0.097	0.047
-401.223	-97.789	-0.603	-0.155
-400.209	389.690	0.201	0.414
-399.194	198.358	0.184	0.279
-398.179	-75.121	0.137	-0.049
-397.165	-183.971	-0.288	-0.005
-396.150	-117.916	-0.314	0.056
-395.136	-42.332	0.277	-0.140
-394.121	800.000	-0.075	-0.219
-393.106	4.247	-0.117	-0.085
-392.092	-200.000	0.054	-0.233
-391.077	488.842	0.174	-0.394
-390.063	32.335	0.116	0.099
-389.048	-200.000	-0.036	0.157
-388.033	-52.756	-0.189	-0.086
-387.019	-200.000	0.012	-0.135
-386.004	800.000	0.043	0.151
-384.990	185.261	0.227	0.333
-383.975	-200.000	-0.022	0.152
-382.960	54.110	0.128	-0.122
-381.946	-32.781	-0.190	-0.105
-380.931	-114.647	-0.156	-0.030
-379.917	145.196	0.244	-0.324
-378.902	3.511	-0.031	0.022
-377.888	-136.463	-0.257	0.030
-376.873	-200.000	0.006	-0.313
-375.858	130.398	-0.119	0.151
-374.844	-93.012	0.464	0.128
-373.829	-200.000	-0.007	-0.056
-372.815	-77.090	-0.210	-0.073
-371.800	90.395	-0.226	0.251
-370.785	109.348	0.224	-0.266
-369.771	-200.000	0.004	-0.310
-368.756	-94.489	-0.085	0.023
-367.742	8.170	0.228	0.170
-366.727	-58.562	-0.100	0.043
-365.712	-84.047	-0.239	-0.075
-364.698	-200.000	-0.014	0.131
-363.683	-48.691	-0.091	0.043
-362.669	347.169	-0.019	-0.037
-361.654	78.788	-0.076	0.081
-360.639	82.746	0.177	-0.191
-359.625	156.947	0.164	-0.224
-358.610	800.000	0.098	-0.325
-357.596	79.661	0.183	0.195
-356.581	72.811	-0.276	0.285
-355.566	-200.000	0.002	0.188
-354.552	-88.441	0.305	0.090
-353.537	146.364	0.192	0.255
-352.523	-200.000	0.007	0.309
-351.508	1.089	-0.068	0.048
-350.493	-30.736	-0.140	-0.078
-349.479	-8.560	-0.137	0.091
-348.464	800.000	0.108	0.449
-347.450	-49.509	-0.251	-0.118
-346.435	2.657	-0.039	0.028
-345.420	-200.000	-0.001	0.014
-344.406	800.000	0.043	-0.122
-343.391	-200.000	0.001	-0.242
-342.377	800.000	-0.019	-0.054
-341.362	-200.000	-0.022	0.111
-340.348	-143.209	-0.174	0.017
-339.333	-41.304	-0.208	-0.106
-338.318	12.820	0.252	-0.192
-337.304	-200.000	-0.029	0.178
-336.289	-200.000	-0.036	0.182
-335.275	-63.319	0.191	-0.078
-334.260	-79.128	-0.184	-0.062
-333.245	-70.606	-0.246	0.092
-332.231	-102.329	-0.162	-0.038
-331.216	18.707	-0.128	-0.101
-330.202	16.473	-0.377	0.294
-329.187	-107.169	-0.223	-0.049
-328.172	642.055	-0.095	0.238
-327.158	279.996	0.106	0.187
-326.143	42.888	0.091	-0.082
-325.129	800.000	0.055	-0.218
-324.114	261.690	0.042	0.071
-323.099	800.000	0.150	-0.417
-322.085	-64.082	0.218	-0.088
-321.070	302.687	0.102	-0.187
-320.056	788.813	-0.043	0.116
-319.041	800.000	-0.095	-0.297
-318.026	-200.000	0.004	-0.101
-317.012	-96.437	-0.198	0.052
-315.997	-54.752	-0.159	-0.071
-314.983	800.000	0.036	0.147
-313.968	-60.855	-0.241	0.101
-312.953	-78.890	0.215	0.072
-311.939	171.167	-0.208	0.295
-310.924	-44.434	-0.188	0.093
-309.910	-57.696	0.221	0.096
-308.895	-53.564	-0.084	0.038
-307.880	-84.211	-0.041	-0.013
-306.866	-156.377	-0.012	0.001
-305.851	-200.000	-0.011	0.082
-304.837	175.273	-0.145	0.208
-303.822	110.037	0.141	0.167
-302.807	-69.160	0.309	0.118
-301.793	167.072	-0.340	0.477
-300.778	-200.000	-0.025	-0.178
-299.764	-200.000	0.037	-0.256
-298.749	-200.000	-0.001	0.059
-297.735	324.866	0.085	0.161
-296.720	-82.130	-0.167	0.054
-295.705	-78.628	0.171	0.058
-294.691	-154.874	-0.152	0.010
-293.676	800.000	0.074	-0.225
-292.662	313.871	-0.110	-0.204
-291.647	-121.110	-0.268	-0.044
-290.632	-136.040	-0.175	0.020
-289.618	106.717	0.188	-0.221
-288.603	-127.150	0.049	0.007
-287.589	800.000	-0.153	0.469
-286.574	-43.137	-0.242	-0.121
-285.559	-144.818	-0.141	0.013
-284.545	-149.338	0.263	-0.021
-283.530	40.494	-0.127	0.113
-282.516	800.000	0.037	-0.126
-281.501	435.419	-0.132	0.284
-280.486	-7.616	0.093	-0.062
-279.472	144.247	0.099	0.130
-278.457	-15.197	0.181	0.114
-277.443	461.336	-0.099	-0.218
-276.428	-121.138	-0.196	-0.032
-275.413	81.829	-0.069	-0.074
-274.399	-200.000	-0.023	-0.311
-273.384	782.044	-0.086	-0.234
-272.370	445.078	-0.136	0.295
-271.355	-71.889	0.260	0.096
-270.340	14.322	0.044	-0.034
-269.326	-158.868	-0.329	0.019
-268.311	108.430	0.387	0.455
-267.297	5.863	0.143	-0.105
-266.282	800.000	0.120	-0.453
-265.267	-101.504	0.328	0.079
-264.253	-143.879	0.552	0.051
-263.238	-84.794	-0.162	0.050
-262.224	17.902	-0.326	-0.256
-261.209	-61.180	-0.231	-0.096
-260.195	-136.118	0.130	-0.015
-259.180	-20.479	-0.390	0.236
-258.165	2.407	0.139	0.099
-257.151	62.299	-0.152	-0.150
-256.136	329.538	0.026	-0.049
-255.122	-77.116	0.205	-0.071
-254.107	-200.000	0.012	-0.299
-253.092	43.531	0.093	-0.083
-252.078	-23.231	0.195	0.116
-251.063	-43.727	0.254	-0.126
-250.049	442.123	-0.041	0.089
-249.034	-200.000	-0.070	-0.416
-248.019	395.578	0.147	0.302
-247.005	-200.000	-0.002	-0.107
-245.990	-73.800	-0.237	-0.085
-244.976	-200.000	0.018	-0.128
-243.961	-120.786	0.207	-0.034
-242.946	40.493	-0.064	0.057
-241.932	-137.537	0.117	0.013
-240.917	-200.000	0.009	-0.117
-239.903	-73.867	-0.227	0.081
-238.888	800.000	0.055	0.183
-237.873	-136.022	0.378	-0.044
-236.859	197.293	-0.051	0.076
-235.844	74.761	0.071	-0.073
-234.830	-200.000	-0.012	0.313
-233.815	800.000	0.062	0.193
-232.800	-75.097	0.176	0.062
-231.786	-133.295	0.187	-0.023
-230.771	4.909	-0.136	-0.098
-229.757	658.767	-0.073	-0.184
-228.742	223.340	0.123	-0.195
-227.727	-43.109	0.146	0.073
-226.713	19.561	-0.039	-0.031
-225.698	-115.851	-0.030	0.005
-224.684	-65.686	-0.279	0.110
-223.669	-14.217	0.234	0.149
-222.655	800.000	-0.019	-0.075
-221.640	-72.139	-0.138	-0.050
-220.625	330.260	0.138	0.261
-219.611	-200.000	0.016	0.145
-218.596	74.527	0.198	0.205
-217.582	-4.843	0.213	0.144
-216.567	142.764	0.187	0.245
-215.552	-153.033	0.360	-0.025
-214.538	-200.000	0.033	0.284
-213.523	-89.499	-0.168	-0.049
-212.509	-200.000	0.011	0.269
-211.494	-88.956	0.233	-0.068
-210.479	-42.118	-0.175	0.088
-209.465	-51.043	0.251	-0.116
-208.450	139.209	-0.085	-0.110
-207.436	310.725	0.104	-0.192
-206.421	-44.934	0.351	-0.172
-205.406	473.024	-0.060	-0.133
-204.392	-93.398	-0.168	0.046
-203.377	-200.000	0.032	-0.224
-202.363	8.489	-0.039	-0.029
-201.348	-81.800	-0.153	0.049
-200.333	-22.031	0.308	-0.184
-199.319	-200.000	0.030	0.252
-198.304	91.696	0.188	-0.208
-197.290	410.797	-0.116	0.242
-196.275	-129.089	0.114	0.016
-195.260	-121.407	-0.147	-0.024
-194.246	-200.000	0.011	-0.071
-193.231	27.029	0.085	0.070
-192.217	309.199	0.023	0.041
-191.202	-200.000	-0.006	-0.230
-190.187	-135.527	0.241	0.028
-189.173	-200.000	0.008	0.145
-188.158	114.490	-0.196	0.235
-187.144	-200.000	-0.001	0.059
-186.129	-165.250	-0.265	-0.011
-185.114	-38.289	-0.119	-0.062
-184.100	-151.876	-0.075	-0.005
-183.085	-200.000	0.029	-0.188
-182.071	161.374	0.199	0.273
-181.056	-200.000	0.034	0.186
-180.042	274.188	-0.046	0.079
-179.027	207.616	-0.063	-0.097
-178.012	-200.000	-0.029	0.133
-176.998	-65.820	0.310	-0.122
-175.983	60.222	-0.179	0.174
-174.969	177.832	-0.114	0.164
-173.954	-49.159	0.121	-0.057
-172.939	108.494	0.246	-0.289
-171.925	412.754	0.077	-0.160
-170.910	-70.950	0.214	-0.079
-169.896	39.615	0.144	0.126
-168.881	-37.700	0.136	-0.071
-167.866	-200.000	-0.086	-0.396
-166.852	-110.499	-0.199	0.041
-165.837	-94.343	-0.223	0.060
-164.823	-67.081	0.152	0.059
-163.808	-15.970	0.076	0.048
-162.793	-123.991	0.127	-0.020
-161.779	18.584	0.109	0.086
-160.764	-200.000	0.075	0.368
-159.750	-6.477	0.213	-0.143
-158.735	92.985	-0.205	-0.227
-157.720	-200.000	0.048	-0.382
-156.706	-95.780	0.094	0.025
-155.691	135.272	-0.081	-0.104
-154.677	217.441	-0.031	-0.049
-153.662	-95.152	-0.169	0.045
-152.647	800.000	0.066	-0.212
-151.633	-200.000	-0.014	0.430
-150.618	-88.594	-0.143	-0.042
-149.604	800.000	0.034	0.118
-148.589	165.357	-0.020	0.027
-147.574	-200.000	-0.037	0.362
-146.560	-90.196	-0.092	-0.026
-145.545	800.000	-0.045	0.181
-144.531	-28.223	0.032	-0.018
-143.516	800.000	0.062	0.227
-142.502	57.386	0.135	0.129
-141.487	62.994	-0.161	0.158
-140.472	82.640	0.156	-0.166
-139.458	-13.231	-0.162	0.103
-138.443	-200.000	0.003	0.397
-137.429	-12.552	0.132	-0.085
-136.414	-105.940	-0.143	-0.032
-135.399	-122.950	-0.094	-0.015
-134.385	-11.561	-0.165	-0.106
-133.370	612.543	0.138	0.339
-132.356	-130.217	0.182	-0.024
-131.341	22.553	-0.108	0.087
-130.326	-1.661	-0.283	-0.195
-129.312	-200.000	-0.001	0.008
-128.297	-200.000	0.006	-0.273
-127.283	-188.759	-0.077	-0.001
-126.268	115.898	-0.062	0.075
-125.253	57.767	-0.123	0.118
-124.239	-89.954	-0.138	0.039
-123.224	-200.000	-0.027	0.212
-122.210	-200.000	-0.021	-0.138
-121.195	-200.000	-0.000	0.066
