DTS Sentinel unit serial number:	SN413079Multiplexer serial number:	ORYXHardware model number:	OX4-SRSoftware version number:	ORYX F/W v4.00 Oryx Data Collector v3.7.2.0data status	okinstallation	princeton_trtdifferential loss correction	single-endedforward channel	channel 2reverse channel	N/Adate	2019/09/11time	15:05:11forward acquisition time	60.00reverse acquisition time	0.00gamma	496.2192k internal	0.2288k external	0.2288temperature offset calibration	1.0009default loss term (dB/km)	0.3790temperature slope calibration	1.0000multiplexer offset coefficient	1.0000multiplexer slope coefficient	1.0000fibre end	0.00T internal ref (°C)	42.91T ext. ref 1 (°C)	0.94T ext. ref 2 (°C)	38.00length (m)	temperature (°C)	Stokes	anti-Stokes-747.200	-165.089	-0.262	-0.012
-746.185	19.910	0.075	0.062
-745.171	4.064	-0.221	0.166
-744.156	615.385	0.186	0.479
-743.142	258.223	-0.179	0.316
-742.127	-16.697	-0.108	0.070
-741.112	-83.361	-0.125	0.041
-740.098	-52.016	0.340	0.162
-739.083	-200.000	0.028	0.164
-738.069	-200.000	0.012	0.228
-737.054	158.595	0.053	-0.075
-736.039	800.000	-0.024	-0.072
-735.025	30.935	-0.031	-0.027
-734.010	-29.351	-0.215	-0.126
-732.996	-105.673	0.177	0.041
-731.981	-200.000	-0.026	0.194
-730.966	45.358	-0.176	-0.167
-729.952	289.897	-0.163	-0.303
-728.937	56.489	0.190	0.189
-727.923	253.077	-0.174	-0.305
-726.908	-83.215	-0.392	-0.129
-725.894	-84.008	-0.228	-0.074
-724.879	34.372	0.321	0.287
-723.864	424.482	0.042	-0.093
-722.850	100.154	-0.220	0.261
-721.835	184.808	-0.180	0.273
-720.821	800.000	0.062	0.188
-719.806	-107.980	-0.260	-0.058
-718.791	158.677	0.078	-0.111
-717.777	207.443	-0.097	-0.155
-716.762	494.289	-0.128	0.302
-715.748	17.433	0.159	0.130
-714.733	-137.785	-0.232	0.027
-713.718	10.752	-0.206	-0.161
-712.704	-200.000	0.017	-0.109
-711.689	800.000	0.014	-0.055
-710.675	69.482	-0.360	-0.380
-709.660	198.353	-0.175	-0.274
-708.645	177.881	0.187	-0.279
-707.631	-200.000	-0.009	-0.053
-706.616	19.207	0.030	0.025
-705.602	-66.369	0.031	0.013
-704.587	-83.561	-0.268	-0.088
-703.572	-200.000	0.035	-0.187
-702.558	-196.689	-0.339	0.002
-701.543	577.631	-0.077	0.194
-700.529	370.392	0.055	0.114
-699.514	-103.136	0.042	-0.010
-698.499	512.989	0.044	-0.105
-697.485	276.239	0.178	-0.323
-696.470	250.003	0.062	-0.108
-695.456	58.590	-0.266	0.268
-694.441	-66.579	-0.289	-0.117
-693.426	-114.370	-0.309	-0.061
-692.412	-48.739	0.248	-0.122
-691.397	800.000	-0.066	0.201
-690.383	-144.823	-0.196	-0.018
-689.368	-151.269	-0.171	-0.013
-688.354	-75.041	-0.160	0.059
-687.339	-70.583	-0.293	-0.113
-686.324	-72.169	-0.385	-0.146
-685.310	-200.000	-0.090	-0.485
-684.295	141.672	-0.099	-0.134
-683.281	-80.775	-0.485	-0.165
-682.266	204.600	0.123	0.195
-681.251	80.733	0.104	-0.115
-680.237	-90.240	-0.291	-0.086
-679.222	181.355	-0.084	-0.126
-678.208	-60.501	-0.031	-0.013
-677.193	-66.977	-0.052	-0.021
-676.178	-200.000	0.005	0.172
-675.164	-159.646	-0.251	0.014
-674.149	-141.267	-0.091	0.009
-673.135	61.999	-0.044	0.045
-672.120	-103.184	-0.192	0.046
-671.105	-200.000	0.008	0.115
-670.091	227.544	0.085	-0.141
-669.076	-40.456	-0.063	0.033
-668.062	-56.689	0.210	0.095
-667.047	337.286	-0.144	-0.287
-666.032	289.134	0.044	0.081
-665.018	500.060	0.129	0.305
-664.003	-98.471	-0.165	0.043
-662.989	-200.000	-0.043	-0.000
-661.974	-150.150	0.133	-0.011
-660.959	188.384	0.041	-0.062
-659.945	-36.902	0.143	0.079
-658.930	-200.000	0.028	0.136
-657.916	-155.645	-0.220	0.014
-656.901	121.821	-0.155	0.198
-655.886	-200.000	0.053	0.278
-654.872	-12.939	0.334	-0.222
-653.857	-20.468	0.148	0.093
-652.843	623.457	-0.105	-0.269
-651.828	51.747	0.236	-0.229
-650.814	181.102	-0.021	0.032
-649.799	-58.439	0.226	-0.100
-648.784	-67.614	0.221	-0.088
-647.770	257.010	-0.245	0.429
-646.755	800.000	-0.014	0.040
-645.741	178.795	-0.057	-0.085
-644.726	-103.720	-0.122	0.029
-643.711	-167.547	-0.195	0.008
-642.697	-200.000	0.019	-0.163
-641.682	323.025	0.157	0.305
-640.668	-171.032	0.088	0.003
-639.653	800.000	0.084	-0.276
-638.638	-200.000	0.064	-0.342
-637.624	60.247	-0.034	-0.035
-636.609	-100.999	0.321	0.081
-635.595	-0.154	0.217	0.158
-634.580	423.561	0.166	0.364
-633.565	229.764	0.090	0.150
-632.551	255.530	-0.049	0.086
-631.536	-200.000	0.018	0.228
-630.522	59.474	0.148	-0.149
-629.507	-15.439	-0.163	-0.107
-628.492	-114.592	0.309	0.060
-627.478	-165.843	-0.056	0.002
-626.463	-200.000	-0.023	0.340
-625.449	584.635	0.059	-0.147
-624.434	128.629	0.201	-0.261
-623.419	145.230	-0.087	0.119
-622.405	339.932	0.137	-0.272
-621.390	61.189	0.148	0.150
-620.376	46.671	-0.129	-0.122
-619.361	-79.441	-0.028	0.010
-618.346	-79.413	-0.117	0.040
-617.332	-71.548	0.057	0.022
-616.317	96.320	0.123	0.144
-615.303	200.768	0.151	-0.238
-614.288	-5.723	-0.163	-0.114
-613.273	800.000	0.023	-0.083
-612.259	161.492	0.115	0.164
-611.244	651.534	0.081	-0.212
-610.230	275.712	0.092	-0.166
-609.215	100.315	-0.265	0.314
-608.201	-200.000	0.025	0.304
-607.186	162.844	0.128	-0.184
-606.171	78.784	-0.057	-0.063
-605.157	162.568	0.222	-0.317
-604.142	-200.000	-0.034	-0.225
-603.128	-200.000	-0.008	-0.168
-602.113	110.510	-0.107	0.132
-601.098	-9.493	-0.308	0.210
-600.084	-103.691	-0.298	-0.071
-599.069	519.556	-0.175	-0.419
-598.055	207.400	-0.104	0.165
-597.040	-200.000	0.004	0.241
-596.025	776.991	-0.077	-0.214
-595.011	144.615	0.187	0.254
-593.996	-178.811	0.107	0.002
-592.982	-50.676	0.275	-0.132
-591.967	800.000	0.069	0.302
-590.952	51.467	0.139	-0.134
-589.938	-0.412	0.166	0.120
-588.923	800.000	-0.058	0.183
-587.909	800.000	-0.038	-0.127
-586.894	100.305	-0.325	-0.384
-585.879	38.988	0.279	-0.254
-584.865	-133.797	-0.095	0.012
-583.850	-182.409	-0.482	-0.009
-582.836	-200.000	0.022	0.209
-581.821	-106.139	-0.304	0.070
-580.806	-60.331	-0.070	0.030
-579.792	-183.207	-0.118	-0.002
-578.777	-200.000	0.001	0.083
-577.763	-36.816	0.140	-0.077
-576.748	71.139	-0.072	-0.076
-575.733	73.342	0.159	0.169
-574.719	741.297	0.055	0.151
-573.704	800.000	0.036	0.155
-572.690	-84.887	0.388	0.124
-571.675	800.000	0.036	-0.123
-570.661	800.000	0.014	-0.040
-569.646	-76.708	0.317	0.113
-568.631	-139.517	-0.255	0.028
-567.617	111.592	0.082	0.101
-566.602	89.048	-0.221	0.250
-565.588	377.393	-0.028	-0.059
-564.573	193.342	0.072	-0.111
-563.558	-18.815	0.366	-0.232
-562.544	245.113	-0.182	-0.311
-561.529	800.000	-0.091	-0.265
-560.515	-88.198	0.064	-0.019
-559.500	83.098	0.283	0.313
-558.485	58.960	-0.067	0.067
-557.471	-200.000	-0.007	-0.408
-556.456	68.165	0.142	-0.148
-555.442	-83.029	-0.275	0.090
-554.427	60.412	0.053	0.053
-553.412	800.000	-0.033	-0.115
-552.398	45.366	0.347	-0.325
-551.383	-139.690	0.378	-0.041
-550.369	-107.726	-0.286	-0.063
-549.354	-177.889	-0.484	0.012
-548.339	-73.187	-0.245	-0.091
-547.325	543.146	0.105	-0.255
-546.310	569.561	-0.051	-0.125
-545.296	-51.924	-0.106	-0.050
-544.281	-14.374	0.220	0.144
-543.266	-77.930	0.199	-0.070
-542.252	-92.219	-0.214	0.061
-541.237	-2.786	-0.025	-0.018
-540.223	-14.148	-0.049	0.032
-539.208	-78.116	-0.124	-0.043
-538.193	190.984	-0.012	0.019
-537.179	-200.000	0.007	-0.227
-536.164	61.269	0.104	-0.105
-535.150	25.444	-0.176	-0.149
-534.135	800.000	0.145	-0.430
-533.121	104.620	0.118	-0.142
-532.106	346.432	0.202	-0.404
-531.091	-111.333	-0.147	0.030
-530.077	-90.321	0.127	-0.037
-529.062	-22.997	-0.105	-0.064
-528.048	-200.000	0.010	-0.096
-527.033	94.740	0.007	0.008
-526.018	66.493	-0.183	0.189
-525.004	87.557	-0.219	0.247
-523.989	211.143	0.035	-0.056
-522.975	800.000	0.021	0.091
-521.960	117.932	0.080	-0.100
-520.945	794.644	-0.144	-0.403
-519.931	800.000	0.123	-0.390
-518.916	-38.434	0.190	-0.102
-517.902	-157.905	0.063	0.004
-516.887	333.350	-0.168	-0.330
-515.872	-132.119	-0.255	0.034
-514.858	800.000	-0.070	0.205
-513.843	525.813	-0.111	0.265
-512.829	800.000	-0.043	-0.183
-511.814	-200.000	0.055	-0.285
-510.799	151.652	0.220	-0.305
-509.785	9.102	0.099	0.076
-508.770	396.553	-0.113	-0.241
-507.756	-47.507	0.115	0.057
-506.741	-200.000	-0.018	0.123
-505.726	-134.311	0.173	-0.022
-504.712	169.201	-0.217	-0.315
-503.697	-200.000	0.061	0.336
-502.683	-200.000	0.026	0.221
-501.668	20.797	-0.281	-0.231
-500.653	11.278	-0.119	0.093
-499.639	-145.654	0.303	-0.027
-498.624	0.948	0.206	0.150
-497.610	582.760	0.092	-0.230
-496.595	-49.161	0.284	-0.138
-495.581	800.000	-0.046	0.201
-494.566	-200.000	0.010	-0.082
-493.551	-42.753	-0.158	-0.081
-492.537	-137.484	-0.227	0.026
-491.522	-113.865	-0.238	-0.047
-490.508	404.210	-0.101	-0.216
-489.493	196.059	-0.053	0.081
-488.478	-69.391	-0.095	0.037
-487.464	315.593	0.084	0.161
-486.449	-28.158	0.123	0.072
-485.435	102.353	0.051	-0.061
-484.420	-55.522	0.180	-0.082
-483.405	-140.744	-0.235	0.025
-482.391	248.414	-0.260	0.447
-481.376	11.164	0.135	0.105
-480.362	-140.573	0.355	0.037
-479.347	87.484	0.074	-0.083
-478.332	-200.000	-0.002	-0.134
-477.318	800.000	0.021	-0.069
-476.303	-200.000	-0.063	-0.359
-475.289	623.605	0.065	0.166
-474.274	-200.000	-0.020	0.174
-473.259	-2.963	-0.158	0.112
-472.245	378.413	-0.091	0.190
-471.230	800.000	0.010	-0.028
-470.216	-1.109	-0.293	0.210
-469.201	8.829	0.164	-0.125
-468.186	-2.884	-0.333	-0.236
-467.172	-82.200	0.066	-0.022
-466.157	173.422	-0.197	0.289
-465.143	150.500	0.319	0.440
-464.128	800.000	0.067	0.214
-463.113	-200.000	-0.036	-0.250
-462.099	-70.263	-0.194	0.075
-461.084	181.066	-0.115	0.172
-460.070	353.856	-0.083	0.167
-459.055	-66.861	0.073	-0.029
-458.040	63.253	0.205	0.208
-457.026	125.248	0.123	0.157
-456.011	282.253	0.049	-0.090
-454.997	123.447	-0.090	0.115
-453.982	-148.941	-0.322	0.026
-452.968	800.000	0.046	-0.198
-451.953	-28.334	-0.191	-0.112
-450.938	320.381	0.104	-0.200
-449.924	99.307	0.173	-0.203
-448.909	61.674	0.176	0.177
-447.895	29.071	0.044	0.038
-446.880	-113.959	0.195	-0.038
-445.865	-125.641	-0.455	0.070
-444.851	-75.678	-0.349	0.126
-443.836	-200.000	0.003	0.145
-442.822	-200.000	-0.112	-0.507
-441.807	-147.923	-0.240	0.020
-440.792	66.447	0.067	-0.069
-439.778	9.214	-0.206	-0.158
-438.763	-105.613	0.206	-0.047
-437.749	180.660	0.188	0.280
-436.734	299.460	0.114	0.213
-435.719	-44.646	-0.143	-0.072
-434.705	800.000	-0.094	-0.378
-433.690	22.634	0.084	0.070
-432.676	-200.000	0.026	-0.143
-431.661	78.255	0.138	0.149
-430.646	-106.090	0.140	-0.032
-429.632	800.000	-0.084	-0.264
-428.617	-34.487	0.174	-0.097
-427.603	47.885	0.059	0.055
-426.588	549.743	-0.105	-0.254
-425.573	-77.260	0.135	-0.047
-424.559	-200.000	0.058	0.269
-423.544	-133.220	-0.186	0.024
-422.530	-16.979	0.147	0.094
-421.515	222.569	-0.100	-0.163
-420.500	476.667	0.081	0.185
-419.486	-143.578	-0.073	0.007
-418.471	-50.737	0.142	-0.068
-417.457	92.831	-0.200	0.229
-416.442	461.960	0.088	0.198
-415.428	800.000	0.075	0.221
-414.413	-117.520	0.244	0.045
-413.398	33.324	-0.198	-0.174
-412.384	800.000	-0.071	0.243
-411.369	-200.000	0.009	0.449
-410.355	-99.094	-0.449	0.115
-409.340	-148.332	-0.278	-0.023
-408.325	-200.000	-0.016	0.078
-407.311	-200.000	-0.016	-0.268
-406.296	-59.416	-0.307	-0.134
-405.282	23.757	0.096	0.080
-404.267	463.342	0.102	-0.231
-403.252	-200.000	0.004	-0.118
-402.238	380.591	-0.024	0.051
-401.223	561.472	0.111	0.273
-400.209	-53.431	0.140	-0.065
-399.194	-120.540	0.270	0.046
-398.179	784.428	-0.063	0.175
-397.165	-17.891	-0.080	-0.051
-396.150	-32.167	-0.159	0.090
-395.136	54.906	-0.046	0.045
-394.121	80.987	-0.227	-0.248
-393.106	-200.000	0.004	0.159
-392.092	-91.897	-0.329	0.094
-391.077	38.121	0.070	0.063
-390.063	35.913	-0.034	0.030
-389.048	-200.000	0.065	-0.342
-388.033	52.847	-0.147	-0.142
-387.019	110.833	-0.177	0.215
-386.004	393.766	-0.106	0.223
-384.990	270.409	-0.109	0.194
-383.975	354.520	0.027	0.055
-382.960	-104.342	0.658	-0.154
-381.946	-81.136	0.321	0.107
-380.931	-43.110	-0.208	-0.107
-379.917	-70.815	0.285	0.109
-378.902	16.740	0.056	-0.045
-377.888	800.000	-0.025	0.105
-376.873	192.761	0.198	-0.303
-375.858	-95.400	-0.148	0.040
-374.844	-200.000	0.040	-0.198
-373.829	800.000	0.053	-0.232
-372.815	84.292	0.144	-0.160
-371.800	-24.762	0.203	-0.122
-370.785	266.283	0.079	0.139
-369.771	180.016	0.121	0.179
-368.756	-176.043	-0.190	-0.005
-367.742	161.016	-0.274	-0.387
-366.727	58.427	-0.090	0.089
-365.712	-45.180	-0.039	0.019
-364.698	-78.213	-0.089	-0.031
-363.683	57.480	0.151	0.149
-362.669	-20.255	-0.016	-0.010
-361.654	-200.000	-0.026	-0.131
-360.639	-23.518	0.216	-0.131
-359.625	-136.859	-0.214	-0.025
-358.610	-111.288	-0.082	0.017
-357.596	-111.977	0.155	0.031
-356.581	98.862	-0.023	0.027
-355.566	137.780	-0.092	0.122
-354.552	-200.000	0.026	0.171
-353.537	800.000	0.010	-0.028
-352.523	-200.000	0.007	0.228
-351.508	-200.000	0.021	0.172
-350.493	-200.000	0.065	0.316
-349.479	-99.616	-0.141	0.036
-348.464	-3.108	-0.182	-0.128
-347.450	-183.274	-0.154	-0.003
-346.435	-200.000	-0.070	-0.495
-345.420	533.527	-0.057	-0.136
-344.406	-150.328	0.164	-0.013
-343.391	125.753	-0.221	0.282
-342.377	-21.958	-0.212	0.130
-341.362	54.032	0.168	0.163
-340.348	-84.001	0.337	0.108
-339.333	-52.258	0.082	0.038
-338.318	51.301	0.104	0.100
-337.304	137.973	-0.146	0.193
-336.289	-200.000	0.018	0.144
-335.275	-200.000	-0.000	-0.193
-334.260	61.148	-0.049	0.049
-333.245	-91.947	0.003	-0.001
-332.231	-109.392	-0.246	-0.052
-331.216	-61.874	-0.220	-0.093
-330.202	22.292	-0.123	-0.101
-329.187	-37.764	-0.245	0.131
-328.172	144.330	0.207	0.278
-327.158	392.462	0.106	-0.222
-326.143	-88.695	-0.090	0.027
-325.129	-200.000	0.014	-0.196
-324.114	-40.437	0.232	0.122
-323.099	69.806	0.036	0.037
-322.085	-200.000	-0.009	0.121
-321.070	166.094	0.190	0.271
-320.056	481.283	0.126	-0.288
-319.041	-72.512	-0.137	-0.051
-318.026	365.914	-0.060	-0.123
-317.012	-71.095	-0.143	0.054
-315.997	27.623	0.207	0.176
-314.983	800.000	-0.070	-0.232
-313.968	101.887	0.194	-0.228
-312.953	209.440	-0.250	0.395
-311.939	324.546	0.205	0.394
-310.924	68.433	0.086	-0.089
-309.910	-99.264	-0.326	-0.083
-308.895	48.330	0.269	0.254
-307.880	800.000	-0.032	0.133
-306.866	140.402	-0.096	0.127
-305.851	213.856	-0.055	0.087
-304.837	59.016	0.337	0.334
-303.822	264.095	0.088	0.154
-302.807	185.806	-0.158	-0.236
-301.793	43.905	-0.213	0.197
-300.778	-15.883	-0.350	-0.225
-299.764	323.606	-0.085	-0.164
-298.749	29.642	0.073	-0.063
-297.735	32.417	-0.320	0.279
-296.720	100.830	0.325	-0.381
-295.705	-88.214	0.092	0.028
-294.691	292.597	-0.060	0.111
-293.676	74.732	0.188	-0.199
-292.662	-112.130	-0.197	0.040
-291.647	119.021	-0.268	-0.333
-290.632	333.435	-0.045	-0.087
-289.618	47.388	-0.182	0.171
-288.603	59.275	-0.102	0.101
-287.589	-200.000	-0.004	-0.035
-286.574	-200.000	-0.014	0.257
-285.559	-200.000	-0.008	-0.105
-284.545	-80.190	0.151	0.051
-283.530	-200.000	0.004	0.257
-282.516	-200.000	-0.001	0.260
-281.501	59.496	0.218	-0.217
-280.486	-200.000	-0.029	0.130
-279.472	-91.176	0.034	0.010
-278.457	166.923	-0.024	-0.035
-277.443	-200.000	0.039	0.298
-276.428	-89.337	-0.111	0.033
-275.413	-39.644	-0.049	-0.026
-274.399	241.126	-0.092	0.155
-273.384	-196.233	-0.177	-0.001
-272.370	58.185	0.169	0.166
-271.355	-200.000	-0.019	-0.249
-270.340	-89.095	0.227	0.067
-269.326	20.483	-0.132	-0.107
-268.311	-193.602	-0.145	-0.001
-267.297	800.000	0.026	0.111
-266.282	206.689	-0.188	0.294
-265.267	-54.999	-0.326	0.148
-264.253	800.000	-0.059	-0.215
-263.238	105.781	0.124	0.148
-262.224	315.611	0.076	0.144
-261.209	-66.854	0.240	0.096
-260.195	262.799	-0.213	-0.372
-259.180	53.558	0.101	-0.098
-258.165	561.282	0.081	0.198
-257.151	99.681	0.135	-0.157
-256.136	800.000	-0.052	0.217
-255.122	-28.493	-0.150	-0.087
-254.107	244.987	0.105	0.178
-253.092	-200.000	-0.029	-0.266
-252.078	-102.547	0.191	-0.046
-251.063	800.000	-0.069	0.236
-250.049	-45.754	0.258	-0.128
-249.034	-74.448	-0.429	0.156
-248.019	-200.000	0.018	-0.116
-247.005	-142.687	-0.336	0.033
-245.990	800.000	0.106	0.376
-244.976	640.457	0.078	-0.199
-243.961	-53.690	0.197	-0.090
-242.946	-200.000	0.034	-0.382
-241.932	800.000	0.067	-0.208
-240.917	-155.575	-0.304	0.020
-239.903	167.976	-0.263	-0.376
-238.888	26.937	0.112	-0.094
-237.873	-41.728	0.110	-0.057
-236.859	-111.406	0.323	0.066
-235.844	-200.000	0.030	0.322
-234.830	-57.724	0.133	-0.058
-233.815	-200.000	0.048	-0.249
-232.800	69.482	0.031	-0.032
-231.786	296.824	-0.125	-0.231
-230.771	-200.000	-0.009	-0.197
-229.757	800.000	-0.090	-0.259
-228.742	158.529	-0.132	0.184
-227.727	22.666	-0.056	-0.046
-226.713	15.622	0.019	-0.015
-225.698	-111.111	-0.259	-0.053
-224.684	21.274	-0.133	0.109
-223.669	735.787	0.057	0.153
-222.655	634.958	0.045	-0.114
-221.640	-105.834	-0.178	-0.040
-220.625	-63.934	0.108	0.045
-219.611	64.549	-0.097	-0.099
-218.596	68.944	0.062	-0.064
-217.582	110.420	-0.114	0.138
-216.567	385.702	-0.052	-0.107
-215.552	-109.547	-0.276	0.059
-214.538	-22.086	0.277	-0.169
-213.523	-200.000	-0.005	0.221
-212.509	12.256	0.262	0.202
-211.494	-27.645	0.062	-0.036
-210.479	-200.000	0.009	0.134
-209.465	515.253	0.079	0.184
-208.450	-149.871	0.535	0.042
-207.436	74.552	0.142	0.150
-206.421	35.598	0.289	0.255
-205.406	-7.173	-0.109	0.074
-204.392	-1.629	0.121	0.086
-203.377	-18.257	-0.288	-0.181
-202.363	-200.000	-0.042	0.325
-201.348	245.666	0.118	0.199
-200.333	50.478	0.238	0.226
-199.319	-107.143	0.369	-0.082
-198.304	497.522	-0.102	-0.235
-197.290	-23.034	0.149	-0.090
-196.275	-200.000	-0.031	0.138
-195.260	99.571	0.263	0.305
-194.246	-118.380	0.079	-0.014
-193.231	-88.535	0.032	0.010
-192.217	155.361	-0.098	0.136
-191.202	-120.173	-0.270	0.046
-190.187	-18.692	0.246	0.154
-189.173	-17.451	0.128	0.081
-188.158	800.000	-0.044	0.137
-187.144	127.761	0.180	-0.230
-186.129	-100.077	-0.312	0.078
-185.114	800.000	0.057	0.225
-184.100	-200.000	-0.008	-0.203
-183.085	-200.000	-0.050	-0.344
-182.071	9.513	-0.040	-0.030
-181.056	-200.000	-0.009	0.361
-180.042	800.000	0.059	0.173
-179.027	216.409	0.177	0.283
-178.012	26.549	-0.297	0.249
-176.998	133.907	-0.163	0.212
-175.983	123.414	0.119	0.150
-174.969	-200.000	-0.007	0.180
-173.954	48.213	-0.140	-0.132
-172.939	56.511	0.177	-0.172
-171.925	-200.000	-0.018	-0.455
-170.910	-85.456	-0.167	-0.052
-169.896	-195.450	0.194	0.001
-168.881	433.374	0.049	-0.107
-167.866	-39.629	0.106	0.056
-166.852	378.121	-0.136	-0.279
-165.837	-138.596	-0.275	0.030
-164.823	16.165	-0.152	0.120
-163.808	-200.000	-0.025	0.182
-162.793	-14.418	0.059	-0.038
-161.779	248.226	0.044	-0.075
-160.764	143.951	-0.093	-0.125
-159.750	-200.000	0.022	-0.361
-158.735	800.000	-0.095	-0.271
-157.720	-134.206	0.224	0.028
-156.706	449.837	0.147	-0.325
-155.691	-159.934	-0.167	0.009
-154.677	-91.171	-0.105	-0.030
-153.662	-98.868	0.129	-0.033
-152.647	800.000	0.043	-0.151
-151.633	-92.960	0.375	-0.105
-150.618	94.438	0.065	-0.074
-149.604	450.619	0.039	-0.087
-148.589	199.011	-0.192	0.295
-147.574	-194.786	-0.139	-0.001
-146.560	250.886	-0.145	-0.247
-145.545	800.000	0.079	-0.267
-144.531	500.484	0.166	-0.384
-143.516	-47.474	0.449	0.219
-142.502	197.814	-0.047	0.071
-141.487	110.824	-0.284	-0.342
-140.472	-10.461	0.299	-0.199
-139.458	29.019	-0.108	0.092
-138.443	361.067	-0.119	-0.238
-137.429	-28.327	-0.006	0.004
-136.414	-171.240	-0.227	0.008
-135.399	-45.417	0.323	-0.160
-134.385	142.566	-0.267	-0.355
-133.370	-109.155	0.285	-0.061
-132.356	603.869	0.072	0.179
-131.341	115.474	0.077	0.095
-130.326	504.621	0.067	-0.154
-129.312	800.000	-0.057	0.181
-128.297	-200.000	-0.013	0.405
-127.283	314.847	0.129	0.244
-126.268	-42.558	0.187	-0.095
-125.253	-121.001	0.303	-0.051
-124.239	-38.180	-0.198	0.105
-123.224	-200.000	0.002	0.095
-122.210	395.075	-0.134	0.280
-121.195	-98.919	-0.052	0.013
-120.180	-62.785	-0.483	-0.200
