DTS Sentinel unit serial number:	SN413079Multiplexer serial number:	ORYXHardware model number:	OX4-SRSoftware version number:	ORYX F/W v4.00 Oryx Data Collector v3.7.2.0data status	okinstallation	princeton_trtdifferential loss correction	single-endedforward channel	channel 2reverse channel	N/Adate	2019/09/15time	04:47:35forward acquisition time	60.00reverse acquisition time	0.00gamma	496.2192k internal	0.2326k external	0.2326temperature offset calibration	1.0036default loss term (dB/km)	0.3790temperature slope calibration	1.0000multiplexer offset coefficient	1.0000multiplexer slope coefficient	1.0000fibre end	0.00T internal ref (°C)	30.80T ext. ref 1 (°C)	4.76T ext. ref 2 (°C)	25.30length (m)	temperature (°C)	Stokes	anti-Stokes-747.200	800.000	-0.030	0.119
-746.185	208.120	-0.144	0.228
-745.171	800.000	0.089	0.310
-744.156	-145.547	-0.141	-0.013
-743.142	74.301	0.193	-0.204
-742.127	-112.116	-0.377	0.076
-741.112	69.958	0.330	0.344
-740.098	42.198	0.203	0.186
-739.083	166.366	-0.172	0.246
-738.069	800.000	0.049	0.175
-737.054	174.795	-0.118	0.172
-736.039	245.215	-0.177	-0.301
-735.025	237.090	0.209	0.348
-734.010	199.664	0.090	0.139
-732.996	91.604	-0.119	-0.135
-731.981	-10.977	0.147	-0.098
-730.966	236.081	0.087	0.144
-729.952	37.145	0.032	-0.028
-728.937	-53.356	-0.239	-0.111
-727.923	178.102	-0.184	-0.270
-726.908	343.084	0.072	0.142
-725.894	486.271	0.033	-0.077
-724.879	-200.000	-0.009	-0.094
-723.864	-200.000	0.011	-0.221
-722.850	223.373	-0.045	0.073
-721.835	-200.000	-0.091	-0.513
-720.821	133.542	-0.274	0.357
-719.806	231.845	-0.066	-0.108
-718.791	-103.416	0.028	0.007
-717.777	231.942	-0.194	-0.320
-716.762	-200.000	0.035	-0.163
-715.748	-44.149	0.164	-0.083
-714.733	-200.000	0.039	-0.246
-713.718	-170.995	-0.172	0.006
-712.704	800.000	-0.054	-0.156
-711.689	-200.000	0.002	-0.127
-710.675	-200.000	-0.010	0.260
-709.660	-200.000	-0.020	-0.095
-708.645	800.000	0.091	0.272
-707.631	168.796	0.182	-0.261
-706.616	-200.000	0.031	0.281
-705.602	-200.000	0.046	-0.275
-704.587	-200.000	0.055	-0.251
-703.572	-200.000	-0.014	0.163
-702.558	-151.649	0.111	-0.008
-701.543	99.268	-0.071	-0.082
-700.529	-72.110	-0.173	-0.065
-699.514	800.000	-0.099	-0.380
-698.499	-75.231	-0.263	0.095
-697.485	248.077	0.074	0.127
-696.470	-200.000	-0.030	-0.436
-695.456	-96.400	0.246	-0.066
-694.441	-175.914	-0.112	0.003
-693.426	174.363	-0.164	-0.238
-692.412	-143.552	-0.178	0.017
-691.397	-200.000	-0.004	-0.049
-690.383	800.000	0.051	-0.173
-689.368	-102.496	-0.197	-0.047
-688.354	-200.000	0.072	0.327
-687.339	-148.459	-0.373	-0.031
-686.324	4.644	-0.068	-0.050
-685.310	7.963	0.256	-0.193
-684.295	-117.264	0.128	0.023
-683.281	708.899	0.032	0.086
-682.266	-200.000	-0.025	-0.172
-681.251	-200.000	0.014	0.401
-680.237	-50.246	-0.055	-0.026
-679.222	-200.000	0.010	0.253
-678.208	239.526	0.024	-0.041
-677.193	-200.000	0.048	-0.226
-676.178	12.607	0.158	-0.122
-675.164	-200.000	0.013	0.059
-674.149	-200.000	-0.005	-0.098
-673.135	-53.415	-0.421	-0.194
-672.120	-33.776	0.155	0.086
-671.105	-136.706	0.231	0.027
-670.091	-116.116	0.157	0.029
-669.076	-117.330	-0.099	0.018
-668.062	76.661	0.066	0.071
-667.047	349.125	0.097	-0.193
-666.032	800.000	-0.021	-0.070
-665.018	-135.566	-0.209	0.025
-664.003	-200.000	0.077	-0.404
-662.989	800.000	-0.094	-0.263
-661.974	-52.476	-0.106	-0.049
-660.959	-139.722	-0.265	0.028
-659.945	79.027	-0.373	-0.402
-658.930	-43.655	0.211	-0.107
-657.916	-108.162	0.400	-0.087
-656.901	62.910	-0.084	-0.084
-655.886	-112.019	0.220	-0.044
-654.872	800.000	-0.010	0.042
-653.857	-200.000	0.018	-0.134
-652.843	800.000	-0.074	0.215
-651.828	198.590	-0.161	-0.247
-650.814	800.000	0.061	0.258
-649.799	-200.000	-0.014	0.178
-648.784	800.000	0.066	-0.233
-647.770	-200.000	-0.045	-0.224
-646.755	97.999	-0.122	0.142
-645.741	-91.291	-0.081	0.023
-644.726	154.102	-0.102	0.141
-643.711	800.000	-0.002	0.006
-642.697	182.711	-0.127	0.189
-641.682	-87.304	-0.541	0.165
-640.668	-137.260	-0.157	0.018
-639.653	-200.000	0.007	-0.177
-638.638	-200.000	0.002	0.068
-637.624	111.777	-0.176	0.213
-636.609	15.421	0.166	0.130
-635.595	720.636	0.079	-0.210
-634.580	-12.228	-0.183	-0.120
-633.565	800.000	0.111	-0.370
-632.551	-93.971	0.176	-0.049
-631.536	800.000	0.034	-0.144
-630.522	169.327	0.149	-0.213
-629.507	800.000	-0.044	0.128
-628.492	-29.571	-0.176	-0.101
-627.478	-191.292	0.061	0.001
-626.463	-137.865	0.282	0.032
-625.449	800.000	0.073	0.244
-624.434	-200.000	0.004	-0.058
-623.419	-200.000	0.119	-0.000
-622.405	800.000	-0.059	0.195
-621.390	73.822	0.263	0.277
-620.376	176.714	0.093	-0.136
-619.361	-121.252	-0.099	0.017
-618.346	458.842	0.145	-0.325
-617.332	253.611	-0.023	0.040
-616.317	-157.190	-0.156	-0.010
-615.303	164.469	0.280	0.396
-614.288	-200.000	-0.006	-0.027
-613.273	800.000	-0.122	-0.439
-612.259	-34.650	-0.137	-0.075
-611.244	353.367	0.029	0.058
-610.230	-60.536	-0.199	0.085
-609.215	42.859	-0.275	0.252
-608.201	-200.000	0.012	0.329
-607.186	-151.042	0.251	-0.019
-606.171	-35.832	-0.235	0.128
-605.157	-12.916	0.064	-0.041
-604.142	74.452	-0.083	-0.087
-603.128	349.901	0.030	0.060
-602.113	-179.588	-0.137	-0.003
-601.098	232.417	0.111	0.182
-600.084	316.784	-0.058	0.109
-599.069	166.815	0.042	0.060
-598.055	-200.000	-0.028	-0.462
-597.040	501.380	-0.241	-0.559
-596.025	75.993	-0.236	-0.250
-595.011	-73.214	0.084	-0.031
-593.996	-13.941	-0.024	-0.015
-592.982	-103.124	0.325	-0.077
-591.967	-131.385	0.181	-0.024
-590.952	268.324	-0.108	0.189
-589.938	112.980	0.203	0.246
-588.923	-28.328	-0.123	0.071
-587.909	-200.000	-0.021	0.164
-586.894	-200.000	-0.030	0.176
-585.879	296.014	0.077	-0.142
-584.865	209.733	-0.132	0.207
-583.850	-162.750	0.069	0.003
-582.836	294.188	0.067	0.122
-581.821	-94.530	-0.239	-0.065
-580.806	351.061	0.110	0.218
-579.792	-54.973	0.296	0.134
-578.777	800.000	-0.024	0.093
-577.763	-56.794	-0.020	-0.009
-576.748	-200.000	0.001	-0.052
-575.733	-65.736	-0.219	0.088
-574.719	-35.318	-0.240	0.131
-573.704	800.000	0.090	-0.388
-572.690	-72.965	0.346	-0.127
-571.675	50.239	0.263	0.249
-570.661	146.884	-0.211	-0.284
-569.646	800.000	-0.054	-0.212
-568.631	352.093	-0.146	-0.289
-567.617	-20.878	-0.106	-0.065
-566.602	-51.509	0.170	-0.079
-565.588	-56.430	0.213	0.095
-564.573	-200.000	-0.021	0.133
-563.558	-200.000	0.025	-0.167
-562.544	800.000	-0.083	-0.270
-561.529	244.486	0.111	0.186
-560.515	212.134	-0.114	0.180
-559.500	64.680	-0.225	0.227
-558.485	-200.000	0.009	0.091
-557.471	-200.000	-0.019	-0.180
-556.456	-95.029	0.310	-0.084
-555.442	800.000	0.018	-0.050
-554.427	-200.000	0.034	-0.173
-553.412	-129.423	-0.262	0.036
-552.398	-200.000	0.033	-0.223
-551.383	136.570	0.203	0.265
-550.369	-10.231	0.284	-0.189
-549.354	339.081	-0.043	-0.084
-548.339	7.307	-0.093	-0.070
-547.325	51.606	-0.292	-0.278
-546.310	-70.331	0.113	0.043
-545.296	-123.205	-0.233	-0.037
-544.281	-200.000	0.038	-0.181
-543.266	391.344	0.109	-0.226
-542.252	611.547	-0.077	0.192
-541.237	-58.299	-0.286	0.124
-540.223	-7.699	-0.117	-0.079
-539.208	157.449	0.042	-0.059
-538.193	203.981	0.038	-0.058
-537.179	-147.441	-0.268	0.023
-536.164	-66.036	-0.150	0.060
-535.150	-133.681	-0.252	-0.031
-534.135	-123.359	0.336	0.054
-533.121	-148.388	-0.521	-0.043
-532.106	-20.509	0.120	0.074
-531.091	-104.689	-0.061	-0.014
-530.077	-126.518	-0.232	-0.035
-529.062	-79.151	0.157	-0.053
-528.048	600.605	0.083	0.207
-527.033	800.000	-0.082	-0.337
-526.018	631.037	-0.012	0.031
-525.004	800.000	0.044	-0.149
-523.989	-160.209	-0.202	-0.011
-522.975	800.000	-0.053	0.175
-521.960	-13.375	-0.192	0.124
-520.945	-162.216	0.190	-0.010
-519.931	-200.000	-0.040	-0.197
-518.916	70.159	0.245	-0.253
-517.902	132.771	-0.057	0.074
-516.887	-45.334	-0.153	0.076
-515.872	-200.000	-0.022	-0.138
-514.858	-93.558	-0.331	-0.091
-513.843	443.394	-0.045	-0.098
-512.829	486.725	-0.142	0.323
-511.814	800.000	-0.038	-0.163
-510.799	166.085	0.046	-0.065
-509.785	800.000	-0.063	-0.185
-508.770	800.000	0.178	-0.513
-507.756	78.014	-0.151	0.161
-506.741	1.738	0.228	-0.164
-505.726	145.951	-0.040	-0.054
-504.712	142.900	-0.162	-0.215
-503.697	-27.341	0.406	0.236
-502.683	90.314	-0.226	0.252
-501.668	41.132	-0.209	0.189
-500.653	60.263	0.062	-0.061
-499.639	672.476	0.146	-0.379
-498.624	160.549	-0.122	0.169
-497.610	68.657	0.103	-0.106
-496.595	204.197	0.189	0.293
-495.581	143.462	0.095	-0.127
-494.566	83.319	0.107	-0.116
-493.551	-147.455	-0.633	0.053
-492.537	-69.401	0.327	0.125
-491.522	-14.346	-0.146	0.094
-490.508	-42.286	-0.153	-0.078
-489.493	-54.873	-0.085	0.038
-488.478	-123.906	0.258	-0.041
-487.464	-89.624	0.002	0.001
-486.449	130.262	-0.231	0.295
-485.435	26.690	0.124	-0.103
-484.420	140.620	-0.295	0.389
-483.405	113.747	0.133	0.161
-482.391	-26.117	-0.237	-0.139
-481.376	452.703	0.064	0.142
-480.362	14.660	-0.210	0.164
-479.347	5.051	0.303	-0.223
-478.332	-43.248	0.253	0.128
-477.318	-69.033	-0.168	-0.064
-476.303	121.987	0.037	0.046
-475.289	-200.000	-0.006	0.092
-474.274	-74.693	0.389	0.140
-473.259	52.444	0.082	0.078
-472.245	800.000	0.026	0.083
-471.230	-200.000	-0.001	-0.037
-470.216	800.000	-0.027	-0.100
-469.201	-32.054	-0.263	0.147
-468.186	-104.760	0.163	0.037
-467.172	27.692	0.228	-0.191
-466.157	206.223	-0.037	0.057
-465.143	800.000	0.032	-0.097
-464.128	-63.769	-0.063	-0.026
-463.113	-140.481	-0.192	0.020
-462.099	160.184	-0.151	-0.210
-461.084	-12.988	0.138	-0.090
-460.070	300.797	0.105	0.193
-459.055	-31.301	0.131	0.074
-458.040	429.254	0.094	0.202
-457.026	178.692	0.181	0.264
-456.011	800.000	-0.114	0.384
-454.997	-157.378	-0.358	0.022
-453.982	8.617	0.153	-0.115
-452.968	431.267	0.138	0.297
-451.953	30.537	-0.186	0.159
-450.938	378.069	0.104	0.212
-449.924	31.192	0.240	0.206
-448.909	-191.246	0.040	-0.000
-447.895	-200.000	0.007	-0.310
-446.880	87.694	-0.022	-0.024
-445.865	-200.000	0.012	-0.252
-444.851	800.000	0.038	-0.147
-443.836	230.622	0.101	-0.164
-442.822	282.448	0.115	-0.206
-441.807	106.635	-0.195	-0.230
-440.792	117.454	0.185	-0.226
-439.778	553.385	0.148	0.355
-438.763	-1.606	0.119	0.084
-437.749	36.377	-0.141	-0.124
-436.734	-181.279	0.299	-0.006
-435.719	-200.000	0.009	0.079
-434.705	-200.000	-0.170	0.000
-433.690	104.771	-0.145	0.170
-432.676	265.459	-0.122	0.212
-431.661	-200.000	-0.028	0.147
-430.646	-200.000	-0.003	0.235
-429.632	486.950	-0.156	0.355
-428.617	-200.000	-0.030	0.342
-427.603	-101.257	-0.048	0.012
-426.588	-67.950	-0.127	-0.049
-425.573	328.929	0.025	0.048
-424.559	-200.000	0.018	0.227
-423.544	800.000	-0.073	-0.303
-422.530	-21.103	0.301	-0.184
-421.515	-93.659	0.066	-0.018
-420.500	-200.000	0.040	-0.209
-419.486	-200.000	-0.007	0.144
-418.471	-10.835	0.312	-0.205
-417.457	10.022	0.155	-0.117
-416.442	-200.000	-0.026	-0.165
-415.428	337.088	-0.083	-0.160
-414.413	173.759	-0.101	0.146
-413.398	118.511	-0.041	-0.050
-412.384	-200.000	0.015	0.345
-411.369	800.000	0.014	0.043
-410.355	674.711	0.102	0.263
-409.340	57.216	0.048	0.047
-408.325	27.733	0.157	0.132
-407.311	-53.664	-0.259	-0.118
-406.296	71.650	0.088	-0.091
-405.282	66.672	-0.130	0.132
-404.267	-52.906	-0.144	-0.066
-403.252	-137.402	-0.204	-0.023
-402.238	-125.604	-0.118	0.018
-401.223	800.000	0.057	0.235
-400.209	-24.886	-0.177	0.105
-399.194	-200.000	0.010	0.161
-398.179	800.000	-0.071	-0.224
-397.165	157.588	-0.141	-0.194
-396.150	-49.819	-0.076	-0.036
-395.136	-59.367	0.143	0.061
-394.121	13.059	-0.308	-0.237
-393.106	6.360	0.323	-0.239
-392.092	231.799	-0.128	0.209
-391.077	-200.000	0.045	-0.273
-390.063	-200.000	0.020	-0.213
-389.048	-26.044	0.226	-0.132
-388.033	-132.039	0.307	0.040
-387.019	-62.989	0.164	0.068
-386.004	-200.000	0.091	-0.657
-384.990	-200.000	-0.020	-0.230
-383.975	-110.261	-0.350	0.073
-382.960	-200.000	-0.048	-0.211
-381.946	-200.000	0.018	0.108
-380.931	-72.998	-0.160	0.058
-379.917	-200.000	0.021	0.161
-378.902	30.549	-0.020	0.017
-377.888	34.399	0.295	0.256
-376.873	-149.404	0.234	0.019
-375.858	-200.000	0.023	0.116
-374.844	800.000	0.050	-0.194
-373.829	-154.954	0.094	0.006
-372.815	-119.749	-0.089	-0.015
-371.800	-145.550	-0.329	-0.029
-370.785	-46.701	-0.126	-0.061
-369.771	63.034	0.316	0.315
-368.756	-114.543	-0.025	-0.005
-367.742	320.157	0.181	0.342
-366.727	-5.921	0.057	0.039
-365.712	-200.000	0.017	-0.095
-364.698	73.213	0.129	-0.134
-363.683	-46.063	-0.107	-0.052
-362.669	159.965	-0.182	0.252
-361.654	-102.495	0.266	-0.063
-360.639	-159.327	0.382	-0.021
-359.625	56.550	-0.058	0.056
-358.610	-138.502	0.206	0.023
-357.596	-121.351	-0.255	0.042
-356.581	60.430	-0.178	0.175
-355.566	-200.000	-0.021	0.310
-354.552	526.818	0.025	0.058
-353.537	270.325	-0.208	-0.363
-352.523	602.473	0.072	0.178
-351.508	800.000	-0.066	0.241
-350.493	-200.000	-0.003	0.207
-349.479	-200.000	-0.016	-0.142
-348.464	-92.769	0.242	0.067
-347.450	-13.313	-0.041	0.026
-346.435	800.000	0.091	-0.360
-345.420	-58.286	-0.135	0.058
-344.406	-119.348	-0.312	-0.054
-343.391	800.000	-0.078	-0.310
-342.377	-64.516	0.321	0.129
-341.362	-200.000	0.033	0.198
-340.348	431.161	0.192	0.413
-339.333	-200.000	-0.024	-0.219
-338.318	-126.457	0.147	0.022
-337.304	6.189	0.238	0.175
-336.289	800.000	0.122	-0.409
-335.275	-200.000	0.013	-0.077
-334.260	165.937	-0.051	-0.072
-333.245	485.739	0.002	-0.004
-332.231	118.370	0.092	-0.113
-331.216	-200.000	-0.013	-0.213
-330.202	-41.572	-0.194	-0.099
-329.187	-60.084	0.216	-0.091
-328.172	141.068	0.040	0.052
-327.158	-83.147	-0.369	0.118
-326.143	-76.130	-0.303	0.106
-325.129	25.458	0.236	0.195
-324.114	800.000	0.104	-0.448
-323.099	-200.000	-0.019	-0.277
-322.085	-51.821	0.494	0.228
-321.070	444.810	-0.057	-0.125
-320.056	90.683	0.381	0.424
-319.041	78.349	-0.175	0.185
-318.026	111.851	0.059	-0.071
-317.012	-84.454	0.122	-0.038
-315.997	-200.000	0.019	0.302
-314.983	-114.687	0.329	0.062
-313.968	-48.626	-0.210	0.100
-312.953	-117.229	0.219	-0.039
-311.939	-200.000	0.007	0.050
-310.924	134.958	0.143	-0.185
-309.910	-11.202	-0.173	0.113
-308.895	121.282	0.141	-0.174
-307.880	133.389	-0.045	-0.058
-306.866	163.581	0.136	0.190
-305.851	-200.000	0.013	0.187
-304.837	16.081	-0.167	-0.131
-303.822	114.008	0.050	0.060
-302.807	-51.026	-0.132	-0.061
-301.793	-200.000	-0.053	0.248
-300.778	542.631	-0.139	0.328
-299.764	800.000	0.126	0.428
-298.749	-95.765	0.107	-0.028
-297.735	130.674	-0.298	-0.378
-296.720	78.793	0.172	0.182
-295.705	41.272	0.165	-0.148
-294.691	168.455	0.188	-0.265
-293.676	-68.100	-0.404	0.156
-292.662	503.817	-0.072	-0.166
-291.647	-99.055	0.307	-0.077
-290.632	66.349	0.108	0.109
-289.618	-63.431	0.213	0.087
-288.603	428.729	0.089	0.190
-287.589	524.873	-0.124	-0.289
-286.574	71.598	-0.114	-0.117
-285.559	-129.996	-0.152	-0.021
-284.545	186.369	-0.074	-0.109
-283.530	800.000	-0.072	0.275
-282.516	-85.458	-0.422	0.130
-281.501	-200.000	-0.037	0.282
-280.486	-200.000	0.007	-0.035
-279.472	-200.000	0.034	-0.448
-278.457	-200.000	0.155	0.001
-277.443	800.000	0.070	0.218
-276.428	-188.006	-0.165	0.002
-275.413	-107.769	0.140	-0.030
-274.399	5.026	-0.232	-0.169
-273.384	591.558	0.045	0.110
-272.370	-200.000	0.002	0.329
-271.355	-3.437	0.195	0.134
-270.340	-152.077	0.245	-0.018
-269.326	83.640	0.039	0.042
-268.311	19.683	-0.390	0.311
-267.297	424.892	0.093	-0.198
-266.282	19.321	0.089	-0.071
-265.267	18.745	-0.166	0.132
-264.253	59.677	-0.200	-0.195
-263.238	191.215	0.106	-0.158
-262.224	57.139	0.091	0.088
-261.209	253.761	0.102	0.172
-260.195	79.997	-0.215	-0.228
-259.180	14.441	0.319	0.246
-258.165	-139.416	-0.042	-0.004
-257.151	55.283	0.152	0.146
-256.136	-13.622	0.077	-0.050
-255.122	-0.799	0.375	-0.263
-254.107	-27.419	0.150	-0.087
-253.092	-200.000	0.024	0.113
-252.078	82.046	0.033	-0.036
-251.063	800.000	0.054	-0.232
-250.049	-116.434	-0.373	0.068
-249.034	-4.878	-0.181	-0.123
-248.019	-151.824	0.114	-0.008
-247.005	-200.000	-0.008	0.120
-245.990	32.656	0.177	0.151
-244.976	55.115	0.322	0.308
-243.961	-79.734	0.280	-0.093
-242.946	373.686	0.223	-0.448
-241.932	-200.000	-0.030	-0.166
-240.917	-27.183	-0.222	0.128
-239.903	-120.679	-0.264	-0.044
-238.888	-200.000	-0.010	0.203
-237.873	659.198	0.080	0.205
-236.859	249.453	-0.120	0.202
-235.844	-72.457	-0.211	0.077
-234.830	260.634	-0.068	0.116
-233.815	534.172	0.092	0.216
-232.800	-200.000	0.012	-0.286
-231.786	800.000	0.028	0.097
-230.771	-200.000	-0.004	-0.220
-229.757	-38.026	0.143	-0.075
-228.742	-57.727	-0.150	0.065
-227.727	34.565	0.119	0.102
-226.713	-79.424	-0.144	-0.048
-225.698	-23.595	-0.518	0.307
-224.684	-102.922	0.291	-0.068
-223.669	87.368	0.174	-0.190
-222.655	-66.811	-0.249	-0.097
-221.640	-200.000	-0.256	-0.000
-220.625	-200.000	0.018	0.215
-219.611	-56.067	0.224	0.099
-218.596	253.018	-0.252	-0.424
-217.582	-200.000	-0.061	-0.397
-216.567	-111.974	-0.249	0.050
-215.552	20.717	0.384	0.307
-214.538	53.927	-0.070	0.067
-213.523	-112.692	-0.256	-0.050
-212.509	-200.000	-0.005	-0.127
-211.494	269.689	-0.096	-0.167
-210.479	47.889	-0.210	-0.194
-209.465	116.867	-0.126	-0.153
-208.450	54.329	-0.133	0.126
-207.436	28.164	0.178	0.149
-206.421	-200.000	0.014	0.376
-205.406	270.974	0.130	-0.226
-204.392	-59.148	-0.179	-0.076
-203.377	-110.246	0.317	0.065
-202.363	800.000	0.083	0.280
-201.348	121.161	0.071	-0.088
-200.333	359.479	0.121	-0.240
-199.319	40.068	-0.141	0.125
-198.304	90.502	-0.158	0.175
-197.290	220.904	0.135	0.213
-196.275	198.608	0.263	-0.398
-195.260	741.754	-0.087	0.231
-194.246	-87.914	0.304	-0.090
-193.231	-77.556	-0.239	0.082
-192.217	38.707	-0.228	0.201
-191.202	-0.810	-0.109	0.076
-190.187	-82.174	0.283	-0.091
-189.173	59.808	-0.153	-0.149
-188.158	-200.000	0.065	-0.359
-187.144	218.080	0.107	0.168
-186.129	-159.774	0.171	0.009
-185.114	374.664	0.027	-0.053
-184.100	-11.322	-0.175	-0.114
-183.085	-55.021	0.183	-0.081
-182.071	62.707	0.219	-0.216
-181.056	-7.152	0.307	0.206
-180.042	50.817	0.138	-0.129
-179.027	417.528	0.105	-0.221
-178.012	417.955	-0.097	-0.204
-176.998	-190.229	-0.276	0.003
-175.983	-42.866	0.095	-0.047
-174.969	-157.729	-0.351	-0.021
-173.954	-43.414	0.535	-0.267
-172.939	-34.208	0.139	-0.075
-171.925	21.162	0.219	-0.175
-170.910	607.776	0.152	-0.373
-169.896	800.000	-0.131	0.363
-168.881	94.633	-0.079	-0.088
-167.866	800.000	-0.047	-0.175
-166.852	366.568	0.164	-0.326
-165.837	-92.623	-0.240	-0.066
-164.823	166.379	-0.166	-0.232
-163.808	-168.455	-0.291	-0.011
-162.793	-7.072	-0.117	0.078
-161.779	455.253	-0.056	-0.123
-160.764	18.430	0.028	0.022
-159.750	-200.000	0.004	0.076
-158.735	-117.892	-0.280	-0.049
-157.720	-25.140	-0.395	0.231
-156.706	-2.754	-0.176	-0.122
-155.691	464.964	-0.061	0.134
-154.677	-200.000	-0.062	-0.274
-153.662	-200.000	-0.044	0.239
-152.647	-200.000	0.076	0.327
-151.633	498.745	0.083	0.189
-150.618	-200.000	0.014	-0.151
-149.604	338.472	-0.059	-0.113
-148.589	574.686	0.087	-0.209
-147.574	-165.447	0.366	-0.016
-146.560	-136.070	-0.195	-0.023
-145.545	-200.000	0.000	-0.179
-144.531	-200.000	-0.005	0.363
-143.516	276.862	0.151	-0.264
-142.502	69.573	-0.130	0.132
-141.487	387.429	0.035	0.071
-140.472	-200.000	-0.001	0.048
-139.458	-15.837	-0.208	-0.130
-138.443	230.686	-0.133	0.214
-137.429	-200.000	-0.050	0.283
-136.414	-52.144	0.162	-0.074
-135.399	213.832	0.047	0.073
-134.385	-200.000	0.013	0.100
-133.370	-33.326	0.288	-0.157
-132.356	512.088	0.077	0.178
-131.341	9.022	0.050	0.037
-130.326	-200.000	0.050	-0.270
-129.312	-200.000	-0.005	0.106
-128.297	-200.000	-0.070	0.432
-127.283	-200.000	-0.121	-0.000
-126.268	-106.831	0.161	-0.035
-125.253	-200.000	-0.015	-0.183
-124.239	-44.556	-0.308	-0.152
-123.224	-9.750	-0.240	-0.157
-122.210	-144.353	0.049	0.004
