DTS Sentinel unit serial number:	SN413079Multiplexer serial number:	ORYXHardware model number:	OX4-SRSoftware version number:	ORYX F/W v4.00 Oryx Data Collector v3.7.2.0data status	okinstallation	princeton_trtdifferential loss correction	single-endedforward channel	channel 2reverse channel	N/Adate	2019/09/19time	03:07:34forward acquisition time	60.00reverse acquisition time	0.00gamma	496.2192k internal	0.2353k external	0.2353temperature offset calibration	1.0013default loss term (dB/km)	0.3790temperature slope calibration	1.0000multiplexer offset coefficient	1.0000multiplexer slope coefficient	1.0000fibre end	0.00T internal ref (°C)	20.81T ext. ref 1 (°C)	0.66T ext. ref 2 (°C)	14.41length (m)	temperature (°C)	Stokes	anti-Stokes-747.200	-67.942	-0.190	-0.074
-746.185	-81.418	-0.120	0.039
-745.171	536.329	-0.110	0.259
-744.156	-200.000	-0.042	0.532
-743.142	20.600	0.347	-0.280
-742.127	-200.000	-0.035	0.191
-741.112	-11.984	-0.115	0.075
-740.098	800.000	0.037	0.121
-739.083	-176.141	-0.249	0.007
-738.069	-114.849	-0.340	-0.065
-737.054	800.000	0.033	-0.119
-736.039	-45.384	-0.113	0.056
-735.025	161.649	0.222	-0.310
-734.010	235.076	0.104	-0.170
-732.996	-60.203	-0.177	-0.075
-731.981	104.417	-0.226	0.265
-730.966	207.640	-0.077	-0.120
-729.952	-5.267	-0.036	-0.025
-728.937	-13.352	-0.248	0.160
-727.923	-46.914	0.065	-0.032
-726.908	-187.175	-0.283	0.004
-725.894	282.735	-0.070	-0.124
-724.879	-73.484	-0.113	-0.041
-723.864	-57.304	0.269	-0.118
-722.850	255.388	-0.120	-0.205
-721.835	-30.749	-0.414	-0.233
-720.821	450.913	0.116	-0.255
-719.806	69.658	0.125	-0.128
-718.791	191.137	-0.255	-0.382
-717.777	-68.657	-0.063	0.024
-716.762	266.184	0.041	0.071
-715.748	-1.799	-0.149	-0.104
-714.733	-4.675	0.086	-0.059
-713.718	760.951	0.076	-0.206
-712.704	86.034	-0.136	0.149
-711.689	-29.348	0.044	-0.025
-710.675	414.705	0.034	-0.073
-709.660	-182.513	-0.198	-0.004
-708.645	-99.725	0.005	0.001
-707.631	-200.000	-0.023	0.136
-706.616	395.434	0.021	0.044
-705.602	800.000	0.084	-0.271
-704.587	40.582	0.155	-0.139
-703.572	-106.237	-0.166	0.037
-702.558	-47.144	0.315	-0.153
-701.543	-29.948	0.094	-0.053
-700.529	100.746	0.214	-0.247
-699.514	-102.394	-0.301	0.072
-698.499	14.499	-0.308	-0.240
-697.485	-45.875	0.106	-0.052
-696.470	277.038	0.179	-0.316
-695.456	-20.641	-0.125	0.076
-694.441	64.616	-0.043	0.043
-693.426	-200.000	-0.011	0.065
-692.412	111.122	-0.204	-0.244
-691.397	-200.000	-0.020	-0.337
-690.383	331.051	0.067	-0.128
-689.368	668.005	-0.048	-0.124
-688.354	684.904	0.058	-0.151
-687.339	-114.510	-0.309	-0.059
-686.324	-154.029	-0.083	-0.006
-685.310	38.058	-0.107	0.095
-684.295	-161.072	0.242	-0.013
-683.281	103.173	-0.257	-0.300
-682.266	637.631	-0.173	-0.437
-681.251	60.563	0.214	0.211
-680.237	-41.308	-0.077	0.039
-679.222	324.530	0.032	-0.061
-678.208	800.000	0.055	-0.184
-677.193	-33.783	0.082	0.045
-676.178	-200.000	0.044	-0.312
-675.164	18.483	0.148	0.117
-674.149	-200.000	0.068	-0.427
-673.135	19.167	0.202	-0.161
-672.120	-95.122	-0.448	0.120
-671.105	191.385	-0.032	0.049
-670.091	538.757	0.051	0.121
-669.076	265.918	-0.079	-0.136
-668.062	19.712	-0.014	-0.011
-667.047	-78.674	0.135	-0.046
-666.032	-200.000	0.079	-0.520
-665.018	460.507	0.024	0.054
-664.003	-164.091	0.377	0.017
-662.989	-200.000	0.046	0.220
-661.974	-200.000	-0.007	0.250
-660.959	-200.000	-0.001	0.121
-659.945	-0.785	0.096	-0.068
-658.930	800.000	0.053	-0.196
-657.916	218.454	-0.150	0.239
-656.901	-37.430	-0.318	0.169
-655.886	-46.210	0.221	0.108
-654.872	38.571	0.144	0.127
-653.857	-50.376	-0.285	0.134
-652.843	-62.428	-0.309	-0.128
-651.828	-37.609	-0.239	0.126
-650.814	-200.000	0.042	-0.299
-649.799	800.000	-0.085	-0.245
-648.784	101.166	-0.101	0.117
-647.770	-124.898	0.093	-0.014
-646.755	157.251	0.171	0.235
-645.741	56.007	0.368	-0.355
-644.726	-122.130	-0.160	0.026
-643.711	-154.603	-0.179	-0.012
-642.697	800.000	-0.028	0.083
-641.682	618.324	-0.169	0.422
-640.668	-31.486	-0.315	-0.176
-639.653	-58.159	-0.385	0.166
-638.638	-188.520	0.236	0.003
-637.624	-200.000	0.016	-0.152
-636.609	644.996	0.101	-0.255
-635.595	9.640	0.156	-0.118
-634.580	34.578	-0.215	0.186
-633.565	276.868	0.061	0.107
-632.551	800.000	0.073	0.220
-631.536	-154.518	-0.291	0.019
-630.522	98.261	0.106	0.121
-629.507	800.000	0.070	0.256
-628.492	-200.000	0.008	0.121
-627.478	-200.000	-0.032	-0.524
-626.463	-78.324	-0.227	-0.077
-625.449	-200.000	-0.007	0.064
-624.434	-200.000	0.098	-0.490
-623.419	-200.000	0.009	-0.172
-622.405	64.123	-0.117	0.117
-621.390	6.763	-0.113	-0.083
-620.376	-172.438	0.129	-0.004
-619.361	800.000	0.102	-0.310
-618.346	179.155	0.124	-0.180
-617.332	800.000	0.057	0.162
-616.317	321.526	0.193	0.363
-615.303	-68.814	-0.069	0.027
-614.288	73.895	-0.109	0.114
-613.273	86.169	-0.299	-0.326
-612.259	-170.188	-0.299	0.010
-611.244	-125.383	0.225	0.034
-610.230	-200.000	-0.023	0.237
-609.215	589.166	-0.172	0.419
-608.201	-30.218	0.215	-0.121
-607.186	65.067	-0.154	-0.154
-606.171	-80.621	-0.166	-0.055
-605.157	-200.000	-0.024	-0.164
-604.142	-4.588	0.185	0.127
-603.128	-169.614	-0.148	-0.005
-602.113	-88.079	-0.120	0.036
-601.098	800.000	-0.049	0.162
-600.084	-200.000	-0.001	0.013
-599.069	-200.000	-0.089	0.570
-598.055	486.862	0.159	-0.358
-597.040	63.452	0.135	-0.134
-596.025	272.304	0.101	0.176
-595.011	-137.990	0.429	-0.047
-593.996	355.582	0.178	-0.351
-592.982	-110.165	0.388	0.080
-591.967	21.877	-0.063	0.051
-590.952	180.903	-0.161	0.235
-589.938	-169.653	0.048	0.002
-588.923	-92.489	-0.206	-0.057
-587.909	-21.558	0.218	-0.132
-586.894	-105.572	-0.267	0.060
-585.879	161.988	0.085	-0.117
-584.865	37.776	-0.131	-0.115
-583.850	447.836	-0.065	-0.142
-582.836	35.165	0.090	-0.078
-581.821	27.318	0.133	0.111
-580.806	287.796	0.092	0.165
-579.792	-62.904	-0.137	-0.056
-578.777	-63.899	0.177	0.072
-577.763	-99.571	0.183	0.045
-576.748	-53.975	-0.191	0.086
-575.733	-146.146	0.283	-0.025
-574.719	-200.000	0.012	-0.294
-573.704	0.906	-0.200	0.142
-572.690	-200.000	0.008	0.217
-571.675	-200.000	-0.025	-0.127
-570.661	239.513	-0.124	0.204
-569.646	395.534	-0.220	0.455
-568.631	-10.314	0.085	-0.056
-567.617	229.326	0.080	0.129
-566.602	142.582	-0.097	-0.128
-565.588	-200.000	0.012	-0.280
-564.573	90.409	-0.048	0.053
-563.558	56.425	0.133	-0.128
-562.544	800.000	0.080	-0.226
-561.529	215.976	-0.062	0.097
-560.515	-200.000	-0.008	0.103
-559.500	85.624	0.139	0.152
-558.485	-14.147	-0.238	-0.152
-557.471	-200.000	0.015	-0.109
-556.456	193.206	0.167	0.250
-555.442	-163.573	-0.056	0.003
-554.427	-200.000	0.043	-0.228
-553.412	-189.241	-0.249	0.003
-552.398	800.000	-0.026	-0.076
-551.383	28.920	0.198	-0.166
-550.369	377.434	-0.034	-0.068
-549.354	251.781	0.095	-0.160
-548.339	72.286	0.178	-0.184
-547.325	275.821	0.043	-0.076
-546.310	-200.000	-0.004	-0.362
-545.296	-143.077	-0.181	-0.017
-544.281	-140.970	-0.115	0.012
-543.266	800.000	0.110	-0.343
-542.252	80.214	0.231	-0.246
-541.237	-200.000	0.004	0.188
-540.223	25.170	0.090	0.074
-539.208	-143.353	-0.246	-0.023
-538.193	87.703	0.344	-0.377
-537.179	10.456	-0.155	-0.117
-536.164	-112.233	-0.170	0.034
-535.150	27.221	0.161	-0.134
-534.135	-200.000	-0.013	0.124
-533.121	-124.332	0.065	0.010
-532.106	43.742	-0.081	0.074
-531.091	-157.433	-0.306	0.018
-530.077	-15.638	0.158	0.100
-529.062	-74.367	-0.070	-0.025
-528.048	-29.225	-0.151	0.085
-527.033	559.579	-0.116	0.276
-526.018	800.000	-0.059	-0.229
-525.004	121.928	0.122	0.150
-523.989	69.610	0.227	0.231
-522.975	-129.765	0.101	0.014
-521.960	-2.060	0.185	-0.129
-520.945	75.181	-0.093	-0.097
-519.931	516.282	0.155	-0.357
-518.916	-147.747	-0.269	-0.022
-517.902	173.467	0.209	-0.298
-516.887	-73.006	-0.042	0.015
-515.872	7.580	0.097	-0.071
-514.858	-36.656	-0.132	0.070
-513.843	-102.288	-0.313	-0.074
-512.829	13.003	0.202	0.154
-511.814	-1.983	-0.270	0.187
-510.799	-200.000	0.006	0.274
-509.785	-15.968	0.328	0.206
-508.770	16.278	0.054	-0.042
-507.756	89.940	0.132	0.145
-506.741	97.080	-0.173	-0.196
-505.726	800.000	0.075	-0.237
-504.712	267.988	0.174	0.302
-503.697	-200.000	0.030	0.452
-502.683	-76.233	0.003	-0.001
-501.668	-37.080	-0.180	0.095
-500.653	800.000	0.086	0.246
-499.639	-47.008	0.246	-0.118
-498.624	-200.000	-0.015	-0.156
-497.610	-200.000	-0.049	-0.216
-496.595	50.330	0.152	-0.142
-495.581	-130.757	-0.238	-0.032
-494.566	-125.850	0.182	0.027
-493.551	65.642	-0.152	0.152
-492.537	37.984	0.118	0.104
-491.522	27.485	-0.153	-0.127
-490.508	83.776	0.058	-0.063
-489.493	-99.373	0.093	-0.023
-488.478	-161.360	-0.111	-0.006
-487.464	66.836	-0.243	-0.244
-486.449	168.101	0.155	0.217
-485.435	60.282	0.182	0.178
-484.420	234.997	0.097	-0.158
-483.405	498.933	0.073	-0.165
-482.391	89.349	0.079	0.087
-481.376	-9.285	-0.184	-0.121
-480.362	-62.692	0.080	-0.033
-479.347	-3.500	0.256	0.176
-478.332	143.951	0.262	0.345
-477.318	-200.000	0.006	0.092
-476.303	248.672	-0.115	-0.193
-475.289	725.436	-0.219	-0.576
-474.274	340.328	0.051	-0.099
-473.259	630.956	0.024	0.061
-472.245	-200.000	-0.011	-0.099
-471.230	800.000	0.017	0.067
-470.216	-19.082	-0.172	0.106
-469.201	-11.106	-0.282	0.184
-468.186	-128.361	-0.020	-0.003
-467.172	255.671	-0.083	0.141
-466.157	-11.727	-0.253	0.164
-465.143	800.000	0.084	0.233
-464.128	-200.000	-0.008	-0.226
-463.113	-48.424	0.174	-0.083
-462.099	-23.615	-0.203	0.120
-461.084	800.000	-0.027	0.103
-460.070	-200.000	-0.002	0.042
-459.055	-69.499	-0.333	0.126
-458.040	-3.759	0.284	0.194
-457.026	-200.000	-0.047	0.297
-456.011	-88.516	0.266	-0.078
-454.997	177.774	0.089	-0.127
-453.982	119.497	0.333	-0.406
-452.968	800.000	-0.023	0.077
-451.953	133.457	-0.169	-0.215
-450.938	-15.199	-0.143	-0.090
-449.924	-200.000	-0.013	-0.099
-448.909	-137.939	0.139	0.015
-447.895	507.618	-0.136	0.312
-446.880	-200.000	0.033	0.319
-445.865	-184.589	-0.202	0.003
-444.851	385.104	0.107	0.218
-443.836	-200.000	-0.034	-0.356
-442.822	-115.111	-0.066	0.012
-441.807	85.372	-0.048	-0.052
-440.792	-200.000	-0.000	0.051
-439.778	75.853	0.237	0.247
-438.763	-161.776	0.278	-0.014
-437.749	-140.268	0.239	-0.025
-436.734	-92.811	-0.079	-0.022
-435.719	-200.000	-0.228	0.000
-434.705	-54.318	0.284	0.127
-433.690	-200.000	-0.008	0.184
-432.676	70.176	-0.182	-0.186
-431.661	-80.167	-0.070	0.023
-430.646	68.840	0.210	0.212
-429.632	-129.632	-0.484	-0.066
-428.617	528.708	0.011	0.026
-427.603	-61.409	-0.522	0.216
-426.588	-200.000	0.014	0.505
-425.573	-88.248	-0.251	-0.074
-424.559	-200.000	-0.013	-0.104
-423.544	-200.000	-0.053	-0.360
-422.530	292.365	0.069	0.124
-421.515	140.207	-0.069	0.090
-420.500	224.502	-0.077	0.122
-419.486	326.222	0.098	-0.184
-418.471	45.102	0.211	-0.191
-417.457	-67.266	-0.182	-0.071
-416.442	52.717	0.200	-0.188
-415.428	-73.141	-0.290	-0.105
-414.413	363.500	0.095	-0.187
-413.398	-33.353	-0.095	-0.052
-412.384	-8.428	-0.355	0.235
-411.369	368.917	-0.121	-0.241
-410.355	-158.908	0.193	0.011
-409.340	418.676	-0.088	0.185
-408.325	-54.899	-0.050	-0.022
-407.311	59.288	0.114	-0.111
-406.296	269.677	-0.068	0.118
-405.282	125.360	-0.099	0.123
-404.267	800.000	-0.015	0.044
-403.252	-123.655	0.109	0.017
-402.238	-200.000	-0.022	-0.122
-401.223	-4.063	0.212	-0.144
-400.209	-88.864	0.233	-0.068
-399.194	418.112	0.090	-0.189
-398.179	-37.914	-0.111	-0.058
-397.165	-200.000	-0.058	-0.477
-396.150	-29.773	0.236	0.132
-395.136	106.770	-0.145	0.169
-394.121	-200.000	-0.040	0.222
-393.106	-200.000	-0.023	-0.342
-392.092	-20.601	-0.326	-0.197
-391.077	-200.000	-0.026	0.276
-390.063	-200.000	0.052	0.284
-389.048	-52.233	-0.340	0.155
-388.033	800.000	0.036	0.145
-387.019	-18.906	0.202	0.124
-386.004	-200.000	0.005	0.158
-384.990	179.038	0.096	-0.138
-383.975	-200.000	0.001	0.180
-382.960	38.238	-0.048	-0.042
-381.946	3.611	-0.086	-0.062
-380.931	-102.922	0.286	-0.067
-379.917	221.708	0.046	0.073
-378.902	-25.309	-0.215	0.125
-377.888	-52.909	-0.370	-0.167
-376.873	350.803	0.095	-0.185
-375.858	-53.644	0.163	0.073
-374.844	-200.000	0.006	-0.292
-373.829	80.370	0.195	-0.206
-372.815	800.000	0.032	-0.114
-371.800	93.369	-0.042	0.047
-370.785	-200.000	0.017	0.160
-369.771	426.949	0.143	-0.303
-368.756	800.000	-0.077	0.224
-367.742	35.934	0.102	0.088
-366.727	-200.000	0.010	-0.163
-365.712	-200.000	0.017	0.077
-364.698	376.199	-0.051	-0.103
-363.683	-146.908	0.362	0.031
-362.669	-200.000	0.003	0.120
-361.654	218.327	-0.062	-0.097
-360.639	-39.268	0.124	0.064
-359.625	-45.752	0.209	0.101
-358.610	800.000	-0.095	-0.390
-357.596	-176.260	0.272	-0.007
-356.581	-43.421	0.154	0.076
-355.566	397.470	-0.056	0.115
-354.552	167.028	0.254	0.354
-353.537	-78.134	0.177	0.060
-352.523	6.076	-0.231	-0.168
-351.508	-143.765	-0.268	0.025
-350.493	-161.519	0.107	-0.005
-349.479	-83.575	-0.245	-0.077
-348.464	503.501	0.089	0.202
-347.450	185.692	-0.063	0.091
-346.435	-23.110	-0.114	-0.067
-345.420	-4.520	0.361	-0.245
-344.406	207.446	-0.112	0.171
-343.391	-72.834	-0.185	-0.067
-342.377	-87.258	-0.179	-0.053
-341.362	53.907	0.120	-0.113
-340.348	-200.000	-0.050	-0.344
-339.333	-7.257	-0.036	0.024
-338.318	-200.000	0.010	-0.160
-337.304	-38.710	0.366	-0.189
-336.289	-200.000	-0.046	-0.239
-335.275	-5.600	-0.040	-0.027
-334.260	-65.265	-0.450	-0.178
-333.245	-52.957	-0.102	0.046
-332.231	33.803	-0.059	0.050
-331.216	5.376	0.284	-0.206
-330.202	-28.236	-0.444	-0.252
-329.187	-55.212	-0.153	-0.068
-328.172	-9.486	0.180	0.118
-327.158	58.213	-0.177	0.170
-326.143	-117.671	0.199	0.035
-325.129	107.198	0.120	0.140
-324.114	148.550	-0.342	0.453
-323.099	-200.000	-0.002	0.220
-322.085	-26.944	0.141	-0.081
-321.070	-39.521	-0.210	0.108
-320.056	800.000	-0.059	0.170
-319.041	75.531	-0.210	0.217
-318.026	164.328	-0.076	0.104
-317.012	-34.186	0.152	0.082
-315.997	450.136	-0.160	0.345
-314.983	219.336	0.106	-0.167
-313.968	653.125	-0.068	0.170
-312.953	540.981	-0.137	-0.320
-311.939	273.083	0.106	0.183
-310.924	106.872	0.116	0.135
-309.910	-127.716	0.132	-0.019
-308.895	608.977	-0.018	0.045
-307.880	-129.866	0.065	-0.009
-306.866	-40.405	-0.119	0.061
-305.851	-200.000	0.001	-0.122
-304.837	-23.284	-0.153	-0.090
-303.822	-200.000	0.028	0.176
-302.807	101.287	0.210	-0.240
-301.793	-135.171	0.317	0.037
-300.778	307.319	-0.114	-0.209
-299.764	-33.176	0.149	0.081
-298.749	53.532	0.077	-0.072
-297.735	-156.719	-0.114	0.007
-296.720	521.810	0.050	0.115
-295.705	-111.055	0.048	-0.010
-294.691	-51.728	0.257	-0.117
-293.676	436.130	0.035	-0.074
-292.662	569.416	-0.057	0.136
-291.647	-144.462	-0.197	0.018
-290.632	-56.591	0.284	-0.123
-289.618	138.510	0.182	0.234
-288.603	-77.642	0.086	-0.029
-287.589	297.688	0.220	-0.396
-286.574	-56.772	-0.355	-0.154
-285.559	-128.297	-0.396	0.055
-284.545	740.389	0.055	-0.144
-283.530	-200.000	0.009	-0.068
-282.516	-90.689	0.292	-0.083
-281.501	113.156	-0.228	0.270
-280.486	151.337	-0.217	0.289
-279.472	800.000	0.083	0.226
-278.457	-53.396	-0.276	-0.124
-277.443	-92.558	-0.264	0.072
-276.428	-200.000	-0.043	0.271
-275.413	30.265	0.203	-0.170
-274.399	45.930	0.141	-0.128
-273.384	111.527	0.145	0.171
-272.370	22.302	-0.104	0.083
-271.355	-200.000	0.015	-0.391
-270.340	131.737	0.213	0.268
-269.326	96.785	-0.233	-0.261
-268.311	181.917	0.103	-0.149
-267.297	800.000	0.071	-0.229
-266.282	-55.896	-0.392	-0.171
-265.267	-50.108	0.225	0.104
-264.253	-200.000	-0.015	-0.324
-263.238	121.879	-0.056	0.068
-262.224	-31.410	0.441	-0.243
-261.209	-200.000	-0.031	-0.174
-260.195	-8.781	0.210	-0.138
-259.180	-200.000	-0.005	-0.208
-258.165	22.915	0.118	-0.094
-257.151	-48.010	0.101	0.048
-256.136	139.022	-0.136	-0.175
-255.122	-22.080	0.131	0.078
-254.107	-161.227	0.157	0.008
-253.092	109.579	0.085	-0.099
-252.078	-200.000	0.003	-0.174
-251.063	31.421	0.159	-0.134
-250.049	67.005	0.121	-0.120
-249.034	355.824	-0.196	-0.382
-248.019	52.852	-0.082	0.077
-247.005	-84.726	0.249	0.077
-245.990	-6.929	-0.168	-0.112
-244.976	196.818	-0.108	-0.161
-243.961	-200.000	0.022	0.311
-242.946	-148.284	0.378	-0.030
-241.932	183.802	-0.187	0.271
-240.917	514.110	-0.024	-0.054
-239.903	298.556	-0.082	0.147
-238.888	-13.250	0.187	-0.119
-237.873	98.171	0.125	0.141
-236.859	41.498	-0.316	0.279
-235.844	40.949	-0.191	-0.169
-234.830	800.000	0.015	0.058
-233.815	-17.408	-0.338	-0.208
-232.800	199.618	0.292	-0.437
-231.786	-200.000	0.027	0.244
-230.771	-35.669	0.365	0.194
-229.757	163.532	-0.200	-0.275
-228.742	80.735	0.162	-0.170
-227.727	31.224	-0.282	0.237
-226.713	491.912	0.030	-0.067
-225.698	188.982	-0.168	0.246
-224.684	-100.619	-0.086	0.021
-223.669	-100.255	-0.330	0.080
-222.655	-157.402	-0.077	0.005
-221.640	141.129	-0.074	-0.096
-220.625	-200.000	-0.006	0.267
-219.611	-200.000	-0.006	0.168
-218.596	-200.000	0.030	0.145
-217.582	-200.000	-0.032	-0.242
-216.567	-200.000	0.018	0.083
-215.552	148.765	0.171	-0.226
-214.538	-104.542	0.154	-0.035
-213.523	0.303	-0.339	0.236
-212.509	-135.690	0.190	0.022
-211.494	-200.000	-0.045	-0.221
-210.479	107.198	0.077	0.090
-209.465	67.446	-0.131	-0.131
-208.450	-62.617	-0.072	0.029
-207.436	251.601	-0.039	-0.065
-206.421	38.107	-0.061	0.053
-205.406	-155.613	-0.116	-0.007
-204.392	-200.000	0.040	-0.237
-203.377	-132.693	0.134	0.017
-202.363	496.830	0.120	0.269
-201.348	42.913	0.182	0.162
-200.333	-88.135	-0.131	-0.038
-199.319	-133.410	-0.234	-0.029
-198.304	-46.909	0.141	0.067
-197.290	800.000	-0.070	0.248
-196.275	115.206	0.105	-0.126
-195.260	-19.228	0.154	-0.093
-194.246	356.165	-0.122	-0.236
-193.231	58.393	-0.273	0.262
-192.217	633.624	-0.123	0.305
-191.202	151.068	-0.041	0.054
-190.187	186.714	0.065	0.094
-189.173	429.425	-0.060	-0.126
-188.158	20.004	-0.037	-0.029
-187.144	216.392	-0.090	-0.139
-186.129	-133.730	0.224	-0.027
-185.114	39.613	0.195	0.171
-184.100	534.375	-0.077	0.177
-183.085	-200.000	-0.029	-0.158
-182.071	-8.833	-0.092	0.060
-181.056	52.309	0.130	-0.121
-180.042	-102.667	-0.133	0.031
-179.027	-51.967	-0.102	0.046
-178.012	-78.472	0.144	-0.048
-176.998	489.527	0.043	-0.095
-175.983	-73.605	0.410	0.146
-174.969	-200.000	0.029	0.233
-173.954	-200.000	-0.059	0.286
-172.939	32.907	0.051	0.043
-171.925	800.000	-0.107	0.372
-170.910	91.431	0.324	0.355
-169.896	-36.098	0.202	-0.107
-168.881	-200.000	0.013	0.408
-167.866	-68.591	-0.138	0.052
-166.852	60.798	0.195	-0.188
-165.837	-200.000	0.045	-0.321
-164.823	-119.846	0.240	0.040
-163.808	516.383	-0.099	0.226
-162.793	547.608	-0.113	-0.264
-161.779	187.231	-0.150	0.218
-160.764	-39.984	0.124	-0.063
-159.750	-200.000	0.005	0.344
-158.735	800.000	0.074	0.314
-157.720	-122.572	-0.338	-0.053
-156.706	-56.075	-0.099	0.043
-155.691	722.271	-0.067	0.175
-154.677	151.552	-0.111	-0.147
-153.662	-90.462	0.140	-0.040
-152.647	49.305	-0.101	0.092
-151.633	231.311	0.071	-0.114
-150.618	108.371	0.132	0.154
-149.604	762.731	-0.151	0.398
-148.589	800.000	0.020	-0.063
-147.574	119.940	-0.086	-0.104
-146.560	34.927	0.280	-0.239
-145.545	-104.531	-0.325	0.073
-144.531	268.402	-0.179	0.306
-143.516	-54.621	0.106	-0.047
-142.502	766.781	-0.184	0.487
-141.487	-67.818	0.583	0.222
-140.472	-155.552	-0.206	-0.013
-139.458	426.626	-0.058	0.122
-138.443	25.685	0.250	0.203
-137.429	-200.000	-0.026	0.157
-136.414	-147.334	0.138	-0.011
-135.399	-200.000	0.071	-0.355
-134.385	56.222	0.125	-0.118
-133.370	-124.583	0.269	-0.041
-132.356	800.000	0.079	-0.268
-131.341	-200.000	-0.002	-0.162
-130.326	-23.339	0.172	0.100
-129.312	105.321	0.159	0.183
-128.297	432.938	-0.130	-0.274
-127.283	-25.040	0.267	0.154
-126.268	-70.480	0.297	0.110
-125.253	-200.000	-0.028	-0.157
-124.239	127.519	-0.091	-0.113
-123.224	10.407	0.208	0.154
-122.210	-200.000	-0.010	-0.130
-121.195	800.000	-0.031	-0.128
