DTS Sentinel unit serial number:	SN413079Multiplexer serial number:	ORYXHardware model number:	OX4-SRSoftware version number:	ORYX F/W v4.00 Oryx Data Collector v3.7.2.0data status	okinstallation	princeton_trtdifferential loss correction	single-endedforward channel	channel 2reverse channel	N/Adate	2019/09/19time	02:27:34forward acquisition time	60.00reverse acquisition time	0.00gamma	496.2192k internal	0.2353k external	0.2353temperature offset calibration	1.0016default loss term (dB/km)	0.3790temperature slope calibration	1.0000multiplexer offset coefficient	1.0000multiplexer slope coefficient	1.0000fibre end	0.00T internal ref (°C)	21.03T ext. ref 1 (°C)	0.67T ext. ref 2 (°C)	14.70length (m)	temperature (°C)	Stokes	anti-Stokes-747.200	257.299	0.059	-0.101
-746.185	-74.017	0.107	0.039
-745.171	-4.457	-0.014	-0.009
-744.156	88.433	-0.207	0.230
-743.142	-200.000	-0.040	-0.179
-742.127	-200.000	0.014	0.347
-741.112	-50.833	-0.162	-0.076
-740.098	43.595	-0.200	0.182
-739.083	-64.492	-0.216	0.087
-738.069	333.335	-0.145	0.279
-737.054	68.117	-0.129	0.132
-736.039	14.850	-0.231	0.180
-735.025	800.000	-0.139	0.403
-734.010	-182.074	0.112	-0.002
-732.996	192.946	-0.123	-0.185
-731.981	-166.432	0.223	0.009
-730.966	-97.945	0.319	-0.082
-729.952	84.315	-0.118	0.129
-728.937	-200.000	0.022	-0.248
-727.923	-33.973	0.369	-0.202
-726.908	-34.308	-0.147	-0.080
-725.894	800.000	0.068	-0.201
-724.879	-28.913	-0.069	0.040
-723.864	8.954	0.077	-0.058
-722.850	-200.000	0.023	-0.099
-721.835	-120.376	0.460	-0.078
-720.821	-33.467	-0.172	0.095
-719.806	-200.000	0.025	-0.224
-718.791	800.000	-0.043	0.120
-717.777	311.391	0.047	-0.088
-716.762	13.236	-0.030	-0.023
-715.748	65.566	0.144	0.145
-714.733	-133.602	0.362	-0.045
-713.718	58.418	-0.131	-0.128
-712.704	-69.893	-0.291	-0.111
-711.689	273.231	-0.066	-0.116
-710.675	-51.886	0.288	0.134
-709.660	-88.652	-0.376	0.111
-708.645	-16.539	0.159	0.100
-707.631	463.577	0.175	-0.389
-706.616	-200.000	-0.052	-0.422
-705.602	-122.140	0.124	0.020
-704.587	-133.223	-0.090	-0.011
-703.572	498.569	0.048	0.110
-702.558	-12.970	-0.088	0.057
-701.543	51.118	-0.091	-0.086
-700.529	233.823	0.097	-0.159
-699.514	-67.108	-0.193	0.076
-698.499	-113.011	-0.077	0.015
-697.485	86.113	0.076	0.083
-696.470	-200.000	-0.021	0.199
-695.456	-141.806	-0.053	0.005
-694.441	41.301	-0.229	0.206
-693.426	800.000	-0.046	-0.140
-692.412	20.052	-0.195	-0.157
-691.397	-200.000	-0.030	-0.533
-690.383	-76.481	-0.339	-0.118
-689.368	137.391	-0.066	-0.086
-688.354	-200.000	-0.018	-0.206
-687.339	-108.085	-0.046	-0.010
-686.324	-200.000	-0.001	0.084
-685.310	800.000	0.076	0.220
-684.295	-76.538	0.188	-0.066
-683.281	140.086	0.078	-0.102
-682.266	800.000	-0.110	-0.396
-681.251	-62.807	-0.230	-0.095
-680.237	-68.114	0.184	0.071
-679.222	-30.122	-0.169	-0.096
-678.208	124.080	0.098	-0.122
-677.193	800.000	-0.069	0.251
-676.178	800.000	-0.016	0.054
-675.164	18.980	0.146	0.116
-674.149	87.493	0.107	0.118
-673.135	800.000	0.091	-0.270
-672.120	105.037	-0.300	-0.352
-671.105	433.430	0.076	-0.163
-670.091	800.000	-0.054	-0.193
-669.076	128.727	-0.038	-0.048
-668.062	471.647	-0.098	0.219
-667.047	-46.526	-0.115	-0.056
-666.032	55.034	-0.053	0.051
-665.018	68.254	0.192	-0.196
-664.003	-200.000	-0.028	0.447
-662.989	-76.813	-0.130	0.045
-661.974	-181.530	-0.227	0.004
-660.959	67.199	-0.260	0.263
-659.945	96.264	-0.237	-0.270
-658.930	-149.535	-0.440	-0.035
-657.916	800.000	-0.076	0.312
-656.901	249.790	0.115	0.194
-655.886	81.028	-0.114	0.122
-654.872	-132.635	0.175	-0.022
-653.857	-200.000	-0.100	0.463
-652.843	124.614	-0.240	0.300
-651.828	108.277	0.195	-0.232
-650.814	-193.948	-0.343	-0.003
-649.799	-34.831	-0.182	0.099
-648.784	285.262	-0.051	0.091
-647.770	245.761	-0.085	0.143
-646.755	85.654	-0.105	-0.114
-645.741	84.114	-0.097	-0.105
-644.726	-111.417	0.130	0.026
-643.711	71.069	0.021	-0.022
-642.697	-107.410	0.135	0.029
-641.682	-48.498	0.264	-0.126
-640.668	-157.088	-0.204	-0.012
-639.653	111.145	-0.063	0.076
-638.638	-185.302	0.047	0.001
-637.624	-151.470	-0.040	0.003
-636.609	-91.487	0.400	0.113
-635.595	-60.586	0.105	0.044
-634.580	362.003	0.079	0.157
-633.565	-76.034	-0.340	-0.119
-632.551	2.393	0.147	0.106
-631.536	46.072	0.139	-0.128
-630.522	126.634	-0.190	-0.238
-629.507	-127.516	-0.235	0.034
-628.492	501.013	-0.055	-0.127
-627.478	195.787	0.010	-0.015
-626.463	-200.000	-0.039	-0.314
-625.449	-84.767	-0.287	-0.090
-624.434	506.264	-0.109	-0.251
-623.419	389.987	0.102	0.209
-622.405	296.636	0.069	0.125
-621.390	104.983	-0.018	-0.021
-620.376	65.792	-0.229	-0.230
-619.361	156.806	0.049	-0.068
-618.346	-200.000	0.015	0.097
-617.332	-119.195	0.186	-0.032
-616.317	-200.000	0.048	-0.350
-615.303	-48.616	-0.052	-0.025
-614.288	7.045	-0.336	-0.249
-613.273	96.524	0.090	0.103
-612.259	28.015	0.138	-0.116
-611.244	-200.000	-0.009	-0.111
-610.230	-30.233	-0.122	-0.069
-609.215	-200.000	0.018	0.584
-608.201	-52.852	-0.096	-0.044
-607.186	-59.773	-0.262	0.111
-606.171	800.000	-0.077	-0.262
-605.157	66.184	0.376	-0.379
-604.142	88.189	-0.319	0.351
-603.128	-157.004	-0.356	-0.022
-602.113	-50.531	-0.029	0.014
-601.098	7.797	0.210	0.156
-600.084	434.452	-0.074	0.159
-599.069	183.090	0.052	0.076
-598.055	800.000	0.033	-0.104
-597.040	-25.576	-0.225	-0.132
-596.025	389.073	-0.068	-0.140
-595.011	-200.000	-0.039	-0.190
-593.996	416.758	-0.154	0.325
-592.982	-153.527	0.297	-0.020
-591.967	24.909	0.243	-0.199
-590.952	-200.000	-0.001	-0.286
-589.938	-72.999	0.323	0.117
-588.923	-200.000	-0.002	0.069
-587.909	404.211	-0.099	-0.207
-586.894	496.840	-0.047	-0.107
-585.879	143.605	-0.048	0.064
-584.865	39.663	0.073	0.064
-583.850	294.161	0.157	-0.283
-582.836	800.000	-0.103	-0.292
-581.821	-21.644	0.229	-0.138
-580.806	284.622	-0.138	-0.246
-579.792	-116.550	0.277	-0.051
-578.777	10.470	-0.064	0.048
-577.763	-172.647	-0.172	-0.005
-576.748	-200.000	0.016	-0.257
-575.733	-88.078	0.259	0.077
-574.719	17.824	0.386	0.305
-573.704	-200.000	0.046	0.247
-572.690	-118.895	-0.221	0.039
-571.675	-200.000	-0.003	-0.163
-570.661	681.517	-0.071	-0.184
-569.646	-133.369	0.258	0.032
-568.631	-200.000	0.008	-0.082
-567.617	38.937	-0.281	0.249
-566.602	294.119	-0.171	-0.310
-565.588	-84.109	0.330	-0.104
-564.573	-158.716	0.189	-0.011
-563.558	-189.265	0.078	-0.001
-562.544	-200.000	-0.035	-0.421
-561.529	-74.878	-0.295	-0.105
-560.515	-200.000	0.024	-0.399
-559.500	80.367	0.173	-0.184
-558.485	307.756	-0.208	0.384
-557.471	83.934	-0.242	0.261
-556.456	-114.391	0.110	-0.021
-555.442	-7.147	-0.224	-0.151
-554.427	238.430	-0.267	-0.439
-553.412	-68.029	0.233	-0.090
-552.398	-125.954	0.282	-0.042
-551.383	-121.294	0.060	0.010
-550.369	-106.189	-0.272	-0.060
-549.354	-200.000	-0.017	-0.090
-548.339	-41.103	0.432	-0.221
-547.325	-200.000	0.047	0.344
-546.310	686.968	0.062	0.161
-545.296	-90.277	0.231	-0.066
-544.281	-83.304	-0.103	0.033
-543.266	22.838	0.156	-0.126
-542.252	-200.000	-0.034	-0.209
-541.237	120.057	-0.056	0.068
-540.223	-133.849	0.219	0.027
-539.208	-91.478	-0.510	0.144
-538.193	800.000	0.120	0.345
-537.179	800.000	0.046	0.142
-536.164	-200.000	0.001	0.360
-535.150	800.000	-0.056	0.170
-534.135	104.381	-0.184	0.214
-533.121	-147.618	-0.028	0.002
-532.106	494.184	0.035	0.080
-531.091	-200.000	-0.023	0.103
-530.077	242.797	0.044	-0.073
-529.062	-200.000	-0.003	-0.056
-528.048	-200.000	0.003	0.101
-527.033	791.757	-0.111	-0.302
-526.018	-11.282	-0.274	0.179
-525.004	800.000	-0.037	-0.117
-523.989	-108.704	-0.241	-0.051
-522.975	62.923	0.165	0.163
-521.960	800.000	-0.046	-0.130
-520.945	-91.385	0.192	0.054
-519.931	-30.898	-0.077	-0.043
-518.916	268.207	-0.184	-0.319
-517.902	150.311	-0.045	0.060
-516.887	-27.697	-0.055	0.031
-515.872	-200.000	0.046	0.309
-514.858	319.046	-0.126	-0.236
-513.843	-66.660	-0.301	0.118
-512.829	47.988	0.169	-0.156
-511.814	321.454	0.110	0.207
-510.799	-93.566	-0.311	-0.085
-509.785	-200.000	0.005	-0.400
-508.770	-67.665	0.337	-0.130
-507.756	532.493	-0.039	-0.091
-506.741	-98.676	-0.184	-0.046
-505.726	-181.894	0.184	-0.003
-504.712	-94.074	-0.303	0.082
-503.697	-16.253	0.157	0.098
-502.683	-32.368	-0.102	0.056
-501.668	-112.883	0.134	-0.026
-500.653	352.323	0.176	0.344
-499.639	-161.153	0.342	0.018
-498.624	285.955	-0.120	0.214
-497.610	-200.000	-0.028	-0.276
-496.595	800.000	0.033	0.117
-495.581	-51.899	0.295	0.135
-494.566	-87.878	0.146	-0.043
-493.551	-49.221	-0.346	0.163
-492.537	-200.000	-0.048	-0.251
-491.522	-200.000	-0.000	0.042
-490.508	-200.000	-0.017	-0.202
-489.493	69.016	-0.210	-0.213
-488.478	260.765	0.129	-0.221
-487.464	234.809	0.135	0.220
-486.449	-200.000	0.027	-0.158
-485.435	576.483	-0.014	0.035
-484.420	108.276	-0.203	0.239
-483.405	800.000	0.088	0.373
-482.391	77.128	-0.144	0.151
-481.376	8.361	-0.185	0.137
-480.362	-56.786	-0.225	-0.098
-479.347	-200.000	-0.035	-0.419
-478.332	-200.000	-0.012	-0.248
-477.318	-148.195	-0.033	-0.003
-476.303	-138.613	0.284	-0.031
-475.289	-52.554	-0.100	-0.045
-474.274	-200.000	0.001	0.023
-473.259	570.023	-0.079	0.190
-472.245	-200.000	0.086	-0.410
-471.230	-200.000	-0.043	0.189
-470.216	800.000	-0.044	0.145
-469.201	-148.222	0.194	-0.016
-468.186	-173.683	0.328	-0.010
-467.172	-42.516	-0.180	0.091
-466.157	448.713	0.093	0.202
-465.143	182.829	-0.102	-0.148
-464.128	101.402	-0.149	-0.171
-463.113	800.000	-0.039	0.159
-462.099	13.066	-0.062	0.048
-461.084	-182.415	0.136	0.002
-460.070	60.866	-0.008	-0.008
-459.055	-126.348	0.329	0.048
-458.040	628.418	0.057	0.142
-457.026	800.000	0.050	0.157
-456.011	-200.000	0.033	-0.258
-454.997	-97.159	0.125	0.032
-453.982	-200.000	0.002	-0.213
-452.968	28.714	-0.139	0.116
-451.953	-200.000	0.006	-0.213
-450.938	-115.103	0.225	-0.042
-449.924	-134.094	0.100	-0.012
-448.909	-21.315	-0.300	0.181
-447.895	426.889	0.109	0.232
-446.880	-86.984	0.278	-0.084
-445.865	48.648	0.076	0.070
-444.851	7.843	-0.277	0.205
-443.836	-200.000	-0.031	0.200
-442.822	226.006	-0.118	0.189
-441.807	-153.491	-0.063	0.004
-440.792	145.614	0.061	0.081
-439.778	-200.000	0.011	0.224
-438.763	-16.141	0.274	-0.171
-437.749	800.000	0.088	-0.332
-436.734	414.761	-0.186	-0.391
-435.719	-131.793	0.073	-0.009
-434.705	800.000	0.016	0.064
-433.690	127.526	0.159	0.199
-432.676	-55.969	0.273	-0.120
-431.661	338.899	-0.081	-0.156
-430.646	648.044	0.089	-0.225
-429.632	68.218	-0.116	-0.117
-428.617	-144.789	-0.396	-0.036
-427.603	150.390	-0.142	0.190
-426.588	800.000	-0.089	-0.248
-425.573	136.292	-0.063	0.081
-424.559	446.515	-0.161	0.350
-423.544	-200.000	-0.037	-0.194
-422.530	-23.353	0.192	0.114
-421.515	-40.801	-0.040	0.020
-420.500	520.064	0.143	0.330
-419.486	-180.911	0.223	0.004
-418.471	800.000	0.019	0.058
-417.457	59.182	0.047	0.046
-416.442	-200.000	-0.009	-0.180
-415.428	29.288	-0.128	0.107
-414.413	-131.758	0.293	0.038
-413.398	-64.691	0.324	0.129
-412.384	114.020	0.238	0.285
-411.369	174.630	-0.107	0.152
-410.355	-19.708	0.045	-0.028
-409.340	439.322	-0.106	0.227
-408.325	-32.570	-0.141	-0.077
-407.311	375.034	0.026	-0.051
-406.296	86.874	-0.059	-0.064
-405.282	574.159	-0.048	0.115
-404.267	705.901	0.050	-0.129
-403.252	553.496	-0.111	-0.263
-402.238	-200.000	-0.022	-0.183
-401.223	-106.320	0.160	0.035
-400.209	10.602	0.078	-0.059
-399.194	86.534	-0.204	-0.221
-398.179	-118.076	-0.186	-0.033
-397.165	-200.000	0.000	0.073
-396.150	-200.000	-0.093	0.527
-395.136	-108.997	0.063	0.013
-394.121	-200.000	0.007	-0.123
-393.106	-89.196	0.122	0.035
-392.092	800.000	0.044	-0.187
-391.077	-82.761	0.252	-0.080
-390.063	100.564	-0.153	0.175
-389.048	63.446	0.148	-0.146
-388.033	-200.000	-0.068	0.312
-387.019	297.044	-0.162	0.293
-386.004	-30.358	0.075	-0.042
-384.990	67.065	-0.265	0.265
-383.975	223.426	0.066	0.105
-382.960	-200.000	0.071	-0.454
-381.946	-84.281	0.198	-0.062
-380.931	-147.586	0.170	-0.014
-379.917	-113.829	-0.137	0.026
-378.902	-200.000	-0.017	0.325
-377.888	108.256	-0.167	-0.196
-376.873	-200.000	0.032	0.141
-375.858	-62.098	-0.135	0.055
-374.844	-19.018	-0.071	-0.044
-373.829	-200.000	0.061	-0.436
-372.815	-62.043	-0.232	0.095
-371.800	-93.035	0.423	-0.116
-370.785	-200.000	-0.018	-0.146
-369.771	-200.000	0.022	0.111
-368.756	800.000	0.078	-0.249
-367.742	188.549	0.166	0.244
-366.727	-30.637	-0.309	-0.172
-365.712	194.876	-0.216	-0.322
-364.698	800.000	-0.016	0.045
-363.683	135.873	0.093	0.119
-362.669	46.626	-0.108	-0.099
-361.654	-200.000	0.022	0.164
-360.639	362.648	-0.058	0.114
-359.625	51.695	-0.155	-0.144
-358.610	-67.113	-0.221	0.085
-357.596	-200.000	-0.060	-0.358
-356.581	-25.841	-0.220	-0.127
-355.566	-63.898	0.235	-0.094
-354.552	-117.772	0.066	0.012
-353.537	115.514	0.083	0.099
-352.523	419.918	-0.053	-0.111
-351.508	-140.557	0.126	0.013
-350.493	-56.713	-0.459	0.200
-349.479	-67.437	-0.237	0.091
-348.464	598.592	0.136	0.330
-347.450	-200.000	0.009	-0.085
-346.435	-49.635	0.224	-0.105
-345.420	-174.123	0.195	0.006
-344.406	-200.000	0.018	0.140
-343.391	-160.962	0.131	0.007
-342.377	532.829	0.045	0.105
-341.362	-120.945	-0.368	0.061
-340.348	-60.951	0.231	0.096
-339.333	12.393	0.283	0.214
-338.318	-15.501	0.068	-0.042
-337.304	800.000	-0.133	0.360
-336.289	800.000	0.060	0.182
-335.275	-56.056	-0.204	-0.089
-334.260	-200.000	-0.005	0.141
-333.245	800.000	0.043	0.154
-332.231	-152.643	0.184	0.013
-331.216	800.000	-0.056	-0.196
-330.202	-17.323	-0.256	0.158
-329.187	-113.239	-0.078	-0.015
-328.172	-19.994	-0.209	0.127
-327.158	-200.000	-0.024	-0.196
-326.143	800.000	0.041	-0.143
-325.129	800.000	-0.038	-0.105
-324.114	80.389	-0.013	-0.013
-323.099	-174.048	-0.179	0.005
-322.085	261.249	-0.053	0.090
-321.070	-200.000	0.047	-0.426
-320.056	-200.000	0.008	-0.087
-319.041	28.165	0.119	0.099
-318.026	12.024	-0.065	0.049
-317.012	31.071	-0.057	-0.048
-315.997	-117.186	-0.233	0.042
-314.983	25.764	-0.113	-0.092
-313.968	800.000	-0.110	0.309
-312.953	-200.000	0.008	-0.038
-311.939	-200.000	-0.045	-0.238
-310.924	-200.000	-0.016	-0.232
-309.910	-13.650	-0.197	-0.125
-308.895	22.919	0.544	0.437
-307.880	71.401	-0.100	-0.102
-306.866	-200.000	0.009	-0.111
-305.851	-112.815	-0.228	-0.044
-304.837	43.805	0.205	-0.184
-303.822	128.062	0.054	0.067
-302.807	800.000	0.095	0.289
-301.793	-23.391	-0.285	0.168
-300.778	-163.698	0.133	-0.006
-299.764	-200.000	0.004	0.233
-298.749	800.000	-0.092	0.299
-297.735	-13.118	0.180	-0.115
-296.720	-153.022	-0.132	-0.009
-295.705	-111.387	-0.155	0.031
-294.691	-200.000	0.056	0.253
-293.676	-200.000	-0.011	-0.269
-292.662	228.502	0.182	0.290
-291.647	-46.679	0.272	0.131
-290.632	40.827	-0.080	-0.070
-289.618	-119.138	0.327	0.056
-288.603	99.744	-0.085	0.096
-287.589	643.260	-0.123	-0.307
-286.574	330.389	0.142	-0.267
-285.559	-200.000	0.032	-0.259
-284.545	800.000	0.059	-0.212
-283.530	-111.796	0.092	-0.018
-282.516	-1.439	-0.037	-0.026
-281.501	800.000	0.098	0.340
-280.486	653.537	-0.083	0.207
-279.472	-27.155	0.049	0.028
-278.457	223.747	-0.071	0.112
-277.443	-87.985	-0.060	0.018
-276.428	-22.491	-0.225	-0.133
-275.413	-200.000	0.049	0.346
-274.399	138.676	-0.131	-0.169
-273.384	581.689	0.102	-0.244
-272.370	147.739	0.139	-0.183
-271.355	8.065	0.179	0.131
-270.340	112.271	-0.032	-0.038
-269.326	-50.663	0.244	-0.112
-268.311	800.000	-0.025	-0.099
-267.297	454.358	0.073	-0.159
-266.282	-200.000	0.014	-0.374
-265.267	343.481	0.115	-0.221
-264.253	800.000	0.054	-0.182
-263.238	-50.818	0.280	-0.129
-262.224	319.724	0.040	-0.075
-261.209	600.858	-0.100	-0.243
-260.195	800.000	-0.080	0.224
-259.180	800.000	-0.059	0.162
-258.165	-119.362	0.149	0.025
-257.151	77.585	0.152	-0.158
-256.136	-47.947	-0.101	-0.048
-255.122	-116.090	0.263	-0.048
-254.107	-128.449	0.380	-0.053
-253.092	800.000	-0.019	0.057
-252.078	397.903	-0.073	-0.149
-251.063	-34.203	0.363	-0.195
-250.049	-178.599	-0.294	0.007
-249.034	362.959	-0.222	-0.436
-248.019	-49.877	0.260	-0.121
-247.005	371.575	-0.144	0.285
-245.990	37.344	-0.359	0.312
-244.976	-41.891	-0.140	0.070
-243.961	411.863	0.110	0.228
-242.946	190.574	0.126	0.186
-241.932	-200.000	-0.017	0.276
-240.917	-175.475	0.068	-0.002
-239.903	-200.000	0.017	0.379
-238.888	-23.378	-0.189	0.111
-237.873	-125.139	0.261	0.039
-236.859	34.126	-0.131	-0.112
-235.844	-200.000	-0.005	0.196
-234.830	800.000	0.035	0.130
-233.815	-159.076	-0.352	-0.019
-232.800	-7.985	0.070	0.046
-231.786	-200.000	0.047	0.422
-230.771	-88.369	0.323	-0.094
-229.757	85.170	0.103	-0.111
-228.742	533.917	0.052	0.119
-227.727	-95.168	-0.317	-0.084
-226.713	185.769	-0.098	0.143
-225.698	-125.615	-0.055	0.008
-224.684	-67.575	-0.262	0.100
-223.669	219.291	-0.117	-0.183
-222.655	800.000	-0.129	0.467
-221.640	-76.729	0.354	0.121
-220.625	-155.137	0.174	-0.011
-219.611	36.441	0.095	-0.082
-218.596	-36.681	0.086	0.045
-217.582	389.508	-0.191	0.386
-216.567	715.988	0.048	0.125
-215.552	30.247	-0.073	-0.061
-214.538	-200.000	-0.050	0.304
-213.523	-100.884	-0.137	-0.033
-212.509	800.000	-0.032	0.117
-211.494	-12.924	0.198	-0.126
-210.479	-200.000	-0.050	-0.272
-209.465	-200.000	-0.031	0.422
-208.450	257.340	-0.079	-0.132
-207.436	-149.314	-0.083	-0.006
-206.421	-26.428	-0.206	0.118
-205.406	192.945	-0.100	0.147
-204.392	8.625	-0.157	0.115
-203.377	284.652	0.028	-0.049
-202.363	334.398	0.133	0.251
-201.348	118.828	-0.192	-0.232
-200.333	124.012	-0.235	-0.288
-199.319	-200.000	0.030	-0.246
-198.304	-200.000	0.041	0.181
-197.290	527.851	0.086	-0.197
-196.275	237.057	-0.037	0.060
-195.260	-61.963	-0.226	0.092
-194.246	-9.959	0.345	0.224
-193.231	800.000	0.155	-0.488
-192.217	0.905	-0.107	0.075
-191.202	208.999	-0.208	0.318
-190.187	-200.000	0.029	-0.499
-189.173	-93.796	0.017	0.005
-188.158	108.719	0.086	0.100
-187.144	-151.542	-0.281	0.020
-186.129	-78.111	-0.107	0.036
-185.114	-30.621	0.211	0.117
-184.100	800.000	0.084	0.262
-183.085	56.551	-0.318	-0.302
-182.071	69.590	0.100	0.101
-181.056	-200.000	-0.048	0.284
-180.042	44.539	-0.215	0.193
-179.027	-153.380	0.397	0.027
-178.012	762.617	0.070	-0.186
-176.998	-79.503	-0.231	-0.076
-175.983	0.769	0.319	-0.222
-174.969	8.478	0.233	0.171
-173.954	-126.799	-0.225	0.032
-172.939	44.089	0.189	-0.169
-171.925	109.745	-0.213	0.249
-170.910	-34.594	0.182	-0.097
-169.896	771.213	-0.140	0.373
-168.881	791.847	-0.109	0.291
-167.866	-77.488	0.273	0.092
-166.852	-200.000	0.034	-0.203
-165.837	258.051	0.100	0.167
-164.823	-200.000	0.025	0.129
-163.808	-25.387	0.204	-0.117
-162.793	-18.580	-0.154	-0.094
-161.779	29.370	0.025	-0.020
-160.764	-54.153	0.063	-0.028
-159.750	-200.000	-0.081	-0.370
-158.735	-200.000	-0.031	-0.370
-157.720	-139.538	-0.148	0.015
-156.706	97.592	-0.094	0.105
-155.691	-1.517	0.073	-0.050
-154.677	-79.294	0.249	0.082
-153.662	-161.536	0.187	-0.009
-152.647	-86.351	0.140	-0.042
-151.633	8.718	-0.069	-0.050
-150.618	800.000	-0.028	-0.098
-149.604	48.761	0.215	0.196
-148.589	212.229	0.179	0.275
-147.574	-132.276	-0.385	0.048
-146.560	114.988	-0.315	0.374
-145.545	-200.000	-0.023	-0.324
-144.531	800.000	-0.094	-0.332
-143.516	-133.324	-0.258	0.032
-142.502	271.841	0.227	0.390
-141.487	342.874	0.126	-0.240
-140.472	69.952	0.273	0.274
-139.458	716.291	0.080	-0.208
-138.443	17.721	0.238	-0.184
-137.429	-106.066	0.267	0.059
-136.414	578.705	0.142	0.339
-135.399	253.683	0.083	0.138
-134.385	-1.246	-0.174	0.120
-133.370	-200.000	0.059	-0.389
-132.356	-50.883	-0.254	0.116
-131.341	-200.000	0.006	0.171
-130.326	800.000	-0.061	-0.201
-129.312	117.695	0.265	0.317
-128.297	-57.710	0.340	-0.145
-127.283	323.082	-0.162	-0.300
-126.268	8.185	-0.134	0.098
-125.253	289.698	0.022	-0.038
-124.239	195.914	0.053	0.079
-123.224	54.610	-0.193	0.181
-122.210	-92.064	-0.394	-0.108
