DTS Sentinel unit serial number:	SN413079Multiplexer serial number:	ORYXHardware model number:	OX4-SRSoftware version number:	ORYX F/W v4.00 Oryx Data Collector v3.7.2.0data status	okinstallation	princeton_trtdifferential loss correction	single-endedforward channel	channel 2reverse channel	N/Adate	2019/09/16time	09:39:34forward acquisition time	60.00reverse acquisition time	0.00gamma	496.2192k internal	0.2324k external	0.2324temperature offset calibration	0.9965default loss term (dB/km)	0.3790temperature slope calibration	1.0000multiplexer offset coefficient	1.0000multiplexer slope coefficient	1.0000fibre end	0.00T internal ref (°C)	32.30T ext. ref 1 (°C)	12.26T ext. ref 2 (°C)	30.29length (m)	temperature (°C)	Stokes	anti-Stokes-747.200	513.460	0.130	0.305
-746.185	56.310	-0.241	0.236
-745.171	438.594	-0.106	0.233
-744.156	-200.000	0.025	0.151
-743.142	-200.000	0.016	-0.090
-742.127	-8.633	-0.367	-0.249
-741.112	-11.018	-0.149	-0.100
-740.098	229.903	-0.069	0.114
-739.083	488.844	0.062	0.144
-738.069	2.348	-0.284	0.207
-737.054	413.161	-0.129	-0.278
-736.039	-24.364	0.296	-0.178
-735.025	-13.812	-0.145	0.095
-734.010	-127.920	-0.336	0.049
-732.996	85.804	-0.113	-0.125
-731.981	-180.980	-0.338	-0.007
-730.966	-43.316	-0.078	-0.040
-729.952	4.867	-0.284	0.211
-728.937	488.502	-0.166	-0.383
-727.923	-140.553	-0.096	0.010
-726.908	800.000	-0.065	0.244
-725.894	65.241	-0.123	-0.125
-724.879	-90.066	0.112	0.033
-723.864	-38.225	0.266	0.142
-722.850	-99.027	-0.097	-0.025
-721.835	-88.197	-0.157	-0.047
-720.821	248.465	-0.067	-0.114
-719.806	-42.288	-0.473	0.243
-718.791	-151.027	0.149	-0.011
-717.777	-80.600	-0.080	-0.027
-716.762	-165.244	-0.112	-0.005
-715.748	56.312	-0.114	-0.111
-714.733	-28.004	0.250	0.146
-713.718	-200.000	0.031	0.333
-712.704	-86.489	0.196	0.061
-711.689	-200.000	-0.002	-0.025
-710.675	-200.000	0.035	-0.161
-709.660	-147.435	0.220	-0.019
-708.645	-136.146	0.080	0.009
-707.631	-2.405	0.068	0.048
-706.616	195.399	0.113	0.174
-705.602	-200.000	0.003	-0.057
-704.587	-68.805	-0.215	-0.084
-703.572	-155.854	0.164	-0.011
-702.558	124.076	-0.252	0.318
-701.543	773.616	0.097	0.266
-700.529	-162.971	-0.150	0.007
-699.514	-163.529	0.282	0.013
-698.499	-27.036	0.064	0.038
-697.485	652.467	0.085	0.220
-696.470	-108.394	0.008	-0.002
-695.456	800.000	0.031	0.125
-694.441	74.651	0.272	0.288
-693.426	31.488	0.076	-0.066
-692.412	-24.105	0.312	-0.188
-691.397	18.959	-0.059	0.048
-690.383	800.000	-0.058	-0.189
-689.368	7.115	0.062	-0.047
-688.354	-1.368	0.234	0.166
-687.339	-21.626	0.041	0.025
-686.324	206.600	0.119	-0.187
-685.310	205.453	-0.166	-0.260
-684.295	-115.963	0.222	-0.042
-683.281	-200.000	0.048	-0.547
-682.266	59.868	0.247	-0.245
-681.251	22.427	0.053	0.044
-680.237	-63.663	0.031	0.013
-679.222	-41.149	0.461	-0.240
-678.208	-39.147	-0.071	-0.037
-677.193	-89.303	-0.076	0.023
-676.178	730.273	0.057	-0.154
-675.164	142.799	0.073	-0.097
-674.149	-200.000	0.012	-0.399
-673.135	-152.793	0.222	0.016
-672.120	-86.336	-0.265	-0.082
-671.105	-109.030	-0.401	-0.086
-670.091	-11.147	0.233	0.155
-669.076	-162.954	-0.139	0.007
-668.062	-99.335	-0.028	0.007
-667.047	-152.011	-0.136	-0.010
-666.032	-200.000	0.042	-0.194
-665.018	-200.000	0.011	-0.284
-664.003	168.422	0.097	-0.140
-662.989	-200.000	-0.012	-0.133
-661.974	-61.482	0.175	0.074
-660.959	163.313	-0.201	-0.284
-659.945	40.259	0.129	-0.116
-658.930	-200.000	0.006	-0.231
-657.916	-200.000	0.052	0.367
-656.901	-98.265	-0.155	-0.040
-655.886	18.919	0.122	-0.098
-654.872	11.966	-0.229	-0.177
-653.857	-200.000	0.031	-0.247
-652.843	-200.000	-0.005	0.300
-651.828	-32.603	0.189	-0.106
-650.814	84.667	-0.116	0.127
-649.799	-103.811	0.286	-0.067
-648.784	83.135	-0.257	0.282
-647.770	404.213	0.168	-0.356
-646.755	103.224	-0.154	-0.181
-645.741	-112.813	-0.398	0.079
-644.726	54.454	-0.176	0.170
-643.711	-100.752	-0.279	-0.069
-642.697	350.106	0.089	0.176
-641.682	800.000	0.068	-0.239
-640.668	-107.517	-0.286	0.063
-639.653	598.040	0.118	-0.295
-638.638	800.000	0.042	0.164
-637.624	495.530	-0.109	0.251
-636.609	-80.617	0.190	0.064
-635.595	800.000	0.125	-0.349
-634.580	800.000	-0.082	0.289
-633.565	406.943	0.108	0.229
-632.551	152.891	-0.156	-0.215
-631.536	-163.901	-0.017	-0.001
-630.522	-43.140	-0.144	-0.073
-629.507	245.094	0.093	0.156
-628.492	-200.000	0.018	0.169
-627.478	182.668	0.171	0.253
-626.463	-200.000	0.059	-0.346
-625.449	-200.000	-0.018	-0.130
-624.434	800.000	0.102	-0.302
-623.419	259.243	0.134	-0.233
-622.405	610.610	0.065	0.162
-621.390	7.098	-0.120	-0.090
-620.376	-21.384	0.100	-0.061
-619.361	94.465	-0.108	-0.123
-618.346	-200.000	0.050	0.341
-617.332	546.146	0.181	-0.436
-616.317	-200.000	0.015	0.194
-615.303	90.932	-0.097	0.109
-614.288	-113.791	0.232	-0.045
-613.273	800.000	0.058	0.216
-612.259	800.000	-0.033	0.109
-611.244	-75.271	0.186	-0.067
-610.230	160.748	-0.185	-0.260
-609.215	-24.739	-0.226	0.135
-608.201	55.255	0.265	-0.257
-607.186	76.637	0.189	0.201
-606.171	-27.051	-0.112	-0.066
-605.157	-200.000	0.021	0.154
-604.142	123.452	0.117	0.148
-603.128	22.519	-0.146	-0.120
-602.113	-200.000	0.054	-0.322
-601.098	-135.552	-0.227	-0.027
-600.084	-136.463	-0.096	0.011
-599.069	-114.595	0.435	-0.084
-598.055	238.885	0.116	-0.194
-597.040	72.474	0.162	0.169
-596.025	12.095	-0.242	-0.187
-595.011	-198.692	-0.225	-0.001
-593.996	800.000	-0.067	0.237
-592.982	243.112	-0.043	-0.073
-591.967	-89.205	-0.209	-0.062
-590.952	-200.000	-0.023	-0.291
-589.938	-68.571	-0.193	-0.075
-588.923	-200.000	-0.024	0.120
-587.909	-4.816	0.106	0.073
-586.894	-200.000	0.031	0.233
-585.879	-49.936	0.193	0.092
-584.865	627.360	-0.055	0.138
-583.850	503.640	0.068	-0.159
-582.836	-119.762	0.141	-0.024
-581.821	379.305	-0.050	0.102
-580.806	-28.659	-0.089	0.051
-579.792	462.313	-0.160	0.358
-578.777	-200.000	-0.051	-0.289
-577.763	-49.143	-0.161	-0.077
-576.748	-107.904	0.163	-0.036
-575.733	-200.000	-0.007	-0.093
-574.719	159.693	0.061	0.085
-573.704	294.193	-0.019	0.035
-572.690	-34.316	0.158	0.087
-571.675	-66.751	0.107	-0.042
-570.661	-28.478	0.146	-0.085
-569.646	-21.666	0.099	-0.060
-568.631	-115.907	-0.301	0.056
-567.617	-143.930	0.272	-0.026
-566.602	239.230	-0.203	-0.339
-565.588	-200.000	-0.080	-0.361
-564.573	462.876	-0.009	-0.020
-563.558	-200.000	-0.009	-0.042
-562.544	-171.637	0.258	0.009
-561.529	14.891	0.064	0.050
-560.515	-118.156	0.093	0.017
-559.500	253.660	-0.101	0.173
-558.485	-200.000	0.007	-0.169
-557.471	-44.319	-0.204	-0.102
-556.456	194.988	0.162	0.247
-555.442	534.123	-0.171	0.406
-554.427	-114.226	0.105	-0.020
-553.412	66.158	0.061	-0.062
-552.398	558.595	-0.149	0.359
-551.383	-100.692	-0.212	0.052
-550.369	-64.511	-0.271	-0.110
-549.354	362.182	-0.136	0.274
-548.339	-46.664	0.136	-0.067
-547.325	-65.155	-0.261	0.105
-546.310	-31.910	-0.379	0.212
-545.296	187.434	-0.062	0.093
-544.281	75.308	-0.124	-0.131
-543.266	-36.327	0.446	-0.241
-542.252	-200.000	-0.087	-0.493
-541.237	19.525	-0.215	-0.173
-540.223	-52.690	-0.374	0.173
-539.208	-200.000	-0.012	-0.175
-538.193	-200.000	0.023	-0.155
-537.179	193.451	-0.172	-0.261
-536.164	-200.000	0.011	-0.087
-535.150	217.252	0.288	0.460
-534.135	-146.674	-0.115	-0.010
-533.121	800.000	0.090	-0.288
-532.106	-200.000	-0.012	-0.189
-531.091	-84.154	-0.075	-0.024
-530.077	710.969	0.055	0.147
-529.062	-19.153	-0.118	0.073
-528.048	173.706	0.182	-0.263
-527.033	-200.000	-0.000	-0.281
-526.018	800.000	-0.083	-0.240
-525.004	194.244	-0.081	0.122
-523.989	220.527	-0.199	0.320
-522.975	-200.000	-0.021	-0.115
-521.960	800.000	0.091	-0.349
-520.945	-200.000	-0.016	0.164
-519.931	27.700	-0.090	-0.076
-518.916	-200.000	0.046	-0.332
-517.902	-200.000	-0.007	-0.046
-516.887	50.356	-0.105	-0.099
-515.872	114.286	-0.081	0.099
-514.858	-52.494	0.386	0.178
-513.843	5.929	-0.227	-0.168
-512.829	-200.000	0.012	0.080
-511.814	560.287	-0.058	0.141
-510.799	-147.163	-0.136	-0.012
-509.785	-39.262	0.312	0.164
-508.770	-112.601	-0.160	0.032
-507.756	-21.780	0.068	-0.041
-506.741	-200.000	-0.009	0.299
-505.726	583.803	0.101	0.249
-504.712	-2.324	0.269	-0.188
-503.697	-27.918	0.187	0.108
-502.683	-114.853	0.207	0.040
-501.668	65.895	-0.154	-0.156
-500.653	161.579	0.165	0.231
-499.639	800.000	0.042	0.132
-498.624	89.496	0.134	-0.150
-497.610	800.000	0.084	0.257
-496.595	136.432	0.117	-0.153
-495.581	-200.000	-0.013	-0.109
-494.566	-81.732	0.152	0.050
-493.551	800.000	-0.047	0.160
-492.537	193.095	0.135	0.204
-491.522	-169.190	-0.503	0.019
-490.508	596.325	0.055	0.136
-489.493	20.490	-0.030	0.024
-488.478	800.000	-0.078	0.245
-487.464	-200.000	-0.004	-0.025
-486.449	71.487	0.130	-0.135
-485.435	-200.000	-0.017	-0.147
-484.420	106.874	-0.160	-0.189
-483.405	-78.490	-0.317	-0.108
-482.391	353.612	0.047	-0.093
-481.376	564.165	0.036	-0.087
-480.362	193.090	0.050	-0.075
-479.347	41.711	-0.100	0.090
-478.332	232.155	-0.133	-0.218
-477.318	108.336	-0.037	-0.045
-476.303	800.000	0.113	0.341
-475.289	59.560	0.211	0.208
-474.274	-78.453	0.182	-0.062
-473.259	136.366	0.178	0.232
-472.245	800.000	0.028	-0.111
-471.230	73.656	0.120	-0.126
-470.216	628.049	-0.041	-0.103
-469.201	-73.524	0.135	0.049
-468.186	800.000	0.066	0.193
-467.172	47.708	0.075	0.070
-466.157	800.000	-0.143	-0.445
-465.143	800.000	0.066	-0.287
-464.128	82.932	-0.076	0.083
-463.113	202.746	0.043	0.066
-462.099	800.000	-0.101	0.360
-461.084	-84.731	-0.239	0.075
-460.070	-200.000	-0.111	0.000
-459.055	217.339	0.154	-0.244
-458.040	-200.000	-0.020	-0.154
-457.026	-200.000	0.014	0.142
-456.011	228.648	-0.070	0.114
-454.997	-200.000	0.042	0.244
-453.982	-77.136	-0.212	-0.074
-452.968	81.117	-0.056	0.061
-451.953	800.000	-0.072	-0.224
-450.938	-5.554	-0.197	-0.135
-449.924	-200.000	-0.153	-0.000
-448.909	350.500	-0.136	-0.268
-447.895	1.580	0.194	0.140
-446.880	-200.000	-0.017	0.192
-445.865	800.000	0.073	-0.252
-444.851	165.285	0.102	-0.144
-443.836	800.000	-0.109	-0.304
-442.822	-200.000	0.016	0.411
-441.807	83.332	-0.151	0.164
-440.792	24.933	0.175	-0.144
-439.778	61.926	-0.359	-0.357
-438.763	800.000	-0.074	-0.228
-437.749	-107.592	-0.444	0.097
-436.734	800.000	0.045	0.164
-435.719	266.153	0.139	0.242
-434.705	-24.457	0.118	-0.070
-433.690	800.000	0.068	0.218
-432.676	-124.286	-0.289	-0.045
-431.661	-16.944	0.014	-0.009
-430.646	-90.743	0.413	-0.119
-429.632	206.088	0.027	-0.042
-428.617	800.000	0.016	0.068
-427.603	-56.201	0.092	-0.041
-426.588	12.596	-0.124	-0.095
-425.573	-12.478	-0.151	-0.098
-424.559	-41.123	-0.177	0.091
-423.544	-200.000	-0.041	0.198
-422.530	-42.549	0.143	0.073
-421.515	124.822	-0.278	0.349
-420.500	0.429	0.130	0.093
-419.486	-48.597	-0.222	-0.106
-418.471	-200.000	-0.028	0.227
-417.457	95.819	-0.146	-0.166
-416.442	-88.301	0.212	-0.063
-415.428	-73.687	-0.122	-0.044
-414.413	105.345	0.272	-0.320
-413.398	90.158	-0.109	-0.121
-412.384	150.687	-0.046	0.062
-411.369	-29.396	0.258	-0.147
-410.355	-125.185	-0.338	0.052
-409.340	-82.386	0.265	0.086
-408.325	163.354	0.059	-0.083
-407.311	266.275	-0.034	-0.059
-406.296	-54.971	-0.116	-0.052
-405.282	-72.366	-0.092	0.034
-404.267	4.830	0.253	-0.185
-403.252	215.616	-0.122	0.194
-402.238	-139.654	0.318	0.034
-401.223	-24.005	0.030	-0.018
-400.209	800.000	0.037	-0.118
-399.194	-63.445	0.277	0.114
-398.179	-9.413	-0.099	0.066
-397.165	105.638	-0.270	0.318
-396.150	5.931	-0.268	0.197
-395.136	800.000	0.045	-0.171
-394.121	257.026	0.111	-0.190
-393.106	-140.121	0.170	0.018
-392.092	305.911	-0.186	-0.344
-391.077	173.824	0.114	-0.164
-390.063	393.140	-0.100	0.208
-389.048	277.100	-0.082	0.145
-388.033	-40.470	0.175	0.091
-387.019	669.707	0.099	0.255
-386.004	-194.781	-0.067	-0.001
-384.990	-66.650	-0.154	0.061
-383.975	3.414	-0.043	0.032
-382.960	-142.166	0.281	-0.028
-381.946	-122.141	0.242	-0.040
-380.931	59.369	-0.399	-0.391
-379.917	-181.733	0.081	-0.002
-378.902	-123.320	-0.221	0.035
-377.888	7.803	-0.101	0.075
-376.873	-134.657	-0.139	0.017
-375.858	236.463	-0.069	0.113
-374.844	84.039	-0.229	0.249
-373.829	-69.630	0.204	0.078
-372.815	-124.768	0.167	-0.026
-371.800	-200.000	-0.050	-0.239
-370.785	31.314	-0.124	0.106
-369.771	252.233	0.161	0.272
-368.756	-170.246	0.221	-0.008
-367.742	-200.000	-0.006	0.204
-366.727	-107.952	-0.239	0.052
-365.712	16.263	-0.287	0.225
-364.698	-6.353	0.538	-0.365
-363.683	-88.323	-0.287	0.085
-362.669	117.026	0.151	-0.185
-361.654	103.026	-0.188	0.219
-360.639	139.124	0.212	-0.277
-359.625	-9.668	-0.130	0.086
-358.610	-162.851	-0.460	-0.022
-357.596	4.520	0.099	0.072
-356.581	35.085	0.198	-0.172
-355.566	-37.431	-0.299	0.159
-354.552	51.614	-0.260	0.246
-353.537	-200.000	0.010	0.173
-352.523	79.332	0.156	-0.166
-351.508	-85.485	0.192	-0.059
-350.493	-200.000	0.016	-0.195
-349.479	384.457	-0.137	-0.281
-348.464	12.603	0.346	-0.266
-347.450	66.378	0.175	0.177
-346.435	84.511	-0.033	-0.036
-345.420	-200.000	0.026	-0.280
-344.406	-200.000	-0.017	0.165
-343.391	615.986	-0.169	0.420
-342.377	308.852	-0.210	-0.389
-341.362	-200.000	0.045	-0.247
-340.348	-129.355	0.304	-0.042
-339.333	58.311	0.204	-0.199
-338.318	-200.000	-0.018	0.327
-337.304	-149.364	-0.127	0.010
-336.289	-200.000	-0.012	-0.232
-335.275	31.575	-0.201	0.172
-334.260	-107.166	0.270	-0.059
-333.245	-107.295	-0.261	0.057
-332.231	800.000	0.016	-0.066
-331.216	800.000	0.073	0.318
-330.202	-85.485	0.278	-0.086
-329.187	-15.007	0.160	0.102
-328.172	675.416	-0.028	-0.072
-327.158	726.782	-0.063	-0.167
-326.143	-59.677	0.275	0.117
-325.129	72.140	0.024	-0.025
-324.114	-166.680	-0.242	-0.010
-323.099	-200.000	0.008	-0.167
-322.085	-37.440	0.117	0.062
-321.070	80.212	-0.205	-0.219
-320.056	-83.625	0.149	-0.047
-319.041	-25.144	0.207	0.122
-318.026	-200.000	-0.041	0.192
-317.012	800.000	-0.024	0.076
-315.997	12.261	-0.163	0.125
-314.983	-200.000	-0.108	0.001
-313.968	-191.308	-0.201	0.002
-312.953	-117.536	-0.549	0.098
-311.939	-200.000	0.036	0.273
-310.924	-200.000	0.018	0.176
-309.910	-200.000	-0.036	-0.315
-308.895	227.045	0.194	-0.313
-307.880	-34.519	-0.141	0.077
-306.866	-200.000	0.079	-0.452
-305.851	-136.476	0.105	-0.012
-304.837	-39.345	-0.384	-0.200
-303.822	-98.489	0.275	-0.070
-302.807	800.000	-0.048	-0.177
-301.793	-83.747	0.178	-0.056
-300.778	214.307	-0.067	0.105
-299.764	-89.204	0.174	-0.051
-298.749	96.714	-0.117	-0.133
-297.735	-200.000	0.036	-0.191
-296.720	33.291	0.060	0.052
-295.705	-99.981	-0.236	0.058
-294.691	-9.676	-0.169	0.111
-293.676	-100.508	0.217	-0.053
-292.662	-200.000	0.025	0.165
-291.647	-86.455	0.274	-0.084
-290.632	226.212	-0.172	0.276
-289.618	418.180	-0.284	0.602
-288.603	-200.000	0.010	0.089
-287.589	-70.288	-0.344	-0.130
-286.574	216.278	0.068	-0.108
-285.559	-85.504	-0.158	-0.049
-284.545	-174.737	0.230	-0.006
-283.530	-50.844	0.459	0.214
-282.516	800.000	-0.041	-0.137
-281.501	800.000	0.033	-0.095
-280.486	-200.000	-0.064	0.334
-279.472	800.000	0.084	-0.289
-278.457	800.000	-0.003	0.013
-277.443	-163.388	-0.191	0.009
-276.428	252.338	-0.152	0.257
-275.413	-200.000	-0.043	0.198
-274.399	472.967	-0.166	0.370
-273.384	800.000	-0.068	0.290
-272.370	-200.000	0.022	-0.114
-271.355	-13.093	-0.428	-0.276
-270.340	800.000	-0.055	0.182
-269.326	-6.622	0.144	-0.097
-268.311	10.659	0.134	0.102
-267.297	-153.257	-0.273	-0.019
-266.282	139.328	-0.300	0.391
-265.267	-95.404	0.091	0.024
-264.253	800.000	0.028	-0.085
-263.238	-131.350	0.195	0.026
-262.224	-200.000	-0.014	-0.216
-261.209	221.821	0.067	-0.107
-260.195	-200.000	0.022	-0.248
-259.180	440.611	0.091	0.197
-258.165	-12.304	-0.152	0.098
-257.151	-200.000	0.002	-0.082
-256.136	-63.052	0.280	-0.115
-255.122	157.765	0.079	0.108
-254.107	441.343	-0.032	0.070
-253.092	44.932	0.064	-0.058
-252.078	-137.774	-0.353	-0.039
-251.063	800.000	0.077	0.313
-250.049	-6.735	0.211	0.142
-249.034	130.820	-0.142	-0.181
-248.019	60.563	0.256	0.251
-247.005	687.202	-0.098	-0.254
-245.990	-200.000	0.028	0.278
-244.976	-162.411	0.476	0.023
-243.961	267.577	0.068	0.118
-242.946	1.033	-0.192	0.136
-241.932	-200.000	0.010	-0.252
-240.917	52.374	-0.139	0.131
-239.903	28.492	-0.188	0.157
-238.888	181.232	0.101	-0.147
-237.873	-200.000	0.034	-0.178
-236.859	800.000	-0.069	0.224
-235.844	141.791	-0.141	0.185
-234.830	-52.276	0.396	0.182
-233.815	72.256	-0.128	0.132
-232.800	-148.729	-0.115	-0.009
-231.786	659.251	0.165	-0.419
-230.771	47.068	0.303	0.279
-229.757	-200.000	0.022	-0.273
-228.742	116.845	0.194	0.236
-227.727	24.363	0.069	0.056
-226.713	-200.000	0.019	-0.228
-225.698	-175.614	-0.308	-0.008
-224.684	-144.821	-0.376	-0.034
-223.669	-63.279	0.171	0.070
-222.655	-200.000	0.039	0.434
-221.640	-200.000	-0.040	-0.315
-220.625	150.486	0.140	-0.189
-219.611	85.887	-0.104	0.113
-218.596	63.316	0.104	-0.103
-217.582	-13.209	0.231	0.149
-216.567	266.904	-0.037	0.064
-215.552	-120.104	-0.121	-0.021
-214.538	800.000	-0.157	-0.435
-213.523	800.000	0.063	0.226
-212.509	-200.000	-0.070	0.316
-211.494	97.730	0.114	0.129
-210.479	-170.973	-0.300	-0.010
-209.465	800.000	0.053	0.169
-208.450	50.488	0.147	0.137
-207.436	32.661	0.333	-0.285
-206.421	-91.472	0.115	-0.033
-205.406	-200.000	0.000	-0.162
-204.392	800.000	-0.078	0.322
-203.377	-94.405	-0.056	0.015
-202.363	-34.165	0.092	0.050
-201.348	633.066	0.095	-0.237
-200.333	-200.000	0.008	-0.152
-199.319	800.000	0.068	0.255
-198.304	-200.000	0.010	-0.338
-197.290	-24.699	0.217	-0.127
-196.275	-6.665	-0.226	0.152
-195.260	-55.170	-0.168	0.075
-194.246	21.713	-0.184	0.148
-193.231	-200.000	-0.049	0.220
-192.217	800.000	-0.078	0.261
-191.202	-155.914	0.093	0.006
-190.187	-150.459	-0.151	-0.011
-189.173	-51.822	0.286	-0.131
-188.158	-64.303	0.218	-0.088
-187.144	120.190	0.162	0.199
-186.129	-8.508	0.213	0.141
-185.114	-21.169	0.173	-0.104
-184.100	58.539	0.131	-0.127
-183.085	392.497	0.072	-0.147
-182.071	510.101	0.039	0.090
-181.056	218.050	-0.123	-0.193
-180.042	447.492	0.044	0.095
-179.027	-200.000	-0.026	-0.174
-178.012	3.946	0.331	0.239
-176.998	-96.600	0.184	-0.048
-175.983	-116.409	-0.272	0.050
-174.969	-200.000	0.004	-0.213
-173.954	-200.000	0.022	0.098
-172.939	-93.082	0.109	-0.030
-171.925	800.000	0.137	0.427
-170.910	9.642	0.182	-0.136
-169.896	-116.268	0.228	0.042
-168.881	137.846	0.223	0.288
-167.866	800.000	0.022	-0.074
-166.852	384.874	-0.105	-0.214
-165.837	-89.324	0.102	-0.030
-164.823	273.373	-0.017	-0.029
-163.808	-69.230	0.163	0.062
-162.793	-64.049	0.181	0.073
-161.779	68.554	-0.280	-0.283
-160.764	106.608	-0.103	0.121
-159.750	800.000	-0.041	0.126
-158.735	800.000	0.065	-0.194
-157.720	-200.000	-0.051	-0.440
-156.706	-70.282	0.096	0.036
-155.691	140.571	0.099	-0.128
-154.677	543.026	0.090	0.212
-153.662	-200.000	0.026	-0.260
-152.647	113.549	0.066	-0.079
-151.633	223.855	-0.069	-0.110
-150.618	800.000	-0.114	-0.426
-149.604	234.736	-0.046	-0.074
-148.589	-102.728	0.326	-0.077
-147.574	409.977	-0.023	-0.047
-146.560	134.874	0.138	-0.176
-145.545	800.000	0.010	-0.041
-144.531	-200.000	-0.001	-0.161
-143.516	-169.024	-0.186	-0.007
-142.502	42.537	0.312	-0.280
-141.487	95.850	-0.173	-0.194
-140.472	-52.356	0.267	0.122
-139.458	-152.692	0.076	0.005
-138.443	-55.582	-0.221	0.097
-137.429	-87.299	0.155	0.046
-136.414	-18.781	0.139	-0.085
-135.399	214.065	-0.107	0.167
-134.385	800.000	0.068	0.269
-133.370	-200.000	0.033	0.244
-132.356	-59.649	-0.262	0.111
-131.341	-128.548	0.151	0.021
-130.326	251.561	0.075	0.127
-129.312	122.114	0.093	0.114
-128.297	38.595	0.116	-0.102
-127.283	-165.516	0.229	-0.010
-126.268	-4.562	0.277	-0.188
-125.253	-200.000	-0.028	-0.124
-124.239	-200.000	0.021	0.110
-123.224	287.892	-0.090	-0.160
-122.210	777.716	-0.056	0.151
-121.195	42.338	-0.014	0.013
