DTS Sentinel unit serial number:	SN413079Multiplexer serial number:	ORYXHardware model number:	OX4-SRSoftware version number:	ORYX F/W v4.00 Oryx Data Collector v3.7.2.0data status	okinstallation	princeton_trtdifferential loss correction	single-endedforward channel	channel 2reverse channel	N/Adate	2019/09/17time	22:15:35forward acquisition time	60.00reverse acquisition time	0.00gamma	496.2192k internal	0.2343k external	0.2343temperature offset calibration	0.9985default loss term (dB/km)	0.3790temperature slope calibration	1.0000multiplexer offset coefficient	1.0000multiplexer slope coefficient	1.0000fibre end	0.00T internal ref (°C)	25.64T ext. ref 1 (°C)	0.17T ext. ref 2 (°C)	18.61length (m)	temperature (°C)	Stokes	anti-Stokes-747.200	-200.000	0.083	0.373
-746.185	-200.000	0.032	0.223
-745.171	636.050	-0.130	0.330
-744.156	-32.619	-0.292	0.163
-743.142	-116.644	0.207	-0.038
-742.127	261.860	0.237	0.412
-741.112	-90.667	0.229	0.066
-740.098	252.596	0.116	0.198
-739.083	632.840	0.066	-0.167
-738.069	-43.507	-0.304	0.154
-737.054	-200.000	-0.016	-0.160
-736.039	6.515	-0.369	-0.274
-735.025	150.784	0.144	-0.196
-734.010	-200.000	0.012	-0.168
-732.996	146.279	-0.034	0.046
-731.981	800.000	0.064	-0.244
-730.966	392.600	-0.200	-0.416
-729.952	127.765	-0.109	-0.139
-728.937	-74.880	-0.170	-0.061
-727.923	573.271	0.100	0.243
-726.908	-200.000	0.021	0.230
-725.894	-11.913	-0.268	0.176
-724.879	93.567	-0.011	-0.013
-723.864	-64.226	0.187	-0.076
-722.850	-200.000	-0.035	-0.193
-721.835	-91.738	0.212	-0.060
-720.821	-200.000	-0.013	-0.334
-719.806	-109.301	-0.427	0.091
-718.791	-90.929	0.337	0.097
-717.777	-200.000	-0.004	0.146
-716.762	-200.000	-0.003	0.034
-715.748	-32.539	0.047	0.026
-714.733	-125.716	-0.297	-0.045
-713.718	-146.863	-0.089	0.008
-712.704	-200.000	-0.010	0.341
-711.689	-108.972	0.208	-0.044
-710.675	-200.000	0.004	-0.035
-709.660	-187.670	-0.314	0.004
-708.645	800.000	-0.025	0.081
-707.631	-55.542	0.054	0.024
-706.616	-114.644	-0.082	-0.016
-705.602	-47.090	-0.186	-0.091
-704.587	-8.423	0.029	0.020
-703.572	28.311	-0.294	-0.248
-702.558	-76.884	-0.243	0.085
-701.543	55.050	0.215	-0.208
-700.529	-24.926	0.104	0.062
-699.514	-85.438	-0.110	-0.034
-698.499	-42.829	-0.174	-0.088
-697.485	-200.000	0.003	-0.153
-696.470	-200.000	0.045	-0.393
-695.456	105.550	-0.095	-0.112
-694.441	-161.058	-0.202	0.011
-693.426	-200.000	-0.015	-0.237
-692.412	800.000	0.108	0.366
-691.397	409.813	0.095	-0.200
-690.383	-200.000	0.055	-0.324
-689.368	81.630	0.099	0.108
-688.354	-56.754	0.173	-0.076
-687.339	711.415	-0.046	-0.123
-686.324	89.751	-0.140	0.156
-685.310	300.755	-0.107	0.198
-684.295	-57.015	0.497	-0.219
-683.281	-200.000	-0.042	-0.224
-682.266	-37.750	-0.220	0.117
-681.251	-104.736	-0.283	-0.065
-680.237	238.957	-0.068	-0.113
-679.222	413.227	0.076	0.162
-678.208	-124.887	0.225	-0.035
-677.193	-23.033	-0.139	-0.083
-676.178	56.617	0.273	-0.266
-675.164	177.447	-0.081	0.118
-674.149	103.614	-0.059	-0.070
-673.135	-200.000	0.057	-0.357
-672.120	-58.592	-0.035	-0.015
-671.105	39.632	-0.067	-0.060
-670.091	370.886	0.045	0.091
-669.076	800.000	-0.062	0.201
-668.062	-49.015	-0.160	-0.076
-667.047	-200.000	0.044	0.349
-666.032	-75.050	0.201	0.072
-665.018	-8.593	-0.428	-0.287
-664.003	1.729	-0.180	-0.130
-662.989	77.610	0.190	-0.202
-661.974	-200.000	0.040	0.232
-660.959	34.031	0.169	-0.147
-659.945	201.248	-0.067	0.104
-658.930	3.748	-0.091	0.066
-657.916	-70.473	-0.085	0.032
-656.901	-198.498	0.183	-0.001
-655.886	349.099	0.021	-0.042
-654.872	18.621	0.238	-0.190
-653.857	-4.460	-0.137	-0.094
-652.843	-53.660	-0.167	0.076
-651.828	50.590	0.013	-0.012
-650.814	-95.582	-0.068	-0.018
-649.799	-200.000	-0.016	-0.209
-648.784	-75.576	-0.209	-0.074
-647.770	-73.452	-0.111	0.041
-646.755	750.410	-0.060	-0.161
-645.741	800.000	0.028	-0.115
-644.726	-142.833	-0.370	-0.036
-643.711	-200.000	-0.090	0.425
-642.697	3.484	0.141	-0.102
-641.682	156.482	-0.258	-0.355
-640.668	107.993	0.437	-0.520
-639.653	-38.272	-0.126	0.067
-638.638	292.237	0.087	-0.157
-637.624	22.343	-0.077	-0.063
-636.609	800.000	0.038	-0.162
-635.595	-200.000	-0.002	-0.048
-634.580	-59.786	-0.238	0.102
-633.565	397.517	0.029	0.060
-632.551	36.112	0.134	-0.118
-631.536	292.107	-0.095	-0.173
-630.522	-81.997	0.200	-0.065
-629.507	-44.684	-0.280	-0.139
-628.492	68.726	0.060	0.062
-627.478	486.084	0.009	-0.019
-626.463	14.540	-0.236	-0.184
-625.449	-86.241	-0.177	-0.054
-624.434	-200.000	-0.046	0.287
-623.419	597.757	0.100	-0.248
-622.405	62.842	0.030	0.030
-621.390	123.429	-0.169	0.211
-620.376	18.821	-0.166	-0.132
-619.361	-168.493	-0.138	0.005
-618.346	-26.007	-0.178	-0.105
-617.332	800.000	-0.109	0.427
-616.317	-141.125	0.495	0.050
-615.303	-34.523	-0.329	-0.179
-614.288	-109.038	-0.101	-0.021
-613.273	21.727	0.307	0.249
-612.259	92.322	-0.153	0.171
-611.244	32.783	0.026	0.022
-610.230	76.355	-0.170	-0.180
-609.215	-45.377	-0.130	-0.064
-608.201	239.850	-0.183	-0.303
-607.186	198.971	0.158	-0.241
-606.171	12.138	-0.148	-0.113
-605.157	-20.255	0.174	0.107
-604.142	-137.425	-0.351	-0.040
-603.128	0.543	-0.153	0.109
-602.113	45.831	0.042	0.039
-601.098	-11.428	-0.302	0.198
-600.084	-200.000	0.002	-0.149
-599.069	-200.000	0.075	0.408
-598.055	-200.000	0.031	-0.156
-597.040	-200.000	0.014	-0.436
-596.025	34.959	0.135	0.117
-595.011	155.684	0.235	0.322
-593.996	-37.711	-0.474	-0.251
-592.982	137.618	0.191	-0.249
-591.967	53.227	-0.280	0.267
-590.952	-200.000	-0.020	-0.127
-589.938	97.717	0.208	0.238
-588.923	-114.015	-0.216	-0.042
-587.909	-168.173	-0.184	-0.007
-586.894	-200.000	-0.080	0.397
-585.879	348.452	-0.251	-0.492
-584.865	-26.699	0.061	0.035
-583.850	-24.466	-0.159	0.094
-582.836	-200.000	0.039	-0.283
-581.821	382.840	-0.106	0.217
-580.806	-17.400	-0.349	-0.219
-579.792	-48.824	-0.406	0.194
-578.777	421.082	0.103	0.220
-577.763	-58.509	0.357	-0.154
-576.748	-123.996	0.127	-0.020
-575.733	-53.936	-0.340	0.154
-574.719	-200.000	0.047	0.234
-573.704	-106.419	-0.197	-0.044
-572.690	419.757	0.060	0.128
-571.675	149.376	0.132	-0.178
-570.661	167.592	-0.157	-0.221
-569.646	543.773	0.089	-0.211
-568.631	-164.878	0.271	0.012
-567.617	-81.710	-0.080	-0.026
-566.602	104.445	0.325	-0.380
-565.588	-200.000	-0.031	0.230
-564.573	-19.256	-0.277	-0.171
-563.558	43.358	-0.048	-0.043
-562.544	-200.000	0.065	-0.298
-561.529	-200.000	-0.002	-0.129
-560.515	123.050	-0.242	0.301
-559.500	-87.799	0.244	0.073
-558.485	800.000	0.087	-0.244
-557.471	41.506	0.164	0.147
-556.456	-87.936	-0.104	-0.031
-555.442	-100.240	0.118	-0.029
-554.427	-10.418	0.226	0.149
-553.412	-200.000	0.048	-0.400
-552.398	-147.333	0.210	-0.018
-551.383	166.369	-0.148	0.209
-550.369	127.638	-0.118	0.149
-549.354	-77.903	-0.090	0.031
-548.339	-73.522	0.222	-0.080
-547.325	-36.895	0.113	0.060
-546.310	800.000	-0.055	-0.157
-545.296	414.186	-0.138	-0.292
-544.281	481.007	0.065	0.148
-543.266	-46.407	0.108	0.053
-542.252	-109.641	-0.176	-0.037
-541.237	4.545	-0.156	-0.114
-540.223	-200.000	-0.005	0.049
-539.208	77.929	0.403	0.426
-538.193	800.000	0.039	0.128
-537.179	-171.855	0.366	-0.012
-536.164	-97.793	0.135	0.035
-535.150	451.503	0.054	0.119
-534.135	363.761	0.162	0.323
-533.121	68.761	0.079	0.081
-532.106	-168.379	-0.072	0.003
-531.091	-95.100	0.081	0.022
-530.077	13.123	-0.212	-0.163
-529.062	82.954	0.201	-0.217
-528.048	-85.449	0.031	0.010
-527.033	28.383	-0.243	0.204
-526.018	-148.993	-0.403	0.032
-525.004	-200.000	-0.088	0.446
-523.989	-200.000	0.038	-0.219
-522.975	-200.000	0.003	0.165
-521.960	2.928	0.168	-0.121
-520.945	49.567	0.074	-0.069
-519.931	-2.427	-0.256	0.178
-518.916	78.683	-0.132	0.140
-517.902	-25.619	0.336	0.197
-516.887	-82.840	-0.216	-0.069
-515.872	74.720	0.227	0.237
-514.858	188.743	-0.097	-0.144
-513.843	-150.827	-0.137	-0.010
-512.829	-153.058	0.219	0.015
-511.814	800.000	0.040	0.132
-510.799	497.751	0.072	0.165
-509.785	-7.079	-0.041	-0.028
-508.770	-130.733	-0.083	-0.011
-507.756	439.782	-0.138	-0.298
-506.741	102.110	0.405	0.470
-505.726	387.117	0.034	-0.070
-504.712	800.000	0.035	0.123
-503.697	745.040	-0.059	0.159
-502.683	-98.118	0.330	-0.084
-501.668	-139.056	-0.248	0.027
-500.653	800.000	0.122	0.353
-499.639	-42.438	0.161	-0.082
-498.624	-118.350	0.170	0.030
-497.610	451.717	-0.059	0.130
-496.595	-200.000	-0.005	0.098
-495.581	-45.356	-0.146	0.072
-494.566	565.534	0.008	0.018
-493.551	476.583	0.139	0.312
-492.537	10.648	0.056	-0.043
-491.522	-200.000	-0.057	-0.290
-490.508	14.330	0.297	0.230
-489.493	297.498	-0.106	0.192
-488.478	800.000	-0.026	0.080
-487.464	-117.063	-0.206	0.037
-486.449	-200.000	0.019	-0.203
-485.435	800.000	0.077	-0.288
-484.420	-13.209	0.094	0.060
-483.405	800.000	0.114	0.361
-482.391	184.000	0.082	-0.120
-481.376	86.373	0.165	0.181
-480.362	37.118	0.087	-0.076
-479.347	800.000	-0.064	-0.198
-478.332	-200.000	-0.017	-0.137
-477.318	-155.960	-0.114	0.007
-476.303	144.912	-0.153	0.203
-475.289	17.748	-0.161	0.127
-474.274	61.429	0.086	0.085
-473.259	194.797	0.009	0.013
-472.245	-99.593	0.338	-0.084
-471.230	800.000	0.029	0.082
-470.216	-135.938	-0.037	0.004
-469.201	-8.550	-0.095	-0.063
-468.186	219.068	-0.197	-0.312
-467.172	-7.933	0.232	-0.155
-466.157	-200.000	0.018	0.193
-465.143	328.355	-0.113	0.215
-464.128	-156.042	0.196	0.012
-463.113	800.000	-0.121	0.342
-462.099	524.201	0.163	0.379
-461.084	-200.000	0.024	-0.124
-460.070	-90.832	0.306	-0.087
-459.055	800.000	-0.086	-0.244
-458.040	-200.000	0.003	0.378
-457.026	-10.957	0.479	0.313
-456.011	-200.000	0.013	0.401
-454.997	800.000	0.027	0.087
-453.982	800.000	0.039	-0.145
-452.968	44.819	-0.145	0.132
-451.953	-81.046	-0.267	0.088
-450.938	-73.334	-0.031	-0.011
-449.924	-74.974	0.263	-0.093
-448.909	-24.011	-0.193	-0.114
-447.895	-61.085	0.149	0.062
-446.880	800.000	-0.088	-0.283
-445.865	10.225	0.214	0.161
-444.851	-200.000	-0.000	-0.149
-443.836	-73.830	-0.194	-0.070
-442.822	372.570	0.063	-0.127
-441.807	-57.120	0.303	0.132
-440.792	800.000	0.090	-0.270
-439.778	-200.000	-0.003	0.084
-438.763	92.127	-0.120	-0.134
-437.749	56.875	-0.179	-0.172
-436.734	418.011	0.103	0.217
-435.719	-53.073	-0.165	0.075
-434.705	-138.008	-0.176	-0.019
-433.690	18.409	-0.153	-0.121
-432.676	-196.777	-0.305	0.002
-431.661	51.129	-0.080	-0.075
-430.646	-200.000	-0.026	-0.157
-429.632	-200.000	-0.050	0.226
-428.617	473.744	-0.158	0.352
-427.603	800.000	-0.035	-0.145
-426.588	123.590	-0.060	0.074
-425.573	-14.441	0.342	0.218
-424.559	-6.425	0.112	0.076
-423.544	-200.000	-0.005	-0.055
-422.530	-171.671	-0.121	-0.004
-421.515	-109.926	-0.256	0.053
-420.500	30.184	-0.114	0.096
-419.486	545.273	0.084	-0.199
-418.471	-55.172	-0.397	-0.177
-417.457	-73.930	-0.289	0.104
-416.442	-143.260	-0.160	0.015
-415.428	101.250	0.173	0.199
-414.413	-200.000	-0.050	0.228
-413.398	-4.780	0.150	0.102
-412.384	717.932	0.102	0.268
-411.369	-147.192	0.153	-0.013
-410.355	-200.000	-0.018	-0.102
-409.340	334.393	-0.153	-0.292
-408.325	-50.273	-0.344	-0.161
-407.311	-200.000	0.010	-0.079
-406.296	271.684	0.125	-0.217
-405.282	-141.764	-0.251	0.025
-404.267	-86.679	-0.085	0.026
-403.252	-200.000	0.034	0.162
-402.238	-102.900	0.160	0.038
-401.223	-24.465	-0.061	-0.036
-400.209	-76.259	-0.193	-0.067
-399.194	-72.688	-0.097	0.035
-398.179	-200.000	0.031	-0.240
-397.165	118.141	-0.098	0.120
-396.150	146.464	0.131	0.173
-395.136	97.793	0.271	-0.308
-394.121	-160.627	-0.238	0.013
-393.106	52.497	0.311	-0.293
-392.092	800.000	0.084	-0.325
-391.077	175.695	-0.030	-0.043
-390.063	-200.000	-0.044	0.375
-389.048	15.071	-0.135	0.104
-388.033	-41.788	-0.240	-0.122
-387.019	-200.000	0.043	0.260
-386.004	470.607	-0.159	-0.353
-384.990	-87.134	0.223	0.067
-383.975	-5.600	-0.169	-0.114
-382.960	52.297	0.187	-0.176
-381.946	-200.000	-0.022	0.172
-380.931	-61.051	0.114	0.047
-379.917	-78.432	-0.290	-0.098
-378.902	800.000	-0.011	-0.037
-377.888	800.000	0.058	-0.185
-376.873	-200.000	0.014	-0.108
-375.858	800.000	0.062	0.202
-374.844	-65.688	0.181	0.072
-373.829	30.472	-0.260	-0.219
-372.815	-102.309	0.075	0.018
-371.800	800.000	-0.077	0.224
-370.785	228.256	0.188	-0.302
-369.771	-200.000	0.011	0.248
-368.756	-48.031	0.170	0.081
-367.742	223.270	0.064	-0.102
-366.727	780.725	0.005	-0.014
-365.712	787.016	0.049	0.133
-364.698	-87.441	0.181	0.054
-363.683	-157.850	-0.083	-0.005
-362.669	-200.000	-0.008	0.204
-361.654	117.810	0.162	-0.196
-360.639	38.740	0.312	-0.275
-359.625	-71.582	0.183	0.068
-358.610	-89.180	-0.191	0.056
-357.596	227.968	-0.057	-0.091
-356.581	-200.000	0.044	-0.215
-355.566	9.511	0.131	-0.098
-354.552	69.145	0.142	-0.144
-353.537	800.000	-0.005	-0.015
-352.523	-123.345	0.143	0.023
-351.508	-101.172	-0.237	0.057
-350.493	-102.208	-0.617	-0.146
-349.479	800.000	-0.064	0.207
-348.464	-200.000	-0.010	0.209
-347.450	79.822	-0.285	0.302
-346.435	-30.755	-0.232	0.129
-345.420	359.417	-0.144	0.283
-344.406	-70.131	0.173	-0.065
-343.391	-44.737	-0.151	-0.075
-342.377	-200.000	0.056	-0.246
-341.362	251.920	0.020	0.034
-340.348	-18.819	-0.370	-0.227
-339.333	-168.139	-0.153	-0.006
-338.318	-200.000	0.050	-0.279
-337.304	-107.012	0.220	0.048
-336.289	19.245	0.152	-0.121
-335.275	-200.000	-0.011	0.065
-334.260	-132.334	-0.380	0.048
-333.245	-200.000	-0.022	-0.142
-332.231	-157.794	-0.434	0.025
-331.216	177.974	-0.231	0.332
-330.202	-50.214	0.245	0.114
-329.187	-37.272	0.104	0.055
-328.172	14.117	-0.226	-0.173
-327.158	200.908	-0.131	-0.199
-326.143	-105.580	-0.129	-0.029
-325.129	41.535	-0.295	0.263
-324.114	800.000	-0.007	0.028
-323.099	-100.127	0.301	0.074
-322.085	-200.000	0.033	0.266
-321.070	153.904	-0.099	0.134
-320.056	5.339	0.354	-0.257
-319.041	186.315	0.110	-0.162
-318.026	48.187	0.165	0.152
-317.012	174.011	-0.085	-0.120
-315.997	-92.148	-0.177	-0.049
-314.983	467.427	0.060	0.133
-313.968	-134.882	-0.255	0.030
-312.953	-136.286	-0.255	-0.029
-311.939	-200.000	0.016	-0.264
-310.924	218.133	0.109	-0.171
-309.910	-159.107	0.168	0.009
-308.895	-200.000	-0.040	-0.469
-307.880	274.691	-0.141	-0.246
-306.866	-200.000	0.039	-0.219
-305.851	-121.258	0.129	0.021
-304.837	-29.131	-0.073	-0.041
-303.822	62.934	0.076	0.075
-302.807	800.000	0.080	0.239
-301.793	109.817	0.179	0.211
-300.778	-200.000	0.023	0.188
-299.764	433.158	-0.084	-0.180
-298.749	-200.000	0.017	-0.214
-297.735	-28.770	-0.472	0.267
-296.720	-137.562	0.210	0.023
-295.705	35.952	0.172	0.149
-294.691	108.941	0.229	-0.269
-293.676	-43.862	-0.265	0.131
-292.662	-86.214	-0.310	-0.094
-291.647	211.126	0.085	0.132
-290.632	-43.696	0.279	0.138
-289.618	-200.000	0.003	-0.266
-288.603	-40.257	0.115	0.059
-287.589	-200.000	0.018	-0.217
-286.574	224.754	-0.158	0.251
-285.559	-11.598	-0.063	-0.041
-284.545	-200.000	-0.078	-0.396
-283.530	289.088	-0.234	0.418
-282.516	148.492	-0.097	0.129
-281.501	-49.709	-0.113	-0.053
-280.486	-200.000	-0.003	0.077
-279.472	0.248	0.172	0.121
-278.457	308.019	-0.076	0.139
-277.443	800.000	-0.072	0.266
-276.428	-200.000	-0.045	0.200
-275.413	-200.000	0.008	0.112
-274.399	-102.518	0.100	-0.024
-273.384	325.039	-0.093	-0.175
-272.370	-98.707	0.297	0.075
-271.355	800.000	-0.032	-0.101
-270.340	-8.359	-0.179	0.118
-269.326	-78.381	0.403	-0.136
-268.311	-4.799	0.168	-0.114
-267.297	264.218	0.114	-0.195
-266.282	536.710	-0.094	0.218
-265.267	-200.000	-0.071	0.312
-264.253	-80.802	0.168	-0.055
-263.238	800.000	-0.073	0.202
-262.224	-200.000	0.039	0.393
-261.209	86.127	0.068	0.073
-260.195	-200.000	0.039	-0.217
-259.180	25.971	0.235	-0.193
-258.165	-200.000	-0.046	0.383
-257.151	-200.000	-0.046	0.305
-256.136	-189.222	0.135	-0.002
-255.122	274.737	-0.152	-0.264
-254.107	66.952	-0.012	-0.012
-253.092	350.966	-0.042	-0.081
-252.078	62.856	0.138	-0.136
-251.063	-200.000	0.056	-0.420
-250.049	19.204	0.209	-0.165
-249.034	-92.819	-0.431	0.118
-248.019	-66.604	0.239	-0.093
-247.005	-200.000	0.027	0.141
-245.990	-45.324	0.395	-0.193
-244.976	800.000	0.097	-0.268
-243.961	-51.297	-0.080	0.037
-242.946	356.417	0.170	0.333
-241.932	-117.972	0.119	-0.021
-240.917	-197.133	-0.212	-0.001
-239.903	-27.979	0.233	-0.132
-238.888	800.000	0.043	0.121
-237.873	-36.098	-0.173	-0.092
-236.859	-80.754	-0.302	-0.098
-235.844	429.780	-0.042	0.090
-234.830	414.433	0.158	0.330
-233.815	292.326	-0.130	0.233
-232.800	800.000	-0.061	-0.218
-231.786	48.577	-0.095	0.087
-230.771	-200.000	-0.010	-0.080
-229.757	42.448	0.221	0.197
-228.742	-66.352	-0.253	-0.099
-227.727	-200.000	0.152	-0.000
-226.713	-200.000	-0.005	-0.034
-225.698	-79.467	-0.269	-0.089
-224.684	-200.000	0.022	0.184
-223.669	-80.155	-0.162	0.053
-222.655	-81.907	-0.162	-0.052
-221.640	-108.999	0.209	0.044
-220.625	-200.000	0.003	-0.099
-219.611	-200.000	0.049	-0.218
-218.596	-200.000	-0.008	-0.382
-217.582	38.758	0.206	-0.181
-216.567	495.140	0.071	-0.160
-215.552	-200.000	-0.022	-0.182
-214.538	-110.470	0.285	-0.058
-213.523	45.454	0.139	-0.126
-212.509	-123.720	-0.105	0.016
-211.494	-81.276	0.162	-0.052
-210.479	-54.000	-0.138	0.062
-209.465	-200.000	0.026	0.189
-208.450	139.252	0.134	-0.172
-207.436	800.000	0.066	-0.246
-206.421	-200.000	0.027	0.375
-205.406	-116.649	0.423	-0.076
-204.392	569.977	0.060	-0.144
-203.377	-200.000	-0.002	0.307
-202.363	168.564	-0.143	-0.200
-201.348	-41.321	0.282	-0.142
-200.333	-187.249	0.156	-0.002
-199.319	-200.000	0.075	-0.379
-198.304	776.504	-0.064	-0.171
-197.290	15.427	0.532	-0.409
-196.275	-47.696	-0.270	0.128
-195.260	43.158	0.312	-0.279
-194.246	235.387	0.073	-0.118
-193.231	-168.695	0.358	-0.013
-192.217	-200.000	0.005	-0.066
-191.202	-21.782	0.119	-0.071
-190.187	-93.879	0.145	-0.039
-189.173	-200.000	-0.002	-0.187
-188.158	-200.000	-0.011	0.158
-187.144	89.231	-0.197	0.215
-186.129	-14.171	0.090	-0.057
-185.114	800.000	-0.105	0.291
-184.100	-90.514	-0.449	0.127
-183.085	-200.000	0.042	0.310
-182.071	-57.370	0.090	0.039
-181.056	800.000	-0.080	-0.289
-180.042	-40.671	-0.043	0.022
-179.027	29.289	-0.198	0.165
-178.012	-200.000	0.033	-0.268
-176.998	-22.079	0.286	-0.170
-175.983	-43.595	-0.357	0.176
-174.969	-200.000	-0.010	0.180
-173.954	-200.000	0.066	0.373
-172.939	-136.773	0.202	-0.023
-171.925	-111.627	0.301	0.060
-170.910	-37.975	-0.222	0.115
-169.896	-50.833	0.055	0.026
-168.881	-200.000	0.024	-0.120
-167.866	-42.399	0.379	0.189
-166.852	-200.000	0.026	0.327
-165.837	-200.000	0.042	-0.184
-164.823	34.637	0.220	-0.188
-163.808	65.965	0.054	0.053
-162.793	-33.950	0.071	0.038
-161.779	309.685	-0.062	-0.114
-160.764	-121.579	0.311	-0.051
-159.750	272.716	-0.153	0.265
-158.735	-164.646	0.267	-0.012
-157.720	-85.962	-0.267	0.081
-156.706	19.152	0.289	-0.227
-155.691	800.000	-0.034	-0.099
-154.677	1.167	-0.039	0.027
-153.662	-200.000	-0.030	0.180
-152.647	393.914	-0.014	-0.028
-151.633	787.082	0.031	-0.084
-150.618	140.762	-0.049	-0.064
-149.604	110.018	-0.254	0.299
-148.589	800.000	0.014	-0.059
-147.574	-181.027	0.181	-0.004
-146.560	-13.840	0.137	0.087
-145.545	53.623	-0.193	-0.181
-144.531	-138.581	-0.187	-0.020
-143.516	-200.000	0.018	-0.407
-142.502	-90.678	0.170	-0.048
-141.487	469.504	-0.216	0.475
-140.472	-200.000	0.008	0.060
-139.458	-200.000	-0.031	0.135
-138.443	11.232	0.160	0.120
-137.429	-60.806	-0.199	-0.082
-136.414	-42.600	0.155	-0.077
-135.399	-94.614	0.115	-0.031
-134.385	-12.788	0.161	0.103
-133.370	-74.931	-0.250	-0.087
-132.356	41.155	-0.177	-0.156
-131.341	296.902	0.034	-0.061
-130.326	800.000	-0.111	-0.306
-129.312	-69.667	0.408	0.152
-128.297	800.000	-0.030	-0.110
-127.283	54.494	-0.216	-0.203
-126.268	-200.000	0.054	0.282
-125.253	14.963	0.116	-0.089
-124.239	389.968	-0.154	-0.313
-123.224	193.167	-0.183	-0.270
-122.210	-109.414	0.252	0.052
