DTS Sentinel unit serial number:	SN413079Multiplexer serial number:	ORYXHardware model number:	OX4-SRSoftware version number:	ORYX F/W v4.00 Oryx Data Collector v3.7.2.0data status	okinstallation	princeton_trtdifferential loss correction	single-endedforward channel	channel 2reverse channel	N/Adate	2019/09/16time	19:55:34forward acquisition time	60.00reverse acquisition time	0.00gamma	496.2192k internal	0.2326k external	0.2326temperature offset calibration	0.9965default loss term (dB/km)	0.3790temperature slope calibration	1.0000multiplexer offset coefficient	1.0000multiplexer slope coefficient	1.0000fibre end	0.00T internal ref (°C)	33.56T ext. ref 1 (°C)	0.09T ext. ref 2 (°C)	26.68length (m)	temperature (°C)	Stokes	anti-Stokes-747.200	45.269	0.199	0.185
-746.185	-200.000	-0.042	0.326
-745.171	-59.064	-0.088	0.038
-744.156	-104.459	-0.435	-0.102
-743.142	476.027	0.079	0.181
-742.127	-14.904	0.078	-0.051
-741.112	-113.485	0.395	0.078
-740.098	-43.973	-0.203	0.103
-739.083	-1.384	0.221	0.158
-738.069	-200.000	-0.029	0.349
-737.054	-46.905	0.239	-0.118
-736.039	30.473	-0.242	0.209
-735.025	-138.477	-0.202	-0.022
-734.010	-11.968	-0.219	-0.145
-732.996	254.761	0.045	0.077
-731.981	190.332	0.237	-0.358
-730.966	-200.000	-0.024	0.158
-729.952	116.630	-0.062	-0.076
-728.937	98.686	0.179	-0.208
-727.923	-200.000	0.015	-0.081
-726.908	78.848	-0.278	0.299
-725.894	-200.000	-0.001	-0.006
-724.879	-200.000	-0.043	0.447
-723.864	800.000	0.053	0.166
-722.850	-200.000	-0.055	-0.271
-721.835	800.000	-0.116	-0.346
-720.821	800.000	0.072	0.206
-719.806	344.881	0.126	0.248
-718.791	245.611	0.224	-0.380
-717.777	30.578	-0.095	0.082
-716.762	51.554	-0.161	0.154
-715.748	27.345	-0.208	0.176
-714.733	-200.000	0.005	-0.110
-713.718	171.338	-0.174	0.251
-712.704	84.475	0.098	-0.107
-711.689	242.177	-0.035	-0.059
-710.675	654.410	-0.096	0.248
-709.660	707.199	-0.076	-0.202
-708.645	-62.336	-0.270	-0.113
-707.631	149.523	-0.073	0.100
-706.616	-188.946	-0.210	0.003
-705.602	196.346	-0.078	0.119
-704.587	138.485	-0.024	0.032
-703.572	-83.655	-0.405	0.130
-702.558	800.000	0.063	-0.228
-701.543	260.284	0.099	-0.172
-700.529	-137.367	0.397	-0.045
-699.514	261.512	0.127	-0.221
-698.499	-117.423	0.071	0.013
-697.485	-17.712	-0.169	0.107
-696.470	90.768	-0.302	-0.340
-695.456	499.607	0.093	-0.215
-694.441	116.712	-0.109	0.135
-693.426	51.966	-0.080	-0.077
-692.412	320.528	0.003	-0.005
-691.397	44.424	-0.281	0.260
-690.383	-200.000	-0.404	0.001
-689.368	15.126	-0.404	-0.319
-688.354	701.102	-0.146	-0.387
-687.339	-101.883	-0.383	-0.093
-686.324	-31.810	-0.241	0.136
-685.310	-75.497	0.305	-0.109
-684.295	-156.463	-0.268	0.017
-683.281	-64.487	-0.367	-0.150
-682.266	800.000	-0.012	-0.037
-681.251	-200.000	-0.020	-0.321
-680.237	326.869	-0.089	0.172
-679.222	-76.957	-0.254	-0.089
-678.208	-6.153	-0.222	0.152
-677.193	-14.298	-0.132	0.086
-676.178	342.132	-0.052	0.103
-675.164	-200.000	0.004	0.030
-674.149	-76.636	-0.159	0.056
-673.135	-200.000	0.010	-0.260
-672.120	79.350	0.154	-0.166
-671.105	194.741	0.094	0.143
-670.091	-200.000	-0.016	0.079
-669.076	-30.774	0.341	0.194
-668.062	-200.000	0.041	-0.342
-667.047	32.231	-0.033	0.029
-666.032	-99.680	-0.234	0.059
-665.018	-10.920	-0.196	0.130
-664.003	-200.000	0.027	0.186
-662.989	800.000	0.102	0.349
-661.974	298.654	0.091	0.168
-660.959	-200.000	-0.001	0.005
-659.945	-16.909	0.188	0.119
-658.930	-150.769	-0.221	-0.017
-657.916	-200.000	-0.027	-0.544
-656.901	-73.874	-0.240	0.088
-655.886	-101.413	-0.474	-0.116
-654.872	69.169	-0.118	-0.122
-653.857	176.706	0.177	-0.259
-652.843	-39.810	0.154	-0.081
-651.828	30.364	0.229	-0.197
-650.814	-4.944	-0.025	-0.017
-649.799	-200.000	0.012	0.264
-648.784	94.871	0.097	0.111
-647.770	-20.222	-0.155	0.096
-646.755	-200.000	0.016	-0.075
-645.741	-200.000	-0.009	-0.324
-644.726	1.438	-0.102	-0.073
-643.711	-112.789	0.094	-0.019
-642.697	-200.000	-0.011	-0.065
-641.682	219.252	0.105	-0.168
-640.668	258.691	0.166	-0.288
-639.653	24.800	-0.029	0.024
-638.638	800.000	0.063	-0.260
-637.624	99.300	-0.185	0.215
-636.609	-200.000	-0.008	0.095
-635.595	-100.065	0.053	-0.013
-634.580	-75.213	-0.263	-0.094
-633.565	-72.007	-0.303	-0.113
-632.551	-10.332	0.056	0.037
-631.536	-98.139	0.114	-0.029
-630.522	800.000	-0.026	0.102
-629.507	197.298	0.087	0.133
-628.492	137.612	-0.025	0.033
-627.478	-200.000	0.030	-0.216
-626.463	-65.083	-0.156	-0.063
-625.449	-200.000	0.043	-0.379
-624.434	-40.076	0.063	0.033
-623.419	-200.000	-0.021	0.116
-622.405	59.036	0.183	-0.181
-621.390	-69.608	-0.244	0.094
-620.376	24.201	0.290	0.240
-619.361	125.935	0.142	-0.180
-618.346	-98.376	-0.067	0.017
-617.332	800.000	0.096	-0.280
-616.317	800.000	-0.083	0.313
-615.303	398.029	-0.052	0.108
-614.288	-101.287	0.047	0.011
-613.273	-21.297	0.090	0.055
-612.259	-73.530	0.158	-0.058
-611.244	76.107	-0.089	0.094
-610.230	-200.000	0.015	-0.245
-609.215	182.969	-0.072	-0.107
-608.201	781.697	-0.059	-0.162
-607.186	-79.321	-0.195	0.066
-606.171	46.885	0.161	-0.150
-605.157	61.123	-0.208	-0.207
-604.142	-200.000	0.010	-0.121
-603.128	-88.553	0.166	0.050
-602.113	800.000	-0.064	-0.233
-601.098	-200.000	0.014	0.064
-600.084	21.188	-0.249	-0.203
-599.069	-141.462	0.060	-0.006
-598.055	800.000	0.036	-0.141
-597.040	-34.832	-0.193	-0.106
-596.025	-157.007	-0.311	0.019
-595.011	244.715	0.019	-0.031
-593.996	61.085	-0.049	0.049
-592.982	-65.699	-0.105	-0.042
-591.967	177.107	-0.051	0.074
-590.952	44.283	-0.087	0.080
-589.938	16.854	-0.165	0.131
-588.923	188.435	0.114	0.171
-587.909	-33.818	-0.319	-0.176
-586.894	158.908	-0.156	0.217
-585.879	-11.871	0.266	0.175
-584.865	71.432	-0.044	0.045
-583.850	800.000	0.023	-0.075
-582.836	4.095	0.162	0.119
-581.821	222.187	-0.025	0.040
-580.806	-200.000	0.009	-0.130
-579.792	-113.534	-0.322	0.063
-578.777	406.627	-0.067	-0.141
-577.763	-200.000	0.014	-0.126
-576.748	-181.824	-0.145	-0.003
-575.733	-63.575	0.091	-0.037
-574.719	38.251	0.122	-0.109
-573.704	-65.778	0.104	-0.042
-572.690	-30.444	0.176	0.100
-571.675	-200.000	-0.004	0.021
-570.661	-49.878	0.173	0.082
-569.646	-91.140	-0.108	-0.031
-568.631	-27.934	0.109	-0.063
-567.617	736.695	0.138	0.371
-566.602	-42.795	-0.361	0.184
-565.588	-122.574	-0.125	-0.020
-564.573	-200.000	0.009	-0.117
-563.558	-200.000	-0.073	-0.547
-562.544	-200.000	-0.028	-0.133
-561.529	32.147	-0.203	-0.175
-560.515	209.010	-0.255	-0.399
-559.500	-130.191	0.187	-0.025
-558.485	-200.000	-0.012	-0.085
-557.471	-200.000	-0.079	-0.397
-556.456	-200.000	0.024	0.140
-555.442	-101.285	0.283	0.069
-554.427	386.394	-0.044	-0.092
-553.412	-200.000	-0.005	0.293
-552.398	800.000	-0.079	-0.231
-551.383	-63.824	-0.209	-0.086
-550.369	-121.361	0.138	-0.023
-549.354	51.967	0.090	-0.086
-548.339	186.327	-0.108	0.160
-547.325	130.273	0.039	0.050
-546.310	-140.087	0.338	0.036
-545.296	70.307	0.063	0.065
-544.281	131.125	0.109	0.140
-543.266	-131.732	-0.537	0.071
-542.252	196.124	-0.296	0.451
-541.237	378.932	-0.097	0.198
-540.223	21.357	-0.177	0.144
-539.208	-38.181	-0.112	0.059
-538.193	-19.055	0.096	-0.060
-537.179	-66.075	-0.238	-0.095
-536.164	1.907	-0.225	-0.162
-535.150	-17.642	-0.322	0.203
-534.135	45.137	0.181	0.167
-533.121	800.000	0.118	-0.419
-532.106	-50.743	0.114	-0.054
-531.091	-52.898	-0.310	-0.143
-530.077	-80.292	0.215	-0.072
-529.062	67.845	0.155	-0.158
-528.048	-53.527	-0.389	-0.178
-527.033	80.675	0.092	-0.100
-526.018	241.906	-0.170	0.284
-525.004	280.661	-0.083	0.149
-523.989	-184.938	0.054	-0.001
-522.975	-58.070	-0.178	0.077
-521.960	-200.000	-0.056	-0.247
-520.945	7.276	0.073	-0.055
-519.931	672.875	-0.074	-0.191
-518.916	244.491	0.131	0.220
-517.902	-150.203	0.055	-0.004
-516.887	-200.000	0.021	-0.334
-515.872	800.000	0.168	-0.600
-514.858	-200.000	-0.004	0.182
-513.843	-26.862	-0.319	-0.186
-512.829	-126.550	-0.399	0.059
-511.814	-64.794	0.236	0.095
-510.799	-67.603	0.188	0.074
-509.785	528.533	-0.100	-0.236
-508.770	419.691	-0.110	0.236
-507.756	-133.945	0.149	-0.019
-506.741	-168.866	-0.275	-0.010
-505.726	96.946	-0.127	-0.145
-504.712	583.446	-0.023	0.057
-503.697	-56.695	0.249	-0.110
-502.683	800.000	0.020	0.063
-501.668	171.442	-0.095	0.136
-500.653	273.789	-0.043	-0.077
-499.639	617.510	-0.038	0.096
-498.624	-179.637	0.208	0.005
-497.610	-52.627	0.037	-0.017
-496.595	-153.337	-0.349	-0.024
-495.581	336.403	-0.155	-0.301
-494.566	349.671	-0.095	0.188
-493.551	181.115	-0.132	0.194
-492.537	115.822	0.198	0.242
-491.522	598.679	0.113	0.280
-490.508	-155.888	0.113	-0.007
-489.493	-53.191	0.134	0.061
-488.478	113.808	0.086	-0.105
-487.464	-200.000	-0.012	-0.073
-486.449	24.300	0.260	-0.214
-485.435	158.808	-0.193	-0.268
-484.420	-38.885	0.208	0.109
-483.405	22.941	0.015	-0.012
-482.391	-200.000	-0.004	0.098
-481.376	-88.913	0.273	0.081
-480.362	89.566	0.174	-0.194
-479.347	-118.076	0.087	0.015
-478.332	202.513	0.096	0.148
-477.318	-19.660	0.112	0.069
-476.303	-159.937	0.086	-0.005
-475.289	-14.394	-0.059	0.038
-474.274	-185.790	-0.125	-0.002
-473.259	-22.252	-0.381	-0.230
-472.245	-48.474	-0.316	-0.152
-471.230	-200.000	-0.047	0.283
-470.216	99.491	-0.148	-0.170
-469.201	36.525	-0.116	-0.102
-468.186	-23.690	-0.262	-0.157
-467.172	628.369	0.032	0.082
-466.157	-21.041	0.222	-0.135
-465.143	-200.000	-0.022	-0.144
-464.128	-119.090	-0.037	0.006
-463.113	800.000	0.132	0.420
-462.099	349.413	0.120	0.237
-461.084	574.738	0.046	-0.112
-460.070	-137.894	0.182	-0.020
-459.055	800.000	-0.017	-0.055
-458.040	-3.385	-0.328	-0.228
-457.026	-200.000	0.012	-0.146
-456.011	-98.229	-0.369	0.095
-454.997	-200.000	0.008	-0.061
-453.982	-200.000	0.014	-0.277
-452.968	27.950	-0.147	-0.123
-451.953	-200.000	0.044	0.288
-450.938	-102.026	0.262	0.063
-449.924	-103.210	-0.233	0.055
-448.909	218.964	0.042	0.068
-447.895	800.000	0.061	0.177
-446.880	-200.000	-0.013	-0.258
-445.865	239.860	0.085	0.140
-444.851	-81.508	0.253	0.083
-443.836	-68.552	0.255	0.099
-442.822	768.364	0.076	-0.207
-441.807	317.297	-0.020	0.037
-440.792	800.000	-0.022	0.080
-439.778	-56.484	0.647	0.286
-438.763	157.797	-0.038	-0.052
-437.749	7.143	-0.236	-0.176
-436.734	45.116	0.073	0.067
-435.719	-200.000	0.038	0.301
-434.705	-200.000	0.074	0.350
-433.690	-200.000	-0.012	0.080
-432.676	-200.000	0.049	0.262
-431.661	310.375	-0.215	-0.400
-430.646	-149.824	0.091	-0.007
-429.632	-200.000	-0.000	-0.312
-428.617	115.401	0.156	-0.190
-427.603	-47.584	-0.114	0.055
-426.588	635.158	0.065	0.166
-425.573	-38.325	-0.241	-0.127
-424.559	187.745	-0.152	0.225
-423.544	-133.611	0.248	-0.031
-422.530	288.942	-0.160	-0.289
-421.515	-200.000	-0.003	0.044
-420.500	800.000	0.064	0.224
-419.486	71.168	-0.198	0.204
-418.471	800.000	-0.131	0.372
-417.457	-89.629	0.472	-0.138
-416.442	71.288	-0.078	-0.081
-415.428	-79.975	0.165	0.055
-414.413	584.512	0.057	-0.140
-413.398	776.562	-0.081	0.220
-412.384	-142.686	0.066	0.006
-411.369	317.079	-0.172	-0.324
-410.355	11.285	0.197	0.150
-409.340	-200.000	-0.027	-0.140
-408.325	27.010	0.112	-0.094
-407.311	155.979	0.073	0.100
-406.296	-49.571	0.126	0.060
-405.282	-200.000	-0.000	0.104
-404.267	800.000	-0.025	0.102
-403.252	-66.842	0.242	0.095
-402.238	-200.000	-0.004	0.302
-401.223	108.496	0.246	0.292
-400.209	-200.000	0.012	0.413
-399.194	-34.203	0.218	0.119
-398.179	-3.158	0.164	-0.114
-397.165	-94.951	-0.205	-0.055
-396.150	-200.000	0.017	-0.133
-395.136	800.000	-0.081	-0.230
-394.121	-200.000	0.062	0.334
-393.106	143.039	0.112	-0.149
-392.092	661.194	0.205	-0.525
-391.077	-200.000	0.026	0.219
-390.063	800.000	0.022	-0.068
-389.048	-31.160	0.152	0.085
-388.033	24.096	0.148	-0.122
-387.019	139.192	-0.137	-0.179
-386.004	116.699	-0.108	-0.132
-384.990	70.768	-0.104	-0.107
-383.975	-59.344	0.046	-0.020
-382.960	185.164	-0.167	0.247
-381.946	13.875	0.072	0.055
-380.931	-200.000	0.007	0.317
-379.917	413.183	-0.036	0.076
-378.902	-108.367	0.134	0.029
-377.888	64.590	-0.215	-0.216
-376.873	234.464	0.140	0.230
-375.858	-200.000	0.018	0.200
-374.844	800.000	-0.058	0.244
-373.829	780.861	0.067	0.183
-372.815	125.865	-0.080	-0.100
-371.800	-95.945	-0.212	0.056
-370.785	101.094	0.124	-0.143
-369.771	453.225	-0.121	-0.265
-368.756	-101.517	0.147	-0.036
-367.742	-200.000	0.007	-0.305
-366.727	-77.092	-0.091	0.032
-365.712	-29.289	-0.169	0.096
-364.698	-43.799	0.190	0.095
-363.683	300.491	0.067	-0.123
-362.669	167.124	0.201	0.283
-361.654	-106.305	0.317	0.070
-360.639	800.000	-0.026	0.102
-359.625	307.991	0.027	0.051
-358.610	0.671	-0.169	-0.120
-357.596	-41.144	-0.304	-0.156
-356.581	8.497	-0.219	0.164
-355.566	-200.000	0.037	0.297
-354.552	110.327	0.242	0.289
-353.537	663.079	-0.107	-0.274
-352.523	-200.000	0.060	0.294
-351.508	239.946	0.079	0.131
-350.493	800.000	-0.030	-0.092
-349.479	-65.556	-0.093	0.037
-348.464	-200.000	0.005	0.096
-347.450	677.837	0.025	0.066
-346.435	-151.513	0.337	0.025
-345.420	-186.558	-0.218	-0.003
-344.406	-200.000	-0.014	-0.233
-343.391	-200.000	0.069	0.317
-342.377	379.582	-0.024	0.049
-341.362	-53.993	-0.119	-0.054
-340.348	-96.235	-0.162	0.043
-339.333	-46.874	-0.050	0.024
-338.318	183.760	-0.083	-0.122
-337.304	-200.000	-0.001	0.025
-336.289	9.299	-0.055	0.041
-335.275	-162.579	-0.349	0.017
-334.260	-200.000	0.013	0.174
-333.245	231.307	-0.080	-0.130
-332.231	-200.000	0.016	0.113
-331.216	-155.514	-0.206	-0.013
-330.202	-56.732	-0.164	-0.072
-329.187	278.669	-0.060	-0.106
-328.172	-158.193	0.244	-0.014
-327.158	800.000	0.032	-0.122
-326.143	531.177	0.075	0.176
-325.129	694.397	-0.127	0.329
-324.114	229.051	-0.044	-0.071
-323.099	-56.006	0.234	0.104
-322.085	6.906	-0.523	0.387
-321.070	95.391	0.132	-0.149
-320.056	-200.000	-0.006	0.220
-319.041	187.025	-0.091	0.135
-318.026	800.000	-0.049	0.160
-317.012	800.000	0.097	-0.357
-315.997	-53.866	0.194	0.088
-314.983	37.227	-0.144	0.127
-313.968	800.000	-0.027	0.094
-312.953	-28.324	-0.127	0.073
-311.939	-140.520	0.453	-0.047
-310.924	47.267	0.189	0.174
-309.910	-24.992	0.227	-0.134
-308.895	-93.424	-0.201	-0.055
-307.880	-84.423	-0.179	-0.056
-306.866	-118.608	0.317	0.055
-305.851	-134.874	0.085	0.010
-304.837	53.817	-0.168	0.160
-303.822	-74.191	0.271	-0.097
-302.807	800.000	0.078	-0.318
-301.793	800.000	-0.074	0.264
-300.778	-68.695	0.175	-0.067
-299.764	-200.000	-0.010	0.184
-298.749	74.126	-0.196	-0.204
-297.735	75.382	0.206	-0.215
-296.720	542.732	0.125	-0.295
-295.705	800.000	-0.075	-0.268
-294.691	72.845	-0.093	0.097
-293.676	-103.452	-0.180	-0.042
-292.662	-152.747	-0.234	0.016
-291.647	800.000	0.022	0.070
-290.632	274.008	-0.020	0.035
-289.618	-200.000	-0.044	-0.349
-288.603	-200.000	0.023	0.144
-287.589	-171.231	0.269	-0.009
-286.574	-61.460	-0.127	-0.053
-285.559	-166.536	-0.224	0.009
-284.545	291.950	-0.208	-0.375
-283.530	141.694	0.107	-0.140
-282.516	800.000	0.037	-0.135
-281.501	-179.077	0.217	0.005
-280.486	36.722	0.190	-0.166
-279.472	-15.860	-0.223	-0.141
-278.457	-58.041	0.364	-0.157
-277.443	632.203	-0.040	-0.099
-276.428	-63.327	-0.103	0.042
-275.413	6.398	-0.203	-0.149
-274.399	-200.000	-0.047	0.238
-273.384	-128.141	0.070	0.010
-272.370	546.873	-0.037	0.087
-271.355	353.897	-0.055	0.107
-270.340	-200.000	-0.026	0.123
-269.326	-21.447	0.262	-0.158
-268.311	-137.103	-0.279	-0.032
-267.297	340.437	-0.110	-0.212
-266.282	-98.775	0.215	-0.054
-265.267	510.592	0.161	0.371
-264.253	-200.000	-0.015	-0.275
-263.238	-94.604	0.430	-0.116
-262.224	67.681	0.266	-0.269
-261.209	-134.445	-0.060	0.007
-260.195	79.389	-0.283	0.300
-259.180	-200.000	-0.015	0.172
-258.165	-125.281	0.430	0.065
-257.151	-142.182	-0.182	0.018
-256.136	168.975	0.096	0.136
-255.122	-130.848	0.242	0.032
-254.107	800.000	0.096	0.357
-253.092	-200.000	0.011	0.082
-252.078	-134.332	-0.351	0.043
-251.063	-129.799	0.031	0.004
-250.049	-200.000	0.019	0.128
-249.034	800.000	-0.045	-0.191
-248.019	271.371	0.114	0.199
-247.005	-115.992	-0.181	0.033
-245.990	-200.000	0.013	0.313
-244.976	-123.141	0.151	0.024
-243.961	385.478	-0.071	-0.144
-242.946	-72.245	0.192	0.071
-241.932	179.049	-0.064	0.093
-240.917	800.000	0.061	0.205
-239.903	-9.461	0.224	0.148
-238.888	-167.819	0.063	-0.002
-237.873	195.213	-0.146	0.220
-236.859	259.559	0.063	0.108
-235.844	-60.341	0.172	-0.072
-234.830	-50.960	-0.033	0.015
-233.815	-118.478	-0.155	0.027
-232.800	800.000	-0.116	0.335
-231.786	-102.212	0.155	0.037
-230.771	-82.271	0.295	0.095
-229.757	800.000	-0.077	0.300
-228.742	800.000	0.042	0.151
-227.727	-200.000	-0.022	-0.171
-226.713	53.344	-0.069	0.065
-225.698	-156.163	-0.309	-0.019
-224.684	212.249	-0.127	0.198
-223.669	-104.442	-0.073	0.017
-222.655	-200.000	-0.006	0.045
-221.640	331.234	0.120	0.229
-220.625	-117.495	0.307	-0.055
-219.611	-65.604	0.320	-0.127
-218.596	48.463	-0.150	0.139
-217.582	-110.225	0.071	-0.015
-216.567	-46.979	-0.284	-0.137
-215.552	749.252	0.050	0.134
-214.538	18.970	0.151	0.120
-213.523	-57.145	-0.075	-0.033
-212.509	-200.000	-0.012	-0.415
-211.494	148.902	0.215	-0.287
-210.479	-94.468	-0.384	-0.103
-209.465	800.000	-0.076	0.286
-208.450	-190.902	-0.294	-0.003
-207.436	-200.000	-0.033	0.399
-206.421	-188.695	0.214	-0.003
-205.406	-36.056	0.187	0.100
-204.392	-200.000	0.021	-0.384
-203.377	-0.697	0.157	-0.110
-202.363	-88.764	-0.123	-0.036
-201.348	164.785	0.050	0.069
-200.333	-200.000	0.004	-0.380
-199.319	-200.000	0.003	0.308
-198.304	178.371	-0.160	-0.231
-197.290	365.866	0.030	0.060
-196.275	500.286	0.071	-0.161
-195.260	-169.156	-0.195	0.007
-194.246	282.400	-0.074	-0.131
-193.231	800.000	-0.018	-0.060
-192.217	800.000	-0.011	0.046
-191.202	-17.375	-0.086	-0.053
-190.187	323.884	-0.121	-0.228
-189.173	-153.308	-0.249	-0.017
-188.158	62.313	-0.174	0.171
-187.144	-121.559	0.224	0.037
-186.129	-200.000	0.038	0.195
-185.114	-157.066	-0.213	0.013
-184.100	105.090	-0.208	-0.242
-183.085	95.153	0.173	-0.194
-182.071	-200.000	-0.001	0.250
-181.056	-84.322	-0.100	0.031
-180.042	-109.294	-0.143	0.030
-179.027	109.157	0.266	-0.314
-178.012	800.000	0.081	-0.234
-176.998	66.241	-0.262	0.263
-175.983	1.692	-0.032	-0.023
-174.969	-136.620	0.145	-0.017
-173.954	-29.882	0.185	-0.104
-172.939	-62.811	0.081	0.033
-171.925	-123.587	0.332	-0.052
-170.910	170.525	-0.077	-0.109
-169.896	46.370	0.131	-0.119
-168.881	479.420	0.084	-0.187
-167.866	800.000	0.044	0.178
-166.852	-69.789	0.133	0.050
-165.837	800.000	0.055	0.167
-164.823	-2.113	0.127	0.088
-163.808	-200.000	0.021	-0.216
-162.793	-48.607	0.231	0.109
-161.779	800.000	-0.100	0.349
-160.764	712.730	-0.097	-0.254
-159.750	11.284	0.121	-0.091
-158.735	-50.066	0.453	0.211
-157.720	-42.474	0.300	-0.151
-156.706	-200.000	-0.027	-0.276
-155.691	800.000	-0.097	0.297
-154.677	208.196	-0.019	-0.030
-153.662	800.000	0.044	-0.187
-152.647	23.420	-0.276	-0.224
-151.633	35.329	-0.078	-0.067
-150.618	-109.096	-0.056	-0.012
-149.604	-64.962	0.135	-0.054
-148.589	-97.421	0.177	0.045
-147.574	286.079	-0.090	-0.159
-146.560	185.386	-0.051	0.074
-145.545	-130.942	-0.065	-0.009
-144.531	162.327	-0.239	0.330
-143.516	-200.000	0.006	-0.121
-142.502	-141.822	0.166	-0.016
-141.487	220.326	0.071	-0.113
-140.472	40.083	0.308	0.273
-139.458	301.688	0.099	0.180
-138.443	800.000	0.052	0.222
-137.429	557.125	-0.075	0.178
-136.414	800.000	0.047	-0.174
-135.399	-4.544	-0.180	0.122
-134.385	-200.000	-0.060	-0.289
-133.370	55.310	0.108	-0.102
-132.356	222.367	-0.102	0.161
-131.341	-19.634	0.250	-0.153
-130.326	-73.716	0.205	-0.073
-129.312	-77.956	0.319	-0.108
-128.297	524.412	0.114	0.263
-127.283	-13.951	0.050	0.032
-126.268	-120.889	0.219	-0.036
-125.253	-200.000	-0.012	-0.106
-124.239	692.938	-0.084	-0.216
-123.224	-29.658	-0.203	0.114
-122.210	-80.708	0.158	-0.052
