DTS Sentinel unit serial number:	SN413079Multiplexer serial number:	ORYXHardware model number:	OX4-SRSoftware version number:	ORYX F/W v4.00 Oryx Data Collector v3.7.2.0data status	okinstallation	princeton_trtdifferential loss correction	single-endedforward channel	channel 2reverse channel	N/Adate	2019/09/18time	12:31:34forward acquisition time	60.00reverse acquisition time	0.00gamma	496.2192k internal	0.2323k external	0.2323temperature offset calibration	0.9988default loss term (dB/km)	0.3790temperature slope calibration	1.0000multiplexer offset coefficient	1.0000multiplexer slope coefficient	1.0000fibre end	0.00T internal ref (°C)	32.25T ext. ref 1 (°C)	0.52T ext. ref 2 (°C)	29.82length (m)	temperature (°C)	Stokes	anti-Stokes-747.200	-200.000	0.009	0.126
-746.185	-31.912	-0.128	0.073
-745.171	537.920	-0.080	0.192
-744.156	-3.965	-0.049	-0.034
-743.142	64.753	0.290	0.295
-742.127	-103.655	0.312	-0.074
-741.112	-200.000	0.014	0.083
-740.098	800.000	0.109	-0.357
-739.083	800.000	0.057	0.167
-738.069	9.607	-0.133	0.102
-737.054	380.317	0.080	-0.166
-736.039	-107.877	-0.196	-0.043
-735.025	-97.287	0.144	-0.038
-734.010	307.414	0.120	0.225
-732.996	42.619	0.254	-0.233
-731.981	800.000	0.079	-0.232
-730.966	-149.312	0.158	-0.013
-729.952	800.000	-0.075	0.298
-728.937	460.373	-0.042	0.095
-727.923	-45.567	-0.083	0.041
-726.908	244.573	0.138	0.234
-725.894	2.796	0.206	0.151
-724.879	774.806	-0.135	-0.371
-723.864	39.611	0.084	-0.076
-722.850	20.328	-0.271	-0.221
-721.835	-97.872	-0.131	-0.034
-720.821	-142.761	0.379	0.037
-719.806	-2.011	-0.256	0.181
-718.791	256.236	-0.026	-0.045
-717.777	-94.467	0.237	-0.065
-716.762	132.662	0.121	-0.158
-715.748	-22.235	-0.113	-0.069
-714.733	-72.185	-0.285	0.107
-713.718	-200.000	-0.008	-0.181
-712.704	-92.521	0.329	-0.093
-711.689	-164.989	0.155	-0.007
-710.675	60.188	-0.224	-0.223
-709.660	-160.535	0.432	-0.023
-708.645	55.862	-0.464	-0.454
-707.631	-200.000	0.033	-0.343
-706.616	-200.000	-0.001	0.138
-705.602	307.071	-0.083	-0.156
-704.587	31.004	-0.163	-0.141
-703.572	141.464	0.132	-0.176
-702.558	-200.000	-0.003	0.031
-701.543	0.979	0.142	-0.103
-700.529	-59.699	-0.375	0.162
-699.514	-53.432	-0.163	0.075
-698.499	59.529	-0.122	-0.121
-697.485	-2.273	0.175	-0.124
-696.470	800.000	-0.085	-0.252
-695.456	88.305	-0.220	-0.246
-694.441	-114.911	0.158	0.030
-693.426	205.213	-0.226	0.354
-692.412	714.725	0.047	-0.125
-691.397	444.539	-0.115	-0.254
-690.383	-38.166	-0.107	-0.057
-689.368	606.915	-0.142	-0.357
-688.354	-48.169	0.125	0.061
-687.339	-120.294	0.140	-0.024
-686.324	-120.076	-0.229	0.040
-685.310	-200.000	0.008	-0.223
-684.295	-200.000	-0.017	0.411
-683.281	76.882	-0.067	-0.072
-682.266	800.000	-0.029	0.123
-681.251	21.916	-0.104	0.085
-680.237	-66.623	-0.086	-0.035
-679.222	-5.384	-0.323	-0.223
-678.208	-75.331	0.028	0.010
-677.193	-119.055	-0.199	0.035
-676.178	-200.000	0.027	-0.129
-675.164	14.580	0.197	0.155
-674.149	119.302	0.045	0.056
-673.135	-115.115	-0.288	0.055
-672.120	-2.392	-0.273	0.192
-671.105	75.588	0.050	0.053
-670.091	-200.000	0.006	0.373
-669.076	-200.000	0.001	0.308
-668.062	6.708	0.191	-0.143
-667.047	-83.562	0.314	-0.101
-666.032	-20.471	-0.317	-0.196
-665.018	78.477	0.075	0.081
-664.003	626.975	0.014	-0.035
-662.989	374.466	0.153	-0.314
-661.974	-73.445	-0.049	0.018
-660.959	176.545	0.081	-0.118
-659.945	-200.000	-0.013	-0.091
-658.930	183.863	0.218	-0.325
-657.916	465.229	0.173	0.390
-656.901	103.578	0.089	-0.106
-655.886	53.157	-0.018	0.017
-654.872	-34.865	0.113	0.062
-653.857	-115.363	-0.493	-0.094
-652.843	672.638	0.117	-0.304
-651.828	-112.457	-0.283	0.057
-650.814	306.702	-0.112	0.211
-649.799	57.227	0.160	-0.157
-648.784	-149.785	0.073	-0.006
-647.770	-106.615	0.177	0.040
-646.755	89.970	-0.221	0.248
-645.741	58.508	0.141	0.140
-644.726	-97.872	0.340	0.088
-643.711	355.469	0.055	0.110
-642.697	43.024	-0.281	-0.258
-641.682	-56.470	-0.108	0.048
-640.668	-43.018	-0.355	0.181
-639.653	-17.949	0.076	0.048
-638.638	-126.585	-0.293	0.044
-637.624	483.328	-0.059	-0.135
-636.609	-200.000	0.041	-0.199
-635.595	-51.006	0.419	-0.198
-634.580	41.333	-0.473	-0.430
-633.565	-15.167	-0.106	-0.068
-632.551	-42.297	-0.312	0.160
-631.536	-141.941	-0.179	0.018
-630.522	-200.000	-0.029	-0.374
-629.507	800.000	-0.032	0.110
-628.492	273.364	0.093	-0.166
-627.478	800.000	0.111	0.353
-626.463	-58.754	0.253	-0.110
-625.449	-200.000	-0.007	-0.244
-624.434	-200.000	-0.039	0.248
-623.419	-99.147	-0.332	0.084
-622.405	309.279	-0.104	-0.195
-621.390	-3.491	-0.421	-0.294
-620.376	-149.100	0.361	0.029
-619.361	-125.233	0.090	-0.014
-618.346	435.631	-0.105	-0.230
-617.332	-2.431	-0.162	-0.114
-616.317	-12.317	-0.162	-0.106
-615.303	-200.000	-0.060	-0.524
-614.288	227.028	-0.165	-0.269
-613.273	-17.048	-0.139	0.088
-612.259	372.938	-0.036	0.074
-611.244	-200.000	0.019	-0.256
-610.230	-200.000	0.024	0.159
-609.215	224.529	-0.212	-0.344
-608.201	566.879	0.131	-0.320
-607.186	-200.000	0.054	0.262
-606.171	19.029	-0.114	0.092
-605.157	-41.893	0.115	-0.059
-604.142	-98.633	-0.347	-0.089
-603.128	239.448	-0.056	0.094
-602.113	-200.000	-0.059	-0.391
-601.098	-49.151	-0.345	0.166
-600.084	-200.000	0.017	0.208
-599.069	325.592	-0.026	-0.049
-598.055	149.357	-0.031	-0.042
-597.040	62.174	-0.174	-0.174
-596.025	-94.102	-0.067	-0.018
-595.011	588.274	-0.058	-0.142
-593.996	27.799	-0.044	-0.037
-592.982	-200.000	-0.015	-0.226
-591.967	-200.000	0.018	-0.362
-590.952	387.566	0.145	-0.301
-589.938	-106.044	-0.181	-0.041
-588.923	-12.377	0.105	0.069
-587.909	-200.000	-0.020	-0.320
-586.894	-65.436	0.077	-0.031
-585.879	-72.669	0.344	-0.127
-584.865	29.706	-0.139	-0.118
-583.850	-2.854	0.195	-0.137
-582.836	800.000	0.052	0.223
-581.821	-104.862	-0.236	-0.054
-580.806	234.773	0.120	-0.198
-579.792	-71.046	-0.037	-0.014
-578.777	-9.513	-0.227	0.152
-577.763	-200.000	-0.008	0.222
-576.748	-200.000	-0.040	-0.287
-575.733	124.245	-0.240	-0.302
-574.719	270.175	0.081	0.143
-573.704	488.090	0.033	-0.076
-572.690	800.000	0.081	-0.241
-571.675	1.226	0.201	0.145
-570.661	229.796	0.073	-0.120
-569.646	385.956	0.033	-0.069
-568.631	-200.000	0.025	-0.249
-567.617	254.688	0.136	0.233
-566.602	28.028	-0.184	0.156
-565.588	178.318	-0.283	-0.414
-564.573	29.909	0.058	0.050
-563.558	-114.474	-0.122	0.023
-562.544	226.638	0.113	-0.184
-561.529	-200.000	-0.006	-0.108
-560.515	-67.996	0.185	0.072
-559.500	191.812	0.260	0.394
-558.485	-78.672	-0.368	0.126
-557.471	125.873	0.244	0.309
-556.456	-94.974	0.132	-0.036
-555.442	-62.686	0.051	0.021
-554.427	-43.287	0.188	0.096
-553.412	-42.641	-0.164	0.084
-552.398	465.683	-0.191	0.429
-551.383	-154.944	0.360	0.024
-550.369	439.077	-0.064	-0.140
-549.354	497.621	-0.089	0.204
-548.339	59.489	-0.078	0.077
-547.325	800.000	0.043	0.149
-546.310	-17.960	0.052	-0.033
-545.296	219.762	0.144	0.231
-544.281	72.597	0.115	0.120
-543.266	-153.696	0.140	-0.010
-542.252	-7.759	-0.169	-0.115
-541.237	81.808	-0.085	-0.092
-540.223	-114.856	-0.215	-0.041
-539.208	-52.755	-0.192	-0.089
-538.193	-92.860	0.138	0.039
-537.179	-200.000	-0.041	0.183
-536.164	-38.529	0.101	0.054
-535.150	5.016	-0.315	0.232
-534.135	64.824	0.230	0.233
-533.121	367.232	0.051	-0.104
-532.106	-196.351	0.188	-0.001
-531.091	-131.046	-0.077	-0.010
-530.077	-62.960	-0.212	0.088
-529.062	355.035	-0.030	0.060
-528.048	326.032	0.117	0.224
-527.033	-176.274	0.176	0.005
-526.018	-20.389	-0.132	-0.081
-525.004	771.751	0.114	-0.310
-523.989	-84.176	-0.325	0.103
-522.975	-122.654	0.160	0.026
-521.960	159.454	0.047	-0.065
-520.945	117.705	0.166	-0.204
-519.931	-65.870	0.327	0.131
-518.916	-103.141	-0.207	-0.049
-517.902	60.002	0.095	0.094
-516.887	-200.000	-0.021	-0.125
-515.872	800.000	0.022	0.069
-514.858	97.529	-0.306	0.351
-513.843	123.369	-0.063	0.079
-512.829	218.516	0.097	-0.155
-511.814	298.058	-0.075	-0.139
-510.799	87.087	0.069	-0.076
-509.785	-200.000	-0.021	0.116
-508.770	-200.000	-0.036	0.217
-507.756	-200.000	0.005	-0.252
-506.741	-110.552	0.194	0.040
-505.726	-32.934	-0.251	0.139
-504.712	-146.230	0.280	-0.025
-503.697	-131.519	0.339	-0.045
-502.683	-67.975	-0.184	-0.072
-501.668	-200.000	-0.008	-0.309
-500.653	-86.963	0.068	-0.021
-499.639	16.516	-0.291	-0.230
-498.624	-53.936	0.269	0.123
-497.610	116.586	0.100	0.123
-496.595	483.929	-0.064	-0.145
-495.581	-96.048	-0.178	0.047
-494.566	361.624	-0.064	0.129
-493.551	537.966	0.045	-0.108
-492.537	48.370	0.076	0.071
-491.522	-200.000	0.028	-0.244
-490.508	134.291	0.038	-0.050
-489.493	498.296	-0.062	-0.144
-488.478	-48.744	0.548	-0.263
-487.464	167.317	0.142	0.202
-486.449	75.748	-0.091	0.096
-485.435	79.887	-0.125	0.134
-484.420	-101.163	0.287	-0.070
-483.405	-116.772	-0.063	-0.012
-482.391	-173.581	-0.208	-0.006
-481.376	39.415	0.316	-0.283
-480.362	729.187	-0.122	0.326
-479.347	-79.305	-0.228	0.077
-478.332	-200.000	-0.012	0.172
-477.318	-53.551	0.272	-0.124
-476.303	102.157	-0.142	-0.165
-475.289	24.779	0.115	0.095
-474.274	316.382	0.166	-0.313
-473.259	-69.857	0.397	-0.151
-472.245	221.858	-0.176	-0.282
-471.230	-14.939	-0.086	-0.055
-470.216	101.676	0.289	0.337
-469.201	614.577	-0.094	-0.235
-468.186	-40.945	0.033	0.017
-467.172	634.566	0.085	0.215
-466.157	-81.948	-0.217	0.071
-465.143	-200.000	0.004	-0.149
-464.128	-168.811	0.043	-0.002
-463.113	800.000	-0.127	-0.354
-462.099	32.598	0.156	0.135
-461.084	144.397	-0.116	-0.154
-460.070	29.882	-0.077	-0.066
-459.055	-94.069	0.128	-0.035
-458.040	800.000	0.096	-0.337
-457.026	-104.850	0.041	-0.009
-456.011	-200.000	0.004	0.198
-454.997	-200.000	-0.012	0.106
-453.982	-55.833	-0.272	0.122
-452.968	45.397	0.096	-0.088
-451.953	-0.392	-0.093	0.066
-450.938	63.086	-0.147	-0.147
-449.924	-200.000	0.012	0.078
-448.909	649.616	-0.099	-0.252
-447.895	-132.052	0.367	0.048
-446.880	30.268	-0.235	-0.200
-445.865	11.332	-0.028	-0.021
-444.851	70.048	0.080	-0.083
-443.836	275.680	-0.167	-0.295
-442.822	-144.897	-0.238	-0.022
-441.807	-45.668	-0.403	-0.199
-440.792	134.833	-0.263	-0.341
-439.778	362.624	0.157	0.315
-438.763	800.000	0.061	-0.258
-437.749	27.649	-0.101	0.085
-436.734	198.354	0.044	0.067
-435.719	800.000	0.031	-0.088
-434.705	-200.000	-0.005	-0.130
-433.690	445.723	-0.144	-0.315
-432.676	-87.874	0.120	0.036
-431.661	-67.119	0.063	-0.025
-430.646	-91.495	-0.163	-0.046
-429.632	483.521	-0.069	0.157
-428.617	-200.000	-0.002	-0.298
-427.603	-30.397	0.154	-0.087
-426.588	800.000	0.053	-0.182
-425.573	59.059	-0.329	-0.323
-424.559	-58.659	-0.159	-0.069
-423.544	-58.577	-0.094	0.041
-422.530	-114.133	-0.175	-0.034
-421.515	14.607	0.113	-0.088
-420.500	-130.464	0.279	-0.038
-419.486	-35.132	-0.054	0.030
-418.471	-126.300	0.087	0.013
-417.457	48.110	-0.163	0.152
-416.442	800.000	-0.080	0.288
-415.428	-200.000	0.066	0.342
-414.413	-52.955	0.192	0.088
-413.398	-61.736	0.232	0.097
-412.384	-200.000	0.002	-0.105
-411.369	227.346	-0.037	-0.061
-410.355	4.801	-0.075	0.055
-409.340	-3.098	-0.393	0.273
-408.325	13.477	0.100	-0.077
-407.311	92.851	-0.255	-0.287
-406.296	-49.392	-0.012	0.006
-405.282	56.190	-0.214	-0.207
-404.267	-98.582	0.247	0.063
-403.252	-89.500	0.046	-0.013
-402.238	118.112	-0.141	0.173
-401.223	-72.697	-0.077	0.028
-400.209	-19.444	0.045	-0.028
-399.194	-61.147	-0.312	0.131
-398.179	205.114	0.058	-0.089
-397.165	-149.282	0.190	0.015
-396.150	71.108	-0.109	-0.112
-395.136	800.000	0.042	0.147
-394.121	-69.112	-0.149	0.057
-393.106	-7.893	-0.073	-0.049
-392.092	-200.000	0.036	0.200
-391.077	-62.050	0.089	0.037
-390.063	-200.000	-0.031	0.219
-389.048	-126.341	-0.218	0.032
-388.033	64.004	0.090	0.091
-387.019	-200.000	0.008	-0.058
-386.004	209.125	0.032	-0.049
-384.990	-99.674	-0.377	0.094
-383.975	-66.003	0.226	0.090
-382.960	79.617	0.130	0.139
-381.946	-90.849	0.061	-0.017
-380.931	-1.507	-0.343	-0.241
-379.917	17.782	0.249	-0.197
-378.902	-110.821	0.145	-0.030
-377.888	-33.725	0.123	-0.067
-376.873	-32.403	0.341	0.189
-375.858	-8.371	-0.114	0.076
-374.844	-12.414	-0.163	-0.106
-373.829	800.000	0.094	0.354
-372.815	94.009	0.139	0.156
-371.800	-25.365	-0.064	-0.038
-370.785	252.847	0.065	0.110
-369.771	-170.847	0.255	-0.009
-368.756	361.870	0.048	0.097
-367.742	-200.000	-0.005	0.316
-366.727	99.981	-0.148	-0.170
-365.712	-200.000	-0.005	-0.056
-364.698	-179.676	-0.206	0.004
-363.683	37.926	0.155	-0.137
-362.669	-162.451	0.403	-0.020
-361.654	-82.323	0.247	-0.080
-360.639	-63.666	-0.334	-0.136
-359.625	-171.458	0.249	-0.008
-358.610	78.770	-0.193	-0.206
-357.596	41.013	0.228	-0.205
-356.581	163.262	0.056	-0.078
-355.566	344.462	-0.083	0.162
-354.552	43.416	-0.149	0.135
-353.537	-79.604	-0.396	0.133
-352.523	800.000	0.058	0.192
-351.508	16.492	-0.188	-0.148
-350.493	767.834	0.048	-0.131
-349.479	-24.990	-0.161	0.095
-348.464	-33.647	-0.351	-0.192
-347.450	-7.270	-0.194	-0.131
-346.435	-12.393	0.190	-0.124
-345.420	210.136	0.080	-0.125
-344.406	60.437	-0.173	0.170
-343.391	-117.723	-0.104	-0.019
-342.377	-94.687	0.292	0.079
-341.362	-200.000	-0.009	0.137
-340.348	-4.580	-0.322	-0.221
-339.333	-32.914	-0.310	0.171
-338.318	-100.050	-0.324	-0.080
-337.304	132.994	0.018	0.023
-336.289	69.569	-0.217	0.222
-335.275	17.992	-0.139	0.110
-334.260	412.673	0.104	0.220
-333.245	800.000	0.016	0.053
-332.231	201.684	-0.059	0.091
-331.216	-54.675	-0.314	0.141
-330.202	800.000	0.059	-0.229
-329.187	-74.249	-0.115	0.041
-328.172	25.772	-0.049	-0.040
-327.158	249.721	0.035	0.059
-326.143	-200.000	0.011	0.059
-325.129	-3.936	0.423	0.291
-324.114	-77.316	-0.175	0.060
-323.099	800.000	-0.054	-0.209
-322.085	-200.000	0.030	0.204
-321.070	-200.000	0.014	0.066
-320.056	-76.945	0.254	0.088
-319.041	-200.000	0.003	0.023
-318.026	-6.187	-0.112	0.076
-317.012	-200.000	0.010	-0.362
-315.997	272.383	-0.039	-0.068
-314.983	-171.003	0.348	0.012
-313.968	-128.539	-0.072	0.010
-312.953	769.069	-0.124	0.334
-311.939	71.670	0.156	0.161
-310.924	29.450	0.114	-0.096
-309.910	800.000	0.031	-0.100
-308.895	-96.043	0.316	0.083
-307.880	-43.659	-0.091	0.045
-306.866	-74.042	0.024	-0.009
-305.851	-200.000	-0.001	-0.057
-304.837	29.166	-0.058	-0.049
-303.822	-90.403	0.195	0.056
-302.807	194.150	0.121	0.182
-301.793	-65.696	0.134	0.053
-300.778	-200.000	0.014	0.156
-299.764	237.515	0.050	-0.083
-298.749	800.000	-0.083	0.271
-297.735	-200.000	0.057	0.247
-296.720	-156.312	-0.122	0.008
-295.705	800.000	-0.117	0.398
-294.691	-84.082	0.250	-0.079
-293.676	-198.698	0.322	0.002
-292.662	-200.000	-0.005	0.084
-291.647	259.486	-0.113	-0.194
-290.632	701.866	0.074	-0.193
-289.618	-100.110	-0.144	-0.036
-288.603	-200.000	0.014	-0.143
-287.589	91.862	0.148	-0.166
-286.574	-37.766	0.127	-0.067
-285.559	173.000	0.237	-0.339
-284.545	-10.386	-0.270	0.178
-283.530	-39.650	0.166	0.086
-282.516	2.206	-0.326	0.233
-281.501	800.000	0.024	-0.103
-280.486	44.015	0.219	0.199
-279.472	-84.161	0.300	0.094
-278.457	-200.000	-0.001	-0.093
-277.443	178.248	0.128	0.185
-276.428	-103.726	-0.221	-0.051
-275.413	-68.354	0.141	0.054
-274.399	-200.000	-0.010	-0.238
-273.384	-69.407	0.128	-0.049
-272.370	336.976	0.054	-0.104
-271.355	-70.977	0.287	0.107
-270.340	-200.000	-0.049	0.226
-269.326	13.622	-0.116	0.089
-268.311	-86.709	-0.141	0.043
-267.297	-114.343	0.335	-0.064
-266.282	16.342	0.136	0.106
-265.267	-62.304	0.248	-0.102
-264.253	-47.144	0.155	0.075
-263.238	-171.469	0.243	0.008
-262.224	19.988	-0.224	-0.179
-261.209	3.575	0.163	-0.118
-260.195	44.157	0.183	0.166
-259.180	800.000	-0.062	0.193
-258.165	-71.034	0.336	0.125
-257.151	-46.388	-0.159	-0.077
-256.136	209.382	0.290	-0.451
-255.122	-120.674	0.087	-0.015
-254.107	-200.000	0.040	0.224
-253.092	-50.747	-0.152	-0.071
-252.078	800.000	-0.059	-0.257
-251.063	-18.947	0.153	0.095
-250.049	-200.000	-0.023	0.203
-249.034	800.000	-0.083	0.314
-248.019	285.008	0.162	0.290
-247.005	-7.642	0.081	0.054
-245.990	147.949	-0.303	0.405
-244.976	-200.000	0.003	-0.454
-243.961	-28.843	-0.195	-0.111
-242.946	66.650	0.208	0.210
-241.932	-49.403	-0.156	0.073
-240.917	-173.132	0.244	-0.007
-239.903	-200.000	0.009	0.157
-238.888	77.753	-0.196	0.207
-237.873	-82.189	-0.110	0.036
-236.859	-85.583	-0.088	-0.027
-235.844	-91.870	0.270	-0.076
-234.830	-8.646	-0.155	0.103
-233.815	294.478	-0.204	0.370
-232.800	62.523	-0.249	0.246
-231.786	15.007	0.214	-0.166
-230.771	44.600	0.143	-0.130
-229.757	-132.022	0.264	-0.034
-228.742	249.597	0.045	0.076
-227.727	-124.143	-0.167	-0.026
-226.713	81.030	0.083	-0.089
-225.698	29.386	-0.376	0.317
-224.684	23.498	-0.133	0.108
-223.669	-200.000	0.007	0.076
-222.655	612.367	0.077	0.191
-221.640	379.562	-0.035	-0.071
-220.625	-34.373	0.046	0.025
-219.611	-102.086	-0.081	0.019
-218.596	-155.377	-0.130	0.008
-217.582	153.873	-0.113	0.153
-216.567	-53.624	0.182	-0.082
-215.552	-104.105	-0.138	-0.032
-214.538	-200.000	0.011	0.101
-213.523	-124.715	-0.358	0.055
-212.509	-200.000	0.005	0.161
-211.494	67.730	0.087	-0.088
-210.479	23.463	0.116	-0.094
-209.465	569.546	-0.039	0.093
-208.450	100.124	0.177	0.203
-207.436	-153.191	0.059	0.004
-206.421	105.136	-0.201	-0.235
-205.406	427.956	-0.121	0.258
-204.392	168.872	0.079	0.111
-203.377	140.312	0.172	0.224
-202.363	-85.791	-0.076	-0.023
-201.348	-75.657	-0.156	0.055
-200.333	235.955	0.097	0.159
-199.319	14.001	0.195	0.150
-198.304	-121.479	-0.048	-0.008
-197.290	-163.779	0.354	-0.016
-196.275	-192.523	-0.371	0.003
-195.260	126.000	0.086	0.108
-194.246	800.000	-0.082	0.314
-193.231	473.352	-0.144	-0.321
-192.217	-25.598	0.179	0.104
-191.202	-141.355	-0.202	-0.020
-190.187	-122.126	0.100	-0.016
-189.173	255.332	0.168	0.284
-188.158	-95.090	0.275	0.073
-187.144	95.195	-0.099	0.111
-186.129	-34.215	-0.140	-0.076
-185.114	800.000	0.041	0.125
-184.100	-135.187	0.383	0.045
-183.085	-174.778	-0.243	-0.007
-182.071	29.956	0.257	-0.217
-181.056	57.761	0.035	0.034
-180.042	-80.722	0.188	-0.062
-179.027	-96.749	0.096	-0.025
-178.012	-46.597	0.121	-0.059
-176.998	16.145	0.099	0.077
-175.983	196.396	0.141	-0.213
-174.969	23.762	-0.037	-0.030
-173.954	-161.794	0.186	0.009
-172.939	-100.522	-0.206	-0.050
-171.925	50.086	0.023	0.022
-170.910	-186.400	0.139	0.002
-169.896	-5.709	-0.061	0.041
-168.881	-32.005	-0.245	0.135
-167.866	763.095	-0.081	-0.216
-166.852	44.369	0.239	-0.217
-165.837	-200.000	-0.050	-0.233
-164.823	-86.980	0.186	0.056
-163.808	15.649	-0.307	0.238
-162.793	-12.509	0.053	0.034
-161.779	129.942	0.102	0.129
-160.764	-82.098	0.257	-0.083
-159.750	-136.003	0.124	-0.014
-158.735	-110.695	-0.136	0.028
-157.720	773.890	-0.108	0.291
-156.706	43.133	-0.128	-0.116
-155.691	-200.000	-0.023	0.319
-154.677	303.620	0.078	0.142
-153.662	-200.000	-0.046	-0.426
-152.647	-23.495	0.187	0.111
-151.633	-22.539	-0.097	0.058
-150.618	-41.240	-0.182	-0.093
-149.604	800.000	0.037	0.131
-148.589	-200.000	-0.033	0.188
-147.574	800.000	-0.010	-0.042
-146.560	-200.000	0.002	-0.026
-145.545	-75.744	0.123	-0.043
-144.531	81.721	0.085	0.091
-143.516	-200.000	-0.005	-0.165
-142.502	-34.283	0.069	0.037
-141.487	-14.030	-0.206	0.131
-140.472	-141.431	0.201	0.020
-139.458	-148.148	-0.309	-0.025
-138.443	800.000	-0.040	-0.155
-137.429	611.157	0.102	-0.251
-136.414	-6.532	-0.336	0.226
-135.399	119.631	0.109	-0.133
-134.385	800.000	0.071	0.271
-133.370	-63.885	0.016	0.006
-132.356	-200.000	0.050	0.248
-131.341	-200.000	0.018	0.157
-130.326	306.555	-0.144	0.265
-129.312	157.520	-0.028	-0.038
-128.297	-77.050	-0.252	0.087
-127.283	184.836	0.157	0.230
-126.268	-27.388	-0.328	-0.188
-125.253	-200.000	-0.048	-0.371
-124.239	-200.000	-0.015	0.104
-123.224	105.929	0.055	0.064
-122.210	-109.654	0.055	0.011
-121.195	519.850	-0.083	0.192
-120.180	800.000	-0.133	0.394
-119.166	-24.186	0.182	-0.107
