DTS Sentinel unit serial number:	SN413079Multiplexer serial number:	ORYXHardware model number:	OX4-SRSoftware version number:	ORYX F/W v4.00 Oryx Data Collector v3.7.2.0data status	okinstallation	princeton_trtdifferential loss correction	single-endedforward channel	channel 2reverse channel	N/Adate	2019/09/13time	19:27:35forward acquisition time	60.00reverse acquisition time	0.00gamma	496.2192k internal	0.2329k external	0.2329temperature offset calibration	1.0155default loss term (dB/km)	0.3790temperature slope calibration	1.0000multiplexer offset coefficient	1.0000multiplexer slope coefficient	1.0000fibre end	0.00T internal ref (°C)	30.81T ext. ref 1 (°C)	3.56T ext. ref 2 (°C)	24.37length (m)	temperature (°C)	Stokes	anti-Stokes-747.200	800.000	0.076	0.223
-746.185	684.206	-0.045	-0.119
-745.171	-200.000	0.037	0.345
-744.156	800.000	0.055	0.188
-743.142	189.271	0.174	-0.263
-742.127	-102.207	-0.152	-0.037
-741.112	199.944	-0.137	-0.212
-740.098	546.826	0.072	-0.172
-739.083	-60.019	-0.210	-0.090
-738.069	60.594	-0.080	0.080
-737.054	50.483	0.085	-0.081
-736.039	800.000	-0.057	-0.219
-735.025	73.413	-0.132	0.139
-734.010	-95.350	-0.298	0.081
-732.996	800.000	0.054	-0.164
-731.981	194.764	-0.302	-0.461
-730.966	-102.262	-0.233	0.056
-729.952	-152.322	0.236	-0.017
-728.937	15.547	0.106	0.084
-727.923	-125.161	0.237	-0.037
-726.908	65.974	-0.266	-0.272
-725.894	-1.839	-0.118	-0.084
-724.879	-170.926	0.252	0.009
-723.864	53.250	0.013	0.013
-722.850	-29.358	0.173	0.100
-721.835	-134.388	-0.316	0.039
-720.821	269.579	0.196	0.346
-719.806	224.626	0.090	-0.147
-718.791	-119.642	0.081	-0.014
-717.777	800.000	0.045	0.162
-716.762	-181.882	-0.475	0.009
-715.748	-120.701	0.248	0.042
-714.733	-200.000	0.046	-0.360
-713.718	-78.995	0.031	0.011
-712.704	-126.301	-0.114	-0.017
-711.689	66.987	-0.113	-0.116
-710.675	84.641	0.121	0.134
-709.660	40.566	-0.027	-0.024
-708.645	-4.630	0.167	-0.116
-707.631	-200.000	0.048	-0.267
-706.616	268.331	-0.212	0.374
-705.602	800.000	-0.071	-0.217
-704.587	-94.995	0.286	0.078
-703.572	-200.000	-0.006	-0.274
-702.558	117.972	0.300	0.372
-701.543	-48.694	0.067	-0.032
-700.529	774.837	-0.018	0.049
-699.514	734.512	-0.085	-0.230
-698.499	122.772	-0.148	0.186
-697.485	18.178	0.210	-0.168
-696.470	800.000	0.045	-0.156
-695.456	-25.917	-0.201	0.119
-694.441	-137.976	0.166	0.019
-693.426	67.495	0.046	-0.047
-692.412	3.937	0.309	-0.227
-691.397	-109.434	0.279	-0.059
-690.383	-4.084	-0.113	0.079
-689.368	506.858	-0.080	-0.187
-688.354	800.000	0.153	0.479
-687.339	47.589	0.190	-0.178
-686.324	-200.000	-0.003	-0.056
-685.310	40.925	-0.133	0.121
-684.295	27.574	-0.266	-0.225
-683.281	36.758	0.262	-0.233
-682.266	-200.000	0.044	-0.272
-681.251	-112.962	-0.323	0.064
-680.237	-120.147	0.157	-0.027
-679.222	-98.945	-0.190	-0.048
-678.208	86.306	0.083	0.092
-677.193	-33.134	0.181	0.101
-676.178	213.606	-0.138	0.219
-675.164	-45.438	-0.126	-0.063
-674.149	-153.496	-0.261	-0.018
-673.135	-113.694	0.159	0.031
-672.120	-120.613	-0.165	-0.028
-671.105	2.730	0.095	0.069
-670.091	5.136	0.238	0.176
-669.076	-32.491	-0.165	0.092
-668.062	74.195	-0.263	0.278
-667.047	-200.000	-0.004	-0.210
-666.032	217.763	-0.135	0.216
-665.018	403.826	-0.158	-0.333
-664.003	-89.185	-0.140	-0.041
-662.989	-200.000	0.034	-0.213
-661.974	117.987	-0.126	0.156
-660.959	-59.563	-0.139	-0.060
-659.945	532.473	-0.092	-0.219
-658.930	-75.324	-0.396	0.142
-657.916	-200.000	-0.010	-0.122
-656.901	-26.045	0.230	-0.136
-655.886	800.000	-0.054	0.184
-654.872	419.390	0.027	0.059
-653.857	-200.000	-0.002	-0.071
-652.843	800.000	-0.099	-0.304
-651.828	629.164	0.090	-0.229
-650.814	-38.181	0.297	0.158
-649.799	800.000	0.055	-0.190
-648.784	-84.482	-0.274	-0.087
-647.770	18.695	-0.351	-0.282
-646.755	-74.877	-0.053	0.019
-645.741	-42.883	0.149	0.076
-644.726	304.735	-0.128	0.238
-643.711	7.451	-0.215	0.161
-642.697	316.566	0.108	-0.205
-641.682	327.010	-0.113	0.217
-640.668	21.224	-0.255	-0.208
-639.653	-182.081	-0.161	0.003
-638.638	414.381	-0.103	0.219
-637.624	-100.594	0.133	-0.033
-636.609	443.582	0.191	-0.421
-635.595	-142.377	0.317	-0.031
-634.580	-37.858	-0.263	-0.140
-633.565	142.011	0.228	0.303
-632.551	-200.000	0.007	0.348
-631.536	77.721	0.214	-0.229
-630.522	473.157	-0.064	-0.144
-629.507	41.011	-0.157	-0.142
-628.492	25.991	0.306	0.256
-627.478	140.923	-0.312	-0.413
-626.463	740.615	-0.031	0.084
-625.449	800.000	-0.084	0.271
-624.434	22.035	-0.256	0.209
-623.419	-76.246	-0.177	0.063
-622.405	800.000	-0.011	0.035
-621.390	410.296	-0.085	-0.180
-620.376	256.313	-0.097	0.167
-619.361	-122.113	0.211	0.035
-618.346	538.230	-0.081	-0.192
-617.332	-14.340	0.310	0.200
-616.317	-18.340	0.083	-0.052
-615.303	44.001	0.341	0.313
-614.288	222.084	0.177	-0.285
-613.273	673.346	-0.112	-0.291
-612.259	-55.028	0.404	-0.182
-611.244	800.000	-0.036	0.106
-610.230	-119.012	0.023	-0.004
-609.215	-156.216	-0.307	-0.019
-608.201	-113.398	0.167	-0.033
-607.186	-71.927	-0.346	-0.129
-606.171	-162.437	0.204	0.010
-605.157	-200.000	0.013	-0.069
-604.142	160.419	0.194	0.271
-603.128	417.897	0.170	0.363
-602.113	474.359	0.106	0.239
-601.098	435.672	-0.067	0.147
-600.084	800.000	-0.043	-0.121
-599.069	-100.765	0.073	0.018
-598.055	-52.383	0.158	-0.073
-597.040	800.000	0.049	-0.168
-596.025	497.672	-0.174	-0.401
-595.011	-200.000	0.072	-0.352
-593.996	329.210	0.078	-0.151
-592.982	107.308	0.057	0.068
-591.967	800.000	0.089	0.263
-590.952	609.853	0.099	-0.249
-589.938	18.174	0.085	0.068
-588.923	-200.000	0.026	-0.357
-587.909	-75.013	-0.258	-0.092
-586.894	-80.386	0.324	-0.108
-585.879	-50.634	0.125	0.059
-584.865	-200.000	-0.017	-0.185
-583.850	31.404	-0.182	0.157
-582.836	106.884	0.155	-0.184
-581.821	125.678	0.093	0.117
-580.806	682.612	-0.065	-0.170
-579.792	-80.118	-0.194	-0.065
-578.777	465.773	0.040	0.090
-577.763	-88.871	-0.363	-0.108
-576.748	-57.353	0.143	-0.063
-575.733	-87.725	-0.313	0.095
-574.719	-39.573	-0.274	0.143
-573.704	-107.114	0.048	-0.011
-572.690	-200.000	0.026	-0.262
-571.675	-23.047	0.029	-0.017
-570.661	81.254	0.102	-0.111
-569.646	-200.000	-0.010	0.054
-568.631	16.885	0.466	-0.369
-567.617	800.000	-0.038	0.121
-566.602	-200.000	0.004	-0.180
-565.588	-117.735	0.166	-0.030
-564.573	8.827	0.276	-0.208
-563.558	-14.530	0.193	0.124
-562.544	-200.000	-0.009	0.117
-561.529	-56.491	-0.066	0.029
-560.515	315.367	0.081	0.154
-559.500	180.379	0.079	0.116
-558.485	19.408	0.104	-0.084
-557.471	12.908	0.121	0.094
-556.456	-72.259	0.065	0.024
-555.442	149.564	-0.141	-0.190
-554.427	475.133	-0.092	-0.209
-553.412	436.046	-0.073	-0.158
-552.398	-196.822	0.283	0.002
-551.383	42.770	-0.060	-0.054
-550.369	-200.000	0.048	-0.364
-549.354	800.000	-0.024	0.100
-548.339	-200.000	0.027	-0.151
-547.325	-103.844	0.152	-0.036
-546.310	800.000	-0.088	0.249
-545.296	-172.643	0.101	0.003
-544.281	69.912	0.172	0.177
-543.266	-61.802	-0.081	0.034
-542.252	27.374	-0.128	0.107
-541.237	7.184	-0.083	0.062
-540.223	162.390	0.188	0.263
-539.208	-178.155	0.054	-0.001
-538.193	14.596	0.083	-0.064
-537.179	66.605	-0.155	-0.157
-536.164	85.990	-0.161	-0.177
-535.150	-200.000	0.004	0.093
-534.135	-89.342	-0.277	0.082
-533.121	-54.115	0.104	0.047
-532.106	-130.824	-0.183	0.025
-531.091	72.183	0.146	0.152
-530.077	155.871	-0.220	-0.302
-529.062	680.618	-0.031	0.080
-528.048	-105.886	0.309	-0.070
-527.033	80.017	-0.072	0.077
-526.018	422.468	-0.075	0.160
-525.004	225.096	-0.064	-0.103
-523.989	-114.025	0.188	0.036
-522.975	13.120	-0.340	-0.263
-521.960	800.000	0.046	-0.203
-520.945	-73.276	-0.377	0.138
-519.931	221.587	0.082	-0.132
-518.916	4.134	0.166	-0.122
-517.902	-63.795	-0.325	0.133
-516.887	-124.590	-0.237	-0.037
-515.872	-200.000	0.034	0.293
-514.858	207.352	0.107	0.167
-513.843	-200.000	0.026	-0.363
-512.829	-142.895	-0.261	0.025
-511.814	14.717	-0.115	-0.090
-510.799	548.793	-0.024	0.057
-509.785	-113.824	-0.457	-0.089
-508.770	770.679	-0.118	-0.320
-507.756	-43.111	-0.097	0.049
-506.741	-118.688	0.194	0.034
-505.726	-200.000	0.121	-0.590
-504.712	232.511	-0.143	-0.235
-503.697	-122.196	0.141	-0.023
-502.683	-200.000	0.087	0.380
-501.668	467.839	-0.122	0.274
-500.653	40.665	-0.041	-0.037
-499.639	-31.370	0.067	-0.037
-498.624	173.016	-0.114	-0.163
-497.610	-136.886	-0.116	0.013
-496.595	-200.000	-0.011	0.238
-495.581	-200.000	-0.000	-0.203
-494.566	-200.000	-0.023	-0.165
-493.551	-200.000	-0.025	0.262
-492.537	-44.712	-0.082	-0.041
-491.522	800.000	0.003	0.010
-490.508	-121.435	0.160	0.027
-489.493	66.196	-0.105	-0.107
-488.478	-151.479	-0.055	-0.004
-487.464	21.347	-0.047	-0.038
-486.449	-19.501	-0.350	-0.216
-485.435	201.746	0.083	-0.127
-484.420	-153.010	-0.257	-0.018
-483.405	220.262	0.095	-0.152
-482.391	77.232	-0.168	-0.178
-481.376	136.195	-0.073	-0.095
-480.362	45.168	-0.130	-0.119
-479.347	800.000	-0.064	-0.204
-478.332	-99.946	-0.289	0.072
-477.318	-120.323	0.227	0.038
-476.303	800.000	-0.071	0.232
-475.289	-109.410	-0.163	0.034
-474.274	800.000	-0.023	-0.079
-473.259	-200.000	0.012	0.214
-472.245	-44.593	0.190	0.095
-471.230	-66.637	-0.178	-0.071
-470.216	34.996	0.155	0.135
-469.201	712.599	-0.064	0.169
-468.186	800.000	0.042	0.151
-467.172	451.535	-0.081	0.177
-466.157	-200.000	0.027	0.267
-465.143	-200.000	-0.004	-0.026
-464.128	15.202	-0.093	-0.072
-463.113	-54.602	0.185	0.083
-462.099	-73.886	-0.177	-0.064
-461.084	-86.529	-0.175	0.053
-460.070	243.033	0.069	0.116
-459.055	269.626	-0.301	0.526
-458.040	-111.204	0.037	-0.008
-457.026	-200.000	-0.002	0.196
-456.011	800.000	-0.063	0.187
-454.997	-80.426	0.183	-0.061
-453.982	-124.457	-0.150	0.023
-452.968	-156.942	0.251	-0.015
-451.953	-42.886	0.118	0.060
-450.938	-200.000	-0.029	-0.152
-449.924	54.864	-0.176	-0.169
-448.909	-26.351	-0.421	0.246
-447.895	-200.000	-0.013	0.261
-446.880	115.150	0.081	-0.099
-445.865	-101.027	0.141	0.034
-444.851	-150.324	-0.105	0.008
-443.836	-9.394	0.294	-0.196
-442.822	-59.733	0.229	0.098
-441.807	-153.602	-0.037	0.003
-440.792	69.393	-0.175	0.179
-439.778	214.119	0.131	-0.207
-438.763	-18.591	0.137	0.085
-437.749	65.005	-0.112	-0.112
-436.734	-91.107	-0.212	-0.060
-435.719	800.000	0.055	-0.196
-434.705	-91.736	-0.081	-0.023
-433.690	468.649	0.122	0.272
-432.676	-200.000	0.267	-0.001
-431.661	341.386	-0.084	-0.164
-430.646	800.000	-0.051	0.212
-429.632	12.040	0.171	0.131
-428.617	-87.886	0.181	-0.054
-427.603	66.536	0.188	0.190
-426.588	73.211	-0.169	0.175
-425.573	-200.000	0.023	0.266
-424.559	646.219	0.081	0.207
-423.544	23.780	0.089	-0.073
-422.530	-135.183	-0.334	0.040
-421.515	-69.962	0.445	-0.169
-420.500	-91.577	-0.207	0.059
-419.486	-71.103	-0.141	-0.053
-418.471	800.000	-0.063	-0.218
-417.457	310.707	-0.118	0.219
-416.442	-149.639	0.056	-0.004
-415.428	-200.000	0.031	-0.157
-414.413	25.910	-0.065	0.054
-413.398	-74.986	0.308	0.110
-412.384	-83.746	0.111	0.035
-411.369	46.822	0.045	-0.041
-410.355	168.264	-0.169	0.239
-409.340	119.969	-0.118	-0.146
-408.325	-102.913	0.348	-0.082
-407.311	244.715	-0.104	0.175
-406.296	121.346	0.099	-0.122
-405.282	758.739	-0.024	0.064
-404.267	-4.326	-0.217	0.150
-403.252	-115.409	-0.165	0.031
-402.238	800.000	-0.077	0.283
-401.223	800.000	0.020	0.056
-400.209	-200.000	0.046	0.369
-399.194	39.736	0.064	-0.057
-398.179	365.000	0.040	-0.080
-397.165	-200.000	0.014	0.186
-396.150	800.000	-0.100	0.365
-395.136	128.034	-0.034	0.042
-394.121	-63.102	-0.217	-0.089
-393.106	800.000	0.106	0.425
-392.092	430.936	-0.119	0.256
-391.077	38.487	0.217	0.192
-390.063	287.623	0.073	0.132
-389.048	-87.825	-0.457	-0.137
-388.033	-92.266	-0.262	-0.073
-387.019	-200.000	-0.007	-0.303
-386.004	-106.287	-0.149	-0.033
-384.990	42.895	0.114	-0.103
-383.975	36.419	-0.041	-0.036
-382.960	-161.682	-0.133	-0.007
-381.946	800.000	-0.018	0.069
-380.931	-15.858	0.001	0.001
-379.917	203.036	0.051	-0.079
-378.902	-117.181	-0.288	-0.052
-377.888	23.687	0.072	-0.059
-376.873	29.451	-0.132	-0.112
-375.858	741.739	0.103	-0.275
-374.844	5.233	0.080	-0.058
-373.829	-35.258	-0.126	-0.068
-372.815	800.000	-0.055	-0.200
-371.800	195.059	0.102	0.154
-370.785	45.833	-0.151	0.138
-369.771	-25.927	0.202	-0.118
-368.756	800.000	-0.063	-0.216
-367.742	-200.000	0.017	-0.125
-366.727	-35.166	-0.124	-0.067
-365.712	83.422	0.133	0.143
-364.698	-200.000	-0.018	-0.287
-363.683	-103.274	0.143	0.033
-362.669	90.610	0.108	-0.120
-361.654	87.652	0.015	0.016
-360.639	-3.264	0.155	-0.107
-359.625	656.955	-0.055	-0.141
-358.610	742.234	-0.048	-0.128
-357.596	-70.980	0.094	0.035
-356.581	-82.512	-0.277	-0.089
-355.566	-200.000	0.043	-0.260
-354.552	-50.100	-0.202	0.095
-353.537	-43.652	-0.182	0.091
-352.523	103.911	-0.190	0.222
-351.508	543.842	-0.094	-0.223
-350.493	-144.211	0.425	-0.039
-349.479	2.854	0.055	0.040
-348.464	-133.209	0.087	-0.011
-347.450	800.000	0.092	0.291
-346.435	259.902	0.043	0.074
-345.420	-200.000	-0.021	0.104
-344.406	177.195	0.069	-0.099
-343.391	-200.000	-0.010	0.222
-342.377	162.061	0.166	0.230
-341.362	105.313	0.140	0.164
-340.348	11.801	0.176	0.134
-339.333	800.000	0.067	0.268
-338.318	81.136	0.141	-0.151
-337.304	-85.880	-0.184	0.056
-336.289	-200.000	-0.005	-0.209
-335.275	197.760	-0.147	0.222
-334.260	19.062	0.085	0.067
-333.245	-66.310	-0.233	-0.092
-332.231	800.000	0.067	-0.217
-331.216	-200.000	0.092	0.441
-330.202	-51.689	0.137	-0.063
-329.187	101.671	0.051	0.059
-328.172	-200.000	-0.044	0.294
-327.158	800.000	-0.083	0.304
-326.143	123.336	-0.232	0.289
-325.129	-200.000	-0.006	0.112
-324.114	689.520	0.075	-0.196
-323.099	800.000	0.064	-0.266
-322.085	134.708	-0.155	0.200
-321.070	521.332	-0.028	-0.064
-320.056	-78.390	-0.290	0.098
-319.041	79.275	-0.237	-0.251
-318.026	643.322	0.181	-0.456
-317.012	291.729	-0.167	-0.301
-315.997	52.726	0.287	-0.272
-314.983	800.000	-0.096	0.346
-313.968	238.024	0.056	-0.092
-312.953	-68.432	-0.303	-0.116
-311.939	-101.756	0.129	-0.031
-310.924	-200.000	0.004	-0.115
-309.910	0.857	0.268	-0.190
-308.895	302.416	0.182	0.334
-307.880	354.436	-0.142	-0.279
-306.866	-68.974	-0.223	0.085
-305.851	-79.766	0.255	0.085
-304.837	50.947	-0.121	-0.113
-303.822	-200.000	-0.003	-0.244
-302.807	-153.076	-0.197	-0.014
-301.793	483.894	-0.065	0.147
-300.778	-89.933	-0.198	0.057
-299.764	-200.000	0.167	0.000
-298.749	485.819	0.067	0.152
-297.735	64.631	-0.195	0.195
-296.720	-117.497	-0.084	0.015
-295.705	-200.000	-0.046	-0.302
-294.691	-22.843	0.411	0.245
-293.676	800.000	0.061	-0.187
-292.662	-70.375	0.480	0.180
-291.647	-102.354	-0.147	0.035
-290.632	417.936	0.192	-0.407
-289.618	-200.000	-0.012	0.070
-288.603	-200.000	0.007	0.100
-287.589	-200.000	0.000	-0.136
-286.574	324.885	-0.077	-0.145
-285.559	554.873	-0.099	0.236
-284.545	-27.214	-0.097	0.056
-283.530	9.128	-0.278	-0.208
-282.516	800.000	0.054	-0.209
-281.501	-185.629	0.244	-0.004
-280.486	153.306	-0.180	-0.244
-279.472	256.876	0.076	-0.129
-278.457	-200.000	-0.001	-0.054
-277.443	-55.384	-0.139	-0.062
-276.428	-130.761	0.063	0.008
-275.413	110.798	0.098	-0.117
-274.399	7.853	-0.107	0.079
-273.384	800.000	-0.032	0.099
-272.370	347.911	-0.147	0.286
-271.355	-132.001	0.412	0.053
-270.340	294.777	0.026	0.047
-269.326	-12.846	-0.255	0.165
-268.311	-78.294	-0.396	0.134
-267.297	45.287	-0.467	0.426
-266.282	-99.398	-0.501	-0.125
-265.267	800.000	-0.094	0.283
-264.253	-50.729	-0.290	0.135
-263.238	-200.000	0.015	0.067
-262.224	34.185	0.090	0.078
-261.209	-200.000	-0.000	0.300
-260.195	794.047	0.129	0.350
-259.180	-130.348	0.422	-0.057
-258.165	-200.000	0.023	0.201
-257.151	28.512	0.378	-0.316
-256.136	-172.944	0.250	0.008
-255.122	711.400	0.121	-0.317
-254.107	-99.240	0.377	0.094
-253.092	62.114	0.280	0.276
-252.078	-200.000	0.155	-0.001
-251.063	58.971	0.175	0.170
-250.049	800.000	-0.219	-0.605
-249.034	-200.000	-0.015	-0.233
-248.019	155.210	0.065	0.089
-247.005	-20.794	0.121	0.073
-245.990	13.551	0.212	0.162
-244.976	104.012	-0.206	0.240
-243.961	-32.672	-0.304	-0.167
-242.946	-60.831	-0.244	0.102
-241.932	-78.851	0.220	-0.074
-240.917	-101.322	-0.431	-0.104
-239.903	-200.000	-0.039	0.173
-238.888	-93.463	0.344	0.094
-237.873	-170.167	-0.422	-0.015
-236.859	-200.000	0.001	0.017
-235.844	-118.271	-0.183	0.032
-234.830	-35.238	0.083	-0.044
-233.815	-28.218	-0.127	0.072
-232.800	-200.000	-0.042	0.264
-231.786	139.816	0.268	0.349
-230.771	-152.911	-0.139	-0.010
-229.757	79.911	0.459	0.487
-228.742	-47.154	-0.135	0.065
-227.727	-103.277	0.371	0.086
-226.713	-93.391	0.252	0.069
-225.698	40.458	-0.121	0.108
-224.684	107.585	-0.204	-0.239
-223.669	-13.158	-0.278	0.178
-222.655	27.295	0.136	0.113
-221.640	-200.000	-0.007	-0.282
-220.625	108.084	0.202	-0.238
-219.611	-90.793	0.275	-0.078
-218.596	-165.633	-0.200	-0.009
-217.582	91.456	0.283	-0.314
-216.567	231.633	-0.032	0.052
-215.552	113.139	0.201	-0.241
-214.538	-200.000	-0.058	0.379
-213.523	-200.000	-0.029	-0.173
-212.509	-77.802	-0.166	-0.056
-211.494	35.245	0.198	0.171
-210.479	-7.113	0.406	0.272
-209.465	56.876	0.134	-0.129
-208.450	623.308	0.131	-0.325
-207.436	-200.000	-0.034	-0.156
-206.421	-54.581	-0.234	0.104
-205.406	800.000	-0.029	0.086
-204.392	-7.672	0.016	-0.011
-203.377	-200.000	-0.014	0.154
-202.363	24.100	-0.098	0.080
-201.348	143.648	0.163	-0.215
-200.333	112.057	-0.342	0.407
-199.319	-69.034	0.054	0.021
-198.304	-200.000	-0.038	0.231
-197.290	-43.481	-0.169	-0.084
-196.275	-34.264	0.191	0.103
-195.260	-47.772	-0.317	-0.152
-194.246	-3.677	0.150	-0.103
-193.231	-200.000	-0.010	0.076
-192.217	-117.110	0.228	-0.041
-191.202	-200.000	0.007	-0.467
-190.187	199.122	-0.068	-0.103
-189.173	-94.755	-0.079	-0.021
-188.158	-96.953	0.366	-0.095
-187.144	-200.000	0.022	-0.154
-186.129	-35.931	0.141	0.075
-185.114	-45.254	0.271	0.133
-184.100	-200.000	0.024	0.358
-183.085	143.067	-0.196	0.257
-182.071	-108.605	0.226	-0.048
-181.056	-200.000	0.007	0.151
-180.042	108.435	0.064	0.075
-179.027	-200.000	0.001	0.071
-178.012	-163.822	-0.086	-0.004
-176.998	-200.000	0.029	-0.246
-175.983	-200.000	0.011	-0.302
-174.969	204.995	0.125	-0.191
-173.954	-61.924	0.467	-0.192
-172.939	-87.404	0.268	-0.080
-171.925	42.588	-0.132	0.119
-170.910	187.252	0.121	0.178
-169.896	-200.000	-0.010	-0.174
-168.881	12.773	-0.171	-0.130
-167.866	-138.261	-0.198	0.022
-166.852	-50.960	0.075	-0.034
-165.837	-15.485	0.021	0.013
-164.823	-200.000	0.013	0.126
-163.808	-200.000	0.029	-0.199
-162.793	-95.387	0.123	0.033
-161.779	774.671	-0.055	-0.146
-160.764	330.170	0.123	-0.233
-159.750	-200.000	0.022	-0.209
-158.735	3.891	-0.065	-0.047
-157.720	52.990	-0.313	-0.294
-156.706	800.000	-0.103	-0.389
-155.691	-200.000	0.057	0.283
-154.677	234.666	0.219	-0.355
-153.662	-66.935	0.192	0.075
-152.647	460.070	0.156	0.342
-151.633	-200.000	0.008	-0.084
-150.618	800.000	-0.055	-0.229
-149.604	-35.734	-0.154	0.082
-148.589	187.484	-0.204	0.299
-147.574	800.000	0.080	0.302
-146.560	-200.000	-0.052	0.319
-145.545	528.567	0.116	0.269
-144.531	-17.239	-0.310	-0.193
-143.516	-79.026	0.220	0.073
-142.502	-200.000	0.021	0.101
-141.487	-74.013	-0.051	-0.018
-140.472	16.088	0.084	0.065
-139.458	150.157	0.235	-0.314
-138.443	800.000	0.091	-0.303
-137.429	-143.167	0.269	-0.025
-136.414	-65.511	0.059	-0.023
-135.399	-125.799	-0.214	-0.032
-134.385	-111.414	-0.179	-0.036
-133.370	334.895	0.115	-0.220
-132.356	166.512	0.039	-0.054
-131.341	-74.834	-0.265	0.094
-130.326	-137.680	0.081	0.009
-129.312	82.625	-0.215	-0.230
-128.297	-117.344	-0.367	-0.065
-127.283	-138.017	0.483	-0.053
-126.268	-25.982	0.055	-0.032
-125.253	6.155	-0.094	0.069
-124.239	-1.985	0.073	-0.050
-123.224	-152.684	-0.188	-0.013
-122.210	61.615	-0.213	0.208
-121.195	89.567	0.106	-0.116
