DTS Sentinel unit serial number:	SN413079Multiplexer serial number:	ORYXHardware model number:	OX4-SRSoftware version number:	ORYX F/W v4.00 Oryx Data Collector v3.7.2.0data status	okinstallation	princeton_trtdifferential loss correction	single-endedforward channel	channel 2reverse channel	N/Adate	2019/09/15time	06:23:35forward acquisition time	60.00reverse acquisition time	0.00gamma	496.2192k internal	0.2326k external	0.2326temperature offset calibration	1.0035default loss term (dB/km)	0.3790temperature slope calibration	1.0000multiplexer offset coefficient	1.0000multiplexer slope coefficient	1.0000fibre end	0.00T internal ref (°C)	30.50T ext. ref 1 (°C)	4.84T ext. ref 2 (°C)	25.32length (m)	temperature (°C)	Stokes	anti-Stokes-747.200	-164.364	-0.406	0.019
-746.185	-126.219	0.241	-0.036
-745.171	-168.457	-0.301	0.012
-744.156	-200.000	0.012	0.139
-743.142	-43.623	0.241	0.122
-742.127	44.299	-0.200	0.185
-741.112	-153.496	0.139	0.010
-740.098	-75.933	0.149	-0.053
-739.083	-88.090	0.105	0.032
-738.069	-200.000	-0.070	0.410
-737.054	137.570	0.215	-0.284
-736.039	-87.716	0.149	0.045
-735.025	-107.192	-0.038	-0.009
-734.010	738.865	0.126	0.342
-732.996	-111.549	-0.248	0.051
-731.981	-5.733	0.174	-0.121
-730.966	512.323	-0.136	-0.321
-729.952	-200.000	0.018	-0.148
-728.937	42.445	-0.173	0.159
-727.923	800.000	0.031	0.095
-726.908	-26.230	-0.481	-0.285
-725.894	304.956	-0.121	-0.226
-724.879	-37.507	0.037	-0.020
-723.864	-19.241	-0.068	-0.042
-722.850	61.246	0.126	-0.127
-721.835	-31.716	-0.276	-0.156
-720.821	407.784	0.076	-0.161
-719.806	-113.504	0.267	-0.053
-718.791	-77.588	-0.265	0.093
-717.777	800.000	0.111	-0.325
-716.762	800.000	-0.054	-0.208
-715.748	-200.000	-0.042	-0.202
-714.733	7.789	-0.135	-0.102
-713.718	-23.543	0.062	0.037
-712.704	215.274	0.020	-0.032
-711.689	154.128	0.069	-0.096
-710.675	-200.000	0.013	-0.118
-709.660	230.754	-0.069	0.115
-708.645	800.000	0.065	0.217
-707.631	257.211	0.056	-0.097
-706.616	140.633	0.145	0.192
-705.602	-200.000	-0.003	0.035
-704.587	241.355	0.151	-0.255
-703.572	-200.000	-0.003	0.149
-702.558	-96.028	0.309	-0.083
-701.543	-119.252	0.271	-0.048
-700.529	-80.811	0.313	-0.104
-699.514	-200.000	-0.062	-0.307
-698.499	800.000	-0.050	-0.150
-697.485	800.000	-0.064	0.249
-696.470	-112.546	-0.319	0.064
-695.456	-71.012	-0.098	-0.037
-694.441	92.767	0.238	0.270
-693.426	800.000	-0.054	-0.172
-692.412	-27.685	0.113	-0.066
-691.397	225.179	0.212	0.346
-690.383	483.676	-0.084	0.193
-689.368	-107.099	-0.250	0.056
-688.354	-49.789	0.234	0.112
-687.339	-74.982	0.058	0.021
-686.324	353.895	-0.124	-0.248
-685.310	23.068	0.009	-0.008
-684.295	209.590	-0.031	-0.048
-683.281	-87.090	0.139	0.043
-682.266	-35.218	-0.073	-0.040
-681.251	-41.501	-0.373	-0.193
-680.237	170.363	0.269	-0.387
-679.222	-56.623	-0.442	-0.197
-678.208	-111.297	-0.145	-0.030
-677.193	-19.280	-0.292	-0.182
-676.178	251.337	0.165	0.283
-675.164	-126.196	0.089	0.013
-674.149	223.715	-0.097	0.158
-673.135	-39.194	-0.157	0.083
-672.120	65.927	0.199	0.203
-671.105	-200.000	0.005	-0.057
-670.091	-55.811	0.469	-0.211
-669.076	-94.798	-0.366	-0.100
-668.062	800.000	0.052	0.174
-667.047	-91.891	-0.438	-0.125
-666.032	-200.000	0.043	-0.308
-665.018	-27.460	0.319	0.187
-664.003	43.375	0.026	0.024
-662.989	800.000	-0.057	-0.190
-661.974	-174.348	-0.319	0.009
-660.959	-200.000	-0.052	0.509
-659.945	-72.839	0.169	-0.063
-658.930	-41.533	0.169	-0.087
-657.916	-90.327	0.157	-0.046
-656.901	800.000	0.047	0.190
-655.886	376.981	-0.097	-0.200
-654.872	250.789	-0.214	0.365
-653.857	-200.000	0.016	-0.309
-652.843	-200.000	-0.041	0.203
-651.828	291.630	-0.093	-0.170
-650.814	-12.903	-0.126	0.083
-649.799	-17.389	-0.353	0.223
-648.784	-41.874	-0.258	-0.133
-647.770	319.528	-0.067	-0.127
-646.755	-42.379	-0.214	-0.110
-645.741	392.935	0.221	-0.463
-644.726	800.000	-0.127	-0.354
-643.711	-163.799	0.122	-0.006
-642.697	-51.678	0.208	0.097
-641.682	-184.158	0.057	0.001
-640.668	-200.000	0.040	0.308
-639.653	-5.931	0.036	-0.024
-638.638	-115.038	0.101	0.019
-637.624	800.000	-0.031	-0.096
-636.609	-200.000	0.003	-0.065
-635.595	-200.000	-0.043	0.309
-634.580	-56.732	0.294	-0.130
-633.565	70.972	-0.099	0.103
-632.551	-12.264	-0.269	0.177
-631.536	-59.116	-0.207	0.090
-630.522	170.270	0.219	-0.315
-629.507	-102.697	0.140	0.034
-628.492	-1.196	-0.145	-0.103
-627.478	-200.000	0.027	-0.173
-626.463	10.815	-0.278	0.213
-625.449	65.080	-0.074	-0.075
-624.434	55.783	-0.071	-0.069
-623.419	-109.835	0.355	-0.075
-622.405	-105.431	-0.150	0.034
-621.390	492.616	0.038	0.087
-620.376	-200.000	-0.031	0.149
-619.361	0.837	-0.028	-0.020
-618.346	-60.261	-0.109	-0.047
-617.332	-192.104	-0.652	0.006
-616.317	10.866	0.175	0.134
-615.303	-164.273	0.353	-0.016
-614.288	-125.435	0.177	0.027
-613.273	153.325	-0.062	0.085
-612.259	-200.000	0.046	-0.316
-611.244	-89.446	-0.240	-0.071
-610.230	-90.367	-0.494	-0.144
-609.215	48.037	0.086	-0.080
-608.201	715.307	0.113	-0.301
-607.186	-108.334	0.092	0.020
-606.171	348.437	-0.053	0.104
-605.157	316.449	-0.030	-0.057
-604.142	261.982	0.109	0.190
-603.128	788.447	0.059	-0.161
-602.113	-132.036	0.171	-0.022
-601.098	34.754	-0.117	-0.102
-600.084	-57.322	0.069	-0.031
-599.069	-200.000	-0.037	-0.168
-598.055	444.047	0.069	0.151
-597.040	21.533	-0.250	0.204
-596.025	800.000	0.031	-0.092
-595.011	-91.231	-0.234	0.067
-593.996	-179.697	-0.202	-0.004
-592.982	288.657	0.092	0.167
-591.967	491.937	-0.042	-0.096
-590.952	-55.809	0.116	-0.052
-589.938	154.276	-0.012	0.016
-588.923	-36.228	-0.061	-0.033
-587.909	-80.391	-0.375	0.125
-586.894	137.153	-0.119	0.156
-585.879	-40.700	-0.071	-0.037
-584.865	-112.529	0.385	-0.077
-583.850	-200.000	-0.021	-0.276
-582.836	43.054	-0.275	0.252
-581.821	56.872	0.138	0.135
-580.806	800.000	0.037	-0.118
-579.792	45.445	-0.123	0.114
-578.777	62.900	0.192	0.193
-577.763	800.000	0.053	0.174
-576.748	-200.000	-0.021	-0.184
-575.733	22.045	-0.397	0.325
-574.719	-163.881	0.172	0.008
-573.704	107.640	0.056	0.067
-572.690	109.529	0.289	0.347
-571.675	216.850	0.092	-0.146
-570.661	102.514	-0.162	0.190
-569.646	-200.000	0.016	0.143
-568.631	-33.979	-0.364	-0.201
-567.617	205.422	0.068	-0.106
-566.602	-107.493	-0.083	0.018
-565.588	-200.000	0.008	-0.054
-564.573	212.235	0.159	-0.250
-563.558	557.933	0.150	0.363
-562.544	-127.570	-0.236	-0.034
-561.529	-200.000	0.016	0.071
-560.515	369.517	-0.111	0.225
-559.500	-54.808	0.071	0.032
-558.485	49.998	0.078	0.074
-557.471	-84.391	-0.165	-0.052
-556.456	-171.345	-0.202	-0.007
-555.442	800.000	-0.104	0.379
-554.427	-80.438	-0.365	0.122
-553.412	196.292	-0.084	-0.129
-552.398	-24.751	-0.218	0.130
-551.383	370.717	-0.117	0.238
-550.369	61.491	-0.129	-0.128
-549.354	-92.838	-0.165	-0.046
-548.339	-175.240	0.181	-0.005
-547.325	84.782	0.196	-0.215
-546.310	702.914	0.061	-0.160
-545.296	209.265	-0.084	-0.131
-544.281	483.454	0.108	0.246
-543.266	-200.000	0.013	-0.074
-542.252	-17.961	0.249	-0.156
-541.237	-109.562	0.068	-0.014
-540.223	214.388	0.166	-0.264
-539.208	800.000	0.009	-0.034
-538.193	-64.518	0.154	-0.063
-537.179	177.399	0.178	0.259
-536.164	-19.432	-0.272	0.169
-535.150	327.659	0.063	-0.121
-534.135	-200.000	0.055	-0.287
-533.121	52.392	-0.062	0.060
-532.106	414.467	-0.066	0.140
-531.091	81.234	-0.234	0.252
-530.077	-79.027	0.238	0.081
-529.062	-200.000	-0.043	0.202
-528.048	-200.000	0.017	-0.096
-527.033	-55.432	-0.034	0.015
-526.018	-74.085	0.581	-0.210
-525.004	44.397	-0.152	-0.140
-523.989	39.856	0.197	-0.177
-522.975	-200.000	0.010	0.228
-521.960	-84.434	-0.143	0.045
-520.945	-122.789	0.024	0.004
-519.931	520.076	0.088	0.206
-518.916	-158.710	-0.167	-0.010
-517.902	800.000	0.117	-0.398
-516.887	295.032	0.165	0.302
-515.872	800.000	0.057	0.177
-514.858	321.252	-0.147	0.280
-513.843	-200.000	0.028	-0.168
-512.829	-200.000	-0.010	0.084
-511.814	754.486	-0.044	-0.118
-510.799	13.747	-0.242	0.188
-509.785	18.668	0.087	-0.069
-508.770	-67.036	-0.099	-0.039
-507.756	-37.621	-0.258	0.137
-506.741	-124.189	-0.232	-0.036
-505.726	-38.510	0.157	-0.083
-504.712	660.837	0.076	0.195
-503.697	-78.586	-0.187	0.064
-502.683	104.769	-0.076	-0.090
-501.668	571.549	0.098	-0.238
-500.653	-120.407	0.309	-0.052
-499.639	31.443	0.136	0.117
-498.624	-58.516	0.219	0.095
-497.610	-22.292	-0.364	0.221
-496.595	510.771	-0.115	0.267
-495.581	70.232	-0.123	-0.126
-494.566	800.000	0.012	-0.040
-493.551	160.703	-0.074	-0.103
-492.537	-126.332	0.232	-0.035
-491.522	800.000	-0.096	-0.307
-490.508	-200.000	-0.042	0.235
-489.493	197.135	-0.105	-0.159
-488.478	-98.470	0.273	0.070
-487.464	59.209	0.254	-0.250
-486.449	800.000	-0.100	-0.313
-485.435	84.100	0.080	0.087
-484.420	125.708	0.031	-0.039
-483.405	800.000	-0.024	0.087
-482.391	-99.867	0.174	0.044
-481.376	-20.890	-0.163	-0.100
-480.362	-103.569	0.251	-0.059
-479.347	-21.606	0.109	-0.066
-478.332	800.000	0.079	-0.218
-477.318	-131.245	-0.343	-0.045
-476.303	800.000	0.120	0.359
-475.289	-24.416	-0.347	0.207
-474.274	-95.312	-0.196	-0.053
-473.259	-200.000	-0.019	-0.239
-472.245	22.372	-0.227	-0.185
-471.230	-200.000	-0.045	-0.300
-470.216	103.713	0.077	0.090
-469.201	-200.000	0.014	-0.209
-468.186	147.027	0.044	-0.059
-467.172	212.155	0.027	0.042
-466.157	43.242	0.026	-0.024
-465.143	287.565	-0.037	-0.066
-464.128	221.983	0.156	-0.250
-463.113	-10.300	-0.190	0.126
-462.099	-95.262	-0.376	-0.101
-461.084	89.906	-0.126	0.140
-460.070	800.000	0.051	-0.196
-459.055	-23.574	0.017	0.010
-458.040	-28.950	-0.352	-0.202
-457.026	-22.863	0.238	-0.143
-456.011	-200.000	0.001	-0.014
-454.997	-122.292	-0.011	-0.002
-453.982	-35.044	0.287	0.156
-452.968	800.000	-0.038	0.143
-451.953	-13.208	-0.146	-0.095
-450.938	-75.448	0.040	0.014
-449.924	347.612	0.085	-0.166
-448.909	-86.340	0.112	0.034
-447.895	-114.716	0.443	-0.084
-446.880	147.914	0.201	0.271
-445.865	-58.212	0.289	0.126
-444.851	-200.000	-0.013	0.141
-443.836	-11.461	0.162	0.106
-442.822	-200.000	-0.025	-0.207
-441.807	-22.961	-0.191	-0.115
-440.792	-55.648	0.372	-0.166
-439.778	42.800	-0.049	0.044
-438.763	470.530	-0.123	0.275
-437.749	-141.459	-0.127	-0.013
-436.734	60.036	0.214	-0.211
-435.719	-81.769	0.120	0.039
-434.705	305.325	0.139	-0.258
-433.690	-200.000	0.001	-0.065
-432.676	-71.310	-0.122	0.046
-431.661	-200.000	-0.012	0.083
-430.646	-145.447	-0.206	-0.018
-429.632	-95.737	0.150	-0.040
-428.617	59.454	-0.132	0.130
-427.603	151.214	0.279	0.379
-426.588	-200.000	0.008	0.322
-425.573	-40.797	-0.189	0.098
-424.559	-200.000	0.000	-0.237
-423.544	-200.000	-0.045	-0.427
-422.530	321.649	-0.040	0.076
-421.515	-184.966	0.278	0.004
-420.500	-71.508	0.056	-0.021
-419.486	-66.363	-0.119	-0.047
-418.471	-55.169	0.081	0.036
-417.457	6.601	-0.189	0.140
-416.442	73.674	0.167	0.174
-415.428	-94.074	-0.169	0.046
-414.413	-82.752	0.156	-0.050
-413.398	-129.406	0.299	0.041
-412.384	-131.521	0.194	0.025
-411.369	800.000	-0.056	-0.172
-410.355	-84.303	0.165	-0.052
-409.340	520.857	-0.035	-0.081
-408.325	31.541	0.156	-0.134
-407.311	257.981	0.054	0.092
-406.296	531.857	-0.109	-0.256
-405.282	-151.755	0.380	-0.028
-404.267	-200.000	0.022	0.133
-403.252	529.459	-0.042	-0.098
-402.238	-102.630	0.054	0.013
-401.223	471.689	-0.085	-0.191
-400.209	335.305	-0.201	-0.388
-399.194	-63.550	0.196	0.080
-398.179	-105.048	0.084	0.019
-397.165	398.423	-0.031	0.065
-396.150	800.000	0.100	-0.297
-395.136	-119.644	0.120	0.021
-394.121	-200.000	-0.043	0.279
-393.106	-118.930	-0.281	-0.049
-392.092	-11.984	0.206	-0.134
-391.077	-48.843	0.115	0.055
-390.063	16.120	-0.160	0.126
-389.048	-53.364	0.043	0.020
-388.033	-200.000	0.068	-0.302
-387.019	-53.108	-0.240	-0.110
-386.004	-168.490	-0.161	0.006
-384.990	439.367	-0.032	0.070
-383.975	800.000	-0.073	0.260
-382.960	23.359	0.215	0.176
-381.946	-200.000	-0.055	0.370
-380.931	-30.691	-0.318	0.179
-379.917	-100.162	0.157	-0.039
-378.902	-125.096	-0.292	0.045
-377.888	345.579	-0.097	-0.189
-376.873	516.291	0.164	-0.381
-375.858	-200.000	0.019	0.342
-374.844	13.835	-0.163	-0.126
-373.829	-61.005	-0.098	-0.041
-372.815	-200.000	0.040	-0.252
-371.800	515.150	0.055	0.128
-370.785	-200.000	0.014	0.249
-369.771	95.169	0.067	0.076
-368.756	27.472	0.149	-0.125
-367.742	-137.827	-0.262	0.029
-366.727	-200.000	0.016	-0.146
-365.712	524.030	0.146	-0.342
-364.698	800.000	-0.027	0.091
-363.683	83.429	-0.178	-0.192
-362.669	90.707	0.238	-0.265
-361.654	-51.932	0.174	-0.081
-360.639	-58.519	0.099	-0.043
-359.625	438.841	-0.141	0.306
-358.610	-200.000	-0.053	0.230
-357.596	-18.807	0.197	-0.122
-356.581	340.310	0.114	-0.222
-355.566	638.017	-0.019	0.049
-354.552	-200.000	-0.014	-0.077
-353.537	-200.000	-0.050	0.225
-352.523	-200.000	-0.017	0.309
-351.508	-117.871	0.248	0.044
-350.493	-105.163	-0.115	0.026
-349.479	21.086	0.105	0.084
-348.464	-200.000	0.054	-0.332
-347.450	800.000	0.072	0.223
-346.435	241.751	-0.145	-0.240
-345.420	-200.000	-0.054	-0.310
-344.406	-135.801	0.061	0.007
-343.391	-82.465	-0.192	0.062
-342.377	-134.290	0.178	0.022
-341.362	-200.000	0.028	0.284
-340.348	-29.301	-0.109	-0.062
-339.333	43.691	0.059	0.053
-338.318	-200.000	0.029	0.229
-337.304	-13.364	-0.316	0.204
-336.289	148.722	-0.208	-0.280
-335.275	-63.678	0.480	0.195
-334.260	-149.508	-0.135	0.011
-333.245	-200.000	-0.012	0.112
-332.231	80.616	-0.088	-0.094
-331.216	-41.172	0.081	0.041
-330.202	289.924	-0.136	0.244
-329.187	43.558	0.109	-0.099
-328.172	-46.535	0.177	0.086
-327.158	23.971	0.234	-0.191
-326.143	79.493	0.126	0.134
-325.129	-109.519	0.228	0.048
-324.114	800.000	-0.061	-0.176
-323.099	-83.145	-0.413	0.132
-322.085	22.339	-0.085	0.069
-321.070	147.520	-0.107	0.143
-320.056	626.262	-0.088	0.219
-319.041	2.662	0.073	0.053
-318.026	-87.362	0.135	0.041
-317.012	-200.000	-0.010	0.312
-315.997	800.000	-0.055	0.216
-314.983	215.444	0.151	-0.238
-313.968	-200.000	-0.022	-0.116
-312.953	800.000	-0.117	-0.446
-311.939	29.952	0.188	-0.159
-310.924	-130.303	0.286	-0.039
-309.910	800.000	0.016	-0.071
-308.895	-127.381	0.108	-0.016
-307.880	287.466	0.080	-0.144
-306.866	-12.448	-0.134	0.087
-305.851	-200.000	-0.051	-0.314
-304.837	-101.373	0.265	0.064
-303.822	-140.830	0.136	0.014
-302.807	346.109	0.093	0.181
-301.793	-34.318	-0.223	0.122
-300.778	-15.382	0.202	-0.128
-299.764	565.833	0.075	0.179
-298.749	207.659	0.039	0.061
-297.735	140.184	-0.119	-0.155
-296.720	-119.030	0.216	-0.037
-295.705	-200.000	-0.002	-0.056
-294.691	117.810	0.036	0.043
-293.676	-87.396	-0.116	-0.035
-292.662	-111.767	-0.086	-0.017
-291.647	44.988	0.053	0.048
-290.632	-200.000	0.024	0.218
-289.618	-99.452	0.335	-0.084
-288.603	160.759	-0.136	-0.188
-287.589	-171.710	-0.394	-0.013
-286.574	129.107	0.085	0.107
-285.559	-26.725	0.014	-0.008
-284.545	41.348	-0.158	0.142
-283.530	800.000	-0.035	0.121
-282.516	-200.000	-0.001	-0.125
-281.501	-200.000	-0.003	-0.218
-280.486	-84.739	-0.060	0.019
-279.472	62.227	0.252	-0.250
-278.457	582.656	0.117	-0.285
-277.443	-102.354	-0.229	-0.054
-276.428	-59.013	0.242	0.103
-275.413	800.000	0.039	-0.141
-274.399	2.376	-0.164	-0.117
-273.384	-25.295	-0.090	-0.053
-272.370	-16.057	0.092	-0.058
-271.355	358.182	0.041	-0.081
-270.340	-43.434	0.220	-0.110
-269.326	-85.626	0.146	-0.045
-268.311	-126.029	-0.036	0.005
-267.297	-119.483	0.415	0.071
-266.282	20.712	-0.141	0.113
-265.267	517.578	-0.194	-0.449
-264.253	24.126	-0.075	-0.061
-263.238	-100.248	0.092	-0.023
-262.224	-14.431	-0.144	-0.092
-261.209	-2.041	0.128	0.089
-260.195	68.027	0.176	-0.178
-259.180	-18.445	-0.094	0.058
-258.165	19.045	-0.188	0.149
-257.151	-29.165	0.139	0.079
-256.136	81.885	0.168	-0.180
-255.122	800.000	0.037	-0.148
-254.107	-200.000	0.017	0.274
-253.092	20.946	0.070	-0.056
-252.078	-200.000	-0.015	-0.101
-251.063	-200.000	-0.046	-0.288
-250.049	-200.000	0.036	-0.185
-249.034	-50.886	-0.312	0.145
-248.019	-99.780	-0.288	0.071
-247.005	-109.246	-0.097	0.020
-245.990	-50.950	-0.288	0.134
-244.976	-200.000	-0.027	0.216
-243.961	-98.273	-0.359	-0.091
-242.946	800.000	-0.115	-0.456
-241.932	-200.000	0.013	-0.092
-240.917	383.496	-0.094	0.191
-239.903	54.161	0.067	-0.064
-238.888	64.493	0.090	0.090
-237.873	36.844	-0.367	0.320
-236.859	-2.740	0.098	0.068
-235.844	-0.401	0.260	0.182
-234.830	46.176	-0.139	0.128
-233.815	-22.855	-0.180	0.107
-232.800	-75.358	-0.189	-0.067
-231.786	-67.774	-0.114	0.044
-230.771	-33.033	0.043	0.024
-229.757	-39.329	-0.294	0.152
-228.742	-22.547	0.136	0.081
-227.727	191.549	-0.163	0.243
-226.713	-28.681	-0.177	-0.101
-225.698	-200.000	-0.023	0.123
-224.684	-200.000	0.042	0.429
-223.669	-200.000	-0.011	-0.144
-222.655	-116.725	-0.180	-0.033
-221.640	260.317	0.045	-0.078
-220.625	-125.783	0.316	0.047
-219.611	-118.551	0.276	0.048
-218.596	13.349	-0.081	0.062
-217.582	44.559	-0.109	-0.099
-216.567	-200.000	-0.028	0.155
-215.552	213.427	-0.131	-0.204
-214.538	-122.572	0.118	-0.019
-213.523	-200.000	-0.034	0.189
-212.509	-56.688	-0.177	-0.077
-211.494	-92.129	-0.456	-0.127
-210.479	-94.982	-0.273	0.073
-209.465	10.512	-0.360	0.271
-208.450	-200.000	0.013	0.076
-207.436	382.481	0.036	0.072
-206.421	-200.000	-0.019	0.659
-205.406	-136.800	-0.371	0.042
-204.392	-9.752	-0.010	0.007
-203.377	75.509	0.112	-0.117
-202.363	-123.376	-0.216	0.034
-201.348	223.823	0.058	0.093
-200.333	-200.000	0.057	-0.300
-199.319	44.448	0.121	-0.110
-198.304	-140.839	0.215	0.022
-197.290	159.788	-0.232	0.319
-196.275	-2.563	0.105	0.073
-195.260	427.784	-0.127	0.271
-194.246	-200.000	0.010	0.120
-193.231	-25.789	0.263	-0.153
-192.217	-104.457	0.215	-0.049
-191.202	310.088	0.134	0.247
-190.187	734.929	0.052	0.139
-189.173	2.021	0.144	-0.103
-188.158	800.000	0.060	-0.190
-187.144	11.937	0.225	0.171
-186.129	-200.000	0.006	0.191
-185.114	-122.814	-0.175	-0.028
-184.100	-88.930	-0.205	-0.060
-183.085	800.000	0.039	-0.162
-182.071	-98.191	0.207	-0.053
-181.056	14.038	0.028	0.022
-180.042	-122.440	0.115	0.018
-179.027	-200.000	0.013	0.087
-178.012	-103.210	-0.272	0.064
-176.998	588.554	0.092	0.225
-175.983	390.361	-0.037	-0.076
-174.969	-200.000	0.049	-0.292
-173.954	-105.344	0.150	0.034
-172.939	-38.974	0.164	-0.085
-171.925	-113.935	0.089	-0.017
-170.910	-200.000	0.010	0.049
-169.896	-200.000	-0.009	-0.335
-168.881	169.231	0.170	0.239
-167.866	-58.873	-0.066	0.028
-166.852	-123.705	-0.247	0.039
-165.837	-96.874	0.205	-0.053
-164.823	-10.535	0.127	-0.083
-163.808	-3.607	0.273	-0.187
-162.793	146.916	0.074	-0.098
-161.779	453.730	0.108	-0.237
-160.764	162.421	0.257	-0.355
-159.750	-137.901	-0.137	0.015
-158.735	270.363	0.066	0.115
-157.720	800.000	0.071	0.298
-156.706	-18.875	-0.281	0.172
-155.691	-64.957	0.089	-0.036
-154.677	-52.687	0.256	-0.117
-153.662	800.000	-0.045	0.141
-152.647	-200.000	0.006	-0.116
-151.633	61.976	0.135	0.132
-150.618	-92.239	0.345	0.096
-149.604	-200.000	0.038	0.435
-148.589	-28.892	0.149	-0.084
-147.574	-200.000	0.006	0.133
-146.560	284.256	-0.042	-0.074
-145.545	-50.516	0.176	0.082
-144.531	-164.028	0.154	-0.007
-143.516	118.449	0.132	-0.161
-142.502	139.322	-0.193	-0.250
-141.487	11.725	-0.293	0.222
-140.472	-200.000	-0.156	0.691
-139.458	-73.548	-0.060	0.022
-138.443	-109.602	-0.150	-0.031
-137.429	218.281	-0.076	0.120
-136.414	44.796	0.389	-0.352
-135.399	-200.000	0.004	-0.147
-134.385	514.762	-0.093	-0.214
-133.370	800.000	0.053	0.194
-132.356	513.357	0.131	-0.301
-131.341	-200.000	0.008	0.110
-130.326	800.000	-0.071	0.271
-129.312	-200.000	0.026	0.162
-128.297	18.354	0.263	-0.207
-127.283	271.907	0.114	0.198
-126.268	-116.177	-0.357	-0.065
-125.253	-137.873	0.084	-0.009
-124.239	-148.105	0.417	0.034
-123.224	-200.000	0.063	0.321
-122.210	-200.000	-0.054	0.247
-121.195	1.519	-0.054	-0.038
