DTS Sentinel unit serial number:	SN413079Multiplexer serial number:	ORYXHardware model number:	OX4-SRSoftware version number:	ORYX F/W v4.00 Oryx Data Collector v3.7.2.0data status	okinstallation	princeton_trtdifferential loss correction	single-endedforward channel	channel 2reverse channel	N/Adate	2019/09/16time	15:39:34forward acquisition time	60.00reverse acquisition time	0.00gamma	496.2192k internal	0.2298k external	0.2298temperature offset calibration	0.9939default loss term (dB/km)	0.3790temperature slope calibration	1.0000multiplexer offset coefficient	1.0000multiplexer slope coefficient	1.0000fibre end	0.00T internal ref (°C)	41.16T ext. ref 1 (°C)	14.75T ext. ref 2 (°C)	36.56length (m)	temperature (°C)	Stokes	anti-Stokes-747.200	23.845	-0.401	0.337
-746.185	-200.000	-0.069	0.379
-745.171	-45.666	0.214	-0.108
-744.156	160.280	-0.147	0.209
-743.142	333.894	0.159	-0.314
-742.127	-200.000	-0.016	0.425
-741.112	31.621	0.033	0.029
-740.098	759.149	0.174	0.481
-739.083	70.839	-0.234	0.247
-738.069	367.873	-0.066	-0.136
-737.054	2.694	-0.147	-0.109
-736.039	25.466	-0.142	0.120
-735.025	438.552	0.107	0.237
-734.010	-3.793	-0.274	0.194
-732.996	-182.273	-0.290	-0.006
-731.981	35.043	-0.292	-0.261
-730.966	-4.197	-0.107	-0.076
-729.952	101.152	-0.331	0.393
-728.937	82.118	0.229	0.254
-727.923	-65.580	-0.242	-0.099
-726.908	171.049	-0.125	-0.183
-725.894	35.334	-0.163	-0.145
-724.879	-25.686	-0.197	0.119
-723.864	-58.766	-0.121	-0.054
-722.850	199.560	0.156	0.244
-721.835	800.000	-0.111	0.330
-720.821	105.897	0.126	-0.152
-719.806	3.053	-0.209	-0.155
-718.791	734.624	0.184	-0.503
-717.777	-63.162	-0.091	-0.038
-716.762	-200.000	-0.004	0.197
-715.748	81.638	-0.294	0.325
-714.733	800.000	-0.082	0.244
-713.718	32.167	-0.331	0.291
-712.704	39.653	-0.175	0.160
-711.689	-74.182	0.148	0.055
-710.675	-200.000	-0.009	0.159
-709.660	25.227	-0.193	-0.163
-708.645	591.404	-0.177	-0.447
-707.631	-129.953	0.039	0.005
-706.616	67.775	-0.253	0.264
-705.602	-200.000	-0.001	0.120
-704.587	256.057	0.231	-0.403
-703.572	-61.192	0.161	-0.069
-702.558	800.000	-0.074	-0.262
-701.543	294.120	0.206	0.384
-700.529	176.935	0.340	0.505
-699.514	354.531	0.095	0.192
-698.499	-200.000	-0.018	-0.331
-697.485	28.213	0.101	-0.087
-696.470	42.494	-0.217	-0.201
-695.456	-49.261	0.342	0.166
-694.441	-121.592	0.214	-0.036
-693.426	-200.000	-0.027	-0.275
-692.412	479.515	-0.041	-0.094
-691.397	343.321	-0.121	-0.242
-690.383	197.519	-0.171	-0.267
-689.368	-0.344	0.281	-0.204
-688.354	709.351	0.037	-0.100
-687.339	-119.354	-0.272	0.048
-686.324	-99.357	0.069	-0.018
-685.310	-33.007	-0.037	0.021
-684.295	760.260	0.036	-0.099
-683.281	-47.570	-0.266	0.132
-682.266	1.914	0.208	-0.153
-681.251	-200.000	-0.005	-0.311
-680.237	-200.000	-0.044	-0.279
-679.222	-1.701	0.134	0.096
-678.208	573.182	-0.113	0.280
-677.193	106.384	0.187	-0.225
-676.178	93.620	-0.204	-0.236
-675.164	800.000	0.023	-0.093
-674.149	3.376	0.250	0.185
-673.135	66.621	0.191	-0.198
-672.120	73.768	0.042	0.045
-671.105	-200.000	0.047	0.284
-670.091	-84.412	-0.156	-0.050
-669.076	-200.000	0.009	-0.046
-668.062	-49.100	0.134	-0.065
-667.047	41.452	0.075	0.069
-666.032	-2.352	0.125	0.089
-665.018	-95.863	0.187	0.051
-664.003	-200.000	0.020	0.154
-662.989	29.730	-0.094	0.081
-661.974	68.571	-0.326	-0.340
-660.959	-72.145	0.137	0.052
-659.945	-70.961	-0.279	0.107
-658.930	-79.208	-0.264	-0.091
-657.916	65.138	0.190	-0.195
-656.901	225.898	0.109	0.179
-655.886	-102.842	-0.145	-0.035
-654.872	43.835	-0.033	-0.031
-653.857	7.433	0.203	-0.155
-652.843	-67.312	-0.299	-0.120
-651.828	-88.365	-0.418	-0.127
-650.814	-162.474	-0.129	-0.006
-649.799	-200.000	-0.024	0.246
-648.784	-78.201	-0.113	-0.039
-647.770	-125.181	-0.123	-0.019
-646.755	219.122	0.256	0.416
-645.741	-78.729	0.117	-0.041
-644.726	181.551	-0.226	-0.338
-643.711	-47.880	0.119	0.058
-642.697	-46.829	-0.152	0.076
-641.682	800.000	-0.035	0.102
-640.668	273.373	-0.114	-0.205
-639.653	-200.000	0.002	-0.038
-638.638	150.775	-0.168	0.232
-637.624	412.739	0.109	-0.236
-636.609	127.178	0.133	-0.172
-635.595	56.551	0.117	-0.115
-634.580	-200.000	-0.024	-0.193
-633.565	85.423	-0.177	-0.198
-632.551	210.079	-0.193	-0.308
-631.536	-39.634	-0.105	-0.056
-630.522	114.121	-0.022	0.027
-629.507	-200.000	-0.079	0.368
-628.492	-119.908	0.031	-0.005
-627.478	34.942	0.213	-0.190
-626.463	284.037	-0.008	-0.015
-625.449	-63.497	0.149	-0.062
-624.434	-10.173	0.210	-0.142
-623.419	-17.099	0.360	-0.231
-622.405	46.196	-0.093	0.087
-621.390	189.587	-0.096	0.147
-620.376	-124.937	-0.116	-0.018
-619.361	68.412	0.140	0.146
-618.346	-200.000	0.054	-0.282
-617.332	-200.000	-0.026	-0.276
-616.317	563.196	0.206	-0.506
-615.303	570.074	-0.112	0.276
-614.288	-38.363	-0.225	0.121
-613.273	338.871	0.204	0.404
-612.259	-74.199	-0.283	-0.104
-611.244	330.812	-0.048	-0.094
-610.230	70.375	-0.156	0.164
-609.215	133.132	0.153	0.200
-608.201	5.830	-0.144	0.108
-607.186	-200.000	-0.052	-0.352
-606.171	-43.987	-0.167	-0.085
-605.157	182.431	0.085	-0.127
-604.142	-200.000	-0.013	-0.375
-603.128	-200.000	0.057	-0.292
-602.113	15.019	-0.288	0.229
-601.098	-72.543	-0.129	0.048
-600.084	-144.509	0.245	0.023
-599.069	1.496	0.187	0.137
-598.055	-135.815	-0.119	0.014
-597.040	96.834	-0.196	-0.228
-596.025	-200.000	-0.047	-0.400
-595.011	-116.985	-0.262	-0.049
-593.996	-193.599	-0.125	0.001
-592.982	-31.185	0.091	-0.052
-591.967	262.714	-0.107	0.189
-590.952	105.790	-0.130	0.156
-589.938	-124.130	0.073	0.012
-588.923	-200.000	-0.030	-0.238
-587.909	429.822	-0.055	-0.121
-586.894	726.316	-0.071	0.193
-585.879	-138.496	-0.082	-0.009
-584.865	-115.153	0.222	0.043
-583.850	-121.423	-0.159	-0.027
-582.836	350.266	-0.055	-0.110
-581.821	-147.700	-0.155	-0.013
-580.806	-0.414	-0.298	-0.215
-579.792	216.924	-0.134	0.217
-578.777	-80.366	0.177	-0.060
-577.763	-61.949	0.159	0.067
-576.748	-200.000	-0.008	0.290
-575.733	742.759	-0.078	-0.213
-574.719	-53.813	-0.124	-0.058
-573.704	285.260	-0.114	-0.208
-572.690	203.285	-0.152	-0.239
-571.675	9.450	0.239	0.183
-570.661	-22.907	-0.175	-0.107
-569.646	-154.134	0.075	-0.005
-568.631	-200.000	0.027	-0.128
-567.617	24.255	0.353	-0.296
-566.602	-69.005	-0.165	-0.065
-565.588	-22.640	-0.177	0.109
-564.573	280.406	-0.030	0.054
-563.558	-96.871	0.131	-0.035
-562.544	122.000	-0.083	0.105
-561.529	-200.000	-0.009	-0.234
-560.515	-200.000	-0.042	0.194
-559.500	25.165	-0.087	0.073
-558.485	172.815	-0.111	0.162
-557.471	-137.145	-0.113	0.013
-556.456	26.111	0.137	0.116
-555.442	-200.000	-0.033	0.197
-554.427	208.306	-0.101	-0.159
-553.412	-0.403	0.121	-0.087
-552.398	800.000	0.028	0.090
-551.383	-139.505	-0.437	0.047
-550.369	311.065	0.225	0.428
-549.354	-70.233	0.259	0.100
-548.339	-119.988	-0.089	-0.015
-547.325	340.373	0.114	0.226
-546.310	22.483	-0.187	-0.155
-545.296	312.923	0.165	-0.314
-544.281	659.431	0.022	0.058
-543.266	-200.000	0.009	0.044
-542.252	-200.000	-0.000	-0.497
-541.237	-27.010	0.227	-0.134
-540.223	-125.614	-0.277	0.043
-539.208	-69.022	0.136	-0.053
-538.193	800.000	0.019	-0.058
-537.179	575.093	0.115	0.284
-536.164	343.860	0.060	0.120
-535.150	800.000	0.078	0.255
-534.135	413.613	0.307	-0.662
-533.121	-111.472	-0.308	0.064
-532.106	109.308	0.069	-0.084
-531.091	-200.000	-0.031	0.163
-530.077	-123.532	0.142	0.023
-529.062	-200.000	0.054	0.270
-528.048	800.000	-0.068	0.200
-527.033	-188.764	-0.475	-0.006
-526.018	14.693	-0.094	0.074
-525.004	800.000	-0.100	0.294
-523.989	-200.000	-0.012	0.052
-522.975	-39.718	0.253	0.134
-521.960	395.167	-0.058	-0.122
-520.945	703.445	-0.085	-0.228
-519.931	-200.000	-0.051	0.280
-518.916	800.000	0.075	0.238
-517.902	343.333	-0.104	0.207
-516.887	800.000	-0.064	0.213
-515.872	-200.000	-0.062	-0.345
-514.858	-180.429	0.066	0.001
-513.843	451.612	-0.153	-0.342
-512.829	-89.942	-0.155	-0.046
-511.814	800.000	0.078	-0.222
-510.799	-200.000	0.077	-0.361
-509.785	-83.659	0.345	0.112
-508.770	-187.766	-0.339	0.004
-507.756	142.853	0.163	0.219
-506.741	-92.971	-0.119	0.034
-505.726	39.612	0.156	0.142
-504.712	58.558	0.110	-0.109
-503.697	129.590	-0.152	0.197
-502.683	-32.198	0.164	0.092
-501.668	-200.000	-0.055	-0.433
-500.653	-104.805	-0.432	-0.100
-499.639	-127.543	0.239	-0.035
-498.624	-147.759	-0.144	0.012
-497.610	5.611	-0.402	0.300
-496.595	203.709	-0.069	-0.108
-495.581	-177.359	0.304	-0.008
-494.566	45.917	0.183	0.171
-493.551	172.770	0.059	-0.086
-492.537	8.978	0.194	-0.148
-491.522	-200.000	0.021	0.163
-490.508	110.773	0.155	0.189
-489.493	89.916	0.161	0.181
-488.478	396.542	0.016	0.035
-487.464	342.692	-0.023	0.045
-486.449	325.319	-0.025	-0.048
-485.435	800.000	-0.043	0.161
-484.420	-1.338	-0.156	-0.112
-483.405	-200.000	0.020	0.180
-482.391	-15.577	0.427	-0.275
-481.376	-54.860	-0.360	-0.164
-480.362	-200.000	0.047	-0.525
-479.347	76.312	-0.130	0.140
-478.332	37.732	0.016	-0.015
-477.318	800.000	-0.059	-0.253
-476.303	-200.000	0.029	-0.255
-475.289	344.822	0.058	-0.115
-474.274	530.386	0.064	0.154
-473.259	-128.034	0.210	0.030
-472.245	10.725	-0.081	0.063
-471.230	148.111	-0.278	-0.378
-470.216	-200.000	0.007	0.124
-469.201	-200.000	0.013	0.144
-468.186	800.000	-0.037	0.109
-467.172	800.000	-0.083	-0.238
-466.157	7.472	-0.258	-0.195
-465.143	-105.990	0.183	0.041
-464.128	-66.051	-0.114	-0.046
-463.113	183.310	0.167	-0.250
-462.099	-200.000	0.035	0.394
-461.084	-146.588	0.079	0.007
-460.070	314.179	0.062	0.118
-459.055	-200.000	0.037	0.260
-458.040	19.211	-0.013	0.011
-457.026	-191.514	0.207	-0.002
-456.011	-21.520	0.227	-0.140
-454.997	-154.822	-0.287	-0.019
-453.982	13.410	0.270	-0.211
-452.968	4.989	-0.133	0.099
-451.953	-108.755	-0.157	-0.034
-450.938	-75.765	0.194	0.069
-449.924	800.000	-0.093	0.281
-448.909	108.994	-0.044	-0.054
-447.895	1.605	0.271	0.197
-446.880	-43.649	0.088	-0.045
-445.865	-46.817	-0.214	0.105
-444.851	-80.556	0.201	0.067
-443.836	32.311	-0.113	0.099
-442.822	777.613	-0.037	-0.101
-441.807	-126.922	-0.350	0.052
-440.792	-63.961	0.139	-0.057
-439.778	-100.467	-0.106	0.026
-438.763	-70.722	-0.058	0.022
-437.749	-200.000	0.001	0.027
-436.734	118.527	-0.008	0.010
-435.719	390.509	-0.117	-0.244
-434.705	386.538	0.141	0.294
-433.690	22.014	0.104	-0.086
-432.676	-145.733	0.207	0.019
-431.661	172.074	0.113	0.163
-430.646	-139.013	-0.226	0.025
-429.632	557.457	0.023	-0.057
-428.617	-102.267	-0.201	-0.049
-427.603	-128.984	-0.314	0.044
-426.588	-64.369	-0.185	-0.076
-425.573	535.003	0.127	0.304
-424.559	-92.380	-0.223	-0.063
-423.544	800.000	0.074	0.269
-422.530	-99.700	0.226	-0.057
-421.515	-200.000	-0.023	-0.125
-420.500	130.233	0.086	-0.111
-419.486	-130.068	0.312	0.043
-418.471	614.582	0.116	-0.293
-417.457	-37.630	-0.159	0.085
-416.442	-99.063	-0.094	-0.024
-415.428	321.775	-0.185	0.355
-414.413	62.403	-0.140	-0.141
-413.398	375.051	0.081	0.166
-412.384	100.599	-0.073	0.085
-411.369	120.765	-0.109	0.136
-410.355	-37.507	0.064	-0.034
-409.340	-19.973	-0.292	0.181
-408.325	246.267	-0.045	0.077
-407.311	190.255	0.156	-0.236
-406.296	58.001	0.052	-0.051
-405.282	-139.675	0.577	0.062
-404.267	800.000	-0.063	0.203
-403.252	684.559	0.057	0.149
-402.238	-200.000	0.013	-0.064
-401.223	150.247	-0.161	-0.220
-400.209	-63.856	0.355	-0.146
-399.194	-122.827	-0.147	0.024
-398.179	800.000	0.043	0.180
-397.165	169.401	-0.177	-0.254
-396.150	-200.000	0.060	0.342
-395.136	-134.947	-0.167	-0.020
-394.121	-199.071	-0.059	-0.000
-393.106	-41.955	0.212	-0.110
-392.092	542.745	-0.051	-0.123
-391.077	-200.000	0.007	-0.119
-390.063	-23.460	0.357	-0.216
-389.048	30.848	0.127	0.109
-388.033	-191.966	-0.119	0.001
-387.019	-191.435	-0.185	-0.002
-386.004	-200.000	0.022	-0.123
-384.990	-22.888	0.059	0.036
-383.975	106.855	0.178	-0.213
-382.960	38.908	0.100	0.090
-381.946	-200.000	-0.030	0.144
-380.931	800.000	0.155	-0.521
-379.917	-145.307	0.106	0.010
-378.902	201.308	0.157	0.243
-377.888	-168.137	-0.075	0.003
-376.873	-66.781	-0.125	-0.050
-375.858	104.927	0.200	0.237
-374.844	800.000	-0.038	0.132
-373.829	187.317	0.087	0.131
-372.815	-200.000	-0.005	0.024
-371.800	186.262	-0.233	0.349
-370.785	-44.946	-0.379	0.190
-369.771	-148.063	-0.210	-0.018
-368.756	-2.431	0.112	-0.079
-367.742	-67.541	-0.323	-0.127
-366.727	62.711	-0.284	0.285
-365.712	-200.000	0.016	0.166
-364.698	-141.531	-0.179	0.018
-363.683	-59.951	0.203	-0.087
-362.669	-145.906	0.059	-0.005
-361.654	31.379	0.215	0.185
-360.639	-87.739	0.110	0.033
-359.625	-200.000	0.007	-0.113
-358.610	-200.000	-0.057	-0.328
-357.596	-59.984	0.245	0.105
-356.581	724.627	0.058	0.155
-355.566	196.555	-0.114	-0.175
-354.552	-200.000	-0.040	-0.374
-353.537	-200.000	-0.018	-0.177
-352.523	54.098	-0.240	-0.232
-351.508	220.015	0.064	0.104
-350.493	-124.306	0.114	0.018
-349.479	-89.740	0.080	0.024
-348.464	5.141	0.172	-0.127
-347.450	71.216	0.317	0.331
-346.435	-200.000	-0.001	0.023
-345.420	-67.999	0.156	0.061
-344.406	135.258	-0.022	0.029
-343.391	-200.000	-0.040	-0.235
-342.377	115.291	-0.244	-0.299
-341.362	30.463	-0.101	-0.087
-340.348	96.737	0.191	-0.220
-339.333	-75.568	0.399	-0.143
-338.318	129.256	0.158	-0.202
-337.304	-19.583	0.226	-0.141
-336.289	-38.264	-0.146	0.078
-335.275	52.107	-0.136	-0.130
-334.260	-200.000	0.005	-0.107
-333.245	-200.000	-0.037	0.168
-332.231	-103.966	0.310	-0.073
-331.216	-200.000	0.021	-0.233
-330.202	-0.691	0.205	0.146
-329.187	-200.000	0.028	0.296
-328.172	293.646	0.073	-0.133
-327.158	-200.000	-0.033	-0.537
-326.143	-200.000	0.027	-0.234
-325.129	-97.876	0.313	0.081
-324.114	19.761	-0.036	-0.029
-323.099	-49.642	0.238	0.114
-322.085	107.996	0.230	-0.276
-321.070	-180.723	0.305	-0.006
-320.056	365.997	0.156	0.315
-319.041	-13.884	-0.208	0.135
-318.026	-70.017	0.273	0.104
-317.012	497.274	0.168	0.389
-315.997	-200.000	-0.050	0.280
-314.983	-129.571	-0.069	0.010
-313.968	-83.193	0.093	0.030
-312.953	-59.327	-0.104	0.045
-311.939	-1.154	0.138	-0.098
-310.924	11.856	-0.275	-0.212
-309.910	-71.379	0.141	-0.053
-308.895	-36.714	-0.316	-0.171
-307.880	-121.670	0.303	0.050
-306.866	39.964	0.063	0.057
-305.851	-200.000	0.027	0.214
-304.837	-200.000	0.005	-0.164
-303.822	728.855	0.042	0.112
-302.807	-40.856	-0.039	-0.020
-301.793	-122.620	0.281	-0.046
-300.778	800.000	0.009	-0.041
-299.764	-77.312	-0.144	-0.050
-298.749	800.000	-0.056	-0.200
-297.735	-32.339	-0.269	-0.151
-296.720	448.857	-0.114	0.251
-295.705	290.445	-0.144	0.263
-294.691	-115.954	-0.588	0.110
-293.676	16.477	0.063	0.050
-292.662	800.000	-0.012	-0.045
-291.647	-146.024	0.016	0.001
-290.632	-154.829	-0.458	0.030
-289.618	-14.963	-0.194	-0.125
-288.603	-100.856	0.135	-0.033
-287.589	-157.008	0.274	0.017
-286.574	-200.000	-0.011	0.124
-285.559	794.565	0.063	-0.173
-284.545	155.201	-0.231	-0.318
-283.530	-171.680	-0.070	-0.002
-282.516	114.670	-0.147	-0.180
-281.501	-14.758	0.319	-0.206
-280.486	800.000	-0.038	-0.149
-279.472	-64.819	0.136	-0.055
-278.457	-22.823	-0.371	-0.225
-277.443	1.373	-0.206	0.149
-276.428	-151.883	-0.257	-0.019
-275.413	-52.740	0.214	-0.099
-274.399	-200.000	0.025	-0.341
-273.384	20.776	0.125	0.101
-272.370	-9.818	0.271	-0.181
-271.355	-132.931	0.098	-0.013
-270.340	-157.586	0.180	0.011
-269.326	65.109	-0.156	0.158
-268.311	-187.543	-0.031	0.000
-267.297	201.117	0.047	0.072
-266.282	800.000	0.143	0.432
-265.267	150.565	0.137	-0.187
-264.253	30.365	0.266	-0.228
-263.238	-200.000	0.052	0.266
-262.224	-200.000	0.029	0.372
-261.209	592.320	-0.156	0.385
-260.195	800.000	-0.044	-0.143
-259.180	-117.904	-0.189	0.034
-258.165	-200.000	-0.016	0.116
-257.151	745.263	0.072	-0.195
-256.136	94.085	0.202	0.230
-255.122	800.000	-0.035	0.144
-254.107	176.525	-0.107	-0.155
-253.092	800.000	0.061	0.266
-252.078	800.000	-0.063	0.255
-251.063	-79.856	0.186	0.063
-250.049	-200.000	0.165	-0.001
-249.034	-40.738	0.187	-0.097
-248.019	88.681	-0.174	0.193
-247.005	281.165	0.135	0.243
-245.990	217.432	0.137	0.218
-244.976	800.000	0.061	0.256
-243.961	-165.409	-0.229	0.010
-242.946	-57.683	0.251	0.110
-241.932	19.231	-0.246	-0.198
-240.917	751.746	-0.054	-0.145
-239.903	154.189	0.101	0.139
-238.888	-161.368	-0.054	-0.003
-237.873	16.585	-0.144	0.114
-236.859	-38.250	0.201	-0.107
-235.844	148.619	-0.203	-0.274
-234.830	800.000	-0.073	0.222
-233.815	-200.000	-0.029	0.159
-232.800	800.000	0.062	-0.256
-231.786	-113.669	-0.289	-0.057
-230.771	36.885	0.265	0.234
-229.757	438.248	-0.017	-0.037
-228.742	-42.242	-0.102	-0.052
-227.727	42.415	0.095	-0.086
-226.713	326.365	-0.089	-0.170
-225.698	-26.073	-0.038	0.023
-224.684	-82.763	-0.176	0.057
-223.669	-54.128	0.167	-0.076
-222.655	44.024	0.083	-0.076
-221.640	41.734	0.155	-0.140
-220.625	-48.460	-0.123	-0.059
-219.611	-200.000	-0.008	-0.135
-218.596	800.000	0.082	-0.313
-217.582	258.723	-0.198	-0.341
-216.567	324.794	-0.046	0.088
-215.552	-200.000	-0.000	-0.136
-214.538	-200.000	0.017	-0.308
-213.523	385.525	-0.091	0.189
-212.509	-144.344	-0.260	0.024
-211.494	-12.173	0.298	0.195
-210.479	-78.759	0.196	0.067
-209.465	800.000	-0.026	-0.072
-208.450	3.014	0.066	-0.048
-207.436	-47.739	0.132	0.064
-206.421	-200.000	0.000	-0.145
-205.406	61.485	0.155	0.154
-204.392	116.455	0.004	0.005
-203.377	-97.600	-0.168	0.044
-202.363	-103.577	0.292	-0.068
-201.348	-200.000	0.011	-0.059
-200.333	-155.104	0.171	0.011
-199.319	800.000	0.129	-0.359
-198.304	800.000	0.054	-0.158
-197.290	7.408	0.105	-0.078
-196.275	-200.000	0.010	-0.190
-195.260	-85.549	-0.509	-0.158
-194.246	-200.000	-0.031	-0.139
-193.231	300.911	0.089	-0.165
-192.217	67.038	0.110	0.112
-191.202	-200.000	0.051	0.304
-190.187	-50.902	0.042	0.020
-189.173	15.078	0.129	-0.101
-188.158	-184.839	-0.143	0.002
-187.144	-1.021	-0.213	-0.150
-186.129	-51.367	-0.245	0.114
-185.114	306.289	-0.121	0.225
-184.100	32.544	-0.160	0.138
-183.085	-134.810	0.145	0.018
-182.071	42.253	0.108	0.098
-181.056	346.428	-0.081	0.158
-180.042	238.373	0.098	0.163
-179.027	37.366	-0.053	0.047
-178.012	-44.120	-0.200	-0.100
-176.998	623.792	-0.103	0.259
-175.983	66.155	-0.183	-0.186
-174.969	62.636	-0.172	0.172
-173.954	-200.000	0.019	0.206
-172.939	-99.115	-0.172	-0.043
-171.925	-118.712	-0.230	0.041
-170.910	-200.000	0.008	-0.124
-169.896	-87.529	0.132	-0.040
-168.881	317.892	0.172	0.325
-167.866	-80.397	0.051	0.017
-166.852	288.821	-0.144	0.260
-165.837	219.709	-0.090	0.144
-164.823	318.761	0.062	-0.117
-163.808	-200.000	-0.097	0.433
-162.793	186.967	0.285	0.423
-161.779	85.845	0.121	-0.133
-160.764	470.685	0.161	0.362
-159.750	19.747	-0.074	-0.060
-158.735	-200.000	0.044	0.197
-157.720	206.624	0.080	0.125
-156.706	157.869	0.146	0.201
-155.691	91.513	-0.093	0.105
-154.677	68.641	0.058	-0.060
-153.662	-1.709	-0.076	-0.053
-152.647	147.919	-0.147	0.198
-151.633	543.140	-0.055	0.131
-150.618	107.153	-0.070	-0.084
-149.604	40.608	-0.186	0.167
-148.589	-68.051	0.214	0.083
-147.574	-102.428	-0.141	-0.034
-146.560	-58.955	-0.285	-0.123
-145.545	-200.000	0.053	-0.279
-144.531	-200.000	0.031	0.239
-143.516	616.778	-0.065	0.164
-142.502	-128.549	0.336	0.047
-141.487	741.823	0.119	0.319
-140.472	800.000	0.110	0.306
-139.458	273.185	-0.087	0.154
-138.443	97.892	-0.148	0.170
-137.429	-197.239	0.274	-0.002
-136.414	685.885	0.172	0.449
-135.399	-196.759	-0.128	-0.001
-134.385	-94.147	0.075	-0.020
-133.370	45.269	0.198	0.182
-132.356	800.000	0.096	-0.334
-131.341	-40.465	-0.136	-0.070
-130.326	800.000	-0.073	-0.278
-129.312	730.649	0.081	-0.216
-128.297	-200.000	-0.012	-0.058
-127.283	182.579	-0.092	-0.136
-126.268	-60.962	0.312	-0.131
-125.253	-74.033	0.092	-0.033
-124.239	800.000	0.084	0.291
-123.224	800.000	0.100	-0.405
-122.210	105.622	-0.083	-0.097
-121.195	-76.509	0.237	-0.083
