DTS Sentinel unit serial number:	SN413079Multiplexer serial number:	ORYXHardware model number:	OX4-SRSoftware version number:	ORYX F/W v4.00 Oryx Data Collector v3.7.2.0data status	okinstallation	princeton_trtdifferential loss correction	single-endedforward channel	channel 2reverse channel	N/Adate	2019/09/17time	02:43:34forward acquisition time	60.00reverse acquisition time	0.00gamma	496.2192k internal	0.2327k external	0.2327temperature offset calibration	0.9970default loss term (dB/km)	0.3790temperature slope calibration	1.0000multiplexer offset coefficient	1.0000multiplexer slope coefficient	1.0000fibre end	0.00T internal ref (°C)	29.87T ext. ref 1 (°C)	0.12T ext. ref 2 (°C)	24.87length (m)	temperature (°C)	Stokes	anti-Stokes-747.200	-200.000	0.047	0.239
-746.185	-61.202	-0.230	0.098
-745.171	36.869	-0.407	0.362
-744.156	-75.281	-0.412	0.148
-743.142	800.000	0.047	-0.137
-742.127	378.900	0.040	-0.082
-741.112	-200.000	-0.008	0.228
-740.098	-200.000	0.028	0.270
-739.083	-59.192	0.169	-0.073
-738.069	-200.000	0.011	-0.061
-737.054	101.269	-0.046	-0.054
-736.039	-120.078	-0.460	0.079
-735.025	-47.779	-0.128	-0.063
-734.010	-2.022	-0.120	-0.085
-732.996	800.000	0.055	-0.196
-731.981	-96.789	-0.215	0.057
-730.966	-38.231	-0.128	-0.069
-729.952	241.756	0.042	-0.070
-728.937	-200.000	0.022	0.105
-727.923	-124.635	0.155	0.024
-726.908	-200.000	-0.002	-0.364
-725.894	-17.048	0.101	-0.064
-724.879	800.000	-0.084	-0.235
-723.864	-14.696	-0.036	-0.023
-722.850	33.820	-0.215	0.188
-721.835	-67.265	-0.138	-0.054
-720.821	345.874	-0.126	-0.249
-719.806	-200.000	0.034	0.171
-718.791	-131.529	-0.273	-0.036
-717.777	38.119	-0.112	0.101
-716.762	-113.411	-0.072	-0.014
-715.748	-6.836	-0.102	0.070
-714.733	-200.000	-0.026	0.168
-713.718	74.746	0.139	0.147
-712.704	-200.000	-0.002	0.099
-711.689	800.000	-0.047	-0.173
-710.675	77.410	0.101	0.108
-709.660	-73.904	0.334	-0.122
-708.645	-101.081	-0.271	-0.067
-707.631	2.850	0.254	0.186
-706.616	-200.000	-0.021	-0.274
-705.602	662.349	0.108	0.281
-704.587	261.000	0.131	-0.228
-703.572	800.000	-0.073	-0.320
-702.558	-200.000	0.024	-0.230
-701.543	-113.284	-0.091	0.018
-700.529	800.000	0.045	-0.137
-699.514	10.094	0.312	0.238
-698.499	174.295	0.101	-0.147
-697.485	800.000	-0.078	-0.270
-696.470	-12.901	0.027	-0.018
-695.456	-200.000	-0.067	-0.341
-694.441	-200.000	0.048	0.213
-693.426	-132.596	-0.285	-0.037
-692.412	-200.000	0.024	0.186
-691.397	-181.691	0.202	-0.004
-690.383	800.000	0.035	0.126
-689.368	-175.678	-0.249	0.007
-688.354	-104.143	0.211	0.049
-687.339	-200.000	0.009	0.098
-686.324	-143.343	-0.295	0.028
-685.310	0.653	0.083	-0.060
-684.295	-59.271	-0.205	-0.089
-683.281	-200.000	0.029	0.182
-682.266	213.288	-0.223	-0.354
-681.251	-160.255	0.424	-0.023
-680.237	800.000	-0.038	-0.106
-679.222	-57.205	0.273	-0.121
-678.208	17.988	-0.141	0.113
-677.193	586.117	0.163	-0.403
-676.178	-169.075	-0.304	0.011
-675.164	181.583	0.161	0.238
-674.149	800.000	-0.123	-0.376
-673.135	-200.000	-0.023	0.103
-672.120	61.293	-0.019	0.019
-671.105	81.967	0.155	0.168
-670.091	-153.366	-0.332	0.023
-669.076	800.000	0.017	-0.058
-668.062	-67.758	0.039	0.016
-667.047	800.000	-0.046	0.139
-666.032	800.000	-0.102	0.344
-665.018	-57.864	0.342	-0.150
-664.003	-89.847	-0.156	-0.046
-662.989	13.339	0.148	0.116
-661.974	54.060	0.127	-0.123
-660.959	-12.282	-0.236	0.155
-659.945	800.000	-0.015	-0.059
-658.930	-135.855	0.116	-0.014
-657.916	-200.000	-0.033	-0.234
-656.901	-200.000	0.143	-0.000
-655.886	-123.209	0.056	0.009
-654.872	-7.788	0.097	0.066
-653.857	-19.643	0.166	0.103
-652.843	-200.000	0.038	0.283
-651.828	-200.000	-0.024	-0.611
-650.814	-16.516	-0.211	0.134
-649.799	4.800	0.277	-0.205
-648.784	118.598	-0.162	0.201
-647.770	-118.562	-0.435	0.077
-646.755	-200.000	0.023	0.192
-645.741	-146.881	0.317	0.027
-644.726	199.996	0.023	-0.035
-643.711	96.064	0.310	0.356
-642.697	35.963	-0.164	0.145
-641.682	31.998	-0.108	-0.094
-640.668	305.935	-0.089	-0.167
-639.653	66.571	-0.141	0.144
-638.638	177.223	-0.036	-0.053
-637.624	-10.546	0.088	-0.058
-636.609	128.231	-0.180	-0.229
-635.595	-200.000	0.016	-0.080
-634.580	176.997	0.162	-0.237
-633.565	126.672	0.093	-0.118
-632.551	372.298	-0.015	-0.031
-631.536	-54.750	0.297	0.135
-630.522	800.000	-0.085	-0.366
-629.507	104.076	-0.206	-0.244
-628.492	-129.320	0.045	0.006
-627.478	-200.000	-0.018	0.093
-626.463	-139.377	-0.209	0.022
-625.449	-73.712	-0.129	0.047
-624.434	-200.000	-0.025	0.192
-623.419	-61.036	-0.079	-0.033
-622.405	108.022	-0.106	0.127
-621.390	96.590	-0.137	0.157
-620.376	310.673	0.094	-0.177
-619.361	800.000	0.080	-0.237
-618.346	89.798	-0.219	0.245
-617.332	800.000	-0.043	-0.170
-616.317	-104.564	0.319	0.074
-615.303	97.654	0.197	0.227
-614.288	-200.000	0.031	0.176
-613.273	-66.416	0.501	-0.200
-612.259	677.512	0.023	-0.060
-611.244	-43.458	0.205	0.104
-610.230	-71.730	-0.183	0.068
-609.215	-31.977	0.210	-0.118
-608.201	-200.000	-0.005	-0.103
-607.186	294.463	-0.194	0.356
-606.171	-200.000	0.044	0.268
-605.157	800.000	0.073	0.285
-604.142	342.827	-0.044	-0.087
-603.128	366.899	-0.178	-0.360
-602.113	-200.000	-0.015	0.100
-601.098	-89.753	-0.375	-0.110
-600.084	-18.255	0.174	-0.109
-599.069	67.668	0.181	0.186
-598.055	285.478	0.063	0.114
-597.040	537.220	0.098	0.233
-596.025	220.171	-0.095	-0.152
-595.011	-200.000	0.008	-0.129
-593.996	22.983	0.123	-0.102
-592.982	-200.000	-0.024	0.321
-591.967	33.335	-0.125	0.109
-590.952	195.463	-0.068	0.104
-589.938	-200.000	-0.076	-0.389
-588.923	31.651	-0.080	0.069
-587.909	-197.287	-0.083	0.001
-586.894	-172.025	-0.464	0.015
-585.879	-161.330	-0.218	-0.011
-584.865	381.766	0.085	-0.175
-583.850	-36.388	0.286	-0.154
-582.836	27.656	-0.005	0.004
-581.821	-84.086	-0.219	0.070
-580.806	131.578	-0.170	0.219
-579.792	30.282	-0.065	0.056
-578.777	-24.863	-0.091	0.054
-577.763	-3.613	-0.147	0.103
-576.748	-14.236	0.191	0.123
-575.733	-117.259	-0.358	0.065
-574.719	-50.050	0.142	0.068
-573.704	-200.000	0.075	0.339
-572.690	258.120	0.121	0.209
-571.675	-148.367	-0.055	0.005
-570.661	800.000	0.137	0.473
-569.646	800.000	0.081	0.267
-568.631	800.000	-0.053	0.164
-567.617	-200.000	0.064	-0.376
-566.602	108.418	-0.113	0.134
-565.588	-181.665	0.402	-0.008
-564.573	95.794	0.202	0.231
-563.558	231.129	-0.172	-0.283
-562.544	268.473	-0.230	-0.403
-561.529	63.890	-0.031	0.032
-560.515	248.276	-0.181	-0.306
-559.500	497.596	0.122	0.280
-558.485	-16.098	0.255	0.162
-557.471	60.452	-0.125	-0.123
-556.456	-147.653	0.308	0.026
-555.442	491.652	0.075	0.173
-554.427	800.000	0.056	-0.161
-553.412	-64.846	0.347	-0.140
-552.398	207.445	0.121	-0.189
-551.383	381.210	-0.136	0.279
-550.369	199.987	-0.080	0.124
-549.354	-200.000	0.024	0.173
-548.339	43.000	0.238	-0.217
-547.325	-200.000	0.004	-0.095
-546.310	-67.368	-0.142	-0.056
-545.296	-110.046	-0.193	0.040
-544.281	58.373	-0.051	-0.050
-543.266	-200.000	-0.012	0.067
-542.252	-200.000	-0.021	-0.120
-541.237	-111.916	0.221	0.045
-540.223	-55.949	-0.242	0.108
-539.208	180.796	-0.094	-0.138
-538.193	65.258	-0.238	0.241
-537.179	271.516	0.050	0.089
-536.164	344.617	-0.181	-0.356
-535.150	360.352	0.094	0.188
-534.135	246.571	-0.119	-0.201
-533.121	-150.218	-0.152	-0.012
-532.106	266.688	0.085	0.149
-531.091	435.518	0.042	0.091
-530.077	89.184	0.075	-0.083
-529.062	74.388	0.226	-0.237
-528.048	182.315	-0.103	0.152
-527.033	-137.262	-0.195	-0.022
-526.018	6.363	-0.237	-0.176
-525.004	800.000	0.057	0.195
-523.989	-200.000	-0.090	0.450
-522.975	-173.848	-0.073	0.002
-521.960	136.093	-0.091	-0.119
-520.945	482.002	0.144	-0.327
-519.931	72.655	0.216	-0.226
-518.916	-17.836	0.067	-0.042
-517.902	-200.000	0.004	-0.265
-516.887	-200.000	-0.006	0.069
-515.872	-200.000	0.010	-0.143
-514.858	800.000	0.051	-0.203
-513.843	125.087	-0.084	0.106
-512.829	-90.869	0.148	-0.042
-511.814	-200.000	0.003	0.095
-510.799	-114.674	-0.479	0.092
-509.785	740.558	-0.092	-0.247
-508.770	32.054	0.222	-0.191
-507.756	-10.912	0.137	0.090
-506.741	215.080	0.133	-0.210
-505.726	304.844	0.247	-0.457
-504.712	31.909	-0.050	0.043
-503.697	73.177	0.153	0.159
-502.683	90.929	-0.205	-0.229
-501.668	157.031	-0.222	-0.306
-500.653	-52.927	0.343	0.158
-499.639	-90.152	0.220	-0.064
-498.624	75.403	-0.051	0.053
-497.610	608.084	-0.122	0.303
-496.595	9.845	0.210	-0.159
-495.581	156.476	-0.038	0.053
-494.566	-200.000	-0.003	-0.367
-493.551	-134.734	0.058	-0.007
-492.537	596.709	0.106	-0.263
-491.522	-57.930	0.310	0.135
-490.508	-74.960	-0.198	0.071
-489.493	800.000	0.039	0.154
-488.478	-200.000	0.002	-0.032
-487.464	125.274	0.142	0.179
-486.449	-200.000	0.007	-0.211
-485.435	800.000	-0.017	-0.047
-484.420	-200.000	0.129	0.001
-483.405	292.506	0.110	0.200
-482.391	-66.321	0.196	-0.078
-481.376	800.000	-0.056	-0.222
-480.362	-55.503	0.331	0.148
-479.347	-147.904	-0.217	0.018
-478.332	-29.919	0.124	0.071
-477.318	-42.421	-0.282	0.143
-476.303	-200.000	-0.042	0.293
-475.289	146.639	-0.120	0.161
-474.274	-200.000	-0.015	-0.073
-473.259	-200.000	-0.059	0.265
-472.245	-200.000	-0.034	0.253
-471.230	800.000	0.054	0.216
-470.216	-200.000	0.006	0.054
-469.201	800.000	0.018	-0.076
-468.186	-190.851	0.415	-0.004
-467.172	-58.586	-0.096	-0.041
-466.157	71.279	-0.186	-0.192
-465.143	-140.901	0.066	-0.007
-464.128	283.908	-0.057	-0.101
-463.113	-200.000	0.007	0.197
-462.099	-103.488	0.110	-0.026
-461.084	-26.468	-0.170	-0.100
-460.070	-0.099	-0.345	0.245
-459.055	447.196	-0.145	0.318
-458.040	800.000	0.019	0.068
-457.026	403.808	-0.069	0.146
-456.011	94.157	0.155	-0.175
-454.997	507.818	-0.076	0.176
-453.982	-74.638	-0.274	-0.098
-452.968	203.906	-0.142	0.219
-451.953	71.108	-0.194	0.200
-450.938	800.000	0.039	0.122
-449.924	-140.346	0.130	-0.014
-448.909	-200.000	-0.021	-0.157
-447.895	15.173	-0.115	-0.090
-446.880	800.000	0.061	-0.179
-445.865	-127.506	-0.205	0.030
-444.851	169.019	0.065	-0.092
-443.836	783.706	0.044	-0.121
-442.822	-200.000	-0.042	0.322
-441.807	-72.383	0.269	-0.099
-440.792	-200.000	0.065	0.294
-439.778	-200.000	-0.027	0.261
-438.763	534.989	-0.044	0.104
-437.749	-141.445	0.192	-0.019
-436.734	426.379	-0.101	0.217
-435.719	276.569	-0.130	0.230
-434.705	-200.000	-0.019	0.169
-433.690	414.300	0.051	0.107
-432.676	-77.671	-0.171	0.059
-431.661	-171.806	0.475	0.016
-430.646	385.363	-0.082	-0.169
-429.632	-23.224	-0.179	-0.107
-428.617	146.256	-0.111	-0.148
-427.603	329.135	0.062	0.119
-426.588	-49.055	-0.401	-0.191
-425.573	-65.155	-0.100	-0.040
-424.559	-101.283	0.117	-0.029
-423.544	-182.750	0.037	0.001
-422.530	-82.564	0.085	-0.027
-421.515	800.000	0.071	0.238
-420.500	-81.273	-0.180	-0.059
-419.486	-82.668	0.269	0.087
-418.471	216.014	-0.089	0.141
-417.457	41.288	0.234	0.211
-416.442	-21.122	-0.138	0.084
-415.428	34.839	-0.110	-0.096
-414.413	-87.114	0.202	-0.061
-413.398	10.705	0.198	-0.151
-412.384	43.238	-0.080	-0.073
-411.369	316.757	0.057	0.107
-410.355	35.746	-0.261	0.229
-409.340	622.141	-0.145	0.363
-408.325	328.458	-0.196	-0.375
-407.311	-57.756	0.193	-0.084
-406.296	68.972	0.149	-0.152
-405.282	319.558	-0.117	0.220
-404.267	800.000	-0.032	0.102
-403.252	463.128	0.139	-0.308
-402.238	-113.286	-0.181	-0.035
-401.223	-200.000	-0.013	0.296
-400.209	-170.874	0.136	-0.005
-399.194	-8.694	-0.206	-0.137
-398.179	4.016	0.100	-0.073
-397.165	-91.472	0.460	-0.130
-396.150	-67.673	-0.228	0.089
-395.136	-199.667	0.247	-0.001
-394.121	-103.263	0.143	0.033
-393.106	183.063	-0.233	-0.341
-392.092	-42.605	0.144	0.073
-391.077	589.191	0.149	0.364
-390.063	222.610	-0.063	-0.101
-389.048	10.848	0.089	-0.067
-388.033	-200.000	-0.009	0.232
-387.019	567.982	-0.101	0.244
-386.004	618.817	0.067	0.166
-384.990	-79.844	-0.155	-0.052
-383.975	51.657	0.267	-0.253
-382.960	288.284	-0.051	-0.092
-381.946	-200.000	-0.022	0.175
-380.931	-200.000	-0.006	0.250
-379.917	159.737	0.172	-0.239
-378.902	-183.721	0.180	0.003
-377.888	-65.415	0.118	0.047
-376.873	-2.903	-0.223	0.155
-375.858	-200.000	-0.024	-0.317
-374.844	-25.801	0.155	0.091
-373.829	-117.128	-0.422	-0.076
-372.815	800.000	0.075	0.273
-371.800	-200.000	0.017	0.076
-370.785	26.594	-0.160	-0.133
-369.771	350.624	0.049	0.096
-368.756	191.530	0.137	0.205
-367.742	-200.000	-0.048	-0.268
-366.727	60.792	-0.057	-0.056
-365.712	44.936	-0.181	-0.166
-364.698	65.700	-0.101	-0.101
-363.683	-139.545	0.211	0.022
-362.669	-6.064	-0.146	-0.099
-361.654	129.739	0.036	-0.046
-360.639	95.678	0.122	-0.138
-359.625	-164.894	-0.096	0.004
-358.610	158.512	0.058	0.080
-357.596	-80.949	0.398	0.131
-356.581	-200.000	-0.006	-0.135
-355.566	152.420	-0.160	-0.216
-354.552	800.000	-0.100	0.307
-353.537	42.371	0.295	-0.266
-352.523	162.531	-0.241	0.335
-351.508	79.903	-0.052	-0.056
-350.493	-181.313	-0.095	0.002
-349.479	-141.038	0.182	0.018
-348.464	-11.486	-0.322	-0.210
-347.450	800.000	0.057	0.159
-346.435	-73.368	-0.066	0.024
-345.420	-9.887	0.042	-0.028
-344.406	-200.000	0.023	-0.490
-343.391	69.411	-0.045	-0.046
-342.377	131.097	-0.125	0.159
-341.362	-200.000	-0.050	-0.511
-340.348	54.358	-0.123	-0.117
-339.333	-200.000	-0.001	0.097
-338.318	-92.786	-0.150	0.042
-337.304	-200.000	-0.010	-0.143
-336.289	198.975	0.025	-0.038
-335.275	-200.000	0.037	0.316
-334.260	176.783	0.167	-0.241
-333.245	-85.420	-0.149	-0.046
-332.231	559.273	0.034	0.082
-331.216	61.124	-0.011	0.011
-330.202	-200.000	0.020	-0.260
-329.187	58.838	-0.248	0.242
-328.172	-200.000	-0.003	-0.087
-327.158	-200.000	-0.012	-0.254
-326.143	-89.422	-0.401	-0.117
-325.129	86.748	-0.068	-0.075
-324.114	-78.591	0.143	-0.048
-323.099	437.911	-0.189	0.409
-322.085	58.129	-0.233	-0.226
-321.070	104.795	0.137	-0.160
-320.056	-165.326	-0.342	0.015
-319.041	702.853	0.107	0.279
-318.026	-84.189	-0.031	-0.010
-317.012	29.700	-0.061	0.051
-315.997	-8.370	0.126	0.084
-314.983	-6.503	0.076	-0.052
-313.968	-200.000	-0.161	0.000
-312.953	-147.586	-0.118	-0.010
-311.939	-200.000	-0.002	0.055
-310.924	-200.000	-0.001	0.020
-309.910	186.111	0.149	-0.220
-308.895	295.365	-0.101	0.184
-307.880	-55.350	-0.220	0.098
-306.866	656.546	-0.041	-0.105
-305.851	-200.000	-0.007	0.150
-304.837	312.429	0.062	-0.115
-303.822	278.719	0.165	-0.291
-302.807	475.592	0.152	-0.339
-301.793	5.341	-0.291	-0.212
-300.778	-21.768	-0.162	-0.098
-299.764	-95.515	-0.243	0.065
-298.749	-121.962	-0.106	0.017
-297.735	66.632	-0.199	-0.201
-296.720	-148.024	0.118	0.010
-295.705	-128.747	-0.333	-0.046
-294.691	-29.773	0.135	-0.076
-293.676	-177.339	0.148	-0.004
-292.662	-200.000	-0.048	-0.300
-291.647	800.000	-0.039	-0.144
-290.632	-8.561	0.176	-0.117
-289.618	8.949	0.257	0.192
-288.603	-100.461	-0.315	0.077
-287.589	-200.000	-0.000	-0.127
-286.574	-178.400	-0.307	0.007
-285.559	99.106	-0.216	-0.247
-284.545	-200.000	0.045	0.204
-283.530	120.118	-0.172	-0.211
-282.516	800.000	-0.047	-0.141
-281.501	3.958	0.109	-0.079
-280.486	-72.746	0.224	-0.082
-279.472	-61.417	-0.227	-0.095
-278.457	-200.000	0.072	-0.328
-277.443	91.359	-0.202	-0.225
-276.428	83.502	0.196	-0.212
-275.413	-137.932	0.380	0.042
-274.399	136.568	0.059	-0.076
-273.384	186.710	0.066	0.097
-272.370	-162.105	0.124	0.006
-271.355	-200.000	0.030	-0.214
-270.340	-200.000	0.004	-0.259
-269.326	-53.091	0.014	0.006
-268.311	-200.000	0.070	0.374
-267.297	800.000	0.082	-0.326
-266.282	-72.988	0.204	-0.074
-265.267	-200.000	0.029	-0.188
-264.253	-52.265	-0.181	-0.083
-263.238	78.851	0.111	0.117
-262.224	-38.375	-0.062	-0.033
-261.209	43.854	0.237	0.215
-260.195	-200.000	0.012	0.057
-259.180	421.745	-0.079	-0.167
-258.165	19.170	0.277	-0.220
-257.151	-109.472	0.334	-0.070
-256.136	-200.000	0.005	-0.141
-255.122	401.343	-0.140	0.290
-254.107	79.009	0.061	-0.064
-253.092	-74.815	0.275	-0.098
-252.078	-200.000	-0.063	-0.322
-251.063	-121.759	0.136	-0.022
-250.049	173.723	0.143	-0.205
-249.034	131.992	0.153	0.195
-248.019	587.786	-0.017	-0.042
-247.005	-13.438	0.141	-0.090
-245.990	563.564	0.090	-0.214
-244.976	-146.219	-0.078	0.007
-243.961	-96.264	-0.157	0.041
-242.946	-141.577	-0.044	0.004
-241.932	-31.623	0.157	-0.087
-240.917	-200.000	-0.008	0.065
-239.903	123.886	-0.106	-0.131
-238.888	117.491	0.216	-0.262
-237.873	103.289	-0.322	0.373
-236.859	234.120	0.156	0.254
-235.844	49.291	0.067	-0.062
-234.830	70.062	-0.211	0.215
-233.815	800.000	-0.036	0.118
-232.800	800.000	0.063	0.258
-231.786	330.227	0.144	0.273
-230.771	466.375	-0.095	0.211
-229.757	-153.413	0.165	-0.011
-228.742	327.052	-0.022	0.042
-227.727	-4.447	0.194	0.133
-226.713	272.867	-0.085	-0.149
-225.698	75.792	-0.204	-0.213
-224.684	103.990	0.133	0.155
-223.669	-0.446	-0.338	0.237
-222.655	800.000	0.086	-0.284
-221.640	231.833	0.113	0.183
-220.625	35.602	-0.178	0.154
-219.611	-179.131	-0.204	-0.004
-218.596	-83.181	0.347	0.110
-217.582	-103.094	-0.436	0.102
-216.567	270.764	0.072	0.125
-215.552	-200.000	0.004	0.295
-214.538	-200.000	0.008	-0.231
-213.523	-90.312	0.027	0.008
-212.509	-200.000	-0.005	-0.166
-211.494	-200.000	0.229	-0.001
-210.479	-0.963	0.202	-0.141
-209.465	800.000	0.080	0.306
-208.450	800.000	0.049	0.151
-207.436	-107.802	0.246	-0.053
-206.421	-72.275	0.220	0.080
-205.406	-0.352	0.218	-0.153
-204.392	-132.375	0.109	-0.014
-203.377	24.324	0.486	-0.397
-202.363	41.274	-0.168	0.150
-201.348	800.000	0.076	-0.283
-200.333	-200.000	0.023	0.225
-199.319	16.726	-0.090	0.070
-198.304	800.000	-0.066	-0.231
-197.290	-200.000	0.013	0.083
-196.275	-73.091	0.217	-0.079
-195.260	-49.874	0.039	-0.018
-194.246	-52.469	-0.075	0.034
-193.231	367.714	0.085	-0.169
-192.217	39.294	-0.037	-0.032
-191.202	59.950	-0.262	0.255
-190.187	-127.617	0.329	0.047
-189.173	-37.310	0.181	0.095
-188.158	-183.395	-0.238	0.004
-187.144	-105.936	0.275	0.061
-186.129	43.680	-0.101	0.092
-185.114	9.525	-0.127	0.095
-184.100	800.000	-0.077	-0.314
-183.085	-44.018	0.147	0.073
-182.071	46.295	0.082	-0.075
-181.056	-200.000	0.017	-0.202
-180.042	606.648	0.097	0.237
-179.027	-10.953	0.267	0.174
-178.012	43.156	-0.106	0.096
-176.998	-89.138	0.254	-0.074
-175.983	-96.907	0.165	0.043
-174.969	-200.000	0.016	0.117
-173.954	-120.443	0.177	0.030
-172.939	-200.000	0.008	-0.151
-171.925	-200.000	-0.011	0.065
-170.910	800.000	-0.060	-0.222
-169.896	401.351	0.113	0.234
-168.881	-138.525	-0.098	-0.011
-167.866	-190.866	-0.349	-0.004
-166.852	-35.293	-0.192	0.103
-165.837	293.056	0.053	-0.095
-164.823	-200.000	-0.044	-0.308
-163.808	-44.491	-0.337	0.166
-162.793	-63.557	-0.153	0.062
-161.779	-95.071	-0.106	0.028
-160.764	283.524	0.020	0.036
-159.750	-146.830	-0.116	0.010
-158.735	47.488	0.061	0.056
-157.720	-52.682	-0.093	0.042
-156.706	23.835	0.182	-0.148
-155.691	800.000	-0.144	0.422
-154.677	-32.632	-0.419	0.230
-153.662	-200.000	-0.010	0.062
-152.647	-162.595	-0.097	0.005
-151.633	-138.648	-0.167	-0.018
-150.618	-200.000	0.047	0.210
-149.604	322.510	0.080	0.150
-148.589	20.122	-0.226	0.180
-147.574	-100.063	0.282	-0.069
-146.560	-200.000	0.015	-0.127
-145.545	-116.934	0.286	-0.052
-144.531	800.000	0.136	-0.445
-143.516	688.275	0.112	0.289
-142.502	133.218	0.041	0.052
-141.487	-157.643	-0.370	-0.022
-140.472	365.897	0.045	0.089
-139.458	449.209	-0.086	-0.187
-138.443	800.000	-0.071	0.226
-137.429	-96.944	-0.053	-0.014
-136.414	-112.107	-0.382	-0.076
-135.399	800.000	-0.070	-0.292
-134.385	65.296	-0.069	0.069
-133.370	-200.000	0.023	-0.401
-132.356	98.618	-0.206	-0.234
-131.341	130.365	0.121	-0.153
-130.326	151.284	-0.071	-0.095
-129.312	800.000	0.089	-0.309
-128.297	-200.000	0.025	0.274
-127.283	-200.000	0.024	0.124
-126.268	-60.799	-0.040	0.017
-125.253	-200.000	0.025	0.200
-124.239	-79.536	-0.416	-0.138
-123.224	-200.000	0.040	0.181
-122.210	800.000	0.070	0.256
-121.195	-103.320	0.398	0.092
