DTS Sentinel unit serial number:	SN413079Multiplexer serial number:	ORYXHardware model number:	OX4-SRSoftware version number:	ORYX F/W v4.00 Oryx Data Collector v3.7.2.0data status	okinstallation	princeton_trtdifferential loss correction	single-endedforward channel	channel 2reverse channel	N/Adate	2019/09/12time	15:01:11forward acquisition time	60.00reverse acquisition time	0.00gamma	496.2192k internal	0.2300k external	0.2300temperature offset calibration	1.0087default loss term (dB/km)	0.3790temperature slope calibration	1.0000multiplexer offset coefficient	1.0000multiplexer slope coefficient	1.0000fibre end	0.00T internal ref (°C)	40.44T ext. ref 1 (°C)	2.35T ext. ref 2 (°C)	37.17length (m)	temperature (°C)	Stokes	anti-Stokes-747.200	-162.587	-0.302	0.015
-746.185	682.770	-0.088	0.233
-745.171	-200.000	0.012	0.054
-744.156	800.000	0.073	0.233
-743.142	-90.949	-0.097	-0.029
-742.127	-67.410	-0.077	-0.031
-741.112	148.697	0.144	-0.198
-740.098	504.785	-0.148	0.349
-739.083	-200.000	-0.018	-0.097
-738.069	467.277	-0.093	0.213
-737.054	-74.806	-0.273	-0.100
-736.039	-130.657	0.152	-0.021
-735.025	-19.265	0.252	0.160
-734.010	-200.000	-0.001	-0.450
-732.996	64.035	0.084	-0.086
-731.981	800.000	-0.019	-0.073
-730.966	-128.917	-0.135	-0.019
-729.952	-31.885	-0.130	0.074
-728.937	60.262	-0.244	-0.246
-727.923	-200.000	-0.009	-0.078
-726.908	-200.000	0.010	-0.054
-725.894	-119.339	-0.218	0.039
-724.879	167.837	-0.097	-0.141
-723.864	-163.412	-0.288	0.014
-722.850	-200.000	0.032	0.315
-721.835	-151.844	0.276	-0.021
-720.821	229.599	-0.139	-0.231
-719.806	-200.000	0.046	-0.245
-718.791	-3.558	-0.144	-0.102
-717.777	-103.123	0.114	0.028
-716.762	205.653	-0.096	-0.153
-715.748	164.494	-0.032	-0.046
-714.733	153.831	-0.197	0.275
-713.718	800.000	-0.057	0.184
-712.704	-75.782	-0.239	0.086
-711.689	417.114	-0.115	-0.251
-710.675	188.679	0.096	-0.146
-709.660	62.223	0.156	0.159
-708.645	-200.000	-0.068	0.692
-707.631	4.983	-0.234	-0.176
-706.616	-103.109	0.180	0.043
-705.602	59.904	-0.214	-0.215
-704.587	105.167	0.078	0.094
-703.572	-23.935	-0.073	0.044
-702.558	3.026	0.092	0.068
-701.543	203.826	-0.104	-0.164
-700.529	-142.343	-0.101	-0.010
-699.514	-64.850	-0.241	-0.099
-698.499	162.264	-0.119	0.170
-697.485	800.000	-0.112	0.354
-696.470	27.520	0.252	0.216
-695.456	-94.900	-0.143	0.039
-694.441	800.000	0.052	-0.162
-693.426	476.852	0.061	-0.140
-692.412	-98.565	-0.079	0.021
-691.397	-146.327	0.216	0.019
-690.383	387.836	-0.019	-0.039
-689.368	-53.052	0.436	0.204
-688.354	-91.323	0.052	-0.015
-687.339	417.493	0.150	0.325
-686.324	75.875	0.098	-0.106
-685.310	-12.912	-0.237	-0.157
-684.295	-200.000	0.015	0.189
-683.281	800.000	-0.124	-0.350
-682.266	23.415	-0.305	-0.255
-681.251	-198.462	-0.201	-0.001
-680.237	-200.000	0.017	-0.299
-679.222	800.000	0.057	-0.206
-678.208	396.978	-0.039	-0.083
-677.193	-194.860	-0.035	-0.000
-676.178	-111.224	0.232	0.048
-675.164	178.585	-0.126	0.187
-674.149	-125.547	0.186	-0.029
-673.135	186.499	0.011	0.016
-672.120	-110.392	-0.156	-0.033
-671.105	-164.524	-0.166	-0.008
-670.091	-200.000	-0.006	0.236
-669.076	143.447	0.093	0.126
-668.062	351.700	0.033	-0.066
-667.047	152.678	-0.075	0.104
-666.032	220.332	-0.165	0.269
-665.018	-200.000	-0.016	0.083
-664.003	-56.064	0.272	-0.123
-662.989	-48.438	-0.222	0.109
-661.974	-101.835	0.348	-0.086
-660.959	0.739	-0.101	0.073
-659.945	-69.576	-0.182	0.071
-658.930	-44.432	-0.201	0.102
-657.916	58.677	-0.209	-0.209
-656.901	-66.958	-0.198	-0.080
-655.886	469.367	0.066	-0.151
-654.872	800.000	0.065	-0.213
-653.857	124.797	0.210	0.268
-652.843	151.075	-0.017	-0.023
-651.828	-142.579	-0.502	0.050
-650.814	69.978	0.153	-0.160
-649.799	-61.928	0.082	0.035
-648.784	-200.000	0.026	0.431
-647.770	-62.676	-0.214	0.090
-646.755	-74.523	0.175	-0.064
-645.741	30.628	-0.111	0.096
-644.726	800.000	-0.012	0.052
-643.711	24.379	-0.135	0.113
-642.697	-109.308	0.132	-0.028
-641.682	78.742	-0.065	-0.071
-640.668	-49.370	0.216	0.105
-639.653	123.892	-0.122	-0.155
-638.638	-147.245	0.347	0.030
-637.624	-74.892	0.298	0.108
-636.609	58.909	0.314	0.314
-635.595	-55.471	0.209	0.095
-634.580	-130.355	-0.424	-0.058
-633.565	-38.012	-0.122	-0.066
-632.551	368.156	-0.065	-0.134
-631.536	-200.000	-0.019	-0.309
-630.522	84.683	-0.173	0.193
-629.507	-94.939	0.227	0.062
-628.492	209.648	0.073	-0.116
-627.478	-200.000	0.015	-0.259
-626.463	-109.084	-0.069	0.015
-625.449	12.350	-0.104	-0.081
-624.434	-89.713	0.239	0.071
-623.419	420.119	0.088	-0.192
-622.405	800.000	0.024	0.069
-621.390	-168.310	0.124	-0.005
-620.376	-103.452	-0.056	0.013
-619.361	-69.181	-0.321	-0.125
-618.346	185.792	0.048	-0.072
-617.332	125.725	0.126	-0.161
-616.317	-200.000	0.007	0.107
-615.303	-127.518	0.047	0.007
-614.288	126.980	0.191	0.245
-613.273	96.252	-0.105	-0.122
-612.259	-75.851	-0.174	-0.063
-611.244	162.340	0.078	-0.111
-610.230	-46.480	0.093	0.046
-609.215	-103.163	-0.202	0.049
-608.201	701.122	0.067	-0.178
-607.186	800.000	-0.044	-0.156
-606.171	78.382	-0.313	-0.339
-605.157	-41.307	-0.133	0.069
-604.142	-89.977	-0.036	0.011
-603.128	121.887	0.090	-0.114
-602.113	293.052	-0.212	-0.392
-601.098	-110.388	-0.189	0.040
-600.084	800.000	-0.016	-0.064
-599.069	-200.000	0.002	0.091
-598.055	-33.784	-0.208	0.116
-597.040	-10.944	0.250	-0.168
-596.025	-187.033	-0.065	0.001
-595.011	-84.921	-0.088	0.028
-593.996	-87.425	-0.464	-0.143
-592.982	-8.218	-0.096	0.066
-591.967	-126.371	-0.262	-0.040
-590.952	-200.000	0.042	-0.426
-589.938	-101.289	-0.103	0.026
-588.923	118.361	0.145	-0.181
-587.909	140.770	0.091	-0.122
-586.894	800.000	0.038	0.139
-585.879	-159.098	-0.096	0.006
-584.865	57.702	0.239	0.237
-583.850	145.553	-0.093	0.127
-582.836	-200.000	0.047	-0.327
-581.821	-200.000	-0.003	0.055
-580.806	44.742	-0.184	-0.172
-579.792	-83.121	0.201	-0.066
-578.777	79.924	0.228	-0.249
-577.763	-147.908	-0.109	-0.009
-576.748	-82.064	-0.277	0.092
-575.733	-97.148	0.287	-0.076
-574.719	93.997	0.200	0.229
-573.704	-166.686	0.181	0.008
-572.690	302.428	0.087	0.163
-571.675	-61.504	-0.318	-0.135
-570.661	-82.506	0.135	0.044
-569.646	61.197	0.212	-0.213
-568.631	800.000	-0.107	-0.382
-567.617	-91.368	0.414	-0.120
-566.602	-200.000	0.015	0.165
-565.588	371.553	-0.073	-0.149
-564.573	109.792	0.060	0.073
-563.558	137.116	-0.031	0.041
-562.544	-63.692	-0.319	0.132
-561.529	84.379	0.078	0.086
-560.515	154.869	0.198	-0.275
-559.500	-114.047	-0.124	-0.024
-558.485	-169.047	0.156	-0.006
-557.471	-200.000	0.036	0.171
-556.456	14.294	-0.049	-0.039
-555.442	559.579	0.098	-0.241
-554.427	71.084	0.187	-0.196
-553.412	-0.611	0.207	-0.149
-552.398	303.094	0.106	0.199
-551.383	106.679	-0.062	-0.075
-550.369	-126.570	0.128	-0.019
-549.354	-137.348	0.257	-0.029
-548.339	-92.087	0.092	-0.026
-547.325	-200.000	-0.048	0.218
-546.310	17.807	-0.115	0.093
-545.296	-151.098	-0.296	-0.023
-544.281	-19.515	0.106	-0.067
-543.266	-72.129	-0.197	0.074
-542.252	-126.092	-0.259	-0.039
-541.237	-71.932	0.091	-0.034
-540.223	-21.957	0.431	0.265
-539.208	-70.197	-0.115	0.044
-538.193	440.004	0.097	0.216
-537.179	303.507	0.160	0.299
-536.164	8.710	0.145	0.110
-535.150	-168.946	0.226	-0.009
-534.135	-172.736	0.448	-0.014
-533.121	800.000	0.027	0.090
-532.106	-24.335	-0.207	-0.125
-531.091	471.855	0.049	-0.111
-530.077	217.080	0.113	-0.182
-529.062	800.000	0.093	-0.395
-528.048	-82.729	-0.135	-0.044
-527.033	-28.072	-0.261	-0.153
-526.018	274.231	-0.069	-0.124
-525.004	424.813	-0.119	-0.260
-523.989	-200.000	-0.007	-0.141
-522.975	-107.199	-0.189	0.042
-521.960	-125.777	0.286	-0.044
-520.945	185.160	0.061	-0.091
-519.931	-70.636	-0.285	-0.109
-518.916	109.929	-0.143	0.173
-517.902	-99.859	-0.111	0.028
-516.887	47.370	-0.155	-0.146
-515.872	2.950	-0.149	0.109
-514.858	-123.261	-0.080	-0.013
-513.843	116.484	-0.055	0.068
-512.829	-3.366	0.184	0.130
-511.814	-53.805	-0.218	-0.101
-510.799	106.943	-0.044	-0.053
-509.785	-148.697	-0.279	-0.023
-508.770	210.849	0.115	0.183
-507.756	-22.116	-0.089	0.054
-506.741	800.000	-0.084	0.306
-505.726	-200.000	-0.002	-0.039
-504.712	80.320	0.181	0.197
-503.697	-36.333	-0.248	0.135
-502.683	-169.199	0.269	-0.010
-501.668	49.171	-0.189	-0.179
-500.653	691.472	-0.124	-0.329
-499.639	-44.091	0.256	0.130
-498.624	-200.000	0.025	0.320
-497.610	-200.000	0.023	-0.116
-496.595	800.000	-0.053	0.216
-495.581	-200.000	0.055	-0.242
-494.566	258.310	-0.057	-0.100
-493.551	488.884	0.103	0.239
-492.537	154.093	0.220	-0.305
-491.522	270.781	0.038	0.068
-490.508	-107.668	-0.202	0.045
-489.493	456.267	-0.147	0.330
-488.478	-34.932	-0.238	0.131
-487.464	648.718	-0.065	0.168
-486.449	-200.000	0.014	-0.394
-485.435	104.983	-0.127	-0.152
-484.420	-56.659	-0.296	0.132
-483.405	-112.461	-0.221	-0.045
-482.391	-36.044	0.179	-0.097
-481.376	800.000	-0.080	0.322
-480.362	-20.115	0.239	0.149
-479.347	800.000	0.097	-0.391
-478.332	84.901	-0.302	0.335
-477.318	-59.899	-0.067	0.029
-476.303	655.107	-0.103	0.266
-475.289	719.830	0.032	-0.086
-474.274	623.025	0.095	-0.241
-473.259	-200.000	0.044	-0.410
-472.245	698.269	-0.059	0.158
-471.230	-200.000	0.004	-0.087
-470.216	-116.554	-0.146	-0.027
-469.201	-200.000	0.037	-0.226
-468.186	386.234	-0.142	0.295
-467.172	-159.519	0.225	0.013
-466.157	-25.505	-0.062	0.037
-465.143	76.537	0.055	0.059
-464.128	201.652	0.086	-0.134
-463.113	-32.969	-0.106	0.059
-462.099	-11.572	0.157	0.104
-461.084	-200.000	0.023	-0.327
-460.070	-23.248	-0.071	-0.043
-459.055	7.710	0.239	0.180
-458.040	-75.967	0.178	-0.064
-457.026	-19.696	0.277	0.173
-456.011	-141.917	0.330	0.033
-454.997	0.026	0.116	0.084
-453.982	625.217	-0.009	-0.023
-452.968	-69.220	-0.189	-0.073
-451.953	-68.022	-0.057	0.022
-450.938	24.716	0.317	0.265
-449.924	149.729	-0.103	0.140
-448.909	300.271	0.059	-0.110
-447.895	216.551	-0.069	-0.111
-446.880	-200.000	0.027	0.433
-445.865	-2.991	0.073	0.051
-444.851	-190.505	0.635	-0.007
-443.836	-126.895	0.287	0.043
-442.822	800.000	-0.066	0.287
-441.807	-108.439	-0.196	0.043
-440.792	-200.000	-0.025	0.227
-439.778	-54.504	-0.136	-0.062
-438.763	-136.260	0.177	-0.021
-437.749	800.000	-0.015	-0.046
-436.734	1.687	-0.230	0.167
-435.719	-168.767	-0.241	-0.009
-434.705	-200.000	0.005	-0.302
-433.690	257.006	0.089	-0.155
-432.676	-200.000	0.048	-0.383
-431.661	-55.015	0.146	0.066
-430.646	388.505	-0.045	0.093
-429.632	-28.507	-0.072	-0.042
-428.617	800.000	0.045	-0.152
-427.603	-200.000	0.027	0.213
-426.588	14.722	0.268	-0.211
-425.573	25.951	0.219	-0.184
-424.559	102.519	-0.080	-0.094
-423.544	27.643	0.214	-0.181
-422.530	47.817	-0.055	-0.052
-421.515	-100.834	0.192	0.047
-420.500	-200.000	-0.011	0.070
-419.486	-152.080	0.270	0.020
-418.471	-200.000	-0.036	-0.283
-417.457	309.450	-0.098	0.185
-416.442	367.793	0.127	0.259
-415.428	577.635	0.056	0.139
-414.413	-72.754	-0.144	-0.053
-413.398	16.126	-0.208	-0.165
-412.384	-132.584	0.278	-0.036
-411.369	357.483	-0.130	0.261
-410.355	52.616	-0.196	0.188
-409.340	-114.378	-0.490	-0.095
-408.325	-57.962	-0.107	0.047
-407.311	95.239	-0.187	-0.215
-406.296	58.965	0.203	-0.201
-405.282	-200.000	0.013	-0.183
-404.267	-200.000	0.017	0.114
-403.252	58.018	0.100	0.098
-402.238	-200.000	0.002	0.071
-401.223	-69.589	0.027	-0.010
-400.209	93.290	0.173	-0.197
-399.194	-130.108	-0.205	-0.028
-398.179	62.699	0.221	-0.222
-397.165	-200.000	-0.040	-0.250
-396.150	179.763	-0.226	-0.334
-395.136	45.029	0.184	-0.171
-394.121	-200.000	0.007	0.059
-393.106	54.906	-0.116	-0.113
-392.092	800.000	-0.040	0.171
-391.077	800.000	-0.070	0.303
-390.063	488.188	0.095	0.217
-389.048	335.928	0.057	-0.112
-388.033	-23.959	0.129	-0.078
-387.019	489.414	-0.142	-0.326
-386.004	107.695	0.093	-0.111
-384.990	-146.236	0.132	-0.012
-383.975	287.683	0.103	0.187
-382.960	800.000	0.064	0.235
-381.946	-61.557	-0.150	-0.063
-380.931	-189.151	0.060	-0.001
-379.917	-15.740	-0.125	0.080
-378.902	-19.275	0.093	-0.058
-377.888	-52.690	-0.159	-0.074
-376.873	-91.055	-0.169	0.049
-375.858	-200.000	0.018	-0.257
-374.844	-200.000	0.032	0.182
-373.829	240.800	0.106	0.178
-372.815	240.082	-0.116	-0.195
-371.800	-200.000	0.003	-0.081
-370.785	40.297	-0.092	0.083
-369.771	46.695	-0.104	0.097
-368.756	140.156	0.135	0.179
-367.742	35.844	-0.229	0.203
-366.727	800.000	0.058	-0.254
-365.712	-90.042	-0.079	-0.023
-364.698	800.000	-0.110	-0.417
-363.683	153.461	-0.090	-0.124
-362.669	-200.000	0.073	0.333
-361.654	-200.000	0.029	-0.214
-360.639	-105.790	0.220	-0.050
-359.625	3.481	-0.217	-0.159
-358.610	-146.685	-0.111	-0.010
-357.596	-160.296	-0.352	-0.019
-356.581	-106.838	0.194	0.043
-355.566	112.953	0.183	0.222
-354.552	663.373	-0.101	0.262
-353.537	-180.415	0.215	0.004
-352.523	-97.489	-0.228	-0.059
-351.508	412.478	-0.121	0.259
-350.493	-58.596	-0.123	-0.054
-349.479	800.000	-0.047	0.167
-348.464	-74.283	-0.160	-0.058
-347.450	-24.382	-0.136	0.081
-346.435	-119.173	0.250	0.044
-345.420	291.329	0.058	-0.106
-344.406	28.205	-0.096	-0.081
-343.391	415.608	-0.149	-0.318
-342.377	512.250	-0.105	0.245
-341.362	56.138	0.077	0.075
-340.348	-1.854	0.088	0.062
-339.333	55.224	-0.154	0.150
-338.318	588.663	0.077	0.190
-337.304	236.357	0.048	-0.079
-336.289	79.393	0.262	0.282
-335.275	-42.648	0.245	0.125
-334.260	-33.981	0.202	0.111
-333.245	64.733	-0.198	-0.200
-332.231	-200.000	-0.024	-0.160
-331.216	-189.257	-0.221	-0.003
-330.202	-66.021	0.122	-0.049
-329.187	-200.000	0.008	-0.409
-328.172	171.583	0.046	-0.066
-327.158	-200.000	0.010	-0.083
-326.143	468.534	-0.081	-0.182
-325.129	-70.023	-0.164	-0.063
-324.114	-200.000	-0.034	-0.257
-323.099	3.755	-0.141	0.103
-322.085	-200.000	-0.034	-0.194
-321.070	-144.251	-0.487	0.046
-320.056	72.100	0.197	-0.206
-319.041	58.298	0.118	0.116
-318.026	183.990	0.101	0.150
-317.012	-143.690	-0.063	-0.006
-315.997	-200.000	-0.004	-0.160
-314.983	709.749	0.059	0.157
-313.968	700.143	0.057	-0.151
-312.953	800.000	0.037	0.131
-311.939	-17.959	-0.172	-0.108
-310.924	-89.541	-0.209	-0.061
-309.910	185.507	-0.174	0.259
-308.895	-194.129	0.060	0.000
-307.880	-200.000	0.013	-0.220
-306.866	18.737	0.070	-0.056
-305.851	200.862	0.110	0.170
-304.837	85.820	-0.193	-0.213
-303.822	47.894	0.158	0.148
-302.807	-69.230	0.157	-0.061
-301.793	-21.424	-0.351	-0.215
-300.778	-200.000	-0.036	0.188
-299.764	0.706	-0.156	0.112
-298.749	-200.000	0.063	0.386
-297.735	637.830	0.099	0.252
-296.720	77.416	-0.155	0.166
-295.705	-10.434	-0.251	-0.167
-294.691	-84.665	-0.122	-0.039
-293.676	3.605	0.091	-0.067
-292.662	-153.161	-0.102	0.007
-291.647	8.632	-0.551	-0.416
-290.632	38.336	-0.195	-0.174
-289.618	47.716	-0.222	0.208
-288.603	566.915	0.167	0.407
-287.589	300.802	-0.110	0.203
-286.574	12.941	-0.207	0.161
-285.559	-118.243	-0.215	0.038
-284.545	-115.752	0.074	0.014
-283.530	452.062	0.138	-0.307
-282.516	-114.210	-0.177	0.034
-281.501	-130.852	0.280	-0.038
-280.486	-73.518	0.175	0.064
-279.472	165.291	0.215	0.305
-278.457	-200.000	-0.074	0.390
-277.443	283.391	0.045	0.082
-276.428	453.742	0.136	0.302
-275.413	-80.110	-0.132	-0.044
-274.399	800.000	-0.080	0.286
-273.384	11.601	0.192	0.148
-272.370	746.645	-0.077	0.209
-271.355	-40.176	-0.136	-0.071
-270.340	800.000	0.045	-0.192
-269.326	-161.142	-0.252	-0.013
-268.311	-15.459	0.227	-0.145
-267.297	-36.675	0.166	0.090
-266.282	39.635	-0.267	-0.240
-265.267	61.714	-0.110	-0.110
-264.253	525.183	-0.065	0.153
-263.238	800.000	-0.049	-0.202
-262.224	226.582	-0.073	0.119
-261.209	-189.807	0.246	-0.003
-260.195	-200.000	0.058	-0.395
-259.180	-118.779	0.449	-0.079
-258.165	300.142	0.087	-0.161
-257.151	-111.480	-0.155	0.032
-256.136	-85.918	0.357	0.111
-255.122	156.982	-0.088	0.122
-254.107	-79.496	0.170	0.058
-253.092	177.866	-0.116	0.169
-252.078	461.616	0.124	0.277
-251.063	-117.123	0.212	0.039
-250.049	-184.312	0.051	-0.001
-249.034	15.975	-0.188	0.148
-248.019	-156.030	0.125	0.008
-247.005	156.004	-0.107	0.147
-245.990	-35.881	0.253	0.137
-244.976	83.659	-0.034	0.037
-243.961	-31.656	-0.176	0.099
-242.946	-33.745	0.055	0.031
-241.932	-200.000	-0.053	-0.245
-240.917	671.305	0.090	0.234
-239.903	-146.682	0.252	0.022
-238.888	-140.006	0.083	0.009
-237.873	153.851	0.186	-0.255
-236.859	-106.525	-0.279	-0.062
-235.844	-27.048	-0.243	0.142
-234.830	4.422	0.092	0.067
-233.815	349.097	0.075	0.148
-232.800	-108.107	0.597	0.129
-231.786	-200.000	0.104	0.520
-230.771	117.494	-0.133	-0.164
-229.757	-166.285	-0.082	0.003
-228.742	-200.000	-0.006	-0.304
-227.727	21.270	0.122	0.099
-226.713	159.972	-0.150	-0.208
-225.698	169.745	-0.068	0.097
-224.684	599.576	-0.034	0.085
-223.669	195.233	0.014	-0.022
-222.655	-47.237	0.150	0.073
-221.640	-105.543	-0.336	0.076
-220.625	-43.598	0.195	-0.098
-219.611	-188.287	-0.266	-0.003
-218.596	174.294	0.067	-0.097
-217.582	0.037	-0.277	-0.197
-216.567	87.123	0.019	-0.021
-215.552	6.394	0.130	-0.096
-214.538	35.214	-0.066	-0.058
-213.523	367.566	-0.032	0.064
-212.509	95.715	-0.026	-0.030
-211.494	-97.860	-0.153	0.039
-210.479	-200.000	-0.009	-0.085
-209.465	-75.804	0.073	-0.026
-208.450	-152.878	0.168	-0.012
-207.436	29.121	0.106	0.090
-206.421	-97.494	0.119	-0.031
-205.406	-79.626	-0.348	-0.117
-204.392	250.397	0.115	0.195
-203.377	800.000	0.054	-0.189
-202.363	198.390	0.035	0.053
-201.348	-200.000	0.007	-0.228
-200.333	329.127	0.028	0.054
-199.319	356.260	0.106	-0.211
-198.304	-200.000	0.011	-0.097
-197.290	507.069	0.031	-0.073
-196.275	57.019	0.244	-0.238
-195.260	-109.717	-0.220	0.046
-194.246	-78.784	0.095	-0.032
-193.231	-200.000	-0.071	0.326
-192.217	-127.474	-0.151	-0.022
-191.202	-79.933	-0.294	0.099
-190.187	76.766	-0.117	-0.124
-189.173	35.459	0.213	0.187
-188.158	-200.000	-0.003	-0.352
-187.144	-70.142	0.190	0.072
-186.129	144.270	-0.144	0.192
-185.114	-200.000	-0.024	0.180
-184.100	-200.000	-0.016	0.288
-183.085	185.470	-0.015	0.022
-182.071	-4.090	-0.142	-0.098
-181.056	-50.570	0.261	-0.123
-180.042	800.000	-0.009	-0.036
-179.027	776.666	0.119	-0.324
-178.012	-52.447	0.335	0.154
-176.998	357.774	-0.228	-0.453
-175.983	-90.706	0.281	0.081
-174.969	-158.082	0.510	0.030
-173.954	776.227	-0.064	0.174
-172.939	-66.486	0.167	0.066
-171.925	-200.000	0.001	-0.033
-170.910	-3.713	0.198	-0.137
-169.896	-73.646	0.159	0.058
-168.881	-44.884	0.118	0.059
-167.866	33.261	-0.224	0.194
-166.852	209.169	0.054	0.084
-165.837	800.000	-0.025	-0.087
-164.823	87.827	-0.228	-0.252
-163.808	-119.860	0.107	-0.018
-162.793	-82.710	-0.180	0.058
-161.779	-64.397	0.113	0.046
-160.764	-200.000	0.011	0.529
-159.750	-118.143	0.129	-0.023
-158.735	116.020	-0.147	0.179
-157.720	143.283	-0.257	0.341
-156.706	413.999	-0.089	0.188
-155.691	118.776	-0.206	-0.254
-154.677	-97.944	0.064	-0.017
-153.662	470.739	-0.110	0.246
-152.647	132.378	-0.162	0.208
-151.633	356.582	-0.058	0.115
-150.618	-137.983	0.374	0.042
-149.604	-116.610	0.249	0.046
-148.589	534.938	0.093	-0.220
-147.574	800.000	-0.045	-0.192
-146.560	-200.000	-0.004	-0.026
-145.545	-134.442	0.130	-0.016
-144.531	-200.000	-0.011	-0.094
-143.516	-141.868	0.314	-0.031
-142.502	-79.389	0.204	-0.069
-141.487	-20.974	-0.372	0.227
-140.472	-155.677	0.196	0.013
-139.458	-200.000	0.012	0.209
-138.443	35.910	-0.362	0.317
-137.429	75.583	0.197	-0.207
-136.414	45.591	0.044	-0.040
-135.399	-100.434	0.239	0.059
-134.385	257.590	-0.100	-0.171
-133.370	554.979	-0.046	0.111
-132.356	-37.057	-0.476	-0.254
-131.341	-200.000	-0.022	-0.122
-130.326	-162.968	0.076	-0.004
-129.312	202.728	-0.070	-0.107
-128.297	305.428	-0.190	0.352
-127.283	35.311	-0.074	0.065
-126.268	-1.558	0.199	0.140
-125.253	-200.000	0.058	0.304
-124.239	-3.187	0.179	-0.124
-123.224	-102.441	-0.101	0.024
-122.210	-200.000	0.007	0.040
-121.195	141.253	0.044	-0.058
