DTS Sentinel unit serial number:	SN413079Multiplexer serial number:	ORYXHardware model number:	OX4-SRSoftware version number:	ORYX F/W v4.00 Oryx Data Collector v3.7.2.0data status	okinstallation	princeton_trtdifferential loss correction	single-endedforward channel	channel 2reverse channel	N/Adate	2019/09/12time	19:33:49forward acquisition time	15.00reverse acquisition time	0.00gamma	496.2192k internal	0.2326k external	0.2326temperature offset calibration	1.0156default loss term (dB/km)	0.3790temperature slope calibration	1.0000multiplexer offset coefficient	1.0000multiplexer slope coefficient	1.0000fibre end	0.00T internal ref (°C)	32.19T ext. ref 1 (°C)	3.38T ext. ref 2 (°C)	26.74length (m)	temperature (°C)	Stokes	anti-Stokes-747.200	-200.000	0.886	-0.004
-746.185	-108.899	0.684	-0.147
-745.171	104.026	-0.335	-0.398
-744.156	94.246	0.799	0.915
-743.142	85.592	-0.554	0.614
-742.127	-0.767	0.749	0.535
-741.112	800.000	0.230	0.794
-740.098	800.000	-0.154	-0.433
-739.083	401.194	0.415	-0.879
-738.069	370.988	0.465	0.951
-737.054	22.670	0.195	-0.161
-736.039	-113.053	0.108	0.021
-735.025	21.248	-0.207	-0.169
-734.010	-200.000	0.012	0.477
-732.996	-123.532	-0.630	-0.101
-731.981	-157.279	0.424	-0.026
-730.966	174.168	-0.367	0.534
-729.952	193.897	0.311	0.474
-728.937	-200.000	-0.044	0.275
-727.923	-63.866	-0.069	0.029
-726.908	-52.002	0.537	0.251
-725.894	91.138	0.589	-0.666
-724.879	-157.129	0.383	0.023
-723.864	-86.015	-0.190	-0.059
-722.850	-98.178	0.725	0.188
-721.835	360.318	0.181	0.366
-720.821	-41.201	-0.409	0.213
-719.806	0.556	0.474	0.342
-718.791	-35.461	-0.497	0.272
-717.777	149.644	0.300	-0.409
-716.762	-103.231	-0.335	-0.080
-715.748	182.427	0.417	0.619
-714.733	800.000	0.165	-0.544
-713.718	-24.070	-0.251	0.151
-712.704	-200.000	-0.041	-0.195
-711.689	-77.536	-0.665	-0.232
-710.675	274.145	0.116	-0.207
-709.660	8.141	0.268	-0.203
-708.645	-45.740	-0.463	-0.230
-707.631	-113.618	0.877	-0.173
-706.616	-36.124	0.655	-0.356
-705.602	800.000	-0.129	-0.435
-704.587	740.942	0.142	0.383
-703.572	-200.000	0.081	-0.385
-702.558	-149.969	0.667	-0.052
-701.543	-60.103	0.545	0.234
-700.529	29.318	0.450	-0.385
-699.514	-7.770	0.492	-0.335
-698.499	-124.046	-0.830	-0.131
-697.485	187.774	-0.460	-0.691
-696.470	122.379	-0.297	0.373
-695.456	-77.191	-0.917	-0.322
-694.441	526.453	0.249	-0.590
-693.426	-200.000	-0.177	0.807
-692.412	-200.000	0.006	-0.373
-691.397	-138.504	-0.712	0.079
-690.383	-108.766	-1.023	-0.220
-689.368	-200.000	-0.083	-0.543
-688.354	341.634	0.273	0.537
-687.339	-32.994	0.228	-0.128
-686.324	800.000	-0.400	-1.436
-685.310	396.576	-0.106	0.223
-684.295	800.000	-0.257	0.899
-683.281	800.000	0.078	-0.296
-682.266	416.087	0.284	0.610
-681.251	-15.114	-0.150	0.097
-680.237	800.000	0.046	-0.198
-679.222	-200.000	0.378	0.001
-678.208	-200.000	0.144	-0.671
-677.193	-124.717	-0.619	-0.096
-676.178	-200.000	-0.075	-0.530
-675.164	-115.987	-0.665	-0.125
-674.149	153.261	-0.390	0.537
-673.135	142.602	0.251	-0.336
-672.120	800.000	0.339	1.060
-671.105	217.131	0.325	-0.521
-670.091	800.000	-0.247	0.971
-669.076	473.946	-0.258	0.585
-668.062	137.543	-0.354	-0.466
-667.047	131.543	0.386	0.499
-666.032	800.000	-0.209	0.831
-665.018	33.192	0.360	0.314
-664.003	58.236	0.336	-0.331
-662.989	291.282	-0.494	0.903
-661.974	-200.000	-0.002	-0.043
-660.959	3.946	0.327	0.240
-659.945	-179.578	0.087	-0.002
-658.930	118.839	0.046	0.057
-657.916	-200.000	-0.095	0.745
-656.901	-162.168	0.464	-0.023
-655.886	-194.998	-1.329	0.010
-654.872	800.000	0.116	-0.366
-653.857	-50.783	-0.369	-0.175
-652.843	342.397	-0.120	-0.237
-651.828	800.000	-0.090	0.397
-650.814	-119.198	0.721	0.126
-649.799	800.000	0.227	0.661
-648.784	131.527	0.065	-0.084
-647.770	-57.540	0.343	-0.151
-646.755	259.726	0.423	-0.734
-645.741	142.922	-0.409	0.546
-644.726	800.000	0.224	-0.717
-643.711	-126.134	-0.448	0.067
-642.697	88.127	-0.074	0.082
-641.682	-158.279	-0.152	0.009
-640.668	-200.000	0.220	-1.115
-639.653	111.628	-0.218	0.264
-638.638	-95.139	0.449	0.122
-637.624	155.036	0.158	0.219
-636.609	412.123	0.380	0.811
-635.595	-70.753	-0.267	-0.101
-634.580	-200.000	0.065	0.406
-633.565	-106.840	0.256	-0.057
-632.551	-54.491	0.830	0.377
-631.536	74.696	-0.132	0.139
-630.522	800.000	-0.200	0.796
-629.507	-55.637	-0.343	-0.154
-628.492	472.160	0.183	-0.413
-627.478	-125.094	-0.101	0.016
-626.463	-57.542	-0.205	-0.090
-625.449	91.630	0.588	-0.663
-624.434	-78.934	-0.436	-0.149
-623.419	-181.890	0.452	0.009
-622.405	11.984	0.194	0.150
-621.390	105.176	-0.495	-0.586
-620.376	611.882	0.402	1.009
-619.361	-91.707	-0.478	-0.136
-618.346	-200.000	0.133	-0.712
-617.332	154.817	-0.461	0.635
-616.317	-200.000	-0.128	-0.731
-615.303	207.650	0.148	-0.232
-614.288	-200.000	0.043	-0.409
-613.273	276.417	0.148	0.264
-612.259	106.696	0.450	0.535
-611.244	-141.859	-0.664	0.067
-610.230	26.788	0.266	0.224
-609.215	-139.158	-0.130	-0.014
-608.201	-85.912	-0.443	0.138
-607.186	11.301	-0.732	0.563
-606.171	144.817	-0.279	-0.374
-605.157	-46.695	0.151	-0.074
-604.142	-121.239	-0.715	0.120
-603.128	800.000	-0.175	-0.548
-602.113	305.641	0.366	-0.682
-601.098	800.000	0.117	-0.387
-600.084	-127.388	-0.727	-0.106
-599.069	342.894	0.039	-0.076
-598.055	-41.140	-0.617	0.319
-597.040	-200.000	0.082	-0.427
-596.025	-200.000	0.029	-1.238
-595.011	145.522	-0.148	0.199
-593.996	121.420	0.325	-0.407
-592.982	1.206	-0.186	-0.134
-591.967	181.595	-0.142	0.210
-590.952	-200.000	0.153	1.007
-589.938	129.936	0.202	0.259
-588.923	211.651	0.379	-0.598
-587.909	-68.012	-0.449	-0.176
-586.894	-1.351	-0.539	-0.382
-585.879	-200.000	0.189	-0.857
-584.865	59.649	0.162	0.160
-583.850	-102.535	-1.142	0.274
-582.836	-66.889	-0.857	-0.340
-581.821	800.000	-0.070	-0.212
-580.806	248.213	-0.387	-0.655
-579.792	3.146	0.131	-0.095
-578.777	-117.816	0.466	-0.084
-577.763	-130.041	0.397	0.054
-576.748	-68.093	-0.362	0.141
-575.733	6.405	0.537	-0.399
-574.719	-169.274	0.307	-0.011
-573.704	-77.122	-0.196	0.068
-572.690	627.716	-0.034	0.086
-571.675	158.874	0.249	-0.347
-570.661	1.114	0.441	-0.317
-569.646	-15.038	-0.437	0.281
-568.631	800.000	-0.078	-0.265
-567.617	207.287	0.452	0.707
-566.602	-38.977	0.065	0.035
-565.588	-95.072	-0.492	0.133
-564.573	-8.738	-0.404	0.272
-563.558	139.511	0.182	-0.239
-562.544	58.408	0.218	0.215
-561.529	77.126	-0.527	-0.561
-560.515	-28.711	-0.600	0.346
-559.500	-136.022	-0.179	0.021
-558.485	-78.007	0.640	0.221
-557.471	-142.136	0.877	0.087
-556.456	-158.715	0.581	-0.033
-555.442	-142.928	-0.865	-0.084
-554.427	33.033	-0.383	-0.332
-553.412	-69.875	-0.211	-0.081
-552.398	72.632	-0.338	-0.353
-551.383	555.384	0.130	-0.312
-550.369	-200.000	0.098	-0.457
-549.354	744.347	-0.036	-0.097
-548.339	48.097	-0.206	0.193
-547.325	-42.738	0.233	0.119
-546.310	52.580	0.810	-0.774
-545.296	-74.591	0.488	-0.176
-544.281	80.268	0.496	0.535
-543.266	226.058	-0.271	-0.440
-542.252	-59.547	-0.628	0.270
-541.237	-120.582	0.403	0.068
-540.223	-200.000	-0.131	-0.646
-539.208	-200.000	-0.132	-0.714
-538.193	240.323	-0.144	-0.240
-537.179	-121.654	0.378	-0.063
-536.164	-118.821	-0.626	0.110
-535.150	98.213	0.105	-0.121
-534.135	33.381	0.906	-0.786
-533.121	464.210	0.230	0.515
-532.106	-17.976	-0.201	-0.126
-531.091	111.226	-0.240	-0.289
-530.077	-71.264	-0.507	-0.190
-529.062	-163.431	-0.673	-0.032
-528.048	503.845	0.574	-1.327
-527.033	111.602	-0.441	0.532
-526.018	-200.000	0.017	-0.522
-525.004	800.000	-0.052	0.180
-523.989	800.000	-0.126	-0.388
-522.975	-129.208	-0.526	-0.073
-521.960	-200.000	-0.011	-0.279
-520.945	-82.213	0.834	0.272
-519.931	252.428	-0.247	-0.422
-518.916	800.000	0.089	0.384
-517.902	-162.782	-0.363	0.018
-516.887	-135.230	-0.640	0.077
-515.872	-32.553	-0.704	-0.392
-514.858	-124.617	0.667	0.103
-513.843	-11.362	0.314	-0.207
-512.829	374.621	-0.167	-0.340
-511.814	800.000	-0.226	0.664
-510.799	-21.862	-0.962	0.585
-509.785	800.000	0.202	0.702
-508.770	-35.140	0.657	0.358
-507.756	-84.404	0.578	0.183
-506.741	-81.773	0.379	0.124
-505.726	294.379	0.423	-0.772
-504.712	-125.352	0.476	-0.072
-503.697	-35.928	0.438	-0.237
-502.683	-74.999	-0.898	0.321
-501.668	-200.000	0.027	-0.766
-500.653	-107.558	0.430	0.094
-499.639	-105.779	0.109	0.025
-498.624	274.048	0.394	0.696
-497.610	-27.611	0.751	0.436
-496.595	261.700	-0.129	-0.224
-495.581	-137.338	0.995	-0.113
-494.566	152.776	-0.261	-0.356
-493.551	-21.659	-0.330	0.201
-492.537	-42.369	-0.757	-0.386
-491.522	121.768	-0.317	0.395
-490.508	-200.000	0.028	0.377
-489.493	-24.782	0.494	0.293
-488.478	181.322	0.366	0.538
-487.464	-83.778	-0.624	-0.199
-486.449	-41.387	0.423	-0.218
-485.435	-72.162	0.265	-0.098
-484.420	-200.000	0.016	0.213
-483.405	-94.661	0.556	-0.151
-482.391	800.000	-0.101	0.355
-481.376	-43.303	0.088	0.044
-480.362	-60.446	-0.579	-0.246
-479.347	800.000	0.217	-0.653
-478.332	287.966	-0.219	-0.395
-477.318	97.868	0.280	-0.321
-476.303	365.569	0.050	0.101
-475.289	-96.381	-1.269	-0.335
-474.274	358.864	-0.193	-0.384
-473.259	375.261	-0.137	-0.278
-472.245	-87.456	-0.985	0.298
-471.230	-81.485	0.377	-0.124
-470.216	-131.136	0.390	-0.052
-469.201	800.000	-0.117	0.384
-468.186	-200.000	0.041	0.440
-467.172	446.998	0.291	0.639
-466.157	97.877	-0.295	0.338
-465.143	54.664	0.072	0.069
-464.128	-33.260	-0.743	-0.411
-463.113	59.887	0.236	0.232
-462.099	11.412	-0.596	-0.455
-461.084	51.805	-0.753	0.715
-460.070	800.000	-0.148	0.420
-459.055	-128.665	0.050	0.007
-458.040	605.904	0.081	0.202
-457.026	-200.000	0.012	0.278
-456.011	-200.000	0.061	-0.331
-454.997	-82.718	0.683	0.220
-453.982	432.794	0.347	0.750
-452.968	-89.321	0.307	-0.090
-451.953	154.505	0.330	-0.452
-450.938	12.426	0.498	0.382
-449.924	-74.328	-0.358	0.129
-448.909	-36.718	0.349	0.187
-447.895	65.041	0.875	0.881
-446.880	168.104	0.189	0.268
-445.865	44.998	-0.329	-0.302
-444.851	305.221	0.439	0.812
-443.836	-200.000	0.096	-0.566
-442.822	-200.000	-0.018	-0.265
-441.807	-106.032	-0.741	-0.166
-440.792	800.000	-0.249	0.769
-439.778	19.738	-0.106	0.085
-438.763	-83.220	-0.529	0.169
-437.749	-186.455	0.590	0.008
-436.734	-160.431	-1.086	0.058
-435.719	-200.000	0.026	0.134
-434.705	-71.075	-0.314	0.118
-433.690	9.670	0.897	-0.678
-432.676	-143.466	0.543	0.052
-431.661	-163.884	-0.037	-0.002
-430.646	-73.877	0.246	-0.089
-429.632	-124.757	1.012	-0.156
-428.617	-0.111	-0.632	-0.448
-427.603	-136.422	-0.209	-0.024
-426.588	-0.713	0.744	-0.526
-425.573	-27.446	0.372	-0.215
-424.559	-200.000	-0.137	1.054
-423.544	-200.000	0.657	0.002
-422.530	-188.599	-0.109	-0.001
-421.515	-1.465	0.551	0.387
-420.500	-101.321	0.444	0.108
-419.486	-53.385	-0.298	0.136
-418.471	92.981	-0.482	0.542
-417.457	800.000	0.140	-0.542
-416.442	121.336	0.624	-0.774
-415.428	224.203	0.079	0.128
-414.413	-85.752	-0.555	0.171
-413.398	69.428	0.582	-0.597
-412.384	407.803	0.187	0.393
-411.369	189.702	-0.234	0.350
-410.355	800.000	-0.198	0.589
-409.340	127.319	-0.185	0.234
-408.325	195.255	-0.262	0.396
-407.311	-132.989	-0.533	-0.067
-406.296	800.000	-0.039	-0.118
-405.282	-200.000	0.029	0.184
-404.267	250.109	-0.135	0.228
-403.252	37.929	-0.558	0.494
-402.238	-9.861	0.522	-0.346
-401.223	-200.000	-0.030	-0.212
-400.209	666.947	0.190	0.489
-399.194	-136.537	-0.622	-0.072
-398.179	-29.418	0.568	-0.323
-397.165	-54.987	0.715	-0.321
-396.150	670.893	-0.206	0.532
-395.136	23.105	0.474	0.387
-394.121	800.000	-0.128	0.528
-393.106	340.756	-0.084	-0.163
-392.092	113.553	-0.209	-0.253
-391.077	-49.157	-1.089	0.518
-390.063	229.353	-0.154	0.250
-389.048	56.130	0.397	-0.384
-388.033	-75.265	0.340	0.121
-387.019	114.860	-0.562	0.682
-386.004	17.788	0.681	0.539
-384.990	-200.000	0.043	-0.772
-383.975	-200.000	-0.089	0.539
-382.960	-43.977	0.299	0.150
-381.946	223.259	-0.202	-0.324
-380.931	-200.000	0.139	-0.695
-379.917	-114.396	-0.216	-0.041
-378.902	-13.243	0.590	0.381
-377.888	70.430	-0.467	0.480
-376.873	50.352	-0.120	-0.113
-375.858	221.210	0.381	0.608
-374.844	-133.205	-0.734	-0.092
-373.829	69.179	-0.305	-0.312
-372.815	-38.466	0.304	0.160
-371.800	-200.000	-0.027	0.151
-370.785	-42.476	-0.211	0.107
-369.771	-200.000	0.064	0.465
-368.756	-200.000	-0.017	0.433
-367.742	-61.946	-0.193	-0.080
-366.727	-137.604	0.950	-0.106
-365.712	-120.134	-0.451	-0.077
-364.698	800.000	0.122	0.456
-363.683	326.479	-0.501	0.953
-362.669	800.000	0.121	0.459
-361.654	-47.543	0.302	-0.146
-360.639	-154.823	0.134	-0.009
-359.625	36.878	0.759	-0.667
-358.610	136.966	0.137	0.177
-357.596	-200.000	-0.011	-0.413
-356.581	54.108	-0.534	-0.510
-355.566	161.415	0.282	0.392
-354.552	-145.306	0.680	0.061
-353.537	800.000	-0.025	-0.108
-352.523	18.029	-0.626	-0.495
-351.508	800.000	-0.136	-0.392
-350.493	173.264	0.132	-0.189
-349.479	-89.826	-0.447	-0.130
-348.464	-200.000	-0.065	-0.588
-347.450	622.218	0.129	0.322
-346.435	3.853	0.301	-0.218
-345.420	-145.770	0.300	0.027
-344.406	-200.000	0.005	-0.257
-343.391	800.000	-0.106	-0.324
-342.377	-24.423	0.628	-0.372
-341.362	-111.159	-0.329	0.067
-340.348	123.301	0.436	-0.543
-339.333	-176.387	0.423	-0.011
-338.318	800.000	-0.255	0.740
-337.304	491.723	0.170	0.386
-336.289	-109.348	0.502	-0.106
-335.275	16.969	-0.025	-0.019
-334.260	241.242	-0.312	-0.516
-333.245	-200.000	0.045	0.526
-332.231	329.716	0.108	0.206
-331.216	548.441	0.417	-0.992
-330.202	-60.298	0.359	-0.152
-329.187	89.603	-0.361	-0.400
-328.172	-200.000	0.006	-0.269
-327.158	397.872	0.257	-0.533
-326.143	-21.518	-0.439	-0.266
-325.129	-68.194	0.135	0.052
-324.114	101.112	-0.568	0.656
-323.099	111.641	0.167	0.200
-322.085	225.096	0.150	0.240
-321.070	-112.856	-0.145	0.029
-320.056	800.000	0.166	0.497
-319.041	-200.000	0.102	0.921
-318.026	-93.023	0.439	-0.121
-317.012	-163.260	-0.312	0.015
-315.997	-49.653	0.641	0.302
-314.983	543.418	0.194	-0.460
-313.968	800.000	0.089	0.289
-312.953	-200.000	0.018	-0.563
-311.939	-49.125	-0.092	-0.044
-310.924	-69.503	0.075	0.028
-309.910	417.287	0.133	0.281
-308.895	800.000	-0.086	-0.327
-307.880	-136.002	-0.576	-0.067
-306.866	459.720	-0.168	0.370
-305.851	-200.000	0.029	0.694
-304.837	350.335	-0.208	0.408
-303.822	800.000	0.040	0.163
-302.807	-63.147	-0.506	0.207
-301.793	502.868	-0.563	1.290
-300.778	79.303	-0.523	-0.556
-299.764	193.176	-0.443	0.663
-298.749	-200.000	-0.038	0.190
-297.735	-200.000	-0.022	0.689
-296.720	-200.000	0.158	-0.754
-295.705	-144.753	-0.723	-0.066
-294.691	220.819	-0.441	-0.702
-293.676	-200.000	0.007	-0.439
-292.662	-143.114	0.661	-0.063
-291.647	-200.000	0.064	-0.836
-290.632	-57.481	0.261	-0.113
-289.618	-200.000	0.009	-0.079
-288.603	63.019	0.160	-0.159
-287.589	-200.000	-0.034	0.820
-286.574	800.000	-0.075	0.284
-285.559	-108.964	-0.858	0.181
-284.545	-137.834	-0.261	0.029
-283.530	-161.412	-0.501	0.026
-282.516	-118.281	0.168	-0.030
-281.501	158.250	0.588	-0.808
-280.486	-128.150	-1.036	-0.147
-279.472	-117.892	0.351	0.062
-278.457	170.737	-0.277	0.393
-277.443	5.027	-0.933	-0.680
-276.428	157.923	-0.439	0.602
-275.413	-17.905	0.779	0.484
-274.399	-200.000	-0.040	-0.469
-273.384	-153.871	-0.316	-0.021
-272.370	-177.383	-0.465	-0.011
-271.355	-200.000	0.039	0.625
-270.340	800.000	-0.119	-0.435
-269.326	-149.277	-1.042	-0.082
-268.311	-200.000	-0.148	-0.785
-267.297	-200.000	-0.008	-0.565
-266.282	-126.616	-0.427	-0.063
-265.267	198.624	0.543	-0.823
-264.253	-115.764	0.480	-0.089
-263.238	-172.667	-0.492	-0.015
-262.224	-96.956	-0.700	0.182
-261.209	53.387	0.758	-0.719
-260.195	303.198	0.223	0.409
-259.180	-200.000	0.014	0.376
-258.165	-200.000	-0.184	1.003
-257.151	225.387	-0.114	-0.183
-256.136	52.957	-0.421	-0.399
-255.122	-200.000	-0.039	-0.595
-254.107	27.108	-0.849	0.705
-253.092	602.491	0.007	0.016
-252.078	-200.000	-0.127	0.747
-251.063	20.661	-0.397	-0.318
-250.049	-200.000	0.019	-0.383
-249.034	61.492	-0.163	-0.160
-248.019	28.843	-0.256	-0.215
-247.005	-95.032	0.213	0.057
-245.990	228.386	-0.272	0.439
-244.976	226.162	0.206	0.331
-243.961	-18.542	-0.418	0.258
-242.946	546.062	0.261	-0.617
-241.932	800.000	0.113	0.404
-240.917	-124.897	-1.358	0.207
-239.903	-200.000	0.100	-0.914
-238.888	-68.344	-0.547	-0.210
-237.873	6.889	0.572	0.422
-236.859	749.148	0.284	-0.758
-235.844	-54.684	0.809	0.362
-234.830	-200.000	0.309	-0.000
-233.815	340.154	-0.413	-0.796
-232.800	124.996	0.441	0.550
-231.786	-30.355	0.958	0.538
-230.771	67.641	-0.796	-0.803
-229.757	11.035	-0.307	-0.232
-228.742	453.394	-0.248	-0.543
-227.727	410.390	0.140	-0.294
-226.713	-172.732	0.203	0.006
-225.698	-57.559	0.086	-0.037
-224.684	-68.462	0.693	-0.266
-223.669	71.684	-0.243	0.250
-222.655	377.994	0.169	-0.341
-221.640	800.000	0.146	-0.532
-220.625	-61.261	0.551	0.230
-219.611	-200.000	-0.040	-0.477
-218.596	19.055	-0.382	0.303
-217.582	-108.835	0.404	-0.085
-216.567	-151.519	0.241	-0.018
-215.552	-133.795	-0.288	-0.035
-214.538	713.745	-0.345	0.902
-213.523	-30.973	0.855	0.477
-212.509	160.554	0.323	-0.445
-211.494	-14.950	-0.046	0.029
-210.479	9.480	0.342	0.256
-209.465	669.922	0.039	0.100
-208.450	-71.850	0.928	-0.341
-207.436	99.120	-0.146	-0.167
-206.421	162.465	0.126	0.174
-205.406	64.922	0.511	0.510
-204.392	12.023	-0.376	0.286
-203.377	41.437	0.380	-0.340
-202.363	395.545	-0.120	0.246
-201.348	449.010	-0.149	0.324
-200.333	-102.558	-1.132	0.267
-199.319	-69.522	0.671	0.254
-198.304	-200.000	0.034	0.881
-197.290	-200.000	0.013	-0.517
-196.275	-112.202	0.453	-0.090
-195.260	-50.558	0.644	0.300
-194.246	85.357	-0.244	0.264
-193.231	47.124	0.341	-0.313
-192.217	257.050	-0.155	0.264
-191.202	800.000	-0.101	-0.322
-190.187	-200.000	0.151	0.752
-189.173	354.286	-0.391	0.767
-188.158	-74.367	0.168	0.060
-187.144	-182.102	-0.804	-0.015
-186.129	318.186	-0.041	0.077
-185.114	-89.395	1.359	-0.395
-184.100	-11.763	0.433	-0.280
-183.085	-200.000	0.102	-0.699
-182.071	398.533	-0.253	0.523
-181.056	800.000	-0.101	0.354
-180.042	800.000	-0.114	0.365
-179.027	800.000	0.133	0.464
-178.012	13.066	0.604	0.461
-176.998	-43.884	-0.508	0.252
-175.983	-88.312	0.757	0.223
-174.969	139.759	0.511	0.665
-173.954	-123.863	-0.635	0.099
-172.939	-200.000	0.062	0.327
-171.925	-91.533	-0.570	0.160
-170.910	339.493	-0.309	-0.594
-169.896	-44.463	0.455	-0.224
-168.881	-32.415	0.259	0.143
-167.866	-29.156	-0.467	-0.264
-166.852	-200.000	-0.101	-0.920
-165.837	251.008	-0.228	0.382
-164.823	-108.417	0.977	0.208
-163.808	-57.450	0.533	0.231
-162.793	-50.072	-0.804	0.375
-161.779	673.832	0.088	-0.226
-160.764	800.000	0.192	-0.524
-159.750	-107.033	-0.410	0.089
-158.735	-200.000	-0.013	0.451
-157.720	-116.783	0.779	-0.141
-156.706	-70.947	1.174	-0.436
-155.691	-86.794	-1.087	-0.327
-154.677	-17.025	-0.986	-0.613
-153.662	-68.971	0.817	0.311
-152.647	-200.000	-0.043	0.228
-151.633	269.785	0.071	-0.124
-150.618	175.854	-0.550	0.787
-149.604	38.010	-0.743	-0.651
-148.589	123.894	0.373	-0.461
-147.574	-43.523	0.090	-0.045
-146.560	102.096	0.540	0.622
-145.545	38.729	-0.181	-0.159
-144.531	-200.000	-0.146	-1.032
-143.516	-66.911	0.256	0.100
-142.502	-37.692	-0.206	0.108
-141.487	238.512	-0.437	-0.715
-140.472	218.989	0.358	0.563
-139.458	125.891	-0.293	-0.365
-138.443	93.151	-0.244	0.271
-137.429	421.158	-0.225	-0.476
-136.414	258.691	-0.340	0.577
-135.399	91.047	-0.611	0.675
-134.385	187.948	-0.422	0.621
-133.370	-51.102	0.713	0.329
-132.356	-41.201	-0.722	0.367
-131.341	576.762	-0.100	-0.242
-130.326	252.643	0.370	-0.621
-129.312	77.641	-0.302	0.317
-128.297	41.065	0.138	0.123
-127.283	-24.668	0.692	-0.405
-126.268	3.755	0.658	0.473
-125.253	-39.220	-0.457	0.236
-124.239	-37.635	-0.548	0.288
-123.224	-135.141	0.750	0.089
-122.210	10.947	-0.519	-0.390
-121.195	-200.000	0.056	-0.404
