DTS Sentinel unit serial number:	SN413079Multiplexer serial number:	ORYXHardware model number:	OX4-SRSoftware version number:	ORYX F/W v4.00 Oryx Data Collector v3.7.2.0data status	okinstallation	princeton_trtdifferential loss correction	single-endedforward channel	channel 2reverse channel	N/Adate	2019/09/12time	19:49:48forward acquisition time	15.00reverse acquisition time	0.00gamma	496.2192k internal	0.2327k external	0.2327temperature offset calibration	1.0152default loss term (dB/km)	0.3790temperature slope calibration	1.0000multiplexer offset coefficient	1.0000multiplexer slope coefficient	1.0000fibre end	0.00T internal ref (°C)	31.94T ext. ref 1 (°C)	3.32T ext. ref 2 (°C)	26.58length (m)	temperature (°C)	Stokes	anti-Stokes-747.200	-167.706	-0.058	-0.002
-746.185	-200.000	-0.046	-0.302
-745.171	128.153	0.333	-0.427
-744.156	55.524	-0.426	0.415
-743.142	-16.675	-0.404	0.258
-742.127	-200.000	0.083	-0.488
-741.112	13.003	-0.273	-0.213
-740.098	132.263	0.342	0.444
-739.083	-68.028	0.395	-0.155
-738.069	30.868	0.434	-0.375
-737.054	-73.089	-0.429	-0.159
-736.039	12.500	-0.526	0.408
-735.025	800.000	0.044	0.190
-734.010	-200.000	0.088	0.629
-732.996	408.533	-0.094	-0.201
-731.981	344.045	0.478	-0.945
-730.966	212.972	0.363	-0.577
-729.952	-146.461	-0.514	0.045
-728.937	-180.136	0.718	-0.015
-727.923	-64.138	-0.122	0.050
-726.908	113.159	0.642	-0.784
-725.894	-1.156	-0.671	-0.477
-724.879	98.310	-0.304	-0.353
-723.864	67.874	-0.648	0.668
-722.850	-26.494	-0.481	-0.284
-721.835	-200.000	0.000	-0.642
-720.821	57.687	-0.249	0.246
-719.806	-156.495	-0.436	0.027
-718.791	223.043	0.633	-1.028
-717.777	-16.024	-0.189	0.121
-716.762	-200.000	-0.079	-0.448
-715.748	-123.274	0.579	0.093
-714.733	120.187	0.352	0.440
-713.718	-67.453	-0.774	-0.306
-712.704	-166.841	0.289	0.012
-711.689	-200.000	0.039	0.356
-710.675	336.622	0.298	0.582
-709.660	-200.000	-0.089	-0.410
-708.645	-40.955	0.656	-0.341
-707.631	-100.136	0.445	0.112
-706.616	-139.013	0.425	0.046
-705.602	-166.223	0.603	0.026
-704.587	-51.794	-0.045	-0.021
-703.572	800.000	0.107	0.449
-702.558	401.135	-0.336	-0.709
-701.543	-138.507	0.190	0.021
-700.529	388.471	0.583	-1.214
-699.514	-148.871	0.637	0.052
-698.499	162.978	-0.249	0.352
-697.485	15.386	0.593	0.468
-696.470	-78.707	-0.601	-0.207
-695.456	186.634	0.382	-0.572
-694.441	133.516	-0.188	-0.245
-693.426	581.879	0.118	-0.292
-692.412	602.668	0.283	-0.709
-691.397	800.000	0.081	0.347
-690.383	-57.553	-0.367	0.162
-689.368	800.000	0.207	0.762
-688.354	-16.342	-0.413	0.263
-687.339	350.145	-0.352	0.700
-686.324	-200.000	0.165	0.951
-685.310	-155.315	-1.000	-0.065
-684.295	-125.203	0.488	0.075
-683.281	-135.917	0.078	-0.009
-682.266	414.657	-0.213	0.456
-681.251	525.222	0.223	0.528
-680.237	67.075	-0.495	-0.507
-679.222	192.777	0.469	-0.713
-678.208	228.480	-0.218	0.357
-677.193	-22.240	0.190	-0.116
-676.178	-147.887	0.935	0.078
-675.164	-23.853	-0.612	0.369
-674.149	303.551	0.444	0.828
-673.135	-67.663	0.570	-0.224
-672.120	566.895	0.115	-0.281
-671.105	84.641	0.404	-0.445
-670.091	-50.110	-0.593	-0.282
-669.076	-80.439	0.809	0.271
-668.062	-76.873	-0.176	-0.062
-667.047	88.650	0.306	0.342
-666.032	-33.878	-0.446	0.247
-665.018	-65.569	-0.687	0.277
-664.003	203.551	0.559	-0.869
-662.989	-88.816	-0.440	0.131
-661.974	88.004	0.860	0.958
-660.959	36.646	-0.286	0.254
-659.945	-173.617	-0.412	-0.012
-658.930	800.000	-0.161	-0.673
-657.916	-200.000	-0.155	-0.744
-656.901	-128.909	0.189	-0.027
-655.886	800.000	-0.091	0.337
-654.872	-200.000	0.013	-0.632
-653.857	115.391	-0.478	-0.587
-652.843	-113.727	-0.597	-0.117
-651.828	-80.622	0.227	-0.076
-650.814	-200.000	0.090	-0.743
-649.799	68.668	-0.449	-0.462
-648.784	-143.449	0.367	0.035
-647.770	43.198	-0.779	-0.714
-646.755	-200.000	0.057	-1.227
-645.741	390.926	-0.099	0.206
-644.726	-169.850	0.888	-0.032
-643.711	800.000	-0.091	0.305
-642.697	800.000	-0.281	-0.894
-641.682	5.117	-0.804	0.595
-640.668	705.951	0.274	0.725
-639.653	-83.909	0.214	-0.068
-638.638	-187.284	-0.988	-0.013
-637.624	-28.564	-0.205	0.118
-636.609	122.217	0.437	0.548
-635.595	-105.633	-0.251	-0.057
-634.580	443.036	-0.187	0.411
-633.565	-105.516	-0.552	0.126
-632.551	-180.320	-0.181	-0.004
-631.536	-116.680	0.337	0.062
-630.522	-112.921	0.263	-0.052
-629.507	800.000	0.094	-0.290
-628.492	180.058	-0.107	0.157
-627.478	-103.091	0.435	0.103
-626.463	634.897	0.175	-0.445
-625.449	-200.000	0.035	-0.818
-624.434	16.738	0.276	-0.219
-623.419	-200.000	-0.094	0.538
-622.405	-200.000	0.077	-0.544
-621.390	-200.000	0.005	-0.599
-620.376	-200.000	-0.033	-0.221
-619.361	-200.000	-0.014	-0.440
-618.346	87.632	-0.548	0.609
-617.332	-85.313	-0.426	-0.133
-616.317	-200.000	0.077	0.452
-615.303	800.000	0.139	-0.575
-614.288	-155.599	0.330	-0.021
-613.273	248.370	0.508	-0.863
-612.259	-78.116	-0.370	-0.128
-611.244	11.092	0.132	-0.101
-610.230	-68.371	0.366	-0.143
-609.215	-0.624	0.528	0.375
-608.201	40.118	-0.751	0.677
-607.186	-79.121	-0.492	-0.168
-606.171	-1.902	0.212	-0.150
-605.157	7.990	0.306	-0.230
-604.142	9.920	-0.688	-0.524
-603.128	-81.268	0.838	-0.277
-602.113	186.053	-0.272	-0.406
-601.098	9.951	-0.359	0.273
-600.084	-73.616	-0.386	-0.141
-599.069	194.782	-0.216	-0.329
-598.055	-98.793	-0.756	-0.193
-597.040	-200.000	0.009	-0.451
-596.025	-200.000	0.076	-0.805
-595.011	4.933	0.342	0.252
-593.996	152.229	0.375	0.512
-592.982	101.802	0.229	0.268
-591.967	176.389	-0.324	-0.471
-590.952	-172.148	-0.655	-0.021
-589.938	77.287	-0.125	0.133
-588.923	-200.000	-0.059	0.378
-587.909	725.875	0.052	0.138
-586.894	215.492	0.250	-0.397
-585.879	65.745	-0.627	0.637
-584.865	338.985	-0.105	-0.204
-583.850	-200.000	0.035	-0.407
-582.836	149.446	0.037	-0.051
-581.821	-18.748	0.234	-0.146
-580.806	-200.000	-0.013	0.294
-579.792	-37.809	-0.279	-0.149
-578.777	169.787	-0.280	-0.401
-577.763	-200.000	-0.051	-0.315
-576.748	205.493	-0.380	-0.591
-575.733	103.394	-0.452	0.531
-574.719	86.447	0.691	-0.763
-573.704	29.317	-0.422	0.359
-572.690	199.994	-0.396	0.609
-571.675	-69.871	-1.028	0.393
-570.661	36.724	-0.205	-0.181
-569.646	800.000	0.192	-0.735
-568.631	43.803	-0.495	0.454
-567.617	-95.365	-0.085	0.023
-566.602	-90.734	-0.258	0.075
-565.588	47.429	-0.327	0.306
-564.573	-81.757	-0.510	-0.167
-563.558	800.000	-0.102	-0.442
-562.544	-51.416	0.313	0.146
-561.529	41.046	-0.288	0.261
-560.515	-92.663	-0.638	0.179
-559.500	-200.000	0.092	-0.648
-558.485	-13.813	0.346	-0.224
-557.471	17.974	0.510	-0.407
-556.456	800.000	0.004	-0.016
-555.442	-40.875	0.398	0.206
-554.427	206.310	0.396	-0.617
-553.412	34.527	0.084	0.074
-552.398	87.296	-0.576	-0.638
-551.383	800.000	-0.181	0.567
-550.369	-125.953	0.721	0.109
-549.354	800.000	0.165	0.649
-548.339	358.132	0.316	0.630
-547.325	70.651	0.360	0.373
-546.310	44.863	-0.490	0.451
-545.296	-63.548	-0.246	0.101
-544.281	-155.006	-0.212	0.014
-543.266	-200.000	-0.103	0.478
-542.252	700.539	0.411	-1.081
-541.237	20.201	0.294	0.237
-540.223	-62.901	1.248	0.516
-539.208	-89.891	0.303	-0.089
-538.193	-200.000	-0.054	0.848
-537.179	191.543	0.500	0.753
-536.164	485.020	0.438	0.997
-535.150	-195.046	-0.243	0.002
-534.135	-200.000	0.044	0.243
-533.121	131.633	-0.285	0.367
-532.106	-43.240	-0.207	-0.105
-531.091	-141.638	1.091	-0.110
-530.077	121.922	-0.539	-0.672
-529.062	116.370	0.380	-0.465
-528.048	-160.609	-0.511	-0.027
-527.033	-168.965	0.489	-0.018
-526.018	800.000	-0.248	-0.803
-525.004	135.925	0.708	-0.922
-523.989	2.946	0.218	-0.158
-522.975	-58.766	-0.641	0.277
-521.960	75.252	-0.141	-0.149
-520.945	79.016	0.606	0.648
-519.931	-200.000	-0.076	0.569
-518.916	-56.420	-1.094	0.485
-517.902	-52.355	0.418	0.194
-516.887	-99.078	0.098	0.025
-515.872	129.553	-0.156	-0.200
-514.858	800.000	-0.084	-0.305
-513.843	348.880	-0.180	0.355
-512.829	307.978	0.584	1.088
-511.814	-200.000	-0.153	0.926
-510.799	103.688	0.459	0.538
-509.785	-128.104	0.189	0.027
-508.770	485.766	-0.184	-0.418
-507.756	-89.866	-0.497	-0.145
-506.741	-200.000	-0.060	0.381
-505.726	-85.031	0.499	0.156
-504.712	-85.003	0.592	0.185
-503.697	269.444	0.321	0.563
-502.683	-200.000	-0.023	0.313
-501.668	104.943	0.345	0.406
-500.653	192.876	-0.446	-0.672
-499.639	37.313	0.128	0.114
-498.624	224.750	-0.286	0.462
-497.610	-69.146	-0.538	-0.207
-496.595	-63.474	0.470	-0.193
-495.581	694.408	0.085	0.223
-494.566	-31.668	-0.840	0.471
-493.551	36.551	-0.248	0.219
-492.537	-113.630	-0.291	0.057
-491.522	-164.614	0.277	0.013
-490.508	-115.354	0.776	-0.146
-489.493	-143.229	-0.418	0.040
-488.478	-67.484	0.783	0.307
-487.464	-160.725	-1.121	-0.059
-486.449	72.997	-0.463	0.483
-485.435	365.269	-0.272	-0.547
-484.420	800.000	0.259	-0.824
-483.405	800.000	0.293	-1.018
-482.391	314.887	0.465	0.874
-481.376	-76.582	-0.909	-0.318
-480.362	521.584	0.012	0.028
-479.347	789.592	0.188	0.514
-478.332	-138.833	-1.054	-0.115
-477.318	-2.817	0.524	-0.366
-476.303	496.814	-0.330	0.758
-475.289	800.000	0.091	-0.279
-474.274	-47.985	-0.661	0.319
-473.259	-105.125	0.612	0.140
-472.245	57.539	-0.241	0.235
-471.230	37.428	-0.357	0.316
-470.216	800.000	-0.257	1.123
-469.201	100.908	0.536	0.621
-468.186	-95.981	0.578	-0.153
-467.172	-23.414	0.357	-0.214
-466.157	351.313	0.245	0.484
-465.143	193.444	-0.172	0.259
-464.128	452.354	0.021	-0.046
-463.113	441.230	0.229	-0.500
-462.099	723.510	-0.046	0.123
-461.084	-75.889	0.519	-0.183
-460.070	68.901	-0.131	-0.134
-459.055	624.467	-0.342	0.861
-458.040	-179.421	0.993	0.022
-457.026	-78.401	0.443	0.152
-456.011	566.998	-0.137	-0.330
-454.997	800.000	0.084	0.233
-453.982	800.000	0.040	-0.126
-452.968	-200.000	0.000	0.732
-451.953	-113.798	-0.274	0.053
-450.938	-112.012	0.160	0.032
-449.924	-62.596	0.655	0.271
-448.909	-200.000	-0.076	0.818
-447.895	-200.000	-0.063	-0.513
-446.880	-40.000	0.502	0.261
-445.865	275.770	0.282	-0.498
-444.851	-200.000	-0.031	0.220
-443.836	800.000	0.192	0.832
-442.822	-65.699	0.256	-0.102
-441.807	-90.748	-0.092	0.026
-440.792	-110.986	0.940	0.192
-439.778	-200.000	-0.026	0.164
-438.763	-147.223	0.890	-0.076
-437.749	800.000	-0.355	-1.366
-436.734	322.799	0.453	-0.859
-435.719	52.435	-1.101	-1.047
-434.705	800.000	0.040	0.164
-433.690	47.303	-0.461	-0.428
-432.676	-126.373	-0.544	-0.081
-431.661	-53.715	0.545	-0.248
-430.646	-200.000	0.002	0.215
-429.632	33.238	0.574	0.496
-428.617	-85.317	-0.079	-0.025
-427.603	-24.987	0.460	-0.272
-426.588	-69.834	0.302	0.115
-425.573	204.257	-0.330	-0.508
-424.559	-51.128	0.962	0.449
-423.544	-57.235	0.173	0.076
-422.530	261.147	0.198	0.342
-421.515	93.327	-0.281	-0.317
-420.500	57.693	0.280	-0.273
-419.486	-152.275	-0.534	0.038
-418.471	0.834	0.805	-0.574
-417.457	-122.599	0.227	0.037
-416.442	-35.116	-0.219	0.119
-415.428	-200.000	0.094	-1.065
-414.413	-135.645	0.987	0.117
-413.398	267.466	-0.463	-0.807
-412.384	-80.388	0.397	0.132
-411.369	102.821	-0.057	-0.067
-410.355	-98.418	0.656	-0.167
-409.340	-147.948	-0.245	-0.020
-408.325	-67.485	1.056	-0.412
-407.311	570.004	0.056	-0.136
-406.296	-41.008	-0.356	-0.183
-405.282	-72.797	0.476	-0.174
-404.267	-200.000	0.066	-0.468
-403.252	-144.978	0.268	-0.024
-402.238	27.553	-0.178	-0.149
-401.223	-137.966	0.576	0.064
-400.209	-26.350	-0.215	0.126
-399.194	-92.693	0.357	-0.099
-398.179	-75.699	-0.555	0.196
-397.165	-121.718	0.748	0.123
-396.150	-81.040	0.237	-0.078
-395.136	800.000	0.052	-0.196
-394.121	-70.887	0.347	-0.130
-393.106	-200.000	-0.118	-0.803
-392.092	-200.000	0.070	-0.555
-391.077	-94.855	0.979	-0.264
-390.063	-34.251	-0.245	-0.134
-389.048	-111.358	-0.508	0.103
-388.033	203.252	0.351	0.540
-387.019	-108.877	0.458	-0.097
-386.004	-136.927	-0.207	0.024
-384.990	-91.643	-0.743	-0.210
-383.975	-155.358	-0.505	-0.033
-382.960	10.278	-0.278	-0.210
-381.946	415.820	0.324	-0.687
-380.931	-200.000	0.061	-0.498
-379.917	522.077	-0.271	-0.633
-378.902	178.047	0.254	-0.369
-377.888	-51.287	0.334	-0.155
-376.873	161.200	-0.220	-0.306
-375.858	-200.000	-0.038	0.379
-374.844	-164.079	-0.374	-0.017
-373.829	-74.103	-0.552	0.199
-372.815	-200.000	0.075	-0.536
-371.800	-59.500	0.177	-0.076
-370.785	67.358	-0.563	-0.571
-369.771	395.123	-0.016	0.033
-368.756	167.340	-0.057	-0.080
-367.742	322.604	-0.108	-0.204
-366.727	-87.018	-0.609	0.184
-365.712	-200.000	0.057	0.842
-364.698	-188.064	0.966	-0.012
-363.683	-200.000	-0.157	-0.937
-362.669	-200.000	-0.086	-0.566
-361.654	-200.000	0.000	0.161
-360.639	-78.267	-0.657	-0.224
-359.625	-19.922	-0.326	0.200
-358.610	70.542	0.620	0.637
-357.596	93.742	0.507	0.570
-356.581	252.849	0.149	-0.253
-355.566	193.075	0.203	0.305
-354.552	-58.246	0.654	-0.283
-353.537	-83.238	-1.234	0.394
-352.523	-147.630	-0.867	0.072
-351.508	-200.000	-0.043	-0.376
-350.493	-200.000	-0.023	-0.406
-349.479	9.524	-0.482	0.362
-348.464	21.909	-0.154	-0.124
-347.450	-90.528	0.609	-0.175
-346.435	-106.341	0.432	0.096
-345.420	24.324	-0.539	-0.442
-344.406	399.871	0.217	-0.452
-343.391	-27.213	-0.668	0.386
-342.377	800.000	0.219	0.654
-341.362	151.561	0.449	-0.607
-340.348	-194.681	-0.643	-0.005
-339.333	-78.643	1.013	-0.344
-338.318	-82.192	0.093	-0.030
-337.304	800.000	-0.238	0.840
-336.289	-120.441	0.582	0.098
-335.275	8.220	-0.292	0.217
-334.260	-88.285	-0.182	-0.054
-333.245	749.330	-0.202	0.540
-332.231	-81.235	0.310	-0.101
-331.216	48.972	0.041	0.038
-330.202	45.998	-0.240	-0.220
-329.187	-180.316	0.491	-0.010
-328.172	-52.427	0.391	-0.179
-327.158	28.129	0.331	-0.277
-326.143	-109.251	-0.732	0.154
-325.129	-128.906	0.112	0.016
-324.114	286.895	0.204	-0.366
-323.099	-200.000	0.046	0.421
-322.085	-62.952	0.019	-0.008
-321.070	129.420	-0.318	0.402
-320.056	294.017	-0.224	0.405
-319.041	-4.154	0.367	0.252
-318.026	800.000	0.188	0.759
-317.012	800.000	-0.112	0.411
-315.997	-19.298	0.583	0.359
-314.983	437.366	-0.268	-0.579
-313.968	413.723	-0.220	-0.464
-312.953	776.401	0.027	-0.072
-311.939	-100.755	-0.213	-0.052
-310.924	-195.312	-1.348	0.010
-309.910	-189.058	-0.267	0.003
-308.895	200.041	-0.388	0.590
-307.880	32.627	0.160	0.137
-306.866	-200.000	-0.055	-0.507
-305.851	-109.413	-0.719	0.151
-304.837	-200.000	-0.068	-0.338
-303.822	-107.029	-0.661	-0.145
-302.807	-200.000	-0.011	0.391
-301.793	0.926	0.250	0.178
-300.778	800.000	0.322	0.905
-299.764	31.377	-0.588	-0.500
-298.749	-200.000	0.048	-0.236
-297.735	-96.902	0.754	-0.196
-296.720	-35.283	-0.534	-0.288
-295.705	-22.031	-0.515	0.310
-294.691	-74.749	-0.702	-0.250
-293.676	80.571	-0.497	-0.530
-292.662	-200.000	0.018	-0.912
-291.647	177.341	-0.595	0.859
-290.632	-200.000	0.083	0.387
-289.618	-1.942	0.316	0.220
-288.603	476.201	-0.312	-0.699
-287.589	259.783	-0.381	0.652
-286.574	-65.423	-0.262	0.104
-285.559	317.843	0.352	0.660
-284.545	-7.126	-0.359	0.241
-283.530	108.658	-0.244	0.288
-282.516	-153.194	-0.753	0.052
-281.501	800.000	0.057	0.199
-280.486	-200.000	0.035	-0.642
-279.472	-200.000	0.098	-0.464
-278.457	-200.000	0.006	0.804
-277.443	-131.312	-0.046	0.006
-276.428	-73.597	0.582	-0.210
-275.413	-200.000	0.000	0.198
-274.399	800.000	-0.181	-0.745
-273.384	-137.651	0.448	0.050
-272.370	141.052	-0.338	0.442
-271.355	94.874	0.247	0.278
-270.340	800.000	0.091	0.304
-269.326	-89.686	-1.280	0.371
-268.311	300.105	-0.192	-0.349
-267.297	-167.964	0.132	-0.005
-266.282	-138.334	0.380	0.042
-265.267	-94.691	0.784	0.211
-264.253	187.177	-0.245	-0.361
-263.238	77.119	-0.145	-0.153
-262.224	74.493	-0.511	-0.532
-261.209	171.897	0.068	-0.096
-260.195	-200.000	-0.014	0.596
-259.180	-59.852	0.102	-0.043
-258.165	800.000	0.121	-0.338
-257.151	-13.965	-0.367	-0.235
-256.136	77.359	-0.430	-0.452
-255.122	-83.520	-0.868	-0.275
-254.107	127.850	0.290	0.365
-253.092	168.876	-0.495	0.698
-252.078	-85.688	0.371	0.114
-251.063	-136.510	1.045	-0.120
-250.049	-110.048	0.144	0.030
-249.034	-200.000	-0.022	0.463
-248.019	310.664	-0.513	-0.951
-247.005	228.324	0.143	-0.231
-245.990	-200.000	-0.176	0.863
-244.976	800.000	-0.187	0.517
-243.961	86.053	0.447	-0.486
-242.946	-200.000	0.126	0.694
-241.932	-72.151	0.352	-0.129
-240.917	-200.000	-0.096	-0.566
-239.903	161.684	-0.083	-0.115
-238.888	-68.217	0.415	-0.159
-237.873	-12.349	0.531	-0.343
-236.859	140.762	0.097	-0.127
-235.844	-47.050	0.265	0.128
-234.830	-26.309	0.275	0.159
-233.815	53.002	0.440	0.417
-232.800	-60.046	-0.457	-0.193
-231.786	-200.000	-0.094	-0.653
-230.771	-41.991	-0.182	-0.092
-229.757	317.046	0.322	-0.601
-228.742	-25.471	-0.509	-0.297
-227.727	241.744	0.219	0.361
-226.713	-93.667	0.509	-0.139
-225.698	171.575	-0.479	0.679
-224.684	8.978	0.659	0.491
-223.669	-200.000	0.014	-0.151
-222.655	-4.323	-0.702	0.480
-221.640	-103.837	-0.454	0.105
-220.625	74.261	0.738	-0.765
-219.611	800.000	-0.138	-0.450
-218.596	-67.781	-0.489	0.189
-217.582	779.000	-0.264	0.711
-216.567	-97.878	0.785	0.200
-215.552	-45.869	-0.545	-0.266
-214.538	528.106	-0.239	-0.556
-213.523	214.787	-0.303	-0.474
-212.509	-105.648	0.332	0.074
-211.494	-13.329	-0.664	0.425
-210.479	-111.794	-0.218	-0.043
-209.465	125.655	0.846	1.055
-208.450	-93.767	0.943	0.257
-207.436	64.454	0.383	-0.381
-206.421	-33.114	0.148	0.081
-205.406	137.179	0.288	0.372
-204.392	475.216	-0.114	-0.254
-203.377	15.401	-1.135	0.879
-202.363	-200.000	-0.028	-0.407
-201.348	-25.956	-0.226	0.131
-200.333	229.655	-0.103	0.166
-199.319	64.489	-0.269	-0.267
-198.304	0.065	0.920	0.647
-197.290	294.475	0.392	0.706
-196.275	673.447	-0.252	0.644
-195.260	-70.826	0.200	-0.075
-194.246	15.769	0.333	-0.258
-193.231	126.594	-0.101	0.126
-192.217	52.985	0.228	-0.216
-191.202	-160.779	-0.280	0.015
-190.187	-124.571	0.172	-0.026
-189.173	-177.783	0.364	0.009
-188.158	-48.892	-0.168	-0.079
-187.144	-154.013	-0.870	-0.058
-186.129	-200.000	0.009	-0.292
-185.114	-200.000	-0.024	0.292
-184.100	-200.000	-0.028	-0.325
-183.085	-114.533	-0.507	0.096
-182.071	77.998	-0.628	0.661
-181.056	-46.828	0.791	-0.382
-180.042	-200.000	0.001	0.132
-179.027	452.710	0.261	-0.570
-178.012	-127.384	0.800	0.115
-176.998	-13.976	0.427	-0.272
-175.983	171.212	-0.280	0.395
-174.969	-1.926	-0.522	0.362
-173.954	-85.153	0.197	-0.061
-172.939	-14.035	0.595	-0.379
-171.925	383.017	-0.214	-0.434
-170.910	519.309	0.113	-0.260
-169.896	160.265	-0.134	-0.185
-168.881	-102.981	0.624	0.146
-167.866	-16.142	-0.315	0.197
-166.852	4.392	-0.262	0.189
-165.837	357.281	-0.121	-0.238
-164.823	-200.000	-0.009	0.315
-163.808	-144.447	-0.581	0.053
-162.793	-133.973	-0.501	0.061
-161.779	162.860	0.562	-0.777
-160.764	78.520	-0.058	-0.061
-159.750	11.933	0.515	0.390
-158.735	165.065	0.384	0.534
-157.720	-200.000	-0.086	0.424
-156.706	800.000	0.123	-0.463
-155.691	75.314	-0.392	0.408
-154.677	-200.000	0.110	0.563
-153.662	-200.000	0.047	0.703
-152.647	148.052	-0.260	-0.345
-151.633	88.855	0.119	-0.131
-150.618	-0.995	-0.198	0.138
-149.604	-200.000	0.008	-0.602
-148.589	-200.000	0.049	0.377
-147.574	-75.382	0.747	0.262
-146.560	-8.394	0.160	-0.106
-145.545	102.934	-0.568	-0.655
-144.531	151.584	-0.495	-0.664
-143.516	800.000	-0.204	0.563
-142.502	240.769	0.252	0.414
-141.487	-21.100	0.166	0.100
-140.472	89.460	-0.123	-0.135
-139.458	-200.000	0.014	-0.130
-138.443	-200.000	0.112	0.590
-137.429	-8.093	0.399	0.265
-136.414	271.049	-0.480	-0.832
-135.399	766.685	-0.312	0.835
-134.385	318.782	0.064	-0.120
-133.370	191.044	-0.217	-0.322
-132.356	257.545	0.285	-0.483
-131.341	-98.260	0.654	0.165
-130.326	-46.345	-0.383	0.185
-129.312	-92.100	-0.539	-0.150
-128.297	800.000	0.252	-0.822
-127.283	126.804	-0.196	0.245
-126.268	5.927	-0.080	0.058
-125.253	-132.524	1.325	-0.168
-124.239	25.559	-0.137	0.112
-123.224	189.591	0.079	0.116
-122.210	445.774	0.280	0.606
-121.195	-71.355	0.776	-0.286
