DTS Sentinel unit serial number:	SN413079Multiplexer serial number:	ORYXHardware model number:	OX4-SRSoftware version number:	ORYX F/W v4.00 Oryx Data Collector v3.7.2.0data status	okinstallation	princeton_trtdifferential loss correction	single-endedforward channel	channel 2reverse channel	N/Adate	2019/09/18time	18:51:35forward acquisition time	60.00reverse acquisition time	0.00gamma	496.2192k internal	0.2320k external	0.2320temperature offset calibration	1.0026default loss term (dB/km)	0.3790temperature slope calibration	1.0000multiplexer offset coefficient	1.0000multiplexer slope coefficient	1.0000fibre end	0.00T internal ref (°C)	36.94T ext. ref 1 (°C)	0.92T ext. ref 2 (°C)	26.70length (m)	temperature (°C)	Stokes	anti-Stokes-747.200	-118.390	-0.091	-0.016
-746.185	-68.333	0.194	0.076
-745.171	116.298	0.263	0.326
-744.156	800.000	-0.103	0.310
-743.142	-132.557	-0.180	0.023
-742.127	183.912	-0.107	0.160
-741.112	141.489	-0.062	0.083
-740.098	159.490	-0.054	0.076
-739.083	308.154	0.091	0.172
-738.069	800.000	-0.042	0.155
-737.054	202.442	-0.083	-0.130
-736.039	218.256	-0.106	0.171
-735.025	-21.682	0.525	0.323
-734.010	145.412	0.130	-0.176
-732.996	3.809	-0.227	-0.168
-731.981	171.806	0.153	-0.222
-730.966	-109.251	-0.277	-0.060
-729.952	585.150	-0.086	0.214
-728.937	800.000	-0.093	0.357
-727.923	-133.825	0.038	-0.005
-726.908	-33.915	0.177	0.098
-725.894	71.754	0.322	0.339
-724.879	22.931	-0.202	-0.167
-723.864	179.347	-0.069	-0.102
-722.850	-189.789	-0.346	-0.004
-721.835	102.350	0.128	-0.151
-720.821	-102.893	0.169	0.041
-719.806	-66.865	0.126	-0.050
-718.791	-71.042	0.110	0.042
-717.777	800.000	0.054	-0.179
-716.762	330.001	-0.100	0.194
-715.748	-200.000	0.011	0.400
-714.733	110.902	-0.124	-0.151
-713.718	128.061	0.115	0.148
-712.704	351.031	0.103	-0.206
-711.689	-99.801	-0.074	0.019
-710.675	-128.666	-0.244	-0.035
-709.660	-113.425	0.277	0.055
-708.645	282.497	0.078	0.141
-707.631	8.028	0.229	-0.174
-706.616	597.328	0.054	0.135
-705.602	800.000	-0.018	-0.074
-704.587	-200.000	-0.051	-0.236
-703.572	6.585	0.097	-0.073
-702.558	-91.601	-0.242	-0.069
-701.543	78.802	0.202	-0.218
-700.529	-83.758	-0.621	-0.200
-699.514	800.000	-0.041	-0.174
-698.499	45.463	-0.320	-0.298
-697.485	-24.018	-0.081	0.049
-696.470	800.000	0.091	-0.316
-695.456	16.957	-0.155	0.124
-694.441	97.200	0.194	-0.225
-693.426	568.098	0.093	-0.229
-692.412	-68.751	0.202	0.079
-691.397	-145.189	0.154	0.014
-690.383	305.375	0.012	0.022
-689.368	-63.159	0.162	-0.067
-688.354	232.396	-0.076	0.125
-687.339	7.635	-0.262	0.198
-686.324	-109.656	-0.262	-0.056
-685.310	-76.268	-0.141	-0.050
-684.295	235.682	-0.152	-0.254
-683.281	-200.000	-0.003	-0.115
-682.266	722.639	0.132	-0.354
-681.251	687.824	-0.108	-0.286
-680.237	800.000	-0.048	-0.172
-679.222	-47.223	0.087	-0.043
-678.208	-143.623	-0.370	-0.035
-677.193	-200.000	0.058	0.364
-676.178	-179.991	-0.047	-0.001
-675.164	-104.625	0.052	0.012
-674.149	-85.532	-0.163	-0.051
-673.135	-12.926	0.111	-0.073
-672.120	-38.773	-0.163	-0.087
-671.105	-34.118	0.082	0.046
-670.091	-6.310	-0.199	0.137
-669.076	434.369	0.082	-0.179
-668.062	546.204	0.053	-0.127
-667.047	61.540	0.192	-0.193
-666.032	-21.238	-0.153	0.094
-665.018	800.000	0.037	0.122
-664.003	480.521	0.029	0.067
-662.989	-62.766	-0.038	-0.016
-661.974	-200.000	-0.002	0.141
-660.959	210.661	-0.178	-0.282
-659.945	-33.515	0.215	-0.120
-658.930	369.658	-0.040	0.081
-657.916	800.000	0.075	0.237
-656.901	-128.429	0.015	-0.002
-655.886	-127.064	0.319	-0.047
-654.872	68.319	0.178	-0.184
-653.857	-200.000	0.003	0.063
-652.843	800.000	0.017	0.058
-651.828	177.058	-0.261	0.382
-650.814	-133.053	0.134	0.017
-649.799	2.314	0.336	0.245
-648.784	-41.105	-0.089	0.046
-647.770	211.415	-0.188	0.298
-646.755	136.081	0.138	-0.181
-645.741	749.383	0.051	-0.138
-644.726	-30.081	-0.033	0.019
-643.711	-96.587	0.403	-0.107
-642.697	800.000	-0.090	-0.266
-641.682	800.000	0.101	-0.412
-640.668	-61.758	-0.141	0.059
-639.653	3.188	-0.135	-0.099
-638.638	-200.000	0.024	0.242
-637.624	50.475	0.142	0.136
-636.609	-200.000	0.009	0.126
-635.595	623.119	-0.141	0.358
-634.580	-44.669	-0.082	-0.041
-633.565	-60.895	0.126	-0.054
-632.551	-142.584	0.185	0.018
-631.536	1.737	0.228	0.165
-630.522	-200.000	-0.034	-0.343
-629.507	-200.000	-0.010	0.078
-628.492	-113.916	0.369	-0.072
-627.478	-200.000	0.010	0.297
-626.463	800.000	0.015	0.055
-625.449	-200.000	-0.008	0.055
-624.434	-200.000	0.013	-0.269
-623.419	135.257	-0.116	0.151
-622.405	-200.000	-0.052	0.291
-621.390	-200.000	-0.046	0.343
-620.376	-49.102	-0.279	-0.134
-619.361	482.692	-0.056	0.127
-618.346	-200.000	-0.009	-0.069
-617.332	270.157	-0.126	-0.224
-616.317	598.424	-0.136	-0.339
-615.303	-62.893	-0.129	-0.054
-614.288	215.695	-0.037	-0.060
-613.273	274.766	-0.239	0.426
-612.259	-96.729	0.168	-0.045
-611.244	-41.919	-0.243	-0.125
-610.230	-200.000	0.050	-0.334
-609.215	-39.866	-0.161	-0.084
-608.201	529.088	-0.100	0.236
-607.186	72.342	0.022	0.023
-606.171	-160.992	0.375	-0.020
-605.157	196.582	-0.076	-0.116
-604.142	9.255	-0.180	-0.137
-603.128	800.000	-0.068	0.236
-602.113	201.354	-0.231	-0.357
-601.098	-50.053	-0.068	0.033
-600.084	-16.840	0.091	-0.058
-599.069	295.821	-0.160	-0.296
-598.055	775.874	-0.029	-0.080
-597.040	157.526	0.184	0.256
-596.025	51.925	0.183	0.175
-595.011	-101.958	0.058	0.014
-593.996	117.869	0.202	-0.250
-592.982	-37.802	-0.242	0.129
-591.967	-28.148	0.304	-0.177
-590.952	-91.374	-0.121	-0.035
-589.938	-200.000	-0.006	-0.239
-588.923	-200.000	-0.006	0.025
-587.909	-29.214	0.236	-0.136
-586.894	-189.516	-0.100	-0.001
-585.879	35.782	-0.303	-0.268
-584.865	-98.715	-0.312	0.080
-583.850	9.368	0.271	0.206
-582.836	-200.000	-0.025	-0.227
-581.821	-163.346	-0.241	0.012
-580.806	318.882	0.119	-0.227
-579.792	125.098	-0.068	-0.086
-578.777	-8.121	-0.279	-0.189
-577.763	-200.000	0.039	0.383
-576.748	800.000	-0.008	-0.024
-575.733	-200.000	0.011	-0.249
-574.719	-89.617	-0.248	-0.073
-573.704	88.037	-0.086	0.096
-572.690	-200.000	0.001	0.296
-571.675	-90.634	0.174	0.050
-570.661	-26.448	-0.066	0.039
-569.646	800.000	-0.058	0.229
-568.631	-100.200	0.162	0.041
-567.617	800.000	0.060	-0.191
-566.602	-200.000	-0.028	-0.165
-565.588	-59.495	0.052	0.022
-564.573	356.081	-0.200	0.400
-563.558	11.903	-0.149	0.115
-562.544	-200.000	0.004	0.227
-561.529	-127.895	0.330	0.048
-560.515	43.245	-0.331	-0.304
-559.500	-11.500	0.232	-0.153
-558.485	-200.000	-0.016	-0.265
-557.471	89.121	0.156	0.175
-556.456	-34.540	0.208	0.114
-555.442	800.000	-0.038	-0.154
-554.427	-79.549	0.111	-0.038
-553.412	573.868	0.036	-0.088
-552.398	-134.782	0.136	-0.017
-551.383	-28.702	0.127	-0.074
-550.369	-87.456	0.283	0.086
-549.354	-200.000	0.001	-0.081
-548.339	107.280	-0.026	0.030
-547.325	-200.000	0.057	0.364
-546.310	-200.000	-0.006	0.107
-545.296	-200.000	-0.218	0.000
-544.281	-200.000	-0.010	-0.138
-543.266	239.876	0.058	-0.097
-542.252	784.285	0.076	0.208
-541.237	304.965	0.090	0.168
-540.223	1.401	-0.227	-0.164
-539.208	126.971	0.103	0.131
-538.193	20.357	-0.215	-0.174
-537.179	739.730	0.010	-0.028
-536.164	284.149	0.114	-0.205
-535.150	-72.203	-0.363	-0.135
-534.135	-67.668	0.144	0.056
-533.121	-150.564	-0.203	0.016
-532.106	-200.000	-0.002	-0.302
-531.091	-80.193	-0.131	-0.044
-530.077	-76.563	-0.226	-0.080
-529.062	564.267	-0.123	-0.299
-528.048	-53.820	-0.288	0.132
-527.033	-90.596	-0.442	0.128
-526.018	-39.423	0.323	-0.170
-525.004	800.000	0.042	-0.166
-523.989	274.437	-0.117	-0.208
-522.975	-15.192	-0.131	-0.084
-521.960	-200.000	-0.003	0.031
-520.945	-69.473	0.271	-0.104
-519.931	24.848	-0.161	-0.133
-518.916	-145.225	-0.237	0.021
-517.902	-26.261	-0.239	0.141
-516.887	-106.202	-0.129	0.029
-515.872	411.020	0.040	-0.085
-514.858	-200.000	-0.012	0.063
-513.843	-200.000	0.022	-0.195
-512.829	59.673	-0.158	-0.157
-511.814	-200.000	0.007	0.118
-510.799	65.359	0.024	0.024
-509.785	-118.918	0.043	-0.008
-508.770	215.416	-0.157	0.250
-507.756	800.000	0.084	0.267
-506.741	800.000	-0.064	-0.211
-505.726	556.329	-0.093	0.224
-504.712	56.320	-0.093	0.091
-503.697	-134.624	-0.085	-0.010
-502.683	-200.000	-0.009	0.048
-501.668	132.031	-0.232	0.300
-500.653	-200.000	0.026	-0.179
-499.639	-200.000	0.018	0.129
-498.624	-178.963	-0.208	0.005
-497.610	-200.000	-0.052	0.245
-496.595	-97.584	-0.100	0.026
-495.581	-200.000	-0.003	-0.087
-494.566	-4.302	0.383	0.265
-493.551	800.000	0.031	0.087
-492.537	-28.372	-0.092	0.053
-491.522	54.223	-0.313	0.301
-490.508	-154.811	0.153	-0.010
-489.493	800.000	0.050	-0.201
-488.478	-200.000	0.019	0.148
-487.464	570.472	0.053	0.129
-486.449	-126.713	0.242	-0.036
-485.435	326.341	0.066	-0.127
-484.420	-166.743	-0.284	-0.012
-483.405	-21.100	0.190	-0.116
-482.391	79.711	-0.168	0.180
-481.376	5.864	0.327	-0.243
-480.362	483.356	0.048	-0.109
-479.347	-34.441	-0.431	-0.237
-478.332	113.556	0.073	0.089
-477.318	800.000	0.144	-0.402
-476.303	16.507	0.121	-0.096
-475.289	-192.104	0.353	-0.003
-474.274	-9.543	-0.101	0.068
-473.259	-79.712	0.269	0.091
-472.245	-59.228	0.144	-0.062
-471.230	61.034	0.194	-0.193
-470.216	-14.889	0.152	0.098
-469.201	-50.649	-0.060	-0.028
-468.186	80.758	-0.333	0.360
-467.172	473.069	0.137	0.309
-466.157	-147.262	-0.216	0.018
-465.143	728.662	-0.100	-0.266
-464.128	-70.124	0.212	-0.080
-463.113	76.191	0.036	0.038
-462.099	2.418	0.055	0.040
-461.084	-138.204	-0.202	0.022
-460.070	93.964	0.089	-0.101
-459.055	-80.531	0.350	-0.117
-458.040	-125.933	0.360	0.054
-457.026	389.771	-0.021	0.043
-456.011	299.219	-0.122	0.225
-454.997	105.544	0.060	-0.070
-453.982	81.425	-0.024	-0.025
-452.968	-80.180	-0.159	0.053
-451.953	1.938	-0.186	0.134
-450.938	-200.000	-0.008	-0.210
-449.924	-4.444	-0.119	0.082
-448.909	696.731	0.121	0.318
-447.895	78.534	-0.127	0.136
-446.880	309.728	-0.061	-0.115
-445.865	-200.000	0.052	-0.449
-444.851	-49.789	-0.182	0.086
-443.836	553.387	-0.017	0.042
-442.822	745.485	-0.046	0.123
-441.807	-18.162	-0.227	0.142
-440.792	-200.000	-0.010	0.285
-439.778	343.440	-0.102	0.201
-438.763	434.141	-0.105	0.227
-437.749	-51.019	0.134	-0.063
-436.734	-17.626	-0.222	-0.140
-435.719	-107.422	0.310	-0.068
-434.705	-86.467	-0.124	-0.038
-433.690	-200.000	-0.048	-0.245
-432.676	-39.299	0.277	-0.145
-431.661	392.559	-0.252	-0.523
-430.646	-82.999	-0.046	-0.015
-429.632	800.000	-0.056	0.184
-428.617	800.000	0.020	0.075
-427.603	-174.432	0.050	0.001
-426.588	-121.192	-0.383	-0.064
-425.573	800.000	0.010	-0.037
-424.559	-39.758	0.183	0.096
-423.544	-34.088	0.255	0.140
-422.530	110.967	0.015	-0.017
-421.515	75.725	-0.408	0.431
-420.500	101.668	0.049	0.057
-419.486	-20.400	0.071	0.044
-418.471	150.136	-0.057	0.078
-417.457	-86.522	-0.191	0.058
-416.442	-66.459	0.177	-0.070
-415.428	-189.388	-0.200	0.002
-414.413	49.517	0.074	-0.070
-413.398	-96.246	0.263	-0.070
-412.384	472.513	-0.065	-0.145
-411.369	-112.411	-0.215	-0.043
-410.355	-52.089	-0.179	0.083
-409.340	88.349	-0.055	0.061
-408.325	120.066	0.201	-0.249
-407.311	800.000	0.010	-0.037
-406.296	-177.766	0.211	0.005
-405.282	-14.253	0.149	0.096
-404.267	-152.612	0.159	0.011
-403.252	800.000	-0.048	-0.146
-402.238	-124.354	-0.054	-0.008
-401.223	-56.537	0.266	0.118
-400.209	214.085	-0.140	-0.221
-399.194	-200.000	-0.030	-0.198
-398.179	-200.000	-0.003	-0.026
-397.165	584.423	0.098	0.240
-396.150	-200.000	0.009	0.116
-395.136	-200.000	-0.002	0.161
-394.121	-103.313	0.240	0.057
-393.106	-200.000	-0.044	0.510
-392.092	1.856	-0.045	0.032
-391.077	-10.220	-0.237	0.157
-390.063	766.879	-0.014	-0.038
-389.048	800.000	0.026	-0.074
-388.033	-74.586	0.429	-0.154
-387.019	-200.000	-0.022	0.190
-386.004	-200.000	0.038	-0.235
-384.990	-99.806	-0.193	0.048
-383.975	59.496	-0.157	-0.154
-382.960	81.064	-0.132	-0.142
-381.946	334.383	0.037	-0.070
-380.931	-188.098	-0.183	0.002
-379.917	-118.494	0.296	0.052
-378.902	46.121	-0.202	0.187
-377.888	-200.000	0.038	-0.187
-376.873	800.000	0.021	-0.076
-375.858	-59.153	0.130	-0.056
-374.844	9.433	0.090	-0.068
-373.829	-57.694	-0.141	0.061
-372.815	-125.290	-0.230	-0.035
-371.800	59.369	-0.026	-0.025
-370.785	-121.486	-0.047	0.008
-369.771	-5.605	0.112	-0.076
-368.756	-200.000	-0.003	0.026
-367.742	-16.502	0.219	0.138
-366.727	97.338	-0.171	0.195
-365.712	-179.332	0.215	-0.005
-364.698	-12.169	0.305	-0.199
-363.683	800.000	0.066	-0.245
-362.669	163.477	0.085	-0.120
-361.654	31.469	0.207	0.177
-360.639	742.820	0.008	0.022
-359.625	-200.000	-0.000	-0.150
-358.610	-88.521	0.073	-0.022
-357.596	-15.976	0.373	-0.237
-356.581	38.292	-0.164	-0.146
-355.566	-54.426	-0.270	0.122
-354.552	34.324	-0.235	0.204
-353.537	800.000	-0.083	0.233
-352.523	-37.361	-0.047	-0.025
-351.508	800.000	0.049	0.139
-350.493	-71.861	-0.266	-0.099
-349.479	-129.321	-0.132	-0.018
-348.464	230.719	-0.183	0.298
-347.450	432.293	-0.100	-0.216
-346.435	553.714	0.220	-0.526
-345.420	-15.683	-0.346	-0.219
-344.406	-128.956	0.378	-0.053
-343.391	133.856	-0.110	0.142
-342.377	67.750	-0.063	0.064
-341.362	-185.224	0.248	-0.004
-340.348	-31.541	0.255	-0.143
-339.333	-40.158	0.092	-0.047
-338.318	-200.000	0.015	0.096
-337.304	-30.088	0.244	-0.138
-336.289	-127.132	0.111	-0.016
-335.275	344.682	0.113	0.221
-334.260	164.174	-0.236	0.331
-333.245	800.000	-0.031	-0.086
-332.231	-158.954	0.312	0.018
-331.216	75.846	0.226	-0.238
-330.202	377.742	0.062	-0.126
-329.187	-79.024	-0.266	0.090
-328.172	-70.438	0.061	0.023
-327.158	88.323	0.127	0.140
-326.143	-62.829	0.198	0.081
-325.129	111.985	0.161	0.193
-324.114	251.460	0.109	-0.185
-323.099	-111.384	-0.401	0.081
-322.085	163.101	-0.173	-0.241
-321.070	-125.125	0.191	0.029
-320.056	800.000	0.073	-0.256
-319.041	800.000	0.061	-0.178
-318.026	800.000	-0.028	0.119
-317.012	800.000	-0.088	0.328
-315.997	145.907	0.199	-0.265
-314.983	242.371	0.187	-0.311
-313.968	-108.844	-0.434	-0.092
-312.953	-30.364	0.264	-0.149
-311.939	-200.000	0.050	0.276
-310.924	-200.000	0.042	0.202
-309.910	299.230	-0.090	-0.165
-308.895	-69.507	-0.140	0.053
-307.880	-76.072	0.171	0.060
-306.866	-16.574	-0.090	0.057
-305.851	7.155	0.206	0.153
-304.837	117.732	0.145	-0.177
-303.822	800.000	0.040	0.134
-302.807	-25.164	0.242	-0.143
-301.793	-95.798	0.330	-0.088
-300.778	-200.000	0.010	-0.058
-299.764	-31.638	0.063	0.035
-298.749	-112.747	0.230	0.045
-297.735	-81.817	-0.140	0.046
-296.720	-80.217	-0.155	-0.052
-295.705	-143.686	0.250	0.024
-294.691	86.414	-0.252	0.276
-293.676	800.000	0.055	-0.154
-292.662	-156.068	-0.122	-0.008
-291.647	-51.858	0.108	-0.050
-290.632	-13.131	0.053	-0.034
-289.618	-35.563	0.190	-0.102
-288.603	-78.934	-0.129	-0.044
-287.589	-30.323	-0.059	-0.033
-286.574	-200.000	-0.018	0.156
-285.559	2.608	0.178	0.128
-284.545	-113.251	0.083	-0.016
-283.530	141.112	-0.117	-0.154
-282.516	-36.970	-0.275	-0.146
-281.501	800.000	-0.039	-0.156
-280.486	-158.671	0.331	0.019
-279.472	304.380	0.061	-0.113
-278.457	800.000	-0.047	0.136
-277.443	800.000	-0.077	-0.228
-276.428	-200.000	-0.001	-0.270
-275.413	173.414	0.161	0.231
-274.399	53.871	0.103	-0.099
-273.384	-18.106	0.256	-0.159
-272.370	70.012	-0.398	0.408
-271.355	-162.136	0.162	-0.008
-270.340	49.801	-0.134	-0.125
-269.326	11.552	0.156	-0.118
-268.311	-200.000	0.020	0.208
-267.297	-200.000	-0.016	0.176
-266.282	370.398	0.090	-0.181
-265.267	-15.430	-0.034	0.022
-264.253	-200.000	-0.039	-0.385
-263.238	40.979	0.233	0.209
-262.224	121.114	-0.173	0.214
-261.209	127.171	-0.123	-0.155
-260.195	-200.000	-0.025	-0.582
-259.180	663.688	-0.053	-0.135
-258.165	-200.000	-0.037	0.192
-257.151	-200.000	-0.009	-0.201
-256.136	-110.617	0.295	0.060
-255.122	-107.032	0.242	0.053
-254.107	-126.661	-0.168	-0.025
-253.092	-72.962	-0.305	0.111
-252.078	479.220	-0.135	0.304
-251.063	61.468	0.107	0.105
-250.049	57.906	-0.100	0.097
-249.034	-148.856	0.192	0.015
-248.019	-83.141	0.213	0.068
-247.005	119.813	-0.079	0.097
-245.990	-88.038	0.367	-0.109
-244.976	-87.490	-0.274	0.082
-243.961	-200.000	0.017	0.091
-242.946	800.000	-0.137	-0.403
-241.932	800.000	0.060	0.256
-240.917	68.356	-0.250	-0.254
-239.903	-35.139	0.065	0.035
-238.888	38.246	0.327	0.289
-237.873	-141.075	0.423	0.043
-236.859	-94.401	-0.260	-0.070
-235.844	412.609	-0.138	-0.290
-234.830	318.737	0.105	0.197
-233.815	-185.654	-0.349	0.005
-232.800	287.229	-0.053	0.095
-231.786	302.274	0.067	-0.123
-230.771	800.000	0.032	0.101
-229.757	800.000	0.070	-0.282
-228.742	-110.060	0.266	0.055
-227.727	-181.715	-0.255	-0.005
-226.713	362.541	-0.077	-0.152
-225.698	-81.980	0.138	-0.045
-224.684	-56.725	0.116	0.051
-223.669	159.930	-0.242	0.334
-222.655	-200.000	-0.051	0.281
-221.640	28.274	-0.390	0.326
-220.625	-200.000	0.010	-0.140
-219.611	-20.076	-0.077	-0.047
-218.596	-200.000	0.006	0.222
-217.582	-200.000	-0.018	0.192
-216.567	4.279	-0.070	-0.051
-215.552	-200.000	0.035	0.177
-214.538	-115.329	-0.210	0.039
-213.523	800.000	-0.052	0.143
-212.509	73.470	0.104	-0.108
-211.494	800.000	0.107	-0.316
-210.479	249.611	0.090	-0.151
-209.465	800.000	-0.048	0.203
-208.450	420.564	0.069	0.147
-207.436	533.375	-0.149	0.348
-206.421	-200.000	-0.051	0.271
-205.406	52.873	-0.218	-0.207
-204.392	79.719	0.101	-0.107
-203.377	-147.596	0.387	0.032
-202.363	-200.000	-0.045	0.240
-201.348	125.114	0.109	-0.136
-200.333	-200.000	-0.010	-0.177
-199.319	655.020	-0.140	0.356
-198.304	-63.048	-0.285	0.116
-197.290	-80.895	0.239	-0.079
-196.275	800.000	-0.035	-0.131
-195.260	-112.261	0.348	0.069
-194.246	58.963	-0.209	0.203
-193.231	229.376	-0.137	-0.221
-192.217	534.964	-0.096	0.224
-191.202	655.554	-0.032	0.080
-190.187	-200.000	0.085	0.447
-189.173	-31.134	-0.244	0.136
-188.158	143.939	-0.056	-0.074
-187.144	163.582	-0.205	-0.285
-186.129	-10.057	0.074	0.049
-185.114	536.682	0.159	-0.373
-184.100	-152.363	0.464	0.033
-183.085	-200.000	0.042	-0.194
-182.071	224.347	-0.077	0.123
-181.056	463.416	-0.188	0.415
-180.042	-200.000	-0.051	-0.262
-179.027	-52.689	-0.207	0.094
-178.012	-50.272	0.174	-0.082
-176.998	-130.673	-0.070	-0.009
-175.983	-200.000	0.005	0.269
-174.969	191.195	-0.155	0.230
-173.954	72.506	-0.126	0.130
-172.939	634.154	-0.018	-0.045
-171.925	618.914	-0.013	0.032
-170.910	48.849	0.329	-0.305
-169.896	38.245	0.050	-0.044
-168.881	-17.332	-0.240	-0.149
-167.866	55.853	0.066	-0.063
-166.852	-47.786	0.278	-0.133
-165.837	-200.000	0.011	-0.099
-164.823	78.671	-0.050	0.053
-163.808	21.682	-0.249	-0.200
-162.793	326.584	-0.036	-0.069
-161.779	-77.617	0.277	-0.095
-160.764	-122.608	0.187	0.030
-159.750	689.544	-0.144	0.373
-158.735	21.839	0.124	-0.100
-157.720	-56.154	0.016	0.007
-156.706	21.499	0.213	-0.171
-155.691	800.000	-0.069	0.218
-154.677	-110.827	-0.364	-0.074
-153.662	-111.141	-0.270	-0.055
-152.647	211.784	0.278	0.432
-151.633	312.038	-0.041	-0.077
-150.618	-200.000	-0.016	-0.243
-149.604	-110.818	-0.151	0.031
-148.589	800.000	0.026	0.090
-147.574	479.474	0.074	-0.166
-146.560	-121.604	0.283	-0.046
-145.545	-200.000	-0.076	-0.349
-144.531	-61.596	0.187	0.078
-143.516	-200.000	-0.083	-0.483
-142.502	-73.390	0.184	0.066
-141.487	578.617	0.152	-0.368
-140.472	-16.335	0.426	0.267
-139.458	-20.421	0.228	-0.139
-138.443	-130.181	0.062	-0.008
-137.429	800.000	0.090	0.266
-136.414	-200.000	0.003	-0.127
-135.399	-171.094	0.285	-0.010
-134.385	800.000	-0.072	-0.249
-133.370	-152.628	-0.449	-0.032
-132.356	-132.921	0.480	0.060
-131.341	281.834	-0.160	0.283
-130.326	199.781	-0.130	-0.197
-129.312	467.757	0.028	0.061
-128.297	800.000	-0.071	0.268
-127.283	800.000	0.113	0.382
-126.268	-51.038	0.403	-0.187
-125.253	219.407	-0.101	0.159
-124.239	-39.205	0.115	-0.060
-123.224	-200.000	0.048	0.285
-122.210	217.020	0.080	0.125
-121.195	705.529	-0.032	-0.082
