DTS Sentinel unit serial number:	SN413079Multiplexer serial number:	ORYXHardware model number:	OX4-SRSoftware version number:	ORYX F/W v4.00 Oryx Data Collector v3.7.2.0data status	okinstallation	princeton_trtdifferential loss correction	single-endedforward channel	channel 2reverse channel	N/Adate	2019/09/17time	10:35:34forward acquisition time	60.00reverse acquisition time	0.00gamma	496.2192k internal	0.2324k external	0.2324temperature offset calibration	0.9971default loss term (dB/km)	0.3790temperature slope calibration	1.0000multiplexer offset coefficient	1.0000multiplexer slope coefficient	1.0000fibre end	0.00T internal ref (°C)	30.03T ext. ref 1 (°C)	0.17T ext. ref 2 (°C)	25.61length (m)	temperature (°C)	Stokes	anti-Stokes-747.200	-127.298	0.225	-0.033
-746.185	-2.930	0.228	-0.161
-745.171	-69.535	0.235	0.091
-744.156	-90.123	0.287	-0.084
-743.142	-113.057	-0.034	-0.007
-742.127	127.569	0.198	0.254
-741.112	53.900	-0.129	-0.125
-740.098	257.326	0.166	-0.287
-739.083	-200.000	0.009	-0.087
-738.069	28.149	0.128	-0.109
-737.054	-14.659	-0.356	0.231
-736.039	241.875	-0.243	0.410
-735.025	-200.000	0.019	-0.159
-734.010	-200.000	0.027	-0.218
-732.996	-145.977	-0.199	-0.018
-731.981	800.000	-0.108	-0.437
-730.966	-174.068	0.166	0.005
-729.952	7.458	-0.159	0.120
-728.937	-158.204	-0.221	-0.013
-727.923	-129.251	0.064	0.009
-726.908	677.759	0.086	0.226
-725.894	-83.381	0.207	0.067
-724.879	-200.000	-0.007	-0.200
-723.864	-200.000	0.026	-0.369
-722.850	528.612	0.094	-0.224
-721.835	800.000	-0.038	0.132
-720.821	-200.000	0.022	-0.158
-719.806	800.000	0.144	-0.402
-718.791	180.186	-0.132	0.195
-717.777	27.060	-0.118	0.100
-716.762	5.508	0.162	-0.121
-715.748	225.815	-0.040	0.066
-714.733	218.929	-0.071	-0.115
-713.718	800.000	-0.069	-0.264
-712.704	-57.938	-0.270	-0.119
-711.689	7.420	-0.269	0.203
-710.675	75.700	0.091	-0.097
-709.660	-88.329	-0.080	-0.024
-708.645	800.000	0.037	-0.152
-707.631	-200.000	0.008	-0.126
-706.616	125.466	0.124	-0.158
-705.602	632.669	0.092	-0.234
-704.587	-200.000	0.064	-0.297
-703.572	200.885	-0.121	0.188
-702.558	291.483	-0.125	0.229
-701.543	-25.843	-0.281	0.167
-700.529	-200.000	-0.072	-0.427
-699.514	-33.605	-0.164	0.091
-698.499	-73.245	-0.432	-0.159
-697.485	317.917	-0.048	0.092
-696.470	84.262	-0.019	-0.021
-695.456	59.828	-0.271	0.270
-694.441	-200.000	0.016	-0.129
-693.426	-200.000	0.089	-0.403
-692.412	-38.792	-0.103	0.055
-691.397	-96.241	0.376	-0.100
-690.383	-91.803	-0.129	-0.037
-689.368	-43.071	-0.073	0.037
-688.354	79.011	-0.206	-0.222
-687.339	-146.951	0.249	0.022
-686.324	-91.915	0.169	-0.048
-685.310	-200.000	0.004	-0.161
-684.295	-200.000	-0.260	-0.000
-683.281	-44.445	0.306	0.154
-682.266	-200.000	-0.031	0.271
-681.251	-63.778	-0.130	0.054
-680.237	-137.992	-0.201	-0.023
-679.222	274.727	0.099	-0.177
-678.208	89.868	-0.108	-0.122
-677.193	319.239	-0.026	0.050
-676.178	305.185	0.083	-0.156
-675.164	-200.000	0.004	0.043
-674.149	800.000	0.082	-0.323
-673.135	87.264	-0.119	0.133
-672.120	-200.000	-0.179	-0.001
-671.105	-200.000	-0.005	0.339
-670.091	90.015	0.048	0.054
-669.076	7.766	0.123	-0.093
-668.062	-62.671	-0.170	0.071
-667.047	388.199	0.040	0.083
-666.032	-154.194	-0.334	0.023
-665.018	-112.814	0.141	0.028
-664.003	137.593	0.195	-0.257
-662.989	-155.350	0.104	-0.007
-661.974	-97.977	0.057	-0.015
-660.959	-141.385	-0.328	-0.033
-659.945	-3.137	-0.128	-0.090
-658.930	-8.544	-0.175	-0.119
-657.916	-136.870	0.422	0.049
-656.901	-50.501	0.122	0.058
-655.886	800.000	-0.012	0.051
-654.872	1.351	0.141	0.102
-653.857	235.822	-0.057	0.095
-652.843	-13.351	0.292	-0.191
-651.828	-119.847	-0.041	0.007
-650.814	-134.297	-0.256	0.032
-649.799	-118.029	-0.145	-0.026
-648.784	-80.378	-0.056	0.019
-647.770	100.186	0.069	-0.080
-646.755	-21.418	-0.076	-0.047
-645.741	373.570	0.093	0.190
-644.726	-200.000	0.039	0.238
-643.711	-16.053	-0.045	-0.028
-642.697	-8.570	0.055	-0.037
-641.682	-200.000	-0.016	-0.306
-640.668	800.000	-0.106	0.364
-639.653	7.688	0.157	-0.118
-638.638	196.315	-0.015	-0.023
-637.624	2.216	0.296	-0.215
-636.609	167.426	-0.031	-0.044
-635.595	54.754	0.228	0.221
-634.580	-200.000	-0.028	-0.151
-633.565	117.120	-0.156	-0.192
-632.551	-86.684	-0.262	0.081
-631.536	-101.609	-0.078	0.019
-630.522	426.529	-0.120	-0.261
-629.507	131.309	-0.185	-0.239
-628.492	-120.279	-0.238	-0.041
-627.478	76.068	-0.159	-0.169
-626.463	-4.503	-0.158	-0.110
-625.449	249.554	0.134	-0.228
-624.434	-200.000	-0.014	-0.268
-623.419	-200.000	-0.005	-0.321
-622.405	800.000	-0.044	-0.190
-621.390	36.274	-0.326	0.288
-620.376	104.162	-0.102	0.121
-619.361	38.722	-0.195	0.175
-618.346	-56.444	-0.363	0.162
-617.332	44.711	0.169	0.156
-616.317	-72.030	0.428	-0.160
-615.303	323.262	-0.142	-0.271
-614.288	298.124	-0.056	0.104
-613.273	242.203	-0.154	0.258
-612.259	-200.000	-0.014	-0.127
-611.244	573.799	0.021	-0.053
-610.230	-200.000	0.036	0.203
-609.215	215.926	-0.122	0.194
-608.201	48.885	-0.151	0.143
-607.186	68.440	0.331	-0.341
-606.171	-200.000	-0.024	-0.218
-605.157	-92.153	0.077	0.022
-604.142	-119.644	0.248	-0.043
-603.128	-45.177	-0.277	-0.138
-602.113	14.111	-0.101	0.079
-601.098	-119.117	0.316	-0.055
-600.084	39.534	0.233	-0.210
-599.069	-200.000	-0.031	-0.241
-598.055	140.071	0.378	-0.500
-597.040	-21.135	-0.252	0.155
-596.025	-200.000	-0.012	-0.135
-595.011	16.367	-0.150	-0.119
-593.996	-67.444	-0.126	-0.050
-592.982	800.000	0.034	0.124
-591.967	-200.000	-0.010	0.074
-590.952	-75.440	-0.096	0.034
-589.938	705.740	0.075	-0.198
-588.923	-200.000	-0.007	-0.032
-587.909	-35.547	-0.590	-0.321
-586.894	-93.325	0.146	-0.041
-585.879	213.217	0.054	0.086
-584.865	-200.000	0.006	0.081
-583.850	-200.000	0.017	-0.092
-582.836	90.487	-0.071	0.080
-581.821	-34.067	0.290	0.160
-580.806	8.881	0.021	-0.016
-579.792	-152.991	0.192	0.014
-578.777	-30.359	0.267	0.152
-577.763	-48.731	-0.182	0.088
-576.748	-164.703	-0.272	-0.012
-575.733	143.580	0.203	-0.271
-574.719	-98.410	-0.227	-0.058
-573.704	76.268	0.065	-0.069
-572.690	-125.830	-0.160	0.024
-571.675	69.540	-0.261	0.269
-570.661	2.577	0.307	-0.223
-569.646	-31.273	0.187	-0.105
-568.631	187.243	-0.186	0.278
-567.617	-200.000	0.005	0.051
-566.602	-39.235	0.075	-0.040
-565.588	-200.000	0.063	0.436
-564.573	-145.443	0.025	0.002
-563.558	297.787	-0.213	-0.392
-562.544	-200.000	-0.025	-0.202
-561.529	-110.372	0.163	-0.034
-560.515	5.891	0.265	0.196
-559.500	800.000	0.066	0.266
-558.485	-115.443	0.142	-0.027
-557.471	45.359	-0.275	0.254
-556.456	800.000	0.103	0.395
-555.442	-97.183	-0.210	-0.055
-554.427	-25.120	0.181	-0.107
-553.412	-34.578	0.270	0.148
-552.398	-22.844	0.384	0.232
-551.383	75.167	0.105	0.111
-550.369	35.350	0.080	0.071
-549.354	-2.601	0.223	0.157
-548.339	-20.541	-0.169	-0.104
-547.325	800.000	-0.035	0.127
-546.310	-200.000	-0.000	0.091
-545.296	-200.000	0.009	-0.165
-544.281	455.892	0.024	0.054
-543.266	103.339	-0.044	0.052
-542.252	354.914	0.117	-0.232
-541.237	-100.296	0.110	-0.027
-540.223	13.336	-0.112	-0.087
-539.208	800.000	-0.083	-0.309
-538.193	161.933	0.159	0.223
-537.179	-133.038	0.156	0.020
-536.164	603.772	0.122	-0.305
-535.150	67.127	0.421	-0.429
-534.135	-200.000	0.010	-0.304
-533.121	61.593	-0.140	-0.139
-532.106	-39.510	-0.058	0.031
-531.091	-200.000	0.017	-0.186
-530.077	-84.439	-0.254	0.080
-529.062	510.315	-0.155	-0.361
-528.048	-200.000	-0.001	0.112
-527.033	-76.668	0.065	-0.023
-526.018	325.403	0.120	0.230
-525.004	794.995	-0.075	0.206
-523.989	685.561	0.065	-0.170
-522.975	65.242	-0.191	0.193
-521.960	51.156	-0.193	0.183
-520.945	-117.392	-0.295	0.053
-519.931	325.466	-0.095	-0.182
-518.916	-163.169	-0.079	-0.004
-517.902	-200.000	-0.020	-0.092
-516.887	-164.317	-0.083	-0.004
-515.872	-52.058	0.114	0.053
-514.858	800.000	-0.029	0.120
-513.843	-200.000	0.040	0.238
-512.829	-200.000	-0.004	0.089
-511.814	-200.000	-0.005	0.040
-510.799	48.131	-0.119	0.111
-509.785	-200.000	-0.101	0.505
-508.770	800.000	0.120	0.428
-507.756	521.011	0.195	0.458
-506.741	462.193	-0.070	0.157
-505.726	-200.000	-0.039	-0.328
-504.712	800.000	0.037	0.109
-503.697	210.582	-0.103	-0.162
-502.683	48.283	0.079	0.074
-501.668	33.828	0.194	0.168
-500.653	191.532	-0.139	0.209
-499.639	800.000	0.041	-0.175
-498.624	-200.000	0.034	-0.293
-497.610	352.159	0.169	-0.335
-496.595	-28.087	-0.045	0.026
-495.581	-8.934	0.166	-0.111
-494.566	-200.000	-0.039	0.319
-493.551	-122.186	0.031	-0.005
-492.537	35.666	-0.202	0.177
-491.522	-146.484	-0.189	0.016
-490.508	800.000	-0.058	-0.163
-489.493	289.635	-0.063	0.115
-488.478	-133.193	0.240	-0.030
-487.464	37.893	-0.183	-0.163
-486.449	-67.087	-0.327	-0.129
-485.435	-14.683	-0.167	0.107
-484.420	99.664	-0.196	-0.227
-483.405	-150.453	-0.223	0.017
-482.391	-66.950	0.376	-0.148
-481.376	112.911	-0.132	-0.159
-480.362	800.000	-0.074	-0.207
-479.347	800.000	0.017	0.071
-478.332	800.000	0.025	0.093
-477.318	-174.758	0.127	0.004
-476.303	-149.237	-0.062	-0.005
-475.289	82.638	0.159	0.173
-474.274	-97.672	-0.346	-0.090
-473.259	-125.437	0.156	0.024
-472.245	-200.000	-0.005	0.328
-471.230	-37.947	0.201	-0.106
-470.216	31.820	-0.314	-0.270
-469.201	-48.641	0.196	-0.094
-468.186	-40.189	-0.229	0.119
-467.172	-200.000	-0.019	-0.157
-466.157	356.610	-0.029	-0.057
-465.143	293.933	-0.163	0.297
-464.128	-200.000	-0.014	-0.111
-463.113	-103.075	-0.188	-0.044
-462.099	800.000	-0.027	-0.102
-461.084	-4.402	-0.234	-0.162
-460.070	-28.753	-0.110	0.063
-459.055	17.614	-0.036	0.028
-458.040	800.000	-0.081	0.271
-457.026	468.039	0.095	0.213
-456.011	765.858	0.048	-0.131
-454.997	358.104	-0.083	-0.166
-453.982	-200.000	0.018	-0.095
-452.968	-19.004	-0.345	0.214
-451.953	-190.680	-0.162	-0.002
-450.938	-72.914	-0.129	0.047
-449.924	-152.701	0.243	-0.017
-448.909	-40.686	-0.317	0.164
-447.895	242.605	-0.113	-0.189
-446.880	145.612	0.166	0.222
-445.865	126.196	0.112	-0.141
-444.851	-200.000	0.063	-0.290
-443.836	245.988	-0.090	-0.151
-442.822	157.987	0.081	0.112
-441.807	54.461	-0.209	0.201
-440.792	149.920	0.222	0.300
-439.778	-112.573	0.188	-0.037
-438.763	-105.665	0.105	-0.024
-437.749	319.564	-0.229	0.434
-436.734	132.738	0.037	0.048
-435.719	-200.000	-0.006	0.105
-434.705	-165.169	-0.343	0.015
-433.690	20.535	0.056	0.045
-432.676	-200.000	-0.069	0.323
-431.661	-200.000	-0.048	-0.399
-430.646	-142.504	-0.047	0.005
-429.632	-165.153	-0.281	-0.012
-428.617	528.102	-0.071	-0.166
-427.603	122.472	0.189	-0.236
-426.588	-134.907	-0.392	0.047
-425.573	-200.000	-0.018	0.116
-424.559	34.928	-0.217	0.190
-423.544	800.000	-0.065	-0.267
-422.530	-69.392	-0.175	0.067
-421.515	-125.877	-0.072	0.011
-420.500	136.314	-0.093	0.120
-419.486	342.657	-0.061	0.119
-418.471	718.258	-0.084	0.221
-417.457	-56.201	0.095	0.042
-416.442	800.000	-0.050	-0.142
-415.428	-51.711	-0.141	0.065
-414.413	264.254	0.113	0.196
-413.398	-144.428	0.102	0.009
-412.384	-113.772	-0.230	0.045
-411.369	-200.000	-0.006	0.060
-410.355	-200.000	0.006	0.270
-409.340	800.000	0.060	-0.182
-408.325	52.233	-0.156	0.149
-407.311	53.590	-0.252	0.240
-406.296	800.000	-0.121	0.398
-405.282	-92.782	0.247	-0.069
-404.267	713.652	0.032	0.085
-403.252	460.501	0.053	0.117
-402.238	550.744	-0.224	0.535
-401.223	800.000	-0.024	0.083
-400.209	800.000	-0.055	-0.188
-399.194	-38.774	0.265	0.139
-398.179	-35.864	-0.379	0.204
-397.165	-86.655	0.144	0.044
-396.150	-200.000	-0.017	0.142
-395.136	21.451	-0.165	-0.133
-394.121	169.744	0.059	-0.083
-393.106	-115.047	-0.318	-0.060
-392.092	-40.012	0.145	0.075
-391.077	-38.788	0.171	-0.090
-390.063	-150.492	-0.311	0.024
-389.048	-200.000	-0.018	-0.290
-388.033	-32.684	0.391	-0.216
-387.019	151.703	0.100	0.136
-386.004	-90.208	-0.299	0.087
-384.990	-53.789	-0.130	0.059
-383.975	419.327	-0.030	0.063
-382.960	-36.511	0.225	0.121
-381.946	-65.009	-0.055	0.022
-380.931	-200.000	0.038	0.396
-379.917	-2.699	0.078	0.055
-378.902	175.474	0.105	-0.152
-377.888	-52.591	0.083	-0.038
-376.873	-200.000	0.028	-0.182
-375.858	-69.411	0.358	-0.137
-374.844	-154.908	0.137	0.009
-373.829	46.683	0.235	-0.218
-372.815	504.486	-0.043	-0.098
-371.800	800.000	-0.032	0.124
-370.785	-126.105	-0.033	-0.005
-369.771	-128.129	0.392	-0.056
-368.756	176.369	-0.092	0.133
-367.742	-125.455	-0.047	-0.007
-366.727	-78.609	-0.271	-0.092
-365.712	-106.811	0.181	0.040
-364.698	-200.000	0.039	0.427
-363.683	-0.477	-0.068	-0.048
-362.669	-122.200	-0.313	-0.051
-361.654	318.200	0.155	0.291
-360.639	-47.461	-0.399	0.193
-359.625	82.901	-0.104	-0.112
-358.610	-200.000	-0.003	-0.034
-357.596	-121.367	0.344	-0.057
-356.581	-38.443	0.214	-0.112
-355.566	168.338	0.327	0.463
-354.552	-88.697	-0.112	0.033
-353.537	163.768	0.188	-0.264
-352.523	-200.000	-0.052	0.380
-351.508	800.000	0.034	-0.097
-350.493	-108.588	0.113	-0.024
-349.479	-200.000	-0.017	0.177
-348.464	-121.821	0.310	0.051
-347.450	-131.943	-0.135	-0.017
-346.435	43.281	-0.035	0.032
-345.420	29.626	-0.056	0.047
-344.406	-153.923	0.340	-0.023
-343.391	-185.901	-0.263	0.004
-342.377	320.636	-0.163	0.307
-341.362	-176.920	0.525	-0.013
-340.348	-157.144	-0.183	0.011
-339.333	-126.494	-0.202	-0.030
-338.318	282.937	0.176	-0.313
-337.304	800.000	-0.057	0.164
-336.289	73.113	0.193	-0.200
-335.275	250.940	0.063	-0.107
-334.260	-145.761	0.239	0.021
-333.245	-105.494	0.216	-0.049
-332.231	-200.000	-0.031	0.260
-331.216	-61.536	0.408	-0.170
-330.202	-40.785	0.206	-0.106
-329.187	-181.766	-0.351	0.007
-328.172	79.670	0.179	0.191
-327.158	-200.000	0.019	-0.138
-326.143	76.956	0.209	0.220
-325.129	-58.111	0.100	-0.043
-324.114	137.000	0.177	-0.230
-323.099	-200.000	-0.023	-0.128
-322.085	800.000	0.049	-0.203
-321.070	142.237	-0.175	0.230
-320.056	-63.277	-0.155	-0.063
-319.041	800.000	-0.052	-0.191
-318.026	-51.493	-0.169	-0.079
-317.012	75.473	0.236	-0.247
-315.997	-32.008	-0.098	0.054
-314.983	108.686	0.075	-0.089
-313.968	84.052	0.199	0.216
-312.953	346.713	-0.236	0.461
-311.939	-200.000	-0.049	0.215
-310.924	-200.000	-0.012	0.057
-309.910	-200.000	0.006	0.322
-308.895	-99.529	0.175	-0.044
-307.880	-22.049	-0.172	0.104
-306.866	202.964	0.122	0.187
-305.851	-200.000	-0.044	-0.224
-304.837	214.380	-0.043	0.067
-303.822	113.714	-0.244	-0.294
-302.807	464.606	-0.140	-0.311
-301.793	222.953	0.031	0.049
-300.778	-152.542	0.249	0.018
-299.764	1.468	-0.034	-0.024
-298.749	782.564	0.086	-0.234
-297.735	231.603	-0.177	-0.288
-296.720	108.431	-0.077	0.091
-295.705	-68.489	0.329	-0.126
-294.691	-37.468	0.168	0.089
-293.676	-115.091	0.260	-0.049
-292.662	-200.000	0.015	-0.387
-291.647	-97.122	-0.306	0.079
-290.632	35.681	0.149	0.130
-289.618	-200.000	0.011	0.100
-288.603	-1.155	-0.232	0.163
-287.589	79.398	-0.045	0.048
-286.574	478.205	0.062	0.138
-285.559	-137.175	0.104	0.012
-284.545	28.735	-0.160	0.134
-283.530	173.546	0.066	0.095
-282.516	-164.846	0.107	0.005
-281.501	26.264	0.129	-0.106
-280.486	-85.724	0.187	0.058
-279.472	-200.000	0.009	-0.217
-278.457	-46.896	-0.288	-0.140
-277.443	28.813	-0.207	-0.174
-276.428	154.486	0.171	-0.233
-275.413	-73.564	-0.269	-0.097
-274.399	800.000	-0.048	0.158
-273.384	18.539	-0.089	0.071
-272.370	167.409	-0.108	-0.152
-271.355	-23.252	-0.081	-0.048
-270.340	723.948	-0.117	-0.310
-269.326	142.923	0.225	0.296
-268.311	-30.640	-0.336	-0.189
-267.297	60.181	-0.245	-0.240
-266.282	-45.152	0.139	-0.068
-265.267	-125.033	0.495	-0.075
-264.253	78.535	0.175	-0.185
-263.238	-75.679	0.108	-0.038
-262.224	37.006	-0.095	0.083
-261.209	800.000	0.021	0.065
-260.195	-152.144	-0.120	0.009
-259.180	800.000	0.063	-0.258
-258.165	800.000	0.026	0.112
-257.151	-6.189	0.287	0.194
-256.136	145.907	0.053	-0.071
-255.122	-77.420	-0.122	0.042
-254.107	119.203	0.327	0.400
-253.092	-153.464	0.377	0.026
-252.078	29.570	0.323	-0.272
-251.063	800.000	0.160	-0.501
-250.049	-149.080	0.143	-0.011
-249.034	-200.000	-0.011	0.204
-248.019	92.698	0.277	0.310
-247.005	392.362	0.193	-0.398
-245.990	-145.791	-0.081	-0.007
-244.976	91.271	-0.255	-0.283
-243.961	-6.439	0.188	-0.127
-242.946	-200.000	0.004	-0.048
-241.932	-200.000	-0.081	-0.477
-240.917	-134.062	-0.229	-0.028
-239.903	126.595	-0.215	-0.270
-238.888	60.100	-0.039	-0.038
-237.873	-200.000	0.009	-0.198
-236.859	-51.651	0.093	-0.043
-235.844	126.521	0.055	-0.069
-234.830	182.051	-0.075	0.110
-233.815	15.745	0.184	-0.144
-232.800	323.783	0.129	-0.244
-231.786	-200.000	0.020	-0.276
-230.771	-200.000	-0.029	-0.205
-229.757	212.393	-0.265	-0.413
-228.742	-185.195	0.093	-0.001
-227.727	800.000	-0.087	-0.306
-226.713	-200.000	0.005	0.074
-225.698	543.520	-0.104	-0.246
-224.684	-107.424	0.173	0.038
-223.669	461.094	-0.144	0.316
-222.655	-200.000	-0.019	-0.176
-221.640	800.000	-0.047	0.129
-220.625	800.000	-0.141	0.394
-219.611	-58.401	-0.245	0.105
-218.596	-200.000	0.006	0.194
-217.582	4.623	0.176	-0.128
-216.567	26.656	-0.286	-0.236
-215.552	-40.511	0.181	0.093
-214.538	-200.000	-0.003	-0.080
-213.523	-153.717	-0.159	-0.011
-212.509	354.944	0.181	0.356
-211.494	-154.421	-0.535	0.035
-210.479	17.280	-0.126	-0.099
-209.465	-54.797	-0.155	-0.069
-208.450	-200.000	0.149	0.000
-207.436	-85.935	0.225	-0.069
-206.421	-200.000	-0.010	-0.064
-205.406	42.920	-0.310	-0.279
-204.392	-60.723	0.083	0.035
-203.377	99.451	0.312	-0.356
-202.363	446.825	-0.153	-0.333
-201.348	-98.369	-0.169	0.043
-200.333	800.000	-0.101	0.317
-199.319	-200.000	-0.009	-0.141
-198.304	-127.981	0.128	0.018
-197.290	70.756	0.113	0.115
-196.275	43.786	0.149	0.135
-195.260	800.000	0.052	-0.183
-194.246	763.933	-0.137	0.368
-193.231	32.716	0.068	-0.058
-192.217	800.000	-0.023	-0.088
-191.202	-200.000	-0.000	-0.037
-190.187	-200.000	-0.005	0.088
-189.173	-50.934	-0.141	0.066
-188.158	-151.101	0.251	-0.019
-187.144	279.804	0.078	-0.137
-186.129	800.000	-0.071	-0.195
-185.114	124.510	-0.048	-0.060
-184.100	-175.904	0.071	-0.002
-183.085	-110.442	0.179	0.037
-182.071	-66.924	0.275	-0.107
-181.056	-128.513	0.214	0.030
-180.042	-200.000	-0.054	0.276
-179.027	-200.000	-0.020	-0.210
-178.012	-200.000	0.018	0.112
-176.998	-21.070	0.079	0.048
-175.983	-108.665	0.316	0.067
-174.969	-147.672	0.090	0.007
-173.954	89.495	-0.113	0.125
-172.939	-100.097	-0.129	0.032
-171.925	-59.717	0.042	0.018
-170.910	62.434	-0.082	0.081
-169.896	-86.997	-0.055	0.017
-168.881	-160.629	0.443	0.023
-167.866	291.645	-0.111	0.200
-166.852	-76.086	-0.271	0.094
-165.837	49.975	-0.130	-0.121
-164.823	-48.135	-0.220	0.105
-163.808	139.379	-0.177	0.230
-162.793	-180.617	0.453	-0.009
-161.779	-122.821	0.473	-0.075
-160.764	4.851	-0.338	0.245
-159.750	217.981	0.159	0.250
-158.735	-200.000	0.078	0.000
-157.720	800.000	0.058	0.195
-156.706	-200.000	-0.012	0.248
-155.691	-193.810	0.350	-0.003
-154.677	-200.000	-0.025	0.345
-153.662	68.533	-0.079	0.080
-152.647	358.376	-0.029	0.058
-151.633	-52.037	0.182	0.083
-150.618	229.674	-0.078	0.126
-149.604	-131.238	0.092	0.012
-148.589	-200.000	-0.007	-0.106
-147.574	-0.980	-0.248	-0.173
-146.560	12.016	-0.205	0.155
-145.545	-111.911	-0.259	0.052
-144.531	800.000	-0.107	0.327
-143.516	-200.000	0.044	-0.200
-142.502	132.997	0.042	0.053
-141.487	204.574	0.113	0.173
-140.472	7.026	0.064	0.047
-139.458	800.000	0.039	0.106
-138.443	729.083	-0.034	0.088
-137.429	-23.466	-0.070	0.041
-136.414	-92.903	0.186	-0.051
-135.399	260.832	-0.186	0.317
-134.385	-72.402	0.386	-0.141
-133.370	-29.135	0.172	-0.097
-132.356	-164.707	-0.217	0.010
-131.341	-71.057	0.096	0.036
-130.326	-121.046	0.296	-0.049
-129.312	800.000	-0.114	0.325
-128.297	407.805	0.093	-0.193
-127.283	201.343	-0.064	0.097
-126.268	26.722	-0.113	0.093
-125.253	-47.082	0.065	0.031
-124.239	197.792	-0.030	0.046
-123.224	75.001	-0.142	-0.148
-122.210	-129.231	0.080	-0.011
