DTS Sentinel unit serial number:	SN413079Multiplexer serial number:	ORYXHardware model number:	OX4-SRSoftware version number:	ORYX F/W v4.00 Oryx Data Collector v3.7.2.0data status	okinstallation	princeton_trtdifferential loss correction	single-endedforward channel	channel 2reverse channel	N/Adate	2019/09/16time	16:11:35forward acquisition time	60.00reverse acquisition time	0.00gamma	496.2192k internal	0.2300k external	0.2300temperature offset calibration	0.9944default loss term (dB/km)	0.3790temperature slope calibration	1.0000multiplexer offset coefficient	1.0000multiplexer slope coefficient	1.0000fibre end	0.00T internal ref (°C)	40.75T ext. ref 1 (°C)	14.95T ext. ref 2 (°C)	34.95length (m)	temperature (°C)	Stokes	anti-Stokes-747.200	-178.159	0.381	0.009
-746.185	-52.046	-0.120	-0.057
-745.171	-14.682	0.126	0.082
-744.156	-70.015	-0.149	-0.058
-743.142	141.584	-0.093	0.126
-742.127	514.473	-0.020	0.048
-741.112	-200.000	0.343	-0.000
-740.098	439.122	0.168	0.374
-739.083	800.000	0.053	0.151
-738.069	166.266	-0.163	0.236
-737.054	800.000	-0.025	0.108
-736.039	80.559	0.103	-0.113
-735.025	-137.679	-0.259	-0.030
-734.010	-200.000	0.054	0.274
-732.996	-96.513	0.211	0.057
-731.981	342.546	0.055	-0.110
-730.966	121.293	-0.206	0.261
-729.952	-200.000	-0.099	0.719
-728.937	9.043	0.403	0.310
-727.923	-121.563	0.087	0.015
-726.908	55.670	-0.014	-0.014
-725.894	88.452	-0.114	-0.129
-724.879	-24.078	0.210	0.128
-723.864	12.955	-0.036	0.028
-722.850	-106.608	0.078	0.018
-721.835	525.804	-0.088	-0.211
-720.821	-150.101	0.214	-0.017
-719.806	800.000	-0.020	0.089
-718.791	139.441	0.184	-0.247
-717.777	-167.897	-0.078	0.003
-716.762	5.284	-0.215	0.162
-715.748	-135.318	-0.079	-0.010
-714.733	-49.616	-0.280	-0.136
-713.718	-9.870	-0.200	-0.135
-712.704	-101.364	-0.215	0.053
-711.689	632.283	-0.085	0.220
-710.675	-16.355	-0.324	0.210
-709.660	-187.122	-0.095	-0.001
-708.645	-157.361	-0.196	-0.012
-707.631	-145.610	-0.337	-0.031
-706.616	278.326	-0.054	0.097
-705.602	-126.830	-0.448	0.067
-704.587	-190.499	-0.178	-0.002
-703.572	-200.000	-0.009	-0.120
-702.558	45.393	-0.165	-0.155
-701.543	-122.911	0.119	-0.020
-700.529	-86.132	-0.250	-0.079
-699.514	59.563	0.121	0.121
-698.499	124.259	-0.165	-0.211
-697.485	205.574	0.065	-0.103
-696.470	-14.110	0.039	0.026
-695.456	306.098	0.033	-0.063
-694.441	-48.110	-0.268	0.132
-693.426	-73.203	-0.098	-0.037
-692.412	-77.723	-0.228	-0.080
-691.397	440.748	-0.069	0.153
-690.383	800.000	0.034	-0.148
-689.368	-200.000	0.069	-0.470
-688.354	-200.000	-0.001	-0.193
-687.339	-200.000	0.036	0.231
-686.324	-181.386	0.120	-0.002
-685.310	-41.792	-0.131	0.068
-684.295	226.767	0.127	0.211
-683.281	-49.480	-0.135	-0.065
-682.266	-47.607	-0.206	0.102
-681.251	-64.910	-0.086	0.035
-680.237	-200.000	0.020	-0.094
-679.222	80.855	-0.102	-0.112
-678.208	800.000	-0.036	0.112
-677.193	-200.000	-0.041	-0.358
-676.178	800.000	-0.037	-0.118
-675.164	36.941	-0.202	-0.181
-674.149	-0.100	-0.309	0.224
-673.135	337.345	0.128	-0.253
-672.120	800.000	-0.141	-0.441
-671.105	117.976	-0.080	-0.100
-670.091	344.538	-0.032	0.065
-669.076	800.000	-0.035	0.106
-668.062	-138.561	-0.260	0.029
-667.047	-120.926	-0.153	-0.026
-666.032	179.102	-0.144	-0.215
-665.018	-109.060	-0.089	0.019
-664.003	-169.857	0.239	0.009
-662.989	223.797	0.162	0.265
-661.974	-101.602	-0.141	-0.035
-660.959	21.971	-0.141	0.117
-659.945	127.356	0.309	-0.398
-658.930	237.960	0.154	-0.260
-657.916	-187.298	0.401	-0.006
-656.901	-200.000	0.020	-0.229
-655.886	248.976	-0.188	-0.324
-654.872	-149.348	0.163	-0.013
-653.857	-45.595	0.433	0.218
-652.843	-200.000	-0.022	0.310
-651.828	84.353	-0.261	-0.290
-650.814	23.135	0.290	0.242
-649.799	734.411	-0.058	0.157
-648.784	-200.000	-0.055	0.314
-647.770	-8.615	-0.117	0.080
-646.755	-99.643	-0.128	0.033
-645.741	-108.414	0.403	-0.088
-644.726	-200.000	0.008	-0.075
-643.711	-121.853	-0.273	-0.046
-642.697	111.936	-0.091	0.112
-641.682	-74.059	0.204	0.075
-640.668	730.846	0.054	-0.147
-639.653	-200.000	0.034	0.198
-638.638	-200.000	-0.018	0.163
-637.624	280.807	0.068	-0.124
-636.609	169.936	-0.148	0.215
-635.595	7.485	-0.172	-0.131
-634.580	226.943	0.011	0.019
-633.565	38.326	-0.009	0.008
-632.551	36.340	0.156	0.139
-631.536	800.000	0.024	0.098
-630.522	-54.535	-0.257	-0.118
-629.507	24.699	0.176	0.148
-628.492	-85.824	0.225	-0.071
-627.478	66.106	0.232	-0.239
-626.463	-44.086	-0.239	-0.122
-625.449	-184.325	-0.221	0.004
-624.434	800.000	-0.063	0.181
-623.419	800.000	0.007	-0.022
-622.405	-69.358	-0.091	0.036
-621.390	-141.077	-0.329	-0.034
-620.376	-63.302	0.175	-0.073
-619.361	160.263	-0.105	0.148
-618.346	-33.529	-0.264	-0.148
-617.332	-200.000	-0.005	-0.244
-616.317	-200.000	0.015	-0.219
-615.303	320.987	-0.091	-0.176
-614.288	-38.034	-0.051	-0.027
-613.273	-85.928	-0.210	-0.066
-612.259	70.373	0.178	0.186
-611.244	-17.953	0.287	0.183
-610.230	-79.446	0.084	0.029
-609.215	388.600	-0.059	0.125
-608.201	289.827	-0.086	-0.157
-607.186	-23.541	0.131	-0.080
-606.171	51.362	0.202	-0.195
-605.157	-200.000	0.026	-0.359
-604.142	-200.000	0.009	-0.234
-603.128	-177.457	0.490	-0.012
-602.113	-150.393	-0.150	-0.012
-601.098	395.915	-0.103	0.218
-600.084	800.000	-0.054	-0.189
-599.069	61.330	-0.070	-0.071
-598.055	-114.581	0.267	0.052
-597.040	800.000	0.102	-0.313
-596.025	-54.684	-0.129	-0.059
-595.011	7.633	-0.042	0.032
-593.996	-129.046	-0.155	0.022
-592.982	-82.619	-0.041	0.013
-591.967	462.032	-0.049	0.110
-590.952	60.732	0.076	-0.076
-589.938	-85.323	-0.153	-0.049
-588.923	65.673	-0.203	-0.208
-587.909	-200.000	-0.054	-0.334
-586.894	61.707	-0.061	-0.062
-585.879	800.000	-0.091	-0.263
-584.865	-161.900	-0.174	-0.009
-583.850	106.689	0.207	0.249
-582.836	800.000	0.028	-0.093
-581.821	-200.000	0.028	-0.217
-580.806	-121.079	-0.066	-0.011
-579.792	159.244	0.072	-0.101
-578.777	-23.281	-0.075	-0.045
-577.763	800.000	-0.055	0.166
-576.748	800.000	0.109	0.331
-575.733	-47.380	0.335	0.165
-574.719	800.000	0.096	-0.332
-573.704	-66.749	-0.115	0.046
-572.690	110.461	-0.112	0.137
-571.675	800.000	-0.056	-0.193
-570.661	281.044	-0.094	0.171
-569.646	602.070	0.148	-0.373
-568.631	-49.383	-0.306	-0.148
-567.617	58.381	-0.117	0.116
-566.602	-78.464	-0.081	-0.028
-565.588	-36.499	-0.210	-0.114
-564.573	-200.000	-0.040	0.406
-563.558	128.238	0.092	0.118
-562.544	-146.664	-0.389	0.034
-561.529	336.803	0.102	0.200
-560.515	789.021	0.051	-0.143
-559.500	800.000	0.089	0.361
-558.485	-200.000	0.002	-0.118
-557.471	95.391	-0.227	-0.262
-556.456	-75.114	-0.119	0.043
-555.442	-153.366	0.133	-0.009
-554.427	233.258	-0.012	-0.020
-553.412	430.612	0.147	-0.323
-552.398	39.218	-0.412	0.374
-551.383	-200.000	-0.010	-0.216
-550.369	572.165	0.074	-0.181
-549.354	-200.000	0.049	0.345
-548.339	-61.598	0.103	0.044
-547.325	536.511	0.102	0.246
-546.310	-3.965	-0.105	0.074
-545.296	-72.740	0.476	-0.177
-544.281	-105.555	0.413	-0.095
-543.266	-109.136	-0.055	0.012
-542.252	-82.374	0.149	-0.049
-541.237	84.944	-0.211	0.234
-540.223	-200.000	-0.009	0.104
-539.208	122.695	0.053	0.067
-538.193	8.099	0.033	0.025
-537.179	-200.000	-0.013	-0.174
-536.164	361.720	0.034	0.069
-535.150	223.659	-0.099	-0.162
-534.135	70.535	0.162	-0.170
-533.121	-142.438	-0.194	0.019
-532.106	84.478	-0.095	0.105
-531.091	-200.000	-0.022	-0.167
-530.077	446.687	-0.084	-0.186
-529.062	500.955	0.134	-0.312
-528.048	-116.916	-0.484	0.089
-527.033	75.810	0.146	-0.157
-526.018	800.000	0.014	-0.060
-525.004	81.921	0.193	0.212
-523.989	-120.979	-0.096	-0.016
-522.975	113.746	-0.185	-0.228
-521.960	-200.000	0.044	-0.241
-520.945	-111.671	-0.208	-0.043
-519.931	-157.668	0.205	-0.012
-518.916	-170.679	-0.471	-0.016
-517.902	800.000	0.028	-0.095
-516.887	-56.898	0.431	0.192
-515.872	730.101	0.044	-0.119
-514.858	266.969	0.117	0.206
-513.843	235.012	-0.189	0.316
-512.829	-53.894	0.096	-0.044
-511.814	-107.073	-0.079	0.018
-510.799	695.894	-0.116	0.308
-509.785	-54.832	-0.365	0.167
-508.770	310.305	-0.237	-0.447
-507.756	-166.991	0.256	-0.011
-506.741	-119.935	0.233	0.041
-505.726	-200.000	-0.059	-0.526
-504.712	332.703	-0.127	0.248
-503.697	-17.196	0.270	0.172
-502.683	-8.302	-0.162	-0.110
-501.668	-105.483	-0.179	-0.041
-500.653	-142.418	-0.386	-0.038
-499.639	-41.358	0.411	0.214
-498.624	800.000	0.078	-0.312
-497.610	20.672	-0.360	-0.294
-496.595	121.691	0.215	0.270
-495.581	159.464	0.100	0.141
-494.566	800.000	0.102	-0.351
-493.551	-200.000	0.040	-0.249
-492.537	36.930	0.377	-0.336
-491.522	-36.297	-0.315	-0.171
-490.508	800.000	0.104	0.380
-489.493	341.055	0.083	0.164
-488.478	-50.578	0.138	0.066
-487.464	782.563	-0.012	0.034
-486.449	64.928	0.124	0.126
-485.435	172.945	0.078	-0.113
-484.420	21.501	-0.043	0.035
-483.405	361.923	0.041	-0.083
-482.391	148.017	0.159	-0.217
-481.376	-31.799	0.205	-0.116
-480.362	112.707	0.073	-0.090
-479.347	800.000	0.104	-0.299
-478.332	-59.329	-0.214	0.093
-477.318	-161.454	-0.234	-0.012
-476.303	-200.000	-0.015	0.155
-475.289	-119.113	0.309	0.055
-474.274	277.239	0.024	-0.043
-473.259	-23.526	0.217	-0.131
-472.245	-144.422	-0.241	0.023
-471.230	-200.000	0.000	0.119
-470.216	-60.530	-0.187	-0.080
-469.201	-165.934	0.185	0.008
-468.186	-50.675	0.241	0.115
-467.172	800.000	0.103	0.305
-466.157	83.119	-0.298	0.328
-465.143	-58.447	-0.158	-0.069
-464.128	800.000	0.067	-0.198
-463.113	697.530	0.097	-0.257
-462.099	800.000	0.052	0.211
-461.084	-200.000	0.003	0.048
-460.070	-105.576	0.231	-0.053
-459.055	800.000	-0.075	-0.278
-458.040	-200.000	0.021	0.192
-457.026	-190.297	0.091	0.001
-456.011	-155.149	0.110	-0.007
-454.997	-133.553	0.122	-0.015
-453.982	800.000	0.074	-0.297
-452.968	-94.221	-0.108	-0.030
-451.953	99.847	0.280	-0.327
-450.938	227.177	0.051	-0.083
-449.924	148.139	0.070	-0.095
-448.909	441.114	0.094	-0.207
-447.895	-45.395	-0.276	0.138
-446.880	-200.000	0.021	0.135
-445.865	-150.913	-0.197	0.015
-444.851	-52.066	-0.256	-0.120
-443.836	-94.443	-0.096	0.026
-442.822	-128.408	0.179	-0.026
-441.807	-123.158	-0.313	-0.051
-440.792	46.649	-0.087	0.081
-439.778	-200.000	-0.019	0.419
-438.763	800.000	0.051	0.161
-437.749	-28.871	-0.375	0.217
-436.734	800.000	0.030	-0.105
-435.719	-200.000	0.015	-0.206
-434.705	365.221	-0.133	-0.270
-433.690	-118.213	-0.101	-0.018
-432.676	800.000	0.131	0.476
-431.661	-200.000	-0.011	-0.072
-430.646	-200.000	-0.004	0.079
-429.632	-71.766	-0.331	0.124
-428.617	800.000	-0.081	0.298
-427.603	-200.000	-0.017	0.145
-426.588	-12.721	-0.036	0.024
-425.573	71.005	-0.030	-0.031
-424.559	-7.777	-0.035	0.024
-423.544	-44.530	-0.223	0.112
-422.530	-200.000	-0.032	-0.262
-421.515	-31.276	0.192	-0.109
-420.500	117.313	-0.190	-0.235
-419.486	212.151	0.252	0.399
-418.471	612.225	-0.053	0.133
-417.457	54.046	0.192	-0.186
-416.442	-78.068	-0.274	0.095
-415.428	-185.868	-0.167	-0.003
-414.413	-200.000	-0.026	0.204
-413.398	72.871	-0.138	0.145
-412.384	-95.164	0.187	0.051
-411.369	650.684	0.060	0.155
-410.355	295.325	-0.228	0.421
-409.340	-78.928	0.287	0.098
-408.325	351.129	0.170	-0.339
-407.311	-0.123	-0.181	-0.130
-406.296	800.000	-0.059	0.230
-405.282	-142.744	0.151	0.015
-404.267	52.404	-0.117	-0.113
-403.252	-200.000	-0.006	-0.052
-402.238	-14.583	0.065	0.042
-401.223	371.489	-0.037	-0.076
-400.209	-58.964	-0.140	0.061
-399.194	349.266	0.120	-0.238
-398.179	-47.718	-0.374	0.183
-397.165	-200.000	-0.036	-0.177
-396.150	800.000	0.026	0.112
-395.136	-200.000	-0.003	0.152
-394.121	-152.695	-0.255	-0.018
-393.106	186.786	-0.074	0.111
-392.092	67.854	-0.025	-0.026
-391.077	-96.460	0.100	0.027
-390.063	92.160	-0.119	0.134
-389.048	21.146	0.295	0.241
-388.033	47.089	-0.137	-0.128
-387.019	800.000	0.018	-0.060
-386.004	159.814	0.027	0.038
-384.990	101.028	-0.277	-0.325
-383.975	188.996	0.199	0.300
-382.960	-200.000	-0.063	0.466
-381.946	-21.471	-0.117	0.072
-380.931	49.523	0.063	0.060
-379.917	-18.630	0.102	0.064
-378.902	26.120	-0.085	-0.072
-377.888	228.164	-0.164	0.269
-376.873	28.032	0.243	-0.206
-375.858	165.994	-0.166	0.237
-374.844	165.454	0.252	0.358
-373.829	-200.000	0.047	0.364
-372.815	67.791	-0.047	-0.048
-371.800	104.939	0.036	-0.043
-370.785	26.551	0.139	-0.117
-369.771	107.996	0.099	-0.119
-368.756	40.844	-0.176	-0.159
-367.742	-200.000	-0.058	-0.374
-366.727	9.040	0.109	0.083
-365.712	62.191	-0.101	-0.101
-364.698	144.112	-0.041	-0.055
-363.683	-6.425	-0.275	-0.188
-362.669	-200.000	0.006	0.239
-361.654	233.672	-0.115	0.189
-360.639	800.000	-0.060	-0.213
-359.625	-120.057	0.110	-0.019
-358.610	-200.000	-0.006	0.035
-357.596	-137.289	0.227	0.026
-356.581	35.576	0.088	-0.078
-355.566	82.897	0.054	-0.059
-354.552	800.000	0.119	0.333
-353.537	72.326	-0.155	-0.163
-352.523	-63.110	0.337	-0.140
-351.508	-97.462	0.222	0.058
-350.493	-37.834	0.288	-0.154
-349.479	68.340	0.302	0.311
-348.464	-121.418	0.315	-0.053
-347.450	-152.781	-0.166	0.012
-346.435	-49.489	0.092	0.044
-345.420	-96.918	0.081	-0.021
-344.406	-200.000	0.009	-0.102
-343.391	-147.330	-0.298	-0.025
-342.377	57.227	0.291	0.285
-341.362	-200.000	0.065	0.340
-340.348	59.046	-0.243	0.240
-339.333	51.651	-0.175	0.167
-338.318	-200.000	-0.032	0.148
-337.304	-45.047	0.297	0.149
-336.289	169.351	0.208	0.298
-335.275	65.743	0.193	0.196
-334.260	231.019	0.074	-0.122
-333.245	505.704	-0.091	-0.212
-332.231	800.000	-0.018	0.054
-331.216	746.090	-0.020	-0.054
-330.202	228.140	0.188	-0.307
-329.187	800.000	-0.018	0.064
-328.172	126.352	-0.202	0.256
-327.158	-200.000	0.026	0.156
-326.143	800.000	0.080	0.284
-325.129	718.901	-0.054	0.143
-324.114	12.787	-0.230	-0.178
-323.099	264.623	0.073	-0.127
-322.085	800.000	0.089	0.305
-321.070	25.168	0.068	-0.057
-320.056	335.017	0.095	-0.184
-319.041	-130.314	0.324	-0.044
-318.026	404.520	0.201	-0.424
-317.012	71.193	0.263	0.273
-315.997	-72.249	-0.496	0.184
-314.983	761.771	-0.097	-0.265
-313.968	-74.758	0.162	0.059
-312.953	-200.000	0.059	-0.383
-311.939	251.298	-0.265	0.452
-310.924	39.238	0.250	0.224
-309.910	800.000	-0.042	-0.151
-308.895	-200.000	-0.044	0.206
-307.880	206.125	-0.027	0.042
-306.866	-200.000	-0.014	0.096
-305.851	-200.000	-0.000	-0.030
-304.837	18.379	-0.194	-0.155
-303.822	36.936	0.183	0.162
-302.807	-77.515	-0.128	0.045
-301.793	57.968	-0.202	-0.198
-300.778	17.410	-0.036	-0.029
-299.764	32.770	0.185	-0.160
-298.749	352.718	0.216	-0.429
-297.735	-127.482	0.130	0.019
-296.720	170.511	-0.158	-0.226
-295.705	-37.611	-0.172	0.092
-294.691	-74.084	0.279	-0.101
-293.676	-17.577	-0.049	-0.031
-292.662	-0.386	0.081	-0.058
-291.647	-200.000	0.019	0.087
-290.632	181.412	-0.086	0.127
-289.618	-200.000	-0.001	0.355
-288.603	92.924	0.095	0.107
-287.589	36.224	0.095	0.084
-286.574	-200.000	-0.122	-0.000
-285.559	57.348	0.262	0.256
-284.545	-200.000	-0.009	-0.098
-283.530	-122.967	0.165	0.027
-282.516	554.592	-0.060	-0.144
-281.501	-200.000	0.009	-0.180
-280.486	33.532	0.046	-0.040
-279.472	-88.616	0.160	0.048
-278.457	92.861	0.245	0.277
-277.443	-26.362	-0.105	0.062
-276.428	59.559	-0.388	0.383
-275.413	-200.000	-0.040	-0.424
-274.399	-200.000	0.058	-0.455
-273.384	-49.118	0.261	-0.125
-272.370	274.980	0.136	-0.242
-271.355	-200.000	0.023	-0.213
-270.340	-200.000	-0.047	-0.365
-269.326	321.477	0.077	-0.147
-268.311	58.959	0.152	0.149
-267.297	67.609	-0.078	0.080
-266.282	4.942	0.327	-0.241
-265.267	82.251	-0.148	-0.161
-264.253	-182.340	-0.134	0.002
-263.238	97.733	0.123	0.142
-262.224	23.221	-0.061	0.050
-261.209	121.908	-0.081	0.101
-260.195	251.430	0.143	0.243
-259.180	-200.000	-0.044	-0.280
-258.165	-200.000	-0.005	-0.383
-257.151	85.464	0.261	-0.287
-256.136	196.311	-0.052	0.079
-255.122	-76.790	0.296	0.104
-254.107	141.321	-0.233	0.308
-253.092	151.331	-0.241	0.328
-252.078	-0.188	0.075	-0.053
-251.063	800.000	-0.083	0.254
-250.049	216.719	-0.125	-0.198
-249.034	-34.814	-0.138	-0.076
-248.019	216.348	0.228	0.362
-247.005	800.000	-0.052	-0.210
-245.990	265.207	-0.064	-0.112
-244.976	120.541	0.175	0.218
-243.961	-65.644	0.256	0.103
-242.946	-8.388	-0.112	-0.075
-241.932	27.854	-0.167	-0.141
-240.917	-63.298	0.060	-0.025
-239.903	-200.000	-0.004	0.050
-238.888	-127.453	-0.287	-0.042
-237.873	78.420	-0.079	0.085
-236.859	-200.000	-0.031	-0.248
-235.844	800.000	-0.041	-0.134
-234.830	228.508	-0.074	-0.121
-233.815	76.724	0.060	-0.064
-232.800	-75.909	-0.037	-0.013
-231.786	188.077	-0.137	0.204
-230.771	800.000	0.133	-0.438
-229.757	-127.018	0.154	-0.023
-228.742	-5.728	0.121	0.083
-227.727	-65.819	0.122	0.049
-226.713	-200.000	0.059	0.262
-225.698	800.000	0.091	0.259
-224.684	800.000	0.086	-0.289
-223.669	-164.086	-0.070	0.003
-222.655	-200.000	-0.032	0.394
-221.640	173.196	0.192	0.277
-220.625	342.205	-0.057	0.111
-219.611	800.000	0.074	0.239
-218.596	-89.529	0.185	0.054
-217.582	226.026	-0.140	-0.226
-216.567	183.411	0.074	0.109
-215.552	39.283	0.207	-0.185
-214.538	-134.077	-0.485	0.060
-213.523	-50.853	0.220	0.103
-212.509	226.890	0.012	-0.019
-211.494	-27.253	-0.152	0.088
-210.479	405.134	0.128	-0.269
-209.465	-200.000	0.014	-0.087
-208.450	-200.000	0.041	0.361
-207.436	67.271	0.224	0.228
-206.421	-94.401	0.202	-0.055
-205.406	-34.922	0.445	0.242
-204.392	800.000	-0.149	-0.519
-203.377	-111.444	-0.286	0.058
-202.363	297.919	-0.094	-0.172
-201.348	-49.315	-0.207	-0.099
-200.333	-200.000	0.035	-0.169
-199.319	-200.000	0.052	0.270
-198.304	204.918	-0.130	-0.201
-197.290	549.089	0.154	-0.369
-196.275	-153.000	-0.116	0.008
-195.260	88.921	-0.336	-0.373
-194.246	233.459	0.171	0.281
-193.231	5.886	-0.071	-0.053
-192.217	-69.919	-0.258	-0.098
-191.202	-43.412	0.304	0.153
-190.187	-200.000	-0.035	-0.167
-189.173	-90.082	0.237	-0.069
-188.158	-200.000	-0.017	-0.263
-187.144	-200.000	0.078	-0.376
-186.129	-19.834	-0.356	0.219
-185.114	-191.148	0.041	0.000
-184.100	-67.539	-0.171	0.067
-183.085	-191.246	0.119	-0.001
-182.071	-145.007	0.021	-0.002
-181.056	74.864	-0.113	0.119
-180.042	-200.000	-0.050	0.226
-179.027	-51.762	0.290	0.135
-178.012	38.634	-0.442	0.393
-176.998	-131.692	-0.514	0.067
-175.983	41.275	-0.233	0.210
-174.969	-200.000	-0.009	0.260
-173.954	513.667	-0.124	0.288
-172.939	155.339	-0.070	0.096
-171.925	-43.741	-0.049	-0.025
-170.910	36.615	-0.069	0.061
-169.896	-200.000	-0.032	-0.333
-168.881	494.409	0.088	-0.202
-167.866	-60.520	-0.162	-0.068
-166.852	-44.781	0.530	-0.264
-165.837	-41.972	0.290	-0.148
-164.823	558.779	-0.173	-0.416
-163.808	569.670	0.046	0.112
-162.793	-130.702	-0.070	0.009
-161.779	179.655	-0.029	-0.043
-160.764	-139.851	-0.357	-0.038
-159.750	-84.340	0.090	0.028
-158.735	69.520	-0.086	0.089
-157.720	155.420	-0.073	0.101
-156.706	-81.357	0.219	0.072
-155.691	-69.044	-0.141	-0.054
-154.677	377.253	-0.037	0.075
-153.662	-55.376	-0.106	-0.047
-152.647	-200.000	-0.015	0.179
-151.633	-193.836	0.246	-0.002
-150.618	-146.034	-0.277	-0.024
-149.604	-35.423	0.160	0.087
-148.589	40.075	-0.244	0.218
-147.574	-166.204	0.133	-0.006
-146.560	-81.041	0.213	-0.070
-145.545	416.645	-0.101	-0.214
-144.531	9.436	-0.119	0.090
-143.516	81.497	0.208	0.224
-142.502	-200.000	0.005	-0.045
-141.487	-0.382	-0.243	0.172
-140.472	-173.372	0.171	0.005
-139.458	-100.233	0.354	0.088
-138.443	361.823	0.069	-0.137
-137.429	138.787	0.121	0.159
-136.414	-26.676	0.235	0.137
-135.399	800.000	0.034	-0.139
-134.385	-75.206	0.309	0.110
-133.370	-143.186	-0.313	0.030
-132.356	800.000	-0.006	0.021
-131.341	75.057	0.257	0.269
-130.326	-115.900	0.252	-0.047
-129.312	-200.000	0.037	0.352
-128.297	-134.159	-0.220	0.027
-127.283	-99.136	-0.271	0.068
-126.268	-176.997	0.090	-0.002
-125.253	-200.000	0.007	0.167
-124.239	-3.640	0.224	-0.155
-123.224	123.657	0.135	-0.168
-122.210	257.486	-0.052	-0.089
-121.195	-88.628	0.263	0.078
