DTS Sentinel unit serial number:	SN413079Multiplexer serial number:	ORYXHardware model number:	OX4-SRSoftware version number:	ORYX F/W v4.00 Oryx Data Collector v3.7.2.0data status	okinstallation	princeton_trtdifferential loss correction	single-endedforward channel	channel 2reverse channel	N/Adate	2019/09/18time	01:31:35forward acquisition time	60.00reverse acquisition time	0.00gamma	496.2192k internal	0.2350k external	0.2350temperature offset calibration	0.9984default loss term (dB/km)	0.3790temperature slope calibration	1.0000multiplexer offset coefficient	1.0000multiplexer slope coefficient	1.0000fibre end	0.00T internal ref (°C)	23.08T ext. ref 1 (°C)	0.16T ext. ref 2 (°C)	16.77length (m)	temperature (°C)	Stokes	anti-Stokes-747.200	-200.000	0.019	0.251
-746.185	-200.000	0.013	0.140
-745.171	487.203	0.095	-0.217
-744.156	-150.441	-0.406	0.031
-743.142	-138.724	-0.150	-0.016
-742.127	-12.924	-0.359	-0.233
-741.112	55.095	0.144	0.139
-740.098	-145.418	0.020	-0.002
-739.083	-200.000	-0.020	0.216
-738.069	-57.935	-0.321	0.140
-737.054	672.007	-0.039	-0.101
-736.039	193.497	-0.217	0.328
-735.025	504.667	0.136	0.314
-734.010	-66.227	0.111	-0.044
-732.996	-165.251	-0.383	0.017
-731.981	24.284	0.048	-0.039
-730.966	-113.479	0.377	-0.074
-729.952	-150.972	0.108	0.008
-728.937	-200.000	-0.067	-0.348
-727.923	-27.884	-0.118	-0.068
-726.908	-75.824	0.076	-0.027
-725.894	-200.000	-0.061	-0.422
-724.879	-60.661	-0.273	-0.116
-723.864	-151.477	-0.334	-0.025
-722.850	-93.084	-0.232	0.064
-721.835	-42.903	0.196	-0.099
-720.821	-38.710	0.110	0.058
-719.806	-81.679	-0.358	0.117
-718.791	-25.704	0.161	-0.095
-717.777	-181.940	-0.273	-0.005
-716.762	-29.088	0.463	0.265
-715.748	-200.000	-0.010	0.111
-714.733	69.551	-0.073	-0.075
-713.718	800.000	0.177	-0.673
-712.704	-36.526	-0.123	-0.066
-711.689	-68.545	-0.168	0.065
-710.675	-28.679	0.088	-0.051
-709.660	108.986	0.064	-0.077
-708.645	-33.620	-0.272	0.150
-707.631	412.063	-0.073	-0.155
-706.616	4.350	-0.328	0.240
-705.602	-200.000	0.048	0.226
-704.587	-200.000	0.001	0.058
-703.572	-155.445	0.141	0.009
-702.558	75.304	0.195	0.205
-701.543	308.677	-0.069	0.129
-700.529	-161.574	-0.106	-0.005
-699.514	-7.345	0.210	0.142
-698.499	-200.000	0.007	0.082
-697.485	-115.929	0.292	-0.054
-696.470	-127.227	0.373	0.054
-695.456	281.732	0.127	-0.226
-694.441	73.439	0.528	-0.551
-693.426	-164.855	-0.518	0.023
-692.412	248.304	-0.196	0.331
-691.397	146.507	0.283	0.379
-690.383	-103.345	0.308	-0.072
-689.368	-200.000	0.017	0.239
-688.354	356.589	-0.089	-0.177
-687.339	-27.747	-0.277	-0.160
-686.324	-77.618	-0.396	0.137
-685.310	800.000	-0.087	-0.290
-684.295	-14.200	-0.149	0.096
-683.281	570.866	-0.026	-0.063
-682.266	65.207	0.144	0.145
-681.251	-108.601	0.105	-0.022
-680.237	95.194	-0.084	0.096
-679.222	89.127	0.092	-0.102
-678.208	-19.268	-0.295	0.182
-677.193	800.000	0.115	0.416
-676.178	-52.529	0.202	-0.093
-675.164	-50.729	-0.347	-0.163
-674.149	-6.433	-0.261	0.177
-673.135	-200.000	0.009	-0.119
-672.120	234.852	-0.117	0.192
-671.105	249.077	0.103	0.173
-670.091	725.755	0.055	-0.145
-669.076	648.572	0.081	-0.206
-668.062	-47.978	-0.270	-0.130
-667.047	199.541	0.141	0.215
-666.032	156.824	0.224	-0.308
-665.018	-16.222	0.159	-0.101
-664.003	800.000	0.110	-0.417
-662.989	60.970	-0.175	-0.173
-661.974	617.137	0.042	-0.105
-660.959	800.000	0.062	-0.268
-659.945	-96.807	-0.195	-0.051
-658.930	-134.394	-0.197	0.024
-657.916	-93.223	0.325	-0.090
-656.901	800.000	-0.090	-0.256
-655.886	49.151	-0.045	0.042
-654.872	69.169	0.216	0.221
-653.857	-200.000	0.046	-0.269
-652.843	-124.980	-0.226	0.035
-651.828	-63.552	-0.291	0.119
-650.814	-137.192	-0.249	0.028
-649.799	800.000	-0.051	0.191
-648.784	16.743	0.160	0.126
-647.770	-200.000	0.004	-0.069
-646.755	-103.160	0.149	0.035
-645.741	-19.052	-0.128	-0.079
-644.726	-139.564	0.083	0.009
-643.711	-1.452	0.317	0.223
-642.697	335.859	-0.044	0.085
-641.682	349.922	-0.101	-0.198
-640.668	-154.989	0.220	-0.014
-639.653	389.347	0.074	0.152
-638.638	-199.394	-0.401	0.002
-637.624	230.972	0.129	-0.210
-636.609	-71.880	0.239	-0.089
-635.595	800.000	-0.060	-0.194
-634.580	800.000	0.053	0.197
-633.565	-106.573	0.021	-0.005
-632.551	534.757	0.020	-0.046
-631.536	-67.110	0.068	0.027
-630.522	-200.000	0.009	0.097
-629.507	-44.235	-0.187	0.093
-628.492	-133.197	-0.251	-0.032
-627.478	121.981	-0.103	0.127
-626.463	-163.317	-0.250	0.012
-625.449	-114.716	-0.193	0.037
-624.434	-38.923	-0.350	0.183
-623.419	-114.612	0.200	0.038
-622.405	65.416	-0.146	-0.147
-621.390	-200.000	-0.023	-0.119
-620.376	168.435	-0.076	-0.107
-619.361	613.518	0.109	0.271
-618.346	-132.989	-0.253	0.032
-617.332	-166.170	-0.125	-0.005
-616.317	138.000	-0.208	0.271
-615.303	490.570	-0.084	0.190
-614.288	-105.910	-0.306	-0.068
-613.273	-67.512	-0.281	-0.109
-612.259	156.413	0.019	-0.027
-611.244	-47.306	0.225	0.109
-610.230	-98.927	-0.217	0.055
-609.215	136.147	-0.111	0.144
-608.201	-109.254	0.201	0.042
-607.186	97.333	0.137	0.157
-606.171	241.492	-0.047	0.079
-605.157	4.379	0.259	0.189
-604.142	49.671	0.135	-0.126
-603.128	417.090	0.041	0.086
-602.113	429.808	-0.161	0.345
-601.098	16.885	0.217	0.171
-600.084	-200.000	0.274	0.001
-599.069	-55.660	-0.152	-0.068
-598.055	800.000	0.052	0.174
-597.040	-200.000	0.018	-0.091
-596.025	800.000	0.045	0.140
-595.011	26.234	-0.171	0.141
-593.996	-71.452	-0.081	-0.030
-592.982	0.313	-0.175	-0.124
-591.967	800.000	-0.057	0.185
-590.952	-17.848	0.054	-0.034
-589.938	5.532	0.093	0.069
-588.923	-200.000	-0.011	-0.228
-587.909	51.888	-0.226	0.214
-586.894	800.000	0.088	0.346
-585.879	-200.000	0.040	-0.202
-584.865	123.591	-0.228	0.283
-583.850	318.396	-0.222	0.417
-582.836	-41.430	0.182	0.093
-581.821	-200.000	-0.007	0.238
-580.806	86.449	-0.072	-0.078
-579.792	-73.431	0.052	0.019
-578.777	788.138	0.061	-0.165
-577.763	-200.000	-0.005	-0.229
-576.748	-200.000	0.056	0.246
-575.733	-66.701	0.243	-0.095
-574.719	197.604	-0.170	-0.257
-573.704	-150.556	-0.192	0.015
-572.690	133.738	-0.140	-0.180
-571.675	455.529	-0.085	-0.188
-570.661	98.628	-0.262	0.300
-569.646	720.509	0.031	0.082
-568.631	-84.099	-0.239	0.075
-567.617	-188.286	0.212	-0.003
-566.602	13.758	-0.211	-0.163
-565.588	391.797	0.137	0.281
-564.573	4.517	0.237	0.172
-563.558	163.601	-0.117	0.163
-562.544	-66.562	-0.050	-0.019
-561.529	-142.049	-0.126	0.012
-560.515	329.860	0.130	0.248
-559.500	-56.170	0.224	0.099
-558.485	-135.156	0.211	-0.025
-557.471	-75.356	0.538	-0.190
-556.456	800.000	0.056	-0.221
-555.442	800.000	-0.066	-0.249
-554.427	-200.000	-0.012	-0.284
-553.412	-114.690	0.289	-0.055
-552.398	-64.888	0.082	0.033
-551.383	-25.184	-0.227	-0.133
-550.369	-200.000	-0.024	-0.163
-549.354	42.234	0.117	-0.105
-548.339	-39.788	0.171	-0.088
-547.325	798.252	0.078	-0.212
-546.310	148.328	-0.221	-0.296
-545.296	-75.678	0.093	0.033
-544.281	536.132	0.062	-0.146
-543.266	27.139	-0.167	0.139
-542.252	209.677	-0.245	0.381
-541.237	-130.825	0.309	-0.041
-540.223	-200.000	-0.013	-0.134
-539.208	25.110	0.295	0.243
-538.193	664.258	0.107	-0.272
-537.179	-127.697	0.216	0.031
-536.164	172.118	-0.175	-0.249
-535.150	800.000	-0.149	0.487
-534.135	-40.239	0.272	0.140
-533.121	3.224	-0.425	0.306
-532.106	5.732	-0.111	0.081
-531.091	-78.148	0.142	0.048
-530.077	317.565	-0.187	0.351
-529.062	-154.917	-0.132	-0.009
-528.048	-20.202	-0.118	-0.072
-527.033	9.229	-0.175	-0.131
-526.018	-54.789	-0.132	0.059
-525.004	-200.000	0.034	0.156
-523.989	800.000	0.025	0.069
-522.975	-8.252	0.360	0.240
-521.960	800.000	0.103	0.352
-520.945	-200.000	-0.013	0.368
-519.931	-91.191	-0.220	-0.062
-518.916	-79.582	0.123	0.041
-517.902	-200.000	-0.003	0.082
-516.887	699.469	0.072	-0.187
-515.872	-179.447	0.188	0.004
-514.858	-106.893	-0.034	0.007
-513.843	-70.799	-0.077	-0.029
-512.829	-200.000	-0.030	0.292
-511.814	254.711	0.105	0.177
-510.799	-92.508	-0.078	-0.022
-509.785	258.112	-0.099	0.169
-508.770	-44.090	-0.290	-0.144
-507.756	-13.359	-0.105	0.067
-506.741	-200.000	0.027	0.254
-505.726	139.167	0.035	-0.046
-504.712	92.632	-0.166	-0.186
-503.697	-38.505	0.066	0.034
-502.683	175.391	-0.135	0.194
-501.668	701.535	-0.135	0.352
-500.653	514.765	0.052	0.120
-499.639	800.000	-0.084	0.239
-498.624	-66.581	-0.059	-0.023
-497.610	379.445	0.075	0.151
-496.595	-200.000	0.015	-0.308
-495.581	-75.970	0.124	-0.044
-494.566	-200.000	-0.042	0.225
-493.551	9.106	0.160	-0.120
-492.537	-22.952	0.154	0.092
-491.522	2.601	0.057	-0.041
-490.508	-25.880	-0.282	-0.164
-489.493	-33.447	-0.123	0.067
-488.478	106.225	-0.227	0.266
-487.464	25.967	-0.059	0.048
-486.449	-200.000	-0.014	-0.095
-485.435	332.820	-0.095	0.181
-484.420	243.705	0.245	-0.406
-483.405	-200.000	0.008	0.222
-482.391	-94.962	-0.067	-0.018
-481.376	-200.000	-0.037	-0.239
-480.362	503.168	0.190	-0.434
-479.347	-22.658	-0.326	0.195
-478.332	105.965	0.244	0.285
-477.318	-96.242	0.068	-0.018
-476.303	-81.086	-0.105	-0.034
-475.289	27.425	0.210	-0.174
-474.274	446.940	-0.075	0.164
-473.259	52.380	-0.224	-0.211
-472.245	228.383	-0.122	0.196
-471.230	-200.000	-0.034	-0.223
-470.216	49.924	0.145	-0.135
-469.201	800.000	0.107	-0.296
-468.186	-136.548	0.141	-0.016
-467.172	-200.000	0.078	0.000
-466.157	-200.000	-0.002	-0.194
-465.143	800.000	0.079	-0.256
-464.128	18.366	-0.091	-0.072
-463.113	-2.499	0.162	0.112
-462.099	-76.731	0.454	0.157
-461.084	-79.509	-0.105	0.035
-460.070	-102.407	0.221	-0.052
-459.055	800.000	-0.032	-0.140
-458.040	-200.000	0.007	-0.080
-457.026	800.000	-0.141	-0.570
-456.011	-73.454	0.189	0.068
-454.997	800.000	0.081	0.248
-453.982	-78.835	-0.184	0.062
-452.968	98.334	-0.105	-0.119
-451.953	247.026	-0.113	0.188
-450.938	38.711	0.068	0.060
-449.924	19.652	0.054	-0.043
-448.909	87.607	0.130	0.143
-447.895	-53.052	-0.091	-0.041
-446.880	800.000	-0.001	-0.004
-445.865	-48.843	0.288	-0.136
-444.851	4.435	-0.062	-0.045
-443.836	-162.199	-0.223	0.011
-442.822	40.384	-0.046	0.041
-441.807	-5.462	0.220	0.149
-440.792	128.147	-0.113	0.142
-439.778	-139.438	-0.202	-0.021
-438.763	170.473	0.254	0.358
-437.749	141.135	-0.156	0.203
-436.734	-161.235	-0.218	-0.011
-435.719	-81.376	-0.148	-0.048
-434.705	-178.889	-0.389	0.009
-433.690	239.634	0.114	0.186
-432.676	-71.462	-0.214	0.079
-431.661	-139.498	0.298	0.031
-430.646	-200.000	0.034	0.261
-429.632	-92.742	0.098	0.027
-428.617	33.713	-0.164	-0.141
-427.603	-16.448	-0.325	-0.203
-426.588	473.203	0.112	0.249
-425.573	-106.988	0.187	0.041
-424.559	224.538	0.165	-0.263
-423.544	-200.000	0.004	0.187
-422.530	-200.000	0.068	0.428
-421.515	-200.000	0.069	0.298
-420.500	123.073	0.220	-0.271
-419.486	23.535	-0.322	-0.261
-418.471	-69.796	0.027	0.010
-417.457	235.130	0.115	0.188
-416.442	-93.621	-0.380	-0.104
-415.428	-124.996	0.063	-0.009
-414.413	207.960	-0.032	-0.050
-413.398	113.879	0.105	-0.126
-412.384	171.950	0.182	0.258
-411.369	800.000	-0.027	-0.113
-410.355	-110.931	-0.022	-0.004
-409.340	-162.429	0.067	-0.003
-408.325	-100.070	-0.212	-0.052
-407.311	-133.666	0.134	0.016
-406.296	-106.093	-0.093	-0.021
-405.282	-130.542	-0.048	-0.006
-404.267	800.000	0.019	-0.082
-403.252	-107.672	0.090	0.019
-402.238	800.000	-0.162	-0.468
-401.223	783.456	0.106	-0.285
-400.209	-162.340	-0.289	0.014
-399.194	-171.506	-0.099	-0.003
-398.179	-33.769	0.208	-0.113
-397.165	-73.920	0.127	-0.045
-396.150	-160.090	0.193	0.010
-395.136	-107.725	-0.201	-0.043
-394.121	800.000	0.052	0.143
-393.106	-200.000	0.027	-0.287
-392.092	-78.534	0.301	-0.101
-391.077	-90.565	0.168	-0.048
-390.063	-51.987	0.110	-0.050
-389.048	-200.000	-0.051	0.307
-388.033	800.000	0.087	-0.260
-387.019	800.000	0.117	-0.408
-386.004	800.000	0.085	-0.247
-384.990	-35.481	-0.110	0.059
-383.975	-173.683	-0.311	0.009
-382.960	-168.173	-0.214	0.008
-381.946	753.067	-0.020	-0.054
-380.931	800.000	0.065	-0.208
-379.917	680.435	0.088	0.225
-378.902	-46.554	0.093	-0.045
-377.888	-135.390	0.094	-0.011
-376.873	800.000	0.056	-0.166
-375.858	21.709	-0.246	0.197
-374.844	765.317	0.089	0.239
-373.829	-13.426	-0.125	-0.080
-372.815	-16.851	-0.305	0.190
-371.800	286.122	0.055	-0.098
-370.785	-75.174	0.043	0.015
-369.771	256.990	-0.029	0.048
-368.756	232.561	0.088	0.142
-367.742	56.909	-0.034	0.033
-366.727	-110.308	0.346	0.071
-365.712	-132.840	0.246	-0.031
-364.698	110.094	0.133	0.156
-363.683	-200.000	-0.030	0.204
-362.669	479.649	-0.098	-0.217
-361.654	-55.280	-0.119	0.052
-360.639	-135.511	-0.425	-0.050
-359.625	190.632	-0.274	0.405
-358.610	-177.821	-0.276	0.007
-357.596	65.075	-0.110	-0.110
-356.581	181.652	-0.313	-0.453
-355.566	385.909	0.141	0.285
-354.552	65.053	-0.059	-0.058
-353.537	-169.767	0.182	0.006
-352.523	-98.535	-0.171	0.043
-351.508	-71.728	0.070	-0.026
-350.493	-134.833	0.111	0.013
-349.479	-106.617	0.359	-0.079
-348.464	-199.977	-0.240	-0.001
-347.450	-200.000	0.019	0.192
-346.435	-77.611	-0.227	0.077
-345.420	-200.000	0.052	-0.233
-344.406	-82.119	-0.167	-0.054
-343.391	800.000	0.029	-0.093
-342.377	191.972	-0.063	0.093
-341.362	-80.010	0.456	0.150
-340.348	40.285	0.062	-0.055
-339.333	-145.957	-0.023	-0.002
-338.318	189.287	-0.259	0.382
-337.304	-200.000	-0.043	-0.268
-336.289	93.474	0.142	-0.158
-335.275	34.380	0.098	-0.084
-334.260	-107.725	-0.179	-0.038
-333.245	-67.264	0.117	0.045
-332.231	-134.381	0.396	-0.048
-331.216	258.150	0.043	-0.073
-330.202	756.833	-0.062	0.165
-329.187	800.000	0.048	-0.192
-328.172	-200.000	0.025	-0.165
-327.158	342.207	-0.174	-0.334
-326.143	418.531	-0.063	-0.133
-325.129	-50.024	0.029	0.014
-324.114	106.463	0.270	-0.314
-323.099	-34.496	-0.306	-0.164
-322.085	-71.396	0.371	0.136
-321.070	-145.196	-0.106	0.009
-320.056	140.938	0.196	0.255
-319.041	59.629	0.119	0.116
-318.026	232.105	-0.025	-0.040
-317.012	800.000	0.082	-0.333
-315.997	154.083	-0.128	-0.173
-314.983	-105.727	0.203	-0.045
-313.968	-82.389	-0.288	-0.092
-312.953	252.344	0.088	0.147
-311.939	-11.189	-0.451	0.292
-310.924	-200.000	0.013	-0.249
-309.910	-20.194	0.208	0.126
-308.895	-103.791	0.227	0.052
-307.880	800.000	0.029	-0.091
-306.866	88.338	-0.080	-0.087
-305.851	-65.156	-0.317	0.125
-304.837	262.427	-0.100	-0.170
-303.822	-72.875	-0.200	0.072
-302.807	-40.368	0.156	0.080
-301.793	-40.758	0.266	0.135
-300.778	-31.440	0.150	-0.083
-299.764	102.914	0.186	0.213
-298.749	85.745	0.122	0.131
-297.735	-65.925	0.122	-0.048
-296.720	215.189	0.238	-0.370
-295.705	26.435	0.190	-0.156
-294.691	-145.936	0.181	-0.016
-293.676	227.211	0.104	0.166
-292.662	-164.427	0.117	-0.005
-291.647	-200.000	0.012	-0.143
-290.632	-4.823	-0.116	0.078
-289.618	401.924	-0.137	-0.282
-288.603	72.816	-0.015	0.015
-287.589	-200.000	0.070	-0.380
-286.574	-200.000	0.011	0.327
-285.559	157.703	-0.170	-0.231
-284.545	177.991	0.190	0.272
-283.530	-75.574	-0.274	0.095
-282.516	-138.113	0.249	0.027
-281.501	103.140	0.170	0.195
-280.486	-100.081	-0.236	-0.058
-279.472	30.888	-0.190	0.160
-278.457	800.000	0.092	-0.357
-277.443	-115.343	0.247	-0.046
-276.428	-187.385	0.117	-0.002
-275.413	-125.085	0.371	-0.056
-274.399	53.855	-0.078	0.073
-273.384	-200.000	0.009	-0.147
-272.370	1.145	-0.228	-0.160
-271.355	-170.525	-0.326	-0.011
-270.340	-200.000	0.013	0.089
-269.326	-14.313	-0.382	-0.241
-268.311	-7.968	0.196	-0.130
-267.297	78.262	-0.162	0.170
-266.282	-0.635	0.094	0.065
-265.267	-92.631	-0.237	0.065
-264.253	-91.410	-0.169	-0.047
-263.238	88.222	-0.187	0.204
-262.224	400.278	0.051	-0.104
-261.209	348.407	-0.159	0.308
-260.195	-19.511	-0.236	-0.143
-259.180	-0.499	-0.058	-0.040
-258.165	800.000	-0.030	-0.090
-257.151	800.000	-0.104	0.405
-256.136	-97.920	-0.190	-0.048
-255.122	-78.623	0.374	-0.125
-254.107	114.763	-0.081	-0.097
-253.092	200.657	-0.055	-0.082
-252.078	800.000	-0.095	-0.276
-251.063	-200.000	0.041	-0.308
-250.049	193.783	-0.223	0.331
-249.034	-200.000	-0.043	0.237
-248.019	-57.000	-0.199	-0.086
-247.005	96.390	0.209	0.234
-245.990	56.670	-0.179	-0.171
-244.976	-42.056	-0.354	-0.177
-243.961	-45.652	0.269	0.130
-242.946	-99.043	0.175	-0.043
-241.932	-117.915	0.317	0.056
-240.917	-50.765	-0.422	0.195
-239.903	36.378	-0.148	-0.128
-238.888	110.003	0.145	-0.170
-237.873	27.140	-0.478	0.393
-236.859	-200.000	-0.038	-0.296
-235.844	64.396	0.066	0.065
-234.830	-85.827	0.173	0.053
-233.815	539.970	0.047	-0.110
-232.800	-145.115	0.188	-0.017
-231.786	-71.146	-0.061	-0.022
-230.771	-200.000	-0.046	-0.211
-229.757	77.033	0.209	0.218
-228.742	-30.550	-0.318	0.176
-227.727	-119.395	0.180	0.031
-226.713	-200.000	0.020	-0.128
-225.698	12.552	0.147	-0.111
-224.684	474.680	-0.315	-0.696
-223.669	-135.401	0.534	-0.062
-222.655	-161.992	-0.298	0.015
-221.640	-74.136	-0.106	0.037
-220.625	433.565	-0.177	0.377
-219.611	350.451	-0.143	0.277
-218.596	183.081	0.044	-0.063
-217.582	-118.874	0.165	0.028
-216.567	130.285	0.158	-0.197
-215.552	38.989	-0.119	-0.104
-214.538	136.893	0.188	-0.241
-213.523	-141.956	-0.444	-0.043
-212.509	-101.426	0.431	-0.103
-211.494	-200.000	-0.010	0.329
-210.479	-200.000	0.017	0.184
-209.465	126.260	0.354	-0.438
-208.450	667.026	0.130	0.328
-207.436	-7.453	0.173	0.115
-206.421	588.225	-0.190	-0.457
-205.406	-200.000	0.097	-0.577
-204.392	65.278	0.187	0.185
-203.377	-86.530	0.226	-0.068
-202.363	73.220	-0.189	-0.193
-201.348	-61.343	0.276	0.114
-200.333	-146.203	0.174	0.015
-199.319	555.331	0.107	-0.253
-198.304	302.213	0.073	-0.133
-197.290	-200.000	-0.040	-0.321
-196.275	-200.000	-0.061	-0.337
-195.260	-147.738	0.231	0.019
-194.246	-200.000	0.012	0.118
-193.231	270.119	-0.130	0.223
-192.217	-119.995	0.343	0.058
-191.202	607.656	-0.148	-0.360
-190.187	800.000	-0.156	0.426
-189.173	800.000	-0.081	0.293
-188.158	-200.000	0.011	-0.192
-187.144	473.043	-0.136	0.300
-186.129	800.000	-0.093	-0.363
-185.114	92.520	-0.146	0.161
-184.100	-63.621	0.095	-0.038
-183.085	65.562	0.084	0.083
-182.071	-98.686	0.213	-0.053
-181.056	590.038	0.122	0.295
-180.042	21.026	0.251	-0.199
-179.027	-117.827	-0.175	0.031
-178.012	-93.006	-0.142	-0.039
-176.998	-1.439	-0.200	-0.138
-175.983	-200.000	-0.028	-0.216
-174.969	98.123	0.168	-0.189
-173.954	568.836	-0.183	-0.434
-172.939	224.538	-0.148	-0.233
-171.925	800.000	0.061	-0.187
-170.910	67.943	-0.062	0.062
-169.896	-87.514	0.303	-0.089
-168.881	-180.768	-0.176	0.003
-167.866	-41.913	-0.186	0.093
-166.852	-200.000	0.043	-0.368
-165.837	-80.627	0.327	-0.106
-164.823	-56.618	-0.265	0.115
-163.808	483.820	0.082	-0.182
-162.793	103.435	0.187	0.214
-161.779	265.034	0.354	0.602
-160.764	-157.093	0.084	0.005
-159.750	-84.132	-0.259	-0.080
-158.735	-86.628	-0.124	0.037
-157.720	-14.716	0.254	0.159
-156.706	-200.000	-0.037	0.171
-155.691	-116.609	0.321	-0.058
-154.677	800.000	-0.064	0.247
-153.662	800.000	0.091	-0.250
-152.647	253.987	0.054	-0.090
-151.633	-200.000	-0.036	-0.206
-150.618	366.038	0.081	0.158
-149.604	-5.110	-0.247	-0.166
-148.589	60.555	0.089	0.086
-147.574	-200.000	0.002	-0.177
-146.560	176.899	-0.084	0.120
-145.545	153.459	0.064	-0.085
-144.531	-103.621	-0.191	0.044
-143.516	548.792	-0.074	0.173
-142.502	-2.224	0.225	-0.154
-141.487	78.505	-0.104	0.109
-140.472	-132.366	0.143	0.018
-139.458	-58.777	-0.288	-0.122
-138.443	-115.200	-0.400	0.074
-137.429	5.508	0.086	-0.062
-136.414	144.154	-0.225	-0.293
-135.399	66.250	-0.170	0.168
-134.385	800.000	-0.070	0.265
-133.370	31.643	0.109	-0.091
-132.356	9.832	-0.221	-0.163
-131.341	-200.000	-0.003	0.035
-130.326	148.466	0.174	0.229
-129.312	-30.336	-0.247	-0.136
-128.297	-200.000	0.018	-0.124
-127.283	592.060	-0.042	0.102
-126.268	-87.212	0.060	0.018
-125.253	-191.117	0.219	-0.002
-124.239	381.604	0.110	0.220
-123.224	72.526	0.079	0.080
-122.210	161.826	0.032	-0.043
-121.195	-153.546	0.196	-0.013
