DTS Sentinel unit serial number:	SN413079Multiplexer serial number:	ORYXHardware model number:	OX4-SRSoftware version number:	ORYX F/W v4.00 Oryx Data Collector v3.7.2.0data status	okinstallation	princeton_trtdifferential loss correction	single-endedforward channel	channel 2reverse channel	N/Adate	2019/09/14time	05:59:35forward acquisition time	60.00reverse acquisition time	0.00gamma	496.2192k internal	0.2336k external	0.2336temperature offset calibration	1.0130default loss term (dB/km)	0.3790temperature slope calibration	1.0000multiplexer offset coefficient	1.0000multiplexer slope coefficient	1.0000fibre end	0.00T internal ref (°C)	26.83T ext. ref 1 (°C)	3.40T ext. ref 2 (°C)	21.02length (m)	temperature (°C)	Stokes	anti-Stokes-747.200	5.737	-0.186	-0.138
-746.185	21.776	-0.161	0.132
-745.171	53.567	-0.247	-0.238
-744.156	-200.000	-0.049	0.273
-743.142	110.819	-0.153	0.185
-742.127	-10.918	-0.151	-0.100
-741.112	214.661	-0.092	0.147
-740.098	-58.203	-0.126	-0.055
-739.083	-136.066	0.199	-0.023
-738.069	504.096	-0.045	0.105
-737.054	-61.632	0.201	0.085
-736.039	-200.000	-0.023	0.264
-735.025	193.650	-0.253	0.384
-734.010	-26.046	-0.220	-0.130
-732.996	-57.744	-0.188	0.082
-731.981	800.000	-0.093	0.303
-730.966	-22.161	-0.231	-0.141
-729.952	-200.000	-0.017	0.231
-728.937	-20.700	-0.199	-0.123
-727.923	-200.000	-0.004	-0.324
-726.908	800.000	-0.049	0.151
-725.894	-200.000	0.004	0.021
-724.879	399.171	-0.177	-0.371
-723.864	348.949	0.039	0.078
-722.850	800.000	-0.082	-0.246
-721.835	-152.044	-0.241	0.018
-720.821	119.577	-0.081	-0.101
-719.806	-152.089	-0.081	-0.006
-718.791	-35.206	-0.121	-0.066
-717.777	-40.078	0.284	-0.148
-716.762	-166.138	-0.076	-0.003
-715.748	-200.000	0.007	0.132
-714.733	-118.490	-0.232	0.041
-713.718	-200.000	-0.020	-0.105
-712.704	-200.000	-0.004	-0.061
-711.689	-131.693	0.525	0.069
-710.675	238.577	-0.057	0.095
-709.660	-200.000	0.044	-0.306
-708.645	800.000	-0.152	0.490
-707.631	-5.687	0.203	-0.139
-706.616	186.111	0.135	-0.201
-705.602	-200.000	-0.009	0.177
-704.587	20.471	0.115	0.093
-703.572	-112.848	0.283	0.056
-702.558	-73.833	-0.156	0.057
-701.543	30.800	-0.122	-0.105
-700.529	89.137	0.298	0.333
-699.514	71.851	-0.211	-0.220
-698.499	-200.000	-0.008	-0.517
-697.485	178.914	-0.169	-0.248
-696.470	-35.323	-0.090	0.049
-695.456	-72.272	0.221	-0.082
-694.441	-200.000	0.016	0.146
-693.426	39.547	0.211	0.190
-692.412	-23.334	0.180	0.108
-691.397	122.266	-0.118	-0.148
-690.383	-32.438	-0.142	-0.079
-689.368	-48.415	0.228	0.110
-688.354	-200.000	-0.064	0.295
-687.339	256.396	-0.071	0.122
-686.324	-24.310	-0.266	-0.159
-685.310	651.025	-0.153	-0.393
-684.295	-162.696	0.136	-0.007
-683.281	16.621	0.114	-0.091
-682.266	-200.000	0.005	-0.126
-681.251	-200.000	-0.019	-0.093
-680.237	-60.518	0.312	-0.133
-679.222	48.040	-0.278	0.260
-678.208	-200.000	-0.011	-0.084
-677.193	-171.989	0.149	-0.005
-676.178	-110.823	-0.269	0.056
-675.164	-158.891	0.131	0.007
-674.149	175.719	-0.132	0.191
-673.135	97.550	0.044	0.051
-672.120	-66.236	-0.178	-0.071
-671.105	800.000	-0.082	-0.252
-670.091	92.774	0.098	-0.111
-669.076	94.297	-0.383	-0.436
-668.062	-15.780	-0.504	-0.322
-667.047	-103.415	-0.223	0.052
-666.032	-43.085	-0.143	-0.072
-665.018	-23.508	-0.104	-0.062
-664.003	39.836	-0.063	0.057
-662.989	324.744	0.074	0.141
-661.974	800.000	0.029	-0.110
-660.959	-43.169	0.176	-0.089
-659.945	528.221	0.062	0.147
-658.930	230.155	0.045	0.074
-657.916	-200.000	-0.002	0.068
-656.901	592.993	-0.085	-0.211
-655.886	-91.748	-0.123	-0.035
-654.872	-32.611	-0.070	0.039
-653.857	98.807	-0.070	-0.080
-652.843	-119.695	-0.546	-0.094
-651.828	406.548	0.147	0.310
-650.814	162.924	-0.135	0.190
-649.799	19.377	-0.101	-0.081
-648.784	-60.430	-0.286	0.122
-647.770	216.055	-0.193	0.307
-646.755	-200.000	-0.041	0.430
-645.741	-193.517	0.071	0.001
-644.726	-200.000	-0.009	-0.138
-643.711	-200.000	0.045	-0.324
-642.697	-109.024	0.225	-0.048
-641.682	-104.715	-0.190	0.044
-640.668	111.756	0.052	-0.063
-639.653	-129.377	-0.249	-0.035
-638.638	4.369	0.078	-0.057
-637.624	800.000	0.038	-0.163
-636.609	-200.000	-0.132	0.000
-635.595	67.073	0.243	0.248
-634.580	446.302	-0.124	-0.272
-633.565	-31.838	0.134	0.075
-632.551	15.618	-0.163	-0.128
-631.536	1.308	-0.253	-0.182
-630.522	-53.138	0.077	-0.035
-629.507	480.380	-0.147	-0.334
-628.492	74.227	-0.134	0.141
-627.478	291.360	0.223	0.406
-626.463	329.631	-0.126	0.242
-625.449	166.204	-0.150	0.212
-624.434	-94.559	0.066	0.018
-623.419	-91.094	-0.280	-0.080
-622.405	800.000	0.059	-0.165
-621.390	-125.575	-0.192	0.029
-620.376	39.146	0.073	0.066
-619.361	103.801	0.149	-0.175
-618.346	-200.000	-0.087	-0.428
-617.332	108.107	0.256	-0.305
-616.317	194.302	-0.034	0.052
-615.303	-200.000	0.026	0.143
-614.288	145.284	0.146	-0.195
-613.273	-75.732	0.323	0.115
-612.259	-50.046	-0.145	-0.069
-611.244	-77.348	0.159	0.055
-610.230	-178.794	0.181	-0.004
-609.215	108.276	-0.081	0.097
-608.201	11.736	-0.097	0.075
-607.186	-200.000	-0.040	0.370
-606.171	-138.762	-0.103	-0.011
-605.157	800.000	-0.088	-0.266
-604.142	386.711	0.047	0.096
-603.128	-192.802	-0.096	-0.001
-602.113	63.372	0.141	0.141
-601.098	145.990	0.064	-0.085
-600.084	800.000	0.013	0.047
-599.069	-86.020	0.208	-0.064
-598.055	-118.342	-0.085	-0.015
-597.040	-200.000	0.035	-0.216
-596.025	-90.202	-0.326	-0.095
-595.011	-49.641	0.118	0.056
-593.996	44.571	0.069	0.064
-592.982	-97.646	-0.245	-0.063
-591.967	-136.369	0.172	-0.020
-590.952	296.749	-0.069	0.127
-589.938	-200.000	-0.018	0.422
-588.923	-123.829	-0.383	-0.060
-587.909	19.287	0.183	-0.146
-586.894	-49.847	0.145	-0.069
-585.879	-200.000	0.054	-0.255
-584.865	210.996	0.030	0.047
-583.850	123.460	-0.071	0.089
-582.836	-57.945	0.067	-0.029
-581.821	-200.000	0.009	0.122
-580.806	8.179	0.108	0.081
-579.792	-200.000	0.014	0.179
-578.777	68.191	-0.127	-0.130
-577.763	-161.865	-0.083	0.004
-576.748	-200.000	-0.010	0.249
-575.733	557.711	0.094	0.226
-574.719	800.000	0.058	0.191
-573.704	-200.000	0.011	0.325
-572.690	-26.854	-0.194	-0.113
-571.675	-200.000	-0.034	0.211
-570.661	267.416	-0.184	0.321
-569.646	-78.038	0.237	0.082
-568.631	-200.000	0.003	0.168
-567.617	355.175	0.081	-0.161
-566.602	723.230	0.098	0.261
-565.588	-200.000	-0.071	-0.339
-564.573	800.000	0.139	-0.408
-563.558	-9.516	-0.159	-0.106
-562.544	414.275	0.044	-0.094
-561.529	421.363	0.078	0.167
-560.515	3.905	0.136	0.099
-559.500	94.561	-0.234	-0.265
-558.485	-200.000	-0.012	-0.202
-557.471	99.248	0.156	0.180
-556.456	-178.861	-0.243	0.006
-555.442	-121.691	-0.178	-0.029
-554.427	-70.182	0.234	-0.089
-553.412	27.817	0.062	-0.052
-552.398	-50.152	0.156	-0.074
-551.383	-128.638	-0.213	-0.030
-550.369	-149.237	0.127	-0.010
-549.354	-118.402	0.181	-0.032
-548.339	7.224	-0.236	-0.175
-547.325	23.904	-0.117	-0.096
-546.310	-56.858	-0.177	-0.078
-545.296	-34.805	-0.202	-0.110
-544.281	501.697	-0.087	-0.201
-543.266	-64.157	0.102	0.042
-542.252	-122.742	0.253	0.041
-541.237	246.538	-0.122	0.205
-540.223	309.758	0.097	0.181
-539.208	800.000	-0.033	0.107
-538.193	800.000	0.087	-0.337
-537.179	800.000	-0.020	-0.059
-536.164	-120.416	-0.260	-0.044
-535.150	800.000	-0.018	-0.067
-534.135	549.691	-0.012	-0.030
-533.121	276.045	-0.135	0.239
-532.106	-33.962	0.171	-0.094
-531.091	206.439	-0.105	-0.162
-530.077	289.619	-0.145	-0.262
-529.062	253.580	-0.143	0.244
-528.048	-200.000	0.235	-0.001
-527.033	103.260	0.174	0.203
-526.018	-72.946	0.243	-0.089
-525.004	-200.000	0.071	-0.340
-523.989	-200.000	-0.002	-0.046
-522.975	473.655	0.114	-0.256
-521.960	-175.914	-0.152	0.004
-520.945	-167.105	0.443	-0.018
-519.931	800.000	0.032	-0.116
-518.916	76.054	-0.193	-0.204
-517.902	35.846	0.130	-0.114
-516.887	-73.137	-0.363	-0.133
-515.872	-112.836	-0.089	-0.018
-514.858	333.935	0.140	-0.269
-513.843	-137.381	0.101	-0.011
-512.829	-19.117	0.107	0.066
-511.814	-110.014	-0.253	0.053
-510.799	5.994	-0.161	-0.119
-509.785	166.892	0.166	-0.235
-508.770	696.505	-0.022	-0.056
-507.756	106.661	-0.106	0.125
-506.741	-200.000	0.052	0.300
-505.726	-200.000	0.045	-0.311
-504.712	-146.098	0.288	0.025
-503.697	120.310	-0.127	0.157
-502.683	94.268	0.154	-0.174
-501.668	150.198	0.293	-0.395
-500.653	-200.000	0.017	0.085
-499.639	87.138	-0.240	-0.263
-498.624	-151.981	0.383	0.028
-497.610	-80.268	0.031	0.010
-496.595	-118.666	-0.435	0.076
-495.581	-200.000	-0.004	0.034
-494.566	-19.832	-0.165	0.101
-493.551	-172.336	-0.075	0.002
-492.537	-200.000	-0.041	-0.343
-491.522	-145.249	-0.258	0.023
-490.508	-65.138	-0.228	0.091
-489.493	-200.000	-0.003	0.360
-488.478	223.415	-0.162	0.260
-487.464	-21.423	0.172	-0.104
-486.449	-132.971	-0.436	0.055
-485.435	124.436	0.293	-0.366
-484.420	-10.243	0.240	-0.158
-483.405	-200.000	0.024	0.111
-482.391	-127.116	-0.043	-0.006
-481.376	-200.000	0.007	0.127
-480.362	79.451	-0.218	0.232
-479.347	563.371	0.081	0.196
-478.332	-122.266	0.132	-0.021
-477.318	555.848	-0.013	0.032
-476.303	-200.000	0.001	0.267
-475.289	-28.696	-0.336	0.192
-474.274	-32.102	0.279	-0.155
-473.259	800.000	-0.059	0.175
-472.245	28.622	-0.100	-0.084
-471.230	104.213	0.080	-0.094
-470.216	28.465	0.158	-0.133
-469.201	-109.240	-0.104	-0.022
-468.186	95.308	-0.139	-0.157
-467.172	-200.000	-0.036	-0.252
-466.157	334.794	0.136	0.262
-465.143	-200.000	-0.045	-0.355
-464.128	-10.444	0.210	-0.138
-463.113	5.629	-0.394	0.289
-462.099	800.000	0.062	0.190
-461.084	800.000	0.030	-0.121
-460.070	15.833	0.176	-0.138
-459.055	41.650	0.019	0.017
-458.040	-200.000	-0.006	-0.121
-457.026	336.842	0.177	0.341
-456.011	-200.000	-0.019	0.175
-454.997	129.044	0.087	0.110
-453.982	-141.153	0.327	0.033
-452.968	-15.112	0.057	0.036
-451.953	488.674	-0.109	-0.248
-450.938	-93.650	-0.077	-0.021
-449.924	-41.185	0.095	-0.049
-448.909	75.758	-0.108	-0.113
-447.895	-68.995	-0.009	0.003
-446.880	-103.065	0.218	-0.051
-445.865	-47.593	0.038	-0.019
-444.851	68.520	0.201	-0.205
-443.836	105.392	-0.074	-0.086
-442.822	403.564	0.046	-0.096
-441.807	63.332	-0.173	-0.172
-440.792	151.431	0.093	-0.125
-439.778	-200.000	-0.023	-0.256
-438.763	-200.000	0.052	-0.386
-437.749	-137.478	-0.343	-0.038
-436.734	-200.000	0.000	-0.008
-435.719	26.397	-0.056	0.046
-434.705	-12.530	0.229	-0.148
-433.690	93.164	-0.311	-0.349
-432.676	800.000	0.066	0.186
-431.661	-200.000	-0.025	-0.348
-430.646	800.000	-0.050	-0.164
-429.632	-93.711	0.156	-0.043
-428.617	-145.084	-0.451	-0.041
-427.603	-125.718	0.393	0.059
-426.588	800.000	-0.007	0.026
-425.573	-190.152	-0.333	-0.004
-424.559	-97.289	-0.169	-0.044
-423.544	-72.388	0.177	-0.065
-422.530	323.120	-0.055	-0.105
-421.515	-200.000	-0.004	-0.069
-420.500	-64.816	-0.292	0.117
-419.486	800.000	-0.020	0.060
-418.471	87.327	0.113	0.123
-417.457	-28.006	-0.159	-0.091
-416.442	-125.716	-0.162	-0.024
-415.428	-84.748	0.164	0.051
-414.413	-152.160	-0.093	0.007
-413.398	-41.958	0.252	-0.128
-412.384	-200.000	-0.023	-0.209
-411.369	-28.581	0.359	0.205
-410.355	441.783	0.113	-0.246
-409.340	-200.000	-0.055	-0.476
-408.325	-200.000	-0.031	0.309
-407.311	253.112	-0.172	0.291
-406.296	72.605	-0.042	-0.044
-405.282	1.792	0.088	0.063
-404.267	-105.136	0.275	0.062
-403.252	-165.310	0.011	0.000
-402.238	-144.993	-0.161	0.015
-401.223	-124.244	-0.244	0.038
-400.209	-200.000	0.045	-0.221
-399.194	607.724	-0.042	-0.104
-398.179	39.831	-0.124	0.110
-397.165	-24.436	0.120	-0.071
-396.150	146.200	0.263	-0.349
-395.136	800.000	0.028	0.097
-394.121	630.142	0.076	-0.192
-393.106	-163.976	-0.249	0.011
-392.092	100.009	0.217	-0.249
-391.077	48.452	-0.209	-0.194
-390.063	-105.983	-0.297	0.066
-389.048	42.694	0.073	-0.066
-388.033	87.568	0.133	0.146
-387.019	-1.666	-0.025	0.017
-386.004	-62.738	-0.154	-0.063
-384.990	444.032	-0.095	-0.206
-383.975	-200.000	0.026	-0.157
-382.960	62.672	0.239	-0.237
-381.946	800.000	0.101	0.345
-380.931	-124.356	-0.110	-0.017
-379.917	243.744	0.136	0.227
-378.902	-75.974	-0.199	-0.070
-377.888	159.407	0.038	0.052
-376.873	-200.000	0.058	-0.468
-375.858	-200.000	0.008	0.157
-374.844	-179.502	-0.162	-0.004
-373.829	34.943	0.125	-0.109
-372.815	67.140	0.141	0.142
-371.800	243.442	0.073	0.120
-370.785	-131.855	0.202	-0.026
-369.771	22.868	0.028	-0.023
-368.756	-200.000	0.001	-0.145
-367.742	286.171	-0.088	-0.157
-366.727	199.462	-0.046	0.070
-365.712	800.000	-0.063	0.248
-364.698	800.000	0.069	0.209
-363.683	800.000	0.068	-0.227
-362.669	202.893	-0.066	-0.101
-361.654	48.427	0.151	0.140
-360.639	-200.000	-0.002	0.074
-359.625	-16.095	0.142	0.089
-358.610	107.976	0.262	0.309
-357.596	-200.000	-0.016	0.255
-356.581	-200.000	0.040	0.262
-355.566	-40.129	0.218	-0.113
-354.552	-65.357	-0.057	0.023
-353.537	755.519	0.051	-0.137
-352.523	800.000	0.095	0.307
-351.508	27.320	0.131	-0.109
-350.493	315.940	-0.035	-0.066
-349.479	60.603	-0.155	0.152
-348.464	800.000	0.027	0.075
-347.450	-146.871	-0.176	0.015
-346.435	330.788	-0.133	-0.253
-345.420	138.970	-0.073	-0.094
-344.406	-200.000	-0.036	-0.299
-343.391	-200.000	0.005	0.483
-342.377	9.036	-0.298	0.222
-341.362	45.543	0.111	-0.101
-340.348	160.413	0.322	0.444
-339.333	421.881	0.112	0.238
-338.318	139.180	0.094	-0.122
-337.304	-200.000	-0.019	0.286
-336.289	-142.883	-0.175	0.017
-335.275	142.564	-0.056	-0.074
-334.260	800.000	0.042	-0.149
-333.245	55.487	-0.309	0.296
-332.231	-15.062	-0.228	-0.144
-331.216	-43.794	-0.264	-0.131
-330.202	-33.443	-0.042	0.023
-329.187	-191.262	0.222	0.002
-328.172	800.000	-0.005	-0.018
-327.158	800.000	-0.105	-0.298
-326.143	-200.000	0.044	0.207
-325.129	117.087	0.198	0.241
-324.114	-174.502	0.082	-0.002
-323.099	-200.000	0.002	-0.165
-322.085	260.130	-0.050	0.085
-321.070	-115.777	0.063	-0.012
-320.056	140.372	-0.067	0.087
-319.041	-200.000	-0.018	0.314
-318.026	-93.004	0.141	0.039
-317.012	37.546	0.129	0.113
-315.997	70.509	0.139	-0.142
-314.983	800.000	-0.071	-0.248
-313.968	-27.603	-0.010	0.006
-312.953	-55.012	0.229	-0.102
-311.939	-15.773	-0.324	0.204
-310.924	-98.456	0.233	0.059
-309.910	124.276	0.152	0.188
-308.895	667.374	0.098	0.251
-307.880	-81.818	0.088	-0.028
-306.866	-86.013	-0.223	0.068
-305.851	147.169	0.161	-0.214
-304.837	-10.236	-0.333	0.219
-303.822	800.000	0.072	-0.263
-302.807	-200.000	0.030	0.189
-301.793	-200.000	0.037	-0.371
-300.778	105.097	0.044	0.051
-299.764	800.000	-0.087	-0.265
-298.749	-50.928	-0.403	-0.187
-297.735	512.798	0.094	-0.215
-296.720	-14.147	0.301	-0.191
-295.705	-68.238	0.230	0.088
-294.691	-55.029	-0.290	-0.129
-293.676	-86.880	0.094	0.028
-292.662	-0.514	0.126	0.088
-291.647	74.133	-0.151	-0.157
-290.632	280.303	-0.096	0.169
-289.618	44.132	0.140	0.126
-288.603	-99.819	0.203	-0.050
-287.589	800.000	0.099	0.365
-286.574	800.000	-0.034	0.096
-285.559	-66.143	-0.264	-0.104
-284.545	60.910	-0.078	0.076
-283.530	104.344	-0.229	0.266
-282.516	800.000	0.092	0.334
-281.501	17.326	-0.265	-0.207
-280.486	642.922	-0.051	0.129
-279.472	-141.906	-0.206	-0.020
-278.457	-107.573	0.073	-0.016
-277.443	-174.686	-0.158	-0.004
-276.428	97.972	0.104	0.118
-275.413	-52.923	0.316	0.144
-274.399	-200.000	0.000	0.208
-273.384	97.643	0.178	-0.202
-272.370	388.080	0.047	0.097
-271.355	-85.712	-0.035	0.011
-270.340	-96.738	-0.195	0.051
-269.326	-128.124	-0.360	0.051
-268.311	-64.802	-0.299	0.119
-267.297	119.145	-0.204	-0.249
-266.282	800.000	0.071	-0.238
-265.267	-103.613	0.176	0.041
-264.253	-200.000	-0.036	-0.401
-263.238	164.694	0.092	0.128
-262.224	339.067	0.099	-0.191
-261.209	468.973	-0.235	-0.521
-260.195	-35.465	0.129	0.069
-259.180	142.089	-0.094	-0.123
-258.165	354.026	0.074	0.145
-257.151	-200.000	0.041	0.366
-256.136	-65.459	0.450	0.178
-255.122	-90.983	-0.056	0.016
-254.107	-44.823	-0.180	0.088
-253.092	68.454	-0.105	0.106
-252.078	-200.000	-0.080	-0.482
-251.063	-2.939	0.233	0.160
-250.049	227.936	-0.115	0.185
-249.034	390.802	-0.110	0.225
-248.019	-163.153	0.329	0.016
-247.005	302.842	-0.131	-0.239
-245.990	800.000	0.012	-0.045
-244.976	-141.761	0.248	-0.024
-243.961	-200.000	0.021	-0.153
-242.946	124.770	0.150	0.186
-241.932	3.646	0.137	0.099
-240.917	-129.201	0.069	-0.009
-239.903	-61.253	0.116	-0.048
-238.888	-139.911	0.120	0.013
-237.873	800.000	0.090	0.361
-236.859	-185.590	0.216	-0.003
-235.844	-200.000	-0.030	-0.299
-234.830	664.901	0.028	-0.071
-233.815	413.819	-0.091	-0.191
-232.800	321.281	0.153	-0.286
-231.786	366.891	0.070	0.139
-230.771	-108.105	0.249	-0.053
-229.757	-200.000	0.072	-0.328
-228.742	124.223	0.234	-0.290
-227.727	575.122	0.168	-0.405
-226.713	-62.501	0.249	-0.102
-225.698	-58.670	-0.146	0.062
-224.684	-3.906	-0.094	-0.064
-223.669	41.888	0.025	-0.022
-222.655	-200.000	0.031	0.291
-221.640	337.324	0.116	0.222
-220.625	136.711	-0.205	0.263
-219.611	-25.587	0.174	-0.101
-218.596	44.267	-0.252	-0.227
-217.582	21.578	0.211	-0.169
-216.567	-155.952	-0.200	0.013
-215.552	190.361	-0.066	0.097
-214.538	-128.356	-0.338	-0.047
-213.523	-39.662	0.261	0.134
-212.509	49.703	0.204	0.189
-211.494	111.822	-0.199	0.237
-210.479	-149.843	0.488	0.038
-209.465	-89.401	-0.207	-0.060
-208.450	-200.000	-0.012	0.224
-207.436	140.678	-0.221	0.287
-206.421	110.507	0.078	0.092
-205.406	92.086	-0.108	0.119
-204.392	450.908	0.094	0.203
-203.377	-90.275	0.130	-0.037
-202.363	-200.000	0.008	-0.109
-201.348	-165.538	-0.312	-0.013
-200.333	59.679	-0.104	0.101
-199.319	-129.445	0.260	0.036
-198.304	288.510	0.136	-0.242
-197.290	56.924	-0.163	0.156
-196.275	-143.066	0.250	-0.024
-195.260	232.103	-0.112	-0.180
-194.246	800.000	0.063	-0.260
-193.231	-0.459	-0.172	-0.120
-192.217	-4.015	-0.250	0.170
-191.202	-138.945	0.316	-0.034
-190.187	-35.850	-0.366	-0.195
-189.173	-117.713	-0.486	0.086
-188.158	252.740	-0.162	0.271
-187.144	5.860	-0.087	-0.063
-186.129	-50.224	0.075	-0.035
-185.114	-143.437	0.138	0.013
-184.100	563.370	0.079	-0.189
-183.085	-62.203	0.303	-0.124
-182.071	-39.818	-0.108	0.055
-181.056	83.085	0.134	-0.143
-180.042	17.893	0.160	0.125
-179.027	-23.570	0.258	0.152
-178.012	221.381	0.045	0.071
-176.998	-40.416	0.196	0.100
-175.983	484.040	0.098	-0.218
-174.969	29.131	-0.022	0.019
-173.954	-200.000	-0.019	0.357
-172.939	277.035	-0.246	0.429
-171.925	101.284	0.169	0.194
-170.910	-144.018	-0.100	0.009
-169.896	-200.000	-0.055	0.346
-168.881	800.000	-0.032	0.130
-167.866	-200.000	0.063	0.300
-166.852	376.238	-0.021	0.041
-165.837	-25.429	0.244	0.141
-164.823	800.000	0.052	-0.146
-163.808	800.000	0.072	0.255
-162.793	327.482	-0.095	0.178
-161.779	-200.000	0.073	0.352
-160.764	-13.594	-0.499	0.317
-159.750	34.750	-0.185	0.158
-158.735	800.000	0.044	0.130
-157.720	-200.000	-0.050	0.215
-156.706	51.043	0.124	-0.115
-155.691	62.200	-0.083	-0.081
-154.677	-72.090	-0.425	0.155
-153.662	-145.031	-0.072	0.006
-152.647	322.855	-0.077	-0.145
-151.633	-200.000	-0.028	0.256
-150.618	-158.088	0.219	-0.013
-149.604	392.761	-0.063	-0.128
-148.589	-134.981	-0.386	0.046
-147.574	-200.000	-0.001	-0.027
-146.560	-200.000	-0.008	0.059
-145.545	111.625	0.305	0.361
-144.531	-98.324	-0.122	0.031
-143.516	-193.761	-0.131	0.001
-142.502	-69.411	0.100	-0.038
-141.487	11.237	-0.122	0.091
-140.472	119.031	-0.257	0.311
-139.458	-65.547	0.222	-0.087
-138.443	96.612	0.164	-0.185
-137.429	211.558	0.084	0.129
-136.414	-200.000	0.015	0.093
-135.399	-29.601	-0.240	-0.134
-134.385	-80.657	0.169	-0.055
-133.370	-173.630	-0.353	-0.010
-132.356	-62.239	-0.072	-0.029
-131.341	-200.000	0.011	-0.128
-130.326	-200.000	0.037	-0.189
-129.312	-21.122	-0.293	0.176
-128.297	-43.201	0.352	-0.175
-127.283	800.000	0.110	-0.360
-126.268	-145.462	0.205	-0.018
-125.253	111.202	-0.162	0.192
-124.239	191.899	-0.024	-0.035
-123.224	-71.791	-0.214	0.078
-122.210	-121.903	0.249	-0.040
