DTS Sentinel unit serial number:	SN413079Multiplexer serial number:	ORYXHardware model number:	OX4-SRSoftware version number:	ORYX F/W v4.00 Oryx Data Collector v3.7.2.0data status	okinstallation	princeton_trtdifferential loss correction	single-endedforward channel	channel 2reverse channel	N/Adate	2019/09/12time	17:29:11forward acquisition time	60.00reverse acquisition time	0.00gamma	496.2192k internal	0.2323k external	0.2323temperature offset calibration	1.0131default loss term (dB/km)	0.3790temperature slope calibration	1.0000multiplexer offset coefficient	1.0000multiplexer slope coefficient	1.0000fibre end	0.00T internal ref (°C)	34.62T ext. ref 1 (°C)	2.86T ext. ref 2 (°C)	28.64length (m)	temperature (°C)	Stokes	anti-Stokes-747.200	12.363	0.089	-0.069
-746.185	800.000	-0.049	0.193
-745.171	713.740	0.080	0.214
-744.156	-8.815	0.364	0.246
-743.142	161.422	-0.185	0.262
-742.127	105.211	-0.145	-0.172
-741.112	55.457	-0.125	0.123
-740.098	158.037	0.278	0.389
-739.083	-200.000	-0.016	0.333
-738.069	-112.852	0.037	0.007
-737.054	800.000	0.090	0.285
-736.039	118.090	-0.154	0.192
-735.025	-37.775	0.179	0.096
-734.010	162.681	0.142	0.201
-732.996	800.000	0.055	0.233
-731.981	510.438	-0.201	-0.472
-730.966	-200.000	0.002	0.268
-729.952	800.000	0.052	-0.173
-728.937	-141.271	-0.180	-0.019
-727.923	73.863	-0.089	-0.094
-726.908	-33.256	-0.116	0.065
-725.894	800.000	-0.092	0.330
-724.879	-131.957	-0.169	0.022
-723.864	221.307	-0.103	-0.166
-722.850	-133.860	-0.318	-0.040
-721.835	646.720	-0.151	0.389
-720.821	800.000	-0.022	0.072
-719.806	-119.385	-0.269	0.047
-718.791	-24.321	0.241	0.145
-717.777	475.390	0.091	-0.208
-716.762	-200.000	0.027	-0.134
-715.748	-122.167	0.085	0.014
-714.733	381.231	-0.111	0.229
-713.718	-159.977	0.267	-0.015
-712.704	800.000	0.052	-0.158
-711.689	169.727	-0.071	-0.102
-710.675	800.000	0.035	-0.144
-709.660	-200.000	0.059	-0.360
-708.645	-47.608	-0.142	0.069
-707.631	800.000	0.010	-0.032
-706.616	-200.000	0.084	0.000
-705.602	612.672	0.042	0.105
-704.587	800.000	-0.039	0.160
-703.572	19.884	-0.048	-0.039
-702.558	-140.199	0.302	-0.032
-701.543	102.909	-0.040	-0.048
-700.529	269.996	-0.092	-0.162
-699.514	-107.174	-0.416	0.092
-698.499	42.673	0.203	0.186
-697.485	-11.330	-0.217	0.144
-696.470	-64.563	0.208	0.085
-695.456	84.483	-0.120	-0.132
-694.441	-75.301	0.225	0.081
-693.426	-38.135	0.255	0.136
-692.412	-200.000	-0.059	0.338
-691.397	-72.329	-0.079	-0.029
-690.383	-148.120	-0.123	0.010
-689.368	-200.000	-0.013	0.230
-688.354	-200.000	0.009	0.265
-687.339	-105.263	-0.189	-0.044
-686.324	-45.575	0.070	0.035
-685.310	-20.318	-0.255	0.158
-684.295	95.840	0.161	0.185
-683.281	-57.942	-0.119	-0.052
-682.266	-200.000	-0.012	0.290
-681.251	125.846	0.049	0.062
-680.237	170.396	-0.087	0.125
-679.222	35.498	0.090	-0.080
-678.208	-134.981	0.170	0.021
-677.193	-18.108	-0.040	0.025
-676.178	-200.000	0.052	0.281
-675.164	30.043	-0.447	0.384
-674.149	258.956	0.025	0.043
-673.135	-98.796	0.283	0.072
-672.120	9.613	-0.080	-0.061
-671.105	-114.117	-0.212	0.041
-670.091	584.948	-0.034	0.085
-669.076	-41.183	-0.192	-0.100
-668.062	-115.724	-0.257	-0.049
-667.047	14.497	0.145	0.114
-666.032	-41.383	0.193	0.100
-665.018	800.000	0.045	-0.178
-664.003	-184.261	-0.127	0.002
-662.989	750.308	-0.077	0.209
-661.974	-108.636	-0.231	-0.050
-660.959	-14.019	-0.161	-0.105
-659.945	-200.000	-0.009	-0.263
-658.930	800.000	-0.087	-0.259
-657.916	-61.859	-0.125	-0.053
-656.901	46.152	0.175	0.163
-655.886	165.064	0.172	0.244
-654.872	-40.516	-0.317	0.165
-653.857	800.000	-0.100	-0.285
-652.843	-37.670	-0.116	0.062
-651.828	257.756	-0.065	-0.113
-650.814	-25.198	-0.261	-0.156
-649.799	7.218	-0.357	-0.268
-648.784	248.084	-0.237	0.404
-647.770	-67.606	-0.319	-0.126
-646.755	-140.598	-0.188	0.020
-645.741	-63.950	0.037	0.015
-644.726	213.555	-0.077	-0.122
-643.711	-54.805	-0.134	-0.061
-642.697	-200.000	-0.004	-0.417
-641.682	510.214	-0.065	-0.152
-640.668	-200.000	0.048	0.398
-639.653	-79.388	0.157	0.053
-638.638	-67.985	0.246	0.097
-637.624	-55.890	-0.412	-0.185
-636.609	-129.605	-0.122	-0.017
-635.595	-156.207	-0.246	-0.016
-634.580	-47.078	-0.141	-0.069
-633.565	258.563	-0.066	-0.114
-632.551	-67.694	-0.183	0.072
-631.536	-131.730	-0.093	0.012
-630.522	174.170	-0.177	0.258
-629.507	2.972	0.148	0.108
-628.492	-200.000	0.020	-0.638
-627.478	-121.281	0.057	0.010
-626.463	-200.000	-0.044	-0.202
-625.449	1.228	-0.154	-0.111
-624.434	-17.890	0.117	0.074
-623.419	627.966	-0.041	-0.103
-622.405	149.516	-0.241	0.328
-621.390	800.000	0.082	-0.249
-620.376	-11.414	-0.310	-0.205
-619.361	-171.907	0.239	-0.008
-618.346	710.378	-0.086	0.230
-617.332	-63.662	-0.244	-0.100
-616.317	84.817	0.174	0.192
-615.303	-128.368	-0.219	0.031
-614.288	-81.292	-0.068	-0.022
-613.273	800.000	0.023	-0.082
-612.259	153.471	-0.017	0.023
-611.244	29.612	-0.088	0.075
-610.230	800.000	-0.078	0.238
-609.215	-27.316	-0.175	0.102
-608.201	47.572	-0.190	-0.178
-607.186	459.403	-0.152	0.340
-606.171	69.438	-0.123	-0.127
-605.157	800.000	0.054	-0.212
-604.142	-7.417	-0.306	-0.208
-603.128	-121.450	-0.410	-0.068
-602.113	-200.000	0.018	0.217
-601.098	548.695	-0.107	0.257
-600.084	427.927	0.092	0.200
-599.069	-46.581	-0.239	-0.118
-598.055	286.956	-0.102	0.185
-597.040	-200.000	-0.026	0.309
-596.025	-35.204	-0.083	-0.045
-595.011	505.251	-0.040	0.093
-593.996	546.891	-0.019	-0.045
-592.982	-59.977	0.339	-0.145
-591.967	-76.566	-0.096	0.034
-590.952	355.561	-0.099	0.197
-589.938	-200.000	0.023	-0.163
-588.923	54.243	-0.086	-0.083
-587.909	-200.000	-0.007	-0.033
-586.894	9.523	-0.398	-0.303
-585.879	-77.009	0.264	0.093
-584.865	-124.465	0.344	0.054
-583.850	-200.000	0.015	0.104
-582.836	-110.873	-0.097	0.020
-581.821	-129.732	0.291	-0.040
-580.806	-200.000	-0.007	-0.247
-579.792	29.014	0.023	-0.020
-578.777	91.372	0.213	-0.241
-577.763	29.887	0.218	0.186
-576.748	-20.071	-0.190	0.118
-575.733	27.323	-0.171	-0.144
-574.719	123.401	-0.152	-0.192
-573.704	191.739	0.100	0.151
-572.690	268.194	0.112	0.197
-571.675	325.255	-0.147	0.283
-570.661	67.427	0.285	-0.291
-569.646	-162.752	-0.231	-0.011
-568.631	800.000	-0.085	0.270
-567.617	800.000	0.038	0.133
-566.602	12.119	0.300	-0.232
-565.588	260.967	-0.181	0.315
-564.573	-142.166	-0.142	0.014
-563.558	-200.000	-0.036	-0.273
-562.544	-103.379	0.321	0.076
-561.529	-111.375	-0.119	-0.024
-560.515	-93.868	0.417	0.115
-559.500	110.884	-0.033	0.040
-558.485	-96.752	0.001	0.000
-557.471	217.704	0.098	-0.156
-556.456	112.133	-0.003	0.004
-555.442	-67.943	-0.164	-0.064
-554.427	-133.632	0.111	-0.014
-553.412	-8.240	-0.087	-0.059
-552.398	100.484	-0.100	-0.117
-551.383	-200.000	-0.013	-0.235
-550.369	-89.477	0.277	0.082
-549.354	-96.549	0.370	0.098
-548.339	-151.934	0.374	0.027
-547.325	-200.000	-0.023	0.143
-546.310	-89.270	-0.354	-0.105
-545.296	-200.000	0.031	0.235
-544.281	-47.243	0.431	0.210
-543.266	-55.297	0.077	0.035
-542.252	-66.334	-0.154	-0.061
-541.237	800.000	-0.089	0.295
-540.223	32.917	0.259	-0.224
-539.208	-24.483	0.243	0.145
-538.193	800.000	0.010	-0.035
-537.179	9.127	-0.185	-0.140
-536.164	214.199	-0.100	-0.159
-535.150	-200.000	0.023	-0.346
-534.135	-200.000	-0.008	-0.122
-533.121	693.603	-0.070	0.183
-532.106	194.195	-0.078	-0.118
-531.091	-123.465	-0.373	0.060
-530.077	-96.113	-0.166	-0.044
-529.062	362.500	-0.095	0.190
-528.048	-129.234	-0.347	0.048
-527.033	67.899	0.183	-0.187
-526.018	-200.000	0.015	-0.178
-525.004	3.668	0.425	-0.310
-523.989	168.611	-0.104	0.148
-522.975	-62.904	0.345	0.143
-521.960	800.000	-0.074	0.232
-520.945	-200.000	0.014	-0.313
-519.931	-109.997	-0.083	0.017
-518.916	791.274	0.154	0.425
-517.902	4.691	0.232	0.170
-516.887	-200.000	0.065	0.330
-515.872	-43.309	-0.085	-0.043
-514.858	-128.467	0.270	0.038
-513.843	-105.577	0.260	-0.059
-512.829	80.231	0.097	0.104
-511.814	433.792	-0.091	0.198
-510.799	-200.000	-0.028	0.186
-509.785	-74.140	-0.163	-0.059
-508.770	-200.000	-0.002	-0.098
-507.756	-101.926	0.035	0.008
-506.741	-59.420	0.018	0.008
-505.726	-158.842	-0.131	0.007
-504.712	38.598	0.161	-0.143
-503.697	-200.000	0.004	-0.267
-502.683	800.000	0.051	0.173
-501.668	35.852	-0.262	0.230
-500.653	90.689	0.057	-0.064
-499.639	127.985	0.090	0.114
-498.624	800.000	0.031	-0.128
-497.610	-10.070	0.217	0.144
-496.595	-63.702	-0.127	0.052
-495.581	-88.269	0.125	-0.037
-494.566	-172.405	0.078	0.002
-493.551	-161.859	0.273	0.014
-492.537	407.239	-0.118	0.249
-491.522	286.611	-0.139	0.250
-490.508	-2.989	-0.257	0.180
-489.493	203.476	-0.078	0.121
-488.478	-76.152	-0.209	-0.074
-487.464	-76.651	-0.210	0.074
-486.449	137.641	-0.069	-0.091
-485.435	113.878	-0.075	0.091
-484.420	-10.863	0.324	0.214
-483.405	-200.000	-0.039	-0.255
-482.391	-200.000	0.031	0.234
-481.376	96.936	0.314	0.359
-480.362	800.000	0.079	0.248
-479.347	107.629	0.066	0.079
-478.332	123.073	-0.237	-0.296
-477.318	800.000	-0.071	0.224
-476.303	-200.000	-0.000	0.206
-475.289	208.960	0.187	-0.293
-474.274	-176.861	-0.066	-0.002
-473.259	41.821	-0.273	0.247
-472.245	-146.261	0.402	-0.035
-471.230	-42.137	0.314	-0.160
-470.216	-16.622	-0.158	-0.100
-469.201	800.000	-0.057	-0.197
-468.186	-43.375	0.237	0.119
-467.172	-44.091	0.185	0.093
-466.157	800.000	0.031	0.107
-465.143	4.919	-0.118	0.086
-464.128	-200.000	0.015	-0.237
-463.113	-200.000	0.011	-0.263
-462.099	409.427	-0.055	0.115
-461.084	19.600	0.141	0.113
-460.070	-200.000	0.034	-0.345
-459.055	-51.038	-0.031	0.014
-458.040	149.344	-0.095	0.128
-457.026	-28.451	0.331	0.191
-456.011	415.663	-0.023	-0.048
-454.997	674.124	-0.067	-0.174
-453.982	49.705	0.131	-0.124
-452.968	-200.000	-0.041	-0.226
-451.953	-128.157	0.049	0.007
-450.938	344.004	0.203	-0.397
-449.924	-200.000	-0.053	-0.433
-448.909	-62.891	-0.099	0.041
-447.895	800.000	0.053	-0.223
-446.880	-150.413	0.245	-0.019
-445.865	6.432	0.193	-0.143
-444.851	268.968	-0.234	-0.409
-443.836	800.000	-0.083	0.265
-442.822	800.000	-0.029	-0.105
-441.807	80.733	0.167	0.179
-440.792	173.132	0.153	0.220
-439.778	800.000	-0.102	0.379
-438.763	-200.000	-0.018	0.227
-437.749	800.000	-0.034	0.107
-436.734	160.339	0.167	0.233
-435.719	79.379	-0.250	0.268
-434.705	483.485	0.091	0.207
-433.690	800.000	-0.126	-0.406
-432.676	-113.169	0.143	-0.028
-431.661	-121.657	-0.167	-0.028
-430.646	137.138	-0.274	-0.357
-429.632	110.050	0.228	0.273
-428.617	389.697	0.132	-0.273
-427.603	800.000	-0.070	0.289
-426.588	-200.000	-0.023	0.160
-425.573	401.027	0.078	-0.163
-424.559	197.713	-0.064	0.098
-423.544	384.315	-0.086	0.176
-422.530	643.528	0.061	-0.154
-421.515	195.431	0.055	-0.083
-420.500	-21.166	0.225	0.137
-419.486	-80.934	0.443	0.147
-418.471	556.144	-0.082	-0.196
-417.457	117.066	-0.283	0.347
-416.442	482.265	-0.119	0.268
-415.428	-89.791	0.492	-0.144
-414.413	-13.835	0.235	-0.152
-413.398	72.495	0.091	0.094
-412.384	-105.738	-0.304	-0.068
-411.369	13.395	0.027	0.021
-410.355	-92.619	0.204	-0.057
-409.340	-18.542	0.105	0.065
-408.325	-47.322	-0.170	0.082
-407.311	63.491	-0.066	-0.066
-406.296	363.600	-0.117	0.235
-405.282	116.759	-0.079	-0.096
-404.267	-3.135	0.402	0.279
-403.252	781.922	0.072	0.196
-402.238	-125.280	-0.324	-0.049
-401.223	-5.932	-0.139	-0.095
-400.209	-200.000	-0.020	0.158
-399.194	-145.327	0.288	-0.026
-398.179	33.963	0.097	0.084
-397.165	-200.000	-0.011	0.048
-396.150	-113.010	0.281	-0.055
-395.136	-200.000	-0.030	0.156
-394.121	-61.228	-0.113	0.047
-393.106	407.574	-0.263	-0.555
-392.092	100.226	-0.135	0.155
-391.077	-200.000	-0.055	-0.271
-390.063	22.172	0.084	-0.068
-389.048	348.108	0.135	0.266
-388.033	32.609	0.095	0.082
-387.019	-200.000	-0.057	-0.349
-386.004	-74.077	-0.211	-0.076
-384.990	14.497	-0.173	-0.135
-383.975	-200.000	-0.010	0.112
-382.960	355.019	-0.242	0.478
-381.946	74.064	-0.218	0.228
-380.931	53.337	-0.246	-0.235
-379.917	34.461	-0.198	-0.172
-378.902	800.000	-0.077	-0.265
-377.888	-60.607	-0.222	0.094
-376.873	304.737	0.143	0.265
-375.858	10.818	-0.193	-0.147
-374.844	800.000	-0.065	-0.281
-373.829	-200.000	0.036	0.185
-372.815	-200.000	-0.037	-0.263
-371.800	216.316	-0.230	-0.364
-370.785	-148.150	0.149	0.012
-369.771	-200.000	0.061	0.530
-368.756	-200.000	0.027	-0.358
-367.742	-128.306	0.062	0.009
-366.727	-28.191	0.216	-0.124
-365.712	-200.000	-0.022	-0.114
-364.698	-21.050	0.163	-0.099
-363.683	-200.000	0.016	-0.225
-362.669	-95.731	0.244	0.065
-361.654	-80.745	-0.289	-0.096
-360.639	800.000	-0.176	-0.500
-359.625	-200.000	0.034	0.480
-358.610	-200.000	-0.021	0.106
-357.596	-24.426	-0.058	0.035
-356.581	-200.000	0.076	-0.584
-355.566	670.412	-0.093	-0.239
-354.552	-200.000	-0.003	0.322
-353.537	-116.121	-0.124	-0.023
-352.523	-99.397	-0.243	-0.061
-351.508	15.988	-0.089	-0.070
-350.493	-200.000	-0.070	0.323
-349.479	-200.000	0.021	-0.284
-348.464	10.955	-0.256	-0.194
-347.450	-19.825	0.171	0.105
-346.435	378.225	-0.123	-0.250
-345.420	800.000	0.026	-0.082
-344.406	191.393	0.087	-0.130
-343.391	-200.000	0.027	0.208
-342.377	-107.824	-0.143	-0.031
-341.362	-200.000	0.004	0.050
-340.348	17.320	0.272	0.215
-339.333	800.000	0.048	-0.190
-338.318	187.504	-0.115	-0.170
-337.304	-200.000	-0.036	0.228
-336.289	85.608	0.171	0.187
-335.275	233.064	0.103	-0.168
-334.260	-66.416	-0.380	0.150
-333.245	681.604	0.128	-0.332
-332.231	-133.768	0.207	0.026
-331.216	518.631	0.127	0.296
-330.202	186.692	-0.089	-0.131
-329.187	800.000	-0.040	0.157
-328.172	389.516	0.050	-0.103
-327.158	-197.638	0.263	-0.002
-326.143	-60.863	-0.109	0.046
-325.129	-200.000	-0.001	0.020
-324.114	-67.835	0.127	-0.049
-323.099	1.522	-0.176	0.126
-322.085	-200.000	0.014	-0.423
-321.070	800.000	0.078	-0.282
-320.056	108.330	0.155	-0.184
-319.041	-87.854	0.416	-0.124
-318.026	264.018	0.149	0.257
-317.012	121.061	-0.256	0.316
-315.997	-23.246	-0.221	0.132
-314.983	65.385	0.334	-0.336
-313.968	-118.591	0.166	0.029
-312.953	800.000	-0.040	0.124
-311.939	-90.844	-0.208	-0.059
-310.924	800.000	0.033	-0.125
-309.910	-10.332	-0.073	0.048
-308.895	209.492	-0.128	0.199
-307.880	-10.408	0.138	0.091
-306.866	-37.562	0.127	-0.067
-305.851	60.164	-0.108	0.106
-304.837	58.290	0.170	-0.165
-303.822	519.749	-0.036	0.083
-302.807	70.152	-0.113	0.115
-301.793	800.000	0.083	0.275
-300.778	-61.081	-0.134	0.056
-299.764	-66.659	0.344	-0.135
-298.749	252.247	0.075	-0.127
-297.735	14.108	0.419	-0.323
-296.720	-200.000	0.002	0.406
-295.705	534.634	0.165	0.387
-294.691	344.931	0.055	-0.107
-293.676	200.604	-0.088	0.134
-292.662	773.792	0.023	-0.061
-291.647	120.862	-0.153	0.189
-290.632	-163.258	0.307	0.015
-289.618	494.362	-0.040	0.091
-288.603	800.000	0.051	0.187
-287.589	762.214	0.125	-0.335
-286.574	192.818	0.053	0.079
-285.559	59.038	0.165	0.161
-284.545	800.000	0.074	0.219
-283.530	41.314	0.073	-0.065
-282.516	77.761	0.122	-0.128
-281.501	330.669	0.109	0.208
-280.486	800.000	-0.069	0.295
-279.472	-115.368	0.281	0.053
-278.457	-152.782	-0.243	0.017
-277.443	44.788	-0.142	-0.130
-276.428	-86.169	0.301	0.092
-275.413	800.000	0.119	0.423
-274.399	-55.546	0.052	-0.023
-273.384	113.638	0.076	-0.091
-272.370	186.131	-0.104	0.154
-271.355	-77.652	-0.007	-0.002
-270.340	-4.845	0.085	0.058
-269.326	161.940	0.137	-0.190
-268.311	46.121	0.101	-0.092
-267.297	-152.068	-0.330	-0.024
-266.282	480.747	0.178	-0.400
-265.267	732.394	0.083	-0.219
-264.253	-152.015	0.044	0.003
-263.238	-200.000	0.041	-0.225
-262.224	-183.752	-0.143	0.002
-261.209	-200.000	0.012	-0.253
-260.195	-71.125	0.379	0.141
-259.180	800.000	0.032	0.110
-258.165	-107.927	-0.175	0.038
-257.151	-74.131	0.247	0.089
-256.136	5.911	-0.122	0.089
-255.122	-108.340	-0.200	0.043
-254.107	800.000	-0.075	0.205
-253.092	-11.688	-0.310	0.202
-252.078	-200.000	-0.046	0.200
-251.063	147.103	0.258	-0.344
-250.049	100.367	-0.231	0.266
-249.034	-38.222	0.014	0.008
-248.019	-200.000	0.000	-0.100
-247.005	106.973	-0.240	0.282
-245.990	-200.000	0.052	-0.323
-244.976	-120.287	0.156	0.026
-243.961	-200.000	0.018	0.276
-242.946	-27.821	0.162	0.093
-241.932	28.037	0.178	0.149
-240.917	800.000	-0.050	-0.194
-239.903	-74.471	-0.275	0.098
-238.888	-133.244	0.170	-0.021
-237.873	800.000	0.045	0.154
-236.859	19.355	0.221	-0.176
-235.844	-35.570	-0.132	-0.071
-234.830	-0.723	0.130	0.091
-233.815	412.738	-0.079	0.167
-232.800	118.484	-0.151	-0.185
-231.786	800.000	0.025	-0.075
-230.771	-67.490	0.162	0.063
-229.757	-139.038	-0.205	0.022
-228.742	1.289	0.096	-0.068
-227.727	-65.662	-0.222	0.088
-226.713	137.156	0.039	0.051
-225.698	403.572	0.147	-0.306
-224.684	800.000	0.076	-0.212
-223.669	169.968	-0.038	-0.054
-222.655	76.428	-0.218	-0.228
-221.640	246.468	-0.107	-0.178
-220.625	97.083	0.260	0.295
-219.611	-200.000	0.043	-0.345
-218.596	-31.614	0.244	-0.136
-217.582	372.580	0.131	-0.264
-216.567	133.585	-0.269	-0.344
-215.552	-200.000	-0.083	-0.387
-214.538	-98.484	-0.200	0.051
-213.523	272.558	0.022	-0.038
-212.509	272.413	0.134	0.234
-211.494	-14.749	-0.228	-0.145
-210.479	5.674	0.209	-0.153
-209.465	18.117	0.194	-0.153
-208.450	-60.739	-0.287	-0.120
-207.436	178.565	0.165	-0.239
-206.421	-132.089	-0.174	0.022
-205.406	-195.151	0.353	-0.003
-204.392	0.458	0.043	0.031
-203.377	126.845	-0.139	0.174
-202.363	206.435	0.088	0.135
-201.348	315.841	0.224	0.417
-200.333	-82.737	-0.386	0.124
-199.319	800.000	-0.041	0.115
-198.304	-106.390	0.134	0.030
-197.290	71.959	0.324	0.333
-196.275	-155.150	0.069	-0.004
-195.260	800.000	-0.037	-0.124
-194.246	-49.628	-0.079	0.037
-193.231	-29.610	0.326	0.184
-192.217	-153.613	-0.154	0.011
-191.202	3.933	-0.187	-0.135
-190.187	800.000	-0.022	-0.090
-189.173	514.151	-0.118	0.273
-188.158	-200.000	0.211	-0.000
-187.144	166.728	-0.190	0.266
-186.129	-99.244	-0.115	-0.029
-185.114	-117.020	-0.533	-0.096
-184.100	-70.482	-0.113	0.042
-183.085	800.000	0.064	-0.204
-182.071	599.166	0.054	0.133
-181.056	34.901	0.018	0.015
-180.042	70.199	-0.252	-0.257
-179.027	596.901	0.053	0.130
-178.012	74.507	-0.138	0.143
-176.998	23.044	-0.154	-0.125
-175.983	-72.062	0.215	-0.079
-174.969	-61.106	0.184	-0.077
-173.954	335.775	0.079	-0.152
-172.939	85.282	0.244	-0.264
-171.925	-117.890	0.518	-0.092
-170.910	7.582	0.150	0.111
-169.896	-35.987	-0.358	-0.191
-168.881	472.340	-0.075	0.168
-167.866	-47.593	-0.161	-0.077
-166.852	800.000	-0.099	-0.333
-165.837	800.000	0.060	-0.224
-164.823	800.000	-0.065	-0.184
-163.808	-121.798	-0.245	0.040
-162.793	17.838	0.125	-0.098
-161.779	-92.163	-0.451	-0.126
-160.764	-18.097	-0.126	0.078
-159.750	800.000	0.117	0.487
-158.735	-200.000	-0.022	-0.465
-157.720	-88.090	-0.244	0.072
-156.706	800.000	0.141	0.400
-155.691	-98.852	-0.285	-0.072
-154.677	-200.000	-0.022	0.214
-153.662	-125.098	-0.072	0.011
-152.647	-85.005	0.116	-0.036
-151.633	-31.825	0.236	-0.131
-150.618	-126.825	-0.142	0.021
-149.604	-105.045	-0.140	0.032
-148.589	-73.355	-0.127	-0.046
-147.574	216.926	-0.060	0.094
-146.560	1.974	0.221	0.157
-145.545	564.179	0.087	0.209
-144.531	-200.000	-0.068	0.455
-143.516	88.087	-0.066	0.072
-142.502	70.384	0.063	-0.065
-141.487	-141.530	-0.303	-0.030
-140.472	335.439	0.184	-0.352
-139.458	-200.000	0.002	-0.132
-138.443	-200.000	-0.049	-0.285
-137.429	-50.157	0.175	-0.082
-136.414	-200.000	0.024	-0.111
-135.399	146.074	0.089	-0.118
-134.385	5.674	0.013	-0.009
-133.370	-165.162	-0.236	-0.010
-132.356	-132.408	-0.210	0.027
-131.341	54.110	-0.110	0.105
-130.326	231.058	-0.055	0.088
-129.312	-54.273	-0.205	0.092
-128.297	93.221	-0.113	-0.126
-127.283	-69.391	0.355	0.134
-126.268	-104.492	0.210	-0.048
-125.253	115.030	-0.072	-0.086
-124.239	-200.000	-0.031	0.340
-123.224	575.607	0.141	0.340
-122.210	7.338	0.131	0.096
-121.195	-200.000	0.030	-0.364
-120.180	-200.000	0.013	0.429
