DTS Sentinel unit serial number:	SN413079Multiplexer serial number:	ORYXHardware model number:	OX4-SRSoftware version number:	ORYX F/W v4.00 Oryx Data Collector v3.7.2.0data status	okinstallation	princeton_trtdifferential loss correction	single-endedforward channel	channel 2reverse channel	N/Adate	2019/09/17time	07:07:34forward acquisition time	60.00reverse acquisition time	0.00gamma	496.2192k internal	0.2334k external	0.2334temperature offset calibration	0.9979default loss term (dB/km)	0.3790temperature slope calibration	1.0000multiplexer offset coefficient	1.0000multiplexer slope coefficient	1.0000fibre end	0.00T internal ref (°C)	27.37T ext. ref 1 (°C)	0.12T ext. ref 2 (°C)	21.16length (m)	temperature (°C)	Stokes	anti-Stokes-747.200	54.577	0.098	0.095
-746.185	38.267	0.108	0.097
-745.171	-115.488	0.021	0.004
-744.156	-200.000	0.011	0.407
-743.142	-18.634	-0.170	-0.107
-742.127	800.000	0.081	0.323
-741.112	-200.000	0.054	0.361
-740.098	-200.000	0.042	0.234
-739.083	-66.053	-0.326	0.131
-738.069	5.894	-0.249	0.185
-737.054	-200.000	0.014	-0.061
-736.039	-122.922	-0.121	-0.020
-735.025	118.458	0.176	0.219
-734.010	800.000	-0.100	0.289
-732.996	-200.000	-0.042	-0.287
-731.981	-132.517	-0.334	-0.043
-730.966	464.509	0.106	0.237
-729.952	-23.219	-0.153	0.093
-728.937	-115.387	-0.191	0.036
-727.923	749.689	-0.043	0.117
-726.908	-106.972	-0.217	-0.048
-725.894	532.200	0.020	-0.047
-724.879	-29.224	-0.079	-0.046
-723.864	-81.824	-0.281	0.092
-722.850	-170.435	0.145	-0.005
-721.835	94.875	0.190	-0.217
-720.821	800.000	-0.028	-0.087
-719.806	32.876	-0.294	-0.255
-718.791	-52.252	0.317	0.148
-717.777	-200.000	0.012	-0.187
-716.762	-200.000	0.009	0.143
-715.748	-11.628	-0.219	0.144
-714.733	-200.000	0.010	0.398
-713.718	12.733	0.134	-0.104
-712.704	97.083	-0.064	0.074
-711.689	-84.240	-0.448	-0.143
-710.675	800.000	0.122	0.416
-709.660	-74.123	0.471	0.171
-708.645	-164.194	-0.277	-0.013
-707.631	67.488	0.123	-0.126
-706.616	9.259	0.107	0.081
-705.602	-152.105	-0.495	0.036
-704.587	-200.000	-0.003	0.093
-703.572	3.638	-0.303	-0.221
-702.558	-103.571	0.206	0.048
-701.543	800.000	-0.039	0.160
-700.529	-43.788	0.088	0.045
-699.514	-62.082	-0.123	0.051
-698.499	2.251	-0.339	-0.246
-697.485	88.066	0.078	-0.087
-696.470	-200.000	0.021	0.184
-695.456	800.000	-0.057	0.158
-694.441	800.000	0.134	-0.432
-693.426	800.000	0.019	0.080
-692.412	-200.000	0.066	0.314
-691.397	-200.000	-0.017	0.101
-690.383	64.914	0.270	-0.274
-689.368	-2.463	-0.178	0.125
-688.354	157.515	0.041	0.057
-687.339	385.899	0.184	-0.380
-686.324	81.907	-0.181	-0.197
-685.310	58.457	0.136	0.134
-684.295	-200.000	-0.004	0.150
-683.281	-76.419	0.050	-0.018
-682.266	109.750	-0.011	0.013
-681.251	-200.000	-0.002	-0.087
-680.237	800.000	0.073	-0.228
-679.222	-186.480	-0.420	-0.006
-678.208	57.757	-0.074	-0.072
-677.193	-19.234	-0.108	0.067
-676.178	191.297	-0.061	0.093
-675.164	-145.138	0.255	0.023
-674.149	-91.016	0.253	-0.073
-673.135	-67.784	-0.178	0.070
-672.120	9.362	0.221	0.168
-671.105	-45.663	0.192	-0.095
-670.091	800.000	-0.025	0.073
-669.076	671.336	0.051	0.132
-668.062	88.910	0.183	-0.204
-667.047	361.684	0.193	-0.387
-666.032	89.760	-0.148	0.166
-665.018	14.592	0.342	-0.267
-664.003	800.000	-0.097	0.313
-662.989	105.704	-0.101	0.120
-661.974	-93.402	-0.301	0.084
-660.959	94.973	-0.370	0.422
-659.945	-20.815	-0.237	-0.146
-658.930	-29.780	0.166	0.095
-657.916	319.503	0.216	0.411
-656.901	-79.789	0.271	0.091
-655.886	-97.542	0.196	0.051
-654.872	-162.217	-0.236	-0.012
-653.857	-161.167	-0.246	0.013
-652.843	-69.510	-0.276	0.106
-651.828	675.861	0.088	0.228
-650.814	-200.000	-0.051	-0.351
-649.799	-200.000	-0.049	0.227
-648.784	166.259	-0.296	0.419
-647.770	143.766	-0.202	-0.270
-646.755	-70.676	0.181	-0.068
-645.741	-65.102	-0.198	-0.080
-644.726	-18.571	0.035	-0.022
-643.711	291.468	0.120	-0.218
-642.697	800.000	-0.023	-0.097
-641.682	-200.000	-0.048	-0.211
-640.668	-200.000	0.016	0.087
-639.653	37.306	0.134	-0.119
-638.638	181.537	-0.176	-0.259
-637.624	-153.422	0.282	-0.020
-636.609	13.403	0.028	0.021
-635.595	121.043	-0.152	-0.190
-634.580	-126.716	0.332	-0.049
-633.565	-87.443	-0.160	-0.049
-632.551	-134.958	-0.183	-0.022
-631.536	-104.790	-0.049	0.011
-630.522	83.502	-0.143	0.156
-629.507	-164.745	-0.202	-0.009
-628.492	800.000	-0.065	-0.270
-627.478	284.422	0.054	-0.097
-626.463	800.000	-0.110	0.335
-625.449	408.960	-0.022	0.047
-624.434	-19.459	-0.146	0.090
-623.419	-144.219	0.106	0.010
-622.405	133.347	0.211	-0.273
-621.390	47.711	0.178	-0.166
-620.376	72.913	0.219	0.229
-619.361	431.191	0.177	0.383
-618.346	-94.496	0.221	0.060
-617.332	-154.909	-0.331	-0.022
-616.317	-163.692	0.301	-0.014
-615.303	-26.840	0.280	0.164
-614.288	800.000	0.078	-0.334
-613.273	-200.000	0.005	-0.090
-612.259	-51.327	-0.160	0.075
-611.244	-132.937	0.021	0.003
-610.230	800.000	-0.032	0.102
-609.215	-200.000	0.001	0.054
-608.201	159.805	0.061	0.085
-607.186	-200.000	0.014	0.350
-606.171	146.008	0.241	0.323
-605.157	74.159	-0.127	-0.133
-604.142	18.842	-0.097	0.078
-603.128	-48.635	0.096	-0.046
-602.113	-175.420	0.116	0.003
-601.098	800.000	0.027	-0.086
-600.084	-58.755	0.035	-0.015
-599.069	179.575	0.187	0.273
-598.055	111.955	-0.087	0.105
-597.040	-95.708	0.235	-0.063
-596.025	66.143	0.088	-0.089
-595.011	-103.779	-0.262	0.061
-593.996	-83.858	-0.173	0.055
-592.982	82.750	0.128	-0.139
-591.967	800.000	0.094	-0.291
-590.952	-77.343	-0.185	0.064
-589.938	-90.207	0.208	0.060
-588.923	800.000	-0.082	0.251
-587.909	184.802	-0.183	0.271
-586.894	363.209	0.025	-0.050
-585.879	-43.591	-0.153	-0.077
-584.865	471.328	-0.117	0.262
-583.850	-200.000	-0.004	0.176
-582.836	13.894	-0.035	-0.027
-581.821	-200.000	-0.058	-0.406
-580.806	6.550	-0.149	-0.111
-579.792	-57.239	0.170	-0.075
-578.777	-114.328	0.255	-0.049
-577.763	195.123	0.263	0.399
-576.748	94.545	0.150	0.170
-575.733	41.308	-0.281	0.253
-574.719	-200.000	0.029	0.198
-573.704	-200.000	-0.040	-0.178
-572.690	539.956	-0.082	-0.194
-571.675	321.234	-0.094	0.179
-570.661	-140.905	0.347	-0.036
-569.646	-56.607	0.191	-0.085
-568.631	412.679	-0.030	0.064
-567.617	35.824	-0.228	0.200
-566.602	-200.000	0.001	0.043
-565.588	800.000	-0.060	0.166
-564.573	-200.000	0.009	0.107
-563.558	-61.003	0.093	0.039
-562.544	-95.279	-0.251	-0.067
-561.529	-200.000	-0.008	0.043
-560.515	-200.000	-0.005	-0.149
-559.500	-72.898	-0.036	0.013
-558.485	61.544	-0.149	0.148
-557.471	-118.096	-0.190	0.034
-556.456	-200.000	-0.001	-0.197
-555.442	-1.647	-0.127	0.089
-554.427	12.303	-0.192	-0.148
-553.412	6.779	-0.031	0.023
-552.398	23.042	0.077	0.063
-551.383	52.363	0.112	-0.107
-550.369	-5.891	-0.102	-0.069
-549.354	-110.898	0.083	-0.017
-548.339	60.249	0.086	-0.085
-547.325	-55.435	-0.061	0.027
-546.310	-118.194	-0.427	0.076
-545.296	-200.000	-0.025	0.121
-544.281	-40.310	-0.196	0.102
-543.266	800.000	-0.056	0.163
-542.252	66.052	0.253	-0.256
-541.237	564.272	-0.071	-0.172
-540.223	-37.622	0.336	0.179
-539.208	177.573	0.179	0.260
-538.193	429.801	0.153	-0.331
-537.179	238.015	-0.143	-0.237
-536.164	63.018	0.069	-0.069
-535.150	3.786	-0.239	-0.174
-534.135	15.642	0.157	-0.123
-533.121	252.762	0.115	0.195
-532.106	800.000	0.092	-0.275
-531.091	-200.000	-0.042	0.234
-530.077	-64.732	-0.112	-0.045
-529.062	800.000	-0.040	-0.141
-528.048	100.359	-0.246	-0.285
-527.033	81.020	0.118	-0.127
-526.018	240.534	0.026	-0.043
-525.004	-200.000	-0.005	0.198
-523.989	-103.344	0.111	-0.026
-522.975	-171.885	-0.308	-0.010
-521.960	-124.748	-0.565	-0.087
-520.945	194.442	0.028	-0.042
-519.931	-200.000	-0.023	-0.261
-518.916	-200.000	0.018	-0.388
-517.902	144.526	-0.072	-0.096
-516.887	437.829	0.022	0.047
-515.872	90.133	-0.142	0.158
-514.858	-47.202	-0.349	0.169
-513.843	800.000	-0.052	-0.186
-512.829	800.000	-0.032	-0.137
-511.814	-200.000	-0.021	0.178
-510.799	0.046	-0.185	-0.131
-509.785	-200.000	-0.012	0.089
-508.770	-130.806	-0.094	-0.013
-507.756	414.268	-0.117	0.248
-506.741	-200.000	-0.005	-0.245
-505.726	34.295	0.348	0.303
-504.712	-90.616	0.217	-0.062
-503.697	18.199	-0.181	-0.144
-502.683	-48.673	-0.191	-0.091
-501.668	-112.991	0.186	-0.037
-500.653	-134.962	-0.257	-0.031
-499.639	-31.349	0.352	0.197
-498.624	117.418	-0.023	0.029
-497.610	-87.253	-0.112	-0.034
-496.595	61.208	0.262	0.259
-495.581	-200.000	0.078	-0.000
-494.566	100.431	-0.123	-0.142
-493.551	74.168	0.172	-0.180
-492.537	56.667	0.182	-0.177
-491.522	800.000	0.016	-0.055
-490.508	79.957	-0.131	-0.140
-489.493	-200.000	0.019	-0.103
-488.478	373.865	0.038	-0.077
-487.464	-200.000	-0.058	0.285
-486.449	-178.177	0.168	-0.004
-485.435	-200.000	0.034	0.186
-484.420	-3.133	-0.093	0.064
-483.405	800.000	0.130	-0.423
-482.391	151.239	-0.046	0.063
-481.376	15.178	-0.175	0.137
-480.362	-46.262	0.334	0.163
-479.347	-48.092	-0.220	-0.106
-478.332	55.493	-0.283	0.272
-477.318	75.464	0.100	0.105
-476.303	800.000	-0.081	0.306
-475.289	-63.394	0.059	0.024
-474.274	-200.000	-0.000	0.137
-473.259	54.404	0.440	-0.422
-472.245	-120.759	0.147	-0.025
-471.230	-104.818	-0.196	0.045
-470.216	548.876	0.130	-0.309
-469.201	14.131	-0.251	-0.194
-468.186	800.000	0.081	-0.296
-467.172	-93.860	0.237	-0.065
-466.157	57.326	0.140	0.135
-465.143	230.674	0.130	-0.212
-464.128	-173.763	0.138	-0.004
-463.113	74.370	0.161	0.169
-462.099	-200.000	0.059	-0.410
-461.084	1.637	0.120	-0.086
-460.070	20.204	-0.108	-0.087
-459.055	-11.093	0.100	-0.065
-458.040	-115.982	0.157	0.029
-457.026	-200.000	0.071	-0.000
-456.011	-200.000	-0.035	0.252
-454.997	-200.000	-0.011	-0.158
-453.982	-67.124	0.200	0.078
-452.968	-66.224	0.393	-0.156
-451.953	-142.786	-0.485	-0.047
-450.938	-144.983	-0.186	0.017
-449.924	65.346	-0.358	0.360
-448.909	-30.626	-0.157	-0.088
-447.895	98.370	-0.113	0.129
-446.880	27.707	0.131	-0.110
-445.865	211.326	0.081	0.126
-444.851	703.468	-0.060	-0.156
-443.836	-45.434	0.068	-0.033
-442.822	-82.907	0.137	-0.044
-441.807	636.582	0.137	-0.346
-440.792	800.000	0.070	-0.295
-439.778	-200.000	-0.016	0.112
-438.763	484.101	-0.029	-0.065
-437.749	15.531	-0.067	-0.052
-436.734	112.467	-0.186	0.223
-435.719	200.530	0.098	-0.150
-434.705	-66.956	-0.229	-0.090
-433.690	-107.400	0.079	0.017
-432.676	-200.000	-0.041	-0.279
-431.661	225.681	-0.103	0.166
-430.646	739.262	-0.043	0.113
-429.632	156.713	-0.125	0.171
-428.617	-82.100	0.269	0.087
-427.603	-56.573	0.133	-0.059
-426.588	-135.562	-0.239	0.028
-425.573	-200.000	-0.000	-0.111
-424.559	-200.000	-0.023	0.178
-423.544	315.038	-0.064	0.119
-422.530	-175.907	-0.234	0.006
-421.515	-131.590	0.341	-0.045
-420.500	-83.140	0.430	0.137
-419.486	32.818	-0.267	-0.229
-418.471	800.000	0.058	0.174
-417.457	2.296	0.276	0.198
-416.442	800.000	-0.103	0.336
-415.428	14.842	0.054	-0.042
-414.413	-200.000	-0.016	0.076
-413.398	-200.000	-0.052	-0.229
-412.384	-200.000	0.016	0.275
-411.369	33.321	0.095	0.081
-410.355	-50.258	-0.167	0.079
-409.340	35.139	-0.133	-0.116
-408.325	382.350	0.134	-0.273
-407.311	-200.000	-0.048	0.226
-406.296	-102.006	-0.127	-0.030
-405.282	-37.111	-0.012	-0.007
-404.267	-78.472	-0.349	0.119
-403.252	-200.000	0.003	-0.018
-402.238	74.179	0.073	-0.076
-401.223	-146.936	0.208	0.018
-400.209	563.749	0.061	0.147
-399.194	-3.767	-0.237	-0.164
-398.179	-28.390	0.278	-0.159
-397.165	-200.000	-0.028	0.158
-396.150	-83.083	-0.256	0.082
-395.136	38.500	0.159	-0.141
-394.121	-127.534	-0.046	-0.007
-393.106	232.106	0.129	-0.210
-392.092	-101.008	0.341	0.083
-391.077	-142.895	0.246	-0.024
-390.063	-84.977	0.397	-0.123
-389.048	115.764	0.180	0.218
-388.033	-142.517	-0.187	0.018
-387.019	-46.741	-0.366	-0.178
-386.004	-200.000	0.012	-0.126
-384.990	-70.020	0.216	-0.082
-383.975	-140.434	-0.245	0.025
-382.960	-34.852	0.157	-0.085
-381.946	-200.000	-0.007	-0.164
-380.931	426.799	0.035	-0.075
-379.917	146.097	0.106	-0.141
-378.902	83.979	0.120	0.130
-377.888	-142.006	-0.196	0.019
-376.873	-200.000	0.026	-0.205
-375.858	32.884	0.187	-0.160
-374.844	-200.000	0.010	-0.112
-373.829	604.809	-0.050	0.123
-372.815	144.676	-0.168	0.222
-371.800	263.760	-0.076	-0.131
-370.785	-146.316	-0.312	-0.027
-369.771	800.000	-0.136	-0.429
-368.756	-200.000	-0.033	-0.149
-367.742	800.000	0.110	0.335
-366.727	-191.185	0.198	-0.002
-365.712	242.018	0.106	0.175
-364.698	11.462	-0.245	-0.186
-363.683	-13.783	0.223	-0.143
-362.669	153.205	0.063	-0.085
-361.654	221.780	-0.161	-0.256
-360.639	-200.000	0.021	-0.406
-359.625	-131.683	0.157	-0.020
-358.610	-26.634	-0.361	-0.209
-357.596	-28.169	-0.151	-0.087
-356.581	75.969	-0.118	0.123
-355.566	-125.151	-0.098	-0.015
-354.552	52.088	0.119	0.113
-353.537	-109.740	-0.169	0.035
-352.523	-200.000	-0.031	-0.463
-351.508	54.688	0.093	0.089
-350.493	266.841	-0.110	-0.190
-349.479	-200.000	0.024	0.257
-348.464	-77.379	0.065	-0.022
-347.450	-67.433	-0.145	0.056
-346.435	800.000	0.050	0.148
-345.420	-33.205	-0.081	-0.044
-344.406	-57.690	0.320	-0.139
-343.391	85.582	-0.154	0.168
-342.377	-129.063	0.257	0.036
-341.362	-166.405	0.030	-0.001
-340.348	-20.340	0.245	0.149
-339.333	-200.000	-0.024	0.230
-338.318	26.332	0.116	0.096
-337.304	-200.000	0.009	0.303
-336.289	-102.915	-0.077	0.018
-335.275	67.620	-0.152	0.154
-334.260	39.314	-0.194	0.172
-333.245	19.698	0.099	-0.079
-332.231	67.665	0.176	-0.178
-331.216	-70.640	0.237	0.088
-330.202	-73.623	-0.197	-0.071
-329.187	-107.763	0.294	0.063
-328.172	-200.000	-0.002	0.267
-327.158	-84.908	-0.267	0.083
-326.143	-200.000	-0.031	0.255
-325.129	-200.000	-0.013	-0.097
-324.114	43.663	0.127	-0.115
-323.099	-200.000	-0.026	0.330
-322.085	18.053	-0.053	-0.042
-321.070	514.191	0.077	-0.178
-320.056	199.542	-0.156	-0.237
-319.041	80.238	-0.140	-0.149
-318.026	-168.084	0.299	-0.012
-317.012	175.118	0.050	-0.071
-315.997	3.697	0.092	-0.066
-314.983	-77.743	-0.223	0.076
-313.968	-200.000	-0.003	0.198
-312.953	-200.000	0.061	-0.360
-311.939	800.000	-0.024	-0.100
-310.924	-26.580	0.163	0.094
-309.910	308.010	-0.081	-0.149
-308.895	-91.506	0.371	-0.105
-307.880	-67.697	-0.151	0.058
-306.866	-80.170	-0.223	0.074
-305.851	800.000	-0.034	0.094
-304.837	0.478	0.156	0.110
-303.822	800.000	-0.018	-0.071
-302.807	37.881	-0.128	0.112
-301.793	800.000	-0.067	-0.234
-300.778	193.001	-0.078	0.117
-299.764	268.092	-0.110	0.191
-298.749	-70.505	-0.060	0.022
-297.735	86.368	-0.153	-0.167
-296.720	-200.000	0.026	-0.203
-295.705	-56.215	0.264	-0.116
-294.691	32.945	-0.187	0.160
-293.676	673.131	0.019	0.048
-292.662	-200.000	0.053	0.301
-291.647	32.713	0.113	-0.097
-290.632	220.158	-0.084	-0.134
-289.618	27.405	0.198	0.164
-288.603	631.641	0.158	-0.395
-287.589	154.849	-0.109	0.148
-286.574	-93.810	0.132	-0.036
-285.559	-104.357	-0.166	0.038
-284.545	235.782	0.027	0.044
-283.530	-50.079	-0.081	0.038
-282.516	60.778	-0.081	-0.080
-281.501	130.748	-0.085	0.108
-280.486	43.510	-0.038	0.035
-279.472	800.000	0.066	0.278
-278.457	-137.436	-0.318	0.036
-277.443	800.000	0.046	-0.161
-276.428	-200.000	-0.086	0.414
-275.413	-32.570	-0.078	-0.043
-274.399	800.000	0.045	0.137
-273.384	17.208	-0.187	-0.146
-272.370	121.613	0.075	-0.092
-271.355	-145.806	0.298	0.026
-270.340	251.975	-0.079	-0.133
-269.326	210.100	0.110	-0.171
-268.311	679.441	-0.048	0.123
-267.297	-106.714	-0.226	-0.050
-266.282	-160.953	0.299	0.016
-265.267	39.955	-0.070	0.062
-264.253	-47.200	0.304	0.146
-263.238	-39.798	-0.225	0.116
-262.224	800.000	-0.040	0.153
-261.209	-66.395	0.086	0.034
-260.195	-67.434	0.100	0.039
-259.180	567.667	0.071	-0.171
-258.165	-50.538	-0.260	-0.121
-257.151	-14.305	-0.032	-0.020
-256.136	4.769	0.233	-0.169
-255.122	106.982	0.082	0.096
-254.107	430.508	0.124	-0.264
-253.092	800.000	0.063	0.175
-252.078	-30.377	-0.130	0.073
-251.063	-98.079	-0.142	0.036
-250.049	800.000	-0.065	0.227
-249.034	-6.697	0.181	-0.122
-248.019	-99.726	-0.527	-0.130
-247.005	428.577	-0.161	-0.342
-245.990	535.347	0.128	-0.300
-244.976	-200.000	-0.069	0.335
-243.961	361.534	0.134	0.264
-242.946	-56.395	-0.229	0.100
-241.932	-200.000	0.026	0.180
-240.917	8.861	-0.322	0.239
-239.903	-200.000	0.002	-0.105
-238.888	800.000	0.061	-0.185
-237.873	800.000	-0.073	0.216
-236.859	521.531	-0.182	0.420
-235.844	-74.466	0.103	-0.037
-234.830	-121.043	-0.122	0.020
-233.815	-118.557	-0.411	0.072
-232.800	29.238	0.116	-0.097
-231.786	37.934	-0.220	0.193
-230.771	-200.000	-0.000	0.043
-229.757	-200.000	0.015	-0.250
-228.742	15.626	0.284	0.220
-227.727	-79.783	-0.230	-0.076
-226.713	-173.232	-0.347	0.010
-225.698	-200.000	0.002	0.137
-224.684	170.455	0.143	0.202
-223.669	182.605	-0.073	-0.105
-222.655	-102.481	-0.320	-0.075
-221.640	187.304	-0.148	-0.218
-220.625	-200.000	-0.046	-0.241
-219.611	-118.658	-0.208	-0.036
-218.596	155.338	0.164	-0.222
-217.582	-54.228	0.332	-0.149
-216.567	800.000	-0.031	0.087
-215.552	-80.621	-0.267	-0.087
-214.538	69.956	0.109	-0.110
-213.523	715.902	-0.092	0.240
-212.509	-72.298	0.097	0.035
-211.494	-200.000	-0.051	0.291
-210.479	503.593	0.036	0.082
-209.465	12.329	0.236	0.179
-208.450	-200.000	-0.021	0.153
-207.436	-200.000	0.013	0.185
-206.421	640.681	0.065	-0.163
-205.406	355.681	-0.110	-0.216
-204.392	208.876	-0.226	-0.349
-203.377	-149.010	0.175	0.014
-202.363	-103.168	0.239	0.056
-201.348	-200.000	0.062	0.295
-200.333	535.168	0.072	-0.168
-199.319	116.124	0.210	0.253
-198.304	-12.359	0.187	-0.120
-197.290	144.360	-0.067	-0.088
-196.275	512.442	0.053	0.121
-195.260	211.545	0.100	-0.155
-194.246	305.199	0.106	-0.194
-193.231	-93.859	-0.138	-0.037
-192.217	268.422	-0.117	-0.201
-191.202	-200.000	0.040	-0.405
-190.187	466.895	-0.142	0.313
-189.173	662.825	0.092	0.233
-188.158	-200.000	0.005	-0.047
-187.144	36.088	-0.087	-0.075
-186.129	369.415	-0.118	-0.235
-185.114	-200.000	-0.060	-0.320
-184.100	-22.274	0.217	0.129
-183.085	538.072	0.199	0.466
-182.071	-178.393	-0.088	-0.002
-181.056	190.019	-0.071	-0.105
-180.042	493.539	0.090	-0.202
-179.027	256.497	0.023	0.038
-178.012	316.537	0.061	-0.113
-176.998	-36.130	0.469	-0.249
-175.983	-12.626	-0.184	0.118
-174.969	800.000	0.107	0.385
-173.954	-200.000	-0.050	0.371
-172.939	-200.000	-0.046	0.435
-171.925	-109.588	0.203	-0.042
-170.910	-200.000	-0.024	0.156
-169.896	-200.000	0.004	0.033
-168.881	87.793	-0.210	-0.229
-167.866	-3.730	0.058	-0.039
-166.852	133.384	0.086	0.109
-165.837	-43.646	0.053	0.026
-164.823	64.255	-0.184	0.182
-163.808	146.891	0.203	0.269
-162.793	800.000	-0.083	0.229
-161.779	-72.883	0.027	0.010
-160.764	-200.000	0.019	0.374
-159.750	603.933	0.077	0.189
-158.735	160.359	-0.102	0.140
-157.720	800.000	0.086	0.270
-156.706	800.000	0.050	-0.178
-155.691	-200.000	-0.008	-0.038
-154.677	130.669	0.331	-0.417
-153.662	-169.098	0.294	0.011
-152.647	-12.609	0.092	-0.059
-151.633	37.464	-0.222	-0.194
-150.618	-72.131	0.152	-0.055
-149.604	174.110	-0.032	-0.045
-148.589	441.592	-0.084	0.181
-147.574	297.108	0.172	0.311
-146.560	800.000	0.055	-0.237
-145.545	-129.629	0.279	0.038
-144.531	730.088	0.060	0.158
-143.516	-200.000	0.009	0.220
-142.502	-200.000	0.017	-0.149
-141.487	-200.000	0.005	-0.205
-140.472	800.000	-0.052	0.218
-139.458	-91.789	0.228	0.064
-138.443	-18.348	0.185	-0.114
-137.429	-200.000	0.080	-0.355
-136.414	31.268	0.177	-0.149
-135.399	-137.115	0.208	0.023
-134.385	-46.576	-0.184	0.089
-133.370	-200.000	0.041	-0.377
-132.356	3.389	0.191	-0.136
-131.341	-55.877	-0.115	0.050
-130.326	-200.000	0.016	-0.240
-129.312	116.773	0.196	-0.236
-128.297	-109.384	0.098	0.020
-127.283	792.574	-0.110	-0.298
-126.268	-67.182	0.279	-0.108
-125.253	158.762	0.167	0.227
-124.239	-6.815	0.105	0.070
-123.224	-53.700	0.033	-0.015
-122.210	800.000	0.142	0.397
-121.195	-174.461	0.376	0.011
-120.180	-200.000	0.007	-0.320
