DTS Sentinel unit serial number:	SN413079Multiplexer serial number:	ORYXHardware model number:	OX4-SRSoftware version number:	ORYX F/W v4.00 Oryx Data Collector v3.7.2.0data status	okinstallation	princeton_trtdifferential loss correction	single-endedforward channel	channel 2reverse channel	N/Adate	2019/09/15time	09:31:35forward acquisition time	60.00reverse acquisition time	0.00gamma	496.2192k internal	0.2316k external	0.2316temperature offset calibration	1.0011default loss term (dB/km)	0.3790temperature slope calibration	1.0000multiplexer offset coefficient	1.0000multiplexer slope coefficient	1.0000fibre end	0.00T internal ref (°C)	33.77T ext. ref 1 (°C)	4.93T ext. ref 2 (°C)	30.11length (m)	temperature (°C)	Stokes	anti-Stokes-747.200	800.000	0.072	0.276
-746.185	-138.171	-0.116	0.013
-745.171	-4.335	-0.026	0.018
-744.156	-86.031	0.286	0.089
-743.142	163.025	-0.220	-0.313
-742.127	-35.944	-0.220	0.121
-741.112	-49.584	-0.343	0.166
-740.098	-8.139	-0.163	0.111
-739.083	188.321	-0.233	0.353
-738.069	386.696	0.129	0.270
-737.054	682.425	0.063	-0.168
-736.039	-14.021	-0.304	-0.199
-735.025	-200.000	-0.055	0.262
-734.010	80.708	-0.120	0.131
-732.996	-7.349	0.051	0.035
-731.981	170.563	-0.139	0.201
-730.966	431.625	-0.008	-0.017
-729.952	107.456	-0.222	-0.267
-728.937	275.717	0.134	0.241
-727.923	1.397	-0.107	-0.078
-726.908	-200.000	-0.011	0.124
-725.894	40.624	0.083	-0.076
-724.879	800.000	0.061	-0.196
-723.864	-36.436	-0.159	-0.086
-722.850	-200.000	-0.006	-0.299
-721.835	74.466	0.053	-0.056
-720.821	-151.815	-0.329	0.024
-719.806	-138.167	-0.462	-0.052
-718.791	-66.212	0.318	0.128
-717.777	800.000	-0.054	0.195
-716.762	-6.415	-0.446	-0.308
-715.748	-79.839	0.163	-0.055
-714.733	12.438	-0.143	-0.112
-713.718	-88.649	-0.225	-0.068
-712.704	-70.119	-0.055	0.021
-711.689	52.404	-0.132	0.128
-710.675	29.992	0.137	-0.118
-709.660	-200.000	0.005	0.129
-708.645	-200.000	0.029	-0.245
-707.631	-108.065	0.188	-0.041
-706.616	277.684	0.077	0.138
-705.602	683.000	0.049	0.130
-704.587	-54.878	-0.175	0.080
-703.572	800.000	0.143	0.488
-702.558	-96.377	-0.192	-0.051
-701.543	-190.630	-0.188	-0.002
-700.529	-32.495	0.268	0.151
-699.514	-148.992	-0.268	0.022
-698.499	100.787	-0.080	-0.094
-697.485	36.438	-0.189	0.169
-696.470	-14.478	-0.380	0.248
-695.456	-25.221	0.283	0.169
-694.441	676.877	0.111	0.292
-693.426	-126.844	-0.223	-0.033
-692.412	-200.000	0.017	0.267
-691.397	179.845	-0.140	-0.208
-690.383	-108.647	0.164	0.036
-689.368	119.757	-0.044	-0.056
-688.354	-161.119	-0.166	0.009
-687.339	12.741	0.192	-0.150
-686.324	549.477	0.021	0.052
-685.310	507.258	0.051	-0.120
-684.295	-173.387	0.276	0.008
-683.281	-200.000	0.044	-0.513
-682.266	-53.078	-0.173	-0.080
-681.251	-75.158	-0.102	0.037
-680.237	-200.000	0.019	-0.182
-679.222	-83.382	-0.343	-0.111
-678.208	16.000	-0.041	-0.032
-677.193	-200.000	-0.040	0.340
-676.178	-18.849	0.034	-0.021
-675.164	-200.000	-0.011	0.064
-674.149	181.918	-0.096	-0.143
-673.135	122.628	-0.232	-0.293
-672.120	-67.265	0.293	-0.116
-671.105	-200.000	0.039	-0.206
-670.091	1.381	0.168	0.122
-669.076	398.565	-0.125	0.264
-668.062	94.186	-0.064	-0.073
-667.047	-200.000	0.000	0.167
-666.032	408.826	-0.093	-0.198
-665.018	42.159	-0.244	-0.224
-664.003	55.285	-0.128	0.125
-662.989	-69.780	-0.216	-0.083
-661.974	163.785	-0.105	-0.150
-660.959	41.858	-0.192	-0.176
-659.945	-200.000	-0.006	-0.110
-658.930	187.069	0.194	-0.292
-657.916	-138.533	-0.203	0.023
-656.901	-105.662	-0.137	-0.031
-655.886	-147.644	-0.420	-0.036
-654.872	-78.768	0.230	0.079
-653.857	800.000	0.067	-0.260
-652.843	-19.816	-0.260	-0.162
-651.828	100.481	0.149	-0.175
-650.814	-69.053	0.131	0.051
-649.799	-114.963	0.172	0.033
-648.784	77.902	-0.416	-0.447
-647.770	-200.000	-0.097	-0.567
-646.755	800.000	0.054	-0.191
-645.741	20.596	-0.270	-0.220
-644.726	-94.479	-0.252	-0.069
-643.711	800.000	-0.051	-0.150
-642.697	365.247	-0.043	0.087
-641.682	-76.705	0.237	-0.084
-640.668	-200.000	-0.018	-0.214
-639.653	-13.667	0.138	-0.090
-638.638	-180.957	-0.315	0.006
-637.624	-18.898	0.132	0.083
-636.609	104.003	-0.098	0.117
-635.595	-152.306	0.132	0.010
-634.580	-53.079	0.119	-0.055
-633.565	-125.454	-0.209	-0.032
-632.551	-200.000	0.046	-0.240
-631.536	446.371	0.110	-0.245
-630.522	18.636	-0.152	-0.123
-629.507	-20.077	-0.224	-0.140
-628.492	62.696	-0.138	-0.139
-627.478	800.000	0.004	0.011
-626.463	-60.940	-0.156	-0.067
-625.449	331.767	-0.141	-0.274
-624.434	440.141	-0.136	-0.300
-623.419	347.787	-0.078	-0.155
-622.405	-24.895	-0.291	0.174
-621.390	127.543	0.112	0.143
-620.376	-109.335	0.052	-0.011
-619.361	290.215	-0.139	-0.255
-618.346	17.258	0.234	-0.187
-617.332	240.046	-0.072	0.121
-616.317	-134.730	0.111	-0.014
-615.303	-200.000	0.091	-0.490
-614.288	-200.000	0.021	-0.104
-613.273	318.920	-0.106	0.202
-612.259	348.505	0.035	0.069
-611.244	-200.000	-0.030	0.318
-610.230	-43.612	-0.200	0.102
-609.215	366.628	-0.054	0.109
-608.201	33.426	-0.026	0.023
-607.186	-200.000	0.039	-0.207
-606.171	521.585	0.057	-0.134
-605.157	800.000	0.073	-0.208
-604.142	800.000	0.032	-0.091
-603.128	800.000	-0.033	0.141
-602.113	94.713	-0.067	-0.077
-601.098	-115.293	-0.384	0.073
-600.084	-200.000	-0.051	0.263
-599.069	-2.176	-0.192	-0.136
-598.055	105.728	-0.084	-0.101
-597.040	-200.000	-0.035	0.172
-596.025	225.147	0.068	-0.111
-595.011	748.133	-0.072	-0.196
-593.996	-83.217	-0.129	0.042
-592.982	-22.569	0.224	0.136
-591.967	19.508	-0.093	0.075
-590.952	106.779	0.184	0.220
-589.938	-12.182	0.267	0.176
-588.923	418.734	-0.094	-0.202
-587.909	50.426	-0.099	-0.095
-586.894	269.537	0.063	0.111
-585.879	800.000	0.043	0.125
-584.865	139.068	0.140	0.185
-583.850	23.890	-0.040	0.033
-582.836	-144.419	-0.084	-0.008
-581.821	-200.000	-0.010	0.137
-580.806	18.522	-0.199	0.160
-579.792	-57.736	-0.055	-0.024
-578.777	800.000	-0.042	0.125
-577.763	-105.207	0.182	0.042
-576.748	-200.000	0.018	-0.247
-575.733	800.000	-0.015	-0.053
-574.719	438.896	-0.036	0.079
-573.704	581.341	0.116	-0.287
-572.690	-200.000	-0.001	-0.045
-571.675	-21.410	-0.149	0.092
-570.661	108.144	-0.166	-0.199
-569.646	166.633	-0.161	-0.230
-568.631	-200.000	-0.087	-0.456
-567.617	-43.959	0.083	-0.042
-566.602	44.796	0.269	-0.249
-565.588	359.484	0.096	-0.193
-564.573	-82.043	0.136	0.045
-563.558	21.754	0.286	0.234
-562.544	-200.000	-0.031	0.230
-561.529	-102.787	0.264	0.063
-560.515	315.486	-0.010	-0.019
-559.500	800.000	-0.132	0.514
-558.485	-174.291	-0.168	0.005
-557.471	8.487	0.308	0.233
-556.456	-200.000	0.004	0.323
-555.442	-33.081	0.152	-0.085
-554.427	418.658	-0.071	0.152
-553.412	-200.000	-0.069	-0.000
-552.398	800.000	0.102	0.347
-551.383	-200.000	-0.005	0.268
-550.369	-200.000	0.013	-0.071
-549.354	800.000	-0.128	0.364
-548.339	-47.201	0.177	-0.087
-547.325	800.000	0.045	0.198
-546.310	60.309	-0.332	0.330
-545.296	449.066	-0.122	0.270
-544.281	-32.279	0.125	-0.070
-543.266	-200.000	-0.066	0.309
-542.252	68.083	0.077	0.079
-541.237	800.000	0.130	0.374
-540.223	800.000	-0.090	0.375
-539.208	120.210	0.068	-0.085
-538.193	0.807	0.205	-0.148
-537.179	-35.345	-0.269	0.147
-536.164	-200.000	0.015	-0.376
-535.150	511.439	0.088	0.206
-534.135	-15.542	-0.284	-0.182
-533.121	377.416	-0.048	0.099
-532.106	-16.254	-0.082	-0.053
-531.091	-65.829	0.148	-0.059
-530.077	800.000	-0.079	0.346
-529.062	800.000	-0.042	-0.157
-528.048	800.000	0.085	0.264
-527.033	283.551	0.187	0.338
-526.018	-200.000	-0.017	-0.215
-525.004	606.086	0.106	0.264
-523.989	190.291	-0.227	0.343
-522.975	800.000	-0.021	0.067
-521.960	-41.308	-0.097	0.050
-520.945	-101.451	-0.177	0.043
-519.931	-200.000	0.002	-0.325
-518.916	-55.387	0.502	-0.226
-517.902	764.000	0.141	-0.383
-516.887	393.237	-0.088	0.185
-515.872	165.448	0.199	-0.283
-514.858	33.745	-0.055	0.048
-513.843	-21.022	0.232	0.143
-512.829	-52.477	-0.076	0.035
-511.814	-156.772	-0.211	0.013
-510.799	588.243	0.061	-0.151
-509.785	25.086	-0.173	-0.144
-508.770	71.476	0.199	-0.208
-507.756	732.824	0.077	0.208
-506.741	800.000	-0.047	0.146
-505.726	-131.594	0.316	-0.042
-504.712	19.933	-0.120	-0.097
-503.697	800.000	-0.007	0.026
-502.683	-121.411	-0.216	-0.036
-501.668	464.490	-0.086	0.194
-500.653	97.625	-0.287	-0.331
-499.639	-200.000	-0.041	-0.315
-498.624	-48.384	-0.149	-0.072
-497.610	-27.658	0.218	0.127
-496.595	800.000	0.008	0.024
-495.581	-200.000	-0.012	0.149
-494.566	62.937	0.096	-0.097
-493.551	57.911	-0.122	-0.120
-492.537	-136.059	0.339	0.040
-491.522	251.639	0.083	-0.141
-490.508	625.865	0.013	0.032
-489.493	-102.195	0.222	-0.054
-488.478	156.696	-0.234	-0.324
-487.464	-200.000	0.020	0.143
-486.449	-3.683	-0.338	-0.235
-485.435	366.901	-0.025	0.050
-484.420	-56.923	0.322	0.143
-483.405	-161.405	-0.344	-0.018
-482.391	-85.250	0.220	0.069
-481.376	-125.912	0.373	0.056
-480.362	-4.741	-0.372	-0.258
-479.347	-200.000	-0.002	-0.316
-478.332	81.777	0.259	0.281
-477.318	29.935	-0.115	0.098
-476.303	-200.000	-0.020	0.183
-475.289	492.092	-0.032	0.075
-474.274	-200.000	0.098	0.498
-473.259	601.401	-0.077	0.193
-472.245	-166.787	-0.404	-0.017
-471.230	800.000	0.062	0.183
-470.216	350.741	0.155	-0.307
-469.201	-200.000	0.024	-0.172
-468.186	40.128	0.157	0.141
-467.172	-113.646	0.264	-0.052
-466.157	-187.978	0.123	-0.002
-465.143	212.339	-0.202	-0.320
-464.128	127.507	0.054	-0.069
-463.113	151.928	-0.283	-0.386
-462.099	-2.840	0.254	0.178
-461.084	-160.434	-0.245	0.013
-460.070	-155.399	-0.037	0.002
-459.055	150.937	-0.107	0.146
-458.040	-88.576	0.272	0.081
-457.026	156.964	0.086	0.120
-456.011	217.854	0.078	0.125
-454.997	-53.681	0.100	0.046
-453.982	161.908	0.132	-0.185
-452.968	-8.818	0.267	-0.179
-451.953	-66.188	0.355	-0.142
-450.938	151.235	-0.288	0.393
-449.924	-33.746	0.268	-0.148
-448.909	210.135	-0.074	0.117
-447.895	-93.024	-0.392	-0.109
-446.880	800.000	-0.065	0.252
-445.865	-200.000	0.015	-0.201
-444.851	-125.197	0.019	0.003
-443.836	129.149	-0.128	0.163
-442.822	-17.596	-0.118	0.074
-441.807	27.579	0.201	0.170
-440.792	-200.000	-0.010	0.189
-439.778	-105.935	0.249	-0.056
-438.763	800.000	0.018	0.075
-437.749	-71.508	-0.216	0.081
-436.734	41.572	0.187	-0.169
-435.719	-29.549	0.209	0.119
-434.705	-56.930	0.063	0.028
-433.690	-99.610	0.395	0.099
-432.676	-180.901	-0.315	0.006
-431.661	6.395	0.146	-0.108
-430.646	508.367	-0.058	0.134
-429.632	-32.730	0.058	0.032
-428.617	-136.085	0.177	0.021
-427.603	-200.000	-0.017	-0.128
-426.588	800.000	-0.033	0.141
-425.573	-146.947	0.244	0.021
-424.559	112.281	-0.095	-0.115
-423.544	-131.995	-0.204	0.027
-422.530	-38.547	0.217	0.114
-421.515	102.009	-0.145	0.170
-420.500	89.483	0.240	0.268
-419.486	-82.649	0.118	0.038
-418.471	-200.000	-0.025	0.174
-417.457	98.329	-0.115	0.133
-416.442	30.435	-0.110	0.094
-415.428	58.371	-0.239	0.235
-414.413	322.801	0.055	-0.105
-413.398	66.000	-0.136	0.138
-412.384	800.000	-0.069	-0.287
-411.369	205.681	-0.006	-0.010
-410.355	-175.215	-0.167	-0.005
-409.340	-153.820	-0.188	-0.013
-408.325	-12.204	-0.072	0.047
-407.311	-26.264	-0.203	0.119
-406.296	-27.165	-0.181	-0.106
-405.282	25.086	-0.083	-0.069
-404.267	800.000	0.006	0.019
-403.252	304.771	0.042	-0.077
-402.238	275.717	-0.153	0.271
-401.223	-23.909	0.485	-0.290
-400.209	-28.934	-0.177	-0.102
-399.194	-51.384	-0.278	0.130
-398.179	-159.497	0.226	0.013
-397.165	136.456	0.213	0.278
-396.150	94.911	0.176	0.200
-395.136	-52.453	-0.244	-0.113
-394.121	243.504	-0.153	-0.257
-393.106	-106.369	-0.243	-0.054
-392.092	437.537	0.151	0.328
-391.077	68.852	0.306	-0.314
-390.063	-74.135	-0.083	0.030
-389.048	-99.325	-0.290	0.073
-388.033	-150.090	0.289	-0.022
-387.019	-131.437	0.178	-0.024
-386.004	-16.200	0.132	-0.084
-384.990	-166.396	-0.057	0.002
-383.975	-5.773	0.229	-0.157
-382.960	-169.313	0.311	0.011
-381.946	-104.774	0.212	-0.049
-380.931	-200.000	-0.007	-0.074
-379.917	-87.134	-0.371	-0.113
-378.902	-126.730	0.091	0.013
-377.888	-49.338	0.314	-0.150
-376.873	-200.000	-0.006	0.053
-375.858	-200.000	-0.013	0.274
-374.844	183.379	-0.174	-0.257
-373.829	800.000	-0.101	-0.303
-372.815	306.829	0.062	-0.114
-371.800	231.580	-0.154	0.252
-370.785	-30.373	-0.181	0.103
-369.771	-200.000	0.038	0.292
-368.756	800.000	-0.032	0.128
-367.742	486.391	0.065	-0.147
-366.727	198.244	0.093	-0.143
-365.712	-200.000	-0.022	0.288
-364.698	399.825	-0.116	0.243
-363.683	-200.000	0.005	-0.094
-362.669	423.043	0.049	0.104
-361.654	442.399	0.047	0.103
-360.639	800.000	0.043	-0.166
-359.625	800.000	0.096	-0.331
-358.610	800.000	-0.042	-0.122
-357.596	309.659	0.066	-0.124
-356.581	-151.055	0.251	0.019
-355.566	800.000	0.137	0.490
-354.552	800.000	-0.098	-0.366
-353.537	800.000	-0.051	-0.200
-352.523	-58.316	-0.291	0.126
-351.508	9.855	0.388	0.294
-350.493	-98.674	0.350	-0.089
-349.479	-142.443	-0.265	-0.026
-348.464	48.963	0.299	0.280
-347.450	263.918	0.121	0.211
-346.435	800.000	0.071	0.268
-345.420	135.461	-0.136	-0.177
-344.406	14.192	-0.275	-0.214
-343.391	800.000	-0.038	0.144
-342.377	15.521	-0.250	0.196
-341.362	-79.867	0.168	0.056
-340.348	800.000	-0.153	-0.529
-339.333	671.734	-0.038	0.098
-338.318	-133.261	0.506	-0.064
-337.304	-41.718	-0.125	-0.064
-336.289	-160.258	0.246	0.013
-335.275	83.247	0.088	0.096
-334.260	112.732	-0.125	-0.151
-333.245	800.000	-0.096	-0.331
-332.231	-191.089	0.046	0.000
-331.216	86.692	0.221	-0.243
-330.202	-200.000	-0.037	0.167
-329.187	444.947	-0.098	-0.216
-328.172	39.883	-0.218	-0.195
-327.158	-50.118	-0.045	-0.021
-326.143	-11.889	-0.247	0.161
-325.129	-21.066	-0.062	0.038
-324.114	22.154	0.145	0.118
-323.099	65.784	-0.074	0.075
-322.085	-177.666	-0.044	0.001
-321.070	-82.294	0.119	-0.039
-320.056	28.057	0.391	-0.329
-319.041	7.503	0.070	0.052
-318.026	-156.859	0.119	0.007
-317.012	-50.442	0.264	-0.124
-315.997	152.091	-0.128	-0.174
-314.983	-20.946	-0.161	0.098
-313.968	363.441	-0.067	-0.133
-312.953	-27.406	0.033	-0.019
-311.939	-108.043	-0.181	0.039
-310.924	-188.317	-0.164	0.002
-309.910	-123.717	-0.057	0.009
-308.895	-200.000	0.072	0.345
-307.880	-70.253	-0.352	0.133
-306.866	221.858	-0.095	-0.152
-305.851	142.109	0.093	0.123
-304.837	268.290	0.036	-0.063
-303.822	-138.907	0.214	0.023
-302.807	125.472	0.078	0.098
-301.793	102.759	0.175	0.204
-300.778	16.032	-0.087	-0.068
-299.764	-200.000	-0.004	-0.132
-298.749	-83.291	-0.316	-0.101
-297.735	779.236	-0.017	-0.045
-296.720	-200.000	0.046	-0.261
-295.705	142.832	-0.148	-0.195
-294.691	-200.000	-0.039	-0.240
-293.676	-52.616	0.444	0.204
-292.662	-200.000	-0.009	0.138
-291.647	-120.766	-0.049	-0.008
-290.632	527.706	-0.030	-0.071
-289.618	-116.559	0.385	0.071
-288.603	143.988	0.249	0.331
-287.589	-131.495	-0.107	-0.014
-286.574	-200.000	-0.015	-0.070
-285.559	-51.357	-0.398	0.185
-284.545	-200.000	0.021	0.200
-283.530	214.243	0.029	-0.046
-282.516	165.179	-0.148	0.208
-281.501	124.785	0.039	-0.049
-280.486	1.989	-0.088	-0.063
-279.472	237.356	0.073	-0.120
-278.457	800.000	0.038	0.148
-277.443	-43.414	-0.182	-0.091
-276.428	246.331	-0.172	-0.288
-275.413	4.324	-0.244	-0.177
-274.399	-105.052	0.338	-0.077
-273.384	122.243	0.063	-0.079
-272.370	697.993	0.090	0.235
-271.355	-200.000	-0.008	-0.174
-270.340	-94.960	0.116	0.031
-269.326	800.000	0.079	0.264
-268.311	-79.960	0.142	0.047
-267.297	109.150	-0.206	-0.245
-266.282	800.000	0.071	0.238
-265.267	800.000	0.028	0.121
-264.253	-72.480	-0.178	0.065
-263.238	-200.000	0.018	-0.199
-262.224	153.674	-0.139	0.190
-261.209	-47.129	0.414	0.201
-260.195	383.996	0.116	0.238
-259.180	16.033	-0.152	0.119
-258.165	-200.000	0.033	0.625
-257.151	85.874	0.200	-0.218
-256.136	-152.191	-0.128	-0.009
-255.122	-103.232	-0.088	0.021
-254.107	-131.183	0.293	0.039
-253.092	0.991	0.193	0.138
-252.078	-10.119	0.179	-0.118
-251.063	-49.401	0.204	-0.097
-250.049	258.419	-0.099	0.170
-249.034	-200.000	0.000	0.205
-248.019	214.852	-0.047	0.075
-247.005	-109.227	-0.168	-0.035
-245.990	-200.000	0.019	-0.143
-244.976	11.678	-0.395	-0.301
-243.961	181.464	-0.079	0.115
-242.946	-139.774	0.253	-0.027
-241.932	36.109	0.147	0.129
-240.917	-107.426	-0.269	-0.059
-239.903	175.708	-0.109	-0.157
-238.888	111.621	-0.280	-0.336
-237.873	-82.423	0.435	-0.140
-236.859	209.726	0.014	-0.021
-235.844	47.181	-0.281	-0.259
-234.830	-56.875	-0.325	0.143
-233.815	-200.000	0.029	-0.152
-232.800	-200.000	0.103	0.577
-231.786	106.527	0.055	-0.065
-230.771	173.155	-0.129	-0.184
-229.757	-53.538	-0.024	0.011
-228.742	800.000	0.034	0.123
-227.727	311.852	0.021	0.038
-226.713	-73.383	-0.276	0.100
-225.698	245.655	0.157	-0.263
-224.684	-53.897	0.400	0.181
-223.669	-40.907	-0.276	-0.142
-222.655	-17.610	0.146	-0.091
-221.640	-200.000	-0.005	0.192
-220.625	-38.743	0.162	-0.085
-219.611	800.000	0.051	-0.189
-218.596	-90.070	-0.305	0.088
-217.582	800.000	-0.062	0.259
-216.567	-200.000	-0.058	0.411
-215.552	-157.935	0.261	-0.015
-214.538	-107.352	-0.313	-0.068
-213.523	-140.083	-0.564	-0.059
-212.509	-200.000	-0.052	-0.253
-211.494	94.824	0.152	-0.172
-210.479	-3.021	0.250	0.173
-209.465	-200.000	0.038	-0.322
-208.450	83.295	0.214	0.232
-207.436	-179.755	0.139	-0.003
-206.421	-8.950	-0.058	-0.038
-205.406	-177.528	-0.361	0.009
-204.392	503.840	0.123	0.282
-203.377	654.012	0.091	0.231
-202.363	800.000	-0.072	-0.198
-201.348	-58.456	-0.043	-0.018
-200.333	386.279	0.055	-0.113
-199.319	233.155	-0.067	-0.109
-198.304	552.472	-0.013	-0.030
-197.290	331.378	0.209	-0.400
-196.275	-98.153	-0.046	-0.012
-195.260	236.048	-0.225	0.368
-194.246	-200.000	-0.028	-0.306
-193.231	-145.051	0.178	-0.016
-192.217	181.539	0.105	0.153
-191.202	265.738	0.183	-0.316
-190.187	-48.634	-0.118	0.056
-189.173	800.000	0.057	0.249
-188.158	81.610	0.037	0.040
-187.144	-151.095	0.207	0.015
-186.129	32.492	-0.163	0.140
-185.114	-160.378	0.487	-0.026
-184.100	-200.000	0.064	0.385
-183.085	-104.894	-0.416	-0.095
-182.071	58.226	0.077	0.075
-181.056	13.845	-0.204	-0.157
-180.042	-200.000	0.015	0.187
-179.027	398.330	-0.121	0.250
-178.012	-199.759	0.272	0.001
-176.998	160.386	0.205	0.284
-175.983	-81.616	-0.221	0.072
-174.969	-13.447	-0.452	-0.290
-173.954	248.401	-0.154	-0.258
-172.939	800.000	0.012	-0.054
-171.925	-40.037	-0.092	-0.048
-170.910	-24.685	0.137	0.081
-169.896	95.254	-0.057	0.064
-168.881	43.567	0.197	0.179
-167.866	54.140	0.064	-0.061
-166.852	800.000	-0.028	-0.118
-165.837	276.510	0.109	-0.191
-164.823	-200.000	-0.005	0.337
-163.808	-31.593	-0.264	-0.147
-162.793	-200.000	0.095	-0.439
-161.779	258.166	-0.101	-0.172
-160.764	-33.501	0.013	-0.007
-159.750	22.456	0.079	0.064
-158.735	2.834	-0.289	-0.207
-157.720	178.111	0.131	-0.189
-156.706	-200.000	0.025	0.189
-155.691	691.428	0.092	-0.240
-154.677	48.004	0.167	0.154
-153.662	800.000	-0.100	-0.392
-152.647	218.479	-0.157	-0.248
-151.633	33.491	-0.107	-0.092
-150.618	662.286	0.075	-0.191
-149.604	-200.000	0.011	-0.107
-148.589	-67.301	0.358	0.139
-147.574	466.714	0.098	0.216
-146.560	198.257	0.252	0.382
-145.545	123.806	0.207	-0.257
-144.531	504.097	0.106	0.244
-143.516	-44.158	-0.052	-0.026
-142.502	213.490	-0.120	-0.187
-141.487	304.151	-0.067	0.124
-140.472	111.481	0.305	0.364
-139.458	116.828	-0.076	-0.092
-138.443	-11.160	-0.284	-0.185
-137.429	50.535	-0.137	-0.128
-136.414	747.826	0.119	0.316
-135.399	-49.232	-0.164	0.077
-134.385	-80.271	-0.518	0.171
-133.370	29.371	0.056	0.047
-132.356	-200.000	-0.027	0.132
-131.341	-183.605	0.133	0.002
-130.326	-200.000	-0.023	0.109
-129.312	215.661	0.260	0.408
-128.297	307.811	-0.032	-0.060
-127.283	-16.999	-0.115	-0.072
-126.268	-200.000	0.184	0.001
-125.253	26.324	0.055	-0.045
-124.239	-127.761	-0.067	0.010
-123.224	-200.000	-0.012	0.283
-122.210	-85.345	0.244	-0.075
-121.195	-200.000	-0.040	0.268
