DTS Sentinel unit serial number:	SN413079Multiplexer serial number:	ORYXHardware model number:	OX4-SRSoftware version number:	ORYX F/W v4.00 Oryx Data Collector v3.7.2.0data status	okinstallation	princeton_trtdifferential loss correction	single-endedforward channel	channel 2reverse channel	N/Adate	2019/09/10time	19:49:11forward acquisition time	60.00reverse acquisition time	0.00gamma	496.2192k internal	0.2327k external	0.2327temperature offset calibration	0.9943default loss term (dB/km)	0.3790temperature slope calibration	1.0000multiplexer offset coefficient	1.0000multiplexer slope coefficient	1.0000fibre end	0.00T internal ref (°C)	32.94T ext. ref 1 (°C)	-0.31T ext. ref 2 (°C)	25.65length (m)	temperature (°C)	Stokes	anti-Stokes-747.200	-104.023	0.347	0.081
-746.185	800.000	-0.028	0.081
-745.171	-10.429	0.091	-0.061
-744.156	76.010	0.139	-0.148
-743.142	13.190	-0.209	-0.163
-742.127	-64.023	-0.269	0.111
-741.112	-47.295	-0.099	0.048
-740.098	-16.332	0.044	-0.028
-739.083	2.073	0.130	0.095
-738.069	38.611	-0.242	0.218
-737.054	-153.360	0.226	-0.016
-736.039	-200.000	0.011	-0.393
-735.025	-200.000	-0.071	0.313
-734.010	-22.406	-0.122	-0.074
-732.996	-200.000	0.001	-0.135
-731.981	70.053	0.013	0.014
-730.966	29.523	-0.522	-0.447
-729.952	-37.528	-0.144	-0.077
-728.937	-200.000	0.037	0.187
-727.923	-121.491	0.284	0.048
-726.908	-150.767	-0.164	-0.013
-725.894	-163.760	-0.289	0.014
-724.879	-200.000	0.012	0.275
-723.864	-138.450	-0.194	-0.021
-722.850	21.303	0.218	0.179
-721.835	81.429	-0.114	-0.125
-720.821	-81.531	-0.298	-0.099
-719.806	-125.077	0.276	0.043
-718.791	240.971	-0.217	-0.364
-717.777	-143.956	0.338	-0.032
-716.762	18.159	0.049	-0.040
-715.748	-128.025	0.018	-0.003
-714.733	-200.000	-0.039	-0.184
-713.718	29.419	-0.296	0.253
-712.704	95.077	0.195	0.224
-711.689	-200.000	-0.015	0.233
-710.675	-113.591	-0.391	0.077
-709.660	800.000	0.063	-0.206
-708.645	-111.611	0.314	0.064
-707.631	-34.527	0.098	0.054
-706.616	-27.807	-0.127	-0.074
-705.602	21.614	-0.316	-0.259
-704.587	-200.000	-0.030	0.215
-703.572	24.901	-0.473	0.395
-702.558	298.306	-0.157	0.290
-701.543	-107.474	0.185	0.041
-700.529	-200.000	-0.012	-0.089
-699.514	800.000	0.087	0.373
-698.499	-70.788	0.102	-0.039
-697.485	800.000	-0.056	0.239
-696.470	288.599	0.064	0.117
-695.456	-200.000	0.025	0.253
-694.441	56.108	-0.017	-0.017
-693.426	-167.881	0.123	-0.005
-692.412	-200.000	-0.009	0.412
-691.397	-84.310	-0.262	-0.083
-690.383	181.153	-0.159	-0.235
-689.368	-47.146	-0.092	-0.045
-688.354	520.314	0.144	0.340
-687.339	-91.256	-0.228	0.066
-686.324	-149.705	0.272	-0.021
-685.310	-11.708	-0.290	0.192
-684.295	-200.000	0.036	-0.163
-683.281	-33.789	0.293	0.163
-682.266	-200.000	-0.002	-0.217
-681.251	-5.810	-0.175	0.120
-680.237	-200.000	-0.208	0.000
-679.222	-181.257	0.099	0.002
-678.208	-43.462	-0.275	-0.140
-677.193	11.491	0.366	0.282
-676.178	-200.000	-0.009	-0.041
-675.164	-8.365	0.040	-0.027
-674.149	-143.173	0.167	-0.016
-673.135	-127.694	0.268	0.039
-672.120	800.000	-0.087	0.304
-671.105	-22.943	0.170	0.103
-670.091	-65.512	-0.194	0.078
-669.076	800.000	0.099	0.385
-668.062	-111.241	0.113	-0.023
-667.047	-78.845	0.291	0.100
-666.032	45.315	-0.103	-0.096
-665.018	23.734	0.327	-0.271
-664.003	20.690	-0.184	0.150
-662.989	246.446	0.068	0.115
-661.974	-200.000	-0.010	-0.089
-660.959	515.313	0.174	0.408
-659.945	110.424	-0.120	-0.145
-658.930	156.042	-0.022	-0.031
-657.916	475.457	0.172	0.390
-656.901	800.000	-0.030	-0.098
-655.886	26.329	0.289	-0.243
-654.872	154.941	0.126	0.175
-653.857	-94.932	-0.176	-0.048
-652.843	51.486	-0.119	-0.113
-651.828	26.237	-0.186	0.156
-650.814	-43.823	0.037	0.019
-649.799	-188.100	0.221	0.003
-648.784	319.875	0.113	-0.216
-647.770	800.000	0.089	-0.325
-646.755	3.125	-0.154	0.113
-645.741	-200.000	0.081	0.391
-644.726	-3.695	0.099	0.069
-643.711	-115.019	-0.323	-0.062
-642.697	34.014	0.192	-0.168
-641.682	143.652	0.228	0.304
-640.668	-133.062	-0.315	0.040
-639.653	-86.315	-0.043	0.013
-638.638	-149.423	-0.120	0.010
-637.624	-168.075	0.068	-0.003
-636.609	319.995	-0.056	-0.107
-635.595	-200.000	-0.013	0.209
-634.580	-160.570	0.190	-0.010
-633.565	25.736	0.396	0.331
-632.551	-144.840	0.054	-0.005
-631.536	-79.545	0.054	-0.018
-630.522	77.856	-0.177	0.189
-629.507	189.039	-0.162	-0.244
-628.492	-131.335	0.240	0.032
-627.478	55.008	-0.108	0.105
-626.463	-200.000	-0.034	0.351
-625.449	194.807	-0.346	-0.526
-624.434	48.146	-0.201	-0.188
-623.419	124.878	-0.222	-0.280
-622.405	98.371	-0.273	-0.316
-621.390	111.218	-0.103	0.124
-620.376	-63.420	-0.400	-0.165
-619.361	65.776	-0.039	-0.039
-618.346	-200.000	0.004	-0.204
-617.332	800.000	-0.076	-0.242
-616.317	17.516	-0.109	0.087
-615.303	31.121	-0.112	0.096
-614.288	208.384	0.147	-0.231
-613.273	783.559	0.112	0.309
-612.259	18.690	-0.101	0.081
-611.244	89.711	-0.074	0.083
-610.230	80.549	-0.079	-0.085
-609.215	83.269	0.068	-0.075
-608.201	38.513	-0.322	0.288
-607.186	-92.383	0.097	0.027
-606.171	193.677	-0.190	0.288
-605.157	28.303	0.243	-0.206
-604.142	38.289	0.110	0.098
-603.128	456.657	0.130	-0.288
-602.113	-121.613	-0.081	0.014
-601.098	220.545	0.036	0.058
-600.084	-159.061	0.283	0.016
-599.069	-48.193	-0.106	0.052
-598.055	-200.000	-0.003	-0.191
-597.040	-200.000	0.037	-0.172
-596.025	427.397	0.014	0.031
-595.011	469.941	0.103	0.232
-593.996	302.480	0.179	0.333
-592.982	-129.236	-0.249	-0.035
-591.967	-64.825	0.193	-0.078
-590.952	266.165	0.134	-0.234
-589.938	800.000	-0.123	0.365
-588.923	281.216	0.076	0.136
-587.909	800.000	0.042	-0.167
-586.894	-148.235	-0.176	0.015
-585.879	383.322	0.075	-0.156
-584.865	-86.629	0.348	0.107
-583.850	46.592	0.050	0.046
-582.836	-14.478	0.189	0.122
-581.821	-170.377	-0.481	-0.017
-580.806	800.000	-0.030	0.101
-579.792	-94.394	0.229	-0.063
-578.777	-141.238	0.105	-0.011
-577.763	585.990	0.151	0.371
-576.748	38.468	0.099	0.088
-575.733	-98.498	0.143	0.037
-574.719	52.349	-0.091	0.087
-573.704	-140.572	0.563	0.058
-572.690	93.911	-0.174	-0.197
-571.675	-0.043	-0.283	-0.201
-570.661	86.219	0.131	0.144
-569.646	-93.923	0.255	0.070
-568.631	311.250	-0.199	0.374
-567.617	-200.000	-0.031	-0.207
-566.602	-99.960	0.378	-0.094
-565.588	-87.714	-0.183	0.055
-564.573	-52.952	0.407	-0.187
-563.558	160.134	0.101	0.141
-562.544	-62.097	0.113	-0.047
-561.529	97.617	0.281	-0.323
-560.515	-54.026	0.293	-0.134
-559.500	73.481	0.127	-0.133
-558.485	160.276	0.163	0.227
-557.471	412.064	-0.048	-0.101
-556.456	800.000	-0.062	-0.175
-555.442	-200.000	-0.005	0.154
-554.427	1.815	0.186	0.134
-553.412	-24.077	0.109	-0.065
-552.398	-200.000	0.015	0.229
-551.383	-200.000	-0.010	0.125
-550.369	42.916	0.084	-0.076
-549.354	275.487	-0.125	-0.221
-548.339	81.059	-0.296	-0.320
-547.325	0.461	0.100	0.072
-546.310	-126.888	0.026	0.004
-545.296	800.000	0.031	-0.091
-544.281	-21.827	-0.144	0.088
-543.266	-200.000	-0.022	-0.129
-542.252	169.689	-0.167	-0.239
-541.237	262.837	-0.087	0.152
-540.223	182.860	-0.195	0.288
-539.208	800.000	0.072	-0.214
-538.193	69.716	-0.056	0.058
-537.179	174.622	0.102	-0.148
-536.164	800.000	-0.080	-0.245
-535.150	-200.000	0.024	0.229
-534.135	120.606	-0.078	0.097
-533.121	114.061	0.083	-0.101
-532.106	-55.286	-0.154	-0.069
-531.091	227.047	0.077	-0.124
-530.077	-153.905	-0.113	-0.008
-529.062	102.886	-0.070	-0.082
-528.048	94.721	-0.233	0.265
-527.033	120.382	0.157	0.195
-526.018	487.556	0.050	-0.113
-525.004	464.654	0.074	0.166
-523.989	-200.000	-0.010	0.127
-522.975	800.000	-0.056	-0.162
-521.960	-68.884	0.207	0.080
-520.945	221.771	-0.075	0.121
-519.931	454.554	-0.080	0.178
-518.916	204.170	0.128	-0.199
-517.902	-158.880	0.373	0.021
-516.887	-143.449	-0.151	0.014
-515.872	-200.000	-0.094	-0.645
-514.858	-200.000	0.027	0.132
-513.843	43.975	0.273	-0.250
-512.829	226.740	0.127	0.205
-511.814	37.546	0.049	-0.043
-510.799	-148.500	0.164	0.013
-509.785	85.473	0.244	0.268
-508.770	191.266	-0.062	0.093
-507.756	120.572	0.252	0.312
-506.741	31.390	-0.266	0.228
-505.726	-117.866	0.133	0.024
-504.712	-171.181	0.206	-0.007
-503.697	238.466	-0.109	0.181
-502.683	-100.830	-0.141	-0.035
-501.668	-75.885	0.232	0.082
-500.653	-200.000	-0.010	-0.126
-499.639	-6.610	0.107	-0.073
-498.624	-90.113	-0.077	0.022
-497.610	-2.844	-0.092	-0.064
-496.595	-200.000	-0.077	0.348
-495.581	-200.000	0.043	0.407
-494.566	68.338	-0.120	-0.123
-493.551	335.367	0.121	-0.235
-492.537	-148.567	-0.186	0.015
-491.522	671.912	0.063	-0.162
-490.508	-200.000	0.054	0.272
-489.493	-200.000	-0.001	0.102
-488.478	-27.341	-0.185	0.107
-487.464	155.415	-0.128	0.175
-486.449	85.777	-0.326	0.358
-485.435	-45.369	-0.102	-0.050
-484.420	-200.000	0.019	-0.121
-483.405	-70.875	-0.124	-0.047
-482.391	155.502	-0.111	0.153
-481.376	-200.000	0.000	-0.091
-480.362	-111.872	-0.104	-0.021
-479.347	-200.000	0.024	-0.235
-478.332	231.330	0.044	-0.072
-477.318	633.358	-0.078	-0.198
-476.303	360.469	-0.095	-0.189
-475.289	201.307	-0.043	0.066
-474.274	-14.086	-0.080	-0.052
-473.259	-17.157	-0.139	-0.087
-472.245	208.327	-0.151	-0.236
-471.230	237.449	0.127	-0.210
-470.216	-106.665	-0.541	0.120
-469.201	8.398	0.384	-0.288
-468.186	-4.253	0.133	0.092
-467.172	-200.000	0.004	-0.193
-466.157	-200.000	-0.073	-0.424
-465.143	-200.000	-0.023	0.113
-464.128	-59.717	0.350	0.149
-463.113	-200.000	0.017	0.295
-462.099	149.119	0.131	-0.177
-461.084	215.250	-0.070	0.110
-460.070	-103.406	-0.254	-0.060
-459.055	245.663	0.229	0.385
-458.040	351.318	0.029	0.057
-457.026	1.989	-0.072	0.052
-456.011	-177.103	0.002	0.000
-454.997	171.346	0.131	-0.188
-453.982	536.815	-0.019	-0.044
-452.968	-200.000	-0.010	-0.340
-451.953	176.804	-0.134	0.194
-450.938	343.522	-0.039	-0.075
-449.924	179.034	-0.214	0.311
-448.909	121.526	-0.101	-0.126
-447.895	-133.316	-0.179	-0.023
-446.880	-17.130	-0.075	-0.047
-445.865	-117.327	-0.327	-0.059
-444.851	-148.290	-0.228	0.019
-443.836	-129.979	-0.054	0.007
-442.822	-143.132	-0.173	-0.017
-441.807	619.357	-0.076	0.190
-440.792	74.081	-0.155	0.162
-439.778	86.857	-0.162	0.178
-438.763	-200.000	-0.010	-0.109
-437.749	358.696	0.166	0.329
-436.734	279.103	-0.204	-0.362
-435.719	34.884	-0.325	-0.283
-434.705	440.303	-0.096	-0.210
-433.690	-55.146	-0.085	0.038
-432.676	512.792	0.198	-0.459
-431.661	800.000	-0.076	0.267
-430.646	-200.000	-0.020	0.221
-429.632	128.384	-0.047	-0.060
-428.617	-76.780	0.163	-0.057
-427.603	-108.976	-0.137	0.029
-426.588	-102.645	0.110	0.026
-425.573	800.000	-0.031	0.119
-424.559	-131.069	-0.141	0.019
-423.544	-200.000	0.003	-0.042
-422.530	-66.708	0.291	-0.115
-421.515	600.397	0.135	-0.335
-420.500	-151.997	-0.170	0.012
-419.486	800.000	0.068	-0.238
-418.471	-71.931	-0.271	0.100
-417.457	-63.086	0.176	-0.072
-416.442	-56.727	0.263	0.116
-415.428	800.000	0.047	-0.150
-414.413	8.264	0.127	-0.095
-413.398	54.179	0.106	0.102
-412.384	233.248	0.034	-0.055
-411.369	-105.564	0.328	-0.074
-410.355	-92.094	-0.159	0.045
-409.340	230.575	-0.194	0.315
-408.325	-116.661	-0.238	0.043
-407.311	-66.328	-0.488	0.193
-406.296	413.026	0.256	0.541
-405.282	91.573	-0.139	0.156
-404.267	24.615	-0.272	0.224
-403.252	-76.638	0.283	0.099
-402.238	-32.257	-0.153	0.085
-401.223	-133.196	0.281	-0.035
-400.209	-83.065	-0.152	0.049
-399.194	74.616	0.254	-0.266
-398.179	523.269	-0.135	-0.316
-397.165	-41.639	-0.328	0.168
-396.150	-200.000	-0.031	0.310
-395.136	2.658	-0.133	-0.096
-394.121	800.000	-0.046	0.133
-393.106	-200.000	-0.008	0.301
-392.092	800.000	0.126	0.379
-391.077	51.338	0.078	0.074
-390.063	176.273	-0.139	-0.201
-389.048	-133.209	0.450	0.057
-388.033	20.600	-0.097	-0.078
-387.019	-132.472	-0.328	-0.042
-386.004	78.872	-0.138	-0.147
-384.990	35.189	-0.237	0.207
-383.975	-52.121	0.360	-0.166
-382.960	85.123	0.136	0.148
-381.946	-27.078	-0.357	0.207
-380.931	800.000	0.019	-0.053
-379.917	151.929	-0.227	-0.307
-378.902	-100.904	0.076	-0.019
-377.888	-8.878	0.162	0.108
-376.873	264.273	-0.103	0.178
-375.858	800.000	-0.056	0.196
-374.844	-200.000	0.061	0.472
-373.829	171.789	-0.201	0.287
-372.815	800.000	0.016	0.062
-371.800	-158.922	0.317	-0.018
-370.785	-200.000	0.042	0.269
-369.771	625.317	-0.062	0.154
-368.756	112.678	0.065	-0.078
-367.742	-163.570	-0.473	-0.022
-366.727	-32.077	0.275	0.153
-365.712	-51.365	0.405	-0.188
-364.698	-45.301	0.352	-0.174
-363.683	191.884	0.051	0.077
-362.669	-1.293	-0.170	0.119
-361.654	-23.199	-0.273	0.163
-360.639	-133.315	0.128	-0.016
-359.625	10.496	-0.273	-0.206
-358.610	800.000	-0.064	0.218
-357.596	16.681	-0.190	0.149
-356.581	52.182	-0.044	0.042
-355.566	231.655	-0.051	-0.083
-354.552	-43.476	0.094	0.047
-353.537	-112.921	-0.037	-0.007
-352.523	78.736	-0.191	-0.203
-351.508	-47.294	-0.035	-0.017
-350.493	-200.000	-0.024	-0.346
-349.479	-108.625	0.318	0.068
-348.464	4.155	-0.175	-0.127
-347.450	-9.901	0.080	-0.053
-346.435	1.628	0.358	-0.256
-345.420	-200.000	-0.007	0.081
-344.406	800.000	-0.076	0.274
-343.391	-102.968	0.074	-0.017
-342.377	800.000	0.136	-0.489
-341.362	-64.811	0.202	-0.081
-340.348	-122.284	-0.166	0.027
-339.333	492.989	0.111	-0.253
-338.318	-138.362	-0.311	-0.034
-337.304	188.962	-0.063	0.093
-336.289	800.000	0.049	-0.171
-335.275	80.291	-0.202	-0.216
-334.260	-96.433	-0.118	-0.031
-333.245	390.959	-0.096	0.197
-332.231	-173.061	0.319	-0.010
-331.216	-200.000	-0.021	0.355
-330.202	-14.046	-0.172	0.110
-329.187	-86.162	-0.366	-0.112
-328.172	-109.759	-0.173	-0.036
-327.158	311.987	0.142	0.264
-326.143	238.120	0.077	-0.126
-325.129	27.871	-0.106	-0.089
-324.114	38.530	0.114	-0.101
-323.099	75.847	-0.102	-0.107
-322.085	244.508	0.179	0.298
-321.070	-6.684	0.076	0.052
-320.056	-102.810	0.202	-0.048
-319.041	13.724	-0.133	-0.102
-318.026	800.000	0.052	0.155
-317.012	-49.494	-0.049	0.023
-315.997	127.156	0.190	-0.239
-314.983	90.339	-0.190	0.211
-313.968	-116.785	-0.285	0.052
-312.953	-200.000	-0.001	-0.086
-311.939	-100.074	0.449	-0.111
-310.924	-9.852	0.274	-0.181
-309.910	-78.376	0.053	0.018
-308.895	-200.000	-0.036	-0.325
-307.880	-59.136	0.152	-0.065
-306.866	-127.702	-0.315	-0.045
-305.851	800.000	0.014	-0.051
-304.837	11.769	0.193	0.147
-303.822	85.432	-0.092	-0.100
-302.807	-200.000	-0.038	-0.174
-301.793	108.615	0.055	-0.065
-300.778	-162.967	0.371	0.018
-299.764	12.123	0.346	-0.264
-298.749	-200.000	0.030	0.305
-297.735	-200.000	0.043	-0.205
-296.720	-129.761	-0.141	-0.019
-295.705	-171.600	0.273	0.009
-294.691	-78.613	0.142	-0.048
-293.676	-163.509	0.214	-0.010
-292.662	-165.804	-0.347	-0.015
-291.647	800.000	-0.137	-0.498
-290.632	46.632	0.340	-0.312
-289.618	309.214	-0.106	0.195
-288.603	-119.968	-0.321	-0.055
-287.589	199.580	-0.007	-0.011
-286.574	-8.007	-0.371	0.247
-285.559	-118.700	-0.182	-0.032
-284.545	-28.008	-0.245	-0.140
-283.530	800.000	-0.024	0.066
-282.516	3.913	-0.247	0.178
-281.501	-200.000	-0.017	0.308
-280.486	-200.000	0.004	0.197
-279.472	-131.444	0.323	-0.042
-278.457	-161.675	0.326	0.016
-277.443	93.116	0.186	-0.208
-276.428	-131.672	0.113	-0.015
-275.413	-86.963	-0.109	0.033
-274.399	-176.272	-0.361	-0.009
-273.384	-28.409	-0.246	0.141
-272.370	800.000	-0.056	0.172
-271.355	800.000	-0.114	-0.422
-270.340	271.562	-0.087	0.152
-269.326	-43.924	0.132	0.066
-268.311	800.000	-0.025	-0.097
-267.297	198.137	0.083	0.126
-266.282	-53.656	0.014	0.006
-265.267	-83.959	-0.280	0.088
-264.253	-64.420	-0.286	0.115
-263.238	800.000	0.052	-0.224
-262.224	800.000	0.064	0.186
-261.209	-77.838	0.335	0.115
-260.195	800.000	-0.024	0.099
-259.180	36.824	-0.329	0.288
-258.165	132.817	-0.188	0.239
-257.151	-200.000	0.006	-0.044
-256.136	2.573	0.113	0.081
-255.122	-27.930	-0.035	-0.020
-254.107	463.113	-0.107	-0.235
-253.092	800.000	-0.081	-0.261
-252.078	66.484	0.309	0.311
-251.063	800.000	0.098	0.304
-250.049	-200.000	-0.054	-0.315
-249.034	191.219	0.018	-0.026
-248.019	72.878	-0.020	-0.020
-247.005	451.790	0.050	-0.109
-245.990	63.332	0.247	-0.245
-244.976	-8.302	-0.154	0.102
-243.961	-7.962	-0.226	0.151
-242.946	800.000	-0.038	0.146
-241.932	195.865	0.106	0.159
-240.917	-195.470	0.393	0.003
-239.903	-145.883	0.242	0.021
-238.888	-200.000	0.093	-0.566
-237.873	-86.847	0.261	0.079
-236.859	-200.000	-0.028	0.186
-235.844	222.529	-0.081	-0.128
-234.830	-7.696	0.166	-0.111
-233.815	43.571	-0.140	-0.126
-232.800	215.546	-0.113	-0.177
-231.786	58.378	-0.205	-0.199
-230.771	-130.737	0.389	-0.052
-229.757	-122.863	0.137	-0.022
-228.742	800.000	0.075	-0.304
-227.727	318.364	-0.079	-0.149
-226.713	-142.184	-0.084	-0.008
-225.698	70.835	-0.262	-0.268
-224.684	-48.634	-0.199	-0.094
-223.669	800.000	0.019	0.054
-222.655	-191.422	0.316	0.003
-221.640	322.004	0.127	0.239
-220.625	55.452	-0.306	0.292
-219.611	421.307	0.111	0.235
-218.596	-55.057	-0.178	0.079
-217.582	320.808	-0.025	0.047
-216.567	201.282	0.221	-0.336
-215.552	86.947	-0.296	0.323
-214.538	145.252	-0.075	0.099
-213.523	-97.741	0.361	0.092
-212.509	19.135	0.059	0.047
-211.494	-200.000	0.022	-0.218
-210.479	800.000	-0.010	0.041
-209.465	-133.437	-0.084	0.010
-208.450	241.972	-0.083	-0.137
-207.436	334.106	0.076	-0.146
-206.421	800.000	-0.090	0.315
-205.406	800.000	0.039	0.119
-204.392	-50.142	-0.215	-0.100
-203.377	-200.000	-0.001	0.044
-202.363	448.167	0.076	0.165
-201.348	139.872	0.080	-0.104
-200.333	-22.450	0.200	-0.120
-199.319	599.647	-0.098	0.239
-198.304	-200.000	-0.018	0.308
-197.290	567.274	0.077	0.184
-196.275	-60.920	0.188	0.078
-195.260	138.983	0.034	-0.044
-194.246	143.441	0.078	0.103
-193.231	-81.689	0.211	0.068
-192.217	-200.000	-0.011	-0.079
-191.202	-200.000	0.015	-0.093
-190.187	-18.666	0.417	-0.256
-189.173	302.362	0.078	-0.142
-188.158	-52.177	-0.167	0.076
-187.144	-103.638	0.161	0.037
-186.129	-41.025	-0.381	0.194
-185.114	-200.000	0.020	-0.279
-184.100	800.000	-0.081	-0.232
-183.085	-105.725	0.208	0.046
-182.071	49.875	0.081	0.076
-181.056	-81.743	-0.302	0.098
-180.042	-102.476	0.227	0.053
-179.027	-93.366	-0.231	-0.063
-178.012	658.154	0.072	-0.183
-176.998	-45.907	0.089	0.043
-175.983	-200.000	0.043	-0.238
-174.969	-200.000	0.042	-0.239
-173.954	800.000	-0.063	0.194
-172.939	-134.807	0.428	0.051
-171.925	800.000	-0.047	-0.189
-170.910	-45.982	0.153	-0.074
-169.896	-81.058	-0.326	-0.106
-168.881	-65.909	-0.210	-0.083
-167.866	-200.000	0.009	-0.334
-166.852	-50.910	0.310	-0.144
-165.837	-45.159	-0.363	-0.178
-164.823	754.829	-0.066	-0.177
-163.808	-96.730	0.438	-0.114
-162.793	4.538	-0.286	-0.207
-161.779	-200.000	0.021	0.229
-160.764	131.497	0.111	0.140
-159.750	-200.000	-0.023	0.144
-158.735	1.749	0.084	-0.060
-157.720	451.174	0.088	0.192
-156.706	-12.541	0.087	0.056
-155.691	-102.075	-0.332	-0.079
-154.677	22.815	0.301	-0.243
-153.662	-110.532	0.366	0.075
-152.647	-1.940	-0.092	0.064
-151.633	-61.593	-0.127	-0.052
-150.618	-200.000	-0.050	-0.247
-149.604	197.558	-0.175	0.264
-148.589	388.078	0.211	0.431
-147.574	181.681	0.175	-0.254
-146.560	244.100	0.131	0.217
-145.545	64.726	0.213	0.211
-144.531	31.889	-0.167	-0.141
-143.516	-94.141	-0.361	0.098
-142.502	-27.469	0.285	0.163
-141.487	-44.715	0.150	-0.074
-140.472	86.392	0.109	-0.118
-139.458	792.658	-0.038	0.104
-138.443	132.635	0.151	0.191
-137.429	-161.468	0.378	0.019
-136.414	22.072	0.046	0.037
-135.399	47.954	0.189	0.174
-134.385	-200.000	0.020	0.138
-133.370	-39.041	0.481	0.249
-132.356	-69.926	-0.391	0.147
-131.341	-30.996	-0.199	0.111
-130.326	267.630	0.120	0.206
-129.312	198.223	-0.292	0.440
-128.297	280.038	-0.170	-0.298
-127.283	200.041	0.077	0.117
-126.268	-200.000	-0.010	-0.080
-125.253	-72.544	0.095	-0.034
-124.239	566.295	-0.095	0.228
-123.224	-200.000	0.007	0.090
-122.210	-37.836	-0.157	-0.082
-121.195	407.610	0.061	0.127
-120.180	-200.000	0.000	0.007
