DTS Sentinel unit serial number:	SN413079Multiplexer serial number:	ORYXHardware model number:	OX4-SRSoftware version number:	ORYX F/W v4.00 Oryx Data Collector v3.7.2.0data status	okinstallation	princeton_trtdifferential loss correction	single-endedforward channel	channel 2reverse channel	N/Adate	2019/09/19time	08:11:35forward acquisition time	60.00reverse acquisition time	0.00gamma	496.2192k internal	0.2352k external	0.2352temperature offset calibration	1.0005default loss term (dB/km)	0.3790temperature slope calibration	1.0000multiplexer offset coefficient	1.0000multiplexer slope coefficient	1.0000fibre end	0.00T internal ref (°C)	20.12T ext. ref 1 (°C)	0.56T ext. ref 2 (°C)	15.80length (m)	temperature (°C)	Stokes	anti-Stokes-747.200	-19.969	0.152	0.093
-746.185	72.564	0.177	0.185
-745.171	21.317	-0.392	0.318
-744.156	800.000	0.081	0.234
-743.142	213.154	0.013	0.021
-742.127	-70.727	-0.462	0.174
-741.112	49.421	0.244	0.229
-740.098	-200.000	-0.011	-0.230
-739.083	322.584	-0.055	-0.104
-738.069	-183.307	-0.181	0.003
-737.054	-44.443	0.037	-0.018
-736.039	490.615	-0.212	-0.483
-735.025	619.803	0.117	0.292
-734.010	606.662	-0.191	-0.475
-732.996	-200.000	0.089	-0.461
-731.981	-60.493	-0.103	0.044
-730.966	-200.000	-0.041	0.328
-729.952	35.998	-0.336	-0.294
-728.937	152.719	0.306	0.417
-727.923	-158.339	0.430	0.025
-726.908	-54.673	-0.244	0.110
-725.894	-126.510	-0.310	0.046
-724.879	-107.695	0.237	0.052
-723.864	86.906	0.110	0.121
-722.850	300.814	-0.041	0.075
-721.835	-63.235	0.257	-0.106
-720.821	-200.000	0.002	0.217
-719.806	-183.023	0.086	0.002
-718.791	47.193	-0.155	-0.144
-717.777	30.540	-0.107	0.091
-716.762	-53.004	0.241	-0.110
-715.748	-63.507	0.297	-0.122
-714.733	-44.036	-0.274	-0.137
-713.718	-78.034	0.377	-0.130
-712.704	-31.737	-0.165	-0.092
-711.689	144.158	-0.157	-0.209
-710.675	-12.686	0.316	-0.205
-709.660	385.199	0.059	0.121
-708.645	-57.274	0.104	0.046
-707.631	213.947	0.079	0.125
-706.616	-200.000	-0.007	-0.081
-705.602	0.249	-0.108	-0.077
-704.587	-149.947	0.277	0.022
-703.572	-57.442	0.090	-0.040
-702.558	-43.597	-0.077	0.039
-701.543	-45.809	0.279	-0.137
-700.529	160.932	-0.126	0.175
-699.514	111.815	-0.092	-0.111
-698.499	140.234	0.190	-0.250
-697.485	-70.724	-0.387	0.145
-696.470	-38.288	-0.216	-0.114
-695.456	-178.509	0.208	0.005
-694.441	-90.638	-0.181	-0.052
-693.426	800.000	0.067	-0.191
-692.412	-75.802	0.162	-0.057
-691.397	29.333	0.194	-0.164
-690.383	800.000	-0.109	-0.476
-689.368	566.091	0.127	-0.306
-688.354	-44.556	-0.366	-0.182
-687.339	-69.275	-0.315	0.120
-686.324	355.719	0.110	0.218
-685.310	276.903	0.106	-0.188
-684.295	52.441	-0.170	-0.162
-683.281	27.698	0.162	-0.136
-682.266	-143.324	0.436	-0.042
-681.251	-37.580	-0.191	0.101
-680.237	203.820	0.076	0.117
-679.222	31.755	0.140	0.120
-678.208	-52.211	0.151	0.070
-677.193	9.804	-0.101	0.076
-676.178	-82.899	0.080	-0.026
-675.164	298.464	-0.007	-0.012
-674.149	-169.475	-0.565	-0.021
-673.135	144.856	-0.161	0.215
-672.120	294.225	0.215	-0.391
-671.105	-78.779	-0.274	-0.093
-670.091	203.938	-0.029	0.045
-669.076	-68.908	-0.118	-0.045
-668.062	-200.000	-0.015	-0.156
-667.047	-70.812	-0.165	0.062
-666.032	-73.038	-0.148	0.054
-665.018	16.335	0.228	-0.179
-664.003	676.257	-0.068	-0.177
-662.989	-2.099	-0.162	-0.113
-661.974	-105.929	-0.303	-0.068
-660.959	49.482	-0.194	0.181
-659.945	-108.470	-0.282	0.060
-658.930	152.004	0.219	-0.296
-657.916	12.291	0.102	-0.078
-656.901	54.464	0.134	-0.128
-655.886	-34.111	-0.078	-0.043
-654.872	-4.119	-0.134	0.092
-653.857	-68.025	0.243	0.094
-652.843	-200.000	0.026	0.125
-651.828	686.412	-0.011	-0.028
-650.814	-200.000	0.002	-0.268
-649.799	1.217	0.269	-0.192
-648.784	19.845	0.053	-0.042
-647.770	727.484	-0.193	0.511
-646.755	40.299	0.119	-0.107
-645.741	106.662	0.150	0.176
-644.726	-127.731	0.326	-0.047
-643.711	126.967	-0.148	-0.186
-642.697	150.066	0.194	-0.261
-641.682	-141.338	-0.101	-0.010
-640.668	-64.421	-0.048	-0.019
-639.653	-171.597	-0.305	-0.010
-638.638	-60.458	-0.241	-0.102
-637.624	-50.992	-0.066	-0.031
-636.609	800.000	-0.064	0.203
-635.595	70.180	0.161	-0.165
-634.580	119.232	0.126	0.155
-633.565	-141.754	0.327	-0.033
-632.551	21.967	0.081	-0.066
-631.536	168.150	-0.020	0.028
-630.522	-154.154	0.287	0.019
-629.507	800.000	0.120	-0.418
-628.492	150.676	-0.076	0.102
-627.478	800.000	0.038	-0.128
-626.463	-90.849	-0.122	0.035
-625.449	-105.508	0.215	0.048
-624.434	-84.060	0.217	-0.068
-623.419	63.399	0.293	0.291
-622.405	-129.162	0.338	0.047
-621.390	-200.000	0.004	-0.103
-620.376	-200.000	-0.001	-0.025
-619.361	89.487	-0.217	-0.240
-618.346	-200.000	-0.034	-0.160
-617.332	14.342	0.122	-0.095
-616.317	-200.000	0.018	0.104
-615.303	-200.000	-0.043	0.374
-614.288	123.373	-0.040	0.050
-613.273	131.161	-0.108	0.138
-612.259	-111.404	-0.122	0.025
-611.244	85.566	-0.240	0.262
-610.230	-110.836	0.085	-0.017
-609.215	-1.687	0.062	-0.043
-608.201	-33.929	-0.300	-0.164
-607.186	-86.186	-0.078	0.024
-606.171	141.881	0.072	0.095
-605.157	-80.157	-0.065	-0.022
-604.142	594.351	-0.178	0.436
-603.128	-103.222	-0.118	-0.028
-602.113	728.360	0.155	-0.411
-601.098	56.116	-0.028	0.027
-600.084	800.000	0.023	-0.083
-599.069	65.681	-0.137	-0.137
-598.055	700.635	-0.119	0.311
-597.040	-200.000	0.027	-0.172
-596.025	677.435	0.084	0.218
-595.011	457.348	-0.064	-0.140
-593.996	-56.277	-0.325	0.143
-592.982	-119.358	-0.113	-0.020
-591.967	276.215	-0.087	-0.153
-590.952	67.827	-0.188	-0.190
-589.938	101.928	-0.076	-0.088
-588.923	26.884	-0.165	0.137
-587.909	243.223	-0.034	-0.056
-586.894	55.239	0.076	0.073
-585.879	-8.929	0.094	0.063
-584.865	-112.492	0.177	-0.035
-583.850	-151.283	-0.158	-0.012
-582.836	21.616	0.151	0.121
-581.821	-60.147	-0.532	-0.225
-580.806	-200.000	0.022	0.256
-579.792	-70.247	-0.226	0.085
-578.777	22.103	0.021	-0.017
-577.763	69.666	-0.159	-0.162
-576.748	-22.484	-0.309	-0.185
-575.733	-200.000	0.002	-0.331
-574.719	-46.755	-0.047	0.023
-573.704	-90.429	-0.221	0.064
-572.690	-200.000	-0.033	-0.225
-571.675	40.075	0.230	-0.205
-570.661	161.673	-0.173	-0.240
-569.646	290.703	-0.097	0.174
-568.631	-28.292	0.190	0.109
-567.617	26.403	0.219	0.181
-566.602	161.105	0.160	-0.221
-565.588	-200.000	0.015	-0.352
-564.573	800.000	0.062	-0.235
-563.558	69.882	-0.252	-0.258
-562.544	16.426	-0.113	0.088
-561.529	167.175	0.162	-0.228
-560.515	-188.664	-0.251	-0.003
-559.500	800.000	-0.084	-0.355
-558.485	-198.128	0.213	0.001
-557.471	25.171	-0.174	-0.143
-556.456	-63.242	-0.097	0.040
-555.442	-200.000	0.037	0.310
-554.427	-200.000	-0.005	0.338
-553.412	-200.000	-0.001	-0.077
-552.398	18.254	-0.169	-0.134
-551.383	-200.000	0.041	0.366
-550.369	-95.375	-0.280	-0.074
-549.354	-200.000	0.252	0.001
-548.339	-65.665	-0.311	0.124
-547.325	-132.577	-0.266	0.034
-546.310	-19.376	0.246	-0.151
-545.296	202.745	-0.050	0.076
-544.281	-200.000	-0.055	0.245
-543.266	-68.593	0.310	-0.119
-542.252	-200.000	0.044	-0.200
-541.237	-55.656	0.145	-0.064
-540.223	-200.000	0.036	0.274
-539.208	-200.000	0.035	0.245
-538.193	-12.376	-0.213	-0.138
-537.179	800.000	0.030	-0.118
-536.164	-27.808	0.111	-0.064
-535.150	-63.751	-0.030	-0.012
-534.135	211.133	0.122	-0.190
-533.121	186.880	-0.057	-0.084
-532.106	-102.513	0.103	0.024
-531.091	723.379	0.032	-0.084
-530.077	-200.000	-0.028	-0.197
-529.062	-76.638	0.055	-0.019
-528.048	74.092	0.400	-0.415
-527.033	351.638	0.143	-0.280
-526.018	254.940	0.199	0.337
-525.004	-35.763	-0.079	-0.043
-523.989	164.075	0.046	-0.064
-522.975	800.000	-0.064	-0.201
-521.960	800.000	-0.076	0.216
-520.945	-170.877	0.262	-0.009
-519.931	-74.722	-0.233	0.083
-518.916	-149.341	-0.299	-0.024
-517.902	-151.479	-0.135	-0.010
-516.887	-11.981	0.094	-0.061
-515.872	-17.802	0.174	0.108
-514.858	-178.443	-0.392	-0.009
-513.843	800.000	-0.107	-0.327
-512.829	-200.000	0.016	0.150
-511.814	-24.737	-0.078	-0.046
-510.799	367.988	-0.108	0.215
-509.785	17.226	0.219	-0.171
-508.770	800.000	-0.114	0.333
-507.756	643.326	-0.093	-0.234
-506.741	-200.000	-0.028	0.404
-505.726	-51.766	0.062	0.028
-504.712	-77.713	0.181	0.062
-503.697	-129.456	0.200	-0.027
-502.683	369.067	0.101	0.202
-501.668	-61.303	-0.238	-0.099
-500.653	306.698	-0.128	-0.236
-499.639	415.047	0.063	0.133
-498.624	576.671	-0.142	-0.343
-497.610	-200.000	-0.010	-0.189
-496.595	-30.820	-0.139	-0.077
-495.581	-126.821	-0.472	0.069
-494.566	-90.127	0.236	0.068
-493.551	-200.000	-0.108	-0.485
-492.537	-44.026	0.366	-0.181
-491.522	3.586	-0.068	0.049
-490.508	87.604	-0.084	0.092
-489.493	15.248	-0.344	0.267
-488.478	18.276	-0.201	0.158
-487.464	-118.141	-0.239	0.042
-486.449	-43.775	0.261	-0.130
-485.435	-18.456	-0.177	-0.109
-484.420	264.053	0.184	0.316
-483.405	-60.766	0.323	-0.135
-482.391	-7.552	-0.230	0.154
-481.376	88.038	-0.216	-0.236
-480.362	-99.806	-0.101	0.025
-479.347	271.797	-0.129	-0.224
-478.332	53.552	0.310	0.293
-477.318	-77.728	0.283	-0.097
-476.303	-59.375	0.098	-0.041
-475.289	179.579	0.090	0.130
-474.274	214.614	0.051	-0.080
-473.259	-139.705	-0.268	0.028
-472.245	-45.268	0.255	0.125
-471.230	-95.674	-0.144	-0.038
-470.216	-124.616	-0.217	-0.033
-469.201	-200.000	0.079	0.359
-468.186	-200.000	0.044	-0.269
-467.172	92.207	0.334	0.371
-466.157	-83.096	-0.157	-0.050
-465.143	-122.622	0.217	0.035
-464.128	800.000	0.022	0.089
-463.113	15.289	0.060	-0.046
-462.099	-93.342	-0.108	-0.029
-461.084	-109.144	0.061	0.013
-460.070	-200.000	-0.012	0.272
-459.055	-200.000	0.040	0.198
-458.040	67.395	0.189	0.190
-457.026	800.000	0.029	-0.107
-456.011	-91.340	-0.203	-0.057
-454.997	-200.000	0.025	-0.433
-453.982	-77.139	-0.276	0.095
-452.968	25.723	0.218	0.179
-451.953	-73.603	0.258	-0.093
-450.938	78.140	0.099	-0.104
-449.924	108.136	0.183	0.215
-448.909	-134.874	0.350	-0.042
-447.895	800.000	0.021	-0.068
-446.880	-90.413	-0.390	-0.111
-445.865	0.531	0.137	-0.096
-444.851	290.904	0.040	-0.071
-443.836	617.220	0.145	-0.360
-442.822	68.933	-0.157	-0.159
-441.807	-148.637	-0.084	0.007
-440.792	-200.000	-0.037	-0.237
-439.778	800.000	-0.113	0.317
-438.763	-116.021	0.286	-0.053
-437.749	-132.826	0.180	0.023
-436.734	-200.000	0.047	-0.406
-435.719	-33.481	0.228	-0.124
-434.705	-200.000	-0.004	0.029
-433.690	-20.717	-0.120	0.073
-432.676	-107.611	0.166	-0.036
-431.661	-25.726	0.350	0.203
-430.646	-33.902	-0.208	0.113
-429.632	800.000	-0.026	0.089
-428.617	-37.500	-0.175	0.092
-427.603	11.577	0.116	0.088
-426.588	-200.000	-0.033	0.272
-425.573	-197.236	-0.254	-0.002
-424.559	51.165	0.136	-0.127
-423.544	-0.901	-0.263	0.183
-422.530	-164.793	0.142	0.006
-421.515	800.000	-0.119	0.399
-420.500	-200.000	0.004	0.282
-419.486	-112.337	-0.156	0.031
-418.471	373.867	0.032	0.064
-417.457	59.554	0.170	-0.165
-416.442	171.984	-0.193	-0.273
-415.428	800.000	0.028	-0.089
-414.413	238.155	0.061	0.100
-413.398	105.991	-0.119	-0.138
-412.384	24.543	-0.163	0.133
-411.369	-21.386	-0.233	-0.140
-410.355	18.800	0.344	0.271
-409.340	443.210	0.118	-0.255
-408.325	-200.000	-0.048	0.212
-407.311	176.098	-0.056	0.081
-406.296	50.424	-0.063	-0.059
-405.282	-15.174	-0.095	-0.060
-404.267	-61.365	0.175	-0.072
-403.252	-19.530	-0.056	-0.034
-402.238	131.723	0.090	0.113
-401.223	160.604	-0.145	-0.200
-400.209	800.000	-0.058	0.171
-399.194	-28.499	0.192	0.109
-398.179	800.000	-0.148	0.413
-397.165	-200.000	0.014	-0.135
-396.150	-80.774	-0.040	0.013
-395.136	219.172	0.103	0.162
-394.121	-105.959	0.115	0.026
-393.106	504.785	-0.041	-0.093
-392.092	800.000	-0.026	0.079
-391.077	-71.961	0.161	-0.059
-390.063	554.790	0.090	0.214
-389.048	-106.026	-0.343	-0.076
-388.033	0.293	-0.133	-0.094
-387.019	800.000	0.039	-0.123
-386.004	21.055	0.087	0.069
-384.990	-100.528	-0.098	0.024
-383.975	239.330	0.099	0.162
-382.960	105.779	-0.091	-0.106
-381.946	-47.519	0.125	-0.060
-380.931	-148.227	-0.021	0.002
-379.917	800.000	0.048	0.154
-378.902	800.000	0.034	0.099
-377.888	91.439	-0.136	0.150
-376.873	-12.700	-0.172	0.110
-375.858	155.590	0.038	-0.052
-374.844	201.507	-0.098	-0.149
-373.829	-4.032	-0.234	-0.160
-372.815	-86.512	0.565	-0.170
-371.800	-142.868	-0.122	-0.012
-370.785	-71.709	-0.189	0.069
-369.771	77.904	-0.076	-0.079
-368.756	21.334	0.088	-0.070
-367.742	-73.139	-0.166	0.060
-366.727	-39.193	-0.138	0.071
-365.712	24.047	0.146	0.119
-364.698	-200.000	0.006	0.117
-363.683	-200.000	-0.010	0.270
-362.669	453.380	-0.079	0.172
-361.654	-200.000	0.031	0.157
-360.639	265.199	0.127	-0.218
-359.625	-83.691	0.302	-0.095
-358.610	367.167	-0.089	0.177
-357.596	-93.050	-0.016	0.004
-356.581	-196.850	0.512	0.003
-355.566	239.449	-0.068	-0.111
-354.552	23.502	-0.212	0.172
-353.537	681.316	0.165	0.423
-352.523	-200.000	-0.016	0.231
-351.508	-200.000	-0.021	0.165
-350.493	89.922	-0.077	0.084
-349.479	-200.000	0.014	0.072
-348.464	800.000	-0.021	0.063
-347.450	800.000	-0.047	0.131
-346.435	181.108	0.138	-0.199
-345.420	179.318	0.060	-0.086
-344.406	125.908	0.087	-0.108
-343.391	-134.882	-0.079	-0.009
-342.377	-200.000	-0.023	0.273
-341.362	-103.690	-0.376	0.087
-340.348	-19.286	0.112	0.068
-339.333	737.016	-0.009	0.023
-338.318	40.382	0.226	0.200
-337.304	800.000	0.031	0.105
-336.289	-105.349	0.274	-0.061
-335.275	-200.000	0.023	-0.166
-334.260	-161.244	0.187	0.010
-333.245	86.358	0.101	0.109
-332.231	-122.259	0.382	0.061
-331.216	33.503	0.136	-0.116
-330.202	-200.000	0.005	0.133
-329.187	-200.000	0.076	0.396
-328.172	-21.422	-0.245	0.147
-327.158	650.837	-0.107	-0.268
-326.143	320.818	-0.035	0.065
-325.129	-49.527	-0.137	-0.064
-324.114	800.000	-0.040	-0.119
-323.099	800.000	-0.031	-0.092
-322.085	-154.628	-0.158	-0.010
-321.070	-200.000	0.011	-0.101
-320.056	154.288	0.074	-0.100
-319.041	-49.813	-0.301	-0.140
-318.026	-98.526	-0.208	0.052
-317.012	478.144	0.129	-0.287
-315.997	-122.012	-0.253	-0.041
-314.983	-56.991	0.258	0.112
-313.968	-58.284	-0.211	-0.090
-312.953	304.984	0.154	-0.281
-311.939	137.322	-0.089	-0.115
-310.924	-113.343	0.136	0.026
-309.910	-66.841	-0.242	0.094
-308.895	-200.000	-0.030	0.135
-307.880	-155.199	0.203	-0.013
-306.866	523.206	-0.086	0.198
-305.851	-23.769	-0.117	0.069
-304.837	-200.000	-0.017	0.165
-303.822	11.125	0.120	0.090
-302.807	274.293	0.100	0.174
-301.793	-75.893	-0.301	-0.104
-300.778	251.492	0.047	0.078
-299.764	351.436	0.160	-0.311
-298.749	43.787	-0.140	-0.125
-297.735	-100.573	-0.052	0.013
-296.720	-30.138	0.129	-0.072
-295.705	-200.000	-0.010	0.139
-294.691	321.847	0.194	0.361
-293.676	-25.589	0.383	0.221
-292.662	-20.227	0.185	-0.112
-291.647	-131.622	0.222	0.029
-290.632	-114.306	0.367	0.069
-289.618	-126.303	-0.411	0.060
-288.603	102.245	-0.278	-0.318
-287.589	-134.538	0.168	-0.020
-286.574	-200.000	-0.003	0.023
-285.559	-200.000	-0.056	-0.291
-284.545	362.748	0.103	-0.203
-283.530	347.428	0.067	-0.130
-282.516	-183.649	0.047	0.001
-281.501	800.000	0.089	-0.251
-280.486	800.000	-0.036	0.130
-279.472	-200.000	0.038	0.235
-278.457	-200.000	0.110	0.519
-277.443	-188.169	0.549	0.007
-276.428	522.832	-0.148	0.340
-275.413	-92.547	0.209	-0.057
-274.399	-84.502	-0.156	-0.048
-273.384	-200.000	-0.041	0.800
-272.370	-200.000	-0.012	-0.266
-271.355	-57.368	-0.081	-0.035
-270.340	-200.000	0.050	0.215
-269.326	73.320	-0.131	-0.134
-268.311	-18.917	-0.248	-0.151
-267.297	-30.857	0.051	0.028
-266.282	-161.120	-0.442	0.023
-265.267	-33.912	0.174	0.094
-264.253	-87.991	-0.046	0.013
-263.238	106.254	-0.169	-0.197
-262.224	86.669	-0.026	0.028
-261.209	-97.832	-0.034	-0.009
-260.195	1.790	-0.178	0.125
-259.180	-200.000	-0.024	-0.458
-258.165	800.000	0.126	-0.414
-257.151	-106.956	0.282	0.061
-256.136	-29.173	0.119	-0.067
-255.122	160.499	-0.195	-0.266
-254.107	-76.873	-0.143	-0.049
-253.092	800.000	0.117	-0.336
-252.078	378.275	-0.082	0.164
-251.063	800.000	-0.004	0.010
-250.049	-200.000	0.003	-0.212
-249.034	800.000	0.059	0.202
-248.019	55.502	0.035	0.033
-247.005	506.886	0.121	-0.275
-245.990	136.302	-0.078	-0.100
-244.976	-200.000	0.014	0.171
-243.961	335.072	0.067	0.127
-242.946	-59.726	-0.103	-0.043
-241.932	-200.000	-0.028	-0.137
-240.917	65.445	0.060	-0.060
-239.903	217.580	0.135	-0.210
-238.888	38.446	0.185	-0.161
-237.873	-200.000	-0.047	-0.246
-236.859	-200.000	0.243	-0.001
-235.844	8.241	0.168	0.123
-234.830	-50.994	0.075	0.034
-233.815	800.000	-0.039	-0.110
-232.800	60.497	0.226	0.219
-231.786	-84.222	0.075	-0.023
-230.771	-170.135	0.050	-0.002
-229.757	-125.961	0.213	0.031
-228.742	117.921	-0.020	-0.024
-227.727	-16.223	0.070	-0.043
-226.713	-96.905	-0.265	0.068
-225.698	99.133	-0.111	0.126
-224.684	66.263	-0.177	0.176
-223.669	60.976	0.090	0.088
-222.655	12.510	-0.347	0.262
-221.640	68.676	0.193	0.194
-220.625	145.108	0.083	0.109
-219.611	-18.281	-0.172	0.105
-218.596	800.000	0.044	0.189
-217.582	-87.009	-0.159	0.047
-216.567	-200.000	-0.021	-0.245
-215.552	800.000	-0.068	-0.194
-214.538	-200.000	-0.014	-0.066
-213.523	-200.000	-0.064	-0.296
-212.509	-200.000	0.026	0.130
-211.494	-200.000	-0.004	0.082
-210.479	-23.241	-0.218	-0.128
-209.465	-200.000	0.031	0.200
-208.450	-136.301	0.226	0.026
-207.436	-78.583	0.233	0.078
-206.421	-200.000	0.042	-0.288
-205.406	225.154	0.135	-0.213
-204.392	-200.000	-0.132	0.000
-203.377	-200.000	-0.014	0.348
-202.363	-200.000	0.021	-0.139
-201.348	800.000	-0.055	0.200
-200.333	66.917	0.031	-0.031
-199.319	-84.048	0.237	-0.073
-198.304	28.130	-0.069	0.057
-197.290	-168.900	0.167	0.006
-196.275	-79.764	-0.046	0.015
-195.260	776.853	0.049	-0.131
-194.246	109.049	-0.115	0.134
-193.231	81.573	0.212	-0.224
-192.217	353.760	-0.049	-0.095
-191.202	19.230	-0.128	-0.100
-190.187	-7.383	0.070	0.046
-189.173	-45.653	-0.591	0.285
-188.158	144.395	-0.061	-0.079
-187.144	-200.000	-0.015	0.142
-186.129	566.443	-0.121	0.287
-185.114	352.604	0.118	-0.228
-184.100	-6.194	-0.229	-0.153
-183.085	175.945	-0.176	-0.249
-182.071	-148.805	0.422	-0.033
-181.056	800.000	0.032	0.104
-180.042	519.006	-0.097	0.222
-179.027	-65.429	-0.077	-0.030
-178.012	-200.000	0.042	-0.307
-176.998	-33.454	0.097	-0.052
-175.983	800.000	0.097	-0.307
-174.969	-38.622	0.207	-0.107
-173.954	-79.334	-0.136	0.045
-172.939	-111.567	-0.068	-0.013
-171.925	-200.000	-0.041	0.280
-170.910	165.980	0.127	0.175
-169.896	-200.000	-0.035	-0.280
-168.881	334.488	0.045	0.086
-167.866	-117.006	0.160	0.029
-166.852	-130.241	-0.323	0.043
-165.837	-90.228	0.239	0.068
-164.823	-117.418	-0.211	-0.037
-163.808	-69.671	-0.234	-0.087
-162.793	40.969	0.226	0.199
-161.779	-41.736	0.082	-0.041
-160.764	-100.928	-0.211	-0.051
-159.750	-25.799	-0.191	-0.110
-158.735	268.114	0.279	0.477
-157.720	2.984	-0.192	0.136
-156.706	245.898	0.228	-0.374
-155.691	-177.793	-0.453	-0.011
-154.677	-88.015	0.392	-0.115
-153.662	78.331	-0.382	0.398
-152.647	30.788	-0.297	-0.248
-151.633	-76.366	0.292	-0.100
-150.618	-81.158	0.148	0.048
-149.604	-200.000	-0.005	-0.121
-148.589	403.479	0.114	0.233
-147.574	-173.521	0.113	0.003
-146.560	-174.790	0.024	0.001
-145.545	-200.000	-0.012	0.070
-144.531	-91.562	-0.196	-0.054
-143.516	-87.667	-0.172	0.050
-142.502	800.000	-0.087	0.330
-141.487	-200.000	0.032	-0.199
-140.472	-111.976	0.212	-0.042
-139.458	-163.615	0.328	-0.015
-138.443	367.311	0.085	0.168
-137.429	-95.853	0.200	0.052
-136.414	-200.000	-0.007	-0.168
-135.399	-38.564	0.129	-0.066
-134.385	-200.000	-0.015	0.403
-133.370	-11.048	0.333	0.214
-132.356	-83.518	-0.197	0.061
-131.341	-200.000	0.067	0.399
-130.326	-76.465	-0.104	0.035
-129.312	310.187	0.102	0.186
-128.297	800.000	0.037	0.109
-127.283	-22.321	-0.178	-0.105
-126.268	-95.017	0.199	-0.052
-125.253	-200.000	-0.022	0.109
-124.239	320.443	0.047	0.087
-123.224	-23.505	0.126	-0.074
-122.210	-200.000	-0.018	0.157
-121.195	-100.172	-0.364	0.088
