DTS Sentinel unit serial number:	SN413079Multiplexer serial number:	ORYXHardware model number:	OX4-SRSoftware version number:	ORYX F/W v4.00 Oryx Data Collector v3.7.2.0data status	okinstallation	princeton_trtdifferential loss correction	single-endedforward channel	channel 2reverse channel	N/Adate	2019/09/15time	19:35:35forward acquisition time	60.00reverse acquisition time	0.00gamma	496.2192k internal	0.2317k external	0.2317temperature offset calibration	0.9933default loss term (dB/km)	0.3790temperature slope calibration	1.0000multiplexer offset coefficient	1.0000multiplexer slope coefficient	1.0000fibre end	0.00T internal ref (°C)	38.12T ext. ref 1 (°C)	7.34T ext. ref 2 (°C)	27.93length (m)	temperature (°C)	Stokes	anti-Stokes-747.200	175.434	0.206	0.303
-746.185	800.000	0.088	0.287
-745.171	-96.770	-0.289	0.077
-744.156	29.418	-0.155	0.133
-743.142	-117.507	0.179	-0.033
-742.127	-200.000	0.045	0.298
-741.112	80.775	0.193	-0.211
-740.098	-163.152	-0.101	-0.005
-739.083	-159.784	0.222	-0.012
-738.069	-200.000	0.062	0.299
-737.054	-104.452	-0.337	0.079
-736.039	-67.675	-0.169	0.067
-735.025	-58.063	0.456	0.201
-734.010	800.000	-0.092	-0.269
-732.996	-133.461	0.192	0.024
-731.981	0.747	-0.126	-0.091
-730.966	2.349	-0.161	0.118
-729.952	263.268	0.019	-0.034
-728.937	34.308	-0.142	0.125
-727.923	138.323	-0.033	0.043
-726.908	259.945	-0.052	0.090
-725.894	-13.851	-0.197	0.129
-724.879	-63.283	0.245	0.102
-723.864	130.561	0.194	-0.251
-722.850	91.721	-0.097	-0.110
-721.835	-200.000	0.014	-0.110
-720.821	44.731	-0.209	-0.194
-719.806	800.000	0.034	0.109
-718.791	289.333	0.057	0.105
-717.777	-200.000	0.043	0.247
-716.762	59.695	0.057	-0.057
-715.748	183.142	-0.184	0.274
-714.733	719.538	-0.051	0.136
-713.718	-200.000	0.005	0.162
-712.704	401.385	-0.104	-0.221
-711.689	403.685	0.072	0.153
-710.675	-38.152	-0.191	-0.103
-709.660	334.040	0.136	0.266
-708.645	800.000	-0.039	0.142
-707.631	-31.853	-0.233	0.132
-706.616	-134.949	0.290	-0.035
-705.602	443.503	0.095	-0.210
-704.587	-69.520	0.261	-0.101
-703.572	181.572	-0.117	0.173
-702.558	-123.767	-0.171	-0.027
-701.543	-32.348	0.184	-0.104
-700.529	305.780	0.110	0.206
-699.514	-200.000	0.014	-0.118
-698.499	348.156	0.100	-0.199
-697.485	-103.072	-0.256	0.061
-696.470	199.474	-0.162	-0.251
-695.456	-170.774	0.072	0.002
-694.441	-134.996	0.108	0.013
-693.426	282.836	0.010	-0.018
-692.412	57.070	-0.240	-0.236
-691.397	-200.000	-0.040	-0.230
-690.383	-15.745	0.198	-0.128
-689.368	-200.000	-0.005	-0.203
-688.354	253.074	0.102	0.175
-687.339	33.234	-0.378	0.332
-686.324	-200.000	-0.006	0.461
-685.310	-38.563	0.196	0.105
-684.295	-19.967	-0.219	-0.137
-683.281	49.526	-0.126	0.120
-682.266	25.869	0.080	-0.067
-681.251	-200.000	0.010	0.074
-680.237	-172.100	0.294	-0.010
-679.222	74.783	-0.223	-0.237
-678.208	-134.093	-0.344	-0.043
-677.193	-4.808	-0.385	-0.268
-676.178	-37.820	-0.145	0.078
-675.164	-115.759	-0.346	-0.065
-674.149	686.131	0.104	-0.275
-673.135	-96.547	0.063	0.017
-672.120	-58.381	0.046	-0.020
-671.105	-68.948	0.393	0.153
-670.091	-200.000	0.016	0.192
-669.076	-105.506	-0.346	-0.079
-668.062	-12.671	-0.237	0.156
-667.047	800.000	0.044	-0.158
-666.032	-141.467	-0.152	-0.016
-665.018	-2.753	0.111	0.078
-664.003	232.382	-0.080	0.132
-662.989	-79.057	-0.107	-0.037
-661.974	-135.407	-0.115	0.014
-660.959	-200.000	-0.040	0.270
-659.945	-61.559	-0.297	0.126
-658.930	-185.046	-0.076	-0.001
-657.916	163.669	-0.123	-0.175
-656.901	800.000	0.049	-0.210
-655.886	-20.441	-0.143	0.089
-654.872	252.961	0.099	0.171
-653.857	-6.061	0.118	-0.082
-652.843	800.000	0.094	0.348
-651.828	12.691	-0.202	-0.157
-650.814	-64.422	0.034	0.014
-649.799	-100.762	-0.036	-0.009
-648.784	-112.377	0.212	0.043
-647.770	800.000	-0.103	0.310
-646.755	-44.770	0.220	0.111
-645.741	-118.487	0.166	0.030
-644.726	-200.000	0.027	0.162
-643.711	-200.000	0.193	-0.001
-642.697	-48.644	-0.201	0.098
-641.682	112.653	0.114	0.139
-640.668	-65.611	-0.322	0.130
-639.653	45.374	0.083	-0.077
-638.638	-126.352	-0.233	-0.035
-637.624	-200.000	0.012	-0.375
-636.609	115.755	-0.033	0.040
-635.595	-171.824	-0.376	-0.012
-634.580	22.616	0.041	0.034
-633.565	-200.000	-0.037	0.334
-632.551	-143.388	-0.619	0.060
-631.536	213.893	-0.076	0.122
-630.522	139.163	0.050	0.066
-629.507	800.000	-0.071	-0.216
-628.492	800.000	-0.056	0.231
-627.478	800.000	-0.104	-0.438
-626.463	347.089	-0.075	-0.148
-625.449	-100.021	0.164	-0.041
-624.434	800.000	-0.029	-0.111
-623.419	-146.410	-0.232	-0.020
-622.405	-158.407	-0.135	-0.008
-621.390	-38.112	0.244	0.130
-620.376	26.341	-0.223	-0.188
-619.361	-101.942	0.200	-0.049
-618.346	49.386	-0.271	-0.257
-617.332	-200.000	-0.029	0.159
-616.317	671.529	-0.113	0.296
-615.303	109.808	-0.055	0.066
-614.288	-84.208	-0.197	-0.063
-613.273	666.195	-0.089	0.232
-612.259	76.737	-0.106	0.114
-611.244	800.000	-0.094	-0.358
-610.230	98.974	0.124	-0.145
-609.215	-82.053	-0.112	0.037
-608.201	-6.311	0.239	0.164
-607.186	27.424	-0.220	-0.187
-606.171	-18.421	0.155	0.097
-605.157	67.631	-0.098	0.101
-604.142	5.813	0.169	-0.126
-603.128	-200.000	0.035	0.359
-602.113	-127.766	-0.414	-0.060
-601.098	-136.546	-0.287	0.033
-600.084	67.905	0.300	-0.309
-599.069	-200.000	-0.024	-0.162
-598.055	12.682	0.171	-0.133
-597.040	-200.000	-0.051	-0.400
-596.025	779.677	0.018	0.050
-595.011	-45.525	0.172	0.086
-593.996	100.770	-0.232	-0.271
-592.982	-15.363	-0.090	-0.058
-591.967	76.752	-0.207	-0.221
-590.952	424.842	0.116	0.251
-589.938	380.297	-0.130	0.269
-588.923	159.958	0.250	-0.350
-587.909	386.814	-0.073	0.151
-586.894	-24.726	-0.099	-0.059
-585.879	-181.079	-0.185	-0.004
-584.865	133.865	0.087	0.113
-583.850	800.000	-0.070	-0.287
-582.836	-129.630	-0.178	0.025
-581.821	-125.372	-0.229	0.035
-580.806	-147.161	0.113	-0.010
-579.792	95.330	0.126	0.145
-578.777	214.591	0.137	0.219
-577.763	-159.942	0.159	0.009
-576.748	-197.856	0.135	-0.001
-575.733	-83.399	-0.457	-0.147
-574.719	-32.315	0.242	-0.136
-573.704	-71.413	0.241	-0.091
-572.690	800.000	0.030	-0.102
-571.675	-200.000	0.021	0.145
-570.661	46.964	0.219	-0.204
-569.646	-63.113	0.105	-0.044
-568.631	143.047	-0.153	0.205
-567.617	102.199	0.100	-0.118
-566.602	141.468	0.216	0.287
-565.588	80.519	-0.006	0.006
-564.573	200.045	-0.123	0.190
-563.558	-105.511	0.181	0.041
-562.544	-42.003	0.068	0.035
-561.529	544.851	-0.112	-0.270
-560.515	50.100	-0.232	-0.220
-559.500	-91.783	0.281	0.080
-558.485	92.282	-0.020	0.023
-557.471	71.318	0.142	-0.148
-556.456	800.000	-0.102	-0.310
-555.442	548.867	-0.132	-0.319
-554.427	-37.894	-0.322	-0.172
-553.412	-55.206	0.086	0.039
-552.398	800.000	-0.098	-0.381
-551.383	-123.861	-0.096	0.015
-550.369	-6.167	-0.339	0.232
-549.354	-200.000	-0.026	0.148
-548.339	299.015	-0.100	-0.185
-547.325	-200.000	0.238	-0.001
-546.310	-12.364	-0.184	0.121
-545.296	287.809	0.125	-0.226
-544.281	177.668	-0.057	0.084
-543.266	63.163	-0.051	0.051
-542.252	-85.816	-0.485	0.151
-541.237	111.309	-0.184	0.223
-540.223	-122.659	0.092	0.015
-539.208	110.955	0.150	-0.182
-538.193	-200.000	0.065	0.370
-537.179	-200.000	0.008	-0.059
-536.164	-132.960	0.140	0.018
-535.150	14.453	0.178	0.139
-534.135	224.097	-0.209	-0.339
-533.121	-30.579	-0.148	-0.084
-532.106	-90.585	-0.353	-0.103
-531.091	-64.635	0.305	-0.124
-530.077	-130.881	0.072	-0.010
-529.062	-123.539	-0.058	-0.009
-528.048	-200.000	0.038	0.273
-527.033	746.073	-0.058	-0.156
-526.018	38.321	0.098	-0.087
-525.004	-146.839	0.139	0.012
-523.989	86.303	0.109	-0.121
-522.975	-81.185	0.136	0.045
-521.960	-153.125	-0.338	-0.024
-520.945	237.494	-0.123	-0.205
-519.931	73.341	-0.326	0.342
-518.916	-112.526	0.216	-0.043
-517.902	40.219	0.172	0.155
-516.887	-162.519	-0.192	-0.010
-515.872	-200.000	0.032	0.245
-514.858	289.733	0.115	-0.209
-513.843	-42.595	0.160	0.082
-512.829	-64.302	-0.230	-0.094
-511.814	800.000	0.010	0.040
-510.799	-23.811	-0.090	0.054
-509.785	499.357	-0.065	-0.150
-508.770	286.251	0.154	0.278
-507.756	-42.491	-0.391	-0.200
-506.741	-200.000	-0.052	0.292
-505.726	47.571	0.092	0.086
-504.712	-110.791	0.161	0.033
-503.697	-101.773	-0.045	0.011
-502.683	-78.898	0.266	0.091
-501.668	800.000	0.022	0.064
-500.653	-153.756	0.219	0.015
-499.639	101.949	-0.127	0.149
-498.624	-43.443	-0.170	0.086
-497.610	70.704	0.028	0.029
-496.595	119.559	0.147	-0.183
-495.581	800.000	-0.116	0.437
-494.566	13.418	-0.421	0.327
-493.551	800.000	0.033	-0.097
-492.537	49.797	-0.130	-0.123
-491.522	-87.224	0.063	-0.019
-490.508	-118.383	0.058	-0.010
-489.493	-200.000	0.057	0.273
-488.478	-120.222	-0.403	0.069
-487.464	93.170	-0.121	-0.137
-486.449	-64.704	0.183	-0.074
-485.435	669.968	0.133	-0.346
-484.420	130.037	-0.071	0.091
-483.405	-97.002	-0.176	0.046
-482.391	3.448	0.167	0.122
-481.376	91.184	0.031	0.035
-480.362	-80.824	0.132	-0.044
-479.347	-200.000	0.072	0.365
-478.332	-133.447	-0.276	-0.035
-477.318	-39.425	0.336	0.177
-476.303	349.816	0.111	-0.219
-475.289	70.779	-0.156	0.161
-474.274	103.319	0.170	-0.199
-473.259	-200.000	-0.008	0.094
-472.245	94.049	-0.099	-0.112
-471.230	-200.000	0.013	-0.304
-470.216	-1.494	0.152	0.107
-469.201	-150.424	0.442	0.034
-468.186	95.215	-0.248	-0.283
-467.172	-14.489	0.218	0.140
-466.157	-200.000	0.024	0.179
-465.143	-66.672	-0.190	0.075
-464.128	585.349	-0.126	0.310
-463.113	18.384	0.278	-0.222
-462.099	300.012	-0.135	0.249
-461.084	357.511	-0.094	-0.188
-460.070	539.985	0.098	0.233
-459.055	-200.000	-0.076	0.349
-458.040	-36.282	-0.125	0.067
-457.026	-69.444	-0.209	0.080
-456.011	-92.717	0.302	-0.085
-454.997	-200.000	-0.049	0.388
-453.982	-89.229	0.287	-0.085
-452.968	335.104	-0.036	-0.070
-451.953	800.000	-0.097	0.272
-450.938	800.000	0.067	-0.188
-449.924	60.930	0.171	-0.170
-448.909	219.459	0.143	0.229
-447.895	236.264	0.124	-0.205
-446.880	362.984	0.042	-0.084
-445.865	-200.000	0.005	-0.142
-444.851	33.083	0.049	-0.042
-443.836	-10.194	-0.218	-0.145
-442.822	-200.000	0.002	-0.205
-441.807	328.522	0.032	0.061
-440.792	-149.800	0.190	0.015
-439.778	-200.000	-0.007	-0.097
-438.763	-200.000	0.058	0.260
-437.749	-62.368	0.174	-0.072
-436.734	-155.302	-0.209	-0.014
-435.719	146.966	-0.298	-0.400
-434.705	-200.000	-0.002	0.313
-433.690	-90.010	0.297	0.087
-432.676	-22.960	-0.263	0.159
-431.661	-45.710	-0.562	0.278
-430.646	-200.000	-0.011	0.232
-429.632	191.294	-0.193	0.291
-428.617	286.294	0.167	-0.302
-427.603	694.794	-0.128	0.335
-426.588	-126.190	0.062	0.009
-425.573	175.747	0.125	0.181
-424.559	12.414	0.263	0.203
-423.544	-90.491	0.256	0.074
-422.530	-14.160	-0.243	-0.157
-421.515	339.882	-0.037	0.071
-420.500	71.917	0.172	-0.179
-419.486	4.094	0.079	-0.057
-418.471	-18.225	-0.217	-0.136
-417.457	432.591	-0.090	0.194
-416.442	-70.079	0.125	-0.048
-415.428	30.126	-0.426	-0.363
-414.413	-200.000	0.057	0.429
-413.398	234.029	-0.042	-0.070
-412.384	-200.000	0.040	-0.187
-411.369	66.041	-0.145	-0.147
-410.355	-200.000	-0.040	0.270
-409.340	387.710	-0.048	0.100
-408.325	14.097	0.174	-0.136
-407.311	-66.148	0.169	-0.067
-406.296	122.032	-0.114	-0.142
-405.282	169.045	-0.149	-0.213
-404.267	-112.104	-0.161	-0.032
-403.252	800.000	-0.089	0.280
-402.238	119.918	0.128	-0.159
-401.223	800.000	0.081	0.269
-400.209	336.439	0.074	-0.143
-399.194	-152.262	-0.185	0.013
-398.179	104.820	0.126	-0.148
-397.165	-64.717	0.158	-0.064
-396.150	-33.958	-0.133	0.073
-395.136	403.648	0.098	0.205
-394.121	-21.704	-0.226	0.137
-393.106	-200.000	0.038	0.216
-392.092	-120.709	-0.261	0.044
-391.077	-6.559	-0.320	-0.218
-390.063	79.053	0.189	0.202
-389.048	-200.000	-0.029	0.173
-388.033	-200.000	-0.026	-0.325
-387.019	9.063	0.170	-0.128
-386.004	8.423	0.092	-0.069
-384.990	40.867	0.050	-0.045
-383.975	-49.481	-0.182	0.087
-382.960	-108.524	0.264	0.057
-381.946	-0.688	-0.251	0.177
-380.931	-73.719	-0.162	-0.059
-379.917	401.155	0.106	-0.222
-378.902	520.811	-0.163	-0.382
-377.888	-200.000	0.039	0.178
-376.873	800.000	-0.057	0.236
-375.858	191.589	-0.123	-0.185
-374.844	800.000	0.032	-0.108
-373.829	440.483	-0.169	-0.368
-372.815	-186.685	-0.156	0.002
-371.800	-126.449	0.124	0.018
-370.785	-30.287	0.200	0.113
-369.771	-57.117	0.252	0.111
-368.756	154.040	0.131	-0.179
-367.742	800.000	-0.071	-0.292
-366.727	-7.608	-0.254	0.171
-365.712	800.000	-0.020	0.085
-364.698	55.999	0.352	0.341
-363.683	136.919	-0.214	-0.279
-362.669	-182.488	0.260	-0.005
-361.654	576.672	0.034	0.083
-360.639	-93.096	-0.114	-0.032
-359.625	-200.000	0.004	0.034
-358.610	-57.609	0.162	-0.071
-357.596	133.091	0.170	-0.219
-356.581	-200.000	-0.020	0.227
-355.566	-200.000	-0.029	0.224
-354.552	-200.000	-0.011	-0.110
-353.537	-93.868	-0.363	0.100
-352.523	-11.577	0.301	-0.197
-351.508	-79.024	-0.112	0.038
-350.493	-13.562	0.126	-0.081
-349.479	721.489	0.060	0.159
-348.464	655.459	-0.082	0.209
-347.450	-200.000	-0.023	0.391
-346.435	-33.212	-0.248	-0.137
-345.420	-105.015	-0.260	-0.059
-344.406	800.000	0.120	-0.391
-343.391	-125.900	0.292	0.044
-342.377	-98.863	-0.165	0.042
-341.362	304.993	-0.191	0.353
-340.348	10.087	-0.099	0.075
-339.333	-200.000	-0.001	0.246
-338.318	-200.000	0.058	0.384
-337.304	176.274	0.058	-0.084
-336.289	147.418	-0.131	-0.176
-335.275	800.000	0.099	-0.403
-334.260	-200.000	0.033	-0.234
-333.245	-3.408	-0.117	-0.081
-332.231	-200.000	0.010	-0.143
-331.216	800.000	0.005	-0.014
-330.202	-177.785	0.129	0.003
-329.187	-80.505	0.157	0.052
-328.172	60.832	0.212	0.209
-327.158	-197.249	-0.271	-0.002
-326.143	-200.000	0.026	0.278
-325.129	192.413	0.072	-0.109
-324.114	-200.000	-0.028	0.160
-323.099	88.014	-0.114	-0.125
-322.085	776.740	0.094	-0.255
-321.070	268.658	-0.102	-0.178
-320.056	800.000	-0.140	-0.497
-319.041	613.923	-0.161	0.400
-318.026	-29.370	0.111	0.063
-317.012	350.907	0.211	0.416
-315.997	205.311	0.325	0.502
-314.983	240.117	0.103	-0.171
-313.968	-103.243	-0.457	0.107
-312.953	-47.304	-0.259	-0.125
-311.939	800.000	0.065	-0.240
-310.924	-125.747	0.204	0.031
-309.910	-84.992	0.137	0.043
-308.895	443.099	-0.076	0.166
-307.880	33.624	-0.029	0.025
-306.866	-200.000	-0.041	-0.204
-305.851	-25.597	0.223	-0.131
-304.837	-40.952	-0.237	-0.122
-303.822	-200.000	-0.010	0.101
-302.807	459.554	0.067	-0.148
-301.793	374.931	-0.103	-0.208
-300.778	-7.162	-0.171	-0.115
-299.764	-65.282	-0.081	-0.032
-298.749	800.000	0.040	0.159
-297.735	254.995	-0.123	-0.209
-296.720	-85.807	0.215	-0.066
-295.705	-200.000	0.059	0.346
-294.691	77.830	-0.064	-0.068
-293.676	800.000	0.041	0.118
-292.662	263.866	0.142	-0.246
-291.647	203.483	0.179	-0.275
-290.632	-177.453	0.222	-0.005
-289.618	800.000	0.029	-0.111
-288.603	-200.000	0.067	-0.335
-287.589	800.000	0.143	-0.456
-286.574	-145.952	0.125	0.011
-285.559	-181.400	-0.060	0.001
-284.545	310.342	0.049	-0.092
-283.530	3.159	-0.074	0.053
-282.516	-9.280	0.198	-0.131
-281.501	89.105	0.279	-0.309
-280.486	428.780	-0.089	-0.192
-279.472	-64.437	-0.200	0.081
-278.457	-200.000	0.004	0.391
-277.443	181.063	-0.163	0.238
-276.428	-139.215	0.055	0.006
-275.413	-57.863	0.235	0.102
-274.399	-105.403	-0.209	0.047
-273.384	-191.619	0.077	-0.001
-272.370	338.759	0.154	-0.299
-271.355	-117.355	0.298	0.054
-270.340	99.413	0.141	-0.162
-269.326	-184.129	0.010	-0.000
-268.311	800.000	0.063	-0.190
-267.297	-200.000	0.056	0.447
-266.282	-91.466	0.280	-0.079
-265.267	-14.931	-0.234	0.149
-264.253	-82.908	0.085	-0.027
-263.238	-113.280	-0.241	-0.047
-262.224	8.930	0.179	0.134
-261.209	560.905	0.143	-0.342
-260.195	-51.348	0.288	0.134
-259.180	242.426	-0.159	-0.264
-258.165	-174.836	0.077	0.002
-257.151	52.873	-0.097	0.092
-256.136	800.000	0.030	0.104
-255.122	800.000	0.089	0.270
-254.107	-152.778	0.207	0.015
-253.092	-200.000	-0.041	0.220
-252.078	-143.427	-0.160	0.015
-251.063	-200.000	0.010	0.046
-250.049	-200.000	-0.004	0.025
-249.034	-35.560	-0.175	-0.094
-248.019	359.728	-0.276	-0.548
-247.005	18.402	-0.084	0.066
-245.990	-159.438	0.087	0.005
-244.976	-200.000	-0.225	0.000
-243.961	338.429	0.126	-0.243
-242.946	205.846	-0.012	0.018
-241.932	800.000	0.086	0.301
-240.917	-119.394	-0.137	-0.024
-239.903	282.914	-0.085	0.151
-238.888	-200.000	0.022	-0.194
-237.873	-13.855	-0.182	-0.117
-236.859	261.946	-0.170	0.292
-235.844	538.810	0.081	0.191
-234.830	-133.243	-0.223	-0.028
-233.815	-200.000	0.052	-0.424
-232.800	-108.223	0.266	0.057
-231.786	468.353	0.156	0.346
-230.771	163.120	-0.117	-0.163
-229.757	-29.258	-0.187	0.106
-228.742	-172.364	-0.140	0.004
-227.727	-200.000	0.006	0.146
-226.713	-200.000	-0.015	0.243
-225.698	124.216	-0.071	-0.088
-224.684	287.630	0.121	0.217
-223.669	30.726	0.126	0.107
-222.655	-38.408	0.210	0.110
-221.640	84.488	0.082	-0.089
-220.625	-98.268	-0.269	-0.068
-219.611	-124.245	-0.051	0.008
-218.596	-185.581	-0.436	-0.007
-217.582	-200.000	0.019	-0.113
-216.567	134.694	-0.175	0.226
-215.552	131.773	0.202	-0.257
-214.538	18.216	0.128	-0.101
-213.523	5.292	0.126	-0.092
-212.509	124.626	0.140	-0.175
-211.494	-200.000	-0.042	-0.194
-210.479	-200.000	-0.002	-0.168
-209.465	294.230	0.116	-0.210
-208.450	252.631	0.047	-0.080
-207.436	-63.014	0.108	-0.044
-206.421	-200.000	0.035	0.236
-205.406	190.028	0.067	-0.100
-204.392	-63.456	-0.165	-0.067
-203.377	-119.779	0.434	-0.074
-202.363	284.606	0.122	0.218
-201.348	-53.873	0.244	0.110
-200.333	-36.551	0.375	-0.200
-199.319	-200.000	0.040	-0.190
-198.304	-200.000	-0.001	0.047
-197.290	-200.000	0.015	0.099
-196.275	-200.000	-0.043	-0.189
-195.260	5.139	-0.339	0.247
-194.246	-117.445	-0.230	0.041
-193.231	-200.000	-0.006	0.227
-192.217	-135.817	0.175	-0.020
-191.202	142.387	-0.027	0.036
-190.187	51.438	0.157	-0.147
-189.173	-117.049	-0.188	-0.034
-188.158	800.000	-0.086	0.373
-187.144	800.000	0.059	0.186
-186.129	-77.747	0.245	0.084
-185.114	800.000	0.043	-0.166
-184.100	-35.984	0.224	0.120
-183.085	-121.241	-0.312	0.052
-182.071	131.380	-0.188	-0.239
-181.056	-91.072	0.433	0.123
-180.042	161.475	0.197	-0.273
-179.027	-200.000	0.027	-0.335
-178.012	151.155	0.181	-0.244
-176.998	-6.537	0.198	0.134
-175.983	800.000	-0.077	-0.282
-174.969	-200.000	-0.027	0.257
-173.954	489.465	0.038	-0.086
-172.939	183.286	0.179	0.261
-171.925	-61.742	0.213	0.088
-170.910	-117.493	0.179	-0.032
-169.896	-200.000	0.010	0.367
-168.881	-200.000	-0.013	0.054
-167.866	-112.372	0.359	-0.071
-166.852	-159.315	-0.555	-0.031
-165.837	-129.076	0.075	0.010
-164.823	-100.198	0.241	0.059
-163.808	-200.000	0.016	0.283
-162.793	-20.431	-0.189	-0.115
-161.779	-200.000	0.000	0.073
-160.764	-200.000	-0.000	-0.171
-159.750	7.547	0.242	0.179
-158.735	36.240	0.251	0.219
-157.720	-200.000	-0.009	0.122
-156.706	-102.353	-0.278	-0.066
-155.691	-71.721	0.204	0.075
-154.677	203.681	0.021	-0.033
-153.662	800.000	0.132	-0.456
-152.647	800.000	0.072	-0.235
-151.633	35.042	-0.066	-0.057
-150.618	800.000	0.120	0.389
-149.604	-47.001	0.121	0.058
-148.589	800.000	-0.031	-0.099
-147.574	-153.032	0.118	-0.008
-146.560	70.998	0.091	-0.093
-145.545	-64.190	0.314	0.127
-144.531	-188.091	0.030	-0.000
-143.516	-92.472	0.224	0.062
-142.502	-200.000	-0.062	-0.611
-141.487	-200.000	0.053	-0.362
-140.472	28.066	-0.120	-0.100
-139.458	241.198	0.135	-0.223
-138.443	35.350	0.228	0.197
-137.429	200.448	-0.069	0.104
-136.414	800.000	0.108	0.377
-135.399	-91.637	-0.291	-0.082
-134.385	-120.419	0.099	-0.017
-133.370	-200.000	0.023	-0.121
-132.356	-200.000	-0.049	0.333
-131.341	55.275	0.222	-0.212
-130.326	-200.000	0.048	-0.221
-129.312	194.081	0.153	-0.229
-128.297	800.000	-0.047	-0.153
-127.283	-29.946	0.260	0.146
-126.268	-22.184	0.209	0.125
-125.253	-63.732	-0.132	0.053
-124.239	100.741	0.169	0.194
-123.224	-200.000	0.014	0.066
-122.210	-70.387	-0.253	-0.095
-121.195	282.231	0.128	-0.226
