DTS Sentinel unit serial number:	SN413079Multiplexer serial number:	ORYXHardware model number:	OX4-SRSoftware version number:	ORYX F/W v4.00 Oryx Data Collector v3.7.2.0data status	okinstallation	princeton_trtdifferential loss correction	single-endedforward channel	channel 2reverse channel	N/Adate	2019/09/14time	14:43:34forward acquisition time	60.00reverse acquisition time	0.00gamma	496.2192k internal	0.2301k external	0.2301temperature offset calibration	1.0136default loss term (dB/km)	0.3790temperature slope calibration	1.0000multiplexer offset coefficient	1.0000multiplexer slope coefficient	1.0000fibre end	0.00T internal ref (°C)	39.25T ext. ref 1 (°C)	4.95T ext. ref 2 (°C)	34.19length (m)	temperature (°C)	Stokes	anti-Stokes-747.200	-112.721	0.231	0.047
-746.185	10.663	-0.469	0.365
-745.171	800.000	0.165	0.599
-744.156	307.057	0.044	0.084
-743.142	-86.917	-0.321	0.100
-742.127	6.951	-0.118	-0.090
-741.112	-200.000	-0.015	-0.170
-740.098	-200.000	-0.007	0.124
-739.083	56.882	-0.126	0.125
-738.069	185.625	-0.121	0.183
-737.054	109.582	-0.101	0.123
-736.039	778.452	-0.102	0.284
-735.025	109.249	-0.218	0.266
-734.010	-200.000	-0.022	-0.235
-732.996	-73.054	0.136	-0.051
-731.981	255.892	0.101	-0.177
-730.966	123.729	-0.321	0.411
-729.952	286.378	0.069	-0.126
-728.937	334.961	-0.059	-0.117
-727.923	-200.000	0.026	0.123
-726.908	143.501	-0.205	0.278
-725.894	707.098	0.141	-0.379
-724.879	-58.629	0.154	-0.068
-723.864	-200.000	-0.003	0.107
-722.850	800.000	0.070	0.218
-721.835	-200.000	0.002	-0.232
-720.821	222.334	0.187	-0.306
-719.806	-11.527	-0.142	-0.095
-718.791	-144.094	-0.056	0.005
-717.777	190.991	0.106	0.162
-716.762	32.058	-0.130	0.114
-715.748	800.000	0.071	0.269
-714.733	-21.931	0.132	0.082
-713.718	-10.160	-0.221	-0.150
-712.704	-200.000	-0.077	0.408
-711.689	201.739	-0.089	-0.139
-710.675	-62.759	0.121	-0.051
-709.660	800.000	0.054	-0.236
-708.645	-10.430	0.386	-0.261
-707.631	800.000	-0.053	0.220
-706.616	-200.000	0.040	-0.353
-705.602	13.380	0.321	0.254
-704.587	-166.965	-0.207	0.009
-703.572	146.011	-0.238	-0.325
-702.558	-164.484	-0.364	-0.017
-701.543	-200.000	0.014	0.070
-700.529	102.059	-0.147	0.174
-699.514	-200.000	-0.001	-0.061
-698.499	-95.052	-0.036	-0.010
-697.485	93.607	0.074	-0.085
-696.470	-70.636	-0.190	0.073
-695.456	61.868	0.052	-0.053
-694.441	-200.000	-0.010	-0.205
-693.426	343.681	-0.102	0.203
-692.412	147.817	0.119	0.164
-691.397	-120.783	0.507	0.087
-690.383	-2.178	-0.221	-0.158
-689.368	485.043	0.119	-0.276
-688.354	110.382	0.057	-0.070
-687.339	96.911	-0.189	0.220
-686.324	1.332	0.379	-0.277
-685.310	-200.000	-0.015	-0.147
-684.295	-20.861	0.180	0.112
-683.281	101.868	-0.160	-0.189
-682.266	-43.150	0.206	0.106
-681.251	-107.166	0.167	-0.038
-680.237	-200.000	0.004	0.088
-679.222	219.008	-0.219	-0.357
-678.208	389.237	-0.100	0.211
-677.193	66.831	-0.135	-0.139
-676.178	-122.666	0.179	0.030
-675.164	-64.171	-0.429	-0.178
-674.149	800.000	0.078	0.261
-673.135	-13.430	0.339	-0.224
-672.120	-134.991	0.086	-0.011
-671.105	-32.038	-0.244	0.139
-670.091	420.129	0.026	0.057
-669.076	661.025	-0.095	0.249
-668.062	83.365	-0.070	-0.078
-667.047	115.219	-0.110	-0.137
-666.032	-2.480	0.079	-0.056
-665.018	-88.036	0.115	-0.035
-664.003	234.321	-0.167	0.279
-662.989	800.000	-0.018	-0.054
-661.974	265.649	-0.085	0.150
-660.959	-200.000	-0.012	-0.365
-659.945	-200.000	-0.024	0.291
-658.930	43.492	-0.025	0.023
-657.916	-59.343	-0.212	0.093
-656.901	-200.000	-0.003	-0.061
-655.886	-105.788	-0.064	0.015
-654.872	-21.601	0.169	0.104
-653.857	272.388	0.185	-0.331
-652.843	5.592	0.076	0.057
-651.828	-26.060	-0.271	-0.162
-650.814	-156.779	-0.033	0.002
-649.799	-10.307	-0.134	0.090
-648.784	-200.000	-0.031	0.254
-647.770	-45.921	-0.142	0.071
-646.755	117.696	0.035	-0.044
-645.741	206.790	-0.062	-0.097
-644.726	5.463	-0.136	-0.102
-643.711	42.514	-0.248	-0.229
-642.697	82.100	0.147	0.162
-641.682	88.348	-0.044	-0.050
-640.668	-178.829	-0.373	0.009
-639.653	-200.000	-0.032	0.226
-638.638	23.819	0.132	-0.110
-637.624	-126.484	0.165	0.025
-636.609	186.961	-0.131	-0.198
-635.595	-64.007	-0.476	-0.198
-634.580	-200.000	-0.005	0.089
-633.565	40.265	0.346	-0.316
-632.551	66.775	0.072	0.074
-631.536	16.022	0.086	0.069
-630.522	-158.740	-0.094	-0.005
-629.507	28.597	-0.069	-0.059
-628.492	-200.000	-0.000	-0.210
-627.478	-36.862	0.147	0.080
-626.463	-8.675	-0.181	-0.123
-625.449	-14.804	-0.031	-0.020
-624.434	-76.307	-0.108	-0.039
-623.419	-22.891	-0.088	-0.054
-622.405	800.000	0.027	0.082
-621.390	-75.700	-0.251	0.091
-620.376	244.902	0.138	0.236
-619.361	397.126	-0.053	-0.112
-618.346	297.029	-0.112	-0.208
-617.332	21.951	-0.253	-0.209
-616.317	-130.040	0.089	0.012
-615.303	-146.099	-0.290	-0.026
-614.288	162.212	-0.167	-0.238
-613.273	414.115	-0.053	0.115
-612.259	-118.759	0.443	0.079
-611.244	-162.521	-0.574	-0.029
-610.230	-200.000	0.008	-0.303
-609.215	-172.322	0.418	0.014
-608.201	-8.886	0.172	0.117
-607.186	265.758	0.060	-0.106
-606.171	-180.802	0.388	-0.008
-605.157	-43.942	-0.332	0.169
-604.142	310.382	0.028	-0.053
-603.128	70.415	0.212	-0.223
-602.113	375.723	-0.123	0.254
-601.098	735.550	-0.053	-0.144
-600.084	-25.211	0.183	-0.110
-599.069	-141.715	0.058	-0.006
-598.055	-12.104	-0.157	-0.104
-597.040	800.000	0.065	0.207
-596.025	700.716	-0.091	-0.243
-595.011	-200.000	0.005	0.161
-593.996	82.464	-0.235	0.259
-592.982	800.000	0.056	0.244
-591.967	-49.505	-0.083	-0.040
-590.952	27.380	-0.094	-0.080
-589.938	-200.000	-0.017	0.162
-588.923	152.959	-0.152	0.211
-587.909	552.939	0.030	0.073
-586.894	-200.000	0.022	-0.232
-585.879	-200.000	-0.012	-0.127
-584.865	57.824	0.157	-0.156
-583.850	385.063	-0.087	0.182
-582.836	181.043	-0.104	0.156
-581.821	-44.062	-0.019	0.010
-580.806	-172.856	0.178	-0.006
-579.792	0.147	-0.186	-0.135
-578.777	206.159	-0.145	-0.229
-577.763	175.493	-0.167	0.245
-576.748	800.000	-0.085	-0.311
-575.733	-200.000	-0.014	-0.150
-574.719	201.613	0.019	-0.030
-573.704	-92.658	0.136	0.039
-572.690	658.057	0.028	0.073
-571.675	-174.839	-0.057	-0.002
-570.661	-92.892	-0.218	-0.062
-569.646	-31.234	-0.144	0.082
-568.631	-110.603	0.323	0.068
-567.617	196.218	-0.093	-0.144
-566.602	-56.078	0.066	-0.030
-565.588	53.421	-0.178	-0.173
-564.573	-31.133	-0.095	-0.054
-563.558	-24.627	-0.335	0.202
-562.544	-200.000	0.005	0.369
-561.529	16.965	0.051	-0.041
-560.515	-76.091	-0.397	-0.142
-559.500	-200.000	-0.009	0.071
-558.485	-200.000	0.005	0.117
-557.471	25.878	0.088	0.074
-556.456	-91.623	-0.198	0.057
-555.442	312.877	-0.066	0.126
-554.427	-167.358	-0.070	0.003
-553.412	285.108	-0.112	0.204
-552.398	632.961	-0.090	0.231
-551.383	228.798	-0.209	-0.345
-550.369	-71.212	0.267	-0.102
-549.354	38.445	0.301	-0.271
-548.339	-200.000	-0.001	0.037
-547.325	-53.215	-0.139	0.065
-546.310	37.571	-0.204	0.183
-545.296	-88.651	0.284	-0.085
-544.281	80.226	0.226	-0.246
-543.266	-200.000	-0.032	-0.249
-542.252	-135.748	0.252	0.030
-541.237	479.550	0.092	-0.210
-540.223	156.610	0.177	0.248
-539.208	-43.800	-0.322	0.164
-538.193	196.061	0.067	0.103
-537.179	-172.187	-0.105	-0.003
-536.164	-125.069	-0.168	-0.026
-535.150	-19.669	0.407	0.255
-534.135	-195.537	-0.044	0.000
-533.121	93.743	0.167	0.191
-532.106	800.000	0.106	-0.427
-531.091	152.229	0.065	0.089
-530.077	-132.884	0.346	-0.045
-529.062	-187.935	0.329	0.004
-528.048	-109.057	0.170	0.037
-527.033	800.000	0.059	-0.186
-526.018	-81.492	-0.107	-0.036
-525.004	76.884	-0.247	-0.265
-523.989	356.170	-0.103	0.207
-522.975	800.000	0.034	0.149
-521.960	45.853	-0.141	0.132
-520.945	-97.976	0.372	-0.097
-519.931	493.960	-0.191	-0.442
-518.916	122.390	-0.267	0.338
-517.902	-1.698	0.255	0.182
-516.887	-21.959	-0.281	-0.172
-515.872	342.008	0.164	-0.324
-514.858	32.753	0.398	-0.348
-513.843	-24.581	0.215	-0.129
-512.829	-90.785	0.261	-0.076
-511.814	-41.607	-0.294	0.153
-510.799	-200.000	-0.033	-0.188
-509.785	187.866	0.099	-0.150
-508.770	-52.805	-0.261	-0.122
-507.756	-28.578	-0.073	0.042
-506.741	-74.521	0.235	-0.086
-505.726	-200.000	0.019	-0.194
-504.712	-101.492	0.306	0.075
-503.697	-101.543	-0.149	-0.036
-502.683	471.466	-0.138	-0.313
-501.668	-52.013	0.235	-0.110
-500.653	4.324	0.203	-0.150
-499.639	155.190	-0.134	0.186
-498.624	-161.800	-0.312	0.016
-497.610	800.000	0.122	-0.373
-496.595	-200.000	-0.058	-0.493
-495.581	368.012	-0.095	-0.193
-494.566	-124.034	0.281	0.045
-493.551	54.044	-0.077	-0.075
-492.537	43.951	-0.301	-0.278
-491.522	-129.260	-0.359	0.050
-490.508	-35.599	-0.146	-0.080
-489.493	80.644	0.126	-0.137
-488.478	-71.065	0.089	-0.034
-487.464	369.075	0.059	-0.121
-486.449	111.316	0.266	-0.324
-485.435	-19.719	0.078	0.049
-484.420	-200.000	-0.034	-0.300
-483.405	230.841	-0.263	0.435
-482.391	-32.247	-0.217	0.122
-481.376	-60.678	-0.255	-0.109
-480.362	190.728	0.341	-0.518
-479.347	-200.000	0.039	0.173
-478.332	-200.000	0.005	0.092
-477.318	-127.627	-0.159	0.023
-476.303	-26.631	0.366	-0.216
-475.289	505.657	0.111	0.259
-474.274	-200.000	-0.030	0.190
-473.259	-200.000	0.013	0.102
-472.245	-71.182	-0.310	-0.117
-471.230	184.275	-0.069	0.103
-470.216	-40.198	-0.163	0.085
-469.201	176.232	-0.173	-0.253
-468.186	-3.524	-0.189	-0.133
-467.172	-36.905	0.110	-0.059
-466.157	-200.000	-0.022	0.198
-465.143	314.059	-0.066	-0.125
-464.128	29.351	-0.069	0.059
-463.113	-121.018	-0.194	-0.033
-462.099	800.000	-0.058	0.237
-461.084	240.086	0.141	0.238
-460.070	368.997	0.100	0.204
-459.055	120.034	0.027	-0.033
-458.040	474.120	0.118	0.268
-457.026	-200.000	0.032	0.154
-456.011	-75.613	-0.125	-0.045
-454.997	-4.438	0.012	-0.009
-453.982	453.308	-0.086	0.191
-452.968	51.149	-0.071	0.068
-451.953	-79.741	0.073	0.025
-450.938	148.974	0.168	-0.229
-449.924	-200.000	0.006	0.271
-448.909	-200.000	-0.053	0.256
-447.895	-53.033	-0.160	0.074
-446.880	190.861	-0.082	0.125
-445.865	45.351	-0.087	-0.081
-444.851	-135.206	-0.081	0.010
-443.836	800.000	-0.121	-0.343
-442.822	78.542	-0.043	0.046
-441.807	225.554	-0.095	-0.155
-440.792	55.658	-0.070	-0.068
-439.778	59.154	0.288	-0.286
-438.763	-164.398	0.035	-0.002
-437.749	169.445	-0.041	0.058
-436.734	-200.000	0.056	0.372
-435.719	219.200	0.128	0.207
-434.705	99.729	-0.116	0.135
-433.690	-8.548	0.189	0.128
-432.676	-79.338	0.112	0.038
-431.661	-90.510	-0.193	0.056
-430.646	-31.336	-0.108	0.061
-429.632	-133.604	-0.321	-0.040
-428.617	-48.032	0.160	-0.078
-427.603	-79.299	0.361	0.123
-426.588	-200.000	-0.034	0.188
-425.573	55.722	0.282	0.275
-424.559	-200.000	-0.033	-0.209
-423.544	479.024	0.060	0.136
-422.530	-87.376	-0.075	-0.023
-421.515	-200.000	-0.019	0.235
-420.500	-26.867	-0.099	0.058
-419.486	63.955	-0.196	0.199
-418.471	-200.000	-0.043	0.336
-417.457	800.000	0.029	0.083
-416.442	-200.000	-0.002	-0.221
-415.428	678.132	-0.026	0.067
-414.413	-121.800	-0.402	0.067
-413.398	51.383	-0.359	0.343
-412.384	157.081	0.077	-0.107
-411.369	371.486	-0.158	-0.323
-410.355	38.936	-0.245	-0.220
-409.340	5.921	-0.307	0.229
-408.325	-200.000	-0.008	0.121
-407.311	51.426	0.128	0.122
-406.296	103.672	0.141	0.166
-405.282	-80.115	0.098	-0.033
-404.267	222.897	0.040	-0.064
-403.252	72.563	-0.165	-0.174
-402.238	-127.987	0.145	-0.021
-401.223	800.000	0.041	-0.124
-400.209	-142.698	-0.308	-0.030
-399.194	-156.737	-0.349	0.022
-398.179	769.327	0.164	-0.450
-397.165	40.288	-0.086	0.077
-396.150	-200.000	0.235	-0.000
-395.136	293.879	-0.086	-0.159
-394.121	-170.529	0.208	0.007
-393.106	-200.000	-0.035	0.226
-392.092	177.819	-0.145	0.212
-391.077	396.146	0.200	-0.420
-390.063	800.000	-0.040	-0.170
-389.048	-200.000	0.035	0.291
-388.033	-200.000	0.004	0.042
-387.019	-32.424	-0.143	0.080
-386.004	-200.000	0.014	0.418
-384.990	599.626	0.161	0.401
-383.975	-103.221	-0.373	0.089
-382.960	-47.004	0.146	0.072
-381.946	800.000	0.075	0.328
-380.931	-54.858	0.188	0.085
-379.917	-80.221	-0.088	-0.029
-378.902	10.763	-0.254	0.195
-377.888	-200.000	-0.009	0.156
-376.873	-200.000	0.083	-0.371
-375.858	800.000	0.060	0.193
-374.844	-200.000	0.039	-0.201
-373.829	-117.193	-0.305	0.056
-372.815	-200.000	0.058	-0.307
-371.800	-200.000	0.018	-0.100
-370.785	8.439	-0.112	0.085
-369.771	-200.000	0.009	0.087
-368.756	-42.120	0.305	0.157
-367.742	55.992	0.272	-0.265
-366.727	-68.307	0.388	-0.152
-365.712	-25.356	-0.159	-0.094
-364.698	783.477	0.016	-0.045
-363.683	276.438	0.168	-0.300
-362.669	-59.596	-0.298	0.129
-361.654	-200.000	0.040	0.260
-360.639	-144.805	-0.164	0.015
-359.625	800.000	0.082	-0.330
-358.610	-200.000	-0.010	-0.134
-357.596	-40.598	-0.069	-0.036
-356.581	90.151	-0.017	-0.019
-355.566	-169.239	0.159	-0.006
-354.552	-107.774	-0.347	0.076
-353.537	8.821	0.039	-0.029
-352.523	450.615	0.063	-0.139
-351.508	-113.405	-0.232	-0.046
-350.493	420.297	-0.049	-0.106
-349.479	16.528	-0.180	-0.143
-348.464	-129.456	0.512	-0.071
-347.450	-79.224	-0.143	0.049
-346.435	-19.972	-0.145	-0.090
-345.420	800.000	0.096	-0.312
-344.406	-200.000	-0.022	-0.364
-343.391	518.763	0.125	0.293
-342.377	-200.000	-0.029	-0.174
-341.362	800.000	0.034	0.134
-340.348	343.269	0.084	-0.165
-339.333	52.764	-0.287	0.276
-338.318	-200.000	0.059	0.330
-337.304	127.393	0.089	-0.114
-336.289	434.225	-0.122	0.266
-335.275	-16.135	0.112	0.071
-334.260	74.558	0.115	-0.122
-333.245	410.816	0.153	0.326
-332.231	-107.055	0.157	-0.035
-331.216	800.000	0.042	-0.151
-330.202	642.384	-0.033	-0.085
-329.187	-200.000	-0.006	-0.101
-328.172	126.375	-0.157	-0.199
-327.158	-11.847	-0.089	0.058
-326.143	469.756	0.083	-0.187
-325.129	79.347	0.282	0.303
-324.114	23.892	-0.164	0.136
-323.099	370.565	-0.116	-0.236
-322.085	-103.814	-0.016	0.004
-321.070	800.000	0.038	-0.165
-320.056	-68.867	0.456	0.176
-319.041	-92.365	0.297	-0.084
-318.026	179.598	-0.175	0.257
-317.012	306.973	-0.097	0.182
-315.997	800.000	-0.086	0.317
-314.983	800.000	0.031	0.122
-313.968	-31.693	0.132	-0.074
-312.953	-80.810	0.048	0.016
-311.939	432.737	0.126	-0.275
-310.924	-12.193	-0.100	-0.065
-309.910	-158.676	0.224	-0.013
-308.895	23.759	-0.121	-0.100
-307.880	145.770	-0.037	0.049
-306.866	800.000	-0.066	-0.200
-305.851	-62.793	-0.131	0.054
-304.837	161.442	0.005	-0.007
-303.822	-200.000	-0.028	0.210
-302.807	-79.469	-0.087	0.029
-301.793	-38.551	0.038	0.020
-300.778	26.821	0.070	-0.059
-299.764	-94.240	0.172	-0.047
-298.749	-200.000	0.002	-0.024
-297.735	-20.596	-0.152	-0.093
-296.720	123.674	-0.029	0.036
-295.705	-74.772	0.136	-0.049
-294.691	-61.588	-0.115	0.049
-293.676	93.716	-0.153	0.174
-292.662	-164.748	0.361	-0.016
-291.647	-200.000	-0.020	-0.182
-290.632	-26.172	-0.073	-0.043
-289.618	37.307	0.083	0.074
-288.603	-132.115	0.216	-0.028
-287.589	121.380	0.087	-0.109
-286.574	89.730	0.139	-0.156
-285.559	800.000	0.071	-0.207
-284.545	520.070	0.017	0.039
-283.530	52.010	-0.157	0.150
-282.516	-76.292	-0.217	-0.077
-281.501	303.584	0.054	0.099
-280.486	-200.000	0.001	-0.074
-279.472	-200.000	-0.064	0.406
-278.457	0.801	-0.211	-0.151
-277.443	-200.000	-0.020	0.168
-276.428	-200.000	0.037	0.327
-275.413	800.000	0.091	0.307
-274.399	800.000	-0.100	-0.334
-273.384	800.000	-0.008	-0.024
-272.370	663.559	0.159	-0.410
-271.355	231.525	0.264	0.434
-270.340	-200.000	0.026	0.116
-269.326	89.949	-0.175	-0.195
-268.311	-15.743	0.054	-0.035
-267.297	9.125	-0.279	-0.211
-266.282	-30.468	0.102	-0.058
-265.267	205.892	-0.139	-0.216
-264.253	-200.000	0.005	-0.023
-263.238	328.852	-0.190	-0.365
-262.224	-82.453	-0.221	-0.072
-261.209	761.216	0.210	-0.569
-260.195	36.882	-0.183	-0.162
-259.180	800.000	-0.075	0.290
-258.165	-155.631	-0.167	0.011
-257.151	-67.334	0.202	0.080
-256.136	-200.000	0.021	-0.140
-255.122	800.000	-0.112	0.338
-254.107	-113.323	0.228	-0.045
-253.092	-124.965	-0.307	0.047
-252.078	800.000	-0.078	-0.270
-251.063	-160.722	-0.118	0.006
-250.049	396.148	0.164	0.343
-249.034	-200.000	-0.028	0.297
-248.019	119.013	0.116	0.144
-247.005	660.589	0.080	0.205
-245.990	172.454	0.058	0.083
-244.976	-200.000	0.045	0.340
-243.961	-200.000	-0.034	0.346
-242.946	-200.000	-0.043	-0.210
-241.932	-39.437	0.214	-0.112
-240.917	800.000	-0.033	-0.117
-239.903	-200.000	-0.033	-0.196
-238.888	-173.617	-0.179	0.005
-237.873	800.000	-0.038	-0.111
-236.859	58.897	0.206	0.202
-235.844	318.739	0.078	0.148
-234.830	-200.000	0.002	-0.155
-233.815	-129.332	-0.157	0.022
-232.800	658.855	0.087	0.224
-231.786	800.000	0.076	0.247
-230.771	800.000	-0.110	-0.381
-229.757	-21.196	-0.179	0.109
-228.742	-50.403	-0.274	0.129
-227.727	69.121	0.152	-0.156
-226.713	800.000	0.157	-0.437
-225.698	122.729	0.067	0.083
-224.684	172.956	-0.134	-0.193
-223.669	-155.207	0.351	0.023
-222.655	-52.419	-0.214	-0.099
-221.640	9.606	0.080	0.060
-220.625	-200.000	-0.048	0.214
-219.611	-98.116	0.449	0.115
-218.596	711.276	-0.053	-0.141
-217.582	-19.000	0.045	0.028
-216.567	-63.027	0.245	-0.101
-215.552	-92.544	-0.098	-0.027
-214.538	-146.235	-0.207	0.018
-213.523	92.291	-0.165	0.185
-212.509	31.658	0.068	-0.058
-211.494	124.933	-0.090	-0.113
-210.479	458.725	0.170	-0.377
-209.465	-50.489	0.173	-0.081
-208.450	-4.241	0.227	0.157
-207.436	-200.000	0.033	-0.226
-206.421	-123.584	0.335	0.053
-205.406	331.320	0.140	-0.270
-204.392	-25.221	-0.325	0.192
-203.377	-200.000	-0.009	0.218
-202.363	-14.356	0.282	0.182
-201.348	6.837	0.444	-0.330
-200.333	338.278	0.080	0.156
-199.319	-172.201	-0.061	0.002
-198.304	70.048	0.168	0.173
-197.290	301.473	0.120	0.222
-196.275	215.331	-0.144	0.229
-195.260	-177.699	-0.056	0.001
-194.246	5.396	0.143	0.105
-193.231	87.688	0.223	0.246
-192.217	185.626	-0.159	-0.236
-191.202	800.000	0.049	0.162
-190.187	-200.000	-0.018	-0.194
-189.173	-1.767	0.244	0.171
-188.158	-133.980	0.158	-0.020
-187.144	87.421	0.157	0.174
-186.129	-91.416	0.427	0.122
-185.114	209.046	-0.197	0.308
-184.100	-110.098	0.232	-0.048
-183.085	-200.000	-0.035	0.191
-182.071	-15.728	0.168	0.107
-181.056	-200.000	-0.050	-0.263
-180.042	-95.094	-0.170	0.046
-179.027	14.857	0.163	0.127
-178.012	-152.608	-0.146	0.010
-176.998	-200.000	-0.025	-0.376
-175.983	-16.139	0.053	-0.034
-174.969	-78.520	0.196	-0.067
-173.954	-123.835	0.213	-0.034
-172.939	-156.315	-0.188	0.012
-171.925	-18.464	0.096	0.060
-170.910	-84.686	0.241	-0.076
-169.896	214.667	0.177	-0.279
-168.881	-75.158	0.145	-0.052
-167.866	-11.261	-0.155	-0.102
-166.852	376.820	-0.159	0.323
-165.837	800.000	-0.079	0.250
-164.823	-200.000	-0.025	-0.260
-163.808	-18.772	-0.217	0.135
-162.793	508.917	0.166	0.385
-161.779	-29.373	0.230	0.131
-160.764	42.697	-0.146	0.132
-159.750	23.390	-0.137	0.112
-158.735	107.263	-0.208	0.247
-157.720	106.959	-0.258	0.305
-156.706	-32.734	0.593	-0.329
-155.691	363.315	0.070	0.139
-154.677	-112.687	0.130	0.026
-153.662	800.000	0.070	0.225
-152.647	90.100	-0.151	-0.168
-151.633	15.162	-0.037	-0.029
-150.618	221.900	0.125	-0.200
-149.604	200.072	0.110	0.169
-148.589	-200.000	0.024	0.328
-147.574	-162.609	-0.299	-0.015
-146.560	479.386	0.072	-0.161
-145.545	105.676	0.180	-0.212
-144.531	106.209	0.372	0.439
-143.516	-63.014	-0.191	0.078
-142.502	382.051	0.099	-0.203
-141.487	-200.000	-0.018	-0.122
-140.472	-200.000	0.028	0.236
-139.458	116.290	-0.140	0.170
-138.443	77.646	-0.224	0.238
-137.429	-51.472	-0.345	-0.161
-136.414	85.449	-0.091	0.099
-135.399	196.112	0.193	-0.293
-134.385	800.000	0.088	0.247
-133.370	-200.000	0.026	-0.132
-132.356	-30.817	-0.196	-0.110
-131.341	-200.000	0.016	0.138
-130.326	-153.961	0.132	0.009
-129.312	4.342	-0.103	-0.075
-128.297	-154.993	-0.241	0.016
-127.283	3.290	-0.079	0.057
-126.268	423.286	-0.100	0.213
-125.253	84.430	0.146	0.159
-124.239	-91.273	-0.306	-0.087
-123.224	-44.861	0.353	0.175
-122.210	-200.000	0.011	0.088
-121.195	-200.000	-0.026	0.198
