DTS Sentinel unit serial number:	SN413079Multiplexer serial number:	ORYXHardware model number:	OX4-SRSoftware version number:	ORYX F/W v4.00 Oryx Data Collector v3.7.2.0data status	okinstallation	princeton_trtdifferential loss correction	single-endedforward channel	channel 2reverse channel	N/Adate	2019/09/12time	20:00:49forward acquisition time	15.00reverse acquisition time	0.00gamma	496.2192k internal	0.2327k external	0.2327temperature offset calibration	1.0151default loss term (dB/km)	0.3790temperature slope calibration	1.0000multiplexer offset coefficient	1.0000multiplexer slope coefficient	1.0000fibre end	0.00T internal ref (°C)	31.75T ext. ref 1 (°C)	3.41T ext. ref 2 (°C)	26.33length (m)	temperature (°C)	Stokes	anti-Stokes-747.200	277.862	-0.070	-0.125
-746.185	-118.572	-0.450	0.080
-745.171	-94.142	0.334	-0.092
-744.156	58.428	-0.088	0.087
-743.142	-130.097	0.335	-0.046
-742.127	-145.904	0.252	0.023
-741.112	-58.075	0.370	-0.163
-740.098	800.000	-0.053	-0.206
-739.083	-200.000	-0.604	0.002
-738.069	-90.535	0.813	0.237
-737.054	-102.418	0.252	-0.061
-736.039	-153.164	0.156	0.011
-735.025	-11.907	-0.471	0.311
-734.010	-200.000	0.064	0.295
-732.996	-92.790	-0.609	-0.172
-731.981	457.657	0.088	-0.197
-730.966	8.322	0.255	0.193
-729.952	-28.276	-0.283	-0.165
-728.937	-44.155	0.777	-0.393
-727.923	7.500	-0.707	-0.532
-726.908	-200.000	0.098	-0.453
-725.894	99.145	-0.207	-0.241
-724.879	12.272	-0.440	-0.341
-723.864	25.582	-0.621	-0.520
-722.850	278.451	0.233	-0.417
-721.835	25.396	-0.470	-0.394
-720.821	-85.811	-0.317	-0.099
-719.806	-200.000	0.122	-0.592
-718.791	800.000	0.221	-0.718
-717.777	34.486	-0.504	-0.443
-716.762	-200.000	-0.013	-0.247
-715.748	549.848	-0.249	-0.602
-714.733	-42.838	-0.513	-0.263
-713.718	167.525	0.246	0.352
-712.704	126.397	-0.632	0.805
-711.689	-75.494	-0.425	-0.152
-710.675	-200.000	-0.566	0.002
-709.660	78.941	-0.220	0.237
-708.645	-48.785	0.234	-0.113
-707.631	800.000	-0.290	-1.131
-706.616	-200.000	0.181	-0.994
-705.602	800.000	0.114	-0.476
-704.587	72.285	-0.061	-0.064
-703.572	800.000	-0.316	-1.121
-702.558	-43.628	0.400	-0.203
-701.543	74.887	-0.520	0.551
-700.529	-79.471	-0.661	-0.225
-699.514	-200.000	-0.255	-1.223
-698.499	-94.542	-1.006	0.276
-697.485	212.298	-0.336	0.534
-696.470	42.801	-0.417	-0.382
-695.456	-32.956	0.138	-0.077
-694.441	28.479	-0.322	0.274
-693.426	-82.619	0.468	-0.152
-692.412	-47.157	-0.211	-0.104
-691.397	-70.617	0.197	0.075
-690.383	-200.000	0.052	-0.864
-689.368	82.051	-0.133	-0.145
-688.354	-42.476	0.819	-0.420
-687.339	-200.000	-0.113	-0.647
-686.324	-18.211	-0.942	-0.593
-685.310	205.121	-0.222	0.346
-684.295	-104.035	-0.563	0.132
-683.281	-122.088	-0.385	0.064
-682.266	-69.495	-0.914	0.352
-681.251	-200.000	0.142	0.906
-680.237	40.332	0.349	-0.316
-679.222	557.309	-0.385	-0.933
-678.208	-80.506	1.160	0.389
-677.193	82.787	-0.311	-0.340
-676.178	58.748	0.276	0.273
-675.164	-200.000	-0.061	-0.494
-674.149	-113.630	0.093	0.018
-673.135	-84.068	0.410	0.131
-672.120	-55.429	0.741	-0.334
-671.105	-200.000	0.009	0.240
-670.091	-126.649	0.129	-0.019
-669.076	-200.000	0.056	-0.274
-668.062	51.114	0.210	-0.200
-667.047	-7.084	0.333	0.227
-666.032	800.000	0.132	-0.414
-665.018	800.000	0.154	-0.435
-664.003	50.526	-0.154	0.146
-662.989	-200.000	-0.024	-0.607
-661.974	504.998	-0.368	-0.856
-660.959	-200.000	0.003	0.756
-659.945	800.000	0.206	0.712
-658.930	191.871	-0.465	0.704
-657.916	-193.161	-0.261	-0.002
-656.901	111.609	0.796	-0.964
-655.886	-200.000	0.053	0.495
-654.872	344.228	0.269	0.531
-653.857	-65.891	0.325	0.131
-652.843	-65.071	0.739	0.300
-651.828	37.200	0.584	-0.519
-650.814	-200.000	0.092	-0.740
-649.799	617.351	0.140	-0.353
-648.784	-100.700	0.546	-0.135
-647.770	-200.000	-0.005	-0.461
-646.755	26.815	-0.440	0.371
-645.741	800.000	0.255	0.777
-644.726	-74.230	0.336	-0.122
-643.711	800.000	0.039	-0.109
-642.697	-200.000	-0.001	0.416
-641.682	800.000	-0.062	-0.227
-640.668	-39.190	0.655	-0.345
-639.653	-200.000	-0.005	0.091
-638.638	-188.821	0.131	-0.002
-637.624	-136.554	-0.718	-0.083
-636.609	-10.616	0.914	0.608
-635.595	-98.872	-0.185	0.047
-634.580	-42.601	-0.247	0.126
-633.565	41.643	-0.276	-0.251
-632.551	800.000	0.106	-0.350
-631.536	-200.000	0.059	-0.727
-630.522	-135.985	0.704	-0.083
-629.507	186.662	-0.257	-0.384
-628.492	3.839	1.113	0.816
-627.478	800.000	-0.106	-0.369
-626.463	96.288	0.513	-0.589
-625.449	-71.397	-0.107	0.040
-624.434	-61.015	-0.754	-0.320
-623.419	-200.000	-0.062	-0.938
-622.405	-13.560	0.443	-0.288
-621.390	-24.080	0.904	-0.542
-620.376	-200.000	0.018	-0.251
-619.361	79.203	0.244	-0.262
-618.346	-182.502	1.234	-0.023
-617.332	800.000	-0.133	-0.534
-616.317	42.733	-0.678	0.619
-615.303	-87.448	0.782	-0.238
-614.288	176.942	-0.499	0.728
-613.273	461.916	0.251	0.562
-612.259	109.393	0.794	0.953
-611.244	-119.037	-0.843	0.148
-610.230	-94.209	-0.520	0.143
-609.215	3.952	-0.268	0.196
-608.201	800.000	0.034	0.142
-607.186	800.000	-0.103	-0.415
-606.171	-67.267	-0.558	-0.220
-605.157	-90.950	0.263	0.076
-604.142	363.932	-0.316	-0.637
-603.128	800.000	-0.045	0.132
-602.113	-165.632	-0.400	-0.017
-601.098	637.934	-0.237	-0.603
-600.084	-200.000	0.165	-1.023
-599.069	-60.193	0.908	0.388
-598.055	-136.964	-0.494	0.057
-597.040	-200.000	-0.055	0.484
-596.025	-150.378	0.293	-0.023
-595.011	218.230	0.197	-0.315
-593.996	36.885	-0.114	0.101
-592.982	9.998	0.609	-0.463
-591.967	-137.567	0.931	-0.105
-590.952	-60.886	-1.077	0.457
-589.938	800.000	0.098	0.339
-588.923	1.871	0.529	0.382
-587.909	64.457	0.528	0.533
-586.894	433.239	-0.379	-0.825
-585.879	-4.219	-0.257	-0.178
-584.865	-200.000	-0.017	0.151
-583.850	-200.000	0.114	0.505
-582.836	-22.190	-0.723	-0.439
-581.821	-200.000	0.064	-0.692
-580.806	-6.898	0.188	0.128
-579.792	223.520	0.359	0.580
-578.777	795.800	0.148	0.408
-577.763	800.000	0.060	0.254
-576.748	60.944	0.347	-0.345
-575.733	-200.000	-0.014	-0.400
-574.719	-185.600	0.245	0.004
-573.704	-200.000	-0.016	-0.201
-572.690	36.443	0.557	-0.492
-571.675	-12.498	-0.619	-0.405
-570.661	437.922	0.211	0.461
-569.646	-200.000	-0.062	0.395
-568.631	157.077	0.208	0.288
-567.617	250.737	-0.141	0.239
-566.602	-200.000	-0.089	-0.698
-565.588	87.163	0.290	0.321
-564.573	-200.000	-0.013	-0.221
-563.558	247.353	-0.150	-0.253
-562.544	-192.928	-0.405	-0.004
-561.529	49.717	-0.449	0.423
-560.515	-200.000	0.068	0.903
-559.500	-153.314	0.472	-0.033
-558.485	194.797	-0.173	-0.263
-557.471	-72.455	0.710	-0.263
-556.456	209.221	0.260	-0.407
-555.442	282.743	-0.548	0.984
-554.427	360.526	0.258	0.516
-553.412	800.000	-0.079	-0.233
-552.398	413.715	0.140	-0.297
-551.383	-96.359	1.048	-0.277
-550.369	-31.607	-0.350	-0.197
-549.354	342.032	-0.271	-0.529
-548.339	-96.791	0.469	-0.123
-547.325	-200.000	0.017	-0.734
-546.310	-200.000	-0.071	0.408
-545.296	427.516	0.189	0.407
-544.281	-110.953	-0.921	0.189
-543.266	28.615	0.552	0.467
-542.252	306.238	0.096	-0.179
-541.237	-200.000	0.099	-0.485
-540.223	-200.000	0.011	-0.624
-539.208	102.757	0.363	0.425
-538.193	3.344	-0.088	-0.064
-537.179	118.864	-0.293	-0.363
-536.164	-188.862	-0.048	0.001
-535.150	-108.709	0.255	-0.055
-534.135	-200.000	0.063	0.731
-533.121	736.127	-0.255	0.684
-532.106	326.687	-0.296	-0.566
-531.091	-200.000	-0.052	-0.354
-530.077	-96.359	0.497	-0.131
-529.062	286.913	-0.186	-0.336
-528.048	61.065	-0.305	0.302
-527.033	-200.000	-0.042	0.241
-526.018	-200.000	0.147	-0.914
-525.004	-200.000	0.025	-0.838
-523.989	-32.844	-0.746	0.414
-522.975	14.314	0.187	-0.146
-521.960	800.000	0.064	-0.188
-520.945	-200.000	-0.035	-0.839
-519.931	-114.498	0.865	-0.166
-518.916	-38.152	-0.424	0.225
-517.902	61.287	0.146	0.145
-516.887	-8.498	-0.504	0.338
-515.872	113.852	0.096	0.116
-514.858	132.390	-0.219	-0.282
-513.843	484.295	0.203	0.461
-512.829	39.727	-0.475	-0.425
-511.814	57.805	-0.477	0.466
-510.799	-11.570	-0.405	0.266
-509.785	14.311	-0.078	0.061
-508.770	-200.000	-0.009	0.145
-507.756	511.448	0.209	-0.485
-506.741	-141.128	0.378	0.039
-505.726	-200.000	-0.006	-0.310
-504.712	636.226	0.282	-0.714
-503.697	800.000	-0.285	-0.829
-502.683	800.000	0.166	0.667
-501.668	61.260	0.287	0.285
-500.653	72.304	-0.206	0.215
-499.639	227.546	-0.071	0.116
-498.624	4.869	-0.257	-0.188
-497.610	-6.998	-0.427	-0.290
-496.595	198.500	-0.351	-0.537
-495.581	9.947	-0.052	-0.039
-494.566	-46.890	0.715	-0.349
-493.551	-67.916	0.124	0.048
-492.537	-123.135	-0.695	0.111
-491.522	93.736	0.367	-0.416
-490.508	-119.503	-0.669	0.116
-489.493	-200.000	-0.059	-0.638
-488.478	-8.671	-0.206	0.138
-487.464	177.203	0.335	0.486
-486.449	-60.837	0.665	-0.281
-485.435	49.159	-0.344	-0.323
-484.420	-65.909	-0.264	0.105
-483.405	800.000	0.209	-0.658
-482.391	216.657	-0.028	-0.044
-481.376	-200.000	-0.020	-0.607
-480.362	-200.000	-0.060	0.509
-479.347	800.000	-0.035	-0.113
-478.332	800.000	0.154	0.470
-477.318	184.459	-0.537	-0.793
-476.303	655.671	-0.226	0.579
-475.289	-136.862	0.251	-0.029
-474.274	-108.494	0.479	0.103
-473.259	47.873	-0.370	-0.345
-472.245	269.394	-0.459	-0.804
-471.230	16.676	-0.452	0.357
-470.216	800.000	0.260	0.833
-469.201	-200.000	-0.064	-0.531
-468.186	-76.824	0.989	-0.345
-467.172	417.114	0.058	0.124
-466.157	122.144	-0.484	-0.603
-465.143	22.691	0.518	-0.423
-464.128	800.000	0.360	1.111
-463.113	-109.258	0.022	-0.005
-462.099	800.000	0.025	-0.104
-461.084	-200.000	-0.063	-0.332
-460.070	137.334	-0.229	-0.298
-459.055	280.505	0.242	0.431
-458.040	589.588	0.180	-0.442
-457.026	-98.375	0.783	0.200
-456.011	-93.638	1.076	0.296
-454.997	-168.910	-0.298	-0.011
-453.982	24.825	-0.286	0.236
-452.968	-50.322	-0.985	-0.464
-451.953	-200.000	0.001	-0.539
-450.938	-97.413	0.364	0.095
-449.924	800.000	-0.056	0.223
-448.909	46.451	0.288	0.266
-447.895	92.228	0.598	-0.671
-446.880	-38.859	0.664	0.349
-445.865	153.118	0.099	0.134
-444.851	-49.462	-0.490	0.232
-443.836	-200.000	0.008	0.574
-442.822	-200.000	0.068	0.300
-441.807	-97.454	0.163	-0.042
-440.792	-149.190	-0.488	-0.039
-439.778	800.000	-0.190	-0.824
-438.763	294.043	-0.266	-0.484
-437.749	233.424	-0.249	-0.408
-436.734	89.857	-0.489	0.544
-435.719	-69.715	-0.747	0.284
-434.705	-200.000	-0.008	0.051
-433.690	-5.425	-0.250	-0.171
-432.676	-151.555	-0.232	-0.017
-431.661	800.000	0.040	-0.169
-430.646	155.145	-0.292	-0.400
-429.632	545.970	-0.344	0.820
-428.617	-200.000	0.015	1.264
-427.603	800.000	-0.311	0.917
-426.588	799.132	-0.105	-0.287
-425.573	-157.335	-0.549	-0.033
-424.559	367.878	-0.088	-0.178
-423.544	777.501	0.215	-0.586
-422.530	-109.310	-0.289	-0.061
-421.515	148.263	-0.448	-0.601
-420.500	1.774	0.255	0.183
-419.486	-26.910	0.032	-0.019
-418.471	-167.755	-0.832	-0.033
-417.457	-146.231	0.575	0.050
-416.442	169.135	-0.320	-0.455
-415.428	-72.197	-0.308	0.114
-414.413	-200.000	0.026	-0.169
-413.398	-54.341	0.433	-0.195
-412.384	173.499	0.065	0.094
-411.369	279.531	0.395	0.702
-410.355	79.275	-0.844	-0.900
-409.340	-61.213	0.697	-0.292
-408.325	-178.049	0.576	-0.014
-407.311	-112.392	0.166	0.033
-406.296	341.828	-0.306	0.596
-405.282	136.622	0.486	0.631
-404.267	-126.827	-1.235	0.181
-403.252	-108.831	0.433	0.092
-402.238	800.000	-0.183	0.702
-401.223	-134.727	0.632	0.076
-400.209	-167.934	0.954	-0.037
-399.194	615.741	0.297	0.742
-398.179	186.675	0.480	0.711
-397.165	-200.000	0.022	-0.513
-396.150	13.075	-0.416	-0.320
-395.136	-200.000	-0.068	0.314
-394.121	160.355	0.226	0.313
-393.106	800.000	0.192	0.576
-392.092	-38.333	-0.619	-0.326
-391.077	558.409	0.210	-0.503
-390.063	-115.324	0.926	0.174
-389.048	-200.000	-0.011	-0.084
-388.033	-200.000	-0.135	-1.357
-387.019	-53.285	-0.428	-0.195
-386.004	172.408	-0.080	-0.115
-384.990	800.000	-0.216	0.660
-383.975	-69.858	-0.802	-0.304
-382.960	3.159	-0.974	-0.704
-381.946	-68.524	-0.043	0.017
-380.931	-57.534	0.265	0.115
-379.917	48.732	-0.759	0.708
-378.902	140.539	-0.718	0.942
-377.888	194.554	0.431	0.650
-376.873	-15.254	-0.643	-0.408
-375.858	-113.119	-0.354	-0.069
-374.844	7.151	-0.384	0.284
-373.829	-55.012	-0.027	0.012
-372.815	495.090	0.389	0.887
-371.800	54.865	-0.419	0.402
-370.785	94.757	-0.216	-0.244
-369.771	-85.903	0.331	0.102
-368.756	-100.683	0.516	0.126
-367.742	52.164	-0.053	0.050
-366.727	339.469	-0.177	0.342
-365.712	-117.860	-0.409	-0.073
-364.698	58.049	-0.085	0.082
-363.683	800.000	-0.080	0.230
-362.669	-200.000	0.064	-0.361
-361.654	282.396	0.202	0.360
-360.639	25.196	0.441	0.364
-359.625	-200.000	0.119	0.780
-358.610	-127.511	0.172	-0.025
-357.596	373.929	0.217	0.439
-356.581	-156.189	0.164	0.010
-355.566	553.782	0.173	0.412
-354.552	-186.019	-0.179	-0.003
-353.537	-200.000	0.004	-0.652
-352.523	-6.091	0.799	0.542
-351.508	305.241	0.265	0.489
-350.493	-87.808	-0.548	-0.164
-349.479	-13.313	0.569	0.367
-348.464	-200.000	-0.005	0.926
-347.450	800.000	0.225	0.898
-346.435	-139.141	-0.387	-0.042
-345.420	53.686	-0.845	-0.805
-344.406	46.559	0.518	0.477
-343.391	31.842	-0.448	-0.383
-342.377	-132.545	0.385	0.049
-341.362	800.000	-0.113	0.326
-340.348	-88.665	0.484	0.143
-339.333	-75.521	0.505	-0.178
-338.318	-76.982	-0.224	-0.078
-337.304	-119.042	-0.273	-0.047
-336.289	-183.340	0.603	-0.010
-335.275	-68.328	0.557	0.215
-334.260	67.038	-0.416	-0.421
-333.245	-200.000	-0.073	0.399
-332.231	1.509	-0.514	0.367
-331.216	-171.847	0.353	0.011
-330.202	800.000	0.301	-0.983
-329.187	392.641	-0.448	-0.924
-328.172	-24.296	-0.302	-0.178
-327.158	9.808	0.123	-0.093
-326.143	-73.121	0.680	-0.247
-325.129	117.393	-0.342	0.417
-324.114	32.544	-0.178	-0.153
-323.099	480.280	-0.012	-0.027
-322.085	213.530	-0.264	-0.413
-321.070	-94.799	0.166	-0.045
-320.056	125.976	0.320	-0.401
-319.041	424.048	0.076	0.163
-318.026	800.000	0.111	0.387
-317.012	-200.000	-0.111	-0.878
-315.997	219.691	-0.360	-0.571
-314.983	-91.855	1.036	-0.291
-313.968	-18.775	0.808	0.499
-312.953	84.553	0.160	-0.174
-311.939	-105.550	0.245	-0.055
-310.924	-80.489	0.169	0.056
-309.910	-23.002	0.274	0.164
-308.895	-123.337	0.522	0.083
-307.880	-70.694	-0.263	-0.098
-306.866	442.381	-0.126	0.273
-305.851	44.071	-0.383	0.348
-304.837	247.025	-0.242	-0.405
-303.822	45.725	-0.760	0.696
-302.807	88.313	-0.113	-0.125
-301.793	144.759	-0.380	0.503
-300.778	128.146	-0.290	-0.366
-299.764	238.209	-0.316	-0.520
-298.749	80.119	-0.203	0.217
-297.735	-20.050	-0.623	-0.381
-296.720	800.000	0.125	0.520
-295.705	-31.846	-0.524	0.291
-294.691	637.185	-0.137	-0.345
-293.676	-143.368	0.107	0.010
-292.662	305.798	0.400	-0.736
-291.647	-108.555	-0.762	-0.162
-290.632	-85.654	0.761	0.234
-289.618	-130.580	-0.141	-0.019
-288.603	-14.889	-0.503	-0.319
-287.589	-200.000	-0.010	-0.078
-286.574	-30.377	-0.362	0.204
-285.559	-147.205	0.851	-0.072
-284.545	800.000	-0.198	0.613
-283.530	-137.388	-0.433	-0.049
-282.516	800.000	-0.190	-0.633
-281.501	398.162	-0.262	-0.542
-280.486	-19.205	0.372	-0.229
-279.472	262.226	-0.169	-0.290
-278.457	66.894	-0.365	0.368
-277.443	-54.020	0.421	-0.190
-276.428	174.119	0.227	0.325
-275.413	264.229	0.173	-0.299
-274.399	-58.794	0.762	-0.326
-273.384	800.000	-0.147	-0.451
-272.370	-101.448	-0.639	0.154
-271.355	-169.398	0.833	-0.030
-270.340	-140.038	-0.637	-0.066
-269.326	-72.409	-0.382	-0.140
-268.311	-200.000	-0.040	0.458
-267.297	800.000	0.053	-0.206
-266.282	248.913	-0.481	0.806
-265.267	-200.000	-0.075	0.704
-264.253	418.834	0.285	0.604
-263.238	-200.000	-0.015	-0.130
-262.224	95.756	-0.298	0.336
-261.209	390.487	-0.207	0.424
-260.195	-1.633	-0.203	-0.141
-259.180	-183.746	0.529	0.009
-258.165	-67.205	0.378	0.147
-257.151	82.402	-0.305	-0.328
-256.136	-110.732	-0.387	0.079
-255.122	-87.126	-0.773	-0.233
-254.107	133.888	0.449	-0.575
-253.092	-110.287	-0.386	0.079
-252.078	97.875	0.721	0.820
-251.063	800.000	0.118	-0.341
-250.049	-200.000	-0.038	0.548
-249.034	84.914	0.493	0.534
-248.019	-200.000	-0.148	-0.652
-247.005	137.125	-0.428	-0.553
-245.990	-163.584	-0.303	-0.014
-244.976	277.896	-0.147	-0.259
-243.961	78.658	-0.361	0.382
-242.946	-200.000	0.062	0.608
-241.932	30.871	0.251	-0.212
-240.917	10.060	-0.074	-0.055
-239.903	46.086	0.512	-0.469
-238.888	62.147	-0.424	-0.418
-237.873	-200.000	-0.002	-0.241
-236.859	255.701	0.279	-0.473
-235.844	-20.171	0.594	-0.361
-234.830	22.253	-0.470	0.380
-233.815	110.799	0.316	-0.375
-232.800	-77.673	-0.102	0.035
-231.786	125.121	-0.396	-0.493
-230.771	-1.420	0.416	0.290
-229.757	146.962	0.435	0.579
-228.742	-76.378	0.584	0.203
-227.727	-41.844	0.169	-0.086
-226.713	-125.395	-0.608	0.092
-225.698	230.012	-0.196	-0.317
-224.684	800.000	0.087	-0.376
-223.669	165.367	-0.488	0.682
-222.655	-135.875	0.518	0.060
-221.640	800.000	0.124	0.409
-220.625	48.450	-0.080	0.074
-219.611	-200.000	-0.029	0.675
-218.596	69.943	-0.461	-0.470
-217.582	-107.717	0.272	0.059
-216.567	32.292	-0.395	-0.337
-215.552	800.000	-0.097	0.383
-214.538	-71.696	0.429	0.158
-213.523	-123.857	1.127	0.176
-212.509	595.998	0.194	0.474
-211.494	-200.000	0.062	0.650
-210.479	49.746	-0.494	-0.459
-209.465	-18.749	-0.345	0.212
-208.450	-69.587	0.465	-0.176
-207.436	800.000	0.321	-1.048
-206.421	-150.342	-0.471	-0.036
-205.406	391.489	-0.260	0.532
-204.392	348.031	-0.154	0.299
-203.377	50.977	-0.327	-0.306
-202.363	-167.699	-0.800	0.031
-201.348	-91.743	0.667	0.187
-200.333	-200.000	-0.187	-0.979
-199.319	18.965	-0.510	0.403
-198.304	-200.000	-0.053	0.665
-197.290	1.954	0.438	0.312
-196.275	131.962	0.225	-0.285
-195.260	-8.801	0.661	0.438
-194.246	63.697	-0.167	0.165
-193.231	-109.338	1.462	-0.306
-192.217	6.525	-0.426	0.312
-191.202	-123.696	-0.419	-0.065
-190.187	15.753	-0.640	0.497
-189.173	-44.505	0.747	-0.368
-188.158	88.613	0.297	-0.325
-187.144	-121.724	-0.689	-0.112
-186.129	28.824	-0.685	-0.573
-185.114	-200.000	-0.017	-0.281
-184.100	-101.088	0.446	-0.108
-183.085	-137.159	-0.897	0.101
-182.071	-200.000	0.000	-0.335
-181.056	34.731	0.544	0.469
-180.042	46.709	-0.247	-0.226
-179.027	800.000	-0.110	0.305
-178.012	27.177	-0.060	0.050
-176.998	-200.000	0.478	0.002
-175.983	-90.477	-0.557	-0.159
-174.969	26.714	0.150	-0.124
-173.954	-200.000	-0.066	-0.594
-172.939	-200.000	-0.504	0.000
-171.925	-104.989	0.746	-0.168
-170.910	71.639	0.189	0.194
-169.896	-81.613	0.313	-0.101
-168.881	216.133	0.471	0.738
-167.866	-127.440	-0.911	-0.131
-166.852	-132.261	-1.659	-0.212
-165.837	612.832	0.329	0.812
-164.823	-200.000	0.202	0.879
-163.808	21.427	-0.587	-0.470
-162.793	195.564	0.330	-0.495
-161.779	-46.303	0.127	0.061
-160.764	12.605	0.365	0.277
-159.750	560.931	0.071	-0.170
-158.735	145.061	-0.961	1.267
-157.720	7.852	-0.132	0.098
-156.706	-129.816	0.395	-0.053
-155.691	-68.138	-0.313	-0.120
-154.677	-200.000	0.020	0.200
-153.662	454.137	-0.204	-0.444
-152.647	-62.698	0.533	0.218
-151.633	173.232	0.870	1.235
-150.618	1.285	0.446	-0.316
-149.604	54.542	0.333	-0.316
-148.589	291.415	0.176	-0.316
-147.574	-103.102	-0.408	0.095
-146.560	252.126	0.375	-0.628
-145.545	-120.065	-0.366	0.062
-144.531	677.682	0.253	-0.649
-143.516	-15.116	0.252	-0.159
-142.502	426.721	0.184	0.390
-141.487	-10.295	0.095	0.062
-140.472	800.000	0.145	-0.486
-139.458	800.000	-0.178	0.539
-138.443	-33.045	-0.136	0.074
-137.429	-64.706	0.748	-0.299
-136.414	20.542	0.302	0.240
-135.399	492.814	0.272	0.614
-134.385	-112.897	0.834	-0.163
-133.370	45.063	0.244	-0.221
-132.356	-6.066	-0.167	0.112
-131.341	-43.534	-0.285	-0.142
-130.326	99.805	-0.333	0.379
-129.312	121.056	-0.408	-0.500
-128.297	-183.878	-0.823	0.014
-127.283	524.548	-0.345	0.799
-126.268	197.374	-0.305	0.457
-125.253	-200.000	0.014	-0.679
-124.239	-166.468	0.669	0.028
-123.224	323.630	-0.224	0.421
-122.210	-45.223	-0.661	-0.323
-121.195	-132.598	-0.566	0.072
