DTS Sentinel unit serial number:	SN413079Multiplexer serial number:	ORYXHardware model number:	OX4-SRSoftware version number:	ORYX F/W v4.00 Oryx Data Collector v3.7.2.0data status	okinstallation	princeton_trtdifferential loss correction	single-endedforward channel	channel 2reverse channel	N/Adate	2019/09/12time	19:38:49forward acquisition time	15.00reverse acquisition time	0.00gamma	496.2192k internal	0.2327k external	0.2327temperature offset calibration	1.0144default loss term (dB/km)	0.3790temperature slope calibration	1.0000multiplexer offset coefficient	1.0000multiplexer slope coefficient	1.0000fibre end	0.00T internal ref (°C)	32.12T ext. ref 1 (°C)	3.33T ext. ref 2 (°C)	26.67length (m)	temperature (°C)	Stokes	anti-Stokes-747.200	-71.394	-0.498	-0.188
-746.185	22.146	-0.061	0.050
-745.171	-200.000	0.024	0.553
-744.156	-45.016	-0.324	0.162
-743.142	-130.425	0.266	0.036
-742.127	-94.517	-0.378	0.104
-741.112	-154.506	-1.038	-0.070
-740.098	-87.891	-0.746	-0.226
-739.083	-91.315	-0.553	-0.159
-738.069	-129.654	-0.435	0.061
-737.054	-31.457	-0.566	0.321
-736.039	114.050	0.552	-0.677
-735.025	-200.000	0.006	0.290
-734.010	800.000	0.124	0.388
-732.996	-64.692	-0.878	0.359
-731.981	282.341	0.175	-0.316
-730.966	24.449	-0.218	-0.181
-729.952	-44.855	-0.424	0.213
-728.937	-75.778	-0.591	0.211
-727.923	-200.000	0.155	0.784
-726.908	360.763	-0.171	0.344
-725.894	-200.000	0.110	-1.088
-724.879	94.567	-0.603	-0.690
-723.864	114.328	-0.637	-0.781
-722.850	-41.199	-0.633	0.329
-721.835	-170.528	-0.356	-0.012
-720.821	800.000	-0.048	0.134
-719.806	9.873	0.230	0.176
-718.791	338.226	-0.407	-0.798
-717.777	-42.413	0.615	0.316
-716.762	-13.540	0.820	-0.535
-715.748	719.676	0.105	0.281
-714.733	179.468	-0.517	0.763
-713.718	62.253	0.272	0.273
-712.704	309.359	-0.137	0.257
-711.689	251.944	-0.775	1.329
-710.675	117.659	0.481	0.597
-709.660	292.354	0.224	-0.411
-708.645	-82.465	-0.864	-0.282
-707.631	-70.610	-0.607	0.231
-706.616	-26.308	-0.455	0.269
-705.602	-91.909	0.685	-0.196
-704.587	-153.974	-0.197	-0.014
-703.572	266.616	0.306	-0.538
-702.558	-172.183	-0.194	-0.006
-701.543	800.000	-0.136	-0.567
-700.529	-200.000	-0.063	-0.430
-699.514	28.434	0.632	-0.537
-698.499	210.482	0.236	0.373
-697.485	16.732	0.778	0.619
-696.470	-200.000	0.045	-0.408
-695.456	110.618	0.198	-0.239
-694.441	88.529	0.578	-0.646
-693.426	137.061	0.103	0.136
-692.412	-107.519	-0.049	0.011
-691.397	36.585	-0.750	0.666
-690.383	213.393	-0.599	0.952
-689.368	-3.906	0.844	-0.589
-688.354	800.000	-0.094	0.344
-687.339	800.000	0.326	-0.991
-686.324	800.000	-0.279	0.956
-685.310	32.612	-0.407	0.354
-684.295	119.747	0.505	-0.629
-683.281	8.341	-0.663	-0.502
-682.266	290.324	0.013	0.024
-681.251	800.000	-0.076	0.276
-680.237	-93.258	0.268	-0.075
-679.222	44.836	0.104	-0.096
-678.208	560.120	-0.055	-0.134
-677.193	-130.440	0.986	-0.134
-676.178	475.694	-0.284	-0.644
-675.164	-9.742	0.706	-0.473
-674.149	130.888	-0.185	0.239
-673.135	-200.000	-0.085	-0.689
-672.120	-200.000	-0.058	-0.456
-671.105	-67.416	0.509	-0.201
-670.091	-200.000	0.081	0.695
-669.076	-58.484	-0.684	0.299
-668.062	130.257	-0.749	0.964
-667.047	-200.000	0.027	0.598
-666.032	500.717	-0.209	-0.485
-665.018	-97.495	-0.277	-0.072
-664.003	239.931	-0.085	-0.143
-662.989	-200.000	-0.001	0.309
-661.974	20.099	-0.672	-0.545
-660.959	405.263	0.067	0.141
-659.945	-127.484	0.708	0.103
-658.930	-99.661	0.682	-0.172
-657.916	8.517	0.351	-0.265
-656.901	187.734	0.459	0.688
-655.886	-200.000	-0.062	-0.993
-654.872	800.000	-0.227	-0.813
-653.857	1.304	-0.191	0.138
-652.843	754.248	-0.029	0.078
-651.828	-200.000	0.022	-0.162
-650.814	-107.402	-0.418	-0.092
-649.799	19.533	0.385	-0.311
-648.784	1.909	0.656	-0.476
-647.770	-76.847	-0.796	0.280
-646.755	-48.708	0.294	-0.142
-645.741	-200.000	0.028	-0.246
-644.726	56.831	0.168	0.164
-643.711	-62.979	-0.224	-0.093
-642.697	800.000	0.019	0.067
-641.682	-51.075	-0.415	-0.196
-640.668	-178.723	-0.379	-0.009
-639.653	51.742	-0.233	-0.223
-638.638	-200.000	0.095	-0.644
-637.624	182.034	0.241	-0.356
-636.609	408.557	0.529	1.124
-635.595	144.119	-0.243	0.325
-634.580	-146.866	-0.986	-0.085
-633.565	-132.286	-0.335	-0.043
-632.551	290.541	0.163	0.297
-631.536	800.000	0.198	-0.719
-630.522	-68.702	0.478	-0.186
-629.507	-119.584	-0.968	0.168
-628.492	-93.421	-0.829	0.230
-627.478	-200.000	0.043	-0.214
-626.463	-96.267	0.342	-0.091
-625.449	-99.882	0.115	-0.029
-624.434	-115.501	0.971	-0.183
-623.419	-90.996	-0.585	-0.169
-622.405	-25.411	0.234	0.139
-621.390	800.000	-0.248	-1.045
-620.376	12.464	0.277	-0.214
-619.361	378.638	0.254	-0.523
-618.346	85.907	-0.484	-0.534
-617.332	11.924	0.267	-0.206
-616.317	263.804	0.157	0.274
-615.303	-120.731	0.852	-0.144
-614.288	800.000	0.138	0.531
-613.273	68.194	-0.403	0.414
-612.259	-87.090	-0.504	-0.154
-611.244	28.685	-0.140	-0.119
-610.230	-69.178	-1.208	-0.466
-609.215	202.770	0.223	0.345
-608.201	-21.351	-0.399	-0.245
-607.186	-200.000	0.060	0.682
-606.171	-70.888	0.537	0.203
-605.157	43.152	0.220	0.202
-604.142	-101.397	0.359	0.088
-603.128	-157.643	-0.258	0.015
-602.113	81.164	-0.227	0.246
-601.098	191.803	-0.075	0.113
-600.084	103.373	0.666	0.784
-599.069	14.845	0.368	0.288
-598.055	276.830	0.119	0.212
-597.040	175.667	0.557	0.810
-596.025	-114.720	-0.610	0.117
-595.011	-79.548	0.840	0.284
-593.996	-200.000	-0.146	0.677
-592.982	107.347	-0.266	0.317
-591.967	-200.000	-0.024	0.545
-590.952	-73.867	0.257	0.094
-589.938	58.645	-0.518	-0.509
-588.923	376.750	-0.187	0.383
-587.909	-200.000	0.034	0.291
-586.894	-104.170	0.660	0.154
-585.879	-125.500	0.233	-0.036
-584.865	-63.584	0.209	0.086
-583.850	551.714	-0.190	0.457
-582.836	-200.000	-0.019	-0.917
-581.821	60.787	-0.584	0.580
-580.806	-8.248	0.579	0.391
-579.792	-200.000	0.115	0.504
-578.777	379.882	-0.163	0.336
-577.763	-34.065	-0.567	0.312
-576.748	-200.000	-0.040	0.373
-575.733	-200.000	-0.087	-0.604
-574.719	96.916	-0.144	0.166
-573.704	-0.094	0.298	-0.213
-572.690	20.212	0.178	0.144
-571.675	678.906	-0.245	0.638
-570.661	93.472	0.269	0.304
-569.646	34.180	-0.201	-0.175
-568.631	-94.126	-0.534	-0.147
-567.617	-109.896	0.535	0.112
-566.602	425.710	0.187	0.404
-565.588	-77.173	-0.263	0.092
-564.573	117.672	0.517	-0.637
-563.558	-142.261	-0.779	-0.077
-562.544	-12.556	0.473	-0.309
-561.529	75.208	-0.264	0.279
-560.515	-59.408	0.245	0.105
-559.500	29.814	-0.161	-0.137
-558.485	710.441	0.057	0.151
-557.471	800.000	-0.278	-0.787
-556.456	246.790	-0.141	-0.239
-555.442	7.637	0.339	-0.254
-554.427	800.000	-0.164	-0.659
-553.412	451.172	-0.286	-0.632
-552.398	-200.000	0.006	-0.548
-551.383	-200.000	0.017	-0.165
-550.369	-116.017	-0.456	-0.085
-549.354	169.814	-0.211	-0.302
-548.339	129.682	0.272	0.348
-547.325	-200.000	0.069	-0.592
-546.310	-135.882	0.366	-0.043
-545.296	-69.937	-0.431	-0.164
-544.281	140.485	-0.479	-0.632
-543.266	-72.713	0.384	-0.141
-542.252	52.002	0.798	-0.760
-541.237	800.000	0.255	-1.073
-540.223	-77.547	-0.283	0.098
-539.208	253.586	0.426	-0.728
-538.193	-82.747	0.297	0.096
-537.179	411.907	-0.243	0.515
-536.164	494.143	0.222	-0.510
-535.150	382.579	-0.173	0.355
-534.135	106.706	-0.109	0.130
-533.121	-64.939	-0.491	-0.198
-532.106	170.223	-0.397	-0.568
-531.091	-129.038	0.827	0.116
-530.077	266.349	-0.246	0.430
-529.062	-62.946	-0.726	0.300
-528.048	175.753	-0.558	-0.809
-527.033	-200.000	0.075	0.382
-526.018	195.564	-0.151	0.229
-525.004	-110.241	-0.536	0.112
-523.989	800.000	0.085	-0.371
-522.975	-28.116	-0.751	-0.434
-521.960	29.119	-0.323	0.274
-520.945	237.675	0.415	0.689
-519.931	800.000	-0.074	0.235
-518.916	-200.000	0.001	0.583
-517.902	-75.112	0.190	0.068
-516.887	230.777	0.259	-0.424
-515.872	33.941	0.170	-0.148
-514.858	378.319	-0.343	0.701
-513.843	800.000	0.193	0.561
-512.829	-49.213	-0.201	0.096
-511.814	-97.159	-0.662	-0.173
-510.799	71.340	-0.231	-0.239
-509.785	607.365	-0.150	0.374
-508.770	166.719	-0.221	0.314
-507.756	-89.919	0.280	-0.082
-506.741	-129.280	0.556	-0.077
-505.726	-32.191	-0.768	0.429
-504.712	-200.000	0.098	0.787
-503.697	-121.254	0.365	0.061
-502.683	445.152	-0.207	0.455
-501.668	-159.463	1.091	-0.061
-500.653	265.358	-0.072	0.126
-499.639	51.239	0.566	0.537
-498.624	-81.121	-0.254	-0.084
-497.610	-133.863	-0.488	-0.061
-496.595	-200.000	-0.035	0.216
-495.581	800.000	-0.057	0.190
-494.566	138.648	0.513	-0.672
-493.551	800.000	0.222	0.681
-492.537	-6.294	0.053	0.036
-491.522	627.964	0.085	0.214
-490.508	2.960	-1.253	-0.909
-489.493	-200.000	0.003	-0.082
-488.478	-85.274	-0.229	-0.071
-487.464	46.131	-0.640	0.592
-486.449	-132.573	-0.115	0.015
-485.435	111.591	0.850	-1.023
-484.420	314.659	-0.413	0.776
-483.405	-13.158	-0.494	0.321
-482.391	-123.368	0.439	-0.070
-481.376	706.185	-0.179	0.470
-480.362	247.308	-0.183	0.308
-479.347	728.518	0.118	0.313
-478.332	253.224	0.104	-0.178
-477.318	800.000	-0.224	-0.851
-476.303	501.751	-0.185	-0.427
-475.289	442.703	-0.233	-0.509
-474.274	-200.000	0.039	-0.447
-473.259	-12.227	0.160	-0.104
-472.245	181.865	0.232	0.341
-471.230	-99.039	0.500	-0.126
-470.216	33.513	-0.329	0.285
-469.201	181.181	0.313	-0.459
-468.186	63.379	-0.483	-0.483
-467.172	146.879	0.223	-0.299
-466.157	253.708	0.338	0.577
-465.143	-116.327	-0.257	0.047
-464.128	27.164	0.115	0.096
-463.113	-122.475	0.541	0.088
-462.099	800.000	0.155	0.559
-461.084	-200.000	-0.059	-0.378
-460.070	153.194	0.276	0.376
-459.055	187.016	0.335	0.498
-458.040	-103.980	0.706	-0.164
-457.026	-169.782	-0.556	-0.020
-456.011	72.171	-0.372	-0.386
-454.997	-185.963	0.404	0.006
-453.982	62.983	-0.215	-0.215
-452.968	-110.044	0.480	-0.100
-451.953	-49.242	0.498	-0.237
-450.938	336.618	-0.130	-0.251
-449.924	-61.818	0.356	-0.149
-448.909	-144.749	-1.019	-0.093
-447.895	-155.605	-0.276	-0.018
-446.880	-27.853	-0.680	0.393
-445.865	-52.604	0.910	-0.419
-444.851	-200.000	-0.012	-0.540
-443.836	-200.000	0.008	-0.532
-442.822	-200.000	-0.039	0.599
-441.807	-92.151	-0.557	0.157
-440.792	-123.473	-0.523	-0.083
-439.778	-102.140	-0.382	-0.092
-438.763	-43.468	-0.274	0.138
-437.749	-34.017	-0.364	-0.200
-436.734	-171.856	0.576	0.019
-435.719	800.000	0.050	0.197
-434.705	-128.335	0.110	-0.016
-433.690	-200.000	0.088	0.534
-432.676	110.092	-0.160	0.191
-431.661	-200.000	-0.127	-0.582
-430.646	-200.000	-0.117	-0.653
-429.632	171.814	-0.214	-0.306
-428.617	146.655	0.233	-0.311
-427.603	-8.776	-0.368	0.246
-426.588	800.000	0.223	-0.704
-425.573	-19.187	0.308	-0.190
-424.559	-39.697	-0.474	-0.247
-423.544	63.831	0.234	0.234
-422.530	-200.000	0.056	-0.467
-421.515	53.822	0.588	0.563
-420.500	20.835	0.683	0.551
-419.486	784.524	-0.353	-0.964
-418.471	14.266	0.499	0.387
-417.457	74.857	0.349	-0.365
-416.442	-22.181	0.646	-0.390
-415.428	-33.021	-0.319	0.176
-414.413	596.948	-0.173	0.425
-413.398	-10.613	0.285	-0.187
-412.384	-185.356	0.585	-0.009
-411.369	212.688	0.462	0.725
-410.355	800.000	0.115	0.390
-409.340	60.336	0.152	0.150
-408.325	800.000	-0.007	-0.025
-407.311	-152.998	0.729	-0.051
-406.296	-26.944	-0.337	-0.196
-405.282	-74.430	0.267	0.096
-404.267	-7.117	0.392	-0.265
-403.252	-168.481	0.966	-0.037
-402.238	219.752	0.574	0.914
-401.223	-103.559	0.422	0.099
-400.209	-74.839	-0.766	-0.274
-399.194	95.848	-0.368	0.418
-398.179	-56.271	-0.527	-0.233
-397.165	-10.643	0.258	0.170
-396.150	-200.000	-0.023	-0.609
-395.136	-92.882	-0.238	-0.066
-394.121	-98.869	0.684	-0.173
-393.106	-10.079	-0.254	-0.168
-392.092	85.952	-0.182	-0.199
-391.077	-200.000	-0.058	-0.380
-390.063	-49.883	-0.202	-0.095
-389.048	209.249	0.271	-0.423
-388.033	-200.000	-0.142	-0.881
-387.019	-154.856	-0.748	-0.049
-386.004	-156.619	0.315	-0.019
-384.990	-117.862	0.455	0.081
-383.975	15.619	-0.425	0.332
-382.960	743.912	-0.284	0.758
-381.946	-57.421	-0.390	-0.170
-380.931	-14.133	-0.268	0.172
-379.917	-182.186	0.469	-0.009
-378.902	-200.000	-0.075	-0.481
-377.888	-36.864	0.480	0.256
-376.873	578.057	-0.218	0.530
-375.858	114.909	0.430	0.521
-374.844	-55.096	-0.343	0.153
-373.829	-154.747	-0.835	-0.055
-372.815	-200.000	0.030	-0.684
-371.800	800.000	-0.257	0.959
-370.785	141.840	0.137	0.180
-369.771	205.420	0.120	-0.185
-368.756	15.927	0.303	0.237
-367.742	25.943	-0.580	0.481
-366.727	-82.689	0.364	0.117
-365.712	187.240	-0.210	0.310
-364.698	392.968	-0.114	-0.235
-363.683	-40.646	-0.206	-0.106
-362.669	-200.000	0.041	-0.622
-361.654	-35.022	-0.561	-0.304
-360.639	128.265	0.095	0.120
-359.625	-200.000	-0.029	-0.287
-358.610	-114.769	-0.916	-0.174
-357.596	87.061	0.822	-0.902
-356.581	-200.000	-0.073	0.452
-355.566	-146.668	-0.946	0.081
-354.552	-39.494	0.729	-0.379
-353.537	211.806	-0.250	0.390
-352.523	68.330	-0.159	0.162
-351.508	-75.657	0.350	-0.123
-350.493	-10.672	1.050	-0.690
-349.479	356.460	0.083	-0.164
-348.464	-129.271	-0.540	-0.075
-347.450	-149.900	0.649	-0.050
-346.435	79.106	-0.626	0.666
-345.420	512.484	-0.187	-0.432
-344.406	-120.120	0.249	0.042
-343.391	188.273	-0.120	-0.178
-342.377	436.983	-0.127	0.274
-341.362	68.525	-0.429	0.437
-340.348	-60.267	-0.887	0.375
-339.333	800.000	0.427	-1.175
-338.318	-121.300	-0.948	0.157
-337.304	344.187	0.391	0.762
-336.289	72.710	-0.397	0.411
-335.275	-68.733	-0.589	-0.226
-334.260	-168.048	0.619	-0.024
-333.245	96.469	-0.130	0.148
-332.231	-97.297	-0.445	0.115
-331.216	-40.980	-0.812	-0.417
-330.202	143.163	-0.358	0.472
-329.187	-126.013	0.734	-0.109
-328.172	-133.941	0.320	-0.039
-327.158	430.536	-0.445	0.955
-326.143	-200.000	0.029	0.611
-325.129	-200.000	-0.114	-0.994
-324.114	-169.821	-0.737	-0.026
-323.099	-200.000	0.048	0.566
-322.085	800.000	-0.123	-0.455
-321.070	800.000	0.067	-0.245
-320.056	298.089	0.355	-0.648
-319.041	-200.000	-0.099	-0.580
-318.026	-101.440	-0.174	-0.042
-317.012	-161.305	-0.129	0.007
-315.997	110.972	0.177	0.211
-314.983	-200.000	-0.026	-0.197
-313.968	800.000	-0.108	-0.325
-312.953	-19.845	0.866	0.530
-311.939	83.342	0.203	-0.219
-310.924	741.652	-0.302	0.804
-309.910	-116.488	1.075	-0.197
-308.895	19.672	-0.307	-0.245
-307.880	-37.778	-0.142	-0.075
-306.866	20.223	-0.476	0.381
-305.851	-200.000	-0.072	1.215
-304.837	-61.175	0.272	0.114
-303.822	536.541	0.178	0.418
-302.807	-200.000	-0.141	0.785
-301.793	-19.375	0.044	-0.027
-300.778	196.137	-0.170	0.257
-299.764	246.322	-0.376	0.628
-298.749	47.121	-0.578	0.533
-297.735	-2.213	0.106	-0.074
-296.720	-103.952	0.302	0.070
-295.705	307.355	0.374	0.690
-294.691	-46.012	-0.485	-0.237
-293.676	-43.907	0.488	-0.243
-292.662	244.950	0.192	0.321
-291.647	77.375	-0.499	-0.525
-290.632	120.532	-0.214	0.263
-289.618	800.000	0.197	0.767
-288.603	-200.000	-0.091	0.516
-287.589	800.000	-0.157	0.579
-286.574	-27.009	0.590	0.341
-285.559	800.000	0.181	0.613
-284.545	-200.000	-0.006	0.468
-283.530	37.730	0.492	0.433
-282.516	401.038	0.167	0.348
-281.501	337.223	0.317	0.609
-280.486	-200.000	0.021	-0.209
-279.472	800.000	-0.121	-0.410
-278.457	9.560	-0.935	0.701
-277.443	-200.000	-0.021	0.275
-276.428	109.889	0.694	-0.824
-275.413	-72.510	0.333	0.122
-274.399	-115.130	0.310	0.058
-273.384	-124.749	0.798	-0.122
-272.370	523.892	0.419	0.974
-271.355	-72.847	0.718	-0.261
-270.340	-200.000	-0.157	-1.130
-269.326	-57.490	1.008	-0.438
-268.311	-200.000	-0.021	0.833
-267.297	192.800	0.188	0.281
-266.282	-18.347	0.636	0.393
-265.267	-140.976	-0.159	-0.016
-264.253	-34.163	-0.574	0.312
-263.238	-111.616	0.447	-0.090
-262.224	100.527	-0.167	0.192
-261.209	-200.000	-0.057	0.469
-260.195	-43.643	0.406	-0.203
-259.180	-84.958	-0.543	0.168
-258.165	-15.052	0.115	-0.073
-257.151	-200.000	-0.153	-0.733
-256.136	120.045	0.418	0.512
-255.122	-127.719	-0.483	-0.069
-254.107	-173.379	0.822	0.025
-253.092	310.415	-0.096	-0.178
-252.078	-200.000	0.026	0.242
-251.063	-64.000	-0.718	0.290
-250.049	198.109	-0.164	0.248
-249.034	-200.000	0.052	-0.274
-248.019	-39.432	-0.265	0.137
-247.005	-59.262	-0.890	0.379
-245.990	-122.218	0.429	0.069
-244.976	-200.000	-0.044	-0.468
-243.961	247.277	-0.175	-0.291
-242.946	-103.616	0.655	0.152
-241.932	-139.281	-0.712	-0.076
-240.917	-200.000	0.143	-0.618
-239.903	-68.635	-0.276	0.106
-238.888	-139.863	1.231	0.129
-237.873	-110.855	0.374	-0.076
-236.859	-40.412	0.688	-0.353
-235.844	126.971	0.164	-0.206
-234.830	42.340	-0.196	-0.176
-233.815	-88.563	0.342	-0.101
-232.800	68.406	0.438	-0.443
-231.786	-153.983	-0.411	0.028
-230.771	170.943	0.278	0.394
-229.757	248.492	0.259	0.434
-228.742	320.216	0.167	-0.314
-227.727	-19.715	0.586	-0.358
-226.713	82.508	-0.309	0.332
-225.698	674.035	0.105	-0.268
-224.684	-4.440	-0.252	-0.172
-223.669	249.175	-0.574	-0.961
-222.655	389.226	0.199	-0.407
-221.640	333.875	0.178	-0.341
-220.625	-28.333	-0.872	-0.497
-219.611	-5.256	-0.305	-0.207
-218.596	-66.963	-0.132	0.051
-217.582	109.340	-0.178	0.211
-216.567	33.640	0.063	-0.054
-215.552	81.922	0.272	-0.290
-214.538	-66.084	-0.364	-0.143
-213.523	448.916	0.246	-0.535
-212.509	148.451	0.463	-0.618
-211.494	-3.875	0.266	-0.182
-210.479	800.000	0.101	-0.390
-209.465	568.498	0.219	-0.524
-208.450	48.540	0.427	0.395
-207.436	800.000	-0.168	0.529
-206.421	60.515	0.695	0.680
-205.406	-200.000	0.033	0.234
-204.392	-200.000	0.042	-0.433
-203.377	-49.516	-0.547	-0.257
-202.363	46.462	-0.501	-0.459
-201.348	800.000	0.125	-0.443
-200.333	-200.000	0.103	-0.698
-199.319	72.331	-0.370	0.380
-198.304	-147.270	0.071	-0.006
-197.290	189.779	-0.072	-0.106
-196.275	-150.688	-0.622	0.047
-195.260	-55.175	0.477	0.212
-194.246	-200.000	0.029	-0.860
-193.231	-4.440	-0.219	0.149
-192.217	800.000	0.204	-0.636
-191.202	-200.000	-0.002	0.478
-190.187	34.022	-0.205	0.176
-189.173	-155.690	-0.240	0.015
-188.158	-49.489	0.276	0.130
-187.144	-20.660	-0.713	0.432
-186.129	-96.334	-0.364	-0.095
-185.114	800.000	0.029	0.110
-184.100	236.941	-0.148	0.242
-183.085	444.060	-0.223	-0.482
-182.071	800.000	-0.238	-0.755
-181.056	-29.934	-0.721	0.405
-180.042	3.579	-0.279	-0.201
-179.027	-54.109	-0.411	0.184
-178.012	2.647	0.384	-0.275
-176.998	-87.037	-0.057	0.017
-175.983	451.049	0.186	-0.405
-174.969	-132.124	0.806	0.103
-173.954	757.295	-0.196	0.524
-172.939	-119.499	-0.698	0.119
-171.925	106.106	0.447	0.522
-170.910	512.891	0.337	0.774
-169.896	800.000	-0.088	0.315
-168.881	-200.000	-0.019	-0.441
-167.866	-145.619	-0.385	0.034
-166.852	-13.550	-0.468	0.299
-165.837	-66.826	-0.457	-0.178
-164.823	-131.165	1.041	-0.136
-163.808	-3.980	-0.473	-0.323
-162.793	-120.567	-1.162	-0.194
-161.779	-5.805	0.387	-0.261
-160.764	-200.000	0.077	-0.839
-159.750	70.677	0.529	-0.539
-158.735	-11.952	0.806	0.521
-157.720	203.623	0.441	0.673
-156.706	44.789	-0.870	-0.789
-155.691	-124.483	-0.046	0.007
-154.677	-142.731	0.830	0.080
-153.662	-30.177	-0.595	0.333
-152.647	-72.186	0.186	-0.068
-151.633	26.587	0.812	-0.669
-150.618	-200.000	-0.097	-0.477
-149.604	800.000	0.191	0.556
-148.589	800.000	0.298	-0.817
-147.574	-124.787	-0.537	-0.082
-146.560	227.552	0.129	0.206
-145.545	-81.055	1.210	0.394
-144.531	-174.776	-0.250	-0.007
-143.516	-200.000	-0.073	0.658
-142.502	-100.409	0.350	0.085
-141.487	205.948	0.219	0.336
-140.472	800.000	0.083	-0.231
-139.458	35.853	-0.186	0.161
-138.443	-3.714	-0.334	-0.228
-137.429	398.828	0.124	0.255
-136.414	800.000	0.130	0.470
-135.399	-30.832	0.611	0.340
-134.385	408.410	-0.402	-0.838
-133.370	-200.000	0.106	0.523
-132.356	800.000	-0.064	-0.274
-131.341	-76.328	0.225	0.078
-130.326	-105.458	-0.243	-0.054
-129.312	59.926	-0.283	-0.275
-128.297	24.251	-0.205	-0.167
-127.283	33.159	-0.628	-0.536
-126.268	-200.000	-0.086	0.502
-125.253	149.333	0.661	0.881
-124.239	645.492	-0.237	0.596
-123.224	-41.574	-0.252	0.127
-122.210	-200.000	0.039	0.715
-121.195	98.209	-0.304	-0.345
