DTS Sentinel unit serial number:	SN413079Multiplexer serial number:	ORYXHardware model number:	OX4-SRSoftware version number:	ORYX F/W v4.00 Oryx Data Collector v3.7.2.0data status	okinstallation	princeton_trtdifferential loss correction	single-endedforward channel	channel 2reverse channel	N/Adate	2019/09/14time	07:31:35forward acquisition time	60.00reverse acquisition time	0.00gamma	496.2192k internal	0.2337k external	0.2337temperature offset calibration	1.0136default loss term (dB/km)	0.3790temperature slope calibration	1.0000multiplexer offset coefficient	1.0000multiplexer slope coefficient	1.0000fibre end	0.00T internal ref (°C)	26.19T ext. ref 1 (°C)	3.46T ext. ref 2 (°C)	21.22length (m)	temperature (°C)	Stokes	anti-Stokes-747.200	86.694	0.098	-0.108
-746.185	23.999	-0.317	0.262
-745.171	476.908	0.120	0.273
-744.156	-123.929	0.203	0.032
-743.142	-38.946	-0.378	0.200
-742.127	-200.000	-0.045	-0.276
-741.112	-20.058	0.091	0.057
-740.098	-145.642	-0.078	0.007
-739.083	-200.000	-0.034	-0.288
-738.069	-24.641	0.134	0.080
-737.054	18.434	-0.149	0.120
-736.039	-116.469	-0.320	-0.059
-735.025	125.690	-0.100	0.127
-734.010	-120.074	0.153	-0.026
-732.996	-123.797	-0.122	-0.019
-731.981	-102.781	-0.040	-0.010
-730.966	-106.861	-0.242	-0.054
-729.952	128.203	0.063	-0.080
-728.937	-65.885	-0.272	-0.109
-727.923	-91.160	-0.326	0.094
-726.908	-200.000	-0.027	-0.125
-725.894	-94.228	-0.224	-0.061
-724.879	254.589	-0.130	-0.224
-723.864	-53.334	-0.129	-0.059
-722.850	-9.457	-0.209	-0.140
-721.835	-0.397	0.188	-0.134
-720.821	-162.898	-0.146	0.007
-719.806	125.157	-0.102	0.128
-718.791	15.440	-0.310	-0.244
-717.777	-200.000	0.050	-0.355
-716.762	-200.000	-0.021	0.220
-715.748	557.221	0.109	-0.264
-714.733	-90.343	-0.395	-0.115
-713.718	28.256	0.129	0.109
-712.704	-33.293	-0.044	-0.025
-711.689	60.519	0.106	0.106
-710.675	800.000	0.066	0.190
-709.660	800.000	-0.057	-0.175
-708.645	-166.399	0.095	0.004
-707.631	152.081	0.301	-0.412
-706.616	-143.203	-0.192	0.019
-705.602	-47.071	-0.110	-0.054
-704.587	-89.615	-0.048	0.014
-703.572	113.781	-0.024	0.029
-702.558	-122.936	0.463	-0.075
-701.543	-200.000	0.017	0.086
-700.529	-146.188	-0.298	0.026
-699.514	39.493	-0.137	0.123
-698.499	-80.977	0.037	-0.012
-697.485	-115.234	-0.074	0.014
-696.470	9.951	-0.275	-0.210
-695.456	-178.264	-0.113	-0.003
-694.441	-24.547	0.171	-0.102
-693.426	-200.000	-0.008	-0.252
-692.412	-200.000	-0.002	-0.461
-691.397	8.096	0.036	0.027
-690.383	-65.394	0.053	0.022
-689.368	270.470	0.137	-0.242
-688.354	-188.783	0.048	-0.001
-687.339	-130.215	0.034	-0.005
-686.324	101.695	0.132	0.155
-685.310	-200.000	-0.010	-0.202
-684.295	-100.092	-0.299	-0.075
-683.281	173.065	0.092	-0.133
-682.266	137.889	-0.101	0.133
-681.251	-176.687	0.318	-0.008
-680.237	-132.042	-0.316	-0.041
-679.222	-87.226	-0.141	-0.043
-678.208	673.115	-0.100	-0.259
-677.193	-200.000	0.007	-0.090
-676.178	50.131	0.073	0.069
-675.164	800.000	0.087	-0.329
-674.149	800.000	0.019	-0.078
-673.135	262.815	-0.017	-0.030
-672.120	800.000	0.078	-0.300
-671.105	-200.000	-0.036	-0.231
-670.091	800.000	-0.047	0.196
-669.076	-133.219	-0.299	-0.038
-668.062	-82.172	-0.141	-0.046
-667.047	800.000	-0.077	0.226
-666.032	800.000	0.092	0.373
-665.018	99.332	-0.121	-0.140
-664.003	-54.722	0.334	-0.151
-662.989	-141.706	-0.378	0.038
-661.974	-36.485	-0.153	-0.082
-660.959	-8.921	-0.132	-0.089
-659.945	-97.620	-0.342	0.089
-658.930	-160.548	-0.139	0.007
-657.916	-83.128	0.108	0.035
-656.901	303.813	-0.064	-0.119
-655.886	-200.000	-0.021	-0.215
-654.872	-56.866	-0.390	0.172
-653.857	-107.815	-0.159	0.035
-652.843	800.000	0.111	0.377
-651.828	37.006	-0.057	0.050
-650.814	-104.249	0.163	-0.038
-649.799	-200.000	0.062	-0.437
-648.784	-200.000	-0.039	-0.275
-647.770	-125.850	-0.314	0.047
-646.755	267.020	-0.146	-0.255
-645.741	-65.981	-0.372	0.149
-644.726	-116.635	0.134	-0.025
-643.711	122.443	-0.107	0.134
-642.697	-200.000	0.033	-0.166
-641.682	185.075	-0.005	-0.008
-640.668	-146.012	-0.402	-0.036
-639.653	712.869	0.095	0.251
-638.638	-169.718	0.172	0.006
-637.624	-74.455	0.091	-0.033
-636.609	50.053	0.229	0.216
-635.595	-132.765	0.323	0.041
-634.580	195.670	-0.086	-0.131
-633.565	391.522	0.098	-0.203
-632.551	-122.691	-0.304	-0.049
-631.536	-12.694	-0.218	-0.142
-630.522	800.000	-0.065	-0.219
-629.507	-200.000	0.018	0.169
-628.492	-134.311	0.248	-0.030
-627.478	-71.598	-0.139	-0.052
-626.463	-28.944	-0.172	0.098
-625.449	800.000	0.042	-0.164
-624.434	195.420	-0.189	-0.288
-623.419	-15.078	0.203	-0.130
-622.405	-25.858	0.229	0.135
-621.390	139.684	0.225	0.296
-620.376	96.993	-0.084	0.096
-619.361	800.000	-0.026	-0.101
-618.346	-44.621	-0.073	0.036
-617.332	46.068	-0.083	-0.077
-616.317	54.137	-0.152	-0.146
-615.303	-39.682	-0.227	0.119
-614.288	-87.687	0.370	-0.112
-613.273	637.579	-0.101	0.256
-612.259	29.441	-0.272	0.231
-611.244	-38.863	-0.132	-0.070
-610.230	148.244	-0.292	-0.393
-609.215	200.410	-0.165	-0.253
-608.201	-17.257	-0.142	-0.089
-607.186	237.697	-0.088	-0.146
-606.171	362.703	-0.034	-0.067
-605.157	-38.375	-0.242	0.128
-604.142	-62.286	0.062	0.026
-603.128	205.475	0.266	0.413
-602.113	-200.000	0.008	-0.177
-601.098	4.591	0.132	-0.096
-600.084	232.164	-0.103	-0.169
-599.069	-200.000	0.073	0.362
-598.055	-29.843	0.195	0.111
-597.040	2.521	0.301	0.218
-596.025	-54.460	-0.238	-0.108
-595.011	-9.335	0.059	-0.039
-593.996	29.153	0.216	-0.183
-592.982	-41.860	-0.132	-0.068
-591.967	125.771	-0.171	0.215
-590.952	800.000	-0.013	0.040
-589.938	-5.190	0.161	-0.110
-588.923	-200.000	-0.011	-0.187
-587.909	-200.000	0.006	-0.140
-586.894	30.705	-0.304	-0.259
-585.879	-56.801	0.242	-0.107
-584.865	-0.124	0.116	-0.082
-583.850	93.258	-0.059	0.067
-582.836	-44.419	0.236	0.118
-581.821	433.069	-0.047	-0.101
-580.806	-86.243	-0.122	0.037
-579.792	-189.937	-0.316	-0.004
-578.777	-53.427	0.137	-0.063
-577.763	140.244	0.196	0.258
-576.748	-118.351	0.245	0.043
-575.733	-80.707	-0.169	0.056
-574.719	-89.084	-0.274	-0.081
-573.704	800.000	-0.042	0.165
-572.690	800.000	0.047	-0.142
-571.675	-200.000	-0.013	0.098
-570.661	800.000	0.020	0.081
-569.646	800.000	-0.028	-0.081
-568.631	149.265	-0.133	-0.180
-567.617	800.000	-0.051	-0.143
-566.602	-119.367	0.192	-0.033
-565.588	800.000	-0.046	0.192
-564.573	127.501	-0.125	-0.158
-563.558	134.171	-0.257	-0.332
-562.544	-55.276	-0.269	-0.120
-561.529	-137.122	0.166	-0.019
-560.515	-200.000	0.066	-0.348
-559.500	49.355	0.050	-0.047
-558.485	-41.716	0.089	0.046
-557.471	-88.736	0.335	0.099
-556.456	-91.879	0.343	0.097
-555.442	-200.000	-0.006	0.176
-554.427	268.948	-0.089	0.156
-553.412	-162.830	-0.028	0.001
-552.398	-200.000	-0.021	-0.185
-551.383	800.000	-0.078	0.296
-550.369	-82.734	-0.189	-0.061
-549.354	-140.455	0.200	-0.021
-548.339	-78.077	0.087	0.030
-547.325	-148.515	0.162	0.013
-546.310	161.315	0.089	-0.124
-545.296	-200.000	0.039	-0.246
-544.281	730.699	-0.039	0.104
-543.266	-72.223	0.112	-0.042
-542.252	427.754	-0.135	-0.291
-541.237	-43.991	0.351	-0.176
-540.223	-200.000	-0.020	0.112
-539.208	245.757	-0.228	-0.382
-538.193	-79.842	0.092	0.031
-537.179	53.221	0.132	-0.126
-536.164	-75.287	-0.114	-0.041
-535.150	180.825	0.060	0.087
-534.135	-51.149	0.091	0.043
-533.121	-200.000	0.019	-0.359
-532.106	-28.392	-0.193	-0.111
-531.091	35.467	-0.378	0.331
-530.077	-36.502	0.130	0.070
-529.062	-108.444	-0.127	-0.027
-528.048	12.728	0.268	-0.206
-527.033	661.567	-0.047	-0.121
-526.018	-137.928	0.406	0.045
-525.004	-115.990	-0.105	-0.019
-523.989	-102.826	0.123	-0.029
-522.975	800.000	-0.075	-0.261
-521.960	-178.625	-0.032	-0.001
-520.945	384.516	-0.003	-0.007
-519.931	27.764	-0.154	-0.129
-518.916	188.940	-0.094	-0.141
-517.902	-200.000	-0.045	0.329
-516.887	126.403	0.193	-0.243
-515.872	-47.459	-0.050	0.024
-514.858	-18.493	-0.156	0.097
-513.843	800.000	-0.024	0.070
-512.829	-195.793	-0.167	0.001
-511.814	34.270	-0.223	0.194
-510.799	-200.000	-0.010	-0.367
-509.785	43.472	-0.221	-0.201
-508.770	73.469	0.243	0.253
-507.756	-200.000	0.012	-0.109
-506.741	81.207	-0.188	0.202
-505.726	-174.700	0.258	-0.007
-504.712	-200.000	-0.050	-0.231
-503.697	-200.000	0.023	0.123
-502.683	-200.000	-0.005	0.066
-501.668	-58.479	0.085	0.037
-500.653	-13.917	-0.231	0.148
-499.639	417.811	0.093	0.197
-498.624	-115.360	0.220	-0.041
-497.610	-28.406	-0.325	0.187
-496.595	75.405	-0.184	-0.193
-495.581	-99.418	0.346	-0.087
-494.566	113.790	0.256	-0.309
-493.551	16.336	-0.334	-0.262
-492.537	-157.526	-0.199	0.012
-491.522	800.000	0.052	-0.162
-490.508	-32.735	-0.399	-0.221
-489.493	615.668	0.073	0.182
-488.478	-85.598	-0.250	-0.077
-487.464	-141.188	0.140	-0.014
-486.449	800.000	-0.082	-0.228
-485.435	800.000	0.048	0.149
-484.420	-200.000	0.005	0.273
-483.405	800.000	-0.004	-0.014
-482.391	86.807	-0.147	-0.161
-481.376	-200.000	-0.002	0.166
-480.362	112.268	0.113	0.135
-479.347	56.579	-0.054	0.052
-478.332	363.107	-0.068	-0.136
-477.318	3.095	0.077	-0.056
-476.303	-164.987	0.063	-0.003
-475.289	-200.000	0.002	-0.058
-474.274	800.000	0.048	-0.193
-473.259	800.000	-0.100	-0.377
-472.245	212.466	0.128	-0.200
-471.230	147.078	0.121	-0.161
-470.216	163.039	-0.054	-0.075
-469.201	-200.000	-0.100	0.471
-468.186	27.404	0.170	0.142
-467.172	-97.216	-0.164	0.043
-466.157	-82.210	0.405	0.131
-465.143	-200.000	-0.010	-0.125
-464.128	-178.544	-0.116	-0.003
-463.113	293.149	0.035	-0.063
-462.099	-182.937	-0.151	0.003
-461.084	31.913	-0.233	0.199
-460.070	-136.638	0.306	0.035
-459.055	8.008	-0.185	-0.138
-458.040	-68.879	0.202	0.077
-457.026	376.703	-0.016	0.032
-456.011	800.000	-0.056	0.204
-454.997	349.687	-0.084	-0.164
-453.982	-15.395	-0.283	-0.180
-452.968	-36.127	0.163	0.087
-451.953	480.418	-0.056	0.127
-450.938	-200.000	0.056	-0.434
-449.924	112.233	-0.188	0.225
-448.909	216.978	-0.095	-0.151
-447.895	-84.668	-0.381	0.119
-446.880	-74.119	0.454	-0.163
-445.865	265.639	0.140	-0.243
-444.851	209.390	-0.074	0.116
-443.836	-119.332	0.256	0.044
-442.822	231.112	-0.150	0.244
-441.807	-63.984	-0.084	0.034
-440.792	-200.000	0.011	-0.083
-439.778	-109.040	0.418	0.088
-438.763	800.000	-0.065	0.243
-437.749	-68.485	-0.229	0.088
-436.734	-75.721	-0.214	-0.075
-435.719	-200.000	0.022	-0.103
-434.705	115.243	-0.044	0.054
-433.690	419.640	0.032	0.069
-432.676	-69.014	0.222	0.085
-431.661	195.024	-0.054	-0.081
-430.646	-128.827	-0.168	0.023
-429.632	-132.219	0.501	0.064
-428.617	800.000	0.010	-0.037
-427.603	-35.361	-0.172	-0.093
-426.588	-107.057	0.215	-0.047
-425.573	-0.756	0.330	0.232
-424.559	573.026	0.186	0.450
-423.544	441.385	0.022	0.047
-422.530	-200.000	0.010	-0.248
-421.515	-153.636	0.297	-0.020
-420.500	26.272	0.152	0.126
-419.486	-38.853	0.274	-0.143
-418.471	-85.867	0.274	0.084
-417.457	-122.060	0.112	0.018
-416.442	-144.106	0.062	-0.006
-415.428	-30.429	0.292	0.164
-414.413	-129.235	-0.126	0.017
-413.398	-73.546	0.203	-0.074
-412.384	-200.000	-0.009	0.048
-411.369	41.112	0.163	-0.146
-410.355	-94.878	0.181	0.049
-409.340	732.596	-0.054	0.144
-408.325	276.592	-0.084	0.147
-407.311	-100.343	0.096	0.024
-406.296	-1.707	0.110	-0.077
-405.282	-66.786	-0.296	0.116
-404.267	213.705	0.037	-0.058
-403.252	480.322	0.096	0.216
-402.238	800.000	-0.009	-0.031
-401.223	675.494	-0.040	-0.103
-400.209	-195.368	-0.161	0.001
-399.194	-148.911	-0.317	0.025
-398.179	1.275	-0.116	0.082
-397.165	-54.143	-0.164	0.074
-396.150	300.411	0.014	-0.025
-395.136	-200.000	-0.009	0.050
-394.121	49.492	0.085	-0.079
-393.106	3.617	-0.117	0.085
-392.092	-200.000	-0.008	-0.112
-391.077	543.037	-0.071	-0.167
-390.063	55.514	0.200	-0.192
-389.048	20.402	0.240	-0.192
-388.033	-118.966	0.153	-0.027
-387.019	-200.000	-0.009	0.197
-386.004	-99.769	0.053	-0.013
-384.990	573.292	-0.096	-0.231
-383.975	43.047	-0.122	0.110
-382.960	-146.193	-0.215	0.019
-381.946	-139.534	0.332	0.035
-380.931	465.305	-0.101	-0.223
-379.917	-200.000	0.026	-0.200
-378.902	800.000	-0.114	-0.312
-377.888	105.225	-0.184	-0.215
-376.873	1.306	0.267	-0.190
-375.858	-84.744	-0.329	-0.102
-374.844	596.521	-0.067	-0.165
-373.829	-76.483	0.261	-0.091
-372.815	-118.193	0.151	0.027
-371.800	-200.000	-0.033	-0.201
-370.785	520.506	0.035	0.081
-369.771	-80.310	0.094	-0.031
-368.756	-1.166	0.097	-0.068
-367.742	24.444	0.258	-0.211
-366.727	134.554	0.022	0.028
-365.712	148.676	-0.158	-0.211
-364.698	-114.656	-0.147	0.028
-363.683	408.690	0.210	-0.440
-362.669	-200.000	0.029	0.190
-361.654	372.448	0.097	0.195
-360.639	-200.000	0.162	0.000
-359.625	-98.393	0.146	-0.037
-358.610	39.760	-0.190	-0.168
-357.596	16.146	0.223	0.174
-356.581	800.000	-0.028	0.079
-355.566	173.619	0.182	0.260
-354.552	-8.759	0.046	-0.031
-353.537	-12.303	-0.034	0.022
-352.523	-59.636	0.227	0.096
-351.508	-200.000	0.034	0.156
-350.493	-25.697	-0.125	-0.073
-349.479	-82.741	-0.150	-0.048
-348.464	111.387	-0.168	0.200
-347.450	-41.571	0.027	-0.014
-346.435	-136.759	-0.327	0.037
-345.420	-40.908	0.244	0.125
-344.406	-21.841	0.121	0.073
-343.391	653.747	0.042	0.108
-342.377	91.796	0.098	-0.109
-341.362	60.380	0.121	0.119
-340.348	58.003	0.174	0.169
-339.333	800.000	0.084	0.262
-338.318	-50.120	0.139	0.065
-337.304	107.278	-0.160	0.188
-336.289	-135.443	-0.354	0.042
-335.275	560.718	0.107	-0.255
-334.260	800.000	0.062	-0.189
-333.245	682.969	0.119	-0.306
-332.231	-42.494	-0.021	-0.011
-331.216	178.644	-0.158	0.228
-330.202	14.096	-0.085	-0.065
-329.187	8.643	-0.129	0.096
-328.172	37.304	-0.141	0.124
-327.158	-126.894	0.234	-0.034
-326.143	621.761	-0.148	-0.369
-325.129	-188.800	-0.197	-0.002
-324.114	-119.624	0.090	0.015
-323.099	-194.878	0.039	0.000
-322.085	-200.000	-0.011	-0.139
-321.070	114.956	-0.224	0.270
-320.056	-200.000	-0.043	0.240
-319.041	180.331	-0.063	0.092
-318.026	-200.000	-0.079	-0.360
-317.012	-85.866	0.195	0.060
-315.997	133.811	-0.109	-0.139
-314.983	531.116	-0.049	0.114
-313.968	-53.539	0.360	0.163
-312.953	-200.000	-0.005	-0.298
-311.939	800.000	-0.013	0.050
-310.924	-41.973	-0.053	0.027
-309.910	360.866	0.125	-0.248
-308.895	-61.375	-0.198	0.082
-307.880	-7.814	0.401	0.268
-306.866	84.828	-0.279	0.302
-305.851	141.311	0.160	-0.209
-304.837	-174.237	0.300	-0.009
-303.822	-196.467	0.134	0.001
-302.807	-76.206	-0.309	-0.108
-301.793	-26.951	-0.091	-0.052
-300.778	508.160	-0.096	-0.219
-299.764	609.260	-0.085	-0.210
-298.749	800.000	-0.103	-0.388
-297.735	800.000	0.114	0.360
-296.720	111.933	0.200	-0.238
-295.705	83.298	-0.202	0.217
-294.691	-30.586	-0.200	-0.112
-293.676	169.353	-0.157	0.221
-292.662	102.023	0.143	0.165
-291.647	-200.000	0.056	-0.243
-290.632	-32.225	-0.240	0.132
-289.618	-95.225	-0.116	0.031
-288.603	800.000	0.026	0.098
-287.589	166.065	-0.080	0.111
-286.574	255.351	-0.049	-0.082
-285.559	78.760	0.157	-0.165
-284.545	122.172	0.046	-0.056
-283.530	-5.846	0.195	0.132
-282.516	-200.000	0.047	0.296
-281.501	800.000	-0.034	-0.104
-280.486	800.000	0.032	0.090
-279.472	-126.324	-0.225	0.033
-278.457	-119.972	0.258	0.044
-277.443	800.000	0.061	0.220
-276.428	-200.000	0.004	-0.257
-275.413	75.042	-0.127	0.132
-274.399	124.031	0.178	0.221
-273.384	800.000	-0.023	-0.074
-272.370	306.151	-0.096	-0.177
-271.355	61.176	0.155	0.151
-270.340	33.999	-0.083	0.071
-269.326	410.826	0.074	0.154
-268.311	800.000	-0.120	0.385
-267.297	-200.000	-0.027	0.269
-266.282	541.128	-0.062	-0.146
-265.267	27.826	0.211	-0.176
-264.253	161.791	0.085	0.117
-263.238	-200.000	0.013	0.287
-262.224	37.867	-0.275	-0.241
-261.209	800.000	0.006	0.023
-260.195	502.960	-0.110	0.251
-259.180	40.508	-0.131	0.117
-258.165	-71.172	-0.235	-0.087
-257.151	-200.000	-0.069	0.341
-256.136	-33.348	-0.321	0.175
-255.122	-15.341	0.201	0.126
-254.107	-21.449	-0.183	-0.110
-253.092	55.913	-0.261	0.250
-252.078	-200.000	-0.008	0.380
-251.063	251.830	0.072	0.121
-250.049	29.117	-0.030	-0.025
-249.034	50.083	0.309	0.287
-248.019	38.459	-0.081	0.071
-247.005	-200.000	0.007	0.099
-245.990	-129.497	-0.072	0.010
-244.976	58.020	-0.169	0.163
-243.961	-180.881	-0.276	0.005
-242.946	102.273	-0.206	-0.237
-241.932	800.000	0.009	0.039
-240.917	43.254	-0.262	0.236
-239.903	14.148	-0.249	0.191
-238.888	-200.000	-0.008	-0.132
-237.873	191.161	0.212	0.315
-236.859	800.000	0.024	0.086
-235.844	67.871	0.116	-0.117
-234.830	-87.115	0.248	-0.074
-233.815	-37.568	-0.237	0.124
-232.800	27.687	0.215	-0.178
-231.786	129.262	0.118	0.148
-230.771	-73.988	0.373	0.133
-229.757	402.949	0.075	0.155
-228.742	800.000	0.070	0.192
-227.727	-200.000	-0.040	-0.215
-226.713	-157.769	-0.452	0.026
-225.698	-56.105	-0.161	-0.070
-224.684	800.000	-0.031	0.116
-223.669	-11.976	0.020	0.013
-222.655	-123.087	-0.384	-0.061
-221.640	-92.556	0.173	-0.048
-220.625	-32.637	0.218	-0.119
-219.611	-24.862	0.171	0.100
-218.596	-200.000	-0.029	0.126
-217.582	-37.911	-0.296	0.155
-216.567	-149.801	-0.188	0.015
-215.552	800.000	0.051	0.207
-214.538	3.889	-0.268	-0.192
-213.523	-149.484	0.204	-0.016
-212.509	-124.774	-0.183	0.028
-211.494	-200.000	-0.024	-0.321
-210.479	-200.000	-0.095	-0.441
-209.465	406.789	-0.056	-0.116
-208.450	-45.419	0.261	-0.127
-207.436	184.975	-0.089	0.130
-206.421	-79.748	-0.259	0.086
-205.406	-200.000	-0.033	-0.221
-204.392	-108.619	0.211	-0.045
-203.377	-200.000	-0.038	0.204
-202.363	576.515	-0.072	0.173
-201.348	-132.630	0.038	0.005
-200.333	40.430	-0.252	-0.223
-199.319	-135.502	0.307	-0.036
-198.304	77.457	-0.137	0.143
-197.290	27.175	-0.099	0.082
-196.275	-105.462	-0.058	-0.013
-195.260	-48.869	-0.337	-0.159
-194.246	408.423	0.056	0.117
-193.231	-89.960	-0.116	0.033
-192.217	-200.000	0.075	0.458
-191.202	-97.459	-0.183	0.047
-190.187	800.000	-0.062	0.236
-189.173	-66.884	-0.152	-0.059
-188.158	-200.000	0.058	-0.265
-187.144	384.515	-0.135	-0.274
-186.129	800.000	0.073	0.205
-185.114	-75.792	0.285	-0.099
-184.100	-200.000	0.003	0.175
-183.085	178.206	0.196	-0.281
-182.071	-200.000	-0.005	0.040
-181.056	-113.853	0.354	-0.068
-180.042	-200.000	0.021	0.105
-179.027	348.290	-0.093	0.181
-178.012	-140.506	0.427	-0.044
-176.998	115.159	-0.007	-0.009
-175.983	320.786	-0.082	0.152
-174.969	-200.000	-0.034	0.608
-173.954	176.743	-0.078	0.111
-172.939	800.000	-0.070	-0.232
-171.925	-200.000	-0.001	-0.026
-170.910	-144.589	-0.057	-0.005
-169.896	-164.773	0.222	0.010
-168.881	-105.529	0.373	-0.083
-167.866	17.583	0.263	0.206
-166.852	267.346	-0.141	0.241
-165.837	-153.561	0.173	0.012
-164.823	800.000	0.052	0.154
-163.808	240.380	0.168	0.274
-162.793	-133.190	0.240	0.030
-161.779	35.792	-0.085	0.074
-160.764	-141.367	-0.207	0.021
-159.750	-55.358	0.102	-0.045
-158.735	800.000	-0.064	-0.208
-157.720	-133.558	0.148	0.018
-156.706	800.000	0.031	-0.109
-155.691	71.693	-0.372	0.379
-154.677	-200.000	-0.054	-0.264
-153.662	-18.062	0.113	0.069
-152.647	-199.084	0.336	0.002
-151.633	247.026	0.111	-0.183
-150.618	-200.000	0.018	-0.767
-149.604	131.951	0.176	0.222
-148.589	-200.000	0.007	-0.051
-147.574	298.944	-0.163	-0.294
-146.560	-113.381	0.200	0.039
-145.545	-113.707	0.278	-0.053
-144.531	-111.308	-0.222	-0.044
-143.516	388.600	0.009	0.019
-142.502	800.000	0.037	0.112
-141.487	70.297	0.204	0.207
-140.472	-176.832	0.018	0.000
-139.458	-44.856	0.192	-0.094
-138.443	237.247	0.080	0.130
-137.429	57.971	0.081	0.078
-136.414	111.583	-0.126	0.149
-135.399	-200.000	0.002	0.087
-134.385	-25.047	0.065	-0.038
-133.370	-22.582	0.260	0.154
-132.356	134.416	-0.280	-0.356
-131.341	10.912	0.251	0.188
-130.326	500.976	0.062	-0.140
-129.312	-200.000	0.058	-0.300
-128.297	-109.698	0.170	-0.035
-127.283	-200.000	-0.046	0.265
-126.268	506.932	0.117	0.266
-125.253	-46.422	-0.264	-0.127
-124.239	161.679	0.309	-0.424
-123.224	-123.845	-0.078	0.012
-122.210	-45.193	0.107	0.052
