DTS Sentinel unit serial number:	SN413079Multiplexer serial number:	ORYXHardware model number:	OX4-SRSoftware version number:	ORYX F/W v4.00 Oryx Data Collector v3.7.2.0data status	okinstallation	princeton_trtdifferential loss correction	single-endedforward channel	channel 2reverse channel	N/Adate	2019/09/13time	16:39:35forward acquisition time	60.00reverse acquisition time	0.00gamma	496.2192k internal	0.2316k external	0.2316temperature offset calibration	1.0216default loss term (dB/km)	0.3790temperature slope calibration	1.0000multiplexer offset coefficient	1.0000multiplexer slope coefficient	1.0000fibre end	0.00T internal ref (°C)	35.06T ext. ref 1 (°C)	4.92T ext. ref 2 (°C)	29.64length (m)	temperature (°C)	Stokes	anti-Stokes-747.200	111.425	0.050	0.061
-746.185	441.713	0.213	0.472
-745.171	563.271	0.185	-0.454
-744.156	114.641	-0.211	0.260
-743.142	455.443	-0.052	-0.117
-742.127	800.000	-0.080	0.347
-741.112	335.778	-0.113	0.223
-740.098	-200.000	-0.032	0.414
-739.083	-67.609	0.160	0.064
-738.069	640.306	0.114	0.293
-737.054	-141.279	-0.106	0.011
-736.039	-28.942	-0.111	-0.065
-735.025	-97.835	0.191	-0.050
-734.010	-200.000	-0.023	-0.200
-732.996	-110.714	-0.241	0.050
-731.981	69.849	-0.034	-0.035
-730.966	-200.000	-0.024	-0.339
-729.952	-200.000	-0.009	-0.200
-728.937	-200.000	0.017	-0.209
-727.923	-200.000	-0.009	-0.348
-726.908	-200.000	0.014	-0.095
-725.894	800.000	-0.083	0.319
-724.879	-200.000	-0.008	0.107
-723.864	52.288	0.077	-0.074
-722.850	54.905	-0.105	-0.103
-721.835	136.925	-0.011	0.014
-720.821	-70.348	0.061	0.023
-719.806	-91.125	-0.548	0.159
-718.791	-86.027	-0.246	-0.077
-717.777	800.000	0.052	0.162
-716.762	44.602	0.118	0.110
-715.748	1.072	0.205	-0.149
-714.733	154.087	-0.287	-0.399
-713.718	-15.205	-0.277	0.179
-712.704	279.471	0.038	0.068
-711.689	54.559	-0.054	-0.052
-710.675	-200.000	-0.022	-0.174
-709.660	-79.027	0.247	-0.085
-708.645	317.402	-0.126	-0.240
-707.631	239.551	0.189	-0.319
-706.616	-105.838	0.306	-0.070
-705.602	92.610	0.078	0.089
-704.587	15.676	0.113	0.090
-703.572	-200.000	-0.006	0.362
-702.558	800.000	-0.037	0.106
-701.543	-200.000	0.072	0.340
-700.529	325.935	0.100	-0.194
-699.514	-111.426	-0.211	-0.044
-698.499	-66.864	0.096	0.038
-697.485	28.888	0.337	-0.289
-696.470	800.000	0.036	-0.125
-695.456	17.965	-0.258	-0.208
-694.441	-40.566	-0.112	-0.059
-693.426	-32.909	-0.123	-0.069
-692.412	-137.674	-0.190	-0.022
-691.397	-165.762	-0.267	-0.012
-690.383	-200.000	-0.020	0.245
-689.368	-92.721	0.089	0.025
-688.354	-50.184	0.120	-0.057
-687.339	232.243	-0.165	0.274
-686.324	-37.629	0.179	0.097
-685.310	307.403	-0.146	0.275
-684.295	-40.465	0.248	-0.130
-683.281	175.463	0.064	-0.094
-682.266	-200.000	-0.019	-0.205
-681.251	460.499	-0.023	0.051
-680.237	37.804	-0.064	-0.058
-679.222	66.018	-0.071	-0.073
-678.208	-48.382	0.044	0.021
-677.193	17.746	-0.095	0.077
-676.178	-200.000	0.087	-0.408
-675.164	800.000	0.062	0.260
-674.149	-56.126	0.163	-0.073
-673.135	-200.000	0.020	0.200
-672.120	800.000	-0.066	-0.230
-671.105	-200.000	-0.012	-0.155
-670.091	55.799	0.009	-0.009
-669.076	-166.569	0.161	0.007
-668.062	-45.951	-0.319	0.159
-667.047	16.784	-0.088	-0.070
-666.032	99.309	0.189	-0.221
-665.018	-139.599	0.196	0.021
-664.003	71.426	-0.069	0.072
-662.989	68.126	-0.026	-0.027
-661.974	-138.354	0.235	0.026
-660.959	273.854	0.046	-0.082
-659.945	-200.000	0.002	0.028
-658.930	-200.000	-0.026	-0.164
-657.916	-29.767	-0.283	-0.163
-656.901	799.816	-0.094	-0.262
-655.886	231.886	0.126	-0.209
-654.872	800.000	0.051	-0.191
-653.857	-73.604	-0.380	0.140
-652.843	27.631	-0.261	0.222
-651.828	-92.221	-0.289	-0.082
-650.814	532.444	0.050	-0.120
-649.799	-96.514	0.308	-0.082
-648.784	205.992	-0.183	-0.287
-647.770	-102.333	-0.289	-0.070
-646.755	216.020	0.114	-0.183
-645.741	-8.789	-0.237	-0.160
-644.726	395.966	-0.128	0.270
-643.711	106.179	0.113	0.135
-642.697	-117.131	-0.084	0.015
-641.682	-36.221	-0.206	-0.112
-640.668	18.219	0.087	0.070
-639.653	-200.000	-0.014	0.453
-638.638	-131.983	-0.243	0.032
-637.624	157.175	-0.285	0.397
-636.609	45.438	0.226	-0.210
-635.595	141.603	-0.130	-0.174
-634.580	334.203	-0.079	-0.155
-633.565	-134.596	0.176	-0.022
-632.551	137.314	0.040	0.052
-631.536	73.957	-0.047	0.050
-630.522	133.891	-0.103	-0.134
-629.507	-29.723	0.367	-0.211
-628.492	-39.933	0.262	0.138
-627.478	800.000	0.085	0.341
-626.463	-7.220	0.089	-0.061
-625.449	452.747	-0.128	0.286
-624.434	-104.288	0.431	-0.101
-623.419	272.486	-0.115	-0.205
-622.405	110.836	-0.162	-0.196
-621.390	-43.794	-0.177	0.090
-620.376	0.825	-0.056	0.040
-619.361	-105.617	-0.170	-0.039
-618.346	27.668	-0.263	-0.223
-617.332	-100.405	-0.255	-0.064
-616.317	34.128	-0.146	0.129
-615.303	3.139	0.214	-0.156
-614.288	221.267	-0.134	-0.216
-613.273	19.622	0.342	-0.277
-612.259	-200.000	-0.029	-0.202
-611.244	-12.760	0.283	-0.186
-610.230	-200.000	0.035	-0.310
-609.215	-31.626	0.095	0.054
-608.201	800.000	-0.092	-0.258
-607.186	164.739	0.064	-0.091
-606.171	800.000	0.105	0.354
-605.157	-52.155	0.200	0.093
-604.142	505.361	0.040	0.094
-603.128	-63.308	-0.320	0.133
-602.113	-200.000	0.027	-0.251
-601.098	800.000	0.046	-0.146
-600.084	308.839	0.091	0.170
-599.069	774.749	0.007	0.021
-598.055	-123.285	0.244	0.039
-597.040	76.942	-0.187	0.200
-596.025	800.000	-0.103	0.293
-595.011	800.000	0.046	-0.144
-593.996	316.290	-0.178	0.339
-592.982	320.551	-0.078	-0.149
-591.967	-30.878	-0.275	-0.156
-590.952	-10.428	0.125	-0.083
-589.938	134.904	-0.168	0.219
-588.923	-3.826	0.112	-0.078
-587.909	-100.485	-0.284	-0.071
-586.894	-200.000	0.082	0.429
-585.879	-62.735	-0.075	-0.031
-584.865	-111.730	0.080	0.016
-583.850	800.000	0.023	-0.069
-582.836	-20.738	-0.214	-0.132
-581.821	-139.677	0.085	0.009
-580.806	-0.876	-0.286	-0.204
-579.792	121.126	-0.094	0.118
-578.777	-200.000	-0.002	0.420
-577.763	-84.189	0.118	-0.038
-576.748	-110.942	-0.251	-0.052
-575.733	81.564	-0.200	0.218
-574.719	-149.143	0.305	0.025
-573.704	-68.667	0.147	0.057
-572.690	-200.000	-0.042	-0.241
-571.675	-93.496	0.188	-0.052
-570.661	140.247	-0.101	-0.133
-569.646	-200.000	0.004	-0.159
-568.631	780.303	0.106	0.293
-567.617	-200.000	0.001	-0.310
-566.602	23.398	0.130	0.108
-565.588	61.406	-0.202	0.202
-564.573	-112.577	0.287	0.058
-563.558	800.000	-0.053	0.167
-562.544	-200.000	-0.000	0.023
-561.529	800.000	-0.052	-0.181
-560.515	17.124	0.146	0.117
-559.500	-101.559	-0.189	0.046
-558.485	-36.970	-0.130	0.070
-557.471	-88.005	-0.189	0.057
-556.456	-88.873	-0.189	-0.056
-555.442	-117.531	-0.265	-0.048
-554.427	-200.000	-0.001	-0.025
-553.412	-200.000	0.002	-0.108
-552.398	34.671	-0.246	0.216
-551.383	106.449	0.063	0.075
-550.369	-135.466	0.332	-0.040
-549.354	-200.000	0.033	0.187
-548.339	-58.312	0.146	-0.064
-547.325	-39.453	0.131	0.069
-546.310	566.662	0.044	-0.107
-545.296	-17.653	0.078	-0.049
-544.281	800.000	-0.137	-0.562
-543.266	527.689	0.042	0.100
-542.252	-103.400	0.125	-0.030
-541.237	27.050	-0.151	0.128
-540.223	-101.789	-0.159	-0.039
-539.208	167.580	0.050	0.071
-538.193	-1.251	0.196	0.139
-537.179	-200.000	0.001	0.091
-536.164	19.314	0.476	0.384
-535.150	697.590	0.057	0.150
-534.135	-200.000	0.019	0.340
-533.121	-200.000	0.015	-0.086
-532.106	474.950	-0.128	0.289
-531.091	-122.914	0.143	-0.023
-530.077	164.838	0.104	0.148
-529.062	110.818	-0.054	0.065
-528.048	-38.884	-0.183	0.097
-527.033	2.487	0.023	0.017
-526.018	186.715	-0.195	-0.291
-525.004	756.953	0.098	-0.268
-523.989	260.168	0.151	-0.262
-522.975	147.888	-0.003	-0.005
-521.960	-75.569	0.117	0.042
-520.945	6.231	-0.102	0.076
-519.931	-116.700	0.228	0.042
-518.916	-164.177	-0.143	0.007
-517.902	-85.971	-0.089	-0.027
-516.887	118.131	-0.136	-0.169
-515.872	-200.000	-0.006	-0.088
-514.858	1.270	-0.210	0.151
-513.843	-2.322	-0.159	-0.112
-512.829	-26.105	0.502	-0.296
-511.814	50.268	-0.207	-0.197
-510.799	800.000	0.078	0.287
-509.785	-73.424	-0.031	0.011
-508.770	65.499	-0.215	-0.218
-507.756	-112.828	0.141	0.028
-506.741	186.191	0.068	-0.101
-505.726	800.000	0.086	-0.309
-504.712	700.307	-0.086	-0.226
-503.697	-62.373	-0.142	-0.059
-502.683	-74.667	0.189	-0.068
-501.668	275.560	0.162	0.289
-500.653	-97.111	0.137	0.036
-499.639	-66.966	-0.199	-0.079
-498.624	-28.742	-0.094	-0.054
-497.610	42.631	0.089	-0.082
-496.595	-62.532	0.174	0.073
-495.581	-200.000	0.013	0.102
-494.566	-200.000	0.061	0.287
-493.551	-143.006	0.159	0.015
-492.537	50.472	-0.060	0.057
-491.522	-200.000	-0.031	-0.137
-490.508	502.231	-0.180	0.417
-489.493	155.156	-0.079	0.109
-488.478	75.404	-0.326	-0.345
-487.464	-63.773	-0.163	-0.067
-486.449	289.441	0.108	-0.196
-485.435	-200.000	-0.015	-0.221
-484.420	-98.398	0.532	-0.137
-483.405	-114.124	0.105	-0.020
-482.391	34.621	0.126	-0.110
-481.376	-75.853	-0.220	-0.078
-480.362	-104.048	-0.040	-0.009
-479.347	-0.263	0.089	-0.063
-478.332	41.937	0.277	-0.252
-477.318	-159.526	0.199	0.011
-476.303	-200.000	0.019	-0.100
-475.289	234.279	-0.138	-0.229
-474.274	80.804	0.268	0.290
-473.259	-98.678	-0.146	0.037
-472.245	-39.021	-0.229	0.121
-471.230	-200.000	-0.027	0.359
-470.216	73.861	0.012	0.012
-469.201	800.000	-0.090	-0.366
-468.186	-200.000	-0.060	-0.546
-467.172	-63.643	0.178	-0.073
-466.157	-200.000	-0.042	0.282
-465.143	-200.000	0.008	-0.043
-464.128	304.213	-0.026	-0.048
-463.113	-13.289	-0.268	0.174
-462.099	-81.436	-0.313	-0.103
-461.084	-26.459	0.352	-0.207
-460.070	223.614	-0.084	-0.135
-459.055	800.000	-0.069	0.224
-458.040	-56.927	0.143	0.063
-457.026	-104.416	0.264	0.061
-456.011	206.086	0.056	0.087
-454.997	143.985	-0.059	-0.078
-453.982	-9.699	0.242	0.161
-452.968	563.701	-0.062	-0.149
-451.953	-200.000	-0.037	-0.426
-450.938	220.890	-0.196	-0.315
-449.924	-157.262	0.114	-0.007
-448.909	-200.000	0.003	0.140
-447.895	60.424	0.151	-0.149
-446.880	800.000	-0.062	0.237
-445.865	-200.000	0.005	-0.139
-444.851	-29.136	0.102	0.059
-443.836	147.295	-0.117	-0.157
-442.822	57.678	0.193	0.189
-441.807	445.913	0.073	0.160
-440.792	143.153	-0.155	-0.207
-439.778	-43.200	-0.081	-0.041
-438.763	6.087	-0.192	-0.142
-437.749	96.936	0.111	-0.127
-436.734	11.789	-0.312	0.240
-435.719	-200.000	0.007	-0.059
-434.705	-167.564	0.301	0.012
-433.690	31.392	0.068	0.058
-432.676	-100.995	-0.288	-0.071
-431.661	112.340	0.144	-0.174
-430.646	-135.614	-0.166	0.020
-429.632	-200.000	0.017	-0.345
-428.617	21.158	0.185	0.150
-427.603	28.665	-0.217	-0.184
-426.588	-154.118	-0.073	-0.005
-425.573	-200.000	-0.022	0.198
-424.559	-200.000	0.020	-0.116
-423.544	-106.114	0.012	0.003
-422.530	-55.091	-0.170	-0.077
-421.515	-47.625	0.436	-0.212
-420.500	800.000	-0.100	0.430
-419.486	-2.778	0.092	-0.064
-418.471	63.430	0.060	0.061
-417.457	-30.233	0.139	0.079
-416.442	-39.442	-0.131	-0.069
-415.428	-7.628	-0.214	0.145
-414.413	-200.000	0.011	0.249
-413.398	-51.090	0.178	-0.083
-412.384	-165.574	0.296	0.013
-411.369	-125.488	0.325	0.049
-410.355	800.000	-0.069	0.290
-409.340	-200.000	0.003	0.204
-408.325	-101.880	0.057	-0.014
-407.311	-200.000	0.009	-0.311
-406.296	226.607	0.056	-0.091
-405.282	362.218	-0.065	-0.130
-404.267	-5.166	-0.139	0.096
-403.252	-148.008	0.126	-0.010
-402.238	97.331	-0.139	-0.159
-401.223	-200.000	-0.001	0.157
-400.209	-101.443	-0.357	-0.087
-399.194	346.245	0.113	-0.222
-398.179	183.272	-0.281	-0.415
-397.165	-53.155	0.082	0.038
-396.150	-132.101	0.261	-0.034
-395.136	-200.000	-0.014	0.395
-394.121	-200.000	-0.017	-0.171
-393.106	51.347	-0.231	0.219
-392.092	170.148	0.238	-0.340
-391.077	-16.757	0.160	0.101
-390.063	-168.527	-0.221	0.008
-389.048	-200.000	0.035	0.386
-388.033	800.000	0.064	0.191
-387.019	79.150	-0.261	0.279
-386.004	121.387	0.228	-0.284
-384.990	314.021	-0.109	-0.205
-383.975	-141.564	0.262	0.026
-382.960	-105.426	0.128	0.029
-381.946	387.705	-0.060	-0.123
-380.931	185.561	0.060	-0.089
-379.917	-200.000	0.011	0.096
-378.902	-117.678	-0.209	-0.038
-377.888	-97.947	-0.143	-0.037
-376.873	445.357	-0.033	0.072
-375.858	44.714	0.228	0.210
-374.844	-84.761	0.272	0.085
-373.829	632.669	-0.109	-0.275
-372.815	-45.445	-0.267	-0.132
-371.800	99.125	0.184	0.212
-370.785	-13.493	0.152	0.098
-369.771	54.185	-0.147	-0.142
-368.756	-57.487	-0.225	-0.098
-367.742	268.586	0.067	0.118
-366.727	114.816	-0.315	0.383
-365.712	-93.174	-0.261	0.072
-364.698	-150.526	-0.294	0.022
-363.683	-200.000	0.008	0.079
-362.669	78.358	0.170	0.181
-361.654	800.000	-0.101	0.413
-360.639	159.111	0.148	-0.206
-359.625	-30.074	0.143	0.081
-358.610	-18.796	-0.159	-0.099
-357.596	-188.164	0.282	-0.004
-356.581	143.333	-0.013	0.017
-355.566	-32.964	-0.194	-0.108
-354.552	-200.000	-0.028	0.137
-353.537	12.165	0.287	-0.220
-352.523	-36.410	0.176	-0.094
-351.508	-200.000	-0.010	0.053
-350.493	-165.062	-0.387	-0.017
-349.479	-1.990	0.194	-0.136
-348.464	-74.166	-0.056	0.020
-347.450	-2.133	-0.179	0.125
-346.435	-56.758	0.188	0.083
-345.420	148.886	0.025	-0.034
-344.406	549.356	-0.120	-0.288
-343.391	216.858	0.167	0.265
-342.377	-125.354	0.207	-0.032
-341.362	298.044	-0.185	0.338
-340.348	-58.925	0.145	-0.062
-339.333	-187.992	0.210	-0.003
-338.318	354.195	-0.019	0.037
-337.304	-96.014	0.387	-0.103
-336.289	578.351	-0.099	-0.241
-335.275	-200.000	-0.010	-0.120
-334.260	-200.000	0.025	0.153
-333.245	60.164	0.151	0.148
-332.231	-75.571	0.272	-0.097
-331.216	-65.462	0.136	0.054
-330.202	-12.527	-0.044	0.029
-329.187	74.670	-0.074	0.078
-328.172	49.067	-0.098	-0.091
-327.158	-200.000	0.006	-0.248
-326.143	131.270	0.135	-0.173
-325.129	800.000	0.037	0.148
-324.114	-33.456	-0.223	0.123
-323.099	-153.543	-0.117	-0.008
-322.085	66.193	-0.156	0.157
-321.070	550.986	-0.203	-0.485
-320.056	-200.000	0.002	-0.476
-319.041	-119.720	0.359	-0.062
-318.026	-165.275	-0.198	-0.009
-317.012	-156.694	0.225	-0.014
-315.997	454.594	0.052	0.115
-314.983	-6.224	-0.190	0.129
-313.968	334.670	0.074	-0.143
-312.953	279.641	-0.165	-0.294
-311.939	69.195	0.320	-0.327
-310.924	22.015	-0.292	-0.237
-309.910	643.709	0.093	0.236
-308.895	37.504	-0.018	-0.016
-307.880	-98.025	0.094	0.024
-306.866	272.641	0.109	-0.191
-305.851	4.545	-0.101	-0.074
-304.837	86.058	0.104	0.114
-303.822	173.800	0.271	-0.389
-302.807	-62.017	0.261	-0.109
-301.793	32.378	-0.023	0.020
-300.778	800.000	0.065	0.216
-299.764	800.000	-0.064	0.190
-298.749	-1.431	-0.134	0.094
-297.735	233.043	-0.050	0.082
-296.720	53.661	-0.262	0.250
-295.705	-51.679	0.442	0.205
-294.691	800.000	0.030	0.085
-293.676	-64.584	0.135	0.054
-292.662	263.975	-0.039	-0.067
-291.647	168.007	-0.132	0.187
-290.632	-5.210	-0.204	0.140
-289.618	737.101	-0.017	-0.045
-288.603	-89.121	-0.350	0.103
-287.589	800.000	0.096	-0.298
-286.574	-200.000	-0.012	-0.074
-285.559	127.969	0.291	0.368
-284.545	-53.233	-0.092	0.042
-283.530	800.000	-0.118	-0.402
-282.516	-104.387	0.271	0.062
-281.501	-78.790	-0.208	-0.070
-280.486	-200.000	-0.028	0.298
-279.472	685.858	-0.201	0.522
-278.457	185.890	-0.142	-0.209
-277.443	162.780	-0.172	0.241
-276.428	29.701	0.194	-0.164
-275.413	-200.000	-0.130	0.638
-274.399	298.209	-0.089	-0.162
-273.384	-200.000	-0.005	0.143
-272.370	492.217	-0.084	-0.192
-271.355	144.674	-0.180	0.240
-270.340	-66.165	0.135	-0.054
-269.326	-83.152	-0.135	0.043
-268.311	-16.499	-0.120	-0.075
-267.297	-200.000	-0.059	-0.326
-266.282	181.879	0.061	0.090
-265.267	-81.448	0.090	-0.030
-264.253	-89.759	0.214	0.062
-263.238	392.967	-0.040	-0.084
-262.224	-200.000	0.012	0.123
-261.209	452.027	-0.079	-0.173
-260.195	207.824	0.141	0.219
-259.180	-200.000	0.043	0.293
-258.165	-200.000	0.003	-0.187
-257.151	-37.406	0.105	-0.056
-256.136	-200.000	0.055	0.259
-255.122	-200.000	-0.027	-0.124
-254.107	106.688	0.127	0.150
-253.092	800.000	0.025	0.086
-252.078	-137.597	0.212	0.024
-251.063	-51.358	0.283	0.131
-250.049	800.000	0.095	0.282
-249.034	291.124	0.189	0.342
-248.019	800.000	0.058	-0.216
-247.005	686.935	-0.044	-0.115
-245.990	-200.000	-0.054	0.259
-244.976	-79.824	-0.341	-0.114
-243.961	-200.000	0.009	-0.182
-242.946	76.393	0.168	0.176
-241.932	10.070	-0.149	0.113
-240.917	178.163	0.180	0.261
-239.903	20.129	-0.133	-0.107
-238.888	-17.072	-0.439	0.275
-237.873	-58.035	-0.153	0.066
-236.859	-189.248	-0.132	-0.002
-235.844	-74.153	0.099	-0.036
-234.830	345.105	0.058	-0.112
-233.815	-200.000	-0.029	0.271
-232.800	470.148	0.082	0.184
-231.786	186.555	-0.121	0.180
-230.771	800.000	-0.149	-0.433
-229.757	-159.300	-0.155	-0.009
-228.742	464.645	0.021	-0.046
-227.727	-91.255	-0.160	0.046
-226.713	54.332	0.087	0.083
-225.698	362.134	0.118	-0.234
-224.684	800.000	-0.016	-0.047
-223.669	-200.000	-0.010	-0.154
-222.655	-166.672	0.665	-0.027
-221.640	67.919	-0.260	0.264
-220.625	394.116	-0.154	0.319
-219.611	-13.308	-0.205	0.132
-218.596	23.825	-0.210	-0.172
-217.582	800.000	0.061	-0.179
-216.567	171.107	-0.281	-0.400
-215.552	-10.684	-0.113	0.074
-214.538	-200.000	0.003	0.116
-213.523	90.644	0.034	0.038
-212.509	179.657	-0.177	-0.258
-211.494	187.371	0.102	0.151
-210.479	74.202	-0.242	-0.253
-209.465	-200.000	0.019	0.194
-208.450	-100.388	-0.093	0.023
-207.436	-109.463	0.155	-0.033
-206.421	60.190	0.147	-0.144
-205.406	60.419	0.157	-0.154
-204.392	211.637	0.077	0.120
-203.377	199.201	-0.170	0.258
-202.363	68.394	-0.119	0.121
-201.348	-200.000	-0.007	0.054
-200.333	560.199	0.096	0.230
-199.319	39.364	-0.101	-0.090
-198.304	-189.255	-0.361	0.004
-197.290	-177.157	0.017	0.000
-196.275	11.664	0.258	0.196
-195.260	-47.952	0.240	0.115
-194.246	-122.700	-0.017	0.003
-193.231	-200.000	0.009	-0.287
-192.217	-149.922	-0.340	-0.026
-191.202	75.896	-0.032	0.033
-190.187	59.606	-0.232	-0.227
-189.173	-161.823	0.372	-0.019
-188.158	-200.000	-0.001	0.109
-187.144	-93.209	-0.298	-0.082
-186.129	376.635	-0.054	-0.109
-185.114	-200.000	-0.001	-0.230
-184.100	134.037	0.032	-0.042
-183.085	-73.503	-0.257	-0.093
-182.071	-125.402	0.291	0.044
-181.056	-118.242	-0.208	-0.037
-180.042	-37.458	-0.260	0.137
-179.027	-57.171	0.142	-0.062
-178.012	800.000	-0.081	0.264
-176.998	800.000	0.092	-0.378
-175.983	-6.602	0.304	0.205
-174.969	-101.289	0.117	-0.028
-173.954	302.141	0.057	0.104
-172.939	11.621	0.274	0.208
-171.925	800.000	0.102	0.318
-170.910	-200.000	0.001	0.047
-169.896	-200.000	-0.002	-0.066
-168.881	-140.482	-0.290	-0.030
-167.866	-58.528	0.174	0.075
-166.852	75.631	0.193	-0.202
-165.837	447.005	-0.131	0.286
-164.823	800.000	0.095	-0.291
-163.808	-200.000	0.002	-0.034
-162.793	204.089	-0.112	-0.172
-161.779	745.180	0.098	-0.262
-160.764	-200.000	-0.017	0.113
-159.750	-26.413	0.249	-0.145
-158.735	92.763	-0.262	0.292
-157.720	640.963	-0.041	-0.105
-156.706	14.846	-0.116	0.089
-155.691	187.367	0.064	0.095
-154.677	123.725	0.117	-0.145
-153.662	-30.397	0.161	-0.090
-152.647	-172.545	0.080	0.002
-151.633	-200.000	0.011	0.124
-150.618	300.356	-0.131	-0.239
-149.604	18.822	-0.139	0.111
-148.589	800.000	-0.008	0.021
-147.574	91.975	0.013	-0.014
-146.560	-200.000	-0.046	-0.283
-145.545	-24.348	0.291	-0.172
-144.531	800.000	0.025	-0.101
-143.516	775.494	-0.079	0.214
-142.502	-200.000	0.011	0.067
-141.487	-200.000	0.024	0.233
-140.472	-160.014	0.098	0.005
-139.458	-200.000	-0.013	-0.317
-138.443	626.717	-0.021	0.054
-137.429	584.579	0.030	0.073
-136.414	-200.000	0.005	-0.162
-135.399	44.433	0.021	0.019
-134.385	-21.909	-0.199	0.120
-133.370	-200.000	-0.015	0.117
-132.356	800.000	-0.040	0.128
-131.341	-39.334	-0.104	0.054
-130.326	23.208	0.197	-0.160
-129.312	31.973	0.030	0.026
-128.297	-122.370	-0.293	-0.047
-127.283	-22.674	-0.168	-0.100
-126.268	800.000	0.071	-0.220
-125.253	367.562	-0.113	0.225
-124.239	13.936	0.053	-0.041
-123.224	-78.859	-0.307	-0.103
-122.210	-200.000	-0.010	0.087
-121.195	203.457	0.119	0.181
