DTS Sentinel unit serial number:	SN413079Multiplexer serial number:	ORYXHardware model number:	OX4-SRSoftware version number:	ORYX F/W v4.00 Oryx Data Collector v3.7.2.0data status	okinstallation	princeton_trtdifferential loss correction	single-endedforward channel	channel 2reverse channel	N/Adate	2019/09/13time	09:11:35forward acquisition time	60.00reverse acquisition time	0.00gamma	496.2192k internal	0.2329k external	0.2329temperature offset calibration	1.0193default loss term (dB/km)	0.3790temperature slope calibration	1.0000multiplexer offset coefficient	1.0000multiplexer slope coefficient	1.0000fibre end	0.00T internal ref (°C)	28.84T ext. ref 1 (°C)	4.39T ext. ref 2 (°C)	26.31length (m)	temperature (°C)	Stokes	anti-Stokes-747.200	80.087	-0.045	0.049
-746.185	-21.912	-0.239	0.146
-745.171	-93.675	0.118	-0.033
-744.156	-200.000	0.030	0.278
-743.142	-84.938	0.151	-0.048
-742.127	121.259	0.119	0.149
-741.112	-21.776	0.288	0.177
-740.098	-117.765	-0.238	0.043
-739.083	-43.698	0.360	0.183
-738.069	800.000	0.045	0.163
-737.054	-133.188	0.106	0.014
-736.039	-200.000	0.020	0.314
-735.025	39.858	0.165	0.149
-734.010	397.608	-0.024	-0.050
-732.996	696.682	-0.100	-0.263
-731.981	-24.188	-0.299	-0.180
-730.966	-70.427	0.147	0.056
-729.952	-98.978	0.246	-0.063
-728.937	7.338	0.076	-0.057
-727.923	195.440	0.130	0.199
-726.908	-3.510	-0.281	0.197
-725.894	187.373	-0.056	-0.084
-724.879	-57.536	-0.185	-0.082
-723.864	-200.000	-0.019	0.093
-722.850	-32.839	-0.164	-0.092
-721.835	-83.108	0.096	-0.031
-720.821	-35.749	0.111	0.060
-719.806	-200.000	0.362	0.000
-718.791	-107.426	0.176	-0.039
-717.777	-172.764	-0.250	0.008
-716.762	-15.867	-0.183	-0.117
-715.748	-5.839	-0.165	-0.113
-714.733	-38.566	-0.203	0.108
-713.718	166.541	-0.056	0.080
-712.704	-131.527	0.076	0.010
-711.689	238.436	-0.099	0.165
-710.675	-113.022	0.203	-0.040
-709.660	-8.393	0.083	-0.056
-708.645	615.028	-0.055	0.138
-707.631	285.432	0.016	-0.030
-706.616	347.514	0.028	0.056
-705.602	-159.430	-0.309	0.017
-704.587	-28.714	-0.128	-0.074
-703.572	-173.636	0.438	0.013
-702.558	329.221	-0.135	0.261
-701.543	-107.881	-0.213	-0.047
-700.529	440.116	0.310	0.681
-699.514	35.956	0.070	-0.062
-698.499	-164.678	0.536	0.024
-697.485	-162.456	0.274	-0.014
-696.470	-52.948	0.184	-0.085
-695.456	-20.940	-0.270	-0.166
-694.441	-36.557	-0.397	0.215
-693.426	182.726	-0.040	0.059
-692.412	-200.000	0.001	0.123
-691.397	14.488	0.195	-0.153
-690.383	270.039	-0.071	-0.125
-689.368	-70.885	-0.188	-0.071
-688.354	-88.236	-0.265	0.080
-687.339	264.663	0.222	0.388
-686.324	-126.103	-0.215	0.032
-685.310	800.000	0.045	0.159
-684.295	800.000	-0.058	0.207
-683.281	-200.000	0.019	-0.092
-682.266	-6.993	-0.471	0.321
-681.251	216.691	0.217	0.347
-680.237	-108.016	0.234	-0.051
-679.222	-200.000	-0.022	-0.247
-678.208	-30.192	0.041	0.024
-677.193	147.877	-0.013	-0.017
-676.178	262.761	-0.098	-0.171
-675.164	0.298	-0.234	0.167
-674.149	-27.607	0.230	-0.134
-673.135	75.905	0.128	-0.136
-672.120	-200.000	-0.017	0.078
-671.105	-200.000	0.023	-0.110
-670.091	-40.134	0.143	0.075
-669.076	-200.000	-0.037	0.266
-668.062	174.177	-0.122	0.178
-667.047	-70.569	-0.353	-0.134
-666.032	-41.526	0.269	0.139
-665.018	149.125	-0.075	0.102
-664.003	-13.629	-0.201	0.131
-662.989	-26.339	-0.281	-0.166
-661.974	122.465	-0.044	0.055
-660.959	7.105	0.101	0.076
-659.945	-98.116	0.126	0.033
-658.930	131.823	-0.092	-0.119
-657.916	800.000	-0.018	0.077
-656.901	594.183	-0.072	0.178
-655.886	79.019	0.155	0.167
-654.872	79.614	-0.252	-0.271
-653.857	-54.352	-0.052	0.024
-652.843	520.802	0.100	0.235
-651.828	123.492	-0.121	0.152
-650.814	61.094	-0.234	0.233
-649.799	-40.076	0.098	0.052
-648.784	25.252	-0.081	-0.067
-647.770	195.763	0.070	-0.107
-646.755	-66.355	-0.188	-0.075
-645.741	16.203	0.184	0.146
-644.726	-113.358	-0.194	0.038
-643.711	-104.499	0.112	0.026
-642.697	800.000	-0.103	0.376
-641.682	-16.514	0.200	-0.127
-640.668	-119.030	-0.215	-0.038
-639.653	-10.926	-0.152	-0.101
-638.638	47.140	-0.336	-0.314
-637.624	-90.391	-0.138	0.040
-636.609	800.000	-0.055	0.195
-635.595	-159.598	-0.346	-0.019
-634.580	90.642	0.135	-0.152
-633.565	153.908	0.189	0.260
-632.551	-83.787	0.231	0.074
-631.536	199.051	-0.219	-0.337
-630.522	-29.423	-0.271	0.156
-629.507	-103.002	0.122	-0.029
-628.492	-114.878	0.144	0.028
-627.478	800.000	0.057	0.205
-626.463	41.102	-0.138	-0.125
-625.449	-52.889	-0.309	-0.143
-624.434	136.065	-0.132	-0.172
-623.419	-200.000	-0.003	0.030
-622.405	4.763	0.217	0.160
-621.390	264.289	0.019	-0.034
-620.376	-113.875	0.247	-0.048
-619.361	-138.242	-0.074	-0.008
-618.346	-87.847	-0.350	-0.106
-617.332	-183.099	-0.169	0.003
-616.317	-200.000	0.008	-0.098
-615.303	30.256	-0.118	0.101
-614.288	-200.000	0.030	-0.349
-613.273	-110.873	-0.053	0.011
-612.259	208.550	0.151	-0.237
-611.244	25.677	-0.173	-0.144
-610.230	800.000	-0.103	0.287
-609.215	800.000	0.050	0.142
-608.201	361.243	-0.124	0.249
-607.186	10.785	0.274	0.210
-606.171	450.831	0.111	-0.245
-605.157	800.000	0.052	0.205
-604.142	-101.120	-0.179	0.044
-603.128	-200.000	0.029	0.181
-602.113	-3.394	-0.044	0.031
-601.098	-200.000	0.021	0.125
-600.084	118.711	-0.075	0.093
-599.069	12.368	-0.146	0.113
-598.055	-36.284	0.177	0.095
-597.040	61.881	0.149	-0.149
-596.025	-200.000	0.033	-0.346
-595.011	-158.184	0.145	0.008
-593.996	426.532	-0.080	-0.173
-592.982	-200.000	0.028	-0.214
-591.967	791.680	0.064	0.177
-590.952	800.000	0.123	-0.344
-589.938	-200.000	-0.035	0.207
-588.923	-152.280	0.157	-0.011
-587.909	-200.000	-0.018	-0.079
-586.894	800.000	-0.046	0.202
-585.879	2.232	-0.323	0.234
-584.865	40.274	-0.132	0.119
-583.850	-36.564	0.264	-0.142
-582.836	-99.092	0.098	0.025
-581.821	-200.000	-0.057	-0.362
-580.806	300.831	0.098	0.181
-579.792	-200.000	-0.068	-0.337
-578.777	0.397	-0.321	-0.229
-577.763	-77.868	-0.157	-0.054
-576.748	-37.895	-0.166	0.088
-575.733	-103.386	0.360	0.085
-574.719	800.000	-0.074	-0.311
-573.704	88.342	-0.063	-0.070
-572.690	-200.000	-0.026	-0.183
-571.675	768.991	0.185	0.504
-570.661	43.157	-0.320	0.292
-569.646	-51.035	0.280	-0.131
-568.631	-200.000	0.010	-0.275
-567.617	-106.738	-0.118	-0.026
-566.602	59.582	-0.194	0.192
-565.588	-200.000	0.052	0.301
-564.573	800.000	0.029	0.092
-563.558	-102.493	-0.324	-0.077
-562.544	-73.658	0.222	0.081
-561.529	-200.000	-0.016	0.340
-560.515	532.306	-0.062	0.147
-559.500	415.008	-0.112	-0.239
-558.485	-138.943	0.135	-0.015
-557.471	-152.238	0.324	0.023
-556.456	50.061	0.035	-0.033
-555.442	-88.675	-0.173	0.051
-554.427	-200.000	-0.072	0.360
-553.412	-130.137	-0.154	-0.021
-552.398	332.495	0.039	-0.075
-551.383	-53.362	-0.258	0.118
-550.369	-200.000	-0.009	0.126
-549.354	-162.628	0.148	-0.007
-548.339	26.656	-0.152	0.128
-547.325	-200.000	-0.004	-0.249
-546.310	-27.458	0.118	-0.069
-545.296	-200.000	-0.053	-0.319
-544.281	230.882	-0.093	0.152
-543.266	-122.886	0.179	-0.029
-542.252	-200.000	0.068	0.327
-541.237	-200.000	0.005	0.067
-540.223	-141.165	0.187	0.019
-539.208	-76.144	0.124	-0.044
-538.193	-13.838	0.339	0.219
-537.179	169.279	-0.116	-0.166
-536.164	52.676	-0.133	0.127
-535.150	-16.369	-0.121	0.077
-534.135	-45.027	0.330	-0.164
-533.121	-49.374	-0.262	0.125
-532.106	-200.000	-0.022	-0.176
-531.091	-29.859	-0.226	-0.129
-530.077	-6.687	-0.240	0.163
-529.062	17.552	0.084	-0.067
-528.048	-23.335	-0.180	-0.108
-527.033	-200.000	-0.033	-0.334
-526.018	-82.619	0.330	0.107
-525.004	-129.112	0.449	-0.063
-523.989	800.000	-0.004	0.016
-522.975	-77.823	0.178	0.061
-521.960	719.242	-0.074	0.196
-520.945	-70.354	-0.321	-0.121
-519.931	800.000	0.046	-0.142
-518.916	-122.130	0.399	0.065
-517.902	272.541	0.060	0.106
-516.887	-49.782	-0.294	0.140
-515.872	-200.000	0.016	-0.220
-514.858	14.063	0.181	-0.141
-513.843	15.618	0.239	-0.187
-512.829	-45.627	0.174	-0.086
-511.814	-200.000	-0.023	-0.111
-510.799	17.712	-0.134	-0.106
-509.785	-40.092	-0.256	-0.133
-508.770	800.000	0.003	0.013
-507.756	44.912	0.161	-0.148
-506.741	800.000	-0.040	-0.130
-505.726	-115.753	0.107	0.020
-504.712	487.960	0.054	0.123
-503.697	529.065	0.048	-0.114
-502.683	800.000	-0.047	-0.182
-501.668	-56.002	0.268	-0.119
-500.653	-200.000	0.048	-0.370
-499.639	-62.085	-0.226	-0.094
-498.624	-90.517	-0.102	-0.029
-497.610	-75.160	0.228	0.081
-496.595	-142.964	0.069	0.007
-495.581	-117.511	0.145	0.026
-494.566	147.056	-0.084	0.113
-493.551	-23.359	-0.266	0.160
-492.537	-200.000	-0.023	-0.181
-491.522	800.000	0.029	-0.104
-490.508	800.000	0.124	-0.476
-489.493	124.730	-0.128	0.160
-488.478	-166.562	-0.164	-0.007
-487.464	329.743	-0.091	0.174
-486.449	-45.718	0.099	0.049
-485.435	-146.436	-0.041	0.004
-484.420	161.731	-0.108	-0.151
-483.405	-99.002	0.263	0.066
-482.391	-200.000	0.002	0.079
-481.376	-57.020	-0.244	-0.107
-480.362	-200.000	0.006	-0.269
-479.347	34.404	-0.104	-0.091
-478.332	-119.574	-0.118	0.020
-477.318	-200.000	0.008	-0.142
-476.303	-12.940	0.200	0.130
-475.289	143.073	-0.142	-0.189
-474.274	-168.208	-0.200	-0.008
-473.259	-94.523	-0.121	-0.033
-472.245	433.391	0.093	-0.201
-471.230	-200.000	-0.004	0.027
-470.216	-40.503	-0.155	-0.080
-469.201	-83.319	0.287	-0.092
-468.186	800.000	0.050	-0.177
-467.172	790.918	-0.113	-0.310
-466.157	800.000	-0.018	-0.079
-465.143	-200.000	0.013	-0.163
-464.128	674.657	0.071	-0.183
-463.113	-200.000	0.004	-0.059
-462.099	-200.000	-0.028	0.192
-461.084	68.900	-0.277	0.284
-460.070	-15.443	0.260	-0.166
-459.055	-79.192	-0.406	0.137
-458.040	800.000	0.086	0.256
-457.026	58.574	0.105	0.102
-456.011	5.847	0.173	-0.128
-454.997	-10.537	-0.168	0.111
-453.982	-78.260	0.424	0.145
-452.968	-200.000	0.001	0.283
-451.953	-43.621	-0.242	0.122
-450.938	307.880	0.196	0.364
-449.924	-5.499	-0.109	0.074
-448.909	-52.097	0.301	0.139
-447.895	-200.000	-0.006	-0.032
-446.880	15.890	0.235	-0.184
-445.865	800.000	-0.020	-0.085
-444.851	50.876	0.263	0.248
-443.836	800.000	-0.055	0.189
-442.822	182.509	-0.237	-0.348
-441.807	69.347	-0.143	-0.146
-440.792	88.727	-0.353	0.391
-439.778	397.831	0.082	0.171
-438.763	-150.219	-0.175	-0.013
-437.749	577.738	-0.079	0.192
-436.734	-23.891	-0.234	-0.139
-435.719	800.000	-0.043	0.122
-434.705	108.019	0.092	-0.109
-433.690	56.140	-0.322	-0.312
-432.676	454.835	-0.143	-0.315
-431.661	22.361	0.188	0.153
-430.646	-200.000	0.015	0.458
-429.632	-200.000	-0.052	-0.331
-428.617	481.962	0.028	-0.064
-427.603	-160.053	-0.561	-0.030
-426.588	271.968	0.268	-0.471
-425.573	-152.431	0.068	0.005
-424.559	41.913	0.181	-0.163
-423.544	-80.408	0.127	-0.042
-422.530	88.330	0.049	-0.055
-421.515	-177.898	-0.330	0.008
-420.500	800.000	-0.023	-0.080
-419.486	441.532	0.091	0.198
-418.471	-149.039	-0.258	0.021
-417.457	533.904	0.110	-0.259
-416.442	-122.261	0.124	-0.020
-415.428	-24.224	0.142	-0.084
-414.413	-90.406	-0.218	0.063
-413.398	63.009	-0.188	-0.187
-412.384	800.000	-0.062	-0.231
-411.369	-172.740	-0.210	0.007
-410.355	-79.153	0.230	-0.078
-409.340	800.000	0.099	0.308
-408.325	467.934	0.027	-0.060
-407.311	44.288	-0.131	-0.120
-406.296	423.908	0.180	-0.385
-405.282	-144.241	0.339	-0.031
-404.267	-113.216	-0.244	0.048
-403.252	10.754	-0.167	0.127
-402.238	135.530	0.159	0.205
-401.223	800.000	-0.056	0.242
-400.209	40.820	-0.200	0.179
-399.194	-71.450	0.265	-0.098
-398.179	-36.588	-0.145	-0.078
-397.165	146.028	0.130	0.173
-396.150	-132.110	-0.142	0.018
-395.136	-184.863	0.367	-0.006
-394.121	-200.000	-0.006	0.098
-393.106	109.843	-0.123	0.147
-392.092	-97.141	-0.211	-0.055
-391.077	79.693	0.128	0.137
-390.063	69.874	-0.053	-0.054
-389.048	800.000	0.110	-0.377
-388.033	-200.000	-0.045	-0.443
-387.019	800.000	0.045	0.132
-386.004	-89.286	-0.289	-0.085
-384.990	-35.025	-0.272	0.147
-383.975	400.168	-0.042	0.087
-382.960	2.571	0.102	0.074
-381.946	603.559	-0.047	-0.117
-380.931	-102.192	0.160	-0.038
-379.917	800.000	-0.067	0.224
-378.902	73.294	-0.131	-0.137
-377.888	491.766	-0.114	-0.260
-376.873	466.114	-0.121	0.270
-375.858	800.000	0.027	0.084
-374.844	44.937	0.045	-0.042
-373.829	-200.000	-0.001	0.311
-372.815	-34.688	-0.049	0.027
-371.800	-62.580	-0.099	-0.041
-370.785	218.846	-0.142	-0.225
-369.771	-77.008	0.324	-0.112
-368.756	-142.891	0.272	0.026
-367.742	-200.000	0.054	-0.340
-366.727	-120.257	0.190	-0.032
-365.712	-200.000	0.031	0.211
-364.698	382.362	0.072	-0.147
-363.683	-109.676	-0.111	-0.023
-362.669	-10.319	0.283	-0.187
-361.654	679.455	0.074	-0.192
-360.639	129.265	-0.285	0.361
-359.625	-200.000	0.018	-0.161
-358.610	-116.798	0.137	0.025
-357.596	-200.000	-0.040	-0.205
-356.581	800.000	-0.046	0.135
-355.566	-90.134	0.150	0.043
-354.552	77.948	0.341	0.361
-353.537	273.183	-0.152	-0.266
-352.523	270.425	-0.211	0.369
-351.508	800.000	-0.125	0.356
-350.493	398.635	0.063	0.130
-349.479	-41.461	-0.088	-0.045
-348.464	-200.000	-0.037	0.221
-347.450	-170.467	0.144	-0.005
-346.435	-22.166	-0.297	0.179
-345.420	-128.997	-0.149	0.021
-344.406	800.000	0.177	0.550
-343.391	-200.000	0.031	0.178
-342.377	-109.410	0.341	-0.072
-341.362	-20.986	-0.064	-0.039
-340.348	-34.648	-0.083	-0.045
-339.333	-200.000	0.004	0.029
-338.318	783.091	-0.096	0.260
-337.304	-7.711	-0.016	-0.011
-336.289	-31.189	-0.186	0.104
-335.275	800.000	0.057	-0.182
-334.260	800.000	0.034	0.136
-333.245	105.193	-0.074	-0.086
-332.231	-154.917	-0.184	0.012
-331.216	-126.685	0.272	-0.040
-330.202	-97.588	0.174	0.045
-329.187	-11.073	0.261	0.170
-328.172	800.000	-0.103	0.396
-327.158	454.700	-0.035	-0.078
-326.143	75.866	0.058	0.061
-325.129	-30.959	-0.150	0.084
-324.114	-142.369	0.237	-0.023
-323.099	-126.899	0.472	-0.069
-322.085	-200.000	0.048	-0.402
-321.070	232.699	0.144	-0.234
-320.056	142.581	-0.027	-0.035
-319.041	121.875	0.039	0.048
-318.026	54.191	0.023	0.022
-317.012	-118.056	0.468	0.083
-315.997	800.000	0.028	0.092
-314.983	-8.258	-0.150	-0.100
-313.968	-141.372	-0.264	-0.027
-312.953	34.137	-0.152	-0.131
-311.939	800.000	-0.088	-0.260
-310.924	-55.542	-0.381	0.169
-309.910	-112.297	-0.124	-0.025
-308.895	206.480	0.180	-0.277
-307.880	-200.000	-0.029	0.260
-306.866	9.427	0.411	-0.308
-305.851	46.831	0.121	-0.112
-304.837	143.184	0.171	-0.226
-303.822	45.300	-0.276	-0.252
-302.807	-69.894	0.104	0.039
-301.793	13.618	0.166	0.128
-300.778	-70.236	-0.300	0.113
-299.764	91.682	-0.191	-0.212
-298.749	684.067	0.090	0.234
-297.735	61.112	0.400	0.393
-296.720	-70.078	-0.158	0.060
-295.705	439.984	0.031	-0.068
-294.691	103.584	0.249	0.289
-293.676	-176.133	-0.216	-0.006
-292.662	92.676	-0.103	0.115
-291.647	-200.000	-0.048	-0.240
-290.632	-0.428	0.237	-0.166
-289.618	19.600	0.083	-0.066
-288.603	-17.613	-0.076	0.047
-287.589	525.452	0.084	0.196
-286.574	-200.000	-0.034	-0.206
-285.559	33.595	0.272	0.234
-284.545	-20.359	0.182	-0.111
-283.530	800.000	0.035	0.146
-282.516	-137.228	0.311	-0.035
-281.501	106.007	0.335	-0.393
-280.486	-32.899	-0.299	-0.164
-279.472	-200.000	0.009	-0.205
-278.457	-60.014	0.285	0.120
-277.443	90.970	-0.241	0.267
-276.428	-200.000	0.069	-0.367
-275.413	800.000	0.045	0.149
-274.399	-64.607	0.184	-0.074
-273.384	-15.693	0.149	-0.094
-272.370	215.738	0.108	-0.170
-271.355	-200.000	0.007	-0.087
-270.340	-137.735	-0.216	-0.024
-269.326	681.153	0.138	-0.355
-268.311	-88.374	-0.180	-0.053
-267.297	-45.613	-0.232	-0.114
-266.282	-72.074	0.267	0.098
-265.267	456.454	0.110	0.242
-264.253	-187.044	-0.210	0.003
-263.238	-76.266	0.256	-0.089
-262.224	800.000	-0.023	0.067
-261.209	-200.000	0.016	0.570
-260.195	-53.170	-0.152	0.069
-259.180	249.012	-0.194	0.325
-258.165	-200.000	-0.040	0.212
-257.151	761.434	-0.071	0.190
-256.136	-137.987	0.237	-0.026
-255.122	101.098	-0.099	0.114
-254.107	271.878	0.119	-0.207
-253.092	302.737	0.085	0.155
-252.078	-96.395	-0.474	-0.124
-251.063	-144.881	0.184	0.017
-250.049	143.668	-0.038	-0.050
-249.034	-200.000	0.015	-0.141
-248.019	84.639	-0.140	-0.151
-247.005	-92.205	-0.192	0.054
-245.990	-200.000	0.046	0.301
-244.976	257.565	0.067	0.114
-243.961	-124.224	-0.418	0.065
-242.946	78.329	0.194	-0.205
-241.932	800.000	-0.084	0.336
-240.917	-112.213	0.120	-0.024
-239.903	800.000	-0.090	0.290
-238.888	405.408	-0.104	0.216
-237.873	194.809	-0.034	-0.052
-236.859	23.964	-0.259	0.211
-235.844	105.584	0.142	-0.165
-234.830	-8.632	0.434	-0.288
-233.815	187.971	-0.176	-0.260
-232.800	5.186	0.036	-0.026
-231.786	246.604	0.121	0.202
-230.771	-118.913	-0.117	-0.020
-229.757	-129.720	-0.445	-0.060
-228.742	800.000	0.016	0.054
-227.727	-200.000	0.076	0.380
-226.713	226.930	-0.058	0.093
-225.698	800.000	0.112	-0.323
-224.684	431.027	0.063	-0.135
-223.669	-80.266	0.104	-0.034
-222.655	-152.760	0.419	0.029
-221.640	-120.706	0.129	0.022
-220.625	234.400	0.103	-0.168
-219.611	503.711	0.065	-0.148
-218.596	73.271	0.340	0.350
-217.582	-200.000	-0.017	0.129
-216.567	168.275	0.073	-0.103
-215.552	-154.773	0.258	-0.017
-214.538	-41.156	-0.108	0.055
-213.523	-33.663	0.168	0.092
-212.509	153.559	-0.084	0.114
-211.494	177.986	-0.151	0.217
-210.479	355.366	-0.057	-0.111
-209.465	16.950	-0.244	-0.190
-208.450	-102.993	-0.048	-0.011
-207.436	486.515	0.079	0.179
-206.421	160.476	-0.111	0.153
-205.406	264.435	0.038	0.064
-204.392	-200.000	0.010	0.387
-203.377	181.664	-0.200	0.291
-202.363	-200.000	-0.039	0.275
-201.348	43.812	-0.219	-0.198
-200.333	800.000	0.008	-0.032
-199.319	-48.615	0.178	0.084
-198.304	-102.884	-0.276	0.065
-197.290	282.096	-0.154	-0.272
-196.275	232.869	-0.157	-0.254
-195.260	-168.731	-0.101	0.004
-194.246	-64.246	-0.033	-0.013
-193.231	-200.000	0.053	0.479
-192.217	-83.877	-0.192	-0.060
-191.202	162.812	0.204	-0.283
-190.187	-94.206	0.234	-0.063
-189.173	-200.000	0.045	-0.217
-188.158	-40.810	-0.430	-0.219
-187.144	-21.711	0.184	0.111
-186.129	-200.000	-0.073	-0.343
-185.114	800.000	0.038	-0.157
-184.100	-137.977	-0.215	0.024
-183.085	150.972	-0.051	-0.069
-182.071	-34.271	0.096	-0.052
-181.056	578.250	0.055	-0.132
-180.042	-166.656	-0.341	0.014
-179.027	-25.840	0.160	0.093
-178.012	-38.807	0.178	-0.093
-176.998	-200.000	-0.045	0.409
-175.983	594.368	0.045	0.110
-174.969	-200.000	0.036	0.534
-173.954	800.000	-0.034	-0.135
-172.939	-153.442	0.107	0.007
-171.925	-153.637	0.179	0.012
-170.910	187.606	-0.075	0.111
-169.896	-151.948	-0.355	0.026
-168.881	800.000	0.100	0.282
-167.866	-106.767	-0.062	0.014
-166.852	-150.716	-0.291	0.022
-165.837	-168.903	0.181	-0.007
-164.823	49.149	-0.166	0.154
-163.808	82.686	0.078	0.083
-162.793	-199.256	-0.190	-0.001
-161.779	-110.218	0.238	-0.049
-160.764	346.926	0.094	0.183
-159.750	800.000	-0.070	-0.237
-158.735	97.186	0.233	-0.263
-157.720	8.801	0.329	-0.244
-156.706	-126.509	0.248	-0.036
-155.691	84.899	-0.159	-0.172
-154.677	20.488	0.117	0.093
-153.662	105.100	0.172	0.200
-152.647	436.352	0.065	-0.140
-151.633	93.580	0.022	0.024
-150.618	-165.422	-0.361	-0.016
-149.604	88.283	0.134	0.147
-148.589	-200.000	-0.008	0.449
-147.574	192.567	0.134	0.199
-146.560	-106.364	-0.246	0.054
-145.545	-148.579	-0.380	0.031
-144.531	-56.943	0.173	-0.075
-143.516	115.169	0.256	0.308
-142.502	148.268	-0.139	0.185
-141.487	-117.044	0.196	0.035
-140.472	800.000	-0.058	-0.215
-139.458	800.000	0.047	0.198
-138.443	-79.994	0.107	-0.035
-137.429	-18.267	-0.190	0.117
-136.414	125.471	0.267	-0.331
-135.399	800.000	-0.101	-0.365
-134.385	800.000	-0.029	0.104
-133.370	-46.051	-0.105	0.051
-132.356	-163.405	-0.166	0.008
-131.341	-39.612	-0.425	0.219
-130.326	-3.016	0.165	0.113
-129.312	-160.966	-0.255	0.013
-128.297	-200.000	0.000	0.171
-127.283	-72.109	0.143	-0.052
-126.268	39.577	-0.245	0.216
-125.253	288.055	0.084	-0.150
-124.239	-200.000	0.030	0.183
-123.224	564.035	-0.041	-0.097
-122.210	-43.407	-0.404	0.201
-121.195	-14.181	0.555	0.352
