DTS Sentinel unit serial number:	SN413079Multiplexer serial number:	ORYXHardware model number:	OX4-SRSoftware version number:	ORYX F/W v4.00 Oryx Data Collector v3.7.2.0data status	okinstallation	princeton_trtdifferential loss correction	single-endedforward channel	channel 2reverse channel	N/Adate	2019/09/13time	02:47:35forward acquisition time	60.00reverse acquisition time	0.00gamma	496.2192k internal	0.2334k external	0.2334temperature offset calibration	1.0188default loss term (dB/km)	0.3790temperature slope calibration	1.0000multiplexer offset coefficient	1.0000multiplexer slope coefficient	1.0000fibre end	0.00T internal ref (°C)	27.44T ext. ref 1 (°C)	4.03T ext. ref 2 (°C)	22.29length (m)	temperature (°C)	Stokes	anti-Stokes-747.200	-161.328	0.256	0.013
-746.185	135.163	-0.224	0.293
-745.171	284.734	0.111	-0.201
-744.156	-200.000	0.026	0.344
-743.142	-43.681	0.134	0.068
-742.127	-200.000	-0.030	0.224
-741.112	800.000	-0.079	-0.231
-740.098	-112.144	-0.107	-0.022
-739.083	89.627	0.114	-0.128
-738.069	622.013	-0.064	0.163
-737.054	-200.000	-0.010	0.087
-736.039	89.623	0.102	-0.114
-735.025	70.210	0.284	0.295
-734.010	67.685	-0.147	0.151
-732.996	-145.290	0.171	0.016
-731.981	-32.882	0.160	0.090
-730.966	-200.000	0.026	0.124
-729.952	-189.107	-0.200	-0.002
-728.937	-103.157	0.043	0.010
-727.923	-134.863	-0.277	0.034
-726.908	295.899	0.060	0.111
-725.894	800.000	-0.104	-0.447
-724.879	27.736	-0.189	0.160
-723.864	800.000	0.022	-0.067
-722.850	800.000	0.046	0.169
-721.835	-31.828	-0.220	-0.124
-720.821	238.633	-0.087	0.146
-719.806	212.884	-0.056	0.088
-718.791	505.092	0.043	-0.101
-717.777	135.935	0.186	0.243
-716.762	-126.094	-0.172	0.026
-715.748	-200.000	-0.006	-0.162
-714.733	-200.000	0.046	0.394
-713.718	349.745	-0.127	0.252
-712.704	-200.000	0.021	-0.121
-711.689	400.384	0.114	-0.239
-710.675	46.747	0.269	-0.251
-709.660	456.072	0.103	-0.230
-708.645	-111.894	0.294	0.060
-707.631	245.244	-0.057	-0.096
-706.616	157.608	0.037	-0.051
-705.602	800.000	0.018	-0.060
-704.587	-45.596	0.083	-0.041
-703.572	-102.465	0.120	0.029
-702.558	219.966	-0.192	0.309
-701.543	-12.738	0.074	0.048
-700.529	-200.000	0.070	-0.360
-699.514	150.155	-0.150	0.204
-698.499	180.211	-0.093	-0.137
-697.485	-200.000	-0.030	0.373
-696.470	21.263	-0.186	-0.151
-695.456	-144.100	0.251	-0.024
-694.441	800.000	0.071	0.225
-693.426	103.579	-0.074	-0.087
-692.412	800.000	0.059	-0.168
-691.397	800.000	-0.045	-0.137
-690.383	-200.000	-0.036	-0.252
-689.368	-200.000	-0.059	-0.297
-688.354	641.367	0.003	0.008
-687.339	-52.658	0.060	-0.028
-686.324	29.634	-0.064	-0.054
-685.310	-44.680	-0.222	0.111
-684.295	-200.000	0.041	-0.234
-683.281	-200.000	0.024	0.495
-682.266	-66.186	-0.202	-0.081
-681.251	-200.000	0.032	-0.269
-680.237	170.020	0.196	0.281
-679.222	-1.809	-0.107	-0.076
-678.208	-14.169	-0.075	0.048
-677.193	17.490	-0.123	0.098
-676.178	424.489	-0.152	-0.327
-675.164	1.423	0.232	-0.168
-674.149	312.775	0.076	0.143
-673.135	93.131	-0.194	-0.219
-672.120	800.000	0.050	0.177
-671.105	-96.520	-0.176	0.046
-670.091	-20.559	0.073	0.045
-669.076	-64.534	-0.278	0.113
-668.062	-40.757	0.042	0.022
-667.047	97.655	0.226	0.260
-666.032	433.796	-0.127	-0.277
-665.018	-190.439	0.070	-0.001
-664.003	157.007	0.137	-0.189
-662.989	153.705	-0.173	0.238
-661.974	86.150	-0.219	0.241
-660.959	213.139	-0.100	0.158
-659.945	-22.859	0.139	-0.084
-658.930	-72.095	-0.160	0.060
-657.916	-200.000	-0.022	-0.201
-656.901	59.639	0.154	0.152
-655.886	-200.000	-0.028	-0.324
-654.872	-21.415	-0.111	0.068
-653.857	-192.522	-0.094	0.001
-652.843	-200.000	-0.048	-0.212
-651.828	-39.078	0.082	-0.043
-650.814	7.525	-0.022	0.016
-649.799	-60.719	-0.298	0.126
-648.784	-65.046	-0.389	-0.157
-647.770	-200.000	-0.124	-0.550
-646.755	-11.541	0.254	-0.167
-645.741	-105.224	-0.320	-0.073
-644.726	-98.739	0.270	-0.069
-643.711	800.000	-0.031	-0.101
-642.697	-200.000	0.042	-0.230
-641.682	56.061	-0.314	0.305
-640.668	-200.000	0.001	-0.037
-639.653	-54.006	-0.282	0.128
-638.638	-39.823	0.094	-0.049
-637.624	7.234	-0.307	-0.229
-636.609	-110.675	-0.205	-0.042
-635.595	800.000	-0.160	0.558
-634.580	-14.947	-0.083	-0.053
-633.565	169.760	-0.047	0.068
-632.551	-99.682	-0.661	-0.166
-631.536	-129.984	0.357	-0.049
-630.522	24.536	0.232	0.192
-629.507	169.789	-0.187	0.268
-628.492	-130.699	0.398	-0.054
-627.478	-200.000	-0.020	-0.317
-626.463	-59.164	-0.262	0.113
-625.449	-200.000	0.015	-0.183
-624.434	771.947	0.092	0.252
-623.419	21.421	0.230	0.187
-622.405	576.533	0.087	0.213
-621.390	-89.667	0.251	-0.074
-620.376	-63.596	-0.374	-0.154
-619.361	-107.760	0.180	-0.039
-618.346	-46.848	-0.118	-0.058
-617.332	-11.244	-0.254	-0.167
-616.317	620.452	0.123	0.309
-615.303	0.277	0.232	0.165
-614.288	800.000	-0.091	-0.335
-613.273	-16.622	-0.238	0.151
-612.259	470.065	-0.083	-0.187
-611.244	-23.030	-0.456	0.275
-610.230	-104.004	-0.224	-0.052
-609.215	-16.368	-0.488	-0.310
-608.201	167.701	-0.205	0.291
-607.186	-116.101	0.167	-0.031
-606.171	16.220	-0.181	-0.143
-605.157	-90.375	0.240	0.070
-604.142	46.951	-0.092	-0.085
-603.128	434.661	-0.093	-0.202
-602.113	718.000	0.057	-0.150
-601.098	-191.004	0.241	0.003
-600.084	32.373	-0.065	0.056
-599.069	800.000	-0.052	-0.227
-598.055	9.047	0.269	-0.203
-597.040	-159.201	-0.237	0.013
-596.025	800.000	0.108	0.320
-595.011	-8.212	-0.142	0.096
-593.996	-200.000	0.064	0.437
-592.982	23.809	-0.196	-0.161
-591.967	-102.696	0.414	0.099
-590.952	112.374	0.081	-0.098
-589.938	147.390	0.086	0.115
-588.923	-68.543	0.075	0.029
-587.909	385.710	0.020	0.041
-586.894	-15.133	0.041	-0.026
-585.879	-200.000	-0.027	-0.510
-584.865	-200.000	0.044	0.319
-583.850	-12.085	-0.176	-0.115
-582.836	-120.265	-0.226	0.039
-581.821	-134.627	0.318	0.039
-580.806	-78.268	0.205	0.070
-579.792	236.420	-0.066	-0.109
-578.777	187.948	0.285	-0.425
-577.763	-9.632	-0.043	-0.029
-576.748	-31.679	0.253	0.142
-575.733	-200.000	0.051	-0.562
-574.719	44.229	0.214	-0.196
-573.704	541.653	-0.115	-0.274
-572.690	134.342	0.206	-0.267
-571.675	800.000	-0.036	-0.149
-570.661	237.261	0.094	-0.155
-569.646	34.965	-0.136	-0.119
-568.631	800.000	-0.054	0.229
-567.617	93.152	0.169	-0.190
-566.602	-144.358	-0.123	-0.011
-565.588	-200.000	-0.053	0.293
-564.573	-18.227	-0.269	0.168
-563.558	-46.461	0.315	-0.154
-562.544	-200.000	-0.010	-0.180
-561.529	675.020	0.049	-0.127
-560.515	-200.000	-0.057	-0.269
-559.500	-200.000	-0.007	-0.177
-558.485	-200.000	-0.073	0.373
-557.471	635.260	-0.069	0.174
-556.456	178.797	-0.143	0.208
-555.442	-41.713	0.368	0.188
-554.427	-136.665	0.200	0.023
-553.412	513.650	0.025	0.058
-552.398	154.073	0.081	0.111
-551.383	-156.595	-0.225	0.014
-550.369	-200.000	-0.020	-0.128
-549.354	7.980	-0.146	0.109
-548.339	-65.111	-0.208	-0.084
-547.325	-200.000	-0.235	0.001
-546.310	-3.073	0.052	0.036
-545.296	-129.857	-0.371	0.051
-544.281	173.644	0.153	-0.220
-543.266	164.568	0.112	-0.158
-542.252	-149.205	-0.184	0.015
-541.237	800.000	0.041	-0.115
-540.223	-200.000	0.026	0.333
-539.208	97.713	0.081	-0.093
-538.193	800.000	-0.097	0.279
-537.179	-24.845	-0.377	-0.223
-536.164	800.000	-0.133	-0.401
-535.150	116.743	-0.164	-0.200
-534.135	-116.782	0.198	0.036
-533.121	-16.679	0.061	0.038
-532.106	36.780	-0.174	-0.154
-531.091	-89.071	0.446	-0.132
-530.077	-87.543	-0.032	-0.010
-529.062	214.762	-0.074	0.116
-528.048	-200.000	0.028	0.307
-527.033	-98.340	0.191	0.049
-526.018	358.317	-0.059	-0.118
-525.004	-27.065	0.389	0.226
-523.989	-113.259	-0.235	0.046
-522.975	77.910	0.360	-0.383
-521.960	-75.008	0.008	0.003
-520.945	60.655	-0.227	-0.224
-519.931	105.520	0.089	-0.105
-518.916	-82.610	-0.288	-0.093
-517.902	17.977	-0.163	0.129
-516.887	800.000	0.027	-0.114
-515.872	118.565	0.133	0.164
-514.858	800.000	-0.039	0.160
-513.843	-60.204	-0.169	-0.072
-512.829	-117.815	0.298	0.053
-511.814	800.000	0.057	0.219
-510.799	-109.126	-0.039	0.008
-509.785	-4.711	0.232	0.159
-508.770	-50.200	0.275	0.129
-507.756	-56.050	0.233	0.103
-506.741	-200.000	0.009	-0.041
-505.726	18.724	-0.095	0.076
-504.712	-86.789	0.256	0.078
-503.697	340.300	-0.084	0.163
-502.683	-200.000	-0.076	-0.411
-501.668	0.501	0.135	-0.096
-500.653	-116.959	0.095	0.017
-499.639	-57.030	0.075	-0.033
-498.624	134.890	0.025	0.032
-497.610	546.734	-0.148	-0.353
-496.595	89.805	-0.157	-0.174
-495.581	-135.607	-0.291	-0.034
-494.566	45.963	-0.133	-0.122
-493.551	222.160	0.099	-0.159
-492.537	-124.182	0.152	0.024
-491.522	800.000	-0.067	-0.193
-490.508	-111.683	0.422	0.085
-489.493	430.007	0.079	-0.170
-488.478	53.532	0.197	0.188
-487.464	153.286	-0.158	0.215
-486.449	-125.516	0.272	-0.041
-485.435	289.929	-0.150	0.271
-484.420	-200.000	0.055	0.266
-483.405	-8.472	0.116	-0.077
-482.391	-188.310	-0.214	-0.003
-481.376	-84.996	-0.271	0.084
-480.362	264.420	0.068	0.118
-479.347	82.399	-0.125	-0.135
-478.332	131.458	0.072	0.092
-477.318	123.606	0.050	0.062
-476.303	-178.146	0.423	0.010
-475.289	154.373	0.124	-0.169
-474.274	-200.000	0.009	0.249
-473.259	16.816	0.448	0.352
-472.245	82.296	-0.029	0.031
-471.230	-179.267	-0.134	0.003
-470.216	-2.873	0.049	0.034
-469.201	145.709	0.123	-0.164
-468.186	-145.046	-0.010	0.001
-467.172	-37.314	0.286	-0.152
-466.157	-165.085	-0.132	-0.006
-465.143	-134.611	-0.665	0.081
-464.128	-164.339	0.264	-0.012
-463.113	-200.000	-0.025	0.144
-462.099	-183.011	-0.462	-0.008
-461.084	-100.673	0.174	-0.043
-460.070	-5.267	0.213	-0.145
-459.055	-72.009	-0.131	0.048
-458.040	134.830	0.200	-0.259
-457.026	800.000	0.038	0.122
-456.011	57.339	-0.167	-0.162
-454.997	86.365	0.044	0.048
-453.982	800.000	0.058	0.244
-452.968	-2.884	0.219	0.152
-451.953	-44.439	-0.081	0.040
-450.938	-200.000	-0.035	0.256
-449.924	610.071	0.109	-0.270
-448.909	188.173	-0.073	-0.108
-447.895	-74.894	-0.127	-0.045
-446.880	-75.014	0.185	-0.066
-445.865	-54.544	-0.212	-0.095
-444.851	-67.502	-0.291	-0.114
-443.836	800.000	0.117	-0.327
-442.822	104.423	0.074	0.086
-441.807	-160.616	-0.242	-0.013
-440.792	-37.097	0.122	-0.065
-439.778	-200.000	0.019	-0.116
-438.763	304.018	-0.095	0.175
-437.749	-87.900	-0.231	-0.069
-436.734	246.067	0.146	0.244
-435.719	309.735	0.066	0.123
-434.705	800.000	0.019	-0.073
-433.690	-120.029	-0.299	0.051
-432.676	-18.587	0.012	0.007
-431.661	-69.385	-0.274	-0.104
-430.646	686.380	0.067	0.173
-429.632	213.283	0.030	-0.047
-428.617	75.314	0.161	-0.169
-427.603	-162.764	0.166	-0.008
-426.588	-200.000	0.067	0.322
-425.573	617.910	0.082	0.203
-424.559	589.229	-0.089	0.218
-423.544	800.000	-0.077	0.233
-422.530	-63.538	-0.259	0.106
-421.515	-181.569	-0.093	-0.002
-420.500	150.809	0.081	-0.110
-419.486	168.967	-0.115	0.163
-418.471	-130.860	0.096	0.013
-417.457	-28.427	-0.216	0.123
-416.442	-71.294	-0.173	-0.064
-415.428	-8.059	-0.122	0.081
-414.413	257.421	-0.048	-0.081
-413.398	63.143	-0.192	0.191
-412.384	34.797	-0.232	-0.202
-411.369	-200.000	0.015	-0.269
-410.355	-75.727	-0.200	0.071
-409.340	65.407	0.185	0.186
-408.325	-2.839	-0.101	-0.070
-407.311	800.000	-0.069	-0.287
-406.296	253.127	-0.052	0.088
-405.282	-50.935	-0.386	-0.180
-404.267	-156.300	0.176	0.011
-403.252	-200.000	-0.015	0.221
-402.238	446.879	-0.094	0.205
-401.223	597.600	0.048	-0.117
-400.209	-200.000	-0.069	0.363
-399.194	107.570	-0.057	-0.068
-398.179	64.518	-0.270	0.270
-397.165	-52.144	0.166	0.077
-396.150	-49.633	-0.113	-0.053
-395.136	-20.143	-0.073	0.045
-394.121	48.861	-0.209	-0.194
-393.106	153.827	-0.128	0.174
-392.092	800.000	-0.076	0.299
-391.077	-157.494	0.030	0.002
-390.063	-200.000	0.019	-0.257
-389.048	369.008	-0.021	-0.042
-388.033	276.823	0.090	0.158
-387.019	-75.222	0.380	-0.134
-386.004	-199.873	0.302	-0.002
-384.990	325.640	0.130	-0.247
-383.975	130.054	-0.126	-0.160
-382.960	-88.680	-0.140	-0.041
-381.946	-200.000	0.010	0.220
-380.931	340.708	-0.065	0.125
-379.917	86.615	-0.038	0.042
-378.902	188.272	-0.175	-0.259
-377.888	73.238	0.135	0.140
-376.873	185.129	0.122	0.179
-375.858	800.000	0.101	-0.353
-374.844	800.000	0.058	0.187
-373.829	800.000	0.045	0.134
-372.815	202.385	-0.053	0.082
-371.800	-200.000	-0.022	-0.188
-370.785	800.000	-0.059	-0.205
-369.771	-15.712	-0.181	0.114
-368.756	-23.526	0.145	-0.086
-367.742	800.000	0.115	-0.498
-366.727	-200.000	-0.036	0.306
-365.712	-43.688	0.435	0.217
-364.698	125.586	0.067	0.084
-363.683	159.254	-0.072	-0.100
-362.669	-200.000	0.017	0.165
-361.654	500.139	-0.072	0.163
-360.639	-158.884	-0.077	-0.004
-359.625	-5.659	-0.031	0.021
-358.610	70.388	-0.148	0.152
-357.596	241.787	0.058	0.096
-356.581	40.258	-0.150	0.134
-355.566	403.855	-0.071	-0.147
-354.552	-70.445	-0.124	-0.047
-353.537	-163.194	-0.072	-0.003
-352.523	800.000	-0.068	0.257
-351.508	12.381	0.264	0.201
-350.493	1.614	0.198	0.141
-349.479	-200.000	0.031	-0.218
-348.464	285.066	0.064	-0.115
-347.450	-47.074	-0.118	0.057
-346.435	372.409	0.106	0.213
-345.420	-200.000	-0.032	-0.165
-344.406	-200.000	-0.045	-0.217
-343.391	-200.000	-0.003	0.159
-342.377	-103.455	-0.054	-0.013
-341.362	55.489	0.227	-0.218
-340.348	-200.000	0.014	-0.294
-339.333	-92.983	0.181	0.050
-338.318	-187.840	0.220	-0.003
-337.304	636.430	0.102	0.257
-336.289	-21.827	-0.062	-0.038
-335.275	-112.255	0.133	-0.026
-334.260	451.620	-0.089	0.195
-333.245	-21.809	-0.143	-0.086
-332.231	-162.328	0.175	0.009
-331.216	-200.000	0.032	-0.520
-330.202	-145.845	0.115	-0.010
-329.187	-120.783	0.339	-0.057
-328.172	800.000	-0.020	-0.064
-327.158	206.835	-0.182	-0.280
-326.143	-41.562	0.178	-0.090
-325.129	800.000	0.061	-0.244
-324.114	-200.000	-0.024	-0.280
-323.099	-34.672	-0.125	0.068
-322.085	-200.000	0.010	0.333
-321.070	282.900	0.097	0.173
-320.056	177.864	-0.080	-0.115
-319.041	-11.688	-0.183	-0.119
-318.026	-134.882	-0.118	0.014
-317.012	-127.814	0.209	0.030
-315.997	396.659	0.037	0.077
-314.983	-200.000	-0.000	0.005
-313.968	-113.413	0.106	0.020
-312.953	259.340	-0.165	0.281
-311.939	134.186	0.110	0.141
-310.924	-49.241	0.250	0.118
-309.910	10.613	0.231	-0.174
-308.895	7.323	0.193	-0.142
-307.880	800.000	0.128	0.457
-306.866	590.352	0.050	-0.121
-305.851	418.727	-0.110	-0.233
-304.837	-200.000	0.035	-0.170
-303.822	-200.000	0.101	0.589
-302.807	165.730	-0.164	0.229
-301.793	-12.583	0.188	0.121
-300.778	-200.000	0.013	0.088
-299.764	-200.000	0.041	-0.226
-298.749	-200.000	-0.007	0.046
-297.735	800.000	-0.068	0.292
-296.720	377.866	-0.154	-0.312
-295.705	-81.565	0.390	-0.127
-294.691	232.048	0.079	-0.128
-293.676	800.000	0.125	-0.378
-292.662	119.446	0.347	0.424
-291.647	248.674	-0.191	0.319
-290.632	-69.865	-0.316	0.119
-289.618	14.177	-0.150	-0.115
-288.603	-160.091	0.249	0.013
-287.589	27.869	-0.181	-0.150
-286.574	272.990	0.156	-0.271
-285.559	42.063	-0.168	0.151
-284.545	-65.831	0.241	-0.095
-283.530	51.831	-0.146	-0.137
-282.516	9.960	-0.193	0.144
-281.501	-36.436	0.301	-0.160
-280.486	-50.863	-0.106	0.049
-279.472	63.570	0.134	0.132
-278.457	-44.922	0.601	-0.295
-277.443	-200.000	0.007	0.150
-276.428	-70.395	0.320	0.120
-275.413	66.600	-0.311	-0.312
-274.399	73.903	0.291	-0.301
-273.384	800.000	-0.040	-0.118
-272.370	-76.383	-0.190	-0.066
-271.355	352.532	-0.172	-0.337
-270.340	800.000	0.043	-0.180
-269.326	27.746	-0.153	0.128
-268.311	-98.632	-0.273	-0.069
-267.297	-47.564	-0.298	0.143
-266.282	-200.000	0.063	0.331
-265.267	128.154	-0.096	-0.121
-264.253	184.057	-0.174	-0.254
-263.238	120.707	-0.040	0.049
-262.224	-200.000	0.061	0.330
-261.209	-156.681	-0.132	-0.008
-260.195	277.794	-0.139	0.243
-259.180	98.312	-0.262	0.298
-258.165	800.000	0.049	-0.135
-257.151	-200.000	-0.010	-0.079
-256.136	27.725	-0.336	-0.279
-255.122	-107.863	0.285	-0.061
-254.107	-200.000	0.005	-0.028
-253.092	75.833	0.291	0.303
-252.078	-66.091	0.063	0.025
-251.063	-200.000	-0.018	0.085
-250.049	-6.616	0.668	-0.449
-249.034	-118.111	-0.076	0.013
-248.019	-200.000	-0.067	0.377
-247.005	-200.000	0.005	0.249
-245.990	800.000	-0.073	-0.284
-244.976	21.469	0.127	0.102
-243.961	244.078	0.170	0.281
-242.946	524.612	0.051	0.118
-241.932	473.331	0.086	0.191
-240.917	80.227	0.031	0.033
-239.903	-200.000	0.018	-0.120
-238.888	800.000	0.016	-0.053
-237.873	-108.777	0.382	-0.081
-236.859	-200.000	-0.097	0.456
-235.844	-84.218	-0.128	0.040
-234.830	739.426	0.109	0.287
-233.815	-141.556	0.173	-0.017
-232.800	-200.000	0.041	0.358
-231.786	59.619	-0.204	-0.198
-230.771	-92.743	0.016	-0.004
-229.757	-69.884	-0.254	-0.095
-228.742	-200.000	0.020	0.272
-227.727	-200.000	-0.029	0.343
-226.713	161.932	-0.098	0.135
-225.698	340.925	0.103	0.197
-224.684	-97.595	-0.227	0.058
-223.669	-200.000	0.031	-0.302
-222.655	76.986	0.149	-0.155
-221.640	-0.517	0.142	0.099
-220.625	-43.803	-0.262	0.130
-219.611	431.172	-0.179	0.381
-218.596	-200.000	-0.000	-0.143
-217.582	-200.000	0.013	0.121
-216.567	-200.000	-0.238	0.000
-215.552	-5.735	0.398	-0.268
-214.538	800.000	0.009	-0.027
-213.523	59.906	0.171	0.166
-212.509	800.000	0.048	0.138
-211.494	31.204	-0.072	0.061
-210.479	248.201	0.113	-0.188
-209.465	52.478	-0.192	0.180
-208.450	-69.912	0.271	0.102
-207.436	-92.908	0.141	0.039
-206.421	-200.000	0.013	-0.059
-205.406	-104.911	-0.272	-0.061
-204.392	83.885	0.464	0.498
-203.377	-61.998	-0.108	-0.044
-202.363	-200.000	-0.008	-0.199
-201.348	-200.000	0.006	0.053
-200.333	800.000	0.105	-0.327
-199.319	174.400	0.167	-0.238
-198.304	-55.252	0.221	0.098
-197.290	-122.304	-0.125	-0.020
-196.275	151.911	0.115	0.154
-195.260	217.446	0.077	-0.121
-194.246	-200.000	0.028	0.211
-193.231	800.000	0.058	-0.205
-192.217	-139.605	-0.249	0.026
-191.202	-200.000	-0.003	0.185
-190.187	226.786	0.110	-0.175
-189.173	-200.000	-0.044	-0.396
-188.158	-98.468	-0.115	-0.029
-187.144	-152.208	-0.260	0.019
-186.129	-133.630	-0.475	-0.058
-185.114	-25.458	0.322	-0.187
-184.100	308.722	-0.190	-0.348
-183.085	411.638	0.046	0.096
-182.071	-144.259	-0.050	-0.005
-181.056	-56.948	-0.298	0.129
-180.042	-12.415	-0.158	0.101
-179.027	-147.886	0.283	-0.023
-178.012	124.681	0.158	-0.196
-176.998	-77.218	0.287	-0.098
-175.983	149.396	-0.168	-0.224
-174.969	329.067	-0.227	0.429
-173.954	7.192	0.338	0.248
-172.939	-29.029	-0.174	-0.098
-171.925	722.233	0.020	-0.053
-170.910	137.759	0.116	-0.149
-169.896	800.000	0.098	-0.284
-168.881	170.895	-0.171	-0.241
-167.866	-90.724	-0.453	-0.128
-166.852	-63.145	-0.041	-0.017
-165.837	-200.000	-0.001	0.047
-164.823	165.011	-0.203	-0.282
-163.808	182.947	0.194	-0.281
-162.793	-120.013	-0.182	-0.031
-161.779	800.000	-0.136	0.456
-160.764	-22.146	0.155	0.092
-159.750	61.865	0.232	0.227
-158.735	-200.000	0.045	0.293
-157.720	-46.175	0.184	-0.089
-156.706	-141.385	0.105	-0.010
-155.691	172.809	-0.106	0.150
-154.677	-62.243	0.130	0.053
-153.662	-200.000	-0.257	-0.001
-152.647	-200.000	-0.014	-0.069
-151.633	800.000	0.037	-0.113
-150.618	-45.019	0.228	-0.112
-149.604	-200.000	0.093	-0.421
-148.589	800.000	0.036	0.126
-147.574	441.843	-0.100	0.215
-146.560	-179.096	-0.094	0.002
-145.545	165.319	0.104	0.144
-144.531	-200.000	0.013	0.407
-143.516	-150.261	-0.303	0.023
-142.502	17.449	0.246	0.192
-141.487	-187.610	0.150	-0.002
-140.472	800.000	-0.085	-0.323
-139.458	-35.691	-0.229	0.122
-138.443	18.141	0.092	0.072
-137.429	-118.969	0.340	-0.059
-136.414	-86.641	0.265	0.080
-135.399	-114.092	-0.266	0.051
-134.385	-200.000	0.019	-0.474
-133.370	-90.440	-0.233	0.066
-132.356	-139.197	0.109	0.012
-131.341	800.000	0.097	-0.264
-130.326	111.091	-0.046	0.054
-129.312	15.222	0.109	-0.084
-128.297	-157.490	-0.234	0.014
-127.283	30.164	0.184	0.154
-126.268	-200.000	-0.024	0.170
-125.253	-63.700	-0.151	0.061
-124.239	31.824	0.215	0.182
-123.224	270.127	-0.160	0.276
-122.210	10.864	0.330	-0.247
-121.195	-10.030	0.141	0.092
