DTS Sentinel unit serial number:	SN413079Multiplexer serial number:	ORYXHardware model number:	OX4-SRSoftware version number:	ORYX F/W v4.00 Oryx Data Collector v3.7.2.0data status	okinstallation	princeton_trtdifferential loss correction	single-endedforward channel	channel 2reverse channel	N/Adate	2019/09/17time	04:07:35forward acquisition time	60.00reverse acquisition time	0.00gamma	496.2192k internal	0.2327k external	0.2327temperature offset calibration	0.9973default loss term (dB/km)	0.3790temperature slope calibration	1.0000multiplexer offset coefficient	1.0000multiplexer slope coefficient	1.0000fibre end	0.00T internal ref (°C)	29.87T ext. ref 1 (°C)	0.13T ext. ref 2 (°C)	24.32length (m)	temperature (°C)	Stokes	anti-Stokes-747.200	-8.510	-0.134	0.091
-746.185	482.181	-0.068	0.156
-745.171	224.760	-0.186	0.303
-744.156	83.987	0.224	0.247
-743.142	-24.703	-0.199	-0.119
-742.127	-200.000	0.085	0.430
-741.112	-20.436	-0.233	0.145
-740.098	-154.107	0.167	0.011
-739.083	800.000	-0.067	-0.277
-738.069	-29.036	-0.170	0.098
-737.054	125.953	0.078	0.100
-736.039	220.272	-0.159	-0.256
-735.025	-25.398	0.342	-0.204
-734.010	-200.000	-0.032	0.214
-732.996	800.000	0.078	-0.313
-731.981	45.521	0.259	0.241
-730.966	233.648	-0.115	-0.191
-729.952	-200.000	-0.032	-0.362
-728.937	85.621	-0.077	-0.085
-727.923	-153.427	-0.110	-0.008
-726.908	-200.000	0.006	0.141
-725.894	-96.813	-0.090	0.024
-724.879	73.757	-0.238	-0.251
-723.864	-200.000	-0.061	0.281
-722.850	-58.391	0.134	-0.059
-721.835	29.553	-0.082	-0.070
-720.821	-142.128	0.037	0.004
-719.806	-90.779	-0.215	-0.062
-718.791	-168.241	-0.140	-0.005
-717.777	128.630	-0.202	0.259
-716.762	-200.000	-0.038	0.218
-715.748	-117.164	-0.188	-0.034
-714.733	-200.000	-0.011	-0.134
-713.718	-49.217	-0.180	0.086
-712.704	800.000	-0.017	0.055
-711.689	120.773	0.116	-0.145
-710.675	800.000	-0.063	-0.180
-709.660	-59.594	-0.047	-0.020
-708.645	-200.000	0.036	0.191
-707.631	119.009	0.078	-0.097
-706.616	-200.000	-0.003	-0.257
-705.602	-16.323	-0.281	-0.180
-704.587	-200.000	0.020	-0.166
-703.572	65.498	-0.087	0.089
-702.558	-154.651	-0.430	0.029
-701.543	158.339	-0.123	-0.171
-700.529	-200.000	-0.010	-0.607
-699.514	12.654	0.061	0.047
-698.499	95.728	0.068	-0.078
-697.485	78.745	-0.083	-0.089
-696.470	287.356	-0.093	-0.170
-695.456	474.979	-0.016	0.037
-694.441	-30.764	0.142	0.081
-693.426	167.209	-0.093	-0.133
-692.412	-14.611	0.057	-0.037
-691.397	102.441	-0.141	0.166
-690.383	108.769	0.265	0.319
-689.368	-86.342	-0.200	-0.062
-688.354	23.479	0.227	0.188
-687.339	117.524	-0.107	-0.133
-686.324	-172.853	0.108	-0.003
-685.310	-200.000	0.028	0.217
-684.295	-200.000	-0.022	-0.251
-683.281	800.000	-0.057	0.169
-682.266	-89.875	-0.451	-0.133
-681.251	-22.631	-0.214	-0.130
-680.237	97.343	0.061	-0.070
-679.222	242.680	-0.149	0.250
-678.208	-24.016	-0.321	0.193
-677.193	227.103	-0.165	-0.270
-676.178	583.177	-0.030	-0.075
-675.164	-127.273	0.157	-0.023
-674.149	-24.988	-0.076	-0.045
-673.135	16.896	0.134	-0.106
-672.120	-200.000	0.056	-0.299
-671.105	-200.000	-0.031	-0.383
-670.091	-47.978	-0.106	0.052
-669.076	-70.099	0.185	0.071
-668.062	-60.687	-0.121	0.052
-667.047	566.073	0.090	-0.220
-666.032	800.000	-0.100	-0.331
-665.018	432.467	0.033	0.071
-664.003	-2.567	-0.246	-0.173
-662.989	29.940	-0.213	-0.183
-661.974	507.304	0.008	-0.018
-660.959	-63.694	0.136	-0.056
-659.945	736.713	-0.101	-0.273
-658.930	-115.372	-0.121	0.023
-657.916	-200.000	-0.060	0.290
-656.901	50.333	-0.222	0.211
-655.886	-74.338	0.181	-0.066
-654.872	800.000	-0.039	0.140
-653.857	-95.621	-0.064	-0.017
-652.843	-200.000	0.002	-0.218
-651.828	215.982	0.117	0.186
-650.814	15.637	-0.235	-0.186
-649.799	89.643	0.198	-0.222
-648.784	3.946	-0.294	-0.216
-647.770	276.717	-0.092	-0.163
-646.755	800.000	0.097	-0.297
-645.741	-64.625	-0.258	-0.105
-644.726	-200.000	-0.000	0.130
-643.711	-6.557	-0.047	-0.032
-642.697	800.000	0.055	-0.155
-641.682	421.863	0.063	0.137
-640.668	-28.827	0.195	0.112
-639.653	-200.000	0.016	-0.188
-638.638	-87.448	-0.345	0.105
-637.624	-140.227	0.045	0.005
-636.609	-17.333	-0.076	0.048
-635.595	-163.185	0.457	-0.022
-634.580	47.662	-0.197	-0.184
-633.565	-35.836	0.150	-0.082
-632.551	41.099	-0.116	-0.106
-631.536	227.275	0.147	-0.240
-630.522	-58.198	0.353	-0.154
-629.507	32.082	-0.037	-0.032
-628.492	362.749	-0.085	-0.172
-627.478	-90.560	0.272	-0.079
-626.463	193.428	-0.112	0.170
-625.449	-200.000	0.060	-0.265
-624.434	-19.891	-0.139	-0.086
-623.419	-3.893	-0.114	0.080
-622.405	374.447	-0.123	-0.251
-621.390	800.000	0.040	-0.143
-620.376	679.478	-0.106	0.277
-619.361	284.446	0.218	0.394
-618.346	-13.484	0.153	-0.100
-617.332	-157.224	0.114	-0.007
-616.317	-148.881	-0.514	-0.042
-615.303	56.524	-0.176	0.172
-614.288	162.964	-0.170	0.240
-613.273	-6.302	-0.325	-0.223
-612.259	800.000	0.076	0.245
-611.244	87.147	-0.236	0.262
-610.230	-91.328	-0.289	0.083
-609.215	-121.318	-0.289	0.048
-608.201	-200.000	-0.063	0.319
-607.186	-62.475	0.128	-0.053
-606.171	730.819	0.108	-0.289
-605.157	-22.228	-0.080	-0.049
-604.142	154.196	-0.067	0.092
-603.128	62.216	0.342	0.342
-602.113	453.860	0.095	-0.212
-601.098	-109.366	-0.338	0.072
-600.084	-92.128	0.256	-0.072
-599.069	-137.884	0.481	0.054
-598.055	-200.000	0.183	-0.001
-597.040	-82.759	0.176	0.057
-596.025	-88.832	0.145	-0.043
-595.011	80.155	0.093	-0.101
-593.996	800.000	0.072	-0.231
-592.982	-55.560	0.070	0.031
-591.967	800.000	-0.090	0.290
-590.952	800.000	0.079	0.239
-589.938	-61.856	-0.033	0.014
-588.923	-59.286	0.395	-0.171
-587.909	148.648	0.075	-0.102
-586.894	-42.930	-0.192	-0.097
-585.879	85.127	0.169	0.185
-584.865	-99.366	0.269	0.068
-583.850	-74.342	0.278	-0.101
-582.836	-42.983	-0.262	-0.133
-581.821	72.037	-0.055	-0.057
-580.806	-200.000	-0.012	-0.105
-579.792	251.308	0.238	-0.405
-578.777	-200.000	-0.077	-0.525
-577.763	189.613	0.119	0.179
-576.748	63.108	0.192	-0.192
-575.733	-200.000	0.000	0.019
-574.719	563.719	0.067	0.162
-573.704	227.690	0.126	0.205
-572.690	256.919	-0.121	-0.208
-571.675	243.565	0.060	0.101
-570.661	-74.703	-0.404	0.146
-569.646	-200.000	-0.065	0.324
-568.631	-200.000	-0.013	0.176
-567.617	469.048	-0.082	-0.184
-566.602	-83.967	-0.093	-0.030
-565.588	-100.871	0.167	-0.041
-564.573	800.000	0.081	-0.243
-563.558	-200.000	-0.037	-0.332
-562.544	479.856	-0.138	-0.314
-561.529	-200.000	0.014	0.125
-560.515	-85.215	-0.336	0.105
-559.500	-90.267	-0.290	-0.084
-558.485	62.580	0.112	-0.112
-557.471	800.000	0.096	-0.292
-556.456	-140.267	-0.254	0.027
-555.442	-118.917	0.284	0.050
-554.427	49.846	0.192	0.181
-553.412	-46.864	-0.350	0.171
-552.398	-106.133	-0.391	-0.088
-551.383	237.903	-0.039	-0.066
-550.369	541.635	0.167	0.398
-549.354	-143.033	-0.279	0.027
-548.339	-45.322	0.065	0.032
-547.325	-62.379	-0.227	-0.094
-546.310	-120.421	-0.426	0.072
-545.296	800.000	0.050	0.179
-544.281	-200.000	-0.042	-0.272
-543.266	73.624	0.135	0.141
-542.252	155.680	0.084	0.116
-541.237	339.429	0.057	0.111
-540.223	31.427	0.186	0.160
-539.208	21.574	0.071	0.057
-538.193	208.096	0.283	0.443
-537.179	-42.196	-0.117	-0.060
-536.164	-22.199	0.131	-0.080
-535.150	-106.277	0.038	-0.008
-534.135	-200.000	-0.026	0.228
-533.121	-144.310	-0.342	-0.032
-532.106	-200.000	0.001	-0.079
-531.091	18.107	0.012	-0.010
-530.077	36.109	0.187	-0.165
-529.062	800.000	-0.051	-0.161
-528.048	291.713	0.102	0.185
-527.033	295.311	0.173	0.317
-526.018	-200.000	-0.014	0.218
-525.004	800.000	-0.087	0.278
-523.989	-34.751	-0.420	-0.230
-522.975	-58.201	0.131	-0.057
-521.960	55.680	0.048	0.047
-520.945	-200.000	-0.036	0.204
-519.931	-180.206	0.196	-0.004
-518.916	-200.000	0.052	-0.359
-517.902	-200.000	-0.030	-0.146
-516.887	-200.000	0.026	-0.303
-515.872	261.511	0.143	-0.248
-514.858	-19.286	-0.256	0.158
-513.843	-86.321	0.204	0.063
-512.829	40.299	-0.082	0.074
-511.814	-39.589	0.171	-0.089
-510.799	189.148	0.024	0.036
-509.785	745.510	-0.056	0.150
-508.770	-200.000	-0.064	0.432
-507.756	566.059	-0.067	-0.163
-506.741	-151.775	0.163	-0.012
-505.726	-101.151	-0.135	-0.033
-504.712	-200.000	0.009	0.199
-503.697	607.575	0.134	0.334
-502.683	-117.498	0.075	-0.014
-501.668	-200.000	0.010	-0.200
-500.653	204.562	-0.089	-0.138
-499.639	390.906	-0.162	-0.337
-498.624	-113.681	0.131	0.026
-497.610	50.939	0.095	0.090
-496.595	-200.000	0.054	0.299
-495.581	212.798	0.068	-0.108
-494.566	-110.516	0.189	0.039
-493.551	-93.772	-0.093	-0.025
-492.537	-80.336	-0.092	-0.031
-491.522	137.161	0.213	-0.278
-490.508	-200.000	-0.004	0.035
-489.493	-200.000	-0.010	-0.194
-488.478	107.083	-0.128	-0.152
-487.464	-200.000	0.009	0.135
-486.449	-7.298	-0.181	0.123
-485.435	-60.348	0.425	0.181
-484.420	49.309	-0.131	-0.123
-483.405	800.000	-0.046	0.179
-482.391	582.824	0.061	-0.150
-481.376	30.338	0.155	0.132
-480.362	-31.327	-0.159	-0.090
-479.347	-91.139	-0.352	0.101
-478.332	64.111	0.092	0.093
-477.318	-75.687	-0.431	0.152
-476.303	302.968	0.067	0.125
-475.289	174.157	0.069	0.099
-474.274	76.980	0.061	0.064
-473.259	-88.892	0.232	-0.069
-472.245	-32.789	0.184	0.102
-471.230	-165.426	-0.179	-0.008
-470.216	498.918	0.008	-0.017
-469.201	20.815	-0.151	0.122
-468.186	-19.167	0.134	0.083
-467.172	194.790	-0.127	0.193
-466.157	187.336	0.124	0.184
-465.143	255.062	-0.137	0.233
-464.128	800.000	-0.104	0.431
-463.113	94.167	-0.115	0.130
-462.099	-200.000	-0.033	-0.305
-461.084	-200.000	0.039	0.326
-460.070	122.406	-0.171	0.213
-459.055	64.030	-0.224	0.225
-458.040	-28.566	0.167	-0.096
-457.026	447.011	-0.096	0.210
-456.011	93.664	-0.181	-0.205
-454.997	290.813	-0.210	0.380
-453.982	-200.000	-0.006	-0.074
-452.968	-91.105	0.294	-0.084
-451.953	800.000	-0.087	0.246
-450.938	-20.027	-0.240	-0.147
-449.924	-146.267	0.161	-0.014
-448.909	-200.000	-0.006	-0.130
-447.895	-200.000	-0.013	0.087
-446.880	-61.245	0.426	0.179
-445.865	132.993	-0.220	-0.283
-444.851	-58.582	0.184	-0.079
-443.836	-64.564	0.061	0.025
-442.822	290.556	-0.087	-0.158
-441.807	-130.434	0.263	-0.035
-440.792	-103.234	-0.074	-0.017
-439.778	-14.067	0.185	0.119
-438.763	417.318	-0.085	-0.181
-437.749	-120.618	-0.182	0.031
-436.734	-1.417	-0.038	0.027
-435.719	-200.000	0.001	0.008
-434.705	-163.859	-0.225	-0.010
-433.690	-153.359	0.349	0.024
-432.676	-85.180	0.390	0.121
-431.661	800.000	0.076	-0.235
-430.646	800.000	-0.046	-0.196
-429.632	163.987	0.069	0.097
-428.617	-47.733	-0.115	0.056
-427.603	172.014	0.139	0.199
-426.588	-37.777	-0.050	0.027
-425.573	800.000	-0.022	0.093
-424.559	-110.800	0.295	-0.060
-423.544	175.234	0.190	0.274
-422.530	-150.838	-0.124	0.009
-421.515	159.620	0.139	0.193
-420.500	-137.399	-0.171	0.019
-419.486	349.949	-0.165	0.325
-418.471	-200.000	-0.004	0.241
-417.457	-8.198	-0.258	-0.173
-416.442	-200.000	0.053	0.234
-415.428	98.598	-0.185	0.212
-414.413	224.254	0.182	0.292
-413.398	109.390	0.125	0.149
-412.384	139.240	0.238	0.311
-411.369	271.647	0.092	-0.161
-410.355	-200.000	-0.036	0.183
-409.340	-16.201	-0.155	0.098
-408.325	67.094	0.246	-0.249
-407.311	-200.000	0.029	-0.162
-406.296	60.405	-0.054	-0.053
-405.282	69.391	-0.173	-0.177
-404.267	-116.995	-0.048	-0.009
-403.252	390.677	0.101	0.208
-402.238	-53.002	0.260	-0.119
-401.223	190.965	0.136	0.203
-400.209	-100.847	0.295	0.072
-399.194	-135.880	-0.245	0.029
-398.179	-159.445	-0.134	0.007
-397.165	15.106	-0.219	-0.171
-396.150	458.316	-0.085	0.189
-395.136	-200.000	0.016	0.247
-394.121	495.380	-0.084	0.193
-393.106	-200.000	-0.016	0.276
-392.092	-200.000	-0.002	-0.083
-391.077	-99.817	-0.175	-0.043
-390.063	-36.304	0.065	-0.035
-389.048	-126.130	0.162	0.024
-388.033	-41.961	-0.130	0.066
-387.019	-200.000	0.001	-0.054
-386.004	800.000	-0.172	-0.508
-384.990	38.521	-0.265	-0.235
-383.975	161.261	0.211	-0.294
-382.960	-122.764	0.214	0.034
-381.946	-200.000	0.053	0.302
-380.931	-200.000	-0.036	0.164
-379.917	800.000	-0.078	-0.223
-378.902	-114.138	-0.547	-0.105
-377.888	-33.826	-0.273	-0.150
-376.873	-41.898	-0.132	-0.067
-375.858	457.090	-0.160	-0.353
-374.844	291.149	0.035	0.063
-373.829	186.633	-0.071	-0.105
-372.815	-200.000	-0.018	0.322
-371.800	800.000	0.037	0.138
-370.785	-54.695	0.354	-0.159
-369.771	-115.678	-0.223	0.042
-368.756	524.580	-0.022	0.050
-367.742	-200.000	0.002	-0.285
-366.727	-200.000	0.036	-0.163
-365.712	-87.772	0.276	0.083
-364.698	6.912	0.349	-0.258
-363.683	524.817	-0.082	0.192
-362.669	-128.667	-0.183	0.026
-361.654	736.771	0.058	0.155
-360.639	-59.359	-0.186	-0.079
-359.625	-17.125	0.090	-0.056
-358.610	143.497	-0.081	0.107
-357.596	-80.517	-0.192	-0.063
-356.581	-200.000	0.004	0.178
-355.566	79.287	-0.120	0.128
-354.552	800.000	0.042	0.142
-353.537	-163.926	-0.358	-0.017
-352.523	51.578	0.128	0.121
-351.508	-9.836	0.170	0.112
-350.493	-200.000	0.051	-0.269
-349.479	-128.951	-0.155	-0.022
-348.464	-14.623	-0.213	-0.136
-347.450	33.210	-0.101	0.087
-346.435	800.000	-0.012	-0.043
-345.420	800.000	0.042	0.139
-344.406	-40.563	-0.115	0.059
-343.391	201.116	-0.086	0.131
-342.377	608.494	-0.030	0.074
-341.362	10.331	0.065	0.049
-340.348	-200.000	0.001	-0.010
-339.333	639.426	-0.061	-0.154
-338.318	-15.697	0.260	0.165
-337.304	-200.000	-0.010	0.201
-336.289	-83.292	-0.079	-0.025
-335.275	-22.169	0.180	0.108
-334.260	-130.093	-0.158	-0.021
-333.245	181.039	-0.276	-0.402
-332.231	34.497	-0.178	0.155
-331.216	-17.905	-0.170	0.106
-330.202	251.798	0.219	-0.369
-329.187	-200.000	-0.004	0.267
-328.172	800.000	0.141	-0.410
-327.158	-200.000	0.017	-0.343
-326.143	-133.652	0.028	0.003
-325.129	-84.050	0.101	-0.032
-324.114	-58.021	0.267	0.116
-323.099	-198.552	0.298	0.002
-322.085	800.000	-0.063	0.241
-321.070	102.457	-0.096	0.111
-320.056	800.000	-0.074	-0.226
-319.041	262.171	-0.017	-0.030
-318.026	-18.564	0.441	-0.273
-317.012	-78.937	0.175	-0.059
-315.997	-200.000	-0.054	-0.272
-314.983	800.000	-0.069	0.245
-313.968	-68.603	0.180	0.069
-312.953	-98.476	-0.164	-0.042
-311.939	800.000	0.042	-0.116
-310.924	800.000	-0.063	-0.262
-309.910	-103.487	0.218	-0.051
-308.895	-200.000	0.039	-0.176
-307.880	800.000	-0.078	-0.297
-306.866	-128.901	-0.275	-0.038
-305.851	211.096	-0.337	0.526
-304.837	277.935	-0.172	0.304
-303.822	-200.000	-0.014	-0.067
-302.807	559.604	-0.081	0.193
-301.793	800.000	-0.003	0.012
-300.778	658.445	-0.060	-0.152
-299.764	-200.000	0.024	0.194
-298.749	800.000	-0.051	-0.209
-297.735	-90.275	-0.049	0.014
-296.720	138.252	0.107	0.139
-295.705	-115.185	-0.097	0.018
-294.691	800.000	-0.029	-0.092
-293.676	78.725	0.300	-0.318
-292.662	711.655	-0.049	-0.129
-291.647	-27.660	-0.194	-0.111
-290.632	110.755	-0.077	-0.092
-289.618	800.000	-0.070	-0.226
-288.603	800.000	-0.126	0.462
-287.589	129.969	-0.017	0.022
-286.574	-77.645	-0.070	0.024
-285.559	14.314	0.136	0.105
-284.545	168.720	-0.117	-0.166
-283.530	-49.731	0.223	-0.105
-282.516	-130.665	-0.124	-0.017
-281.501	-108.955	0.296	0.062
-280.486	372.483	0.186	0.374
-279.472	26.876	0.192	-0.159
-278.457	-86.196	0.187	0.057
-277.443	-200.000	-0.003	0.040
-276.428	46.941	-0.167	0.154
-275.413	-151.423	0.514	0.038
-274.399	38.051	0.065	0.057
-273.384	-189.678	0.093	0.001
-272.370	-55.343	0.196	-0.087
-271.355	310.867	-0.114	0.211
-270.340	331.870	0.140	-0.267
-269.326	-28.928	0.210	-0.120
-268.311	800.000	0.028	0.084
-267.297	-200.000	0.014	-0.107
-266.282	701.681	0.028	-0.072
-265.267	-168.981	-0.460	-0.017
-264.253	-82.820	-0.261	-0.083
-263.238	-200.000	0.026	0.123
-262.224	73.261	0.150	-0.155
-261.209	-200.000	-0.039	-0.261
-260.195	680.684	-0.165	0.424
-259.180	42.246	0.055	0.050
-258.165	800.000	0.039	-0.129
-257.151	-153.927	-0.194	0.013
-256.136	132.787	0.076	0.097
-255.122	-156.910	0.122	-0.007
-254.107	420.432	-0.049	0.105
-253.092	-76.153	0.299	0.104
-252.078	196.295	0.156	-0.234
-251.063	-0.806	0.375	-0.263
-250.049	14.688	-0.042	0.033
-249.034	110.058	-0.069	0.082
-248.019	453.362	-0.056	0.122
-247.005	-154.693	0.101	-0.007
-245.990	-200.000	0.003	-0.068
-244.976	800.000	0.022	-0.081
-243.961	-132.082	0.070	-0.009
-242.946	-200.000	-0.021	-0.107
-241.932	-77.618	0.218	-0.075
-240.917	-69.970	0.100	0.038
-239.903	-43.351	-0.229	0.114
-238.888	-75.136	-0.525	0.185
-237.873	1.798	-0.384	0.274
-236.859	-153.874	-0.477	0.032
-235.844	-74.005	0.178	0.064
-234.830	-63.407	-0.138	-0.056
-233.815	-94.864	-0.326	0.087
-232.800	-125.948	-0.143	-0.021
-231.786	-8.529	-0.127	-0.084
-230.771	82.540	0.200	-0.214
-229.757	-200.000	-0.018	0.287
-228.742	-163.268	-0.178	-0.008
-227.727	-200.000	0.000	0.048
-226.713	-85.373	0.169	-0.052
-225.698	-82.217	0.289	-0.093
-224.684	191.511	-0.154	-0.229
-223.669	23.859	-0.135	-0.110
-222.655	-1.339	0.208	-0.145
-221.640	800.000	-0.041	0.126
-220.625	392.431	-0.030	0.062
-219.611	-92.409	-0.081	0.022
-218.596	344.528	-0.049	-0.094
-217.582	244.894	-0.229	0.380
-216.567	8.284	0.135	-0.100
-215.552	50.509	0.056	-0.052
-214.538	-200.000	0.035	0.158
-213.523	-125.331	0.244	-0.037
-212.509	238.883	-0.059	-0.097
-211.494	-149.727	0.012	0.001
-210.479	-58.459	0.344	0.148
-209.465	-106.732	0.181	0.040
-208.450	347.845	-0.090	0.175
-207.436	20.299	-0.109	0.087
-206.421	99.280	-0.159	-0.182
-205.406	-60.999	0.097	-0.040
-204.392	-172.746	0.095	-0.003
-203.377	108.041	0.147	0.173
-202.363	52.679	0.142	0.134
-201.348	99.336	0.048	-0.055
-200.333	473.591	-0.031	-0.068
-199.319	-98.182	0.230	0.058
-198.304	-31.097	-0.093	0.052
-197.290	-66.396	0.230	-0.090
-196.275	484.642	-0.072	0.161
-195.260	254.393	-0.214	-0.360
-194.246	-200.000	0.010	-0.226
-193.231	287.551	0.160	-0.285
-192.217	-106.390	-0.179	-0.040
-191.202	-6.397	-0.283	-0.190
-190.187	-19.768	-0.210	0.128
-189.173	-14.371	-0.121	0.077
-188.158	354.167	-0.044	0.087
-187.144	800.000	-0.060	-0.238
-186.129	-120.494	0.158	0.026
-185.114	-200.000	0.029	0.264
-184.100	24.596	0.354	0.289
-183.085	494.885	-0.068	-0.155
-182.071	-164.703	0.250	0.011
-181.056	224.680	-0.083	-0.132
-180.042	-151.905	-0.259	0.019
-179.027	-159.846	0.147	-0.008
-178.012	66.443	0.072	-0.072
-176.998	-95.972	0.232	-0.061
-175.983	-200.000	-0.015	0.341
-174.969	-121.743	0.154	0.025
-173.954	800.000	-0.046	0.196
-172.939	-114.128	0.479	0.091
-171.925	267.257	-0.098	0.170
-170.910	-62.803	0.099	-0.041
-169.896	-200.000	-0.072	-0.331
-168.881	-200.000	0.070	-0.427
-167.866	-200.000	-0.080	-0.354
-166.852	786.516	-0.089	-0.241
-165.837	6.264	-0.262	-0.191
-164.823	76.594	0.258	-0.269
-163.808	-200.000	0.076	-0.352
-162.793	81.199	-0.365	-0.389
-161.779	48.732	0.163	0.151
-160.764	-200.000	0.030	-0.271
-159.750	-166.315	0.128	-0.005
-158.735	-200.000	-0.003	-0.058
-157.720	-112.332	-0.108	-0.021
-156.706	-105.622	0.105	-0.023
-155.691	193.143	0.077	0.114
-154.677	-47.166	-0.157	0.075
-153.662	139.520	-0.197	-0.256
-152.647	581.752	0.034	0.082
-151.633	221.609	-0.082	-0.129
-150.618	-200.000	0.011	-0.102
-149.604	-16.804	-0.029	0.018
-148.589	-105.509	-0.271	0.061
-147.574	800.000	0.010	0.028
-146.560	281.343	0.086	-0.151
-145.545	-45.853	0.361	-0.175
-144.531	577.002	-0.093	0.224
-143.516	800.000	0.057	0.159
-142.502	-166.872	-0.065	-0.003
-141.487	-200.000	-0.014	-0.095
-140.472	-64.780	0.221	0.088
-139.458	800.000	0.028	0.120
-138.443	240.430	0.177	0.290
-137.429	-200.000	0.006	-0.133
-136.414	-141.317	-0.034	-0.003
-135.399	-58.838	0.102	0.044
-134.385	125.357	-0.153	-0.189
-133.370	-200.000	-0.013	-0.503
-132.356	-15.865	0.325	-0.203
-131.341	26.899	-0.145	0.120
-130.326	800.000	0.102	-0.375
-129.312	-138.992	0.171	0.018
-128.297	138.745	0.146	0.189
-127.283	-134.538	-0.378	0.045
-126.268	91.488	-0.113	-0.125
-125.253	67.036	-0.235	0.236
-124.239	122.681	-0.183	-0.226
-123.224	-55.805	0.030	-0.013
-122.210	18.649	-0.084	-0.066
