DTS Sentinel unit serial number:	SN413079Multiplexer serial number:	ORYXHardware model number:	OX4-SRSoftware version number:	ORYX F/W v4.00 Oryx Data Collector v3.7.2.0data status	okinstallation	princeton_trtdifferential loss correction	single-endedforward channel	channel 2reverse channel	N/Adate	2019/09/13time	12:15:34forward acquisition time	60.00reverse acquisition time	0.00gamma	496.2192k internal	0.2315k external	0.2315temperature offset calibration	1.0221default loss term (dB/km)	0.3790temperature slope calibration	1.0000multiplexer offset coefficient	1.0000multiplexer slope coefficient	1.0000fibre end	0.00T internal ref (°C)	34.00T ext. ref 1 (°C)	4.62T ext. ref 2 (°C)	31.23length (m)	temperature (°C)	Stokes	anti-Stokes-747.200	800.000	0.062	-0.192
-746.185	800.000	-0.057	-0.231
-745.171	-72.433	-0.091	-0.034
-744.156	-176.949	-0.201	0.005
-743.142	13.508	-0.125	0.098
-742.127	-200.000	0.014	0.163
-741.112	800.000	0.152	0.474
-740.098	15.840	0.165	0.131
-739.083	384.169	-0.155	-0.323
-738.069	370.420	0.060	0.123
-737.054	-30.187	0.138	-0.079
-736.039	134.336	-0.158	-0.207
-735.025	-99.423	-0.199	-0.051
-734.010	203.001	0.075	-0.117
-732.996	-200.000	-0.066	-0.328
-731.981	256.639	0.181	-0.314
-730.966	-33.658	0.133	0.074
-729.952	800.000	-0.142	-0.419
-728.937	-142.457	0.298	-0.030
-727.923	-59.257	-0.318	-0.139
-726.908	-200.000	-0.208	-0.001
-725.894	129.477	-0.207	0.268
-724.879	-200.000	-0.039	0.197
-723.864	431.003	0.013	0.030
-722.850	-176.249	0.112	-0.003
-721.835	2.981	-0.193	0.142
-720.821	-200.000	-0.238	0.001
-719.806	-78.022	-0.343	-0.120
-718.791	-177.111	-0.205	-0.005
-717.777	-2.606	-0.085	0.060
-716.762	255.735	-0.254	0.441
-715.748	25.081	-0.271	0.228
-714.733	-200.000	0.008	-0.183
-713.718	-115.243	-0.136	0.026
-712.704	111.960	0.122	0.149
-711.689	-200.000	-0.003	-0.196
-710.675	800.000	-0.095	0.346
-709.660	-112.773	-0.035	-0.007
-708.645	722.841	0.065	-0.174
-707.631	-55.782	0.166	0.075
-706.616	7.197	-0.096	0.073
-705.602	800.000	0.099	0.304
-704.587	178.176	-0.208	-0.307
-703.572	-90.661	-0.052	0.015
-702.558	-82.525	0.038	-0.012
-701.543	51.559	0.079	-0.076
-700.529	312.764	-0.093	-0.177
-699.514	342.762	0.073	-0.144
-698.499	800.000	0.020	0.059
-697.485	678.209	-0.151	-0.397
-696.470	165.344	-0.149	-0.213
-695.456	60.297	0.096	-0.096
-694.441	-200.000	-0.034	0.397
-693.426	-14.796	0.108	0.070
-692.412	-12.018	0.214	-0.142
-691.397	-117.273	0.055	0.010
-690.383	-155.895	-0.244	-0.016
-689.368	252.605	0.161	-0.278
-688.354	-20.424	0.067	-0.042
-687.339	-200.000	-0.003	-0.208
-686.324	800.000	-0.089	-0.255
-685.310	3.419	0.372	-0.274
-684.295	177.089	0.135	0.199
-683.281	49.179	-0.335	-0.318
-682.266	-103.018	-0.306	0.073
-681.251	268.676	0.025	0.044
-680.237	-76.132	-0.225	0.080
-679.222	-57.105	0.061	-0.027
-678.208	-150.938	-0.194	0.015
-677.193	-64.877	-0.272	0.111
-676.178	12.002	0.189	0.147
-675.164	620.912	-0.083	0.212
-674.149	1.853	-0.321	-0.234
-673.135	-200.000	0.030	-0.179
-672.120	-200.000	-0.002	-0.195
-671.105	-166.035	-0.171	0.007
-670.091	4.367	-0.158	-0.117
-669.076	-48.996	-0.437	-0.211
-668.062	94.617	-0.315	-0.362
-667.047	-200.000	0.040	0.260
-666.032	-103.877	0.134	0.032
-665.018	176.332	0.114	0.167
-664.003	262.929	-0.111	-0.194
-662.989	-70.639	-0.311	-0.119
-661.974	-163.140	0.079	0.004
-660.959	-86.162	-0.124	-0.039
-659.945	93.935	-0.139	-0.159
-658.930	-154.630	0.142	-0.010
-657.916	238.812	-0.098	0.164
-656.901	27.791	-0.145	0.124
-655.886	800.000	-0.022	0.088
-654.872	244.613	-0.069	-0.118
-653.857	-93.401	-0.055	0.015
-652.843	209.083	0.237	-0.374
-651.828	-200.000	-0.009	-0.119
-650.814	356.176	0.060	-0.121
-649.799	-200.000	0.048	-0.224
-648.784	119.275	-0.112	0.139
-647.770	-0.546	0.074	0.053
-646.755	225.591	0.043	0.071
-645.741	75.997	0.123	0.132
-644.726	124.761	-0.040	0.051
-643.711	189.415	-0.152	0.230
-642.697	195.539	0.200	0.307
-641.682	698.346	-0.097	0.259
-640.668	-147.926	-0.348	0.029
-639.653	800.000	-0.074	-0.309
-638.638	-159.258	0.216	0.012
-637.624	19.006	0.031	0.025
-636.609	800.000	-0.122	-0.358
-635.595	800.000	0.097	-0.383
-634.580	-200.000	-0.031	0.213
-633.565	60.331	-0.209	-0.209
-632.551	-62.276	0.243	0.102
-631.536	-113.475	0.105	0.021
-630.522	-9.754	-0.117	-0.079
-629.507	-200.000	-0.011	-0.113
-628.492	23.410	-0.140	-0.116
-627.478	-200.000	-0.006	-0.183
-626.463	339.142	0.096	0.189
-625.449	268.043	-0.095	-0.168
-624.434	-200.000	0.002	-0.175
-623.419	45.128	0.107	0.099
-622.405	145.406	0.173	0.234
-621.390	-106.491	0.171	0.039
-620.376	48.169	-0.028	-0.026
-619.361	354.531	0.158	-0.317
-618.346	-200.000	-0.014	-0.146
-617.332	-200.000	-0.005	0.087
-616.317	17.083	-0.157	-0.126
-615.303	-54.116	-0.200	0.092
-614.288	-172.860	0.059	-0.002
-613.273	-132.128	0.178	-0.023
-612.259	-200.000	-0.019	-0.177
-611.244	-142.625	0.045	0.004
-610.230	-200.000	-0.000	-0.085
-609.215	-66.008	-0.111	-0.044
-608.201	-200.000	0.019	0.209
-607.186	108.740	0.138	-0.166
-606.171	-189.379	-0.183	0.002
-605.157	-200.000	0.004	-0.033
-604.142	148.627	-0.022	-0.029
-603.128	800.000	-0.124	-0.396
-602.113	33.886	-0.089	-0.078
-601.098	15.929	0.133	0.105
-600.084	124.938	-0.158	-0.201
-599.069	-108.385	0.109	0.024
-598.055	-141.927	0.248	-0.025
-597.040	534.745	-0.155	-0.370
-596.025	800.000	0.042	-0.156
-595.011	-14.933	-0.068	0.044
-593.996	-26.830	-0.214	0.126
-592.982	790.119	0.053	-0.147
-591.967	-77.032	-0.277	0.097
-590.952	-123.571	0.097	0.016
-589.938	800.000	0.061	-0.238
-588.923	-200.000	0.001	-0.067
-587.909	394.844	-0.142	-0.299
-586.894	-97.621	0.199	-0.052
-585.879	34.167	-0.149	-0.131
-584.865	-200.000	0.013	-0.204
-583.850	-84.001	-0.076	0.024
-582.836	800.000	-0.063	0.219
-581.821	-200.000	0.002	-0.142
-580.806	174.841	-0.068	-0.099
-579.792	-200.000	-0.068	0.306
-578.777	34.655	-0.183	0.161
-577.763	-99.446	-0.147	-0.037
-576.748	-92.770	0.201	-0.057
-575.733	-54.744	0.084	-0.038
-574.719	-200.000	-0.012	-0.081
-573.704	175.100	0.022	-0.031
-572.690	282.600	-0.045	0.081
-571.675	159.441	0.216	0.303
-570.661	33.185	-0.098	-0.086
-569.646	-200.000	-0.030	-0.271
-568.631	-39.877	-0.389	0.205
-567.617	-34.393	0.109	0.060
-566.602	41.727	-0.273	-0.249
-565.588	-47.882	0.161	0.079
-564.573	-68.847	-0.320	-0.124
-563.558	-200.000	0.002	0.057
-562.544	-200.000	0.042	-0.191
-561.529	3.008	-0.107	0.078
-560.515	445.587	-0.052	-0.114
-559.500	120.010	-0.108	0.134
-558.485	-82.047	-0.271	-0.089
-557.471	-129.692	0.117	-0.016
-556.456	-35.101	0.344	-0.188
-555.442	-126.431	0.049	-0.007
-554.427	-200.000	-0.038	-0.290
-553.412	-108.037	-0.171	-0.037
-552.398	-131.984	0.497	-0.065
-551.383	205.354	0.093	-0.145
-550.369	-59.597	-0.121	0.052
-549.354	-150.661	0.123	-0.009
-548.339	-108.899	0.244	0.052
-547.325	-66.319	0.042	-0.017
-546.310	-19.565	0.224	-0.139
-545.296	-59.618	0.217	-0.094
-544.281	-32.023	0.180	0.101
-543.266	-200.000	-0.029	-0.170
-542.252	-14.580	0.138	-0.089
-541.237	-200.000	-0.023	-0.211
-540.223	-200.000	0.084	0.421
-539.208	800.000	-0.048	-0.144
-538.193	-97.558	0.399	-0.104
-537.179	85.606	0.087	0.096
-536.164	-2.503	0.118	-0.083
-535.150	96.238	0.105	-0.120
-534.135	-1.352	0.097	-0.069
-533.121	-70.384	-0.244	0.093
-532.106	64.010	0.143	0.145
-531.091	-90.180	-0.181	0.053
-530.077	-39.056	0.301	0.159
-529.062	-200.000	-0.007	0.430
-528.048	-25.187	0.213	0.127
-527.033	720.463	0.187	0.499
-526.018	-36.004	0.265	0.144
-525.004	-200.000	-0.021	-0.146
-523.989	83.809	-0.089	0.098
-522.975	800.000	-0.104	-0.325
-521.960	-24.616	0.038	0.023
-520.945	-6.461	-0.121	-0.083
-519.931	-92.273	-0.231	0.065
-518.916	378.461	0.079	0.163
-517.902	-96.446	-0.152	-0.040
-516.887	-200.000	-0.000	-0.048
-515.872	-192.757	0.195	0.002
-514.858	237.355	-0.187	0.312
-513.843	-48.157	-0.272	-0.132
-512.829	-200.000	0.032	0.144
-511.814	365.043	0.165	-0.335
-510.799	-32.418	-0.262	0.147
-509.785	800.000	0.041	-0.156
-508.770	17.282	0.367	-0.292
-507.756	-152.311	-0.268	0.019
-506.741	800.000	-0.043	-0.171
-505.726	80.462	0.207	0.224
-504.712	-90.592	0.236	0.068
-503.697	-164.666	0.033	0.001
-502.683	-46.541	-0.225	-0.111
-501.668	-200.000	-0.009	-0.234
-500.653	-200.000	0.003	0.149
-499.639	800.000	0.083	-0.305
-498.624	-200.000	0.031	0.221
-497.610	-155.458	0.071	0.005
-496.595	19.220	0.139	-0.112
-495.581	800.000	-0.030	-0.084
-494.566	-173.343	-0.153	-0.005
-493.551	21.633	0.175	0.143
-492.537	134.608	-0.130	-0.170
-491.522	-200.000	-0.002	0.117
-490.508	-200.000	-0.005	0.236
-489.493	-26.419	-0.304	0.179
-488.478	-19.741	0.301	-0.186
-487.464	-35.279	0.177	-0.096
-486.449	-55.486	0.328	-0.147
-485.435	-136.611	-0.118	0.014
-484.420	-53.077	-0.304	0.140
-483.405	3.551	-0.093	-0.068
-482.391	-148.148	0.173	0.014
-481.376	321.359	-0.079	-0.151
-480.362	409.493	-0.117	-0.249
-479.347	-200.000	-0.017	0.095
-478.332	-46.983	0.248	-0.122
-477.318	800.000	-0.015	0.065
-476.303	-200.000	-0.012	0.089
-475.289	476.692	-0.165	0.374
-474.274	71.965	-0.160	0.167
-473.259	108.317	-0.023	-0.028
-472.245	175.385	-0.099	0.144
-471.230	-59.570	0.240	0.103
-470.216	-200.000	0.012	0.060
-469.201	-70.521	0.263	-0.100
-468.186	-200.000	0.014	-0.404
-467.172	146.123	-0.048	0.064
-466.157	147.756	-0.121	-0.163
-465.143	-131.282	0.154	-0.020
-464.128	-200.000	-0.073	0.389
-463.113	-39.654	-0.093	-0.049
-462.099	115.084	0.189	-0.231
-461.084	367.683	-0.082	0.167
-460.070	708.300	-0.068	0.180
-459.055	78.783	-0.162	0.174
-458.040	359.773	-0.020	0.039
-457.026	800.000	0.080	0.286
-456.011	-72.956	0.309	0.114
-454.997	-200.000	-0.030	-0.151
-453.982	-200.000	-0.051	-0.496
-452.968	-30.507	-0.347	-0.197
-451.953	110.934	-0.279	-0.336
-450.938	52.243	-0.209	0.200
-449.924	-200.000	0.005	-0.075
-448.909	-200.000	0.040	0.000
-447.895	-2.527	-0.230	-0.162
-446.880	-26.930	0.245	-0.143
-445.865	60.958	-0.106	0.105
-444.851	-200.000	-0.007	-0.136
-443.836	-17.235	0.278	0.176
-442.822	270.161	-0.177	-0.312
-441.807	-139.704	0.146	0.016
-440.792	-114.484	-0.180	-0.035
-439.778	-153.929	0.394	-0.027
-438.763	-40.574	0.088	-0.046
-437.749	-43.064	0.357	-0.181
-436.734	800.000	0.018	-0.060
-435.719	-200.000	0.029	0.311
-434.705	13.186	-0.097	0.075
-433.690	-61.446	-0.314	-0.132
-432.676	-85.427	0.168	0.052
-431.661	179.072	-0.140	0.204
-430.646	-200.000	0.031	-0.255
-429.632	-200.000	0.012	-0.088
-428.617	-122.629	0.177	0.029
-427.603	53.316	0.078	-0.075
-426.588	-143.158	0.274	0.026
-425.573	202.906	-0.060	0.092
-424.559	189.959	-0.086	-0.129
-423.544	-200.000	0.022	0.144
-422.530	-106.100	0.202	-0.045
-421.515	124.340	-0.224	0.282
-420.500	-200.000	-0.025	-0.172
-419.486	-56.106	0.318	-0.142
-418.471	-200.000	-0.013	-0.330
-417.457	418.447	0.138	-0.295
-416.442	367.886	0.115	0.233
-415.428	-200.000	-0.061	-0.337
-414.413	-58.263	-0.151	-0.066
-413.398	-200.000	-0.112	-0.519
-412.384	106.201	-0.066	-0.079
-411.369	-92.046	0.203	0.057
-410.355	242.269	0.150	0.251
-409.340	-199.394	0.299	0.002
-408.325	-200.000	0.060	-0.313
-407.311	148.903	-0.060	0.081
-406.296	-200.000	0.012	-0.240
-405.282	800.000	-0.026	0.099
-404.267	-21.434	0.246	-0.150
-403.252	27.202	-0.214	0.180
-402.238	3.219	-0.161	-0.117
-401.223	-43.242	-0.304	-0.154
-400.209	-5.500	-0.058	0.040
-399.194	125.714	-0.066	0.084
-398.179	-200.000	-0.015	-0.121
-397.165	-144.473	-0.129	0.012
-396.150	145.531	-0.037	0.049
-395.136	-200.000	-0.004	-0.031
-394.121	-20.076	0.078	-0.048
-393.106	46.463	-0.158	-0.146
-392.092	-200.000	-0.012	-0.060
-391.077	-79.502	-0.230	-0.078
-390.063	-94.013	-0.355	-0.097
-389.048	-17.448	0.271	0.170
-388.033	472.224	-0.188	0.424
-387.019	-7.379	-0.111	0.075
-386.004	-200.000	0.040	-0.387
-384.990	-114.593	0.317	0.061
-383.975	800.000	-0.062	0.233
-382.960	263.487	0.139	0.242
-381.946	-17.141	0.136	0.086
-380.931	-36.561	-0.162	-0.087
-379.917	-102.670	0.373	-0.089
-378.902	-11.457	0.160	-0.105
-377.888	534.989	0.101	0.239
-376.873	-57.389	0.193	-0.085
-375.858	-200.000	-0.009	0.042
-374.844	-119.326	-0.357	0.062
-373.829	114.763	-0.331	0.403
-372.815	-200.000	0.011	-0.059
-371.800	40.342	0.143	-0.129
-370.785	-200.000	0.031	-0.259
-369.771	-54.478	-0.235	0.106
-368.756	-46.567	-0.295	-0.145
-367.742	50.861	0.051	0.049
-366.727	127.891	0.171	-0.217
-365.712	-200.000	0.003	0.039
-364.698	-200.000	0.019	0.106
-363.683	-63.486	0.246	-0.101
-362.669	-104.167	0.499	-0.116
-361.654	91.722	0.105	-0.118
-360.639	-134.098	0.270	0.033
-359.625	-200.000	0.009	0.116
-358.610	-200.000	0.028	0.332
-357.596	-114.918	-0.204	-0.039
-356.581	-72.116	0.351	-0.130
-355.566	-200.000	0.004	0.112
-354.552	-89.611	0.271	0.079
-353.537	-81.762	-0.507	-0.166
-352.523	692.819	0.126	-0.329
-351.508	800.000	0.070	-0.283
-350.493	284.095	-0.132	0.236
-349.479	-200.000	0.024	-0.138
-348.464	-47.329	-0.154	0.075
-347.450	-86.334	-0.221	0.068
-346.435	610.068	-0.011	-0.027
-345.420	29.828	-0.214	0.182
-344.406	800.000	0.057	0.189
-343.391	-155.671	-0.320	0.020
-342.377	58.741	0.026	0.025
-341.362	-200.000	-0.066	0.305
-340.348	247.358	-0.165	0.278
-339.333	-64.619	0.146	0.059
-338.318	64.009	-0.217	-0.217
-337.304	-37.991	-0.538	0.285
-336.289	-113.926	-0.111	-0.022
-335.275	-102.017	0.407	-0.098
-334.260	800.000	0.054	0.212
-333.245	-112.201	-0.316	0.063
-332.231	-200.000	-0.039	-0.344
-331.216	-23.563	0.238	-0.142
-330.202	-6.242	0.089	-0.061
-329.187	800.000	0.121	0.392
-328.172	37.220	-0.056	-0.050
-327.158	-200.000	-0.021	0.525
-326.143	256.096	-0.146	-0.250
-325.129	369.037	-0.049	0.098
-324.114	-69.151	0.159	0.061
-323.099	-200.000	-0.015	0.173
-322.085	161.052	-0.157	0.219
-321.070	171.756	-0.188	0.269
-320.056	-98.299	-0.303	0.077
-319.041	-95.655	0.310	0.083
-318.026	-146.794	0.308	0.026
-317.012	-72.025	0.427	-0.158
-315.997	800.000	-0.023	0.088
-314.983	800.000	-0.043	-0.164
-313.968	49.704	0.200	-0.188
-312.953	800.000	-0.097	0.323
-311.939	-15.726	-0.051	0.032
-310.924	-114.167	-0.229	-0.044
-309.910	47.380	0.047	-0.043
-308.895	-200.000	-0.021	0.191
-307.880	-60.474	-0.145	0.061
-306.866	-186.640	0.316	0.004
-305.851	30.636	-0.094	0.080
-304.837	-70.180	0.094	0.036
-303.822	-113.648	-0.086	0.017
-302.807	141.462	-0.018	-0.023
-301.793	123.066	-0.140	-0.175
-300.778	13.834	0.247	0.191
-299.764	-7.209	0.165	0.111
-298.749	-200.000	-0.009	-0.072
-297.735	-38.453	0.095	0.050
-296.720	-123.921	0.120	0.019
-295.705	203.688	0.131	-0.202
-294.691	16.088	0.099	-0.078
-293.676	219.452	0.243	0.387
-292.662	-123.897	-0.152	-0.024
-291.647	-77.853	-0.163	-0.056
-290.632	128.336	-0.187	0.237
-289.618	-54.819	0.093	-0.042
-288.603	540.112	0.070	0.165
-287.589	-19.472	-0.372	-0.229
-286.574	14.481	0.090	-0.070
-285.559	-99.237	0.239	0.060
-284.545	483.441	-0.050	0.113
-283.530	-141.826	-0.169	-0.017
-282.516	110.078	-0.192	0.229
-281.501	-133.790	0.114	-0.014
-280.486	-97.363	0.045	-0.012
-279.472	-46.913	0.147	-0.072
-278.457	42.906	-0.296	-0.268
-277.443	-66.008	-0.009	-0.004
-276.428	54.223	-0.144	0.138
-275.413	91.496	-0.116	0.130
-274.399	-120.710	-0.135	0.023
-273.384	-66.677	-0.227	-0.089
-272.370	248.565	0.076	0.128
-271.355	103.909	-0.144	-0.169
-270.340	-87.929	0.215	-0.064
-269.326	-48.104	-0.324	-0.156
-268.311	-127.167	0.327	-0.048
-267.297	-200.000	0.008	0.293
-266.282	37.294	-0.139	-0.122
-265.267	251.524	-0.168	0.285
-264.253	-200.000	-0.032	0.212
-263.238	-200.000	0.007	0.178
-262.224	347.627	0.074	-0.146
-261.209	148.128	0.049	-0.065
-260.195	37.841	-0.039	-0.034
-259.180	112.335	0.056	0.067
-258.165	-200.000	0.030	0.000
-257.151	110.373	-0.136	0.163
-256.136	-59.921	-0.224	0.095
-255.122	68.502	-0.112	0.114
-254.107	144.775	-0.076	-0.101
-253.092	-200.000	0.006	-0.284
-252.078	-57.112	0.086	-0.038
-251.063	-200.000	0.007	0.139
-250.049	136.964	-0.093	-0.121
-249.034	-120.744	0.340	-0.057
-248.019	-32.792	-0.190	-0.105
-247.005	-52.321	0.312	0.143
-245.990	18.897	0.243	-0.193
-244.976	-200.000	-0.080	-0.391
-243.961	-42.175	0.319	0.162
-242.946	800.000	-0.014	-0.058
-241.932	58.256	-0.225	-0.219
-240.917	-68.320	0.064	0.025
-239.903	259.691	-0.115	0.198
-238.888	38.075	-0.199	-0.175
-237.873	-200.000	-0.057	0.353
-236.859	-200.000	-0.035	0.286
-235.844	-165.677	-0.231	0.010
-234.830	41.134	0.172	-0.154
-233.815	6.038	-0.170	0.125
-232.800	-200.000	0.037	0.177
-231.786	-200.000	0.156	-0.001
-230.771	-108.279	-0.074	-0.016
-229.757	664.836	-0.056	-0.145
-228.742	45.535	-0.316	-0.290
-227.727	-41.295	-0.162	0.083
-226.713	-109.499	-0.031	-0.006
-225.698	-84.959	0.043	-0.013
-224.684	-106.701	0.173	0.038
-223.669	-154.454	-0.288	0.019
-222.655	421.383	-0.067	-0.143
-221.640	-200.000	-0.011	-0.102
-220.625	199.577	0.140	-0.213
-219.611	-145.193	-0.188	0.017
-218.596	-79.492	0.086	0.029
-217.582	-200.000	0.011	0.064
-216.567	-37.272	-0.264	0.140
-215.552	44.319	0.217	-0.197
-214.538	195.126	0.162	-0.244
-213.523	-200.000	0.001	-0.080
-212.509	-85.712	0.145	0.045
-211.494	-53.202	-0.174	-0.079
-210.479	-200.000	0.044	0.218
-209.465	57.378	0.070	0.068
-208.450	739.299	-0.182	0.485
-207.436	-110.541	-0.096	0.020
-206.421	-137.156	0.197	0.022
-205.406	-100.864	-0.154	0.038
-204.392	28.752	-0.293	0.246
-203.377	161.896	0.129	0.179
-202.363	27.185	0.111	0.093
-201.348	199.962	0.078	0.118
-200.333	-60.739	-0.179	0.075
-199.319	-51.374	0.384	-0.178
-198.304	-156.571	-0.095	-0.006
-197.290	-153.027	-0.187	-0.013
-196.275	-200.000	-0.023	-0.215
-195.260	95.751	-0.178	-0.202
-194.246	-98.711	-0.119	-0.030
-193.231	800.000	-0.056	-0.186
-192.217	-179.389	0.118	-0.003
-191.202	800.000	-0.158	0.470
-190.187	-200.000	-0.006	-0.217
-189.173	-45.725	-0.374	-0.183
-188.158	-145.775	0.144	0.013
-187.144	-200.000	0.044	0.403
-186.129	126.468	0.174	0.218
-185.114	-118.607	-0.257	-0.045
-184.100	43.542	0.177	-0.161
-183.085	800.000	0.120	0.490
-182.071	-42.021	0.268	0.136
-181.056	183.779	-0.052	-0.077
-180.042	-35.037	-0.090	0.049
-179.027	260.101	0.079	-0.135
-178.012	-120.713	0.161	-0.027
-176.998	-148.150	0.201	0.016
-175.983	-163.787	-0.260	-0.012
-174.969	-25.423	0.327	0.191
-173.954	-174.389	-0.133	0.004
-172.939	-37.750	-0.110	-0.058
-171.925	16.137	0.267	0.209
-170.910	-200.000	-0.049	0.264
-169.896	-200.000	-0.007	0.140
-168.881	221.493	0.135	0.215
-167.866	-67.225	-0.137	0.053
-166.852	677.950	-0.100	-0.257
-165.837	-121.179	-0.095	-0.016
-164.823	-9.340	0.271	0.179
-163.808	-85.811	-0.213	0.065
-162.793	325.972	0.056	-0.107
-161.779	-37.591	0.092	-0.049
-160.764	463.803	-0.033	-0.073
-159.750	42.916	0.019	0.017
-158.735	-200.000	-0.044	-0.198
-157.720	-118.269	-0.289	0.051
-156.706	-143.194	-0.188	0.018
-155.691	200.547	0.151	0.230
-154.677	127.160	0.125	0.157
-153.662	82.412	-0.071	0.076
-152.647	800.000	0.036	0.151
-151.633	33.571	0.291	0.250
-150.618	-200.000	-0.025	0.132
-149.604	204.582	0.175	0.268
-148.589	-11.929	0.284	0.184
-147.574	-189.026	0.242	-0.003
-146.560	-200.000	0.004	0.412
-145.545	-200.000	-0.007	0.028
-144.531	-64.717	-0.180	0.072
-143.516	800.000	0.067	-0.284
-142.502	13.511	0.199	0.153
-141.487	-200.000	0.034	0.230
-140.472	7.254	-0.215	0.159
-139.458	47.852	0.299	-0.276
-138.443	-50.428	-0.098	-0.046
-137.429	-112.090	-0.385	-0.077
-136.414	-200.000	0.074	0.336
-135.399	-41.609	0.077	-0.039
-134.385	60.129	-0.016	-0.015
-133.370	505.175	0.042	-0.097
-132.356	-40.433	0.145	0.075
-131.341	-30.943	0.261	-0.146
-130.326	-31.602	0.222	0.123
-129.312	-24.955	-0.141	-0.083
-128.297	-132.670	-0.153	-0.019
-127.283	-40.579	0.164	0.084
-126.268	101.706	0.143	0.165
-125.253	-69.522	-0.229	-0.087
-124.239	-50.838	-0.215	-0.100
-123.224	77.156	-0.152	-0.160
