DTS Sentinel unit serial number:	SN413079Multiplexer serial number:	ORYXHardware model number:	OX4-SRSoftware version number:	ORYX F/W v4.00 Oryx Data Collector v3.7.2.0data status	okinstallation	princeton_trtdifferential loss correction	single-endedforward channel	channel 2reverse channel	N/Adate	2019/09/15time	12:39:34forward acquisition time	60.00reverse acquisition time	0.00gamma	496.2192k internal	0.2311k external	0.2311temperature offset calibration	1.0009default loss term (dB/km)	0.3790temperature slope calibration	1.0000multiplexer offset coefficient	1.0000multiplexer slope coefficient	1.0000fibre end	0.00T internal ref (°C)	35.53T ext. ref 1 (°C)	5.05T ext. ref 2 (°C)	33.54length (m)	temperature (°C)	Stokes	anti-Stokes-747.200	-200.000	0.052	0.368
-746.185	345.139	0.102	0.204
-745.171	-82.583	0.059	0.019
-744.156	-62.257	0.103	-0.043
-743.142	-103.696	0.368	-0.088
-742.127	-200.000	0.007	0.343
-741.112	253.710	0.274	-0.475
-740.098	-126.497	0.272	-0.041
-739.083	-171.978	0.356	0.012
-738.069	435.658	-0.240	0.529
-737.054	292.041	-0.117	0.216
-736.039	-74.087	0.098	-0.036
-735.025	-200.000	-0.040	0.264
-734.010	59.425	-0.050	0.050
-732.996	97.362	-0.056	-0.065
-731.981	21.385	-0.109	-0.090
-730.966	416.386	0.083	0.179
-729.952	-164.931	-0.206	0.009
-728.937	201.377	0.040	0.062
-727.923	263.870	-0.092	0.162
-726.908	27.178	-0.182	-0.155
-725.894	30.471	-0.087	0.075
-724.879	20.981	0.133	-0.109
-723.864	-62.004	-0.052	0.022
-722.850	-99.569	-0.114	-0.029
-721.835	352.832	0.089	-0.180
-720.821	-200.000	0.002	0.296
-719.806	458.169	0.101	-0.228
-718.791	-140.207	0.329	-0.035
-717.777	-19.925	0.100	0.062
-716.762	800.000	-0.071	0.290
-715.748	800.000	0.055	0.203
-714.733	127.793	-0.155	0.200
-713.718	663.672	-0.071	-0.186
-712.704	171.010	-0.079	0.115
-711.689	604.910	-0.098	0.249
-710.675	-48.783	0.203	-0.099
-709.660	800.000	0.053	0.153
-708.645	608.414	0.014	-0.035
-707.631	-148.902	-0.384	-0.031
-706.616	-44.138	-0.112	-0.057
-705.602	-200.000	0.008	-0.111
-704.587	-1.581	-0.212	-0.152
-703.572	22.862	-0.086	-0.072
-702.558	23.100	-0.048	-0.040
-701.543	291.218	0.136	-0.251
-700.529	-200.000	0.027	-0.435
-699.514	-56.398	0.048	0.022
-698.499	31.135	0.240	-0.209
-697.485	-200.000	0.076	-0.340
-696.470	-200.000	0.020	0.103
-695.456	521.344	0.058	0.138
-694.441	-15.381	0.232	0.150
-693.426	800.000	-0.115	0.464
-692.412	321.614	-0.046	0.089
-691.397	-85.866	-0.137	-0.043
-690.383	-68.592	-0.085	-0.033
-689.368	-139.746	0.153	-0.016
-688.354	-70.586	-0.214	-0.082
-687.339	-200.000	-0.043	0.259
-686.324	251.261	-0.120	0.206
-685.310	74.721	-0.172	-0.183
-684.295	-13.756	-0.117	0.076
-683.281	-107.649	-0.290	-0.064
-682.266	-146.260	-0.161	0.014
-681.251	-54.314	-0.119	0.055
-680.237	122.196	0.188	-0.238
-679.222	-200.000	-0.002	-0.117
-678.208	124.069	0.084	0.107
-677.193	21.601	-0.184	0.151
-676.178	-96.591	0.088	0.023
-675.164	43.153	-0.220	-0.203
-674.149	-200.000	-0.007	0.210
-673.135	-168.806	-0.222	-0.008
-672.120	-19.046	-0.168	-0.106
-671.105	-19.864	-0.138	-0.086
-670.091	-37.238	-0.225	-0.122
-669.076	-74.867	-0.164	-0.059
-668.062	-123.214	0.098	0.016
-667.047	-107.190	-0.143	-0.032
-666.032	-57.248	-0.130	-0.058
-665.018	507.554	0.034	-0.081
-664.003	529.464	-0.047	0.111
-662.989	-126.087	-0.225	-0.034
-661.974	-200.000	0.007	-0.085
-660.959	-18.790	0.124	0.078
-659.945	-200.000	-0.005	0.025
-658.930	-36.664	0.165	0.090
-657.916	-0.170	-0.181	0.130
-656.901	-58.104	-0.221	-0.097
-655.886	-167.513	-0.197	-0.008
-654.872	31.047	0.158	0.137
-653.857	-200.000	-0.010	-0.176
-652.843	401.424	-0.101	-0.215
-651.828	126.971	-0.105	0.135
-650.814	-7.508	-0.041	0.028
-649.799	-200.000	0.047	-0.323
-648.784	84.482	-0.255	0.282
-647.770	-139.777	-0.325	0.035
-646.755	-92.863	-0.046	0.013
-645.741	58.958	0.357	0.355
-644.726	-74.757	0.098	-0.036
-643.711	-130.213	0.281	0.039
-642.697	78.927	0.077	0.083
-641.682	-200.000	0.034	-0.153
-640.668	114.397	-0.281	-0.345
-639.653	-118.909	0.094	-0.017
-638.638	-36.247	0.209	0.114
-637.624	-85.077	-0.032	0.010
-636.609	-200.000	-0.011	-0.454
-635.595	-200.000	-0.001	0.211
-634.580	137.907	-0.099	0.131
-633.565	800.000	-0.112	-0.328
-632.551	-94.714	0.257	-0.070
-631.536	111.147	-0.076	-0.093
-630.522	-200.000	0.013	0.144
-629.507	800.000	-0.042	0.156
-628.492	-61.799	-0.250	0.106
-627.478	-68.565	-0.101	0.040
-626.463	144.562	0.242	-0.326
-625.449	800.000	-0.077	-0.224
-624.434	-32.871	0.053	-0.030
-623.419	-48.061	0.297	-0.145
-622.405	364.258	-0.122	-0.247
-621.390	-200.000	-0.016	0.173
-620.376	-74.331	0.146	-0.053
-619.361	-51.167	-0.102	-0.048
-618.346	161.033	-0.153	-0.215
-617.332	358.476	0.102	0.205
-616.317	-200.000	0.012	0.134
-615.303	-131.057	-0.238	-0.032
-614.288	321.734	0.101	-0.193
-613.273	-64.299	-0.202	-0.083
-612.259	-175.681	-0.337	0.009
-611.244	5.916	0.039	-0.029
-610.230	8.164	0.244	-0.185
-609.215	-200.000	0.004	0.062
-608.201	800.000	-0.033	-0.147
-607.186	-142.387	-0.102	0.010
-606.171	-200.000	-0.008	-0.176
-605.157	147.683	-0.200	-0.272
-604.142	-46.074	0.100	0.050
-603.128	-200.000	0.040	-0.251
-602.113	390.498	-0.107	0.225
-601.098	-200.000	-0.011	-0.053
-600.084	1.740	-0.237	-0.172
-599.069	-200.000	-0.037	0.170
-598.055	32.106	-0.215	0.187
-597.040	369.975	-0.082	0.167
-596.025	800.000	0.103	0.323
-595.011	-200.000	0.011	0.091
-593.996	122.566	-0.038	0.048
-592.982	-200.000	0.001	0.100
-591.967	-200.000	0.024	0.106
-590.952	-200.000	0.037	-0.169
-589.938	-152.687	0.289	-0.021
-588.923	149.474	0.169	0.231
-587.909	-153.211	-0.196	-0.014
-586.894	-143.726	0.056	0.005
-585.879	-200.000	0.030	-0.203
-584.865	427.371	-0.049	-0.106
-583.850	-117.504	0.173	-0.032
-582.836	-103.436	-0.065	-0.016
-581.821	-32.085	0.212	-0.119
-580.806	800.000	0.064	0.211
-579.792	-108.123	-0.152	-0.033
-578.777	-10.628	0.199	-0.133
-577.763	-200.000	0.264	-0.001
-576.748	798.017	-0.078	-0.217
-575.733	-165.404	0.172	-0.008
-574.719	16.004	0.080	0.064
-573.704	-200.000	0.066	0.318
-572.690	112.751	-0.106	0.129
-571.675	-11.240	0.293	0.195
-570.661	-200.000	-0.006	-0.063
-569.646	-138.829	-0.316	0.035
-568.631	-101.280	0.310	0.076
-567.617	-30.653	-0.048	0.027
-566.602	27.345	-0.208	0.176
-565.588	800.000	0.044	-0.187
-564.573	-119.353	-0.355	-0.062
-563.558	-144.511	0.202	-0.019
-562.544	86.172	0.068	-0.075
-561.529	800.000	-0.046	0.147
-560.515	742.968	-0.119	0.321
-559.500	631.579	-0.088	-0.224
-558.485	20.487	-0.293	-0.239
-557.471	669.138	0.049	-0.128
-556.456	185.965	0.049	-0.073
-555.442	71.638	-0.098	0.103
-554.427	647.539	0.192	0.494
-553.412	-59.849	-0.299	-0.129
-552.398	800.000	0.102	-0.323
-551.383	-11.689	-0.318	-0.210
-550.369	209.087	-0.103	-0.162
-549.354	8.888	0.162	-0.123
-548.339	198.398	0.083	-0.128
-547.325	-81.163	-0.258	0.086
-546.310	-81.906	-0.104	-0.034
-545.296	-200.000	0.062	-0.311
-544.281	-181.764	-0.109	0.002
-543.266	-0.111	-0.079	0.056
-542.252	-200.000	-0.018	-0.112
-541.237	-16.125	0.189	0.121
-540.223	263.151	0.166	0.290
-539.208	224.157	-0.114	0.185
-538.193	154.153	-0.257	-0.355
-537.179	-60.095	-0.127	-0.055
-536.164	342.250	0.051	-0.101
-535.150	-200.000	0.005	0.044
-534.135	800.000	0.021	0.080
-533.121	-111.451	-0.059	-0.012
-532.106	694.224	0.012	-0.033
-531.091	-200.000	-0.011	-0.443
-530.077	348.380	0.070	0.139
-529.062	-146.194	0.286	0.025
-528.048	112.661	0.154	0.188
-527.033	137.010	-0.058	-0.076
-526.018	-118.653	-0.342	0.061
-525.004	800.000	0.031	-0.096
-523.989	655.636	0.111	0.287
-522.975	229.722	-0.025	0.042
-521.960	-97.550	0.441	0.115
-520.945	307.049	-0.182	-0.341
-519.931	-65.541	-0.153	-0.062
-518.916	14.586	-0.235	0.185
-517.902	-0.629	0.243	0.174
-516.887	-131.153	-0.306	0.041
-515.872	105.480	0.121	0.143
-514.858	-193.723	0.124	-0.001
-513.843	388.900	0.096	-0.199
-512.829	708.821	0.057	0.152
-511.814	800.000	0.010	0.040
-510.799	-200.000	0.060	0.394
-509.785	-148.561	-0.402	-0.033
-508.770	-200.000	0.005	-0.332
-507.756	-200.000	-0.017	-0.134
-506.741	96.840	0.140	0.161
-505.726	-116.866	-0.221	-0.041
-504.712	-88.227	-0.096	-0.029
-503.697	124.589	-0.139	0.176
-502.683	-200.000	-0.003	0.046
-501.668	-18.954	-0.057	-0.036
-500.653	800.000	-0.031	0.096
-499.639	800.000	0.055	0.210
-498.624	66.200	0.207	-0.212
-497.610	31.191	-0.164	0.142
-496.595	-200.000	0.016	0.080
-495.581	800.000	-0.089	0.286
-494.566	-200.000	0.022	-0.213
-493.551	767.566	0.069	-0.188
-492.537	3.257	-0.096	-0.070
-491.522	168.671	0.170	0.243
-490.508	66.722	-0.170	0.173
-489.493	-200.000	-0.007	0.085
-488.478	246.068	0.298	0.505
-487.464	-200.000	-0.020	0.262
-486.449	114.301	-0.102	-0.125
-485.435	230.175	0.119	-0.196
-484.420	22.939	-0.137	0.113
-483.405	-41.972	-0.369	0.190
-482.391	485.323	0.020	-0.047
-481.376	-6.006	0.234	0.161
-480.362	-60.931	-0.121	0.052
-479.347	-77.714	-0.294	0.102
-478.332	800.000	0.073	0.314
-477.318	40.430	-0.150	-0.136
-476.303	-200.000	-0.019	0.164
-475.289	121.909	0.069	-0.086
-474.274	800.000	0.068	0.228
-473.259	-96.642	-0.052	0.014
-472.245	800.000	0.091	-0.263
-471.230	437.923	-0.096	0.209
-470.216	124.821	-0.178	-0.225
-469.201	367.431	-0.112	-0.227
-468.186	-89.502	-0.158	0.047
-467.172	122.322	-0.119	0.150
-466.157	-200.000	0.036	-0.381
-465.143	219.555	0.136	0.219
-464.128	-81.282	0.136	-0.045
-463.113	-68.385	-0.149	0.058
-462.099	-154.629	0.180	-0.012
-461.084	800.000	-0.088	-0.366
-460.070	-159.577	-0.059	-0.003
-459.055	518.088	-0.114	-0.267
-458.040	-25.594	0.373	0.221
-457.026	112.566	-0.083	0.100
-456.011	36.504	-0.121	0.107
-454.997	54.372	0.139	0.135
-453.982	-200.000	0.020	-0.123
-452.968	95.703	-0.047	-0.054
-451.953	451.445	0.061	-0.136
-450.938	-51.410	0.113	-0.053
-449.924	419.474	-0.057	-0.122
-448.909	-200.000	-0.038	-0.383
-447.895	-200.000	-0.002	-0.372
-446.880	-146.699	0.036	-0.003
-445.865	-99.067	0.304	0.077
-444.851	517.647	-0.070	-0.165
-443.836	48.777	0.227	0.214
-442.822	-156.880	0.200	0.012
-441.807	800.000	0.100	-0.326
-440.792	-175.938	-0.051	0.001
-439.778	263.414	-0.142	-0.248
-438.763	156.448	0.102	0.142
-437.749	36.470	-0.101	-0.090
-436.734	-200.000	0.017	0.303
-435.719	-179.658	0.169	0.004
-434.705	162.189	-0.220	-0.309
-433.690	26.583	0.115	0.096
-432.676	-154.108	0.179	0.012
-431.661	-30.255	-0.266	0.152
-430.646	800.000	0.032	-0.120
-429.632	-39.621	-0.145	-0.076
-428.617	-54.470	-0.094	-0.043
-427.603	-200.000	0.015	0.250
-426.588	54.579	0.068	0.066
-425.573	-167.743	-0.150	-0.006
-424.559	416.304	0.113	-0.242
-423.544	-200.000	-0.005	-0.303
-422.530	-104.974	0.172	0.039
-421.515	-200.000	0.021	-0.261
-420.500	-200.000	0.406	0.000
-419.486	-200.000	0.013	-0.143
-418.471	-122.889	-0.225	0.036
-417.457	-78.378	0.040	0.014
-416.442	-61.280	-0.137	0.058
-415.428	-106.124	-0.173	0.039
-414.413	800.000	-0.102	-0.329
-413.398	-26.250	0.195	0.115
-412.384	-72.618	0.155	-0.057
-411.369	354.407	0.074	0.147
-410.355	380.492	-0.134	0.275
-409.340	238.992	0.222	0.369
-408.325	-77.076	-0.157	-0.055
-407.311	-200.000	-0.048	-0.415
-406.296	-174.824	0.222	0.006
-405.282	214.360	0.117	0.186
-404.267	-200.000	-0.021	0.113
-403.252	318.793	-0.136	0.259
-402.238	-28.038	0.094	-0.055
-401.223	517.679	0.067	-0.158
-400.209	-170.275	0.264	-0.009
-399.194	-30.529	0.131	0.074
-398.179	800.000	-0.060	0.188
-397.165	-144.717	0.074	-0.007
-396.150	44.008	0.211	-0.193
-395.136	-79.352	0.090	0.031
-394.121	-37.748	0.076	-0.041
-393.106	-97.123	-0.147	0.038
-392.092	-200.000	0.028	-0.179
-391.077	-200.000	-0.030	0.174
-390.063	95.922	0.124	0.141
-389.048	105.351	0.124	-0.147
-388.033	125.601	0.158	-0.199
-387.019	-141.189	-0.161	-0.016
-386.004	-200.000	-0.010	-0.146
-384.990	-104.429	0.197	0.046
-383.975	76.226	0.105	-0.111
-382.960	645.656	0.090	-0.231
-381.946	92.429	-0.101	-0.114
-380.931	-110.001	-0.212	0.044
-379.917	800.000	-0.070	-0.285
-378.902	107.882	0.145	-0.173
-377.888	-195.180	0.232	-0.002
-376.873	142.906	0.449	-0.597
-375.858	184.424	0.034	-0.051
-374.844	41.802	-0.253	-0.230
-373.829	-200.000	-0.020	-0.093
-372.815	-127.884	0.353	0.051
-371.800	-200.000	-0.026	-0.323
-370.785	-97.756	-0.328	0.085
-369.771	-132.764	-0.124	0.016
-368.756	-200.000	-0.019	0.128
-367.742	-61.116	-0.166	0.070
-366.727	218.625	0.211	0.337
-365.712	-8.351	0.100	0.067
-364.698	-22.114	-0.068	-0.041
-363.683	19.176	-0.261	0.209
-362.669	427.929	-0.079	-0.170
-361.654	-75.491	-0.291	-0.104
-360.639	800.000	-0.109	0.385
-359.625	-3.491	0.157	0.109
-358.610	-200.000	-0.060	0.390
-357.596	-200.000	0.031	0.359
-356.581	-136.236	-0.409	0.048
-355.566	50.345	0.184	0.174
-354.552	-200.000	0.024	-0.150
-353.537	1.348	-0.241	-0.173
-352.523	9.271	0.217	-0.164
-351.508	-200.000	-0.020	0.229
-350.493	-200.000	-0.012	0.077
-349.479	249.587	0.152	-0.258
-348.464	-200.000	-0.011	-0.258
-347.450	-118.795	-0.375	0.066
-346.435	-2.030	-0.068	0.048
-345.420	-27.023	0.170	-0.099
-344.406	-23.692	-0.209	-0.125
-343.391	-36.935	-0.052	-0.028
-342.377	536.466	-0.035	0.083
-341.362	-92.921	0.229	0.064
-340.348	132.214	-0.117	0.150
-339.333	33.484	-0.055	0.048
-338.318	-200.000	-0.029	0.398
-337.304	188.566	-0.087	-0.131
-336.289	800.000	-0.018	-0.060
-335.275	84.619	0.141	-0.155
-334.260	470.049	-0.044	-0.100
-333.245	-34.642	-0.160	-0.087
-332.231	-200.000	-0.008	-0.163
-331.216	-161.012	0.073	-0.004
-330.202	547.255	-0.139	0.332
-329.187	-200.000	0.036	-0.193
-328.172	724.206	-0.052	0.139
-327.158	-47.979	-0.127	0.061
-326.143	406.826	0.094	0.199
-325.129	-124.075	0.242	0.038
-324.114	-107.272	-0.151	0.033
-323.099	21.771	-0.212	0.173
-322.085	-13.229	-0.193	0.125
-321.070	-136.355	-0.236	0.027
-320.056	-138.173	-0.103	0.011
-319.041	198.353	0.060	-0.091
-318.026	39.554	-0.138	0.124
-317.012	183.081	0.026	-0.039
-315.997	25.182	-0.218	0.181
-314.983	20.564	-0.264	0.213
-313.968	161.515	-0.091	0.127
-312.953	-58.189	-0.222	0.096
-311.939	-200.000	-0.034	-0.209
-310.924	-200.000	-0.022	-0.216
-309.910	-100.600	-0.076	-0.019
-308.895	-32.289	0.136	0.076
-307.880	-100.905	-0.087	-0.021
-306.866	290.409	-0.046	-0.083
-305.851	72.967	0.119	-0.124
-304.837	-32.362	-0.023	0.013
-303.822	-200.000	0.203	-0.001
-302.807	-76.495	0.427	0.150
-301.793	-68.856	0.275	-0.106
-300.778	261.472	0.056	0.097
-299.764	-200.000	-0.042	0.219
-298.749	113.694	0.090	0.109
-297.735	-37.847	-0.072	-0.038
-296.720	70.443	0.006	-0.006
-295.705	568.510	-0.080	-0.193
-294.691	-21.629	0.274	-0.167
-293.676	121.389	0.148	0.184
-292.662	150.455	0.348	0.472
-291.647	-26.957	-0.134	0.078
-290.632	732.856	0.115	-0.308
-289.618	-61.874	-0.059	0.025
-288.603	-4.753	0.190	0.131
-287.589	800.000	-0.066	0.272
-286.574	449.533	-0.076	0.168
-285.559	-193.373	0.190	-0.002
-284.545	284.662	0.188	0.337
-283.530	-105.199	-0.067	-0.015
-282.516	13.338	-0.235	0.182
-281.501	-71.814	0.257	-0.096
-280.486	800.000	0.034	-0.124
-279.472	-51.411	-0.306	-0.143
-278.457	-200.000	0.001	0.011
-277.443	-122.968	-0.165	0.027
-276.428	-200.000	-0.007	-0.058
-275.413	26.346	-0.078	0.065
-274.399	3.179	-0.165	0.119
-273.384	-200.000	-0.012	-0.101
-272.370	-62.300	0.425	-0.176
-271.355	19.769	0.094	0.075
-270.340	91.064	0.023	0.026
-269.326	114.142	-0.142	0.172
-268.311	-200.000	-0.003	-0.058
-267.297	18.604	0.136	0.108
-266.282	-200.000	0.084	0.512
-265.267	-27.286	0.273	-0.159
-264.253	71.755	-0.145	0.150
-263.238	-39.557	-0.095	0.050
-262.224	-154.155	0.207	0.014
-261.209	-148.301	0.121	0.010
-260.195	725.552	0.072	0.190
-259.180	76.303	0.194	0.204
-258.165	-115.267	-0.334	-0.063
-257.151	43.312	-0.121	-0.110
-256.136	285.733	-0.108	-0.194
-255.122	-29.960	0.135	-0.077
-254.107	98.251	-0.212	-0.243
-253.092	-70.187	-0.235	-0.089
-252.078	75.573	-0.116	-0.122
-251.063	434.773	0.099	-0.214
-250.049	177.091	-0.080	0.116
-249.034	-200.000	-0.020	-0.171
-248.019	-73.679	0.150	-0.055
-247.005	-90.924	-0.204	0.058
-245.990	42.450	-0.222	-0.201
-244.976	800.000	0.052	-0.168
-243.961	-142.455	-0.086	-0.008
-242.946	800.000	0.054	-0.191
-241.932	-152.208	-0.166	-0.012
-240.917	-200.000	-0.190	0.001
-239.903	775.279	-0.113	-0.308
-238.888	-180.785	-0.470	-0.010
-237.873	800.000	-0.054	0.177
-236.859	409.198	0.067	0.142
-235.844	194.112	-0.235	0.354
-234.830	-200.000	0.031	0.152
-233.815	-200.000	-0.061	0.280
-232.800	-200.000	0.007	-0.034
-231.786	60.254	-0.123	0.121
-230.771	800.000	0.102	-0.428
-229.757	-119.190	0.302	-0.052
-228.742	-10.107	0.109	0.072
-227.727	-141.746	-0.345	0.034
-226.713	-57.030	0.170	-0.075
-225.698	-85.480	0.061	0.019
-224.684	-200.000	-0.003	0.039
-223.669	-200.000	0.056	-0.255
-222.655	-7.184	0.416	-0.280
-221.640	-200.000	-0.018	-0.152
-220.625	25.350	0.050	-0.042
-219.611	800.000	0.040	-0.131
-218.596	-200.000	-0.019	-0.201
-217.582	-200.000	0.366	0.002
-216.567	-109.652	-0.279	-0.058
-215.552	227.881	-0.078	-0.126
-214.538	-14.390	0.341	-0.218
-213.523	-124.175	0.424	-0.066
-212.509	-47.081	-0.062	-0.030
-211.494	111.940	-0.247	0.297
-210.479	642.596	0.073	0.184
-209.465	-200.000	0.008	-0.259
-208.450	-200.000	0.006	0.048
-207.436	-42.936	-0.134	-0.068
-206.421	176.063	-0.165	0.238
-205.406	318.758	0.134	-0.252
-204.392	-24.352	0.296	-0.176
-203.377	-200.000	0.038	-0.198
-202.363	160.498	0.140	0.194
-201.348	-200.000	0.034	-0.392
-200.333	-150.215	-0.317	-0.024
-199.319	317.423	-0.060	-0.113
-198.304	-200.000	-0.053	0.357
-197.290	-154.181	0.121	-0.008
-196.275	2.515	-0.179	0.129
-195.260	47.955	0.093	-0.086
-194.246	114.554	-0.168	0.203
-193.231	-183.125	-0.255	0.004
-192.217	330.706	0.086	-0.165
-191.202	-56.468	0.005	-0.002
-190.187	-85.253	0.420	-0.130
-189.173	-200.000	-0.018	0.138
-188.158	-95.180	-0.035	-0.009
-187.144	-79.040	0.101	-0.034
-186.129	-41.474	0.209	-0.107
-185.114	-200.000	0.021	-0.179
-184.100	125.030	0.228	0.285
-183.085	43.089	0.208	-0.188
-182.071	-55.551	-0.123	-0.055
-181.056	-79.224	0.128	-0.043
-180.042	-200.000	0.021	-0.193
-179.027	-200.000	0.076	0.401
-178.012	-78.069	0.415	0.142
-176.998	-200.000	0.006	0.120
-175.983	-200.000	-0.018	0.126
-174.969	276.917	-0.014	-0.024
-173.954	20.591	-0.347	0.278
-172.939	76.902	-0.134	0.142
-171.925	145.148	-0.272	0.361
-170.910	-164.304	0.091	-0.004
-169.896	0.861	-0.224	-0.159
-168.881	502.910	0.067	0.154
-167.866	52.415	0.115	-0.109
-166.852	372.116	0.102	-0.206
-165.837	16.965	-0.116	0.091
-164.823	512.417	-0.097	0.225
-163.808	-2.421	0.213	0.148
-162.793	-28.420	0.132	0.076
-161.779	161.628	0.101	0.140
-160.764	-138.745	0.127	-0.014
-159.750	519.635	0.061	0.141
-158.735	399.968	0.101	-0.211
-157.720	57.386	0.137	-0.133
-156.706	-71.425	-0.101	0.038
-155.691	-200.000	-0.007	0.247
-154.677	50.450	-0.161	0.151
-153.662	-138.431	0.121	0.013
-152.647	697.088	0.020	0.052
-151.633	-200.000	0.006	0.210
-150.618	-105.292	0.187	0.042
-149.604	24.188	-0.248	-0.203
-148.589	-15.326	0.217	-0.137
-147.574	-200.000	-0.012	-0.108
-146.560	216.337	0.175	0.276
-145.545	44.934	0.256	0.234
-144.531	53.048	-0.330	0.313
-143.516	-76.332	-0.215	0.075
-142.502	-39.591	-0.137	-0.071
-141.487	354.800	0.090	0.177
-140.472	-116.060	0.474	-0.087
-139.458	-168.844	0.154	0.006
-138.443	-200.000	0.014	0.570
-137.429	30.085	0.302	0.255
-136.414	-116.288	-0.135	-0.025
-135.399	-44.131	-0.214	0.106
-134.385	154.796	0.045	-0.061
-133.370	-200.000	0.008	-0.300
-132.356	20.885	0.014	0.011
-131.341	-73.239	-0.361	0.131
-130.326	-111.195	0.333	-0.068
-129.312	8.238	-0.121	0.090
-128.297	-200.000	0.053	-0.293
-127.283	106.216	-0.076	-0.089
-126.268	-200.000	-0.070	-0.317
-125.253	41.636	0.105	0.094
-124.239	16.146	-0.222	0.173
-123.224	-200.000	0.008	0.158
-122.210	146.869	-0.183	-0.244
