DTS Sentinel unit serial number:	SN413079Multiplexer serial number:	ORYXHardware model number:	OX4-SRSoftware version number:	ORYX F/W v4.00 Oryx Data Collector v3.7.2.0data status	okinstallation	princeton_trtdifferential loss correction	single-endedforward channel	channel 2reverse channel	N/Adate	2019/09/13time	15:35:35forward acquisition time	60.00reverse acquisition time	0.00gamma	496.2192k internal	0.2317k external	0.2317temperature offset calibration	1.0210default loss term (dB/km)	0.3790temperature slope calibration	1.0000multiplexer offset coefficient	1.0000multiplexer slope coefficient	1.0000fibre end	0.00T internal ref (°C)	35.00T ext. ref 1 (°C)	4.76T ext. ref 2 (°C)	29.44length (m)	temperature (°C)	Stokes	anti-Stokes-747.200	800.000	0.072	-0.245
-746.185	171.700	-0.092	0.133
-745.171	-52.662	-0.091	0.043
-744.156	-147.882	0.267	0.023
-743.142	9.178	-0.266	0.204
-742.127	282.159	-0.040	-0.073
-741.112	-200.000	0.007	0.059
-740.098	365.624	-0.181	0.370
-739.083	-67.368	-0.099	-0.039
-738.069	-200.000	-0.011	-0.144
-737.054	-105.587	0.185	0.042
-736.039	-15.708	0.059	0.038
-735.025	-143.582	0.270	0.026
-734.010	-127.875	-0.262	0.038
-732.996	121.817	-0.196	-0.248
-731.981	-151.779	-0.409	0.030
-730.966	-70.734	-0.287	0.110
-729.952	58.896	0.349	-0.348
-728.937	148.122	-0.160	0.219
-727.923	-101.607	-0.107	-0.026
-726.908	84.615	-0.073	-0.081
-725.894	-147.580	-0.425	-0.036
-724.879	800.000	-0.046	-0.154
-723.864	-182.938	0.156	-0.003
-722.850	800.000	-0.059	-0.220
-721.835	800.000	0.013	-0.037
-720.821	159.371	-0.215	0.303
-719.806	-5.463	0.232	0.161
-718.791	-83.302	0.382	0.124
-717.777	-127.851	0.164	0.024
-716.762	252.232	0.189	0.326
-715.748	-19.728	0.016	0.010
-714.733	-200.000	-0.029	-0.160
-713.718	38.624	-0.327	-0.295
-712.704	-72.989	-0.371	-0.138
-711.689	-200.000	0.029	-0.228
-710.675	-200.000	0.051	-0.279
-709.660	-190.406	-0.458	-0.005
-708.645	320.754	0.076	0.147
-707.631	-200.000	0.039	-0.191
-706.616	-200.000	-0.034	-0.269
-705.602	-77.808	-0.154	-0.054
-704.587	155.852	0.137	-0.191
-703.572	-200.000	0.004	-0.061
-702.558	800.000	-0.037	-0.139
-701.543	-134.069	-0.097	-0.012
-700.529	57.430	0.066	-0.066
-699.514	-116.174	-0.111	-0.021
-698.499	800.000	-0.044	0.136
-697.485	800.000	-0.084	0.318
-696.470	365.543	-0.074	-0.152
-695.456	-104.158	-0.209	0.049
-694.441	-118.525	-0.357	-0.064
-693.426	102.604	0.170	-0.201
-692.412	-26.445	-0.065	0.038
-691.397	-86.095	-0.128	-0.040
-690.383	800.000	0.044	0.132
-689.368	800.000	0.025	-0.105
-688.354	-104.470	-0.309	0.072
-687.339	-52.919	0.131	-0.061
-686.324	-200.000	0.259	0.001
-685.310	-124.718	-0.357	-0.056
-684.295	609.362	-0.052	-0.130
-683.281	274.287	-0.162	-0.289
-682.266	-41.340	-0.259	-0.135
-681.251	-200.000	0.023	0.183
-680.237	-82.949	0.154	-0.050
-679.222	321.369	-0.125	-0.241
-678.208	35.878	-0.128	0.114
-677.193	-114.127	0.175	-0.034
-676.178	-111.066	-0.419	-0.087
-675.164	150.113	0.029	0.039
-674.149	-200.000	-0.037	0.385
-673.135	-27.312	0.092	-0.054
-672.120	-112.554	0.115	0.023
-671.105	250.770	-0.068	-0.117
-670.091	300.346	-0.096	-0.178
-669.076	46.971	0.043	0.040
-668.062	-200.000	-0.025	0.372
-667.047	-200.000	-0.029	0.226
-666.032	-200.000	0.009	-0.071
-665.018	-167.009	-0.287	0.012
-664.003	255.400	-0.106	0.183
-662.989	800.000	0.023	0.072
-661.974	27.940	0.141	-0.120
-660.959	774.449	0.055	-0.151
-659.945	226.747	0.193	-0.316
-658.930	-200.000	-0.006	0.146
-657.916	-200.000	0.029	-0.286
-656.901	-200.000	-0.100	-0.478
-655.886	63.093	-0.300	-0.303
-654.872	-14.989	0.065	-0.042
-653.857	26.167	-0.219	0.184
-652.843	-200.000	-0.029	0.146
-651.828	51.543	-0.084	0.081
-650.814	-148.584	-0.472	-0.039
-649.799	-200.000	0.016	-0.081
-648.784	-89.848	-0.287	-0.085
-647.770	29.635	0.083	0.071
-646.755	-147.739	-0.267	0.023
-645.741	-124.653	0.128	0.020
-644.726	23.484	0.222	0.184
-643.711	203.085	0.161	-0.251
-642.697	-47.346	-0.239	-0.117
-641.682	46.825	-0.121	0.114
-640.668	438.062	-0.231	-0.509
-639.653	-200.000	-0.008	-0.154
-638.638	-200.000	0.015	-0.217
-637.624	-94.951	-0.130	-0.035
-636.609	-122.915	0.180	-0.029
-635.595	329.927	0.081	0.157
-634.580	800.000	0.022	-0.066
-633.565	-200.000	-0.036	0.208
-632.551	-200.000	0.029	0.202
-631.536	226.510	-0.056	-0.092
-630.522	800.000	-0.073	-0.203
-629.507	237.638	-0.169	-0.283
-628.492	800.000	0.046	-0.187
-627.478	-200.000	0.001	-0.222
-626.463	-96.851	-0.216	0.057
-625.449	71.114	-0.142	-0.148
-624.434	800.000	0.178	-0.516
-623.419	-200.000	-0.001	-0.298
-622.405	-200.000	-0.023	0.296
-621.390	-74.543	0.219	0.080
-620.376	-200.000	-0.057	-0.331
-619.361	-200.000	0.024	-0.225
-618.346	182.167	-0.084	0.125
-617.332	-157.946	0.071	0.004
-616.317	574.933	-0.040	0.099
-615.303	67.780	0.059	0.061
-614.288	800.000	0.031	-0.132
-613.273	14.893	-0.100	-0.079
-612.259	-200.000	-0.019	0.371
-611.244	102.893	-0.173	0.204
-610.230	332.107	-0.205	0.398
-609.215	77.461	-0.238	0.256
-608.201	-87.256	0.019	0.006
-607.186	-119.999	-0.370	-0.064
-606.171	-200.000	0.000	-0.184
-605.157	178.330	-0.126	0.185
-604.142	158.832	-0.047	-0.066
-603.128	-0.878	-0.229	-0.163
-602.113	800.000	0.025	-0.089
-601.098	-75.153	0.142	0.051
-600.084	-200.000	0.026	-0.396
-599.069	-115.116	0.220	-0.042
-598.055	-200.000	0.007	0.197
-597.040	563.245	-0.122	0.297
-596.025	171.011	-0.091	-0.131
-595.011	-20.386	-0.189	0.117
-593.996	88.090	0.169	-0.189
-592.982	-188.971	0.163	0.002
-591.967	49.352	0.156	0.147
-590.952	-113.873	-0.089	0.017
-589.938	273.747	0.179	0.319
-588.923	-12.994	-0.101	-0.066
-587.909	800.000	0.017	0.056
-586.894	8.815	0.049	-0.037
-585.879	-128.375	0.135	0.019
-584.865	82.058	-0.116	-0.127
-583.850	51.426	0.204	0.195
-582.836	800.000	-0.045	0.159
-581.821	212.168	0.194	0.308
-580.806	-8.002	-0.257	-0.174
-579.792	43.659	-0.144	-0.133
-578.777	-20.130	-0.164	-0.102
-577.763	800.000	-0.116	-0.367
-576.748	-72.182	-0.222	-0.083
-575.733	214.805	-0.025	-0.040
-574.719	21.996	0.119	-0.097
-573.704	13.737	0.152	0.119
-572.690	-26.799	0.337	-0.198
-571.675	-97.671	-0.135	-0.035
-570.661	-93.504	-0.172	0.048
-569.646	-200.000	0.041	-0.301
-568.631	206.267	-0.021	0.033
-567.617	-9.548	0.199	0.134
-566.602	-160.724	0.260	-0.014
-565.588	262.997	0.088	0.153
-564.573	-144.422	-0.420	0.039
-563.558	800.000	0.123	-0.477
-562.544	120.835	-0.093	0.116
-561.529	-13.180	0.357	-0.233
-560.515	78.016	-0.211	-0.227
-559.500	-59.463	-0.138	-0.059
-558.485	-50.894	0.416	0.197
-557.471	-128.703	-0.203	-0.029
-556.456	622.215	-0.039	-0.098
-555.442	126.319	-0.178	0.227
-554.427	-43.735	-0.227	-0.115
-553.412	37.662	0.089	0.079
-552.398	-20.525	-0.148	-0.091
-551.383	-161.371	-0.317	0.016
-550.369	175.603	0.273	-0.398
-549.354	-184.530	0.364	-0.006
-548.339	-188.851	-0.239	-0.003
-547.325	15.759	0.205	-0.162
-546.310	-200.000	-0.009	0.103
-545.296	193.333	-0.296	0.450
-544.281	-71.889	-0.146	0.055
-543.266	-200.000	0.006	0.048
-542.252	9.263	0.344	0.261
-541.237	104.576	0.036	0.042
-540.223	6.113	0.290	0.216
-539.208	-112.711	-0.120	-0.024
-538.193	-69.093	0.269	-0.104
-537.179	-200.000	-0.077	-0.436
-536.164	800.000	-0.033	-0.094
-535.150	760.503	0.068	0.185
-534.135	-56.830	0.333	-0.148
-533.121	-144.264	-0.203	-0.019
-532.106	17.812	0.183	0.146
-531.091	800.000	-0.102	0.396
-530.077	-79.760	-0.290	-0.098
-529.062	-157.852	0.035	0.002
-528.048	-123.535	0.355	-0.057
-527.033	203.402	0.194	0.301
-526.018	62.901	-0.141	0.142
-525.004	9.182	-0.310	-0.235
-523.989	800.000	-0.090	-0.372
-522.975	-62.175	-0.187	0.078
-521.960	800.000	0.086	0.240
-520.945	-102.666	-0.124	-0.030
-519.931	-130.223	-0.153	-0.021
-518.916	-200.000	-0.049	-0.214
-517.902	44.607	0.213	0.197
-516.887	-122.914	0.152	-0.025
-515.872	111.127	0.129	-0.156
-514.858	61.617	0.196	-0.196
-513.843	800.000	0.014	-0.038
-512.829	-200.000	-0.003	-0.190
-511.814	109.791	-0.090	-0.109
-510.799	-138.423	0.180	0.020
-509.785	-58.673	0.379	0.165
-508.770	538.409	-0.212	0.505
-507.756	-200.000	0.071	0.320
-506.741	222.603	0.031	0.051
-505.726	-200.000	-0.008	0.125
-504.712	-117.247	-0.225	0.041
-503.697	-112.088	-0.108	-0.022
-502.683	140.682	0.095	0.125
-501.668	237.109	-0.047	0.078
-500.653	417.714	0.064	-0.137
-499.639	149.655	0.028	0.038
-498.624	-30.697	0.413	-0.234
-497.610	20.545	0.172	0.140
-496.595	-200.000	-0.011	-0.145
-495.581	451.693	-0.041	0.091
-494.566	800.000	-0.074	-0.327
-493.551	29.871	-0.228	-0.195
-492.537	800.000	-0.031	0.088
-491.522	800.000	-0.014	0.055
-490.508	72.465	-0.110	-0.115
-489.493	86.078	-0.174	-0.192
-488.478	89.119	-0.048	0.053
-487.464	-101.606	-0.427	-0.104
-486.449	8.607	0.174	0.131
-485.435	556.631	-0.112	0.271
-484.420	800.000	-0.037	0.161
-483.405	-66.728	0.175	-0.070
-482.391	-94.277	-0.263	-0.072
-481.376	-152.774	0.205	0.015
-480.362	-163.957	0.280	-0.013
-479.347	-52.760	0.080	0.037
-478.332	168.351	0.139	-0.199
-477.318	-71.948	-0.235	-0.087
-476.303	-78.308	0.313	0.108
-475.289	800.000	-0.034	-0.148
-474.274	-44.255	-0.110	0.055
-473.259	-93.914	0.244	0.067
-472.245	-200.000	-0.055	0.278
-471.230	-3.599	0.083	0.058
-470.216	230.454	0.114	0.187
-469.201	203.340	-0.157	0.243
-468.186	-89.372	-0.091	-0.027
-467.172	257.680	-0.122	-0.211
-466.157	251.984	0.180	-0.308
-465.143	-156.123	-0.283	-0.018
-464.128	117.939	-0.164	-0.202
-463.113	141.666	-0.097	-0.128
-462.099	-1.548	-0.034	0.024
-461.084	99.385	-0.085	0.098
-460.070	-200.000	-0.076	-0.392
-459.055	42.834	-0.061	-0.056
-458.040	357.856	-0.074	-0.149
-457.026	800.000	-0.013	-0.044
-456.011	-34.040	0.321	-0.177
-454.997	-200.000	-0.034	0.346
-453.982	-46.593	0.126	-0.062
-452.968	-200.000	-0.014	0.089
-451.953	-36.054	0.138	0.075
-450.938	89.512	0.119	-0.133
-449.924	-126.650	0.250	0.037
-448.909	-110.109	-0.286	-0.060
-447.895	-200.000	0.025	0.406
-446.880	18.622	0.144	0.115
-445.865	-17.310	-0.146	-0.092
-444.851	-112.355	0.197	0.039
-443.836	340.521	-0.146	-0.285
-442.822	-162.988	0.157	0.008
-441.807	122.742	-0.036	0.045
-440.792	-200.000	-0.003	0.226
-439.778	758.887	-0.131	0.356
-438.763	-200.000	-0.032	0.216
-437.749	21.743	-0.099	-0.081
-436.734	-69.785	0.311	-0.119
-435.719	-52.289	0.060	-0.028
-434.705	-100.131	0.119	0.030
-433.690	104.113	-0.267	-0.314
-432.676	-200.000	0.000	0.179
-431.661	-128.727	0.385	-0.054
-430.646	278.322	0.109	0.194
-429.632	130.863	-0.180	0.231
-428.617	-200.000	-0.001	0.099
-427.603	-108.844	0.356	-0.076
-426.588	-143.317	-0.145	-0.014
-425.573	800.000	-0.035	0.123
-424.559	-17.945	0.288	-0.181
-423.544	53.438	0.111	0.106
-422.530	-200.000	-0.042	0.223
-421.515	-103.095	0.196	0.046
-420.500	440.599	-0.082	-0.178
-419.486	-200.000	0.032	-0.279
-418.471	-200.000	0.036	-0.272
-417.457	9.105	-0.093	-0.071
-416.442	92.963	-0.175	-0.198
-415.428	-18.308	0.224	-0.140
-414.413	800.000	0.070	-0.209
-413.398	420.239	-0.046	-0.100
-412.384	-200.000	-0.025	0.175
-411.369	-64.578	-0.088	0.036
-410.355	115.293	0.161	-0.197
-409.340	172.597	0.057	-0.081
-408.325	369.252	-0.104	0.211
-407.311	800.000	0.106	0.355
-406.296	168.197	0.298	-0.423
-405.282	-63.607	-0.031	-0.013
-404.267	-200.000	-0.012	0.272
-403.252	-200.000	0.019	0.120
-402.238	272.567	-0.173	0.305
-401.223	-51.000	-0.099	0.047
-400.209	20.742	-0.072	0.058
-399.194	-106.451	-0.320	0.071
-398.179	75.288	0.150	-0.158
-397.165	-61.047	0.039	0.016
-396.150	-62.423	0.222	0.092
-395.136	-23.892	0.127	0.076
-394.121	9.398	-0.216	0.164
-393.106	763.260	0.026	0.071
-392.092	-200.000	-0.052	-0.265
-391.077	-200.000	-0.074	-0.354
-390.063	-200.000	-0.003	0.116
-389.048	191.471	-0.162	0.244
-388.033	-72.837	0.162	-0.059
-387.019	-40.463	-0.293	-0.152
-386.004	34.928	-0.095	0.083
-384.990	181.604	-0.198	-0.291
-383.975	-53.182	0.231	0.106
-382.960	-200.000	0.009	0.172
-381.946	-200.000	-0.278	0.000
-380.931	-200.000	0.006	0.377
-379.917	800.000	0.108	0.350
-378.902	157.654	0.043	-0.059
-377.888	-25.633	-0.324	0.191
-376.873	456.350	-0.199	0.441
-375.858	-35.298	-0.263	-0.143
-374.844	150.693	0.110	0.149
-373.829	-136.634	-0.182	0.021
-372.815	-98.439	0.384	-0.098
-371.800	183.141	0.036	-0.053
-370.785	-107.537	0.427	0.093
-369.771	-59.876	-0.352	-0.150
-368.756	-157.276	0.219	-0.013
-367.742	-107.274	0.152	0.033
-366.727	-155.971	0.225	-0.014
-365.712	800.000	-0.036	0.154
-364.698	-152.830	-0.493	-0.035
-363.683	210.644	-0.027	0.042
-362.669	-200.000	0.013	0.293
-361.654	-9.007	-0.101	0.068
-360.639	11.530	0.322	-0.246
-359.625	186.135	0.193	0.287
-358.610	160.585	-0.058	-0.081
-357.596	137.389	-0.071	-0.093
-356.581	-200.000	-0.024	0.164
-355.566	6.237	-0.189	0.140
-354.552	-200.000	-0.007	-0.139
-353.537	-157.538	-0.120	0.007
-352.523	800.000	-0.084	0.363
-351.508	139.143	0.111	0.146
-350.493	-72.492	-0.028	-0.010
-349.479	-44.126	0.045	0.022
-348.464	-8.395	0.037	-0.025
-347.450	-68.322	0.102	0.039
-346.435	-123.875	-0.092	-0.015
-345.420	800.000	-0.019	0.060
-344.406	706.485	0.063	-0.167
-343.391	-8.737	-0.133	-0.089
-342.377	800.000	-0.026	0.103
-341.362	-200.000	0.005	0.098
-340.348	622.375	-0.054	0.137
-339.333	245.498	-0.074	-0.125
-338.318	-200.000	-0.040	-0.203
-337.304	-200.000	-0.010	-0.206
-336.289	-21.552	0.285	-0.173
-335.275	241.204	0.150	-0.249
-334.260	-200.000	0.019	0.116
-333.245	366.224	0.136	0.273
-332.231	-94.934	0.078	0.021
-331.216	-200.000	-0.001	0.082
-330.202	56.820	0.118	-0.115
-329.187	-170.417	-0.052	0.002
-328.172	200.111	-0.079	-0.121
-327.158	-113.371	0.225	0.044
-326.143	-66.683	0.014	0.005
-325.129	800.000	-0.046	-0.148
-324.114	-200.000	-0.016	0.428
-323.099	3.366	-0.057	0.041
-322.085	-125.123	-0.315	-0.048
-321.070	-156.281	-0.075	-0.005
-320.056	-200.000	-0.013	-0.239
-319.041	-200.000	0.001	-0.363
-318.026	800.000	0.036	0.104
-317.012	92.097	0.199	-0.223
-315.997	132.297	-0.182	-0.234
-314.983	-139.744	0.279	0.030
-313.968	-104.493	0.198	0.046
-312.953	8.602	0.247	0.185
-311.939	247.642	0.266	0.448
-310.924	-49.313	-0.109	-0.052
-309.910	129.436	0.037	0.047
-308.895	325.831	-0.105	0.200
-307.880	186.620	-0.187	0.277
-306.866	-49.872	0.176	-0.083
-305.851	-77.452	-0.030	0.011
-304.837	42.410	0.120	-0.109
-303.822	800.000	-0.027	-0.099
-302.807	800.000	-0.099	-0.394
-301.793	-200.000	0.000	0.106
-300.778	800.000	-0.022	-0.075
-299.764	-200.000	0.025	-0.150
-298.749	29.037	-0.148	-0.125
-297.735	-102.507	0.342	-0.081
-296.720	147.707	-0.123	0.165
-295.705	-49.163	-0.243	0.116
-294.691	149.833	-0.017	0.023
-293.676	-187.313	0.177	-0.002
-292.662	800.000	-0.072	-0.250
-291.647	-200.000	0.009	-0.117
-290.632	800.000	0.134	-0.524
-289.618	-149.521	-0.326	0.026
-288.603	-200.000	-0.039	-0.362
-287.589	54.766	-0.167	-0.160
-286.574	800.000	0.036	-0.109
-285.559	-23.951	-0.115	0.069
-284.545	-103.264	0.310	-0.073
-283.530	-200.000	0.074	-0.432
-282.516	38.339	-0.047	0.042
-281.501	-123.717	-0.225	-0.035
-280.486	800.000	0.080	0.219
-279.472	567.443	-0.025	0.061
-278.457	12.502	0.372	0.286
-277.443	-148.922	0.068	-0.005
-276.428	-108.658	-0.095	-0.020
-275.413	-113.150	-0.083	-0.016
-274.399	800.000	-0.020	0.087
-273.384	-200.000	-0.037	-0.353
-272.370	629.225	0.132	0.331
-271.355	800.000	0.025	-0.106
-270.340	57.698	-0.145	0.141
-269.326	-144.039	0.129	0.012
-268.311	-98.971	0.100	0.025
-267.297	195.930	-0.146	-0.221
-266.282	175.976	-0.081	0.116
-265.267	-200.000	0.004	0.433
-264.253	339.858	-0.094	0.182
-263.238	73.104	-0.148	-0.153
-262.224	-200.000	0.060	0.302
-261.209	45.627	0.199	0.182
-260.195	1.628	0.134	0.096
-259.180	-38.865	-0.131	-0.069
-258.165	-114.333	-0.142	-0.027
-257.151	-200.000	-0.042	0.203
-256.136	-129.692	0.121	-0.017
-255.122	116.010	0.216	-0.262
-254.107	-200.000	-0.016	0.105
-253.092	-58.050	0.151	-0.065
-252.078	-5.120	0.027	-0.019
-251.063	-4.965	-0.150	0.103
-250.049	-66.676	-0.164	0.064
-249.034	-74.029	-0.049	-0.018
-248.019	-200.000	-0.024	-0.200
-247.005	-200.000	-0.009	-0.452
-245.990	-200.000	-0.025	0.202
-244.976	159.588	0.175	0.241
-243.961	140.096	-0.143	-0.187
-242.946	-127.596	0.104	0.015
-241.932	249.909	0.074	0.125
-240.917	-83.141	0.213	0.068
-239.903	800.000	-0.133	-0.556
-238.888	113.458	-0.076	0.091
-237.873	-38.878	-0.322	-0.169
-236.859	-139.916	0.281	0.030
-235.844	54.061	0.159	-0.152
-234.830	375.789	-0.062	-0.125
-233.815	-31.520	0.289	-0.161
-232.800	-41.548	-0.459	0.234
-231.786	800.000	0.074	0.210
-230.771	561.723	0.159	-0.382
-229.757	-175.320	-0.301	0.008
-228.742	36.166	-0.378	0.330
-227.727	-62.751	0.047	-0.019
-226.713	228.758	0.177	0.286
-225.698	-30.351	-0.140	-0.079
-224.684	-102.736	0.141	-0.033
-223.669	287.068	0.088	-0.158
-222.655	31.054	0.131	0.111
-221.640	-11.975	-0.257	-0.167
-220.625	652.428	0.173	-0.440
-219.611	-35.887	0.067	0.036
-218.596	199.000	-0.034	-0.051
-217.582	-200.000	-0.018	-0.097
-216.567	296.485	0.080	0.145
-215.552	580.892	0.148	0.361
-214.538	-54.170	0.096	0.043
-213.523	800.000	-0.024	0.097
-212.509	-176.507	0.244	-0.006
-211.494	-200.000	-0.268	-0.001
-210.479	-113.881	-0.321	0.062
-209.465	-35.067	0.225	0.122
-208.450	-141.532	-0.312	0.031
-207.436	28.539	-0.107	-0.090
-206.421	-53.427	0.085	0.039
-205.406	-200.000	-0.036	-0.253
-204.392	-36.467	-0.146	-0.078
-203.377	-200.000	-0.017	0.146
-202.363	-34.027	-0.092	0.050
-201.348	800.000	-0.067	0.194
-200.333	93.556	-0.075	-0.084
-199.319	800.000	0.046	-0.143
-198.304	-200.000	-0.009	0.103
-197.290	-200.000	0.069	0.424
-196.275	-200.000	-0.008	0.224
-195.260	-50.018	0.231	-0.109
-194.246	28.046	0.137	0.115
-193.231	106.738	0.181	-0.213
-192.217	-93.477	0.179	-0.049
-191.202	-84.237	-0.222	-0.070
-190.187	-200.000	-0.002	0.072
-189.173	-200.000	0.031	-0.142
-188.158	-42.149	-0.106	0.054
-187.144	291.878	0.179	-0.322
-186.129	74.076	0.139	0.144
-185.114	190.826	0.239	-0.356
-184.100	-200.000	-0.023	-0.122
-183.085	-69.714	0.367	0.139
-182.071	800.000	-0.085	0.256
-181.056	-200.000	0.020	-0.112
-180.042	86.567	-0.200	0.218
-179.027	-8.853	0.175	0.116
-178.012	800.000	0.091	-0.303
-176.998	-200.000	0.009	0.232
-175.983	-192.033	-0.342	-0.003
-174.969	-41.940	0.200	-0.101
-173.954	210.128	-0.224	0.348
-172.939	-200.000	-0.012	0.080
-171.925	264.719	-0.110	0.189
-170.910	-25.745	-0.122	0.071
-169.896	50.071	-0.361	-0.338
-168.881	-19.849	0.057	0.035
-167.866	-200.000	0.012	-0.327
-166.852	-83.613	-0.122	0.039
-165.837	-117.813	0.329	0.058
-164.823	-137.444	-0.099	-0.011
-163.808	-55.079	0.161	0.072
-162.793	-179.137	0.264	0.006
-161.779	133.460	-0.104	-0.133
-160.764	11.614	0.031	-0.023
-159.750	105.006	-0.185	0.217
-158.735	-46.445	0.095	-0.046
-157.720	-75.584	-0.151	0.053
-156.706	15.417	-0.168	0.130
-155.691	85.281	-0.092	0.100
-154.677	96.006	-0.265	0.300
-153.662	-155.566	0.205	-0.013
-152.647	-200.000	-0.021	0.218
-151.633	800.000	0.098	0.320
-150.618	-111.279	0.087	0.018
-149.604	-200.000	-0.005	-0.177
-148.589	-200.000	-0.004	-0.106
-147.574	-43.483	0.107	-0.054
-146.560	257.935	-0.069	-0.118
-145.545	800.000	-0.063	0.174
-144.531	-134.677	0.306	-0.037
-143.516	-132.133	0.378	0.048
-142.502	-136.184	-0.154	0.018
-141.487	-83.531	0.316	0.100
-140.472	-125.186	0.290	-0.044
-139.458	-65.355	0.243	0.097
-138.443	800.000	0.091	0.369
-137.429	-200.000	-0.150	-0.000
-136.414	-200.000	-0.021	0.370
-135.399	42.119	-0.271	-0.243
-134.385	-64.194	0.153	0.062
-133.370	-64.139	0.271	0.109
-132.356	202.007	0.085	-0.130
-131.341	-200.000	0.001	0.045
-130.326	-200.000	-0.018	0.194
-129.312	152.112	0.040	0.054
-128.297	-200.000	0.008	-0.244
-127.283	19.774	0.133	0.106
-126.268	-15.984	-0.310	-0.195
-125.253	113.275	-0.096	0.116
-124.239	-200.000	-0.014	-0.102
-123.224	-152.456	-0.361	0.026
