DTS Sentinel unit serial number:	SN413079Multiplexer serial number:	ORYXHardware model number:	OX4-SRSoftware version number:	ORYX F/W v4.00 Oryx Data Collector v3.7.2.0data status	okinstallation	princeton_trtdifferential loss correction	single-endedforward channel	channel 2reverse channel	N/Adate	2019/09/14time	20:55:35forward acquisition time	60.00reverse acquisition time	0.00gamma	496.2192k internal	0.2323k external	0.2323temperature offset calibration	1.0083default loss term (dB/km)	0.3790temperature slope calibration	1.0000multiplexer offset coefficient	1.0000multiplexer slope coefficient	1.0000fibre end	0.00T internal ref (°C)	33.20T ext. ref 1 (°C)	4.78T ext. ref 2 (°C)	27.93length (m)	temperature (°C)	Stokes	anti-Stokes-747.200	-200.000	0.004	0.036
-746.185	-0.438	0.081	0.058
-745.171	-134.594	-0.208	-0.026
-744.156	-52.880	-0.216	0.100
-743.142	-200.000	0.015	0.365
-742.127	37.452	-0.088	0.079
-741.112	800.000	0.060	0.256
-740.098	-37.701	0.091	-0.049
-739.083	-146.414	0.244	-0.022
-738.069	38.879	-0.185	0.167
-737.054	-102.462	0.159	0.038
-736.039	684.629	-0.059	-0.156
-735.025	-200.000	-0.054	0.356
-734.010	329.042	-0.143	0.278
-732.996	800.000	-0.026	0.100
-731.981	118.315	0.089	-0.111
-730.966	115.567	-0.043	-0.053
-729.952	426.439	-0.056	-0.122
-728.937	-200.000	-0.061	-0.619
-727.923	-200.000	0.009	-0.196
-726.908	366.761	-0.187	0.380
-725.894	53.540	0.017	-0.017
-724.879	-147.062	0.319	-0.028
-723.864	322.175	0.127	-0.244
-722.850	800.000	-0.079	-0.223
-721.835	682.911	0.109	-0.286
-720.821	-161.198	-0.277	-0.015
-719.806	-59.576	0.321	-0.139
-718.791	-29.199	0.075	-0.044
-717.777	201.050	-0.211	-0.327
-716.762	143.509	-0.154	0.207
-715.748	-200.000	-0.037	-0.277
-714.733	123.524	0.114	-0.144
-713.718	-200.000	0.091	0.405
-712.704	147.465	-0.100	-0.136
-711.689	-69.042	0.184	-0.071
-710.675	227.602	-0.174	-0.285
-709.660	-58.879	0.021	0.009
-708.645	112.366	-0.039	-0.047
-707.631	-94.319	-0.207	-0.057
-706.616	-25.394	0.335	0.200
-705.602	-99.205	0.162	-0.041
-704.587	29.329	0.094	0.080
-703.572	-7.452	-0.073	-0.050
-702.558	199.550	0.042	-0.066
-701.543	-36.819	0.319	0.173
-700.529	-126.386	-0.383	-0.058
-699.514	-86.128	0.306	0.095
-698.499	729.637	-0.113	0.305
-697.485	-71.885	-0.451	-0.169
-696.470	800.000	-0.011	-0.046
-695.456	800.000	-0.051	-0.167
-694.441	-4.722	-0.076	-0.053
-693.426	-121.616	0.272	-0.045
-692.412	66.262	-0.223	0.228
-691.397	-40.190	0.100	-0.052
-690.383	-200.000	-0.020	-0.184
-689.368	25.903	0.203	-0.171
-688.354	58.209	0.235	-0.232
-687.339	800.000	-0.034	-0.119
-686.324	-52.687	-0.225	-0.105
-685.310	44.486	0.257	-0.238
-684.295	-24.293	-0.232	-0.140
-683.281	480.424	-0.099	0.225
-682.266	-8.526	-0.043	0.029
-681.251	38.322	-0.140	-0.126
-680.237	-74.902	0.075	0.027
-679.222	800.000	0.047	0.156
-678.208	-78.074	-0.105	-0.036
-677.193	-200.000	0.024	-0.130
-676.178	-63.189	0.211	-0.088
-675.164	-29.431	-0.169	0.097
-674.149	-39.964	0.062	0.033
-673.135	-156.769	-0.091	0.006
-672.120	-28.476	-0.107	0.062
-671.105	183.506	-0.108	-0.161
-670.091	101.429	0.037	-0.044
-669.076	80.652	0.023	-0.025
-668.062	-151.393	-0.414	-0.031
-667.047	45.349	0.150	-0.139
-666.032	-200.000	0.014	0.066
-665.018	61.411	0.182	-0.182
-664.003	131.540	-0.100	0.130
-662.989	1.094	0.248	-0.179
-661.974	441.962	0.167	-0.367
-660.959	106.373	-0.153	-0.182
-659.945	228.682	0.137	0.225
-658.930	-16.867	0.269	0.171
-657.916	-51.042	-0.151	-0.071
-656.901	-145.746	0.301	-0.027
-655.886	-143.586	0.240	0.023
-654.872	-200.000	-0.027	-0.210
-653.857	-68.830	-0.060	-0.023
-652.843	-45.045	0.131	-0.065
-651.828	-112.099	0.298	0.060
-650.814	118.470	0.089	-0.111
-649.799	800.000	0.162	-0.471
-648.784	-150.715	-0.157	-0.012
-647.770	46.406	0.280	-0.261
-646.755	-200.000	0.002	-0.227
-645.741	63.485	0.149	-0.151
-644.726	-155.303	0.401	0.026
-643.711	414.719	-0.045	-0.096
-642.697	-120.403	-0.268	0.046
-641.682	45.672	-0.153	-0.142
-640.668	-200.000	-0.030	-0.153
-639.653	-6.414	-0.131	0.090
-638.638	-103.291	-0.206	-0.049
-637.624	73.365	-0.086	-0.091
-636.609	-87.168	0.245	0.075
-635.595	800.000	-0.029	-0.096
-634.580	658.468	0.040	-0.102
-633.565	245.389	0.206	0.348
-632.551	800.000	0.094	-0.357
-631.536	65.950	0.236	-0.241
-630.522	-76.160	-0.076	-0.027
-629.507	-118.874	-0.145	-0.026
-628.492	32.394	0.112	0.098
-627.478	48.226	0.134	0.126
-626.463	-200.000	-0.086	-0.462
-625.449	225.457	0.141	0.229
-624.434	788.675	-0.112	0.310
-623.419	-200.000	0.226	-0.001
-622.405	-186.984	-0.096	0.001
-621.390	-75.154	-0.064	-0.023
-620.376	800.000	-0.081	-0.326
-619.361	-47.681	0.187	-0.091
-618.346	-200.000	0.014	-0.161
-617.332	247.514	0.125	0.212
-616.317	-20.598	-0.107	0.066
-615.303	-75.039	-0.214	0.077
-614.288	-200.000	-0.011	-0.253
-613.273	-200.000	-0.021	-0.276
-612.259	-200.000	-0.029	0.206
-611.244	-66.464	0.127	0.051
-610.230	-130.705	0.094	-0.013
-609.215	800.000	0.086	0.299
-608.201	-78.083	-0.200	0.069
-607.186	-188.607	-0.108	-0.001
-606.171	-88.996	-0.236	0.070
-605.157	76.093	0.366	-0.389
-604.142	465.499	-0.210	-0.472
-603.128	-54.187	0.116	-0.053
-602.113	94.247	0.136	0.155
-601.098	-1.089	0.207	0.147
-600.084	4.268	0.358	0.263
-599.069	-155.861	0.280	0.018
-598.055	388.353	0.099	0.207
-597.040	-124.580	-0.266	0.042
-596.025	-22.763	-0.128	-0.078
-595.011	-152.695	-0.290	0.021
-593.996	-34.806	-0.192	0.105
-592.982	-17.261	0.125	-0.079
-591.967	-200.000	0.013	-0.210
-590.952	-200.000	-0.010	-0.198
-589.938	-200.000	0.051	-0.355
-588.923	15.082	0.327	0.257
-587.909	71.031	0.085	0.089
-586.894	400.390	-0.190	0.400
-585.879	-142.854	-0.072	-0.007
-584.865	46.801	0.120	-0.112
-583.850	-95.720	0.240	-0.064
-582.836	-48.158	0.214	-0.104
-581.821	-200.000	0.043	-0.298
-580.806	800.000	-0.033	-0.105
-579.792	76.569	0.126	-0.134
-578.777	-200.000	0.002	-0.377
-577.763	24.727	-0.071	0.059
-576.748	-200.000	-0.026	0.117
-575.733	800.000	0.043	-0.183
-574.719	800.000	0.006	0.020
-573.704	-77.589	-0.408	0.142
-572.690	12.423	-0.194	0.150
-571.675	312.242	-0.098	0.185
-570.661	362.160	0.140	0.282
-569.646	-60.804	0.291	-0.124
-568.631	-200.000	-0.017	-0.100
-567.617	-14.317	-0.190	0.122
-566.602	-200.000	0.025	0.176
-565.588	-97.897	0.340	0.088
-564.573	11.497	-0.238	0.183
-563.558	47.361	-0.285	-0.266
-562.544	-37.711	0.132	-0.071
-561.529	-123.097	0.246	0.040
-560.515	800.000	-0.044	0.159
-559.500	-97.132	0.153	0.040
-558.485	137.974	-0.095	0.125
-557.471	-162.849	0.194	-0.009
-556.456	-200.000	-0.010	-0.273
-555.442	-39.483	-0.193	-0.101
-554.427	-200.000	-0.005	-0.189
-553.412	-90.448	0.379	-0.110
-552.398	-23.166	-0.290	0.175
-551.383	360.240	0.104	-0.209
-550.369	2.202	0.031	-0.022
-549.354	-200.000	-0.005	-0.241
-548.339	1.758	-0.125	0.090
-547.325	261.834	0.146	0.253
-546.310	-110.690	-0.237	0.049
-545.296	800.000	0.011	0.032
-544.281	-119.033	0.316	-0.055
-543.266	251.678	-0.063	-0.108
-542.252	-200.000	-0.039	-0.446
-541.237	336.612	0.097	0.189
-540.223	-200.000	0.010	0.082
-539.208	710.556	0.110	0.292
-538.193	169.846	-0.133	-0.190
-537.179	-39.666	0.197	0.103
-536.164	50.430	0.074	0.070
-535.150	432.043	0.044	0.095
-534.135	94.516	-0.100	-0.114
-533.121	303.371	0.112	-0.207
-532.106	-124.816	-0.140	0.022
-531.091	30.921	-0.218	-0.187
-530.077	224.512	0.146	0.236
-529.062	-32.912	-0.438	0.243
-528.048	-141.765	-0.281	-0.028
-527.033	-2.296	-0.164	0.115
-526.018	-82.728	0.230	0.075
-525.004	-200.000	-0.061	0.401
-523.989	121.983	-0.207	0.259
-522.975	438.857	-0.189	-0.412
-521.960	-83.933	-0.093	0.030
-520.945	-83.562	0.154	0.049
-519.931	281.306	0.076	-0.136
-518.916	-54.446	0.067	0.030
-517.902	-175.830	-0.194	-0.005
-516.887	272.642	-0.152	-0.268
-515.872	76.213	0.108	0.114
-514.858	92.496	-0.040	0.045
-513.843	-101.569	0.106	-0.026
-512.829	7.370	-0.193	-0.144
-511.814	-92.123	-0.278	-0.079
-510.799	77.838	-0.220	0.235
-509.785	27.087	0.238	0.200
-508.770	-55.930	0.266	-0.119
-507.756	-200.000	0.044	-0.230
-506.741	64.307	-0.170	0.171
-505.726	800.000	0.041	-0.134
-504.712	-200.000	0.003	0.071
-503.697	800.000	0.024	-0.087
-502.683	296.948	-0.027	-0.049
-501.668	-126.873	0.431	-0.063
-500.653	140.549	-0.027	-0.036
-499.639	-76.403	-0.134	0.047
-498.624	148.911	-0.238	0.322
-497.610	-200.000	-0.009	0.086
-496.595	-200.000	-0.095	-0.418
-495.581	-30.277	0.080	-0.046
-494.566	-119.997	-0.200	-0.034
-493.551	284.758	0.077	0.138
-492.537	414.116	-0.074	0.158
-491.522	-59.785	-0.231	-0.099
-490.508	-103.421	0.239	-0.056
-489.493	94.937	-0.146	0.166
-488.478	-43.952	0.199	-0.100
-487.464	800.000	0.048	0.188
-486.449	67.263	-0.103	0.105
-485.435	800.000	0.014	0.055
-484.420	800.000	0.066	0.280
-483.405	429.814	0.085	0.184
-482.391	-45.094	-0.168	0.083
-481.376	-145.667	-0.709	0.063
-480.362	626.293	0.108	0.273
-479.347	471.910	-0.104	0.233
-478.332	7.570	-0.064	0.048
-477.318	694.245	-0.082	0.216
-476.303	81.905	0.141	0.152
-475.289	-57.797	0.263	-0.115
-474.274	-57.379	-0.094	0.041
-473.259	-148.442	-0.087	-0.007
-472.245	208.111	0.229	0.357
-471.230	800.000	0.101	0.293
-470.216	339.875	-0.059	-0.115
-469.201	-200.000	-0.013	0.336
-468.186	-129.498	0.565	-0.078
-467.172	0.277	0.172	0.122
-466.157	-49.284	0.200	0.095
-465.143	179.525	-0.261	0.382
-464.128	486.918	-0.046	-0.104
-463.113	-4.260	0.118	0.082
-462.099	82.424	0.120	0.130
-461.084	800.000	0.074	0.302
-460.070	123.144	-0.191	-0.239
-459.055	-114.214	-0.266	-0.051
-458.040	-161.324	0.263	0.014
-457.026	800.000	-0.120	-0.445
-456.011	800.000	0.074	0.234
-454.997	-200.000	0.005	0.066
-453.982	-80.079	0.036	0.012
-452.968	-31.987	0.325	0.182
-451.953	-7.856	-0.119	-0.080
-450.938	-97.420	0.361	0.094
-449.924	-23.010	-0.180	-0.108
-448.909	-82.734	0.246	0.079
-447.895	143.795	-0.122	-0.163
-446.880	-40.776	-0.076	0.039
-445.865	351.180	-0.063	-0.125
-444.851	800.000	-0.022	-0.079
-443.836	129.399	0.152	0.193
-442.822	-200.000	0.020	0.205
-441.807	9.126	-0.216	0.163
-440.792	164.492	-0.231	0.325
-439.778	131.203	-0.106	-0.136
-438.763	800.000	0.110	0.331
-437.749	-200.000	-0.338	-0.001
-436.734	800.000	0.091	-0.348
-435.719	-148.595	0.102	-0.008
-434.705	-200.000	0.002	0.023
-433.690	-101.908	0.354	0.085
-432.676	-56.851	0.093	0.041
-431.661	-200.000	-0.007	-0.041
-430.646	-200.000	0.010	-0.055
-429.632	344.794	0.158	0.309
-428.617	214.101	-0.025	-0.039
-427.603	-131.431	-0.243	-0.032
-426.588	800.000	-0.034	-0.121
-425.573	139.287	0.097	0.127
-424.559	-200.000	-0.003	-0.121
-423.544	-23.384	-0.242	-0.145
-422.530	-200.000	0.031	-0.138
-421.515	800.000	0.015	-0.052
-420.500	800.000	0.060	-0.186
-419.486	225.784	-0.107	-0.173
-418.471	62.805	-0.212	-0.211
-417.457	-27.267	-0.294	-0.171
-416.442	-160.228	-0.404	0.022
-415.428	-168.681	0.306	-0.012
-414.413	82.382	0.162	0.175
-413.398	-41.765	-0.197	-0.101
-412.384	-132.592	-0.148	-0.019
-411.369	227.660	0.069	0.112
-410.355	-141.544	0.367	-0.037
-409.340	-77.354	0.242	0.084
-408.325	-137.949	0.276	0.031
-407.311	-200.000	-0.019	0.160
-406.296	-101.175	-0.118	0.029
-405.282	-30.156	-0.311	0.176
-404.267	-188.214	0.234	0.003
-403.252	-4.644	0.097	-0.067
-402.238	351.566	0.094	-0.185
-401.223	11.800	0.064	0.049
-400.209	90.920	0.114	0.128
-399.194	203.566	-0.079	-0.121
-398.179	-77.218	-0.100	0.035
-397.165	-172.149	-0.504	0.016
-396.150	105.677	-0.096	0.113
-395.136	-32.976	-0.139	0.077
-394.121	-107.007	0.500	0.110
-393.106	53.195	0.290	-0.277
-392.092	-200.000	0.049	-0.252
-391.077	-49.008	0.189	0.090
-390.063	-69.118	0.095	0.036
-389.048	800.000	0.057	-0.234
-388.033	-134.328	-0.088	0.011
-387.019	17.601	-0.272	0.215
-386.004	725.789	-0.093	0.246
-384.990	-78.901	-0.126	-0.043
-383.975	7.967	-0.157	-0.117
-382.960	-200.000	0.058	-0.302
-381.946	800.000	-0.094	-0.291
-380.931	-200.000	-0.029	0.181
-379.917	-50.769	0.227	-0.106
-378.902	-90.442	-0.337	0.097
-377.888	217.281	0.095	0.151
-376.873	262.772	0.048	-0.082
-375.858	75.554	0.239	0.251
-374.844	-29.370	0.119	-0.068
-373.829	-38.632	-0.169	0.089
-372.815	-96.533	0.250	-0.066
-371.800	595.848	0.101	-0.250
-370.785	206.597	-0.123	-0.191
-369.771	-71.976	0.309	-0.114
-368.756	390.935	0.078	0.161
-367.742	96.003	0.122	-0.139
-366.727	0.870	0.051	0.036
-365.712	-115.431	-0.168	-0.031
-364.698	-99.438	-0.398	-0.100
-363.683	-200.000	-0.002	0.201
-362.669	-200.000	-0.022	0.421
-361.654	602.740	0.184	0.455
-360.639	-23.523	0.016	0.010
-359.625	211.247	-0.099	0.154
-358.610	103.959	-0.160	0.187
-357.596	569.281	0.119	-0.287
-356.581	-62.063	0.249	-0.103
-355.566	-200.000	0.028	0.167
-354.552	82.892	-0.190	0.206
-353.537	102.296	-0.134	0.156
-352.523	800.000	0.043	-0.163
-351.508	-200.000	0.022	-0.097
-350.493	-200.000	0.042	-0.304
-349.479	-16.498	-0.362	-0.228
-348.464	-15.720	-0.267	-0.169
-347.450	-117.643	-0.012	0.002
-346.435	468.465	0.100	0.224
-345.420	-200.000	0.014	-0.199
-344.406	-75.384	0.332	-0.118
-343.391	-136.932	0.190	-0.022
-342.377	-102.808	0.209	-0.049
-341.362	-25.136	-0.293	0.172
-340.348	-59.789	0.148	0.063
-339.333	82.698	0.260	0.281
-338.318	-97.091	-0.341	-0.089
-337.304	-105.954	-0.478	-0.107
-336.289	126.468	-0.118	-0.149
-335.275	653.788	0.068	-0.173
-334.260	680.416	-0.078	0.202
-333.245	11.388	-0.295	0.225
-332.231	304.221	0.026	-0.048
-331.216	-200.000	-0.058	-0.288
-330.202	107.633	0.166	0.197
-329.187	262.288	0.297	0.512
-328.172	230.209	-0.152	0.247
-327.158	-167.003	-0.325	-0.013
-326.143	-57.563	-0.322	0.140
-325.129	-0.975	-0.160	-0.113
-324.114	-99.434	0.220	0.055
-323.099	309.831	0.193	-0.358
-322.085	-51.907	-0.128	0.059
-321.070	800.000	0.069	0.266
-320.056	51.131	-0.019	0.018
-319.041	253.009	0.133	-0.225
-318.026	800.000	-0.039	0.135
-317.012	608.549	0.128	-0.317
-315.997	-200.000	-0.004	-0.080
-314.983	-78.958	-0.174	0.059
-313.968	86.360	-0.102	0.111
-312.953	118.703	0.146	0.179
-311.939	800.000	0.047	0.195
-310.924	265.636	0.061	0.106
-309.910	-106.875	0.105	0.023
-308.895	-22.810	-0.065	-0.039
-307.880	50.426	0.171	0.161
-306.866	125.652	-0.108	0.136
-305.851	124.285	-0.157	-0.196
-304.837	-65.274	0.092	-0.037
-303.822	737.080	-0.066	-0.175
-302.807	-107.502	0.109	0.024
-301.793	-200.000	-0.003	-0.157
-300.778	53.203	-0.125	0.119
-299.764	-55.048	0.411	-0.184
-298.749	-200.000	0.080	-0.490
-297.735	-200.000	-0.020	-0.329
-296.720	-110.862	0.152	0.031
-295.705	233.476	0.174	0.284
-294.691	-140.020	0.042	0.004
-293.676	-145.436	-0.073	-0.007
-292.662	-37.688	0.082	-0.043
-291.647	171.985	0.200	-0.285
-290.632	-200.000	0.009	-0.103
-289.618	426.173	0.210	0.448
-288.603	126.308	-0.090	-0.113
-287.589	-200.000	0.053	-0.464
-286.574	293.689	-0.033	-0.060
-285.559	694.067	-0.130	0.339
-284.545	-83.013	-0.328	0.105
-283.530	-145.571	0.157	0.014
-282.516	800.000	-0.039	0.146
-281.501	-200.000	0.098	-0.000
-280.486	304.729	-0.028	0.052
-279.472	59.373	-0.060	0.059
-278.457	160.055	-0.176	0.243
-277.443	446.931	0.117	0.256
-276.428	189.601	0.087	-0.130
-275.413	62.708	0.102	0.101
-274.399	-200.000	0.027	-0.208
-273.384	544.236	0.086	0.204
-272.370	-133.855	0.321	-0.040
-271.355	800.000	0.044	0.171
-270.340	90.236	-0.175	-0.194
-269.326	9.016	0.125	0.093
-268.311	-98.085	-0.181	0.046
-267.297	800.000	-0.132	0.368
-266.282	-0.731	-0.356	-0.250
-265.267	-129.625	0.184	0.025
-264.253	-53.481	-0.158	-0.071
-263.238	53.213	-0.092	0.087
-262.224	-99.725	-0.032	-0.008
-261.209	800.000	-0.052	-0.224
-260.195	41.051	0.119	-0.107
-259.180	-200.000	-0.043	0.255
-258.165	250.213	0.238	0.401
-257.151	800.000	-0.059	-0.235
-256.136	-60.705	-0.286	0.120
-255.122	19.233	-0.021	0.016
-254.107	-200.000	0.042	-0.309
-253.092	309.455	-0.103	-0.190
-252.078	-6.181	-0.090	-0.061
-251.063	521.770	-0.107	-0.248
-250.049	800.000	0.073	-0.314
-249.034	10.188	0.148	-0.111
-248.019	47.088	0.090	-0.083
-247.005	-130.196	0.418	0.056
-245.990	-200.000	0.014	0.120
-244.976	800.000	0.024	-0.066
-243.961	800.000	0.119	-0.434
-242.946	-21.788	-0.268	0.161
-241.932	-200.000	-0.032	0.198
-240.917	55.315	0.309	0.296
-239.903	-51.257	-0.062	-0.029
-238.888	27.766	-0.211	-0.176
-237.873	-200.000	0.044	-0.279
-236.859	-200.000	-0.059	0.292
-235.844	523.407	0.049	0.114
-234.830	800.000	0.054	-0.165
-233.815	117.573	-0.108	-0.131
-232.800	-32.973	-0.130	0.071
-231.786	-141.576	-0.178	0.018
-230.771	800.000	-0.035	-0.103
-229.757	39.471	0.328	-0.291
-228.742	-107.539	0.132	-0.029
-227.727	-93.151	0.358	-0.098
-226.713	-30.142	0.192	0.108
-225.698	-76.046	-0.070	0.025
-224.684	43.309	0.128	0.116
-223.669	-200.000	0.000	-0.161
-222.655	379.784	0.088	-0.179
-221.640	800.000	0.057	-0.187
-220.625	-200.000	0.007	-0.120
-219.611	-200.000	-0.056	0.356
-218.596	-14.930	0.187	-0.118
-217.582	179.766	-0.143	-0.207
-216.567	93.591	-0.127	-0.142
-215.552	189.285	0.211	-0.313
-214.538	800.000	-0.137	-0.454
-213.523	21.626	-0.045	0.036
-212.509	190.936	-0.186	-0.277
-211.494	-36.870	-0.279	0.148
-210.479	673.594	-0.027	-0.069
-209.465	432.921	0.143	0.307
-208.450	-52.271	-0.205	-0.094
-207.436	-91.041	-0.540	-0.153
-206.421	-124.069	0.348	-0.054
-205.406	622.692	0.064	0.159
-204.392	193.003	-0.222	0.332
-203.377	-60.691	0.333	-0.139
-202.363	124.716	0.056	0.070
-201.348	287.892	0.138	0.248
-200.333	-57.805	0.180	-0.078
-199.319	168.527	-0.123	0.173
-198.304	-78.688	0.326	-0.110
-197.290	110.614	-0.183	0.217
-196.275	89.777	-0.291	0.322
-195.260	800.000	-0.017	0.059
-194.246	115.890	-0.066	0.079
-193.231	-132.658	-0.176	-0.022
-192.217	455.715	-0.040	-0.087
-191.202	-200.000	-0.034	-0.166
-190.187	-73.014	0.250	-0.091
-189.173	-135.384	-0.126	0.015
-188.158	222.119	-0.055	-0.087
-187.144	-112.702	-0.282	-0.055
-186.129	-119.506	-0.177	0.030
-185.114	-37.299	-0.080	0.042
-184.100	800.000	0.059	-0.166
-183.085	-97.642	-0.166	-0.043
-182.071	11.535	0.205	0.155
-181.056	168.689	-0.208	-0.292
-180.042	66.265	-0.217	-0.218
-179.027	-200.000	-0.013	0.102
-178.012	-161.248	-0.153	-0.008
-176.998	-77.598	0.221	-0.076
-175.983	171.750	-0.159	0.225
-174.969	39.103	-0.165	-0.145
-173.954	148.641	0.088	-0.118
-172.939	652.153	0.061	0.153
-171.925	67.170	0.114	-0.115
-170.910	-200.000	-0.040	0.221
-169.896	-200.000	-0.030	0.157
-168.881	564.097	0.041	0.098
-167.866	-94.059	0.183	-0.050
-166.852	-200.000	-0.006	0.097
-165.837	-38.908	-0.106	-0.055
-164.823	67.322	-0.419	0.422
-163.808	-21.506	0.153	-0.092
-162.793	437.507	-0.058	-0.124
-161.779	800.000	-0.067	0.219
-160.764	115.119	0.059	0.071
-159.750	-141.966	0.012	0.001
-158.735	-200.000	0.014	-0.177
-157.720	-151.867	-0.234	0.017
-156.706	-89.949	-0.189	0.054
-155.691	-94.718	-0.195	-0.052
-154.677	-200.000	0.008	-0.244
-153.662	-200.000	0.046	0.378
-152.647	131.347	0.286	-0.362
-151.633	15.794	0.177	0.137
-150.618	-40.814	-0.030	0.015
-149.604	532.238	0.060	-0.139
-148.589	-200.000	-0.056	-0.407
-147.574	92.800	0.083	0.093
-146.560	800.000	-0.134	-0.461
-145.545	53.733	-0.060	-0.057
-144.531	-18.892	-0.162	-0.100
-143.516	800.000	0.059	-0.231
-142.502	-200.000	-0.007	-0.213
-141.487	-78.912	0.060	0.020
-140.472	108.918	-0.162	0.192
-139.458	76.145	0.149	0.156
-138.443	-10.520	0.232	0.152
-137.429	435.350	0.119	-0.255
-136.414	-108.248	0.143	0.030
-135.399	-200.000	-0.001	-0.058
-134.385	-145.007	0.327	-0.029
-133.370	800.000	-0.042	0.130
-132.356	322.214	0.180	-0.338
-131.341	-92.646	0.048	0.013
-130.326	800.000	-0.136	-0.510
-129.312	800.000	0.123	-0.412
-128.297	-109.499	-0.074	-0.015
-127.283	125.971	-0.092	-0.115
-126.268	-200.000	-0.015	-0.146
-125.253	237.694	-0.077	0.127
-124.239	137.277	-0.266	0.343
-123.224	315.118	-0.078	-0.144
-122.210	241.360	0.096	-0.157
-121.195	-13.188	0.304	-0.195
