DTS Sentinel unit serial number:	SN413079Multiplexer serial number:	ORYXHardware model number:	OX4-SRSoftware version number:	ORYX F/W v4.00 Oryx Data Collector v3.7.2.0data status	okinstallation	princeton_trtdifferential loss correction	single-endedforward channel	channel 2reverse channel	N/Adate	2019/09/15time	05:23:34forward acquisition time	60.00reverse acquisition time	0.00gamma	496.2192k internal	0.2326k external	0.2326temperature offset calibration	1.0034default loss term (dB/km)	0.3790temperature slope calibration	1.0000multiplexer offset coefficient	1.0000multiplexer slope coefficient	1.0000fibre end	0.00T internal ref (°C)	30.56T ext. ref 1 (°C)	4.78T ext. ref 2 (°C)	25.64length (m)	temperature (°C)	Stokes	anti-Stokes-747.200	-11.616	-0.128	-0.085
-746.185	800.000	-0.114	0.431
-745.171	95.093	0.006	-0.007
-744.156	-200.000	0.005	0.344
-743.142	-87.076	0.134	0.041
-742.127	-8.734	-0.239	0.162
-741.112	-56.241	0.042	-0.019
-740.098	-37.005	0.293	-0.158
-739.083	800.000	-0.038	-0.116
-738.069	-200.000	-0.076	0.000
-737.054	800.000	-0.075	0.246
-736.039	-187.561	-0.260	0.003
-735.025	-140.070	-0.134	0.014
-734.010	-142.054	-0.039	0.004
-732.996	-97.389	-0.421	0.111
-731.981	-98.662	-0.181	0.047
-730.966	21.613	0.262	0.215
-729.952	-53.607	-0.141	-0.065
-728.937	-69.404	-0.304	-0.118
-727.923	7.692	0.049	-0.037
-726.908	-136.784	-0.330	-0.038
-725.894	37.375	-0.285	-0.255
-724.879	-133.578	-0.251	-0.032
-723.864	-94.311	-0.371	-0.102
-722.850	-37.283	-0.042	-0.022
-721.835	115.655	0.241	-0.297
-720.821	89.796	0.016	-0.018
-719.806	-7.329	-0.073	-0.050
-718.791	-15.553	-0.202	-0.130
-717.777	-200.000	0.032	-0.279
-716.762	20.849	-0.340	-0.278
-715.748	259.331	-0.018	0.032
-714.733	234.518	-0.062	0.103
-713.718	-40.530	-0.196	-0.103
-712.704	65.605	0.042	0.042
-711.689	-114.750	-0.066	0.013
-710.675	18.550	-0.160	0.129
-709.660	-23.884	-0.303	-0.183
-708.645	131.187	-0.072	-0.093
-707.631	-120.130	0.149	-0.026
-706.616	800.000	-0.099	0.277
-705.602	-39.269	-0.200	-0.106
-704.587	-45.846	-0.238	0.118
-703.572	0.377	0.186	-0.134
-702.558	-200.000	-0.016	0.232
-701.543	423.660	0.057	-0.123
-700.529	342.373	-0.057	0.112
-699.514	-41.967	-0.220	-0.113
-698.499	-170.232	-0.366	0.013
-697.485	205.653	0.175	-0.274
-696.470	381.852	-0.049	-0.101
-695.456	-200.000	0.024	0.290
-694.441	-200.000	-0.046	0.250
-693.426	-77.959	0.223	0.077
-692.412	316.710	-0.067	-0.128
-691.397	-139.241	-0.274	0.030
-690.383	-173.579	0.062	0.002
-689.368	-130.833	0.049	-0.007
-688.354	-72.019	0.336	-0.126
-687.339	-200.000	0.021	0.191
-686.324	-200.000	-0.010	0.258
-685.310	-100.990	-0.488	0.120
-684.295	381.766	0.104	0.214
-683.281	47.289	0.163	0.153
-682.266	-119.245	0.126	0.022
-681.251	-40.140	-0.137	-0.072
-680.237	47.120	0.043	0.040
-679.222	42.390	-0.064	0.059
-678.208	800.000	-0.031	-0.097
-677.193	800.000	0.090	-0.252
-676.178	444.701	-0.011	0.025
-675.164	261.934	0.174	-0.304
-674.149	159.071	0.129	0.180
-673.135	-200.000	0.007	0.252
-672.120	800.000	0.054	-0.198
-671.105	-33.039	-0.236	-0.132
-670.091	-143.505	-0.289	0.028
-669.076	156.612	0.049	0.068
-668.062	-101.469	0.274	0.067
-667.047	24.530	-0.092	-0.076
-666.032	25.899	-0.312	0.262
-665.018	-14.560	0.144	0.093
-664.003	-79.287	0.129	-0.044
-662.989	338.399	-0.111	-0.218
-661.974	725.623	0.084	-0.225
-660.959	-55.672	-0.117	0.053
-659.945	-111.104	-0.351	-0.072
-658.930	-150.600	-0.063	0.005
-657.916	-136.522	-0.286	0.033
-656.901	-50.566	-0.169	-0.080
-655.886	297.452	-0.227	-0.418
-654.872	-131.033	0.192	-0.026
-653.857	-96.090	-0.211	-0.056
-652.843	51.790	-0.135	-0.130
-651.828	-27.635	-0.122	-0.071
-650.814	717.752	-0.059	0.158
-649.799	800.000	-0.072	-0.228
-648.784	1.655	-0.180	0.130
-647.770	800.000	-0.063	0.223
-646.755	117.850	0.148	0.183
-645.741	-83.128	-0.167	-0.054
-644.726	-24.732	-0.255	0.152
-643.711	-110.491	0.117	-0.024
-642.697	-200.000	0.035	-0.168
-641.682	49.731	-0.076	0.072
-640.668	55.676	-0.122	-0.118
-639.653	-200.000	0.015	0.078
-638.638	-200.000	0.016	-0.086
-637.624	-135.751	-0.260	0.031
-636.609	-47.333	-0.262	0.128
-635.595	-200.000	0.016	0.114
-634.580	-200.000	0.002	-0.241
-633.565	61.544	0.057	0.057
-632.551	238.497	-0.172	0.287
-631.536	-200.000	0.052	-0.330
-630.522	93.579	0.119	-0.135
-629.507	800.000	-0.061	0.178
-628.492	-15.560	-0.235	-0.150
-627.478	216.125	0.128	-0.204
-626.463	-200.000	0.010	-0.159
-625.449	203.486	-0.060	-0.093
-624.434	-86.747	-0.261	0.080
-623.419	-31.039	0.149	0.084
-622.405	93.374	0.152	0.172
-621.390	68.872	-0.165	-0.170
-620.376	233.939	0.150	-0.248
-619.361	-200.000	0.016	-0.107
-618.346	-124.277	0.363	0.057
-617.332	-55.520	0.391	0.176
-616.317	-200.000	-0.020	0.351
-615.303	800.000	-0.133	0.422
-614.288	-129.075	-0.351	0.049
-613.273	33.741	0.042	-0.036
-612.259	-14.231	-0.163	-0.105
-611.244	-97.029	0.194	0.051
-610.230	-200.000	0.014	-0.209
-609.215	-158.139	-0.402	-0.024
-608.201	-200.000	-0.016	0.500
-607.186	-48.957	0.255	0.123
-606.171	-200.000	0.009	-0.071
-605.157	1.879	0.036	0.026
-604.142	-50.314	-0.024	0.011
-603.128	77.844	-0.070	-0.074
-602.113	-200.000	-0.036	-0.478
-601.098	140.115	-0.213	-0.282
-600.084	-141.418	0.212	-0.022
-599.069	-200.000	0.029	0.132
-598.055	206.196	0.092	0.144
-597.040	-55.650	-0.180	-0.081
-596.025	-70.777	0.155	0.059
-595.011	18.874	-0.080	-0.065
-593.996	140.312	0.173	-0.229
-592.982	30.932	0.111	-0.096
-591.967	-162.947	0.123	0.006
-590.952	-200.000	0.044	-0.214
-589.938	80.064	0.148	-0.160
-588.923	109.367	-0.144	0.173
-587.909	-50.226	0.137	0.065
-586.894	-96.741	-0.256	0.068
-585.879	133.043	-0.047	-0.061
-584.865	-100.875	-0.183	-0.045
-583.850	240.343	-0.145	-0.243
-582.836	508.045	0.074	-0.171
-581.821	256.172	-0.100	0.172
-580.806	800.000	-0.157	0.523
-579.792	-4.916	-0.315	0.218
-578.777	-27.589	-0.329	-0.191
-577.763	-7.453	0.213	0.145
-576.748	244.384	0.144	0.243
-575.733	116.288	-0.023	-0.029
-574.719	60.653	-0.137	-0.136
-573.704	43.339	0.086	-0.079
-572.690	800.000	-0.083	0.286
-571.675	800.000	-0.073	-0.211
-570.661	-121.269	0.282	-0.047
-569.646	156.762	-0.226	0.312
-568.631	-127.552	0.273	0.040
-567.617	-200.000	-0.027	-0.191
-566.602	-124.150	-0.572	-0.090
-565.588	-112.143	0.155	-0.031
-564.573	-170.274	0.188	0.007
-563.558	-120.890	0.332	-0.056
-562.544	-200.000	0.007	0.060
-561.529	-101.505	0.254	-0.062
-560.515	-130.214	-0.105	-0.014
-559.500	-200.000	-0.007	0.197
-558.485	-122.910	0.376	-0.061
-557.471	20.406	-0.347	-0.280
-556.456	-200.000	-0.092	-0.477
-555.442	262.409	-0.104	-0.180
-554.427	-200.000	0.039	0.311
-553.412	6.730	-0.149	-0.111
-552.398	-200.000	0.026	0.178
-551.383	-74.103	0.199	0.072
-550.369	800.000	-0.057	0.185
-549.354	-200.000	-0.005	-0.026
-548.339	70.221	-0.248	-0.256
-547.325	505.589	-0.070	-0.161
-546.310	337.411	0.074	0.145
-545.296	95.610	0.106	-0.120
-544.281	495.209	0.058	-0.134
-543.266	694.776	0.058	-0.151
-542.252	-70.703	-0.151	-0.057
-541.237	-168.014	0.260	0.010
-540.223	-84.285	0.410	-0.130
-539.208	-110.464	-0.079	0.016
-538.193	161.970	0.202	-0.283
-537.179	523.183	0.100	0.235
-536.164	-141.846	-0.083	-0.008
-535.150	-163.822	-0.477	0.022
-534.135	-39.600	0.049	-0.026
-533.121	-21.948	0.260	0.158
-532.106	-200.000	-0.012	0.378
-531.091	248.105	-0.009	-0.015
-530.077	294.338	-0.020	0.037
-529.062	-200.000	-0.032	-0.208
-528.048	453.966	0.018	-0.040
-527.033	800.000	0.026	0.076
-526.018	55.249	0.123	0.119
-525.004	-12.239	-0.258	-0.169
-523.989	-185.705	0.359	-0.005
-522.975	559.753	-0.149	-0.359
-521.960	-19.540	0.198	0.123
-520.945	90.100	-0.170	-0.190
-519.931	-200.000	-0.037	0.518
-518.916	-200.000	0.031	0.185
-517.902	-39.936	0.248	-0.130
-516.887	-3.138	0.117	0.082
-515.872	634.381	-0.168	-0.425
-514.858	274.107	0.065	-0.114
-513.843	690.351	-0.137	-0.358
-512.829	-200.000	-0.021	0.114
-511.814	133.924	-0.168	-0.217
-510.799	193.210	0.169	0.255
-509.785	-200.000	0.015	0.330
-508.770	-132.656	-0.208	-0.027
-507.756	-85.485	-0.160	-0.050
-506.741	800.000	0.081	0.318
-505.726	-171.419	0.326	-0.011
-504.712	-200.000	0.021	0.327
-503.697	-126.443	-0.198	-0.029
-502.683	4.772	0.028	-0.021
-501.668	-54.751	0.172	0.078
-500.653	-200.000	-0.030	0.309
-499.639	-200.000	-0.041	-0.194
-498.624	-124.454	-0.524	-0.081
-497.610	-200.000	0.062	-0.327
-496.595	696.023	0.162	-0.425
-495.581	-113.032	0.177	0.035
-494.566	51.258	0.100	-0.095
-493.551	113.622	0.153	-0.186
-492.537	-200.000	-0.017	-0.239
-491.522	-115.579	-0.163	0.031
-490.508	-200.000	-0.003	0.136
-489.493	-148.143	0.303	0.025
-488.478	64.808	0.228	-0.229
-487.464	393.211	0.003	-0.006
-486.449	551.538	0.143	0.343
-485.435	-41.518	0.332	-0.171
-484.420	383.569	-0.156	0.320
-483.405	-200.000	0.025	0.168
-482.391	281.704	0.109	-0.195
-481.376	-34.662	0.190	0.104
-480.362	800.000	-0.033	-0.108
-479.347	-171.886	0.088	-0.003
-478.332	19.849	0.165	-0.133
-477.318	187.608	-0.067	-0.100
-476.303	-200.000	0.030	-0.353
-475.289	-87.383	-0.103	0.031
-474.274	800.000	0.090	-0.319
-473.259	421.640	-0.071	0.152
-472.245	-200.000	-0.004	0.080
-471.230	800.000	-0.067	-0.190
-470.216	34.441	0.260	-0.227
-469.201	-200.000	-0.021	-0.123
-468.186	-120.977	-0.042	0.007
-467.172	-121.094	-0.052	-0.009
-466.157	-21.781	-0.129	-0.078
-465.143	-151.966	-0.172	0.013
-464.128	416.437	0.029	-0.062
-463.113	398.202	0.043	-0.090
-462.099	596.964	0.195	0.482
-461.084	135.004	0.091	0.118
-460.070	96.389	0.117	0.133
-459.055	0.939	0.217	0.155
-458.040	-80.182	-0.247	0.083
-457.026	-187.720	0.129	-0.002
-456.011	-89.095	0.328	-0.097
-454.997	10.264	-0.087	0.066
-453.982	31.086	0.165	0.141
-452.968	13.020	-0.180	0.139
-451.953	38.971	0.011	-0.010
-450.938	-17.630	-0.199	0.125
-449.924	-43.319	0.282	-0.142
-448.909	-39.872	-0.184	0.096
-447.895	79.481	-0.237	0.254
-446.880	-200.000	0.026	-0.148
-445.865	-72.078	0.305	-0.113
-444.851	103.107	-0.206	0.241
-443.836	800.000	0.060	0.198
-442.822	-9.632	0.128	-0.085
-441.807	800.000	0.022	0.077
-440.792	763.711	-0.002	0.006
-439.778	117.718	0.087	0.107
-438.763	440.535	-0.137	-0.299
-437.749	78.350	-0.076	0.081
-436.734	708.109	-0.128	-0.336
-435.719	-93.106	-0.208	0.058
-434.705	-92.302	-0.389	-0.109
-433.690	-61.770	0.053	0.022
-432.676	-70.943	-0.555	-0.208
-431.661	146.079	-0.106	0.141
-430.646	152.543	-0.171	0.232
-429.632	232.115	0.094	0.154
-428.617	268.130	0.120	-0.210
-427.603	196.550	0.220	0.333
-426.588	-200.000	0.008	-0.177
-425.573	73.094	0.115	-0.119
-424.559	-58.729	0.411	-0.177
-423.544	107.844	0.082	-0.097
-422.530	800.000	-0.031	0.103
-421.515	-78.351	0.249	0.085
-420.500	445.354	-0.103	0.226
-419.486	-22.981	-0.205	0.123
-418.471	125.775	-0.126	0.158
-417.457	266.603	0.116	-0.201
-416.442	-115.742	0.187	-0.035
-415.428	-68.411	-0.126	-0.049
-414.413	315.589	-0.096	-0.180
-413.398	12.756	-0.332	0.255
-412.384	145.828	0.112	0.149
-411.369	800.000	0.082	-0.299
-410.355	119.464	0.145	-0.179
-409.340	318.271	0.086	-0.162
-408.325	767.021	-0.042	-0.113
-407.311	-135.397	0.145	-0.017
-406.296	681.014	0.106	-0.275
-405.282	710.342	-0.090	-0.236
-404.267	758.417	0.019	0.050
-403.252	-120.158	0.310	-0.053
-402.238	-159.873	-0.091	0.005
-401.223	800.000	-0.066	0.203
-400.209	-189.579	0.511	0.006
-399.194	48.120	-0.081	-0.075
-398.179	-200.000	-0.023	0.337
-397.165	138.850	-0.284	-0.371
-396.150	-46.559	-0.429	0.209
-395.136	422.246	-0.039	0.083
-394.121	19.535	-0.084	0.067
-393.106	96.562	-0.186	0.212
-392.092	16.043	-0.081	-0.063
-391.077	800.000	-0.066	0.222
-390.063	800.000	-0.023	0.088
-389.048	113.095	-0.167	0.201
-388.033	-21.781	-0.306	-0.185
-387.019	-136.073	0.170	-0.020
-386.004	352.486	-0.035	-0.068
-384.990	-200.000	-0.004	0.233
-383.975	-200.000	0.034	-0.281
-382.960	211.590	0.090	-0.140
-381.946	218.922	-0.124	0.197
-380.931	-119.201	-0.497	0.086
-379.917	75.906	0.308	0.323
-378.902	-200.000	-0.010	0.097
-377.888	-173.264	-0.153	-0.005
-376.873	-72.688	-0.267	-0.098
-375.858	-70.681	0.095	-0.036
-374.844	-121.582	-0.106	-0.017
-373.829	-200.000	0.005	0.103
-372.815	530.435	-0.056	-0.131
-371.800	22.953	-0.137	-0.112
-370.785	-146.848	0.214	-0.018
-369.771	177.335	0.053	0.077
-368.756	4.102	0.096	0.070
-367.742	28.858	0.218	0.184
-366.727	290.392	-0.142	0.256
-365.712	81.340	-0.195	-0.210
-364.698	-200.000	-0.021	-0.125
-363.683	-145.594	-0.269	0.024
-362.669	-2.090	0.174	0.122
-361.654	800.000	-0.091	0.255
-360.639	-39.568	-0.171	0.089
-359.625	301.652	-0.054	-0.099
-358.610	78.347	-0.212	-0.225
-357.596	800.000	-0.127	-0.409
-356.581	-47.743	0.410	-0.197
-355.566	460.547	-0.119	0.263
-354.552	800.000	-0.021	-0.076
-353.537	81.325	0.152	-0.163
-352.523	18.234	-0.256	0.203
-351.508	-200.000	-0.020	0.201
-350.493	66.633	-0.147	0.148
-349.479	285.224	-0.098	-0.176
-348.464	545.751	-0.188	-0.447
-347.450	-150.189	0.122	-0.009
-346.435	800.000	-0.128	-0.354
-345.420	-66.756	-0.039	-0.015
-344.406	110.898	0.324	0.388
-343.391	701.002	-0.092	0.242
-342.377	142.461	0.150	0.198
-341.362	-200.000	0.037	0.197
-340.348	29.692	-0.350	0.296
-339.333	-4.255	0.118	0.081
-338.318	232.344	-0.138	-0.224
-337.304	-92.239	0.103	0.029
-336.289	-34.391	0.290	-0.158
-335.275	775.409	0.080	-0.217
-334.260	-85.504	-0.383	0.118
-333.245	45.342	-0.301	0.276
-332.231	9.221	0.242	-0.182
-331.216	77.285	0.194	-0.205
-330.202	-50.329	0.145	-0.068
-329.187	-200.000	-0.052	0.314
-328.172	-200.000	0.001	0.019
-327.158	62.752	0.164	0.163
-326.143	800.000	-0.036	-0.105
-325.129	-200.000	-0.029	0.202
-324.114	-64.139	0.316	-0.128
-323.099	800.000	0.055	-0.155
-322.085	-60.573	-0.210	-0.088
-321.070	44.515	0.190	-0.174
-320.056	574.865	0.034	-0.082
-319.041	681.820	-0.066	-0.171
-318.026	-200.000	-0.055	0.368
-317.012	-80.572	0.065	-0.022
-315.997	-40.804	0.222	0.114
-314.983	800.000	-0.172	-0.552
-313.968	115.509	-0.108	0.131
-312.953	-155.707	0.507	-0.032
-311.939	-0.896	0.302	-0.212
-310.924	1.103	-0.197	-0.140
-309.910	-83.098	-0.185	-0.059
-308.895	669.874	0.103	-0.263
-307.880	-150.383	0.401	0.031
-306.866	411.456	-0.071	-0.150
-305.851	11.162	0.009	-0.007
-304.837	-20.197	0.208	0.127
-303.822	58.038	-0.336	0.326
-302.807	238.166	0.014	0.024
-301.793	327.305	0.136	-0.258
-300.778	-68.753	0.234	-0.090
-299.764	33.781	0.150	-0.129
-298.749	734.900	0.040	-0.107
-297.735	-20.843	0.279	0.170
-296.720	-34.050	-0.305	0.166
-295.705	-87.855	-0.329	0.098
-294.691	-132.718	0.175	0.022
-293.676	-150.782	0.212	0.016
-292.662	29.865	0.224	-0.189
-291.647	172.999	-0.087	-0.125
-290.632	68.713	0.269	0.274
-289.618	-104.707	0.308	-0.070
-288.603	800.000	-0.146	0.482
-287.589	-27.997	-0.161	-0.092
-286.574	-155.294	-0.289	0.019
-285.559	800.000	-0.112	0.378
-284.545	1.942	-0.106	0.076
-283.530	-45.865	0.242	-0.118
-282.516	-78.157	0.325	-0.111
-281.501	-45.678	0.276	0.135
-280.486	-177.854	-0.247	0.006
-279.472	69.661	0.122	0.125
-278.457	-67.878	-0.251	0.097
-277.443	-56.654	0.189	0.083
-276.428	-143.795	0.074	0.007
-275.413	292.069	-0.151	-0.273
-274.399	70.077	-0.298	-0.304
-273.384	147.099	0.166	-0.221
-272.370	-23.657	-0.207	0.123
-271.355	51.306	0.193	-0.181
-270.340	-200.000	-0.044	-0.297
-269.326	-111.577	-0.365	-0.073
-268.311	-200.000	0.001	-0.048
-267.297	298.776	0.096	-0.175
-266.282	90.788	-0.178	0.198
-265.267	43.832	-0.192	0.174
-264.253	-89.864	0.080	-0.023
-263.238	-200.000	-0.016	0.314
-262.224	800.000	-0.011	0.041
-261.209	-64.645	-0.356	0.143
-260.195	-117.979	-0.375	0.066
-259.180	-118.273	-0.107	-0.019
-258.165	800.000	0.037	0.110
-257.151	6.137	-0.184	-0.135
-256.136	141.106	0.046	-0.060
-255.122	-39.990	-0.329	0.170
-254.107	-200.000	-0.238	-0.001
-253.092	-200.000	0.001	0.102
-252.078	800.000	-0.067	0.269
-251.063	-55.176	-0.123	-0.055
-250.049	321.566	0.232	-0.436
-249.034	-36.591	0.165	-0.088
-248.019	-200.000	0.054	0.376
-247.005	58.258	-0.117	-0.114
-245.990	-134.762	0.125	0.015
-244.976	-152.368	-0.213	0.015
-243.961	372.444	0.122	0.245
-242.946	-33.666	0.518	0.283
-241.932	38.278	-0.084	-0.074
-240.917	94.674	-0.053	-0.059
-239.903	-134.943	-0.265	-0.032
-238.888	800.000	0.037	-0.154
-237.873	59.956	0.323	-0.316
-236.859	-70.389	0.093	0.035
-235.844	-46.112	-0.429	-0.209
-234.830	17.460	0.090	-0.071
-233.815	-142.339	-0.126	0.012
-232.800	-94.061	-0.309	0.084
-231.786	800.000	-0.030	-0.111
-230.771	-90.527	0.172	0.049
-229.757	-145.558	0.332	0.029
-228.742	-18.889	0.070	0.043
-227.727	-200.000	-0.014	0.196
-226.713	24.898	-0.094	-0.077
-225.698	33.345	0.102	0.087
-224.684	146.727	-0.213	0.283
-223.669	142.768	0.185	-0.243
-222.655	-11.461	-0.341	-0.222
-221.640	70.193	0.186	0.189
-220.625	23.654	0.053	-0.043
-219.611	-166.269	0.191	0.008
-218.596	99.426	-0.089	-0.102
-217.582	192.112	0.170	0.254
-216.567	-101.873	-0.391	-0.093
-215.552	-103.910	0.137	-0.032
-214.538	-200.000	-0.029	0.146
-213.523	800.000	0.121	0.337
-212.509	-81.394	-0.319	-0.104
-211.494	-93.609	-0.150	0.041
-210.479	-70.740	0.132	-0.049
-209.465	-156.548	-0.291	-0.018
-208.450	257.666	0.104	0.177
-207.436	-72.596	0.141	0.051
-206.421	79.105	-0.128	-0.136
-205.406	169.230	0.175	-0.247
-204.392	104.019	0.161	-0.187
-203.377	-200.000	-0.004	0.105
-202.363	19.916	0.126	0.100
-201.348	-200.000	0.006	-0.116
-200.333	663.168	0.091	-0.231
-199.319	-102.192	0.169	-0.040
-198.304	164.576	-0.214	0.298
-197.290	-51.019	-0.198	0.092
-196.275	299.835	0.125	0.228
-195.260	-181.486	0.482	0.009
-194.246	-200.000	-0.030	-0.132
-193.231	-24.797	0.226	0.132
-192.217	800.000	0.045	0.138
-191.202	-11.882	-0.118	0.076
-190.187	43.270	0.283	0.255
-189.173	13.249	0.227	-0.173
-188.158	-82.444	0.336	0.108
-187.144	-44.101	-0.373	0.185
-186.129	244.012	-0.065	-0.108
-185.114	-27.531	-0.068	0.039
-184.100	52.252	-0.163	-0.153
-183.085	-119.968	-0.150	0.025
-182.071	257.826	-0.086	0.146
-181.056	-4.960	0.057	0.039
-180.042	-2.984	0.157	-0.108
-179.027	-200.000	-0.002	0.147
-178.012	27.832	0.164	0.137
-176.998	314.853	0.024	-0.044
-175.983	-23.734	-0.153	-0.090
-174.969	-98.212	0.115	-0.029
-173.954	-19.039	-0.243	-0.149
-172.939	-114.722	-0.153	-0.029
-171.925	-103.470	0.305	0.071
-170.910	180.400	0.219	0.317
-169.896	-59.341	0.215	-0.091
-168.881	350.306	0.071	0.139
-167.866	562.280	-0.137	0.326
-166.852	-73.036	0.326	0.118
-165.837	790.867	-0.067	-0.183
-164.823	-127.836	-0.277	-0.039
-163.808	550.910	0.075	0.178
-162.793	-200.000	-0.015	-0.212
-161.779	-62.297	-0.218	-0.089
-160.764	-17.984	-0.070	0.043
-159.750	124.134	-0.105	0.130
-158.735	-4.787	0.116	0.079
-157.720	38.484	0.321	-0.282
-156.706	800.000	0.094	-0.275
-155.691	-200.000	0.007	-0.044
-154.677	-42.099	-0.206	-0.104
-153.662	-135.029	-0.153	-0.018
-152.647	-200.000	0.189	0.001
-151.633	-121.163	0.198	-0.033
-150.618	-11.899	-0.170	0.110
-149.604	420.774	-0.058	0.122
-148.589	139.898	0.155	-0.201
-147.574	533.907	0.057	0.134
-146.560	19.289	-0.054	-0.043
-145.545	148.272	-0.100	0.133
-144.531	800.000	0.058	0.162
-143.516	-135.367	-0.137	0.016
-142.502	-118.370	0.460	-0.080
-141.487	-200.000	0.006	-0.145
-140.472	-94.924	0.150	-0.040
-139.458	-1.885	-0.258	0.179
-138.443	-47.743	0.230	0.110
-137.429	109.418	-0.100	0.118
-136.414	10.665	0.149	0.112
-135.399	800.000	0.021	0.062
-134.385	432.760	-0.177	0.377
-133.370	-91.739	-0.213	0.060
-132.356	-153.249	-0.068	-0.005
-131.341	176.263	-0.183	0.262
-130.326	-98.776	-0.145	0.036
-129.312	-200.000	0.037	0.190
-128.297	-109.247	0.188	-0.039
-127.283	-200.000	0.037	-0.270
-126.268	66.371	0.201	-0.201
-125.253	406.972	0.163	-0.338
-124.239	-64.236	0.295	0.118
-123.224	91.730	-0.110	-0.121
-122.210	-200.000	-0.031	-0.189
-121.195	-200.000	-0.011	-0.311
