DTS Sentinel unit serial number:	SN413079Multiplexer serial number:	ORYXHardware model number:	OX4-SRSoftware version number:	ORYX F/W v4.00 Oryx Data Collector v3.7.2.0data status	okinstallation	princeton_trtdifferential loss correction	single-endedforward channel	channel 2reverse channel	N/Adate	2019/09/16time	19:47:35forward acquisition time	60.00reverse acquisition time	0.00gamma	496.2192k internal	0.2325k external	0.2325temperature offset calibration	0.9965default loss term (dB/km)	0.3790temperature slope calibration	1.0000multiplexer offset coefficient	1.0000multiplexer slope coefficient	1.0000fibre end	0.00T internal ref (°C)	33.84T ext. ref 1 (°C)	0.09T ext. ref 2 (°C)	26.87length (m)	temperature (°C)	Stokes	anti-Stokes-747.200	-200.000	-0.448	0.002
-746.185	-200.000	0.013	0.285
-745.171	800.000	0.024	-0.085
-744.156	137.453	0.063	0.083
-743.142	-86.239	-0.166	-0.052
-742.127	800.000	-0.099	0.289
-741.112	95.797	-0.260	0.299
-740.098	800.000	-0.038	-0.138
-739.083	370.459	0.175	0.358
-738.069	-9.216	-0.392	0.265
-737.054	-63.619	0.119	-0.049
-736.039	117.785	-0.306	-0.380
-735.025	-7.368	-0.273	0.186
-734.010	173.067	-0.049	-0.072
-732.996	-200.000	-0.072	-0.327
-731.981	53.042	-0.198	0.191
-730.966	-163.203	0.156	0.008
-729.952	-108.801	-0.117	0.025
-728.937	193.132	0.142	0.217
-727.923	172.305	-0.108	0.156
-726.908	-200.000	-0.023	0.199
-725.894	800.000	0.030	0.100
-724.879	22.580	-0.067	0.056
-723.864	299.014	0.104	0.193
-722.850	-176.320	0.182	-0.005
-721.835	-200.000	0.025	0.190
-720.821	185.826	0.067	-0.100
-719.806	-200.000	0.021	-0.123
-718.791	-17.260	-0.345	-0.219
-717.777	-200.000	0.051	-0.248
-716.762	-200.000	0.040	0.250
-715.748	-99.997	-0.260	-0.065
-714.733	79.228	0.183	-0.197
-713.718	665.608	-0.069	-0.181
-712.704	800.000	0.051	-0.188
-711.689	-8.696	0.232	0.157
-710.675	-200.000	-0.035	-0.176
-709.660	370.300	0.106	0.216
-708.645	-200.000	0.004	0.280
-707.631	107.099	-0.162	-0.194
-706.616	-58.306	-0.306	0.134
-705.602	458.262	0.028	0.062
-704.587	4.567	0.140	-0.103
-703.572	-56.678	-0.291	-0.130
-702.558	-118.888	0.105	-0.019
-701.543	-45.686	-0.183	0.091
-700.529	-200.000	0.020	-0.144
-699.514	-129.241	0.117	-0.016
-698.499	-1.657	0.246	0.175
-697.485	800.000	-0.133	0.379
-696.470	800.000	-0.150	-0.436
-695.456	-34.756	-0.361	0.199
-694.441	-200.000	-0.001	0.332
-693.426	-67.291	-0.221	-0.088
-692.412	800.000	-0.072	-0.263
-691.397	-158.359	-0.309	0.018
-690.383	-109.996	-0.348	-0.073
-689.368	-200.000	0.035	0.155
-688.354	-96.517	0.213	0.057
-687.339	359.161	0.117	0.235
-686.324	-50.592	-0.307	0.146
-685.310	-81.277	-0.295	-0.098
-684.295	378.033	0.053	-0.109
-683.281	66.194	0.058	-0.059
-682.266	800.000	-0.049	-0.165
-681.251	-200.000	0.006	0.082
-680.237	304.113	-0.028	0.052
-679.222	-125.668	-0.235	-0.036
-678.208	-60.100	0.091	0.039
-677.193	-64.630	-0.318	0.130
-676.178	167.991	-0.024	0.035
-675.164	-38.035	0.131	-0.070
-674.149	-31.330	-0.244	-0.138
-673.135	-50.380	0.233	0.111
-672.120	317.104	0.033	0.062
-671.105	-83.356	0.336	-0.108
-670.091	699.564	-0.062	0.163
-669.076	-200.000	0.036	-0.196
-668.062	800.000	-0.068	0.207
-667.047	379.635	-0.115	0.236
-666.032	-72.199	0.314	-0.117
-665.018	28.174	0.105	-0.089
-664.003	55.259	-0.076	-0.074
-662.989	401.944	-0.181	0.383
-661.974	162.882	-0.061	0.086
-660.959	489.524	-0.085	0.195
-659.945	66.725	0.265	-0.271
-658.930	-200.000	0.041	-0.285
-657.916	476.338	0.149	0.338
-656.901	800.000	-0.052	0.197
-655.886	-200.000	-0.007	0.147
-654.872	-11.051	-0.211	0.140
-653.857	34.910	-0.173	0.153
-652.843	-200.000	0.400	-0.002
-651.828	-35.368	-0.359	-0.196
-650.814	-32.934	0.302	0.169
-649.799	-61.508	0.077	-0.032
-648.784	-124.926	-0.106	-0.016
-647.770	-200.000	-0.018	0.159
-646.755	228.680	-0.065	0.107
-645.741	-82.375	0.062	0.020
-644.726	-52.639	-0.248	0.115
-643.711	-36.491	-0.201	0.109
-642.697	9.625	-0.075	-0.057
-641.682	8.949	0.391	0.297
-640.668	312.777	0.135	0.255
-639.653	-200.000	-0.006	-0.229
-638.638	252.198	0.182	-0.311
-637.624	-200.000	-0.037	-0.198
-636.609	-200.000	0.017	0.170
-635.595	356.404	-0.125	0.250
-634.580	-87.843	0.122	-0.037
-633.565	-175.485	0.156	0.004
-632.551	-118.509	-0.266	-0.047
-631.536	28.864	0.091	-0.078
-630.522	-109.558	0.241	0.051
-629.507	55.551	0.321	-0.313
-628.492	-200.000	0.035	-0.287
-627.478	-157.711	0.115	-0.007
-626.463	185.169	-0.180	0.268
-625.449	-200.000	-0.053	-0.264
-624.434	-65.886	-0.190	0.076
-623.419	-34.849	-0.331	-0.182
-622.405	800.000	-0.033	-0.134
-621.390	-120.884	-0.189	0.032
-620.376	-79.232	-0.148	0.050
-619.361	502.643	0.048	0.111
-618.346	-128.586	0.506	-0.072
-617.332	-149.607	0.215	0.017
-616.317	-73.505	-0.216	0.079
-615.303	-37.043	0.177	0.095
-614.288	209.481	-0.097	0.152
-613.273	-148.473	-0.159	-0.013
-612.259	-200.000	-0.024	0.167
-611.244	727.955	-0.040	0.107
-610.230	-38.489	0.098	-0.052
-609.215	162.993	0.047	0.066
-608.201	38.556	0.072	0.064
-607.186	-151.248	0.182	-0.014
-606.171	-200.000	0.009	0.150
-605.157	180.550	-0.059	-0.086
-604.142	-173.057	-0.225	0.007
-603.128	175.571	-0.030	0.044
-602.113	-16.785	0.245	0.156
-601.098	440.716	-0.105	-0.231
-600.084	375.939	-0.087	-0.178
-599.069	12.432	-0.141	-0.109
-598.055	-114.119	-0.169	0.033
-597.040	86.108	0.096	-0.106
-596.025	148.918	0.092	-0.125
-595.011	-117.287	0.139	-0.025
-593.996	-200.000	0.030	0.277
-592.982	44.547	0.236	-0.217
-591.967	-59.731	0.270	-0.116
-590.952	179.802	0.105	0.154
-589.938	108.640	-0.111	0.133
-588.923	-51.063	0.211	0.099
-587.909	-90.027	-0.417	-0.122
-586.894	14.094	-0.188	0.147
-585.879	-200.000	0.018	-0.157
-584.865	483.340	0.129	-0.293
-583.850	-200.000	-0.060	-0.291
-582.836	-60.350	0.124	0.053
-581.821	-36.019	0.245	-0.133
-580.806	800.000	-0.039	0.152
-579.792	-120.558	0.088	0.015
-578.777	-200.000	0.002	-0.105
-577.763	604.854	-0.051	-0.127
-576.748	40.895	0.173	-0.157
-575.733	-39.748	-0.103	0.054
-574.719	-126.057	-0.258	-0.039
-573.704	119.295	0.137	-0.170
-572.690	24.147	-0.308	-0.255
-571.675	-50.924	-0.301	0.142
-570.661	-200.000	-0.018	0.401
-569.646	-117.554	0.185	0.034
-568.631	62.709	0.114	-0.115
-567.617	-98.799	0.171	-0.044
-566.602	-42.879	-0.103	0.052
-565.588	-200.000	0.035	-0.284
-564.573	254.930	-0.136	-0.234
-563.558	239.027	0.177	-0.295
-562.544	513.818	0.025	0.058
-561.529	-80.247	-0.382	-0.128
-560.515	471.500	-0.119	-0.268
-559.500	-200.000	-0.052	0.310
-558.485	-200.000	-0.026	0.167
-557.471	136.668	0.142	-0.186
-556.456	-200.000	-0.012	-0.181
-555.442	800.000	0.133	-0.432
-554.427	56.613	0.043	-0.042
-553.412	-200.000	0.043	-0.231
-552.398	91.684	0.078	0.088
-551.383	-92.407	0.308	-0.087
-550.369	205.005	-0.136	-0.212
-549.354	-68.976	0.270	0.104
-548.339	150.109	0.221	-0.300
-547.325	-192.015	0.060	0.001
-546.310	58.365	0.228	0.224
-545.296	428.908	0.125	0.270
-544.281	-33.252	0.374	-0.207
-543.266	238.359	0.067	-0.111
-542.252	-95.478	0.093	0.025
-541.237	-200.000	0.008	0.101
-540.223	-112.424	-0.272	-0.054
-539.208	-119.640	-0.252	0.044
-538.193	-48.038	-0.219	-0.106
-537.179	-200.000	0.044	-0.326
-536.164	-82.939	0.472	0.152
-535.150	-76.571	0.294	-0.103
-534.135	-19.038	-0.254	-0.158
-533.121	-200.000	-0.014	-0.081
-532.106	-133.739	-0.280	-0.035
-531.091	-39.338	-0.210	-0.110
-530.077	-200.000	-0.017	-0.112
-529.062	800.000	0.060	-0.181
-528.048	94.431	-0.089	0.101
-527.033	14.548	-0.142	-0.111
-526.018	800.000	-0.054	-0.226
-525.004	-126.235	0.211	-0.032
-523.989	-196.945	0.246	0.002
-522.975	-91.921	0.431	-0.122
-521.960	276.732	-0.170	-0.301
-520.945	41.069	0.154	-0.139
-519.931	-114.910	0.335	0.064
-518.916	800.000	0.016	0.063
-517.902	-72.610	0.233	-0.086
-516.887	120.190	-0.043	0.053
-515.872	208.977	0.098	0.154
-514.858	-62.980	0.057	-0.023
-513.843	-174.213	0.425	-0.012
-512.829	800.000	-0.047	-0.152
-511.814	318.371	0.230	0.436
-510.799	193.934	-0.045	0.068
-509.785	-60.814	0.134	-0.057
-508.770	240.667	0.197	-0.329
-507.756	179.712	-0.123	-0.181
-506.741	800.000	-0.099	-0.293
-505.726	63.829	-0.418	0.420
-504.712	-200.000	0.005	0.036
-503.697	-101.892	0.090	0.022
-502.683	-50.914	0.170	0.080
-501.668	-90.849	0.304	0.087
-500.653	241.729	-0.090	0.150
-499.639	49.854	-0.183	0.173
-498.624	800.000	-0.067	0.236
-497.610	-182.732	-0.223	-0.004
-496.595	-47.129	0.285	0.139
-495.581	-32.316	0.146	-0.081
-494.566	48.445	-0.183	-0.171
-493.551	198.286	-0.158	-0.241
-492.537	65.073	0.230	-0.232
-491.522	-70.977	0.216	0.081
-490.508	287.218	0.071	0.128
-489.493	800.000	-0.081	0.266
-488.478	-78.078	-0.258	-0.089
-487.464	8.139	-0.236	0.177
-486.449	-200.000	-0.043	-0.282
-485.435	329.115	0.158	-0.303
-484.420	-68.832	-0.194	0.075
-483.405	-1.291	-0.397	-0.280
-482.391	523.729	-0.111	0.261
-481.376	12.719	-0.100	0.077
-480.362	-10.978	-0.232	0.153
-479.347	-107.093	-0.212	0.047
-478.332	-33.776	-0.282	-0.155
-477.318	-6.851	-0.094	-0.064
-476.303	92.510	-0.243	0.273
-475.289	-136.555	0.521	-0.060
-474.274	-156.538	0.127	-0.008
-473.259	450.245	-0.090	-0.199
-472.245	-60.143	-0.624	-0.266
-471.230	335.286	-0.076	-0.147
-470.216	-200.000	0.023	0.323
-469.201	233.016	-0.170	0.280
-468.186	29.593	0.213	-0.181
-467.172	-61.963	0.215	0.090
-466.157	95.702	0.108	-0.123
-465.143	53.144	-0.239	0.228
-464.128	158.689	-0.078	-0.108
-463.113	46.660	-0.124	0.115
-462.099	70.434	0.119	0.123
-461.084	68.336	-0.169	0.173
-460.070	-200.000	-0.030	0.142
-459.055	180.689	-0.218	0.319
-458.040	-74.763	-0.209	-0.075
-457.026	185.378	0.180	-0.267
-456.011	-57.229	-0.420	0.185
-454.997	800.000	-0.022	-0.081
-453.982	135.310	-0.057	0.074
-452.968	-61.706	0.308	-0.129
-451.953	-35.395	-0.160	-0.087
-450.938	-136.672	0.274	-0.032
-449.924	-200.000	0.009	0.363
-448.909	-42.294	0.173	-0.088
-447.895	159.950	-0.058	-0.080
-446.880	30.170	0.252	0.214
-445.865	-200.000	0.015	-0.075
-444.851	72.892	-0.078	-0.082
-443.836	-161.178	-0.322	0.017
-442.822	-200.000	-0.010	-0.160
-441.807	27.081	-0.264	-0.221
-440.792	-154.746	-0.128	-0.008
-439.778	-200.000	0.005	0.117
-438.763	219.896	0.031	0.050
-437.749	150.268	0.282	0.381
-436.734	-192.056	0.204	-0.002
-435.719	-200.000	0.000	-0.016
-434.705	-94.550	-0.249	-0.068
-433.690	314.813	0.047	0.087
-432.676	529.228	0.057	0.134
-431.661	-168.358	0.283	-0.011
-430.646	-91.086	-0.114	0.033
-429.632	-136.239	-0.376	-0.044
-428.617	-33.188	-0.172	-0.095
-427.603	-124.339	0.294	0.046
-426.588	-7.807	-0.312	-0.210
-425.573	29.701	0.216	0.183
-424.559	41.681	0.174	-0.158
-423.544	53.034	-0.177	-0.168
-422.530	-58.972	-0.055	0.024
-421.515	-115.144	-0.077	0.015
-420.500	752.244	-0.056	-0.152
-419.486	800.000	0.069	-0.285
-418.471	-68.076	-0.019	-0.007
-417.457	-81.447	-0.303	-0.099
-416.442	790.343	0.085	-0.233
-415.428	-56.413	-0.345	-0.153
-414.413	-145.665	0.224	-0.020
-413.398	-200.000	-0.027	-0.194
-412.384	-52.796	-0.143	-0.066
-411.369	-200.000	-0.002	0.023
-410.355	-139.343	0.314	-0.034
-409.340	-126.583	-0.180	-0.027
-408.325	55.658	0.260	0.250
-407.311	193.714	-0.062	-0.093
-406.296	-200.000	-0.018	-0.177
-405.282	101.735	0.051	-0.059
-404.267	-32.437	0.203	-0.112
-403.252	-66.761	0.038	-0.015
-402.238	-68.054	0.073	-0.028
-401.223	800.000	-0.010	-0.044
-400.209	800.000	0.052	0.164
-399.194	564.092	-0.033	-0.080
-398.179	238.951	0.110	0.182
-397.165	-200.000	0.015	-0.201
-396.150	-200.000	0.056	0.255
-395.136	-73.249	-0.217	0.079
-394.121	800.000	0.035	0.123
-393.106	-27.037	-0.049	-0.028
-392.092	-88.245	-0.263	0.078
-391.077	-105.608	0.039	0.009
-390.063	93.218	-0.277	-0.312
-389.048	800.000	-0.130	-0.424
-388.033	183.689	-0.151	-0.223
-387.019	112.110	-0.299	0.359
-386.004	-144.429	0.098	0.009
-384.990	184.829	0.046	-0.068
-383.975	-111.675	0.331	0.067
-382.960	-71.763	0.151	0.056
-381.946	146.116	0.151	0.201
-380.931	-200.000	-0.003	0.140
-379.917	-35.780	0.244	-0.132
-378.902	-200.000	-0.005	-0.149
-377.888	800.000	0.086	0.289
-376.873	-97.535	-0.404	0.104
-375.858	-200.000	0.101	-0.693
-374.844	29.860	0.056	0.047
-373.829	175.248	0.114	0.165
-372.815	216.099	-0.068	-0.108
-371.800	165.803	-0.043	-0.061
-370.785	311.701	0.045	0.085
-369.771	270.955	0.225	0.393
-368.756	-75.488	0.508	0.180
-367.742	-168.040	0.146	-0.006
-366.727	800.000	0.023	0.073
-365.712	121.113	-0.210	0.260
-364.698	-30.050	0.351	-0.198
-363.683	549.192	-0.074	0.177
-362.669	-200.000	-0.021	-0.167
-361.654	317.253	0.168	0.315
-360.639	-33.431	0.420	0.231
-359.625	-97.051	-0.230	0.060
-358.610	71.021	-0.107	0.110
-357.596	233.980	-0.005	0.009
-356.581	-94.192	-0.044	-0.012
-355.566	239.221	0.160	0.264
-354.552	-152.852	-0.323	-0.023
-353.537	-59.189	-0.412	-0.176
-352.523	-25.552	-0.152	0.089
-351.508	-198.256	0.159	-0.001
-350.493	9.051	-0.096	0.072
-349.479	24.994	-0.069	0.057
-348.464	800.000	0.131	-0.435
-347.450	135.481	0.171	-0.221
-346.435	-200.000	0.021	0.139
-345.420	-200.000	0.039	-0.000
-344.406	-65.122	-0.171	-0.069
-343.391	-116.870	0.403	-0.073
-342.377	365.600	-0.036	-0.072
-341.362	162.288	-0.162	-0.226
-340.348	141.599	0.213	0.280
-339.333	-57.784	-0.182	0.079
-338.318	188.055	0.157	-0.232
-337.304	-100.610	-0.179	0.044
-336.289	428.879	0.055	0.117
-335.275	173.826	-0.126	0.181
-334.260	-200.000	0.003	0.088
-333.245	-200.000	-0.043	0.202
-332.231	-200.000	0.018	-0.100
-331.216	-168.144	0.115	0.004
-330.202	-200.000	-0.016	-0.163
-329.187	-160.760	0.189	-0.010
-328.172	-200.000	-0.019	0.244
-327.158	-158.589	-0.377	-0.022
-326.143	-1.719	-0.259	0.181
-325.129	-96.235	0.251	-0.066
-324.114	132.812	0.262	0.335
-323.099	-15.450	-0.194	0.123
-322.085	209.891	-0.050	-0.077
-321.070	43.261	-0.188	-0.171
-320.056	60.458	-0.188	-0.185
-319.041	488.932	-0.050	-0.113
-318.026	-68.229	-0.291	0.112
-317.012	-200.000	-0.053	-0.255
-315.997	800.000	0.029	-0.102
-314.983	-200.000	0.009	0.067
-313.968	-65.881	-0.048	-0.019
-312.953	-200.000	0.018	0.091
-311.939	800.000	0.022	-0.076
-310.924	334.642	-0.048	-0.092
-309.910	-87.184	0.202	0.061
-308.895	-200.000	-0.004	0.214
-307.880	-200.000	-0.015	-0.312
-306.866	-77.671	-0.036	-0.012
-305.851	800.000	0.053	0.149
-304.837	-35.075	0.185	0.100
-303.822	75.000	0.183	0.192
-302.807	-72.703	-0.135	0.050
-301.793	324.227	-0.026	0.050
-300.778	-29.401	0.176	0.100
-299.764	-143.675	-0.164	0.015
-298.749	-43.560	0.156	-0.078
-297.735	181.030	-0.131	0.191
-296.720	-166.014	0.225	-0.010
-295.705	-135.317	0.189	0.022
-294.691	-24.139	-0.372	0.220
-293.676	223.898	0.159	0.254
-292.662	-126.015	-0.146	0.022
-291.647	0.239	0.103	0.073
-290.632	144.769	0.041	-0.054
-289.618	-12.413	-0.141	-0.091
-288.603	167.217	0.123	0.174
-287.589	-200.000	-0.018	0.162
-286.574	120.289	-0.089	0.109
-285.559	3.508	0.193	0.140
-284.545	800.000	-0.115	0.327
-283.530	107.988	-0.227	0.269
-282.516	-200.000	-0.035	0.318
-281.501	-5.990	0.174	0.118
-280.486	7.793	0.144	-0.107
-279.472	800.000	0.025	-0.069
-278.457	450.631	-0.078	0.170
-277.443	-200.000	-0.114	-0.000
-276.428	204.291	-0.073	0.112
-275.413	107.789	-0.195	0.230
-274.399	-157.675	-0.081	-0.005
-273.384	-90.480	-0.666	0.191
-272.370	16.303	0.072	0.056
-271.355	25.838	-0.129	-0.107
-270.340	-200.000	0.007	-0.216
-269.326	113.115	-0.034	-0.041
-268.311	-140.149	-0.391	-0.041
-267.297	800.000	0.072	0.256
-266.282	-55.788	0.042	-0.018
-265.267	-200.000	-0.045	-0.231
-264.253	60.543	-0.177	-0.174
-263.238	-81.811	0.266	-0.086
-262.224	691.523	-0.158	-0.409
-261.209	307.353	-0.115	-0.212
-260.195	-200.000	0.009	0.173
-259.180	632.753	0.062	0.156
-258.165	-79.166	0.243	-0.082
-257.151	404.437	-0.066	0.138
-256.136	-172.719	-0.369	-0.011
-255.122	-148.567	0.242	0.020
-254.107	-200.000	0.042	0.219
-253.092	307.974	0.051	0.095
-252.078	21.147	0.157	-0.126
-251.063	445.699	-0.062	-0.136
-250.049	627.004	-0.049	0.121
-249.034	45.282	0.076	0.069
-248.019	-156.475	0.159	-0.010
-247.005	-36.017	0.018	-0.010
-245.990	-60.041	-0.175	-0.074
-244.976	0.891	-0.045	-0.032
-243.961	-33.348	0.136	0.074
-242.946	-200.000	0.018	0.104
-241.932	-81.094	-0.056	0.018
-240.917	-37.776	0.251	-0.132
-239.903	-200.000	0.027	0.221
-238.888	60.757	-0.232	-0.227
-237.873	301.639	-0.147	-0.268
-236.859	186.190	-0.173	-0.255
-235.844	-200.000	0.036	-0.188
-234.830	475.524	0.027	-0.059
-233.815	147.013	-0.104	-0.138
-232.800	-145.848	0.530	0.047
-231.786	152.057	-0.135	-0.182
-230.771	143.798	0.095	0.126
-229.757	-55.216	-0.127	-0.056
-228.742	14.707	0.063	0.049
-227.727	-200.000	0.004	0.197
-226.713	-200.000	-0.086	-0.378
-225.698	111.075	0.214	-0.254
-224.684	41.588	-0.030	0.027
-223.669	22.403	0.056	0.045
-222.655	43.767	0.146	0.132
-221.640	-108.866	-0.094	0.020
-220.625	96.698	0.054	0.061
-219.611	249.203	-0.142	0.238
-218.596	-200.000	-0.041	0.217
-217.582	140.610	0.187	-0.244
-216.567	-200.000	0.029	0.263
-215.552	-34.946	-0.274	0.148
-214.538	248.891	0.069	0.115
-213.523	-82.214	0.184	0.059
-212.509	-30.902	0.346	0.193
-211.494	-147.418	0.149	-0.012
-210.479	198.546	0.052	-0.079
-209.465	5.850	0.038	-0.028
-208.450	-34.817	0.269	0.145
-207.436	158.347	-0.111	0.153
-206.421	-142.090	0.355	-0.035
-205.406	5.073	-0.103	-0.075
-204.392	-26.734	0.322	-0.186
-203.377	39.802	-0.071	0.063
-202.363	61.862	0.016	0.015
-201.348	476.486	0.113	-0.252
-200.333	218.573	0.142	0.223
-199.319	259.926	-0.067	-0.114
-198.304	41.007	-0.241	-0.215
-197.290	800.000	0.025	0.074
-196.275	-116.816	0.269	0.049
-195.260	-200.000	0.006	0.163
-194.246	-120.818	0.187	0.031
-193.231	-50.295	0.295	0.138
-192.217	168.749	-0.098	0.138
-191.202	-90.577	-0.177	-0.050
-190.187	212.143	0.068	-0.106
-189.173	-200.000	-0.008	0.060
-188.158	479.031	-0.030	0.067
-187.144	-81.640	-0.219	-0.071
-186.129	800.000	-0.051	0.143
-185.114	-200.000	-0.041	0.247
-184.100	-141.820	0.060	0.006
-183.085	307.769	-0.127	-0.234
-182.071	142.548	0.126	0.165
-181.056	45.968	0.143	-0.130
-180.042	39.770	-0.085	0.075
-179.027	-37.060	0.127	-0.067
-178.012	115.182	0.111	-0.134
-176.998	-133.521	-0.274	0.034
-175.983	800.000	-0.046	0.190
-174.969	91.414	0.082	0.091
-173.954	-93.894	-0.241	-0.065
-172.939	9.836	-0.281	0.210
-171.925	800.000	0.058	0.225
-170.910	-171.158	-0.271	0.009
-169.896	193.197	0.161	-0.241
-168.881	40.373	-0.267	-0.237
-167.866	-119.313	-0.377	-0.065
-166.852	800.000	0.056	0.201
-165.837	-47.629	0.099	-0.047
-164.823	-200.000	0.003	0.142
-163.808	800.000	-0.030	0.109
-162.793	-92.970	0.096	-0.026
-161.779	497.689	-0.085	0.193
-160.764	-128.718	-0.262	-0.037
-159.750	-164.684	0.230	-0.010
-158.735	27.433	-0.218	0.181
-157.720	-200.000	-0.025	0.264
-156.706	-114.421	0.179	-0.034
-155.691	128.591	0.122	-0.154
-154.677	245.729	0.136	0.226
-153.662	87.670	-0.177	-0.193
-152.647	-59.292	-0.128	-0.054
-151.633	-44.358	-0.085	-0.042
-150.618	-200.000	-0.057	0.287
-149.604	46.398	0.388	0.354
-148.589	-112.699	-0.128	-0.025
-147.574	-200.000	-0.033	0.228
-146.560	-200.000	0.033	-0.160
-145.545	-57.503	0.214	0.093
-144.531	-200.000	0.042	0.191
-143.516	32.372	0.138	0.117
-142.502	-128.530	-0.311	0.043
-141.487	792.275	0.122	-0.329
-140.472	-78.069	0.231	0.078
-139.458	-149.739	0.310	0.024
-138.443	95.702	0.157	0.177
-137.429	-108.697	-0.183	-0.039
-136.414	-200.000	-0.001	0.010
-135.399	19.139	-0.127	0.100
-134.385	456.722	0.185	-0.404
-133.370	7.973	-0.045	0.033
-132.356	165.950	0.065	0.090
-131.341	195.720	-0.168	-0.252
-130.326	800.000	-0.090	0.249
-129.312	-200.000	0.010	0.134
-128.297	-200.000	0.005	-0.170
-127.283	-12.035	0.142	-0.092
-126.268	800.000	-0.148	0.461
-125.253	198.577	-0.153	0.231
-124.239	16.274	0.231	0.179
-123.224	-48.169	-0.207	0.098
-122.210	-155.537	0.191	0.012
-121.195	127.490	0.098	0.122
