DTS Sentinel unit serial number:	SN413079Multiplexer serial number:	ORYXHardware model number:	OX4-SRSoftware version number:	ORYX F/W v4.00 Oryx Data Collector v3.7.2.0data status	okinstallation	princeton_trtdifferential loss correction	single-endedforward channel	channel 2reverse channel	N/Adate	2019/09/14time	15:19:35forward acquisition time	60.00reverse acquisition time	0.00gamma	496.2192k internal	0.2302k external	0.2302temperature offset calibration	1.0145default loss term (dB/km)	0.3790temperature slope calibration	1.0000multiplexer offset coefficient	1.0000multiplexer slope coefficient	1.0000fibre end	0.00T internal ref (°C)	39.06T ext. ref 1 (°C)	5.12T ext. ref 2 (°C)	34.15length (m)	temperature (°C)	Stokes	anti-Stokes-747.200	-93.052	-0.115	0.033
-746.185	-200.000	0.013	0.202
-745.171	-174.840	0.441	-0.013
-744.156	-45.283	0.263	0.133
-743.142	98.567	-0.115	-0.135
-742.127	130.342	0.160	0.208
-741.112	-86.724	0.113	-0.035
-740.098	-147.641	0.040	0.003
-739.083	12.981	-0.159	-0.125
-738.069	-42.830	0.194	-0.101
-737.054	-200.000	0.012	0.102
-736.039	-89.226	-0.104	0.031
-735.025	-115.592	-0.126	0.024
-734.010	800.000	0.029	-0.105
-732.996	-16.333	-0.303	-0.196
-731.981	0.605	-0.025	-0.018
-730.966	6.292	0.042	-0.032
-729.952	-152.736	-0.492	-0.036
-728.937	40.661	-0.125	-0.115
-727.923	159.205	-0.176	0.249
-726.908	159.365	-0.110	0.156
-725.894	118.545	-0.217	-0.273
-724.879	-20.474	-0.180	0.113
-723.864	50.658	0.118	0.114
-722.850	56.862	-0.146	-0.145
-721.835	-85.144	0.288	0.092
-720.821	586.125	-0.012	-0.030
-719.806	-48.940	-0.156	0.076
-718.791	132.452	-0.183	-0.241
-717.777	-144.769	-0.305	-0.029
-716.762	-200.000	-0.011	-0.063
-715.748	-71.368	-0.187	-0.071
-714.733	-200.000	-0.007	-0.258
-713.718	-120.364	-0.149	-0.026
-712.704	9.350	0.194	-0.149
-711.689	443.930	-0.105	-0.234
-710.675	-35.748	-0.295	0.162
-709.660	-35.263	-0.258	-0.143
-708.645	359.247	0.045	-0.092
-707.631	22.328	0.116	-0.097
-706.616	-85.446	0.191	0.060
-705.602	-15.752	-0.071	0.046
-704.587	-200.000	-0.006	0.055
-703.572	800.000	0.068	-0.222
-702.558	320.431	-0.118	0.228
-701.543	87.326	-0.079	-0.089
-700.529	570.006	-0.116	-0.287
-699.514	282.662	-0.143	-0.260
-698.499	800.000	-0.090	-0.385
-697.485	-52.975	-0.640	-0.299
-696.470	78.823	-0.195	-0.212
-695.456	191.339	0.161	-0.246
-694.441	173.547	0.110	-0.161
-693.426	-200.000	-0.003	0.092
-692.412	-200.000	0.014	-0.079
-691.397	-56.777	-0.366	0.165
-690.383	452.794	0.054	0.122
-689.368	490.359	0.066	0.153
-688.354	-200.000	-0.029	-0.229
-687.339	-200.000	0.024	-0.209
-686.324	-64.712	-0.175	-0.072
-685.310	-96.637	-0.135	-0.036
-684.295	-200.000	-0.004	-0.089
-683.281	6.706	0.239	0.181
-682.266	-112.515	0.356	-0.072
-681.251	305.310	-0.088	0.166
-680.237	-106.009	-0.103	-0.024
-679.222	-177.326	0.207	-0.005
-678.208	-171.471	0.194	-0.007
-677.193	14.237	0.146	0.116
-676.178	18.347	-0.280	0.228
-675.164	218.928	-0.022	0.036
-674.149	127.481	-0.116	-0.149
-673.135	-106.269	-0.052	-0.012
-672.120	800.000	0.051	0.173
-671.105	-95.501	-0.194	0.053
-670.091	60.566	0.055	-0.056
-669.076	160.097	-0.105	-0.149
-668.062	69.748	0.196	-0.205
-667.047	800.000	-0.033	0.108
-666.032	403.910	0.131	0.281
-665.018	40.723	0.292	0.267
-664.003	-113.674	0.071	0.014
-662.989	800.000	-0.093	-0.416
-661.974	-200.000	-0.128	-0.000
-660.959	30.395	-0.054	-0.047
-659.945	-200.000	0.022	-0.236
-658.930	800.000	0.062	-0.212
-657.916	800.000	-0.053	-0.163
-656.901	800.000	0.072	-0.230
-655.886	800.000	0.024	0.101
-654.872	-147.810	-0.082	-0.007
-653.857	-14.283	0.331	-0.216
-652.843	-90.584	0.120	0.035
-651.828	-46.611	0.241	-0.120
-650.814	-178.739	0.051	0.001
-649.799	25.599	-0.194	0.164
-648.784	-30.861	0.198	0.114
-647.770	73.382	-0.083	-0.089
-646.755	-200.000	-0.036	0.193
-645.741	76.027	0.293	0.314
-644.726	-200.000	0.032	0.155
-643.711	-51.777	0.126	-0.060
-642.697	-7.037	0.333	0.229
-641.682	75.608	0.108	-0.116
-640.668	-101.716	-0.185	0.045
-639.653	171.025	-0.108	-0.157
-638.638	84.318	0.129	0.143
-637.624	-16.284	0.113	-0.073
-636.609	-20.866	-0.140	0.087
-635.595	294.052	0.124	-0.231
-634.580	73.728	-0.299	-0.318
-633.565	-142.746	-0.183	0.018
-632.551	84.831	0.131	-0.145
-631.536	74.658	-0.066	-0.071
-630.522	48.348	-0.078	0.074
-629.507	26.856	0.263	-0.223
-628.492	-200.000	0.066	0.332
-627.478	101.958	0.156	0.184
-626.463	379.476	0.037	-0.078
-625.449	-39.621	0.184	-0.098
-624.434	-67.591	-0.037	0.015
-623.419	-200.000	0.005	0.216
-622.405	-65.262	-0.035	0.014
-621.390	-115.216	0.290	0.056
-620.376	-72.408	-0.278	-0.104
-619.361	-60.266	0.279	0.120
-618.346	-30.179	-0.262	0.151
-617.332	27.122	0.121	0.103
-616.317	-117.629	-0.273	-0.050
-615.303	-42.332	0.032	-0.017
-614.288	-8.841	0.106	-0.072
-613.273	35.968	0.316	-0.282
-612.259	-95.252	-0.139	0.038
-611.244	800.000	0.100	-0.340
-610.230	-200.000	-0.057	0.266
-609.215	-78.397	-0.139	0.048
-608.201	-33.241	0.427	0.240
-607.186	-111.561	0.335	0.069
-606.171	66.886	0.122	-0.125
-605.157	-129.482	0.103	0.015
-604.142	-54.687	0.045	-0.021
-603.128	-85.959	-0.146	-0.046
-602.113	-200.000	0.001	0.015
-601.098	-67.072	-0.087	-0.035
-600.084	43.920	-0.330	-0.307
-599.069	-200.000	-0.011	0.159
-598.055	48.166	0.090	-0.085
-597.040	-200.000	-0.021	-0.211
-596.025	-44.271	-0.205	-0.104
-595.011	-90.125	-0.197	-0.058
-593.996	344.166	-0.099	-0.196
-592.982	-200.000	-0.008	-0.253
-591.967	152.191	-0.043	-0.060
-590.952	290.095	0.083	0.153
-589.938	-80.183	0.203	0.069
-588.923	148.081	-0.075	0.103
-587.909	153.793	-0.236	0.327
-586.894	40.691	-0.241	-0.220
-585.879	-136.069	-0.378	0.045
-584.865	30.464	-0.188	-0.163
-583.850	417.761	0.032	0.070
-582.836	-23.464	0.079	-0.048
-581.821	-200.000	-0.021	0.122
-580.806	146.513	0.114	0.155
-579.792	800.000	0.025	0.081
-578.777	-200.000	0.025	-0.147
-577.763	93.281	0.153	-0.175
-576.748	43.471	0.133	-0.123
-575.733	37.029	-0.230	-0.206
-574.719	-152.891	0.175	-0.013
-573.704	-200.000	0.057	-0.264
-572.690	426.938	0.043	-0.093
-571.675	520.853	0.074	-0.176
-570.661	-200.000	0.027	-0.285
-569.646	-192.003	0.198	-0.002
-568.631	-116.694	-0.128	0.024
-567.617	216.157	-0.046	0.074
-566.602	461.373	0.054	-0.121
-565.588	-200.000	0.043	0.363
-564.573	-22.614	0.273	-0.167
-563.558	-111.881	-0.292	0.060
-562.544	323.562	-0.066	-0.128
-561.529	-200.000	0.030	-0.166
-560.515	459.888	-0.080	-0.180
-559.500	26.523	0.087	0.073
-558.485	-200.000	-0.025	0.135
-557.471	-200.000	-0.011	-0.165
-556.456	23.621	-0.140	-0.117
-555.442	800.000	0.102	-0.338
-554.427	4.897	0.053	0.040
-553.412	93.091	0.104	0.119
-552.398	286.030	-0.062	-0.113
-551.383	36.056	-0.051	0.045
-550.369	79.597	0.033	0.036
-549.354	208.799	-0.032	0.051
-548.339	-55.989	-0.118	0.053
-547.325	68.636	-0.209	-0.217
-546.310	800.000	0.105	-0.378
-545.296	277.113	0.187	0.336
-544.281	150.560	0.303	0.417
-543.266	-91.950	-0.342	0.098
-542.252	-73.519	-0.134	0.049
-541.237	234.321	-0.273	0.455
-540.223	800.000	0.070	-0.230
-539.208	-200.000	0.030	0.229
-538.193	502.202	-0.033	-0.076
-537.179	120.014	0.138	0.173
-536.164	-102.139	0.077	0.019
-535.150	-95.511	-0.220	-0.060
-534.135	40.635	-0.136	0.124
-533.121	195.394	-0.162	-0.249
-532.106	180.310	-0.051	-0.076
-531.091	46.725	-0.243	0.228
-530.077	-100.207	-0.138	0.035
-529.062	-155.934	-0.220	-0.014
-528.048	800.000	-0.095	0.358
-527.033	181.029	0.021	0.031
-526.018	-99.482	0.264	-0.067
-525.004	4.298	-0.127	0.094
-523.989	254.201	0.088	0.153
-522.975	-200.000	-0.012	-0.119
-521.960	453.059	-0.118	-0.264
-520.945	-7.679	-0.082	-0.056
-519.931	-160.220	-0.198	0.011
-518.916	-200.000	0.038	-0.369
-517.902	-95.520	-0.159	0.043
-516.887	-76.911	-0.082	0.029
-515.872	-118.632	0.331	0.059
-514.858	-200.000	-0.031	0.176
-513.843	-52.334	-0.199	-0.093
-512.829	800.000	0.062	-0.224
-511.814	-152.503	-0.451	0.033
-510.799	313.635	-0.098	-0.187
-509.785	416.023	0.085	-0.182
-508.770	15.225	0.267	-0.211
-507.756	203.713	0.145	0.227
-506.741	285.224	0.059	-0.107
-505.726	-145.977	-0.187	0.017
-504.712	103.416	-0.096	-0.114
-503.697	-60.530	-0.255	-0.109
-502.683	800.000	-0.144	0.426
-501.668	91.414	-0.097	0.110
-500.653	276.101	0.125	-0.225
-499.639	-200.000	-0.029	0.470
-498.624	-102.631	0.067	-0.016
-497.610	206.117	0.160	0.251
-496.595	84.935	-0.218	-0.241
-495.581	95.208	-0.250	-0.287
-494.566	-103.642	0.189	-0.045
-493.551	315.161	-0.052	-0.099
-492.537	78.320	0.177	0.190
-491.522	800.000	0.004	-0.015
-490.508	-110.160	-0.386	0.081
-489.493	209.628	0.043	0.067
-488.478	499.471	-0.069	0.161
-487.464	419.804	-0.096	-0.208
-486.449	-96.366	-0.155	-0.041
-485.435	800.000	0.050	-0.184
-484.420	-37.774	0.110	-0.059
-483.405	99.022	-0.201	0.234
-482.391	-91.661	0.203	0.058
-481.376	13.281	0.269	0.210
-480.362	-76.282	-0.315	0.112
-479.347	-78.606	0.331	-0.114
-478.332	-200.000	-0.020	0.093
-477.318	66.284	-0.272	0.278
-476.303	-63.717	0.355	-0.147
-475.289	-67.733	0.157	-0.062
-474.274	399.768	0.111	-0.234
-473.259	21.162	-0.092	-0.076
-472.245	18.869	0.197	-0.160
-471.230	236.940	-0.056	-0.094
-470.216	-10.962	-0.173	-0.115
-469.201	88.782	0.085	-0.095
-468.186	-125.056	-0.059	-0.009
-467.172	-200.000	0.028	0.222
-466.157	394.101	0.121	0.255
-465.143	800.000	-0.058	-0.191
-464.128	-60.949	0.066	0.028
-463.113	-90.123	0.275	-0.081
-462.099	800.000	-0.066	-0.288
-461.084	35.469	0.212	-0.187
-460.070	-92.764	0.343	-0.097
-459.055	-35.927	-0.186	-0.101
-458.040	162.645	0.079	0.112
-457.026	185.875	-0.077	0.116
-456.011	-200.000	0.027	0.258
-454.997	-51.269	0.361	0.170
-453.982	-121.673	0.267	-0.045
-452.968	-200.000	-0.012	-0.210
-451.953	324.709	-0.178	-0.342
-450.938	75.199	-0.267	-0.284
-449.924	35.204	-0.127	0.113
-448.909	-89.546	0.305	-0.090
-447.895	-143.498	0.334	-0.032
-446.880	-200.000	0.016	-0.394
-445.865	-50.809	-0.479	-0.227
-444.851	72.611	-0.149	-0.157
-443.836	538.206	0.026	-0.063
-442.822	-146.128	-0.288	-0.026
-441.807	800.000	-0.100	0.433
-440.792	83.249	-0.036	-0.039
-439.778	104.373	-0.163	0.193
-438.763	28.404	-0.283	0.241
-437.749	-35.677	-0.076	-0.041
-436.734	-92.675	0.270	-0.076
-435.719	-23.870	-0.247	0.149
-434.705	-200.000	0.002	-0.026
-433.690	-125.268	-0.041	-0.006
-432.676	112.530	-0.103	-0.126
-431.661	-200.000	0.004	-0.199
-430.646	-71.539	-0.210	-0.079
-429.632	129.914	-0.186	-0.240
-428.617	50.325	-0.178	0.169
-427.603	-14.082	0.149	-0.097
-426.588	-31.685	0.184	0.104
-425.573	-1.624	-0.231	0.163
-424.559	67.257	-0.221	0.227
-423.544	-32.093	0.158	-0.089
-422.530	-130.236	0.068	-0.009
-421.515	-65.928	-0.255	-0.103
-420.500	451.487	0.163	-0.362
-419.486	-113.119	-0.058	-0.011
-418.471	545.290	-0.082	0.197
-417.457	-133.435	-0.235	0.030
-416.442	119.646	0.073	-0.091
-415.428	268.608	-0.165	-0.290
-414.413	-56.835	-0.226	0.101
-413.398	-58.017	-0.248	0.109
-412.384	6.261	0.322	-0.240
-411.369	-105.046	0.375	-0.086
-410.355	-200.000	0.009	0.188
-409.340	-200.000	0.002	-0.198
-408.325	-200.000	0.045	-0.221
-407.311	-178.307	0.075	0.002
-406.296	-14.352	0.468	0.303
-405.282	116.226	-0.203	0.250
-404.267	-200.000	-0.015	0.096
-403.252	-200.000	0.003	-0.201
-402.238	-73.538	0.215	0.079
-401.223	-15.231	0.125	0.080
-400.209	-93.409	0.122	0.034
-399.194	-200.000	-0.019	-0.349
-398.179	-92.480	-0.139	0.039
-397.165	-96.087	0.217	-0.058
-396.150	124.982	-0.227	-0.288
-395.136	267.485	0.063	0.111
-394.121	-78.088	-0.343	0.119
-393.106	-30.724	0.084	-0.048
-392.092	-200.000	0.003	-0.216
-391.077	237.467	-0.216	-0.360
-390.063	-200.000	-0.012	0.306
-389.048	-122.125	0.200	-0.033
-388.033	412.917	0.072	0.154
-387.019	-0.278	0.222	-0.159
-386.004	-59.266	0.217	-0.094
-384.990	199.782	0.118	0.182
-383.975	-170.845	-0.413	0.014
-382.960	-200.000	-0.007	0.198
-381.946	-102.863	0.063	0.015
-380.931	246.187	-0.017	0.029
-379.917	-82.092	0.227	-0.075
-378.902	-183.849	0.420	-0.007
-377.888	-200.000	-0.044	0.283
-376.873	639.891	0.140	0.359
-375.858	-200.000	-0.075	0.389
-374.844	228.530	-0.032	-0.053
-373.829	171.748	-0.223	-0.322
-372.815	-67.913	0.140	0.055
-371.800	-24.872	0.092	-0.055
-370.785	135.588	0.439	0.574
-369.771	-71.868	-0.141	0.053
-368.756	147.872	-0.088	-0.120
-367.742	-116.060	-0.264	0.049
-366.727	12.134	-0.267	0.206
-365.712	372.704	0.165	0.336
-364.698	-200.000	0.029	0.179
-363.683	-24.996	0.334	-0.199
-362.669	-188.132	-0.126	0.002
-361.654	49.655	-0.101	-0.096
-360.639	-164.391	-0.077	0.004
-359.625	23.280	-0.189	-0.156
-358.610	-71.985	0.083	0.031
-357.596	351.003	0.064	0.127
-356.581	110.959	-0.150	0.181
-355.566	196.506	-0.041	-0.063
-354.552	57.704	-0.107	0.105
-353.537	-166.337	0.184	-0.008
-352.523	-92.840	-0.091	-0.026
-351.508	-94.154	-0.192	0.053
-350.493	191.731	-0.202	-0.305
-349.479	4.258	-0.145	-0.107
-348.464	-0.894	-0.142	0.101
-347.450	800.000	0.032	0.095
-346.435	800.000	0.051	0.194
-345.420	800.000	-0.078	0.271
-344.406	35.968	-0.097	0.086
-343.391	800.000	-0.074	0.271
-342.377	2.765	-0.091	-0.066
-341.362	-200.000	-0.023	0.168
-340.348	57.296	-0.117	0.114
-339.333	91.882	-0.057	-0.064
-338.318	524.744	0.065	0.153
-337.304	-44.264	0.307	-0.154
-336.289	88.589	-0.088	-0.098
-335.275	7.961	-0.250	-0.188
-334.260	800.000	-0.097	-0.270
-333.245	-200.000	-0.005	-0.253
-332.231	18.235	0.468	0.374
-331.216	48.911	0.170	0.160
-330.202	199.552	-0.225	0.346
-329.187	800.000	-0.055	-0.220
-328.172	800.000	0.039	-0.137
-327.158	103.744	-0.148	-0.174
-326.143	284.375	-0.042	-0.076
-325.129	107.703	0.121	-0.145
-324.114	-200.000	-0.014	-0.120
-323.099	134.782	0.185	0.241
-322.085	-200.000	-0.003	0.257
-321.070	-13.882	0.050	-0.032
-320.056	167.816	-0.072	0.102
-319.041	106.620	-0.123	0.146
-318.026	179.795	0.205	0.301
-317.012	-200.000	-0.037	0.211
-315.997	-37.616	0.105	-0.056
-314.983	-86.178	0.106	-0.033
-313.968	-5.703	0.187	-0.128
-312.953	204.849	-0.073	0.113
-311.939	-179.605	-0.246	-0.005
-310.924	-193.509	0.391	0.003
-309.910	-106.029	0.022	-0.005
-308.895	-141.703	-0.237	0.024
-307.880	-56.588	0.254	0.113
-306.866	-150.613	0.119	-0.009
-305.851	-118.610	0.069	-0.012
-304.837	18.828	0.238	0.191
-303.822	-48.962	-0.201	0.096
-302.807	143.705	-0.087	0.116
-301.793	-96.711	0.225	-0.059
-300.778	800.000	0.082	0.304
-299.764	-77.123	0.320	0.112
-298.749	56.815	-0.253	-0.247
-297.735	-200.000	-0.030	0.151
-296.720	-72.357	-0.277	-0.103
-295.705	29.032	-0.205	0.174
-294.691	800.000	0.159	-0.491
-293.676	-88.523	-0.384	-0.115
-292.662	-200.000	0.014	-0.139
-291.647	800.000	0.031	0.116
-290.632	0.914	-0.361	0.259
-289.618	134.312	-0.081	-0.105
-288.603	-113.253	-0.125	-0.025
-287.589	-200.000	0.058	0.270
-286.574	40.980	-0.032	-0.029
-285.559	-101.948	0.152	0.037
-284.545	71.427	-0.158	0.164
-283.530	-114.108	0.159	0.031
-282.516	-200.000	0.042	-0.203
-281.501	507.134	-0.128	-0.298
-280.486	-130.975	-0.137	0.018
-279.472	-200.000	0.026	0.269
-278.457	350.340	-0.021	-0.042
-277.443	-70.839	-0.084	0.032
-276.428	237.842	0.195	0.324
-275.413	-200.000	-0.010	0.154
-274.399	-200.000	-0.011	0.242
-273.384	140.450	0.272	0.360
-272.370	21.328	0.060	-0.049
-271.355	235.633	0.144	0.238
-270.340	67.629	-0.369	0.377
-269.326	-35.187	0.140	-0.076
-268.311	-127.167	0.097	0.014
-267.297	37.008	0.240	0.212
-266.282	-145.117	-0.251	0.023
-265.267	426.930	-0.038	-0.082
-264.253	-35.480	-0.286	0.155
-263.238	2.094	0.203	-0.146
-262.224	635.041	0.112	-0.284
-261.209	-37.559	-0.048	0.026
-260.195	557.614	-0.117	-0.281
-259.180	483.415	-0.046	-0.104
-258.165	88.379	0.106	0.118
-257.151	800.000	0.079	-0.303
-256.136	-144.431	0.212	0.020
-255.122	-68.650	0.130	0.050
-254.107	-200.000	-0.030	0.271
-253.092	-76.635	0.340	0.119
-252.078	551.517	-0.133	0.319
-251.063	-110.833	-0.149	-0.031
-250.049	-65.219	-0.207	0.083
-249.034	512.985	0.059	0.138
-248.019	146.878	-0.117	-0.158
-247.005	-200.000	0.100	0.000
-245.990	349.619	0.077	-0.152
-244.976	800.000	-0.060	-0.224
-243.961	800.000	0.088	0.368
-242.946	52.556	0.181	-0.173
-241.932	800.000	-0.058	-0.184
-240.917	-55.375	0.284	0.127
-239.903	-200.000	0.005	0.049
-238.888	59.510	-0.142	-0.139
-237.873	-21.863	-0.194	0.118
-236.859	-179.950	0.125	0.003
-235.844	-128.454	0.316	0.045
-234.830	-200.000	-0.010	0.095
-233.815	-103.472	-0.179	0.042
-232.800	800.000	0.076	-0.289
-231.786	-111.498	-0.121	-0.025
-230.771	336.110	-0.083	-0.161
-229.757	800.000	-0.120	0.436
-228.742	-43.299	-0.163	0.082
-227.727	-23.789	0.133	0.079
-226.713	330.016	-0.030	0.057
-225.698	339.453	-0.117	-0.228
-224.684	-51.100	0.200	-0.094
-223.669	-1.793	0.366	-0.257
-222.655	-200.000	0.020	0.138
-221.640	800.000	-0.084	0.363
-220.625	-64.815	-0.247	-0.100
-219.611	-200.000	-0.029	-0.293
-218.596	800.000	-0.108	-0.303
-217.582	-161.205	-0.286	-0.015
-216.567	-109.943	0.197	-0.041
-215.552	26.791	0.150	-0.126
-214.538	-26.007	0.140	0.082
-213.523	-10.675	-0.239	0.158
-212.509	-62.363	0.094	-0.039
-211.494	317.922	0.076	0.144
-210.479	50.916	-0.055	-0.052
-209.465	160.258	-0.135	0.188
-208.450	-200.000	-0.025	0.157
-207.436	-74.221	0.301	-0.109
-206.421	-200.000	-0.010	0.146
-205.406	206.169	0.193	0.299
-204.392	139.650	-0.109	0.144
-203.377	-164.868	-0.112	0.005
-202.363	-47.280	-0.245	0.119
-201.348	800.000	-0.040	0.157
-200.333	410.853	-0.037	0.079
-199.319	-59.088	-0.132	-0.057
-198.304	-104.119	0.119	-0.028
-197.290	-141.505	0.251	-0.025
-196.275	194.546	0.139	-0.210
-195.260	-53.767	-0.261	-0.119
-194.246	386.929	0.160	-0.330
-193.231	224.202	0.127	-0.204
-192.217	116.548	0.113	0.139
-191.202	-200.000	0.012	-0.111
-190.187	-200.000	0.018	-0.078
-189.173	-132.803	0.374	0.048
-188.158	-200.000	0.005	0.056
-187.144	-200.000	-0.025	0.355
-186.129	-102.050	-0.162	-0.039
-185.114	726.199	0.090	-0.240
-184.100	134.982	-0.127	-0.165
-183.085	424.351	0.097	0.207
-182.071	267.247	-0.066	-0.116
-181.056	-80.344	0.214	-0.071
-180.042	138.010	-0.056	-0.073
-179.027	13.920	-0.278	-0.215
-178.012	-200.000	0.022	-0.209
-176.998	-149.360	0.117	0.009
-175.983	685.646	0.043	-0.112
-174.969	800.000	-0.145	0.406
-173.954	-192.585	0.307	-0.003
-172.939	113.968	-0.118	-0.143
-171.925	166.684	-0.159	-0.224
-170.910	-140.452	-0.240	0.025
-169.896	375.446	0.144	-0.292
-168.881	91.345	0.073	-0.082
-167.866	-56.654	-0.080	-0.035
-166.852	-200.000	0.016	0.295
-165.837	-200.000	0.267	0.001
-164.823	-45.950	0.273	-0.134
-163.808	93.156	0.134	-0.151
-162.793	-177.684	0.368	0.009
-161.779	158.387	0.091	-0.126
-160.764	85.021	0.175	-0.191
-159.750	800.000	0.061	0.239
-158.735	-158.345	-0.258	0.015
-157.720	554.514	-0.121	-0.290
-156.706	-128.298	-0.306	0.043
-155.691	-200.000	0.049	-0.219
-154.677	168.075	0.094	-0.133
-153.662	-43.116	0.102	-0.052
-152.647	-163.660	0.268	0.013
-151.633	-200.000	0.012	-0.153
-150.618	69.919	0.106	-0.109
-149.604	274.617	0.069	0.121
-148.589	219.836	0.226	0.360
-147.574	800.000	-0.006	0.022
-146.560	-140.725	-0.114	0.012
-145.545	618.132	-0.174	-0.435
-144.531	-19.017	-0.055	-0.034
-143.516	757.160	0.093	-0.250
-142.502	276.870	0.172	-0.305
-141.487	-82.504	-0.425	0.137
-140.472	-200.000	0.087	0.395
-139.458	-96.790	0.056	-0.015
-138.443	43.191	-0.140	0.128
-137.429	108.733	0.163	0.194
-136.414	-126.003	0.079	0.012
-135.399	-58.575	0.252	0.109
-134.385	-200.000	0.004	0.147
-133.370	18.498	0.125	-0.100
-132.356	303.737	-0.067	0.123
-131.341	-66.437	-0.310	0.122
-130.326	-200.000	-0.003	0.317
-129.312	-43.299	-0.265	-0.133
-128.297	-200.000	0.022	-0.214
-127.283	-37.307	0.329	0.175
-126.268	-49.056	0.128	-0.061
-125.253	313.730	0.148	0.278
-124.239	800.000	-0.045	0.155
-123.224	800.000	-0.054	-0.222
-122.210	-200.000	-0.008	-0.105
-121.195	-53.404	0.060	0.027
