DTS Sentinel unit serial number:	SN413079Multiplexer serial number:	ORYXHardware model number:	OX4-SRSoftware version number:	ORYX F/W v4.00 Oryx Data Collector v3.7.2.0data status	okinstallation	princeton_trtdifferential loss correction	single-endedforward channel	channel 2reverse channel	N/Adate	2019/09/13time	21:35:35forward acquisition time	60.00reverse acquisition time	0.00gamma	496.2192k internal	0.2334k external	0.2334temperature offset calibration	1.0136default loss term (dB/km)	0.3790temperature slope calibration	1.0000multiplexer offset coefficient	1.0000multiplexer slope coefficient	1.0000fibre end	0.00T internal ref (°C)	28.25T ext. ref 1 (°C)	3.30T ext. ref 2 (°C)	22.77length (m)	temperature (°C)	Stokes	anti-Stokes-747.200	-37.488	0.308	-0.165
-746.185	566.934	-0.099	0.242
-745.171	160.851	0.219	-0.308
-744.156	-44.501	-0.177	0.089
-743.142	-200.000	-0.044	0.199
-742.127	-31.836	-0.100	0.056
-741.112	-200.000	0.007	0.057
-740.098	159.475	-0.050	-0.070
-739.083	398.489	0.117	-0.246
-738.069	800.000	0.119	0.439
-737.054	-41.421	0.356	0.184
-736.039	125.338	-0.133	-0.168
-735.025	130.116	0.087	-0.111
-734.010	-200.000	-0.084	-0.461
-732.996	800.000	-0.080	-0.236
-731.981	-200.000	0.121	-0.608
-730.966	-200.000	-0.014	-0.233
-729.952	46.262	0.082	-0.077
-728.937	-150.946	-0.072	-0.005
-727.923	-152.087	0.167	0.012
-726.908	-200.000	0.019	0.104
-725.894	-112.809	0.152	-0.030
-724.879	-57.146	-0.301	0.133
-723.864	-200.000	-0.050	-0.228
-722.850	-28.698	0.154	-0.089
-721.835	692.718	0.077	0.202
-720.821	-200.000	-0.003	-0.061
-719.806	85.624	-0.081	0.089
-718.791	800.000	0.031	-0.124
-717.777	-200.000	-0.005	-0.043
-716.762	-200.000	0.027	0.132
-715.748	163.867	-0.110	0.156
-714.733	-141.480	-0.284	0.029
-713.718	223.746	-0.085	-0.138
-712.704	-200.000	0.573	0.001
-711.689	12.368	-0.227	0.176
-710.675	89.136	-0.175	-0.196
-709.660	-200.000	-0.006	0.119
-708.645	-42.950	0.030	0.015
-707.631	17.257	0.102	0.081
-706.616	-200.000	-0.005	0.051
-705.602	-98.737	-0.132	-0.034
-704.587	-59.316	0.161	-0.070
-703.572	800.000	-0.020	-0.081
-702.558	800.000	-0.031	-0.104
-701.543	159.133	0.137	0.191
-700.529	800.000	-0.067	-0.215
-699.514	574.750	-0.037	0.090
-698.499	-148.467	0.270	-0.022
-697.485	-96.358	0.072	0.019
-696.470	-200.000	0.010	0.050
-695.456	-132.907	0.210	-0.027
-694.441	-126.655	-0.282	-0.042
-693.426	-200.000	0.033	-0.324
-692.412	85.515	-0.058	0.064
-691.397	-152.887	-0.278	0.020
-690.383	23.232	-0.043	0.035
-689.368	-110.408	-0.139	-0.029
-688.354	24.064	-0.131	-0.109
-687.339	-41.314	-0.075	-0.039
-686.324	-116.655	-0.296	-0.055
-685.310	80.841	0.116	-0.125
-684.295	106.622	0.009	0.011
-683.281	-200.000	0.001	-0.097
-682.266	-116.441	0.279	0.052
-681.251	-67.498	-0.422	-0.166
-680.237	24.190	-0.184	-0.152
-679.222	-121.360	-0.041	-0.007
-678.208	-200.000	0.000	0.029
-677.193	444.698	0.127	-0.279
-676.178	254.175	-0.043	-0.074
-675.164	-47.351	-0.176	-0.086
-674.149	-200.000	0.063	0.319
-673.135	-133.266	0.182	0.023
-672.120	-72.360	-0.255	-0.095
-671.105	-200.000	0.054	-0.322
-670.091	-200.000	0.002	0.011
-669.076	262.946	0.122	-0.213
-668.062	-111.288	0.265	-0.054
-667.047	-200.000	-0.020	-0.275
-666.032	641.570	-0.049	0.125
-665.018	148.064	-0.167	-0.226
-664.003	-91.138	0.098	-0.028
-662.989	-186.988	-0.290	0.004
-661.974	112.416	-0.149	-0.181
-660.959	-84.712	0.254	-0.080
-659.945	-5.378	-0.144	0.099
-658.930	-200.000	-0.031	0.198
-657.916	57.989	0.135	0.132
-656.901	6.600	-0.165	-0.123
-655.886	57.165	0.226	-0.220
-654.872	716.098	-0.114	-0.302
-653.857	800.000	0.073	0.208
-652.843	800.000	0.112	-0.361
-651.828	124.503	0.217	0.273
-650.814	284.847	0.158	-0.285
-649.799	-144.103	-0.287	0.027
-648.784	447.052	-0.044	0.096
-647.770	509.680	0.114	0.265
-646.755	-200.000	-0.002	0.052
-645.741	-76.219	0.182	-0.064
-644.726	-31.489	0.225	-0.127
-643.711	-28.491	0.215	0.124
-642.697	19.893	-0.194	-0.156
-641.682	-200.000	0.023	0.259
-640.668	657.216	-0.071	0.182
-639.653	-168.858	0.501	0.019
-638.638	-6.305	-0.014	0.010
-637.624	38.320	-0.094	-0.083
-636.609	166.039	-0.115	-0.163
-635.595	-75.828	0.172	0.061
-634.580	-39.181	-0.396	-0.208
-633.565	800.000	0.026	0.082
-632.551	-30.906	0.119	0.067
-631.536	800.000	-0.080	-0.241
-630.522	800.000	-0.056	0.219
-629.507	-136.543	-0.435	0.050
-628.492	-200.000	0.007	0.035
-627.478	-179.106	-0.349	-0.008
-626.463	800.000	-0.026	0.110
-625.449	-167.776	-0.129	0.005
-624.434	38.488	-0.257	-0.230
-623.419	350.387	-0.008	0.016
-622.405	-2.657	-0.173	-0.121
-621.390	-84.169	0.198	-0.063
-620.376	-119.474	-0.168	0.029
-619.361	0.503	-0.122	-0.087
-618.346	64.636	0.189	0.191
-617.332	155.211	-0.229	0.315
-616.317	75.915	-0.155	-0.164
-615.303	267.598	0.116	-0.203
-614.288	-200.000	-0.041	-0.317
-613.273	-93.168	-0.619	-0.172
-612.259	-45.867	0.117	0.058
-611.244	70.206	0.210	-0.216
-610.230	-200.000	-0.034	-0.204
-609.215	800.000	0.056	-0.226
-608.201	101.969	0.128	-0.149
-607.186	177.837	0.063	-0.091
-606.171	99.829	-0.228	-0.264
-605.157	-78.053	0.265	-0.091
-604.142	677.791	-0.104	-0.270
-603.128	-76.500	0.388	0.136
-602.113	800.000	0.111	0.325
-601.098	194.493	-0.152	0.231
-600.084	-31.819	0.093	0.052
-599.069	38.431	-0.136	0.121
-598.055	143.785	-0.176	-0.235
-597.040	36.823	-0.185	0.164
-596.025	-43.559	-0.088	-0.044
-595.011	-163.189	0.101	-0.005
-593.996	620.475	-0.085	0.214
-592.982	800.000	-0.117	0.464
-591.967	-40.561	-0.336	0.174
-590.952	-154.750	-0.325	0.022
-589.938	-200.000	-0.031	-0.245
-588.923	800.000	0.037	-0.124
-587.909	593.739	-0.165	0.409
-586.894	800.000	0.030	0.123
-585.879	-6.391	0.216	-0.147
-584.865	102.913	-0.140	0.164
-583.850	174.821	0.141	-0.204
-582.836	41.742	0.278	-0.252
-581.821	-182.532	-0.145	-0.003
-580.806	-40.508	-0.250	-0.130
-579.792	234.225	-0.079	-0.130
-578.777	800.000	-0.142	0.488
-577.763	107.158	0.189	0.224
-576.748	-200.000	-0.044	0.212
-575.733	329.321	-0.077	-0.148
-574.719	124.144	0.163	-0.205
-573.704	76.829	-0.095	-0.101
-572.690	89.927	0.060	0.067
-571.675	-200.000	-0.002	0.346
-570.661	-195.169	0.379	0.003
-569.646	-112.241	-0.084	0.017
-568.631	-143.914	0.088	-0.008
-567.617	-116.984	0.149	-0.027
-566.602	264.224	0.162	-0.281
-565.588	12.995	0.161	0.124
-564.573	-200.000	0.035	0.299
-563.558	38.720	0.171	0.152
-562.544	-42.339	-0.097	0.049
-561.529	-33.370	0.153	-0.085
-560.515	-8.288	-0.085	0.057
-559.500	132.901	0.157	0.202
-558.485	-26.568	0.118	0.069
-557.471	228.487	0.194	-0.315
-556.456	-14.704	-0.369	-0.236
-555.442	-72.231	-0.250	0.092
-554.427	52.561	0.132	-0.125
-553.412	9.655	0.102	0.077
-552.398	55.165	0.101	0.098
-551.383	-85.762	-0.066	-0.020
-550.369	307.501	-0.102	-0.190
-549.354	253.630	0.095	-0.163
-548.339	38.193	-0.099	0.088
-547.325	-200.000	-0.022	-0.147
-546.310	42.096	0.145	0.131
-545.296	75.671	0.138	0.146
-544.281	800.000	0.024	0.082
-543.266	800.000	0.014	0.057
-542.252	212.693	0.096	0.152
-541.237	708.149	0.078	-0.205
-540.223	800.000	0.064	-0.277
-539.208	-53.623	0.190	-0.086
-538.193	34.309	-0.291	0.253
-537.179	-200.000	-0.031	0.167
-536.164	-123.018	0.503	-0.081
-535.150	-200.000	-0.003	0.085
-534.135	-119.966	-0.310	0.053
-533.121	277.791	-0.047	0.083
-532.106	27.058	0.223	-0.186
-531.091	31.353	-0.127	0.109
-530.077	114.655	0.072	0.088
-529.062	-134.938	-0.308	0.037
-528.048	110.493	-0.191	-0.229
-527.033	-26.810	0.187	0.109
-526.018	-3.243	-0.116	0.081
-525.004	53.411	-0.232	-0.222
-523.989	-200.000	0.012	0.095
-522.975	-9.833	0.045	0.030
-521.960	-200.000	-0.021	-0.104
-520.945	258.675	0.043	0.074
-519.931	609.948	-0.090	-0.224
-518.916	-131.342	0.075	-0.010
-517.902	523.162	0.084	0.197
-516.887	56.194	-0.231	-0.224
-515.872	623.292	0.103	-0.257
-514.858	-44.900	-0.152	0.076
-513.843	-16.822	-0.348	0.219
-512.829	800.000	-0.046	0.167
-511.814	-37.436	0.271	0.144
-510.799	467.471	0.093	0.207
-509.785	-102.672	-0.256	-0.061
-508.770	800.000	-0.108	0.401
-507.756	13.551	0.307	0.237
-506.741	-47.795	-0.231	0.112
-505.726	-61.420	0.379	-0.159
-504.712	223.445	-0.031	0.049
-503.697	-18.340	0.087	-0.054
-502.683	-200.000	0.042	-0.408
-501.668	500.746	-0.051	0.117
-500.653	800.000	-0.087	-0.313
-499.639	-17.964	-0.219	-0.137
-498.624	-112.838	-0.094	-0.019
-497.610	161.778	-0.060	-0.084
-496.595	94.978	-0.206	0.233
-495.581	-200.000	0.068	0.432
-494.566	-92.530	0.209	0.058
-493.551	-163.321	0.356	0.017
-492.537	-200.000	-0.000	0.035
-491.522	11.324	-0.161	0.123
-490.508	-200.000	0.026	-0.117
-489.493	-200.000	-0.029	-0.142
-488.478	-33.758	-0.307	-0.168
-487.464	269.732	0.087	0.152
-486.449	-140.070	-0.120	-0.013
-485.435	800.000	0.026	0.103
-484.420	-13.659	-0.202	0.130
-483.405	545.656	-0.098	-0.234
-482.391	1.426	0.148	-0.106
-481.376	79.326	0.195	0.208
-480.362	-56.060	0.056	0.025
-479.347	182.433	0.097	0.142
-478.332	-150.162	-0.285	0.022
-477.318	207.542	0.237	-0.368
-476.303	205.095	-0.110	-0.171
-475.289	-130.585	-0.139	-0.019
-474.274	-58.141	0.082	0.036
-473.259	-200.000	-0.007	-0.259
-472.245	-58.974	0.154	0.066
-471.230	-200.000	-0.016	0.076
-470.216	-143.576	0.166	0.016
-469.201	-51.797	-0.182	0.084
-468.186	800.000	-0.077	0.335
-467.172	-52.035	-0.487	-0.225
-466.157	234.073	-0.024	-0.039
-465.143	357.880	0.030	0.060
-464.128	-54.376	0.207	0.093
-463.113	29.904	0.201	-0.170
-462.099	145.648	0.039	-0.052
-461.084	-200.000	0.005	-0.232
-460.070	145.243	-0.099	-0.132
-459.055	800.000	-0.178	-0.497
-458.040	-116.248	0.207	-0.038
-457.026	-21.305	-0.175	0.106
-456.011	53.606	0.112	0.107
-454.997	-93.657	-0.231	-0.063
-453.982	800.000	0.087	-0.365
-452.968	-200.000	-0.028	0.205
-451.953	503.280	0.091	-0.210
-450.938	45.771	-0.167	0.154
-449.924	-103.626	0.114	0.027
-448.909	389.253	-0.070	-0.143
-447.895	32.052	0.029	-0.025
-446.880	732.616	-0.072	0.192
-445.865	109.701	0.100	0.119
-444.851	-200.000	-0.028	0.129
-443.836	800.000	-0.071	0.222
-442.822	-153.960	-0.044	0.003
-441.807	161.051	0.164	0.228
-440.792	77.387	0.038	0.040
-439.778	-20.073	0.190	-0.116
-438.763	671.945	-0.116	-0.297
-437.749	-154.718	0.308	-0.020
-436.734	800.000	-0.047	0.172
-435.719	-93.617	0.625	-0.171
-434.705	-200.000	0.014	-0.228
-433.690	-19.596	0.040	0.025
-432.676	800.000	0.094	-0.357
-431.661	33.901	-0.122	0.105
-430.646	-200.000	0.035	-0.208
-429.632	44.516	0.122	0.111
-428.617	-200.000	-0.021	-0.123
-427.603	-189.133	0.049	-0.001
-426.588	52.252	-0.137	-0.130
-425.573	146.657	0.182	0.243
-424.559	-165.575	0.360	-0.016
-423.544	800.000	-0.012	-0.051
-422.530	-30.862	-0.282	-0.158
-421.515	800.000	0.053	-0.155
-420.500	-120.213	-0.280	-0.047
-419.486	174.188	0.137	-0.196
-418.471	7.659	0.231	-0.172
-417.457	621.560	-0.095	-0.237
-416.442	-146.415	-0.204	0.018
-415.428	-158.135	-0.132	-0.008
-414.413	800.000	-0.042	-0.143
-413.398	369.182	-0.050	0.100
-412.384	76.093	-0.158	0.166
-411.369	800.000	0.065	0.232
-410.355	29.020	0.164	-0.138
-409.340	-63.177	-0.308	-0.126
-408.325	-120.944	-0.222	0.037
-407.311	46.135	0.104	-0.096
-406.296	94.245	0.131	0.148
-405.282	372.757	-0.186	0.374
-404.267	-101.135	-0.171	-0.041
-403.252	-86.940	0.330	0.100
-402.238	173.497	0.078	0.111
-401.223	103.499	0.263	-0.307
-400.209	205.994	-0.068	0.105
-399.194	-85.222	-0.331	-0.103
-398.179	37.087	-0.159	-0.140
-397.165	39.315	-0.197	0.175
-396.150	-81.177	0.271	-0.089
-395.136	16.370	-0.156	0.122
-394.121	4.728	0.165	0.120
-393.106	-200.000	-0.025	-0.161
-392.092	800.000	-0.086	-0.373
-391.077	180.683	-0.207	-0.301
-390.063	-85.129	-0.186	-0.058
-389.048	170.372	0.086	-0.121
-388.033	-87.138	0.456	0.137
-387.019	47.513	-0.117	-0.108
-386.004	133.487	-0.116	0.148
-384.990	81.673	0.141	0.151
-383.975	136.426	-0.117	-0.151
-382.960	-200.000	0.002	0.034
-381.946	-26.920	0.036	-0.021
-380.931	-65.673	-0.063	0.025
-379.917	-105.553	0.194	-0.044
-378.902	800.000	-0.053	-0.149
-377.888	-36.374	-0.055	0.030
-376.873	-90.899	0.239	-0.068
-375.858	287.240	-0.090	-0.161
-374.844	-141.163	-0.069	0.007
-373.829	406.705	0.083	-0.173
-372.815	25.808	0.238	-0.196
-371.800	31.778	0.204	0.174
-370.785	186.102	0.077	-0.113
-369.771	-200.000	0.035	-0.205
-368.756	-200.000	-0.033	0.394
-367.742	169.260	0.042	0.059
-366.727	216.518	0.116	-0.182
-365.712	-100.897	0.379	0.092
-364.698	-176.411	-0.064	0.002
-363.683	-60.215	0.282	-0.119
-362.669	-65.126	0.094	0.038
-361.654	-81.842	0.165	-0.054
-360.639	800.000	0.105	0.339
-359.625	-12.595	-0.064	0.041
-358.610	24.710	0.245	0.201
-357.596	-200.000	-0.016	0.154
-356.581	-200.000	0.016	-0.139
-355.566	-15.575	0.286	-0.181
-354.552	-200.000	-0.010	-0.106
-353.537	26.472	0.269	-0.222
-352.523	-36.933	0.133	0.070
-351.508	-144.449	-0.329	-0.030
-350.493	75.374	0.029	-0.030
-349.479	800.000	-0.022	0.086
-348.464	8.291	-0.210	0.156
-347.450	-105.406	-0.097	0.022
-346.435	-120.917	-0.187	0.031
-345.420	-20.287	0.030	-0.018
-344.406	-58.913	-0.155	0.066
-343.391	227.021	-0.121	0.194
-342.377	-200.000	0.060	-0.283
-341.362	27.912	-0.323	0.270
-340.348	-200.000	-0.036	-0.201
-339.333	133.359	0.232	0.297
-338.318	-186.936	-0.410	-0.006
-337.304	-28.605	-0.145	-0.083
-336.289	-30.673	-0.308	-0.173
-335.275	-200.000	-0.045	-0.265
-334.260	-81.004	-0.257	-0.084
-333.245	-115.141	-0.227	0.043
-332.231	-77.843	0.003	-0.001
-331.216	193.684	0.063	0.095
-330.202	800.000	-0.023	0.063
-329.187	-200.000	0.054	0.243
-328.172	440.843	-0.115	-0.250
-327.158	8.063	-0.184	-0.136
-326.143	-200.000	-0.024	-0.176
-325.129	29.719	0.165	-0.139
-324.114	800.000	0.030	0.123
-323.099	-86.971	-0.369	0.111
-322.085	-52.281	0.447	0.205
-321.070	-90.994	-0.239	0.068
-320.056	-80.826	0.238	0.078
-319.041	-91.981	-0.122	-0.034
-318.026	-200.000	-0.015	0.091
-317.012	111.978	-0.177	0.212
-315.997	213.384	0.098	0.153
-314.983	-67.166	-0.266	-0.103
-313.968	257.344	-0.144	-0.244
-312.953	-200.000	0.026	-0.225
-311.939	402.467	0.181	-0.377
-310.924	-125.580	0.238	0.036
-309.910	252.202	0.095	-0.161
-308.895	-83.401	0.196	0.062
-307.880	13.547	0.083	0.063
-306.866	151.246	0.146	-0.196
-305.851	800.000	-0.036	0.103
-304.837	800.000	0.077	-0.299
-303.822	-200.000	0.044	0.197
-302.807	-170.202	0.307	0.011
-301.793	-103.218	0.256	-0.060
-300.778	-35.489	-0.045	-0.024
-299.764	-1.690	-0.249	-0.173
-298.749	24.311	-0.127	0.104
-297.735	-200.000	0.021	0.841
-296.720	273.186	-0.113	-0.197
-295.705	220.199	0.209	0.330
-294.691	-200.000	0.016	0.136
-293.676	35.594	0.153	0.133
-292.662	344.679	0.044	0.084
-291.647	115.666	-0.064	-0.077
-290.632	-136.941	0.428	-0.048
-289.618	89.825	-0.280	-0.308
-288.603	456.346	-0.050	-0.109
-287.589	48.272	0.047	-0.044
-286.574	2.997	-0.167	-0.120
-285.559	800.000	-0.051	-0.180
-284.545	221.096	-0.155	0.246
-283.530	-127.421	0.265	0.038
-282.516	150.300	-0.189	0.254
-281.501	716.421	-0.080	-0.208
-280.486	800.000	0.050	-0.210
-279.472	-80.618	-0.227	-0.075
-278.457	367.307	-0.164	0.327
-277.443	-200.000	-0.013	-0.394
-276.428	800.000	-0.026	-0.090
-275.413	-14.641	-0.118	-0.075
-274.399	800.000	0.067	0.237
-273.384	-172.260	0.554	0.018
-272.370	-119.419	0.145	-0.025
-271.355	209.280	-0.277	0.428
-270.340	298.488	0.075	0.135
-269.326	-156.218	0.120	0.007
-268.311	387.644	0.141	0.287
-267.297	-53.504	0.348	0.157
-266.282	15.401	-0.252	-0.195
-265.267	289.148	-0.082	0.146
-264.253	800.000	0.026	-0.094
-263.238	266.487	-0.185	-0.319
-262.224	800.000	-0.032	-0.121
-261.209	-177.161	-0.194	0.005
-260.195	-91.932	-0.098	0.027
-259.180	800.000	0.076	0.291
-258.165	283.353	-0.181	0.321
-257.151	-200.000	-0.016	0.100
-256.136	302.795	0.117	0.213
-255.122	-184.482	-0.130	0.002
-254.107	-98.350	-0.092	-0.023
-253.092	-148.953	-0.089	-0.007
-252.078	-68.257	-0.232	-0.089
-251.063	-36.063	-0.341	0.182
-250.049	-156.799	-0.186	0.011
-249.034	-200.000	-0.012	0.186
-248.019	43.368	-0.139	0.125
-247.005	-128.624	-0.215	0.030
-245.990	61.936	-0.205	-0.201
-244.976	52.026	0.241	-0.226
-243.961	472.207	0.110	0.244
-242.946	709.700	-0.139	-0.362
-241.932	45.831	0.299	-0.273
-240.917	-60.305	0.298	0.125
-239.903	142.518	0.145	-0.190
-238.888	-135.261	-0.310	0.037
-237.873	-200.000	0.026	0.149
-236.859	-43.490	-0.078	0.039
-235.844	385.936	0.110	0.224
-234.830	-126.815	0.440	-0.064
-233.815	217.862	0.116	-0.182
-232.800	490.442	0.132	0.299
-231.786	-200.000	-0.070	0.328
-230.771	99.484	-0.101	0.115
-229.757	109.803	0.211	-0.249
-228.742	20.096	0.146	0.116
-227.727	-135.673	-0.082	-0.010
-226.713	89.982	0.305	-0.336
-225.698	-59.164	0.220	-0.094
-224.684	-109.394	0.120	0.025
-223.669	160.295	-0.254	-0.348
-222.655	-200.000	-0.018	0.109
-221.640	2.067	0.202	0.144
-220.625	48.864	-0.111	0.102
-219.611	-200.000	0.040	-0.267
-218.596	-200.000	0.011	-0.075
-217.582	100.626	0.177	0.202
-216.567	800.000	-0.074	0.202
-215.552	309.922	0.154	0.283
-214.538	-200.000	-0.027	-0.235
-213.523	800.000	0.071	-0.233
-212.509	17.566	0.074	0.058
-211.494	15.041	0.209	0.161
-210.479	800.000	0.073	0.237
-209.465	800.000	0.085	0.237
-208.450	-70.626	0.160	-0.060
-207.436	-200.000	-0.014	-0.136
-206.421	-200.000	-0.005	-0.367
-205.406	-200.000	-0.018	-0.099
-204.392	-104.551	-0.309	-0.070
-203.377	155.049	-0.180	-0.244
-202.363	-116.630	0.384	0.070
-201.348	144.443	0.205	0.270
-200.333	27.555	-0.329	0.273
-199.319	-72.492	0.130	-0.047
-198.304	306.028	-0.096	-0.175
-197.290	36.159	0.066	0.057
-196.275	257.125	-0.228	0.386
-195.260	13.245	-0.170	0.129
-194.246	417.632	-0.065	0.137
-193.231	-200.000	-0.038	-0.261
-192.217	3.332	-0.184	0.132
-191.202	-80.989	0.111	0.036
-190.187	98.470	-0.209	0.237
-189.173	0.711	0.032	0.023
-188.158	-200.000	-0.007	-0.149
-187.144	-148.614	-0.122	-0.010
-186.129	800.000	-0.059	0.167
-185.114	-200.000	-0.020	-0.231
-184.100	-37.627	0.170	0.089
-183.085	800.000	-0.045	-0.125
-182.071	350.527	0.065	0.126
-181.056	712.211	0.049	0.127
-180.042	-57.210	0.233	0.101
-179.027	800.000	-0.087	0.253
-178.012	124.777	-0.070	-0.087
-176.998	119.382	0.129	-0.157
-175.983	-64.830	-0.054	-0.021
-174.969	75.855	-0.091	0.095
-173.954	191.728	-0.076	-0.112
-172.939	274.117	-0.131	0.229
-171.925	58.104	-0.214	-0.206
-170.910	-118.174	0.223	0.039
-169.896	48.368	0.054	0.050
-168.881	-200.000	-0.041	-0.309
-167.866	126.540	0.203	-0.252
-166.852	-38.087	-0.215	0.112
-165.837	274.675	0.100	0.173
-164.823	85.140	-0.183	0.198
-163.808	800.000	-0.026	0.094
-162.793	-200.000	-0.037	0.180
-161.779	-200.000	0.045	-0.428
-160.764	524.149	0.024	0.056
-159.750	800.000	-0.041	0.149
-158.735	63.959	0.060	-0.059
-157.720	-97.513	0.201	0.051
-156.706	131.947	-0.098	-0.124
-155.691	-53.286	0.112	0.051
-154.677	-200.000	0.362	-0.001
-153.662	101.156	-0.053	-0.061
-152.647	46.676	0.204	0.186
-151.633	124.275	0.169	-0.208
-150.618	-89.910	-0.175	0.050
-149.604	2.744	0.109	-0.078
-148.589	-115.474	0.226	-0.042
-147.574	474.896	-0.116	0.258
-146.560	800.000	0.031	-0.134
-145.545	204.714	0.073	0.111
-144.531	657.565	0.182	0.460
-143.516	-36.905	0.041	-0.021
-142.502	-69.768	-0.261	0.098
-141.487	385.735	0.049	-0.100
-140.472	13.396	0.268	-0.204
-139.458	121.222	0.123	-0.150
-138.443	-165.566	0.138	-0.006
-137.429	-48.955	-0.310	0.146
-136.414	-79.888	0.109	-0.036
-135.399	-51.631	-0.085	0.039
-134.385	-164.458	-0.299	0.013
-133.370	-200.000	0.042	-0.239
-132.356	800.000	0.109	-0.335
-131.341	-200.000	-0.005	-0.089
-130.326	-61.685	-0.224	-0.092
-129.312	142.403	0.253	-0.330
-128.297	-200.000	-0.068	0.409
-127.283	97.428	0.024	-0.027
-126.268	289.875	-0.022	-0.039
-125.253	-139.971	0.301	-0.031
-124.239	28.897	0.495	-0.412
-123.224	-130.754	0.496	0.065
-122.210	-106.668	0.354	0.077
-121.195	-17.046	-0.221	-0.137
