DTS Sentinel unit serial number:	SN413079Multiplexer serial number:	ORYXHardware model number:	OX4-SRSoftware version number:	ORYX F/W v4.00 Oryx Data Collector v3.7.2.0data status	okinstallation	princeton_trtdifferential loss correction	single-endedforward channel	channel 2reverse channel	N/Adate	2019/09/16time	14:15:35forward acquisition time	60.00reverse acquisition time	0.00gamma	496.2192k internal	0.2296k external	0.2296temperature offset calibration	0.9937default loss term (dB/km)	0.3790temperature slope calibration	1.0000multiplexer offset coefficient	1.0000multiplexer slope coefficient	1.0000fibre end	0.00T internal ref (°C)	42.25T ext. ref 1 (°C)	14.13T ext. ref 2 (°C)	37.12length (m)	temperature (°C)	Stokes	anti-Stokes-747.200	-117.685	-0.359	0.066
-746.185	-200.000	-0.024	0.179
-745.171	-128.106	0.254	-0.037
-744.156	800.000	0.094	0.295
-743.142	-182.877	0.075	0.001
-742.127	218.760	-0.130	0.212
-741.112	47.425	-0.135	0.128
-740.098	149.957	-0.092	0.127
-739.083	-88.106	0.309	0.095
-738.069	40.480	-0.342	0.314
-737.054	200.679	0.138	-0.216
-736.039	213.156	-0.170	-0.274
-735.025	590.497	0.102	0.258
-734.010	333.783	-0.089	0.176
-732.996	76.016	0.033	0.036
-731.981	85.339	-0.220	-0.247
-730.966	800.000	0.018	0.052
-729.952	-170.664	-0.105	0.004
-728.937	-136.887	0.247	-0.029
-727.923	-200.000	0.008	-0.110
-726.908	-120.154	0.141	-0.025
-725.894	-78.774	-0.260	-0.091
-724.879	-110.741	-0.041	0.009
-723.864	800.000	-0.023	0.097
-722.850	-200.000	0.011	0.150
-721.835	105.996	-0.061	0.074
-720.821	222.042	-0.180	0.296
-719.806	96.886	-0.270	0.316
-718.791	-200.000	-0.018	0.528
-717.777	-152.062	0.210	-0.016
-716.762	800.000	0.072	-0.313
-715.748	-138.602	-0.268	0.030
-714.733	85.332	0.175	-0.196
-713.718	800.000	0.153	-0.620
-712.704	800.000	-0.062	-0.204
-711.689	-102.505	0.121	0.030
-710.675	-200.000	0.008	0.060
-709.660	-200.000	0.049	-0.260
-708.645	-27.833	-0.325	-0.192
-707.631	-110.069	-0.108	-0.023
-706.616	800.000	-0.063	-0.275
-705.602	343.988	-0.116	0.232
-704.587	563.060	0.049	-0.121
-703.572	-200.000	0.016	-0.099
-702.558	-45.827	-0.227	0.114
-701.543	-18.787	-0.167	0.106
-700.529	55.721	0.168	0.166
-699.514	55.894	0.192	-0.190
-698.499	-21.201	0.257	-0.160
-697.485	-137.194	0.085	0.010
-696.470	800.000	-0.048	-0.148
-695.456	600.124	0.058	-0.146
-694.441	46.581	0.244	0.231
-693.426	-200.000	-0.014	0.155
-692.412	14.499	-0.227	-0.181
-691.397	184.144	0.050	-0.076
-690.383	39.234	-0.115	-0.105
-689.368	-180.635	0.284	-0.006
-688.354	-50.604	0.293	-0.141
-687.339	-32.835	0.222	-0.126
-686.324	-66.686	-0.052	-0.021
-685.310	77.138	-0.138	0.150
-684.295	-200.000	0.000	-0.019
-683.281	240.794	-0.112	0.191
-682.266	-137.244	-0.082	0.010
-681.251	70.521	-0.169	-0.179
-680.237	-200.000	0.003	-0.046
-679.222	74.557	-0.140	0.150
-678.208	45.835	-0.208	0.196
-677.193	-29.431	-0.113	-0.066
-676.178	-154.534	-0.134	0.009
-675.164	-65.566	0.213	0.087
-674.149	71.326	-0.038	0.040
-673.135	-160.150	-0.348	0.019
-672.120	37.755	0.120	0.109
-671.105	-28.646	-0.312	-0.183
-670.091	-125.768	0.145	-0.022
-669.076	-200.000	-0.004	0.154
-668.062	5.750	0.085	-0.064
-667.047	-4.891	-0.135	0.094
-666.032	-117.194	0.127	-0.024
-665.018	-158.727	-0.170	-0.010
-664.003	155.803	0.290	0.407
-662.989	800.000	0.023	-0.073
-661.974	-64.443	-0.028	0.011
-660.959	647.739	-0.027	-0.071
-659.945	-115.151	-0.022	0.004
-658.930	54.589	0.155	0.152
-657.916	417.043	-0.093	-0.202
-656.901	-162.858	0.188	0.009
-655.886	102.229	0.139	-0.166
-654.872	-200.000	-0.032	0.147
-653.857	17.760	-0.185	-0.150
-652.843	800.000	-0.018	0.052
-651.828	-93.295	0.318	-0.090
-650.814	-147.582	-0.280	0.024
-649.799	-164.622	-0.124	-0.006
-648.784	101.470	-0.083	0.098
-647.770	25.051	0.136	0.115
-646.755	-63.003	-0.378	-0.159
-645.741	9.328	-0.150	0.116
-644.726	597.090	0.080	0.201
-643.711	-100.160	0.318	0.081
-642.697	18.246	-0.134	-0.109
-641.682	-200.000	-0.017	0.101
-640.668	-12.436	-0.282	0.188
-639.653	-43.623	0.220	0.113
-638.638	11.078	0.054	0.042
-637.624	-141.612	-0.184	0.019
-636.609	-11.666	-0.262	0.175
-635.595	-200.000	-0.027	0.306
-634.580	-200.000	0.014	0.129
-633.565	-112.184	0.534	-0.109
-632.551	2.339	-0.128	-0.094
-631.536	135.820	0.035	-0.047
-630.522	475.078	0.071	-0.163
-629.507	-107.843	0.372	0.082
-628.492	-103.011	-0.194	-0.047
-627.478	-84.201	0.161	-0.052
-626.463	-53.077	0.304	0.142
-625.449	354.835	0.054	-0.109
-624.434	91.127	0.107	0.122
-623.419	-97.391	-0.213	-0.056
-622.405	369.964	-0.238	0.491
-621.390	800.000	0.038	0.151
-620.376	800.000	0.075	0.326
-619.361	-200.000	0.014	-0.198
-618.346	44.651	0.075	0.070
-617.332	62.310	-0.147	-0.149
-616.317	800.000	0.058	0.194
-615.303	800.000	-0.052	-0.151
-614.288	394.348	0.097	-0.205
-613.273	-200.000	-0.072	0.000
-612.259	134.914	0.129	0.170
-611.244	69.095	0.053	0.055
-610.230	-18.017	-0.116	-0.074
-609.215	800.000	-0.064	0.217
-608.201	-171.925	-0.228	0.008
-607.186	-133.718	0.189	0.024
-606.171	-2.911	-0.227	-0.161
-605.157	342.031	-0.120	-0.238
-604.142	111.444	0.048	0.059
-603.128	-43.550	-0.158	-0.081
-602.113	-80.083	-0.121	-0.041
-601.098	51.950	-0.065	-0.063
-600.084	34.795	-0.140	0.125
-599.069	-200.000	0.020	0.146
-598.055	445.263	-0.062	-0.138
-597.040	-89.489	0.431	-0.129
-596.025	-200.000	-0.011	0.201
-595.011	526.431	-0.123	-0.293
-593.996	-40.722	-0.225	-0.118
-592.982	-200.000	0.039	0.351
-591.967	-8.271	-0.391	-0.268
-590.952	-94.828	-0.251	0.069
-589.938	-4.665	-0.207	0.145
-588.923	-105.718	0.280	0.064
-587.909	10.828	0.185	0.144
-586.894	624.800	0.035	0.089
-585.879	274.826	0.010	-0.018
-584.865	-200.000	0.029	0.236
-583.850	-200.000	0.002	0.409
-582.836	-84.996	0.133	-0.042
-581.821	-83.991	-0.042	-0.014
-580.806	-25.844	-0.082	-0.049
-579.792	-92.671	0.211	0.060
-578.777	156.252	0.059	-0.083
-577.763	309.349	-0.170	0.323
-576.748	-200.000	-0.049	-0.342
-575.733	800.000	-0.020	0.081
-574.719	11.758	-0.128	-0.100
-573.704	481.685	-0.071	-0.163
-572.690	42.731	0.086	-0.079
-571.675	800.000	0.068	-0.206
-570.661	381.986	0.075	-0.157
-569.646	-1.969	-0.111	-0.079
-568.631	37.698	-0.098	0.088
-567.617	153.507	0.231	0.321
-566.602	248.424	-0.210	0.361
-565.588	247.823	-0.190	-0.326
-564.573	-6.223	0.184	0.127
-563.558	-130.610	-0.146	0.020
-562.544	800.000	-0.082	-0.271
-561.529	45.044	-0.175	-0.164
-560.515	-31.543	0.103	-0.059
-559.500	-200.000	-0.028	-0.199
-558.485	-200.000	0.002	-0.126
-557.471	800.000	-0.085	-0.299
-556.456	-29.294	-0.320	-0.186
-555.442	-90.649	0.220	0.064
-554.427	-59.180	0.175	-0.076
-553.412	49.883	0.313	0.300
-552.398	-95.436	-0.254	-0.069
-551.383	135.021	0.218	-0.287
-550.369	-135.866	-0.405	-0.048
-549.354	-200.000	-0.006	-0.201
-548.339	-42.932	-0.314	-0.161
-547.325	36.834	0.213	-0.191
-546.310	50.632	0.095	0.091
-545.296	-48.673	-0.186	0.091
-544.281	-93.707	-0.039	0.011
-543.266	-200.000	0.025	0.216
-542.252	31.714	0.254	0.222
-541.237	-179.498	0.141	-0.003
-540.223	-2.231	0.167	-0.119
-539.208	-137.206	-0.141	0.016
-538.193	581.610	-0.232	0.577
-537.179	-53.809	0.322	0.149
-536.164	176.624	0.177	0.261
-535.150	133.977	-0.145	-0.190
-534.135	307.013	0.049	-0.092
-533.121	293.223	-0.036	0.066
-532.106	-161.923	0.262	-0.013
-531.091	-61.886	0.564	-0.239
-530.077	-168.214	-0.035	0.001
-529.062	200.866	-0.051	-0.080
-528.048	-77.387	0.174	0.061
-527.033	156.942	0.025	-0.035
-526.018	-55.012	-0.200	-0.091
-525.004	-149.311	0.362	-0.029
-523.989	-200.000	-0.020	0.240
-522.975	376.398	0.033	0.069
-521.960	800.000	-0.121	-0.351
-520.945	27.992	-0.095	0.081
-519.931	800.000	-0.104	0.305
-518.916	-200.000	-0.004	0.166
-517.902	-152.305	-0.133	0.010
-516.887	-200.000	0.012	0.099
-515.872	66.795	-0.247	0.255
-514.858	-70.347	0.375	0.144
-513.843	55.335	0.128	-0.126
-512.829	800.000	-0.059	-0.236
-511.814	-102.939	-0.172	0.041
-510.799	-134.391	0.114	-0.014
-509.785	-111.330	-0.220	-0.045
-508.770	-200.000	-0.150	0.000
-507.756	117.685	0.111	0.139
-506.741	-13.266	0.132	0.087
-505.726	313.296	-0.133	-0.254
-504.712	-152.900	-0.302	0.022
-503.697	-183.937	-0.255	0.004
-502.683	2.527	-0.159	-0.117
-501.668	-36.035	0.162	-0.089
-500.653	-110.593	-0.198	-0.041
-499.639	442.792	-0.112	0.248
-498.624	203.674	0.163	0.255
-497.610	-79.726	-0.209	0.071
-496.595	-33.961	0.100	0.056
-495.581	-200.000	-0.020	0.108
-494.566	-200.000	0.029	0.243
-493.551	48.369	-0.127	-0.120
-492.537	-126.258	-0.211	-0.032
-491.522	125.442	-0.040	-0.051
-490.508	-173.772	0.055	-0.002
-489.493	800.000	0.037	-0.106
-488.478	172.379	0.062	-0.091
-487.464	800.000	0.054	-0.223
-486.449	-130.002	-0.133	0.018
-485.435	800.000	-0.035	-0.105
-484.420	-22.556	0.207	-0.127
-483.405	464.475	-0.089	0.202
-482.391	3.915	-0.075	0.056
-481.376	56.525	-0.229	-0.226
-480.362	94.357	0.069	-0.079
-479.347	-191.627	-0.402	0.004
-478.332	124.132	0.071	-0.091
-477.318	-200.000	0.035	0.282
-476.303	-200.000	0.006	-0.117
-475.289	-154.748	0.122	0.008
-474.274	320.472	-0.197	0.378
-473.259	800.000	-0.011	-0.046
-472.245	-102.116	-0.173	0.042
-471.230	786.729	-0.024	-0.067
-470.216	397.399	-0.063	0.134
-469.201	-39.307	-0.132	-0.070
-468.186	-200.000	-0.023	0.311
-467.172	-200.000	0.004	0.038
-466.157	12.195	0.245	0.190
-465.143	214.885	0.121	-0.195
-464.128	54.772	-0.223	0.218
-463.113	50.874	0.247	-0.236
-462.099	-200.000	-0.004	-0.298
-461.084	-63.297	0.198	0.082
-460.070	177.832	0.126	0.185
-459.055	-106.027	-0.233	-0.053
-458.040	800.000	0.065	-0.226
-457.026	281.684	0.115	-0.208
-456.011	137.594	-0.238	0.315
-454.997	800.000	-0.028	0.103
-453.982	-38.442	0.262	0.140
-452.968	-7.763	0.027	0.018
-451.953	800.000	-0.104	-0.414
-450.938	800.000	-0.048	-0.167
-449.924	133.529	0.060	0.079
-448.909	-200.000	-0.013	-0.086
-447.895	-200.000	-0.007	0.221
-446.880	-2.263	0.138	-0.098
-445.865	71.160	-0.197	0.206
-444.851	-200.000	0.037	-0.212
-443.836	-134.642	0.171	-0.021
-442.822	45.562	0.290	-0.271
-441.807	-45.859	0.251	-0.125
-440.792	108.965	-0.090	0.109
-439.778	45.525	-0.143	-0.133
-438.763	112.821	0.114	0.139
-437.749	432.511	0.176	-0.385
-436.734	82.353	-0.127	0.139
-435.719	549.697	0.111	0.270
-434.705	262.470	0.124	0.217
-433.690	122.550	0.085	0.108
-432.676	354.353	0.144	0.289
-431.661	797.839	-0.069	-0.193
-430.646	-12.606	-0.265	0.175
-429.632	296.878	0.103	0.191
-428.617	65.711	-0.170	-0.174
-427.603	418.065	0.060	0.129
-426.588	-177.089	-0.260	0.007
-425.573	-159.590	0.178	-0.010
-424.559	-71.903	0.104	-0.039
-423.544	-133.987	-0.059	0.007
-422.530	-15.363	0.177	-0.114
-421.515	-77.927	-0.228	-0.079
-420.500	-200.000	0.019	0.193
-419.486	800.000	-0.059	-0.222
-418.471	-200.000	0.044	0.202
-417.457	-56.653	0.130	-0.058
-416.442	-200.000	-0.032	-0.162
-415.428	24.322	0.206	0.172
-414.413	2.771	-0.391	-0.286
-413.398	-63.543	0.130	-0.054
-412.384	219.436	-0.121	-0.195
-411.369	-11.748	0.170	-0.113
-410.355	446.260	0.107	-0.238
-409.340	8.026	-0.239	0.181
-408.325	-148.425	-0.209	-0.017
-407.311	118.782	0.224	-0.280
-406.296	800.000	0.006	-0.019
-405.282	126.094	-0.130	-0.166
-404.267	-168.070	0.213	0.008
-403.252	-141.669	0.341	-0.035
-402.238	-51.294	-0.173	-0.082
-401.223	505.440	-0.045	-0.106
-400.209	-200.000	0.022	-0.169
-399.194	-200.000	0.024	-0.549
-398.179	-100.817	0.090	-0.022
-397.165	-78.865	0.296	0.102
-396.150	-96.421	-0.200	-0.053
-395.136	61.028	-0.202	0.202
-394.121	234.906	-0.123	-0.204
-393.106	33.015	0.152	-0.133
-392.092	-13.129	-0.151	0.099
-391.077	44.336	0.075	0.070
-390.063	-8.087	0.223	-0.151
-389.048	44.396	-0.086	0.080
-388.033	312.866	0.168	-0.318
-387.019	91.971	-0.172	0.195
-386.004	-117.921	-0.281	0.051
-384.990	31.519	-0.234	-0.203
-383.975	83.221	-0.114	0.125
-382.960	-159.743	-0.323	-0.018
-381.946	800.000	0.037	-0.131
-380.931	23.288	0.114	0.095
-379.917	-200.000	0.013	-0.118
-378.902	130.505	0.082	-0.106
-377.888	261.574	0.131	0.229
-376.873	-200.000	-0.026	-0.230
-375.858	140.775	0.021	0.028
-374.844	-60.210	-0.300	0.129
-373.829	266.707	0.100	0.175
-372.815	120.235	0.081	-0.102
-371.800	82.367	-0.271	0.296
-370.785	130.952	-0.077	-0.099
-369.771	800.000	-0.045	-0.142
-368.756	254.218	0.146	-0.252
-367.742	-53.105	0.151	-0.070
-366.727	477.216	0.065	0.148
-365.712	-200.000	0.008	0.220
-364.698	363.087	0.049	-0.098
-363.683	-53.480	0.200	0.092
-362.669	156.634	-0.144	0.200
-361.654	357.627	-0.089	-0.178
-360.639	209.345	-0.187	-0.295
-359.625	482.732	-0.099	-0.227
-358.610	392.103	-0.059	-0.124
-357.596	-200.000	0.023	0.134
-356.581	42.244	-0.116	-0.106
-355.566	230.480	-0.051	-0.083
-354.552	800.000	0.030	0.103
-353.537	800.000	0.069	-0.200
-352.523	-123.774	0.152	0.024
-351.508	83.644	-0.381	0.418
-350.493	-200.000	0.001	0.116
-349.479	-200.000	-0.026	-0.196
-348.464	-200.000	0.054	-0.474
-347.450	-200.000	-0.006	-0.232
-346.435	-200.000	-0.025	0.161
-345.420	95.618	-0.189	-0.217
-344.406	-36.060	0.451	-0.245
-343.391	-127.428	-0.265	0.039
-342.377	88.166	0.221	0.246
-341.362	19.684	0.119	0.096
-340.348	-198.067	0.102	-0.001
-339.333	-110.332	0.203	-0.043
-338.318	180.045	-0.088	-0.129
-337.304	-200.000	-0.050	0.262
-336.289	512.101	-0.018	-0.041
-335.275	-94.934	0.104	0.028
-334.260	198.744	-0.049	0.076
-333.245	87.508	0.160	0.178
-332.231	-163.829	0.088	0.004
-331.216	-125.553	0.481	-0.073
-330.202	8.599	0.057	-0.043
-329.187	-7.977	-0.188	0.127
-328.172	-169.877	0.128	-0.005
-327.158	-200.000	-0.047	0.272
-326.143	16.729	-0.428	-0.340
-325.129	-200.000	-0.076	0.368
-324.114	306.405	-0.136	-0.254
-323.099	-2.259	0.124	-0.087
-322.085	800.000	0.086	0.333
-321.070	-32.098	0.287	0.161
-320.056	11.145	0.116	-0.089
-319.041	800.000	0.094	0.276
-318.026	76.468	0.066	0.070
-317.012	-23.290	-0.314	-0.190
-315.997	-200.000	-0.005	-0.204
-314.983	-200.000	-0.025	0.111
-313.968	-12.921	-0.206	0.135
-312.953	-6.316	0.027	0.019
-311.939	-183.875	-0.139	0.002
-310.924	385.978	0.081	-0.168
-309.910	-200.000	-0.037	-0.193
-308.895	98.801	0.309	-0.358
-307.880	-200.000	0.090	-0.462
-306.866	127.268	-0.088	0.112
-305.851	-200.000	0.031	-0.157
-304.837	-145.622	-0.270	-0.024
-303.822	168.509	-0.114	0.164
-302.807	306.515	-0.161	-0.302
-301.793	-154.613	-0.213	-0.014
-300.778	-82.584	-0.139	0.045
-299.764	-42.052	0.176	-0.091
-298.749	43.250	0.154	0.141
-297.735	152.738	-0.099	0.136
-296.720	53.399	0.058	-0.056
-295.705	800.000	0.038	-0.129
-294.691	-117.957	-0.388	-0.070
-293.676	-200.000	0.028	-0.159
-292.662	374.084	-0.094	0.193
-291.647	-178.959	-0.230	-0.005
-290.632	15.462	-0.082	0.064
-289.618	185.751	0.188	0.281
-288.603	554.099	-0.080	0.193
-287.589	0.922	-0.155	0.111
-286.574	-133.966	0.118	0.015
-285.559	-19.088	-0.120	-0.075
-284.545	-192.390	-0.325	-0.003
-283.530	44.072	0.093	0.085
-282.516	800.000	0.052	-0.174
-281.501	469.234	0.029	0.065
-280.486	-200.000	0.065	0.328
-279.472	-136.391	0.302	-0.035
-278.457	123.773	-0.010	0.013
-277.443	-200.000	0.010	-0.223
-276.428	71.680	0.195	0.203
-275.413	-200.000	0.018	0.136
-274.399	-16.601	-0.140	-0.089
-273.384	162.137	-0.142	-0.200
-272.370	-70.499	0.312	-0.119
-271.355	359.359	-0.192	0.385
-270.340	-80.297	0.210	0.070
-269.326	-93.572	-0.067	-0.019
-268.311	-15.547	-0.035	-0.022
-267.297	800.000	-0.085	0.251
-266.282	800.000	0.069	0.298
-265.267	65.397	0.222	0.225
-264.253	-83.038	0.276	0.089
-263.238	-34.342	-0.075	-0.042
-262.224	254.704	-0.143	-0.245
-261.209	33.557	-0.175	-0.153
-260.195	34.112	-0.127	0.111
-259.180	37.690	0.112	0.100
-258.165	88.545	0.182	0.203
-257.151	-68.450	0.252	-0.098
-256.136	146.033	0.181	0.244
-255.122	-200.000	-0.004	0.055
-254.107	701.945	0.082	0.216
-253.092	800.000	0.088	-0.311
-252.078	-43.835	0.278	-0.140
-251.063	-13.611	-0.066	0.043
-250.049	45.620	-0.203	-0.188
-249.034	98.328	-0.185	0.213
-248.019	62.273	0.198	-0.198
-247.005	22.557	-0.312	0.256
-245.990	-200.000	-0.030	0.306
-244.976	-67.498	-0.069	-0.027
-243.961	-6.694	-0.105	-0.072
-242.946	386.658	0.156	-0.323
-241.932	176.549	0.208	0.303
-240.917	349.802	-0.111	0.220
-239.903	121.928	0.180	-0.225
-238.888	-200.000	-0.011	0.390
-237.873	-128.673	0.237	0.034
-236.859	-124.181	-0.256	-0.040
-235.844	37.383	0.058	-0.051
-234.830	-200.000	0.016	0.081
-233.815	-200.000	-0.028	0.134
-232.800	38.942	0.155	-0.139
-231.786	-188.101	0.239	-0.003
-230.771	170.924	0.050	0.072
-229.757	-25.325	0.287	0.170
-228.742	-21.954	-0.031	0.019
-227.727	600.320	0.032	-0.080
-226.713	-200.000	0.019	-0.092
-225.698	34.387	-0.173	0.152
-224.684	-59.910	0.099	-0.042
-223.669	800.000	-0.056	-0.160
-222.655	-77.968	0.223	-0.077
-221.640	-168.654	-0.165	0.006
-220.625	26.910	-0.147	-0.123
-219.611	-182.784	0.199	0.004
-218.596	73.939	0.083	0.087
-217.582	438.513	-0.180	-0.392
-216.567	-200.000	-0.002	-0.454
-215.552	28.839	-0.158	0.134
-214.538	-70.247	0.251	0.095
-213.523	48.176	-0.109	-0.102
-212.509	73.501	-0.102	-0.107
-211.494	-98.870	0.174	-0.044
-210.479	207.855	-0.113	0.177
-209.465	-118.142	-0.257	0.046
-208.450	-74.018	0.093	-0.034
-207.436	-200.000	-0.009	-0.164
-206.421	-161.289	-0.065	0.003
-205.406	-51.359	0.389	-0.182
-204.392	-119.198	0.239	-0.042
-203.377	-25.131	0.160	-0.095
-202.363	-200.000	-0.045	0.231
-201.348	-200.000	-0.009	-0.064
-200.333	238.522	-0.074	0.123
-199.319	-55.027	-0.094	-0.042
-198.304	-82.622	-0.353	-0.114
-197.290	680.382	-0.044	0.114
-196.275	136.902	-0.055	0.072
-195.260	-76.922	0.146	0.051
-194.246	-70.451	0.110	-0.042
-193.231	-138.104	0.361	-0.040
-192.217	-200.000	0.193	0.000
-191.202	800.000	-0.104	0.294
-190.187	453.570	-0.137	-0.304
-189.173	131.869	-0.108	-0.140
-188.158	-64.326	0.138	-0.056
-187.144	76.523	-0.062	-0.065
-186.129	156.634	-0.213	-0.294
-185.114	-21.672	-0.094	0.057
-184.100	270.531	0.080	-0.140
-183.085	-36.770	0.153	-0.082
-182.071	-50.526	0.159	0.075
-181.056	-77.303	-0.302	0.105
-180.042	-54.174	0.214	0.097
-179.027	150.372	0.094	-0.127
-178.012	186.867	-0.176	0.263
-176.998	102.395	-0.085	-0.100
-175.983	313.055	-0.028	0.054
-174.969	-90.831	0.251	0.072
-173.954	529.025	0.095	-0.224
-172.939	146.573	-0.103	0.138
-171.925	800.000	-0.128	0.435
-170.910	42.487	0.242	-0.220
-169.896	-114.837	-0.121	0.023
-168.881	-82.594	0.027	-0.009
-167.866	-200.000	-0.023	-0.187
-166.852	-200.000	-0.036	-0.162
-165.837	69.321	-0.196	-0.202
-164.823	-113.165	-0.351	0.069
-163.808	-200.000	0.021	0.258
-162.793	-59.941	-0.034	-0.014
-161.779	-67.336	0.208	-0.082
-160.764	-200.000	-0.036	0.272
-159.750	-83.366	0.333	-0.107
-158.735	-200.000	-0.042	-0.216
-157.720	-9.172	-0.137	0.092
-156.706	38.094	-0.276	0.245
-155.691	362.925	0.110	0.222
-154.677	-157.677	0.211	-0.013
-153.662	-120.145	0.076	-0.013
-152.647	-85.993	0.382	-0.118
-151.633	-107.804	0.330	-0.072
-150.618	40.347	-0.138	0.124
-149.604	-200.000	0.012	0.082
-148.589	-44.913	0.284	-0.141
-147.574	-154.205	-0.116	0.008
-146.560	13.861	-0.285	0.221
-145.545	-200.000	-0.055	0.299
-144.531	-200.000	-0.009	0.194
-143.516	388.051	-0.223	0.460
-142.502	-129.762	0.222	-0.030
-141.487	57.887	0.197	-0.192
-140.472	-77.963	0.265	0.091
-139.458	-11.119	-0.184	0.121
-138.443	800.000	0.146	0.530
-137.429	-200.000	-0.034	-0.278
-136.414	442.838	-0.043	0.094
-135.399	-200.000	0.019	0.166
-134.385	-26.389	0.212	0.124
-133.370	14.296	-0.277	-0.216
-132.356	356.759	-0.037	-0.073
-131.341	571.862	-0.092	-0.223
-130.326	290.342	0.244	0.442
-129.312	-28.944	-0.193	-0.111
-128.297	-85.151	0.080	-0.025
-127.283	-126.496	0.084	0.012
-126.268	-6.629	0.267	0.181
-125.253	800.000	-0.099	-0.362
-124.239	-96.633	-0.033	0.009
-123.224	37.499	0.697	0.616
-122.210	-21.123	-0.286	0.175
-121.195	800.000	-0.064	-0.221
