DTS Sentinel unit serial number:	SN413079Multiplexer serial number:	ORYXHardware model number:	OX4-SRSoftware version number:	ORYX F/W v4.00 Oryx Data Collector v3.7.2.0data status	okinstallation	princeton_trtdifferential loss correction	single-endedforward channel	channel 2reverse channel	N/Adate	2019/09/18time	20:31:35forward acquisition time	60.00reverse acquisition time	0.00gamma	496.2192k internal	0.2337k external	0.2337temperature offset calibration	1.0034default loss term (dB/km)	0.3790temperature slope calibration	1.0000multiplexer offset coefficient	1.0000multiplexer slope coefficient	1.0000fibre end	0.00T internal ref (°C)	28.17T ext. ref 1 (°C)	0.98T ext. ref 2 (°C)	19.15length (m)	temperature (°C)	Stokes	anti-Stokes-747.200	800.000	-0.055	-0.183
-746.185	-200.000	0.155	0.760
-745.171	94.200	-0.097	0.110
-744.156	112.206	-0.065	0.079
-743.142	285.531	-0.027	0.048
-742.127	-200.000	-0.033	-0.146
-741.112	-119.845	0.414	0.072
-740.098	758.678	0.094	0.255
-739.083	-92.754	-0.237	-0.067
-738.069	-200.000	0.017	-0.119
-737.054	106.410	-0.231	0.274
-736.039	-200.000	-0.005	0.187
-735.025	3.150	-0.159	0.116
-734.010	-200.000	0.016	-0.222
-732.996	-73.644	-0.114	-0.042
-731.981	-40.335	0.259	0.135
-730.966	-200.000	-0.016	0.160
-729.952	-200.000	0.008	-0.121
-728.937	57.788	0.178	0.175
-727.923	34.340	0.048	-0.042
-726.908	2.852	-0.014	-0.010
-725.894	-64.118	0.225	-0.092
-724.879	-91.795	-0.180	0.051
-723.864	-68.844	0.170	-0.066
-722.850	57.360	0.160	0.157
-721.835	-6.078	-0.053	-0.037
-720.821	44.374	0.222	0.204
-719.806	-18.188	0.306	-0.192
-718.791	45.894	0.064	-0.059
-717.777	-155.068	0.342	0.022
-716.762	-85.764	-0.224	0.070
-715.748	217.592	0.198	-0.317
-714.733	800.000	0.027	-0.089
-713.718	-200.000	0.039	-0.232
-712.704	-200.000	-0.024	-0.203
-711.689	464.423	-0.019	-0.042
-710.675	427.128	-0.101	-0.218
-709.660	-200.000	0.009	0.255
-708.645	-200.000	-0.063	0.278
-707.631	-58.457	0.200	-0.087
-706.616	-123.662	-0.050	0.008
-705.602	-200.000	-0.019	-0.133
-704.587	-82.583	-0.270	-0.088
-703.572	-34.664	0.167	0.092
-702.558	-200.000	-0.037	0.215
-701.543	-116.057	0.397	-0.074
-700.529	800.000	0.099	-0.282
-699.514	-79.082	-0.168	0.057
-698.499	-92.309	0.164	-0.046
-697.485	223.111	-0.186	-0.301
-696.470	551.263	-0.110	0.266
-695.456	-200.000	0.018	0.284
-694.441	-49.524	0.231	-0.110
-693.426	276.017	0.052	-0.092
-692.412	-200.000	0.029	0.205
-691.397	134.253	-0.241	-0.313
-690.383	33.053	0.050	-0.043
-689.368	-99.379	-0.341	0.086
-688.354	-180.223	-0.088	0.002
-687.339	275.481	0.199	-0.353
-686.324	449.910	0.165	0.364
-685.310	-96.461	-0.105	-0.028
-684.295	-200.000	0.020	0.090
-683.281	-186.793	-0.045	-0.001
-682.266	64.565	-0.079	-0.080
-681.251	-118.736	-0.202	-0.036
-680.237	-157.541	-0.118	-0.007
-679.222	32.744	-0.090	-0.078
-678.208	-46.519	0.235	-0.115
-677.193	79.427	-0.117	-0.126
-676.178	-200.000	-0.019	-0.138
-675.164	-94.953	0.087	-0.023
-674.149	-64.925	0.078	-0.031
-673.135	72.358	0.465	-0.485
-672.120	148.474	0.142	-0.192
-671.105	25.269	-0.344	0.286
-670.091	226.442	0.182	0.296
-669.076	19.998	-0.135	0.109
-668.062	-54.087	0.049	0.022
-667.047	247.716	0.111	-0.188
-666.032	-200.000	-0.006	0.201
-665.018	-200.000	-0.010	-0.057
-664.003	-96.443	-0.165	0.044
-662.989	178.144	0.180	-0.263
-661.974	328.722	-0.135	0.260
-660.959	-200.000	0.014	0.072
-659.945	359.745	-0.061	-0.122
-658.930	4.752	-0.216	-0.159
-657.916	-34.740	-0.364	-0.199
-656.901	8.750	-0.169	0.128
-655.886	73.062	0.123	-0.129
-654.872	-200.000	0.032	0.239
-653.857	22.508	-0.118	-0.097
-652.843	-200.000	0.006	0.083
-651.828	-200.000	-0.017	0.124
-650.814	441.289	-0.031	-0.069
-649.799	131.132	-0.128	-0.165
-648.784	-124.487	0.268	-0.042
-647.770	-200.000	0.035	0.213
-646.755	770.757	-0.070	-0.192
-645.741	800.000	0.084	-0.301
-644.726	57.280	0.165	0.161
-643.711	-92.152	0.299	-0.085
-642.697	-74.485	0.058	0.021
-641.682	8.625	-0.044	0.033
-640.668	-200.000	0.022	-0.213
-639.653	79.128	-0.017	0.018
-638.638	-104.143	0.104	-0.024
-637.624	-78.889	-0.056	-0.019
-636.609	-47.145	-0.085	0.041
-635.595	60.828	0.088	-0.087
-634.580	0.856	-0.106	0.076
-633.565	-157.900	0.500	0.030
-632.551	-78.160	0.410	-0.141
-631.536	-86.930	0.146	-0.045
-630.522	-200.000	-0.061	0.277
-629.507	-136.438	-0.266	0.031
-628.492	29.088	0.048	0.041
-627.478	112.984	-0.096	0.116
-626.463	800.000	-0.098	-0.409
-625.449	-39.754	0.174	-0.091
-624.434	-94.694	0.255	-0.069
-623.419	-44.268	-0.057	-0.029
-622.405	-200.000	0.332	-0.001
-621.390	197.896	0.116	0.177
-620.376	-177.957	-0.067	0.002
-619.361	-134.462	-0.246	-0.030
-618.346	147.427	0.090	0.121
-617.332	-112.911	0.115	0.023
-616.317	-120.028	-0.325	-0.056
-615.303	-43.732	0.056	-0.028
-614.288	-33.437	-0.291	-0.160
-613.273	800.000	0.064	0.203
-612.259	-129.739	0.221	0.030
-611.244	-139.807	0.278	-0.029
-610.230	287.053	0.149	0.269
-609.215	-50.832	-0.357	0.168
-608.201	301.823	0.169	-0.312
-607.186	-46.647	0.276	0.135
-606.171	-169.095	0.380	-0.014
-605.157	-33.690	-0.218	0.120
-604.142	800.000	0.094	-0.287
-603.128	-102.265	-0.191	0.046
-602.113	-200.000	0.024	-0.200
-601.098	-101.007	-0.023	-0.006
-600.084	-25.316	0.151	-0.089
-599.069	-66.188	-0.147	-0.058
-598.055	-125.878	0.102	-0.015
-597.040	-105.646	-0.307	0.069
-596.025	-57.449	0.135	-0.059
-595.011	171.436	0.090	0.129
-593.996	302.568	-0.242	0.448
-592.982	80.095	0.218	-0.234
-591.967	-20.276	-0.272	0.167
-590.952	-38.133	-0.372	0.197
-589.938	-100.623	0.341	-0.084
-588.923	709.670	-0.048	-0.125
-587.909	-0.803	0.019	-0.013
-586.894	-75.278	-0.171	0.061
-585.879	-27.309	0.159	-0.092
-584.865	201.675	-0.114	0.176
-583.850	-88.829	-0.337	0.100
-582.836	671.524	-0.130	-0.335
-581.821	2.936	-0.109	-0.079
-580.806	-200.000	-0.029	-0.181
-579.792	-62.093	-0.188	0.078
-578.777	-45.225	0.111	0.055
-577.763	800.000	-0.061	0.203
-576.748	-75.590	-0.040	0.014
-575.733	146.446	0.145	0.195
-574.719	-200.000	-0.037	0.246
-573.704	607.880	0.043	-0.108
-572.690	-200.000	-0.028	0.250
-571.675	158.570	-0.037	-0.051
-570.661	800.000	-0.032	-0.091
-569.646	-74.394	-0.172	0.062
-568.631	-69.963	0.393	0.149
-567.617	800.000	-0.104	-0.297
-566.602	800.000	-0.079	0.292
-565.588	800.000	0.018	0.069
-564.573	257.156	-0.070	-0.120
-563.558	800.000	-0.087	0.296
-562.544	49.557	-0.278	0.261
-561.529	-116.717	0.103	-0.019
-560.515	351.659	-0.082	0.161
-559.500	-200.000	-0.000	-0.124
-558.485	-200.000	0.020	-0.225
-557.471	407.337	-0.058	0.121
-556.456	-13.479	-0.214	0.139
-555.442	158.535	0.185	0.257
-554.427	-200.000	-0.019	0.132
-553.412	475.709	0.122	0.275
-552.398	7.878	-0.197	0.147
-551.383	800.000	0.089	-0.321
-550.369	133.007	0.068	-0.087
-549.354	-44.984	-0.305	-0.151
-548.339	-8.303	0.133	0.089
-547.325	-57.210	0.250	0.110
-546.310	800.000	-0.067	-0.197
-545.296	322.043	-0.132	-0.250
-544.281	97.579	-0.129	0.148
-543.266	-164.901	-0.365	0.016
-542.252	-21.933	0.175	0.106
-541.237	366.873	-0.049	0.098
-540.223	800.000	0.008	-0.031
-539.208	18.689	-0.368	-0.294
-538.193	552.704	0.062	-0.147
-537.179	-200.000	0.012	-0.088
-536.164	316.468	-0.031	0.059
-535.150	-200.000	-0.002	-0.073
-534.135	-197.400	0.153	0.001
-533.121	99.345	-0.041	-0.047
-532.106	-109.865	0.391	0.082
-531.091	-200.000	-0.150	-0.000
-530.077	-3.571	0.145	-0.100
-529.062	-186.566	0.097	-0.001
-528.048	-200.000	0.001	-0.035
-527.033	13.465	-0.201	0.155
-526.018	-200.000	-0.001	-0.029
-525.004	-200.000	-0.001	-0.216
-523.989	60.377	-0.199	0.196
-522.975	238.788	-0.119	0.197
-521.960	526.700	0.014	-0.033
-520.945	-134.394	-0.039	-0.005
-519.931	149.743	-0.108	0.145
-518.916	112.129	0.049	-0.059
-517.902	-56.747	0.139	0.061
-516.887	-200.000	0.009	0.173
-515.872	94.408	0.059	-0.067
-514.858	-200.000	0.026	0.159
-513.843	63.365	-0.270	0.270
-512.829	-154.519	-0.253	-0.017
-511.814	84.793	-0.223	-0.243
-510.799	-146.692	0.356	0.031
-509.785	-59.783	-0.263	-0.112
-508.770	-2.820	-0.060	0.042
-507.756	26.475	0.179	-0.149
-506.741	800.000	0.039	0.113
-505.726	-200.000	-0.034	0.153
-504.712	126.317	0.063	0.079
-503.697	-125.855	-0.156	0.023
-502.683	-10.554	0.218	-0.144
-501.668	-134.340	0.264	-0.032
-500.653	228.836	-0.073	0.118
-499.639	395.728	-0.144	-0.298
-498.624	-82.357	-0.113	-0.037
-497.610	-16.993	0.087	0.054
-496.595	-28.141	0.073	-0.042
-495.581	-200.000	0.013	-0.138
-494.566	-31.387	-0.462	0.259
-493.551	510.569	-0.130	-0.301
-492.537	800.000	0.092	-0.391
-491.522	255.412	-0.021	0.035
-490.508	-200.000	-0.042	0.230
-489.493	43.876	-0.184	-0.167
-488.478	-97.886	-0.355	0.091
-487.464	-26.221	0.336	0.196
-486.449	-69.670	0.093	-0.035
-485.435	292.267	-0.123	-0.223
-484.420	-156.038	0.121	-0.008
-483.405	554.219	0.072	0.172
-482.391	25.667	0.162	-0.134
-481.376	16.055	0.300	0.235
-480.362	-9.140	0.213	0.142
-479.347	-200.000	-0.028	0.260
-478.332	-73.985	-0.307	0.111
-477.318	30.415	-0.074	0.062
-476.303	781.181	-0.052	-0.142
-475.289	442.549	0.115	-0.250
-474.274	-105.357	-0.189	-0.043
-473.259	-200.000	0.025	0.142
-472.245	-128.860	-0.286	-0.040
-471.230	23.085	0.197	0.160
-470.216	-2.227	-0.085	-0.060
-469.201	-84.452	0.216	0.068
-468.186	800.000	-0.134	-0.426
-467.172	133.196	-0.189	-0.242
-466.157	-130.845	0.197	0.026
-465.143	290.872	0.116	0.209
-464.128	-200.000	-0.017	-0.313
-463.113	-104.053	-0.306	-0.071
-462.099	-176.983	-0.138	-0.003
-461.084	12.179	-0.030	0.023
-460.070	-4.712	-0.128	0.088
-459.055	69.191	-0.156	0.159
-458.040	-200.000	-0.042	0.188
-457.026	-32.401	0.086	-0.048
-456.011	80.403	0.069	-0.074
-454.997	2.240	0.212	-0.152
-453.982	-200.000	0.025	-0.176
-452.968	380.325	-0.171	-0.348
-451.953	330.241	-0.190	-0.363
-450.938	800.000	-0.072	-0.241
-449.924	800.000	-0.044	-0.123
-448.909	-156.690	0.248	0.015
-447.895	-54.790	0.367	-0.165
-446.880	725.082	0.047	-0.123
-445.865	-200.000	-0.002	0.178
-444.851	-70.665	0.136	0.051
-443.836	313.147	0.077	0.143
-442.822	-200.000	-0.013	-0.087
-441.807	800.000	0.122	-0.451
-440.792	-106.048	0.049	-0.011
-439.778	-108.789	0.037	-0.008
-438.763	-11.594	-0.203	-0.132
-437.749	-71.623	-0.334	-0.124
-436.734	186.059	-0.156	0.231
-435.719	688.161	-0.164	0.426
-434.705	62.760	0.208	-0.207
-433.690	-110.493	-0.432	-0.089
-432.676	5.170	0.062	0.045
-431.661	800.000	0.043	-0.141
-430.646	-200.000	-0.004	-0.269
-429.632	0.883	-0.055	0.039
-428.617	-193.609	-0.045	-0.000
-427.603	-200.000	-0.039	0.251
-426.588	-103.076	0.316	0.074
-425.573	-200.000	-0.052	-0.250
-424.559	-156.934	-0.099	-0.006
-423.544	60.599	-0.125	0.123
-422.530	149.563	0.199	-0.267
-421.515	12.605	0.306	0.234
-420.500	111.726	0.047	0.057
-419.486	-200.000	-0.026	-0.158
-418.471	67.012	0.073	-0.074
-417.457	512.458	0.013	0.029
-416.442	15.012	-0.241	-0.187
-415.428	34.661	-0.372	0.322
-414.413	-136.967	0.196	0.022
-413.398	7.266	-0.068	0.050
-412.384	-4.987	0.282	-0.193
-411.369	10.601	0.056	-0.042
-410.355	753.428	-0.051	-0.138
-409.340	800.000	0.188	0.536
-408.325	-23.179	-0.169	-0.101
-407.311	-147.384	-0.072	0.006
-406.296	72.250	0.045	0.047
-405.282	-18.019	-0.043	0.027
-404.267	84.181	0.109	0.118
-403.252	40.876	-0.315	-0.282
-402.238	800.000	-0.048	0.150
-401.223	176.708	0.189	0.272
-400.209	295.250	0.104	0.189
-399.194	-16.079	0.123	-0.077
-398.179	-152.293	-0.524	0.037
-397.165	-76.694	0.157	0.054
-396.150	-135.510	0.140	-0.017
-395.136	-152.790	0.104	-0.007
-394.121	-200.000	-0.003	0.132
-393.106	35.322	0.145	0.126
-392.092	-68.685	-0.189	-0.072
-391.077	693.370	-0.137	0.355
-390.063	-200.000	0.004	0.323
-389.048	-174.532	-0.459	0.013
-388.033	297.090	-0.038	0.068
-387.019	-75.141	-0.195	0.069
-386.004	-67.139	-0.269	0.105
-384.990	-144.786	-0.133	-0.012
-383.975	76.839	0.210	-0.221
-382.960	189.389	-0.070	-0.104
-381.946	-200.000	-0.018	-0.168
-380.931	61.997	-0.049	-0.048
-379.917	165.921	0.112	0.157
-378.902	487.230	0.118	0.267
-377.888	8.396	0.307	-0.229
-376.873	39.863	0.234	-0.208
-375.858	108.102	-0.064	-0.076
-374.844	-23.984	0.201	0.119
-373.829	-200.000	0.028	-0.224
-372.815	-16.254	-0.223	0.140
-371.800	176.997	-0.164	-0.236
-370.785	-200.000	-0.023	-0.189
-369.771	143.188	-0.084	-0.111
-368.756	356.663	-0.134	0.265
-367.742	-104.228	0.504	0.116
-366.727	-158.030	-0.332	-0.019
-365.712	-200.000	-0.040	-0.199
-364.698	-69.726	0.266	0.101
-363.683	275.152	-0.134	0.234
-362.669	-9.520	0.215	-0.142
-361.654	800.000	0.104	0.366
-360.639	17.046	0.193	0.151
-359.625	110.943	-0.106	-0.126
-358.610	197.694	0.181	-0.273
-357.596	-200.000	-0.004	-0.063
-356.581	-200.000	-0.035	0.237
-355.566	-120.447	0.135	-0.023
-354.552	-200.000	0.039	-0.394
-353.537	-10.578	-0.067	0.044
-352.523	24.614	-0.304	0.249
-351.508	368.660	-0.069	-0.138
-350.493	-101.681	-0.147	-0.035
-349.479	129.559	-0.050	0.063
-348.464	352.729	0.045	0.087
-347.450	209.985	0.140	0.217
-346.435	-194.644	0.356	0.003
-345.420	-192.005	0.317	0.003
-344.406	-200.000	-0.034	-0.396
-343.391	-162.306	0.104	0.005
-342.377	262.746	0.220	-0.377
-341.362	31.537	0.092	0.078
-340.348	305.215	-0.116	-0.213
-339.333	48.609	0.125	-0.116
-338.318	240.536	-0.107	0.176
-337.304	800.000	0.073	0.217
-336.289	-200.000	0.001	0.182
-335.275	-92.324	0.024	-0.007
-334.260	-184.517	-0.302	0.005
-333.245	-200.000	0.015	-0.159
-332.231	-100.027	-0.192	0.047
-331.216	-16.065	0.199	-0.125
-330.202	23.114	-0.262	0.212
-329.187	-21.896	-0.146	0.088
-328.172	-66.024	0.163	-0.064
-327.158	-185.044	0.253	0.004
-326.143	800.000	0.054	0.182
-325.129	800.000	0.045	0.127
-324.114	-200.000	0.052	0.230
-323.099	-200.000	0.019	0.420
-322.085	-200.000	-0.051	-0.226
-321.070	55.006	0.132	-0.126
-320.056	622.099	-0.011	0.027
-319.041	-122.713	-0.205	0.033
-318.026	251.403	0.265	-0.446
-317.012	-200.000	-0.021	-0.200
-315.997	315.014	0.110	0.204
-314.983	-200.000	-0.000	-0.154
-313.968	44.878	0.090	0.082
-312.953	349.581	-0.098	0.192
-311.939	252.057	-0.059	0.098
-310.924	-5.018	-0.158	0.108
-309.910	23.875	-0.316	0.257
-308.895	39.154	0.243	0.215
-307.880	-102.557	-0.121	0.028
-306.866	-200.000	0.006	0.090
-305.851	542.849	-0.010	-0.023
-304.837	252.631	0.103	-0.173
-303.822	-34.310	-0.192	0.104
-302.807	7.469	0.161	0.119
-301.793	-95.760	0.178	0.047
-300.778	55.691	0.092	0.088
-299.764	-5.992	0.057	-0.038
-298.749	42.595	-0.327	0.294
-297.735	-200.000	-0.033	0.181
-296.720	-174.997	-0.223	0.006
-295.705	102.477	0.134	0.154
-294.691	-152.476	-0.271	-0.019
-293.676	-110.163	0.108	0.022
-292.662	336.778	-0.103	-0.197
-291.647	-61.559	0.100	0.041
-290.632	-200.000	-0.011	-0.065
-289.618	-66.237	0.213	-0.084
-288.603	-200.000	0.003	0.221
-287.589	170.806	-0.112	0.158
-286.574	-13.820	0.059	-0.038
-285.559	-200.000	-0.009	-0.339
-284.545	421.960	0.077	0.163
-283.530	-200.000	-0.169	0.000
-282.516	-8.074	-0.215	-0.143
-281.501	53.737	0.149	0.141
-280.486	800.000	-0.088	-0.289
-279.472	800.000	0.072	-0.242
-278.457	-88.797	0.068	-0.020
-277.443	800.000	0.070	0.200
-276.428	-15.071	-0.155	0.098
-275.413	-56.862	-0.195	-0.085
-274.399	26.807	0.086	-0.071
-273.384	27.961	0.358	-0.298
-272.370	265.195	-0.120	0.205
-271.355	87.670	0.123	-0.134
-270.340	206.282	0.134	-0.205
-269.326	247.482	-0.093	0.154
-268.311	648.631	0.086	0.216
-267.297	800.000	0.051	-0.174
-266.282	-200.000	0.027	-0.247
-265.267	314.369	-0.110	0.205
-264.253	-200.000	-0.052	-0.249
-263.238	470.569	-0.199	-0.441
-262.224	-200.000	-0.015	0.192
-261.209	-159.652	0.154	0.008
-260.195	200.262	0.101	-0.153
-259.180	-25.157	0.061	-0.035
-258.165	0.426	-0.060	0.042
-257.151	-124.692	0.338	-0.052
-256.136	-184.492	-0.403	0.006
-255.122	800.000	0.071	0.215
-254.107	-63.138	-0.119	0.048
-253.092	-153.290	0.150	0.010
-252.078	282.005	-0.058	0.103
-251.063	-119.190	-0.168	0.029
-250.049	168.064	-0.190	0.266
-249.034	-57.745	0.207	0.089
-248.019	301.005	-0.155	-0.282
-247.005	-36.732	0.170	-0.090
-245.990	125.832	-0.113	-0.141
-244.976	21.963	-0.234	-0.188
-243.961	-76.298	-0.187	0.065
-242.946	-131.474	0.129	0.017
-241.932	-200.000	0.004	-0.110
-240.917	-135.140	0.336	-0.040
-239.903	-133.457	0.418	0.052
-238.888	25.101	0.051	-0.042
-237.873	37.977	-0.148	-0.130
-236.859	22.290	0.312	-0.251
-235.844	800.000	-0.047	0.166
-234.830	34.305	-0.086	-0.074
-233.815	47.187	0.149	0.136
-232.800	-151.759	0.040	0.003
-231.786	51.704	-0.255	-0.238
-230.771	-200.000	-0.012	0.064
-229.757	-55.453	-0.215	0.095
-228.742	391.658	0.105	0.215
-227.727	-200.000	-0.043	0.245
-226.713	-200.000	0.037	-0.192
-225.698	35.200	0.311	-0.268
-224.684	-97.885	-0.205	-0.052
-223.669	-51.655	0.080	-0.037
-222.655	-90.882	0.339	-0.096
-221.640	63.161	0.217	-0.214
-220.625	23.636	-0.151	0.122
-219.611	-200.000	-0.016	-0.407
-218.596	31.900	0.149	0.126
-217.582	257.734	-0.097	0.164
-216.567	-0.490	0.209	0.146
-215.552	-159.309	0.053	-0.003
-214.538	-200.000	-0.020	-0.178
-213.523	-200.000	-0.018	-0.142
-212.509	-42.092	-0.285	-0.143
-211.494	-88.876	0.263	-0.077
-210.479	-200.000	0.066	0.490
-209.465	-3.408	-0.276	0.189
-208.450	-67.416	0.408	0.157
-207.436	-33.154	-0.290	-0.158
-206.421	-106.582	0.102	-0.022
-205.406	-138.297	-0.029	0.003
-204.392	185.377	-0.086	0.125
-203.377	202.589	-0.154	-0.234
-202.363	233.166	0.076	-0.123
-201.348	75.924	-0.109	0.114
-200.333	-154.070	-0.112	-0.007
-199.319	-3.153	0.174	0.120
-198.304	-95.895	0.114	-0.030
-197.290	-132.654	0.507	0.064
-196.275	-36.076	0.219	-0.116
-195.260	-56.232	-0.353	-0.154
-194.246	-93.412	-0.043	0.012
-193.231	226.240	-0.110	-0.175
-192.217	-11.588	-0.276	-0.178
-191.202	-200.000	0.025	0.210
-190.187	356.250	-0.137	0.267
-189.173	800.000	-0.090	-0.388
-188.158	-200.000	-0.048	-0.292
-187.144	-200.000	0.017	-0.194
-186.129	-2.873	-0.125	0.086
-185.114	-153.661	0.056	-0.004
-184.100	-12.412	-0.199	0.127
-183.085	-200.000	-0.024	-0.171
-182.071	-200.000	0.026	0.137
-181.056	-172.481	0.226	0.007
-180.042	245.707	0.059	0.097
-179.027	568.055	0.061	-0.145
-178.012	-200.000	-0.031	-0.408
-176.998	70.828	-0.213	-0.217
-175.983	375.179	0.120	0.241
-174.969	-30.172	-0.038	-0.021
-173.954	262.229	-0.065	-0.111
-172.939	-141.527	-0.088	-0.009
-171.925	-200.000	-0.022	0.101
-170.910	800.000	0.046	0.142
-169.896	-200.000	0.004	0.085
-168.881	-200.000	0.004	0.341
-167.866	-200.000	-0.004	0.093
-166.852	-144.937	0.051	-0.005
-165.837	-79.873	0.215	-0.071
-164.823	-32.534	-0.224	0.122
-163.808	72.748	0.200	-0.205
-162.793	-200.000	0.014	-0.289
-161.779	-91.420	-0.267	-0.075
-160.764	358.543	-0.113	0.222
-159.750	800.000	0.147	0.467
-158.735	-48.642	0.468	0.221
-157.720	-73.583	-0.195	-0.070
-156.706	-83.744	0.046	-0.014
-155.691	116.857	0.090	-0.108
-154.677	800.000	0.082	0.284
-153.662	-55.683	0.080	0.035
-152.647	516.674	0.145	0.332
-151.633	-142.014	-0.380	-0.037
-150.618	-51.979	0.491	0.224
-149.604	-28.285	-0.397	0.225
-148.589	-1.928	-0.087	0.060
-147.574	123.253	0.067	0.082
-146.560	420.239	0.068	-0.143
-145.545	693.351	0.039	-0.101
-144.531	-130.743	0.112	0.015
-143.516	13.721	-0.145	0.110
-142.502	800.000	-0.099	0.349
-141.487	346.830	0.139	0.269
-140.472	-107.600	-0.299	0.064
-139.458	-18.443	0.028	0.017
-138.443	117.480	-0.198	0.239
-137.429	800.000	-0.038	-0.115
-136.414	-55.900	0.220	-0.096
-135.399	800.000	0.108	0.314
-134.385	-60.140	0.182	-0.076
-133.370	507.131	-0.058	-0.133
-132.356	55.523	-0.154	-0.146
-131.341	729.535	0.044	0.116
-130.326	-146.507	0.262	-0.022
-129.312	-78.651	0.019	-0.006
-128.297	283.000	0.183	0.322
-127.283	593.662	0.125	0.302
-126.268	3.087	0.195	-0.139
-125.253	-68.765	-0.161	-0.061
-124.239	800.000	0.022	0.092
-123.224	-11.129	-0.206	0.133
-122.210	-127.413	0.296	-0.042
-121.195	126.999	0.098	-0.122
