DTS Sentinel unit serial number:	SN413079Multiplexer serial number:	ORYXHardware model number:	OX4-SRSoftware version number:	ORYX F/W v4.00 Oryx Data Collector v3.7.2.0data status	okinstallation	princeton_trtdifferential loss correction	single-endedforward channel	channel 2reverse channel	N/Adate	2019/09/17time	07:15:35forward acquisition time	60.00reverse acquisition time	0.00gamma	496.2192k internal	0.2335k external	0.2335temperature offset calibration	0.9975default loss term (dB/km)	0.3790temperature slope calibration	1.0000multiplexer offset coefficient	1.0000multiplexer slope coefficient	1.0000fibre end	0.00T internal ref (°C)	27.31T ext. ref 1 (°C)	0.11T ext. ref 2 (°C)	21.30length (m)	temperature (°C)	Stokes	anti-Stokes-747.200	50.286	0.172	0.163
-746.185	800.000	-0.065	0.186
-745.171	-44.746	0.343	0.172
-744.156	67.523	0.195	0.200
-743.142	180.449	0.256	0.378
-742.127	-75.345	0.200	0.072
-741.112	-200.000	0.046	0.257
-740.098	-200.000	0.017	0.134
-739.083	-130.041	0.114	-0.016
-738.069	-200.000	0.024	0.271
-737.054	68.337	0.205	-0.211
-736.039	-143.812	-0.108	0.010
-735.025	-25.260	-0.099	-0.059
-734.010	-149.757	-0.212	0.017
-732.996	56.891	-0.101	0.099
-731.981	15.185	-0.205	0.162
-730.966	-96.706	-0.456	-0.121
-729.952	-143.813	0.321	-0.030
-728.937	19.149	0.113	0.091
-727.923	-37.120	0.100	-0.054
-726.908	-41.052	0.036	-0.019
-725.894	-200.000	0.049	-0.261
-724.879	-70.210	-0.128	0.049
-723.864	-56.773	-0.109	0.049
-722.850	-200.000	-0.069	-0.342
-721.835	-7.143	-0.174	0.119
-720.821	-19.612	0.093	-0.058
-719.806	784.971	-0.122	-0.336
-718.791	-8.995	0.187	-0.125
-717.777	87.888	0.230	0.256
-716.762	-122.548	-0.016	-0.003
-715.748	-129.183	0.234	0.033
-714.733	330.023	0.077	-0.149
-713.718	-34.694	0.202	0.111
-712.704	147.165	-0.312	0.421
-711.689	-185.998	-0.319	0.005
-710.675	-200.000	-0.062	0.354
-709.660	349.913	0.117	0.231
-708.645	-200.000	0.003	0.350
-707.631	800.000	0.040	-0.123
-706.616	199.426	-0.065	0.100
-705.602	13.368	-0.110	-0.085
-704.587	-200.000	-0.009	-0.098
-703.572	30.125	-0.110	0.094
-702.558	-121.150	-0.182	-0.031
-701.543	276.687	0.236	0.422
-700.529	-58.083	-0.328	-0.144
-699.514	-43.974	0.238	-0.120
-698.499	215.057	-0.167	0.265
-697.485	-128.680	0.030	0.004
-696.470	523.204	0.146	0.343
-695.456	-200.000	0.001	0.088
-694.441	197.413	0.156	0.238
-693.426	35.429	-0.165	-0.145
-692.412	-127.890	-0.121	-0.017
-691.397	-163.127	0.246	-0.012
-690.383	-144.731	0.150	0.014
-689.368	5.427	0.091	0.067
-688.354	75.970	0.048	-0.051
-687.339	60.252	-0.098	0.098
-686.324	-56.771	-0.120	0.053
-685.310	484.787	-0.142	0.324
-684.295	166.893	0.089	0.127
-683.281	-200.000	0.037	-0.272
-682.266	259.398	-0.049	-0.085
-681.251	-131.606	0.240	0.032
-680.237	69.180	-0.118	0.121
-679.222	-28.961	-0.141	-0.081
-678.208	92.357	0.255	-0.289
-677.193	-155.940	-0.121	0.008
-676.178	363.044	-0.064	-0.128
-675.164	-85.499	0.232	0.072
-674.149	798.450	-0.073	0.202
-673.135	-2.061	-0.296	0.209
-672.120	38.621	-0.110	0.098
-671.105	-84.001	0.057	0.018
-670.091	800.000	-0.116	-0.363
-669.076	159.372	0.118	0.165
-668.062	-200.000	-0.036	-0.313
-667.047	130.311	0.136	0.175
-666.032	255.963	0.089	-0.152
-665.018	205.188	0.066	-0.102
-664.003	-14.919	0.094	0.060
-662.989	532.451	-0.047	-0.111
-661.974	80.446	-0.223	0.241
-660.959	-144.994	-0.393	0.036
-659.945	-11.406	0.091	0.060
-658.930	-73.308	0.181	0.066
-657.916	207.339	-0.174	-0.272
-656.901	-91.575	-0.159	-0.045
-655.886	-200.000	0.003	0.074
-654.872	99.567	0.088	-0.102
-653.857	-162.052	-0.337	-0.017
-652.843	289.916	0.150	0.272
-651.828	-132.508	-0.259	-0.033
-650.814	-50.107	0.215	0.102
-649.799	-32.845	0.466	-0.259
-648.784	22.382	0.140	0.115
-647.770	-94.515	0.365	-0.099
-646.755	-43.298	-0.358	-0.181
-645.741	84.917	0.164	-0.180
-644.726	-200.000	-0.014	0.608
-643.711	71.563	0.223	-0.232
-642.697	-200.000	-0.031	-0.259
-641.682	5.992	0.189	-0.140
-640.668	396.342	0.049	0.102
-639.653	27.466	-0.217	0.182
-638.638	57.259	0.149	-0.146
-637.624	800.000	-0.042	-0.170
-636.609	-116.516	0.288	0.053
-635.595	191.264	0.118	0.178
-634.580	-33.781	-0.213	0.118
-633.565	646.909	-0.099	-0.252
-632.551	-200.000	-0.006	0.080
-631.536	19.751	0.118	-0.095
-630.522	-17.102	-0.142	-0.090
-629.507	800.000	0.016	0.058
-628.492	-200.000	-0.009	-0.186
-627.478	800.000	-0.034	0.138
-626.463	-200.000	-0.005	-0.029
-625.449	800.000	0.033	-0.120
-624.434	-200.000	0.014	0.093
-623.419	26.451	0.215	0.180
-622.405	223.573	0.022	-0.036
-621.390	800.000	-0.020	0.085
-620.376	-143.560	-0.126	-0.012
-619.361	-81.121	-0.366	0.121
-618.346	62.816	0.071	0.071
-617.332	-100.891	-0.505	-0.124
-616.317	20.617	0.241	0.195
-615.303	-103.740	-0.223	-0.052
-614.288	-114.837	-0.317	-0.060
-613.273	800.000	0.031	-0.135
-612.259	3.816	0.248	0.181
-611.244	-139.841	0.188	0.020
-610.230	-80.479	-0.093	-0.031
-609.215	-200.000	-0.011	-0.214
-608.201	-140.923	-0.050	0.005
-607.186	561.153	0.074	0.178
-606.171	-200.000	0.020	0.183
-605.157	-118.101	0.379	-0.068
-604.142	-34.622	0.041	0.023
-603.128	-108.654	-0.126	-0.027
-602.113	159.568	-0.251	-0.349
-601.098	280.729	-0.094	-0.169
-600.084	-200.000	-0.027	-0.256
-599.069	2.896	0.057	0.041
-598.055	800.000	0.119	0.356
-597.040	223.576	0.147	0.236
-596.025	-51.663	-0.186	0.087
-595.011	-134.065	0.165	-0.020
-593.996	419.224	-0.069	0.148
-592.982	198.265	-0.139	0.212
-591.967	514.621	0.028	0.066
-590.952	800.000	-0.013	-0.040
-589.938	-200.000	-0.041	0.301
-588.923	-76.867	0.230	0.080
-587.909	-200.000	0.033	0.221
-586.894	-89.512	0.084	0.025
-585.879	-20.014	0.207	0.128
-584.865	-56.684	-0.066	0.029
-583.850	-129.502	-0.113	-0.016
-582.836	-104.690	-0.238	0.055
-581.821	502.538	0.027	0.063
-580.806	-48.646	0.151	0.073
-579.792	-200.000	0.035	-0.170
-578.777	-132.393	-0.079	0.010
-577.763	531.672	0.047	0.112
-576.748	-6.382	-0.326	-0.222
-575.733	-187.725	-0.137	-0.002
-574.719	-200.000	0.057	0.358
-573.704	800.000	-0.043	0.123
-572.690	-28.882	-0.418	-0.240
-571.675	153.809	0.064	-0.087
-570.661	-3.574	0.298	0.207
-569.646	-69.540	0.138	-0.053
-568.631	-200.000	0.018	-0.194
-567.617	33.270	0.019	-0.017
-566.602	3.406	0.065	0.047
-565.588	800.000	-0.124	-0.376
-564.573	117.061	0.048	-0.059
-563.558	3.855	-0.063	0.046
-562.544	-200.000	0.009	-0.299
-561.529	-31.833	0.033	0.018
-560.515	393.119	0.070	-0.145
-559.500	-200.000	0.006	-0.120
-558.485	419.669	-0.076	-0.162
-557.471	-200.000	0.011	-0.220
-556.456	109.523	-0.127	-0.151
-555.442	14.123	-0.150	-0.116
-554.427	-72.886	-0.170	-0.062
-553.412	-200.000	-0.034	0.171
-552.398	78.032	-0.092	0.097
-551.383	436.934	-0.073	-0.160
-550.369	-200.000	0.051	-0.322
-549.354	-46.721	-0.070	-0.034
-548.339	-67.942	0.199	-0.077
-547.325	-127.565	-0.045	-0.007
-546.310	-5.728	-0.153	0.105
-545.296	-79.366	0.329	-0.111
-544.281	29.904	-0.153	0.130
-543.266	-74.147	0.066	0.024
-542.252	-200.000	-0.042	-0.351
-541.237	-113.038	0.329	-0.065
-540.223	-67.727	-0.213	0.083
-539.208	8.585	-0.197	-0.148
-538.193	-200.000	-0.024	-0.383
-537.179	-57.466	-0.339	-0.148
-536.164	-89.297	-0.149	0.044
-535.150	-182.797	0.150	-0.003
-534.135	-47.216	0.346	-0.168
-533.121	-52.044	-0.208	-0.096
-532.106	-90.093	-0.077	0.022
-531.091	745.181	0.095	-0.255
-530.077	54.896	-0.088	0.085
-529.062	425.451	0.131	-0.281
-528.048	-75.731	-0.108	0.038
-527.033	-200.000	-0.013	-0.104
-526.018	-30.564	0.174	-0.098
-525.004	800.000	-0.071	-0.287
-523.989	299.681	-0.081	-0.148
-522.975	-69.577	-0.183	-0.070
-521.960	800.000	-0.083	0.255
-520.945	348.770	0.083	0.164
-519.931	-116.265	0.143	-0.026
-518.916	-74.813	0.114	0.041
-517.902	-50.345	0.105	-0.050
-516.887	67.452	-0.183	0.186
-515.872	581.195	-0.134	0.328
-514.858	-51.279	-0.367	0.171
-513.843	700.276	0.062	0.164
-512.829	-23.265	-0.178	-0.107
-511.814	-200.000	-0.004	0.229
-510.799	-109.741	-0.301	-0.063
-509.785	-97.539	0.214	-0.055
-508.770	254.748	0.149	0.254
-507.756	-200.000	0.010	0.377
-506.741	6.046	0.142	-0.105
-505.726	-200.000	0.014	0.094
-504.712	-200.000	-0.013	0.081
-503.697	-200.000	-0.031	0.378
-502.683	-200.000	-0.065	0.368
-501.668	225.536	-0.162	0.261
-500.653	-40.633	-0.092	-0.047
-499.639	43.410	0.142	-0.129
-498.624	-79.196	0.421	-0.142
-497.610	77.413	0.261	0.276
-496.595	30.471	-0.173	0.147
-495.581	-109.812	-0.115	0.024
-494.566	-0.321	0.366	-0.259
-493.551	-76.430	-0.286	0.100
-492.537	361.806	0.118	0.235
-491.522	800.000	0.043	-0.136
-490.508	-42.305	0.117	-0.059
-489.493	-200.000	-0.034	-0.426
-488.478	242.178	-0.065	-0.108
-487.464	60.646	-0.131	0.129
-486.449	-40.067	0.382	-0.198
-485.435	-200.000	-0.014	-0.136
-484.420	-200.000	0.042	-0.206
-483.405	-148.967	-0.430	-0.034
-482.391	-5.396	-0.105	0.072
-481.376	-144.449	0.265	-0.024
-480.362	6.310	-0.026	-0.019
-479.347	46.154	-0.219	-0.202
-478.332	333.125	-0.165	-0.316
-477.318	800.000	0.073	0.300
-476.303	800.000	-0.051	0.147
-475.289	-200.000	0.007	0.035
-474.274	84.698	-0.098	0.106
-473.259	-101.323	0.148	0.036
-472.245	-103.526	-0.129	0.030
-471.230	800.000	0.068	-0.190
-470.216	403.591	0.037	-0.077
-469.201	-82.085	0.196	-0.064
-468.186	-35.331	-0.051	-0.028
-467.172	800.000	-0.045	0.137
-466.157	-95.949	0.296	0.078
-465.143	634.581	-0.053	-0.135
-464.128	-200.000	0.025	0.223
-463.113	-200.000	-0.038	-0.472
-462.099	110.464	-0.084	0.101
-461.084	-146.825	0.098	0.008
-460.070	800.000	-0.039	0.116
-459.055	43.313	-0.248	-0.225
-458.040	246.164	-0.156	0.261
-457.026	189.847	0.111	-0.165
-456.011	-200.000	-0.009	-0.195
-454.997	-45.632	-0.299	-0.147
-453.982	48.333	0.084	0.078
-452.968	116.944	-0.144	-0.176
-451.953	12.496	-0.166	-0.127
-450.938	-25.308	0.178	-0.104
-449.924	-200.000	-0.002	0.152
-448.909	-200.000	-0.004	0.032
-447.895	182.184	0.238	-0.348
-446.880	141.796	-0.110	-0.145
-445.865	398.503	0.028	-0.058
-444.851	212.173	-0.167	-0.261
-443.836	-200.000	0.001	-0.207
-442.822	41.886	0.136	-0.123
-441.807	-200.000	-0.002	0.316
-440.792	95.261	0.184	0.209
-439.778	-112.309	-0.252	0.050
-438.763	205.587	0.115	0.177
-437.749	-200.000	0.063	-0.339
-436.734	463.229	-0.142	-0.315
-435.719	-200.000	0.040	0.255
-434.705	-32.968	-0.109	-0.060
-433.690	-102.753	-0.317	-0.075
-432.676	800.000	0.080	-0.240
-431.661	-34.428	-0.185	-0.101
-430.646	-72.594	-0.328	-0.120
-429.632	-200.000	0.009	-0.115
-428.617	596.201	-0.062	-0.153
-427.603	-200.000	-0.061	-0.268
-426.588	800.000	-0.018	0.058
-425.573	800.000	-0.047	0.155
-424.559	800.000	0.037	0.125
-423.544	800.000	-0.027	0.087
-422.530	654.832	-0.070	-0.177
-421.515	11.453	0.269	-0.205
-420.500	-154.412	0.119	0.008
-419.486	-200.000	0.056	-0.408
-418.471	-200.000	0.031	-0.138
-417.457	-60.659	0.438	-0.184
-416.442	474.776	0.052	0.116
-415.428	146.235	0.105	0.140
-414.413	222.412	0.162	-0.258
-413.398	-47.612	0.194	-0.093
-412.384	293.929	0.112	0.202
-411.369	-200.000	0.034	-0.249
-410.355	-111.259	0.381	0.077
-409.340	800.000	-0.004	-0.014
-408.325	800.000	-0.046	0.171
-407.311	-200.000	-0.012	-0.102
-406.296	-30.642	-0.306	0.172
-405.282	-107.291	0.280	-0.061
-404.267	308.093	-0.040	0.074
-403.252	-34.534	0.201	-0.109
-402.238	-26.012	0.157	-0.091
-401.223	39.263	0.403	0.357
-400.209	-200.000	-0.080	-0.395
-399.194	-191.556	-0.092	-0.001
-398.179	800.000	0.037	0.160
-397.165	494.043	-0.034	0.076
-396.150	-200.000	0.003	0.200
-395.136	7.980	-0.082	0.061
-394.121	19.792	0.254	-0.203
-393.106	-200.000	0.003	0.052
-392.092	800.000	0.072	-0.262
-391.077	178.907	-0.049	-0.071
-390.063	20.830	0.092	-0.074
-389.048	800.000	0.117	-0.362
-388.033	800.000	0.083	0.269
-387.019	316.297	-0.088	0.165
-386.004	-40.236	-0.218	-0.112
-384.990	800.000	-0.084	0.295
-383.975	490.735	0.044	0.100
-382.960	-94.219	-0.439	-0.119
-381.946	276.384	0.032	-0.057
-380.931	692.878	-0.026	-0.067
-379.917	-124.852	-0.154	0.023
-378.902	800.000	0.050	0.182
-377.888	49.831	0.071	0.066
-376.873	178.430	0.153	0.221
-375.858	418.766	-0.017	0.036
-374.844	800.000	0.106	0.367
-373.829	-58.778	0.399	0.171
-372.815	-162.176	0.346	0.017
-371.800	292.818	-0.052	-0.094
-370.785	-100.339	-0.307	0.075
-369.771	800.000	-0.063	-0.235
-368.756	-56.353	0.375	0.165
-367.742	21.455	-0.518	0.417
-366.727	-200.000	0.075	-0.339
-365.712	5.823	-0.124	0.091
-364.698	65.890	0.018	-0.018
-363.683	-200.000	0.005	0.201
-362.669	650.417	-0.057	-0.144
-361.654	-200.000	0.123	0.569
-360.639	608.020	0.065	0.162
-359.625	-200.000	0.013	0.104
-358.610	-200.000	0.003	0.157
-357.596	-45.612	-0.359	0.176
-356.581	-153.370	-0.269	-0.019
-355.566	437.127	0.066	-0.142
-354.552	800.000	0.152	-0.450
-353.537	-109.883	0.196	-0.041
-352.523	58.033	-0.387	0.375
-351.508	800.000	-0.088	0.357
-350.493	134.659	-0.106	-0.137
-349.479	82.850	0.242	-0.260
-348.464	-27.569	0.218	-0.125
-347.450	146.843	-0.151	0.201
-346.435	-74.750	-0.197	-0.070
-345.420	51.137	0.346	0.325
-344.406	-158.928	-0.500	0.028
-343.391	209.513	-0.040	-0.062
-342.377	14.023	0.201	0.155
-341.362	165.797	0.197	-0.276
-340.348	84.533	0.125	0.135
-339.333	35.457	0.206	-0.179
-338.318	-144.863	0.082	-0.007
-337.304	83.371	-0.229	0.247
-336.289	-49.538	-0.466	-0.220
-335.275	-77.574	-0.286	0.098
-334.260	-128.895	0.058	-0.008
-333.245	404.084	-0.145	-0.302
-332.231	-14.420	-0.028	-0.018
-331.216	800.000	-0.093	-0.349
-330.202	-200.000	0.004	-0.050
-329.187	86.114	0.032	0.035
-328.172	-23.145	-0.163	-0.097
-327.158	230.734	0.087	-0.142
-326.143	281.527	0.111	-0.197
-325.129	800.000	-0.078	0.276
-324.114	-127.088	-0.262	-0.038
-323.099	-8.073	-0.018	-0.012
-322.085	19.362	-0.273	0.217
-321.070	-160.699	-0.197	-0.010
-320.056	485.794	-0.132	0.298
-319.041	800.000	0.106	0.378
-318.026	49.800	0.261	-0.243
-317.012	-5.308	0.320	0.218
-315.997	129.259	-0.111	0.140
-314.983	-105.990	-0.606	-0.135
-313.968	-200.000	0.001	0.127
-312.953	46.835	-0.229	-0.210
-311.939	61.405	-0.188	0.185
-310.924	-200.000	-0.032	0.209
-309.910	-71.764	0.323	-0.119
-308.895	252.897	0.165	0.278
-307.880	-200.000	0.041	0.307
-306.866	-200.000	-0.015	-0.177
-305.851	-90.028	0.306	0.088
-304.837	14.561	-0.314	0.242
-303.822	401.356	0.110	0.227
-302.807	-58.853	-0.171	0.073
-301.793	596.041	0.116	-0.284
-300.778	-34.602	-0.238	-0.129
-299.764	-124.723	-0.247	0.038
-298.749	-42.586	-0.173	0.087
-297.735	59.426	0.082	0.080
-296.720	-112.993	0.261	-0.051
-295.705	16.548	-0.154	-0.120
-294.691	-200.000	-0.043	-0.376
-293.676	-200.000	-0.046	-0.336
-292.662	305.064	-0.031	-0.056
-291.647	-200.000	0.003	-0.214
-290.632	223.931	0.264	-0.420
-289.618	4.002	0.326	0.235
-288.603	144.272	0.040	0.053
-287.589	-200.000	-0.013	0.106
-286.574	106.404	0.262	0.307
-285.559	4.249	-0.274	-0.198
-284.545	-60.598	0.184	-0.077
-283.530	240.000	-0.154	-0.254
-282.516	-200.000	0.014	-0.089
-281.501	-163.148	-0.090	0.004
-280.486	323.806	-0.083	0.157
-279.472	-98.419	0.153	-0.039
-278.457	-81.822	0.069	-0.022
-277.443	-58.335	-0.221	0.095
-276.428	-48.789	0.408	0.193
-275.413	53.986	-0.203	0.192
-274.399	-105.922	0.280	0.062
-273.384	445.837	-0.149	-0.323
-272.370	-55.743	-0.167	-0.074
-271.355	-200.000	0.003	-0.389
-270.340	-65.319	-0.187	0.074
-269.326	-200.000	-0.006	-0.058
-268.311	127.309	-0.328	-0.410
-267.297	-200.000	-0.033	-0.158
-266.282	130.477	-0.167	0.211
-265.267	800.000	0.135	0.524
-264.253	214.525	0.172	0.268
-263.238	-200.000	-0.006	-0.196
-262.224	-118.475	-0.141	-0.025
-261.209	10.573	-0.318	-0.239
-260.195	-32.950	0.240	0.132
-259.180	683.974	0.059	0.151
-258.165	-200.000	0.018	0.216
-257.151	94.061	-0.141	0.158
-256.136	-200.000	0.038	0.352
-255.122	128.621	0.060	0.076
-254.107	269.233	0.094	0.163
-253.092	129.721	0.130	-0.164
-252.078	-49.300	-0.141	-0.066
-251.063	-58.678	-0.321	0.137
-250.049	-47.942	0.277	0.132
-249.034	691.700	0.027	0.071
-248.019	800.000	0.030	0.110
-247.005	174.930	-0.154	0.220
-245.990	378.587	-0.050	-0.101
-244.976	-127.839	0.113	0.016
-243.961	266.491	0.108	0.187
-242.946	-146.135	-0.128	0.011
-241.932	374.987	-0.103	0.207
-240.917	-200.000	0.011	0.383
-239.903	203.067	-0.323	-0.491
-238.888	-200.000	0.001	0.093
-237.873	-146.031	-0.178	0.015
-236.859	-125.242	0.233	-0.035
-235.844	250.679	0.153	0.257
-234.830	-88.707	-0.436	0.128
-233.815	423.938	0.143	0.302
-232.800	-200.000	-0.001	-0.101
-231.786	220.975	0.169	0.268
-230.771	-70.960	-0.143	0.053
-229.757	17.340	0.159	0.124
-228.742	44.422	-0.165	0.149
-227.727	395.609	0.094	-0.193
-226.713	-41.940	-0.098	-0.049
-225.698	-71.297	0.157	0.058
-224.684	-177.342	-0.208	-0.005
-223.669	16.316	0.196	0.152
-222.655	-200.000	0.025	0.374
-221.640	134.604	-0.265	0.339
-220.625	39.113	-0.122	-0.107
-219.611	90.604	-0.189	-0.208
-218.596	110.467	-0.142	0.168
-217.582	-200.000	-0.009	-0.079
-216.567	-38.388	0.120	0.063
-215.552	-200.000	0.047	0.370
-214.538	-29.456	-0.058	-0.032
-213.523	-27.206	-0.039	0.022
-212.509	800.000	0.067	0.260
-211.494	-126.067	0.075	-0.011
-210.479	70.087	-0.267	0.272
-209.465	23.747	-0.140	0.113
-208.450	24.914	0.233	0.190
-207.436	-200.000	0.014	-0.289
-206.421	-119.059	0.474	-0.082
-205.406	639.273	-0.062	-0.155
-204.392	471.797	0.045	-0.101
-203.377	-200.000	0.035	0.176
-202.363	449.535	0.182	-0.395
-201.348	-163.379	-0.242	-0.011
-200.333	104.057	0.073	-0.085
-199.319	-81.601	0.254	-0.082
-198.304	-26.601	0.166	-0.095
-197.290	-31.494	-0.135	-0.075
-196.275	800.000	0.067	-0.234
-195.260	-47.065	0.049	0.023
-194.246	-200.000	-0.029	-0.246
-193.231	23.294	-0.141	-0.114
-192.217	22.752	0.103	-0.083
-191.202	-72.647	0.089	-0.032
-190.187	-200.000	-0.021	0.246
-189.173	121.203	0.166	-0.203
-188.158	63.802	-0.039	-0.039
-187.144	-200.000	0.007	0.120
-186.129	207.348	0.038	-0.058
-185.114	-40.256	0.187	-0.096
-184.100	-63.016	0.174	0.071
-183.085	77.697	0.216	-0.226
-182.071	18.114	0.215	-0.168
-181.056	-200.000	-0.021	0.157
-180.042	-200.000	0.025	-0.247
-179.027	800.000	-0.071	-0.290
-178.012	-121.558	-0.240	-0.039
-176.998	268.258	0.163	-0.281
-175.983	-120.184	-0.242	0.041
-174.969	-143.818	-0.162	0.015
-173.954	-14.588	0.246	0.156
-172.939	-62.205	-0.148	-0.060
-171.925	-72.536	0.172	0.062
-170.910	-55.021	0.339	0.150
-169.896	9.928	-0.233	0.173
-168.881	-58.034	-0.273	0.117
-167.866	-96.704	0.574	0.148
-166.852	227.688	0.052	0.083
-165.837	63.456	0.201	-0.198
-164.823	95.665	-0.348	-0.390
-163.808	91.058	0.172	-0.190
-162.793	183.405	0.153	0.223
-161.779	227.819	-0.096	0.154
-160.764	277.929	0.119	0.208
-159.750	90.937	0.273	0.300
-158.735	-200.000	-0.004	-0.066
-157.720	53.899	0.078	-0.073
-156.706	-118.961	-0.099	0.017
-155.691	-86.725	0.048	-0.015
-154.677	359.888	-0.036	0.071
-153.662	528.646	0.013	-0.030
-152.647	570.033	0.018	-0.043
-151.633	-3.765	0.343	0.234
-150.618	524.017	0.240	0.554
-149.604	-84.012	-0.195	-0.061
-148.589	37.309	-0.186	-0.162
-147.574	-90.792	0.121	-0.034
-146.560	800.000	0.048	-0.168
-145.545	659.436	-0.069	-0.175
-144.531	-167.138	-0.132	-0.005
-143.516	43.750	-0.245	0.220
-142.502	193.471	-0.114	0.169
-141.487	-111.203	-0.253	0.051
-140.472	197.441	0.109	-0.163
-139.458	-68.137	-0.065	-0.025
-138.443	106.319	-0.271	-0.315
-137.429	800.000	-0.057	0.209
-136.414	-34.281	0.360	-0.194
-135.399	-159.515	-0.256	-0.014
-134.385	9.352	-0.050	0.037
-133.370	-200.000	-0.050	-0.427
-132.356	24.885	-0.127	0.103
-131.341	800.000	0.091	-0.262
-130.326	153.217	-0.149	0.200
-129.312	800.000	-0.107	-0.349
-128.297	-71.928	-0.145	-0.053
-127.283	547.853	0.088	-0.206
-126.268	6.488	-0.106	-0.077
-125.253	-200.000	0.005	0.167
-124.239	5.703	-0.317	0.230
-123.224	800.000	0.053	0.191
-122.210	-60.186	0.438	0.183
-121.195	-200.000	-0.009	0.207
-120.180	-200.000	-0.024	0.317
