DTS Sentinel unit serial number:	SN413079Multiplexer serial number:	ORYXHardware model number:	OX4-SRSoftware version number:	ORYX F/W v4.00 Oryx Data Collector v3.7.2.0data status	okinstallation	princeton_trtdifferential loss correction	single-endedforward channel	channel 2reverse channel	N/Adate	2019/09/11time	05:25:11forward acquisition time	60.00reverse acquisition time	0.00gamma	496.2192k internal	0.2329k external	0.2329temperature offset calibration	0.9940default loss term (dB/km)	0.3790temperature slope calibration	1.0000multiplexer offset coefficient	1.0000multiplexer slope coefficient	1.0000fibre end	0.00T internal ref (°C)	29.44T ext. ref 1 (°C)	-0.25T ext. ref 2 (°C)	23.56length (m)	temperature (°C)	Stokes	anti-Stokes-747.200	-110.010	0.190	-0.040
-746.185	617.632	0.046	0.117
-745.171	-91.516	-0.104	0.030
-744.156	235.381	0.099	0.165
-743.142	-69.172	0.286	0.111
-742.127	-31.991	0.197	0.111
-741.112	11.236	0.065	-0.050
-740.098	129.286	-0.181	0.233
-739.083	-4.038	0.170	-0.119
-738.069	103.376	0.067	0.079
-737.054	-200.000	-0.019	-0.094
-736.039	-86.295	0.204	0.063
-735.025	608.924	-0.020	-0.050
-734.010	-200.000	0.012	-0.164
-732.996	7.394	-0.338	-0.255
-731.981	-67.008	-0.261	0.104
-730.966	17.357	-0.240	0.192
-729.952	96.656	0.062	0.072
-728.937	-23.910	0.080	-0.048
-727.923	-200.000	-0.031	-0.224
-726.908	-40.029	0.134	0.070
-725.894	316.108	-0.165	-0.313
-724.879	107.151	0.085	0.102
-723.864	-39.748	0.168	-0.088
-722.850	201.510	-0.059	0.092
-721.835	-97.926	-0.323	0.084
-720.821	-200.000	0.038	0.192
-719.806	-123.856	0.003	-0.000
-718.791	-200.000	-0.009	-0.066
-717.777	456.127	0.149	-0.333
-716.762	390.636	0.078	-0.163
-715.748	355.839	-0.249	-0.499
-714.733	-200.000	-0.079	0.384
-713.718	800.000	-0.046	-0.158
-712.704	-4.178	-0.142	-0.099
-711.689	-200.000	-0.044	-0.316
-710.675	-118.301	0.382	0.068
-709.660	389.355	0.168	-0.351
-708.645	317.477	0.089	-0.170
-707.631	-103.158	-0.134	0.032
-706.616	76.795	-0.077	0.083
-705.602	800.000	0.077	-0.279
-704.587	369.954	0.253	0.515
-703.572	-200.000	0.019	0.111
-702.558	800.000	0.122	-0.422
-701.543	66.330	0.360	0.368
-700.529	554.147	0.186	-0.450
-699.514	164.188	0.244	0.345
-698.499	39.094	-0.092	-0.082
-697.485	28.082	-0.150	0.127
-696.470	-125.892	-0.034	0.005
-695.456	42.518	-0.075	0.069
-694.441	800.000	0.070	-0.197
-693.426	-200.000	0.034	0.268
-692.412	-107.870	-0.303	-0.066
-691.397	-200.000	-0.007	-0.085
-690.383	344.265	0.113	-0.223
-689.368	31.457	0.288	-0.248
-688.354	2.907	-0.118	-0.086
-687.339	-9.399	0.279	0.187
-686.324	212.149	0.080	-0.126
-685.310	119.410	-0.334	-0.415
-684.295	461.500	-0.151	-0.339
-683.281	-164.905	0.202	0.009
-682.266	21.799	-0.067	-0.055
-681.251	-41.785	0.044	0.023
-680.237	-152.493	0.446	-0.032
-679.222	120.731	0.232	0.290
-678.208	36.294	0.130	0.115
-677.193	-3.439	0.186	0.130
-676.178	800.000	0.058	0.185
-675.164	-15.636	-0.071	-0.045
-674.149	28.121	0.345	0.292
-673.135	-27.915	-0.082	0.048
-672.120	-72.175	-0.381	0.142
-671.105	347.527	0.054	-0.107
-670.091	75.056	0.150	-0.159
-669.076	-14.642	-0.020	0.013
-668.062	-13.545	0.090	-0.059
-667.047	800.000	0.036	-0.157
-666.032	-138.423	-0.390	0.043
-665.018	-147.423	0.501	0.043
-664.003	389.446	0.098	-0.204
-662.989	166.746	-0.102	-0.145
-661.974	-95.237	0.258	-0.070
-660.959	-200.000	0.038	0.462
-659.945	71.093	0.115	0.120
-658.930	800.000	0.074	-0.223
-657.916	-0.937	-0.095	0.068
-656.901	-190.370	-0.348	-0.004
-655.886	-143.176	-0.077	0.007
-654.872	800.000	-0.064	-0.202
-653.857	120.220	-0.049	-0.061
-652.843	-105.950	-0.374	-0.085
-651.828	118.706	-0.128	0.158
-650.814	291.722	0.142	0.260
-649.799	-63.962	0.345	0.142
-648.784	-95.439	-0.255	-0.069
-647.770	-86.085	-0.021	-0.006
-646.755	-42.476	-0.077	0.039
-645.741	-94.424	0.133	0.037
-644.726	800.000	0.078	-0.305
-643.711	800.000	-0.070	0.217
-642.697	-49.762	0.086	0.041
-641.682	-200.000	0.080	-0.366
-640.668	-145.587	-0.158	-0.014
-639.653	800.000	0.125	0.431
-638.638	137.285	-0.067	-0.088
-637.624	69.211	0.089	-0.092
-636.609	-200.000	-0.042	0.357
-635.595	20.919	-0.131	-0.107
-634.580	172.812	0.082	0.118
-633.565	-34.096	-0.154	-0.085
-632.551	178.065	0.095	-0.139
-631.536	333.511	-0.111	-0.215
-630.522	-40.551	-0.364	0.190
-629.507	-23.549	-0.191	0.115
-628.492	-100.000	-0.129	-0.032
-627.478	-65.513	-0.281	-0.113
-626.463	20.094	0.216	0.175
-625.449	101.569	-0.234	-0.273
-624.434	-29.667	-0.210	0.120
-623.419	-140.237	0.087	-0.009
-622.405	-200.000	-0.022	0.112
-621.390	-200.000	0.008	0.101
-620.376	191.148	-0.059	0.090
-619.361	-34.589	0.424	-0.232
-618.346	-104.765	-0.296	-0.068
-617.332	-112.000	0.119	-0.024
-616.317	-56.752	-0.145	0.064
-615.303	-108.982	-0.514	-0.110
-614.288	146.712	-0.223	-0.300
-613.273	-162.912	0.226	0.011
-612.259	272.017	0.152	-0.268
-611.244	-127.266	-0.214	0.031
-610.230	409.267	-0.137	0.290
-609.215	800.000	0.086	-0.301
-608.201	-127.064	-0.264	0.039
-607.186	-9.510	0.005	0.003
-606.171	-142.566	0.154	-0.015
-605.157	-28.157	-0.181	0.105
-604.142	-91.600	0.257	0.073
-603.128	-138.662	0.248	0.027
-602.113	-19.280	0.183	0.113
-601.098	-200.000	-0.017	-0.182
-600.084	-61.090	0.165	-0.070
-599.069	99.490	0.111	-0.129
-598.055	211.764	0.009	-0.014
-597.040	-147.988	0.248	0.021
-596.025	-156.364	-0.281	-0.018
-595.011	800.000	-0.057	-0.178
-593.996	800.000	0.038	-0.109
-592.982	-12.817	0.083	-0.054
-591.967	592.474	-0.167	-0.414
-590.952	251.195	-0.134	-0.228
-589.938	-5.137	-0.086	0.060
-588.923	60.566	0.124	-0.123
-587.909	-200.000	0.000	-0.027
-586.894	652.894	-0.115	0.294
-585.879	131.680	0.086	0.110
-584.865	-31.045	-0.146	0.082
-583.850	-17.864	-0.085	0.053
-582.836	-11.658	-0.268	-0.176
-581.821	-19.090	-0.019	-0.012
-580.806	183.722	-0.055	0.082
-579.792	581.145	-0.114	-0.280
-578.777	-31.320	-0.250	-0.141
-577.763	-25.617	-0.317	0.187
-576.748	225.962	0.181	-0.293
-575.733	-200.000	0.099	-0.515
-574.719	800.000	0.099	-0.403
-573.704	-59.291	0.221	0.095
-572.690	-61.632	0.130	0.055
-571.675	-200.000	0.002	0.033
-570.661	259.306	-0.165	0.285
-569.646	800.000	0.085	-0.235
-568.631	246.766	-0.158	-0.266
-567.617	800.000	-0.036	-0.132
-566.602	69.035	-0.161	0.165
-565.588	31.376	-0.332	-0.285
-564.573	-153.776	-0.208	0.014
-563.558	-47.077	0.110	0.054
-562.544	135.295	0.169	0.220
-561.529	-156.570	-0.035	-0.002
-560.515	173.501	0.215	-0.310
-559.500	-20.689	-0.230	0.141
-558.485	144.139	0.356	-0.475
-557.471	59.732	0.112	0.111
-556.456	157.469	0.087	0.120
-555.442	-51.395	-0.164	0.077
-554.427	59.734	0.111	-0.109
-553.412	-89.985	0.185	0.054
-552.398	-138.319	-0.067	0.007
-551.383	214.699	-0.200	-0.316
-550.369	-165.182	-0.247	-0.011
-549.354	186.456	-0.147	0.219
-548.339	98.484	0.065	-0.075
-547.325	-173.214	0.178	-0.005
-546.310	-11.652	0.194	0.127
-545.296	-94.417	-0.096	-0.026
-544.281	800.000	-0.104	0.308
-543.266	-142.554	0.109	-0.011
-542.252	-167.118	0.269	-0.011
-541.237	121.860	-0.119	-0.148
-540.223	-35.695	0.017	-0.009
-539.208	168.848	0.058	-0.083
-538.193	159.129	-0.186	-0.259
-537.179	-62.504	0.271	0.112
-536.164	226.777	0.151	-0.245
-535.150	336.825	0.037	-0.072
-534.135	-136.911	-0.264	-0.030
-533.121	-42.827	0.317	-0.161
-532.106	-200.000	-0.007	-0.396
-531.091	-27.292	0.226	0.131
-530.077	-50.627	-0.231	0.109
-529.062	-200.000	0.004	-0.087
-528.048	64.901	0.215	-0.217
-527.033	12.440	-0.101	0.078
-526.018	-200.000	-0.018	0.086
-525.004	11.604	0.084	0.064
-523.989	-154.414	-0.213	0.014
-522.975	445.269	-0.087	-0.190
-521.960	442.758	-0.120	-0.262
-520.945	33.198	0.066	-0.057
-519.931	800.000	-0.149	-0.482
-518.916	128.104	0.221	-0.281
-517.902	-139.409	-0.281	-0.030
-516.887	487.004	0.182	-0.413
-515.872	55.189	0.019	0.019
-514.858	-103.988	0.179	-0.042
-513.843	0.366	-0.049	-0.035
-512.829	11.325	0.088	-0.068
-511.814	-155.979	-0.142	-0.009
-510.799	211.935	0.024	0.038
-509.785	137.711	-0.031	0.041
-508.770	-200.000	-0.011	-0.224
-507.756	-98.727	0.294	0.075
-506.741	35.665	-0.151	-0.133
-505.726	-59.785	-0.241	0.103
-504.712	-200.000	-0.018	-0.254
-503.697	-118.138	-0.237	0.042
-502.683	663.934	0.057	0.146
-501.668	-63.390	0.371	-0.152
-500.653	-171.455	-0.148	0.005
-499.639	800.000	-0.054	0.187
-498.624	-76.836	-0.241	0.084
-497.610	-67.065	0.300	-0.118
-496.595	-60.270	-0.205	-0.087
-495.581	175.719	-0.096	0.139
-494.566	61.077	0.129	-0.128
-493.551	-120.820	0.112	0.019
-492.537	-68.695	-0.132	0.051
-491.522	90.139	0.187	0.208
-490.508	-23.889	-0.053	0.031
-489.493	23.456	0.331	0.271
-488.478	-142.597	-0.228	0.022
-487.464	11.188	-0.082	0.063
-486.449	-107.382	0.327	0.072
-485.435	184.017	-0.076	-0.112
-484.420	-200.000	-0.003	0.139
-483.405	360.661	-0.110	-0.220
-482.391	-4.171	0.349	0.241
-481.376	800.000	-0.124	-0.363
-480.362	12.005	0.173	0.133
-479.347	505.108	0.030	0.068
-478.332	-47.266	0.183	-0.089
-477.318	-102.432	0.170	-0.041
-476.303	-122.984	0.203	0.033
-475.289	-135.407	-0.116	-0.014
-474.274	517.449	0.131	-0.306
-473.259	-120.226	-0.143	-0.024
-472.245	-98.510	0.161	0.041
-471.230	214.955	-0.077	0.122
-470.216	-1.011	0.174	-0.122
-469.201	-26.341	0.144	-0.084
-468.186	303.079	-0.018	-0.033
-467.172	-3.982	-0.124	0.085
-466.157	-37.815	-0.158	-0.084
-465.143	312.083	-0.104	-0.195
-464.128	-114.089	-0.111	-0.021
-463.113	252.432	-0.051	0.086
-462.099	156.444	0.151	-0.207
-461.084	56.131	-0.042	-0.041
-460.070	-200.000	-0.010	-0.150
-459.055	539.490	-0.141	0.335
-458.040	-200.000	0.019	0.178
-457.026	-85.315	-0.225	0.070
-456.011	-40.820	-0.129	-0.066
-454.997	800.000	0.099	0.295
-453.982	-149.084	-0.133	-0.011
-452.968	-200.000	0.020	0.438
-451.953	-186.147	0.436	-0.006
-450.938	-200.000	-0.006	-0.125
-449.924	-35.285	0.483	0.261
-448.909	150.037	0.208	0.280
-447.895	165.821	-0.059	0.083
-446.880	83.936	0.154	-0.167
-445.865	-71.164	-0.244	0.091
-444.851	-0.183	-0.300	-0.212
-443.836	295.867	0.157	0.287
-442.822	212.184	-0.078	-0.122
-441.807	800.000	-0.068	0.247
-440.792	25.414	0.024	-0.020
-439.778	46.767	0.438	0.405
-438.763	117.411	0.244	-0.299
-437.749	-200.000	-0.077	0.363
-436.734	150.543	-0.081	0.110
-435.719	74.175	0.272	0.284
-434.705	34.039	-0.141	-0.122
-433.690	37.216	0.178	-0.157
-432.676	800.000	0.063	0.215
-431.661	168.306	0.103	-0.145
-430.646	326.071	0.074	-0.141
-429.632	66.589	-0.383	-0.387
-428.617	41.395	0.282	-0.254
-427.603	259.924	0.084	0.145
-426.588	-114.900	-0.146	0.028
-425.573	-200.000	-0.030	0.197
-424.559	-200.000	0.010	-0.048
-423.544	-200.000	-0.041	-0.204
-422.530	554.806	0.097	0.232
-421.515	203.985	0.115	0.178
-420.500	-200.000	-0.002	-0.162
-419.486	-35.781	0.269	-0.145
-418.471	-200.000	0.178	-0.000
-417.457	97.352	0.239	-0.273
-416.442	166.418	-0.114	0.160
-415.428	-14.339	-0.372	0.238
-414.413	-200.000	0.009	0.195
-413.398	276.798	0.117	-0.207
-412.384	-182.048	-0.219	-0.004
-411.369	-200.000	-0.042	-0.204
-410.355	80.317	-0.083	0.089
-409.340	214.013	0.202	-0.318
-408.325	16.292	0.028	-0.022
-407.311	-200.000	-0.011	-0.213
-406.296	800.000	0.075	0.205
-405.282	-66.988	-0.125	-0.049
-404.267	219.955	0.132	0.210
-403.252	-54.754	-0.243	0.109
-402.238	800.000	-0.050	0.175
-401.223	-55.786	-0.268	0.119
-400.209	800.000	-0.091	0.287
-399.194	82.890	0.089	-0.097
-398.179	-37.604	-0.355	0.188
-397.165	-75.901	0.099	-0.035
-396.150	10.175	-0.189	-0.143
-395.136	-102.754	0.148	-0.035
-394.121	-200.000	0.004	-0.187
-393.106	-35.623	0.193	-0.104
-392.092	-43.854	0.184	0.092
-391.077	128.493	-0.090	0.114
-390.063	-56.736	0.259	-0.114
-389.048	-200.000	0.039	-0.175
-388.033	-70.138	-0.254	0.096
-387.019	-200.000	-0.107	0.505
-386.004	41.936	-0.154	0.139
-384.990	-44.830	0.074	0.037
-383.975	800.000	-0.074	0.227
-382.960	-172.295	0.197	0.006
-381.946	-39.336	0.260	0.135
-380.931	100.528	-0.033	0.038
-379.917	-98.520	0.404	-0.102
-378.902	20.564	0.241	-0.194
-377.888	800.000	0.033	0.096
-376.873	800.000	0.059	0.172
-375.858	213.580	-0.153	-0.240
-374.844	293.178	0.163	0.295
-373.829	109.389	-0.222	0.264
-372.815	69.106	-0.074	-0.075
-371.800	-200.000	0.038	0.211
-370.785	-168.183	-0.167	0.006
-369.771	10.368	-0.198	-0.150
-368.756	-61.128	0.147	0.061
-367.742	14.336	0.147	0.113
-366.727	800.000	0.031	0.111
-365.712	373.085	0.179	-0.362
-364.698	46.839	-0.034	-0.031
-363.683	800.000	-0.086	0.239
-362.669	-97.325	0.263	0.068
-361.654	-52.535	0.256	0.117
-360.639	-77.443	0.163	0.056
-359.625	-26.350	0.672	0.391
-358.610	-153.730	-0.328	-0.022
-357.596	38.582	-0.275	-0.243
-356.581	-86.261	0.484	0.148
-355.566	-76.902	-0.235	0.081
-354.552	767.222	-0.142	-0.382
-353.537	-200.000	0.013	-0.328
-352.523	-57.094	-0.163	0.071
-351.508	-68.983	-0.237	0.091
-350.493	-47.358	-0.213	-0.103
-349.479	-99.769	0.199	-0.049
-348.464	800.000	0.017	0.048
-347.450	136.343	0.133	-0.173
-346.435	-56.807	-0.170	-0.074
-345.420	-71.218	0.080	0.030
-344.406	-122.182	-0.275	0.045
-343.391	-63.091	-0.202	0.083
-342.377	-93.979	0.092	-0.025
-341.362	345.251	0.064	-0.125
-340.348	-39.920	0.213	-0.110
-339.333	76.259	0.094	0.099
-338.318	-40.743	-0.318	-0.163
-337.304	70.598	-0.220	-0.225
-336.289	-84.036	-0.326	-0.103
-335.275	31.580	0.068	-0.058
-334.260	603.428	-0.036	-0.088
-333.245	-133.071	0.028	-0.004
-332.231	276.960	-0.149	-0.263
-331.216	40.672	0.063	0.057
-330.202	223.499	-0.043	0.068
-329.187	27.750	-0.278	0.232
-328.172	-46.236	0.353	0.172
-327.158	-92.192	-0.256	0.072
-326.143	120.965	0.061	0.075
-325.129	-27.941	-0.077	-0.044
-324.114	268.982	-0.166	-0.288
-323.099	52.677	-0.039	0.037
-322.085	-98.907	-0.100	0.025
-321.070	108.098	-0.172	-0.204
-320.056	-200.000	-0.034	0.399
-319.041	140.320	0.090	-0.118
-318.026	274.820	0.084	-0.147
-317.012	251.617	0.050	-0.083
-315.997	-132.642	-0.192	0.024
-314.983	-47.596	-0.308	0.148
-313.968	-26.517	0.238	-0.138
-312.953	-126.275	0.097	-0.014
-311.939	-139.286	-0.197	-0.021
-310.924	800.000	0.031	-0.120
-309.910	146.792	0.076	0.101
-308.895	800.000	-0.061	0.199
-307.880	-59.200	-0.093	-0.040
-306.866	-160.403	-0.123	0.007
-305.851	548.391	-0.044	0.103
-304.837	-18.801	-0.031	-0.019
-303.822	105.098	0.085	0.100
-302.807	-200.000	-0.062	-0.348
-301.793	-200.000	-0.034	-0.455
-300.778	800.000	0.034	-0.121
-299.764	27.604	0.137	-0.114
-298.749	570.867	-0.169	0.406
-297.735	-200.000	0.009	-0.402
-296.720	446.064	0.103	0.224
-295.705	-44.816	-0.218	0.108
-294.691	51.076	-0.365	-0.342
-293.676	-50.620	-0.308	0.144
-292.662	171.318	0.155	0.220
-291.647	34.255	0.317	0.274
-290.632	-36.388	0.136	-0.072
-289.618	-200.000	-0.040	-0.377
-288.603	-200.000	0.036	0.203
-287.589	-45.087	0.232	0.114
-286.574	-200.000	-0.005	-0.114
-285.559	-6.024	-0.261	-0.176
-284.545	171.520	0.306	0.435
-283.530	-65.357	-0.246	-0.098
-282.516	48.755	0.183	-0.169
-281.501	-200.000	0.027	0.183
-280.486	-113.015	-0.358	0.070
-279.472	-143.838	-0.153	0.014
-278.457	-30.339	-0.362	-0.203
-277.443	-39.079	-0.147	0.076
-276.428	-10.463	-0.274	0.179
-275.413	35.405	-0.151	-0.131
-274.399	-149.690	0.409	-0.032
-273.384	54.390	0.184	0.175
-272.370	800.000	0.014	0.042
-271.355	121.605	-0.258	0.317
-270.340	-200.000	0.006	-0.226
-269.326	-200.000	-0.038	-0.320
-268.311	127.339	0.038	-0.048
-267.297	-171.396	0.197	-0.006
-266.282	151.972	-0.100	-0.135
-265.267	-121.431	-0.251	-0.041
-264.253	-200.000	-0.026	-0.199
-263.238	-91.988	0.116	0.033
-262.224	322.248	0.103	0.194
-261.209	50.102	0.137	0.128
-260.195	800.000	0.099	-0.337
-259.180	-58.045	0.503	0.217
-258.165	72.973	0.222	0.229
-257.151	-145.938	-0.254	0.022
-256.136	800.000	0.067	-0.197
-255.122	-102.464	0.144	0.034
-254.107	-200.000	0.027	0.278
-253.092	509.446	-0.036	0.082
-252.078	114.672	0.222	-0.267
-251.063	-126.401	-0.062	-0.009
-250.049	100.047	0.266	-0.304
-249.034	-52.257	0.221	-0.101
-248.019	-126.594	-0.285	-0.042
-247.005	36.632	0.088	0.077
-245.990	184.620	-0.129	-0.189
-244.976	800.000	-0.090	0.286
-243.961	-106.781	0.137	-0.030
-242.946	-99.144	0.100	0.025
-241.932	-34.037	-0.389	0.211
-240.917	136.895	0.239	0.309
-239.903	800.000	0.091	0.384
-238.888	103.874	0.088	0.102
-237.873	507.657	-0.194	0.444
-236.859	800.000	-0.077	-0.232
-235.844	-200.000	-0.027	-0.156
-234.830	-63.573	-0.330	0.134
-233.815	-150.666	0.167	-0.013
-232.800	-200.000	-0.011	0.198
-231.786	-48.944	0.111	-0.052
-230.771	-200.000	0.026	0.165
-229.757	-133.725	0.056	0.007
-228.742	-155.631	-0.267	0.017
-227.727	180.827	0.151	0.219
-226.713	-79.825	-0.111	0.037
-225.698	85.952	0.363	0.395
-224.684	-131.042	0.189	-0.025
-223.669	263.490	0.216	0.371
-222.655	211.990	-0.124	0.193
-221.640	548.462	-0.026	-0.062
-220.625	-144.398	0.301	-0.028
-219.611	-32.599	0.075	0.041
-218.596	-10.524	-0.512	-0.334
-217.582	50.068	0.079	0.073
-216.567	332.905	-0.088	-0.167
-215.552	-109.416	-0.111	-0.023
-214.538	111.694	0.068	0.081
-213.523	109.963	-0.156	-0.184
-212.509	64.962	-0.091	0.090
-211.494	-196.483	0.272	0.002
-210.479	-200.000	-0.010	-0.093
-209.465	-62.658	-0.304	0.124
-208.450	-112.605	-0.238	0.047
-207.436	532.911	0.037	0.086
-206.421	606.470	-0.065	0.159
-205.406	-74.271	-0.096	-0.034
-204.392	-200.000	0.018	-0.203
-203.377	75.737	0.101	0.105
-202.363	-50.818	0.175	-0.081
-201.348	53.644	-0.324	-0.307
-200.333	495.631	0.069	-0.157
-199.319	-31.732	-0.221	-0.122
-198.304	157.855	-0.104	-0.142
-197.290	-51.384	-0.202	0.093
-196.275	-72.406	-0.163	0.059
-195.260	516.316	0.081	0.187
-194.246	177.400	0.251	-0.360
-193.231	-111.656	-0.252	-0.050
-192.217	398.172	0.094	0.195
-191.202	-200.000	0.002	0.302
-190.187	11.048	0.198	-0.149
-189.173	-200.000	-0.089	0.444
-188.158	-81.545	0.074	-0.024
-187.144	107.732	-0.023	-0.027
-186.129	-73.327	-0.247	0.089
-185.114	-31.201	0.261	-0.145
-184.100	415.709	0.189	0.398
-183.085	125.339	0.366	0.455
-182.071	800.000	0.038	-0.144
-181.056	800.000	-0.063	0.216
-180.042	4.714	-0.170	0.123
-179.027	-200.000	0.003	-0.355
-178.012	800.000	0.060	-0.233
-176.998	13.091	0.103	0.079
-175.983	-93.017	-0.121	0.033
-174.969	800.000	-0.058	-0.189
-173.954	-83.936	0.151	-0.047
-172.939	24.288	0.209	-0.170
-171.925	191.721	0.205	0.305
-170.910	-37.504	0.169	0.089
-169.896	-200.000	-0.070	0.363
-168.881	-131.142	0.364	0.048
-167.866	800.000	-0.009	-0.039
-166.852	-200.000	0.027	0.120
-165.837	-45.839	-0.135	0.066
-164.823	39.945	0.113	-0.100
-163.808	-200.000	-0.000	0.037
-162.793	-200.000	0.003	-0.226
-161.779	300.036	0.050	0.091
-160.764	187.168	-0.051	-0.074
-159.750	-200.000	0.052	0.227
-158.735	9.107	0.150	-0.112
-157.720	15.972	-0.245	-0.190
-156.706	273.310	-0.069	0.121
-155.691	165.028	-0.192	0.266
-154.677	88.946	0.209	0.229
-153.662	-200.000	-0.017	0.221
-152.647	-200.000	0.039	0.184
-151.633	-200.000	0.043	0.410
-150.618	94.415	0.202	-0.225
-149.604	-200.000	-0.039	-0.330
-148.589	-200.000	-0.014	-0.307
-147.574	342.136	0.058	0.111
-146.560	598.715	0.079	-0.192
-145.545	-200.000	-0.250	0.001
-144.531	529.985	0.034	-0.079
-143.516	30.133	-0.117	0.098
-142.502	-200.000	0.017	0.364
-141.487	485.688	-0.066	-0.148
-140.472	80.328	-0.138	-0.146
-139.458	74.489	0.305	0.315
-138.443	0.716	-0.294	0.207
-137.429	-200.000	-0.009	-0.042
-136.414	0.575	-0.216	0.152
-135.399	104.678	0.109	0.127
-134.385	-155.342	-0.077	0.005
-133.370	800.000	-0.106	-0.364
-132.356	-23.527	-0.115	0.068
-131.341	5.415	0.150	0.109
-130.326	-69.377	0.043	-0.016
-129.312	105.942	0.072	0.083
-128.297	31.291	-0.334	0.282
-127.283	-107.388	0.329	0.071
-126.268	-56.558	-0.205	0.089
-125.253	-32.742	-0.131	-0.072
-124.239	800.000	0.058	-0.206
-123.224	38.822	0.401	-0.352
-122.210	-44.369	-0.063	0.031
-121.195	354.368	0.065	0.126
-120.180	800.000	0.099	-0.301
