DTS Sentinel unit serial number:	SN413079Multiplexer serial number:	ORYXHardware model number:	OX4-SRSoftware version number:	ORYX F/W v4.00 Oryx Data Collector v3.7.2.0data status	okinstallation	princeton_trtdifferential loss correction	single-endedforward channel	channel 2reverse channel	N/Adate	2019/09/11time	22:17:11forward acquisition time	60.00reverse acquisition time	0.00gamma	496.2192k internal	0.2324k external	0.2324temperature offset calibration	1.0071default loss term (dB/km)	0.3790temperature slope calibration	1.0000multiplexer offset coefficient	1.0000multiplexer slope coefficient	1.0000fibre end	0.00T internal ref (°C)	35.27T ext. ref 1 (°C)	1.76T ext. ref 2 (°C)	29.67length (m)	temperature (°C)	Stokes	anti-Stokes-747.200	-133.200	-0.130	-0.017
-746.185	49.808	-0.086	0.082
-745.171	-200.000	0.022	0.211
-744.156	800.000	-0.084	0.319
-743.142	-75.945	-0.456	-0.163
-742.127	-200.000	-0.006	0.044
-741.112	800.000	-0.007	0.030
-740.098	-92.978	0.207	-0.058
-739.083	-120.711	0.574	-0.098
-738.069	374.433	-0.082	0.169
-737.054	221.220	0.108	-0.174
-736.039	-68.390	-0.127	-0.050
-735.025	-170.527	0.524	-0.018
-734.010	-101.282	0.321	-0.079
-732.996	-134.378	-0.376	0.047
-731.981	-114.813	-0.105	0.020
-730.966	177.604	-0.160	0.235
-729.952	-200.000	0.003	-0.126
-728.937	366.784	-0.100	-0.204
-727.923	59.943	-0.173	0.172
-726.908	-124.706	-0.245	-0.038
-725.894	-200.000	0.039	0.280
-724.879	-200.000	-0.012	-0.173
-723.864	-200.000	0.023	0.394
-722.850	5.108	-0.141	-0.104
-721.835	424.097	0.067	-0.146
-720.821	-200.000	0.006	-0.147
-719.806	153.189	-0.172	-0.238
-718.791	525.334	-0.142	-0.338
-717.777	88.484	-0.213	-0.239
-716.762	-110.575	-0.441	0.092
-715.748	-72.791	0.343	-0.127
-714.733	-53.712	0.137	0.063
-713.718	-172.663	0.295	-0.009
-712.704	-200.000	-0.055	-0.260
-711.689	342.660	-0.074	-0.146
-710.675	555.009	-0.065	0.158
-709.660	-200.000	0.002	-0.035
-708.645	-3.242	-0.252	0.177
-707.631	257.121	0.219	0.380
-706.616	-117.977	-0.418	-0.075
-705.602	98.834	-0.316	-0.368
-704.587	-78.300	-0.233	-0.081
-703.572	70.847	0.042	-0.044
-702.558	-158.528	-0.467	-0.027
-701.543	29.484	0.342	-0.293
-700.529	-200.000	0.079	-0.412
-699.514	800.000	0.107	-0.317
-698.499	201.748	0.170	0.265
-697.485	262.213	0.116	-0.203
-696.470	-82.954	-0.068	0.022
-695.456	522.431	-0.069	0.164
-694.441	-153.937	0.056	0.004
-693.426	-200.000	-0.100	0.479
-692.412	88.415	-0.028	0.032
-691.397	-48.629	0.228	0.110
-690.383	-154.659	0.203	0.014
-689.368	-190.611	-0.069	-0.001
-688.354	120.995	-0.159	0.199
-687.339	800.000	-0.046	-0.163
-686.324	-158.222	-0.118	0.007
-685.310	-75.547	0.205	0.074
-684.295	-51.032	-0.363	-0.172
-683.281	-106.082	-0.254	0.058
-682.266	800.000	-0.069	0.211
-681.251	-126.078	0.064	0.010
-680.237	-200.000	0.000	-0.216
-679.222	-48.866	-0.275	-0.133
-678.208	101.953	0.125	0.147
-677.193	-200.000	-0.004	-0.054
-676.178	-88.911	0.252	0.075
-675.164	-200.000	0.003	-0.018
-674.149	-145.441	0.040	-0.004
-673.135	44.259	-0.197	0.182
-672.120	-0.342	0.039	-0.028
-671.105	-161.580	0.144	-0.007
-670.091	-38.236	-0.261	-0.139
-669.076	800.000	0.059	0.182
-668.062	-44.793	0.185	0.093
-667.047	-200.000	-0.007	-0.104
-666.032	417.409	-0.167	0.358
-665.018	-200.000	-0.006	-0.042
-664.003	26.459	0.397	0.334
-662.989	-100.952	0.245	-0.061
-661.974	52.892	0.130	0.125
-660.959	800.000	0.034	-0.127
-659.945	255.965	-0.096	0.166
-658.930	655.376	-0.030	0.078
-657.916	-200.000	-0.021	0.100
-656.901	800.000	0.156	0.437
-655.886	-85.753	-0.175	0.055
-654.872	-84.542	-0.115	-0.036
-653.857	-0.866	0.121	0.086
-652.843	-200.000	0.028	-0.176
-651.828	-200.000	0.001	0.084
-650.814	-8.826	0.101	0.068
-649.799	69.624	-0.182	-0.188
-648.784	585.823	0.080	-0.198
-647.770	-200.000	-0.039	0.231
-646.755	77.611	0.186	-0.199
-645.741	192.902	0.121	0.184
-644.726	-38.633	-0.265	0.141
-643.711	-119.666	0.155	-0.027
-642.697	-144.871	-0.221	-0.020
-641.682	800.000	0.051	-0.197
-640.668	-141.544	-0.212	0.021
-639.653	-88.392	0.108	0.032
-638.638	-200.000	-0.029	-0.187
-637.624	800.000	-0.029	0.093
-636.609	738.404	0.083	0.223
-635.595	140.842	0.114	-0.152
-634.580	-200.000	-0.027	-0.156
-633.565	-200.000	-0.009	-0.047
-632.551	653.723	0.056	-0.143
-631.536	24.120	-0.291	0.241
-630.522	-119.278	0.285	-0.050
-629.507	-80.195	0.415	0.140
-628.492	237.356	-0.127	-0.211
-627.478	63.695	-0.182	-0.183
-626.463	800.000	-0.045	-0.163
-625.449	749.500	-0.078	-0.211
-624.434	-200.000	0.052	0.383
-623.419	469.603	-0.057	0.129
-622.405	46.121	-0.211	0.196
-621.390	800.000	0.052	0.226
-620.376	-79.316	-0.155	0.053
-619.361	-51.614	-0.145	0.068
-618.346	-200.000	0.042	-0.201
-617.332	-200.000	-0.029	0.281
-616.317	-130.455	-0.313	-0.043
-615.303	800.000	-0.134	-0.525
-614.288	-57.572	-0.178	-0.078
-613.273	-90.522	0.075	-0.022
-612.259	800.000	0.054	-0.190
-611.244	-28.857	0.095	0.055
-610.230	37.149	0.145	0.129
-609.215	-200.000	-0.008	-0.257
-608.201	-200.000	0.010	-0.098
-607.186	172.699	-0.129	-0.186
-606.171	-200.000	0.012	0.304
-605.157	32.978	-0.074	-0.064
-604.142	-200.000	0.022	0.103
-603.128	5.883	-0.214	0.159
-602.113	537.869	-0.139	-0.331
-601.098	471.841	-0.018	-0.041
-600.084	-200.000	-0.011	-0.139
-599.069	-27.224	0.247	-0.144
-598.055	526.417	-0.064	-0.151
-597.040	-57.758	0.115	-0.051
-596.025	800.000	-0.048	0.191
-595.011	-187.546	0.120	0.002
-593.996	-46.899	0.294	0.144
-592.982	-200.000	-0.003	0.383
-591.967	-200.000	-0.046	0.274
-590.952	800.000	-0.137	-0.395
-589.938	168.815	-0.089	0.128
-588.923	21.347	0.119	0.097
-587.909	158.281	-0.234	0.325
-586.894	-127.796	0.309	-0.045
-585.879	263.411	0.078	0.136
-584.865	704.118	0.031	-0.081
-583.850	800.000	-0.063	-0.266
-582.836	199.483	0.226	-0.348
-581.821	497.171	-0.106	-0.244
-580.806	-200.000	0.001	0.113
-579.792	800.000	0.063	-0.254
-578.777	-200.000	0.009	0.043
-577.763	0.640	-0.191	-0.137
-576.748	59.721	-0.210	-0.208
-575.733	-200.000	-0.044	0.201
-574.719	546.073	-0.104	-0.250
-573.704	27.276	0.068	-0.058
-572.690	-78.245	0.101	-0.035
-571.675	-200.000	-0.054	0.264
-570.661	-200.000	-0.026	0.325
-569.646	76.207	-0.217	0.230
-568.631	-200.000	-0.041	0.376
-567.617	-81.261	-0.243	0.081
-566.602	-200.000	-0.018	-0.157
-565.588	-38.614	-0.239	0.126
-564.573	8.085	-0.056	-0.042
-563.558	-193.768	-0.211	-0.002
-562.544	299.661	0.070	0.130
-561.529	-200.000	-0.011	0.328
-560.515	-200.000	-0.057	-0.268
-559.500	-78.619	0.244	-0.084
-558.485	188.021	-0.145	-0.217
-557.471	-168.008	-0.167	-0.007
-556.456	-145.511	-0.285	0.026
-555.442	497.407	-0.043	-0.100
-554.427	95.173	-0.083	-0.095
-553.412	-43.280	0.023	0.012
-552.398	547.645	-0.092	0.219
-551.383	-160.439	-0.160	-0.009
-550.369	-200.000	0.004	-0.123
-549.354	-200.000	0.048	-0.411
-548.339	-62.800	0.237	-0.098
-547.325	182.993	0.213	0.315
-546.310	-200.000	0.016	-0.080
-545.296	483.282	0.048	-0.110
-544.281	289.257	-0.116	0.211
-543.266	411.069	0.065	-0.138
-542.252	181.979	0.021	-0.031
-541.237	426.597	-0.116	-0.251
-540.223	254.761	-0.149	-0.255
-539.208	450.461	-0.094	0.208
-538.193	-179.532	0.399	0.009
-537.179	-200.000	0.030	-0.165
-536.164	6.745	0.136	0.101
-535.150	-65.122	0.220	0.089
-534.135	118.518	0.136	0.168
-533.121	237.212	0.126	0.210
-532.106	-82.224	-0.290	0.095
-531.091	17.586	0.265	-0.211
-530.077	209.055	0.058	0.090
-529.062	-200.000	0.035	0.310
-528.048	800.000	-0.025	0.091
-527.033	10.860	-0.348	-0.266
-526.018	-23.973	-0.304	0.182
-525.004	-88.595	0.124	-0.037
-523.989	-29.144	-0.144	-0.083
-522.975	123.241	-0.172	0.216
-521.960	79.592	-0.046	-0.050
-520.945	-146.555	0.121	-0.011
-519.931	-200.000	-0.022	-0.158
-518.916	-82.150	0.366	-0.119
-517.902	259.445	-0.078	0.135
-516.887	-200.000	-0.007	0.032
-515.872	-133.254	0.284	-0.036
-514.858	-114.168	0.201	-0.039
-513.843	70.126	-0.141	-0.146
-512.829	800.000	0.071	0.260
-511.814	318.953	-0.077	0.146
-510.799	-200.000	0.010	-0.053
-509.785	-200.000	0.032	-0.150
-508.770	163.244	0.190	-0.267
-507.756	-26.112	-0.052	0.031
-506.741	412.886	-0.106	0.225
-505.726	-86.869	-0.082	-0.025
-504.712	-76.276	-0.062	-0.022
-503.697	80.428	0.115	-0.124
-502.683	-41.029	-0.101	0.052
-501.668	-121.548	0.242	0.040
-500.653	44.343	0.059	-0.054
-499.639	362.551	-0.020	-0.040
-498.624	-131.615	0.274	0.036
-497.610	785.836	0.086	0.237
-496.595	-10.716	-0.171	-0.113
-495.581	190.482	-0.053	0.079
-494.566	214.551	-0.213	-0.336
-493.551	9.088	-0.157	-0.118
-492.537	282.217	0.091	-0.163
-491.522	117.649	-0.140	0.172
-490.508	800.000	0.038	0.112
-489.493	337.476	-0.062	-0.121
-488.478	-200.000	0.005	0.033
-487.464	-87.984	0.551	-0.166
-486.449	-200.000	-0.016	-0.225
-485.435	108.744	0.132	-0.157
-484.420	-153.129	0.266	0.019
-483.405	-200.000	0.044	-0.254
-482.391	129.029	-0.054	-0.069
-481.376	800.000	0.044	-0.189
-480.362	-37.594	0.149	-0.079
-479.347	-200.000	0.017	0.142
-478.332	800.000	0.076	0.235
-477.318	208.937	0.148	0.232
-476.303	-154.342	-0.192	0.013
-475.289	-120.650	0.390	0.066
-474.274	80.815	-0.286	0.308
-473.259	-169.674	-0.221	0.008
-472.245	-173.613	-0.085	-0.003
-471.230	-200.000	0.027	0.132
-470.216	82.969	0.116	0.126
-469.201	20.460	0.093	0.075
-468.186	57.269	-0.123	0.120
-467.172	-58.737	-0.310	0.134
-466.157	-115.519	-0.450	0.085
-465.143	-48.073	-0.323	0.156
-464.128	-200.000	-0.007	-0.037
-463.113	-46.385	-0.106	-0.052
-462.099	266.598	0.131	0.228
-461.084	-10.129	0.097	-0.064
-460.070	-129.024	0.135	-0.019
-459.055	5.679	0.112	-0.082
-458.040	-93.700	-0.196	-0.054
-457.026	-200.000	0.028	-0.279
-456.011	-72.692	0.212	-0.078
-454.997	281.936	0.036	-0.065
-453.982	-97.418	0.084	0.022
-452.968	-200.000	0.018	-0.287
-451.953	-151.829	0.255	-0.019
-450.938	382.376	-0.079	-0.161
-449.924	369.440	-0.079	0.159
-448.909	-107.077	0.147	0.032
-447.895	-60.641	0.121	0.051
-446.880	-200.000	0.009	0.095
-445.865	0.120	-0.126	0.090
-444.851	41.236	0.199	0.180
-443.836	800.000	-0.056	0.222
-442.822	-106.103	-0.406	-0.091
-441.807	-194.089	0.164	-0.001
-440.792	194.007	0.180	0.272
-439.778	-26.994	-0.229	-0.133
-438.763	-107.470	-0.486	-0.106
-437.749	137.574	0.076	-0.099
-436.734	-200.000	0.009	-0.048
-435.719	228.509	0.239	-0.388
-434.705	-62.587	0.024	0.010
-433.690	-52.212	-0.091	-0.042
-432.676	-195.449	-0.279	0.002
-431.661	-200.000	0.016	-0.151
-430.646	-83.157	0.419	-0.134
-429.632	50.342	-0.190	-0.179
-428.617	-200.000	-0.033	0.343
-427.603	158.422	-0.281	0.388
-426.588	-106.786	0.239	-0.053
-425.573	-4.960	0.084	-0.057
-424.559	-62.101	-0.218	-0.091
-423.544	201.346	-0.112	-0.172
-422.530	-200.000	-0.012	-0.291
-421.515	-1.183	0.336	0.237
-420.500	-86.191	0.129	-0.040
-419.486	-200.000	-0.016	0.125
-418.471	-124.900	0.252	0.039
-417.457	-120.036	-0.237	-0.040
-416.442	-134.346	-0.386	-0.047
-415.428	234.292	0.083	-0.137
-414.413	800.000	0.021	-0.087
-413.398	-102.115	-0.220	-0.053
-412.384	-126.982	-0.048	-0.007
-411.369	800.000	0.126	-0.526
-410.355	22.454	0.218	-0.178
-409.340	-200.000	-0.032	-0.259
-408.325	-141.665	0.126	-0.013
-407.311	274.915	0.159	-0.281
-406.296	800.000	0.041	0.130
-405.282	-5.282	-0.141	-0.096
-404.267	-195.613	-0.249	-0.002
-403.252	-20.554	0.241	-0.148
-402.238	196.575	0.085	-0.129
-401.223	-35.638	-0.077	-0.042
-400.209	40.812	-0.194	0.175
-399.194	-101.281	0.103	0.025
-398.179	-200.000	-0.011	-0.376
-397.165	197.697	0.091	0.139
-396.150	800.000	0.036	-0.101
-395.136	183.432	-0.090	0.133
-394.121	-47.101	-0.227	-0.110
-393.106	-200.000	0.014	0.324
-392.092	82.304	0.109	0.118
-391.077	176.768	-0.090	-0.130
-390.063	321.329	0.044	0.084
-389.048	-147.524	0.364	-0.031
-388.033	294.939	0.062	0.113
-387.019	-200.000	-0.050	-0.259
-386.004	-173.672	0.169	0.005
-384.990	304.256	-0.087	0.161
-383.975	9.688	-0.101	0.076
-382.960	-69.866	-0.421	0.160
-381.946	29.597	0.156	-0.132
-380.931	-119.188	0.095	0.016
-379.917	-122.131	-0.049	-0.008
-378.902	-200.000	-0.026	-0.168
-377.888	83.584	0.086	0.093
-376.873	-56.943	-0.309	0.136
-375.858	800.000	-0.056	-0.231
-374.844	90.455	0.200	0.223
-373.829	-200.000	-0.048	0.219
-372.815	-200.000	0.042	0.238
-371.800	137.433	0.182	-0.236
-370.785	-72.022	0.254	-0.094
-369.771	-162.934	-0.427	-0.021
-368.756	-50.736	-0.510	0.239
-367.742	515.196	-0.073	0.168
-366.727	-128.165	0.261	-0.037
-365.712	-108.082	0.305	0.066
-364.698	90.689	-0.126	-0.140
-363.683	-4.879	-0.080	0.055
-362.669	-193.023	0.218	-0.002
-361.654	800.000	0.129	0.414
-360.639	73.886	-0.295	-0.307
-359.625	269.249	-0.131	0.228
-358.610	-159.358	-0.210	0.012
-357.596	-49.421	0.153	-0.073
-356.581	-200.000	-0.010	-0.301
-355.566	-115.868	-0.102	-0.019
-354.552	12.755	0.263	0.202
-353.537	-200.000	-0.020	0.093
-352.523	289.621	0.089	0.161
-351.508	59.146	-0.193	0.189
-350.493	800.000	0.066	0.192
-349.479	-157.420	-0.157	-0.009
-348.464	196.812	0.288	0.436
-347.450	784.483	0.114	0.311
-346.435	-46.119	-0.350	-0.171
-345.420	131.536	-0.186	0.237
-344.406	371.209	0.110	-0.221
-343.391	171.469	0.143	0.204
-342.377	174.286	0.186	-0.267
-341.362	-31.411	0.243	0.136
-340.348	-200.000	-0.017	0.146
-339.333	-45.965	-0.255	0.125
-338.318	800.000	-0.063	0.217
-337.304	-200.000	-0.003	-0.061
-336.289	130.165	0.109	0.139
-335.275	800.000	0.059	0.250
-334.260	-200.000	-0.008	-0.142
-333.245	269.150	-0.085	-0.148
-332.231	-124.681	0.196	-0.030
-331.216	-200.000	0.034	-0.230
-330.202	-56.837	-0.170	0.075
-329.187	-68.275	-0.116	0.045
-328.172	-101.724	-0.271	-0.065
-327.158	-99.601	0.239	-0.060
-326.143	52.256	0.089	0.084
-325.129	-59.125	-0.345	0.148
-324.114	-123.617	0.290	-0.046
-323.099	154.521	0.036	0.050
-322.085	-200.000	0.005	0.066
-321.070	-200.000	-0.023	-0.493
-320.056	-173.984	-0.122	-0.004
-319.041	-4.902	0.293	0.201
-318.026	-38.379	-0.193	-0.101
-317.012	-150.543	0.207	0.016
-315.997	183.077	0.152	0.222
-314.983	267.437	-0.160	0.277
-313.968	-145.783	0.118	-0.010
-312.953	104.571	-0.155	0.181
-311.939	-21.103	0.133	-0.081
-310.924	800.000	-0.057	0.223
-309.910	-18.130	0.099	0.061
-308.895	544.160	-0.066	-0.156
-307.880	-84.991	0.297	-0.092
-306.866	-200.000	-0.017	-0.186
-305.851	419.648	0.076	0.161
-304.837	15.980	0.193	-0.151
-303.822	-200.000	0.044	-0.217
-302.807	54.311	0.095	-0.090
-301.793	-38.245	-0.063	-0.033
-300.778	-140.002	-0.078	0.008
-299.764	800.000	0.024	-0.097
-298.749	-66.559	-0.298	-0.117
-297.735	-200.000	0.095	-0.417
-296.720	800.000	-0.014	-0.040
-295.705	95.974	0.069	0.079
-294.691	-25.826	-0.162	-0.095
-293.676	-92.223	-0.169	-0.047
-292.662	-200.000	0.016	-0.126
-291.647	42.647	-0.151	-0.136
-290.632	-106.236	-0.212	-0.047
-289.618	111.691	-0.197	0.235
-288.603	-24.180	0.021	-0.013
-287.589	-200.000	0.009	0.081
-286.574	-200.000	0.024	0.145
-285.559	34.625	-0.202	-0.175
-284.545	765.557	0.041	0.111
-283.530	149.543	0.030	0.041
-282.516	104.664	0.239	0.280
-281.501	271.865	0.105	0.184
-280.486	21.132	0.402	-0.324
-279.472	82.509	0.145	0.156
-278.457	-138.824	-0.236	0.025
-277.443	-135.919	-0.135	0.016
-276.428	-146.266	-0.136	0.012
-275.413	-93.273	-0.229	0.063
-274.399	-200.000	0.017	0.096
-273.384	-20.461	0.192	-0.117
-272.370	-103.439	0.214	0.050
-271.355	-150.617	-0.094	-0.007
-270.340	-11.705	0.262	-0.171
-269.326	-148.879	-0.385	0.031
-268.311	-55.832	0.075	-0.033
-267.297	-60.267	0.235	-0.099
-266.282	800.000	0.068	0.242
-265.267	-119.842	0.253	-0.043
-264.253	-65.846	0.083	0.033
-263.238	72.387	0.162	-0.167
-262.224	-200.000	0.029	0.263
-261.209	-161.810	-0.233	0.012
-260.195	74.828	-0.258	-0.269
-259.180	267.187	-0.072	0.125
-258.165	27.687	0.155	0.129
-257.151	-179.753	-0.521	-0.011
-256.136	-97.973	-0.045	-0.012
-255.122	119.269	-0.207	-0.253
-254.107	-200.000	0.026	0.220
-253.092	-59.379	-0.252	0.107
-252.078	-200.000	-0.020	-0.263
-251.063	130.662	-0.024	0.031
-250.049	32.164	0.179	0.153
-249.034	85.361	0.158	0.171
-248.019	-200.000	0.004	-0.141
-247.005	140.480	0.171	-0.223
-245.990	156.017	0.062	-0.084
-244.976	-4.455	-0.236	0.162
-243.961	-200.000	-0.019	-0.162
-242.946	-119.397	0.306	0.053
-241.932	51.446	-0.169	0.159
-240.917	-87.840	0.266	-0.079
-239.903	-143.545	0.137	-0.013
-238.888	800.000	0.065	-0.193
-237.873	-38.154	0.143	0.075
-236.859	387.305	0.136	0.278
-235.844	273.996	0.021	0.036
-234.830	800.000	0.076	-0.305
-233.815	-175.024	0.155	0.004
-232.800	2.107	0.139	0.099
-231.786	356.193	0.097	-0.192
-230.771	360.998	0.070	-0.138
-229.757	-23.487	-0.261	-0.155
-228.742	-100.331	0.473	-0.116
-227.727	-146.048	0.178	0.016
-226.713	2.619	0.039	-0.028
-225.698	-200.000	0.020	0.470
-224.684	-43.996	-0.252	-0.125
-223.669	-200.000	-0.002	-0.077
-222.655	-66.880	-0.010	-0.004
-221.640	771.807	-0.146	-0.394
-220.625	97.703	-0.050	-0.057
-219.611	-60.963	0.204	-0.085
-218.596	-15.278	0.184	-0.116
-217.582	699.714	-0.058	0.150
-216.567	177.265	-0.103	0.148
-215.552	198.081	-0.094	0.142
-214.538	-200.000	0.033	-0.266
-213.523	-14.876	-0.044	-0.028
-212.509	-112.639	-0.632	0.124
-211.494	-130.225	0.241	-0.032
-210.479	38.762	0.111	0.098
-209.465	-200.000	0.028	-0.221
-208.450	86.885	-0.243	0.265
-207.436	-100.468	-0.426	-0.104
-206.421	-78.755	0.382	0.129
-205.406	-125.753	0.246	-0.037
-204.392	-141.097	-0.456	0.046
-203.377	561.653	0.128	0.306
-202.363	-51.552	0.110	-0.051
-201.348	-38.520	0.119	0.062
-200.333	800.000	0.053	0.159
-199.319	-200.000	0.030	0.141
-198.304	-31.741	-0.191	-0.106
-197.290	-200.000	-0.185	-0.000
-196.275	-23.976	0.105	0.062
-195.260	-61.444	-0.270	-0.112
-194.246	730.816	0.088	-0.232
-193.231	-152.607	0.259	-0.018
-192.217	800.000	0.059	0.243
-191.202	-200.000	-0.071	0.316
-190.187	559.249	-0.028	0.068
-189.173	-200.000	-0.031	0.203
-188.158	216.565	0.105	0.165
-187.144	-200.000	0.005	0.075
-186.129	131.438	0.122	0.155
-185.114	364.198	0.081	-0.161
-184.100	-64.345	0.230	0.092
-183.085	-34.843	-0.228	0.123
-182.071	-43.967	-0.063	-0.031
-181.056	-200.000	-0.003	0.190
-180.042	-105.257	0.135	-0.030
-179.027	-42.217	0.294	0.148
-178.012	-118.756	0.091	-0.016
-176.998	41.232	-0.069	0.062
-175.983	-85.420	-0.241	-0.074
-174.969	65.727	-0.073	-0.073
-173.954	-117.002	-0.168	-0.030
-172.939	156.700	0.127	-0.173
-171.925	76.414	0.257	0.268
-170.910	-17.238	-0.095	-0.059
-169.896	800.000	0.112	0.310
-168.881	67.620	-0.186	-0.187
-167.866	277.193	-0.079	-0.139
-166.852	-135.573	-0.422	-0.050
-165.837	472.759	-0.023	-0.051
-164.823	39.885	-0.171	-0.152
-163.808	75.655	-0.172	-0.179
-162.793	6.691	0.285	0.209
-161.779	8.185	0.173	0.128
-160.764	-144.647	0.007	-0.001
-159.750	-100.172	-0.068	0.017
-158.735	-200.000	-0.005	-0.178
-157.720	-200.000	0.005	-0.099
-156.706	-93.620	0.082	-0.022
-155.691	415.731	0.142	-0.299
-154.677	-93.497	-0.175	0.048
-153.662	-106.319	0.607	0.134
-152.647	800.000	-0.044	-0.132
-151.633	369.435	0.180	0.358
-150.618	294.600	-0.148	-0.266
-149.604	-200.000	0.021	0.109
-148.589	57.271	-0.098	-0.094
-147.574	-82.595	0.205	0.065
-146.560	800.000	0.115	-0.373
-145.545	-124.347	0.169	0.026
-144.531	353.909	0.115	-0.224
-143.516	429.607	-0.179	0.382
-142.502	136.668	-0.051	-0.066
-141.487	-38.361	0.201	-0.105
-140.472	800.000	-0.059	-0.163
-139.458	56.270	-0.172	-0.165
-138.443	-80.867	0.058	-0.019
-137.429	-15.424	-0.189	-0.119
-136.414	800.000	0.104	0.308
-135.399	9.741	-0.207	0.155
-134.385	364.342	0.263	0.522
-133.370	800.000	-0.134	0.414
-132.356	800.000	0.077	0.251
-131.341	166.488	-0.187	0.261
-130.326	13.480	-0.065	-0.050
-129.312	-47.905	-0.077	-0.037
-128.297	-200.000	0.027	0.170
-127.283	111.557	0.391	-0.465
-126.268	535.507	0.129	-0.301
-125.253	-200.000	0.044	0.372
-124.239	-81.113	0.179	0.058
-123.224	114.819	0.041	-0.050
