DTS Sentinel unit serial number:	SN413079Multiplexer serial number:	ORYXHardware model number:	OX4-SRSoftware version number:	ORYX F/W v4.00 Oryx Data Collector v3.7.2.0data status	okinstallation	princeton_trtdifferential loss correction	single-endedforward channel	channel 2reverse channel	N/Adate	2019/09/16time	14:55:35forward acquisition time	60.00reverse acquisition time	0.00gamma	496.2192k internal	0.2299k external	0.2299temperature offset calibration	0.9937default loss term (dB/km)	0.3790temperature slope calibration	1.0000multiplexer offset coefficient	1.0000multiplexer slope coefficient	1.0000fibre end	0.00T internal ref (°C)	41.28T ext. ref 1 (°C)	14.43T ext. ref 2 (°C)	35.89length (m)	temperature (°C)	Stokes	anti-Stokes-747.200	271.737	-0.043	0.078
-746.185	-12.501	-0.073	0.048
-745.171	11.112	-0.126	-0.099
-744.156	-200.000	0.065	0.607
-743.142	800.000	-0.093	-0.317
-742.127	-200.000	0.005	0.351
-741.112	800.000	0.034	0.125
-740.098	5.691	-0.056	0.042
-739.083	-126.915	-0.269	0.040
-738.069	-169.619	-0.154	0.006
-737.054	-96.792	-0.263	-0.071
-736.039	-134.385	-0.444	-0.056
-735.025	-57.610	0.227	0.101
-734.010	616.171	-0.114	-0.291
-732.996	-1.031	-0.143	-0.103
-731.981	-106.931	-0.168	-0.038
-730.966	-54.524	-0.327	0.151
-729.952	-14.555	-0.108	0.071
-728.937	-128.644	-0.490	-0.071
-727.923	-65.917	-0.299	0.122
-726.908	153.495	-0.048	0.067
-725.894	117.623	-0.114	-0.143
-724.879	413.861	0.103	0.223
-723.864	116.570	-0.079	-0.099
-722.850	155.452	-0.116	-0.163
-721.835	-124.290	0.251	0.040
-720.821	-65.823	-0.178	0.073
-719.806	-55.959	-0.037	-0.017
-718.791	57.524	0.224	-0.223
-717.777	132.749	0.212	0.279
-716.762	-129.765	0.212	0.030
-715.748	-91.036	-0.097	-0.028
-714.733	-46.224	-0.024	-0.012
-713.718	108.440	0.018	0.022
-712.704	-200.000	-0.010	-0.466
-711.689	-187.664	-0.226	-0.003
-710.675	800.000	0.063	-0.249
-709.660	-84.391	-0.200	0.064
-708.645	-200.000	0.000	0.122
-707.631	8.905	-0.526	-0.404
-706.616	67.595	0.062	-0.064
-705.602	-50.449	0.196	-0.094
-704.587	44.759	-0.168	-0.157
-703.572	477.217	-0.123	-0.284
-702.558	30.716	0.296	-0.258
-701.543	318.861	0.093	0.179
-700.529	64.468	-0.269	-0.276
-699.514	-200.000	0.001	-0.188
-698.499	800.000	0.098	-0.315
-697.485	-200.000	-0.012	0.238
-696.470	-67.271	0.264	-0.106
-695.456	-151.384	0.265	0.020
-694.441	-200.000	-0.007	0.138
-693.426	232.644	0.154	0.257
-692.412	-124.544	0.410	-0.065
-691.397	692.828	0.074	0.196
-690.383	18.535	-0.214	-0.174
-689.368	-45.479	-0.332	-0.168
-688.354	-200.000	0.027	-0.428
-687.339	122.961	-0.143	-0.182
-686.324	-200.000	0.015	-0.231
-685.310	-200.000	-0.005	-0.054
-684.295	800.000	-0.077	0.285
-683.281	-10.528	-0.219	-0.148
-682.266	-79.786	-0.101	-0.035
-681.251	80.528	0.032	0.036
-680.237	47.099	0.135	-0.128
-679.222	-200.000	-0.051	-0.444
-678.208	-200.000	0.036	0.196
-677.193	800.000	-0.191	0.543
-676.178	-125.672	0.203	0.031
-675.164	81.447	0.070	-0.077
-674.149	81.802	0.114	-0.125
-673.135	800.000	-0.022	-0.094
-672.120	-200.000	0.303	-0.001
-671.105	-106.137	0.094	-0.021
-670.091	-139.324	-0.149	0.016
-669.076	81.154	0.352	0.387
-668.062	-51.197	-0.205	-0.098
-667.047	-83.739	-0.080	-0.026
-666.032	-101.282	0.198	0.049
-665.018	-14.327	0.136	-0.089
-664.003	126.298	-0.108	-0.139
-662.989	-19.305	-0.105	0.066
-661.974	75.929	0.041	-0.044
-660.959	-200.000	-0.021	-0.141
-659.945	800.000	0.031	0.090
-658.930	-114.695	-0.351	-0.068
-657.916	-200.000	-0.030	-0.301
-656.901	-200.000	0.000	0.321
-655.886	-119.089	0.118	-0.021
-654.872	42.570	0.153	0.142
-653.857	8.824	-0.313	-0.240
-652.843	-149.296	0.543	0.044
-651.828	244.902	0.120	-0.206
-650.814	-200.000	-0.040	-0.271
-649.799	63.884	0.109	-0.111
-648.784	76.945	-0.050	-0.054
-647.770	-115.984	-0.116	0.022
-646.755	60.814	0.057	0.058
-645.741	-200.000	0.059	0.279
-644.726	-32.900	-0.389	-0.220
-643.711	247.392	-0.075	0.129
-642.697	245.920	-0.077	0.132
-641.682	-91.230	-0.285	-0.083
-640.668	214.144	-0.173	0.278
-639.653	-102.610	-0.310	-0.075
-638.638	800.000	0.043	-0.161
-637.624	91.977	0.262	0.300
-636.609	-115.290	-0.231	0.044
-635.595	-200.000	0.022	0.200
-634.580	-103.407	-0.227	0.054
-633.565	27.660	0.247	-0.211
-632.551	13.452	-0.149	-0.118
-631.536	198.163	-0.062	-0.096
-630.522	-36.017	-0.173	0.095
-629.507	148.999	-0.131	-0.180
-628.492	-123.309	-0.183	0.030
-627.478	305.603	-0.022	0.041
-626.463	-200.000	0.056	0.000
-625.449	-9.330	0.237	-0.161
-624.434	-113.793	-0.300	-0.059
-623.419	95.095	0.273	-0.316
-622.405	153.205	-0.141	-0.196
-621.390	-62.932	0.390	0.164
-620.376	-49.215	-0.294	-0.143
-619.361	244.119	-0.244	-0.416
-618.346	430.056	0.184	-0.405
-617.332	-68.292	0.171	0.067
-616.317	-200.000	0.011	-0.103
-615.303	408.387	-0.189	-0.406
-614.288	-1.523	-0.133	0.095
-613.273	-149.865	-0.152	-0.012
-612.259	58.166	0.111	0.110
-611.244	-58.633	-0.116	-0.051
-610.230	72.567	-0.144	-0.152
-609.215	-57.649	-0.254	-0.113
-608.201	-113.660	0.295	0.058
-607.186	-176.375	-0.329	-0.009
-606.171	373.518	0.144	-0.298
-605.157	-128.161	0.208	0.030
-604.142	60.508	-0.148	0.149
-603.128	-173.977	-0.276	0.008
-602.113	485.553	0.068	-0.157
-601.098	260.832	0.165	-0.290
-600.084	796.359	-0.096	-0.268
-599.069	-129.732	0.136	-0.019
-598.055	-119.308	-0.150	0.026
-597.040	-110.258	0.197	0.042
-596.025	-104.376	-0.105	-0.025
-595.011	-200.000	-0.035	0.291
-593.996	402.955	-0.018	0.039
-592.982	-134.586	0.095	0.012
-591.967	247.526	0.226	0.387
-590.952	-200.000	0.027	0.249
-589.938	-200.000	0.050	-0.430
-588.923	-134.056	0.322	0.040
-587.909	-200.000	0.003	-0.332
-586.894	800.000	-0.049	0.146
-585.879	-109.967	0.168	-0.036
-584.865	61.188	-0.144	0.145
-583.850	-200.000	-0.019	0.550
-582.836	800.000	-0.066	-0.259
-581.821	-200.000	-0.017	0.290
-580.806	288.555	-0.044	-0.081
-579.792	241.464	0.079	-0.134
-578.777	59.423	-0.160	0.160
-577.763	247.549	0.039	-0.067
-576.748	800.000	0.039	0.133
-575.733	-5.367	0.158	0.110
-574.719	-23.859	-0.066	0.040
-573.704	800.000	-0.050	-0.168
-572.690	49.333	-0.127	-0.121
-571.675	-85.168	0.030	-0.010
-570.661	29.395	0.201	-0.173
-569.646	-89.121	-0.203	-0.061
-568.631	-7.804	0.052	-0.035
-567.617	5.988	-0.093	0.070
-566.602	612.439	-0.062	0.157
-565.588	461.587	0.042	-0.095
-564.573	800.000	0.033	-0.123
-563.558	77.804	0.116	0.125
-562.544	-86.136	0.174	0.054
-561.529	-157.208	-0.279	0.017
-560.515	-170.101	0.410	-0.015
-559.500	-200.000	-0.066	-0.296
-558.485	-200.000	-0.057	-0.306
-557.471	-123.482	0.197	-0.032
-556.456	14.725	0.280	0.222
-555.442	-47.108	0.244	0.121
-554.427	692.595	0.052	-0.139
-553.412	34.339	0.147	-0.130
-552.398	-19.471	-0.202	-0.127
-551.383	-100.616	0.307	0.077
-550.369	55.079	-0.131	0.128
-549.354	-98.870	0.194	-0.050
-548.339	800.000	0.057	0.161
-547.325	11.453	0.042	-0.033
-546.310	-161.616	0.033	-0.002
-545.296	-21.514	-0.061	0.038
-544.281	800.000	0.043	-0.159
-543.266	-26.210	0.066	-0.039
-542.252	-200.000	-0.057	0.387
-541.237	800.000	0.022	-0.070
-540.223	231.879	0.079	0.132
-539.208	-16.232	-0.222	0.142
-538.193	800.000	0.082	-0.311
-537.179	41.529	0.211	-0.193
-536.164	152.686	-0.062	0.086
-535.150	36.068	-0.143	0.128
-534.135	-68.066	-0.045	0.018
-533.121	3.121	-0.308	0.227
-532.106	800.000	0.076	0.302
-531.091	-46.514	0.093	0.046
-530.077	-32.188	0.066	-0.037
-529.062	-15.487	-0.067	0.043
-528.048	336.063	0.022	-0.044
-527.033	142.720	0.116	-0.155
-526.018	19.325	0.143	-0.116
-525.004	-200.000	0.003	0.019
-523.989	-6.295	-0.302	0.208
-522.975	-138.317	-0.220	-0.025
-521.960	-33.085	0.244	0.137
-520.945	-114.632	0.184	-0.036
-519.931	215.733	-0.032	0.051
-518.916	-200.000	-0.029	-0.172
-517.902	800.000	-0.022	-0.094
-516.887	-200.000	0.036	-0.188
-515.872	-50.202	0.040	-0.019
-514.858	-200.000	-0.025	-0.216
-513.843	800.000	-0.065	0.247
-512.829	38.641	0.055	-0.049
-511.814	93.892	0.113	0.129
-510.799	-40.396	0.200	0.105
-509.785	-200.000	-0.021	0.215
-508.770	420.362	-0.089	0.192
-507.756	-81.627	-0.418	-0.139
-506.741	-200.000	0.006	0.130
-505.726	29.570	-0.072	-0.062
-504.712	800.000	-0.048	-0.153
-503.697	50.173	0.111	0.106
-502.683	796.540	-0.057	-0.158
-501.668	-200.000	-0.041	0.183
-500.653	800.000	0.103	-0.294
-499.639	-200.000	0.040	0.209
-498.624	12.668	0.077	0.060
-497.610	-200.000	0.092	-0.414
-496.595	-200.000	-0.002	0.366
-495.581	68.586	0.053	0.055
-494.566	6.511	0.112	-0.084
-493.551	596.610	0.045	0.112
-492.537	-61.273	-0.208	0.089
-491.522	38.982	-0.057	-0.051
-490.508	744.947	-0.012	0.033
-489.493	-200.000	-0.044	0.328
-488.478	1.692	-0.158	0.115
-487.464	-9.552	-0.109	0.073
-486.449	-200.000	0.018	0.231
-485.435	800.000	-0.089	-0.306
-484.420	-15.743	0.176	0.113
-483.405	554.021	0.076	-0.184
-482.391	378.523	0.013	-0.026
-481.376	-111.116	-0.123	-0.025
-480.362	50.360	-0.105	0.100
-479.347	-200.000	-0.082	0.392
-478.332	174.693	-0.110	0.161
-477.318	179.388	0.130	0.191
-476.303	69.339	-0.163	0.170
-475.289	-2.842	-0.201	-0.142
-474.274	86.053	0.183	-0.203
-473.259	800.000	-0.015	0.049
-472.245	800.000	-0.129	0.495
-471.230	-41.733	0.075	-0.039
-470.216	121.193	0.163	-0.205
-469.201	-91.573	-0.157	-0.045
-468.186	82.292	0.109	-0.120
-467.172	-200.000	-0.034	-0.245
-466.157	-39.594	-0.207	-0.110
-465.143	-200.000	-0.017	0.139
-464.128	-17.986	0.101	-0.064
-463.113	800.000	0.058	0.192
-462.099	-170.961	0.485	0.017
-461.084	-3.365	0.224	-0.158
-460.070	433.297	-0.092	-0.202
-459.055	296.466	0.018	0.034
-458.040	249.197	0.042	0.071
-457.026	38.727	0.082	-0.074
-456.011	-42.601	0.046	-0.024
-454.997	-200.000	-0.019	0.119
-453.982	42.527	-0.176	-0.161
-452.968	-44.153	-0.266	-0.135
-451.953	-39.783	0.280	-0.147
-450.938	800.000	0.076	0.258
-449.924	277.111	0.097	0.173
-448.909	-200.000	-0.015	-0.186
-447.895	800.000	0.049	0.199
-446.880	-136.238	-0.538	-0.063
-445.865	800.000	0.022	0.086
-444.851	-200.000	-0.015	0.352
-443.836	-200.000	0.002	-0.113
-442.822	146.283	-0.072	0.098
-441.807	-200.000	0.020	-0.140
-440.792	-115.485	-0.377	-0.072
-439.778	-116.557	0.182	-0.034
-438.763	-65.047	0.133	0.054
-437.749	-200.000	-0.034	-0.358
-436.734	171.681	-0.137	0.199
-435.719	-41.552	-0.276	-0.143
-434.705	253.685	0.142	-0.245
-433.690	103.321	-0.280	0.331
-432.676	239.535	-0.013	-0.022
-431.661	-82.320	0.421	0.138
-430.646	-73.723	0.346	0.127
-429.632	-38.113	0.227	-0.122
-428.617	800.000	0.052	-0.216
-427.603	11.862	0.186	0.144
-426.588	-150.681	-0.194	-0.015
-425.573	800.000	0.058	0.168
-424.559	143.541	0.155	0.208
-423.544	-76.695	-0.125	0.044
-422.530	185.673	-0.141	-0.211
-421.515	340.725	0.002	-0.003
-420.500	637.008	0.073	-0.187
-419.486	-200.000	0.020	0.405
-418.471	80.941	-0.336	-0.365
-417.457	262.276	0.055	-0.097
-416.442	-140.911	0.111	0.012
-415.428	106.878	0.210	0.251
-414.413	-70.602	0.174	-0.066
-413.398	67.835	-0.104	-0.107
-412.384	19.231	-0.130	-0.105
-411.369	-155.577	0.200	-0.013
-410.355	800.000	-0.034	0.096
-409.340	-75.191	-0.108	0.039
-408.325	800.000	-0.020	0.069
-407.311	-129.685	0.159	-0.022
-406.296	48.300	-0.072	-0.068
-405.282	82.362	-0.115	-0.126
-404.267	-200.000	-0.027	0.173
-403.252	-61.971	-0.338	0.142
-402.238	800.000	0.069	-0.232
-401.223	-200.000	0.003	-0.436
-400.209	-51.396	0.103	-0.048
-399.194	87.243	0.058	0.064
-398.179	193.374	-0.110	-0.167
-397.165	359.510	-0.038	0.077
-396.150	-200.000	-0.011	-0.414
-395.136	-58.509	-0.454	-0.198
-394.121	45.561	-0.207	-0.192
-393.106	-137.846	-0.225	-0.025
-392.092	-200.000	-0.046	-0.348
-391.077	163.456	0.196	-0.278
-390.063	-16.414	-0.215	-0.137
-389.048	-94.117	-0.276	-0.076
-388.033	-102.251	-0.191	0.046
-387.019	800.000	-0.110	0.357
-386.004	-127.757	-0.392	0.057
-384.990	-87.654	-0.100	0.031
-383.975	0.815	-0.328	0.237
-382.960	6.915	0.104	-0.078
-381.946	79.131	-0.067	0.072
-380.931	-76.622	0.104	-0.037
-379.917	119.675	0.245	-0.305
-378.902	90.747	-0.026	0.029
-377.888	-200.000	-0.040	0.454
-376.873	5.872	-0.177	0.131
-375.858	-71.886	0.114	0.043
-374.844	-200.000	-0.047	-0.390
-373.829	-174.692	0.148	-0.004
-372.815	-91.026	0.023	-0.007
-371.800	800.000	-0.013	0.044
-370.785	26.537	-0.078	-0.065
-369.771	-106.379	-0.219	-0.049
-368.756	-30.212	0.171	0.098
-367.742	800.000	-0.059	-0.182
-366.727	103.679	0.124	-0.147
-365.712	174.939	0.136	-0.198
-364.698	-16.815	0.072	-0.046
-363.683	-151.625	-0.029	0.002
-362.669	-96.550	0.264	-0.070
-361.654	-127.480	-0.173	0.025
-360.639	-95.591	-0.222	0.060
-359.625	208.157	0.100	0.157
-358.610	-200.000	0.010	0.379
-357.596	-82.831	0.206	0.067
-356.581	-200.000	0.013	-0.247
-355.566	-200.000	0.010	-0.190
-354.552	580.982	-0.120	-0.296
-353.537	-94.380	-0.133	-0.037
-352.523	41.363	-0.144	-0.131
-351.508	80.263	0.100	0.109
-350.493	800.000	-0.171	0.520
-349.479	249.036	-0.024	-0.040
-348.464	32.227	0.353	0.306
-347.450	-121.910	-0.450	-0.074
-346.435	486.971	-0.103	-0.235
-345.420	-122.679	-0.472	0.077
-344.406	800.000	0.091	0.299
-343.391	-108.370	0.250	0.054
-342.377	57.370	0.269	-0.264
-341.362	727.674	-0.084	0.224
-340.348	364.002	0.080	0.161
-339.333	-114.894	0.226	-0.043
-338.318	-80.299	0.204	-0.069
-337.304	8.440	0.423	0.320
-336.289	-200.000	0.021	0.093
-335.275	-29.922	0.150	-0.086
-334.260	-68.302	0.056	-0.022
-333.245	-200.000	0.043	-0.270
-332.231	115.828	0.162	0.200
-331.216	98.826	0.097	-0.113
-330.202	-200.000	-0.034	0.174
-329.187	-6.588	-0.129	0.088
-328.172	-15.585	-0.205	-0.131
-327.158	-80.877	-0.326	0.109
-326.143	-200.000	-0.046	0.436
-325.129	-46.619	0.310	0.153
-324.114	133.063	-0.102	-0.132
-323.099	166.498	0.158	-0.224
-322.085	-33.019	0.054	0.030
-321.070	-102.692	0.186	-0.044
-320.056	-73.280	-0.287	-0.105
-319.041	60.962	0.070	0.070
-318.026	800.000	-0.081	-0.312
-317.012	800.000	0.031	-0.126
-315.997	-50.427	-0.335	-0.159
-314.983	-26.519	0.037	0.022
-313.968	-200.000	0.006	0.451
-312.953	129.918	0.247	-0.317
-311.939	518.622	0.128	-0.300
-310.924	55.253	-0.263	-0.255
-309.910	158.517	-0.136	0.189
-308.895	38.075	0.087	0.078
-307.880	-200.000	0.000	0.142
-306.866	-55.174	0.102	0.046
-305.851	175.490	0.117	-0.170
-304.837	-102.117	-0.059	0.014
-303.822	800.000	-0.076	-0.284
-302.807	-83.103	0.292	-0.094
-301.793	52.434	0.124	0.119
-300.778	-117.768	-0.056	0.010
-299.764	43.297	-0.117	-0.107
-298.749	-34.945	-0.120	-0.066
-297.735	306.716	-0.117	-0.218
-296.720	800.000	-0.114	0.464
-295.705	3.716	-0.287	0.210
-294.691	136.944	0.198	-0.260
-293.676	595.413	-0.066	0.163
-292.662	-34.712	0.167	0.092
-291.647	98.732	-0.109	0.126
-290.632	-121.290	-0.348	-0.058
-289.618	-200.000	-0.039	-0.280
-288.603	16.335	-0.092	-0.073
-287.589	-200.000	0.045	0.308
-286.574	-80.295	-0.278	-0.093
-285.559	73.551	-0.227	-0.238
-284.545	800.000	-0.017	-0.055
-283.530	-200.000	-0.001	0.346
-282.516	210.376	-0.083	0.131
-281.501	70.050	0.174	-0.180
-280.486	-200.000	-0.004	0.061
-279.472	-200.000	0.049	0.246
-278.457	237.013	-0.087	0.144
-277.443	89.890	-0.082	-0.092
-276.428	800.000	0.118	-0.458
-275.413	48.138	-0.351	0.328
-274.399	-108.768	0.283	0.061
-273.384	-36.502	0.134	0.072
-272.370	474.175	0.087	-0.197
-271.355	-83.186	0.219	0.070
-270.340	-161.348	0.153	-0.008
-269.326	288.832	-0.183	-0.333
-268.311	-2.384	-0.122	-0.086
-267.297	-5.615	0.261	-0.179
-266.282	-62.539	-0.150	-0.062
-265.267	64.007	0.210	0.211
-264.253	-131.499	0.237	-0.031
-263.238	-200.000	0.031	0.163
-262.224	246.588	-0.143	0.242
-261.209	110.271	0.289	-0.348
-260.195	-159.452	0.023	0.001
-259.180	-95.253	-0.048	0.013
-258.165	-138.574	0.210	-0.023
-257.151	179.712	0.109	0.160
-256.136	-105.971	-0.125	-0.028
-255.122	-132.476	-0.122	-0.016
-254.107	63.043	-0.182	-0.182
-253.092	168.192	0.163	0.233
-252.078	720.597	-0.086	0.230
-251.063	373.612	-0.079	-0.162
-250.049	-50.539	0.523	0.247
-249.034	800.000	0.016	-0.068
-248.019	384.462	-0.109	0.225
-247.005	58.551	-0.337	0.331
-245.990	-98.690	0.274	-0.070
-244.976	-136.406	0.081	-0.009
-243.961	217.457	-0.188	0.300
-242.946	47.142	-0.110	-0.103
-241.932	-124.395	0.303	-0.047
-240.917	286.165	0.110	0.199
-239.903	517.787	-0.060	0.140
-238.888	-176.592	0.228	0.006
-237.873	800.000	-0.111	0.449
-236.859	-27.655	0.150	-0.087
-235.844	-57.789	0.248	-0.109
-234.830	119.436	-0.186	-0.231
-233.815	-119.684	-0.432	0.075
-232.800	-200.000	-0.042	0.258
-231.786	-97.149	-0.436	-0.114
-230.771	27.571	0.317	-0.267
-229.757	800.000	0.058	0.248
-228.742	-200.000	0.007	0.134
-227.727	290.498	0.136	-0.248
-226.713	-43.133	-0.373	-0.189
-225.698	-153.898	0.053	-0.004
-224.684	-147.850	0.109	-0.009
-223.669	-200.000	-0.093	0.419
-222.655	94.440	0.119	-0.135
-221.640	165.412	0.412	-0.581
-220.625	-92.096	-0.245	0.069
-219.611	-200.000	-0.011	0.222
-218.596	800.000	0.052	0.210
-217.582	-31.088	0.262	-0.148
-216.567	-24.650	0.273	-0.163
-215.552	800.000	-0.107	-0.296
-214.538	-36.053	0.142	-0.077
-213.523	-145.760	-0.191	-0.017
-212.509	231.812	-0.187	0.306
-211.494	-79.875	0.055	-0.018
-210.479	-84.001	0.193	-0.061
-209.465	58.753	-0.130	0.128
-208.450	800.000	-0.148	-0.414
-207.436	114.554	0.055	-0.067
-206.421	-58.935	-0.078	-0.034
-205.406	-200.000	-0.036	0.288
-204.392	-121.114	0.122	0.020
-203.377	132.871	-0.011	-0.014
-202.363	800.000	-0.083	-0.238
-201.348	-87.401	-0.103	0.031
-200.333	-200.000	0.068	0.379
-199.319	30.516	0.276	-0.235
-198.304	-143.789	-0.304	-0.029
-197.290	-160.082	-0.111	0.006
-196.275	-200.000	0.020	-0.261
-195.260	-16.521	-0.023	0.014
-194.246	269.597	0.020	0.034
-193.231	117.053	-0.135	-0.165
-192.217	-55.326	-0.255	0.115
-191.202	-117.446	-0.175	-0.032
-190.187	131.304	0.229	-0.294
-189.173	-200.000	0.005	0.047
-188.158	565.648	0.086	0.208
-187.144	0.231	0.157	0.112
-186.129	128.177	0.085	-0.108
-185.114	353.332	0.043	-0.086
-184.100	79.572	-0.110	0.118
-183.085	-30.796	-0.050	0.028
-182.071	16.608	0.128	0.101
-181.056	-200.000	-0.084	0.423
-180.042	800.000	-0.043	-0.130
-179.027	-200.000	-0.034	-0.163
-178.012	140.132	0.171	0.226
-176.998	-16.100	0.246	-0.156
-175.983	-3.600	0.214	-0.149
-174.969	800.000	-0.044	0.123
-173.954	69.155	0.052	-0.053
-172.939	-200.000	-0.023	0.124
-171.925	-83.564	-0.073	0.023
-170.910	4.774	-0.139	-0.102
-169.896	-182.071	-0.288	0.005
-168.881	58.896	0.155	0.152
-167.866	263.415	0.284	0.493
-166.852	107.943	0.149	0.178
-165.837	516.897	0.082	-0.191
-164.823	-178.581	0.345	0.008
-163.808	-50.064	-0.189	0.089
-162.793	51.106	0.017	-0.016
-161.779	-28.838	0.174	-0.100
-160.764	-132.175	-0.146	-0.019
-159.750	-123.574	-0.235	-0.037
-158.735	800.000	-0.022	0.063
-157.720	-200.000	-0.051	0.231
-156.706	-40.476	0.335	0.173
-155.691	-101.082	0.153	-0.037
-154.677	800.000	-0.049	0.184
-153.662	-111.544	0.453	0.092
-152.647	1.492	0.327	-0.235
-151.633	5.455	0.227	0.167
-150.618	51.190	-0.107	0.101
-149.604	800.000	-0.075	-0.235
-148.589	118.935	-0.107	-0.132
-147.574	217.298	0.131	0.208
-146.560	-98.363	0.413	0.105
-145.545	581.810	-0.031	-0.075
-144.531	-135.256	0.656	0.078
-143.516	-5.709	-0.123	0.084
-142.502	-200.000	0.045	-0.236
-141.487	-85.822	-0.287	-0.089
-140.472	36.729	-0.081	0.071
-139.458	-56.097	0.235	0.104
-138.443	35.012	-0.214	0.187
-137.429	25.877	0.249	-0.207
-136.414	-200.000	-0.051	-0.243
-135.399	-137.323	-0.190	-0.021
-134.385	-139.174	-0.206	0.022
-133.370	184.246	0.130	-0.192
-132.356	-87.724	0.044	-0.013
-131.341	-35.509	0.108	-0.058
-130.326	-200.000	0.010	-0.071
-129.312	-200.000	0.018	-0.127
-128.297	115.165	0.172	-0.210
-127.283	800.000	-0.074	-0.237
-126.268	325.925	0.029	-0.056
-125.253	34.636	-0.149	-0.130
-124.239	-200.000	-0.029	0.156
-123.224	-78.958	-0.168	0.057
-122.210	-73.723	0.015	0.006
-121.195	484.295	-0.059	0.134
