DTS Sentinel unit serial number:	SN413079Multiplexer serial number:	ORYXHardware model number:	OX4-SRSoftware version number:	ORYX F/W v4.00 Oryx Data Collector v3.7.2.0data status	okinstallation	princeton_trtdifferential loss correction	single-endedforward channel	channel 2reverse channel	N/Adate	2019/09/17time	00:43:34forward acquisition time	60.00reverse acquisition time	0.00gamma	496.2192k internal	0.2329k external	0.2329temperature offset calibration	0.9973default loss term (dB/km)	0.3790temperature slope calibration	1.0000multiplexer offset coefficient	1.0000multiplexer slope coefficient	1.0000fibre end	0.00T internal ref (°C)	29.44T ext. ref 1 (°C)	0.10T ext. ref 2 (°C)	24.04length (m)	temperature (°C)	Stokes	anti-Stokes-747.200	587.538	-0.057	0.142
-746.185	53.337	-0.266	0.257
-745.171	729.885	-0.095	-0.254
-744.156	800.000	-0.068	0.210
-743.142	775.863	0.074	0.204
-742.127	-157.898	0.215	-0.013
-741.112	-34.607	-0.065	0.036
-740.098	91.539	-0.109	-0.123
-739.083	-2.547	0.106	-0.075
-738.069	99.260	-0.068	0.079
-737.054	-200.000	-0.023	-0.197
-736.039	9.023	-0.185	0.141
-735.025	-120.787	0.174	0.030
-734.010	99.627	0.074	-0.087
-732.996	5.802	-0.025	-0.018
-731.981	-166.311	-0.246	-0.010
-730.966	-17.642	-0.181	-0.115
-729.952	398.906	-0.072	-0.151
-728.937	158.392	-0.114	-0.159
-727.923	-85.829	0.080	0.025
-726.908	-147.653	0.118	-0.010
-725.894	-200.000	-0.005	0.130
-724.879	-17.393	-0.217	-0.138
-723.864	800.000	-0.071	0.237
-722.850	-58.016	0.189	-0.083
-721.835	-63.062	-0.057	0.024
-720.821	112.018	0.218	0.265
-719.806	-200.000	-0.021	0.119
-718.791	800.000	-0.006	-0.023
-717.777	-200.000	-0.014	-0.173
-716.762	338.760	-0.085	-0.166
-715.748	-200.000	0.005	0.061
-714.733	-200.000	-0.001	0.194
-713.718	431.447	-0.150	0.326
-712.704	115.220	-0.063	0.078
-711.689	-45.737	0.186	-0.092
-710.675	199.749	0.173	0.267
-709.660	-39.092	-0.262	0.139
-708.645	81.690	-0.322	-0.351
-707.631	109.591	-0.132	0.159
-706.616	-122.552	-0.262	-0.043
-705.602	323.644	0.085	0.163
-704.587	-200.000	0.026	-0.184
-703.572	-44.522	-0.270	0.136
-702.558	521.739	0.160	-0.377
-701.543	-200.000	0.004	0.376
-700.529	95.487	-0.400	-0.458
-699.514	-77.355	-0.302	0.105
-698.499	66.912	0.244	0.250
-697.485	800.000	0.109	0.361
-696.470	-200.000	-0.020	-0.183
-695.456	129.665	0.231	-0.297
-694.441	800.000	-0.026	-0.094
-693.426	329.946	-0.110	-0.214
-692.412	238.197	0.189	-0.315
-691.397	-67.702	-0.119	0.047
-690.383	-172.389	0.291	0.009
-689.368	-61.691	0.023	-0.010
-688.354	-38.930	-0.236	-0.125
-687.339	-29.002	-0.239	-0.138
-686.324	-75.529	0.223	0.080
-685.310	800.000	0.118	-0.333
-684.295	-200.000	-0.326	-0.000
-683.281	-22.153	0.111	0.067
-682.266	269.472	-0.062	-0.109
-681.251	-10.920	0.275	-0.183
-680.237	-150.368	0.366	0.028
-679.222	62.675	-0.319	-0.320
-678.208	-200.000	-0.053	-0.396
-677.193	23.871	-0.028	0.023
-676.178	-72.433	-0.266	-0.099
-675.164	89.923	-0.198	0.222
-674.149	-86.024	-0.188	0.058
-673.135	-200.000	-0.001	-0.010
-672.120	-149.066	0.228	0.018
-671.105	-53.862	-0.274	0.125
-670.091	-86.563	-0.209	-0.065
-669.076	-32.134	-0.226	-0.127
-668.062	159.601	-0.261	-0.365
-667.047	500.370	0.035	0.082
-666.032	85.202	0.120	0.132
-665.018	81.001	-0.134	-0.146
-664.003	-153.441	-0.056	-0.004
-662.989	-138.130	0.285	0.032
-661.974	10.937	-0.136	-0.104
-660.959	425.971	0.119	-0.258
-659.945	-112.210	-0.306	0.062
-658.930	160.548	0.090	-0.126
-657.916	800.000	0.069	-0.225
-656.901	550.026	-0.070	0.168
-655.886	-116.737	0.315	0.058
-654.872	365.402	-0.097	-0.195
-653.857	-200.000	-0.047	0.371
-652.843	-54.980	0.334	-0.151
-651.828	-200.000	0.014	-0.062
-650.814	-200.000	0.010	0.044
-649.799	-200.000	-0.044	-0.431
-648.784	-200.000	0.002	-0.027
-647.770	165.331	0.108	0.153
-646.755	-99.206	-0.305	0.077
-645.741	800.000	-0.092	-0.271
-644.726	-116.119	0.179	0.033
-643.711	-85.941	-0.138	0.043
-642.697	-200.000	0.022	-0.259
-641.682	465.492	-0.092	-0.207
-640.668	800.000	0.046	-0.148
-639.653	800.000	-0.004	-0.015
-638.638	-112.352	-0.239	0.048
-637.624	-153.918	-0.299	0.020
-636.609	-200.000	-0.034	0.180
-635.595	800.000	0.018	0.056
-634.580	-76.846	-0.162	0.057
-633.565	-10.100	0.345	-0.230
-632.551	-39.369	-0.358	-0.189
-631.536	-200.000	-0.040	0.235
-630.522	800.000	0.017	-0.053
-629.507	-200.000	-0.016	-0.208
-628.492	-95.775	-0.195	0.052
-627.478	-84.442	-0.174	0.055
-626.463	-48.706	-0.174	0.084
-625.449	-165.959	0.184	-0.008
-624.434	-120.003	-0.287	0.049
-623.419	-200.000	-0.020	0.259
-622.405	788.220	0.029	-0.081
-621.390	64.245	0.172	-0.174
-620.376	-2.267	0.271	0.191
-619.361	763.264	0.061	0.167
-618.346	-190.458	0.172	0.002
-617.332	-124.439	0.098	-0.015
-616.317	-35.761	-0.263	0.143
-615.303	-132.486	0.262	-0.034
-614.288	336.828	0.110	-0.215
-613.273	543.860	-0.065	-0.156
-612.259	-125.306	0.150	-0.023
-611.244	800.000	-0.041	0.165
-610.230	85.949	0.127	-0.140
-609.215	4.044	-0.038	0.028
-608.201	-107.059	-0.242	0.053
-607.186	-200.000	-0.015	0.125
-606.171	-162.541	0.424	-0.021
-605.157	-200.000	-0.010	0.112
-604.142	704.282	0.085	-0.224
-603.128	-73.553	-0.261	0.095
-602.113	-150.633	-0.061	0.005
-601.098	152.772	0.119	-0.163
-600.084	-160.471	-0.275	-0.015
-599.069	-81.702	0.137	-0.045
-598.055	800.000	0.033	0.091
-597.040	592.205	0.121	-0.300
-596.025	100.167	0.131	-0.152
-595.011	-200.000	-0.005	-0.049
-593.996	730.236	0.111	-0.298
-592.982	800.000	0.121	0.352
-591.967	498.950	0.154	0.355
-590.952	-4.412	-0.115	0.079
-589.938	236.767	-0.077	0.127
-588.923	-41.060	0.345	-0.178
-587.909	-145.998	0.264	0.023
-586.894	-200.000	-0.020	0.159
-585.879	-44.218	-0.347	0.174
-584.865	767.525	-0.070	0.191
-583.850	210.466	0.146	0.229
-582.836	-94.289	-0.194	-0.053
-581.821	357.136	-0.122	0.243
-580.806	56.246	0.210	-0.204
-579.792	800.000	-0.045	0.126
-578.777	-200.000	-0.000	0.140
-577.763	800.000	-0.094	0.339
-576.748	494.795	0.129	-0.297
-575.733	-47.275	0.298	-0.145
-574.719	-114.586	-0.047	-0.009
-573.704	-87.609	-0.089	0.027
-572.690	-200.000	0.005	-0.303
-571.675	163.228	-0.167	0.235
-570.661	-24.233	-0.192	-0.115
-569.646	-137.302	0.518	0.059
-568.631	800.000	0.072	-0.218
-567.617	800.000	-0.055	0.194
-566.602	800.000	-0.058	-0.173
-565.588	-200.000	-0.024	0.227
-564.573	41.349	-0.113	0.102
-563.558	-32.485	0.040	-0.022
-562.544	-144.055	0.338	0.032
-561.529	-130.830	-0.162	-0.022
-560.515	592.772	0.089	0.220
-559.500	-65.952	0.065	0.026
-558.485	-68.209	-0.182	0.071
-557.471	653.159	-0.071	0.182
-556.456	796.897	0.158	-0.437
-555.442	-173.965	-0.265	0.008
-554.427	-49.972	0.322	-0.153
-553.412	124.950	-0.093	0.117
-552.398	208.967	0.135	0.211
-551.383	70.080	-0.357	-0.368
-550.369	339.523	0.089	0.174
-549.354	-83.542	-0.331	-0.106
-548.339	800.000	0.063	0.220
-547.325	-141.444	0.275	-0.028
-546.310	22.134	-0.263	0.215
-545.296	-163.870	0.199	0.009
-544.281	224.563	-0.048	-0.077
-543.266	632.325	-0.030	0.076
-542.252	800.000	-0.068	-0.267
-541.237	3.538	-0.246	-0.179
-540.223	648.877	0.089	-0.226
-539.208	220.480	-0.089	-0.142
-538.193	280.654	-0.056	-0.100
-537.179	-101.010	-0.289	0.071
-536.164	-34.330	-0.297	-0.163
-535.150	-22.005	0.031	-0.019
-534.135	70.679	-0.230	-0.238
-533.121	-18.458	-0.201	-0.125
-532.106	58.581	0.166	0.163
-531.091	800.000	-0.064	0.195
-530.077	41.738	0.046	0.042
-529.062	-42.492	0.302	-0.154
-528.048	-45.909	0.174	0.086
-527.033	115.717	0.143	0.174
-526.018	-72.919	-0.178	0.066
-525.004	-200.000	0.003	-0.076
-523.989	177.033	0.178	-0.258
-522.975	-93.874	-0.111	-0.030
-521.960	800.000	0.035	0.148
-520.945	495.787	-0.110	0.252
-519.931	162.564	0.064	-0.089
-518.916	597.450	0.119	0.295
-517.902	-47.168	-0.215	-0.105
-516.887	118.783	-0.140	-0.173
-515.872	51.932	0.118	-0.112
-514.858	80.478	-0.100	-0.108
-513.843	210.255	-0.127	-0.200
-512.829	-67.739	0.107	0.042
-511.814	131.237	-0.134	0.172
-510.799	800.000	0.021	0.074
-509.785	445.201	0.061	-0.134
-508.770	58.721	0.189	0.186
-507.756	547.757	0.086	-0.206
-506.741	-200.000	-0.193	-0.001
-505.726	-140.834	0.225	-0.023
-504.712	533.024	-0.046	0.109
-503.697	-75.274	-0.231	-0.082
-502.683	218.947	-0.119	0.190
-501.668	-200.000	-0.002	0.128
-500.653	315.284	0.156	-0.293
-499.639	-200.000	0.031	0.252
-498.624	-33.181	0.158	-0.087
-497.610	-64.816	-0.396	0.160
-496.595	-38.164	0.132	0.070
-495.581	9.085	0.134	-0.101
-494.566	800.000	0.093	-0.317
-493.551	127.791	-0.084	-0.106
-492.537	2.674	-0.105	0.076
-491.522	-117.789	-0.073	-0.013
-490.508	62.060	-0.024	0.023
-489.493	389.061	-0.045	-0.093
-488.478	120.826	0.072	-0.089
-487.464	122.132	0.096	0.120
-486.449	800.000	0.078	0.224
-485.435	141.780	-0.107	0.142
-484.420	146.662	0.295	-0.396
-483.405	-74.055	-0.091	-0.033
-482.391	-200.000	0.245	-0.001
-481.376	-83.237	-0.123	-0.039
-480.362	-95.178	-0.140	0.038
-479.347	800.000	0.034	-0.126
-478.332	196.052	-0.232	-0.352
-477.318	-31.024	0.091	-0.051
-476.303	52.761	0.144	0.138
-475.289	-88.432	0.196	0.058
-474.274	800.000	0.059	-0.257
-473.259	-200.000	0.087	-0.460
-472.245	800.000	-0.033	-0.112
-471.230	800.000	0.044	0.140
-470.216	-119.514	0.264	0.046
-469.201	198.353	-0.071	-0.108
-468.186	576.173	0.033	-0.079
-467.172	189.851	-0.106	0.159
-466.157	-200.000	-0.003	-0.129
-465.143	415.353	0.086	-0.182
-464.128	800.000	0.149	-0.469
-463.113	92.173	0.164	0.184
-462.099	360.296	-0.201	-0.400
-461.084	622.621	0.016	0.041
-460.070	-200.000	0.059	-0.339
-459.055	-83.994	-0.138	-0.044
-458.040	-177.805	0.213	-0.005
-457.026	-179.338	-0.296	0.007
-456.011	137.112	-0.033	-0.043
-454.997	318.268	-0.222	-0.419
-453.982	-12.595	0.076	-0.049
-452.968	-32.157	-0.156	0.087
-451.953	62.634	0.236	-0.235
-450.938	800.000	-0.025	0.082
-449.924	-200.000	-0.030	0.296
-448.909	32.908	0.090	0.078
-447.895	-10.104	0.259	0.171
-446.880	8.580	0.053	0.040
-445.865	800.000	-0.019	-0.072
-444.851	609.604	-0.079	0.197
-443.836	-55.408	0.151	-0.068
-442.822	-138.534	-0.109	-0.012
-441.807	-113.135	-0.131	0.026
-440.792	-15.998	0.165	-0.105
-439.778	-18.269	-0.135	-0.084
-438.763	224.599	-0.068	-0.109
-437.749	-200.000	0.029	0.455
-436.734	150.371	0.210	0.283
-435.719	41.122	-0.166	0.149
-434.705	31.954	0.095	-0.081
-433.690	-81.659	-0.136	-0.045
-432.676	-65.850	-0.180	0.071
-431.661	-122.423	-0.263	0.043
-430.646	-166.407	-0.167	-0.007
-429.632	800.000	-0.039	0.156
-428.617	-70.910	0.287	-0.108
-427.603	-200.000	0.001	0.023
-426.588	122.030	0.263	-0.326
-425.573	-75.045	0.081	0.029
-424.559	4.757	0.318	-0.232
-423.544	182.517	0.156	0.228
-422.530	572.104	0.143	0.347
-421.515	-108.287	0.149	0.032
-420.500	800.000	0.113	0.328
-419.486	-200.000	-0.014	0.082
-418.471	-128.247	-0.303	0.043
-417.457	-128.324	0.155	-0.022
-416.442	565.726	-0.070	0.169
-415.428	-66.929	0.203	-0.080
-414.413	96.401	-0.157	0.179
-413.398	-42.071	-0.329	-0.167
-412.384	800.000	-0.097	0.391
-411.369	103.433	0.166	0.193
-410.355	-21.595	0.047	-0.028
-409.340	-200.000	0.000	-0.011
-408.325	800.000	0.037	0.111
-407.311	-73.946	-0.209	0.076
-406.296	-16.833	-0.239	0.150
-405.282	608.908	0.038	0.094
-404.267	68.647	-0.176	-0.179
-403.252	-27.324	-0.291	0.169
-402.238	85.957	0.188	-0.206
-401.223	289.363	0.145	-0.262
-400.209	62.344	0.139	-0.138
-399.194	-200.000	0.019	0.154
-398.179	-34.180	0.161	0.088
-397.165	-17.002	-0.321	-0.202
-396.150	274.030	0.059	0.103
-395.136	172.700	0.047	-0.067
-394.121	26.264	0.062	-0.052
-393.106	203.569	-0.051	0.079
-392.092	-82.539	-0.346	-0.111
-391.077	257.921	0.075	0.129
-390.063	-200.000	-0.001	-0.095
-389.048	20.379	-0.311	0.250
-388.033	-52.145	0.131	-0.061
-387.019	-2.568	0.184	-0.128
-386.004	-95.901	-0.258	0.068
-384.990	33.391	-0.188	0.162
-383.975	13.280	0.168	-0.129
-382.960	-47.746	-0.093	0.045
-381.946	-145.363	0.321	0.029
-380.931	-49.171	-0.212	0.101
-379.917	67.344	0.210	-0.213
-378.902	-173.358	-0.046	-0.001
-377.888	-200.000	-0.003	-0.304
-376.873	47.040	-0.213	0.197
-375.858	-21.903	-0.206	-0.125
-374.844	-200.000	-0.022	-0.399
-373.829	-41.625	-0.169	0.086
-372.815	507.694	-0.092	0.213
-371.800	-143.373	0.088	-0.008
-370.785	-157.710	-0.217	-0.013
-369.771	-117.114	-0.281	-0.051
-368.756	324.100	-0.101	0.191
-367.742	-109.224	0.329	0.069
-366.727	800.000	-0.054	0.166
-365.712	-155.523	-0.493	0.032
-364.698	-123.124	0.222	-0.035
-363.683	27.659	-0.246	0.205
-362.669	-200.000	0.023	0.362
-361.654	-20.651	0.132	0.080
-360.639	-70.914	0.103	-0.039
-359.625	-13.959	-0.251	0.161
-358.610	102.354	0.179	-0.208
-357.596	0.672	0.093	-0.066
-356.581	-200.000	-0.010	-0.265
-355.566	40.805	-0.134	0.120
-354.552	-50.414	0.324	-0.152
-353.537	-166.302	0.220	0.009
-352.523	-67.477	-0.446	-0.174
-351.508	169.421	-0.227	0.322
-350.493	-200.000	-0.030	0.244
-349.479	-144.755	-0.036	-0.003
-348.464	67.568	-0.262	-0.266
-347.450	800.000	-0.150	-0.414
-346.435	321.962	0.155	-0.293
-345.420	800.000	0.058	-0.163
-344.406	445.042	0.184	-0.401
-343.391	268.969	0.123	-0.215
-342.377	210.577	0.126	-0.197
-341.362	99.479	0.158	0.181
-340.348	272.557	-0.134	0.234
-339.333	425.002	0.148	-0.317
-338.318	362.937	0.079	-0.156
-337.304	-48.956	-0.235	-0.112
-336.289	-200.000	-0.011	0.137
-335.275	707.800	0.103	0.269
-334.260	-132.435	-0.193	-0.025
-333.245	-67.896	0.294	-0.114
-332.231	483.617	0.132	-0.297
-331.216	310.042	0.084	0.155
-330.202	-151.602	-0.135	0.010
-329.187	130.845	0.175	0.223
-328.172	40.913	0.125	-0.112
-327.158	6.167	0.063	-0.046
-326.143	513.851	-0.148	0.342
-325.129	800.000	-0.046	-0.168
-324.114	-58.088	0.132	-0.057
-323.099	44.526	-0.153	-0.140
-322.085	323.379	0.105	0.199
-321.070	98.294	-0.099	0.113
-320.056	-200.000	-0.047	0.241
-319.041	800.000	-0.059	-0.215
-318.026	331.535	0.107	-0.205
-317.012	69.758	-0.151	-0.154
-315.997	-16.844	0.081	0.051
-314.983	3.473	-0.145	0.105
-313.968	-120.609	0.329	-0.055
-312.953	26.671	-0.054	0.044
-311.939	60.982	0.025	0.025
-310.924	-14.996	0.162	-0.103
-309.910	29.335	-0.110	-0.093
-308.895	280.386	0.152	-0.268
-307.880	-200.000	-0.025	-0.241
-306.866	-200.000	0.024	0.195
-305.851	740.478	-0.073	0.195
-304.837	800.000	0.070	0.249
-303.822	800.000	-0.030	0.086
-302.807	800.000	0.084	-0.327
-301.793	800.000	-0.071	-0.201
-300.778	95.586	0.245	0.276
-299.764	-19.846	0.261	-0.160
-298.749	-161.152	-0.109	0.006
-297.735	69.839	0.056	-0.057
-296.720	-41.574	0.204	0.104
-295.705	-137.735	-0.217	-0.024
-294.691	571.780	-0.076	0.183
-293.676	-200.000	-0.031	-0.281
-292.662	-74.603	0.132	0.047
-291.647	-135.376	-0.418	-0.049
-290.632	-35.222	-0.051	-0.027
-289.618	-53.650	-0.196	0.088
-288.603	29.127	0.297	-0.250
-287.589	800.000	-0.112	0.349
-286.574	57.188	0.156	0.151
-285.559	545.696	0.046	-0.109
-284.545	-102.390	0.279	-0.066
-283.530	19.104	0.172	-0.136
-282.516	-127.044	0.161	0.023
-281.501	149.937	-0.175	0.235
-280.486	-164.815	-0.297	0.013
-279.472	179.161	0.031	0.045
-278.457	62.276	-0.064	-0.063
-277.443	368.755	-0.165	0.330
-276.428	-200.000	-0.038	-0.185
-275.413	-200.000	0.044	0.242
-274.399	-118.675	0.295	-0.051
-273.384	-40.100	0.264	0.136
-272.370	-2.267	-0.199	0.138
-271.355	800.000	-0.053	0.169
-270.340	-163.014	0.168	-0.008
-269.326	-146.020	0.211	0.018
-268.311	-96.237	-0.112	0.029
-267.297	632.780	0.082	0.205
-266.282	274.568	-0.010	0.017
-265.267	-200.000	0.025	0.260
-264.253	-200.000	-0.003	0.128
-263.238	145.380	0.120	-0.159
-262.224	249.127	0.286	0.478
-261.209	-21.782	-0.259	0.156
-260.195	800.000	-0.039	-0.151
-259.180	334.570	0.188	-0.359
-258.165	-200.000	-0.006	-0.046
-257.151	47.062	0.297	-0.273
-256.136	471.397	0.083	0.184
-255.122	104.329	0.104	-0.122
-254.107	-54.610	-0.135	-0.060
-253.092	-78.811	0.146	-0.049
-252.078	-41.738	0.313	0.159
-251.063	-152.144	0.202	0.014
-250.049	-159.038	0.114	-0.006
-249.034	-200.000	0.028	-0.212
-248.019	298.031	0.034	0.061
-247.005	-77.825	-0.340	0.116
-245.990	-10.092	0.098	-0.064
-244.976	235.736	-0.185	-0.303
-243.961	100.367	0.173	0.198
-242.946	90.579	-0.064	-0.071
-241.932	-200.000	0.012	0.097
-240.917	-77.741	0.177	0.060
-239.903	161.637	-0.202	-0.279
-238.888	-129.896	-0.266	-0.036
-237.873	-87.992	-0.193	0.057
-236.859	-66.102	-0.062	0.025
-235.844	-137.785	-0.344	-0.038
-234.830	-22.422	0.163	0.098
-233.815	14.204	0.096	0.074
-232.800	-200.000	-0.033	0.367
-231.786	-200.000	0.018	-0.184
-230.771	-73.691	0.435	-0.156
-229.757	6.996	-0.332	-0.244
-228.742	-62.194	0.069	0.028
-227.727	-200.000	0.036	0.165
-226.713	-135.004	0.214	0.025
-225.698	-200.000	-0.025	0.144
-224.684	-99.001	-0.457	-0.114
-223.669	355.634	0.154	0.302
-222.655	333.625	-0.032	0.060
-221.640	-70.415	-0.197	-0.074
-220.625	-86.986	0.223	-0.067
-219.611	85.659	-0.332	-0.360
-218.596	-76.778	-0.360	-0.124
-217.582	157.933	-0.067	0.091
-216.567	24.910	0.224	0.183
-215.552	3.152	0.044	-0.032
-214.538	410.705	0.084	-0.175
-213.523	25.329	-0.165	-0.135
-212.509	-73.900	-0.191	0.068
-211.494	-145.954	0.202	0.018
-210.479	-195.805	0.097	0.001
-209.465	-126.515	0.236	-0.035
-208.450	-154.013	0.138	-0.009
-207.436	-5.689	0.093	-0.063
-206.421	-200.000	0.002	-0.066
-205.406	-147.631	-0.372	0.031
-204.392	49.016	0.235	0.218
-203.377	144.998	-0.079	0.104
-202.363	83.869	-0.132	0.142
-201.348	58.155	0.073	0.070
-200.333	216.132	-0.008	-0.013
-199.319	673.211	0.114	0.293
-198.304	51.883	-0.092	0.086
-197.290	-200.000	-0.042	0.301
-196.275	-86.735	-0.343	-0.104
-195.260	-83.471	-0.265	-0.084
-194.246	-95.170	0.131	0.035
-193.231	-200.000	0.003	0.208
-192.217	250.305	0.097	0.162
-191.202	-151.404	-0.217	-0.016
-190.187	103.993	0.269	-0.312
-189.173	-25.411	-0.080	0.047
-188.158	-200.000	0.081	0.355
-187.144	-63.567	0.170	-0.069
-186.129	-15.771	0.087	-0.055
-185.114	-51.540	-0.360	0.166
-184.100	-1.697	0.371	0.258
-183.085	-200.000	-0.012	0.140
-182.071	-69.126	-0.098	-0.037
-181.056	-200.000	-0.041	0.444
-180.042	-200.000	-0.013	-0.284
-179.027	-71.122	-0.105	-0.039
-178.012	-131.934	-0.132	0.017
-176.998	-115.808	-0.068	0.013
-175.983	-38.857	0.151	-0.079
-174.969	378.766	0.076	-0.153
-173.954	-200.000	0.034	-0.155
-172.939	-35.954	-0.102	0.054
-171.925	6.234	0.324	-0.237
-170.910	-125.417	-0.181	0.027
-169.896	69.067	-0.278	0.282
-168.881	-143.046	-0.098	0.009
-167.866	-200.000	-0.001	0.100
-166.852	-133.944	0.335	-0.041
-165.837	0.774	-0.205	-0.144
-164.823	269.965	0.107	0.185
-163.808	-200.000	-0.035	-0.424
-162.793	21.217	-0.129	0.103
-161.779	430.374	-0.118	0.252
-160.764	-101.581	-0.265	0.063
-159.750	163.733	0.192	-0.265
-158.735	-36.837	0.143	-0.076
-157.720	22.053	0.054	-0.044
-156.706	800.000	-0.152	0.455
-155.691	334.294	0.076	-0.146
-154.677	-155.948	0.329	0.021
-153.662	800.000	-0.058	0.243
-152.647	800.000	0.060	-0.176
-151.633	52.311	0.201	0.189
-150.618	-200.000	0.021	-0.121
-149.604	-200.000	-0.025	0.163
-148.589	9.911	0.399	-0.298
-147.574	-200.000	-0.013	-0.057
-146.560	-56.501	-0.094	-0.041
-145.545	362.476	0.128	0.252
-144.531	3.012	0.208	0.149
-143.516	-49.840	0.153	-0.072
-142.502	-200.000	-0.006	-0.070
-141.487	34.528	-0.224	-0.192
-140.472	35.488	0.095	0.082
-139.458	-136.858	0.371	0.042
-138.443	-122.382	0.169	0.027
-137.429	-53.315	-0.217	0.098
-136.414	506.867	-0.090	-0.204
-135.399	-54.673	-0.162	-0.072
-134.385	-4.179	0.091	-0.062
-133.370	-75.273	-0.157	0.055
-132.356	-130.637	0.303	0.040
-131.341	-200.000	-0.012	-0.138
-130.326	-157.803	-0.213	0.012
-129.312	800.000	0.047	-0.182
-128.297	73.339	0.228	0.235
-127.283	-200.000	0.062	-0.390
-126.268	707.007	-0.072	0.186
-125.253	-99.017	-0.362	-0.090
-124.239	-200.000	-0.005	-0.079
-123.224	-200.000	0.008	-0.093
-122.210	-26.575	0.072	0.041
-121.195	-83.678	0.238	-0.075
