DTS Sentinel unit serial number:	SN413079Multiplexer serial number:	ORYXHardware model number:	OX4-SRSoftware version number:	ORYX F/W v4.00 Oryx Data Collector v3.7.2.0data status	okinstallation	princeton_trtdifferential loss correction	single-endedforward channel	channel 2reverse channel	N/Adate	2019/09/13time	01:39:35forward acquisition time	60.00reverse acquisition time	0.00gamma	496.2192k internal	0.2334k external	0.2334temperature offset calibration	1.0173default loss term (dB/km)	0.3790temperature slope calibration	1.0000multiplexer offset coefficient	1.0000multiplexer slope coefficient	1.0000fibre end	0.00T internal ref (°C)	27.75T ext. ref 1 (°C)	3.77T ext. ref 2 (°C)	22.40length (m)	temperature (°C)	Stokes	anti-Stokes-747.200	-200.000	0.008	0.112
-746.185	-200.000	-0.004	0.162
-745.171	-200.000	0.060	0.430
-744.156	202.144	-0.217	0.337
-743.142	23.287	-0.297	-0.245
-742.127	-200.000	0.011	0.352
-741.112	-35.593	-0.353	-0.193
-740.098	135.906	-0.125	0.163
-739.083	-5.752	0.234	-0.161
-738.069	-2.800	0.150	0.105
-737.054	-1.887	-0.182	0.128
-736.039	-25.302	-0.056	-0.033
-735.025	225.140	0.078	0.128
-734.010	-22.200	-0.300	0.183
-732.996	52.814	-0.252	0.242
-731.981	-58.934	0.111	0.048
-730.966	-200.000	0.032	-0.282
-729.952	-200.000	0.026	0.184
-728.937	206.817	-0.104	0.163
-727.923	-90.730	-0.409	-0.119
-726.908	800.000	0.031	0.086
-725.894	-22.547	-0.359	-0.218
-724.879	800.000	-0.054	-0.164
-723.864	-141.719	0.369	0.037
-722.850	-40.513	-0.285	-0.148
-721.835	-26.828	-0.334	-0.196
-720.821	-200.000	-0.012	0.259
-719.806	-63.586	0.278	-0.115
-718.791	-200.000	0.010	0.210
-717.777	-200.000	-0.014	-0.112
-716.762	64.069	-0.169	-0.171
-715.748	800.000	0.117	0.483
-714.733	26.643	0.241	-0.203
-713.718	443.861	-0.080	-0.177
-712.704	-58.607	0.082	0.036
-711.689	-164.833	-0.076	-0.003
-710.675	578.666	0.021	-0.051
-709.660	137.689	0.036	0.047
-708.645	-25.928	0.212	0.126
-707.631	800.000	-0.032	0.116
-706.616	-68.085	0.109	-0.043
-705.602	800.000	0.076	-0.271
-704.587	-2.420	-0.237	0.167
-703.572	96.041	0.094	-0.108
-702.558	-200.000	0.106	-0.000
-701.543	-3.468	0.030	-0.021
-700.529	800.000	-0.012	-0.035
-699.514	82.149	0.199	-0.216
-698.499	12.195	0.142	0.110
-697.485	800.000	-0.045	-0.152
-696.470	-200.000	-0.036	-0.238
-695.456	-112.162	-0.301	0.061
-694.441	10.230	-0.069	-0.053
-693.426	-200.000	0.070	0.354
-692.412	-21.563	-0.126	0.077
-691.397	405.815	-0.096	-0.204
-690.383	-136.708	-0.196	-0.023
-689.368	-200.000	-0.028	-0.234
-688.354	-61.923	-0.180	0.076
-687.339	60.325	-0.315	0.313
-686.324	40.438	0.256	0.232
-685.310	-200.000	0.004	0.023
-684.295	117.357	-0.099	-0.122
-683.281	-200.000	0.002	0.224
-682.266	-200.000	0.023	-0.132
-681.251	236.991	-0.023	0.038
-680.237	317.408	-0.073	0.138
-679.222	-164.191	0.246	0.011
-678.208	39.197	-0.221	-0.198
-677.193	163.740	-0.230	-0.324
-676.178	-84.435	0.287	-0.091
-675.164	171.852	-0.140	-0.202
-674.149	-200.000	0.011	-0.352
-673.135	50.364	-0.045	0.043
-672.120	1.224	0.260	0.187
-671.105	44.780	0.232	0.214
-670.091	-80.679	0.009	0.003
-669.076	-82.602	-0.154	0.050
-668.062	151.702	-0.180	0.247
-667.047	-50.497	-0.151	-0.071
-666.032	63.722	-0.036	-0.036
-665.018	-134.530	-0.310	-0.038
-664.003	93.836	0.086	-0.098
-662.989	800.000	-0.041	-0.175
-661.974	382.208	0.060	-0.123
-660.959	-35.799	-0.126	-0.069
-659.945	-40.794	-0.365	0.189
-658.930	-14.467	-0.341	0.220
-657.916	-200.000	-0.054	0.254
-656.901	173.050	-0.105	0.152
-655.886	7.490	-0.218	-0.164
-654.872	15.312	-0.196	-0.154
-653.857	95.094	0.188	-0.215
-652.843	108.895	-0.238	0.285
-651.828	-6.177	-0.107	-0.073
-650.814	-94.302	-0.261	0.071
-649.799	17.127	0.204	0.162
-648.784	-126.703	-0.150	0.022
-647.770	-79.907	0.292	-0.098
-646.755	-129.933	-0.121	-0.017
-645.741	34.616	0.126	-0.110
-644.726	-146.238	0.217	0.019
-643.711	-68.664	0.103	-0.040
-642.697	-200.000	-0.016	-0.265
-641.682	101.478	-0.326	-0.381
-640.668	-99.531	0.233	0.059
-639.653	-200.000	0.002	-0.330
-638.638	96.673	-0.126	0.145
-637.624	-83.655	0.076	-0.024
-636.609	348.324	-0.061	0.121
-635.595	112.279	0.159	-0.193
-634.580	-200.000	-0.065	0.000
-633.565	-114.258	-0.166	-0.032
-632.551	-47.358	0.096	0.047
-631.536	83.034	-0.181	-0.197
-630.522	-200.000	0.054	0.441
-629.507	91.296	0.223	-0.250
-628.492	88.430	0.194	-0.216
-627.478	-49.552	0.080	0.038
-626.463	-83.673	-0.273	-0.087
-625.449	221.922	0.221	-0.355
-624.434	17.488	-0.299	-0.238
-623.419	102.409	-0.129	-0.151
-622.405	-26.559	0.061	-0.035
-621.390	454.164	0.086	0.190
-620.376	-59.781	-0.060	-0.026
-619.361	-200.000	-0.001	-0.233
-618.346	-51.062	0.192	0.090
-617.332	-73.182	0.367	0.134
-616.317	116.718	-0.269	0.330
-615.303	7.376	0.090	0.067
-614.288	-173.214	-0.275	0.008
-613.273	-0.772	-0.224	0.159
-612.259	-162.722	0.040	-0.002
-611.244	-182.360	-0.226	0.004
-610.230	-43.853	0.052	0.026
-609.215	20.319	0.266	-0.215
-608.201	-90.192	-0.237	0.069
-607.186	78.803	0.125	-0.134
-606.171	108.206	-0.099	0.118
-605.157	-200.000	0.008	-0.099
-604.142	-200.000	0.004	-0.178
-603.128	271.897	0.080	0.140
-602.113	37.722	-0.246	0.218
-601.098	-200.000	-0.028	0.194
-600.084	-103.462	-0.350	0.082
-599.069	-200.000	-0.065	0.300
-598.055	-129.738	0.331	-0.046
-597.040	-30.856	0.383	-0.216
-596.025	628.395	0.177	-0.448
-595.011	-35.985	-0.195	0.106
-593.996	-75.216	0.134	0.048
-592.982	-42.995	0.124	0.063
-591.967	-73.648	-0.189	0.069
-590.952	-200.000	0.039	-0.174
-589.938	277.891	-0.258	0.458
-588.923	-118.772	0.136	0.024
-587.909	-200.000	-0.029	0.142
-586.894	90.727	0.105	-0.118
-585.879	107.180	-0.079	-0.093
-584.865	-88.289	-0.108	-0.032
-583.850	565.082	0.173	0.418
-582.836	104.065	-0.289	-0.340
-581.821	568.420	-0.047	-0.114
-580.806	800.000	0.048	-0.150
-579.792	539.006	-0.076	0.180
-578.777	-200.000	0.020	0.244
-577.763	800.000	-0.116	-0.461
-576.748	44.062	0.222	0.204
-575.733	800.000	-0.037	-0.129
-574.719	492.352	0.054	0.124
-573.704	-9.394	-0.117	-0.078
-572.690	-200.000	-0.090	-0.397
-571.675	800.000	-0.032	-0.139
-570.661	162.763	0.179	-0.251
-569.646	-200.000	0.043	-0.212
-568.631	-76.257	0.230	-0.081
-567.617	137.794	-0.217	-0.283
-566.602	497.974	-0.061	0.139
-565.588	29.123	-0.030	0.025
-564.573	800.000	0.016	0.061
-563.558	-118.158	0.190	-0.034
-562.544	-200.000	0.028	-0.255
-561.529	-5.399	0.361	0.247
-560.515	-70.597	-0.281	0.106
-559.500	329.055	-0.077	-0.147
-558.485	462.152	-0.182	0.405
-557.471	800.000	0.157	-0.455
-556.456	-200.000	-0.026	0.154
-555.442	167.312	-0.195	0.277
-554.427	-147.322	-0.058	0.005
-553.412	519.296	0.086	-0.200
-552.398	800.000	-0.117	0.334
-551.383	-3.154	0.036	-0.025
-550.369	-81.755	-0.293	-0.096
-549.354	-200.000	0.029	-0.264
-548.339	-107.714	-0.246	-0.054
-547.325	9.536	0.252	0.190
-546.310	-88.105	-0.209	-0.062
-545.296	-146.348	-0.132	0.012
-544.281	29.604	0.204	0.173
-543.266	-78.309	-0.085	0.029
-542.252	36.992	0.124	0.110
-541.237	-41.989	0.105	-0.054
-540.223	273.942	-0.153	0.269
-539.208	-121.588	-0.356	0.059
-538.193	-36.317	0.167	-0.090
-537.179	-81.168	0.116	0.038
-536.164	-126.480	-0.465	0.069
-535.150	-170.878	-0.379	-0.013
-534.135	442.651	-0.093	-0.203
-533.121	800.000	0.099	0.420
-532.106	-75.135	-0.103	-0.037
-531.091	157.905	-0.076	-0.104
-530.077	-127.210	-0.386	-0.056
-529.062	668.289	0.143	-0.369
-528.048	-138.678	-0.291	0.032
-527.033	619.308	0.114	-0.286
-526.018	-82.571	-0.185	-0.060
-525.004	-200.000	-0.014	-0.075
-523.989	133.553	0.167	0.216
-522.975	-16.562	0.262	0.165
-521.960	-18.437	-0.236	-0.147
-520.945	183.640	-0.030	-0.045
-519.931	-42.877	0.118	0.060
-518.916	24.137	0.276	-0.227
-517.902	17.849	-0.212	0.168
-516.887	-169.255	0.086	-0.003
-515.872	-132.305	0.134	0.017
-514.858	-200.000	0.005	0.497
-513.843	-122.197	-0.325	0.053
-512.829	-152.892	-0.213	-0.015
-511.814	317.962	-0.141	0.266
-510.799	333.056	0.027	0.052
-509.785	-10.154	0.216	-0.143
-508.770	-125.455	-0.451	-0.068
-507.756	99.207	0.221	0.255
-506.741	47.943	0.214	0.200
-505.726	88.142	-0.114	-0.126
-504.712	-98.765	0.238	-0.060
-503.697	133.851	0.196	-0.252
-502.683	-92.023	-0.182	0.051
-501.668	134.998	0.124	0.160
-500.653	-92.967	-0.220	0.061
-499.639	62.196	-0.018	0.018
-498.624	328.275	-0.074	0.141
-497.610	800.000	0.046	0.169
-496.595	91.501	-0.076	0.085
-495.581	-52.437	-0.242	-0.111
-494.566	-146.566	-0.371	-0.032
-493.551	-200.000	-0.013	0.170
-492.537	665.992	0.006	0.014
-491.522	800.000	0.086	0.329
-490.508	800.000	-0.054	0.196
-489.493	800.000	-0.053	-0.184
-488.478	186.135	0.091	-0.135
-487.464	-61.274	-0.127	0.053
-486.449	89.550	-0.281	0.312
-485.435	563.278	0.034	-0.083
-484.420	-3.446	0.290	0.201
-483.405	245.472	-0.101	-0.169
-482.391	800.000	-0.085	-0.341
-481.376	500.420	0.110	0.253
-480.362	452.740	-0.063	0.139
-479.347	266.159	-0.157	0.272
-478.332	-200.000	0.008	0.211
-477.318	-200.000	-0.018	-0.357
-476.303	173.037	0.170	0.243
-475.289	3.370	-0.145	0.105
-474.274	-32.357	-0.196	-0.109
-473.259	150.629	-0.043	-0.058
-472.245	-8.207	0.126	0.084
-471.230	-200.000	0.075	-0.329
-470.216	-185.346	0.312	-0.005
-469.201	452.905	-0.211	0.463
-468.186	38.402	-0.056	0.050
-467.172	-110.738	-0.064	-0.013
-466.157	-200.000	-0.000	-0.265
-465.143	-91.728	-0.101	-0.028
-464.128	56.956	-0.067	0.065
-463.113	-200.000	-0.003	-0.084
-462.099	-200.000	0.007	-0.109
-461.084	28.508	0.203	-0.171
-460.070	-200.000	0.011	0.105
-459.055	-55.215	-0.242	0.108
-458.040	-33.073	-0.080	-0.044
-457.026	-109.904	0.066	0.014
-456.011	49.213	-0.095	0.089
-454.997	387.708	-0.114	-0.234
-453.982	82.922	-0.123	0.133
-452.968	-47.080	0.348	-0.169
-451.953	88.720	-0.181	-0.200
-450.938	-16.141	0.394	0.249
-449.924	155.137	-0.090	0.123
-448.909	800.000	-0.086	-0.258
-447.895	-95.488	-0.121	0.032
-446.880	-200.000	0.002	-0.216
-445.865	-56.820	0.072	-0.031
-444.851	211.374	-0.186	0.291
-443.836	-143.489	-0.462	-0.044
-442.822	-72.552	-0.163	0.060
-441.807	800.000	-0.053	0.193
-440.792	-99.943	-0.189	0.047
-439.778	325.212	-0.081	0.153
-438.763	76.398	0.151	0.159
-437.749	4.217	0.265	-0.193
-436.734	800.000	0.072	-0.208
-435.719	433.509	0.088	0.189
-434.705	-103.788	-0.224	-0.052
-433.690	181.802	-0.084	-0.122
-432.676	-200.000	-0.000	-0.117
-431.661	-200.000	0.024	-0.240
-430.646	-139.018	-0.231	-0.025
-429.632	-104.556	-0.402	-0.092
-428.617	70.631	0.222	-0.228
-427.603	388.860	-0.075	0.154
-426.588	800.000	-0.058	-0.237
-425.573	-107.603	-0.260	-0.057
-424.559	-200.000	0.044	-0.249
-423.544	131.770	-0.195	0.249
-422.530	-23.068	-0.117	0.070
-421.515	800.000	0.103	0.296
-420.500	800.000	-0.084	-0.283
-419.486	-113.599	0.316	0.061
-418.471	-15.936	-0.118	0.074
-417.457	484.847	0.076	0.171
-416.442	-50.136	-0.243	0.114
-415.428	-26.600	0.126	-0.073
-414.413	84.934	0.134	0.146
-413.398	-102.010	-0.362	-0.087
-412.384	-200.000	-0.072	-0.000
-411.369	-200.000	0.043	-0.189
-410.355	394.826	-0.078	0.162
-409.340	-200.000	0.061	-0.386
-408.325	-135.639	-0.071	0.008
-407.311	-16.953	0.055	0.034
-406.296	595.686	0.043	0.106
-405.282	677.397	-0.090	-0.232
-404.267	-59.202	-0.190	0.081
-403.252	-200.000	0.042	-0.296
-402.238	-142.640	0.174	-0.017
-401.223	-200.000	0.002	0.150
-400.209	53.574	-0.183	0.175
-399.194	190.298	0.278	0.414
-398.179	800.000	0.039	0.118
-397.165	-55.632	0.302	0.134
-396.150	97.624	0.102	-0.116
-395.136	-29.247	0.180	-0.102
-394.121	-70.547	0.061	0.023
-393.106	-56.406	-0.390	-0.172
-392.092	800.000	-0.090	-0.280
-391.077	26.489	-0.179	-0.149
-390.063	-200.000	-0.057	-0.300
-389.048	-200.000	-0.011	0.256
-388.033	192.337	-0.121	0.181
-387.019	-200.000	-0.034	-0.155
-386.004	-200.000	-0.017	0.097
-384.990	228.273	-0.099	-0.159
-383.975	56.523	0.116	-0.112
-382.960	-146.185	-0.199	-0.017
-381.946	-15.335	0.205	-0.130
-380.931	-87.286	0.184	0.055
-379.917	125.871	-0.179	-0.224
-378.902	435.887	-0.158	0.341
-377.888	241.647	0.021	0.035
-376.873	800.000	0.099	0.271
-375.858	-37.591	0.107	0.057
-374.844	-59.077	-0.052	-0.022
-373.829	-200.000	-0.008	0.116
-372.815	-200.000	-0.001	0.094
-371.800	75.081	-0.079	-0.083
-370.785	79.791	0.185	-0.197
-369.771	124.400	0.241	-0.300
-368.756	-5.953	-0.161	0.109
-367.742	-89.872	0.195	-0.056
-366.727	-200.000	-0.048	0.359
-365.712	-146.985	0.272	-0.023
-364.698	-102.544	-0.120	-0.028
-363.683	213.703	0.082	0.128
-362.669	699.889	0.130	-0.340
-361.654	800.000	0.068	-0.188
-360.639	380.770	0.121	-0.245
-359.625	68.927	0.067	-0.068
-358.610	-2.275	-0.281	-0.195
-357.596	388.687	0.067	0.137
-356.581	120.647	-0.272	-0.334
-355.566	132.449	0.165	-0.210
-354.552	423.618	-0.077	0.163
-353.537	178.789	0.215	0.311
-352.523	533.208	-0.081	0.190
-351.508	436.599	-0.041	-0.089
-350.493	-132.819	0.288	0.036
-349.479	-56.803	0.186	0.081
-348.464	800.000	0.008	-0.035
-347.450	41.224	0.012	-0.010
-346.435	800.000	-0.013	0.057
-345.420	-23.120	-0.419	-0.250
-344.406	193.711	0.462	0.693
-343.391	4.681	0.247	0.180
-342.377	465.721	-0.116	-0.257
-341.362	800.000	0.159	-0.458
-340.348	800.000	0.047	0.172
-339.333	32.965	0.238	0.204
-338.318	-156.615	0.248	0.015
-337.304	40.357	0.022	-0.020
-336.289	140.863	-0.072	-0.094
-335.275	675.286	-0.108	0.277
-334.260	-148.574	-0.450	0.036
-333.245	348.516	0.079	-0.154
-332.231	-120.595	0.219	0.037
-331.216	483.984	-0.104	0.235
-330.202	800.000	0.158	-0.474
-329.187	-180.037	0.362	0.008
-328.172	-26.651	0.124	-0.072
-327.158	461.303	-0.132	-0.291
-326.143	-93.357	0.200	-0.055
-325.129	-200.000	0.021	0.268
-324.114	-36.944	0.010	-0.006
-323.099	-200.000	-0.016	-0.396
-322.085	-128.963	-0.130	0.018
-321.070	298.217	-0.189	0.343
-320.056	163.755	-0.061	0.084
-319.041	518.197	-0.050	-0.116
-318.026	-45.637	0.135	-0.066
-317.012	-64.229	0.132	-0.053
-315.997	516.358	0.117	0.271
-314.983	-125.447	-0.169	0.025
-313.968	295.320	0.207	-0.375
-312.953	-48.107	0.067	0.032
-311.939	118.220	-0.175	-0.213
-310.924	-103.025	0.084	0.020
-309.910	-200.000	0.035	-0.168
-308.895	800.000	0.042	-0.121
-307.880	-200.000	0.008	0.055
-306.866	235.023	0.209	-0.341
-305.851	581.174	0.132	-0.321
-304.837	-54.252	0.291	0.131
-303.822	210.325	0.059	-0.091
-302.807	98.484	0.090	-0.103
-301.793	185.878	-0.172	-0.253
-300.778	800.000	-0.035	0.126
-299.764	-112.414	0.257	0.051
-298.749	-200.000	0.021	0.097
-297.735	-153.776	0.353	-0.024
-296.720	-120.787	-0.094	-0.016
-295.705	375.735	0.074	0.149
-294.691	-166.837	0.531	-0.022
-293.676	657.441	0.099	0.252
-292.662	-72.103	-0.246	-0.090
-291.647	29.755	-0.194	0.163
-290.632	57.401	-0.266	0.256
-289.618	28.134	0.198	0.165
-288.603	-36.581	-0.265	-0.141
-287.589	-200.000	0.016	0.234
-286.574	14.534	-0.170	0.131
-285.559	-149.665	-0.369	0.029
-284.545	-200.000	0.034	0.195
-283.530	469.529	0.148	-0.327
-282.516	558.040	-0.085	-0.202
-281.501	800.000	0.065	0.210
-280.486	28.180	-0.094	0.078
-279.472	100.104	0.070	-0.080
-278.457	-124.033	0.234	0.036
-277.443	-43.536	-0.178	0.089
-276.428	-119.757	0.064	-0.011
-275.413	96.449	0.281	0.318
-274.399	87.653	-0.265	-0.290
-273.384	571.124	0.121	-0.292
-272.370	595.136	-0.127	0.311
-271.355	238.723	0.166	0.271
-270.340	800.000	0.101	0.419
-269.326	-61.323	0.330	-0.137
-268.311	-48.568	0.138	0.065
-267.297	7.458	0.134	0.099
-266.282	290.426	-0.183	0.327
-265.267	2.088	-0.147	-0.105
-264.253	-160.844	0.061	0.003
-263.238	-91.495	0.377	-0.106
-262.224	63.824	-0.048	0.047
-261.209	-143.134	0.127	-0.012
-260.195	-39.529	-0.349	0.180
-259.180	409.683	-0.074	-0.155
-258.165	185.065	0.082	-0.119
-257.151	478.191	0.201	0.449
-256.136	-75.628	-0.274	0.096
-255.122	413.059	0.253	0.531
-254.107	-38.904	0.089	-0.046
-253.092	174.563	-0.210	-0.300
-252.078	12.540	-0.102	-0.078
-251.063	57.753	0.190	0.183
-250.049	-148.627	0.355	0.029
-249.034	-102.392	-0.148	-0.035
-248.019	-66.317	-0.075	-0.030
-247.005	800.000	-0.016	-0.053
-245.990	800.000	0.086	-0.257
-244.976	-200.000	0.058	0.294
-243.961	-200.000	-0.017	-0.319
-242.946	-175.230	0.113	0.003
-241.932	-55.744	-0.123	-0.054
-240.917	100.723	0.140	-0.160
-239.903	-141.569	-0.421	0.042
-238.888	95.334	-0.117	0.131
-237.873	-161.042	0.203	-0.010
-236.859	-60.432	0.149	0.062
-235.844	154.378	0.103	0.139
-234.830	-91.738	0.279	-0.078
-233.815	-39.768	0.274	0.141
-232.800	-200.000	-0.026	-0.381
-231.786	-78.498	-0.307	-0.104
-230.771	-200.000	-0.014	-0.151
-229.757	-200.000	-0.084	0.373
-228.742	465.810	-0.047	-0.103
-227.727	-200.000	-0.056	0.376
-226.713	800.000	0.068	-0.197
-225.698	-81.147	0.160	0.052
-224.684	103.927	0.055	-0.064
-223.669	-136.108	0.133	-0.015
-222.655	125.454	0.171	0.213
-221.640	-126.677	0.158	-0.023
-220.625	127.639	0.149	-0.186
-219.611	-127.239	-0.144	0.021
-218.596	-99.799	0.130	-0.032
-217.582	800.000	-0.039	0.139
-216.567	-200.000	0.008	0.062
-215.552	-133.798	0.119	0.015
-214.538	-21.408	0.213	0.128
-213.523	-200.000	0.080	0.414
-212.509	84.524	0.094	-0.101
-211.494	384.092	-0.169	-0.343
-210.479	79.728	0.108	0.114
-209.465	88.408	0.110	0.120
-208.450	-200.000	-0.010	0.135
-207.436	-124.032	-0.137	0.021
-206.421	-200.000	-0.036	0.356
-205.406	-43.199	0.107	0.053
-204.392	-82.516	-0.131	-0.042
-203.377	111.498	-0.016	-0.019
-202.363	-121.060	-0.320	0.053
-201.348	-200.000	0.046	-0.262
-200.333	169.871	0.181	-0.254
-199.319	-200.000	0.007	-0.115
-198.304	-23.550	0.139	-0.082
-197.290	800.000	-0.063	0.195
-196.275	-200.000	0.003	-0.058
-195.260	-200.000	-0.041	0.283
-194.246	701.915	-0.062	-0.161
-193.231	-105.829	-0.148	-0.033
-192.217	189.949	-0.068	-0.101
-191.202	128.189	0.133	0.167
-190.187	7.096	0.052	-0.038
-189.173	800.000	0.084	0.338
-188.158	3.164	0.163	-0.116
-187.144	255.601	0.108	0.182
-186.129	-200.000	-0.024	-0.148
-185.114	-200.000	0.009	0.137
-184.100	71.662	-0.084	-0.086
-183.085	-200.000	0.029	-0.234
-182.071	-154.795	-0.240	-0.016
-181.056	201.668	-0.137	-0.207
-180.042	556.179	0.119	-0.283
-179.027	37.589	0.037	0.032
-178.012	-147.315	0.265	-0.022
-176.998	64.108	-0.253	-0.250
-175.983	800.000	-0.008	0.026
-174.969	-69.516	0.289	-0.109
-173.954	283.235	0.084	-0.148
-172.939	407.004	0.054	-0.112
-171.925	800.000	0.085	0.296
-170.910	800.000	0.043	-0.126
-169.896	62.150	0.137	-0.134
-168.881	-53.592	0.320	-0.144
-167.866	750.034	-0.086	-0.229
-166.852	-182.661	0.089	-0.002
-165.837	-139.652	-0.457	-0.048
-164.823	-102.343	0.220	0.052
-163.808	-74.353	0.342	-0.121
-162.793	-132.920	0.106	0.013
-161.779	1.859	0.162	-0.115
-160.764	295.535	-0.275	0.494
-159.750	30.709	-0.184	-0.155
-158.735	231.891	0.103	0.166
-157.720	-0.250	-0.208	0.145
-156.706	800.000	-0.079	0.247
-155.691	-52.046	-0.267	0.122
-154.677	133.671	-0.138	-0.175
-153.662	111.849	-0.211	0.250
-152.647	-191.615	0.101	-0.001
-151.633	-102.234	-0.307	0.072
-150.618	-132.031	0.387	0.049
-149.604	-96.036	-0.456	0.119
-148.589	-15.403	-0.042	0.026
-147.574	800.000	0.013	0.038
-146.560	252.639	0.092	-0.153
-145.545	-29.186	-0.181	-0.102
-144.531	36.939	-0.264	-0.230
-143.516	-200.000	0.018	-0.125
-142.502	800.000	0.057	0.163
-141.487	-200.000	-0.045	-0.271
-140.472	-35.499	-0.021	-0.011
-139.458	-25.173	0.227	0.132
-138.443	-51.557	-0.425	0.195
-137.429	-75.407	0.081	0.028
-136.414	-128.504	0.216	-0.030
-135.399	800.000	-0.095	0.297
-134.385	356.619	-0.134	0.263
-133.370	0.865	0.255	-0.179
-132.356	-200.000	-0.010	0.390
-131.341	-106.939	-0.094	-0.020
-130.326	-94.229	0.195	0.052
-129.312	-6.155	-0.157	0.105
-128.297	-200.000	-0.000	-0.036
-127.283	-38.810	0.120	-0.062
-126.268	-94.102	0.326	0.088
-125.253	82.105	0.082	-0.087
-124.239	-200.000	-0.012	0.070
-123.224	-63.370	-0.101	-0.041
-122.210	-103.973	0.257	0.059
-121.195	-87.245	-0.119	0.036
