DTS Sentinel unit serial number:	SN413079Multiplexer serial number:	ORYXHardware model number:	OX4-SRSoftware version number:	ORYX F/W v4.00 Oryx Data Collector v3.7.2.0data status	okinstallation	princeton_trtdifferential loss correction	single-endedforward channel	channel 2reverse channel	N/Adate	2019/09/14time	06:15:35forward acquisition time	60.00reverse acquisition time	0.00gamma	496.2192k internal	0.2336k external	0.2336temperature offset calibration	1.0133default loss term (dB/km)	0.3790temperature slope calibration	1.0000multiplexer offset coefficient	1.0000multiplexer slope coefficient	1.0000fibre end	0.00T internal ref (°C)	26.67T ext. ref 1 (°C)	3.41T ext. ref 2 (°C)	20.73length (m)	temperature (°C)	Stokes	anti-Stokes-747.200	-200.000	-0.022	0.130
-746.185	260.264	-0.081	0.140
-745.171	-40.203	0.142	0.074
-744.156	-42.281	0.190	0.097
-743.142	-134.988	0.146	0.018
-742.127	-200.000	0.078	0.371
-741.112	800.000	-0.081	0.263
-740.098	-38.226	-0.274	0.146
-739.083	376.609	0.135	0.276
-738.069	89.808	-0.261	0.292
-737.054	-161.487	-0.171	0.009
-736.039	-170.374	-0.460	0.016
-735.025	-15.073	-0.323	0.208
-734.010	10.648	-0.076	-0.058
-732.996	-200.000	-0.035	0.177
-731.981	-11.081	-0.157	0.104
-730.966	-40.915	-0.151	0.079
-729.952	-149.290	0.139	0.011
-728.937	-118.853	0.131	0.023
-727.923	-200.000	0.001	-0.154
-726.908	255.077	0.091	0.157
-725.894	477.081	0.070	-0.159
-724.879	-144.018	-0.274	0.026
-723.864	-200.000	-0.001	-0.018
-722.850	-61.398	-0.119	0.050
-721.835	800.000	0.066	-0.277
-720.821	-185.925	0.094	0.001
-719.806	-200.000	-0.007	-0.153
-718.791	481.610	-0.050	-0.114
-717.777	-127.664	-0.120	0.017
-716.762	217.016	-0.080	0.127
-715.748	-147.569	-0.180	-0.015
-714.733	-83.875	0.264	-0.084
-713.718	81.753	-0.325	0.353
-712.704	-11.091	-0.159	0.105
-711.689	46.815	-0.150	-0.140
-710.675	-200.000	-0.018	-0.141
-709.660	800.000	-0.092	-0.330
-708.645	-200.000	0.024	-0.174
-707.631	-158.371	-0.125	0.007
-706.616	-77.704	-0.102	-0.035
-705.602	178.747	-0.077	-0.113
-704.587	-23.645	0.211	0.127
-703.572	-135.016	-0.248	0.030
-702.558	-51.687	-0.150	0.070
-701.543	-200.000	-0.029	-0.182
-700.529	-200.000	-0.044	0.240
-699.514	800.000	0.036	-0.120
-698.499	425.076	0.045	-0.098
-697.485	564.568	-0.080	-0.195
-696.470	-31.964	-0.326	0.183
-695.456	-171.206	0.131	-0.004
-694.441	-200.000	-0.023	-0.408
-693.426	404.120	0.219	-0.461
-692.412	-39.470	0.229	0.120
-691.397	-24.179	-0.157	-0.094
-690.383	30.520	0.210	0.180
-689.368	504.688	-0.152	0.352
-688.354	-13.045	-0.024	0.016
-687.339	-78.239	0.264	-0.091
-686.324	66.016	0.040	-0.041
-685.310	-39.848	0.195	-0.102
-684.295	32.921	-0.283	-0.245
-683.281	-19.884	0.106	0.065
-682.266	-37.206	-0.383	-0.205
-681.251	800.000	-0.057	-0.170
-680.237	-13.598	-0.350	-0.227
-679.222	-137.028	-0.157	0.018
-678.208	44.852	0.161	0.148
-677.193	256.964	0.121	-0.209
-676.178	-32.111	-0.260	-0.145
-675.164	113.012	0.035	-0.042
-674.149	71.513	-0.065	0.068
-673.135	-200.000	0.000	-0.074
-672.120	-200.000	0.037	0.216
-671.105	56.544	-0.204	-0.199
-670.091	-21.705	-0.184	-0.112
-669.076	-200.000	-0.059	0.330
-668.062	-200.000	0.017	0.118
-667.047	203.049	0.126	-0.195
-666.032	133.056	0.204	-0.264
-665.018	4.492	-0.165	-0.121
-664.003	800.000	-0.051	-0.159
-662.989	-69.208	0.049	0.019
-661.974	-180.656	-0.451	0.009
-660.959	528.658	-0.005	0.011
-659.945	-148.442	0.399	-0.033
-658.930	-48.677	-0.213	0.102
-657.916	55.366	-0.324	0.314
-656.901	-101.411	-0.165	-0.040
-655.886	207.834	0.241	-0.376
-654.872	233.605	0.022	-0.036
-653.857	16.240	-0.150	0.119
-652.843	450.993	0.060	-0.133
-651.828	34.001	0.039	0.034
-650.814	104.606	-0.120	-0.141
-649.799	-146.437	0.279	0.024
-648.784	44.456	-0.283	-0.260
-647.770	-200.000	-0.001	0.031
-646.755	-135.139	-0.127	-0.015
-645.741	-47.260	-0.272	-0.132
-644.726	-200.000	-0.040	-0.291
-643.711	-65.349	-0.325	0.131
-642.697	105.255	-0.106	0.125
-641.682	149.828	-0.193	0.261
-640.668	15.794	-0.061	-0.048
-639.653	-200.000	0.012	-0.221
-638.638	31.980	0.101	-0.087
-637.624	12.209	0.073	-0.056
-636.609	-200.000	0.029	0.172
-635.595	-50.568	-0.103	-0.049
-634.580	-200.000	0.011	0.270
-633.565	-125.951	-0.419	0.063
-632.551	24.522	0.080	0.066
-631.536	-200.000	-0.032	-0.211
-630.522	412.555	-0.062	0.132
-629.507	276.915	-0.123	-0.219
-628.492	248.717	-0.120	-0.203
-627.478	-45.748	-0.134	-0.066
-626.463	-26.510	0.081	-0.048
-625.449	-125.572	-0.219	0.033
-624.434	135.409	-0.166	-0.215
-623.419	-128.503	0.098	0.014
-622.405	-98.578	-0.225	-0.058
-621.390	-200.000	-0.001	-0.077
-620.376	-136.380	0.205	-0.024
-619.361	415.293	0.014	-0.030
-618.346	-133.481	-0.266	-0.033
-617.332	604.991	-0.077	-0.191
-616.317	-50.247	-0.171	0.081
-615.303	-29.118	0.398	0.228
-614.288	-76.970	-0.029	0.010
-613.273	800.000	0.120	0.353
-612.259	264.296	-0.092	0.161
-611.244	98.297	-0.327	0.376
-610.230	-177.445	0.158	0.004
-609.215	-194.373	-0.140	-0.001
-608.201	57.937	-0.063	0.061
-607.186	-57.282	0.233	-0.103
-606.171	64.646	0.151	-0.152
-605.157	-200.000	-0.041	0.212
-604.142	143.758	-0.120	-0.159
-603.128	800.000	0.071	-0.207
-602.113	-78.972	-0.299	0.102
-601.098	-34.754	0.194	0.106
-600.084	-22.629	0.341	-0.206
-599.069	-108.926	0.174	0.037
-598.055	-200.000	-0.030	-0.319
-597.040	-196.822	-0.145	0.001
-596.025	569.051	-0.049	-0.119
-595.011	68.762	0.284	-0.291
-593.996	800.000	0.027	0.093
-592.982	800.000	-0.076	0.280
-591.967	204.214	-0.144	0.223
-590.952	-119.416	0.130	-0.022
-589.938	20.659	-0.339	-0.274
-588.923	698.537	0.148	0.388
-587.909	-12.747	-0.215	-0.140
-586.894	-200.000	0.106	0.505
-585.879	62.107	-0.118	-0.118
-584.865	385.144	-0.074	-0.153
-583.850	260.261	-0.050	0.086
-582.836	800.000	0.054	0.179
-581.821	-200.000	0.001	0.191
-580.806	-65.864	-0.142	0.057
-579.792	-200.000	-0.047	-0.241
-578.777	-22.699	0.157	0.095
-577.763	-40.345	-0.261	0.135
-576.748	6.605	0.345	0.256
-575.733	-116.715	0.298	-0.055
-574.719	-131.523	-0.184	-0.024
-573.704	-200.000	0.042	0.298
-572.690	68.688	-0.112	-0.114
-571.675	-187.713	0.115	0.002
-570.661	-135.950	-0.358	-0.042
-569.646	800.000	-0.102	-0.289
-568.631	-200.000	0.006	-0.168
-567.617	-35.281	-0.129	-0.070
-566.602	157.528	0.041	0.056
-565.588	21.296	0.157	0.127
-564.573	-139.968	0.195	0.021
-563.558	-200.000	-0.178	0.000
-562.544	24.980	0.168	0.139
-561.529	238.613	-0.032	-0.052
-560.515	800.000	0.090	-0.313
-559.500	-170.003	-0.312	-0.011
-558.485	133.621	-0.085	0.110
-557.471	-200.000	0.018	0.139
-556.456	800.000	0.053	0.205
-555.442	321.543	0.191	0.362
-554.427	323.995	0.053	0.101
-553.412	-161.253	0.101	0.005
-552.398	-200.000	0.054	-0.391
-551.383	38.887	0.450	0.401
-550.369	-200.000	0.082	-0.396
-549.354	530.943	-0.052	0.123
-548.339	749.586	0.051	-0.136
-547.325	800.000	-0.068	-0.214
-546.310	-24.760	-0.224	-0.133
-545.296	9.703	0.371	-0.281
-544.281	-85.621	0.151	-0.047
-543.266	-200.000	0.009	0.351
-542.252	-66.187	0.244	0.097
-541.237	115.046	0.114	-0.138
-540.223	130.931	0.309	-0.395
-539.208	107.953	-0.201	-0.238
-538.193	-200.000	0.021	-0.094
-537.179	424.392	0.254	-0.545
-536.164	-200.000	-0.034	-0.194
-535.150	155.185	0.135	-0.185
-534.135	-200.000	-0.003	-0.358
-533.121	-200.000	0.100	-0.468
-532.106	-91.297	0.035	0.010
-531.091	-30.204	0.124	-0.070
-530.077	-104.662	0.292	-0.067
-529.062	159.795	0.158	-0.219
-528.048	-134.069	-0.316	-0.039
-527.033	-200.000	0.008	0.076
-526.018	141.398	-0.214	-0.282
-525.004	-200.000	-0.011	0.180
-523.989	-200.000	-0.012	-0.082
-522.975	44.352	0.057	0.052
-521.960	-200.000	-0.004	0.189
-520.945	-91.949	-0.188	-0.053
-519.931	-200.000	0.010	-0.414
-518.916	-182.331	-0.090	0.002
-517.902	800.000	-0.058	-0.175
-516.887	-138.747	-0.243	0.026
-515.872	-200.000	-0.010	-0.136
-514.858	11.588	-0.106	0.081
-513.843	-76.427	0.396	-0.139
-512.829	-200.000	-0.002	0.291
-511.814	-21.756	0.212	0.129
-510.799	-93.032	-0.215	0.059
-509.785	-200.000	0.017	0.406
-508.770	-88.565	0.130	-0.039
-507.756	-68.090	0.073	-0.028
-506.741	-200.000	-0.022	-0.258
-505.726	187.821	0.068	-0.101
-504.712	-62.297	-0.413	-0.171
-503.697	800.000	-0.058	0.197
-502.683	12.385	-0.262	-0.201
-501.668	42.058	-0.210	-0.189
-500.653	-94.164	-0.075	0.020
-499.639	-179.717	-0.189	0.004
-498.624	157.414	0.048	-0.066
-497.610	69.881	-0.194	0.199
-496.595	225.796	-0.232	0.374
-495.581	-200.000	0.020	-0.125
-494.566	800.000	0.029	0.127
-493.551	-115.045	0.046	-0.009
-492.537	800.000	0.058	0.196
-491.522	-52.891	0.118	0.054
-490.508	-154.714	0.049	-0.003
-489.493	-72.623	-0.251	-0.092
-488.478	-64.648	0.354	-0.143
-487.464	-200.000	0.025	0.331
-486.449	-44.607	-0.230	0.114
-485.435	-200.000	0.023	-0.266
-484.420	-65.362	0.363	0.145
-483.405	-106.828	0.115	0.025
-482.391	-2.654	-0.306	0.213
-481.376	-90.731	0.207	0.059
-480.362	-200.000	-0.047	0.240
-479.347	-197.290	-0.179	-0.001
-478.332	800.000	-0.026	-0.080
-477.318	-50.766	-0.290	-0.135
-476.303	202.761	-0.053	-0.081
-475.289	800.000	0.095	0.364
-474.274	-200.000	0.014	0.322
-473.259	311.336	0.086	0.161
-472.245	-94.712	-0.162	-0.044
-471.230	-151.284	-0.111	-0.008
-470.216	516.602	-0.025	-0.057
-469.201	-70.679	-0.054	-0.020
-468.186	-60.277	-0.035	-0.015
-467.172	-200.000	-0.005	0.085
-466.157	135.066	0.262	-0.338
-465.143	-95.221	0.207	0.056
-464.128	121.158	0.225	-0.279
-463.113	-200.000	0.039	-0.472
-462.099	-200.000	-0.004	0.065
-461.084	165.432	0.107	0.151
-460.070	43.039	0.151	-0.136
-459.055	-15.554	0.257	-0.163
-458.040	-78.316	0.173	0.059
-457.026	167.528	-0.221	0.311
-456.011	-200.000	-0.033	0.181
-454.997	-200.000	-0.011	-0.114
-453.982	-122.734	-0.125	-0.020
-452.968	-77.880	-0.211	-0.072
-451.953	-108.955	-0.234	-0.050
-450.938	-200.000	-0.039	-0.189
-449.924	239.391	-0.115	0.189
-448.909	800.000	0.044	-0.122
-447.895	5.433	0.288	0.211
-446.880	-27.573	-0.117	-0.068
-445.865	12.894	0.244	-0.187
-444.851	18.764	-0.166	-0.132
-443.836	-200.000	0.085	-0.404
-442.822	286.324	-0.160	0.287
-441.807	-23.065	0.237	0.142
-440.792	-81.950	0.127	0.041
-439.778	8.454	0.131	0.097
-438.763	-9.055	0.018	0.012
-437.749	800.000	-0.064	0.267
-436.734	316.268	-0.103	0.194
-435.719	-3.480	0.066	-0.045
-434.705	747.369	-0.064	0.170
-433.690	800.000	-0.077	0.226
-432.676	-200.000	-0.062	0.445
-431.661	-113.045	-0.099	0.019
-430.646	710.454	0.031	0.082
-429.632	149.436	-0.162	0.218
-428.617	-25.704	0.216	0.126
-427.603	-200.000	-0.002	0.137
-426.588	800.000	0.089	0.278
-425.573	-200.000	0.041	0.414
-424.559	-89.739	0.413	-0.120
-423.544	-71.991	-0.233	-0.086
-422.530	-45.790	0.103	-0.050
-421.515	-92.611	-0.013	0.004
-420.500	24.335	-0.196	-0.160
-419.486	-200.000	0.028	-0.235
-418.471	-114.660	-0.236	0.045
-417.457	348.876	0.058	-0.113
-416.442	695.784	-0.075	-0.196
-415.428	18.221	0.183	0.144
-414.413	-37.792	-0.068	-0.036
-413.398	283.293	-0.059	0.106
-412.384	31.922	-0.314	-0.268
-411.369	800.000	-0.007	0.026
-410.355	-102.804	-0.118	0.028
-409.340	69.479	0.184	-0.188
-408.325	274.733	-0.173	0.304
-407.311	-200.000	-0.011	-0.441
-406.296	-200.000	0.013	-0.364
-405.282	-199.242	0.202	0.001
-404.267	-102.455	0.499	-0.118
-403.252	-200.000	0.037	-0.270
-402.238	157.555	0.091	0.125
-401.223	235.973	-0.087	0.142
-400.209	-70.925	0.172	-0.064
-399.194	-87.995	0.444	-0.132
-398.179	-200.000	0.023	-0.271
-397.165	-107.194	0.076	0.016
-396.150	-200.000	-0.034	0.445
-395.136	-124.382	-0.200	-0.031
-394.121	115.338	-0.195	-0.236
-393.106	260.701	-0.040	-0.068
-392.092	90.736	0.282	-0.313
-391.077	-200.000	0.027	0.224
-390.063	-50.556	-0.184	0.086
-389.048	202.905	0.094	-0.144
-388.033	99.217	0.172	-0.197
-387.019	-52.126	0.214	-0.098
-386.004	-112.662	-0.280	-0.055
-384.990	99.037	0.096	0.109
-383.975	-102.818	-0.454	-0.107
-382.960	-200.000	0.021	0.253
-381.946	78.177	-0.130	-0.138
-380.931	45.615	-0.131	-0.120
-379.917	-17.385	0.086	0.054
-378.902	800.000	0.079	0.256
-377.888	11.571	-0.051	-0.039
-376.873	-200.000	-0.022	-0.118
-375.858	800.000	-0.148	0.432
-374.844	225.377	0.079	0.126
-373.829	-63.116	0.235	-0.096
-372.815	94.741	0.204	-0.229
-371.800	-57.437	-0.293	-0.127
-370.785	-200.000	-0.050	0.224
-369.771	604.797	0.120	-0.296
-368.756	535.655	-0.051	0.119
-367.742	-200.000	0.004	0.106
-366.727	66.591	0.089	0.090
-365.712	-144.870	-0.089	0.008
-364.698	-200.000	-0.013	-0.136
-363.683	78.037	-0.112	0.118
-362.669	88.185	0.207	0.228
-361.654	228.112	-0.171	-0.276
-360.639	276.605	-0.099	-0.173
-359.625	-70.311	0.153	0.057
-358.610	800.000	-0.092	-0.272
-357.596	291.134	-0.048	-0.086
-356.581	-74.769	-0.149	-0.053
-355.566	-128.701	-0.411	-0.057
-354.552	-44.825	0.268	-0.132
-353.537	75.162	-0.229	0.238
-352.523	-11.891	0.153	0.099
-351.508	157.650	0.218	0.298
-350.493	-69.081	0.176	0.067
-349.479	-200.000	0.042	0.396
-348.464	13.881	-0.184	0.141
-347.450	-75.084	0.067	-0.024
-346.435	-200.000	0.015	-0.235
-345.420	800.000	-0.007	0.029
-344.406	-29.279	0.106	-0.060
-343.391	-105.230	0.385	-0.087
-342.377	74.973	-0.232	0.242
-341.362	-38.512	0.161	-0.084
-340.348	-151.719	-0.413	-0.030
-339.333	-63.470	-0.119	-0.048
-338.318	213.946	0.131	0.204
-337.304	132.490	-0.083	0.106
-336.289	177.060	-0.085	-0.123
-335.275	-102.355	0.125	-0.030
-334.260	-142.288	0.185	-0.018
-333.245	247.249	0.147	0.245
-332.231	-200.000	-0.054	0.310
-331.216	180.448	-0.160	-0.233
-330.202	-85.339	0.073	-0.023
-329.187	7.749	-0.176	0.131
-328.172	-81.683	0.114	-0.037
-327.158	60.917	0.160	-0.157
-326.143	648.921	0.137	0.347
-325.129	785.155	-0.126	-0.340
-324.114	-147.353	-0.357	-0.030
-323.099	619.398	0.106	-0.264
-322.085	-200.000	-0.046	-0.256
-321.070	48.559	-0.098	-0.091
-320.056	138.466	-0.134	-0.174
-319.041	2.034	0.125	-0.089
-318.026	122.144	0.183	-0.225
-317.012	35.909	0.090	0.078
-315.997	-22.518	-0.196	-0.117
-314.983	645.319	-0.066	0.167
-313.968	-1.557	0.038	0.027
-312.953	112.460	0.150	-0.179
-311.939	-200.000	-0.015	0.091
-310.924	31.388	0.090	0.077
-309.910	800.000	-0.106	0.313
-308.895	110.813	-0.124	-0.147
-307.880	-149.086	0.182	0.014
-306.866	-99.231	0.273	0.068
-305.851	-200.000	0.021	0.139
-304.837	-130.209	-0.055	-0.007
-303.822	-200.000	-0.052	-0.233
-302.807	-10.364	0.206	0.135
-301.793	114.823	-0.164	0.197
-300.778	683.002	0.050	0.128
-299.764	-90.007	0.146	-0.042
-298.749	67.345	0.180	0.182
-297.735	434.701	0.288	0.618
-296.720	-141.431	0.199	0.020
-295.705	45.205	0.086	0.078
-294.691	-24.345	0.312	-0.184
-293.676	-200.000	0.048	0.211
-292.662	43.391	-0.088	-0.079
-291.647	26.396	-0.144	-0.118
-290.632	800.000	-0.074	0.269
-289.618	361.737	0.110	-0.217
-288.603	-5.180	-0.210	-0.143
-287.589	76.542	0.099	-0.103
-286.574	297.925	-0.043	0.078
-285.559	218.716	-0.159	0.251
-284.545	-40.055	-0.152	0.078
-283.530	-148.271	0.234	0.019
-282.516	189.543	-0.251	-0.371
-281.501	57.485	-0.172	0.165
-280.486	800.000	-0.074	-0.250
-279.472	800.000	-0.196	-0.539
-278.457	-200.000	0.038	0.364
-277.443	17.068	0.242	-0.189
-276.428	-59.985	0.171	-0.072
-275.413	83.314	0.107	-0.115
-274.399	800.000	0.092	0.326
-273.384	-40.845	0.355	0.181
-272.370	217.857	0.172	0.270
-271.355	-200.000	0.010	-0.142
-270.340	-4.787	-0.153	0.104
-269.326	138.125	-0.107	-0.138
-268.311	-200.000	-0.040	-0.305
-267.297	140.501	-0.043	0.055
-266.282	-200.000	-0.040	-0.188
-265.267	91.817	-0.083	0.092
-264.253	713.939	-0.064	0.167
-263.238	-5.205	0.048	-0.032
-262.224	-129.569	0.161	-0.022
-261.209	-124.849	-0.496	0.075
-260.195	-28.074	0.066	0.038
-259.180	13.850	0.270	0.207
-258.165	314.762	-0.032	-0.060
-257.151	190.349	-0.063	-0.093
-256.136	-30.265	-0.060	-0.034
-255.122	573.211	0.104	0.249
-254.107	-62.449	-0.124	-0.051
-253.092	131.687	0.080	0.101
-252.078	160.522	0.107	-0.147
-251.063	-146.834	0.046	0.004
-250.049	519.386	0.133	0.306
-249.034	139.338	0.253	-0.328
-248.019	800.000	0.076	-0.260
-247.005	30.097	0.255	0.214
-245.990	800.000	-0.036	0.109
-244.976	-11.857	0.149	-0.096
-243.961	-125.591	-0.457	-0.068
-242.946	77.497	-0.193	-0.202
-241.932	-82.950	-0.325	0.103
-240.917	472.429	0.051	0.114
-239.903	456.506	-0.090	0.197
-238.888	87.313	-0.217	-0.237
-237.873	698.134	-0.048	0.123
-236.859	-36.247	-0.167	-0.089
-235.844	-180.342	0.322	-0.007
-234.830	86.073	-0.158	-0.172
-233.815	500.774	-0.101	0.230
-232.800	-46.449	0.128	0.062
-231.786	143.030	0.197	0.258
-230.771	217.160	0.098	0.154
-229.757	-200.000	-0.023	-0.187
-228.742	-131.074	-0.243	-0.032
-227.727	-89.362	-0.323	0.094
-226.713	5.941	-0.078	0.057
-225.698	41.553	-0.079	0.071
-224.684	63.033	0.316	0.311
-223.669	-25.194	0.014	0.008
-222.655	-62.715	0.262	0.107
-221.640	-3.738	0.146	-0.100
-220.625	800.000	0.050	-0.202
-219.611	264.489	0.089	-0.153
-218.596	52.891	-0.127	-0.120
-217.582	-200.000	-0.023	-0.195
-216.567	-200.000	0.020	-0.214
-215.552	-41.416	0.220	-0.112
-214.538	-126.642	0.291	-0.042
-213.523	144.916	0.205	-0.270
-212.509	-27.036	-0.089	0.051
-211.494	-61.384	0.108	0.045
-210.479	-200.000	0.003	-0.050
-209.465	-193.953	-0.228	-0.002
-208.450	225.681	-0.097	0.154
-207.436	800.000	0.061	-0.236
-206.421	-118.519	0.209	-0.036
-205.406	-200.000	-0.007	-0.129
-204.392	141.039	0.104	-0.136
-203.377	-77.709	-0.050	-0.017
-202.363	-200.000	0.009	-0.262
-201.348	-200.000	0.030	0.136
-200.333	-29.137	-0.188	0.106
-199.319	800.000	0.043	0.141
-198.304	-116.545	-0.206	0.037
-197.290	-200.000	-0.005	-0.156
-196.275	579.214	-0.075	-0.181
-195.260	62.490	-0.028	0.028
-194.246	75.731	0.142	0.147
-193.231	126.411	-0.211	0.262
-192.217	137.917	0.192	-0.247
-191.202	800.000	-0.079	-0.331
-190.187	-35.949	0.169	0.090
-189.173	-163.833	0.182	0.008
-188.158	531.504	-0.135	0.313
-187.144	56.688	0.097	0.093
-186.129	-181.584	-0.045	-0.001
-185.114	13.431	-0.209	-0.159
-184.100	-43.974	0.142	-0.070
-183.085	-200.000	0.043	0.217
-182.071	40.131	-0.144	0.127
-181.056	202.110	-0.185	-0.280
-180.042	-85.212	0.107	0.033
-179.027	571.276	-0.053	-0.128
-178.012	322.271	-0.065	-0.122
-176.998	-200.000	-0.050	-0.423
-175.983	6.456	-0.385	-0.281
-174.969	-108.861	0.236	-0.049
-173.954	-200.000	0.053	0.574
-172.939	85.717	-0.081	0.088
-171.925	132.962	-0.068	0.087
-170.910	604.868	0.161	0.394
-169.896	-200.000	-0.116	-0.597
-168.881	165.324	0.318	0.441
-167.866	-166.965	-0.193	0.008
-166.852	19.293	0.111	-0.088
-165.837	-100.620	-0.133	-0.032
-164.823	-200.000	0.009	0.494
-163.808	161.674	0.074	0.102
-162.793	-129.145	-0.353	-0.048
-161.779	-200.000	0.014	0.354
-160.764	800.000	0.093	0.286
-159.750	-200.000	0.008	-0.104
-158.735	-62.470	-0.375	0.153
-157.720	-200.000	-0.006	0.367
-156.706	-59.673	0.216	-0.091
-155.691	62.126	-0.107	0.105
-154.677	-200.000	0.038	0.196
-153.662	322.976	0.027	-0.051
-152.647	194.441	0.214	0.318
-151.633	-79.350	-0.129	0.043
-150.618	-200.000	-0.029	-0.143
-149.604	-132.447	-0.065	-0.008
-148.589	228.859	-0.114	-0.183
-147.574	160.046	-0.234	0.320
-146.560	-26.638	0.218	0.125
-145.545	-200.000	0.035	-0.159
-144.531	-0.275	-0.080	0.056
-143.516	800.000	-0.090	0.357
-142.502	-108.020	-0.604	0.128
-141.487	-11.534	0.345	0.222
-140.472	210.514	-0.140	0.216
-139.458	-69.441	-0.066	-0.025
-138.443	484.964	0.129	0.289
-137.429	-98.757	0.256	-0.064
-136.414	97.266	0.272	-0.307
-135.399	-200.000	0.023	-0.202
-134.385	83.801	-0.167	0.178
-133.370	-69.373	-0.084	-0.032
-132.356	243.126	-0.098	0.161
-131.341	-200.000	-0.001	-0.021
-130.326	77.560	0.175	0.182
-129.312	-200.000	0.057	0.292
-128.297	800.000	0.084	-0.319
-127.283	126.898	-0.086	-0.107
-126.268	148.109	-0.137	0.181
-125.253	462.340	-0.164	-0.360
-124.239	711.928	-0.055	0.143
-123.224	307.044	-0.122	0.222
-122.210	800.000	-0.039	-0.152
