DTS Sentinel unit serial number:	SN413079Multiplexer serial number:	ORYXHardware model number:	OX4-SRSoftware version number:	ORYX F/W v4.00 Oryx Data Collector v3.7.2.0data status	okinstallation	princeton_trtdifferential loss correction	single-endedforward channel	channel 2reverse channel	N/Adate	2019/09/15time	15:43:34forward acquisition time	60.00reverse acquisition time	0.00gamma	496.2192k internal	0.2290k external	0.2290temperature offset calibration	0.9952default loss term (dB/km)	0.3790temperature slope calibration	1.0000multiplexer offset coefficient	1.0000multiplexer slope coefficient	1.0000fibre end	0.00T internal ref (°C)	41.80T ext. ref 1 (°C)	5.18T ext. ref 2 (°C)	40.42length (m)	temperature (°C)	Stokes	anti-Stokes-747.200	-200.000	-0.038	0.238
-746.185	-200.000	-0.009	0.197
-745.171	18.692	0.073	-0.060
-744.156	-100.109	0.319	0.081
-743.142	-53.861	0.224	-0.105
-742.127	31.829	0.263	0.232
-741.112	-95.420	-0.225	0.062
-740.098	85.007	0.178	0.200
-739.083	363.668	-0.146	0.301
-738.069	398.431	0.161	0.344
-737.054	333.755	0.094	0.186
-736.039	-200.000	-0.020	0.125
-735.025	194.104	-0.112	0.174
-734.010	-20.101	-0.087	-0.055
-732.996	349.969	-0.141	-0.284
-731.981	709.783	-0.084	0.227
-730.966	-200.000	0.016	-0.254
-729.952	-152.277	-0.360	-0.027
-728.937	-38.861	-0.241	-0.130
-727.923	-155.167	-0.316	-0.021
-726.908	-7.170	-0.283	0.197
-725.894	-29.847	0.118	0.069
-724.879	534.962	0.018	0.045
-723.864	211.303	0.045	0.073
-722.850	601.675	0.146	-0.372
-721.835	800.000	0.058	0.187
-720.821	107.868	-0.173	-0.211
-719.806	249.078	0.133	-0.230
-718.791	549.937	-0.045	-0.110
-717.777	800.000	-0.052	-0.203
-716.762	-99.748	-0.166	-0.043
-715.748	800.000	0.014	-0.060
-714.733	-200.000	-0.056	-0.294
-713.718	-145.192	0.263	0.024
-712.704	-200.000	0.002	0.152
-711.689	159.236	0.056	-0.079
-710.675	215.357	-0.098	-0.158
-709.660	-52.200	-0.415	-0.197
-708.645	-86.523	-0.228	-0.071
-707.631	313.517	0.117	-0.225
-706.616	38.737	-0.020	-0.019
-705.602	-57.748	0.102	-0.046
-704.587	136.638	0.131	0.175
-703.572	-60.057	-0.225	-0.098
-702.558	-146.134	-0.163	-0.015
-701.543	445.745	0.136	0.305
-700.529	319.312	-0.183	-0.354
-699.514	-121.344	-0.377	-0.064
-698.499	548.578	0.106	0.259
-697.485	800.000	-0.103	0.349
-696.470	330.302	-0.042	-0.083
-695.456	187.608	0.115	0.175
-694.441	510.953	0.063	0.149
-693.426	117.011	0.060	-0.075
-692.412	-119.990	0.129	-0.023
-691.397	167.785	-0.125	-0.182
-690.383	-200.000	0.018	-0.105
-689.368	319.665	0.116	0.226
-688.354	426.235	-0.101	0.223
-687.339	363.697	0.031	0.063
-686.324	-115.948	-0.461	-0.088
-685.310	-59.800	0.159	-0.070
-684.295	-81.167	-0.342	-0.115
-683.281	166.579	0.189	0.274
-682.266	-134.881	-0.205	-0.025
-681.251	-24.045	-0.149	0.091
-680.237	453.119	0.146	-0.329
-679.222	-144.890	0.246	0.023
-678.208	40.314	-0.344	0.316
-677.193	49.462	-0.211	-0.203
-676.178	-200.000	0.016	-0.093
-675.164	231.726	0.003	-0.005
-674.149	19.233	-0.166	-0.136
-673.135	10.052	-0.104	-0.081
-672.120	3.215	0.149	-0.111
-671.105	212.679	-0.243	-0.392
-670.091	106.297	-0.243	-0.294
-669.076	-12.534	-0.047	0.031
-668.062	800.000	-0.017	-0.067
-667.047	-34.412	-0.436	0.244
-666.032	800.000	-0.115	-0.424
-665.018	-100.124	-0.168	-0.043
-664.003	800.000	-0.098	-0.281
-662.989	-139.224	-0.132	-0.014
-661.974	800.000	0.062	0.191
-660.959	-58.344	-0.204	-0.091
-659.945	-200.000	0.000	-0.129
-658.930	172.311	-0.083	-0.121
-657.916	-63.566	-0.330	0.138
-656.901	105.699	0.061	0.073
-655.886	587.879	-0.142	-0.356
-654.872	-68.004	-0.119	0.047
-653.857	121.693	-0.089	0.113
-652.843	800.000	0.038	0.155
-651.828	800.000	-0.046	0.161
-650.814	-119.766	-0.333	-0.059
-649.799	800.000	0.074	0.293
-648.784	-31.870	-0.274	-0.157
-647.770	-10.280	-0.239	-0.162
-646.755	-200.000	-0.037	-0.369
-645.741	399.210	-0.093	-0.198
-644.726	174.072	0.177	0.261
-643.711	23.247	-0.105	0.088
-642.697	70.500	-0.130	-0.137
-641.682	444.943	0.027	0.059
-640.668	-1.432	-0.039	-0.028
-639.653	-109.532	0.084	-0.018
-638.638	-200.000	0.021	-0.145
-637.624	9.313	-0.077	-0.059
-636.609	-3.571	0.202	0.143
-635.595	-137.566	-0.177	-0.020
-634.580	222.466	0.204	-0.336
-633.565	-188.221	-0.125	0.002
-632.551	487.831	-0.127	-0.296
-631.536	-36.358	-0.050	0.028
-630.522	-68.309	0.101	0.040
-629.507	-42.628	-0.270	0.140
-628.492	634.706	0.053	0.137
-627.478	-200.000	0.036	-0.172
-626.463	326.129	0.029	-0.056
-625.449	-38.259	0.278	0.150
-624.434	25.085	0.194	-0.164
-623.419	-200.000	-0.049	-0.320
-622.405	13.811	-0.329	-0.261
-621.390	512.922	-0.120	0.285
-620.376	800.000	-0.018	0.064
-619.361	-200.000	-0.039	-0.258
-618.346	308.168	0.112	0.212
-617.332	120.409	-0.109	-0.138
-616.317	-200.000	0.007	-0.106
-615.303	-200.000	-0.009	0.099
-614.288	-47.181	0.136	0.067
-613.273	-46.639	0.220	-0.110
-612.259	246.632	0.072	-0.124
-611.244	1.281	0.094	-0.069
-610.230	-46.007	-0.129	0.065
-609.215	28.901	-0.077	-0.067
-608.201	708.140	0.082	0.221
-607.186	35.331	-0.159	-0.142
-606.171	-80.088	-0.111	0.038
-605.157	800.000	-0.039	0.133
-604.142	34.988	0.179	0.159
-603.128	-78.718	0.194	0.067
-602.113	-141.565	-0.262	-0.027
-601.098	138.042	-0.170	0.227
-600.084	27.399	-0.151	-0.130
-599.069	-61.782	-0.298	-0.127
-598.055	-41.524	0.093	-0.049
-597.040	166.606	-0.100	-0.145
-596.025	-110.313	-0.254	-0.054
-595.011	-1.819	-0.207	0.149
-593.996	-75.515	-0.045	0.016
-592.982	113.268	0.146	-0.181
-591.967	309.252	-0.137	-0.260
-590.952	-142.644	0.173	-0.017
-589.938	294.048	0.060	-0.111
-588.923	-200.000	0.027	-0.267
-587.909	169.740	0.112	-0.163
-586.894	-147.791	0.378	-0.032
-585.879	766.562	-0.126	-0.348
-584.865	153.907	-0.173	0.241
-583.850	77.976	-0.184	0.199
-582.836	-200.000	-0.034	-0.198
-581.821	73.195	-0.048	0.051
-580.806	299.711	0.117	-0.219
-579.792	94.130	0.112	-0.130
-578.777	-99.988	0.342	-0.087
-577.763	39.884	0.129	-0.118
-576.748	-122.663	0.227	-0.037
-575.733	83.185	0.044	-0.049
-574.719	540.615	-0.058	-0.140
-573.704	-121.896	0.238	-0.040
-572.690	281.285	-0.062	0.112
-571.675	-105.698	-0.156	0.036
-570.661	-200.000	0.083	-0.420
-569.646	88.800	0.159	0.179
-568.631	0.700	-0.062	0.045
-567.617	-200.000	0.005	-0.275
-566.602	-75.304	0.040	0.014
-565.588	800.000	-0.035	0.132
-564.573	-200.000	-0.008	-0.394
-563.558	255.515	-0.194	-0.338
-562.544	-14.799	-0.098	0.064
-561.529	-137.204	0.303	-0.035
-560.515	-20.721	0.242	-0.151
-559.500	31.445	-0.164	-0.144
-558.485	-30.111	-0.370	-0.214
-557.471	800.000	0.044	-0.186
-556.456	239.722	-0.151	-0.256
-555.442	-200.000	0.012	-0.157
-554.427	-109.109	0.070	0.015
-553.412	-52.318	-0.285	0.134
-552.398	800.000	-0.019	0.067
-551.383	111.859	-0.214	0.263
-550.369	-3.845	-0.016	-0.011
-549.354	204.443	-0.085	-0.134
-548.339	-110.867	-0.116	-0.024
-547.325	93.002	-0.134	0.153
-546.310	800.000	-0.046	0.160
-545.296	-184.020	0.145	-0.002
-544.281	800.000	0.036	-0.104
-543.266	-48.682	-0.257	0.125
-542.252	799.840	0.035	-0.097
-541.237	-200.000	-0.013	-0.375
-540.223	-105.227	-0.159	0.037
-539.208	182.303	-0.038	-0.058
-538.193	-157.488	0.321	0.020
-537.179	-12.391	-0.108	0.072
-536.164	30.503	0.198	0.172
-535.150	-200.000	0.002	0.069
-534.135	9.359	0.340	0.262
-533.121	144.248	0.007	0.009
-532.106	-53.751	0.321	0.149
-531.091	-70.349	-0.207	0.080
-530.077	-89.088	0.179	-0.054
-529.062	30.443	-0.132	0.114
-528.048	55.345	0.169	-0.166
-527.033	29.435	-0.159	-0.138
-526.018	-182.428	0.157	0.003
-525.004	-42.742	0.230	0.119
-523.989	-200.000	-0.039	0.308
-522.975	-200.000	-0.021	0.128
-521.960	132.692	-0.261	0.341
-520.945	643.823	-0.131	0.340
-519.931	-92.370	-0.145	0.041
-518.916	55.340	0.210	0.206
-517.902	800.000	-0.064	0.260
-516.887	-200.000	0.039	0.312
-515.872	800.000	0.085	-0.368
-514.858	137.264	0.061	0.082
-513.843	54.855	-0.075	0.073
-512.829	-141.529	0.105	0.011
-511.814	8.010	-0.134	-0.102
-510.799	800.000	0.059	0.200
-509.785	-200.000	-0.011	0.221
-508.770	232.569	0.062	0.103
-507.756	362.121	0.062	-0.126
-506.741	-162.685	-0.255	-0.013
-505.726	153.976	-0.223	-0.310
-504.712	6.560	-0.310	-0.233
-503.697	93.333	-0.262	-0.301
-502.683	-55.186	-0.265	-0.121
-501.668	1.389	0.019	0.014
-500.653	800.000	-0.010	-0.043
-499.639	-74.955	-0.203	-0.074
-498.624	-26.073	-0.060	0.036
-497.610	69.237	-0.109	-0.114
-496.595	28.184	-0.230	-0.197
-495.581	292.993	-0.187	-0.346
-494.566	-147.767	0.042	0.004
-493.551	274.964	0.119	0.215
-492.537	-89.323	0.222	-0.066
-491.522	-14.883	-0.151	-0.098
-490.508	-155.304	-0.141	-0.009
-489.493	-10.213	0.315	0.212
-488.478	-42.574	0.050	0.026
-487.464	-67.476	0.127	-0.051
-486.449	-141.138	-0.547	0.057
-485.435	800.000	0.066	0.254
-484.420	-108.175	-0.078	0.017
-483.405	113.403	0.020	-0.025
-482.391	84.802	-0.193	0.214
-481.376	-200.000	0.003	-0.188
-480.362	-200.000	-0.108	0.000
-479.347	282.604	0.014	-0.025
-478.332	107.072	-0.185	0.223
-477.318	-63.719	0.308	-0.128
-476.303	-53.778	-0.295	0.136
-475.289	42.046	0.176	0.162
-474.274	133.775	0.083	0.109
-473.259	-200.000	-0.012	0.145
-472.245	-102.487	-0.058	-0.014
-471.230	53.620	-0.119	-0.116
-470.216	18.625	0.285	-0.231
-469.201	-9.877	-0.183	-0.123
-468.186	-200.000	-0.020	0.199
-467.172	-152.818	0.262	-0.019
-466.157	-0.616	0.333	-0.239
-465.143	-127.039	-0.177	0.026
-464.128	-119.301	0.257	-0.045
-463.113	-200.000	-0.022	-0.164
-462.099	-149.198	0.196	0.016
-461.084	-82.000	-0.208	-0.069
-460.070	-200.000	0.023	-0.518
-459.055	449.800	-0.158	0.353
-458.040	-200.000	0.008	0.218
-457.026	-200.000	0.020	0.326
-456.011	285.834	-0.072	0.132
-454.997	275.623	-0.052	0.093
-453.982	343.689	-0.037	0.073
-452.968	-45.477	0.169	-0.085
-451.953	706.444	0.229	-0.611
-450.938	33.142	0.129	-0.113
-449.924	215.662	0.052	0.084
-448.909	-137.206	-0.393	0.045
-447.895	-200.000	0.014	0.111
-446.880	-37.741	0.162	-0.087
-445.865	-81.309	0.123	0.041
-444.851	391.194	0.228	0.480
-443.836	-52.392	-0.215	-0.101
-442.822	265.232	0.117	-0.207
-441.807	-52.834	0.190	0.088
-440.792	230.120	-0.115	-0.190
-439.778	674.778	0.049	0.130
-438.763	-48.262	0.379	0.185
-437.749	28.234	-0.226	0.193
-436.734	42.905	0.028	-0.026
-435.719	788.521	-0.055	0.153
-434.705	-147.305	-0.509	0.044
-433.690	-200.000	-0.001	0.291
-432.676	11.897	0.279	-0.217
-431.661	169.747	-0.313	0.453
-430.646	-41.265	-0.187	0.098
-429.632	-118.229	0.411	0.074
-428.617	-149.703	-0.028	0.002
-427.603	-200.000	0.038	-0.224
-426.588	-29.829	-0.325	0.188
-425.573	-200.000	-0.030	-0.154
-424.559	371.902	-0.044	0.090
-423.544	-200.000	0.001	-0.102
-422.530	-200.000	0.020	0.433
-421.515	-180.148	0.093	0.002
-420.500	468.148	0.063	0.144
-419.486	-173.864	0.172	-0.005
-418.471	-200.000	0.057	0.267
-417.457	153.640	-0.140	0.194
-416.442	267.291	0.096	0.170
-415.428	170.271	0.059	-0.086
-414.413	-65.331	0.153	-0.062
-413.398	-200.000	0.044	0.382
-412.384	38.363	0.126	0.113
-411.369	-148.134	0.268	0.022
-410.355	230.349	0.154	0.255
-409.340	-13.974	0.170	0.111
-408.325	-36.798	-0.046	0.025
-407.311	-92.136	0.195	0.056
-406.296	-106.384	0.153	0.035
-405.282	-200.000	0.002	-0.115
-404.267	-200.000	-0.006	-0.222
-403.252	75.144	-0.185	0.197
-402.238	-68.902	-0.439	0.171
-401.223	217.211	-0.035	0.057
-400.209	-126.964	-0.199	0.030
-399.194	-81.640	0.382	0.127
-398.179	89.377	-0.152	0.171
-397.165	800.000	0.105	0.333
-396.150	-200.000	-0.015	-0.078
-395.136	-61.963	0.150	-0.063
-394.121	50.226	0.078	-0.074
-393.106	-108.271	-0.156	0.034
-392.092	-96.000	-0.267	-0.072
-391.077	71.355	0.218	-0.228
-390.063	-124.266	-0.186	-0.029
-389.048	37.548	0.132	0.118
-388.033	553.731	-0.107	0.259
-387.019	800.000	0.047	-0.171
-386.004	30.335	-0.111	-0.096
-384.990	777.772	-0.012	-0.032
-383.975	178.542	-0.167	-0.247
-382.960	-43.177	0.385	-0.197
-381.946	736.076	0.096	-0.261
-380.931	-98.163	0.080	0.021
-379.917	-200.000	-0.021	0.280
-378.902	96.452	-0.070	0.081
-377.888	-200.000	0.024	-0.224
-376.873	800.000	-0.038	0.153
-375.858	427.821	-0.097	-0.212
-374.844	-13.546	-0.292	-0.191
-373.829	11.788	0.125	-0.097
-372.815	129.780	0.139	0.179
-371.800	-36.468	-0.207	0.113
-370.785	-200.000	0.005	-0.093
-369.771	-140.984	0.259	-0.027
-368.756	86.054	-0.085	0.095
-367.742	-32.263	0.031	-0.017
-366.727	-200.000	0.016	0.232
-365.712	-200.000	-0.015	-0.090
-364.698	-111.512	-0.273	-0.056
-363.683	54.542	0.233	-0.226
-362.669	60.882	0.170	-0.170
-361.654	117.863	-0.040	-0.050
-360.639	133.711	-0.104	-0.136
-359.625	800.000	-0.041	0.170
-358.610	67.879	0.269	0.278
-357.596	13.836	-0.112	0.088
-356.581	-76.043	0.148	0.053
-355.566	-86.263	-0.111	-0.034
-354.552	-197.630	-0.447	-0.003
-353.537	-35.501	0.208	-0.114
-352.523	-37.131	0.339	-0.183
-351.508	151.826	0.085	-0.116
-350.493	-15.472	0.174	0.112
-349.479	-200.000	-0.003	0.175
-348.464	284.248	-0.146	-0.264
-347.450	65.012	-0.118	0.120
-346.435	-42.517	0.148	-0.076
-345.420	-200.000	-0.002	0.095
-344.406	-200.000	0.022	-0.129
-343.391	239.835	0.117	-0.197
-342.377	292.681	0.195	0.358
-341.362	-154.145	0.167	0.011
-340.348	-200.000	-0.050	0.227
-339.333	-169.424	0.121	-0.004
-338.318	-167.690	0.158	-0.006
-337.304	43.942	-0.162	0.149
-336.289	-50.263	-0.026	-0.012
-335.275	-15.475	0.291	0.187
-334.260	89.189	0.125	0.141
-333.245	98.900	-0.261	-0.304
-332.231	653.529	-0.080	-0.206
-331.216	671.875	-0.152	-0.397
-330.202	67.883	-0.101	0.104
-329.187	-89.279	0.281	-0.083
-328.172	91.730	0.136	-0.154
-327.158	800.000	0.063	0.260
-326.143	-145.642	-0.141	-0.013
-325.129	185.490	0.089	0.133
-324.114	-112.311	0.156	-0.032
-323.099	-113.743	0.304	0.060
-322.085	-104.763	0.181	-0.042
-321.070	-55.826	-0.070	0.032
-320.056	800.000	0.131	-0.449
-319.041	-200.000	0.000	-0.438
-318.026	4.009	0.318	-0.234
-317.012	-200.000	-0.013	-0.062
-315.997	291.108	-0.091	0.166
-314.983	-12.699	-0.103	-0.067
-313.968	73.495	0.220	-0.232
-312.953	-83.456	0.223	0.072
-311.939	-200.000	-0.018	-0.094
-310.924	-63.883	0.071	-0.029
-309.910	800.000	0.052	-0.146
-308.895	-150.822	0.138	-0.011
-307.880	80.621	0.136	-0.148
-306.866	298.354	0.021	0.039
-305.851	-33.267	0.054	0.030
-304.837	-117.828	-0.198	0.036
-303.822	-122.351	0.313	0.051
-302.807	800.000	-0.079	0.345
-301.793	305.867	0.091	-0.170
-300.778	72.237	0.095	-0.100
-299.764	115.218	-0.102	0.125
-298.749	546.011	-0.088	0.211
-297.735	76.859	-0.132	-0.141
-296.720	218.799	0.079	-0.128
-295.705	-156.351	0.126	0.008
-294.691	-0.940	-0.434	-0.309
-293.676	172.770	0.002	-0.002
-292.662	-79.651	-0.101	-0.034
-291.647	691.156	-0.104	-0.275
-290.632	-200.000	-0.024	0.119
-289.618	59.157	0.075	-0.075
-288.603	211.732	-0.289	-0.457
-287.589	-145.191	-0.243	-0.022
-286.574	-45.171	0.273	-0.136
-285.559	-143.313	0.282	-0.027
-284.545	161.678	-0.109	0.154
-283.530	-5.127	-0.140	-0.097
-282.516	367.182	-0.087	-0.176
-281.501	800.000	-0.097	0.345
-280.486	281.323	-0.034	-0.062
-279.472	540.411	-0.081	-0.193
-278.457	-34.613	-0.078	-0.043
-277.443	-172.415	0.337	-0.011
-276.428	559.236	0.059	-0.144
-275.413	82.559	-0.206	0.225
-274.399	22.149	0.216	-0.177
-273.384	313.754	0.178	0.336
-272.370	149.143	0.060	-0.082
-271.355	377.864	-0.139	0.285
-270.340	-200.000	-0.027	-0.186
-269.326	132.946	0.068	0.088
-268.311	721.096	-0.028	0.075
-267.297	-162.186	0.241	-0.012
-266.282	126.831	-0.050	-0.063
-265.267	694.355	0.046	0.121
-264.253	72.720	0.078	0.082
-263.238	-163.702	0.168	-0.008
-262.224	74.291	-0.165	-0.174
-261.209	22.619	-0.115	-0.095
-260.195	-200.000	0.008	-0.258
-259.180	-84.004	0.263	0.084
-258.165	-32.311	0.192	0.107
-257.151	-1.354	-0.131	-0.093
-256.136	411.401	0.046	0.097
-255.122	-123.562	-0.363	0.058
-254.107	359.312	0.031	0.063
-253.092	-200.000	0.001	-0.116
-252.078	800.000	-0.053	-0.173
-251.063	30.827	0.140	0.121
-250.049	-200.000	-0.035	0.173
-249.034	198.324	-0.146	0.224
-248.019	142.799	-0.251	0.335
-247.005	-200.000	-0.003	0.064
-245.990	-200.000	0.035	-0.273
-244.976	-166.680	-0.119	0.005
-243.961	46.463	0.128	-0.119
-242.946	-200.000	0.003	-0.254
-241.932	-131.738	-0.241	0.032
-240.917	-123.927	-0.257	0.041
-239.903	-200.000	0.067	0.373
-238.888	74.670	0.223	-0.236
-237.873	35.163	-0.231	0.204
-236.859	450.527	-0.029	0.064
-235.844	217.558	0.187	0.299
-234.830	22.839	-0.148	-0.122
-233.815	-63.684	0.131	-0.054
-232.800	-200.000	0.059	-0.268
-231.786	-82.410	-0.033	-0.011
-230.771	133.053	0.112	0.145
-229.757	-200.000	0.023	-0.287
-228.742	-200.000	-0.045	0.339
-227.727	-61.487	-0.067	-0.028
-226.713	-76.903	-0.446	0.157
-225.698	565.985	-0.097	-0.235
-224.684	182.884	0.029	-0.043
-223.669	-198.908	0.219	-0.001
-222.655	-50.522	-0.326	0.154
-221.640	800.000	0.026	0.097
-220.625	-47.137	-0.335	0.164
-219.611	800.000	-0.062	-0.248
-218.596	-127.118	-0.341	-0.050
-217.582	694.672	-0.079	0.208
-216.567	-50.296	0.284	-0.135
-215.552	104.178	0.263	0.311
-214.538	-80.340	0.167	-0.056
-213.523	-200.000	-0.032	0.241
-212.509	-122.778	-0.150	0.024
-211.494	-200.000	-0.016	0.255
-210.479	491.849	-0.073	-0.168
-209.465	-57.108	0.089	-0.039
-208.450	-200.000	-0.005	-0.099
-207.436	786.056	-0.109	0.299
-206.421	530.078	0.170	0.403
-205.406	185.125	-0.236	0.351
-204.392	409.135	-0.027	-0.058
-203.377	1.537	0.149	-0.107
-202.363	565.079	-0.086	0.209
-201.348	-74.470	0.215	0.078
-200.333	136.847	0.269	0.353
-199.319	-200.000	-0.002	0.248
-198.304	97.907	0.146	0.168
-197.290	-200.000	-0.005	0.158
-196.275	-131.835	0.376	-0.049
-195.260	-45.048	0.143	0.071
-194.246	-121.636	-0.556	0.092
-193.231	-66.651	0.290	0.115
-192.217	-200.000	-0.042	-0.243
-191.202	-23.168	-0.142	0.086
-190.187	-200.000	0.001	0.184
-189.173	17.624	-0.191	0.152
-188.158	140.634	0.114	-0.151
-187.144	-200.000	0.033	0.214
-186.129	643.894	-0.105	-0.269
-185.114	-159.894	0.156	0.009
-184.100	-99.608	-0.201	0.050
-183.085	-33.358	-0.161	-0.089
-182.071	243.677	-0.143	0.241
-181.056	38.513	-0.196	-0.175
-180.042	-200.000	0.022	0.099
-179.027	187.197	0.051	0.076
-178.012	167.164	-0.063	-0.090
-176.998	114.926	0.230	0.281
-175.983	800.000	-0.109	0.350
-174.969	-113.277	0.163	0.032
-173.954	-136.200	0.282	-0.033
-172.939	-67.748	0.207	0.081
-171.925	199.397	0.101	-0.156
-170.910	106.490	0.109	0.129
-169.896	98.178	0.216	0.250
-168.881	-119.202	0.209	0.036
-167.866	-101.167	-0.298	-0.073
-166.852	21.525	-0.118	0.097
-165.837	-200.000	-0.047	0.000
-164.823	41.266	-0.240	-0.217
-163.808	-200.000	0.018	-0.194
-162.793	-51.246	-0.334	0.157
-161.779	800.000	0.053	-0.175
-160.764	800.000	-0.075	-0.220
-159.750	122.261	-0.121	-0.151
-158.735	40.027	0.113	-0.102
-157.720	-200.000	-0.120	0.000
-156.706	311.951	0.172	-0.323
-155.691	-38.586	-0.269	-0.142
-154.677	-93.513	0.475	0.132
-153.662	166.860	0.114	-0.162
-152.647	-160.854	-0.267	-0.014
-151.633	-149.294	0.103	-0.008
-150.618	-25.909	0.163	0.096
-149.604	-79.314	0.074	-0.025
-148.589	-200.000	0.009	0.056
-147.574	-94.172	0.179	-0.049
-146.560	27.875	-0.156	-0.132
-145.545	-5.720	0.313	-0.215
-144.531	-81.426	-0.172	0.057
-143.516	-68.906	0.208	0.080
-142.502	-200.000	0.007	0.124
-141.487	-70.536	-0.198	-0.075
-140.472	-200.000	0.024	0.135
-139.458	-200.000	-0.041	0.297
-138.443	-51.309	0.278	-0.130
-137.429	-101.967	0.009	0.002
-136.414	127.388	0.301	-0.383
-135.399	800.000	-0.073	0.216
-134.385	800.000	-0.021	0.086
-133.370	-200.000	-0.014	-0.379
-132.356	122.501	0.079	-0.099
-131.341	481.414	0.039	-0.088
-130.326	-136.414	-0.384	-0.045
-129.312	158.998	0.040	0.056
-128.297	-200.000	-0.027	-0.314
-127.283	272.104	0.143	0.252
-126.268	273.194	0.055	0.098
-125.253	31.243	0.094	-0.081
-124.239	335.740	-0.163	-0.317
-123.224	558.289	-0.052	0.125
-122.210	-82.422	0.511	0.166
-121.195	7.621	0.081	0.060
