DTS Sentinel unit serial number:	SN413079Multiplexer serial number:	ORYXHardware model number:	OX4-SRSoftware version number:	ORYX F/W v4.00 Oryx Data Collector v3.7.2.0data status	okinstallation	princeton_trtdifferential loss correction	single-endedforward channel	channel 2reverse channel	N/Adate	2019/09/18time	13:11:34forward acquisition time	60.00reverse acquisition time	0.00gamma	496.2192k internal	0.2320k external	0.2320temperature offset calibration	0.9992default loss term (dB/km)	0.3790temperature slope calibration	1.0000multiplexer offset coefficient	1.0000multiplexer slope coefficient	1.0000fibre end	0.00T internal ref (°C)	33.87T ext. ref 1 (°C)	0.60T ext. ref 2 (°C)	31.43length (m)	temperature (°C)	Stokes	anti-Stokes-747.200	800.000	0.032	-0.108
-746.185	-82.146	-0.187	0.062
-745.171	14.938	-0.163	-0.129
-744.156	374.627	-0.043	-0.089
-743.142	-85.996	-0.269	-0.084
-742.127	-161.082	-0.197	-0.010
-741.112	800.000	0.058	-0.195
-740.098	-133.296	-0.191	-0.024
-739.083	-44.408	0.151	0.077
-738.069	-200.000	-0.032	0.293
-737.054	-92.611	-0.129	-0.037
-736.039	-200.000	-0.005	0.063
-735.025	-150.144	-0.066	-0.005
-734.010	177.989	-0.060	0.089
-732.996	-200.000	0.030	-0.386
-731.981	800.000	-0.072	-0.308
-730.966	-200.000	-0.006	0.147
-729.952	23.576	-0.068	-0.057
-728.937	-67.447	-0.338	0.134
-727.923	-6.939	-0.290	-0.199
-726.908	170.611	0.058	-0.085
-725.894	-90.893	-0.118	-0.034
-724.879	-28.592	-0.186	0.108
-723.864	27.674	0.202	0.172
-722.850	81.122	-0.221	-0.241
-721.835	390.728	-0.031	0.064
-720.821	-200.000	-0.013	-0.135
-719.806	-48.862	0.220	-0.107
-718.791	-65.289	-0.036	0.015
-717.777	26.479	0.102	0.086
-716.762	-110.130	-0.271	-0.057
-715.748	6.243	0.110	-0.083
-714.733	98.170	-0.073	-0.085
-713.718	-80.957	-0.097	0.032
-712.704	283.150	-0.141	0.255
-711.689	-142.999	-0.286	0.028
-710.675	-40.619	-0.336	0.176
-709.660	-54.864	-0.139	0.063
-708.645	800.000	-0.106	0.314
-707.631	94.180	0.174	-0.200
-706.616	-141.009	0.109	0.011
-705.602	53.360	0.090	-0.087
-704.587	-200.000	0.011	0.128
-703.572	107.424	-0.296	-0.356
-702.558	271.526	-0.140	0.249
-701.543	470.470	0.151	0.344
-700.529	-27.502	0.277	0.163
-699.514	140.056	-0.191	0.255
-698.499	-23.308	0.039	-0.024
-697.485	-200.000	-0.001	-0.110
-696.470	169.054	0.050	-0.072
-695.456	-200.000	0.057	-0.285
-694.441	-200.000	0.004	0.051
-693.426	-18.077	-0.263	0.166
-692.412	-200.000	0.003	0.182
-691.397	17.744	-0.093	-0.075
-690.383	186.546	0.077	-0.116
-689.368	74.126	-0.071	0.075
-688.354	-106.815	-0.170	-0.038
-687.339	156.401	0.020	-0.028
-686.324	800.000	-0.054	-0.165
-685.310	-44.378	0.363	0.183
-684.295	-200.000	-0.002	-0.057
-683.281	800.000	0.158	-0.531
-682.266	112.708	0.064	-0.079
-681.251	-200.000	0.015	0.391
-680.237	213.080	-0.132	0.210
-679.222	-130.699	-0.188	0.025
-678.208	79.100	-0.174	-0.188
-677.193	-61.409	-0.300	0.127
-676.178	-78.147	0.152	-0.053
-675.164	800.000	-0.044	-0.162
-674.149	-180.718	0.239	0.005
-673.135	147.811	0.133	0.181
-672.120	79.706	-0.155	-0.168
-671.105	-200.000	0.061	-0.423
-670.091	800.000	-0.045	0.162
-669.076	35.896	-0.076	0.067
-668.062	365.366	-0.098	0.199
-667.047	-45.214	0.401	-0.201
-666.032	-180.296	-0.142	0.003
-665.018	-96.508	-0.375	-0.100
-664.003	110.611	-0.265	0.321
-662.989	-134.601	0.161	0.020
-661.974	-40.335	-0.273	0.143
-660.959	-80.458	0.042	0.014
-659.945	-200.000	-0.008	0.076
-658.930	800.000	0.065	-0.261
-657.916	-28.953	0.364	0.211
-656.901	127.817	0.164	-0.211
-655.886	364.564	0.050	-0.101
-654.872	-200.000	0.029	-0.452
-653.857	323.102	-0.103	0.197
-652.843	-125.517	-0.235	0.036
-651.828	-83.969	-0.042	-0.013
-650.814	-53.556	-0.180	-0.083
-649.799	800.000	0.066	0.250
-648.784	-138.312	-0.294	-0.033
-647.770	-126.035	-0.219	0.033
-646.755	323.646	0.073	0.141
-645.741	-59.248	-0.199	-0.086
-644.726	798.397	0.147	-0.410
-643.711	104.893	0.252	-0.299
-642.697	-200.000	0.023	-0.120
-641.682	800.000	0.031	-0.091
-640.668	-133.763	0.113	0.014
-639.653	0.798	-0.132	0.095
-638.638	52.368	-0.067	0.064
-637.624	-200.000	0.050	-0.288
-636.609	800.000	-0.037	0.147
-635.595	-24.594	0.363	0.218
-634.580	-16.211	0.048	-0.031
-633.565	22.775	0.107	0.088
-632.551	-200.000	0.033	0.200
-631.536	-90.521	0.281	-0.082
-630.522	73.135	-0.158	-0.166
-629.507	800.000	0.091	0.311
-628.492	800.000	0.072	0.290
-627.478	-200.000	-0.047	-0.355
-626.463	-141.484	-0.299	-0.030
-625.449	-89.952	0.355	0.104
-624.434	-137.425	-0.414	0.047
-623.419	218.029	0.098	-0.158
-622.405	175.992	-0.104	0.152
-621.390	-153.030	-0.168	0.012
-620.376	800.000	0.017	-0.061
-619.361	45.768	-0.282	0.262
-618.346	-200.000	-0.001	0.152
-617.332	800.000	-0.007	0.032
-616.317	-68.368	0.197	-0.077
-615.303	-200.000	0.020	0.157
-614.288	-200.000	-0.011	-0.284
-613.273	-42.304	-0.142	-0.073
-612.259	-109.837	-0.101	-0.021
-611.244	280.027	-0.134	-0.241
-610.230	59.546	-0.216	0.214
-609.215	158.945	-0.168	0.234
-608.201	-200.000	0.003	-0.105
-607.186	-9.685	0.345	0.231
-606.171	513.690	0.129	0.303
-605.157	281.239	0.166	-0.298
-604.142	-200.000	0.001	0.183
-603.128	-200.000	0.033	-0.253
-602.113	244.453	-0.019	-0.033
-601.098	-42.786	0.077	0.039
-600.084	134.294	-0.122	0.159
-599.069	60.076	-0.134	-0.133
-598.055	-200.000	-0.061	-0.321
-597.040	-200.000	-0.001	0.196
-596.025	-43.572	0.302	-0.153
-595.011	800.000	-0.049	0.182
-593.996	47.291	-0.186	0.174
-592.982	107.635	0.178	0.213
-591.967	-43.757	0.288	0.146
-590.952	-200.000	0.030	0.227
-589.938	-179.970	-0.088	0.002
-588.923	-151.327	0.360	0.027
-587.909	-36.585	-0.250	0.135
-586.894	-144.705	-0.205	-0.019
-585.879	-87.293	-0.163	0.050
-584.865	-85.339	-0.203	0.064
-583.850	-105.041	-0.360	0.083
-582.836	-73.936	-0.202	-0.074
-581.821	-83.175	-0.287	0.093
-580.806	343.114	0.071	0.139
-579.792	-41.359	-0.228	-0.118
-578.777	124.164	-0.113	-0.142
-577.763	-46.079	0.210	-0.104
-576.748	63.506	-0.172	-0.173
-575.733	-59.054	0.009	0.004
-574.719	-200.000	0.036	0.238
-573.704	-145.440	0.152	0.014
-572.690	310.356	0.121	-0.228
-571.675	800.000	-0.046	-0.134
-570.661	-16.655	0.164	-0.104
-569.646	34.335	-0.179	-0.157
-568.631	102.476	0.220	-0.259
-567.617	-79.357	-0.095	0.032
-566.602	-139.881	-0.187	-0.020
-565.588	800.000	-0.048	0.196
-564.573	24.342	0.322	0.268
-563.558	337.771	-0.101	0.198
-562.544	-75.760	0.090	0.032
-561.529	-116.318	0.078	-0.015
-560.515	-200.000	0.002	0.352
-559.500	173.892	-0.193	-0.280
-558.485	800.000	-0.162	0.598
-557.471	-75.522	0.200	0.071
-556.456	-20.462	-0.080	0.050
-555.442	162.785	-0.076	-0.108
-554.427	-124.618	0.233	0.036
-553.412	-98.785	-0.391	-0.100
-552.398	381.675	0.124	-0.256
-551.383	142.647	0.203	-0.270
-550.369	375.810	-0.027	0.055
-549.354	308.266	-0.069	0.129
-548.339	-200.000	-0.025	-0.365
-547.325	50.242	0.052	-0.050
-546.310	25.105	0.088	-0.073
-545.296	379.943	-0.076	0.156
-544.281	-200.000	-0.013	-0.221
-543.266	-126.212	0.246	0.037
-542.252	104.173	-0.080	0.094
-541.237	121.112	-0.243	0.303
-540.223	-136.084	-0.008	0.001
-539.208	56.970	-0.191	0.187
-538.193	-125.551	0.199	0.030
-537.179	-200.000	-0.027	0.220
-536.164	-20.220	0.206	0.127
-535.150	85.062	-0.095	-0.104
-534.135	-200.000	0.029	0.215
-533.121	23.554	-0.181	0.149
-532.106	800.000	0.036	-0.108
-531.091	188.684	0.076	-0.114
-530.077	-200.000	0.029	0.163
-529.062	199.632	-0.215	-0.331
-528.048	-110.390	-0.368	0.077
-527.033	-200.000	0.011	-0.091
-526.018	-11.120	0.228	0.151
-525.004	529.837	0.148	-0.350
-523.989	-121.623	0.037	0.006
-522.975	-200.000	-0.048	-0.284
-521.960	-21.673	-0.209	-0.128
-520.945	756.324	0.080	-0.218
-519.931	192.294	-0.063	-0.096
-518.916	-49.245	-0.045	-0.022
-517.902	198.218	-0.041	0.064
-516.887	33.285	0.302	-0.263
-515.872	457.338	0.068	-0.151
-514.858	800.000	0.036	0.147
-513.843	-200.000	0.027	0.143
-512.829	275.370	0.064	0.113
-511.814	-171.870	-0.277	0.009
-510.799	28.936	0.222	-0.189
-509.785	-83.382	-0.295	-0.095
-508.770	-200.000	-0.011	-0.120
-507.756	-200.000	-0.032	0.258
-506.741	114.119	0.054	-0.066
-505.726	800.000	0.095	0.351
-504.712	800.000	-0.019	0.077
-503.697	191.670	-0.128	0.194
-502.683	-167.161	0.183	-0.007
-501.668	-72.878	0.260	-0.096
-500.653	800.000	0.032	-0.130
-499.639	-67.817	0.295	0.116
-498.624	-23.535	0.138	-0.083
-497.610	800.000	0.024	0.102
-496.595	-163.572	-0.159	0.008
-495.581	67.399	-0.413	-0.422
-494.566	42.259	-0.196	0.178
-493.551	-200.000	-0.001	-0.348
-492.537	9.309	0.027	-0.020
-491.522	71.818	0.200	0.208
-490.508	29.177	-0.270	0.229
-489.493	98.277	-0.229	-0.264
-488.478	329.098	0.206	0.396
-487.464	114.924	-0.118	-0.144
-486.449	108.346	-0.201	-0.240
-485.435	-135.808	-0.140	-0.017
-484.420	228.333	-0.141	0.231
-483.405	-53.672	-0.164	-0.075
-482.391	-80.236	-0.115	0.039
-481.376	-126.506	-0.390	-0.058
-480.362	797.913	-0.046	-0.127
-479.347	-57.674	-0.342	0.150
-478.332	-200.000	-0.004	-0.254
-477.318	305.291	0.067	-0.125
-476.303	146.636	-0.150	-0.201
-475.289	-98.318	0.283	-0.073
-474.274	-27.119	0.112	0.065
-473.259	-200.000	0.009	0.403
-472.245	-135.906	0.161	-0.019
-471.230	800.000	0.058	-0.219
-470.216	800.000	0.022	-0.062
-469.201	-117.855	0.033	0.006
-468.186	-40.248	0.082	0.043
-467.172	-200.000	-0.037	-0.210
-466.157	63.474	-0.235	-0.236
-465.143	334.741	-0.128	-0.248
-464.128	91.590	-0.118	0.133
-463.113	-66.309	-0.101	0.040
-462.099	-83.075	0.175	-0.056
-461.084	-136.477	-0.155	0.018
-460.070	341.847	-0.145	-0.284
-459.055	-200.000	-0.048	-0.297
-458.040	-158.697	0.350	-0.020
-457.026	-85.883	-0.121	-0.037
-456.011	-101.954	-0.192	-0.046
-454.997	-74.732	-0.421	-0.151
-453.982	198.119	-0.164	0.250
-452.968	270.818	0.104	0.183
-451.953	-200.000	-0.005	0.176
-450.938	-40.869	-0.190	-0.098
-449.924	567.418	-0.046	0.113
-448.909	7.544	0.189	0.141
-447.895	-21.679	-0.195	-0.119
-446.880	-200.000	-0.030	0.308
-445.865	51.027	-0.164	0.155
-444.851	-74.842	0.074	0.026
-443.836	-37.828	-0.192	0.102
-442.822	800.000	0.047	-0.154
-441.807	-60.816	-0.160	-0.068
-440.792	33.622	-0.254	0.221
-439.778	190.749	0.110	-0.165
-438.763	-200.000	0.032	-0.154
-437.749	-103.255	0.073	0.017
-436.734	-200.000	0.019	-0.232
-435.719	-200.000	0.047	0.302
-434.705	-3.625	0.183	0.127
-433.690	98.701	0.207	0.239
-432.676	-49.663	0.223	0.106
-431.661	-200.000	-0.032	-0.236
-430.646	-118.563	-0.153	-0.027
-429.632	-5.331	0.105	-0.072
-428.617	340.381	-0.048	0.094
-427.603	-38.557	0.346	0.182
-426.588	-200.000	-0.009	-0.157
-425.573	223.959	-0.093	-0.150
-424.559	-200.000	0.029	-0.199
-423.544	-164.260	0.314	-0.014
-422.530	-80.857	0.210	0.070
-421.515	-172.121	-0.250	-0.008
-420.500	132.130	0.048	0.062
-419.486	-200.000	0.018	-0.187
-418.471	-149.903	-0.348	0.027
-417.457	-75.766	-0.116	0.041
-416.442	-200.000	0.032	0.142
-415.428	84.960	0.069	-0.075
-414.413	54.689	0.083	-0.080
-413.398	800.000	0.052	0.184
-412.384	565.200	-0.023	0.057
-411.369	581.202	0.050	0.122
-410.355	498.965	-0.113	-0.259
-409.340	-166.453	0.310	-0.013
-408.325	57.647	-0.093	0.091
-407.311	85.964	0.048	0.053
-406.296	402.173	-0.177	0.372
-405.282	800.000	-0.081	0.223
-404.267	81.320	-0.177	0.191
-403.252	800.000	-0.100	-0.308
-402.238	53.657	0.147	-0.141
-401.223	-136.607	0.201	-0.023
-400.209	-15.213	0.278	0.177
-399.194	-57.425	0.156	0.069
-398.179	66.852	-0.089	-0.091
-397.165	-37.773	-0.300	-0.159
-396.150	-82.280	-0.068	-0.022
-395.136	118.576	0.151	-0.186
-394.121	190.489	-0.155	-0.232
-393.106	-136.127	0.145	-0.017
-392.092	800.000	-0.027	0.117
-391.077	9.016	-0.249	-0.187
-390.063	-96.755	-0.351	0.092
-389.048	-200.000	-0.001	-0.337
-388.033	-54.743	-0.197	0.089
-387.019	-200.000	0.048	0.248
-386.004	-88.375	-0.437	-0.130
-384.990	-200.000	0.023	-0.229
-383.975	-102.710	-0.074	0.018
-382.960	1.466	-0.189	-0.135
-381.946	-123.885	-0.122	-0.019
-380.931	37.740	0.389	0.344
-379.917	9.481	0.110	-0.083
-378.902	-2.769	-0.060	-0.042
-377.888	-72.948	0.260	0.095
-376.873	118.090	-0.152	0.187
-375.858	800.000	0.095	0.358
-374.844	32.749	-0.113	-0.098
-373.829	-56.522	-0.067	0.029
-372.815	24.882	0.117	-0.097
-371.800	-200.000	0.035	-0.244
-370.785	348.003	-0.092	0.181
-369.771	95.239	-0.294	0.334
-368.756	800.000	0.077	-0.297
-367.742	-99.471	-0.189	-0.047
-366.727	171.694	-0.186	-0.266
-365.712	-47.002	0.356	0.173
-364.698	800.000	-0.001	0.005
-363.683	800.000	0.071	0.232
-362.669	-200.000	0.001	-0.322
-361.654	21.132	-0.224	-0.181
-360.639	-43.988	0.282	0.141
-359.625	53.089	0.131	-0.125
-358.610	-106.860	-0.120	-0.026
-357.596	-102.932	-0.328	-0.078
-356.581	37.056	0.169	0.149
-355.566	-114.898	0.318	0.060
-354.552	171.773	0.277	0.396
-353.537	-165.352	-0.191	0.008
-352.523	-21.344	-0.063	-0.038
-351.508	-200.000	-0.019	-0.173
-350.493	692.742	0.220	-0.575
-349.479	-7.861	0.172	-0.116
-348.464	-64.859	0.292	0.118
-347.450	-4.667	0.111	0.076
-346.435	-200.000	0.028	-0.127
-345.420	-51.909	0.101	-0.047
-344.406	202.989	-0.145	-0.223
-343.391	-142.613	0.076	0.007
-342.377	-200.000	-0.010	0.208
-341.362	-200.000	-0.062	-0.307
-340.348	800.000	0.039	0.120
-339.333	-40.999	0.287	-0.148
-338.318	431.103	0.056	-0.121
-337.304	-65.357	0.175	0.070
-336.289	-200.000	-0.043	0.233
-335.275	-92.885	-0.040	0.011
-334.260	-133.576	-0.029	0.004
-333.245	349.836	0.138	-0.272
-332.231	296.213	0.112	-0.204
-331.216	349.320	-0.099	0.194
-330.202	800.000	-0.091	-0.326
-329.187	-90.309	0.155	0.045
-328.172	-83.255	0.336	0.108
-327.158	141.089	0.136	0.180
-326.143	-8.338	0.092	0.062
-325.129	-50.060	0.343	-0.162
-324.114	800.000	-0.050	0.210
-323.099	117.410	-0.091	0.111
-322.085	800.000	-0.062	0.171
-321.070	-17.653	-0.465	0.291
-320.056	-64.165	-0.193	-0.078
-319.041	16.575	0.168	-0.132
-318.026	-200.000	0.070	-0.354
-317.012	800.000	-0.046	-0.173
-315.997	-41.198	-0.166	-0.085
-314.983	325.088	-0.152	0.289
-313.968	-195.036	0.162	-0.001
-312.953	345.319	0.144	-0.282
-311.939	13.103	-0.267	-0.205
-310.924	322.050	0.106	-0.200
-309.910	-5.588	-0.137	-0.093
-308.895	281.417	0.064	0.115
-307.880	800.000	0.017	-0.056
-306.866	22.018	-0.130	-0.105
-305.851	66.794	-0.067	0.067
-304.837	171.364	0.177	0.253
-303.822	-125.373	-0.108	-0.016
-302.807	417.857	0.113	-0.240
-301.793	-200.000	-0.028	-0.168
-300.778	-117.598	-0.283	0.051
-299.764	-151.140	0.182	0.014
-298.749	800.000	0.057	-0.159
-297.735	3.308	0.320	0.232
-296.720	51.977	0.223	0.211
-295.705	538.909	0.162	-0.383
-294.691	-142.907	0.159	0.015
-293.676	-200.000	-0.011	-0.232
-292.662	18.505	-0.160	-0.127
-291.647	110.557	0.089	-0.106
-290.632	-10.602	0.153	-0.101
-289.618	160.812	0.151	0.209
-288.603	0.522	-0.223	-0.158
-287.589	37.639	-0.069	0.060
-286.574	-81.958	-0.230	-0.075
-285.559	-200.000	-0.035	-0.381
-284.545	70.743	-0.052	0.053
-283.530	21.789	-0.314	-0.254
-282.516	800.000	0.040	-0.158
-281.501	88.251	-0.226	-0.249
-280.486	-39.098	0.256	-0.134
-279.472	-142.809	-0.145	-0.014
-278.457	7.796	-0.157	-0.117
-277.443	-200.000	0.033	0.227
-276.428	26.660	-0.182	0.152
-275.413	396.095	0.101	0.209
-274.399	-107.691	0.079	-0.017
-273.384	800.000	0.015	0.051
-272.370	39.249	0.185	-0.164
-271.355	-71.856	-0.204	-0.076
-270.340	-114.773	-0.226	0.043
-269.326	86.411	-0.123	0.135
-268.311	-130.181	0.147	-0.020
-267.297	-52.854	0.266	0.122
-266.282	120.304	0.073	0.089
-265.267	-160.008	-0.344	0.019
-264.253	-44.902	0.073	0.036
-263.238	-100.038	0.156	0.039
-262.224	-35.298	-0.296	0.160
-261.209	-93.373	0.294	0.081
-260.195	-152.507	0.050	0.004
-259.180	-46.783	-0.205	-0.100
-258.165	800.000	0.071	-0.242
-257.151	-5.043	-0.139	-0.095
-256.136	73.396	0.074	-0.077
-255.122	-123.367	0.029	-0.005
-254.107	-58.017	-0.135	0.058
-253.092	-200.000	-0.040	0.234
-252.078	60.986	-0.222	0.218
-251.063	-52.407	0.321	0.147
-250.049	199.242	-0.087	-0.132
-249.034	86.934	0.129	0.141
-248.019	41.468	0.094	0.084
-247.005	118.831	0.141	-0.172
-245.990	172.967	0.137	-0.196
-244.976	-200.000	0.059	0.382
-243.961	-200.000	0.047	0.361
-242.946	47.760	0.101	-0.093
-241.932	85.760	-0.095	0.104
-240.917	149.764	0.149	-0.201
-239.903	-200.000	-0.018	-0.126
-238.888	-197.034	0.480	0.003
-237.873	146.923	0.151	0.201
-236.859	-93.236	0.212	-0.058
-235.844	58.548	0.110	-0.107
-234.830	-30.808	-0.157	0.088
-233.815	800.000	-0.047	0.131
-232.800	489.914	0.157	-0.357
-231.786	-14.216	-0.097	0.062
-230.771	14.462	0.233	0.180
-229.757	800.000	0.060	-0.180
-228.742	24.857	-0.079	0.065
-227.727	-66.181	0.266	0.105
-226.713	-167.962	-0.177	-0.007
-225.698	-90.528	-0.157	0.045
-224.684	284.704	0.046	0.083
-223.669	309.761	-0.093	0.172
-222.655	-54.783	-0.537	0.240
-221.640	-121.984	0.124	-0.020
-220.625	428.351	0.110	0.235
-219.611	-11.492	-0.234	-0.152
-218.596	800.000	0.020	-0.077
-217.582	73.038	0.248	-0.257
-216.567	-97.407	-0.340	-0.088
-215.552	228.032	0.078	0.126
-214.538	-200.000	0.006	0.148
-213.523	-178.612	0.105	0.002
-212.509	-95.133	0.039	0.010
-211.494	800.000	-0.067	-0.265
-210.479	-200.000	-0.019	-0.195
-209.465	7.655	-0.244	0.181
-208.450	-5.569	-0.045	0.030
-207.436	-142.068	-0.048	-0.005
-206.421	620.211	-0.171	0.425
-205.406	-65.671	-0.162	0.064
-204.392	-44.493	0.302	-0.149
-203.377	-161.704	-0.117	-0.006
-202.363	16.351	0.027	-0.021
-201.348	797.467	0.113	0.309
-200.333	-200.000	0.033	0.255
-199.319	-131.553	0.175	-0.023
-198.304	-200.000	-0.035	-0.369
-197.290	-17.189	0.223	0.139
-196.275	-200.000	-0.077	0.358
-195.260	-200.000	0.031	0.273
-194.246	800.000	0.111	0.328
-193.231	8.890	-0.123	0.092
-192.217	-52.200	0.042	0.019
-191.202	59.991	0.166	-0.162
-190.187	24.371	0.056	-0.046
-189.173	-158.442	0.187	0.011
-188.158	85.494	0.194	-0.211
-187.144	237.539	0.008	0.012
-186.129	73.703	0.197	0.205
-185.114	-118.001	0.245	-0.043
-184.100	-57.984	0.189	0.082
-183.085	24.942	-0.086	-0.070
-182.071	800.000	0.083	-0.244
-181.056	800.000	-0.021	0.058
-180.042	58.404	0.165	0.160
-179.027	-136.293	-0.177	-0.020
-178.012	-98.601	0.299	0.076
-176.998	-200.000	-0.001	-0.366
-175.983	-200.000	-0.004	-0.073
-174.969	304.507	0.100	0.184
-173.954	-119.203	0.159	-0.027
-172.939	-190.924	0.141	-0.001
-171.925	101.460	-0.190	0.219
-170.910	44.556	-0.122	0.111
-169.896	800.000	-0.039	0.127
-168.881	514.175	-0.009	0.021
-167.866	-200.000	0.012	-0.129
-166.852	-87.947	0.385	-0.115
-165.837	84.092	-0.184	0.199
-164.823	128.420	-0.188	-0.237
-163.808	-200.000	0.005	-0.346
-162.793	-8.461	0.198	-0.132
-161.779	-75.891	-0.097	0.034
-160.764	-35.993	0.168	-0.090
-159.750	796.793	-0.132	0.361
-158.735	-70.521	-0.210	0.079
-157.720	-55.744	0.432	0.191
-156.706	-132.597	0.321	-0.041
-155.691	-51.403	-0.184	0.085
-154.677	800.000	0.045	0.154
-153.662	-200.000	-0.091	0.498
-152.647	509.367	-0.187	-0.429
-151.633	23.065	0.126	0.102
-150.618	-172.526	-0.303	-0.009
-149.604	-56.341	0.133	0.058
-148.589	48.600	0.244	0.226
-147.574	-114.025	0.268	-0.051
-146.560	-200.000	0.008	-0.097
-145.545	-200.000	-0.022	-0.333
-144.531	32.925	-0.132	0.113
-143.516	96.909	0.097	0.109
-142.502	-200.000	0.004	0.261
-141.487	295.017	0.079	0.143
-140.472	-22.875	-0.531	-0.317
-139.458	-122.322	0.273	-0.044
-138.443	800.000	0.125	0.367
-137.429	-109.478	0.201	0.042
-136.414	-166.578	-0.126	-0.005
-135.399	-138.036	-0.311	-0.034
-134.385	-200.000	-0.023	0.254
-133.370	-200.000	0.047	-0.243
-132.356	800.000	-0.046	0.134
-131.341	-135.890	-0.183	0.021
-130.326	162.514	-0.067	-0.093
-129.312	1.126	0.218	-0.154
-128.297	-200.000	0.029	-0.541
-127.283	-23.268	0.217	-0.129
-126.268	-87.129	-0.292	0.088
-125.253	-160.665	-0.298	-0.016
-124.239	108.331	-0.121	-0.143
-123.224	800.000	0.077	-0.288
-122.210	-124.116	-0.149	-0.023
-121.195	-22.934	-0.028	0.017
