DTS Sentinel unit serial number:	SN413079Multiplexer serial number:	ORYXHardware model number:	OX4-SRSoftware version number:	ORYX F/W v4.00 Oryx Data Collector v3.7.2.0data status	okinstallation	princeton_trtdifferential loss correction	single-endedforward channel	channel 2reverse channel	N/Adate	2019/09/19time	09:39:35forward acquisition time	60.00reverse acquisition time	0.00gamma	496.2192k internal	0.2349k external	0.2349temperature offset calibration	1.0000default loss term (dB/km)	0.3790temperature slope calibration	1.0000multiplexer offset coefficient	1.0000multiplexer slope coefficient	1.0000fibre end	0.00T internal ref (°C)	23.11T ext. ref 1 (°C)	0.63T ext. ref 2 (°C)	19.43length (m)	temperature (°C)	Stokes	anti-Stokes-747.200	105.397	0.241	0.285
-746.185	98.846	-0.289	0.333
-745.171	267.654	0.062	0.109
-744.156	-86.423	-0.196	0.060
-743.142	-95.580	0.178	0.048
-742.127	-200.000	0.033	0.183
-741.112	79.101	-0.095	0.102
-740.098	-78.796	-0.337	0.115
-739.083	-124.342	0.095	-0.015
-738.069	-200.000	-0.000	0.370
-737.054	-65.964	0.072	0.029
-736.039	-24.311	-0.210	0.125
-735.025	-200.000	0.088	0.392
-734.010	335.797	-0.095	0.185
-732.996	179.831	0.120	-0.175
-731.981	294.298	-0.204	0.373
-730.966	6.076	-0.205	-0.152
-729.952	-91.606	-0.338	0.096
-728.937	56.115	-0.086	-0.083
-727.923	-119.323	0.257	-0.045
-726.908	492.377	0.086	-0.197
-725.894	190.727	0.094	-0.140
-724.879	-200.000	0.008	-0.088
-723.864	-72.184	0.137	0.051
-722.850	-70.098	-0.460	-0.175
-721.835	-200.000	0.004	0.031
-720.821	743.418	-0.085	0.227
-719.806	-200.000	0.036	0.246
-718.791	196.861	-0.063	-0.096
-717.777	-130.886	-0.285	-0.038
-716.762	-110.429	-0.082	0.017
-715.748	-64.209	0.220	0.089
-714.733	-68.281	0.217	0.084
-713.718	-53.216	-0.340	-0.156
-712.704	-200.000	0.033	-0.249
-711.689	-9.849	0.149	-0.099
-710.675	-200.000	0.020	0.208
-709.660	-200.000	0.034	-0.290
-708.645	161.057	0.218	-0.304
-707.631	-200.000	-0.042	-0.245
-706.616	58.633	-0.089	0.087
-705.602	800.000	-0.105	0.328
-704.587	-54.106	-0.229	-0.104
-703.572	633.788	0.049	0.125
-702.558	84.875	-0.104	-0.114
-701.543	-151.537	0.249	-0.018
-700.529	-100.964	-0.462	0.113
-699.514	-79.508	-0.243	0.082
-698.499	-200.000	-0.091	-0.527
-697.485	-200.000	0.000	-0.054
-696.470	784.232	-0.105	-0.288
-695.456	-200.000	0.009	0.111
-694.441	210.898	-0.181	0.283
-693.426	800.000	0.107	-0.305
-692.412	800.000	-0.079	-0.294
-691.397	800.000	0.048	-0.150
-690.383	-200.000	-0.012	-0.229
-689.368	131.238	0.054	0.069
-688.354	-200.000	0.022	0.278
-687.339	-153.593	0.121	0.008
-686.324	111.260	-0.095	0.114
-685.310	79.963	-0.215	0.231
-684.295	-200.000	0.011	-0.107
-683.281	-49.166	-0.091	-0.043
-682.266	202.965	0.161	-0.247
-681.251	-101.943	-0.251	0.060
-680.237	-45.723	-0.125	0.062
-679.222	-127.003	0.480	0.070
-678.208	257.701	0.157	-0.269
-677.193	800.000	0.113	0.473
-676.178	18.830	0.375	-0.299
-675.164	304.191	-0.081	0.149
-674.149	-185.847	-0.312	-0.005
-673.135	7.653	0.147	0.110
-672.120	-158.520	-0.201	0.012
-671.105	105.644	0.245	0.288
-670.091	57.206	-0.282	-0.274
-669.076	263.866	0.206	0.357
-668.062	-200.000	0.011	-0.251
-667.047	208.631	0.092	-0.143
-666.032	144.394	-0.164	-0.218
-665.018	-200.000	-0.068	-0.413
-664.003	-119.606	0.037	-0.006
-662.989	254.744	0.088	0.150
-661.974	112.426	0.033	0.039
-660.959	16.692	-0.082	-0.065
-659.945	421.500	-0.097	0.207
-658.930	-83.802	-0.197	0.062
-657.916	35.284	-0.219	-0.191
-656.901	-195.422	0.203	0.001
-655.886	-144.994	0.238	0.022
-654.872	-128.266	0.389	0.055
-653.857	578.157	-0.010	-0.023
-652.843	-78.747	-0.352	-0.120
-651.828	173.825	-0.100	-0.143
-650.814	-114.275	0.218	-0.042
-649.799	-144.825	-0.217	-0.020
-648.784	-33.930	0.090	-0.049
-647.770	-44.892	0.040	0.020
-646.755	300.356	0.061	-0.111
-645.741	686.957	0.140	-0.363
-644.726	248.149	0.027	0.046
-643.711	-200.000	-0.016	0.163
-642.697	227.637	-0.101	-0.163
-641.682	-200.000	-0.003	-0.281
-640.668	-13.516	0.056	0.036
-639.653	-113.745	0.148	0.029
-638.638	435.023	0.098	0.213
-637.624	-200.000	0.031	-0.259
-636.609	-118.023	0.204	-0.036
-635.595	-116.248	-0.242	0.045
-634.580	33.664	0.118	0.102
-633.565	34.453	-0.156	0.135
-632.551	-85.993	0.191	-0.059
-631.536	-144.412	-0.147	-0.014
-630.522	-71.825	0.351	-0.130
-629.507	800.000	-0.016	-0.059
-628.492	244.314	0.106	0.176
-627.478	-137.096	0.198	0.023
-626.463	114.292	-0.176	0.213
-625.449	-52.377	-0.199	-0.092
-624.434	603.810	0.058	-0.143
-623.419	70.092	-0.119	-0.123
-622.405	800.000	-0.104	-0.336
-621.390	189.651	-0.039	0.058
-620.376	-54.653	-0.371	0.167
-619.361	158.991	0.151	-0.208
-618.346	2.679	-0.226	0.163
-617.332	-119.595	0.394	0.068
-616.317	-196.387	-0.111	0.001
-615.303	800.000	0.116	-0.329
-614.288	-200.000	0.034	0.175
-613.273	800.000	-0.040	-0.166
-612.259	-176.304	-0.126	0.003
-611.244	30.913	0.053	0.045
-610.230	-18.089	0.086	-0.054
-609.215	-200.000	0.051	-0.283
-608.201	23.172	-0.209	0.171
-607.186	31.589	-0.344	0.294
-606.171	-200.000	-0.000	-0.332
-605.157	561.066	0.128	0.307
-604.142	-200.000	-0.008	-0.078
-603.128	-67.933	0.370	-0.144
-602.113	-200.000	0.050	0.418
-601.098	249.354	-0.151	0.254
-600.084	40.856	0.196	-0.175
-599.069	-66.367	0.392	0.155
-598.055	-44.901	-0.284	0.140
-597.040	800.000	0.051	-0.143
-596.025	-200.000	-0.039	-0.269
-595.011	704.118	0.091	-0.240
-593.996	-194.621	0.150	-0.001
-592.982	-16.972	0.337	-0.211
-591.967	800.000	0.004	-0.012
-590.952	-62.096	0.254	-0.105
-589.938	-113.972	-0.234	0.045
-588.923	234.501	0.057	-0.093
-587.909	34.066	0.291	-0.252
-586.894	-194.356	-0.263	-0.002
-585.879	126.764	0.079	-0.100
-584.865	170.821	-0.096	-0.136
-583.850	-0.234	-0.132	0.093
-582.836	-200.000	0.019	-0.353
-581.821	-40.292	-0.310	-0.160
-580.806	-179.069	0.258	0.006
-579.792	-91.526	-0.243	0.069
-578.777	92.484	0.128	0.143
-577.763	184.551	-0.235	0.345
-576.748	692.377	0.115	-0.300
-575.733	-200.000	-0.060	-0.426
-574.719	-82.085	-0.306	0.099
-573.704	800.000	-0.062	-0.219
-572.690	-147.719	0.119	0.010
-571.675	7.198	0.346	-0.256
-570.661	-159.862	0.226	0.012
-569.646	800.000	-0.061	-0.260
-568.631	399.086	-0.146	0.304
-567.617	150.414	-0.130	0.175
-566.602	-200.000	0.017	0.178
-565.588	28.813	-0.229	-0.193
-564.573	-83.373	-0.315	-0.100
-563.558	7.347	0.218	-0.161
-562.544	2.737	-0.126	-0.091
-561.529	-200.000	0.009	0.041
-560.515	-30.354	0.187	0.105
-559.500	-38.377	-0.170	-0.089
-558.485	-80.364	-0.362	-0.120
-557.471	-27.707	-0.206	0.118
-556.456	525.975	-0.120	-0.280
-555.442	800.000	0.056	-0.173
-554.427	-36.672	-0.482	0.257
-553.412	800.000	-0.084	0.357
-552.398	352.655	-0.091	-0.179
-551.383	-124.438	-0.344	-0.053
-550.369	800.000	0.035	-0.106
-549.354	93.969	0.157	0.176
-548.339	692.450	-0.122	0.317
-547.325	800.000	-0.034	0.121
-546.310	101.555	0.043	0.050
-545.296	75.038	0.070	-0.073
-544.281	108.129	-0.073	-0.086
-543.266	-158.757	-0.201	-0.011
-542.252	316.700	-0.039	0.073
-541.237	36.623	-0.224	0.196
-540.223	621.905	-0.112	0.278
-539.208	-24.506	0.107	0.063
-538.193	-4.720	0.202	-0.138
-537.179	-58.282	-0.383	-0.165
-536.164	-200.000	0.047	-0.322
-535.150	-20.740	0.213	0.130
-534.135	-37.571	0.110	-0.058
-533.121	8.462	0.285	0.212
-532.106	150.332	-0.086	0.115
-531.091	43.995	0.150	-0.136
-530.077	-200.000	-0.022	-0.218
-529.062	-187.016	0.162	-0.002
-528.048	237.035	-0.172	-0.282
-527.033	800.000	0.052	-0.153
-526.018	-139.560	-0.277	-0.029
-525.004	-200.000	0.009	0.373
-523.989	610.451	-0.140	0.346
-522.975	412.521	-0.187	-0.393
-521.960	-22.773	-0.146	-0.087
-520.945	-44.939	-0.294	-0.145
-519.931	-8.918	0.294	-0.195
-518.916	-200.000	0.022	0.107
-517.902	24.290	0.259	-0.212
-516.887	115.726	0.217	0.262
-515.872	277.617	-0.031	-0.054
-514.858	88.087	0.203	0.222
-513.843	-80.032	0.048	-0.016
-512.829	-36.459	0.384	-0.205
-511.814	431.970	-0.056	-0.120
-510.799	57.053	-0.258	-0.249
-509.785	182.529	0.172	-0.251
-508.770	-200.000	-0.079	-0.389
-507.756	127.753	0.127	0.159
-506.741	-130.748	-0.228	0.030
-505.726	389.067	0.077	-0.157
-504.712	170.988	0.114	0.161
-503.697	-97.166	0.119	0.031
-502.683	170.994	0.098	0.139
-501.668	-200.000	-0.011	-0.240
-500.653	92.940	0.208	-0.232
-499.639	-22.838	-0.086	0.051
-498.624	-96.004	0.214	-0.056
-497.610	-14.126	0.096	0.061
-496.595	-89.996	0.297	-0.086
-495.581	-200.000	0.042	-0.220
-494.566	152.504	-0.067	0.090
-493.551	-133.482	-0.061	0.008
-492.537	253.114	-0.118	0.199
-491.522	800.000	0.053	-0.150
-490.508	263.046	0.097	-0.166
-489.493	71.788	-0.109	0.112
-488.478	49.249	0.226	0.210
-487.464	-25.530	0.133	0.078
-486.449	-28.896	0.121	-0.069
-485.435	-133.947	0.285	0.035
-484.420	-200.000	0.009	0.089
-483.405	800.000	0.032	-0.119
-482.391	574.656	-0.127	-0.306
-481.376	79.536	0.167	-0.177
-480.362	-16.170	-0.167	-0.105
-479.347	51.019	-0.135	0.127
-478.332	419.868	-0.090	-0.191
-477.318	-200.000	-0.002	-0.238
-476.303	265.615	-0.062	0.106
-475.289	106.174	0.143	0.168
-474.274	-123.240	-0.065	0.010
-473.259	-139.175	-0.156	-0.017
-472.245	800.000	-0.075	-0.219
-471.230	1.655	0.085	0.061
-470.216	128.014	-0.234	0.294
-469.201	49.312	0.129	-0.120
-468.186	786.662	-0.059	-0.160
-467.172	-35.896	-0.146	0.078
-466.157	-200.000	0.008	-0.039
-465.143	-178.299	0.315	-0.007
-464.128	98.176	0.065	0.074
-463.113	194.843	0.170	0.254
-462.099	-1.337	0.059	-0.041
-461.084	256.153	-0.064	0.108
-460.070	800.000	-0.037	-0.136
-459.055	-175.094	-0.331	-0.009
-458.040	-78.207	-0.185	-0.063
-457.026	-118.905	-0.151	-0.026
-456.011	-77.615	0.262	0.090
-454.997	90.417	-0.060	0.066
-453.982	316.401	0.062	-0.115
-452.968	-15.400	0.074	0.047
-451.953	800.000	-0.059	-0.231
-450.938	-200.000	0.020	-0.387
-449.924	-200.000	-0.007	-0.292
-448.909	-109.335	0.343	-0.072
-447.895	-12.654	-0.179	0.115
-446.880	-90.040	-0.202	0.058
-445.865	42.870	0.204	0.184
-444.851	306.604	-0.135	-0.247
-443.836	10.043	-0.247	0.185
-442.822	-32.954	-0.104	0.057
-441.807	19.698	0.118	0.093
-440.792	-52.790	-0.121	0.055
-439.778	-65.016	-0.281	0.112
-438.763	-119.634	0.058	-0.010
-437.749	-66.385	-0.101	-0.040
-436.734	-57.203	0.292	-0.127
-435.719	-200.000	0.003	0.176
-434.705	-94.947	0.216	0.058
-433.690	-74.227	-0.166	-0.059
-432.676	-97.912	0.081	0.021
-431.661	213.643	-0.045	0.070
-430.646	800.000	-0.026	0.102
-429.632	163.977	0.041	-0.057
-428.617	-200.000	0.019	-0.083
-427.603	-124.497	0.037	-0.006
-426.588	12.657	0.111	0.085
-425.573	-99.106	0.334	-0.083
-424.559	-200.000	-0.000	-0.004
-423.544	36.094	0.190	-0.165
-422.530	-200.000	0.018	-0.308
-421.515	637.077	0.075	-0.189
-420.500	15.761	0.197	-0.153
-419.486	774.743	-0.040	0.108
-418.471	-200.000	0.019	-0.113
-417.457	13.081	-0.209	0.160
-416.442	93.455	0.154	0.172
-415.428	413.306	-0.083	-0.173
-414.413	-200.000	0.077	-0.477
-413.398	-124.618	0.221	0.034
-412.384	327.239	0.020	-0.037
-411.369	537.387	0.073	0.171
-410.355	-200.000	-0.011	0.190
-409.340	-200.000	-0.172	-0.000
-408.325	661.052	-0.130	0.329
-407.311	391.145	-0.042	0.087
-406.296	-126.910	0.371	-0.054
-405.282	-34.790	-0.173	-0.093
-404.267	5.243	0.075	-0.055
-403.252	800.000	-0.022	-0.084
-402.238	800.000	-0.084	0.232
-401.223	800.000	-0.054	-0.153
-400.209	-7.213	0.128	-0.086
-399.194	58.688	0.112	-0.108
-398.179	-152.244	-0.068	0.005
-397.165	-200.000	0.001	-0.073
-396.150	-41.562	0.121	0.061
-395.136	800.000	0.015	-0.063
-394.121	-200.000	0.019	0.086
-393.106	800.000	-0.033	0.114
-392.092	-85.517	0.343	-0.105
-391.077	-28.692	-0.379	0.215
-390.063	267.337	0.081	-0.139
-389.048	-108.813	-0.508	-0.107
-388.033	-85.536	0.189	0.058
-387.019	800.000	0.066	-0.204
-386.004	77.523	0.206	0.216
-384.990	-67.329	-0.409	-0.158
-383.975	533.840	0.058	-0.136
-382.960	-82.170	0.409	0.131
-381.946	-123.422	0.170	0.027
-380.931	-200.000	0.007	0.160
-379.917	-44.052	-0.186	0.092
-378.902	420.592	-0.057	-0.120
-377.888	236.963	-0.133	0.217
-376.873	147.142	0.215	-0.285
-375.858	-9.919	-0.242	-0.158
-374.844	-15.683	0.106	-0.067
-373.829	-119.808	0.277	0.047
-372.815	159.268	0.245	0.335
-371.800	800.000	0.021	0.070
-370.785	138.808	0.133	-0.173
-369.771	-16.719	-0.189	0.118
-368.756	55.661	-0.159	0.152
-367.742	102.147	0.160	-0.184
-366.727	411.243	-0.103	0.215
-365.712	800.000	-0.108	0.297
-364.698	-161.844	-0.214	-0.011
-363.683	-200.000	0.027	-0.148
-362.669	299.402	0.082	-0.148
-361.654	791.923	-0.070	-0.190
-360.639	266.535	-0.263	0.452
-359.625	18.513	-0.291	0.229
-358.610	800.000	-0.078	-0.240
-357.596	-200.000	0.015	0.155
-356.581	84.123	-0.080	0.086
-355.566	83.590	-0.198	0.212
-354.552	71.844	-0.027	0.028
-353.537	23.545	0.200	-0.162
-352.523	-142.028	-0.098	-0.010
-351.508	164.463	-0.161	0.223
-350.493	800.000	0.064	0.244
-349.479	32.318	-0.064	-0.054
-348.464	124.631	0.195	-0.242
-347.450	29.867	0.170	-0.142
-346.435	-112.936	0.297	0.058
-345.420	326.760	-0.072	-0.135
-344.406	-94.539	-0.437	0.117
-343.391	-79.775	0.389	-0.129
-342.377	-125.780	0.180	0.027
-341.362	-133.889	-0.260	-0.032
-340.348	-200.000	0.057	-0.274
-339.333	-200.000	0.021	0.142
-338.318	79.612	0.096	-0.102
-337.304	-18.753	0.304	-0.186
-336.289	-109.841	-0.372	0.077
-335.275	214.977	0.142	-0.222
-334.260	800.000	0.090	-0.269
-333.245	-200.000	-0.010	0.234
-332.231	219.106	0.134	-0.211
-331.216	738.670	-0.036	-0.095
-330.202	-18.700	0.195	-0.119
-329.187	91.396	-0.013	-0.014
-328.172	12.371	0.216	-0.163
-327.158	200.472	-0.022	-0.033
-326.143	-200.000	0.019	0.095
-325.129	-7.037	0.121	-0.081
-324.114	33.356	0.050	-0.042
-323.099	800.000	0.072	-0.245
-322.085	-44.852	-0.189	-0.092
-321.070	-200.000	0.002	0.063
-320.056	-142.023	-0.463	0.045
-319.041	182.302	-0.068	0.099
-318.026	-200.000	-0.064	0.377
-317.012	657.991	-0.030	-0.077
-315.997	428.113	-0.106	-0.224
-314.983	-50.253	-0.152	0.070
-313.968	-78.478	0.249	0.084
-312.953	-68.147	-0.287	-0.110
-311.939	191.810	0.335	0.495
-310.924	-138.981	0.094	-0.010
-309.910	800.000	0.056	-0.199
-308.895	-91.753	0.160	-0.045
-307.880	-200.000	-0.061	-0.274
-306.866	-93.055	-0.239	-0.065
-305.851	305.258	-0.040	-0.072
-304.837	-165.543	-0.204	0.009
-303.822	-200.000	0.038	-0.198
-302.807	264.596	0.177	0.303
-301.793	-155.817	0.421	-0.026
-300.778	800.000	-0.044	0.141
-299.764	30.787	-0.128	0.108
-298.749	-200.000	0.015	-0.153
-297.735	287.432	-0.038	-0.068
-296.720	-24.074	0.265	0.156
-295.705	347.281	0.203	0.392
-294.691	-115.339	-0.275	-0.051
-293.676	34.067	0.230	-0.197
-292.662	155.072	-0.159	-0.214
-291.647	34.231	-0.250	-0.214
-290.632	228.501	-0.136	-0.218
-289.618	80.629	0.207	0.219
-288.603	601.852	0.062	0.151
-287.589	232.245	0.034	-0.055
-286.574	396.501	0.087	-0.177
-285.559	588.794	-0.069	-0.166
-284.545	66.524	-0.246	0.245
-283.530	-2.416	0.361	0.248
-282.516	-51.936	-0.108	-0.049
-281.501	-33.265	-0.346	-0.188
-280.486	89.748	0.041	-0.045
-279.472	-49.484	0.255	-0.119
-278.457	-6.809	-0.219	0.146
-277.443	295.683	-0.164	-0.294
-276.428	-200.000	-0.020	0.120
-275.413	61.336	-0.123	-0.120
-274.399	-4.673	0.323	-0.219
-273.384	-132.913	-0.033	0.004
-272.370	43.907	-0.130	0.117
-271.355	6.652	0.303	0.221
-270.340	-130.775	-0.358	-0.047
-269.326	131.984	0.064	0.081
-268.311	-200.000	0.028	0.273
-267.297	-91.029	-0.049	-0.014
-266.282	55.589	-0.265	0.251
-265.267	-40.837	0.192	0.097
-264.253	-58.103	-0.161	-0.069
-263.238	-200.000	-0.024	-0.195
-262.224	-8.055	-0.214	0.141
-261.209	28.851	-0.129	0.107
-260.195	608.160	0.194	0.474
-259.180	-200.000	0.002	0.258
-258.165	-112.464	0.180	-0.035
-257.151	-200.000	-0.081	0.412
-256.136	800.000	-0.066	0.182
-255.122	27.242	0.195	-0.161
-254.107	243.225	-0.205	-0.336
-253.092	-200.000	0.059	-0.411
-252.078	-69.868	0.232	0.087
-251.063	-95.463	-0.085	-0.022
-250.049	496.290	-0.102	-0.229
-249.034	68.820	0.077	0.077
-248.019	-171.526	-0.286	0.009
-247.005	64.573	0.073	-0.072
-245.990	-200.000	-0.029	0.285
-244.976	-62.117	0.405	0.166
-243.961	800.000	-0.079	0.328
-242.946	78.296	-0.143	0.150
-241.932	800.000	-0.033	0.112
-240.917	-138.293	-0.367	0.040
-239.903	-13.483	0.145	0.092
-238.888	418.164	0.099	0.206
-237.873	3.103	0.287	0.204
-236.859	800.000	0.055	0.196
-235.844	-71.861	0.109	-0.040
-234.830	437.121	-0.020	0.043
-233.815	5.314	0.180	-0.130
-232.800	-115.361	-0.420	0.078
-231.786	413.299	0.090	-0.187
-230.771	-19.988	0.110	-0.067
-229.757	4.826	-0.158	0.114
-228.742	61.242	0.113	0.110
-227.727	4.639	-0.258	-0.185
-226.713	-85.671	-0.039	-0.012
-225.698	-35.351	0.237	0.126
-224.684	223.546	-0.059	0.094
-223.669	-200.000	-0.005	-0.029
-222.655	230.213	0.121	-0.193
-221.640	41.042	-0.244	0.216
-220.625	-125.364	-0.229	-0.034
-219.611	-48.679	-0.318	0.150
-218.596	800.000	0.030	-0.112
-217.582	117.918	-0.129	-0.156
-216.567	19.685	0.137	0.108
-215.552	210.865	-0.055	-0.084
-214.538	127.592	-0.087	0.108
-213.523	-200.000	-0.006	0.277
-212.509	16.518	0.328	0.253
-211.494	145.498	-0.060	0.079
-210.479	-82.501	0.189	0.060
-209.465	203.144	0.013	0.019
-208.450	-200.000	-0.032	-0.268
-207.436	115.068	0.182	-0.217
-206.421	800.000	0.023	0.094
-205.406	800.000	0.152	0.439
-204.392	378.250	-0.109	0.217
-203.377	287.968	-0.179	0.316
-202.363	-200.000	0.037	-0.328
-201.348	-1.651	0.125	-0.086
-200.333	-69.738	0.486	0.182
-199.319	-38.756	-0.214	0.110
-198.304	411.570	-0.117	0.242
-197.290	189.828	0.158	0.232
-196.275	224.046	-0.202	0.320
-195.260	27.708	-0.250	0.206
-194.246	-117.150	-0.181	-0.032
-193.231	-115.709	-0.168	0.031
-192.217	800.000	0.090	0.313
-191.202	83.598	0.167	0.178
-190.187	247.036	-0.176	0.290
-189.173	52.391	0.117	0.109
-188.158	463.615	-0.109	0.239
-187.144	-177.015	0.019	-0.000
-186.129	49.809	-0.024	-0.023
-185.114	470.628	-0.082	0.181
-184.100	-84.390	0.203	-0.063
-183.085	92.769	0.183	0.201
-182.071	-200.000	0.016	-0.320
-181.056	-122.006	-0.138	-0.022
-180.042	-200.000	0.006	0.462
-179.027	-27.075	-0.212	0.121
-178.012	-200.000	-0.047	-0.265
-176.998	23.662	0.164	0.132
-175.983	-58.749	-0.262	-0.111
-174.969	146.244	-0.023	0.030
-173.954	-200.000	0.012	-0.163
-172.939	-12.718	-0.189	-0.120
-171.925	-77.850	-0.112	-0.038
-170.910	689.332	-0.097	-0.248
-169.896	-46.711	0.348	-0.167
-168.881	790.046	-0.058	-0.156
-167.866	-200.000	0.008	0.140
-166.852	-95.993	-0.197	-0.051
-165.837	-11.466	0.245	0.158
-164.823	-56.801	-0.205	0.088
-163.808	-200.000	0.020	0.201
-162.793	103.822	0.045	0.052
-161.779	800.000	0.063	0.248
-160.764	-200.000	0.038	-0.174
-159.750	800.000	0.139	-0.399
-158.735	97.098	-0.137	0.153
-157.720	20.655	-0.206	0.163
-156.706	528.996	0.033	0.075
-155.691	-135.437	0.236	0.027
-154.677	-7.535	0.313	0.207
-153.662	-70.244	0.132	-0.049
-152.647	-58.495	-0.232	0.098
-151.633	487.434	-0.125	0.278
-150.618	-128.069	0.415	0.058
-149.604	77.064	0.178	0.184
-148.589	-131.072	-0.419	-0.054
-147.574	-79.037	0.393	0.130
-146.560	-200.000	0.011	-0.121
-145.545	199.079	0.143	0.214
-144.531	-108.369	-0.344	0.072
-143.516	800.000	-0.094	0.278
-142.502	-36.382	-0.123	0.064
-141.487	12.783	-0.279	0.210
-140.472	-91.148	0.061	-0.017
-139.458	159.818	-0.179	0.243
-138.443	-200.000	0.003	0.157
-137.429	71.057	0.327	0.330
-136.414	-122.957	-0.110	-0.017
-135.399	-142.729	-0.159	0.015
-134.385	800.000	0.154	-0.426
-133.370	-175.114	0.268	-0.007
-132.356	-198.459	0.101	0.001
-131.341	-163.017	-0.104	0.005
-130.326	72.480	-0.104	0.105
-129.312	35.649	-0.154	0.132
-128.297	3.500	0.133	-0.094
-127.283	-200.000	-0.025	-0.265
-126.268	-90.103	0.296	-0.084
-125.253	-73.327	0.339	0.121
-124.239	6.515	-0.321	-0.233
-123.224	800.000	-0.028	0.081
-122.210	6.301	0.071	-0.051
-121.195	-200.000	0.006	0.174
-120.180	-32.838	0.250	0.136
