DTS Sentinel unit serial number:	SN413079Multiplexer serial number:	ORYXHardware model number:	OX4-SRSoftware version number:	ORYX F/W v4.00 Oryx Data Collector v3.7.2.0data status	okinstallation	princeton_trtdifferential loss correction	single-endedforward channel	channel 2reverse channel	N/Adate	2019/09/12time	06:21:10forward acquisition time	60.00reverse acquisition time	0.00gamma	496.2192k internal	0.2324k external	0.2324temperature offset calibration	1.0065default loss term (dB/km)	0.3790temperature slope calibration	1.0000multiplexer offset coefficient	1.0000multiplexer slope coefficient	1.0000fibre end	0.00T internal ref (°C)	32.12T ext. ref 1 (°C)	1.55T ext. ref 2 (°C)	27.39length (m)	temperature (°C)	Stokes	anti-Stokes-747.200	-125.763	0.347	-0.053
-746.185	360.095	0.133	0.269
-745.171	-110.082	0.154	0.033
-744.156	-200.000	-0.006	0.186
-743.142	354.280	-0.085	-0.170
-742.127	139.024	0.073	0.096
-741.112	59.227	0.083	-0.083
-740.098	619.521	0.006	0.015
-739.083	-1.531	-0.043	0.031
-738.069	34.438	0.223	0.196
-737.054	6.904	-0.090	-0.068
-736.039	308.992	-0.130	0.245
-735.025	-120.123	0.076	0.013
-734.010	-200.000	-0.105	-0.478
-732.996	-200.000	-0.012	-0.159
-731.981	-200.000	0.012	-0.130
-730.966	-200.000	0.045	-0.340
-729.952	-200.000	0.021	-0.280
-728.937	-62.639	0.266	-0.111
-727.923	800.000	-0.014	0.058
-726.908	50.372	-0.171	0.163
-725.894	130.121	-0.131	-0.170
-724.879	328.893	-0.024	-0.046
-723.864	800.000	-0.056	-0.179
-722.850	10.588	-0.425	-0.327
-721.835	-200.000	-0.006	0.114
-720.821	133.896	-0.021	0.028
-719.806	-200.000	-0.061	-0.368
-718.791	-200.000	0.178	-0.001
-717.777	-42.201	0.117	-0.061
-716.762	-79.558	-0.184	0.063
-715.748	-46.132	0.271	-0.134
-714.733	51.587	-0.213	-0.205
-713.718	800.000	0.069	-0.279
-712.704	83.158	0.244	-0.268
-711.689	12.245	-0.098	0.076
-710.675	-200.000	0.027	0.235
-709.660	87.260	0.272	-0.303
-708.645	34.778	-0.115	0.101
-707.631	83.644	-0.175	-0.192
-706.616	-58.715	0.233	0.102
-705.602	-200.000	-0.023	0.206
-704.587	800.000	-0.118	0.356
-703.572	-200.000	0.007	0.136
-702.558	-200.000	0.050	-0.244
-701.543	340.339	0.203	0.399
-700.529	800.000	0.063	-0.192
-699.514	-90.862	0.118	-0.034
-698.499	266.575	-0.062	-0.110
-697.485	800.000	0.075	0.283
-696.470	144.585	0.185	0.248
-695.456	-200.000	-0.037	0.221
-694.441	247.472	0.118	0.201
-693.426	-90.757	0.078	-0.023
-692.412	11.925	0.212	0.164
-691.397	310.319	-0.078	-0.148
-690.383	171.329	-0.154	-0.223
-689.368	-51.567	-0.085	0.040
-688.354	68.663	-0.192	-0.198
-687.339	-132.339	-0.169	-0.022
-686.324	-25.104	-0.148	-0.088
-685.310	-63.867	0.363	0.149
-684.295	-200.000	0.003	-0.226
-683.281	5.015	-0.242	-0.180
-682.266	223.587	0.071	-0.116
-681.251	216.001	-0.093	-0.149
-680.237	411.389	0.079	0.168
-679.222	-115.246	-0.491	0.094
-678.208	-200.000	0.020	0.216
-677.193	-200.000	-0.014	-0.114
-676.178	-200.000	-0.054	0.275
-675.164	164.505	0.161	0.228
-674.149	-200.000	0.024	-0.231
-673.135	1.939	-0.194	0.141
-672.120	17.728	0.135	-0.108
-671.105	305.798	0.138	-0.259
-670.091	396.799	0.235	-0.493
-669.076	-137.706	-0.383	-0.043
-668.062	-97.063	-0.334	-0.088
-667.047	-200.000	0.018	0.220
-666.032	-55.380	0.052	0.023
-665.018	-33.734	-0.117	-0.065
-664.003	-89.019	-0.241	-0.072
-662.989	-128.672	-0.295	0.042
-661.974	-200.000	0.042	0.209
-660.959	-200.000	-0.020	-0.087
-659.945	236.777	-0.063	0.106
-658.930	-168.814	-0.215	0.008
-657.916	-200.000	0.010	0.047
-656.901	692.654	0.048	-0.127
-655.886	-157.733	0.343	-0.021
-654.872	75.389	0.150	-0.160
-653.857	-166.270	0.270	-0.011
-652.843	-200.000	-0.030	0.134
-651.828	60.147	0.039	-0.039
-650.814	-200.000	0.070	-0.502
-649.799	800.000	-0.086	0.240
-648.784	-25.765	-0.235	-0.139
-647.770	-200.000	-0.039	0.286
-646.755	-45.755	-0.125	-0.062
-645.741	86.129	0.153	-0.169
-644.726	-84.714	0.168	0.053
-643.711	-90.050	0.055	-0.016
-642.697	150.609	-0.107	-0.145
-641.682	-78.410	0.275	0.095
-640.668	117.471	-0.284	0.351
-639.653	-200.000	0.009	0.390
-638.638	-1.814	-0.220	0.155
-637.624	652.762	-0.114	-0.295
-636.609	24.108	0.091	-0.076
-635.595	355.574	-0.071	-0.142
-634.580	-60.684	-0.386	-0.164
-633.565	313.174	-0.198	-0.374
-632.551	-26.025	0.129	-0.076
-631.536	-99.770	0.414	-0.104
-630.522	302.221	0.051	0.095
-629.507	81.991	0.251	0.274
-628.492	-54.678	-0.397	0.180
-627.478	-112.159	0.300	-0.061
-626.463	82.562	-0.332	-0.362
-625.449	5.646	-0.058	-0.043
-624.434	-169.290	-0.181	-0.007
-623.419	55.431	-0.180	0.175
-622.405	-51.916	0.220	0.103
-621.390	-76.986	-0.034	-0.012
-620.376	-22.166	-0.258	-0.157
-619.361	679.789	-0.140	-0.367
-618.346	-101.271	-0.373	-0.092
-617.332	421.246	0.093	0.201
-616.317	-200.000	-0.007	0.150
-615.303	-200.000	-0.003	-0.120
-614.288	800.000	-0.109	-0.407
-613.273	-200.000	-0.001	0.202
-612.259	376.120	0.086	0.175
-611.244	55.598	0.105	-0.103
-610.230	-104.409	0.336	0.078
-609.215	-37.767	-0.131	-0.070
-608.201	800.000	-0.171	0.636
-607.186	-163.286	-0.233	-0.011
-606.171	-35.472	0.095	0.052
-605.157	-200.000	0.020	-0.257
-604.142	260.192	0.153	-0.265
-603.128	143.661	0.120	0.160
-602.113	-73.838	0.216	-0.079
-601.098	-41.282	0.082	0.042
-600.084	-179.624	0.495	0.011
-599.069	-57.302	0.111	0.049
-598.055	-128.720	-0.164	-0.023
-597.040	155.248	0.130	0.179
-596.025	-200.000	0.054	-0.317
-595.011	-108.120	-0.394	-0.086
-593.996	12.092	0.056	0.043
-592.982	-200.000	0.009	0.142
-591.967	-73.242	0.111	-0.041
-590.952	-200.000	-0.003	-0.087
-589.938	78.581	0.219	0.235
-588.923	-113.396	0.327	-0.064
-587.909	70.555	0.147	-0.152
-586.894	-95.160	-0.192	-0.052
-585.879	9.589	-0.161	-0.123
-584.865	269.886	-0.110	0.193
-583.850	43.178	0.306	0.280
-582.836	-200.000	-0.354	-0.002
-581.821	-161.640	0.141	0.007
-580.806	504.453	0.064	-0.148
-579.792	-44.317	0.099	-0.050
-578.777	-200.000	-0.016	-0.095
-577.763	-13.674	-0.099	-0.065
-576.748	197.707	-0.128	0.196
-575.733	800.000	0.040	-0.152
-574.719	65.272	0.132	-0.134
-573.704	-103.603	0.130	0.031
-572.690	-200.000	-0.035	0.447
-571.675	-54.587	-0.083	-0.038
-570.661	285.749	-0.207	0.375
-569.646	-101.301	-0.237	0.058
-568.631	-61.426	-0.335	-0.141
-567.617	287.892	0.078	0.141
-566.602	23.143	-0.148	0.122
-565.588	37.731	-0.180	0.160
-564.573	-9.812	0.230	0.154
-563.558	-200.000	-0.006	-0.052
-562.544	-200.000	0.027	0.124
-561.529	800.000	0.103	-0.413
-560.515	-200.000	0.051	-0.396
-559.500	-52.708	-0.164	-0.076
-558.485	-200.000	-0.020	-0.230
-557.471	-12.758	0.226	-0.148
-556.456	-32.808	-0.196	0.109
-555.442	-161.527	-0.392	-0.020
-554.427	-71.323	-0.398	-0.149
-553.412	270.891	0.206	-0.363
-552.398	27.439	0.215	-0.181
-551.383	233.230	-0.264	0.435
-550.369	-29.034	0.176	-0.101
-549.354	-18.180	-0.162	-0.101
-548.339	-200.000	-0.003	-0.052
-547.325	78.553	0.152	-0.163
-546.310	61.711	0.125	0.125
-545.296	-200.000	0.120	-0.645
-544.281	-200.000	0.001	-0.450
-543.266	-141.164	-0.179	-0.018
-542.252	-200.000	0.019	0.150
-541.237	55.313	0.151	0.146
-540.223	48.262	0.272	-0.255
-539.208	-200.000	-0.037	0.245
-538.193	-186.086	-0.238	0.003
-537.179	79.378	0.153	-0.165
-536.164	98.079	0.017	-0.020
-535.150	800.000	0.040	-0.153
-534.135	123.191	-0.052	-0.065
-533.121	67.792	0.032	0.033
-532.106	-103.936	-0.234	-0.055
-531.091	195.205	-0.074	-0.113
-530.077	58.171	-0.183	0.180
-529.062	605.755	-0.121	-0.301
-528.048	41.820	-0.200	-0.181
-527.033	-0.641	0.353	-0.250
-526.018	-18.044	-0.019	0.012
-525.004	166.085	-0.115	0.163
-523.989	271.979	-0.102	0.181
-522.975	-200.000	0.023	-0.201
-521.960	62.297	0.175	0.174
-520.945	37.302	-0.207	0.184
-519.931	-117.312	0.386	-0.070
-518.916	-200.000	0.035	-0.179
-517.902	-87.176	-0.035	-0.011
-516.887	-200.000	-0.026	0.276
-515.872	-200.000	-0.039	-0.200
-514.858	263.804	-0.066	-0.114
-513.843	-200.000	-0.019	-0.334
-512.829	-200.000	-0.003	-0.024
-511.814	-107.413	-0.312	0.069
-510.799	-200.000	0.041	-0.224
-509.785	49.850	0.053	0.050
-508.770	800.000	0.106	-0.306
-507.756	-200.000	-0.007	-0.114
-506.741	399.477	0.035	0.073
-505.726	-200.000	-0.071	-0.409
-504.712	-156.259	0.382	0.024
-503.697	-200.000	-0.064	-0.302
-502.683	-200.000	-0.011	0.108
-501.668	-200.000	0.013	-0.300
-500.653	88.847	-0.100	0.111
-499.639	-30.042	0.241	0.137
-498.624	158.723	-0.098	0.137
-497.610	372.580	0.163	-0.332
-496.595	-119.244	0.236	-0.041
-495.581	-72.671	-0.055	-0.020
-494.566	33.511	-0.047	-0.041
-493.551	300.907	-0.189	0.348
-492.537	-200.000	0.022	0.177
-491.522	-200.000	0.028	-0.129
-490.508	307.693	0.122	-0.228
-489.493	800.000	0.162	0.455
-488.478	-200.000	0.024	0.366
-487.464	-200.000	0.047	0.213
-486.449	32.964	0.452	-0.392
-485.435	258.343	0.037	-0.064
-484.420	193.640	0.071	-0.108
-483.405	-162.796	0.138	0.007
-482.391	195.924	-0.041	0.063
-481.376	79.809	-0.276	0.297
-480.362	-120.647	-0.105	-0.018
-479.347	18.140	0.262	-0.209
-478.332	-22.088	0.192	0.117
-477.318	-10.920	-0.114	-0.075
-476.303	-50.144	0.019	0.009
-475.289	59.695	-0.057	0.056
-474.274	-181.457	-0.388	-0.008
-473.259	-200.000	-0.101	0.533
-472.245	550.775	-0.107	0.256
-471.230	-200.000	0.002	0.161
-470.216	-60.913	-0.174	-0.073
-469.201	-200.000	0.016	-0.084
-468.186	46.022	0.105	-0.097
-467.172	-23.332	-0.245	0.147
-466.157	-1.290	0.047	-0.033
-465.143	800.000	0.025	-0.087
-464.128	-95.471	0.109	-0.029
-463.113	-200.000	0.001	-0.093
-462.099	538.104	0.079	0.187
-461.084	-95.105	-0.212	0.057
-460.070	145.761	-0.135	0.181
-459.055	-200.000	-0.017	-0.201
-458.040	-11.448	-0.193	0.127
-457.026	-41.337	-0.144	-0.074
-456.011	240.047	0.153	0.255
-454.997	289.556	0.175	0.317
-453.982	-125.681	0.267	0.040
-452.968	180.735	0.192	0.282
-451.953	-93.324	-0.210	0.058
-450.938	-180.777	0.069	-0.001
-449.924	111.365	-0.218	-0.262
-448.909	-118.484	-0.246	-0.044
-447.895	-123.648	-0.233	-0.037
-446.880	46.300	0.186	-0.172
-445.865	-200.000	0.135	0.661
-444.851	-169.858	0.312	-0.011
-443.836	800.000	-0.052	0.151
-442.822	-146.141	0.254	-0.022
-441.807	127.556	-0.064	-0.081
-440.792	-48.465	0.216	0.104
-439.778	-111.600	0.043	-0.009
-438.763	-149.384	-0.117	-0.009
-437.749	-166.772	0.324	-0.013
-436.734	-200.000	-0.025	-0.208
-435.719	59.654	0.144	-0.142
-434.705	63.604	0.084	0.084
-433.690	-24.873	-0.251	-0.149
-432.676	-200.000	-0.011	-0.091
-431.661	65.583	0.172	-0.174
-430.646	-113.971	-0.249	-0.048
-429.632	-200.000	0.018	-0.226
-428.617	71.055	0.317	-0.328
-427.603	58.185	0.187	0.183
-426.588	-200.000	-0.046	-0.368
-425.573	-48.340	-0.230	0.110
-424.559	483.357	-0.082	0.186
-423.544	-200.000	0.015	-0.099
-422.530	287.029	0.052	-0.095
-421.515	800.000	0.045	-0.152
-420.500	36.126	0.111	-0.097
-419.486	-10.242	0.294	0.194
-418.471	-93.815	0.085	-0.023
-417.457	335.766	0.012	-0.023
-416.442	800.000	-0.044	0.173
-415.428	679.277	-0.033	-0.087
-414.413	-106.106	-0.367	0.082
-413.398	-54.360	0.257	-0.116
-412.384	15.981	0.032	-0.025
-411.369	-200.000	-0.035	0.164
-410.355	-200.000	-0.014	0.199
-409.340	-72.216	-0.033	-0.012
-408.325	-200.000	-0.303	0.000
-407.311	72.466	0.139	0.144
-406.296	179.805	-0.077	0.113
-405.282	-86.962	0.089	-0.027
-404.267	356.606	0.110	0.219
-403.252	-108.686	0.270	0.058
-402.238	-103.704	-0.226	-0.053
-401.223	-162.286	-0.355	0.018
-400.209	-200.000	-0.057	-0.281
-399.194	-34.042	-0.104	-0.057
-398.179	-200.000	0.065	-0.371
-397.165	-104.478	0.046	-0.011
-396.150	-85.355	0.243	-0.076
-395.136	800.000	0.030	0.091
-394.121	800.000	-0.032	-0.109
-393.106	283.241	-0.163	-0.292
-392.092	92.242	0.110	0.124
-391.077	800.000	-0.070	0.231
-390.063	771.158	-0.035	-0.095
-389.048	65.815	-0.178	-0.179
-388.033	-200.000	-0.013	0.092
-387.019	-25.915	-0.302	-0.177
-386.004	33.266	-0.131	-0.113
-384.990	-10.755	-0.149	0.098
-383.975	-200.000	0.054	-0.249
-382.960	437.407	0.022	0.048
-381.946	129.170	0.157	-0.200
-380.931	51.189	-0.147	0.139
-379.917	234.522	-0.094	-0.154
-378.902	631.124	-0.071	-0.179
-377.888	-200.000	-0.037	-0.186
-376.873	-200.000	-0.019	-0.225
-375.858	84.461	-0.091	0.099
-374.844	800.000	0.108	0.341
-373.829	558.141	-0.077	-0.184
-372.815	800.000	0.043	0.122
-371.800	-139.608	0.392	0.042
-370.785	-84.593	0.013	0.004
-369.771	119.870	0.011	-0.013
-368.756	-200.000	0.004	-0.033
-367.742	-200.000	-0.045	-0.235
-366.727	800.000	0.018	0.069
-365.712	-121.306	0.445	0.074
-364.698	-200.000	-0.014	-0.112
-363.683	-150.852	0.178	-0.013
-362.669	800.000	0.076	0.216
-361.654	-25.863	-0.237	-0.139
-360.639	42.124	-0.176	0.159
-359.625	-127.664	0.258	0.037
-358.610	800.000	-0.058	-0.247
-357.596	-47.827	-0.291	0.140
-356.581	237.886	0.077	0.127
-355.566	-200.000	0.043	-0.204
-354.552	117.075	-0.182	0.222
-353.537	289.344	0.029	0.053
-352.523	800.000	0.137	-0.405
-351.508	15.062	-0.235	-0.183
-350.493	-33.894	0.051	-0.028
-349.479	157.770	-0.051	0.071
-348.464	149.363	-0.195	0.262
-347.450	97.767	0.150	-0.171
-346.435	-150.896	0.278	0.021
-345.420	728.671	-0.044	-0.117
-344.406	61.000	-0.131	-0.129
-343.391	17.391	-0.356	0.281
-342.377	-200.000	-0.015	0.155
-341.362	800.000	0.039	-0.145
-340.348	130.626	-0.168	-0.214
-339.333	-200.000	-0.016	-0.240
-338.318	-17.678	-0.285	-0.178
-337.304	-144.439	-0.343	-0.032
-336.289	213.857	-0.108	0.170
-335.275	-200.000	-0.027	0.329
-334.260	800.000	0.114	-0.409
-333.245	800.000	0.023	0.093
-332.231	-109.772	0.117	-0.024
-331.216	28.683	0.095	-0.080
-330.202	-143.005	0.220	0.021
-329.187	54.979	-0.187	0.180
-328.172	23.088	0.164	-0.134
-327.158	14.776	-0.269	-0.209
-326.143	-175.287	-0.249	0.007
-325.129	65.584	-0.089	-0.089
-324.114	156.868	0.097	0.133
-323.099	-200.000	-0.015	0.084
-322.085	-200.000	0.046	-0.234
-321.070	20.517	-0.134	0.108
-320.056	-58.360	0.128	0.055
-319.041	800.000	-0.083	0.244
-318.026	48.017	-0.227	0.210
-317.012	-200.000	-0.004	-0.055
-315.997	-170.982	-0.184	0.006
-314.983	-200.000	-0.004	-0.076
-313.968	800.000	0.034	0.145
-312.953	-31.834	-0.115	0.064
-311.939	-200.000	-0.048	0.407
-310.924	310.900	0.151	0.281
-309.910	-200.000	-0.069	0.379
-308.895	-189.231	-0.043	-0.001
-307.880	45.859	0.120	-0.110
-306.866	-29.249	0.048	-0.027
-305.851	291.884	-0.140	-0.253
-304.837	-200.000	0.013	-0.115
-303.822	262.363	0.004	-0.007
-302.807	204.373	-0.099	-0.152
-301.793	-80.208	0.261	-0.087
-300.778	463.091	-0.104	0.231
-299.764	-128.437	0.301	0.042
-298.749	747.265	-0.035	-0.094
-297.735	190.374	0.131	0.196
-296.720	24.616	-0.174	0.143
-295.705	-85.299	-0.175	-0.054
-294.691	238.227	0.046	-0.075
-293.676	155.839	-0.087	0.119
-292.662	234.276	-0.093	0.152
-291.647	535.900	-0.099	-0.232
-290.632	-23.271	0.233	0.139
-289.618	800.000	0.053	-0.186
-288.603	344.752	0.045	-0.088
-287.589	-129.177	0.457	-0.063
-286.574	267.211	-0.131	-0.226
-285.559	80.689	0.070	-0.074
-284.545	-118.649	0.215	0.038
-283.530	-200.000	0.006	-0.137
-282.516	447.119	0.141	0.309
-281.501	-131.212	-0.319	0.042
-280.486	758.112	0.053	-0.142
-279.472	-106.825	-0.206	-0.045
-278.457	-27.452	-0.110	0.063
-277.443	3.516	0.117	-0.085
-276.428	-9.885	-0.110	-0.072
-275.413	-58.480	0.328	-0.141
-274.399	-71.343	-0.180	0.067
-273.384	800.000	-0.039	-0.123
-272.370	-73.307	0.210	0.076
-271.355	429.507	-0.078	0.168
-270.340	800.000	-0.024	-0.099
-269.326	-158.882	0.082	-0.005
-268.311	-185.106	0.148	-0.002
-267.297	319.101	-0.114	0.214
-266.282	65.825	0.296	-0.297
-265.267	632.035	0.133	-0.334
-264.253	-80.322	0.303	-0.100
-263.238	-165.497	-0.203	-0.009
-262.224	-75.357	-0.191	0.067
-261.209	-86.106	0.345	-0.105
-260.195	-138.610	0.491	0.053
-259.180	303.109	0.209	0.384
-258.165	744.797	-0.125	0.334
-257.151	-155.910	0.351	-0.022
-256.136	-69.311	-0.073	-0.028
-255.122	16.271	-0.186	0.145
-254.107	-200.000	0.011	0.176
-253.092	-74.736	0.199	-0.071
-252.078	-37.770	-0.332	0.175
-251.063	234.287	-0.123	-0.201
-250.049	-0.427	0.178	0.125
-249.034	456.061	-0.137	0.300
-248.019	-172.786	-0.252	0.008
-247.005	605.608	0.112	0.277
-245.990	-94.863	-0.033	0.009
-244.976	-99.154	0.159	0.040
-243.961	106.438	-0.114	0.134
-242.946	-95.306	0.202	0.054
-241.932	186.349	0.142	-0.209
-240.917	314.519	0.162	0.302
-239.903	505.731	0.066	-0.150
-238.888	560.759	-0.058	-0.139
-237.873	-43.799	-0.305	0.152
-236.859	-88.577	-0.019	-0.006
-235.844	-72.890	0.312	0.114
-234.830	-50.813	-0.221	0.103
-233.815	319.390	0.087	0.163
-232.800	-47.066	0.108	0.052
-231.786	-37.171	0.147	0.078
-230.771	-82.860	0.179	0.057
-229.757	-121.687	0.358	-0.059
-228.742	645.493	-0.117	0.297
-227.727	800.000	0.004	0.012
-226.713	470.050	-0.044	-0.097
-225.698	297.605	0.110	-0.201
-224.684	-63.033	-0.167	0.068
-223.669	-12.427	-0.182	0.117
-222.655	-54.427	-0.061	0.027
-221.640	-200.000	-0.034	0.320
-220.625	-200.000	0.025	0.212
-219.611	-200.000	0.026	0.118
-218.596	7.282	-0.178	-0.131
-217.582	-200.000	0.010	-0.081
-216.567	-84.847	-0.166	-0.051
-215.552	-200.000	0.013	-0.095
-214.538	-200.000	-0.008	0.211
-213.523	51.424	-0.240	0.226
-212.509	84.493	0.140	-0.152
-211.494	-148.334	-0.220	0.018
-210.479	150.415	-0.123	-0.164
-209.465	58.667	0.084	-0.081
-208.450	-122.242	-0.264	-0.043
-207.436	-53.858	0.070	0.032
-206.421	102.309	-0.008	-0.010
-205.406	147.153	-0.046	-0.062
-204.392	54.337	0.131	-0.125
-203.377	-52.371	0.171	0.078
-202.363	-31.897	0.114	-0.063
-201.348	-200.000	0.010	-0.222
-200.333	-33.715	-0.142	-0.077
-199.319	274.181	0.028	0.049
-198.304	-200.000	-0.036	0.200
-197.290	237.707	0.123	0.201
-196.275	321.154	-0.131	-0.246
-195.260	426.547	-0.147	0.314
-194.246	155.502	-0.017	-0.023
-193.231	-45.379	-0.230	0.113
-192.217	111.200	-0.164	0.195
-191.202	-200.000	-0.007	0.287
-190.187	-42.574	0.143	0.072
-189.173	-104.533	-0.021	-0.005
-188.158	-62.428	-0.328	-0.135
-187.144	-54.489	0.210	0.094
-186.129	432.679	-0.104	-0.222
-185.114	235.368	-0.165	-0.269
-184.100	21.460	-0.163	-0.131
-183.085	98.275	0.149	-0.170
-182.071	-104.822	-0.183	-0.042
-181.056	427.503	0.076	0.161
-180.042	-83.239	0.385	-0.122
-179.027	-110.486	0.050	0.010
-178.012	-95.258	-0.302	0.080
-176.998	-200.000	0.205	0.001
-175.983	-200.000	-0.072	0.377
-174.969	-88.732	-0.192	-0.056
-173.954	-149.382	0.334	0.026
-172.939	-50.922	0.141	0.065
-171.925	-200.000	-0.053	0.421
-170.910	-149.234	0.163	-0.013
-169.896	-91.290	0.175	-0.050
-168.881	-53.938	0.132	0.059
-167.866	12.378	0.014	-0.011
-166.852	72.946	0.146	-0.151
-165.837	-93.971	0.121	0.033
-164.823	-121.804	0.154	0.025
-163.808	-49.845	-0.185	0.087
-162.793	145.724	0.200	-0.265
-161.779	800.000	0.022	-0.061
-160.764	-200.000	-0.025	0.481
-159.750	-9.415	0.265	0.175
-158.735	9.965	0.045	-0.033
-157.720	-5.426	0.230	-0.156
-156.706	-42.062	-0.077	0.039
-155.691	17.486	-0.181	0.142
-154.677	60.420	-0.268	0.262
-153.662	243.078	0.144	0.238
-152.647	121.507	0.078	-0.096
-151.633	800.000	-0.029	-0.083
-150.618	98.838	0.279	-0.318
-149.604	800.000	0.085	-0.350
-148.589	99.986	-0.132	-0.151
-147.574	-100.904	-0.366	0.089
-146.560	-17.694	0.052	0.032
-145.545	616.102	0.162	0.400
-144.531	82.146	0.173	0.185
-143.516	-51.603	0.113	0.052
-142.502	-123.865	-0.048	0.008
-141.487	48.383	-0.114	0.106
-140.472	800.000	0.038	-0.145
-139.458	-200.000	-0.040	-0.542
-138.443	800.000	-0.033	-0.091
-137.429	-94.310	0.233	0.063
-136.414	-111.616	0.250	0.050
-135.399	263.686	-0.092	0.158
-134.385	39.111	-0.091	0.080
-133.370	5.378	0.130	-0.094
-132.356	800.000	0.066	-0.202
-131.341	800.000	-0.052	0.152
-130.326	465.029	0.108	-0.239
-129.312	-39.355	0.381	-0.197
-128.297	3.548	-0.124	0.089
-127.283	800.000	0.063	0.213
-126.268	-165.298	0.278	-0.012
-125.253	800.000	-0.038	0.119
-124.239	52.040	0.288	0.271
-123.224	800.000	-0.064	-0.231
-122.210	-18.643	0.181	-0.111
