DTS Sentinel unit serial number:	SN413079Multiplexer serial number:	ORYXHardware model number:	OX4-SRSoftware version number:	ORYX F/W v4.00 Oryx Data Collector v3.7.2.0data status	okinstallation	princeton_trtdifferential loss correction	single-endedforward channel	channel 2reverse channel	N/Adate	2019/09/12time	11:25:11forward acquisition time	60.00reverse acquisition time	0.00gamma	496.2192k internal	0.2303k external	0.2303temperature offset calibration	1.0069default loss term (dB/km)	0.3790temperature slope calibration	1.0000multiplexer offset coefficient	1.0000multiplexer slope coefficient	1.0000fibre end	0.00T internal ref (°C)	39.20T ext. ref 1 (°C)	1.95T ext. ref 2 (°C)	36.62length (m)	temperature (°C)	Stokes	anti-Stokes-747.200	-200.000	0.010	-0.091
-746.185	328.094	-0.020	0.039
-745.171	-95.332	-0.025	-0.007
-744.156	80.842	0.010	0.011
-743.142	800.000	-0.070	0.226
-742.127	-99.391	0.270	-0.069
-741.112	-58.695	0.132	-0.058
-740.098	40.790	-0.143	0.132
-739.083	-106.445	0.085	-0.019
-738.069	80.655	0.139	0.152
-737.054	-74.526	-0.128	0.047
-736.039	-45.621	0.180	-0.091
-735.025	-119.935	0.014	-0.002
-734.010	-72.178	-0.110	-0.042
-732.996	339.921	0.138	-0.274
-731.981	-95.517	-0.217	-0.059
-730.966	-52.601	-0.212	0.100
-729.952	800.000	-0.031	0.125
-728.937	-163.522	-0.227	0.011
-727.923	89.909	-0.186	0.212
-726.908	-16.290	0.062	-0.040
-725.894	141.651	-0.193	0.260
-724.879	-136.328	-0.269	-0.032
-723.864	277.612	-0.197	0.356
-722.850	29.780	-0.042	-0.036
-721.835	-114.350	0.238	-0.047
-720.821	-200.000	-0.051	-0.420
-719.806	800.000	0.091	-0.394
-718.791	418.416	-0.122	-0.267
-717.777	-23.636	-0.314	-0.192
-716.762	93.541	-0.084	0.097
-715.748	267.042	0.051	-0.091
-714.733	139.942	0.153	0.206
-713.718	408.467	-0.143	-0.308
-712.704	-200.000	-0.021	-0.258
-711.689	-86.933	0.446	-0.138
-710.675	-200.000	-0.021	0.219
-709.660	124.612	-0.189	-0.242
-708.645	227.447	-0.194	0.321
-707.631	-71.371	-0.244	0.093
-706.616	-200.000	0.019	0.344
-705.602	-200.000	0.031	0.297
-704.587	110.619	0.194	0.237
-703.572	800.000	0.083	0.242
-702.558	-119.449	-0.227	-0.040
-701.543	-99.219	0.242	-0.062
-700.529	715.725	-0.047	-0.128
-699.514	800.000	-0.058	-0.253
-698.499	-178.496	-0.089	-0.002
-697.485	235.433	-0.103	0.173
-696.470	-92.185	0.249	0.072
-695.456	632.210	0.103	0.264
-694.441	-193.349	-0.215	0.002
-693.426	229.206	-0.105	0.175
-692.412	20.813	-0.277	0.228
-691.397	800.000	0.055	0.163
-690.383	109.198	-0.097	0.117
-689.368	-75.595	-0.091	0.033
-688.354	-200.000	-0.000	0.251
-687.339	800.000	-0.069	-0.296
-686.324	800.000	-0.041	-0.127
-685.310	800.000	-0.067	0.212
-684.295	-193.826	-0.206	0.002
-683.281	-155.677	-0.182	-0.012
-682.266	-200.000	0.016	0.111
-681.251	-65.709	-0.198	0.081
-680.237	74.325	0.228	-0.244
-679.222	-200.000	0.003	-0.024
-678.208	261.316	-0.071	-0.125
-677.193	800.000	-0.068	-0.233
-676.178	-12.280	0.380	0.252
-675.164	485.074	0.140	0.325
-674.149	-46.469	0.290	0.145
-673.135	-200.000	-0.039	0.245
-672.120	105.032	-0.059	0.071
-671.105	-200.000	-0.002	0.154
-670.091	-162.325	-0.030	-0.001
-669.076	225.547	-0.200	-0.329
-668.062	-200.000	-0.014	-0.137
-667.047	-14.939	-0.074	0.048
-666.032	109.471	-0.188	-0.229
-665.018	800.000	-0.047	-0.151
-664.003	420.321	-0.111	-0.241
-662.989	-96.567	-0.144	0.039
-661.974	579.609	0.093	-0.232
-660.959	-200.000	0.032	0.431
-659.945	534.354	0.086	0.207
-658.930	-94.479	0.353	-0.098
-657.916	-53.837	0.266	-0.123
-656.901	-116.348	-0.205	-0.039
-655.886	205.929	-0.093	-0.146
-654.872	800.000	0.028	-0.121
-653.857	-152.824	-0.148	0.011
-652.843	-200.000	-0.004	0.159
-651.828	-200.000	0.008	0.198
-650.814	-187.489	-0.252	-0.003
-649.799	305.677	-0.067	0.126
-648.784	-200.000	-0.047	0.279
-647.770	-144.211	0.283	-0.027
-646.755	95.738	-0.200	-0.232
-645.741	221.364	0.080	-0.130
-644.726	-32.989	-0.348	0.196
-643.711	-36.230	0.076	0.042
-642.697	17.047	-0.163	0.131
-641.682	235.689	0.077	0.129
-640.668	-106.364	-0.227	0.052
-639.653	22.146	-0.134	-0.111
-638.638	-180.852	0.439	0.009
-637.624	-102.787	0.033	-0.008
-636.609	362.974	-0.068	-0.139
-635.595	800.000	0.086	-0.270
-634.580	42.315	0.073	0.068
-633.565	800.000	-0.020	-0.066
-632.551	-171.857	-0.286	0.009
-631.536	-26.551	-0.157	0.094
-630.522	-200.000	0.014	0.077
-629.507	-178.228	-0.169	-0.004
-628.492	-91.735	-0.311	0.090
-627.478	-72.382	-0.109	0.041
-626.463	-153.285	0.040	-0.003
-625.449	117.473	-0.126	-0.157
-624.434	56.768	-0.158	0.156
-623.419	-112.840	0.041	-0.008
-622.405	73.537	-0.256	-0.272
-621.390	-99.312	-0.137	-0.035
-620.376	-200.000	0.005	-0.301
-619.361	-200.000	0.085	-0.472
-618.346	-62.820	-0.069	0.029
-617.332	-108.453	-0.481	-0.105
-616.317	4.889	-0.152	0.113
-615.303	-200.000	-0.039	0.251
-614.288	-117.183	-0.133	0.024
-613.273	-200.000	-0.011	-0.071
-612.259	45.689	-0.244	0.229
-611.244	97.364	0.342	0.398
-610.230	800.000	-0.095	0.297
-609.215	32.992	-0.151	0.132
-608.201	-141.543	-0.434	-0.044
-607.186	-68.163	-0.287	-0.113
-606.171	-42.762	0.101	-0.052
-605.157	316.860	0.167	0.320
-604.142	-152.275	0.353	-0.026
-603.128	-200.000	0.006	-0.213
-602.113	800.000	0.034	-0.101
-601.098	499.296	-0.092	-0.214
-600.084	-112.477	-0.275	0.056
-599.069	-200.000	0.022	0.244
-598.055	-33.483	0.303	0.170
-597.040	-83.992	0.277	0.089
-596.025	-200.000	0.018	-0.169
-595.011	102.816	-0.159	0.188
-593.996	302.062	0.138	0.258
-592.982	800.000	0.014	0.041
-591.967	64.871	0.270	-0.276
-590.952	132.306	-0.247	-0.323
-589.938	-200.000	-0.006	-0.200
-588.923	-26.969	0.059	-0.035
-587.909	-200.000	-0.038	0.366
-586.894	630.244	-0.056	-0.144
-585.879	-98.036	-0.045	0.012
-584.865	-12.216	0.222	0.147
-583.850	-98.431	0.080	-0.021
-582.836	800.000	0.048	-0.135
-581.821	25.844	-0.108	-0.092
-580.806	-71.603	0.181	-0.069
-579.792	1.461	0.235	-0.171
-578.777	17.499	-0.164	0.132
-577.763	55.172	0.271	0.265
-576.748	-81.738	-0.110	0.036
-575.733	-80.941	-0.229	-0.077
-574.719	-200.000	0.002	-0.055
-573.704	-106.842	-0.060	-0.013
-572.690	-28.077	0.259	0.151
-571.675	-159.277	-0.206	-0.012
-570.661	-200.000	-0.008	0.095
-569.646	800.000	0.162	-0.564
-568.631	-6.905	-0.059	0.040
-567.617	7.652	-0.315	0.239
-566.602	-122.310	-0.038	-0.006
-565.588	308.173	-0.182	0.344
-564.573	614.898	0.056	0.142
-563.558	-84.807	0.180	0.057
-562.544	-154.542	0.182	0.012
-561.529	-200.000	0.034	-0.409
-560.515	-124.134	0.393	0.062
-559.500	113.814	0.168	0.206
-558.485	-200.000	0.085	0.408
-557.471	148.111	-0.172	0.235
-556.456	109.563	0.056	0.068
-555.442	14.086	-0.144	0.113
-554.427	130.930	-0.105	0.136
-553.412	-60.845	-0.126	0.054
-552.398	13.725	0.028	0.022
-551.383	-97.161	-0.267	-0.070
-550.369	444.431	0.113	0.251
-549.354	47.420	-0.101	-0.095
-548.339	75.289	0.085	-0.091
-547.325	-200.000	0.057	-0.338
-546.310	54.823	-0.350	-0.342
-545.296	-25.196	0.175	0.105
-544.281	800.000	0.014	0.052
-543.266	-84.512	0.162	0.052
-542.252	-200.000	0.016	-0.194
-541.237	800.000	0.027	0.095
-540.223	-200.000	0.050	-0.286
-539.208	800.000	0.083	0.270
-538.193	-200.000	0.063	-0.343
-537.179	380.151	0.097	0.201
-536.164	-88.921	0.125	0.037
-535.150	-24.446	-0.414	0.249
-534.135	499.096	0.091	-0.211
-533.121	-200.000	0.008	0.039
-532.106	-200.000	-0.049	-0.449
-531.091	374.290	-0.039	0.081
-530.077	304.847	0.158	0.296
-529.062	-107.453	-0.242	-0.054
-528.048	-200.000	-0.005	-0.093
-527.033	-200.000	-0.001	0.118
-526.018	99.653	0.145	-0.170
-525.004	-0.357	0.165	-0.118
-523.989	95.700	-0.167	0.193
-522.975	155.282	0.136	0.188
-521.960	-108.172	0.264	0.058
-520.945	87.047	0.148	-0.165
-519.931	6.818	-0.337	-0.253
-518.916	2.413	0.122	0.089
-517.902	106.787	0.209	-0.250
-516.887	438.207	0.020	0.045
-515.872	-200.000	0.021	0.293
-514.858	-56.064	0.214	0.096
-513.843	595.124	0.108	-0.269
-512.829	-64.111	-0.389	-0.160
-511.814	800.000	0.032	-0.095
-510.799	20.448	0.104	0.085
-509.785	-135.713	-0.284	-0.034
-508.770	800.000	0.072	0.261
-507.756	800.000	-0.048	-0.201
-506.741	86.339	-0.144	-0.160
-505.726	-200.000	-0.001	-0.160
-504.712	-200.000	-0.007	-0.088
-503.697	123.542	-0.181	0.230
-502.683	-71.256	-0.119	0.045
-501.668	790.558	0.024	-0.065
-500.653	-125.707	-0.071	-0.011
-499.639	-144.118	0.223	-0.021
-498.624	-152.186	0.312	0.023
-497.610	-200.000	-0.014	0.223
-496.595	761.172	0.079	-0.216
-495.581	-67.623	0.318	-0.126
-494.566	478.528	-0.195	0.445
-493.551	538.611	-0.172	-0.413
-492.537	-159.843	-0.391	0.022
-491.522	150.511	-0.090	-0.123
-490.508	-67.169	0.182	0.072
-489.493	374.867	0.070	0.143
-488.478	-84.749	0.109	-0.035
-487.464	-12.994	0.100	0.066
-486.449	-200.000	-0.030	0.138
-485.435	-55.190	0.169	0.077
-484.420	-126.131	0.204	0.031
-483.405	-51.178	-0.294	0.139
-482.391	-200.000	-0.040	-0.301
-481.376	-132.058	-0.219	-0.029
-480.362	-200.000	0.021	-0.117
-479.347	155.958	-0.093	-0.130
-478.332	346.819	0.131	-0.259
-477.318	-200.000	0.011	0.084
-476.303	502.069	-0.069	0.162
-475.289	-200.000	0.024	0.203
-474.274	54.457	0.131	-0.127
-473.259	800.000	0.077	-0.233
-472.245	800.000	0.056	-0.237
-471.230	47.299	0.128	-0.120
-470.216	342.267	-0.136	0.269
-469.201	196.669	0.041	0.062
-468.186	-200.000	0.021	0.500
-467.172	355.327	-0.155	0.311
-466.157	800.000	-0.010	-0.034
-465.143	-2.661	0.217	-0.153
-464.128	273.865	0.207	0.369
-463.113	-200.000	-0.040	0.263
-462.099	143.681	0.265	0.356
-461.084	146.258	0.032	-0.043
-460.070	-127.458	-0.189	0.028
-459.055	135.611	-0.107	-0.141
-458.040	-13.717	-0.269	-0.175
-457.026	301.306	0.069	0.129
-456.011	-11.454	-0.310	0.205
-454.997	48.275	0.186	0.176
-453.982	652.090	-0.107	-0.275
-452.968	-90.092	-0.155	0.046
-451.953	-43.088	-0.151	0.077
-450.938	408.049	0.039	0.082
-449.924	23.934	0.228	0.189
-448.909	128.185	-0.257	0.329
-447.895	-200.000	-0.035	-0.377
-446.880	55.554	-0.082	-0.080
-445.865	-41.606	0.363	-0.188
-444.851	-85.433	0.089	0.028
-443.836	-120.349	0.339	0.058
-442.822	314.775	0.056	0.107
-441.807	396.509	0.091	-0.192
-440.792	35.110	-0.192	0.169
-439.778	800.000	-0.037	0.157
-438.763	107.757	-0.353	0.423
-437.749	800.000	-0.069	-0.238
-436.734	-77.664	-0.248	-0.086
-435.719	54.150	-0.165	-0.160
-434.705	800.000	0.049	-0.145
-433.690	39.116	0.203	-0.182
-432.676	-23.206	0.187	0.113
-431.661	21.653	0.168	-0.137
-430.646	-200.000	0.032	-0.223
-429.632	737.306	-0.026	-0.071
-428.617	-200.000	-0.010	-0.102
-427.603	-17.600	-0.030	0.019
-426.588	-1.537	0.185	0.131
-425.573	408.372	0.044	0.093
-424.559	6.553	0.079	-0.059
-423.544	-91.945	-0.143	-0.041
-422.530	-164.646	-0.088	0.004
-421.515	102.025	0.254	-0.298
-420.500	201.093	0.178	-0.275
-419.486	354.115	-0.072	0.144
-418.471	-145.653	0.203	-0.018
-417.457	-7.588	-0.120	0.082
-416.442	110.897	-0.135	-0.164
-415.428	169.201	0.131	-0.188
-414.413	800.000	-0.055	0.153
-413.398	132.466	0.133	0.173
-412.384	337.913	0.082	0.160
-411.369	-27.886	-0.119	-0.069
-410.355	-8.476	0.088	-0.060
-409.340	-200.000	0.022	-0.177
-408.325	195.415	-0.105	-0.161
-407.311	-136.173	0.268	0.032
-406.296	35.511	-0.220	0.194
-405.282	23.023	0.298	-0.246
-404.267	176.290	0.074	-0.109
-403.252	-72.916	-0.523	0.193
-402.238	-192.958	-0.031	0.000
-401.223	-137.452	-0.159	0.018
-400.209	-200.000	-0.027	-0.152
-399.194	-37.711	0.366	-0.196
-398.179	-105.041	-0.118	0.027
-397.165	-123.162	-0.119	-0.019
-396.150	-200.000	0.014	0.116
-395.136	-93.390	0.170	0.047
-394.121	-55.121	0.149	-0.067
-393.106	-200.000	0.009	0.070
-392.092	-65.689	0.060	0.024
-391.077	282.452	0.158	0.284
-390.063	-200.000	-0.001	0.103
-389.048	107.698	0.146	-0.175
-388.033	-73.650	-0.071	0.026
-387.019	-76.414	-0.065	0.023
-386.004	-200.000	-0.100	-0.476
-384.990	-200.000	-0.002	0.165
-383.975	-42.323	-0.251	-0.129
-382.960	-27.890	-0.185	-0.108
-381.946	101.751	-0.131	0.153
-380.931	-158.123	0.250	-0.015
-379.917	-130.052	-0.312	0.043
-378.902	-66.441	0.182	0.073
-377.888	157.956	-0.206	0.286
-376.873	-51.030	-0.058	0.027
-375.858	-87.341	-0.080	-0.024
-374.844	234.949	0.030	0.050
-373.829	800.000	-0.079	-0.224
-372.815	208.064	-0.065	-0.101
-371.800	209.192	0.098	0.154
-370.785	-99.789	0.077	-0.019
-369.771	759.450	0.083	-0.225
-368.756	24.409	-0.094	-0.078
-367.742	10.803	-0.228	-0.175
-366.727	104.262	0.108	-0.127
-365.712	-200.000	-0.031	-0.214
-364.698	-178.673	-0.173	0.004
-363.683	-200.000	-0.017	-0.132
-362.669	-200.000	0.045	0.202
-361.654	252.023	-0.192	0.329
-360.639	-57.187	-0.192	-0.085
-359.625	-200.000	-0.041	-0.199
-358.610	-200.000	0.016	-0.192
-357.596	100.246	0.222	-0.259
-356.581	259.429	0.077	0.133
-355.566	800.000	0.023	-0.095
-354.552	-200.000	0.026	-0.475
-353.537	72.717	0.233	0.244
-352.523	170.368	-0.136	0.195
-351.508	800.000	-0.035	0.121
-350.493	-200.000	0.040	0.346
-349.479	-200.000	0.030	-0.341
-348.464	-12.313	0.031	-0.020
-347.450	-14.602	0.241	-0.156
-346.435	360.483	0.051	0.102
-345.420	-200.000	-0.020	0.118
-344.406	170.392	0.216	0.310
-343.391	450.852	-0.122	0.270
-342.377	-200.000	0.030	-0.147
-341.362	-35.049	0.158	0.087
-340.348	35.062	-0.290	-0.255
-339.333	-118.347	-0.178	0.032
-338.318	-177.684	0.232	0.006
-337.304	-43.734	0.320	-0.162
-336.289	800.000	-0.062	-0.250
-335.275	-55.064	-0.105	-0.047
-334.260	800.000	0.076	-0.287
-333.245	29.139	-0.200	-0.171
-332.231	800.000	0.132	-0.428
-331.216	-38.468	-0.301	-0.160
-330.202	-165.989	0.281	-0.012
-329.187	561.890	0.004	0.011
-328.172	-178.253	0.057	-0.001
-327.158	-111.244	-0.112	0.023
-326.143	-128.290	0.236	-0.034
-325.129	-60.515	0.148	-0.063
-324.114	-83.942	-0.141	-0.045
-323.099	800.000	0.170	-0.521
-322.085	-14.274	0.256	0.165
-321.070	-138.118	-0.253	-0.028
-320.056	-67.951	0.168	-0.066
-319.041	-51.548	0.276	0.129
-318.026	-200.000	0.048	-0.236
-317.012	800.000	-0.068	0.278
-315.997	-45.290	-0.154	0.077
-314.983	225.289	-0.030	0.048
-313.968	-200.000	-0.001	-0.223
-312.953	-75.825	-0.104	0.037
-311.939	-200.000	-0.235	-0.000
-310.924	-19.520	0.124	0.077
-309.910	79.562	0.082	0.088
-308.895	-200.000	0.005	-0.189
-307.880	71.948	0.211	-0.220
-306.866	-200.000	0.013	-0.060
-305.851	171.730	-0.211	-0.304
-304.837	-116.341	0.254	0.047
-303.822	83.027	0.124	-0.135
-302.807	-81.816	0.235	0.077
-301.793	241.582	-0.067	0.112
-300.778	-1.181	-0.245	-0.173
-299.764	-83.002	-0.156	0.050
-298.749	800.000	0.034	-0.105
-297.735	-200.000	0.006	-0.306
-296.720	52.324	-0.078	-0.075
-295.705	-23.674	-0.299	-0.179
-294.691	72.114	-0.321	0.335
-293.676	285.334	0.226	0.408
-292.662	106.808	-0.188	0.224
-291.647	43.276	0.106	-0.097
-290.632	9.954	0.268	0.203
-289.618	299.734	0.183	-0.337
-288.603	-200.000	-0.051	-0.299
-287.589	123.006	0.057	-0.072
-286.574	92.293	-0.122	0.137
-285.559	82.607	0.182	0.198
-284.545	57.832	-0.090	-0.088
-283.530	454.198	0.094	0.208
-282.516	53.943	-0.239	-0.229
-281.501	-48.760	-0.182	0.087
-280.486	165.083	0.234	-0.331
-279.472	800.000	0.106	-0.311
-278.457	154.408	-0.085	-0.117
-277.443	233.947	-0.105	-0.172
-276.428	323.494	-0.014	-0.027
-275.413	158.586	0.161	0.223
-274.399	-144.248	0.057	-0.005
-273.384	571.946	0.035	0.084
-272.370	-200.000	0.020	-0.172
-271.355	-64.621	0.236	-0.096
-270.340	-61.552	-0.175	0.074
-269.326	438.260	0.139	0.303
-268.311	800.000	-0.028	-0.098
-267.297	-153.118	0.173	-0.012
-266.282	-200.000	-0.014	0.201
-265.267	273.015	0.135	0.238
-264.253	181.424	0.148	-0.217
-263.238	52.198	-0.109	0.104
-262.224	-200.000	-0.022	0.176
-261.209	317.575	-0.107	0.203
-260.195	-200.000	-0.057	-0.273
-259.180	-200.000	-0.070	-0.343
-258.165	6.207	0.198	0.147
-257.151	-17.125	0.283	0.179
-256.136	-18.757	0.144	0.090
-255.122	731.187	0.101	0.270
-254.107	800.000	0.047	0.197
-253.092	800.000	0.061	0.193
-252.078	-83.910	0.359	-0.114
-251.063	35.201	0.040	-0.035
-250.049	-200.000	0.088	0.397
-249.034	672.205	0.127	-0.329
-248.019	183.210	-0.112	-0.165
-247.005	324.313	-0.146	0.279
-245.990	-180.938	-0.176	0.004
-244.976	342.080	-0.096	-0.188
-243.961	116.523	0.090	-0.111
-242.946	-87.089	-0.236	0.072
-241.932	327.166	-0.178	0.340
-240.917	224.231	-0.146	-0.235
-239.903	74.903	-0.120	0.126
-238.888	37.787	0.097	0.086
-237.873	-200.000	-0.021	0.141
-236.859	-2.768	-0.199	-0.139
-235.844	-200.000	-0.015	0.110
-234.830	28.463	0.314	-0.265
-233.815	-200.000	0.307	-0.001
-232.800	-94.652	0.255	0.069
-231.786	169.230	-0.090	0.128
-230.771	129.984	0.110	0.141
-229.757	-16.730	0.241	0.152
-228.742	800.000	-0.082	-0.326
-227.727	68.526	0.044	-0.045
-226.713	-198.979	-0.353	0.002
-225.698	-26.534	0.060	0.035
-224.684	371.499	0.040	0.080
-223.669	44.314	0.195	0.179
-222.655	800.000	0.036	-0.125
-221.640	-36.302	-0.260	0.140
-220.625	237.139	0.118	0.196
-219.611	800.000	0.074	0.264
-218.596	3.820	-0.185	-0.135
-217.582	-178.146	0.540	0.013
-216.567	-3.826	0.269	0.186
-215.552	-25.002	-0.217	0.128
-214.538	-200.000	0.013	0.088
-213.523	-200.000	0.057	0.365
-212.509	219.399	-0.144	0.229
-211.494	-200.000	0.222	-0.001
-210.479	58.275	-0.030	-0.029
-209.465	800.000	-0.067	-0.246
-208.450	58.968	-0.184	0.181
-207.436	-91.495	-0.424	0.121
-206.421	-2.612	-0.368	-0.257
-205.406	244.470	0.057	0.095
-204.392	-118.456	-0.130	0.023
-203.377	-200.000	-0.011	0.182
-202.363	6.367	0.226	-0.167
-201.348	-197.535	0.291	-0.002
-200.333	800.000	0.069	-0.196
-199.319	178.532	0.162	-0.236
-198.304	11.064	-0.340	0.260
-197.290	265.470	0.037	-0.064
-196.275	-9.318	0.164	-0.109
-195.260	800.000	0.120	-0.378
-194.246	263.127	-0.058	-0.101
-193.231	-94.370	0.295	0.080
-192.217	-44.266	-0.088	-0.044
-191.202	-10.147	0.222	-0.147
-190.187	-11.303	-0.295	-0.194
-189.173	-94.597	-0.274	0.074
-188.158	-61.648	0.120	-0.050
-187.144	82.823	0.137	-0.148
-186.129	24.205	-0.214	0.176
-185.114	35.609	0.170	0.149
-184.100	70.972	-0.007	0.007
-183.085	-200.000	-0.042	0.277
-182.071	25.880	0.086	0.072
-181.056	800.000	-0.019	-0.083
-180.042	31.689	0.140	0.120
-179.027	800.000	-0.039	-0.138
-178.012	-66.492	-0.320	-0.127
-176.998	-9.946	-0.287	-0.190
-175.983	75.478	-0.194	-0.204
-174.969	188.386	0.124	0.185
-173.954	-1.393	-0.079	0.055
-172.939	-200.000	-0.011	-0.052
-171.925	278.660	-0.082	-0.145
-170.910	63.067	-0.377	0.376
-169.896	-153.983	0.300	-0.020
-168.881	-200.000	0.024	-0.159
-167.866	-32.127	0.273	-0.152
-166.852	182.457	-0.051	-0.074
-165.837	-82.644	0.316	0.102
-164.823	98.793	0.091	0.105
-163.808	-69.604	-0.209	0.080
-162.793	89.603	0.103	0.114
-161.779	24.729	0.033	-0.027
-160.764	-108.074	0.060	0.013
-159.750	-22.990	-0.219	0.131
-158.735	-84.231	0.095	0.030
-157.720	800.000	0.016	0.062
-156.706	-200.000	-0.012	0.263
-155.691	-22.102	0.124	0.075
-154.677	-120.351	-0.256	-0.043
-153.662	55.224	-0.318	0.306
-152.647	-29.126	-0.292	0.167
-151.633	-200.000	0.021	0.240
-150.618	619.844	0.155	-0.387
-149.604	-155.607	-0.116	-0.007
-148.589	347.470	-0.092	-0.181
-147.574	-122.398	-0.121	0.020
-146.560	-200.000	0.012	0.248
-145.545	-74.476	-0.184	0.066
-144.531	-51.746	-0.189	-0.088
-143.516	-6.705	0.088	0.060
-142.502	-40.948	-0.148	0.076
-141.487	59.426	0.239	-0.235
-140.472	17.794	0.265	0.210
-139.458	-46.767	-0.081	-0.039
-138.443	-71.142	0.152	-0.057
-137.429	-2.628	0.202	0.141
-136.414	24.887	-0.046	-0.038
-135.399	-200.000	0.011	-0.157
-134.385	202.529	-0.068	-0.104
-133.370	-53.128	0.168	0.077
-132.356	-136.397	0.672	-0.078
-131.341	-65.029	0.415	-0.167
-130.326	-96.967	-0.326	0.085
-129.312	8.475	0.183	0.137
-128.297	18.442	0.026	-0.021
-127.283	-200.000	0.016	-0.123
-126.268	213.045	-0.096	0.151
-125.253	112.766	0.056	-0.067
-124.239	272.711	-0.028	0.050
-123.224	184.639	0.210	0.309
-122.210	-200.000	0.001	0.202
-121.195	-200.000	0.034	0.205
-120.180	387.514	0.053	0.109
