DTS Sentinel unit serial number:	SN413079Multiplexer serial number:	ORYXHardware model number:	OX4-SRSoftware version number:	ORYX F/W v4.00 Oryx Data Collector v3.7.2.0data status	okinstallation	princeton_trtdifferential loss correction	single-endedforward channel	channel 2reverse channel	N/Adate	2019/09/17time	04:35:35forward acquisition time	60.00reverse acquisition time	0.00gamma	496.2192k internal	0.2328k external	0.2328temperature offset calibration	0.9976default loss term (dB/km)	0.3790temperature slope calibration	1.0000multiplexer offset coefficient	1.0000multiplexer slope coefficient	1.0000fibre end	0.00T internal ref (°C)	29.67T ext. ref 1 (°C)	0.14T ext. ref 2 (°C)	24.10length (m)	temperature (°C)	Stokes	anti-Stokes-747.200	-84.580	-0.167	-0.053
-746.185	-154.836	-0.275	0.018
-745.171	129.557	-0.043	-0.056
-744.156	-59.450	-0.070	0.030
-743.142	47.411	0.181	-0.170
-742.127	-137.111	-0.248	0.029
-741.112	-14.381	-0.114	0.074
-740.098	-55.590	-0.609	0.275
-739.083	800.000	0.037	0.130
-738.069	-36.862	0.222	0.120
-737.054	-64.890	0.235	0.096
-736.039	127.585	-0.222	0.284
-735.025	-42.437	-0.136	0.070
-734.010	-200.000	0.058	-0.284
-732.996	-7.964	-0.196	-0.133
-731.981	-4.485	0.123	-0.086
-730.966	800.000	-0.036	0.150
-729.952	800.000	0.052	-0.170
-728.937	-7.476	-0.092	0.062
-727.923	130.945	0.075	-0.097
-726.908	-200.000	-0.169	0.000
-725.894	47.023	-0.111	0.104
-724.879	-70.984	-0.364	0.138
-723.864	-94.554	0.544	-0.149
-722.850	-123.296	-0.220	-0.035
-721.835	90.638	-0.097	-0.110
-720.821	-141.687	0.269	0.027
-719.806	-90.551	-0.039	0.011
-718.791	-130.301	0.284	0.039
-717.777	203.893	-0.178	-0.278
-716.762	-22.550	0.064	0.039
-715.748	-161.296	-0.509	0.027
-714.733	437.022	-0.057	0.125
-713.718	-70.416	0.263	-0.100
-712.704	75.596	-0.088	0.094
-711.689	-200.000	-0.215	0.000
-710.675	48.687	0.120	-0.113
-709.660	-48.073	0.287	-0.140
-708.645	800.000	-0.093	0.309
-707.631	-200.000	-0.107	0.524
-706.616	541.678	0.075	0.181
-705.602	-131.396	-0.084	0.011
-704.587	-200.000	0.068	-0.302
-703.572	800.000	-0.063	0.219
-702.558	-75.500	-0.346	-0.124
-701.543	315.085	-0.038	-0.073
-700.529	-125.356	-0.201	0.031
-699.514	706.100	-0.137	-0.363
-698.499	449.763	0.086	0.190
-697.485	-80.690	0.186	-0.062
-696.470	9.108	-0.052	-0.039
-695.456	-200.000	-0.012	0.304
-694.441	113.424	0.250	0.306
-693.426	-200.000	-0.025	0.258
-692.412	-200.000	0.001	-0.141
-691.397	-150.099	-0.134	-0.010
-690.383	192.598	0.143	-0.217
-689.368	43.617	-0.089	0.082
-688.354	68.569	0.075	0.078
-687.339	-108.249	-0.245	0.053
-686.324	506.383	-0.052	-0.122
-685.310	-107.329	-0.512	0.113
-684.295	22.760	0.120	0.099
-683.281	800.000	-0.025	-0.098
-682.266	176.983	-0.120	0.175
-681.251	187.161	-0.139	0.208
-680.237	-32.264	-0.189	-0.106
-679.222	-110.373	-0.034	0.007
-678.208	60.901	-0.076	0.075
-677.193	97.533	-0.269	0.311
-676.178	-200.000	0.006	-0.061
-675.164	201.909	0.044	-0.068
-674.149	-200.000	-0.034	0.236
-673.135	15.827	-0.239	-0.189
-672.120	-43.478	0.305	-0.155
-671.105	133.831	-0.126	0.163
-670.091	-54.291	0.144	-0.066
-669.076	13.857	-0.151	-0.118
-668.062	-200.000	0.009	-0.079
-667.047	214.694	0.136	-0.216
-666.032	103.428	0.156	-0.183
-665.018	85.974	0.166	0.184
-664.003	-51.702	-0.237	-0.111
-662.989	-200.000	-0.010	-0.221
-661.974	-200.000	-0.037	-0.249
-660.959	-3.977	-0.072	0.050
-659.945	-200.000	-0.048	0.363
-658.930	555.941	0.159	0.385
-657.916	-11.960	0.134	-0.088
-656.901	-42.843	-0.197	0.100
-655.886	372.718	0.051	0.105
-654.872	367.619	0.042	-0.085
-653.857	278.283	-0.212	-0.380
-652.843	-200.000	-0.042	-0.373
-651.828	-200.000	-0.015	0.191
-650.814	448.766	0.084	0.185
-649.799	-200.000	-0.011	-0.250
-648.784	697.609	0.125	-0.330
-647.770	265.359	-0.156	-0.274
-646.755	118.130	-0.099	-0.122
-645.741	-200.000	0.028	0.160
-644.726	-121.826	0.403	0.067
-643.711	60.843	0.101	0.100
-642.697	-38.858	0.070	0.037
-641.682	5.632	0.036	-0.027
-640.668	-117.973	0.387	0.069
-639.653	-146.948	-0.092	-0.008
-638.638	71.903	-0.239	0.250
-637.624	-162.733	0.316	0.016
-636.609	800.000	-0.071	-0.225
-635.595	-69.587	-0.229	-0.088
-634.580	19.469	-0.295	0.238
-633.565	36.154	-0.158	-0.140
-632.551	-65.771	-0.203	-0.081
-631.536	-76.061	-0.156	-0.055
-630.522	-200.000	0.034	0.185
-629.507	-169.313	0.300	0.011
-628.492	-56.167	0.227	-0.102
-627.478	335.207	-0.124	0.241
-626.463	-118.141	-0.513	-0.092
-625.449	282.095	0.106	0.191
-624.434	12.105	-0.173	-0.133
-623.419	800.000	0.019	-0.078
-622.405	63.677	-0.205	-0.206
-621.390	454.164	-0.058	0.129
-620.376	-96.497	-0.142	0.038
-619.361	-114.118	0.124	0.024
-618.346	-196.054	0.198	0.001
-617.332	135.518	-0.172	-0.224
-616.317	61.691	0.149	0.149
-615.303	-109.499	0.296	0.063
-614.288	-159.429	-0.226	0.013
-613.273	101.446	-0.089	0.104
-612.259	800.000	0.084	0.262
-611.244	-65.589	-0.164	0.066
-610.230	-93.597	-0.125	-0.034
-609.215	294.820	0.033	-0.061
-608.201	198.524	-0.032	0.049
-607.186	-200.000	-0.026	0.128
-606.171	-4.664	0.058	-0.040
-605.157	-70.080	0.142	-0.054
-604.142	800.000	-0.029	-0.115
-603.128	-200.000	0.018	-0.160
-602.113	-200.000	-0.023	-0.236
-601.098	-144.297	0.300	0.028
-600.084	222.750	-0.237	-0.383
-599.069	-158.713	-0.084	0.005
-598.055	-124.164	-0.350	0.055
-597.040	200.727	0.026	-0.040
-596.025	-200.000	0.033	-0.305
-595.011	-24.474	-0.149	0.089
-593.996	-129.091	0.119	0.017
-592.982	800.000	0.050	-0.216
-591.967	-103.869	0.276	0.065
-590.952	-135.152	-0.112	0.013
-589.938	800.000	-0.066	0.261
-588.923	-106.523	-0.130	0.029
-587.909	308.251	0.052	-0.097
-586.894	-65.925	-0.128	0.051
-585.879	-200.000	-0.010	-0.110
-584.865	757.285	-0.049	-0.134
-583.850	148.964	-0.133	0.180
-582.836	-119.557	-0.283	-0.049
-581.821	800.000	-0.080	0.276
-580.806	-200.000	0.070	0.471
-579.792	-200.000	-0.006	0.134
-578.777	-200.000	0.038	-0.231
-577.763	-140.712	0.322	0.033
-576.748	-165.839	-0.133	0.006
-575.733	138.045	-0.094	-0.123
-574.719	-200.000	0.023	0.128
-573.704	-200.000	0.031	0.233
-572.690	-82.725	-0.419	-0.136
-571.675	-200.000	0.025	-0.253
-570.661	-70.204	0.182	0.069
-569.646	-64.278	-0.275	-0.112
-568.631	-200.000	-0.034	0.243
-567.617	-200.000	-0.071	-0.418
-566.602	100.398	0.047	-0.055
-565.588	340.418	0.186	-0.363
-564.573	-200.000	-0.055	-0.248
-563.558	360.579	-0.085	-0.171
-562.544	-157.546	0.174	-0.010
-561.529	-200.000	0.037	-0.227
-560.515	-90.055	0.249	-0.073
-559.500	-79.635	-0.186	0.063
-558.485	-200.000	0.003	0.015
-557.471	381.148	0.078	-0.161
-556.456	170.375	0.125	-0.179
-555.442	175.018	-0.024	-0.035
-554.427	-51.200	0.279	-0.131
-553.412	-169.989	-0.048	-0.002
-552.398	461.325	0.041	0.092
-551.383	-200.000	0.011	0.164
-550.369	25.485	-0.295	0.245
-549.354	302.108	-0.239	-0.442
-548.339	515.810	-0.116	-0.271
-547.325	800.000	0.045	0.163
-546.310	141.328	0.198	0.262
-545.296	-200.000	-0.034	0.324
-544.281	800.000	-0.025	0.080
-543.266	46.569	-0.303	0.281
-542.252	800.000	-0.094	0.309
-541.237	-200.000	-0.017	-0.289
-540.223	-161.913	0.263	0.013
-539.208	-135.812	-0.230	0.027
-538.193	74.411	0.085	0.089
-537.179	63.436	0.017	-0.017
-536.164	-109.547	-0.174	0.037
-535.150	112.809	0.139	-0.168
-534.135	-200.000	0.020	-0.168
-533.121	70.608	0.163	-0.169
-532.106	263.930	0.102	-0.178
-531.091	-200.000	-0.066	0.303
-530.077	800.000	-0.059	0.198
-529.062	24.683	0.029	0.024
-528.048	25.160	0.344	0.285
-527.033	800.000	-0.034	0.107
-526.018	800.000	0.004	0.013
-525.004	100.786	-0.062	0.072
-523.989	67.943	0.297	0.303
-522.975	-156.214	-0.235	-0.015
-521.960	510.545	0.070	0.163
-520.945	64.570	0.066	0.066
-519.931	568.129	0.070	0.170
-518.916	514.378	-0.157	-0.367
-517.902	-200.000	-0.014	-0.150
-516.887	-90.868	-0.335	0.096
-515.872	-141.377	-0.359	-0.036
-514.858	-200.000	0.022	-0.324
-513.843	-103.797	-0.272	-0.064
-512.829	100.429	-0.192	0.222
-511.814	51.811	0.049	-0.047
-510.799	-200.000	0.006	-0.270
-509.785	129.512	0.075	-0.096
-508.770	-116.484	0.166	0.031
-507.756	4.835	0.069	0.050
-506.741	318.830	0.081	-0.153
-505.726	786.124	-0.107	-0.294
-504.712	-22.320	0.323	-0.196
-503.697	-106.845	-0.180	-0.040
-502.683	133.679	-0.063	-0.081
-501.668	45.435	-0.254	-0.234
-500.653	10.686	-0.256	-0.195
-499.639	-143.420	0.262	-0.025
-498.624	681.821	-0.020	0.052
-497.610	-120.017	-0.102	-0.017
-496.595	545.089	-0.129	0.307
-495.581	-39.398	0.173	0.091
-494.566	-200.000	-0.028	-0.148
-493.551	-78.786	-0.202	-0.069
-492.537	-200.000	-0.011	0.053
-491.522	409.040	0.124	-0.261
-490.508	35.739	0.197	-0.173
-489.493	-130.167	-0.155	0.021
-488.478	-200.000	0.064	-0.458
-487.464	800.000	0.031	0.106
-486.449	-144.592	-0.427	0.039
-485.435	-18.123	-0.091	0.057
-484.420	343.517	-0.105	0.205
-483.405	800.000	0.031	-0.102
-482.391	-19.568	0.355	-0.219
-481.376	314.164	-0.156	0.292
-480.362	800.000	-0.037	-0.135
-479.347	-59.436	0.184	0.079
-478.332	-200.000	-0.016	0.126
-477.318	448.311	-0.090	-0.199
-476.303	-101.154	0.302	0.074
-475.289	291.596	0.217	0.393
-474.274	-3.560	0.110	0.076
-473.259	142.773	-0.040	0.053
-472.245	380.016	0.061	-0.125
-471.230	-66.462	-0.346	0.137
-470.216	-37.973	0.061	0.033
-469.201	-45.242	-0.420	-0.208
-468.186	-83.284	-0.304	0.097
-467.172	-23.792	-0.355	-0.212
-466.157	-71.690	-0.098	0.036
-465.143	234.837	-0.118	-0.193
-464.128	205.062	-0.212	-0.328
-463.113	-102.328	0.029	-0.007
-462.099	69.673	0.089	0.091
-461.084	179.028	-0.188	-0.274
-460.070	-200.000	0.001	0.096
-459.055	119.841	-0.048	0.060
-458.040	-99.361	0.184	-0.046
-457.026	2.232	0.194	-0.140
-456.011	800.000	0.073	-0.243
-454.997	256.560	-0.096	0.165
-453.982	-97.356	0.115	0.030
-452.968	-140.715	-0.277	0.029
-451.953	-86.949	0.439	0.133
-450.938	181.094	-0.015	0.022
-449.924	106.937	-0.245	-0.289
-448.909	-89.150	0.259	-0.076
-447.895	168.239	-0.041	0.058
-446.880	342.524	0.056	-0.110
-445.865	243.722	-0.077	0.128
-444.851	46.519	0.167	-0.154
-443.836	-58.288	0.120	-0.052
-442.822	-58.002	0.213	0.092
-441.807	34.229	-0.345	0.300
-440.792	-133.485	0.231	-0.029
-439.778	-175.703	0.153	-0.004
-438.763	-94.996	-0.173	0.047
-437.749	-200.000	0.004	-0.064
-436.734	-123.725	-0.283	0.045
-435.719	649.232	0.070	-0.179
-434.705	-48.760	-0.147	0.070
-433.690	192.429	0.059	0.088
-432.676	-62.850	0.116	-0.048
-431.661	-65.941	0.232	0.092
-430.646	-200.000	0.013	-0.237
-429.632	-51.972	0.092	-0.042
-428.617	-58.358	0.289	-0.125
-427.603	91.606	0.086	-0.097
-426.588	-200.000	-0.207	-0.000
-425.573	-132.955	-0.217	0.027
-424.559	800.000	0.076	-0.209
-423.544	800.000	0.057	0.215
-422.530	6.509	0.194	-0.143
-421.515	80.083	0.066	-0.071
-420.500	217.802	-0.146	0.232
-419.486	382.367	0.112	0.228
-418.471	-47.434	-0.017	0.008
-417.457	39.027	-0.052	-0.047
-416.442	244.610	-0.127	0.213
-415.428	100.624	0.046	0.053
-414.413	-102.439	-0.045	0.011
-413.398	-88.780	-0.147	0.043
-412.384	136.448	0.193	0.251
-411.369	-4.867	0.022	-0.015
-410.355	81.363	0.131	-0.141
-409.340	16.784	0.062	0.049
-408.325	800.000	-0.067	-0.252
-407.311	-61.502	0.321	-0.134
-406.296	71.495	-0.303	0.312
-405.282	37.961	0.344	0.304
-404.267	-200.000	-0.027	0.133
-403.252	-125.047	0.131	0.020
-402.238	-103.793	-0.277	-0.065
-401.223	-200.000	0.008	0.298
-400.209	-102.404	0.154	0.037
-399.194	-62.018	-0.125	-0.052
-398.179	800.000	0.026	0.090
-397.165	-123.877	0.303	0.048
-396.150	-200.000	-0.007	-0.199
-395.136	-70.921	-0.263	0.098
-394.121	-200.000	0.002	-0.425
-393.106	108.301	0.136	0.161
-392.092	800.000	0.135	0.454
-391.077	-88.274	0.168	-0.050
-390.063	239.915	0.171	0.283
-389.048	172.161	0.153	0.219
-388.033	-131.843	-0.240	0.031
-387.019	23.318	-0.299	-0.244
-386.004	-125.411	0.379	0.057
-384.990	-187.631	-0.399	0.005
-383.975	-86.541	0.194	-0.059
-382.960	-200.000	0.004	-0.086
-381.946	-149.787	0.143	-0.011
-380.931	-160.242	0.291	0.016
-379.917	-200.000	-0.007	-0.088
-378.902	85.382	-0.062	0.067
-377.888	800.000	0.051	0.218
-376.873	-32.674	0.112	0.062
-375.858	-200.000	0.028	-0.212
-374.844	-117.188	-0.165	0.030
-373.829	716.102	-0.045	-0.119
-372.815	800.000	-0.032	0.120
-371.800	26.568	0.115	0.096
-370.785	138.285	-0.070	0.092
-369.771	275.164	0.133	-0.233
-368.756	5.247	0.239	0.175
-367.742	-200.000	0.012	0.118
-366.727	783.758	-0.076	-0.207
-365.712	696.755	0.040	-0.105
-364.698	75.230	0.323	0.338
-363.683	-1.243	-0.305	0.214
-362.669	-159.883	-0.208	0.011
-361.654	264.551	-0.117	0.202
-360.639	-52.406	0.387	-0.178
-359.625	-200.000	-0.002	0.049
-358.610	32.586	0.099	-0.085
-357.596	-159.293	-0.153	-0.008
-356.581	174.794	-0.113	-0.162
-355.566	-87.148	-0.182	-0.055
-354.552	232.014	-0.138	0.225
-353.537	103.552	-0.231	-0.269
-352.523	800.000	-0.044	-0.183
-351.508	-154.685	-0.186	0.012
-350.493	-12.761	-0.216	-0.140
-349.479	12.388	-0.214	0.164
-348.464	-130.373	0.184	0.025
-347.450	9.741	-0.019	0.014
-346.435	-200.000	-0.018	-0.275
-345.420	123.599	0.053	-0.066
-344.406	130.807	-0.064	0.081
-343.391	-200.000	0.016	0.075
-342.377	-200.000	-0.013	0.183
-341.362	62.787	-0.208	-0.207
-340.348	-200.000	-0.006	-0.099
-339.333	-131.636	0.208	-0.027
-338.318	342.850	-0.076	-0.148
-337.304	-161.020	0.056	0.003
-336.289	44.427	0.206	-0.187
-335.275	174.071	0.103	0.148
-334.260	800.000	-0.092	-0.347
-333.245	800.000	0.094	-0.320
-332.231	451.479	0.038	-0.084
-331.216	217.892	0.135	0.213
-330.202	-165.612	-0.240	-0.010
-329.187	52.373	-0.166	0.157
-328.172	-10.192	-0.109	-0.072
-327.158	-36.245	-0.205	0.110
-326.143	-43.689	-0.205	0.103
-325.129	-85.292	-0.316	0.098
-324.114	800.000	-0.092	0.376
-323.099	178.102	-0.126	0.182
-322.085	-38.256	0.329	-0.173
-321.070	-200.000	-0.016	-0.246
-320.056	559.000	0.058	-0.138
-319.041	-153.078	0.185	0.013
-318.026	-23.773	0.140	0.083
-317.012	800.000	-0.028	0.093
-315.997	-61.810	-0.168	-0.070
-314.983	-99.139	0.051	0.013
-313.968	321.532	-0.085	-0.160
-312.953	-200.000	-0.052	-0.319
-311.939	-78.190	0.174	-0.059
-310.924	558.348	0.085	-0.202
-309.910	800.000	-0.064	-0.206
-308.895	-34.165	0.189	-0.103
-307.880	-93.340	0.283	-0.078
-306.866	32.861	-0.082	-0.070
-305.851	18.920	0.397	0.315
-304.837	92.890	0.127	0.142
-303.822	-200.000	0.015	-0.214
-302.807	516.609	-0.127	-0.294
-301.793	53.590	-0.091	0.086
-300.778	-21.058	0.252	-0.153
-299.764	654.389	0.191	0.484
-298.749	-103.659	0.194	0.045
-297.735	296.556	-0.084	-0.153
-296.720	-200.000	0.007	0.071
-295.705	-200.000	-0.017	-0.163
-294.691	-146.137	-0.084	-0.007
-293.676	-60.437	-0.345	-0.145
-292.662	-1.951	0.063	-0.044
-291.647	393.535	0.105	0.216
-290.632	185.501	0.077	0.114
-289.618	-2.279	-0.155	-0.108
-288.603	800.000	0.065	-0.213
-287.589	-31.145	0.086	0.048
-286.574	-200.000	0.001	-0.388
-285.559	211.093	-0.119	0.185
-284.545	-2.844	0.270	-0.186
-283.530	254.028	0.063	0.106
-282.516	529.458	-0.067	0.158
-281.501	800.000	0.092	0.357
-280.486	62.993	0.153	-0.151
-279.472	396.427	0.096	0.198
-278.457	-52.676	0.088	0.040
-277.443	126.340	0.138	0.173
-276.428	282.330	0.149	0.265
-275.413	800.000	-0.074	0.237
-274.399	-200.000	-0.012	0.254
-273.384	-116.479	0.268	-0.049
-272.370	669.901	0.013	-0.033
-271.355	795.146	-0.095	-0.258
-270.340	169.030	-0.110	0.155
-269.326	-28.308	0.194	-0.111
-268.311	2.687	0.149	-0.107
-267.297	-32.105	0.095	-0.052
-266.282	800.000	0.027	0.117
-265.267	-97.330	0.271	0.070
-264.253	124.109	0.171	0.213
-263.238	614.563	0.107	-0.264
-262.224	-46.606	0.177	0.086
-261.209	-15.501	0.086	0.054
-260.195	220.385	-0.076	0.121
-259.180	13.944	-0.129	-0.099
-258.165	-134.148	0.161	0.020
-257.151	14.868	0.056	-0.043
-256.136	-200.000	-0.021	-0.125
-255.122	479.902	-0.147	0.329
-254.107	-142.460	0.343	0.033
-253.092	800.000	0.078	0.267
-252.078	-135.591	0.240	-0.028
-251.063	-4.739	-0.016	0.011
-250.049	-200.000	0.009	-0.124
-249.034	-45.309	-0.193	-0.095
-248.019	-91.351	-0.125	0.035
-247.005	143.082	0.132	-0.174
-245.990	800.000	0.028	-0.096
-244.976	53.062	0.101	-0.095
-243.961	-144.576	-0.187	-0.017
-242.946	58.002	-0.152	0.147
-241.932	-83.741	-0.230	0.072
-240.917	-200.000	0.031	-0.333
-239.903	85.525	0.137	0.149
-238.888	65.729	0.164	0.164
-237.873	225.410	-0.067	0.107
-236.859	-130.747	0.344	-0.046
-235.844	-11.518	0.111	0.072
-234.830	49.726	-0.266	-0.248
-233.815	85.207	0.098	-0.107
-232.800	-129.812	0.314	-0.043
-231.786	-110.967	-0.290	-0.059
-230.771	-110.009	-0.166	0.034
-229.757	-200.000	-0.006	-0.088
-228.742	800.000	0.123	0.409
-227.727	231.241	-0.116	0.188
-226.713	196.447	-0.177	0.267
-225.698	562.006	-0.256	0.612
-224.684	11.771	0.148	-0.112
-223.669	-51.086	0.370	-0.171
-222.655	308.928	-0.132	-0.244
-221.640	49.494	-0.106	0.098
-220.625	-166.576	0.250	0.010
-219.611	-200.000	0.031	0.166
-218.596	-48.873	0.348	0.165
-217.582	142.335	-0.070	-0.092
-216.567	-8.773	-0.272	-0.180
-215.552	413.067	0.084	-0.176
-214.538	800.000	-0.048	0.194
-213.523	425.169	0.215	0.457
-212.509	-7.981	0.036	-0.024
-211.494	277.772	-0.155	-0.272
-210.479	-121.703	0.217	0.035
-209.465	74.695	0.164	-0.171
-208.450	172.723	-0.113	0.160
-207.436	-40.865	0.194	-0.099
-206.421	-200.000	0.013	0.291
-205.406	-111.652	0.306	0.061
-204.392	33.483	0.120	0.103
-203.377	168.622	0.045	0.063
-202.363	-87.333	-0.288	-0.086
-201.348	-112.787	-0.211	-0.041
-200.333	-106.378	-0.570	0.126
-199.319	800.000	0.082	0.337
-198.304	50.693	-0.216	0.201
-197.290	-37.143	0.081	0.043
-196.275	-39.616	-0.206	0.106
-195.260	129.394	0.068	0.086
-194.246	-81.798	0.541	-0.175
-193.231	243.784	-0.207	-0.342
-192.217	-146.718	-0.119	0.010
-191.202	40.255	-0.065	0.058
-190.187	-81.340	-0.213	0.069
-189.173	-200.000	0.021	-0.176
-188.158	-33.218	0.225	-0.123
-187.144	544.556	-0.188	0.443
-186.129	-43.028	-0.180	0.090
-185.114	-200.000	-0.004	-0.054
-184.100	-128.140	-0.169	-0.024
-183.085	284.187	0.130	-0.231
-182.071	-59.987	-0.134	-0.056
-181.056	-79.178	-0.285	-0.095
-180.042	-160.966	0.213	0.011
-179.027	-55.035	-0.213	0.094
-178.012	-200.000	-0.021	-0.180
-176.998	-62.798	0.243	0.099
-175.983	117.598	0.029	0.035
-174.969	-177.389	0.234	-0.006
-173.954	-16.510	0.285	0.178
-172.939	800.000	-0.075	0.217
-171.925	436.807	-0.057	-0.122
-170.910	400.055	0.218	-0.450
-169.896	-39.574	-0.173	0.089
-168.881	112.632	-0.160	0.190
-167.866	17.080	-0.173	0.135
-166.852	-75.301	-0.326	-0.115
-165.837	193.959	0.028	0.042
-164.823	559.961	-0.067	-0.160
-163.808	-143.915	0.151	0.014
-162.793	316.004	0.117	-0.218
-161.779	101.799	-0.071	-0.081
-160.764	-156.810	0.238	-0.014
-159.750	-200.000	-0.068	0.316
-158.735	428.514	0.057	-0.120
-157.720	800.000	-0.108	0.299
-156.706	61.085	0.120	0.118
-155.691	7.570	-0.136	-0.100
-154.677	75.399	-0.169	0.175
-153.662	-200.000	-0.071	0.462
-152.647	-57.433	-0.383	-0.166
-151.633	-188.400	0.211	-0.003
-150.618	284.830	0.051	0.090
-149.604	-55.386	-0.151	0.067
-148.589	-147.586	0.209	0.017
-147.574	-151.398	-0.196	-0.014
-146.560	-200.000	0.022	-0.177
-145.545	143.419	0.203	-0.266
-144.531	-93.012	0.090	0.025
-143.516	800.000	0.040	-0.127
-142.502	-50.102	-0.059	0.027
-141.487	49.799	0.262	0.243
-140.472	156.020	0.176	0.238
-139.458	196.111	-0.033	-0.049
-138.443	80.872	-0.094	-0.100
-137.429	78.747	-0.174	0.183
-136.414	-49.121	0.319	-0.150
-135.399	-200.000	-0.008	0.132
-134.385	5.731	0.225	0.164
-133.370	-31.818	0.193	0.107
-132.356	97.191	0.192	0.217
-131.341	258.100	0.131	-0.222
-130.326	161.540	-0.131	0.180
-129.312	15.067	-0.035	0.027
-128.297	-112.004	-0.146	0.029
-127.283	542.211	0.137	-0.321
-126.268	74.692	-0.104	0.108
-125.253	134.525	-0.220	0.281
-124.239	-159.365	-0.145	0.008
-123.224	-9.869	0.131	0.086
-122.210	259.891	-0.158	0.268
-121.195	-31.252	0.104	-0.058
