DTS Sentinel unit serial number:	SN413079Multiplexer serial number:	ORYXHardware model number:	OX4-SRSoftware version number:	ORYX F/W v4.00 Oryx Data Collector v3.7.2.0data status	okinstallation	princeton_trtdifferential loss correction	single-endedforward channel	channel 2reverse channel	N/Adate	2019/09/15time	01:35:35forward acquisition time	60.00reverse acquisition time	0.00gamma	496.2192k internal	0.2325k external	0.2325temperature offset calibration	1.0036default loss term (dB/km)	0.3790temperature slope calibration	1.0000multiplexer offset coefficient	1.0000multiplexer slope coefficient	1.0000fibre end	0.00T internal ref (°C)	31.87T ext. ref 1 (°C)	4.53T ext. ref 2 (°C)	26.75length (m)	temperature (°C)	Stokes	anti-Stokes-747.200	-69.076	-0.115	0.045
-746.185	-200.000	0.017	0.100
-745.171	-99.917	0.218	0.055
-744.156	-162.903	-0.402	-0.020
-743.142	80.287	-0.238	0.258
-742.127	800.000	-0.047	0.171
-741.112	103.717	0.051	0.060
-740.098	281.454	-0.099	-0.179
-739.083	-78.709	-0.138	-0.048
-738.069	394.333	0.127	0.266
-737.054	-13.924	-0.230	0.150
-736.039	800.000	0.049	-0.175
-735.025	262.672	0.131	0.230
-734.010	800.000	0.028	0.100
-732.996	123.698	-0.216	-0.273
-731.981	-200.000	-0.039	-0.221
-730.966	-75.055	-0.178	-0.064
-729.952	-200.000	-0.039	0.280
-728.937	53.723	-0.187	-0.181
-727.923	625.225	0.020	0.050
-726.908	306.774	-0.187	-0.351
-725.894	-53.663	0.444	-0.204
-724.879	-200.000	0.017	-0.217
-723.864	97.133	0.129	-0.149
-722.850	-37.204	0.215	-0.116
-721.835	-85.139	0.180	0.057
-720.821	104.061	0.027	-0.032
-719.806	-14.971	0.205	-0.132
-718.791	88.211	-0.112	0.125
-717.777	-46.455	-0.204	-0.101
-716.762	-200.000	-0.012	-0.257
-715.748	-200.000	-0.036	-0.216
-714.733	-2.084	0.275	-0.195
-713.718	42.403	0.145	0.132
-712.704	-200.000	0.039	0.198
-711.689	184.088	0.170	-0.253
-710.675	-49.337	0.114	-0.055
-709.660	33.222	0.098	-0.085
-708.645	-90.768	-0.288	-0.084
-707.631	-120.476	-0.111	-0.019
-706.616	22.191	0.392	-0.323
-705.602	-36.549	0.256	-0.139
-704.587	329.733	0.051	-0.098
-703.572	83.221	0.028	0.031
-702.558	800.000	-0.134	-0.451
-701.543	-200.000	0.020	-0.385
-700.529	-200.000	0.010	-0.229
-699.514	-131.048	-0.226	0.030
-698.499	180.608	-0.035	0.052
-697.485	-77.592	0.276	0.096
-696.470	-65.002	-0.109	-0.044
-695.456	-200.000	-0.002	0.155
-694.441	461.351	-0.087	-0.196
-693.426	-200.000	-0.037	0.188
-692.412	-83.132	0.118	-0.038
-691.397	64.300	0.184	-0.186
-690.383	-167.040	0.155	0.006
-689.368	41.229	0.231	-0.210
-688.354	89.095	0.100	0.112
-687.339	460.818	-0.167	-0.375
-686.324	800.000	-0.050	-0.165
-685.310	-74.862	0.457	0.165
-684.295	12.332	-0.194	0.151
-683.281	-145.940	-0.344	-0.031
-682.266	-200.000	0.027	-0.305
-681.251	304.509	0.085	0.158
-680.237	142.990	0.037	-0.050
-679.222	-34.591	0.216	-0.119
-678.208	-103.742	-0.386	0.091
-677.193	-55.465	0.270	0.122
-676.178	-18.522	-0.210	-0.132
-675.164	65.035	-0.196	-0.199
-674.149	-180.216	0.175	0.004
-673.135	-200.000	0.041	-0.313
-672.120	111.103	-0.206	0.250
-671.105	2.226	0.127	-0.092
-670.091	-200.000	-0.029	0.131
-669.076	546.854	-0.137	-0.331
-668.062	-73.087	0.254	0.094
-667.047	-96.168	-0.446	0.119
-666.032	-76.388	-0.077	-0.027
-665.018	-181.957	-0.149	0.003
-664.003	-62.645	0.359	0.150
-662.989	563.716	-0.049	-0.118
-661.974	311.051	-0.237	-0.446
-660.959	-126.395	-0.100	-0.015
-659.945	18.836	-0.023	0.019
-658.930	-200.000	-0.006	0.077
-657.916	-100.526	-0.294	0.073
-656.901	-32.100	-0.535	0.301
-655.886	44.542	0.339	0.313
-654.872	549.837	-0.048	-0.116
-653.857	270.859	-0.135	-0.238
-652.843	-46.769	0.140	-0.069
-651.828	18.945	-0.022	-0.017
-650.814	212.714	0.081	-0.129
-649.799	-129.948	-0.110	-0.015
-648.784	-67.830	0.162	0.063
-647.770	66.127	-0.161	-0.164
-646.755	97.429	-0.062	0.072
-645.741	-200.000	0.017	0.125
-644.726	-17.139	0.081	-0.052
-643.711	-198.809	-0.211	0.001
-642.697	-200.000	-0.014	0.077
-641.682	96.402	0.092	-0.105
-640.668	-8.389	0.048	0.033
-639.653	800.000	0.065	-0.260
-638.638	-107.939	-0.065	0.014
-637.624	45.618	-0.029	-0.027
-636.609	-200.000	0.017	0.107
-635.595	-30.291	0.164	0.094
-634.580	210.786	0.121	-0.191
-633.565	-12.328	-0.163	0.107
-632.551	11.523	-0.083	-0.064
-631.536	91.040	0.150	-0.169
-630.522	208.347	0.102	0.161
-629.507	800.000	0.033	-0.129
-628.492	800.000	-0.069	0.242
-627.478	46.767	-0.014	-0.013
-626.463	139.530	0.152	-0.201
-625.449	-200.000	-0.489	0.002
-624.434	79.769	-0.192	-0.207
-623.419	259.752	0.065	-0.112
-622.405	-67.606	-0.041	-0.016
-621.390	118.142	-0.076	0.094
-620.376	154.230	0.211	0.291
-619.361	105.248	-0.118	-0.140
-618.346	-133.801	-0.203	-0.025
-617.332	-51.661	0.222	-0.104
-616.317	-81.508	-0.343	0.113
-615.303	5.143	0.111	-0.082
-614.288	-37.087	-0.207	-0.111
-613.273	-200.000	-0.037	0.203
-612.259	108.809	0.197	0.237
-611.244	-170.034	-0.461	-0.016
-610.230	346.062	-0.058	-0.115
-609.215	-82.560	-0.044	-0.014
-608.201	6.459	-0.155	0.116
-607.186	3.817	0.134	-0.098
-606.171	-37.208	0.122	0.066
-605.157	-27.459	0.303	-0.177
-604.142	6.987	-0.105	-0.078
-603.128	748.854	0.058	-0.156
-602.113	-50.656	0.041	-0.019
-601.098	-87.567	-0.155	-0.047
-600.084	-200.000	-0.033	-0.236
-599.069	-172.471	0.178	-0.006
-598.055	53.320	-0.182	-0.175
-597.040	-28.781	-0.066	0.038
-596.025	179.514	-0.278	0.409
-595.011	436.088	-0.101	0.220
-593.996	-66.907	0.202	-0.080
-592.982	-200.000	-0.025	0.366
-591.967	331.854	0.090	0.174
-590.952	-200.000	0.052	0.322
-589.938	313.061	-0.066	0.124
-588.923	800.000	0.148	0.430
-587.909	800.000	-0.059	0.242
-586.894	-200.000	-0.055	0.370
-585.879	-163.169	-0.136	0.007
-584.865	17.837	0.192	-0.154
-583.850	-163.884	0.139	-0.007
-582.836	-152.979	-0.088	-0.006
-581.821	-101.543	0.374	0.091
-580.806	-200.000	-0.002	-0.219
-579.792	-142.481	-0.235	0.023
-578.777	-84.057	-0.264	0.084
-577.763	-200.000	-0.027	-0.181
-576.748	17.701	0.172	-0.137
-575.733	-130.791	-0.364	0.049
-574.719	109.039	-0.176	-0.211
-573.704	22.733	-0.207	0.170
-572.690	42.198	0.343	-0.312
-571.675	-200.000	-0.009	0.166
-570.661	-200.000	-0.063	-0.325
-569.646	800.000	0.026	0.102
-568.631	800.000	-0.105	0.352
-567.617	450.152	-0.088	0.194
-566.602	-113.821	-0.075	-0.015
-565.588	800.000	-0.143	-0.407
-564.573	-200.000	0.007	-0.052
-563.558	523.527	0.096	-0.226
-562.544	-83.388	0.144	-0.046
-561.529	34.525	-0.268	0.234
-560.515	800.000	0.050	-0.188
-559.500	506.686	-0.041	-0.094
-558.485	-60.987	0.179	-0.076
-557.471	-66.497	-0.319	0.127
-556.456	199.332	-0.115	0.177
-555.442	101.673	0.160	0.186
-554.427	208.722	-0.176	0.276
-553.412	-182.604	-0.188	0.003
-552.398	67.182	-0.025	0.026
-551.383	-88.386	0.078	-0.023
-550.369	-40.089	0.158	-0.083
-549.354	-147.407	0.337	-0.029
-548.339	1.007	-0.138	0.099
-547.325	222.743	-0.197	0.318
-546.310	102.197	0.045	0.052
-545.296	112.292	0.103	-0.125
-544.281	-200.000	-0.046	-0.251
-543.266	-97.295	-0.343	0.089
-542.252	350.545	-0.069	-0.136
-541.237	23.233	-0.138	0.114
-540.223	129.982	-0.077	-0.099
-539.208	83.580	0.059	-0.064
-538.193	-36.609	0.155	-0.083
-537.179	-141.478	-0.027	0.003
-536.164	-78.260	0.342	-0.118
-535.150	202.976	-0.051	0.078
-534.135	-88.946	-0.427	0.127
-533.121	-200.000	0.335	-0.000
-532.106	-61.190	0.237	-0.100
-531.091	479.373	-0.104	0.235
-530.077	678.726	0.186	-0.485
-529.062	-200.000	-0.017	0.117
-528.048	-138.963	-0.232	-0.025
-527.033	173.702	0.066	-0.095
-526.018	800.000	0.071	0.280
-525.004	800.000	-0.066	-0.214
-523.989	-200.000	0.017	-0.178
-522.975	-200.000	0.032	0.226
-521.960	13.133	0.322	-0.250
-520.945	100.159	-0.069	-0.080
-519.931	51.591	0.119	0.114
-518.916	800.000	-0.106	0.336
-517.902	-46.578	0.174	0.086
-516.887	60.924	0.166	-0.165
-515.872	260.971	0.203	0.350
-514.858	-200.000	-0.065	-0.307
-513.843	-200.000	0.007	0.162
-512.829	18.266	-0.273	0.218
-511.814	573.185	-0.159	0.388
-510.799	800.000	-0.127	-0.365
-509.785	-92.021	-0.153	-0.043
-508.770	1.959	-0.109	0.078
-507.756	-90.925	-0.486	0.140
-506.741	472.596	0.063	0.141
-505.726	-200.000	0.024	0.148
-504.712	-200.000	0.008	-0.139
-503.697	-76.350	0.238	0.084
-502.683	-102.930	0.404	-0.096
-501.668	4.730	-0.228	0.168
-500.653	-13.318	0.003	0.002
-499.639	98.104	-0.144	-0.165
-498.624	-90.563	-0.067	0.019
-497.610	-111.843	-0.198	-0.040
-496.595	-155.192	-0.075	0.005
-495.581	-40.164	0.081	0.042
-494.566	317.204	-0.019	0.036
-493.551	15.585	0.012	-0.010
-492.537	-176.868	-0.416	-0.011
-491.522	-200.000	0.012	0.196
-490.508	-59.617	0.087	0.037
-489.493	-20.338	0.134	0.082
-488.478	45.297	-0.189	-0.174
-487.464	240.408	-0.050	-0.084
-486.449	-121.708	0.301	-0.050
-485.435	800.000	0.026	-0.114
-484.420	424.122	-0.044	-0.094
-483.405	320.105	0.130	-0.246
-482.391	-47.880	0.144	-0.070
-481.376	-200.000	-0.009	0.212
-480.362	-161.821	0.234	0.012
-479.347	-200.000	0.031	0.171
-478.332	-89.802	0.346	-0.101
-477.318	20.190	0.050	0.040
-476.303	-134.581	0.069	-0.008
-475.289	45.665	-0.060	0.055
-474.274	-23.837	0.233	-0.139
-473.259	-68.035	0.214	0.083
-472.245	-127.700	-0.190	0.027
-471.230	106.071	-0.292	0.346
-470.216	231.036	0.120	-0.197
-469.201	103.867	0.045	-0.053
-468.186	800.000	0.082	-0.247
-467.172	781.227	-0.096	-0.262
-466.157	-92.916	-0.196	-0.055
-465.143	35.751	-0.175	-0.154
-464.128	800.000	0.021	-0.079
-463.113	-29.792	0.126	0.072
-462.099	-137.426	0.328	0.037
-461.084	-200.000	-0.011	0.207
-460.070	235.382	0.097	-0.160
-459.055	-162.580	0.145	0.007
-458.040	-43.848	-0.074	0.037
-457.026	-109.193	-0.102	-0.022
-456.011	616.068	0.081	-0.203
-454.997	35.427	-0.016	-0.014
-453.982	-96.791	-0.190	0.050
-452.968	-57.573	-0.143	-0.063
-451.953	-200.000	0.003	-0.216
-450.938	-200.000	0.047	-0.285
-449.924	-200.000	-0.029	0.305
-448.909	-46.862	-0.465	0.227
-447.895	-56.442	0.140	0.062
-446.880	71.180	-0.168	0.174
-445.865	286.655	-0.115	-0.207
-444.851	798.284	0.050	-0.138
-443.836	-77.670	-0.082	-0.028
-442.822	-168.154	0.230	0.009
-441.807	33.913	-0.049	-0.042
-440.792	-45.862	0.350	0.172
-439.778	382.500	-0.159	0.325
-438.763	94.557	-0.154	-0.174
-437.749	-200.000	0.027	0.192
-436.734	-28.765	0.086	0.049
-435.719	-119.647	0.343	-0.059
-434.705	-100.271	0.110	-0.027
-433.690	443.836	-0.201	-0.439
-432.676	745.114	-0.113	0.302
-431.661	343.289	0.160	0.313
-430.646	-82.595	0.289	-0.093
-429.632	531.425	0.072	-0.171
-428.617	45.582	-0.127	-0.117
-427.603	800.000	0.035	0.117
-426.588	88.274	0.193	-0.214
-425.573	-143.380	0.141	-0.013
-424.559	229.912	-0.145	-0.236
-423.544	-46.897	-0.219	-0.107
-422.530	-17.659	0.227	0.142
-421.515	127.053	-0.049	-0.062
-420.500	473.466	-0.029	0.065
-419.486	232.962	0.070	0.115
-418.471	703.517	-0.167	0.439
-417.457	-200.000	-0.065	0.285
-416.442	385.903	0.170	0.350
-415.428	-88.038	0.372	-0.111
-414.413	6.999	0.142	0.105
-413.398	-28.157	0.375	-0.216
-412.384	-83.611	-0.155	-0.049
-411.369	800.000	-0.045	-0.129
-410.355	103.349	0.143	-0.167
-409.340	800.000	0.131	0.464
-408.325	-118.351	0.082	0.015
-407.311	-200.000	-0.053	-0.357
-406.296	129.283	0.063	-0.080
-405.282	135.414	0.076	0.098
-404.267	36.730	-0.186	-0.164
-403.252	174.663	0.124	-0.178
-402.238	54.209	0.044	-0.042
-401.223	-200.000	-0.049	0.411
-400.209	58.055	-0.061	-0.059
-399.194	-122.882	0.411	-0.066
-398.179	-112.278	0.074	-0.015
-397.165	-40.476	0.114	-0.059
-396.150	-86.803	0.333	0.101
-395.136	17.104	0.134	-0.106
-394.121	-33.036	0.086	0.047
-393.106	157.922	0.052	0.072
-392.092	-200.000	0.021	-0.213
-391.077	-200.000	0.016	-0.219
-390.063	-7.890	-0.161	-0.108
-389.048	-47.297	-0.085	0.041
-388.033	-200.000	-0.023	0.198
-387.019	79.538	-0.097	0.103
-386.004	137.257	0.040	0.051
-384.990	41.714	0.120	-0.108
-383.975	-200.000	-0.025	-0.298
-382.960	14.420	-0.135	-0.105
-381.946	70.405	-0.161	0.166
-380.931	-147.129	-0.072	0.006
-379.917	-84.389	-0.116	-0.036
-378.902	1.870	0.158	0.113
-377.888	-200.000	0.002	0.211
-376.873	140.995	-0.099	-0.130
-375.858	695.389	0.078	0.203
-374.844	-119.331	0.171	0.030
-373.829	18.120	-0.030	-0.023
-372.815	628.777	-0.086	0.217
-371.800	62.290	0.147	-0.146
-370.785	-54.205	-0.143	-0.065
-369.771	-200.000	0.008	-0.058
-368.756	140.499	0.039	-0.052
-367.742	-200.000	0.002	0.335
-366.727	96.653	0.139	-0.159
-365.712	-134.631	0.356	0.043
-364.698	800.000	0.118	-0.324
-363.683	-200.000	0.017	-0.408
-362.669	112.030	0.088	-0.106
-361.654	77.347	-0.253	0.268
-360.639	-14.116	-0.291	-0.186
-359.625	466.418	0.126	0.280
-358.610	436.010	-0.125	-0.271
-357.596	-200.000	0.028	0.124
-356.581	-123.718	-0.339	0.053
-355.566	-101.408	0.260	-0.063
-354.552	40.290	0.096	-0.086
-353.537	51.694	-0.219	-0.207
-352.523	-200.000	-0.010	0.116
-351.508	800.000	0.025	-0.084
-350.493	-172.449	0.292	0.009
-349.479	90.015	-0.074	-0.082
-348.464	-200.000	0.058	-0.360
-347.450	409.048	-0.094	-0.198
-346.435	800.000	0.050	0.145
-345.420	22.468	-0.366	0.297
-344.406	-200.000	-0.021	0.251
-343.391	-200.000	0.015	0.072
-342.377	-123.107	0.070	-0.011
-341.362	284.245	0.117	-0.209
-340.348	406.037	-0.029	-0.060
-339.333	-55.791	0.238	0.106
-338.318	-77.078	-0.340	0.118
-337.304	-200.000	-0.065	0.421
-336.289	376.941	-0.116	0.235
-335.275	-139.294	0.112	0.012
-334.260	607.801	0.036	-0.089
-333.245	216.189	-0.143	0.225
-332.231	675.165	-0.081	0.208
-331.216	-86.817	-0.170	-0.051
-330.202	60.908	-0.304	-0.300
-329.187	226.077	0.093	0.150
-328.172	228.055	-0.056	0.091
-327.158	-160.492	-0.106	0.006
-326.143	393.168	-0.031	0.065
-325.129	51.132	-0.069	0.065
-324.114	-62.526	0.252	0.104
-323.099	451.821	0.127	-0.278
-322.085	-200.000	-0.010	-0.132
-321.070	266.085	-0.052	0.090
-320.056	-164.472	0.050	0.002
-319.041	85.351	0.054	-0.059
-318.026	156.420	0.029	0.040
-317.012	-15.971	-0.289	0.183
-315.997	-200.000	-0.002	-0.251
-314.983	-126.685	-0.178	-0.026
-313.968	-200.000	0.012	0.234
-312.953	-47.954	0.372	0.179
-311.939	-131.499	-0.529	-0.069
-310.924	-166.702	0.050	0.002
-309.910	146.782	-0.073	-0.097
-308.895	-200.000	-0.019	-0.230
-307.880	182.588	-0.105	-0.154
-306.866	430.320	0.103	0.221
-305.851	-200.000	-0.045	0.361
-304.837	-123.927	0.145	0.023
-303.822	-33.211	0.219	-0.121
-302.807	3.049	-0.170	-0.123
-301.793	-93.378	-0.136	0.037
-300.778	156.189	-0.133	0.182
-299.764	59.097	-0.124	-0.121
-298.749	-134.064	-0.270	0.033
-297.735	755.134	-0.048	0.128
-296.720	-67.672	-0.061	0.024
-295.705	800.000	0.107	-0.319
-294.691	39.921	-0.096	0.086
-293.676	-37.612	0.165	-0.087
-292.662	228.089	0.018	-0.029
-291.647	-116.598	-0.372	-0.068
-290.632	-200.000	0.038	-0.331
-289.618	19.981	0.465	0.372
-288.603	15.870	0.193	0.150
-287.589	69.582	-0.178	0.182
-286.574	-53.834	0.104	-0.047
-285.559	707.099	0.110	0.287
-284.545	98.568	-0.100	-0.114
-283.530	-200.000	-0.002	-0.126
-282.516	-88.920	0.515	-0.151
-281.501	-26.057	0.255	-0.149
-280.486	43.258	0.236	-0.213
-279.472	-73.965	-0.313	0.112
-278.457	-200.000	0.036	-0.229
-277.443	800.000	0.060	0.205
-276.428	-57.061	0.339	-0.148
-275.413	195.903	-0.106	0.160
-274.399	-200.000	0.005	0.050
-273.384	-112.855	-0.085	0.017
-272.370	-75.989	0.488	0.171
-271.355	-98.653	0.240	0.061
-270.340	85.023	0.044	-0.048
-269.326	123.336	-0.078	0.097
-268.311	152.720	0.072	-0.097
-267.297	-102.011	-0.209	-0.050
-266.282	-200.000	-0.044	-0.196
-265.267	159.195	0.158	0.218
-264.253	-2.877	0.162	0.112
-263.238	-126.871	-0.305	0.045
-262.224	174.794	-0.193	-0.276
-261.209	-84.745	0.199	-0.062
-260.195	-31.162	-0.145	-0.081
-259.180	-200.000	-0.050	0.304
-258.165	231.278	-0.109	0.177
-257.151	-34.191	0.395	0.215
-256.136	-34.868	-0.197	0.106
-255.122	-92.369	0.266	0.074
-254.107	-200.000	-0.035	0.218
-253.092	-51.377	0.223	-0.103
-252.078	111.182	-0.021	0.025
-251.063	-194.253	-0.205	0.002
-250.049	296.064	-0.113	0.204
-249.034	800.000	-0.090	0.263
-248.019	-126.817	-0.252	-0.037
-247.005	800.000	0.073	-0.255
-245.990	-200.000	0.036	0.479
-244.976	800.000	-0.106	-0.340
-243.961	144.861	0.073	0.096
-242.946	118.163	0.196	-0.239
-241.932	7.707	-0.098	-0.073
-240.917	49.751	-0.241	0.224
-239.903	73.835	-0.199	-0.206
-238.888	-200.000	0.006	-0.126
-237.873	-200.000	-0.001	0.170
-236.859	48.134	0.227	-0.210
-235.844	-131.967	0.207	-0.027
-234.830	800.000	-0.028	-0.082
-233.815	-17.423	0.050	0.031
-232.800	-200.000	0.039	0.291
-231.786	-73.940	-0.188	0.068
-230.771	800.000	0.033	0.130
-229.757	-49.172	-0.209	-0.099
-228.742	-183.761	0.266	0.004
-227.727	-60.031	0.422	-0.178
-226.713	55.399	-0.230	-0.220
-225.698	-66.226	-0.091	-0.036
-224.684	800.000	-0.089	0.312
-223.669	172.988	-0.048	-0.068
-222.655	800.000	0.052	0.172
-221.640	-80.733	0.371	0.122
-220.625	-200.000	-0.004	0.204
-219.611	-110.962	0.197	0.040
-218.596	-200.000	0.031	0.198
-217.582	-78.125	0.271	-0.092
-216.567	461.755	-0.085	-0.188
-215.552	165.221	0.074	0.103
-214.538	-6.418	-0.154	-0.104
-213.523	451.818	0.150	-0.328
-212.509	-35.843	-0.324	-0.173
-211.494	-73.339	0.142	0.051
-210.479	-200.000	0.068	0.455
-209.465	150.401	0.178	0.238
-208.450	121.718	0.116	0.143
-207.436	-37.761	-0.254	0.134
-206.421	25.508	0.182	0.150
-205.406	211.833	-0.136	-0.211
-204.392	800.000	-0.082	0.287
-203.377	473.524	0.096	-0.214
-202.363	-134.555	0.071	-0.009
-201.348	9.283	-0.031	-0.023
-200.333	800.000	-0.039	-0.158
-199.319	800.000	0.084	-0.362
-198.304	-200.000	0.015	0.072
-197.290	-120.840	-0.529	0.088
-196.275	800.000	-0.102	-0.340
-195.260	-200.000	0.008	0.096
-194.246	704.768	0.098	0.255
-193.231	125.881	0.097	0.121
-192.217	800.000	0.056	0.235
-191.202	18.988	-0.265	-0.209
-190.187	142.445	-0.197	-0.258
-189.173	141.845	-0.268	-0.350
-188.158	151.348	0.124	0.166
-187.144	-200.000	-0.006	-0.045
-186.129	458.224	-0.152	0.333
-185.114	30.146	0.023	-0.019
-184.100	-45.782	0.135	0.066
-183.085	-43.449	0.251	0.125
-182.071	-5.378	-0.121	-0.082
-181.056	100.378	-0.201	-0.230
-180.042	-185.697	0.228	-0.003
-179.027	137.938	0.074	-0.096
-178.012	800.000	0.019	0.071
-176.998	-200.000	-0.027	-0.183
-175.983	-200.000	0.048	-0.353
-174.969	-146.066	-0.239	-0.021
-173.954	127.848	-0.084	-0.106
-172.939	-197.974	-0.154	-0.001
-171.925	-200.000	-0.005	-0.487
-170.910	800.000	-0.148	0.462
-169.896	-113.906	0.231	-0.044
-168.881	-200.000	0.025	0.164
-167.866	800.000	-0.053	-0.225
-166.852	-200.000	-0.016	-0.317
-165.837	37.415	0.112	0.098
-164.823	-200.000	0.016	-0.180
-163.808	-117.962	0.106	-0.019
-162.793	-112.938	0.216	0.042
-161.779	-200.000	-0.023	0.102
-160.764	-71.278	-0.082	0.030
-159.750	150.211	-0.163	-0.218
-158.735	-190.726	-0.326	-0.003
-157.720	279.414	-0.176	-0.310
-156.706	-57.814	-0.171	0.074
-155.691	74.009	0.216	-0.223
-154.677	-200.000	-0.001	-0.084
-153.662	-200.000	0.028	-0.525
-152.647	-200.000	-0.027	-0.333
-151.633	-125.828	0.133	0.020
-150.618	-72.711	-0.296	-0.107
-149.604	292.673	0.023	0.041
-148.589	707.270	0.010	0.025
-147.574	56.124	0.271	-0.259
-146.560	8.448	-0.247	-0.183
-145.545	-92.999	-0.296	0.081
-144.531	94.848	0.168	-0.189
-143.516	800.000	0.013	-0.046
-142.502	222.525	0.165	0.262
-141.487	-73.017	0.241	0.087
-140.472	256.350	0.044	-0.075
-139.458	115.632	0.079	-0.095
-138.443	-200.000	0.019	-0.263
-137.429	-45.520	0.062	-0.030
-136.414	129.319	0.098	-0.123
-135.399	120.700	-0.082	0.100
-134.385	800.000	0.028	0.092
-133.370	800.000	-0.036	-0.099
-132.356	-54.750	0.244	0.108
-131.341	8.446	0.244	-0.181
-130.326	437.521	0.086	-0.184
-129.312	296.997	-0.186	0.337
-128.297	-200.000	-0.002	0.140
-127.283	-159.886	0.228	-0.012
-126.268	-92.175	0.121	-0.034
-125.253	26.898	-0.107	-0.088
-124.239	-15.660	0.235	-0.148
-123.224	38.812	0.124	-0.109
-122.210	-200.000	-0.007	-0.225
-121.195	800.000	-0.049	0.177
