DTS Sentinel unit serial number:	SN413079Multiplexer serial number:	ORYXHardware model number:	OX4-SRSoftware version number:	ORYX F/W v4.00 Oryx Data Collector v3.7.2.0data status	okinstallation	princeton_trtdifferential loss correction	single-endedforward channel	channel 2reverse channel	N/Adate	2019/09/12time	17:13:10forward acquisition time	60.00reverse acquisition time	0.00gamma	496.2192k internal	0.2324k external	0.2324temperature offset calibration	1.0133default loss term (dB/km)	0.3790temperature slope calibration	1.0000multiplexer offset coefficient	1.0000multiplexer slope coefficient	1.0000fibre end	0.00T internal ref (°C)	35.19T ext. ref 1 (°C)	2.87T ext. ref 2 (°C)	28.81length (m)	temperature (°C)	Stokes	anti-Stokes-747.200	-84.286	-0.308	0.098
-746.185	-200.000	0.047	0.461
-745.171	-129.489	-0.224	-0.031
-744.156	-44.081	-0.345	0.175
-743.142	-200.000	-0.004	0.063
-742.127	800.000	0.054	0.158
-741.112	218.826	-0.020	0.032
-740.098	-43.758	-0.320	0.163
-739.083	-132.455	-0.258	-0.034
-738.069	800.000	-0.128	0.450
-737.054	509.722	-0.180	-0.422
-736.039	-139.219	-0.126	0.014
-735.025	-200.000	0.002	-0.041
-734.010	-115.651	-0.208	0.039
-732.996	-200.000	-0.001	-0.261
-731.981	113.987	-0.110	-0.135
-730.966	-149.599	0.174	-0.014
-729.952	-61.582	-0.218	-0.092
-728.937	-200.000	0.012	-0.305
-727.923	-4.855	-0.328	-0.228
-726.908	-90.170	-0.144	-0.042
-725.894	-104.853	-0.413	-0.096
-724.879	-81.997	0.317	0.105
-723.864	-121.091	-0.090	0.015
-722.850	-125.099	0.032	-0.005
-721.835	275.314	-0.094	0.168
-720.821	258.033	-0.074	0.129
-719.806	9.442	-0.117	-0.089
-718.791	-200.000	0.013	0.588
-717.777	236.563	-0.186	-0.311
-716.762	49.249	0.209	-0.198
-715.748	97.824	-0.069	-0.080
-714.733	-30.274	-0.229	-0.131
-713.718	358.273	0.134	0.270
-712.704	113.444	-0.062	0.076
-711.689	706.210	-0.080	0.214
-710.675	-85.483	-0.262	0.082
-709.660	-182.592	0.260	-0.005
-708.645	235.726	0.185	0.308
-707.631	12.003	-0.095	0.074
-706.616	-200.000	-0.018	-0.090
-705.602	-79.291	-0.089	0.030
-704.587	-126.225	0.218	0.033
-703.572	-74.622	0.094	0.034
-702.558	-121.002	0.197	-0.033
-701.543	-200.000	0.000	0.119
-700.529	800.000	0.048	0.185
-699.514	-28.037	-0.379	0.221
-698.499	6.293	0.113	-0.084
-697.485	800.000	-0.103	-0.318
-696.470	-103.605	0.404	-0.095
-695.456	-170.373	-0.087	0.003
-694.441	800.000	-0.162	0.469
-693.426	-43.160	-0.072	0.037
-692.412	-127.426	-0.172	-0.025
-691.397	-95.493	-0.153	-0.041
-690.383	-126.805	-0.223	0.033
-689.368	407.818	-0.077	-0.164
-688.354	73.952	-0.330	0.348
-687.339	-69.572	0.200	0.077
-686.324	19.452	0.200	-0.162
-685.310	19.314	-0.070	0.056
-684.295	-200.000	-0.014	0.226
-683.281	84.896	0.298	-0.329
-682.266	-13.183	0.158	0.103
-681.251	183.530	0.202	-0.301
-680.237	161.923	-0.096	0.135
-679.222	-156.128	0.505	-0.032
-678.208	468.209	-0.051	0.115
-677.193	-19.942	0.211	-0.131
-676.178	-48.008	-0.499	-0.243
-675.164	38.945	-0.322	-0.290
-674.149	-200.000	-0.006	-0.287
-673.135	-200.000	0.001	-0.104
-672.120	-100.207	-0.042	0.011
-671.105	-200.000	-0.071	0.326
-670.091	800.000	-0.089	0.352
-669.076	12.389	-0.323	-0.251
-668.062	-113.828	-0.148	0.029
-667.047	-146.610	-0.282	-0.025
-666.032	-200.000	-0.022	0.173
-665.018	-184.787	0.275	0.004
-664.003	83.459	-0.082	0.090
-662.989	-109.716	-0.063	-0.013
-661.974	-200.000	-0.069	0.317
-660.959	800.000	0.094	-0.286
-659.945	-15.417	0.089	0.057
-658.930	486.190	0.149	0.341
-657.916	-37.456	0.228	0.122
-656.901	137.092	-0.141	0.186
-655.886	38.027	-0.275	0.246
-654.872	103.140	0.174	-0.205
-653.857	297.193	-0.094	0.174
-652.843	-200.000	0.001	0.044
-651.828	-36.892	-0.143	0.077
-650.814	-200.000	-0.016	0.191
-649.799	73.729	-0.219	0.231
-648.784	3.858	-0.168	0.123
-647.770	800.000	-0.018	0.066
-646.755	334.406	0.016	-0.031
-645.741	-200.000	-0.015	-0.391
-644.726	-92.953	0.313	-0.088
-643.711	-200.000	0.027	-0.127
-642.697	432.576	0.084	0.182
-641.682	-66.061	-0.178	0.072
-640.668	-200.000	0.018	0.192
-639.653	-200.000	0.002	0.012
-638.638	800.000	-0.008	-0.034
-637.624	726.584	-0.112	0.300
-636.609	-200.000	-0.010	0.129
-635.595	-4.543	-0.254	0.176
-634.580	11.006	-0.165	0.127
-633.565	-80.625	-0.112	0.037
-632.551	-152.905	-0.014	0.001
-631.536	-102.757	0.241	-0.058
-630.522	-200.000	0.005	-0.270
-629.507	125.909	-0.337	-0.428
-628.492	-5.101	-0.062	-0.043
-627.478	6.097	0.098	-0.073
-626.463	92.593	-0.255	-0.289
-625.449	-103.149	0.044	0.010
-624.434	-200.000	0.003	-0.068
-623.419	130.910	0.162	-0.209
-622.405	800.000	-0.163	-0.505
-621.390	-200.000	-0.035	-0.270
-620.376	192.508	-0.018	-0.028
-619.361	-200.000	0.056	0.300
-618.346	110.350	0.011	-0.014
-617.332	478.077	0.102	0.232
-616.317	770.035	0.088	0.241
-615.303	-129.500	0.224	-0.031
-614.288	800.000	-0.045	0.175
-613.273	249.072	0.142	-0.242
-612.259	-136.873	0.225	-0.026
-611.244	-74.319	-0.213	0.077
-610.230	800.000	0.068	0.294
-609.215	-78.573	-0.151	0.052
-608.201	-200.000	0.008	-0.126
-607.186	389.816	-0.118	-0.245
-606.171	595.156	0.169	-0.420
-605.157	-200.000	-0.038	0.239
-604.142	70.805	-0.127	-0.132
-603.128	153.684	0.237	-0.325
-602.113	800.000	0.080	-0.320
-601.098	-166.066	0.106	-0.005
-600.084	-83.978	0.291	0.093
-599.069	237.261	0.141	-0.234
-598.055	-200.000	-0.043	-0.264
-597.040	800.000	0.071	-0.238
-596.025	-22.043	-0.474	-0.289
-595.011	465.678	-0.040	0.090
-593.996	78.577	-0.070	0.075
-592.982	-200.000	0.015	-0.090
-591.967	-200.000	-0.013	0.102
-590.952	-152.628	0.295	-0.021
-589.938	-200.000	-0.026	0.160
-588.923	-200.000	0.015	0.177
-587.909	223.484	0.200	0.323
-586.894	781.021	0.054	0.149
-585.879	-136.558	0.132	0.015
-584.865	-33.263	-0.201	0.112
-583.850	-200.000	0.024	0.156
-582.836	503.669	0.031	-0.073
-581.821	-106.463	-0.104	-0.023
-580.806	428.854	0.095	0.205
-579.792	-19.820	-0.360	0.223
-578.777	-36.105	-0.190	-0.103
-577.763	10.298	0.192	0.146
-576.748	-200.000	-0.016	-0.294
-575.733	56.522	0.127	-0.124
-574.719	-200.000	0.032	-0.187
-573.704	-125.827	-0.441	0.067
-572.690	63.495	-0.360	0.362
-571.675	-153.807	-0.103	0.007
-570.661	-146.247	0.317	-0.028
-569.646	489.969	-0.106	-0.243
-568.631	91.350	-0.219	-0.246
-567.617	15.678	0.152	0.119
-566.602	33.258	-0.154	-0.134
-565.588	197.143	0.144	-0.220
-564.573	151.629	-0.190	0.260
-563.558	40.574	0.130	0.117
-562.544	-200.000	0.042	-0.273
-561.529	30.764	-0.075	-0.065
-560.515	140.968	0.290	0.384
-559.500	104.358	0.008	0.009
-558.485	800.000	0.064	-0.198
-557.471	-116.359	0.134	-0.025
-556.456	-200.000	0.041	-0.300
-555.442	331.473	-0.090	0.174
-554.427	-37.545	-0.214	-0.114
-553.412	34.699	0.106	0.093
-552.398	18.252	-0.214	-0.171
-551.383	-75.732	-0.091	0.032
-550.369	-113.824	-0.075	-0.015
-549.354	-18.081	0.186	-0.117
-548.339	444.875	0.035	-0.078
-547.325	-28.467	-0.073	-0.042
-546.310	268.277	0.079	0.139
-545.296	-162.811	-0.265	-0.013
-544.281	3.833	0.169	-0.123
-543.266	59.582	0.086	-0.085
-542.252	191.435	0.040	0.061
-541.237	375.337	-0.127	-0.259
-540.223	51.073	-0.252	-0.239
-539.208	201.429	-0.143	-0.221
-538.193	-200.000	-0.070	-0.323
-537.179	-157.147	-0.488	-0.030
-536.164	621.800	-0.063	-0.158
-535.150	-62.983	0.185	-0.076
-534.135	-200.000	0.031	-0.317
-533.121	800.000	-0.010	-0.039
-532.106	-34.560	0.186	0.102
-531.091	-200.000	0.021	0.125
-530.077	800.000	0.065	0.221
-529.062	-200.000	0.007	0.346
-528.048	295.018	-0.043	0.080
-527.033	439.582	-0.036	-0.079
-526.018	-200.000	-0.008	-0.183
-525.004	-200.000	0.006	-0.466
-523.989	206.388	0.185	-0.288
-522.975	-10.206	-0.465	0.309
-521.960	147.355	0.133	0.179
-520.945	-184.680	-0.163	0.003
-519.931	276.553	-0.162	0.287
-518.916	-6.955	-0.194	-0.132
-517.902	551.644	-0.274	-0.659
-516.887	132.896	0.230	-0.297
-515.872	96.410	0.128	-0.146
-514.858	-109.236	0.106	-0.022
-513.843	-200.000	0.079	-0.364
-512.829	-55.093	0.207	-0.093
-511.814	-106.064	-0.094	0.021
-510.799	-90.855	-0.151	-0.044
-509.785	70.201	-0.070	0.072
-508.770	-129.229	0.071	-0.010
-507.756	-43.990	0.224	-0.113
-506.741	573.494	-0.094	0.229
-505.726	62.246	-0.113	-0.113
-504.712	-122.590	-0.089	-0.014
-503.697	521.120	0.162	0.379
-502.683	-105.392	0.143	0.032
-501.668	700.825	0.132	0.348
-500.653	-41.544	-0.163	0.084
-499.639	413.524	0.125	-0.266
-498.624	-181.130	0.467	0.009
-497.610	-73.424	0.240	-0.088
-496.595	-160.099	-0.264	0.014
-495.581	-77.517	0.187	-0.065
-494.566	-200.000	-0.007	0.135
-493.551	227.243	-0.165	0.268
-492.537	80.942	0.114	0.123
-491.522	49.792	0.295	-0.278
-490.508	603.773	0.110	0.274
-489.493	72.100	0.091	0.094
-488.478	-200.000	-0.003	0.068
-487.464	116.788	-0.207	0.254
-486.449	800.000	0.063	-0.229
-485.435	-82.357	-0.169	-0.055
-484.420	105.950	0.183	0.216
-483.405	-125.369	-0.224	-0.034
-482.391	169.328	-0.170	-0.242
-481.376	487.518	0.089	0.204
-480.362	-3.229	-0.221	0.154
-479.347	-69.817	-0.103	-0.039
-478.332	204.781	0.054	0.083
-477.318	-200.000	0.005	0.204
-476.303	-200.000	-0.018	-0.136
-475.289	-162.271	-0.156	-0.008
-474.274	-200.000	-0.017	-0.145
-473.259	-48.129	-0.186	-0.089
-472.245	-146.002	0.232	-0.021
-471.230	-200.000	-0.026	-0.275
-470.216	95.778	-0.166	-0.189
-469.201	473.791	0.068	0.152
-468.186	-21.567	-0.150	-0.091
-467.172	-72.719	0.163	-0.060
-466.157	-200.000	-0.008	0.071
-465.143	-69.677	0.276	0.106
-464.128	800.000	0.028	-0.086
-463.113	258.617	-0.068	0.116
-462.099	570.966	-0.161	-0.390
-461.084	-136.402	0.402	0.047
-460.070	550.715	-0.099	0.238
-459.055	800.000	0.071	0.203
-458.040	800.000	-0.031	0.094
-457.026	487.964	0.140	0.320
-456.011	109.574	-0.241	0.288
-454.997	-86.048	0.227	0.070
-453.982	40.195	-0.020	0.018
-452.968	53.852	-0.035	-0.033
-451.953	79.265	-0.414	0.443
-450.938	-49.996	-0.140	0.066
-449.924	-184.462	-0.326	0.005
-448.909	3.357	-0.198	-0.144
-447.895	206.223	-0.044	-0.068
-446.880	-112.574	-0.490	-0.097
-445.865	-50.181	-0.203	0.096
-444.851	88.933	-0.048	-0.053
-443.836	-19.670	0.298	0.184
-442.822	125.562	0.043	0.055
-441.807	0.260	0.144	0.102
-440.792	-173.504	0.121	0.004
-439.778	-200.000	0.044	-0.238
-438.763	-66.600	-0.321	-0.127
-437.749	800.000	-0.062	0.255
-436.734	95.112	0.160	0.182
-435.719	-131.245	-0.140	-0.019
-434.705	-105.611	0.106	0.024
-433.690	222.114	0.069	0.111
-432.676	215.609	0.084	0.134
-431.661	-21.595	-0.217	0.132
-430.646	525.934	0.117	0.275
-429.632	-92.624	-0.115	-0.032
-428.617	41.046	0.185	0.167
-427.603	230.273	0.084	-0.138
-426.588	-145.600	0.315	-0.028
-425.573	-102.162	0.305	0.073
-424.559	-99.270	-0.116	0.029
-423.544	179.883	0.192	-0.280
-422.530	62.221	-0.175	0.174
-421.515	116.412	0.064	0.078
-420.500	60.683	-0.078	0.077
-419.486	-146.811	-0.332	-0.029
-418.471	-200.000	0.002	-0.178
-417.457	-14.097	0.050	0.032
-416.442	37.263	0.033	0.029
-415.428	-160.180	-0.209	-0.011
-414.413	644.267	-0.093	-0.237
-413.398	-200.000	0.001	-0.112
-412.384	-55.272	-0.371	-0.166
-411.369	800.000	0.102	0.292
-410.355	111.161	-0.124	0.149
-409.340	-66.815	0.116	0.046
-408.325	-184.689	-0.191	0.003
-407.311	800.000	0.046	-0.169
-406.296	-78.244	-0.096	-0.033
-405.282	-200.000	0.045	0.241
-404.267	347.620	0.072	0.141
-403.252	-63.454	-0.188	0.077
-402.238	-31.259	-0.104	0.058
-401.223	-170.791	-0.149	-0.005
-400.209	-97.980	-0.250	-0.064
-399.194	-97.972	0.177	0.045
-398.179	-172.401	0.190	0.006
-397.165	20.264	0.078	0.063
-396.150	800.000	-0.136	0.426
-395.136	-50.923	0.528	-0.247
-394.121	800.000	-0.069	-0.267
-393.106	-200.000	-0.007	0.297
-392.092	96.353	-0.206	0.234
-391.077	480.626	-0.028	0.063
-390.063	281.092	-0.182	0.324
-389.048	-61.915	-0.103	0.043
-388.033	146.985	0.092	0.123
-387.019	135.966	-0.030	0.038
-386.004	89.199	-0.067	-0.075
-384.990	-59.839	-0.161	-0.069
-383.975	119.612	-0.160	-0.197
-382.960	-200.000	-0.035	-0.257
-381.946	-200.000	0.015	-0.123
-380.931	794.348	-0.135	-0.369
-379.917	-200.000	0.036	-0.177
-378.902	527.246	0.139	0.326
-377.888	-200.000	0.092	-0.404
-376.873	39.949	0.098	-0.087
-375.858	800.000	-0.066	0.243
-374.844	800.000	0.072	0.283
-373.829	-183.045	0.238	-0.004
-372.815	-200.000	0.052	-0.301
-371.800	800.000	0.073	0.212
-370.785	-126.470	-0.443	-0.066
-369.771	77.977	-0.189	-0.201
-368.756	-186.926	0.282	-0.004
-367.742	800.000	0.053	-0.159
-366.727	-129.133	0.220	0.031
-365.712	-200.000	0.028	0.224
-364.698	-200.000	-0.018	-0.187
-363.683	800.000	0.130	-0.384
-362.669	-73.765	-0.076	-0.027
-361.654	685.704	0.022	0.057
-360.639	-118.746	0.097	-0.017
-359.625	336.956	-0.185	0.358
-358.610	-60.181	-0.388	0.164
-357.596	87.715	0.061	0.067
-356.581	-130.377	0.080	0.011
-355.566	-200.000	0.005	-0.146
-354.552	800.000	0.121	-0.521
-353.537	-46.326	0.316	0.155
-352.523	158.399	0.154	-0.212
-351.508	6.348	-0.091	0.067
-350.493	143.427	-0.080	-0.105
-349.479	-200.000	0.043	0.485
-348.464	-179.245	-0.203	-0.004
-347.450	535.481	0.048	0.112
-346.435	155.902	0.100	0.136
-345.420	-180.196	0.088	-0.002
-344.406	-200.000	0.011	0.074
-343.391	-79.192	0.128	0.043
-342.377	124.917	0.176	0.221
-341.362	-200.000	-0.004	0.223
-340.348	67.333	0.308	0.312
-339.333	-200.000	-0.029	0.185
-338.318	-33.103	0.028	0.015
-337.304	226.897	0.194	-0.313
-336.289	139.439	-0.197	-0.257
-335.275	-200.000	-0.026	0.147
-334.260	800.000	0.010	-0.031
-333.245	-41.851	0.153	0.078
-332.231	-107.998	0.212	-0.046
-331.216	20.492	0.071	-0.057
-330.202	-155.774	0.410	-0.026
-329.187	377.684	-0.110	-0.224
-328.172	44.278	0.120	0.109
-327.158	-200.000	0.031	-0.150
-326.143	800.000	0.087	0.367
-325.129	800.000	0.112	0.427
-324.114	-165.076	-0.031	-0.001
-323.099	-91.619	0.091	-0.026
-322.085	78.048	0.211	-0.223
-321.070	0.408	0.141	0.100
-320.056	-81.663	0.101	0.033
-319.041	-24.217	0.075	0.045
-318.026	78.804	0.288	0.306
-317.012	371.213	0.170	-0.343
-315.997	-66.906	0.267	-0.105
-314.983	124.933	-0.135	0.169
-313.968	62.872	-0.190	0.189
-312.953	-81.263	-0.296	-0.097
-311.939	-200.000	0.057	0.284
-310.924	73.327	-0.273	0.284
-309.910	-46.823	-0.224	0.109
-308.895	-137.617	-0.151	-0.017
-307.880	133.618	-0.069	-0.088
-306.866	-10.556	0.289	-0.190
-305.851	-128.303	-0.194	-0.027
-304.837	68.094	-0.034	0.034
-303.822	442.491	0.107	0.232
-302.807	-133.011	-0.081	-0.010
-301.793	-28.480	-0.250	-0.143
-300.778	312.510	-0.175	-0.325
-299.764	-105.845	0.225	-0.050
-298.749	257.604	-0.057	-0.098
-297.735	85.147	0.148	-0.161
-296.720	764.992	-0.020	0.054
-295.705	-200.000	-0.018	0.103
-294.691	113.633	0.240	-0.289
-293.676	-200.000	-0.046	0.344
-292.662	368.770	0.043	0.087
-291.647	-39.074	0.231	-0.120
-290.632	-35.000	-0.249	0.135
-289.618	-19.880	0.206	0.126
-288.603	800.000	-0.068	0.200
-287.589	235.439	0.126	0.206
-286.574	-35.325	-0.256	0.138
-285.559	26.662	0.097	0.080
-284.545	800.000	0.056	0.184
-283.530	-200.000	0.028	-0.198
-282.516	-18.345	0.143	-0.089
-281.501	-200.000	0.013	-0.130
-280.486	-127.427	0.096	-0.014
-279.472	-38.807	-0.102	0.053
-278.457	84.665	0.095	0.103
-277.443	-200.000	-0.013	0.091
-276.428	143.270	0.144	0.189
-275.413	-200.000	0.018	0.426
-274.399	-116.036	0.224	-0.041
-273.384	800.000	0.076	0.219
-272.370	21.003	-0.114	0.092
-271.355	-200.000	0.001	0.138
-270.340	800.000	-0.041	0.142
-269.326	-200.000	-0.060	-0.302
-268.311	-41.742	0.191	-0.097
-267.297	800.000	0.041	0.119
-266.282	-62.571	-0.113	-0.046
-265.267	-161.306	0.272	-0.014
-264.253	-120.714	-0.084	-0.014
-263.238	712.401	-0.037	-0.096
-262.224	-200.000	0.021	0.193
-261.209	-200.000	0.014	0.115
-260.195	36.953	0.247	0.216
-259.180	-27.868	0.347	0.199
-258.165	-50.423	-0.306	0.143
-257.151	-0.857	-0.450	-0.316
-256.136	298.982	-0.090	-0.164
-255.122	800.000	-0.068	-0.223
-254.107	-160.711	0.108	-0.006
-253.092	135.770	0.078	0.101
-252.078	655.522	0.044	-0.112
-251.063	79.040	-0.198	0.209
-250.049	157.130	-0.022	0.029
-249.034	-74.196	-0.152	-0.054
-248.019	327.499	0.086	-0.162
-247.005	-137.738	-0.198	0.022
-245.990	-102.607	0.265	0.063
-244.976	-118.781	-0.069	-0.012
-243.961	-200.000	-0.050	-0.286
-242.946	257.285	0.107	-0.182
-241.932	-200.000	-0.015	0.187
-240.917	38.846	-0.094	-0.083
-239.903	-97.892	-0.078	-0.020
-238.888	800.000	0.090	0.286
-237.873	111.979	0.101	0.120
-236.859	38.705	0.225	-0.198
-235.844	233.069	0.098	-0.160
-234.830	-3.238	-0.097	0.067
-233.815	712.079	-0.015	0.040
-232.800	-161.922	-0.236	0.012
-231.786	-25.192	0.183	0.107
-230.771	-200.000	0.005	0.119
-229.757	-150.869	0.246	-0.018
-228.742	-49.327	0.231	-0.109
-227.727	-68.286	-0.115	-0.044
-226.713	-98.919	0.264	0.066
-225.698	0.659	0.151	-0.107
-224.684	-129.177	0.116	-0.016
-223.669	800.000	0.044	0.149
-222.655	80.242	0.124	-0.132
-221.640	-136.321	-0.184	-0.021
-220.625	-96.680	0.017	-0.004
-219.611	-200.000	-0.015	0.203
-218.596	-71.657	-0.512	0.189
-217.582	-200.000	0.013	-0.201
-216.567	-70.155	0.296	0.111
-215.552	-116.093	0.195	-0.036
-214.538	-35.148	0.298	0.161
-213.523	172.270	0.141	-0.201
-212.509	350.663	0.111	-0.217
-211.494	29.247	-0.259	0.217
-210.479	236.005	-0.082	0.133
-209.465	-100.808	-0.341	0.083
-208.450	-45.806	0.189	0.092
-207.436	-45.520	0.221	-0.108
-206.421	57.385	-0.115	-0.111
-205.406	-200.000	0.020	0.253
-204.392	12.584	-0.116	0.088
-203.377	-8.348	-0.161	0.107
-202.363	800.000	-0.052	0.182
-201.348	-156.130	-0.420	0.026
-200.333	-31.760	-0.074	0.041
-199.319	-200.000	0.029	0.245
-198.304	46.475	-0.259	0.237
-197.290	-72.281	0.184	0.067
-196.275	-21.260	-0.202	0.122
-195.260	61.079	0.120	-0.117
-194.246	800.000	-0.027	-0.102
-193.231	800.000	-0.049	0.195
-192.217	-90.683	0.044	-0.012
-191.202	-113.116	0.470	0.092
-190.187	-9.680	0.114	0.075
-189.173	237.473	0.061	0.100
-188.158	-106.960	0.277	-0.061
-187.144	-79.295	0.149	0.050
-186.129	176.509	0.329	-0.473
-185.114	286.131	-0.151	-0.270
-184.100	-200.000	0.011	-0.156
-183.085	-111.962	0.242	0.048
-182.071	-200.000	-0.003	-0.080
-181.056	-93.098	-0.188	-0.052
-180.042	235.717	-0.168	-0.274
-179.027	18.101	-0.159	-0.125
-178.012	-109.842	-0.164	-0.034
-176.998	224.230	0.086	0.137
-175.983	-142.177	-0.129	-0.013
-174.969	-169.270	0.393	-0.014
-173.954	-93.172	-0.080	-0.022
-172.939	5.855	-0.553	-0.404
-171.925	336.126	-0.173	-0.331
-170.910	-102.250	-0.226	0.054
-169.896	-129.522	-0.103	-0.014
-168.881	-112.376	0.175	0.035
-167.866	225.043	0.131	-0.209
-166.852	102.720	-0.424	-0.489
-165.837	-200.000	0.016	-0.079
-164.823	800.000	-0.071	-0.204
-163.808	123.426	0.084	-0.104
-162.793	-200.000	0.010	0.172
-161.779	-4.559	0.248	-0.169
-160.764	85.793	-0.095	-0.103
-159.750	206.805	-0.050	-0.077
-158.735	-200.000	0.018	0.108
-157.720	98.451	-0.152	-0.173
-156.706	-11.939	-0.156	0.101
-155.691	206.533	0.130	-0.200
-154.677	300.747	0.145	0.265
-153.662	168.487	0.055	0.078
-152.647	-200.000	0.069	-0.347
-151.633	132.167	-0.178	0.226
-150.618	-83.952	0.134	0.042
-149.604	5.945	-0.236	-0.172
-148.589	85.779	-0.182	-0.197
-147.574	26.885	-0.098	-0.081
-146.560	-65.887	0.108	0.042
-145.545	300.029	-0.062	0.113
-144.531	206.903	-0.147	-0.227
-143.516	-145.726	-0.193	-0.017
-142.502	353.379	0.104	-0.203
-141.487	-56.964	0.187	0.082
-140.472	273.470	-0.132	0.230
-139.458	2.470	0.183	0.131
-138.443	86.756	-0.193	0.210
-137.429	-65.215	0.232	0.092
-136.414	-200.000	0.008	0.196
-135.399	-200.000	-0.012	-0.138
-134.385	24.560	-0.262	0.213
-133.370	35.089	0.126	0.108
-132.356	800.000	0.048	0.155
-131.341	29.742	-0.145	-0.121
-130.326	40.739	0.212	-0.189
-129.312	172.710	-0.290	0.411
-128.297	-200.000	-0.012	-0.239
-127.283	98.780	0.014	-0.016
-126.268	189.431	-0.166	-0.245
-125.253	-8.531	-0.104	-0.069
-124.239	190.465	0.077	0.114
-123.224	342.983	-0.068	-0.132
-122.210	-127.447	0.121	0.017
-121.195	-200.000	-0.012	-0.167
