DTS Sentinel unit serial number:	SN413079Multiplexer serial number:	ORYXHardware model number:	OX4-SRSoftware version number:	ORYX F/W v4.00 Oryx Data Collector v3.7.2.0data status	okinstallation	princeton_trtdifferential loss correction	single-endedforward channel	channel 2reverse channel	N/Adate	2019/09/12time	14:17:11forward acquisition time	60.00reverse acquisition time	0.00gamma	496.2192k internal	0.2301k external	0.2301temperature offset calibration	1.0089default loss term (dB/km)	0.3790temperature slope calibration	1.0000multiplexer offset coefficient	1.0000multiplexer slope coefficient	1.0000fibre end	0.00T internal ref (°C)	40.25T ext. ref 1 (°C)	2.25T ext. ref 2 (°C)	35.16length (m)	temperature (°C)	Stokes	anti-Stokes-747.200	22.298	0.134	0.111
-746.185	-154.521	-0.149	0.010
-745.171	72.230	0.210	0.223
-744.156	-46.248	0.144	0.072
-743.142	331.709	-0.076	0.149
-742.127	-200.000	0.025	0.265
-741.112	-200.000	-0.026	-0.183
-740.098	26.511	-0.216	0.184
-739.083	575.470	-0.026	-0.064
-738.069	800.000	-0.104	0.395
-737.054	800.000	-0.068	-0.248
-736.039	800.000	0.065	-0.205
-735.025	30.550	-0.069	-0.060
-734.010	178.501	-0.106	-0.157
-732.996	137.866	-0.108	-0.144
-731.981	800.000	-0.058	-0.224
-730.966	591.911	-0.243	0.610
-729.952	-75.049	-0.439	0.160
-728.937	-200.000	0.009	-0.260
-727.923	45.774	-0.080	-0.075
-726.908	-200.000	0.014	0.180
-725.894	-4.645	-0.177	-0.125
-724.879	10.623	-0.241	-0.187
-723.864	-123.097	-0.105	0.017
-722.850	800.000	0.038	0.148
-721.835	800.000	0.043	-0.140
-720.821	-98.808	0.047	-0.012
-719.806	-97.886	-0.198	-0.052
-718.791	367.480	0.129	-0.265
-717.777	-6.236	0.097	0.068
-716.762	-97.697	0.077	0.020
-715.748	163.805	0.108	0.155
-714.733	660.328	0.116	-0.303
-713.718	-87.595	-0.085	-0.026
-712.704	154.928	0.189	-0.264
-711.689	-170.044	0.341	0.012
-710.675	800.000	-0.019	0.059
-709.660	439.034	0.045	0.100
-708.645	-26.095	0.146	0.087
-707.631	800.000	0.052	0.163
-706.616	-200.000	-0.021	0.133
-705.602	178.278	0.271	-0.402
-704.587	367.339	0.025	0.051
-703.572	-164.133	0.250	0.012
-702.558	450.444	0.037	-0.084
-701.543	69.430	-0.289	-0.302
-700.529	800.000	-0.064	-0.222
-699.514	26.483	0.135	0.115
-698.499	-200.000	-0.016	-0.191
-697.485	-104.877	0.193	0.045
-696.470	-200.000	0.006	-0.056
-695.456	-200.000	-0.027	0.170
-694.441	135.626	-0.035	-0.046
-693.426	-105.830	-0.399	0.092
-692.412	50.449	0.380	0.365
-691.397	-102.231	0.137	0.033
-690.383	-15.059	0.076	0.049
-689.368	800.000	-0.132	0.404
-688.354	800.000	-0.066	0.215
-687.339	800.000	-0.036	-0.121
-686.324	-200.000	-0.039	-0.226
-685.310	63.328	0.102	-0.104
-684.295	-200.000	0.056	0.256
-683.281	-15.131	0.174	-0.113
-682.266	800.000	-0.047	-0.172
-681.251	800.000	0.023	-0.101
-680.237	-44.658	0.090	-0.046
-679.222	-137.533	-0.427	0.049
-678.208	-138.584	0.225	0.025
-677.193	11.628	-0.212	0.166
-676.178	42.529	0.088	0.081
-675.164	-200.000	-0.032	0.536
-674.149	440.914	0.027	0.061
-673.135	37.498	0.041	-0.037
-672.120	39.426	-0.165	0.150
-671.105	-200.000	0.016	0.107
-670.091	-168.352	-0.102	0.004
-669.076	-200.000	0.015	-0.272
-668.062	-121.718	-0.246	-0.041
-667.047	126.615	-0.095	0.122
-666.032	-200.000	-0.049	0.323
-665.018	48.311	0.120	0.114
-664.003	800.000	0.050	0.154
-662.989	-22.106	0.095	0.059
-661.974	-105.429	0.150	-0.035
-660.959	-154.858	-0.094	0.006
-659.945	800.000	0.017	-0.057
-658.930	-12.759	0.236	0.156
-657.916	-200.000	-0.003	0.232
-656.901	-129.431	-0.354	0.050
-655.886	575.562	-0.038	-0.095
-654.872	-200.000	0.041	0.241
-653.857	312.123	-0.113	-0.215
-652.843	219.648	0.026	-0.042
-651.828	60.783	0.159	0.160
-650.814	120.721	0.226	0.285
-649.799	109.310	0.062	-0.076
-648.784	138.276	-0.249	0.331
-647.770	-40.226	-0.066	0.035
-646.755	-117.697	-0.128	-0.023
-645.741	-200.000	-0.013	-0.234
-644.726	93.526	0.084	-0.096
-643.711	65.249	0.053	-0.055
-642.697	-58.076	-0.152	-0.067
-641.682	606.430	-0.068	0.172
-640.668	75.568	-0.133	-0.143
-639.653	-97.231	-0.356	0.094
-638.638	-47.499	-0.232	-0.115
-637.624	155.762	-0.191	-0.267
-636.609	521.831	-0.111	0.266
-635.595	-80.220	-0.413	0.140
-634.580	368.666	0.150	0.308
-633.565	223.713	-0.110	-0.180
-632.551	-138.521	-0.294	-0.033
-631.536	456.958	0.013	0.029
-630.522	-200.000	0.012	0.242
-629.507	-47.001	-0.413	-0.204
-628.492	800.000	0.004	0.015
-627.478	-160.142	0.186	-0.010
-626.463	140.343	-0.020	0.027
-625.449	-200.000	-0.019	-0.164
-624.434	123.732	-0.098	0.125
-623.419	-28.316	-0.217	-0.127
-622.405	-136.232	-0.191	-0.023
-621.390	297.044	0.030	0.056
-620.376	-30.595	-0.197	0.113
-619.361	159.923	-0.251	-0.354
-618.346	126.933	-0.161	-0.207
-617.332	94.376	0.161	-0.185
-616.317	294.451	-0.147	0.273
-615.303	-53.434	-0.212	0.099
-614.288	428.559	0.178	0.390
-613.273	53.191	0.277	0.269
-612.259	339.421	0.060	-0.119
-611.244	-130.412	0.168	-0.023
-610.230	800.000	0.039	-0.112
-609.215	-84.763	0.084	-0.027
-608.201	-83.874	-0.201	-0.065
-607.186	-54.392	-0.272	0.125
-606.171	-24.074	-0.076	0.046
-605.157	-200.000	0.024	-0.114
-604.142	254.124	-0.123	0.214
-603.128	129.153	0.197	0.254
-602.113	-183.885	0.118	-0.002
-601.098	-162.763	0.153	-0.008
-600.084	277.498	-0.104	-0.187
-599.069	800.000	-0.117	0.483
-598.055	69.946	0.116	-0.121
-597.040	69.570	-0.130	-0.135
-596.025	-200.000	0.000	0.070
-595.011	159.622	-0.068	0.096
-593.996	50.871	-0.232	-0.223
-592.982	65.467	0.061	-0.063
-591.967	-200.000	-0.026	-0.178
-590.952	-200.000	-0.014	-0.509
-589.938	800.000	0.031	-0.098
-588.923	798.507	0.061	-0.170
-587.909	-41.990	-0.237	-0.123
-586.894	-95.960	-0.156	0.042
-585.879	-200.000	-0.016	-0.289
-584.865	3.496	0.250	-0.185
-583.850	160.764	0.153	0.216
-582.836	-136.888	-0.358	0.042
-581.821	-200.000	0.038	-0.334
-580.806	800.000	0.030	-0.115
-579.792	-56.851	0.264	-0.118
-578.777	-163.403	0.427	-0.021
-577.763	-139.878	-0.333	0.036
-576.748	-23.377	-0.073	0.045
-575.733	-144.557	0.269	0.025
-574.719	131.811	0.061	-0.080
-573.704	-200.000	0.000	-0.311
-572.690	-89.937	-0.208	0.062
-571.675	41.356	-0.109	0.099
-570.661	481.035	0.174	-0.399
-569.646	214.105	-0.066	-0.106
-568.631	-140.568	-0.042	0.004
-567.617	79.491	0.114	0.124
-566.602	-200.000	0.011	-0.313
-565.588	295.076	0.058	0.107
-564.573	51.727	-0.094	-0.091
-563.558	46.965	0.170	-0.160
-562.544	-66.700	-0.259	0.104
-561.529	71.237	-0.359	-0.377
-560.515	-6.703	0.265	0.182
-559.500	-43.966	0.429	0.218
-558.485	-200.000	0.011	-0.106
-557.471	-173.025	-0.350	-0.011
-556.456	34.566	0.146	0.129
-555.442	-3.833	0.283	0.198
-554.427	-57.808	-0.549	-0.243
-553.412	-200.000	-0.005	-0.236
-552.398	-113.842	0.160	0.031
-551.383	29.971	-0.290	-0.250
-550.369	48.671	0.209	-0.198
-549.354	5.117	0.173	-0.129
-548.339	142.869	-0.276	0.371
-547.325	190.927	-0.263	-0.400
-546.310	14.121	0.041	-0.032
-545.296	-200.000	-0.096	-0.512
-544.281	126.293	-0.147	0.188
-543.266	-85.155	0.110	0.035
-542.252	-30.989	-0.062	0.035
-541.237	382.974	0.121	-0.252
-540.223	50.107	-0.205	0.196
-539.208	-6.258	-0.058	-0.040
-538.193	-35.799	-0.111	-0.061
-537.179	800.000	-0.053	0.223
-536.164	-123.062	-0.148	0.024
-535.150	-152.671	-0.423	-0.031
-534.135	800.000	-0.038	0.111
-533.121	494.415	-0.062	0.143
-532.106	-200.000	0.037	0.330
-531.091	-200.000	0.009	0.220
-530.077	-57.039	0.436	-0.194
-529.062	91.734	-0.082	0.093
-528.048	-45.950	0.185	0.092
-527.033	-8.621	0.123	-0.083
-526.018	315.212	0.095	0.182
-525.004	-35.671	-0.077	0.042
-523.989	-67.469	0.071	-0.028
-522.975	800.000	-0.084	0.326
-521.960	-24.799	-0.280	-0.168
-520.945	-200.000	-0.005	0.277
-519.931	-137.010	-0.313	0.036
-518.916	-70.688	-0.053	0.020
-517.902	332.890	-0.029	-0.056
-516.887	-187.014	0.313	0.004
-515.872	-102.089	0.305	-0.074
-514.858	-22.951	-0.113	-0.069
-513.843	255.088	0.101	0.175
-512.829	-117.884	-0.364	-0.066
-511.814	-55.451	-0.184	0.083
-510.799	-122.054	0.169	-0.028
-509.785	372.469	-0.093	0.192
-508.770	104.055	-0.172	-0.204
-507.756	5.859	0.222	-0.166
-506.741	800.000	-0.035	0.099
-505.726	376.746	-0.054	-0.112
-504.712	-149.123	0.409	0.033
-503.697	-200.000	0.021	-0.113
-502.683	403.631	-0.173	0.368
-501.668	32.618	0.096	0.084
-500.653	-200.000	0.045	0.223
-499.639	-79.029	-0.042	0.014
-498.624	631.634	-0.090	-0.229
-497.610	-200.000	-0.056	-0.000
-496.595	613.855	-0.071	0.179
-495.581	517.303	-0.041	-0.096
-494.566	89.707	-0.083	-0.093
-493.551	-104.241	-0.186	0.044
-492.537	2.700	0.229	-0.168
-491.522	800.000	-0.068	0.250
-490.508	34.178	-0.224	-0.197
-489.493	-100.843	0.203	0.050
-488.478	-115.740	0.260	0.049
-487.464	-22.621	-0.141	-0.086
-486.449	-200.000	0.009	-0.369
-485.435	-105.203	-0.311	-0.072
-484.420	-125.584	0.006	-0.001
-483.405	16.809	0.183	0.146
-482.391	-94.160	0.104	-0.029
-481.376	592.725	-0.059	-0.147
-480.362	-105.919	-0.397	-0.090
-479.347	-169.096	0.281	-0.011
-478.332	-200.000	0.021	-0.169
-477.318	47.895	0.032	-0.030
-476.303	169.393	-0.202	0.290
-475.289	-112.039	-0.230	-0.047
-474.274	-153.961	0.076	0.005
-473.259	-16.429	0.087	0.056
-472.245	4.889	0.187	0.139
-471.230	800.000	-0.163	0.480
-470.216	45.864	-0.211	-0.197
-469.201	26.679	0.038	-0.032
-468.186	413.073	0.140	0.301
-467.172	12.120	-0.136	0.106
-466.157	-13.882	0.069	0.045
-465.143	436.541	0.018	0.039
-464.128	-200.000	-0.011	0.150
-463.113	547.449	0.164	0.396
-462.099	-89.631	0.032	-0.009
-461.084	-68.053	0.293	0.115
-460.070	361.716	0.100	-0.201
-459.055	233.406	-0.278	-0.461
-458.040	-97.079	0.515	0.136
-457.026	-156.377	-0.148	0.009
-456.011	-151.511	0.035	0.003
-454.997	643.289	-0.049	0.126
-453.982	-149.995	0.295	0.023
-452.968	-2.400	0.028	-0.019
-451.953	-144.781	-0.222	-0.021
-450.938	38.226	-0.290	0.260
-449.924	-200.000	-0.006	0.054
-448.909	-93.989	0.040	0.011
-447.895	53.256	0.149	0.143
-446.880	37.180	0.174	0.155
-445.865	-34.105	-0.157	0.087
-444.851	-36.837	0.180	0.097
-443.836	190.923	0.110	0.167
-442.822	-13.995	0.279	0.182
-441.807	800.000	-0.068	-0.212
-440.792	-70.652	0.181	0.069
-439.778	-102.620	0.057	-0.014
-438.763	-16.717	-0.277	0.177
-437.749	-40.740	0.262	-0.137
-436.734	-200.000	0.022	-0.230
-435.719	-26.041	-0.133	-0.079
-434.705	94.709	0.183	-0.210
-433.690	23.754	-0.115	-0.096
-432.676	-95.363	0.089	0.024
-431.661	-42.561	0.239	0.123
-430.646	-14.315	-0.169	-0.110
-429.632	-101.595	-0.140	0.034
-428.617	52.002	-0.169	0.162
-427.603	-105.376	-0.011	0.003
-426.588	26.419	0.088	0.074
-425.573	-8.880	-0.143	0.097
-424.559	-69.009	0.159	-0.062
-423.544	-10.895	-0.093	-0.062
-422.530	-200.000	-0.007	0.070
-421.515	-200.000	0.056	0.479
-420.500	-77.104	0.058	0.020
-419.486	-90.881	0.161	-0.047
-418.471	-200.000	0.030	0.215
-417.457	153.965	-0.139	0.192
-416.442	800.000	0.098	-0.308
-415.428	141.985	0.194	0.259
-414.413	-148.771	-0.096	0.008
-413.398	95.641	0.062	0.072
-412.384	-60.199	-0.075	-0.032
-411.369	-50.658	0.116	-0.055
-410.355	-163.755	0.258	-0.012
-409.340	-163.661	-0.123	0.006
-408.325	269.270	-0.060	0.107
-407.311	-132.346	0.175	-0.023
-406.296	-79.017	-0.154	-0.053
-405.282	-142.080	0.170	0.017
-404.267	-161.203	0.266	-0.014
-403.252	-175.442	0.143	0.004
-402.238	369.274	-0.165	0.337
-401.223	303.890	-0.107	0.200
-400.209	192.549	-0.134	0.204
-399.194	73.225	0.414	-0.435
-398.179	5.521	-0.230	0.171
-397.165	-43.985	-0.404	0.204
-396.150	-175.391	-0.113	0.003
-395.136	-21.405	-0.132	0.081
-394.121	-57.102	0.173	0.077
-393.106	-200.000	0.051	0.302
-392.092	75.928	-0.167	0.178
-391.077	800.000	0.019	-0.064
-390.063	61.375	0.115	-0.115
-389.048	-69.166	0.337	0.130
-388.033	-35.878	0.294	-0.160
-387.019	30.381	0.095	0.082
-386.004	-200.000	-0.065	-0.287
-384.990	-200.000	0.028	0.140
-383.975	-200.000	0.006	-0.179
-382.960	102.271	-0.053	0.062
-381.946	-22.027	0.387	-0.236
-380.931	446.601	-0.080	-0.177
-379.917	-200.000	0.043	0.320
-378.902	800.000	-0.025	-0.108
-377.888	411.755	-0.073	-0.156
-376.873	-95.354	0.363	0.098
-375.858	800.000	0.070	-0.193
-374.844	-74.206	0.207	0.075
-373.829	-141.972	0.053	0.005
-372.815	61.711	0.321	-0.321
-371.800	97.981	0.056	0.064
-370.785	-94.157	-0.156	0.043
-369.771	-72.516	-0.299	0.111
-368.756	337.342	-0.189	-0.369
-367.742	138.570	0.182	-0.240
-366.727	297.889	-0.027	-0.050
-365.712	-184.008	0.097	0.002
-364.698	-18.390	-0.242	-0.152
-363.683	-200.000	0.030	-0.223
-362.669	-200.000	0.022	-0.161
-361.654	12.127	-0.219	0.169
-360.639	717.713	0.049	0.130
-359.625	171.338	-0.185	0.267
-358.610	-200.000	0.046	0.317
-357.596	92.365	0.102	-0.115
-356.581	-49.280	0.022	0.011
-355.566	-200.000	-0.057	-0.329
-354.552	-65.571	0.235	-0.095
-353.537	-13.796	0.062	0.040
-352.523	-109.010	0.102	-0.022
-351.508	-104.939	0.093	-0.021
-350.493	-200.000	0.032	-0.248
-349.479	1.108	0.148	-0.106
-348.464	-89.982	0.295	-0.086
-347.450	-200.000	-0.015	0.075
-346.435	701.479	0.062	-0.163
-345.420	-136.486	0.259	-0.030
-344.406	4.833	0.191	-0.141
-343.391	-1.207	0.283	-0.201
-342.377	-200.000	-0.013	-0.342
-341.362	-109.081	-0.358	0.077
-340.348	-19.839	0.125	0.077
-339.333	273.297	0.020	0.035
-338.318	800.000	-0.081	0.273
-337.304	-26.571	-0.208	0.122
-336.289	166.783	0.330	-0.470
-335.275	-52.314	-0.138	-0.064
-334.260	70.168	-0.159	0.165
-333.245	-69.594	0.231	0.089
-332.231	-57.270	-0.048	0.021
-331.216	191.490	-0.044	0.066
-330.202	92.384	-0.100	0.113
-329.187	-159.935	-0.151	0.008
-328.172	19.666	0.195	-0.157
-327.158	-126.783	0.306	-0.045
-326.143	25.162	0.245	0.204
-325.129	800.000	0.039	-0.153
-324.114	-105.920	0.518	0.117
-323.099	800.000	0.066	0.279
-322.085	800.000	-0.059	0.248
-321.070	-200.000	-0.055	-0.424
-320.056	97.812	0.152	-0.175
-319.041	-200.000	-0.003	-0.022
-318.026	-138.510	0.371	-0.041
-317.012	137.317	0.148	-0.193
-315.997	-121.601	-0.422	0.070
-314.983	-53.093	-0.122	0.056
-313.968	4.005	-0.250	-0.183
-312.953	-135.956	0.126	-0.015
-311.939	800.000	0.021	0.059
-310.924	-74.185	0.203	-0.074
-309.910	671.012	-0.071	-0.185
-308.895	-35.057	-0.174	-0.095
-307.880	-166.487	0.458	0.019
-306.866	-84.618	-0.262	-0.083
-305.851	419.312	-0.031	-0.067
-304.837	-61.717	0.328	-0.138
-303.822	800.000	0.030	-0.083
-302.807	198.782	-0.085	-0.131
-301.793	-161.554	0.091	-0.005
-300.778	-93.846	0.158	-0.043
-299.764	-116.330	-0.147	-0.027
-298.749	126.708	0.105	-0.133
-297.735	-24.828	0.265	-0.158
-296.720	-115.683	0.333	-0.063
-295.705	-22.606	0.141	-0.086
-294.691	87.448	0.213	-0.236
-293.676	-128.419	-0.158	-0.022
-292.662	71.302	-0.150	0.155
-291.647	-200.000	-0.032	0.297
-290.632	50.352	-0.204	-0.193
-289.618	-149.456	0.219	0.017
-288.603	-200.000	-0.012	0.093
-287.589	-88.545	-0.235	0.070
-286.574	800.000	-0.040	-0.118
-285.559	-200.000	0.038	0.281
-284.545	339.502	0.129	0.251
-283.530	185.989	-0.240	-0.358
-282.516	-200.000	-0.012	0.381
-281.501	-105.878	0.029	-0.006
-280.486	800.000	-0.042	0.122
-279.472	-140.790	0.219	0.023
-278.457	800.000	0.049	-0.154
-277.443	61.896	-0.246	-0.245
-276.428	-138.879	-0.041	0.004
-275.413	800.000	0.115	-0.383
-274.399	-200.000	-0.055	-0.268
-273.384	14.972	0.218	-0.170
-272.370	-200.000	0.018	0.116
-271.355	-65.238	-0.068	0.027
-270.340	233.547	-0.221	0.363
-269.326	-118.651	-0.227	0.040
-268.311	-106.028	-0.473	0.107
-267.297	46.841	0.145	0.135
-266.282	-200.000	-0.128	-0.001
-265.267	228.527	0.213	-0.347
-264.253	-92.210	-0.260	0.073
-263.238	450.841	0.243	0.536
-262.224	-200.000	0.037	0.232
-261.209	191.630	-0.147	0.222
-260.195	-150.528	0.203	-0.016
-259.180	51.552	-0.185	0.176
-258.165	251.138	-0.130	0.221
-257.151	-9.685	-0.038	-0.025
-256.136	30.700	0.131	0.112
-255.122	-200.000	0.030	0.225
-254.107	800.000	0.033	-0.110
-253.092	-92.962	-0.104	-0.029
-252.078	88.022	0.119	0.132
-251.063	-120.734	-0.104	0.018
-250.049	-200.000	0.027	-0.132
-249.034	-200.000	-0.352	-0.002
-248.019	130.113	-0.257	-0.329
-247.005	4.316	-0.216	0.158
-245.990	202.004	-0.113	-0.174
-244.976	-115.219	-0.214	0.041
-243.961	-67.537	-0.095	-0.037
-242.946	540.806	0.074	0.177
-241.932	-170.385	0.254	0.009
-240.917	-31.946	0.167	-0.093
-239.903	131.830	-0.198	0.255
-238.888	-80.461	0.422	-0.141
-237.873	-200.000	0.024	-0.125
-236.859	89.119	0.136	0.151
-235.844	581.406	-0.086	-0.211
-234.830	-200.000	0.013	0.066
-233.815	-117.181	-0.030	0.005
-232.800	-16.243	-0.069	0.044
-231.786	-200.000	-0.002	0.137
-230.771	800.000	0.048	0.185
-229.757	532.691	-0.111	-0.262
-228.742	118.764	-0.202	-0.249
-227.727	376.512	-0.154	0.314
-226.713	-185.116	0.185	0.003
-225.698	-69.537	0.179	-0.069
-224.684	15.436	0.172	0.135
-223.669	110.981	-0.109	0.131
-222.655	42.948	0.114	-0.104
-221.640	-200.000	-0.064	-0.443
-220.625	-200.000	-0.021	0.335
-219.611	-200.000	-0.011	0.087
-218.596	21.676	0.164	-0.133
-217.582	216.291	0.149	-0.236
-216.567	72.225	0.116	0.121
-215.552	-109.085	0.068	0.014
-214.538	734.301	0.102	0.273
-213.523	-200.000	-0.004	-0.069
-212.509	133.960	-0.248	-0.321
-211.494	-29.380	0.123	0.070
-210.479	-11.761	-0.184	-0.121
-209.465	-48.843	0.229	0.110
-208.450	-191.210	0.223	0.002
-207.436	-119.061	-0.082	0.014
-206.421	-49.666	-0.144	-0.068
-205.406	-68.801	-0.158	-0.061
-204.392	151.699	0.113	0.154
-203.377	-3.379	-0.318	-0.221
-202.363	-200.000	0.022	0.259
-201.348	-22.230	0.278	0.168
-200.333	-31.540	-0.217	0.122
-199.319	-50.102	0.042	0.020
-198.304	-156.540	0.247	0.015
-197.290	4.918	-0.250	-0.183
-196.275	-73.812	-0.272	-0.099
-195.260	800.000	0.087	-0.306
-194.246	-117.147	-0.272	-0.049
-193.231	189.358	-0.057	0.085
-192.217	259.890	-0.055	0.096
-191.202	635.126	-0.057	-0.145
-190.187	-119.855	0.121	-0.021
-189.173	49.827	-0.141	-0.133
-188.158	193.747	-0.158	-0.238
-187.144	-78.528	0.466	0.159
-186.129	57.829	0.139	0.136
-185.114	-33.595	0.216	-0.119
-184.100	-37.769	0.280	-0.149
-183.085	-108.658	0.229	0.049
-182.071	-200.000	-0.002	-0.199
-181.056	-140.605	-0.220	-0.023
-180.042	-114.891	-0.239	0.045
-179.027	65.791	0.233	0.235
-178.012	-93.286	-0.393	-0.109
-176.998	-52.354	0.275	0.127
-175.983	-166.185	-0.255	-0.011
-174.969	398.310	-0.117	0.244
-173.954	204.166	0.239	0.370
-172.939	222.483	-0.091	0.147
-171.925	87.871	-0.155	0.171
-170.910	9.139	-0.259	0.195
-169.896	6.303	-0.109	0.081
-168.881	-50.814	-0.113	-0.053
-167.866	-200.000	-0.083	-0.434
-166.852	-80.945	0.304	-0.100
-165.837	246.120	-0.116	-0.195
-164.823	80.399	0.074	0.080
-163.808	800.000	0.024	-0.082
-162.793	40.546	0.140	-0.126
-161.779	-200.000	-0.051	0.269
-160.764	-58.244	0.340	0.148
-159.750	-18.440	-0.079	0.049
-158.735	800.000	-0.056	0.178
-157.720	-200.000	0.029	-0.135
-156.706	-200.000	0.028	0.390
-155.691	268.087	-0.288	0.503
-154.677	62.218	0.207	0.206
-153.662	66.048	-0.175	-0.177
-152.647	-61.068	0.323	-0.136
-151.633	364.868	0.073	-0.147
-150.618	164.037	0.057	0.079
-149.604	90.261	0.282	-0.314
-148.589	-149.650	-0.248	-0.019
-147.574	18.994	-0.106	-0.085
-146.560	79.628	-0.156	0.167
-145.545	706.657	0.055	-0.145
-144.531	133.342	-0.113	0.145
-143.516	517.977	-0.010	0.022
-142.502	-33.109	-0.099	-0.055
-141.487	244.641	0.115	0.192
-140.472	82.164	0.072	-0.078
-139.458	-29.951	0.225	-0.128
-138.443	-200.000	0.039	-0.434
-137.429	121.784	-0.229	-0.285
-136.414	101.306	0.059	-0.069
-135.399	337.027	0.184	0.355
-134.385	94.070	-0.141	0.159
-133.370	124.132	-0.178	-0.223
-132.356	1.128	0.195	0.140
-131.341	36.267	-0.080	0.071
-130.326	-105.936	0.162	-0.036
-129.312	569.111	0.114	-0.275
-128.297	107.679	0.212	-0.251
-127.283	-84.875	-0.257	-0.080
-126.268	-0.055	-0.284	-0.202
-125.253	800.000	-0.075	-0.296
-124.239	-13.009	-0.242	0.156
-123.224	106.795	-0.083	-0.097
-122.210	-135.066	-0.071	0.008
-121.195	101.055	0.064	0.074
-120.180	-152.183	-0.165	-0.012
