DTS Sentinel unit serial number:	SN413079Multiplexer serial number:	ORYXHardware model number:	OX4-SRSoftware version number:	ORYX F/W v4.00 Oryx Data Collector v3.7.2.0data status	okinstallation	princeton_trtdifferential loss correction	single-endedforward channel	channel 2reverse channel	N/Adate	2019/09/15time	13:35:35forward acquisition time	60.00reverse acquisition time	0.00gamma	496.2192k internal	0.2305k external	0.2305temperature offset calibration	0.9987default loss term (dB/km)	0.3790temperature slope calibration	1.0000multiplexer offset coefficient	1.0000multiplexer slope coefficient	1.0000fibre end	0.00T internal ref (°C)	37.73T ext. ref 1 (°C)	4.83T ext. ref 2 (°C)	35.01length (m)	temperature (°C)	Stokes	anti-Stokes-747.200	-156.835	-0.425	0.027
-746.185	-200.000	0.089	0.410
-745.171	800.000	-0.073	-0.224
-744.156	-116.101	0.258	-0.049
-743.142	-49.741	0.093	-0.045
-742.127	-200.000	-0.070	0.412
-741.112	583.264	-0.192	0.480
-740.098	800.000	-0.102	0.304
-739.083	530.679	-0.067	-0.162
-738.069	800.000	0.069	-0.220
-737.054	-25.553	-0.284	0.171
-736.039	800.000	-0.027	-0.102
-735.025	31.170	0.206	0.180
-734.010	230.103	-0.132	-0.220
-732.996	338.579	-0.032	-0.064
-731.981	144.354	-0.155	-0.211
-730.966	-200.000	0.119	-0.564
-729.952	-200.000	0.003	-0.032
-728.937	-90.812	0.245	-0.072
-727.923	800.000	0.076	0.254
-726.908	-200.000	0.063	0.317
-725.894	494.468	0.193	-0.452
-724.879	800.000	0.111	-0.467
-723.864	51.665	0.157	-0.151
-722.850	70.328	0.147	-0.154
-721.835	3.809	-0.192	0.143
-720.821	-111.757	-0.278	-0.057
-719.806	-164.442	0.227	-0.011
-718.791	800.000	-0.099	-0.341
-717.777	-103.664	-0.442	-0.105
-716.762	208.624	-0.045	0.071
-715.748	168.922	-0.167	-0.242
-714.733	118.589	-0.106	-0.133
-713.718	800.000	0.072	-0.207
-712.704	83.148	-0.143	0.158
-711.689	69.311	-0.128	0.134
-710.675	-155.348	-0.095	-0.006
-709.660	39.799	-0.195	-0.178
-708.645	-162.682	0.236	-0.012
-707.631	95.549	-0.107	-0.124
-706.616	22.592	-0.297	0.247
-705.602	74.123	0.085	-0.091
-704.587	-47.602	-0.408	0.201
-703.572	-142.496	-0.138	-0.014
-702.558	24.683	-0.059	-0.050
-701.543	-65.083	-0.240	-0.099
-700.529	78.440	0.198	-0.215
-699.514	-200.000	-0.059	-0.321
-698.499	58.201	-0.083	-0.083
-697.485	-37.589	-0.302	-0.164
-696.470	189.519	-0.128	0.195
-695.456	-16.950	-0.179	-0.115
-694.441	-82.798	-0.089	0.029
-693.426	-24.125	0.343	-0.208
-692.412	421.758	-0.045	0.099
-691.397	-104.153	-0.377	0.089
-690.383	-200.000	-0.018	-0.086
-689.368	405.762	0.035	0.076
-688.354	-92.865	-0.258	0.073
-687.339	9.538	-0.122	-0.094
-686.324	-102.211	-0.331	0.081
-685.310	88.280	0.048	0.055
-684.295	334.997	0.090	0.178
-683.281	75.069	-0.079	-0.085
-682.266	202.767	0.061	0.096
-681.251	-200.000	-0.030	0.269
-680.237	-15.485	0.350	-0.227
-679.222	-51.066	-0.252	-0.120
-678.208	188.023	-0.100	-0.151
-677.193	35.713	0.165	-0.147
-676.178	-94.401	-0.182	-0.050
-675.164	-200.000	-0.013	0.140
-674.149	-32.597	-0.382	-0.216
-673.135	109.066	-0.243	-0.295
-672.120	342.699	0.123	-0.245
-671.105	-162.631	0.166	-0.008
-670.091	-200.000	0.007	-0.212
-669.076	130.934	0.210	-0.273
-668.062	264.384	-0.056	0.099
-667.047	-82.124	-0.018	-0.006
-666.032	-200.000	-0.063	-0.461
-665.018	48.384	-0.094	-0.089
-664.003	-100.633	-0.281	0.070
-662.989	56.195	0.186	0.183
-661.974	-200.000	-0.014	0.123
-660.959	456.725	-0.088	-0.197
-659.945	-183.297	-0.289	0.005
-658.930	-167.846	-0.201	0.008
-657.916	-200.000	0.005	0.103
-656.901	61.963	-0.249	-0.252
-655.886	63.071	-0.174	-0.177
-654.872	135.561	-0.133	0.175
-653.857	-165.916	0.214	0.009
-652.843	-12.824	-0.116	-0.077
-651.828	417.243	-0.021	0.045
-650.814	299.247	0.127	-0.236
-649.799	98.540	-0.230	0.269
-648.784	-200.000	-0.013	-0.077
-647.770	44.417	-0.277	-0.258
-646.755	-76.885	-0.098	0.035
-645.741	-200.000	0.035	-0.162
-644.726	-114.333	-0.125	0.024
-643.711	-55.255	-0.228	0.104
-642.697	309.252	-0.203	-0.385
-641.682	-2.223	0.201	-0.143
-640.668	-182.572	-0.047	-0.001
-639.653	135.716	-0.317	-0.419
-638.638	-78.875	0.099	-0.034
-637.624	-200.000	-0.011	0.138
-636.609	800.000	0.058	-0.223
-635.595	54.414	-0.139	0.135
-634.580	-95.696	0.145	0.039
-633.565	-200.000	0.013	-0.266
-632.551	105.251	-0.192	0.230
-631.536	-46.770	0.171	-0.085
-630.522	-21.158	-0.252	-0.156
-629.507	-25.455	-0.292	-0.175
-628.492	745.678	0.170	-0.463
-627.478	-18.622	-0.250	0.158
-626.463	-3.862	0.056	-0.040
-625.449	-98.910	-0.101	-0.026
-624.434	3.491	-0.213	0.157
-623.419	730.517	0.066	-0.180
-622.405	74.565	-0.242	-0.258
-621.390	237.670	0.096	-0.162
-620.376	-74.096	-0.106	-0.039
-619.361	168.289	-0.113	0.163
-618.346	800.000	-0.054	0.170
-617.332	31.757	-0.318	0.277
-616.317	-63.895	-0.116	0.048
-615.303	-184.956	0.070	0.001
-614.288	800.000	0.038	0.147
-613.273	-20.159	-0.252	0.157
-612.259	-3.117	0.312	-0.221
-611.244	-0.193	-0.126	-0.091
-610.230	15.169	-0.250	-0.199
-609.215	-200.000	-0.010	-0.139
-608.201	49.714	0.179	-0.171
-607.186	-38.042	0.266	-0.143
-606.171	303.708	0.111	-0.208
-605.157	-53.332	0.111	0.052
-604.142	302.011	-0.162	0.302
-603.128	-200.000	-0.086	-0.411
-602.113	3.143	-0.124	-0.092
-601.098	97.261	-0.267	-0.310
-600.084	28.402	-0.134	-0.115
-599.069	-140.234	-0.288	0.030
-598.055	-152.359	0.320	0.023
-597.040	797.137	0.118	-0.330
-596.025	-200.000	0.015	-0.256
-595.011	39.311	0.132	-0.120
-593.996	276.796	0.062	0.111
-592.982	31.378	-0.128	0.111
-591.967	800.000	-0.064	-0.199
-590.952	800.000	-0.096	-0.369
-589.938	22.697	0.314	-0.260
-588.923	-44.328	0.249	0.126
-587.909	-18.775	-0.225	-0.142
-586.894	56.675	-0.213	0.210
-585.879	-112.455	-0.098	-0.020
-584.865	-200.000	-0.068	0.369
-583.850	526.804	0.092	0.220
-582.836	567.212	0.034	-0.082
-581.821	800.000	-0.081	-0.273
-580.806	-65.102	-0.331	-0.135
-579.792	155.223	0.234	0.325
-578.777	24.021	0.227	0.189
-577.763	-101.283	0.302	0.075
-576.748	153.904	-0.085	-0.118
-575.733	-200.000	-0.023	-0.241
-574.719	-188.170	0.352	0.005
-573.704	360.270	-0.143	-0.289
-572.690	56.860	0.182	0.179
-571.675	101.783	0.034	-0.040
-570.661	-112.129	-0.387	0.079
-569.646	-54.813	0.153	0.070
-568.631	-200.000	-0.060	0.269
-567.617	-200.000	-0.030	0.256
-566.602	-200.000	-0.083	-0.400
-565.588	148.817	0.067	-0.091
-564.573	-90.019	-0.216	-0.064
-563.558	-66.273	-0.162	-0.065
-562.544	800.000	0.078	0.268
-561.529	-78.313	-0.341	-0.118
-560.515	559.930	0.026	0.063
-559.500	-200.000	-0.028	0.177
-558.485	103.603	0.168	0.199
-557.471	-22.163	0.111	0.068
-556.456	228.849	0.316	-0.521
-555.442	136.084	-0.155	-0.204
-554.427	-60.988	0.010	-0.004
-553.412	800.000	0.066	0.215
-552.398	54.444	-0.090	0.087
-551.383	32.545	0.194	-0.169
-550.369	-54.271	0.168	0.077
-549.354	-92.786	0.042	0.012
-548.339	452.604	-0.025	0.055
-547.325	-200.000	-0.154	0.000
-546.310	68.588	0.175	0.181
-545.296	-152.723	0.142	-0.010
-544.281	-130.755	-0.159	-0.022
-543.266	-30.265	-0.236	-0.135
-542.252	800.000	0.107	-0.324
-541.237	-162.223	-0.264	-0.013
-540.223	-200.000	0.004	0.090
-539.208	157.341	-0.150	-0.209
-538.193	104.962	0.088	-0.105
-537.179	-120.373	-0.258	0.044
-536.164	36.167	0.222	0.197
-535.150	-200.000	-0.034	0.227
-534.135	48.223	-0.276	-0.260
-533.121	-9.416	-0.244	-0.165
-532.106	69.118	-0.212	0.220
-531.091	800.000	0.061	-0.213
-530.077	800.000	0.112	-0.456
-529.062	362.169	-0.049	0.099
-528.048	-82.684	-0.269	0.088
-527.033	-109.940	0.130	0.027
-526.018	124.743	-0.102	0.129
-525.004	-200.000	-0.061	0.439
-523.989	800.000	-0.034	-0.115
-522.975	21.753	-0.072	0.059
-521.960	135.893	-0.327	0.430
-520.945	800.000	-0.059	0.219
-519.931	-200.000	-0.055	0.366
-518.916	-35.905	-0.114	0.062
-517.902	-200.000	0.069	0.333
-516.887	128.112	0.103	0.132
-515.872	297.113	0.207	0.384
-514.858	800.000	-0.060	-0.231
-513.843	-61.037	0.367	-0.156
-512.829	-56.776	0.286	0.128
-511.814	-135.124	0.129	0.016
-510.799	-187.708	-0.077	-0.001
-509.785	31.134	0.216	-0.187
-508.770	-138.726	-0.278	-0.031
-507.756	-111.900	-0.223	-0.045
-506.741	-81.128	-0.110	-0.037
-505.726	-200.000	-0.069	0.363
-504.712	-35.419	-0.185	-0.101
-503.697	-128.178	0.214	-0.031
-502.683	640.980	-0.035	0.091
-501.668	-70.345	0.318	-0.122
-500.653	-200.000	0.026	-0.348
-499.639	782.715	-0.027	-0.074
-498.624	-28.930	0.292	-0.169
-497.610	-200.000	0.003	0.129
-496.595	30.811	0.279	-0.241
-495.581	-200.000	0.072	-0.431
-494.566	31.172	0.107	0.092
-493.551	-146.669	0.055	0.005
-492.537	97.979	0.262	-0.304
-491.522	267.541	0.211	-0.372
-490.508	-200.000	-0.008	0.145
-489.493	-32.966	-0.203	0.113
-488.478	50.426	-0.171	-0.163
-487.464	-200.000	0.073	-0.349
-486.449	-99.176	0.254	-0.065
-485.435	-200.000	0.042	0.254
-484.420	-200.000	-0.100	0.562
-483.405	-61.022	0.195	-0.083
-482.391	-42.726	-0.062	-0.032
-481.376	-96.164	-0.208	-0.056
-480.362	58.912	0.162	0.160
-479.347	-200.000	0.001	0.224
-478.332	-70.055	-0.149	0.057
-477.318	-55.286	0.231	0.104
-476.303	-11.666	0.241	0.159
-475.289	-16.912	-0.130	0.083
-474.274	15.104	0.156	0.123
-473.259	229.495	0.100	0.164
-472.245	-200.000	-0.011	0.195
-471.230	-6.734	-0.242	0.166
-470.216	57.069	-0.233	-0.229
-469.201	-124.446	0.235	0.037
-468.186	-79.971	0.123	0.042
-467.172	-200.000	0.054	0.248
-466.157	36.004	0.255	-0.226
-465.143	-200.000	0.070	0.312
-464.128	659.163	-0.246	0.636
-463.113	1.363	-0.051	0.037
-462.099	-200.000	0.000	-0.058
-461.084	-135.775	-0.342	-0.041
-460.070	-200.000	0.009	-0.088
-459.055	14.508	0.031	0.024
-458.040	800.000	-0.062	0.230
-457.026	-44.199	0.193	-0.098
-456.011	-200.000	-0.001	-0.179
-454.997	800.000	0.021	-0.075
-453.982	-75.638	-0.268	-0.096
-452.968	0.050	0.292	-0.210
-451.953	-200.000	0.035	-0.232
-450.938	-83.856	0.391	0.125
-449.924	-39.312	0.084	0.044
-448.909	10.599	-0.201	0.154
-447.895	-47.010	0.146	0.072
-446.880	-149.040	-0.226	-0.018
-445.865	-200.000	-0.025	-0.205
-444.851	-17.924	0.191	-0.121
-443.836	0.892	-0.387	0.279
-442.822	800.000	0.070	-0.280
-441.807	-200.000	0.067	-0.359
-440.792	53.707	-0.274	-0.264
-439.778	-52.518	0.095	-0.044
-438.763	-38.367	-0.244	0.130
-437.749	-125.691	-0.271	0.041
-436.734	800.000	-0.069	-0.205
-435.719	511.609	-0.045	0.106
-434.705	-200.000	0.014	0.275
-433.690	-63.303	-0.160	0.066
-432.676	12.734	-0.142	0.110
-431.661	-40.088	0.084	-0.044
-430.646	-200.000	-0.013	-0.084
-429.632	160.284	0.066	-0.092
-428.617	2.727	-0.134	-0.098
-427.603	-141.085	-0.219	0.023
-426.588	-26.291	0.095	0.056
-425.573	604.818	0.052	-0.130
-424.559	-147.845	0.319	0.027
-423.544	-101.340	0.348	0.085
-422.530	129.792	0.245	0.315
-421.515	800.000	-0.076	-0.304
-420.500	-128.919	0.214	-0.030
-419.486	241.864	0.098	0.164
-418.471	-75.018	0.163	0.059
-417.457	-200.000	0.004	-0.251
-416.442	248.327	-0.065	-0.111
-415.428	-8.685	-0.139	0.094
-414.413	-115.971	0.118	0.022
-413.398	-30.591	-0.341	0.194
-412.384	-14.175	0.343	-0.222
-411.369	232.909	-0.092	0.152
-410.355	18.256	0.259	0.207
-409.340	-200.000	-0.010	-0.488
-408.325	-47.274	0.058	-0.028
-407.311	-91.937	-0.158	-0.045
-406.296	-9.601	0.096	-0.064
-405.282	-28.334	0.050	-0.029
-404.267	-129.927	-0.126	-0.017
-403.252	17.101	0.164	-0.130
-402.238	-82.382	-0.076	-0.025
-401.223	154.251	-0.241	0.332
-400.209	-108.232	0.213	-0.046
-399.194	594.961	-0.033	0.082
-398.179	128.304	0.127	0.162
-397.165	505.442	0.090	-0.209
-396.150	82.099	0.088	0.096
-395.136	230.564	-0.115	0.189
-394.121	800.000	0.067	-0.247
-393.106	352.370	0.175	0.347
-392.092	800.000	0.085	-0.315
-391.077	-120.132	-0.435	-0.075
-390.063	-200.000	0.050	0.370
-389.048	-95.563	-0.361	0.097
-388.033	-200.000	0.027	-0.377
-387.019	800.000	0.017	-0.067
-386.004	-71.096	0.222	0.084
-384.990	-16.611	0.090	0.057
-383.975	-127.631	-0.429	0.062
-382.960	-200.000	-0.044	0.305
-381.946	45.177	0.171	0.158
-380.931	-169.061	-0.032	0.001
-379.917	246.477	-0.132	-0.223
-378.902	169.862	0.098	-0.141
-377.888	118.508	-0.161	0.199
-376.873	-35.380	-0.216	-0.118
-375.858	-52.244	-0.120	0.056
-374.844	-47.098	-0.043	0.021
-373.829	-65.890	0.155	-0.062
-372.815	-153.378	-0.113	0.008
-371.800	583.531	-0.173	0.425
-370.785	39.083	0.075	0.068
-369.771	62.552	-0.117	0.117
-368.756	39.441	-0.114	0.103
-367.742	-82.437	-0.134	-0.044
-366.727	36.766	-0.114	-0.101
-365.712	578.838	-0.117	0.286
-364.698	-46.644	0.132	0.065
-363.683	12.939	0.310	-0.241
-362.669	-141.413	-0.379	-0.039
-361.654	157.411	0.078	-0.108
-360.639	-43.539	0.082	0.041
-359.625	-53.626	0.134	-0.061
-358.610	800.000	0.007	0.019
-357.596	-52.689	0.155	0.072
-356.581	-110.802	-0.382	-0.079
-355.566	232.032	-0.109	0.179
-354.552	450.604	0.155	0.344
-353.537	800.000	-0.041	-0.161
-352.523	33.440	-0.126	0.110
-351.508	-98.675	-0.119	-0.030
-350.493	-137.741	0.051	-0.006
-349.479	-129.573	0.140	-0.019
-348.464	34.980	0.134	-0.117
-347.450	0.477	0.162	-0.116
-346.435	4.948	0.280	-0.206
-345.420	311.583	0.078	0.147
-344.406	48.027	-0.169	0.158
-343.391	800.000	0.135	0.387
-342.377	-56.947	0.252	0.112
-341.362	95.980	0.069	0.079
-340.348	-200.000	-0.049	-0.358
-339.333	215.014	0.135	0.214
-338.318	89.361	0.033	-0.037
-337.304	-36.526	-0.222	-0.120
-336.289	348.289	0.085	-0.167
-335.275	-200.000	0.000	0.024
-334.260	800.000	-0.112	-0.401
-333.245	-157.595	-0.385	-0.023
-332.231	-179.892	0.443	0.010
-331.216	-200.000	-0.025	0.205
-330.202	-200.000	-0.024	0.108
-329.187	-200.000	-0.011	-0.292
-328.172	-200.000	0.078	0.380
-327.158	800.000	-0.033	-0.127
-326.143	480.582	-0.095	0.215
-325.129	-75.406	0.046	0.016
-324.114	31.401	0.083	0.071
-323.099	-200.000	-0.022	0.129
-322.085	-62.368	-0.154	-0.064
-321.070	456.593	0.126	0.281
-320.056	116.794	-0.052	0.063
-319.041	37.518	-0.162	0.144
-318.026	-40.303	-0.290	0.151
-317.012	-44.229	0.062	-0.031
-315.997	238.333	0.147	-0.244
-314.983	-83.717	0.247	0.079
-313.968	-200.000	-0.014	0.269
-312.953	-37.098	-0.185	0.099
-311.939	-168.370	0.282	0.011
-310.924	10.159	0.030	0.023
-309.910	27.853	0.252	-0.213
-308.895	74.462	-0.159	-0.167
-307.880	488.255	0.070	0.159
-306.866	63.502	0.082	-0.082
-305.851	-200.000	-0.018	0.146
-304.837	6.172	-0.236	0.175
-303.822	-62.262	0.170	0.071
-302.807	181.045	0.079	-0.116
-301.793	121.636	-0.138	0.172
-300.778	-161.425	-0.105	0.005
-299.764	-161.051	0.167	-0.009
-298.749	-31.557	0.322	0.181
-297.735	135.228	0.119	-0.154
-296.720	34.221	-0.125	-0.109
-295.705	-38.719	-0.271	-0.143
-294.691	229.872	-0.129	0.211
-293.676	-200.000	0.039	-0.273
-292.662	-73.247	-0.200	-0.073
-291.647	800.000	-0.036	-0.108
-290.632	415.518	0.037	-0.079
-289.618	-21.732	-0.192	0.117
-288.603	759.685	0.098	0.266
-287.589	62.857	0.118	-0.118
-286.574	8.272	0.155	-0.117
-285.559	-14.423	0.114	-0.074
-284.545	800.000	0.018	-0.063
-283.530	800.000	0.013	0.055
-282.516	15.801	-0.186	-0.146
-281.501	155.747	0.069	0.095
-280.486	11.104	-0.244	-0.186
-279.472	-156.232	0.154	0.010
-278.457	-144.715	-0.128	0.012
-277.443	161.374	-0.110	0.153
-276.428	561.086	-0.145	-0.351
-275.413	488.835	0.079	0.181
-274.399	-35.020	-0.357	0.195
-273.384	-113.820	-0.461	0.090
-272.370	701.222	0.045	0.119
-271.355	537.246	0.058	0.137
-270.340	233.632	-0.123	0.202
-269.326	-200.000	-0.021	0.372
-268.311	43.473	-0.099	0.091
-267.297	-154.295	-0.117	0.008
-266.282	63.979	0.007	-0.007
-265.267	800.000	-0.033	-0.103
-264.253	800.000	0.046	0.170
-263.238	-111.850	0.171	-0.035
-262.224	-113.573	0.215	0.042
-261.209	-109.064	-0.234	0.050
-260.195	155.048	-0.070	0.096
-259.180	147.192	0.203	-0.273
-258.165	-141.107	0.134	-0.014
-257.151	800.000	-0.018	-0.070
-256.136	-138.849	-0.287	0.031
-255.122	-93.953	0.161	-0.044
-254.107	-147.625	-0.310	-0.026
-253.092	3.594	-0.103	-0.075
-252.078	258.481	0.075	0.128
-251.063	-200.000	0.006	0.167
-250.049	-111.853	0.047	0.009
-249.034	-63.227	0.159	-0.065
-248.019	-133.417	-0.206	-0.026
-247.005	800.000	0.112	-0.328
-245.990	-37.788	-0.145	-0.077
-244.976	-200.000	-0.029	-0.341
-243.961	-193.561	-0.183	0.002
-242.946	-49.235	0.071	0.034
-241.932	-200.000	0.001	0.113
-240.917	-200.000	-0.006	-0.221
-239.903	115.246	-0.171	-0.208
-238.888	-105.871	-0.036	0.008
-237.873	800.000	-0.060	-0.248
-236.859	107.229	0.070	0.083
-235.844	-200.000	0.014	-0.240
-234.830	10.837	0.132	-0.101
-233.815	219.047	0.130	-0.208
-232.800	199.205	-0.074	0.113
-231.786	-165.109	0.259	-0.011
-230.771	-116.582	0.102	0.019
-229.757	13.492	-0.179	0.139
-228.742	800.000	-0.063	0.235
-227.727	263.603	-0.137	0.237
-226.713	-124.310	0.383	-0.060
-225.698	-94.254	-0.196	0.053
-224.684	-43.250	-0.106	0.054
-223.669	-154.222	-0.076	-0.005
-222.655	-2.771	0.298	-0.208
-221.640	42.482	-0.071	-0.064
-220.625	-62.063	0.258	-0.107
-219.611	-200.000	-0.062	-0.284
-218.596	113.154	0.223	0.270
-217.582	-38.645	-0.036	-0.019
-216.567	-120.573	0.229	-0.039
-215.552	74.290	-0.099	-0.104
-214.538	302.573	0.080	0.148
-213.523	-200.000	-0.006	-0.296
-212.509	51.573	-0.058	-0.055
-211.494	216.406	0.124	0.197
-210.479	-92.928	0.219	-0.061
-209.465	489.523	0.092	-0.210
-208.450	788.223	0.042	-0.115
-207.436	5.310	-0.128	0.094
-206.421	-66.482	-0.365	-0.145
-205.406	-200.000	-0.047	-0.260
-204.392	533.644	0.215	0.508
-203.377	-148.945	-0.119	0.010
-202.363	160.010	0.154	0.214
-201.348	-90.617	0.205	-0.059
-200.333	-11.158	0.176	0.115
-199.319	-180.538	0.190	-0.004
-198.304	800.000	-0.014	0.053
-197.290	140.260	0.179	-0.235
-196.275	-15.091	0.060	-0.038
-195.260	6.504	0.031	0.023
-194.246	800.000	-0.096	0.284
-193.231	-200.000	0.018	0.250
-192.217	-18.524	0.389	0.242
-191.202	-99.536	0.301	0.075
-190.187	659.265	0.086	0.221
-189.173	-200.000	-0.016	0.266
-188.158	-102.677	0.226	-0.054
-187.144	436.956	0.158	-0.342
-186.129	-200.000	0.051	0.290
-185.114	-135.132	-0.165	-0.020
-184.100	166.115	-0.155	0.218
-183.085	44.713	-0.082	-0.075
-182.071	136.234	-0.200	0.260
-181.056	26.190	-0.107	0.089
-180.042	-162.751	0.353	-0.017
-179.027	206.208	0.156	0.242
-178.012	89.061	-0.207	-0.230
-176.998	200.898	-0.205	-0.314
-175.983	-117.362	-0.112	0.020
-174.969	180.201	0.128	-0.188
-173.954	-103.440	0.232	-0.054
-172.939	-73.871	0.306	0.111
-171.925	-200.000	-0.031	0.277
-170.910	-77.522	0.296	0.102
-169.896	-200.000	0.052	-0.260
-168.881	50.817	0.317	0.298
-167.866	-73.484	-0.073	-0.027
-166.852	-104.863	0.060	0.014
-165.837	-116.406	0.138	0.025
-164.823	-131.190	0.166	-0.022
-163.808	-3.884	-0.320	-0.221
-162.793	-98.077	0.298	-0.076
-161.779	-60.428	0.085	-0.036
-160.764	-93.564	-0.317	-0.087
-159.750	800.000	-0.080	0.265
-158.735	50.503	0.172	-0.162
-157.720	78.791	-0.114	-0.122
-156.706	-200.000	-0.000	-0.022
-155.691	-8.043	0.223	0.149
-154.677	268.892	-0.103	-0.181
-153.662	-136.371	-0.097	0.011
-152.647	44.167	0.248	0.226
-151.633	-121.229	0.131	-0.022
-150.618	-84.905	-0.215	0.067
-149.604	800.000	-0.068	0.211
-148.589	-70.654	0.276	-0.104
-147.574	-78.634	-0.106	0.036
-146.560	-26.079	-0.366	0.214
-145.545	-2.572	-0.291	0.203
-144.531	71.388	0.109	0.112
-143.516	32.126	0.178	-0.153
-142.502	800.000	0.067	-0.246
-141.487	181.738	-0.211	-0.308
-140.472	800.000	0.071	-0.199
-139.458	279.836	0.122	-0.216
-138.443	-200.000	-0.001	0.244
-137.429	-28.969	0.064	-0.037
-136.414	800.000	0.097	0.353
-135.399	-200.000	0.024	0.408
-134.385	65.173	0.040	-0.040
-133.370	-52.030	-0.166	-0.077
-132.356	-160.118	-0.419	-0.023
-131.341	97.026	-0.042	0.048
-130.326	-200.000	0.027	0.129
-129.312	706.440	-0.038	0.099
-128.297	24.841	-0.036	-0.030
-127.283	-200.000	-0.029	-0.297
-126.268	-118.931	-0.202	0.035
-125.253	55.224	0.080	0.077
-124.239	-52.132	0.322	-0.149
-123.224	-200.000	0.005	-0.327
-122.210	-200.000	0.020	0.389
-121.195	-160.572	0.199	0.011
