DTS Sentinel unit serial number:	SN413079Multiplexer serial number:	ORYXHardware model number:	OX4-SRSoftware version number:	ORYX F/W v4.00 Oryx Data Collector v3.7.2.0data status	okinstallation	princeton_trtdifferential loss correction	single-endedforward channel	channel 2reverse channel	N/Adate	2019/09/16time	18:15:35forward acquisition time	60.00reverse acquisition time	0.00gamma	496.2192k internal	0.2318k external	0.2318temperature offset calibration	0.9950default loss term (dB/km)	0.3790temperature slope calibration	1.0000multiplexer offset coefficient	1.0000multiplexer slope coefficient	1.0000fibre end	0.00T internal ref (°C)	37.12T ext. ref 1 (°C)	15.73T ext. ref 2 (°C)	30.74length (m)	temperature (°C)	Stokes	anti-Stokes-747.200	-25.886	0.250	0.149
-746.185	-12.706	0.069	0.045
-745.171	14.856	0.257	-0.204
-744.156	-20.714	0.347	0.216
-743.142	-200.000	0.001	0.007
-742.127	581.994	-0.115	0.285
-741.112	-94.182	0.199	-0.055
-740.098	531.859	-0.123	0.295
-739.083	-15.871	0.157	-0.101
-738.069	-74.808	-0.228	-0.083
-737.054	9.243	-0.155	0.118
-736.039	-38.727	-0.117	0.062
-735.025	6.947	0.191	0.144
-734.010	118.423	-0.300	0.375
-732.996	-100.137	-0.111	0.028
-731.981	-68.537	-0.422	0.165
-730.966	-103.147	-0.463	0.111
-729.952	-65.956	-0.068	-0.027
-728.937	-104.970	-0.167	0.039
-727.923	56.991	0.043	0.043
-726.908	-113.798	-0.417	0.082
-725.894	787.439	-0.034	0.095
-724.879	518.320	-0.061	-0.145
-723.864	78.000	0.066	0.071
-722.850	-200.000	-0.033	-0.512
-721.835	-37.907	-0.155	0.083
-720.821	800.000	-0.023	-0.099
-719.806	-200.000	-0.005	0.153
-718.791	261.923	-0.040	0.071
-717.777	-49.826	-0.226	-0.108
-716.762	125.885	-0.036	0.045
-715.748	91.169	0.027	-0.031
-714.733	-200.000	-0.006	-0.463
-713.718	800.000	0.095	0.310
-712.704	-179.987	-0.119	0.003
-711.689	327.421	-0.105	0.203
-710.675	-200.000	0.006	-0.242
-709.660	254.407	-0.045	-0.077
-708.645	-200.000	0.012	0.057
-707.631	-200.000	0.002	-0.241
-706.616	252.155	-0.024	-0.042
-705.602	756.872	-0.080	0.218
-704.587	-187.548	-0.085	-0.001
-703.572	41.276	-0.162	0.148
-702.558	24.354	-0.162	-0.135
-701.543	-56.485	0.135	-0.060
-700.529	-163.424	-0.229	0.011
-699.514	611.086	-0.046	0.116
-698.499	-3.746	-0.125	-0.088
-697.485	-92.141	-0.390	-0.111
-696.470	-90.441	0.177	-0.052
-695.456	-200.000	-0.001	-0.010
-694.441	-200.000	-0.035	-0.273
-693.426	601.156	-0.074	0.185
-692.412	377.991	0.025	0.051
-691.397	-64.114	-0.114	0.047
-690.383	203.871	-0.048	0.075
-689.368	114.432	-0.220	0.271
-688.354	67.018	-0.061	-0.063
-687.339	-145.914	0.261	0.023
-686.324	-200.000	0.036	0.246
-685.310	800.000	-0.086	-0.301
-684.295	324.300	-0.011	0.021
-683.281	74.496	-0.037	-0.039
-682.266	222.919	0.061	0.099
-681.251	-160.209	-0.142	-0.008
-680.237	62.439	0.136	-0.137
-679.222	272.768	0.160	-0.284
-678.208	-200.000	0.024	-0.183
-677.193	108.811	-0.187	-0.226
-676.178	607.427	0.097	-0.244
-675.164	-79.978	0.117	-0.040
-674.149	116.144	0.202	-0.250
-673.135	36.328	0.060	-0.053
-672.120	800.000	0.042	0.126
-671.105	60.518	0.035	0.035
-670.091	51.730	-0.133	-0.128
-669.076	69.458	-0.085	-0.088
-668.062	-200.000	-0.030	-0.423
-667.047	-200.000	0.051	-0.451
-666.032	49.857	0.220	-0.210
-665.018	93.023	-0.105	-0.120
-664.003	47.897	0.069	0.065
-662.989	800.000	0.051	-0.188
-661.974	288.753	-0.138	0.252
-660.959	-70.907	-0.392	-0.149
-659.945	-91.009	-0.436	-0.126
-658.930	-10.489	-0.088	-0.058
-657.916	-150.059	0.181	-0.014
-656.901	166.749	0.182	-0.260
-655.886	-7.118	-0.150	-0.103
-654.872	-117.171	0.159	0.029
-653.857	-134.775	-0.418	-0.051
-652.843	-182.058	-0.228	-0.004
-651.828	307.944	0.031	-0.058
-650.814	-200.000	-0.002	0.076
-649.799	-148.242	0.319	-0.027
-648.784	-31.287	0.101	0.057
-647.770	-128.901	0.142	-0.020
-646.755	-117.835	-0.074	0.013
-645.741	-5.413	-0.239	-0.166
-644.726	70.420	-0.078	-0.082
-643.711	109.637	-0.135	-0.163
-642.697	-140.693	-0.341	0.036
-641.682	751.942	-0.048	-0.131
-640.668	-65.151	0.347	0.141
-639.653	-148.064	0.163	-0.014
-638.638	-200.000	0.049	-0.332
-637.624	275.178	-0.132	0.236
-636.609	-200.000	-0.073	-0.395
-635.595	739.975	-0.017	-0.047
-634.580	173.836	0.034	-0.050
-633.565	287.494	-0.064	-0.117
-632.551	165.805	0.145	-0.207
-631.536	-200.000	-0.061	0.297
-630.522	-46.249	-0.242	-0.120
-629.507	800.000	0.000	-0.001
-628.492	204.921	-0.171	-0.268
-627.478	800.000	0.006	0.025
-626.463	-38.071	0.200	0.107
-625.449	-66.343	0.203	-0.082
-624.434	-200.000	0.025	-0.147
-623.419	-113.890	-0.065	0.013
-622.405	545.361	0.058	-0.139
-621.390	-159.727	0.156	0.009
-620.376	-200.000	-0.077	0.343
-619.361	-12.331	-0.246	0.162
-618.346	524.872	-0.136	-0.323
-617.332	-200.000	0.060	-0.295
-616.317	-22.659	-0.257	-0.156
-615.303	-39.069	0.294	0.156
-614.288	-126.714	-0.058	0.009
-613.273	-147.163	0.486	0.042
-612.259	608.048	-0.056	-0.140
-611.244	-200.000	-0.018	0.133
-610.230	-117.047	-0.466	0.086
-609.215	-75.994	0.311	0.111
-608.201	-200.000	-0.002	0.108
-607.186	-75.842	0.172	-0.061
-606.171	800.000	0.098	-0.302
-605.157	-101.104	0.213	0.053
-604.142	195.275	0.103	-0.158
-603.128	-63.216	0.218	0.091
-602.113	-200.000	0.031	-0.212
-601.098	4.981	-0.213	-0.158
-600.084	-154.939	-0.118	0.008
-599.069	68.272	-0.282	0.291
-598.055	-200.000	0.016	0.114
-597.040	157.982	-0.169	-0.236
-596.025	79.936	0.071	0.077
-595.011	-200.000	0.016	0.171
-593.996	570.248	-0.143	-0.350
-592.982	-122.399	-0.137	0.022
-591.967	247.473	-0.159	-0.271
-590.952	-58.956	0.336	-0.146
-589.938	-66.766	-0.260	-0.104
-588.923	281.565	0.033	-0.060
-587.909	163.311	-0.193	-0.272
-586.894	800.000	0.079	-0.251
-585.879	92.455	-0.124	0.141
-584.865	0.693	0.130	-0.094
-583.850	-76.328	0.171	-0.061
-582.836	-42.198	-0.274	-0.141
-581.821	-200.000	0.019	0.165
-580.806	-200.000	-0.031	0.187
-579.792	800.000	-0.069	0.273
-578.777	-6.157	0.142	-0.097
-577.763	245.709	-0.257	0.435
-576.748	94.042	-0.107	-0.122
-575.733	-74.889	0.240	-0.087
-574.719	267.982	0.051	0.091
-573.704	-122.741	0.162	0.026
-572.690	70.745	-0.302	0.315
-571.675	775.026	-0.037	0.103
-570.661	242.675	-0.061	-0.103
-569.646	-200.000	-0.002	0.222
-568.631	-153.215	-0.261	-0.018
-567.617	800.000	-0.041	-0.173
-566.602	151.743	0.132	0.181
-565.588	348.000	0.126	-0.250
-564.573	-37.220	0.161	0.087
-563.558	-110.840	-0.238	0.049
-562.544	800.000	-0.073	0.249
-561.529	-124.961	0.455	0.070
-560.515	-188.385	0.285	0.004
-559.500	-31.027	0.229	0.130
-558.485	171.929	-0.076	0.110
-557.471	334.744	-0.096	-0.186
-556.456	-200.000	-0.018	0.114
-555.442	-71.888	0.268	-0.100
-554.427	465.154	-0.005	-0.012
-553.412	44.479	0.174	-0.160
-552.398	-200.000	-0.045	-0.312
-551.383	107.816	0.109	-0.131
-550.369	-84.507	0.183	0.058
-549.354	-107.346	0.090	0.020
-548.339	800.000	-0.053	-0.168
-547.325	-26.349	-0.409	-0.241
-546.310	-200.000	-0.009	0.171
-545.296	35.253	0.082	0.072
-544.281	-73.323	-0.362	-0.133
-543.266	-80.062	0.132	-0.044
-542.252	-148.835	0.093	-0.008
-541.237	12.003	-0.178	0.137
-540.223	-200.000	-0.036	-0.210
-539.208	-200.000	-0.021	0.275
-538.193	31.312	-0.301	0.260
-537.179	-22.112	-0.186	-0.113
-536.164	-77.855	-0.213	0.074
-535.150	-171.347	-0.279	-0.009
-534.135	-96.211	-0.057	-0.015
-533.121	-73.204	0.176	-0.065
-532.106	-123.284	0.242	0.039
-531.091	-200.000	0.016	-0.195
-530.077	800.000	-0.020	0.075
-529.062	281.813	0.083	0.149
-528.048	800.000	-0.034	-0.151
-527.033	120.356	-0.137	-0.171
-526.018	-56.067	0.466	0.208
-525.004	-86.405	0.348	0.107
-523.989	-200.000	0.015	0.328
-522.975	-200.000	-0.005	-0.060
-521.960	730.473	0.042	0.114
-520.945	-102.598	0.294	-0.070
-519.931	800.000	0.164	-0.590
-518.916	-42.012	-0.177	-0.091
-517.902	-200.000	0.016	0.085
-516.887	-100.609	-0.337	-0.084
-515.872	-134.490	0.095	0.012
-514.858	-175.793	0.355	-0.010
-513.843	151.913	0.115	-0.158
-512.829	800.000	-0.068	0.197
-511.814	-200.000	0.030	-0.362
-510.799	24.779	-0.066	-0.055
-509.785	576.884	-0.052	-0.127
-508.770	-18.069	0.188	-0.118
-507.756	268.923	-0.043	-0.076
-506.741	83.664	0.075	-0.082
-505.726	-200.000	0.053	0.352
-504.712	-12.570	-0.354	-0.232
-503.697	800.000	-0.095	-0.310
-502.683	446.427	-0.112	-0.247
-501.668	-200.000	0.022	-0.189
-500.653	800.000	0.023	-0.075
-499.639	121.160	-0.083	-0.103
-498.624	12.001	0.321	0.248
-497.610	-200.000	0.032	0.170
-496.595	96.563	-0.251	-0.288
-495.581	-200.000	0.006	-0.056
-494.566	-159.234	0.165	0.009
-493.551	294.214	0.151	-0.276
-492.537	-147.256	0.022	0.002
-491.522	-33.284	-0.206	-0.114
-490.508	60.069	0.115	-0.114
-489.493	-155.050	0.093	0.006
-488.478	-145.390	0.093	0.008
-487.464	-88.352	0.162	-0.048
-486.449	223.213	-0.115	0.186
-485.435	-17.608	-0.529	-0.333
-484.420	-69.015	0.363	-0.140
-483.405	-116.577	0.296	0.055
-482.391	-83.494	0.230	-0.074
-481.376	-117.261	-0.151	-0.028
-480.362	800.000	-0.037	0.130
-479.347	-127.793	-0.136	0.020
-478.332	-200.000	0.043	0.291
-477.318	607.869	0.024	-0.061
-476.303	800.000	0.078	-0.299
-475.289	71.093	-0.181	0.188
-474.274	273.905	0.070	-0.124
-473.259	-192.560	0.299	-0.003
-472.245	43.656	0.036	-0.033
-471.230	-200.000	0.003	-0.149
-470.216	800.000	0.106	0.426
-469.201	-176.026	0.211	-0.006
-468.186	1.313	-0.137	-0.098
-467.172	-63.630	-0.069	-0.028
-466.157	265.853	-0.079	-0.138
-465.143	-200.000	-0.011	-0.257
-464.128	-35.144	0.032	0.017
-463.113	-16.044	0.192	-0.122
-462.099	221.808	-0.079	-0.127
-461.084	-200.000	0.007	0.140
-460.070	40.332	-0.180	-0.162
-459.055	73.598	-0.158	0.166
-458.040	339.884	0.081	-0.158
-457.026	16.006	0.505	0.398
-456.011	-1.466	0.210	-0.148
-454.997	800.000	0.061	-0.233
-453.982	-148.199	0.108	-0.009
-452.968	-83.201	-0.319	-0.102
-451.953	800.000	-0.053	0.168
-450.938	-200.000	-0.010	-0.064
-449.924	80.516	0.070	-0.075
-448.909	-129.840	0.269	0.037
-447.895	-148.860	-0.144	-0.012
-446.880	-32.147	-0.280	0.157
-445.865	-37.693	0.083	0.044
-444.851	-20.533	0.227	0.139
-443.836	-113.313	0.234	0.046
-442.822	660.410	-0.160	0.412
-441.807	800.000	-0.047	0.181
-440.792	223.902	-0.186	0.301
-439.778	548.890	-0.052	0.125
-438.763	-165.107	-0.246	-0.011
-437.749	-21.823	0.361	-0.219
-436.734	110.848	0.049	-0.059
-435.719	800.000	0.043	-0.124
-434.705	-167.333	-0.179	-0.007
-433.690	-123.810	0.272	-0.043
-432.676	1.997	0.193	-0.139
-431.661	-127.244	-0.193	-0.028
-430.646	-188.098	-0.274	-0.004
-429.632	-103.587	-0.318	0.075
-428.617	169.287	-0.175	0.250
-427.603	800.000	0.034	-0.097
-426.588	-200.000	0.032	-0.355
-425.573	135.778	-0.037	-0.048
-424.559	-200.000	-0.001	0.008
-423.544	-39.424	-0.174	0.091
-422.530	-5.768	-0.190	-0.130
-421.515	-81.219	-0.119	0.039
-420.500	235.863	-0.260	-0.429
-419.486	-14.030	0.260	0.168
-418.471	454.224	0.117	0.259
-417.457	596.576	-0.065	0.160
-416.442	24.059	0.157	-0.129
-415.428	-64.115	-0.122	-0.050
-414.413	-200.000	-0.062	0.305
-413.398	-200.000	-0.065	0.332
-412.384	-85.518	0.089	0.028
-411.369	296.507	-0.025	-0.045
-410.355	10.111	-0.319	0.242
-409.340	-17.461	0.055	0.035
-408.325	71.063	0.199	0.206
-407.311	-50.437	-0.173	-0.081
-406.296	137.432	0.081	-0.106
-405.282	-8.941	-0.127	0.085
-404.267	127.179	0.090	-0.114
-403.252	-67.047	-0.072	-0.028
-402.238	92.164	0.041	0.046
-401.223	22.160	0.106	-0.087
-400.209	180.925	0.074	-0.108
-399.194	264.233	-0.188	-0.327
-398.179	-14.934	0.187	-0.120
-397.165	-200.000	0.097	0.430
-396.150	102.167	-0.104	0.121
-395.136	-59.319	-0.143	-0.061
-394.121	163.842	0.030	0.042
-393.106	67.092	0.201	-0.205
-392.092	101.075	-0.222	-0.258
-391.077	-200.000	-0.075	0.550
-390.063	230.062	-0.130	0.212
-389.048	42.080	-0.069	0.062
-388.033	-200.000	-0.022	0.166
-387.019	-131.913	-0.233	0.030
-386.004	-69.059	-0.227	0.087
-384.990	-200.000	-0.026	-0.137
-383.975	-13.020	-0.128	0.083
-382.960	76.026	-0.107	-0.113
-381.946	569.636	0.094	-0.228
-380.931	-8.202	0.147	-0.099
-379.917	-125.790	-0.257	-0.039
-378.902	-200.000	0.011	0.074
-377.888	-31.714	0.077	0.043
-376.873	-200.000	-0.001	0.199
-375.858	-33.868	0.036	-0.020
-374.844	313.374	0.125	0.234
-373.829	-200.000	0.001	-0.084
-372.815	-43.183	0.226	0.114
-371.800	-75.683	0.174	-0.062
-370.785	-200.000	-0.039	0.192
-369.771	9.082	0.304	0.229
-368.756	263.175	0.093	-0.162
-367.742	-17.782	0.235	0.147
-366.727	526.080	-0.067	0.156
-365.712	369.783	-0.016	-0.033
-364.698	-200.000	0.024	0.326
-363.683	-32.721	-0.184	0.102
-362.669	186.124	0.251	0.372
-361.654	-31.621	0.211	0.118
-360.639	-167.691	-0.226	-0.009
-359.625	-200.000	-0.009	-0.180
-358.610	349.916	0.088	0.173
-357.596	5.002	-0.093	0.068
-356.581	497.580	0.019	-0.043
-355.566	216.697	-0.086	0.136
-354.552	-78.821	0.483	-0.164
-353.537	-55.653	0.082	-0.037
-352.523	-200.000	0.016	0.117
-351.508	-107.698	0.021	0.004
-350.493	800.000	0.086	0.274
-349.479	676.458	-0.079	-0.203
-348.464	-200.000	-0.035	-0.361
-347.450	9.038	-0.156	-0.117
-346.435	-30.033	0.230	0.130
-345.420	800.000	-0.088	0.243
-344.406	-200.000	0.014	0.157
-343.391	19.895	-0.367	0.295
-342.377	-1.210	-0.095	0.067
-341.362	99.596	-0.058	-0.067
-340.348	-166.435	0.051	-0.002
-339.333	-200.000	0.001	-0.142
-338.318	-89.216	-0.409	-0.120
-337.304	800.000	0.019	-0.064
-336.289	-101.764	-0.384	-0.093
-335.275	-200.000	0.025	0.141
-334.260	800.000	0.030	0.122
-333.245	-163.697	-0.205	-0.010
-332.231	-41.005	0.130	0.067
-331.216	-19.558	0.194	-0.119
-330.202	-200.000	-0.038	0.208
-329.187	213.082	0.146	0.229
-328.172	-86.699	-0.240	0.073
-327.158	126.236	-0.160	0.202
-326.143	-200.000	-0.001	0.198
-325.129	-45.970	0.087	0.043
-324.114	176.030	-0.079	-0.115
-323.099	800.000	-0.051	-0.162
-322.085	195.616	-0.168	0.255
-321.070	-36.520	-0.174	0.093
-320.056	-112.856	-0.194	-0.038
-319.041	46.902	-0.058	-0.053
-318.026	1.411	-0.135	0.097
-317.012	140.110	-0.116	-0.152
-315.997	146.037	-0.281	-0.375
-314.983	-48.516	-0.193	0.092
-313.968	-200.000	0.016	-0.162
-312.953	-200.000	0.039	-0.348
-311.939	800.000	0.118	0.411
-310.924	-50.289	0.309	0.146
-309.910	-16.580	0.040	0.025
-308.895	800.000	-0.033	0.129
-307.880	150.757	0.107	-0.144
-306.866	-200.000	0.089	0.439
-305.851	48.450	0.068	0.063
-304.837	-49.573	0.294	0.139
-303.822	-134.785	0.210	0.025
-302.807	-110.970	-0.066	-0.013
-301.793	95.823	-0.137	0.156
-300.778	-164.927	0.094	0.004
-299.764	138.600	0.149	0.195
-298.749	122.435	-0.179	-0.223
-297.735	800.000	0.028	0.101
-296.720	-200.000	-0.014	-0.183
-295.705	165.160	-0.211	-0.296
-294.691	-5.531	-0.160	0.109
-293.676	605.358	-0.080	0.198
-292.662	99.634	0.070	0.080
-291.647	-131.030	0.328	0.044
-290.632	-53.430	-0.108	-0.049
-289.618	-124.429	0.113	0.017
-288.603	-88.749	0.172	0.051
-287.589	-200.000	0.028	-0.247
-286.574	800.000	0.090	0.329
-285.559	100.485	0.064	0.074
-284.545	-200.000	0.021	0.115
-283.530	250.338	0.086	0.146
-282.516	-95.059	0.219	0.059
-281.501	-136.720	-0.194	-0.022
-280.486	-59.734	-0.271	0.115
-279.472	-70.472	0.216	-0.081
-278.457	-11.101	-0.155	-0.102
-277.443	7.732	-0.170	-0.127
-276.428	-163.203	0.051	0.002
-275.413	120.440	-0.111	0.137
-274.399	63.607	0.223	0.222
-273.384	800.000	0.107	0.329
-272.370	-200.000	0.006	0.219
-271.355	-64.818	-0.202	-0.081
-270.340	-115.723	-0.095	-0.018
-269.326	-54.931	0.157	0.070
-268.311	-200.000	0.006	0.070
-267.297	-200.000	0.021	-0.497
-266.282	264.708	-0.082	-0.142
-265.267	-153.223	0.223	-0.015
-264.253	-116.845	0.347	0.063
-263.238	21.579	0.085	0.069
-262.224	33.872	0.029	-0.025
-261.209	113.226	0.230	0.277
-260.195	-6.824	-0.207	-0.140
-259.180	-200.000	0.008	0.095
-258.165	302.204	0.137	-0.251
-257.151	800.000	-0.090	0.332
-256.136	218.705	0.060	-0.095
-255.122	-6.057	0.295	0.200
-254.107	-178.688	-0.083	-0.002
-253.092	-16.657	0.142	-0.089
-252.078	395.241	0.040	0.083
-251.063	800.000	0.054	0.186
-250.049	-66.811	0.184	-0.072
-249.034	-94.531	0.173	0.047
-248.019	-152.186	-0.158	-0.011
-247.005	402.119	0.120	0.250
-245.990	800.000	-0.065	-0.253
-244.976	-200.000	-0.024	0.189
-243.961	164.381	-0.102	0.142
-242.946	-115.064	0.139	-0.026
-241.932	48.774	0.134	-0.125
-240.917	52.706	0.062	-0.058
-239.903	-200.000	-0.009	-0.106
-238.888	-200.000	-0.007	0.118
-237.873	-200.000	-0.010	0.056
-236.859	-72.867	-0.214	0.078
-235.844	202.488	0.123	-0.188
-234.830	-200.000	-0.031	-0.275
-233.815	-66.877	0.082	0.032
-232.800	353.867	-0.132	-0.260
-231.786	65.672	0.142	-0.143
-230.771	-200.000	-0.014	0.259
-229.757	138.448	0.078	0.101
-228.742	800.000	0.056	0.198
-227.727	192.396	0.351	0.526
-226.713	182.863	-0.069	-0.101
-225.698	-1.732	-0.062	-0.043
-224.684	-99.428	-0.181	0.045
-223.669	85.706	-0.011	-0.012
-222.655	387.978	0.078	0.161
-221.640	-35.688	-0.154	0.083
-220.625	-200.000	-0.004	-0.159
-219.611	-200.000	-0.001	-0.085
-218.596	-146.711	-0.466	-0.040
-217.582	105.942	-0.101	-0.118
-216.567	236.997	-0.116	0.190
-215.552	-19.450	-0.326	0.200
-214.538	-95.456	-0.071	0.019
-213.523	-200.000	0.031	0.154
-212.509	482.836	0.112	0.253
-211.494	655.015	-0.108	-0.275
-210.479	-112.547	0.256	0.051
-209.465	-78.267	0.198	-0.067
-208.450	-117.393	0.141	0.025
-207.436	800.000	-0.037	0.113
-206.421	318.435	0.135	0.253
-205.406	-31.043	0.182	0.102
-204.392	797.430	-0.044	-0.119
-203.377	-18.032	-0.238	-0.148
-202.363	-101.280	-0.027	-0.007
-201.348	-154.028	-0.161	0.011
-200.333	-200.000	0.008	0.158
-199.319	-38.687	0.241	-0.126
-198.304	-98.625	-0.223	0.056
-197.290	-200.000	-0.023	0.263
-196.275	800.000	-0.088	-0.319
-195.260	-137.012	-0.130	0.015
-194.246	-5.197	0.121	0.083
-193.231	800.000	0.075	-0.217
-192.217	-200.000	-0.005	0.030
-191.202	-200.000	0.015	-0.320
-190.187	800.000	0.083	-0.302
-189.173	-200.000	-0.019	-0.127
-188.158	-200.000	0.028	-0.360
-187.144	-69.096	0.368	-0.140
-186.129	454.932	-0.037	-0.082
-185.114	-15.860	-0.096	-0.061
-184.100	-200.000	-0.025	0.112
-183.085	-53.503	-0.291	0.132
-182.071	800.000	-0.059	-0.211
-181.056	800.000	0.063	-0.259
-180.042	-44.648	0.229	-0.113
-179.027	-175.585	-0.325	-0.009
-178.012	142.599	-0.251	-0.330
-176.998	-0.350	0.039	-0.027
-175.983	-200.000	-0.001	-0.029
-174.969	-152.298	-0.428	0.031
-173.954	49.511	0.058	-0.054
-172.939	223.839	-0.232	-0.371
-171.925	-15.827	0.115	0.073
-170.910	178.132	-0.236	0.341
-169.896	-125.046	0.111	-0.017
-168.881	-55.109	0.206	-0.092
-167.866	800.000	0.122	0.426
-166.852	-105.121	-0.112	-0.025
-165.837	169.151	-0.144	0.203
-164.823	478.039	0.212	0.475
-163.808	800.000	-0.059	0.180
-162.793	-35.291	0.144	-0.078
-161.779	-31.846	-0.190	0.105
-160.764	800.000	0.023	-0.068
-159.750	-91.692	-0.238	-0.067
-158.735	52.342	0.092	0.086
-157.720	15.385	-0.312	-0.242
-156.706	-114.427	-0.152	0.029
-155.691	-154.172	0.305	0.020
-154.677	109.395	0.215	-0.255
-153.662	-200.000	-0.065	-0.322
-152.647	605.195	0.045	-0.110
-151.633	-200.000	-0.061	-0.280
-150.618	9.009	0.258	0.192
-149.604	69.286	-0.074	0.075
-148.589	-58.896	0.173	0.074
-147.574	-200.000	-0.075	0.516
-146.560	18.230	-0.179	-0.141
-145.545	193.002	0.075	0.112
-144.531	52.578	0.258	-0.244
-143.516	-200.000	-0.011	0.124
-142.502	-163.772	0.194	-0.009
-141.487	-147.509	0.113	-0.009
-140.472	-118.223	-0.173	-0.031
-139.458	-93.736	0.343	0.093
-138.443	-193.715	0.376	0.003
-137.429	84.432	0.093	0.101
-136.414	170.838	0.117	-0.165
-135.399	-200.000	-0.015	-0.218
-134.385	-127.755	-0.077	-0.011
-133.370	-85.158	-0.070	-0.022
-132.356	-200.000	0.037	-0.185
-131.341	210.663	-0.038	0.059
-130.326	-200.000	-0.043	-0.374
-129.312	116.466	-0.099	0.120
-128.297	-127.696	-0.295	0.042
-127.283	-69.651	-0.215	-0.081
-126.268	-123.359	0.143	0.023
-125.253	153.627	0.074	0.100
-124.239	-45.130	-0.177	-0.087
-123.224	-85.622	-0.115	-0.035
