DTS Sentinel unit serial number:	SN413079Multiplexer serial number:	ORYXHardware model number:	OX4-SRSoftware version number:	ORYX F/W v4.00 Oryx Data Collector v3.7.2.0data status	okinstallation	princeton_trtdifferential loss correction	single-endedforward channel	channel 2reverse channel	N/Adate	2019/09/17time	15:27:34forward acquisition time	60.00reverse acquisition time	0.00gamma	496.2192k internal	0.2305k external	0.2305temperature offset calibration	0.9988default loss term (dB/km)	0.3790temperature slope calibration	1.0000multiplexer offset coefficient	1.0000multiplexer slope coefficient	1.0000fibre end	0.00T internal ref (°C)	38.19T ext. ref 1 (°C)	0.38T ext. ref 2 (°C)	35.49length (m)	temperature (°C)	Stokes	anti-Stokes-747.200	31.997	-0.216	-0.190
-746.185	800.000	-0.055	0.233
-745.171	60.306	0.123	-0.124
-744.156	-41.778	-0.345	0.180
-743.142	-143.611	0.126	0.012
-742.127	181.850	0.126	0.190
-741.112	800.000	0.059	-0.188
-740.098	-0.096	0.147	0.106
-739.083	-98.021	-0.259	0.068
-738.069	-200.000	-0.051	0.477
-737.054	-4.083	0.102	0.072
-736.039	-200.000	-0.004	0.024
-735.025	47.814	0.188	0.179
-734.010	-18.039	0.161	-0.103
-732.996	-200.000	0.026	-0.158
-731.981	-36.242	-0.360	-0.197
-730.966	-14.665	0.129	0.084
-729.952	102.718	0.117	-0.140
-728.937	107.647	0.264	-0.319
-727.923	-200.000	-0.065	-0.416
-726.908	59.371	-0.212	-0.212
-725.894	188.419	-0.138	-0.210
-724.879	270.727	0.054	-0.097
-723.864	35.862	0.133	-0.119
-722.850	800.000	0.023	0.072
-721.835	40.913	-0.239	-0.219
-720.821	-110.370	-0.171	-0.036
-719.806	-200.000	-0.026	-0.181
-718.791	800.000	-0.122	-0.409
-717.777	-18.808	-0.297	-0.188
-716.762	48.686	-0.200	-0.191
-715.748	-147.686	0.232	0.020
-714.733	-200.000	-0.015	0.266
-713.718	235.890	-0.101	-0.169
-712.704	-118.184	-0.201	0.036
-711.689	-124.694	0.183	0.029
-710.675	374.935	-0.071	0.147
-709.660	43.845	-0.101	-0.094
-708.645	19.080	-0.075	0.062
-707.631	249.374	-0.205	0.353
-706.616	42.151	-0.052	0.048
-705.602	96.346	-0.034	-0.039
-704.587	800.000	0.020	-0.058
-703.572	800.000	-0.016	-0.064
-702.558	242.905	0.185	0.315
-701.543	25.287	0.152	-0.128
-700.529	-200.000	-0.020	0.155
-699.514	280.177	-0.104	0.189
-698.499	-200.000	-0.011	0.135
-697.485	282.488	-0.216	-0.393
-696.470	226.481	-0.125	0.207
-695.456	-200.000	0.058	0.335
-694.441	164.067	0.030	-0.043
-693.426	76.803	-0.112	-0.120
-692.412	-200.000	-0.014	-0.179
-691.397	800.000	0.094	-0.264
-690.383	-187.297	-0.128	0.002
-689.368	34.240	0.071	0.063
-688.354	-161.838	-0.107	-0.006
-687.339	-163.833	0.051	-0.002
-686.324	223.784	0.038	0.063
-685.310	-109.763	-0.341	-0.073
-684.295	-200.000	-0.009	-0.138
-683.281	800.000	0.121	-0.348
-682.266	43.759	0.070	-0.065
-681.251	-200.000	-0.006	-0.107
-680.237	-159.556	-0.153	-0.009
-679.222	800.000	0.062	-0.248
-678.208	277.135	0.096	-0.174
-677.193	-200.000	-0.028	0.142
-676.178	-100.623	-0.146	0.036
-675.164	222.298	-0.232	-0.379
-674.149	-0.252	-0.038	0.028
-673.135	259.483	0.120	0.210
-672.120	132.631	0.122	0.159
-671.105	-142.501	-0.264	-0.026
-670.091	-136.863	0.229	0.027
-669.076	-175.570	0.163	-0.004
-668.062	53.083	-0.396	-0.385
-667.047	89.551	0.094	-0.106
-666.032	69.747	0.054	0.056
-665.018	254.195	0.020	0.035
-664.003	-200.000	-0.033	-0.248
-662.989	-29.478	0.161	-0.093
-661.974	167.473	0.139	-0.200
-660.959	-200.000	0.073	-0.398
-659.945	362.740	-0.081	-0.166
-658.930	19.670	-0.138	0.113
-657.916	-163.027	-0.157	0.008
-656.901	362.492	-0.120	-0.244
-655.886	-200.000	0.022	-0.102
-654.872	234.750	-0.096	-0.160
-653.857	43.086	-0.086	0.079
-652.843	-9.536	-0.359	-0.243
-651.828	800.000	-0.083	0.256
-650.814	-39.256	-0.148	0.079
-649.799	-114.635	-0.140	0.027
-648.784	109.525	-0.116	0.141
-647.770	6.407	-0.261	-0.197
-646.755	-41.153	-0.270	-0.141
-645.741	-3.273	-0.338	-0.239
-644.726	-200.000	-0.015	0.098
-643.711	53.731	0.288	0.281
-642.697	800.000	-0.203	0.622
-641.682	-200.000	-0.025	-0.146
-640.668	571.022	0.065	-0.161
-639.653	63.238	0.312	-0.317
-638.638	-138.177	0.074	-0.008
-637.624	-150.044	-0.185	-0.015
-636.609	104.204	-0.123	-0.147
-635.595	-200.000	0.018	-0.155
-634.580	-121.127	0.258	0.044
-633.565	800.000	-0.019	-0.070
-632.551	-18.678	0.167	-0.105
-631.536	648.885	0.149	-0.387
-630.522	800.000	-0.038	0.120
-629.507	-200.000	-0.021	0.119
-628.492	363.214	0.096	-0.195
-627.478	16.711	0.332	-0.266
-626.463	-200.000	0.037	-0.257
-625.449	36.339	0.305	-0.272
-624.434	800.000	-0.087	-0.336
-623.419	105.373	0.167	0.200
-622.405	-71.381	0.076	-0.029
-621.390	-200.000	0.028	-0.276
-620.376	-30.258	0.229	-0.132
-619.361	-125.727	-0.202	0.031
-618.346	382.797	0.110	0.229
-617.332	-200.000	-0.015	-0.180
-616.317	-40.966	-0.122	0.064
-615.303	212.464	0.210	-0.336
-614.288	-200.000	-0.021	0.158
-613.273	-193.723	-0.274	0.002
-612.259	104.543	-0.075	-0.089
-611.244	-200.000	0.018	0.132
-610.230	-24.680	0.183	0.110
-609.215	82.017	-0.045	-0.049
-608.201	167.815	0.055	-0.079
-607.186	73.760	-0.143	0.152
-606.171	371.372	0.039	-0.079
-605.157	-119.143	-0.323	0.057
-604.142	800.000	0.075	-0.249
-603.128	-4.795	0.359	-0.250
-602.113	-131.222	-0.243	-0.033
-601.098	-200.000	0.028	0.285
-600.084	-88.474	0.001	-0.000
-599.069	92.178	0.060	-0.069
-598.055	-6.336	-0.151	-0.104
-597.040	-61.587	-0.249	-0.106
-596.025	-38.841	-0.162	0.086
-595.011	-2.982	0.076	0.054
-593.996	-63.043	-0.080	0.034
-592.982	145.186	-0.150	-0.203
-591.967	-159.140	-0.235	-0.013
-590.952	800.000	-0.031	-0.088
-589.938	-200.000	0.074	0.435
-588.923	-111.321	-0.057	0.012
-587.909	166.073	0.161	-0.231
-586.894	-58.933	0.191	0.083
-585.879	274.083	-0.118	-0.212
-584.865	138.973	-0.015	-0.019
-583.850	-76.736	-0.081	-0.029
-582.836	443.759	-0.060	-0.133
-581.821	-109.736	-0.228	-0.049
-580.806	667.476	0.064	0.167
-579.792	-200.000	-0.074	-0.476
-578.777	800.000	-0.078	0.276
-577.763	-200.000	0.017	-0.255
-576.748	800.000	-0.051	-0.156
-575.733	99.331	0.132	0.154
-574.719	-92.029	-0.240	0.069
-573.704	-200.000	-0.083	0.437
-572.690	-22.820	0.106	0.065
-571.675	-135.066	-0.057	0.007
-570.661	-73.255	0.146	0.054
-569.646	-73.963	-0.236	0.086
-568.631	-151.327	0.087	-0.007
-567.617	-146.368	0.209	-0.018
-566.602	54.035	-0.064	0.062
-565.588	800.000	-0.111	-0.337
-564.573	800.000	-0.063	0.274
-563.558	540.005	0.054	0.130
-562.544	-39.317	0.087	0.046
-561.529	-47.342	0.165	-0.081
-560.515	-38.959	-0.347	-0.185
-559.500	800.000	0.050	-0.147
-558.485	-20.001	-0.152	0.095
-557.471	71.890	-0.095	-0.100
-556.456	317.669	0.027	-0.052
-555.442	-23.834	-0.225	0.136
-554.427	-200.000	0.002	-0.116
-553.412	48.286	-0.334	0.316
-552.398	800.000	0.037	-0.130
-551.383	-59.701	0.179	0.078
-550.369	-54.663	0.298	0.136
-549.354	155.444	-0.143	-0.199
-548.339	-150.634	0.146	0.011
-547.325	31.890	0.249	0.216
-546.310	-200.000	-0.047	0.418
-545.296	464.213	0.114	0.258
-544.281	800.000	-0.055	0.235
-543.266	-200.000	-0.024	-0.307
-542.252	-163.711	0.109	0.005
-541.237	-181.324	-0.136	-0.003
-540.223	-200.000	0.015	-0.125
-539.208	-200.000	-0.004	-0.241
-538.193	-1.178	-0.289	-0.206
-537.179	367.309	0.092	-0.188
-536.164	556.948	-0.024	0.058
-535.150	-63.809	-0.112	0.046
-534.135	-19.507	-0.212	0.133
-533.121	249.754	0.137	-0.234
-532.106	86.991	-0.421	0.469
-531.091	-22.767	0.292	-0.178
-530.077	800.000	-0.024	-0.103
-529.062	-18.173	-0.119	-0.075
-528.048	-200.000	-0.029	-0.482
-527.033	-70.556	-0.478	-0.183
-526.018	-157.621	-0.155	-0.009
-525.004	27.795	-0.162	0.138
-523.989	-90.750	0.159	0.046
-522.975	-29.828	-0.131	0.075
-521.960	29.474	-0.169	-0.145
-520.945	-200.000	-0.074	0.000
-519.931	442.787	-0.033	-0.074
-518.916	36.168	0.080	0.071
-517.902	-59.181	0.190	-0.083
-516.887	-79.015	0.517	-0.177
-515.872	-200.000	-0.007	0.100
-514.858	-110.444	-0.265	-0.056
-513.843	-31.993	0.208	-0.117
-512.829	22.738	0.068	0.056
-511.814	-200.000	0.000	0.143
-510.799	-6.057	-0.149	-0.103
-509.785	134.684	-0.230	0.302
-508.770	119.203	0.108	-0.135
-507.756	-200.000	0.083	0.540
-506.741	-153.398	-0.148	0.010
-505.726	-106.866	0.186	0.042
-504.712	90.220	-0.247	-0.279
-503.697	800.000	0.044	-0.146
-502.683	-64.018	-0.194	0.080
-501.668	-146.365	-0.101	0.009
-500.653	75.011	0.222	0.236
-499.639	640.689	-0.038	0.098
-498.624	-200.000	0.016	0.216
-497.610	18.953	-0.182	-0.147
-496.595	-200.000	0.005	-0.215
-495.581	800.000	-0.137	-0.391
-494.566	-26.030	-0.229	-0.136
-493.551	800.000	0.047	-0.163
-492.537	800.000	-0.063	-0.248
-491.522	-200.000	-0.010	0.138
-490.508	452.640	0.072	0.160
-489.493	800.000	0.100	0.350
-488.478	-74.503	0.013	0.005
-487.464	800.000	-0.038	0.111
-486.449	-115.611	0.343	-0.065
-485.435	-193.096	0.366	-0.003
-484.420	800.000	-0.107	0.402
-483.405	16.813	0.026	0.021
-482.391	-175.256	0.119	-0.003
-481.376	-200.000	0.010	0.102
-480.362	-97.404	0.245	-0.064
-479.347	-93.333	-0.173	0.048
-478.332	-7.824	-0.267	-0.181
-477.318	-200.000	0.036	-0.428
-476.303	800.000	-0.057	0.208
-475.289	800.000	-0.079	-0.265
-474.274	564.248	0.098	-0.240
-473.259	265.030	-0.123	-0.217
-472.245	-94.781	0.141	-0.039
-471.230	143.609	0.060	0.080
-470.216	74.301	0.215	0.228
-469.201	45.781	-0.204	-0.190
-468.186	512.831	-0.043	-0.101
-467.172	-38.620	0.235	-0.125
-466.157	-38.668	0.207	-0.110
-465.143	-149.044	0.257	-0.021
-464.128	-200.000	0.034	-0.292
-463.113	566.334	-0.048	-0.117
-462.099	154.654	-0.241	-0.333
-461.084	800.000	0.105	-0.300
-460.070	-108.977	-0.284	0.061
-459.055	49.329	0.012	0.011
-458.040	-76.065	-0.145	0.052
-457.026	777.187	0.036	-0.098
-456.011	-123.584	0.171	0.027
-454.997	199.123	-0.289	-0.446
-453.982	-30.577	-0.134	0.077
-452.968	-200.000	0.011	-0.140
-451.953	684.378	0.111	0.291
-450.938	84.720	-0.099	-0.109
-449.924	-90.902	0.074	-0.022
-448.909	-75.117	0.340	-0.122
-447.895	-19.875	-0.214	-0.133
-446.880	-23.762	0.094	0.057
-445.865	-114.370	0.033	0.006
-444.851	-79.583	-0.338	0.115
-443.836	-200.000	-0.047	0.345
-442.822	124.758	-0.172	0.218
-441.807	136.524	-0.165	0.217
-440.792	65.593	-0.121	-0.124
-439.778	47.432	0.264	-0.248
-438.763	125.531	0.087	-0.110
-437.749	151.225	0.149	0.204
-436.734	-200.000	-0.073	-0.394
-435.719	14.153	-0.099	-0.078
-434.705	325.769	0.146	0.281
-433.690	-178.449	0.106	0.002
-432.676	-109.912	-0.079	-0.017
-431.661	8.674	0.239	-0.181
-430.646	800.000	0.107	0.397
-429.632	65.465	-0.116	-0.118
-428.617	-47.450	-0.264	-0.129
-427.603	24.856	-0.346	-0.289
-426.588	-158.344	-0.211	-0.012
-425.573	-47.133	0.138	-0.068
-424.559	-97.633	-0.151	-0.039
-423.544	-72.139	-0.054	0.020
-422.530	113.968	-0.123	0.151
-421.515	88.768	0.086	0.096
-420.500	44.933	-0.220	-0.204
-419.486	-100.880	0.137	0.034
-418.471	-174.164	0.142	-0.004
-417.457	70.073	0.040	0.042
-416.442	-82.834	0.043	0.014
-415.428	457.655	0.178	0.397
-414.413	251.046	-0.110	0.188
-413.398	280.887	-0.051	-0.092
-412.384	-152.429	0.111	0.008
-411.369	94.047	-0.038	-0.043
-410.355	800.000	-0.099	-0.350
-409.340	-98.753	-0.055	-0.014
-408.325	-200.000	0.003	0.139
-407.311	511.426	0.177	0.413
-406.296	74.499	0.071	-0.075
-405.282	-200.000	-0.016	-0.088
-404.267	-200.000	-0.032	0.325
-403.252	353.154	-0.066	0.132
-402.238	-200.000	0.029	-0.295
-401.223	223.798	-0.121	-0.195
-400.209	-29.791	-0.227	-0.130
-399.194	-22.991	-0.165	-0.100
-398.179	-111.474	-0.124	0.025
-397.165	162.972	0.278	-0.392
-396.150	136.902	-0.127	0.166
-395.136	403.094	-0.016	0.033
-394.121	-4.914	0.291	-0.201
-393.106	-97.462	0.280	-0.073
-392.092	-1.055	-0.225	-0.160
-391.077	-8.470	0.116	0.078
-390.063	-200.000	-0.056	-0.308
-389.048	-200.000	0.005	-0.107
-388.033	-50.696	0.020	0.009
-387.019	-114.846	-0.304	0.058
-386.004	-200.000	-0.004	0.220
-384.990	-121.227	-0.483	0.081
-383.975	-200.000	-0.001	0.161
-382.960	306.139	0.236	0.441
-381.946	473.970	0.092	0.207
-380.931	158.443	0.059	0.082
-379.917	-170.960	-0.360	-0.012
-378.902	-49.225	-0.263	-0.126
-377.888	800.000	-0.050	0.149
-376.873	-83.814	-0.291	-0.093
-375.858	800.000	-0.057	0.184
-374.844	168.587	0.159	0.227
-373.829	35.666	0.182	-0.160
-372.815	-88.817	-0.044	-0.013
-371.800	134.032	-0.203	0.264
-370.785	113.193	-0.208	0.253
-369.771	384.846	-0.021	-0.043
-368.756	516.761	-0.099	-0.233
-367.742	100.418	0.149	0.173
-366.727	-177.950	-0.042	0.001
-365.712	630.927	-0.053	0.134
-364.698	-78.736	-0.185	0.063
-363.683	-200.000	-0.048	-0.224
-362.669	-26.196	0.126	0.074
-361.654	32.708	0.084	0.073
-360.639	-103.695	-0.157	-0.037
-359.625	-53.094	0.238	-0.110
-358.610	219.247	-0.094	0.150
-357.596	452.127	0.089	0.198
-356.581	137.421	-0.239	0.313
-355.566	-157.428	-0.443	-0.027
-354.552	800.000	0.109	0.351
-353.537	330.757	0.102	-0.197
-352.523	502.281	-0.073	-0.170
-351.508	-111.475	0.287	0.059
-350.493	-81.405	0.074	-0.025
-349.479	-2.613	-0.249	0.175
-348.464	205.620	0.219	-0.341
-347.450	800.000	0.042	-0.179
-346.435	-186.476	-0.314	-0.004
-345.420	-95.967	0.339	-0.091
-344.406	-58.543	0.098	-0.043
-343.391	-162.533	0.135	0.007
-342.377	22.980	0.128	-0.105
-341.362	-145.658	-0.376	0.034
-340.348	-22.414	0.078	0.048
-339.333	-79.643	-0.232	-0.078
-338.318	-73.980	0.329	-0.119
-337.304	7.739	0.377	-0.283
-336.289	-7.403	-0.269	-0.183
-335.275	-35.556	0.238	0.130
-334.260	635.276	-0.107	-0.271
-333.245	-43.845	0.251	-0.127
-332.231	76.721	0.119	0.126
-331.216	-106.788	-0.259	-0.058
-330.202	-200.000	-0.007	0.095
-329.187	90.512	-0.144	0.162
-328.172	-200.000	-0.064	-0.295
-327.158	-200.000	-0.044	0.208
-326.143	142.985	0.072	-0.096
-325.129	105.174	-0.034	0.040
-324.114	54.799	-0.106	-0.103
-323.099	66.539	0.129	0.131
-322.085	-71.484	-0.143	-0.054
-321.070	61.669	-0.209	-0.208
-320.056	311.679	-0.059	0.110
-319.041	-200.000	0.061	-0.370
-318.026	-40.625	-0.445	-0.231
-317.012	24.884	0.115	-0.096
-315.997	171.609	0.083	0.120
-314.983	-2.717	-0.075	0.053
-313.968	694.457	0.097	0.255
-312.953	-136.930	-0.054	-0.006
-311.939	-83.950	0.253	0.081
-310.924	33.312	-0.222	0.193
-309.910	-200.000	0.143	-0.001
-308.895	33.919	-0.045	0.039
-307.880	-140.025	-0.398	0.042
-306.866	-28.095	0.228	-0.132
-305.851	-200.000	-0.040	-0.241
-304.837	147.713	-0.228	-0.307
-303.822	-200.000	0.016	0.241
-302.807	299.415	-0.059	0.109
-301.793	342.291	0.096	0.187
-300.778	-104.867	0.177	0.041
-299.764	-13.618	0.281	0.182
-298.749	6.775	0.138	-0.103
-297.735	212.332	-0.070	-0.111
-296.720	66.016	-0.354	-0.359
-295.705	111.211	0.194	0.234
-294.691	3.035	-0.103	0.075
-293.676	98.861	-0.003	-0.003
-292.662	-200.000	0.051	0.244
-291.647	-35.010	0.232	0.126
-290.632	276.197	-0.063	0.111
-289.618	-122.446	0.089	-0.014
-288.603	800.000	-0.064	-0.196
-287.589	-200.000	0.008	0.036
-286.574	-129.501	-0.029	-0.004
-285.559	132.510	-0.228	0.294
-284.545	-159.466	-0.159	0.009
-283.530	-67.653	-0.122	-0.048
-282.516	-101.374	-0.139	-0.034
-281.501	508.650	-0.082	0.191
-280.486	800.000	0.031	-0.090
-279.472	144.698	0.242	0.324
-278.457	-200.000	0.009	0.224
-277.443	-40.746	0.146	-0.076
-276.428	-0.631	0.158	0.112
-275.413	800.000	0.068	-0.226
-274.399	78.935	-0.155	0.166
-273.384	535.988	-0.117	0.276
-272.370	320.821	0.124	0.236
-271.355	-200.000	0.081	-0.373
-270.340	629.250	0.088	-0.223
-269.326	-200.000	-0.074	-0.340
-268.311	249.010	0.234	0.396
-267.297	-200.000	-0.012	-0.127
-266.282	250.860	0.047	0.080
-265.267	15.985	0.035	0.028
-264.253	-200.000	0.015	-0.139
-263.238	-180.697	-0.092	0.002
-262.224	121.157	-0.096	0.119
-261.209	6.860	-0.337	-0.251
-260.195	-113.476	0.101	0.020
-259.180	241.541	-0.127	-0.211
-258.165	800.000	0.056	0.202
-257.151	-143.216	-0.303	-0.029
-256.136	800.000	0.066	0.190
-255.122	39.950	0.211	-0.189
-254.107	-200.000	-0.024	0.170
-253.092	100.560	0.176	-0.204
-252.078	56.527	0.249	0.242
-251.063	-170.095	0.056	-0.002
-250.049	421.433	0.096	-0.206
-249.034	-200.000	0.008	0.273
-248.019	-7.615	0.196	0.132
-247.005	-37.817	0.143	-0.076
-245.990	-97.978	0.421	0.108
-244.976	-200.000	0.021	0.335
-243.961	-145.280	0.289	-0.026
-242.946	375.857	0.075	-0.152
-241.932	-109.123	-0.221	-0.047
-240.917	435.599	0.251	0.544
-239.903	-137.553	-0.125	-0.014
-238.888	-200.000	0.031	-0.569
-237.873	52.680	0.131	-0.125
-236.859	361.747	-0.156	-0.313
-235.844	93.235	-0.305	0.344
-234.830	-105.478	0.123	-0.028
-233.815	348.172	-0.143	-0.281
-232.800	230.432	0.095	0.156
-231.786	-92.637	0.134	-0.037
-230.771	-200.000	0.041	-0.284
-229.757	-165.038	-0.254	-0.011
-228.742	-200.000	0.011	0.273
-227.727	-81.057	-0.179	-0.059
-226.713	-200.000	0.083	0.406
-225.698	301.727	0.060	-0.111
-224.684	-37.982	0.288	-0.153
-223.669	53.686	-0.259	0.248
-222.655	15.422	0.220	-0.172
-221.640	134.368	-0.058	0.075
-220.625	77.155	0.160	-0.170
-219.611	57.681	0.334	-0.326
-218.596	128.236	-0.081	-0.103
-217.582	505.626	0.139	0.322
-216.567	-172.547	-0.215	0.007
-215.552	17.929	0.307	0.244
-214.538	735.019	0.029	-0.077
-213.523	-108.159	0.113	0.024
-212.509	214.111	0.178	0.281
-211.494	-200.000	-0.036	-0.382
-210.479	-200.000	-0.033	-0.183
-209.465	252.234	0.188	-0.320
-208.450	342.693	-0.068	0.132
-207.436	-118.401	0.143	0.025
-206.421	800.000	0.077	0.264
-205.406	270.687	-0.096	0.168
-204.392	800.000	-0.039	0.128
-203.377	800.000	-0.043	0.189
-202.363	-80.100	0.171	0.057
-201.348	91.105	0.309	-0.345
-200.333	-200.000	-0.015	-0.098
-199.319	-200.000	-0.047	0.212
-198.304	94.441	-0.194	0.219
-197.290	-200.000	-0.033	0.212
-196.275	382.236	0.075	-0.154
-195.260	80.040	0.073	-0.078
-194.246	-200.000	0.019	0.198
-193.231	46.545	0.148	0.137
-192.217	-200.000	-0.034	-0.198
-191.202	-200.000	0.025	-0.148
-190.187	-23.673	-0.093	0.056
-189.173	274.849	-0.031	0.055
-188.158	118.795	0.082	0.101
-187.144	-40.589	0.074	0.038
-186.129	81.880	0.294	-0.317
-185.114	-200.000	-0.010	0.075
-184.100	-45.954	-0.313	-0.154
-183.085	-200.000	0.062	0.387
-182.071	153.187	0.188	0.256
-181.056	-57.140	-0.118	-0.052
-180.042	-58.100	0.292	0.127
-179.027	-200.000	0.055	0.302
-178.012	147.813	0.076	-0.102
-176.998	31.454	0.226	-0.193
-175.983	13.420	0.110	-0.085
-174.969	-38.880	0.429	-0.225
-173.954	-200.000	0.017	0.134
-172.939	800.000	0.030	-0.127
-171.925	-200.000	0.009	0.233
-170.910	231.801	0.132	0.215
-169.896	23.872	0.111	0.091
-168.881	386.773	-0.178	0.365
-167.866	-98.804	0.133	-0.034
-166.852	715.120	0.041	-0.109
-165.837	159.392	0.140	-0.193
-164.823	-200.000	0.064	0.281
-163.808	87.334	-0.302	0.333
-162.793	213.437	-0.051	0.081
-161.779	-95.643	0.073	0.020
-160.764	-155.510	0.053	-0.003
-159.750	-200.000	0.006	0.137
-158.735	-200.000	0.010	0.098
-157.720	138.403	0.419	0.547
-156.706	-126.574	0.208	-0.031
-155.691	-200.000	0.014	0.095
-154.677	-200.000	0.003	0.184
-153.662	17.349	-0.166	0.131
-152.647	772.321	-0.132	0.359
-151.633	-200.000	-0.028	0.277
-150.618	358.777	0.063	0.125
-149.604	-106.374	0.033	0.007
-148.589	-159.606	0.118	0.007
-147.574	3.133	0.113	0.082
-146.560	444.640	0.036	0.079
-145.545	-28.533	0.138	-0.079
-144.531	-200.000	-0.003	-0.028
-143.516	-200.000	0.003	0.156
-142.502	-87.316	-0.115	-0.035
-141.487	18.195	-0.179	-0.142
-140.472	-119.535	-0.290	-0.050
-139.458	-17.683	0.332	0.207
-138.443	-200.000	0.043	-0.213
-137.429	-57.637	0.076	0.033
-136.414	55.111	0.283	0.272
-135.399	800.000	0.052	0.160
-134.385	435.563	0.093	-0.201
-133.370	-18.356	-0.105	-0.065
-132.356	-18.703	-0.223	-0.138
-131.341	52.833	0.131	0.124
-130.326	-80.990	0.221	0.073
-129.312	228.441	-0.096	-0.156
-128.297	-127.713	0.145	0.021
-127.283	633.398	-0.100	0.253
-126.268	-200.000	-0.001	-0.007
-125.253	239.604	0.089	0.148
-124.239	20.705	0.102	-0.082
-123.224	158.568	-0.172	-0.238
-122.210	-144.798	-0.135	-0.012
-121.195	102.017	0.240	-0.279
