DTS Sentinel unit serial number:	SN413079Multiplexer serial number:	ORYXHardware model number:	OX4-SRSoftware version number:	ORYX F/W v4.00 Oryx Data Collector v3.7.2.0data status	okinstallation	princeton_trtdifferential loss correction	single-endedforward channel	channel 2reverse channel	N/Adate	2019/09/14time	22:39:34forward acquisition time	60.00reverse acquisition time	0.00gamma	496.2192k internal	0.2323k external	0.2323temperature offset calibration	1.0065default loss term (dB/km)	0.3790temperature slope calibration	1.0000multiplexer offset coefficient	1.0000multiplexer slope coefficient	1.0000fibre end	0.00T internal ref (°C)	32.50T ext. ref 1 (°C)	4.68T ext. ref 2 (°C)	27.51length (m)	temperature (°C)	Stokes	anti-Stokes-747.200	-200.000	-0.027	-0.225
-746.185	15.371	0.342	0.271
-745.171	-81.798	-0.157	-0.052
-744.156	75.634	-0.146	0.155
-743.142	-200.000	-0.015	-0.111
-742.127	-200.000	-0.025	0.247
-741.112	116.854	0.154	0.191
-740.098	-200.000	0.054	0.267
-739.083	-110.159	-0.448	0.094
-738.069	456.470	-0.138	0.310
-737.054	111.984	0.251	0.307
-736.039	-148.143	-0.592	-0.049
-735.025	93.759	0.223	0.255
-734.010	-200.000	0.027	-0.156
-732.996	-200.000	0.004	-0.278
-731.981	-200.000	-0.098	-0.458
-730.966	-142.104	0.282	0.028
-729.952	81.477	0.138	0.151
-728.937	206.313	-0.064	-0.100
-727.923	55.664	-0.298	-0.291
-726.908	800.000	-0.021	0.061
-725.894	-115.577	-0.280	0.053
-724.879	167.450	-0.090	0.128
-723.864	-74.201	0.296	-0.108
-722.850	-105.558	-0.119	0.027
-721.835	36.584	-0.155	-0.138
-720.821	70.532	-0.283	0.295
-719.806	-139.192	0.152	-0.017
-718.791	335.850	-0.038	0.075
-717.777	5.219	-0.078	-0.058
-716.762	-200.000	0.002	0.231
-715.748	115.460	-0.159	-0.196
-714.733	175.104	-0.222	0.324
-713.718	-94.579	0.359	0.099
-712.704	800.000	-0.093	-0.346
-711.689	-4.111	-0.199	-0.139
-710.675	-115.088	-0.173	0.033
-709.660	-115.403	0.354	-0.067
-708.645	-200.000	-0.025	-0.207
-707.631	800.000	-0.060	-0.217
-706.616	25.343	-0.318	-0.266
-705.602	-85.759	-0.165	-0.052
-704.587	16.293	0.195	0.155
-703.572	-200.000	0.073	-0.464
-702.558	-46.226	0.070	-0.035
-701.543	-200.000	0.019	0.115
-700.529	264.397	0.099	0.175
-699.514	-75.339	0.031	0.011
-698.499	-200.000	-0.009	-0.394
-697.485	27.785	-0.117	-0.100
-696.470	-200.000	-0.024	-0.297
-695.456	800.000	0.074	0.238
-694.441	-200.000	-0.012	0.335
-693.426	23.147	-0.463	-0.383
-692.412	-200.000	-0.003	0.047
-691.397	-172.885	-0.258	0.008
-690.383	321.054	-0.097	-0.186
-689.368	-200.000	-0.031	-0.340
-688.354	60.065	0.199	-0.198
-687.339	-13.671	-0.301	-0.197
-686.324	-101.933	-0.217	0.053
-685.310	169.360	0.030	0.043
-684.295	75.004	-0.104	-0.111
-683.281	800.000	-0.080	-0.239
-682.266	-200.000	-0.015	0.209
-681.251	800.000	-0.028	0.117
-680.237	-200.000	-0.037	-0.213
-679.222	23.378	0.207	0.171
-678.208	-5.635	-0.144	0.099
-677.193	-118.398	0.128	-0.023
-676.178	-137.854	0.228	-0.026
-675.164	33.088	0.180	-0.157
-674.149	632.515	0.134	0.343
-673.135	-103.095	-0.090	-0.021
-672.120	267.006	0.072	-0.127
-671.105	800.000	0.112	0.451
-670.091	-143.678	0.035	0.003
-669.076	-169.641	0.241	-0.009
-668.062	275.786	0.070	0.126
-667.047	171.078	0.125	-0.181
-666.032	117.723	0.136	-0.169
-665.018	-146.117	-0.176	0.016
-664.003	22.492	0.094	0.078
-662.989	-130.310	0.082	0.011
-661.974	800.000	-0.035	0.142
-660.959	-53.114	-0.408	-0.189
-659.945	177.248	-0.144	-0.212
-658.930	-200.000	-0.002	-0.160
-657.916	-34.313	0.072	0.040
-656.901	-200.000	-0.004	-0.056
-655.886	800.000	0.053	-0.185
-654.872	-39.275	0.090	-0.048
-653.857	70.210	-0.133	-0.138
-652.843	652.209	0.033	0.084
-651.828	-27.036	0.122	-0.072
-650.814	2.695	-0.299	-0.218
-649.799	219.209	-0.027	0.043
-648.784	-123.275	-0.353	0.057
-647.770	656.272	0.106	0.274
-646.755	-187.101	0.242	0.003
-645.741	411.164	-0.076	0.162
-644.726	-200.000	0.010	-0.073
-643.711	-42.907	0.125	-0.064
-642.697	28.383	-0.174	0.148
-641.682	-176.974	-0.278	0.007
-640.668	10.259	-0.193	-0.148
-639.653	2.649	-0.149	0.109
-638.638	-86.411	-0.088	-0.027
-637.624	-171.943	0.152	-0.005
-636.609	33.368	0.186	0.162
-635.595	-107.075	-0.059	0.013
-634.580	800.000	0.077	0.318
-633.565	-119.834	-0.165	0.029
-632.551	318.265	0.070	-0.132
-631.536	2.281	0.095	0.069
-630.522	159.359	-0.107	0.150
-629.507	-40.478	-0.123	0.064
-628.492	-68.505	0.232	0.090
-627.478	-200.000	-0.024	-0.279
-626.463	280.686	0.045	0.081
-625.449	-126.236	-0.163	-0.025
-624.434	4.819	-0.119	0.088
-623.419	-107.219	-0.170	0.038
-622.405	-24.892	0.170	0.101
-621.390	800.000	-0.159	0.451
-620.376	95.685	-0.097	0.111
-619.361	99.339	-0.114	-0.132
-618.346	800.000	-0.027	-0.081
-617.332	-125.397	-0.390	0.060
-616.317	397.786	-0.126	-0.266
-615.303	251.441	0.166	-0.284
-614.288	-39.138	0.107	-0.056
-613.273	408.377	-0.055	0.118
-612.259	-11.187	-0.127	0.084
-611.244	-21.879	0.323	-0.198
-610.230	-143.205	0.214	0.021
-609.215	65.023	0.266	-0.270
-608.201	-102.053	-0.207	0.050
-607.186	-200.000	-0.012	0.288
-606.171	-200.000	-0.023	-0.179
-605.157	-157.140	-0.258	0.016
-604.142	-122.322	0.149	0.024
-603.128	-200.000	-0.488	0.002
-602.113	-19.873	0.204	0.127
-601.098	800.000	0.039	-0.116
-600.084	84.502	-0.079	0.087
-599.069	70.191	-0.125	-0.130
-598.055	-106.057	-0.136	-0.031
-597.040	370.250	-0.120	-0.243
-596.025	-115.753	-0.108	-0.020
-595.011	-75.820	-0.200	-0.071
-593.996	-75.984	0.157	-0.056
-592.982	-75.172	-0.213	0.077
-591.967	-200.000	0.008	-0.313
-590.952	-122.531	-0.089	0.014
-589.938	-54.624	-0.017	-0.008
-588.923	54.254	-0.078	-0.075
-587.909	528.743	-0.057	-0.134
-586.894	-78.115	0.149	0.052
-585.879	-117.268	0.278	0.051
-584.865	104.322	-0.189	0.223
-583.850	800.000	-0.050	0.183
-582.836	-168.684	0.282	0.011
-581.821	-52.815	-0.053	-0.025
-580.806	800.000	-0.139	-0.610
-579.792	205.983	-0.145	-0.227
-578.777	144.924	-0.103	-0.139
-577.763	278.877	-0.140	-0.250
-576.748	-122.181	-0.093	-0.015
-575.733	-132.819	-0.080	0.010
-574.719	31.151	0.283	-0.243
-573.704	70.699	-0.084	-0.087
-572.690	800.000	-0.130	0.375
-571.675	-80.962	-0.183	0.061
-570.661	70.791	-0.093	-0.097
-569.646	-30.729	-0.288	-0.163
-568.631	437.516	-0.145	-0.317
-567.617	-200.000	0.031	-0.291
-566.602	486.171	0.181	0.413
-565.588	-149.992	-0.071	0.006
-564.573	153.100	0.063	-0.087
-563.558	233.927	-0.044	-0.073
-562.544	45.593	-0.135	0.125
-561.529	800.000	0.047	0.145
-560.515	-70.482	0.171	-0.065
-559.500	800.000	-0.015	-0.045
-558.485	-200.000	-0.022	0.213
-557.471	461.885	0.098	0.220
-556.456	-77.242	0.483	0.168
-555.442	169.408	0.161	0.231
-554.427	-94.215	-0.162	0.044
-553.412	800.000	-0.041	0.134
-552.398	603.270	0.127	-0.318
-551.383	-65.350	-0.053	-0.021
-550.369	241.792	0.108	-0.181
-549.354	800.000	0.040	0.152
-548.339	-62.986	0.250	-0.104
-547.325	413.068	-0.170	-0.361
-546.310	-134.732	-0.470	0.057
-545.296	26.267	-0.121	0.101
-544.281	-200.000	0.005	0.212
-543.266	800.000	-0.130	0.401
-542.252	205.192	0.116	0.180
-541.237	35.526	-0.087	-0.076
-540.223	10.440	-0.203	0.155
-539.208	10.368	-0.031	-0.024
-538.193	-93.816	-0.152	0.042
-537.179	652.053	-0.032	-0.082
-536.164	-53.350	0.192	-0.088
-535.150	-9.972	-0.200	0.133
-534.135	443.413	-0.079	0.174
-533.121	800.000	0.116	0.376
-532.106	-100.018	-0.207	-0.052
-531.091	800.000	0.098	-0.341
-530.077	24.801	-0.106	0.088
-529.062	501.234	-0.094	-0.217
-528.048	-127.801	0.043	-0.006
-527.033	367.488	0.040	0.080
-526.018	47.261	0.170	0.159
-525.004	31.469	-0.140	0.120
-523.989	725.562	-0.097	-0.259
-522.975	60.006	-0.242	0.239
-521.960	-65.064	-0.302	-0.122
-520.945	800.000	-0.042	-0.141
-519.931	-68.734	0.187	-0.072
-518.916	-29.254	0.145	-0.083
-517.902	142.736	0.196	0.261
-516.887	583.037	0.059	-0.145
-515.872	292.322	0.132	-0.241
-514.858	769.020	0.031	0.085
-513.843	263.195	0.108	-0.188
-512.829	60.237	0.159	0.158
-511.814	77.143	-0.184	0.196
-510.799	285.122	-0.074	0.133
-509.785	125.492	-0.075	-0.094
-508.770	-200.000	-0.031	-0.155
-507.756	-129.643	-0.153	0.021
-506.741	-100.842	-0.143	0.035
-505.726	-138.368	-0.216	-0.024
-504.712	-200.000	0.015	-0.282
-503.697	-59.497	-0.147	-0.063
-502.683	-59.699	-0.198	0.085
-501.668	352.507	0.136	0.270
-500.653	-164.758	-0.206	0.009
-499.639	753.526	-0.030	-0.080
-498.624	-174.709	-0.233	0.007
-497.610	800.000	0.074	0.222
-496.595	-200.000	0.002	0.124
-495.581	-85.522	-0.110	0.034
-494.566	-119.183	-0.056	-0.010
-493.551	797.322	-0.059	-0.163
-492.537	703.652	-0.078	0.204
-491.522	14.856	0.041	-0.032
-490.508	800.000	-0.102	-0.349
-489.493	-116.102	-0.107	-0.020
-488.478	-142.316	0.333	-0.033
-487.464	-9.509	0.223	-0.149
-486.449	398.984	0.054	0.112
-485.435	-46.587	-0.130	-0.064
-484.420	-135.457	-0.234	0.028
-483.405	47.540	-0.302	0.281
-482.391	67.974	0.262	-0.268
-481.376	800.000	-0.067	0.206
-480.362	-73.225	-0.323	0.118
-479.347	107.043	-0.358	0.426
-478.332	-85.941	0.194	0.060
-477.318	-193.951	-0.150	0.001
-476.303	-28.760	-0.279	0.161
-475.289	-13.459	-0.087	-0.056
-474.274	-148.369	-0.089	-0.007
-473.259	542.090	0.062	-0.149
-472.245	-200.000	0.028	-0.243
-471.230	-35.694	0.097	-0.052
-470.216	403.874	0.096	-0.201
-469.201	163.134	0.069	-0.097
-468.186	-151.934	0.379	0.028
-467.172	-172.171	0.224	-0.007
-466.157	800.000	0.076	-0.258
-465.143	84.193	0.148	-0.162
-464.128	-44.576	-0.208	-0.104
-463.113	59.431	-0.198	-0.195
-462.099	800.000	-0.115	0.326
-461.084	11.321	0.052	-0.040
-460.070	-200.000	-0.029	-0.239
-459.055	-200.000	-0.070	-0.365
-458.040	800.000	-0.065	0.270
-457.026	-119.471	0.371	-0.064
-456.011	-187.849	0.120	0.002
-454.997	-95.141	0.123	-0.033
-453.982	-7.891	-0.203	0.137
-452.968	645.586	0.015	0.038
-451.953	400.893	0.087	-0.182
-450.938	-111.363	-0.257	0.052
-449.924	193.522	0.092	0.139
-448.909	-200.000	0.052	0.236
-447.895	-200.000	0.185	-0.001
-446.880	116.044	0.114	-0.139
-445.865	-10.424	-0.269	-0.178
-444.851	-91.426	-0.156	-0.045
-443.836	800.000	0.036	-0.138
-442.822	-96.406	-0.178	-0.047
-441.807	-200.000	-0.003	0.190
-440.792	800.000	-0.090	0.278
-439.778	-70.387	0.170	0.064
-438.763	117.541	-0.272	0.334
-437.749	-80.670	-0.047	0.015
-436.734	-142.744	-0.508	0.049
-435.719	145.188	-0.107	0.143
-434.705	173.111	-0.068	0.098
-433.690	-200.000	0.018	-0.138
-432.676	-61.603	-0.077	0.032
-431.661	800.000	-0.067	0.215
-430.646	-200.000	0.009	0.253
-429.632	137.128	0.096	-0.125
-428.617	212.807	0.049	0.077
-427.603	90.420	0.004	0.005
-426.588	800.000	-0.103	-0.316
-425.573	107.573	0.190	-0.226
-424.559	800.000	-0.047	0.193
-423.544	129.408	0.025	0.031
-422.530	269.206	0.179	-0.313
-421.515	-200.000	0.019	-0.195
-420.500	272.590	0.140	0.246
-419.486	-106.269	0.207	-0.046
-418.471	272.354	0.181	-0.319
-417.457	-150.123	0.344	0.027
-416.442	88.911	-0.213	0.236
-415.428	-60.903	0.218	-0.092
-414.413	-113.218	-0.171	-0.034
-413.398	786.975	0.103	-0.283
-412.384	800.000	-0.029	-0.123
-411.369	636.381	0.068	0.172
-410.355	128.373	-0.143	0.181
-409.340	194.847	-0.210	-0.318
-408.325	-25.949	-0.434	-0.255
-407.311	320.227	0.261	-0.494
-406.296	-132.606	0.355	0.045
-405.282	800.000	-0.060	0.234
-404.267	800.000	0.053	-0.205
-403.252	-200.000	0.013	0.275
-402.238	44.075	0.100	0.092
-401.223	-200.000	-0.021	0.183
-400.209	-200.000	0.034	0.150
-399.194	-12.532	-0.119	-0.078
-398.179	-77.289	0.111	-0.039
-397.165	-47.840	0.330	0.159
-396.150	209.609	0.194	0.304
-395.136	68.541	-0.066	-0.068
-394.121	-151.293	0.140	0.010
-393.106	53.002	-0.157	-0.150
-392.092	313.547	0.157	-0.295
-391.077	105.493	-0.220	-0.259
-390.063	-200.000	0.004	0.073
-389.048	-200.000	0.068	-0.364
-388.033	-57.105	0.172	0.076
-387.019	46.562	-0.120	-0.111
-386.004	-131.074	0.331	-0.044
-384.990	142.208	0.035	0.046
-383.975	7.571	-0.198	-0.147
-382.960	88.606	-0.133	-0.147
-381.946	105.785	-0.245	-0.289
-380.931	-200.000	-0.043	-0.245
-379.917	-75.016	-0.126	0.045
-378.902	-200.000	0.014	-0.218
-377.888	-94.170	0.380	0.104
-376.873	-82.323	0.308	0.100
-375.858	300.628	0.076	-0.139
-374.844	1.420	0.097	-0.070
-373.829	-61.769	-0.218	-0.091
-372.815	-200.000	0.007	0.081
-371.800	-200.000	0.049	0.291
-370.785	242.442	0.115	0.192
-369.771	259.246	0.172	0.296
-368.756	-95.775	0.100	0.027
-367.742	-15.409	0.336	0.214
-366.727	157.315	0.106	0.146
-365.712	204.896	-0.029	-0.045
-364.698	-122.566	0.234	0.038
-363.683	-98.256	0.268	-0.068
-362.669	52.505	-0.259	-0.246
-361.654	-45.437	-0.156	-0.077
-360.639	140.275	-0.043	-0.056
-359.625	346.397	-0.117	-0.229
-358.610	-38.180	-0.124	0.066
-357.596	-38.579	-0.152	0.080
-356.581	-90.937	-0.457	-0.131
-355.566	-200.000	-0.012	-0.259
-354.552	-119.960	-0.156	0.027
-353.537	-200.000	-0.008	0.216
-352.523	25.094	-0.057	-0.047
-351.508	-56.346	-0.225	0.099
-350.493	482.747	0.025	-0.055
-349.479	110.990	0.178	-0.213
-348.464	-83.176	-0.012	0.004
-347.450	-200.000	-0.031	0.154
-346.435	39.895	0.223	-0.199
-345.420	800.000	0.098	0.373
-344.406	-32.354	-0.116	-0.065
-343.391	144.928	-0.086	0.114
-342.377	103.517	0.154	-0.180
-341.362	31.981	0.104	0.089
-340.348	-109.110	-0.182	0.038
-339.333	-68.255	0.186	-0.072
-338.318	-169.568	0.281	0.010
-337.304	177.974	-0.173	-0.251
-336.289	12.591	-0.060	0.046
-335.275	-11.085	-0.139	-0.091
-334.260	-200.000	0.042	0.259
-333.245	288.154	0.011	-0.020
-332.231	206.466	-0.165	0.255
-331.216	98.212	-0.147	-0.168
-330.202	-36.046	0.085	-0.046
-329.187	-98.876	-0.262	-0.066
-328.172	-200.000	-0.026	-0.197
-327.158	800.000	0.045	0.164
-326.143	-32.496	-0.244	0.135
-325.129	-200.000	0.026	-0.181
-324.114	95.590	-0.031	0.035
-323.099	395.139	0.097	0.200
-322.085	-103.885	0.067	-0.015
-321.070	104.329	0.124	-0.145
-320.056	800.000	0.102	-0.290
-319.041	-40.120	0.287	0.149
-318.026	580.874	-0.062	0.151
-317.012	-200.000	-0.049	0.360
-315.997	-173.479	-0.364	-0.011
-314.983	142.335	0.025	-0.032
-313.968	216.108	0.168	-0.265
-312.953	-152.200	-0.100	-0.007
-311.939	771.803	0.174	-0.472
-310.924	29.617	0.127	0.107
-309.910	-200.000	0.001	0.033
-308.895	229.112	0.037	0.060
-307.880	21.659	0.070	0.057
-306.866	-38.456	-0.096	0.050
-305.851	-63.593	-0.236	0.096
-304.837	-200.000	0.025	-0.192
-303.822	-200.000	0.013	-0.059
-302.807	-66.436	0.268	0.106
-301.793	51.227	0.222	0.209
-300.778	800.000	0.024	-0.081
-299.764	-73.911	0.214	0.077
-298.749	800.000	0.038	-0.113
-297.735	210.823	-0.076	-0.119
-296.720	147.521	0.043	0.058
-295.705	343.327	-0.107	0.208
-294.691	195.124	0.036	0.055
-293.676	32.204	0.135	-0.115
-292.662	38.430	0.179	-0.158
-291.647	-200.000	0.002	0.158
-290.632	-6.628	-0.090	-0.061
-289.618	-200.000	-0.025	0.280
-288.603	144.735	0.181	0.240
-287.589	117.830	0.164	-0.200
-286.574	-109.923	-0.134	0.028
-285.559	-83.368	0.182	0.058
-284.545	12.781	-0.154	0.118
-283.530	-116.663	-0.159	-0.029
-282.516	-52.139	0.329	0.151
-281.501	24.460	0.113	-0.093
-280.486	87.501	-0.056	0.062
-279.472	-94.250	-0.352	0.095
-278.457	-65.305	0.375	-0.150
-277.443	41.287	0.241	-0.216
-276.428	-36.191	0.240	0.128
-275.413	-116.948	-0.436	-0.079
-274.399	17.673	-0.159	0.125
-273.384	37.708	0.109	-0.096
-272.370	-200.000	0.017	-0.151
-271.355	-200.000	-0.059	-0.267
-270.340	-25.941	0.432	0.252
-269.326	-200.000	0.039	0.180
-268.311	-128.003	-0.081	0.011
-267.297	394.631	0.150	0.310
-266.282	-119.041	0.211	0.037
-265.267	-114.459	0.379	0.072
-264.253	-18.535	0.354	0.219
-263.238	-200.000	-0.007	0.120
-262.224	166.346	0.209	-0.294
-261.209	-200.000	0.018	0.145
-260.195	158.725	0.073	-0.100
-259.180	-145.604	0.041	0.004
-258.165	-159.540	-0.106	0.006
-257.151	-55.162	0.256	-0.114
-256.136	-153.350	-0.158	-0.011
-255.122	54.066	-0.259	-0.247
-254.107	-167.927	0.120	0.005
-253.092	289.051	-0.072	-0.129
-252.078	-35.744	0.190	-0.102
-251.063	94.442	-0.069	-0.078
-250.049	-200.000	-0.024	-0.261
-249.034	-200.000	0.042	-0.276
-248.019	192.909	0.127	0.191
-247.005	-63.730	-0.060	0.024
-245.990	-200.000	0.004	0.028
-244.976	586.222	0.108	0.264
-243.961	-31.720	-0.271	-0.151
-242.946	287.502	-0.136	0.244
-241.932	128.997	0.064	-0.081
-240.917	8.286	-0.175	0.130
-239.903	800.000	-0.056	0.218
-238.888	-91.173	0.127	0.036
-237.873	213.314	0.146	0.229
-236.859	-200.000	0.010	-0.213
-235.844	-200.000	0.037	-0.289
-234.830	528.077	0.070	0.163
-233.815	800.000	0.073	0.204
-232.800	800.000	0.038	0.135
-231.786	116.586	0.131	-0.159
-230.771	800.000	-0.080	-0.289
-229.757	104.761	-0.172	-0.201
-228.742	47.413	-0.169	0.156
-227.727	-111.149	-0.180	-0.036
-226.713	692.147	-0.085	0.220
-225.698	800.000	0.103	0.340
-224.684	-110.822	0.256	0.052
-223.669	800.000	0.021	-0.088
-222.655	-65.611	-0.216	-0.086
-221.640	800.000	-0.105	0.341
-220.625	547.956	-0.043	-0.101
-219.611	-49.126	0.294	0.139
-218.596	-200.000	0.024	0.375
-217.582	-53.401	-0.372	0.169
-216.567	22.359	-0.361	-0.292
-215.552	-149.375	-0.255	0.020
-214.538	15.040	0.180	-0.139
-213.523	317.757	0.138	-0.258
-212.509	49.145	-0.144	0.134
-211.494	52.013	-0.176	-0.166
-210.479	292.546	0.066	-0.119
-209.465	800.000	-0.116	-0.338
-208.450	141.806	0.207	0.272
-207.436	-59.286	0.056	0.024
-206.421	33.605	-0.151	0.130
-205.406	-200.000	-0.013	0.088
-204.392	221.741	0.100	0.159
-203.377	800.000	0.032	0.135
-202.363	114.572	0.103	-0.124
-201.348	253.742	0.045	-0.076
-200.333	-49.652	0.284	-0.134
-199.319	-105.189	0.142	-0.032
-198.304	429.217	-0.059	-0.127
-197.290	36.567	-0.369	0.322
-196.275	411.950	0.057	-0.119
-195.260	-200.000	0.068	-0.398
-194.246	55.773	0.407	0.390
-193.231	-112.386	-0.111	-0.022
-192.217	-200.000	0.017	0.205
-191.202	800.000	-0.042	0.136
-190.187	800.000	0.053	-0.221
-189.173	-30.568	0.484	-0.271
-188.158	94.771	-0.167	-0.188
-187.144	-200.000	-0.039	-0.229
-186.129	-124.622	0.400	0.061
-185.114	-178.697	0.305	-0.007
-184.100	-171.958	-0.173	0.006
-183.085	90.759	0.116	-0.128
-182.071	-200.000	0.043	0.462
-181.056	-91.926	0.212	0.059
-180.042	88.251	-0.174	0.191
-179.027	-138.815	0.067	0.007
-178.012	111.258	-0.173	0.206
-176.998	-200.000	0.058	0.325
-175.983	-200.000	0.058	-0.261
-174.969	168.936	0.446	-0.629
-173.954	800.000	-0.044	-0.134
-172.939	-58.864	-0.340	0.145
-171.925	40.603	0.214	0.190
-170.910	235.210	-0.016	0.026
-169.896	-151.197	-0.199	-0.015
-168.881	4.572	0.100	-0.073
-167.866	-200.000	-0.047	0.390
-166.852	-55.059	0.055	0.024
-165.837	322.607	0.167	0.314
-164.823	-77.164	-0.053	-0.018
-163.808	-200.000	0.024	0.175
-162.793	-161.546	0.057	-0.003
-161.779	120.390	0.144	-0.176
-160.764	-50.348	-0.149	0.069
-159.750	-16.153	0.315	0.198
-158.735	9.375	0.181	-0.135
-157.720	241.194	0.088	0.145
-156.706	12.659	0.112	0.085
-155.691	56.005	0.073	-0.070
-154.677	-83.085	-0.098	0.031
-153.662	-57.431	0.177	0.077
-152.647	574.092	-0.162	-0.390
-151.633	557.041	-0.047	0.112
-150.618	674.239	0.044	-0.112
-149.604	-43.278	0.138	-0.069
-148.589	110.510	-0.287	-0.340
-147.574	-200.000	-0.001	-0.263
-146.560	23.398	-0.041	0.033
-145.545	-97.783	0.211	-0.054
-144.531	-77.819	0.495	-0.169
-143.516	-107.028	-0.161	0.035
-142.502	-200.000	0.009	0.192
-141.487	206.132	-0.228	-0.350
-140.472	40.365	0.330	0.293
-139.458	800.000	0.071	-0.268
-138.443	-144.479	0.300	-0.027
-137.429	800.000	0.022	0.090
-136.414	112.824	-0.122	0.146
-135.399	800.000	-0.184	0.505
-134.385	-105.705	0.220	-0.049
-133.370	186.689	0.151	-0.222
-132.356	-200.000	-0.004	-0.125
-131.341	432.738	0.120	-0.257
-130.326	429.271	-0.154	0.329
-129.312	-27.964	-0.155	0.088
-128.297	-200.000	0.046	-0.206
-127.283	31.523	-0.009	0.008
-126.268	-98.026	0.247	0.063
-125.253	-137.580	0.110	-0.012
-124.239	-200.000	0.030	-0.148
-123.224	135.765	-0.055	-0.071
-122.210	-49.793	0.340	0.159
-121.195	-200.000	0.020	0.319
