DTS Sentinel unit serial number:	SN413079Multiplexer serial number:	ORYXHardware model number:	OX4-SRSoftware version number:	ORYX F/W v4.00 Oryx Data Collector v3.7.2.0data status	okinstallation	princeton_trtdifferential loss correction	single-endedforward channel	channel 2reverse channel	N/Adate	2019/09/13time	13:11:35forward acquisition time	60.00reverse acquisition time	0.00gamma	496.2192k internal	0.2314k external	0.2314temperature offset calibration	1.0210default loss term (dB/km)	0.3790temperature slope calibration	1.0000multiplexer offset coefficient	1.0000multiplexer slope coefficient	1.0000fibre end	0.00T internal ref (°C)	34.87T ext. ref 1 (°C)	4.57T ext. ref 2 (°C)	31.11length (m)	temperature (°C)	Stokes	anti-Stokes-747.200	2.705	0.157	0.116
-746.185	-64.517	-0.071	0.029
-745.171	303.654	-0.030	-0.056
-744.156	-101.086	-0.259	0.064
-743.142	-17.365	-0.073	-0.046
-742.127	-14.532	-0.237	0.154
-741.112	-86.826	-0.188	-0.058
-740.098	39.380	-0.314	0.285
-739.083	-200.000	0.028	0.172
-738.069	59.769	0.024	0.024
-737.054	-0.390	-0.073	-0.052
-736.039	70.374	-0.137	0.143
-735.025	58.839	0.217	0.216
-734.010	-110.155	0.089	-0.019
-732.996	-28.171	-0.342	-0.200
-731.981	-89.421	-0.345	-0.103
-730.966	-82.621	-0.071	-0.023
-729.952	-127.943	-0.188	0.027
-728.937	-104.128	-0.317	-0.075
-727.923	199.883	0.109	-0.170
-726.908	800.000	0.073	-0.241
-725.894	60.654	0.138	-0.138
-724.879	-13.268	-0.184	-0.121
-723.864	-200.000	0.033	0.163
-722.850	-200.000	0.043	-0.270
-721.835	242.794	0.146	-0.247
-720.821	-77.942	0.215	0.075
-719.806	800.000	0.041	-0.137
-718.791	-83.596	0.173	0.056
-717.777	198.207	0.050	0.078
-716.762	800.000	0.045	-0.130
-715.748	-200.000	0.010	0.164
-714.733	-200.000	0.081	-0.397
-713.718	-151.304	-0.308	-0.023
-712.704	-133.757	0.150	-0.019
-711.689	237.153	-0.192	0.323
-710.675	383.235	-0.173	-0.360
-709.660	-32.111	-0.114	0.065
-708.645	-78.224	0.090	0.031
-707.631	31.182	0.156	0.135
-706.616	197.117	0.094	0.145
-705.602	264.916	0.044	-0.078
-704.587	-200.000	0.021	0.182
-703.572	-200.000	0.001	-0.132
-702.558	-57.974	-0.238	-0.105
-701.543	-135.800	-0.166	0.020
-700.529	-200.000	-0.058	-0.298
-699.514	-200.000	0.045	-0.271
-698.499	71.263	0.141	0.148
-697.485	-200.000	-0.003	-0.156
-696.470	-56.672	-0.245	0.110
-695.456	453.343	-0.060	-0.135
-694.441	-200.000	-0.009	0.064
-693.426	-70.284	-0.317	-0.122
-692.412	-35.834	-0.199	0.109
-691.397	490.500	-0.076	-0.175
-690.383	800.000	-0.016	0.061
-689.368	-200.000	-0.046	-0.365
-688.354	375.477	-0.102	0.210
-687.339	46.679	-0.034	-0.032
-686.324	-122.576	-0.216	0.035
-685.310	106.648	0.135	-0.162
-684.295	-180.168	0.192	0.004
-683.281	515.689	-0.010	0.023
-682.266	-42.172	0.283	0.146
-681.251	-120.052	0.314	0.054
-680.237	-200.000	-0.024	0.205
-679.222	800.000	-0.153	-0.451
-678.208	-52.152	-0.209	0.098
-677.193	-73.512	-0.170	0.063
-676.178	800.000	-0.091	-0.346
-675.164	109.804	-0.051	0.061
-674.149	-190.586	-0.309	0.003
-673.135	186.745	-0.136	0.205
-672.120	-200.000	-0.074	-0.333
-671.105	-200.000	-0.032	-0.332
-670.091	-98.036	0.193	-0.050
-669.076	-180.355	-0.216	-0.005
-668.062	-200.000	-0.015	-0.116
-667.047	-120.647	0.367	-0.063
-666.032	-39.475	0.340	0.180
-665.018	488.732	0.047	0.110
-664.003	-200.000	-0.515	-0.001
-662.989	-200.000	-0.014	0.110
-661.974	-73.176	-0.187	-0.069
-660.959	318.412	0.120	-0.229
-659.945	-200.000	-0.006	0.376
-658.930	-59.342	-0.177	0.077
-657.916	-102.120	-0.268	-0.065
-656.901	-103.664	0.226	0.054
-655.886	-152.361	0.141	-0.010
-654.872	50.666	-0.115	-0.110
-653.857	-102.989	-0.171	-0.041
-652.843	800.000	-0.145	-0.415
-651.828	180.605	0.112	0.167
-650.814	20.992	0.091	-0.075
-649.799	619.258	-0.118	0.300
-648.784	-200.000	-0.008	0.036
-647.770	-200.000	-0.088	0.000
-646.755	-125.143	-0.063	0.010
-645.741	800.000	0.066	-0.280
-644.726	-83.796	-0.513	-0.165
-643.711	-5.362	0.320	-0.222
-642.697	-174.764	-0.118	-0.003
-641.682	-70.025	0.048	0.018
-640.668	-157.796	-0.345	0.021
-639.653	-150.983	0.247	0.019
-638.638	236.144	0.045	0.076
-637.624	27.076	-0.040	-0.034
-636.609	-42.504	-0.261	0.134
-635.595	-45.038	0.087	0.044
-634.580	-20.110	0.264	-0.165
-633.565	800.000	0.054	0.204
-632.551	54.923	0.046	0.045
-631.536	57.930	0.097	0.096
-630.522	-141.569	0.434	-0.044
-629.507	67.994	0.037	0.038
-628.492	-80.006	0.036	-0.012
-627.478	800.000	-0.134	-0.488
-626.463	431.404	0.157	-0.344
-625.449	61.039	0.106	0.106
-624.434	-124.811	-0.232	-0.036
-623.419	-108.652	-0.136	-0.029
-622.405	14.028	0.098	-0.077
-621.390	121.510	-0.194	-0.244
-620.376	228.095	-0.144	-0.236
-619.361	128.503	0.109	-0.140
-618.346	-97.808	-0.416	0.109
-617.332	-160.064	0.023	-0.001
-616.317	-25.484	-0.305	-0.182
-615.303	429.901	-0.071	-0.156
-614.288	472.725	-0.038	0.086
-613.273	800.000	0.048	0.146
-612.259	-86.545	-0.121	-0.037
-611.244	-15.779	-0.065	-0.042
-610.230	-200.000	-0.037	0.282
-609.215	-85.329	0.070	-0.022
-608.201	8.211	0.137	-0.104
-607.186	-10.567	-0.352	-0.235
-606.171	800.000	-0.020	-0.062
-605.157	800.000	-0.013	0.052
-604.142	-92.987	-0.315	-0.089
-603.128	-2.211	0.329	0.233
-602.113	-200.000	0.033	-0.242
-601.098	0.743	-0.491	-0.354
-600.084	-118.265	-0.069	-0.012
-599.069	-18.389	0.166	-0.104
-598.055	-165.406	0.246	0.011
-597.040	13.423	-0.116	-0.091
-596.025	631.793	0.196	-0.500
-595.011	-52.837	0.242	0.112
-593.996	-127.026	-0.266	-0.039
-592.982	-62.969	-0.056	0.023
-591.967	-156.027	-0.292	-0.019
-590.952	-200.000	0.010	-0.131
-589.938	218.348	-0.057	-0.092
-588.923	-196.540	-0.079	0.001
-587.909	589.759	0.118	0.293
-586.894	386.868	-0.039	-0.082
-585.879	340.718	-0.104	0.204
-584.865	291.867	0.222	-0.408
-583.850	-137.927	0.085	-0.010
-582.836	-54.364	0.076	0.035
-581.821	-69.273	0.174	0.067
-580.806	602.107	0.053	0.134
-579.792	800.000	0.032	-0.104
-578.777	16.142	0.127	0.101
-577.763	800.000	0.039	-0.113
-576.748	157.034	0.046	-0.064
-575.733	-180.130	0.172	-0.004
-574.719	-62.532	-0.104	-0.044
-573.704	-200.000	-0.045	-0.250
-572.690	800.000	0.051	-0.221
-571.675	-3.614	-0.054	0.038
-570.661	33.718	-0.250	-0.219
-569.646	-19.864	-0.263	-0.164
-568.631	800.000	0.054	-0.194
-567.617	-200.000	-0.009	0.050
-566.602	261.941	-0.155	-0.271
-565.588	800.000	-0.035	0.129
-564.573	-54.092	-0.283	0.130
-563.558	800.000	0.095	0.367
-562.544	136.724	-0.126	0.166
-561.529	70.598	-0.213	-0.222
-560.515	583.767	-0.057	0.140
-559.500	4.004	0.183	0.135
-558.485	170.179	-0.180	0.258
-557.471	-75.514	-0.073	-0.026
-556.456	46.793	-0.016	-0.015
-555.442	198.555	0.218	0.335
-554.427	-200.000	-0.019	-0.232
-553.412	-47.064	0.493	-0.242
-552.398	99.737	0.166	0.194
-551.383	-20.807	0.261	-0.161
-550.369	778.769	0.067	0.185
-549.354	419.089	0.111	0.238
-548.339	-200.000	0.036	-0.366
-547.325	-26.798	-0.217	-0.128
-546.310	800.000	0.031	-0.114
-545.296	598.568	0.036	-0.091
-544.281	-13.288	-0.189	-0.123
-543.266	273.071	0.088	-0.157
-542.252	-154.324	0.021	-0.001
-541.237	-29.878	0.412	0.236
-540.223	-20.406	-0.026	-0.016
-539.208	-94.640	-0.412	-0.113
-538.193	-72.918	-0.132	-0.049
-537.179	800.000	-0.109	-0.340
-536.164	-4.087	-0.270	-0.188
-535.150	-152.077	0.181	0.013
-534.135	-200.000	-0.006	-0.184
-533.121	-200.000	0.029	0.276
-532.106	-200.000	-0.011	-0.140
-531.091	41.017	0.173	-0.157
-530.077	-200.000	0.050	-0.379
-529.062	-16.037	-0.358	-0.229
-528.048	-200.000	0.007	-0.217
-527.033	-129.030	0.337	0.047
-526.018	-134.704	-0.419	-0.051
-525.004	130.044	-0.151	0.194
-523.989	79.128	0.120	-0.129
-522.975	87.911	0.226	0.252
-521.960	-55.372	-0.298	0.135
-520.945	-113.365	-0.078	0.015
-519.931	-114.703	-0.077	-0.015
-518.916	800.000	0.056	0.160
-517.902	118.637	-0.124	-0.154
-516.887	-127.547	-0.105	-0.015
-515.872	-200.000	-0.011	0.250
-514.858	-200.000	0.002	-0.146
-513.843	265.225	-0.080	-0.139
-512.829	-116.882	-0.199	-0.037
-511.814	318.723	-0.118	0.225
-510.799	534.333	-0.098	0.234
-509.785	262.106	0.115	0.200
-508.770	480.032	0.038	-0.086
-507.756	19.704	-0.166	-0.135
-506.741	800.000	-0.055	0.221
-505.726	-24.264	0.060	0.036
-504.712	674.740	-0.056	0.146
-503.697	107.909	-0.213	0.255
-502.683	65.368	0.164	-0.166
-501.668	221.980	0.217	-0.351
-500.653	-18.369	-0.178	-0.112
-499.639	-183.200	-0.171	-0.003
-498.624	-114.880	0.344	0.066
-497.610	7.919	0.137	0.103
-496.595	62.842	0.049	-0.049
-495.581	91.360	0.146	-0.165
-494.566	-200.000	0.017	-0.149
-493.551	-15.774	-0.335	0.214
-492.537	-200.000	-0.059	-0.319
-491.522	-198.853	-0.386	-0.002
-490.508	212.772	0.207	0.327
-489.493	-27.181	0.232	0.136
-488.478	-50.038	0.093	0.044
-487.464	-79.007	-0.309	-0.105
-486.449	124.242	-0.028	0.035
-485.435	183.787	-0.106	-0.157
-484.420	195.790	0.281	-0.430
-483.405	1.117	0.144	-0.103
-482.391	-200.000	-0.064	-0.336
-481.376	800.000	0.036	-0.125
-480.362	40.701	0.135	0.122
-479.347	-122.348	0.406	-0.066
-478.332	117.097	0.193	0.237
-477.318	800.000	0.132	-0.477
-476.303	-47.559	0.154	0.075
-475.289	-200.000	0.016	-0.179
-474.274	-86.021	-0.186	0.058
-473.259	34.904	-0.246	0.216
-472.245	-62.517	0.492	0.205
-471.230	65.127	0.067	0.068
-470.216	61.153	0.129	-0.129
-469.201	-27.015	0.138	-0.081
-468.186	-17.791	-0.262	0.165
-467.172	343.557	0.168	0.329
-466.157	-129.298	-0.132	0.018
-465.143	306.545	-0.106	0.197
-464.128	61.787	-0.102	-0.101
-463.113	87.289	0.229	-0.254
-462.099	522.653	0.019	-0.045
-461.084	-9.062	0.325	-0.218
-460.070	800.000	-0.033	0.134
-459.055	800.000	-0.137	0.421
-458.040	-200.000	0.022	0.253
-457.026	191.398	0.073	-0.111
-456.011	800.000	0.081	-0.281
-454.997	-135.753	0.095	0.011
-453.982	-200.000	-0.029	0.346
-452.968	405.642	0.168	-0.356
-451.953	800.000	0.032	-0.127
-450.938	125.295	-0.133	-0.168
-449.924	-55.190	-0.068	-0.031
-448.909	-200.000	-0.014	-0.097
-447.895	59.030	0.119	-0.118
-446.880	-152.934	-0.034	-0.002
-445.865	-108.235	0.179	0.039
-444.851	59.783	0.133	0.131
-443.836	114.507	-0.167	0.204
-442.822	-93.368	-0.167	0.046
-441.807	800.000	-0.086	0.286
-440.792	-90.258	0.142	0.041
-439.778	44.204	0.075	0.069
-438.763	-95.128	0.174	0.047
-437.749	-102.486	-0.146	-0.035
-436.734	-57.175	0.283	0.125
-435.719	109.623	-0.130	-0.156
-434.705	-49.085	-0.274	0.131
-433.690	13.691	-0.155	0.121
-432.676	-91.542	0.340	0.097
-431.661	-104.398	-0.201	0.047
-430.646	800.000	-0.015	0.051
-429.632	-200.000	-0.043	0.225
-428.617	55.496	-0.250	0.242
-427.603	380.361	-0.114	0.235
-426.588	800.000	0.040	-0.119
-425.573	-8.777	0.407	-0.273
-424.559	100.121	-0.205	-0.238
-423.544	-200.000	0.012	0.134
-422.530	-200.000	0.031	0.278
-421.515	118.332	-0.473	0.584
-420.500	-99.045	0.233	0.059
-419.486	128.160	-0.041	-0.052
-418.471	800.000	-0.140	0.413
-417.457	-95.311	0.350	-0.094
-416.442	11.768	0.238	-0.183
-415.428	416.217	0.095	-0.203
-414.413	61.394	0.284	0.283
-413.398	527.399	0.078	0.183
-412.384	-126.649	0.328	0.049
-411.369	32.166	-0.261	0.226
-410.355	-118.515	0.263	0.047
-409.340	190.417	-0.205	-0.308
-408.325	-161.167	0.212	0.011
-407.311	317.355	0.185	0.350
-406.296	800.000	0.011	0.046
-405.282	82.747	0.148	0.161
-404.267	10.435	0.227	0.173
-403.252	-57.632	0.187	-0.082
-402.238	649.887	0.107	0.274
-401.223	-16.889	0.199	-0.126
-400.209	189.729	0.165	-0.247
-399.194	-200.000	-0.009	0.077
-398.179	-200.000	-0.016	-0.156
-397.165	451.680	-0.078	0.173
-396.150	29.628	-0.178	-0.151
-395.136	157.382	-0.099	-0.137
-394.121	-164.974	0.161	-0.007
-393.106	-92.636	0.223	0.063
-392.092	20.082	0.113	0.091
-391.077	497.256	-0.123	0.284
-390.063	800.000	-0.103	-0.398
-389.048	-104.058	0.411	-0.096
-388.033	-200.000	0.056	0.311
-387.019	-200.000	-0.012	0.102
-386.004	248.441	0.074	-0.126
-384.990	207.486	-0.067	-0.105
-383.975	-103.742	-0.183	-0.043
-382.960	-200.000	0.074	-0.373
-381.946	-200.000	-0.018	0.353
-380.931	364.986	0.064	-0.129
-379.917	337.030	-0.115	-0.224
-378.902	-163.857	0.380	-0.018
-377.888	-200.000	-0.040	0.355
-376.873	-85.828	0.161	-0.050
-375.858	-44.114	-0.156	-0.078
-374.844	-200.000	-0.022	-0.392
-373.829	-65.809	0.036	-0.014
-372.815	800.000	0.090	-0.290
-371.800	800.000	0.021	-0.068
-370.785	-85.422	-0.323	0.101
-369.771	-200.000	-0.076	-0.394
-368.756	-122.485	0.177	-0.029
-367.742	-200.000	-0.044	-0.294
-366.727	-178.641	-0.244	-0.006
-365.712	44.050	0.425	0.389
-364.698	280.998	-0.165	0.295
-363.683	-145.034	-0.138	-0.013
-362.669	361.860	-0.062	-0.124
-361.654	-91.963	0.266	-0.075
-360.639	-22.236	-0.324	-0.196
-359.625	-30.722	0.085	0.048
-358.610	95.722	-0.103	0.117
-357.596	-39.810	-0.046	-0.024
-356.581	800.000	-0.077	-0.215
-355.566	145.088	-0.048	0.064
-354.552	238.606	-0.136	-0.225
-353.537	-84.269	-0.186	0.059
-352.523	-25.304	0.141	-0.083
-351.508	144.305	0.117	0.156
-350.493	-144.509	-0.416	0.038
-349.479	-200.000	0.024	0.234
-348.464	322.652	-0.180	-0.343
-347.450	-48.726	0.322	0.154
-346.435	-200.000	-0.001	0.073
-345.420	-54.984	-0.093	0.042
-344.406	-89.888	0.261	-0.076
-343.391	-20.946	-0.231	-0.141
-342.377	-200.000	0.028	0.250
-341.362	-7.244	-0.268	0.182
-340.348	763.387	0.048	-0.131
-339.333	-44.382	0.058	0.029
-338.318	-156.673	-0.326	-0.020
-337.304	-160.748	-0.257	0.014
-336.289	-138.199	0.214	-0.024
-335.275	-62.022	-0.070	0.029
-334.260	-80.346	0.359	0.120
-333.245	313.060	0.119	0.223
-332.231	-200.000	-0.022	-0.173
-331.216	-200.000	-0.006	-0.029
-330.202	480.724	0.139	-0.314
-329.187	226.865	-0.082	0.132
-328.172	-127.816	-0.335	-0.048
-327.158	-200.000	0.039	-0.219
-326.143	800.000	0.054	0.185
-325.129	-200.000	-0.013	0.211
-324.114	324.773	-0.086	0.165
-323.099	-110.994	-0.046	-0.009
-322.085	-79.138	-0.644	-0.218
-321.070	92.052	-0.241	0.270
-320.056	-24.967	0.239	-0.141
-319.041	-121.422	-0.331	0.055
-318.026	302.758	-0.066	-0.122
-317.012	-94.646	0.051	-0.014
-315.997	23.195	-0.177	0.145
-314.983	-49.248	-0.290	0.138
-313.968	-146.608	-0.239	0.021
-312.953	-83.294	-0.160	-0.051
-311.939	268.438	0.118	-0.207
-310.924	-200.000	0.034	-0.201
-309.910	-106.751	-0.144	0.032
-308.895	326.399	-0.174	0.332
-307.880	-200.000	-0.004	0.201
-306.866	81.277	-0.317	-0.342
-305.851	-72.092	0.253	-0.094
-304.837	-92.807	0.246	0.068
-303.822	-182.757	-0.257	0.005
-302.807	305.497	-0.064	-0.118
-301.793	-200.000	-0.017	0.270
-300.778	-124.857	0.097	0.015
-299.764	119.651	-0.067	-0.083
-298.749	64.896	-0.103	-0.104
-297.735	165.233	-0.092	-0.130
-296.720	-188.337	0.241	-0.003
-295.705	-91.778	-0.386	0.109
-294.691	-55.246	-0.150	-0.067
-293.676	-158.586	0.322	-0.018
-292.662	-30.920	0.378	0.212
-291.647	-200.000	0.016	0.291
-290.632	800.000	0.068	0.225
-289.618	38.576	-0.139	-0.124
-288.603	274.258	0.095	-0.167
-287.589	140.502	0.247	-0.325
-286.574	-119.786	0.306	0.052
-285.559	-200.000	0.031	0.297
-284.545	-200.000	-0.032	0.237
-283.530	-84.586	0.192	0.060
-282.516	12.125	0.067	-0.051
-281.501	83.244	0.166	0.180
-280.486	-16.953	0.214	0.135
-279.472	-70.432	0.226	0.085
-278.457	-113.024	-0.074	0.015
-277.443	-21.521	0.272	0.165
-276.428	-200.000	-0.043	-0.204
-275.413	-64.722	-0.127	0.051
-274.399	800.000	0.093	-0.383
-273.384	-95.204	-0.230	-0.062
-272.370	791.427	-0.035	0.095
-271.355	-47.821	0.065	0.031
-270.340	22.229	0.402	0.327
-269.326	-10.745	-0.269	0.177
-268.311	-200.000	0.037	0.269
-267.297	-200.000	0.010	-0.184
-266.282	-80.890	-0.152	-0.050
-265.267	9.393	-0.310	0.233
-264.253	178.842	-0.128	-0.187
-263.238	-120.727	-0.106	0.018
-262.224	311.367	-0.047	-0.087
-261.209	-50.386	0.228	-0.107
-260.195	-200.000	-0.056	0.349
-259.180	415.368	-0.068	0.144
-258.165	28.285	0.230	0.193
-257.151	-97.990	-0.198	-0.051
-256.136	259.422	0.173	-0.297
-255.122	800.000	0.012	-0.040
-254.107	-32.044	0.132	-0.073
-253.092	-129.761	-0.073	0.010
-252.078	-34.584	0.231	-0.126
-251.063	-108.112	-0.299	0.064
-250.049	193.819	-0.111	0.167
-249.034	56.500	-0.188	-0.182
-248.019	-143.091	0.233	0.022
-247.005	-200.000	-0.033	-0.229
-245.990	-200.000	0.008	0.113
-244.976	49.925	-0.098	0.092
-243.961	513.586	-0.167	0.388
-242.946	-200.000	0.022	0.207
-241.932	-64.653	-0.477	0.192
-240.917	2.300	0.093	0.067
-239.903	194.647	0.129	-0.194
-238.888	97.669	0.111	0.126
-237.873	-17.371	0.135	0.085
-236.859	555.788	-0.069	0.164
-235.844	308.510	-0.186	0.344
-234.830	235.129	-0.159	-0.261
-233.815	-65.337	-0.284	-0.114
-232.800	166.973	0.116	-0.164
-231.786	-9.781	-0.135	0.089
-230.771	-34.514	-0.252	0.137
-229.757	108.118	-0.145	0.172
-228.742	534.434	-0.055	0.130
-227.727	-130.885	-0.209	0.028
-226.713	-22.303	0.318	-0.192
-225.698	779.279	0.024	-0.064
-224.684	44.884	-0.163	0.149
-223.669	370.779	0.103	0.207
-222.655	-111.129	-0.092	-0.019
-221.640	389.702	-0.113	-0.233
-220.625	121.343	-0.212	-0.262
-219.611	38.827	0.199	-0.177
-218.596	2.213	0.158	0.113
-217.582	286.874	0.023	0.042
-216.567	28.184	0.148	0.124
-215.552	30.013	-0.057	0.048
-214.538	6.144	0.140	0.103
-213.523	-50.645	-0.205	0.096
-212.509	278.834	-0.110	-0.195
-211.494	800.000	0.083	0.229
-210.479	-125.929	-0.163	-0.024
-209.465	-29.655	0.125	-0.071
-208.450	236.872	0.061	-0.100
-207.436	-200.000	0.003	-0.274
-206.421	-52.787	0.232	-0.106
-205.406	800.000	0.019	0.077
-204.392	800.000	0.061	-0.214
-203.377	800.000	0.057	-0.210
-202.363	-184.735	-0.199	0.003
-201.348	4.565	-0.088	-0.064
-200.333	455.944	-0.092	-0.203
-199.319	800.000	-0.030	0.104
-198.304	-52.601	0.328	-0.150
-197.290	68.554	-0.238	0.243
-196.275	-200.000	-0.006	0.087
-195.260	-103.227	-0.176	0.041
-194.246	391.508	-0.143	-0.295
-193.231	-51.349	-0.226	-0.105
-192.217	-1.626	-0.261	0.182
-191.202	-35.424	-0.209	0.112
-190.187	-165.230	0.219	-0.010
-189.173	-14.776	0.099	-0.063
-188.158	-159.383	0.176	-0.010
-187.144	-200.000	0.014	-0.101
-186.129	-93.863	0.398	0.109
-185.114	-1.094	0.027	0.019
-184.100	800.000	0.045	-0.184
-183.085	245.983	0.039	0.065
-182.071	-139.824	0.514	0.054
-181.056	-76.228	0.330	-0.115
-180.042	198.527	-0.144	0.218
-179.027	-200.000	0.018	0.113
-178.012	48.901	0.128	0.119
-176.998	-85.250	0.212	-0.066
-175.983	-22.701	-0.104	-0.062
-174.969	22.062	-0.054	-0.044
-173.954	-50.147	0.325	0.153
-172.939	168.495	0.212	0.299
-171.925	-106.912	0.078	0.017
-170.910	-80.097	-0.291	-0.097
-169.896	386.079	0.041	0.085
-168.881	-41.846	0.196	0.099
-167.866	1.715	-0.185	0.132
-166.852	47.089	-0.024	0.022
-165.837	-10.578	0.240	-0.157
-164.823	223.699	0.111	-0.177
-163.808	756.304	-0.113	0.302
-162.793	-20.191	0.243	-0.148
-161.779	267.154	0.216	0.373
-160.764	-100.133	-0.197	0.049
-159.750	66.391	0.156	0.157
-158.735	-77.766	0.036	-0.012
-157.720	242.944	0.050	-0.082
-156.706	-61.182	-0.247	-0.103
-155.691	-12.176	0.082	-0.053
-154.677	59.492	0.232	0.227
-153.662	776.368	0.024	0.066
-152.647	-10.386	-0.192	0.126
-151.633	-200.000	-0.017	0.116
-150.618	-200.000	-0.003	0.230
-149.604	208.537	0.025	-0.039
-148.589	140.201	0.125	0.163
-147.574	-200.000	0.025	-0.185
-146.560	800.000	0.031	-0.094
-145.545	-65.111	0.052	-0.021
-144.531	171.554	-0.130	-0.185
-143.516	-109.039	-0.162	-0.034
-142.502	530.357	-0.106	0.247
-141.487	112.102	-0.150	0.179
-140.472	81.948	-0.264	0.284
-139.458	234.279	0.044	0.072
-138.443	-200.000	0.030	-0.461
-137.429	-200.000	0.002	0.128
-136.414	-75.839	0.197	0.069
-135.399	128.216	0.061	0.077
-134.385	63.830	-0.241	0.240
-133.370	5.870	0.060	0.044
-132.356	48.376	0.073	-0.068
-131.341	169.058	-0.099	-0.140
-130.326	89.812	0.199	-0.220
-129.312	342.291	0.107	0.207
-128.297	-17.596	0.408	-0.254
-127.283	-106.656	-0.299	-0.066
-126.268	497.028	0.128	0.291
-125.253	-120.619	-0.294	-0.049
-124.239	65.092	-0.026	-0.026
-123.224	-200.000	-0.008	-0.169
-122.210	350.707	-0.053	-0.104
-121.195	-38.993	0.104	-0.054
