DTS Sentinel unit serial number:	SN413079Multiplexer serial number:	ORYXHardware model number:	OX4-SRSoftware version number:	ORYX F/W v4.00 Oryx Data Collector v3.7.2.0data status	okinstallation	princeton_trtdifferential loss correction	single-endedforward channel	channel 2reverse channel	N/Adate	2019/09/15time	14:35:35forward acquisition time	60.00reverse acquisition time	0.00gamma	496.2192k internal	0.2298k external	0.2298temperature offset calibration	0.9989default loss term (dB/km)	0.3790temperature slope calibration	1.0000multiplexer offset coefficient	1.0000multiplexer slope coefficient	1.0000fibre end	0.00T internal ref (°C)	39.48T ext. ref 1 (°C)	4.89T ext. ref 2 (°C)	36.65length (m)	temperature (°C)	Stokes	anti-Stokes-747.200	800.000	0.020	-0.062
-746.185	-188.693	-0.469	-0.006
-745.171	800.000	0.075	0.249
-744.156	90.609	-0.187	-0.214
-743.142	800.000	-0.082	-0.323
-742.127	-200.000	0.006	-0.043
-741.112	-92.311	0.210	0.060
-740.098	-200.000	-0.026	0.258
-739.083	800.000	0.124	-0.354
-738.069	115.451	-0.152	0.189
-737.054	-20.926	0.473	-0.296
-736.039	191.286	-0.171	-0.262
-735.025	577.225	0.058	0.145
-734.010	-172.913	-0.386	0.012
-732.996	-169.625	-0.452	-0.017
-731.981	577.953	-0.057	-0.141
-730.966	-107.664	-0.035	0.008
-729.952	-200.000	0.023	-0.438
-728.937	-192.049	-0.298	-0.003
-727.923	37.025	-0.090	-0.081
-726.908	64.386	0.137	0.141
-725.894	668.211	-0.082	-0.217
-724.879	53.748	0.134	0.132
-723.864	28.797	-0.140	0.121
-722.850	246.401	-0.087	0.150
-721.835	-200.000	-0.035	-0.241
-720.821	246.132	-0.072	-0.124
-719.806	-92.467	0.239	-0.069
-718.791	-200.000	-0.027	0.168
-717.777	394.014	0.103	0.218
-716.762	-150.730	-0.150	0.012
-715.748	419.666	-0.076	-0.167
-714.733	4.118	0.059	-0.044
-713.718	41.948	-0.094	0.087
-712.704	586.541	-0.161	-0.404
-711.689	800.000	0.080	0.253
-710.675	68.328	-0.095	-0.099
-709.660	800.000	0.052	0.179
-708.645	50.350	-0.041	0.039
-707.631	-200.000	0.044	0.279
-706.616	800.000	0.047	0.188
-705.602	-23.852	0.202	0.123
-704.587	800.000	-0.125	-0.391
-703.572	168.953	-0.083	0.120
-702.558	-200.000	-0.017	-0.086
-701.543	-200.000	0.001	0.039
-700.529	-200.000	0.016	-0.081
-699.514	158.679	-0.064	0.090
-698.499	39.514	-0.123	0.113
-697.485	-30.512	-0.302	-0.174
-696.470	-200.000	0.003	-0.141
-695.456	-200.000	0.003	-0.234
-694.441	-166.918	-0.100	0.004
-693.426	634.096	-0.065	0.168
-692.412	34.727	0.315	0.280
-691.397	129.971	-0.048	0.063
-690.383	-79.726	0.120	0.041
-689.368	800.000	-0.063	-0.246
-688.354	-38.565	-0.334	0.180
-687.339	-200.000	-0.044	-0.343
-686.324	357.709	0.146	0.296
-685.310	-36.884	-0.073	0.040
-684.295	219.338	0.024	0.039
-683.281	50.027	0.193	-0.185
-682.266	237.690	0.146	-0.247
-681.251	572.470	-0.097	-0.240
-680.237	43.959	0.267	0.249
-679.222	265.031	-0.162	-0.287
-678.208	210.669	-0.271	0.434
-677.193	-28.479	0.106	0.062
-676.178	64.719	-0.118	-0.121
-675.164	411.033	0.098	0.212
-674.149	-117.328	-0.313	-0.058
-673.135	209.248	-0.074	0.118
-672.120	75.457	-0.097	-0.104
-671.105	800.000	0.029	0.113
-670.091	-200.000	0.003	-0.176
-669.076	800.000	-0.023	-0.085
-668.062	-111.202	0.242	-0.050
-667.047	599.873	0.006	-0.015
-666.032	-88.652	-0.313	-0.095
-665.018	-168.408	0.132	-0.005
-664.003	-154.305	0.106	-0.007
-662.989	-13.225	-0.063	-0.042
-661.974	-54.829	0.258	0.118
-660.959	126.639	-0.066	-0.085
-659.945	-200.000	0.014	0.397
-658.930	-134.639	-0.149	0.018
-657.916	612.226	0.100	-0.255
-656.901	18.639	-0.235	-0.191
-655.886	-52.288	-0.168	-0.079
-654.872	-200.000	-0.027	-0.320
-653.857	-76.853	0.085	-0.030
-652.843	-150.513	-0.272	-0.021
-651.828	-110.688	-0.280	-0.059
-650.814	77.232	0.105	-0.113
-649.799	178.363	-0.096	0.142
-648.784	-105.835	0.164	0.038
-647.770	-200.000	0.030	-0.227
-646.755	40.894	-0.109	0.100
-645.741	-121.845	-0.241	-0.040
-644.726	-103.630	0.101	0.024
-643.711	712.164	0.072	-0.193
-642.697	-184.445	0.221	-0.004
-641.682	-200.000	-0.051	-0.292
-640.668	-200.000	0.025	0.190
-639.653	-147.777	0.123	-0.011
-638.638	800.000	-0.048	0.160
-637.624	48.984	-0.136	-0.129
-636.609	-200.000	-0.033	-0.383
-635.595	66.527	-0.069	-0.071
-634.580	281.584	-0.091	0.166
-633.565	80.241	0.197	0.216
-632.551	800.000	-0.018	0.058
-631.536	-200.000	0.031	0.147
-630.522	-54.327	0.076	0.035
-629.507	800.000	-0.063	0.273
-628.492	-200.000	0.048	0.324
-627.478	-200.000	-0.003	-0.177
-626.463	239.442	-0.091	0.155
-625.449	800.000	0.065	0.213
-624.434	171.065	-0.022	-0.032
-623.419	144.011	0.074	-0.100
-622.405	-91.835	-0.427	0.123
-621.390	205.859	-0.006	0.010
-620.376	-10.990	-0.093	0.063
-619.361	-107.864	0.142	0.032
-618.346	-77.841	-0.267	-0.094
-617.332	-30.793	0.166	-0.096
-616.317	112.363	-0.052	-0.064
-615.303	-12.302	-0.288	0.191
-614.288	106.741	0.122	-0.147
-613.273	-86.099	0.302	0.095
-612.259	616.491	-0.084	-0.214
-611.244	269.234	-0.129	0.230
-610.230	91.805	0.048	0.055
-609.215	-95.592	-0.026	0.007
-608.201	-84.825	-0.180	-0.057
-607.186	306.108	0.106	0.200
-606.171	1.857	0.210	0.153
-605.157	270.152	0.223	-0.398
-604.142	-200.000	-0.027	0.232
-603.128	-200.000	-0.047	-0.232
-602.113	-128.802	0.523	-0.075
-601.098	121.689	0.102	-0.129
-600.084	-200.000	-0.005	-0.181
-599.069	-59.857	0.105	-0.046
-598.055	-200.000	-0.002	0.268
-597.040	-200.000	0.008	0.135
-596.025	-170.041	-0.182	0.007
-595.011	214.804	-0.223	0.359
-593.996	800.000	0.043	-0.129
-592.982	165.784	-0.118	-0.170
-591.967	-137.678	0.268	0.031
-590.952	-143.001	-0.104	-0.010
-589.938	97.576	-0.236	-0.275
-588.923	0.557	-0.080	0.058
-587.909	-200.000	-0.026	-0.164
-586.894	-27.109	0.092	0.055
-585.879	-20.606	-0.219	-0.136
-584.865	-0.358	0.232	-0.168
-583.850	-19.510	-0.086	0.054
-582.836	31.645	-0.137	-0.119
-581.821	800.000	-0.115	0.366
-580.806	-176.310	-0.178	-0.005
-579.792	2.870	0.126	0.093
-578.777	249.621	-0.077	0.133
-577.763	0.526	0.102	-0.074
-576.748	-22.205	-0.214	0.132
-575.733	300.025	0.098	-0.183
-574.719	-200.000	-0.008	-0.305
-573.704	579.189	-0.122	0.304
-572.690	300.273	0.146	-0.273
-571.675	-200.000	-0.030	0.203
-570.661	-200.000	0.005	0.372
-569.646	-200.000	-0.021	-0.269
-568.631	-200.000	0.034	0.226
-567.617	-200.000	0.012	0.111
-566.602	146.281	-0.186	-0.253
-565.588	-35.916	-0.220	-0.121
-564.573	254.357	-0.168	0.291
-563.558	285.424	0.047	0.085
-562.544	-111.344	-0.116	0.024
-561.529	79.913	0.154	-0.168
-560.515	-52.502	-0.115	0.054
-559.500	29.960	-0.124	0.107
-558.485	-109.935	-0.103	0.022
-557.471	-43.062	-0.268	0.138
-556.456	-200.000	0.185	-0.001
-555.442	253.896	0.074	-0.127
-554.427	-2.173	-0.065	-0.046
-553.412	739.749	0.025	-0.068
-552.398	-145.047	0.047	0.004
-551.383	7.299	-0.265	-0.201
-550.369	-3.612	0.154	-0.108
-549.354	4.885	0.218	-0.162
-548.339	509.896	-0.109	0.257
-547.325	319.977	-0.185	0.355
-546.310	800.000	0.057	-0.249
-545.296	422.603	0.093	-0.203
-544.281	133.510	0.094	0.123
-543.266	464.824	0.224	-0.507
-542.252	-110.410	0.135	-0.028
-541.237	-200.000	-0.009	0.051
-540.223	-78.966	-0.154	-0.053
-539.208	511.894	-0.200	-0.471
-538.193	-35.209	-0.258	-0.142
-537.179	-139.264	-0.066	-0.007
-536.164	171.593	-0.344	-0.501
-535.150	-200.000	0.028	0.198
-534.135	203.536	0.036	0.056
-533.121	272.084	0.192	-0.343
-532.106	85.016	0.074	0.082
-531.091	557.664	-0.177	0.431
-530.077	-100.650	-0.270	-0.067
-529.062	208.638	0.129	0.205
-528.048	-105.258	0.102	0.024
-527.033	-34.229	0.232	0.129
-526.018	-142.789	0.093	-0.009
-525.004	-160.158	-0.256	-0.014
-523.989	-58.011	-0.080	-0.035
-522.975	-20.397	-0.165	0.102
-521.960	-77.224	0.271	0.096
-520.945	-84.043	0.333	0.107
-519.931	-161.856	-0.396	-0.020
-518.916	151.314	-0.119	-0.164
-517.902	800.000	-0.082	-0.237
-516.887	-126.607	-0.312	0.047
-515.872	119.097	-0.184	-0.230
-514.858	800.000	-0.045	-0.171
-513.843	-200.000	-0.006	0.257
-512.829	156.404	0.170	0.238
-511.814	-21.712	0.143	-0.088
-510.799	-114.412	-0.208	-0.040
-509.785	-200.000	0.051	-0.356
-508.770	-200.000	0.010	0.187
-507.756	45.345	0.277	-0.259
-506.741	-200.000	-0.015	0.274
-505.726	-102.376	0.165	-0.040
-504.712	507.784	0.053	0.125
-503.697	-200.000	0.029	0.240
-502.683	-200.000	-0.010	0.212
-501.668	800.000	0.076	0.308
-500.653	412.652	-0.076	-0.163
-499.639	72.308	-0.108	0.114
-498.624	-107.904	-0.339	-0.075
-497.610	-141.291	-0.100	0.010
-496.595	82.876	0.189	0.207
-495.581	-200.000	0.040	0.244
-494.566	171.900	-0.031	0.045
-493.551	-122.637	0.276	-0.045
-492.537	35.944	-0.196	-0.174
-491.522	-125.176	-0.094	0.015
-490.508	800.000	-0.178	-0.501
-489.493	-200.000	0.035	-0.320
-488.478	-195.235	0.377	0.003
-487.464	282.606	-0.025	-0.046
-486.449	-200.000	0.017	-0.178
-485.435	634.294	0.090	-0.230
-484.420	-2.546	0.275	-0.195
-483.405	-156.723	0.211	-0.013
-482.391	228.056	-0.190	0.312
-481.376	271.564	-0.041	0.074
-480.362	-41.361	0.284	-0.148
-479.347	133.292	0.092	0.120
-478.332	-104.874	0.346	0.080
-477.318	291.845	0.167	-0.307
-476.303	-200.000	-0.036	-0.164
-475.289	276.679	0.136	-0.244
-474.274	-21.542	-0.072	-0.044
-473.259	-200.000	0.036	-0.194
-472.245	-97.913	0.251	-0.065
-471.230	-200.000	0.074	-0.410
-470.216	-71.031	-0.151	0.057
-469.201	161.373	0.060	0.085
-468.186	-69.608	0.022	0.009
-467.172	-118.837	-0.051	-0.009
-466.157	228.726	0.151	0.248
-465.143	687.523	-0.043	0.114
-464.128	-73.058	0.270	-0.100
-463.113	-37.261	0.315	-0.170
-462.099	105.059	0.075	-0.089
-461.084	-137.976	-0.108	0.012
-460.070	-170.822	0.104	0.004
-459.055	-160.790	-0.172	-0.009
-458.040	-200.000	-0.061	-0.279
-457.026	388.901	-0.045	-0.093
-456.011	64.749	0.105	0.107
-454.997	-26.748	0.049	0.029
-453.982	18.200	-0.069	-0.056
-452.968	162.068	0.129	0.182
-451.953	69.247	0.119	-0.123
-450.938	-56.550	0.226	-0.101
-449.924	-23.000	-0.173	0.105
-448.909	-51.772	0.268	-0.126
-447.895	-56.247	0.181	-0.081
-446.880	11.910	-0.388	-0.301
-445.865	369.416	0.169	-0.344
-444.851	784.314	-0.132	-0.365
-443.836	-68.969	-0.062	-0.024
-442.822	-200.000	-0.003	-0.183
-441.807	-200.000	-0.053	-0.413
-440.792	-108.272	0.354	0.077
-439.778	-200.000	0.010	-0.060
-438.763	-135.198	-0.230	-0.028
-437.749	38.077	-0.216	-0.193
-436.734	27.459	-0.078	0.066
-435.719	-38.726	-0.426	-0.227
-434.705	-200.000	0.078	-0.443
-433.690	-8.589	0.162	-0.110
-432.676	-200.000	0.001	0.117
-431.661	207.586	0.174	0.274
-430.646	-32.911	0.193	0.108
-429.632	-57.004	-0.190	0.085
-428.617	14.488	-0.350	-0.275
-427.603	203.485	-0.169	-0.263
-426.588	800.000	0.035	-0.126
-425.573	-65.957	-0.203	0.082
-424.559	162.292	-0.076	0.107
-423.544	545.557	0.098	0.237
-422.530	297.071	-0.055	0.101
-421.515	199.709	-0.216	0.334
-420.500	800.000	-0.032	-0.096
-419.486	-200.000	0.006	-0.112
-418.471	642.686	0.098	-0.252
-417.457	114.720	0.099	0.122
-416.442	-102.470	0.109	0.026
-415.428	-200.000	0.014	-0.087
-414.413	320.432	-0.128	0.246
-413.398	800.000	0.054	0.154
-412.384	151.133	0.156	-0.213
-411.369	-200.000	0.026	-0.154
-410.355	402.729	0.137	0.291
-409.340	-200.000	0.015	-0.257
-408.325	-200.000	-0.004	0.161
-407.311	-200.000	-0.027	-0.135
-406.296	138.071	0.192	0.254
-405.282	71.128	0.147	0.154
-404.267	-109.348	0.238	0.051
-403.252	-150.972	-0.072	-0.005
-402.238	-200.000	-0.006	-0.051
-401.223	690.470	-0.145	-0.384
-400.209	-5.670	-0.073	-0.050
-399.194	10.427	0.317	-0.243
-398.179	62.520	0.131	0.132
-397.165	800.000	0.078	0.319
-396.150	-112.133	-0.471	-0.095
-395.136	-159.681	-0.354	-0.020
-394.121	80.764	-0.243	-0.264
-393.106	80.335	0.419	-0.454
-392.092	609.526	0.086	-0.217
-391.077	-134.872	-0.527	-0.064
-390.063	800.000	-0.073	-0.283
-389.048	-119.514	0.282	0.049
-388.033	-28.225	-0.432	-0.251
-387.019	-200.000	-0.026	0.245
-386.004	-173.755	0.014	-0.000
-384.990	283.470	0.098	0.177
-383.975	61.683	-0.296	0.296
-382.960	85.686	0.070	-0.078
-381.946	-54.699	0.214	0.098
-380.931	351.515	0.037	-0.073
-379.917	173.587	-0.108	0.156
-378.902	41.988	-0.232	0.211
-377.888	-49.564	-0.156	-0.075
-376.873	80.947	-0.149	-0.161
-375.858	127.276	-0.125	0.159
-374.844	-105.969	0.321	0.073
-373.829	-39.055	-0.221	-0.117
-372.815	115.139	-0.053	-0.065
-371.800	147.824	0.145	-0.197
-370.785	-200.000	-0.012	0.078
-369.771	-88.172	-0.267	-0.080
-368.756	-107.270	-0.059	-0.013
-367.742	-115.059	-0.259	-0.049
-366.727	-81.836	-0.086	0.028
-365.712	11.629	0.183	-0.141
-364.698	136.123	0.096	0.125
-363.683	281.603	-0.043	-0.077
-362.669	113.271	-0.321	-0.392
-361.654	75.227	0.095	0.100
-360.639	-57.151	0.097	-0.043
-359.625	-99.067	0.112	-0.029
-358.610	-97.241	0.214	-0.056
-357.596	1.905	-0.089	0.064
-356.581	77.134	-0.089	-0.095
-355.566	-49.138	-0.258	-0.124
-354.552	-200.000	0.026	-0.123
-353.537	35.817	-0.136	-0.121
-352.523	800.000	0.036	0.102
-351.508	-125.467	0.085	-0.013
-350.493	179.890	0.147	0.216
-349.479	188.155	0.078	0.117
-348.464	800.000	0.032	-0.117
-347.450	-115.230	0.259	0.049
-346.435	69.926	0.234	0.243
-345.420	-200.000	0.004	0.236
-344.406	800.000	-0.112	0.315
-343.391	174.598	-0.132	0.192
-342.377	127.967	-0.228	0.291
-341.362	194.813	-0.265	-0.403
-340.348	562.878	-0.082	-0.200
-339.333	-31.224	0.262	0.148
-338.318	76.427	-0.057	-0.061
-337.304	123.951	-0.115	-0.146
-336.289	-65.288	-0.179	-0.072
-335.275	261.974	0.114	0.199
-334.260	-195.095	-0.228	-0.002
-333.245	291.812	0.019	0.035
-332.231	86.660	-0.136	-0.150
-331.216	-91.894	0.148	-0.042
-330.202	-86.264	0.347	0.107
-329.187	174.583	0.192	0.278
-328.172	135.204	0.087	0.114
-327.158	-200.000	-0.011	-0.131
-326.143	12.198	0.276	-0.213
-325.129	-66.305	0.166	0.066
-324.114	-73.296	0.255	0.094
-323.099	800.000	-0.063	0.175
-322.085	800.000	-0.048	0.180
-321.070	58.495	0.320	0.315
-320.056	-65.507	0.102	0.041
-319.041	800.000	-0.012	0.044
-318.026	321.551	-0.102	-0.194
-317.012	714.128	-0.094	0.250
-315.997	-142.968	0.299	-0.029
-314.983	800.000	-0.052	-0.222
-313.968	-138.474	-0.221	0.024
-312.953	63.970	0.232	0.234
-311.939	-61.286	-0.216	-0.091
-310.924	78.734	-0.147	0.158
-309.910	-200.000	-0.003	-0.071
-308.895	-200.000	0.026	0.207
-307.880	190.777	0.232	0.350
-306.866	-76.926	-0.235	0.082
-305.851	-83.842	0.263	0.084
-304.837	48.224	-0.030	-0.028
-303.822	-200.000	-0.010	0.173
-302.807	17.524	0.278	-0.222
-301.793	101.174	-0.102	0.119
-300.778	800.000	0.085	0.251
-299.764	61.044	-0.338	0.337
-298.749	-27.691	-0.403	0.235
-297.735	-9.876	-0.143	0.096
-296.720	800.000	0.116	-0.462
-295.705	-116.757	0.246	-0.045
-294.691	800.000	-0.074	-0.249
-293.676	-89.048	0.476	0.141
-292.662	-200.000	0.035	0.431
-291.647	51.261	0.057	-0.055
-290.632	279.380	0.141	0.252
-289.618	-112.116	-0.211	0.043
-288.603	164.962	-0.106	-0.150
-287.589	449.057	-0.097	0.214
-286.574	530.690	-0.140	0.333
-285.559	-60.032	0.149	-0.064
-284.545	-7.544	-0.022	0.015
-283.530	13.720	-0.243	-0.189
-282.516	-151.873	0.129	-0.009
-281.501	-96.292	-0.161	0.043
-280.486	-93.695	0.274	0.076
-279.472	-60.239	0.113	-0.048
-278.457	158.612	-0.362	0.504
-277.443	-81.104	-0.127	-0.042
-276.428	800.000	-0.079	0.335
-275.413	-162.403	-0.136	-0.007
-274.399	63.172	0.142	-0.142
-273.384	-200.000	0.254	-0.001
-272.370	185.179	0.121	0.179
-271.355	-10.717	0.225	0.149
-270.340	630.054	-0.032	-0.082
-269.326	-139.454	0.026	-0.003
-268.311	-16.921	-0.112	-0.071
-267.297	430.355	0.059	0.128
-266.282	-200.000	0.006	0.207
-265.267	346.678	-0.103	-0.202
-264.253	800.000	-0.031	0.123
-263.238	135.920	0.222	-0.289
-262.224	223.301	-0.216	0.348
-261.209	-96.184	-0.160	0.043
-260.195	-47.076	-0.045	-0.022
-259.180	-2.965	-0.335	-0.234
-258.165	401.668	0.055	-0.115
-257.151	-87.655	0.127	-0.038
-256.136	800.000	0.109	0.378
-255.122	-200.000	0.049	0.321
-254.107	-146.564	0.148	-0.013
-253.092	-74.282	0.377	-0.137
-252.078	-200.000	0.001	-0.098
-251.063	486.725	-0.049	-0.111
-250.049	53.596	0.170	-0.164
-249.034	111.701	-0.138	0.167
-248.019	-10.448	-0.097	-0.064
-247.005	-200.000	0.029	-0.208
-245.990	800.000	-0.020	0.069
-244.976	727.232	-0.058	-0.154
-243.961	-200.000	0.006	-0.340
-242.946	11.262	-0.226	0.173
-241.932	-200.000	0.028	0.383
-240.917	301.375	0.221	0.408
-239.903	44.468	0.140	-0.129
-238.888	-93.288	-0.242	0.067
-237.873	-84.753	0.338	-0.107
-236.859	52.549	0.181	0.173
-235.844	76.940	0.148	0.157
-234.830	76.260	0.165	-0.175
-233.815	239.103	0.150	-0.250
-232.800	6.908	-0.353	-0.263
-231.786	-47.532	-0.159	0.077
-230.771	-121.741	-0.128	-0.021
-229.757	-67.993	-0.179	0.070
-228.742	-191.209	0.299	-0.003
-227.727	800.000	0.073	0.232
-226.713	-11.676	0.086	0.056
-225.698	-112.993	-0.153	-0.030
-224.684	-102.417	0.256	-0.061
-223.669	-28.793	0.167	0.096
-222.655	-83.699	-0.098	0.031
-221.640	-130.580	-0.128	0.017
-220.625	-200.000	-0.049	0.000
-219.611	726.916	0.057	-0.153
-218.596	-107.677	-0.357	-0.078
-217.582	10.863	0.158	-0.121
-216.567	-200.000	-0.019	0.104
-215.552	502.490	-0.034	0.078
-214.538	300.142	-0.026	-0.049
-213.523	-75.858	-0.093	-0.033
-212.509	61.367	0.475	-0.472
-211.494	-14.157	-0.088	0.057
-210.479	800.000	-0.080	-0.271
-209.465	-200.000	-0.061	-0.299
-208.450	67.104	0.212	0.217
-207.436	91.573	0.055	-0.062
-206.421	-53.204	0.112	-0.051
-205.406	187.624	0.254	0.379
-204.392	800.000	-0.068	0.192
-203.377	-24.868	0.221	-0.131
-202.363	-123.475	-0.110	0.018
-201.348	800.000	0.127	-0.375
-200.333	32.127	0.170	0.146
-199.319	179.569	0.163	0.238
-198.304	-82.338	-0.421	-0.137
-197.290	149.105	0.088	0.118
-196.275	-52.121	0.194	-0.090
-195.260	277.805	-0.073	0.131
-194.246	69.409	-0.108	0.111
-193.231	52.390	-0.045	0.043
-192.217	-156.035	0.110	-0.007
-191.202	629.627	-0.158	-0.400
-190.187	35.009	0.144	0.126
-189.173	-54.280	-0.062	0.028
-188.158	-39.214	-0.339	0.178
-187.144	800.000	-0.045	-0.146
-186.129	74.824	-0.153	-0.161
-185.114	800.000	0.045	0.178
-184.100	645.921	-0.049	0.124
-183.085	-31.255	0.211	0.119
-182.071	-25.166	0.100	-0.059
-181.056	800.000	0.009	-0.034
-180.042	-6.624	-0.174	-0.119
-179.027	-110.114	0.374	0.078
-178.012	-183.763	0.247	0.004
-176.998	-200.000	0.023	-0.267
-175.983	194.841	0.038	0.058
-174.969	477.446	0.095	-0.214
-173.954	800.000	-0.075	-0.215
-172.939	53.846	-0.154	-0.148
-171.925	-26.370	-0.084	0.049
-170.910	800.000	-0.064	0.182
-169.896	-200.000	0.000	-0.264
-168.881	-112.576	-0.264	-0.053
-167.866	-80.729	0.011	0.004
-166.852	188.015	-0.036	-0.053
-165.837	-200.000	-0.018	0.155
-164.823	225.963	0.101	-0.163
-163.808	-200.000	-0.009	0.189
-162.793	332.500	-0.123	0.237
-161.779	-63.300	-0.288	0.119
-160.764	194.650	-0.244	0.369
-159.750	635.068	0.156	0.395
-158.735	800.000	-0.077	0.319
-157.720	-164.526	0.407	0.018
-156.706	-200.000	-0.042	-0.193
-155.691	-83.233	-0.243	0.078
-154.677	168.962	-0.221	0.314
-153.662	32.067	-0.169	0.145
-152.647	652.642	0.075	0.192
-151.633	100.266	0.136	0.157
-150.618	69.463	0.194	-0.199
-149.604	800.000	-0.083	-0.278
-148.589	-200.000	-0.040	-0.234
-147.574	304.867	-0.129	-0.239
-146.560	-132.234	0.040	0.005
-145.545	-41.729	0.301	0.154
-144.531	800.000	0.048	0.139
-143.516	54.650	-0.236	-0.227
-142.502	-5.538	0.398	-0.273
-141.487	-200.000	-0.007	0.095
-140.472	22.436	-0.258	0.210
-139.458	452.945	-0.018	0.040
-138.443	-66.702	0.436	-0.172
-137.429	-114.005	-0.019	0.004
-136.414	800.000	-0.047	0.184
-135.399	417.358	0.096	-0.204
-134.385	-145.651	0.440	0.039
-133.370	-92.307	-0.148	-0.042
-132.356	-107.725	-0.215	0.047
-131.341	425.986	-0.063	-0.134
-130.326	-22.185	0.110	0.066
-129.312	573.729	-0.041	0.099
-128.297	-200.000	0.035	-0.220
-127.283	141.571	0.181	-0.239
-126.268	-60.523	-0.295	-0.125
-125.253	-155.273	0.134	-0.009
-124.239	75.621	0.074	-0.078
-123.224	-152.375	0.280	0.020
-122.210	-200.000	0.021	0.253
