DTS Sentinel unit serial number:	SN413079Multiplexer serial number:	ORYXHardware model number:	OX4-SRSoftware version number:	ORYX F/W v4.00 Oryx Data Collector v3.7.2.0data status	okinstallation	princeton_trtdifferential loss correction	single-endedforward channel	channel 2reverse channel	N/Adate	2019/09/12time	12:37:11forward acquisition time	60.00reverse acquisition time	0.00gamma	496.2192k internal	0.2298k external	0.2298temperature offset calibration	1.0080default loss term (dB/km)	0.3790temperature slope calibration	1.0000multiplexer offset coefficient	1.0000multiplexer slope coefficient	1.0000fibre end	0.00T internal ref (°C)	40.44T ext. ref 1 (°C)	2.02T ext. ref 2 (°C)	35.71length (m)	temperature (°C)	Stokes	anti-Stokes-747.200	31.247	0.348	0.305
-746.185	800.000	0.108	0.328
-745.171	-200.000	-0.003	-0.041
-744.156	800.000	0.034	0.121
-743.142	-200.000	0.057	0.266
-742.127	-149.925	0.160	-0.013
-741.112	-71.043	-0.214	0.082
-740.098	-200.000	-0.019	0.259
-739.083	-37.439	-0.221	-0.120
-738.069	-200.000	-0.087	0.412
-737.054	-137.182	-0.235	-0.027
-736.039	8.832	-0.144	0.111
-735.025	788.239	0.077	0.217
-734.010	-155.901	-0.133	-0.009
-732.996	-145.460	-0.509	-0.047
-731.981	800.000	0.112	0.435
-730.966	-97.927	-0.362	-0.095
-729.952	-200.000	0.015	-0.209
-728.937	492.516	0.102	0.238
-727.923	196.929	0.125	-0.194
-726.908	-86.629	-0.266	-0.083
-725.894	-156.265	-0.211	0.014
-724.879	48.834	-0.344	0.330
-723.864	146.557	-0.075	0.102
-722.850	-200.000	0.003	0.122
-721.835	800.000	0.076	0.263
-720.821	800.000	-0.053	-0.218
-719.806	28.851	-0.136	0.118
-718.791	-60.094	-0.314	-0.137
-717.777	425.018	-0.021	0.047
-716.762	-89.696	-0.279	-0.083
-715.748	105.369	0.157	-0.189
-714.733	389.489	0.058	0.123
-713.718	92.501	0.089	0.102
-712.704	90.716	0.274	-0.313
-711.689	38.190	0.280	-0.254
-710.675	-100.883	-0.435	-0.109
-709.660	294.504	-0.107	-0.200
-708.645	-65.152	-0.136	-0.056
-707.631	70.935	-0.055	-0.058
-706.616	-92.910	0.151	-0.043
-705.602	138.389	0.080	-0.107
-704.587	35.169	-0.404	-0.361
-703.572	-103.808	-0.232	-0.055
-702.558	7.760	0.079	-0.060
-701.543	-107.962	0.207	-0.046
-700.529	-65.698	0.186	-0.076
-699.514	800.000	0.088	0.290
-698.499	174.335	0.105	-0.155
-697.485	31.420	0.288	0.253
-696.470	-200.000	-0.016	-0.326
-695.456	-100.660	-0.084	-0.021
-694.441	800.000	-0.046	-0.171
-693.426	-8.091	-0.344	0.236
-692.412	-50.604	-0.067	-0.032
-691.397	-21.287	0.131	-0.081
-690.383	112.982	-0.254	-0.314
-689.368	-60.523	-0.358	0.155
-688.354	16.022	-0.161	0.130
-687.339	-34.530	-0.156	-0.087
-686.324	-31.683	0.227	-0.130
-685.310	800.000	-0.047	-0.148
-684.295	-200.000	0.004	-0.284
-683.281	-97.848	0.055	-0.014
-682.266	80.610	0.283	0.311
-681.251	800.000	0.082	-0.288
-680.237	-27.561	-0.173	-0.102
-679.222	95.792	-0.263	-0.305
-678.208	-200.000	0.011	0.271
-677.193	-200.000	0.037	0.296
-676.178	800.000	0.040	0.154
-675.164	27.840	0.276	-0.237
-674.149	160.458	0.083	-0.118
-673.135	-200.000	0.108	-0.667
-672.120	-200.000	-0.023	-0.445
-671.105	800.000	0.017	0.065
-670.091	-200.000	0.002	0.107
-669.076	-200.000	0.060	-0.289
-668.062	-200.000	-0.011	-0.264
-667.047	-9.912	0.235	0.159
-666.032	800.000	-0.007	0.032
-665.018	639.719	-0.166	0.429
-664.003	-200.000	0.052	-0.357
-662.989	-200.000	0.006	0.340
-661.974	800.000	0.066	-0.237
-660.959	-63.495	-0.147	-0.061
-659.945	800.000	0.164	0.482
-658.930	408.812	-0.210	-0.452
-657.916	17.052	-0.295	-0.238
-656.901	-200.000	0.033	0.275
-655.886	34.358	0.203	0.180
-654.872	-200.000	-0.002	-0.091
-653.857	-200.000	-0.010	-0.291
-652.843	-163.470	0.362	-0.018
-651.828	171.021	0.091	-0.132
-650.814	-12.950	-0.239	-0.158
-649.799	-200.000	-0.036	-0.520
-648.784	179.706	-0.327	-0.488
-647.770	219.182	-0.119	-0.194
-646.755	-200.000	0.007	0.369
-645.741	-77.799	0.098	0.035
-644.726	-200.000	0.021	0.174
-643.711	-59.541	-0.181	0.079
-642.697	378.147	0.020	-0.041
-641.682	-200.000	0.017	0.409
-640.668	-41.966	0.226	-0.117
-639.653	-68.568	0.176	0.070
-638.638	337.948	0.068	0.135
-637.624	492.150	-0.047	0.109
-636.609	-200.000	-0.037	-0.270
-635.595	-200.000	-0.004	-0.076
-634.580	45.409	-0.127	-0.119
-633.565	-115.372	0.234	0.045
-632.551	-200.000	-0.037	-0.240
-631.536	425.455	0.053	-0.115
-630.522	-8.118	-0.212	-0.145
-629.507	-164.340	-0.223	0.010
-628.492	-200.000	0.505	-0.001
-627.478	389.301	-0.037	0.079
-626.463	-95.114	-0.351	-0.096
-625.449	-176.892	-0.162	0.004
-624.434	30.455	0.179	0.155
-623.419	-200.000	0.002	0.042
-622.405	480.525	-0.052	0.119
-621.390	-16.581	0.323	0.208
-620.376	-200.000	-0.056	0.487
-619.361	-114.973	0.348	0.067
-618.346	267.650	-0.097	-0.173
-617.332	391.810	-0.120	0.253
-616.317	64.384	-0.221	0.227
-615.303	7.303	0.136	-0.103
-614.288	134.379	-0.216	0.284
-613.273	269.782	-0.150	0.267
-612.259	-200.000	-0.028	-0.426
-611.244	169.679	-0.050	0.072
-610.230	-200.000	-0.053	-0.237
-609.215	-128.633	0.139	-0.020
-608.201	-29.438	-0.232	-0.135
-607.186	19.675	0.129	-0.105
-606.171	193.815	-0.081	-0.125
-605.157	628.429	-0.106	0.272
-604.142	800.000	0.053	0.204
-603.128	-123.736	-0.180	0.029
-602.113	39.735	0.277	0.252
-601.098	800.000	0.055	0.239
-600.084	148.447	-0.069	-0.095
-599.069	-17.200	0.135	-0.086
-598.055	-200.000	-0.058	-0.327
-597.040	-51.892	-0.069	-0.033
-596.025	91.248	-0.068	-0.077
-595.011	-1.904	0.108	-0.077
-593.996	-200.000	-0.020	-0.313
-592.982	37.321	-0.095	-0.086
-591.967	16.969	-0.044	-0.035
-590.952	-36.870	-0.065	-0.035
-589.938	351.460	0.028	-0.057
-588.923	-169.395	-0.134	-0.005
-587.909	800.000	0.080	-0.267
-586.894	-88.912	0.177	0.053
-585.879	-53.834	0.124	-0.057
-584.865	-62.877	-0.097	0.041
-583.850	-147.809	0.069	-0.006
-582.836	73.182	0.176	-0.187
-581.821	202.902	-0.139	0.218
-580.806	197.881	-0.070	-0.109
-579.792	85.961	-0.127	0.142
-578.777	-77.733	-0.192	-0.067
-577.763	-24.421	-0.168	-0.101
-576.748	-200.000	0.040	0.241
-575.733	-73.473	-0.227	-0.084
-574.719	-113.407	0.189	-0.038
-573.704	800.000	0.155	-0.501
-572.690	-200.000	0.148	-0.765
-571.675	165.698	0.223	-0.320
-570.661	149.747	-0.296	0.407
-569.646	800.000	-0.088	0.295
-568.631	-13.513	-0.176	0.115
-567.617	44.288	-0.045	-0.042
-566.602	-24.731	0.194	0.117
-565.588	349.962	-0.098	-0.197
-564.573	-3.784	0.095	0.067
-563.558	171.173	0.087	-0.126
-562.544	-58.841	-0.035	0.016
-561.529	354.686	-0.111	0.223
-560.515	114.129	-0.111	-0.137
-559.500	-31.634	-0.084	-0.048
-558.485	625.167	-0.078	-0.199
-557.471	623.449	-0.111	0.283
-556.456	-1.780	0.260	-0.185
-555.442	-200.000	-0.008	-0.146
-554.427	-11.624	-0.115	-0.077
-553.412	-200.000	-0.027	-0.216
-552.398	480.255	-0.147	-0.338
-551.383	-200.000	-0.003	0.053
-550.369	-200.000	-0.027	0.325
-549.354	800.000	-0.034	0.111
-548.339	800.000	-0.064	0.249
-547.325	158.290	-0.247	-0.347
-546.310	97.871	-0.188	0.219
-545.296	30.011	0.427	0.369
-544.281	75.511	-0.282	0.301
-543.266	37.353	0.131	-0.118
-542.252	800.000	-0.052	-0.177
-541.237	201.964	-0.073	-0.114
-540.223	-200.000	-0.001	-0.194
-539.208	16.031	-0.043	-0.035
-538.193	14.781	0.046	-0.037
-537.179	-179.552	-0.251	0.006
-536.164	-14.490	0.177	0.115
-535.150	85.979	0.018	-0.020
-534.135	176.600	0.028	0.041
-533.121	59.318	0.161	0.160
-532.106	78.096	-0.297	-0.321
-531.091	-15.528	-0.148	0.095
-530.077	648.825	-0.070	-0.181
-529.062	-13.089	-0.114	0.075
-528.048	-42.725	-0.189	-0.097
-527.033	800.000	0.008	0.024
-526.018	-156.132	0.241	0.015
-525.004	800.000	-0.095	-0.387
-523.989	119.836	-0.102	0.128
-522.975	-200.000	0.041	0.193
-521.960	44.838	0.154	-0.143
-520.945	-200.000	0.077	-0.388
-519.931	186.273	0.044	0.067
-518.916	-50.297	0.138	-0.066
-517.902	-33.880	-0.186	-0.103
-516.887	108.032	0.126	0.151
-515.872	-15.408	0.224	0.145
-514.858	4.939	-0.216	0.161
-513.843	-129.771	-0.149	-0.021
-512.829	-129.738	0.351	0.049
-511.814	204.701	-0.109	-0.172
-510.799	72.957	-0.179	-0.189
-509.785	136.326	0.193	0.255
-508.770	-82.647	0.216	-0.071
-507.756	-200.000	-0.071	0.421
-506.741	15.204	-0.151	-0.120
-505.726	-90.895	-0.153	-0.045
-504.712	72.507	-0.032	0.034
-503.697	517.120	0.051	-0.120
-502.683	229.810	-0.026	0.043
-501.668	-107.823	0.185	-0.041
-500.653	800.000	-0.093	0.343
-499.639	153.238	0.019	-0.026
-498.624	290.065	0.076	-0.139
-497.610	47.562	0.184	0.174
-496.595	-98.421	0.369	-0.096
-495.581	596.831	0.091	-0.227
-494.566	-122.421	-0.146	-0.024
-493.551	-2.290	-0.040	0.029
-492.537	190.509	-0.214	0.325
-491.522	-77.149	-0.268	-0.094
-490.508	629.712	-0.076	0.194
-489.493	-106.774	0.125	0.028
-488.478	702.483	0.179	0.478
-487.464	-200.000	-0.011	0.090
-486.449	-70.751	0.213	0.081
-485.435	-136.039	0.142	-0.017
-484.420	221.722	0.051	-0.083
-483.405	16.984	0.353	0.283
-482.391	135.607	-0.046	0.060
-481.376	-120.854	0.099	0.017
-480.362	438.422	0.016	0.036
-479.347	101.503	-0.095	0.112
-478.332	-83.054	-0.337	0.110
-477.318	39.363	0.195	-0.176
-476.303	314.891	-0.035	-0.067
-475.289	-200.000	0.058	-0.301
-474.274	-156.759	0.234	0.015
-473.259	-200.000	0.014	0.089
-472.245	-200.000	-0.017	-0.119
-471.230	-56.722	-0.132	0.059
-470.216	-152.856	-0.274	0.020
-469.201	-200.000	-0.014	0.246
-468.186	28.663	0.103	-0.088
-467.172	159.977	-0.152	0.214
-466.157	-59.714	0.062	-0.027
-465.143	183.879	0.038	-0.057
-464.128	66.482	0.140	-0.144
-463.113	190.409	0.061	-0.092
-462.099	800.000	0.108	-0.381
-461.084	-16.889	0.069	-0.044
-460.070	-55.357	0.129	-0.058
-459.055	225.255	0.130	-0.213
-458.040	188.602	0.121	0.183
-457.026	800.000	0.063	0.181
-456.011	263.859	-0.089	0.157
-454.997	529.865	0.091	0.218
-453.982	-25.852	0.225	0.134
-452.968	-200.000	-0.024	-0.215
-451.953	-44.647	0.065	0.033
-450.938	-124.411	0.366	-0.058
-449.924	85.289	-0.100	-0.111
-448.909	-54.902	-0.265	0.121
-447.895	-107.893	-0.367	0.081
-446.880	-46.190	-0.199	-0.099
-445.865	-102.339	0.132	0.032
-444.851	-48.802	-0.175	0.085
-443.836	-80.623	-0.250	0.084
-442.822	-70.243	0.226	-0.086
-441.807	-81.182	0.266	-0.089
-440.792	276.844	-0.199	0.357
-439.778	230.036	-0.154	0.254
-438.763	-86.523	-0.249	-0.077
-437.749	800.000	0.069	-0.210
-436.734	-63.144	0.088	0.037
-435.719	41.383	-0.299	0.273
-434.705	437.484	-0.054	-0.119
-433.690	-15.904	0.235	0.151
-432.676	25.264	0.224	0.188
-431.661	-9.579	-0.120	-0.080
-430.646	155.388	0.113	0.156
-429.632	56.758	0.097	-0.095
-428.617	355.568	-0.246	-0.494
-427.603	-168.240	-0.294	0.011
-426.588	23.100	0.199	0.165
-425.573	169.161	0.127	-0.183
-424.559	375.057	0.087	-0.180
-423.544	6.659	0.084	-0.063
-422.530	-200.000	0.022	-0.175
-421.515	-112.937	-0.197	0.039
-420.500	-200.000	0.049	0.221
-419.486	-200.000	0.020	0.214
-418.471	4.717	0.274	-0.203
-417.457	-182.421	0.107	0.002
-416.442	188.355	-0.080	-0.120
-415.428	-81.464	-0.187	0.062
-414.413	-68.218	0.151	-0.059
-413.398	-12.725	-0.115	0.075
-412.384	-200.000	0.036	0.185
-411.369	-200.000	-0.016	0.245
-410.355	160.519	-0.170	0.239
-409.340	-154.978	-0.144	0.010
-408.325	-200.000	-0.011	0.110
-407.311	414.350	0.102	0.218
-406.296	-18.413	0.243	0.153
-405.282	134.059	0.135	-0.176
-404.267	248.500	-0.070	-0.120
-403.252	721.562	-0.045	0.121
-402.238	800.000	-0.040	0.129
-401.223	-26.796	0.401	-0.236
-400.209	-200.000	0.013	-0.143
-399.194	71.522	0.132	0.138
-398.179	-99.744	0.130	0.033
-397.165	-110.976	0.204	-0.042
-396.150	-200.000	0.051	0.245
-395.136	13.456	0.122	-0.095
-394.121	-113.905	0.132	0.026
-393.106	435.124	0.025	0.054
-392.092	-50.762	-0.450	0.213
-391.077	-163.429	0.319	-0.015
-390.063	-128.642	-0.157	0.022
-389.048	-80.150	0.152	0.051
-388.033	-99.247	0.191	-0.048
-387.019	-100.816	-0.109	0.027
-386.004	-44.363	-0.193	-0.098
-384.990	623.041	0.133	-0.338
-383.975	800.000	-0.018	-0.065
-382.960	-24.856	-0.125	0.075
-381.946	419.730	0.056	-0.120
-380.931	-72.061	0.262	-0.098
-379.917	-108.670	-0.175	0.038
-378.902	48.791	0.135	-0.127
-377.888	283.293	0.096	-0.173
-376.873	-9.673	0.158	-0.106
-375.858	-168.712	0.063	0.002
-374.844	800.000	0.106	0.411
-373.829	-95.885	-0.266	-0.071
-372.815	278.710	-0.193	0.346
-371.800	-88.232	-0.120	0.036
-370.785	-162.198	-0.319	-0.016
-369.771	134.431	0.032	-0.042
-368.756	800.000	-0.111	-0.322
-367.742	-95.117	0.322	0.087
-366.727	-165.291	0.326	0.014
-365.712	-200.000	-0.016	0.197
-364.698	-160.755	0.465	0.025
-363.683	395.571	0.043	0.090
-362.669	-98.267	0.256	-0.066
-361.654	-9.253	0.273	0.184
-360.639	400.063	0.125	0.263
-359.625	800.000	-0.090	0.318
-358.610	-16.847	0.125	0.079
-357.596	124.663	0.151	-0.191
-356.581	26.010	0.077	0.065
-355.566	257.959	-0.102	-0.176
-354.552	222.939	-0.153	-0.248
-353.537	54.997	-0.049	0.048
-352.523	-200.000	-0.010	0.100
-351.508	-200.000	0.017	-0.123
-350.493	389.887	0.121	0.252
-349.479	164.712	-0.015	0.022
-348.464	-194.004	-0.222	0.002
-347.450	-200.000	-0.017	0.384
-346.435	-135.181	0.062	0.007
-345.420	-73.730	-0.167	0.061
-344.406	373.339	-0.068	-0.139
-343.391	551.524	0.045	-0.107
-342.377	131.924	0.193	0.250
-341.362	-200.000	-0.013	-0.135
-340.348	-100.730	-0.184	0.046
-339.333	800.000	-0.064	-0.264
-338.318	109.841	0.042	0.050
-337.304	11.903	-0.147	-0.114
-336.289	227.953	-0.086	0.141
-335.275	17.073	0.161	0.128
-334.260	-154.527	0.228	-0.015
-333.245	-172.880	0.034	0.001
-332.231	492.771	-0.121	0.279
-331.216	47.875	-0.146	-0.137
-330.202	-200.000	-0.028	-0.232
-329.187	536.995	0.081	0.193
-328.172	-200.000	0.005	0.050
-327.158	-130.289	-0.208	0.028
-326.143	-124.376	0.179	-0.028
-325.129	-71.852	-0.300	-0.112
-324.114	721.007	0.121	0.324
-323.099	-11.292	0.238	0.157
-322.085	-103.832	-0.233	-0.055
-321.070	409.515	-0.151	0.321
-320.056	-35.811	-0.303	-0.165
-319.041	-200.000	0.012	-0.142
-318.026	-60.383	0.342	-0.146
-317.012	-200.000	0.034	-0.254
-315.997	-105.116	-0.232	0.053
-314.983	-200.000	0.018	-0.186
-313.968	425.432	0.030	0.065
-312.953	-200.000	0.006	-0.031
-311.939	62.929	0.067	0.067
-310.924	-98.242	0.101	-0.026
-309.910	-200.000	-0.004	-0.044
-308.895	-35.375	0.147	-0.080
-307.880	452.370	-0.129	0.286
-306.866	6.454	-0.113	-0.084
-305.851	63.671	-0.111	-0.112
-304.837	-50.670	0.149	0.070
-303.822	133.976	0.045	-0.059
-302.807	55.456	-0.353	0.343
-301.793	28.856	0.265	0.226
-300.778	800.000	0.050	0.182
-299.764	135.340	-0.100	0.130
-298.749	13.106	0.044	-0.034
-297.735	-10.053	-0.150	-0.100
-296.720	-200.000	0.016	0.203
-295.705	-17.169	0.190	0.120
-294.691	243.904	-0.064	-0.108
-293.676	-9.233	-0.322	0.216
-292.662	104.046	0.221	-0.260
-291.647	-85.143	-0.099	0.031
-290.632	-200.000	-0.027	0.345
-289.618	-200.000	0.002	-0.229
-288.603	483.056	-0.155	-0.354
-287.589	800.000	-0.146	-0.413
-286.574	-102.791	-0.181	-0.043
-285.559	32.809	-0.129	0.112
-284.545	-59.089	0.105	0.046
-283.530	278.253	-0.105	-0.188
-282.516	-22.851	-0.084	0.051
-281.501	-76.391	0.274	-0.097
-280.486	27.161	-0.103	0.087
-279.472	-200.000	0.044	-0.218
-278.457	156.845	0.047	0.065
-277.443	100.861	-0.132	0.154
-276.428	185.807	-0.134	-0.200
-275.413	-200.000	-0.040	-0.214
-274.399	148.128	-0.149	-0.201
-273.384	-200.000	-0.031	-0.150
-272.370	800.000	-0.075	0.238
-271.355	128.247	0.142	0.181
-270.340	-72.090	0.143	-0.053
-269.326	-14.567	-0.086	0.055
-268.311	23.414	-0.356	0.293
-267.297	380.611	0.149	0.306
-266.282	-6.867	0.045	-0.030
-265.267	800.000	0.095	0.279
-264.253	-106.207	0.309	0.070
-263.238	-109.320	0.280	-0.059
-262.224	-130.729	-0.195	-0.026
-261.209	-10.284	-0.215	0.143
-260.195	-200.000	0.008	0.056
-259.180	-200.000	-0.012	0.057
-258.165	310.266	-0.102	-0.192
-257.151	-200.000	0.002	0.056
-256.136	-200.000	-0.110	-0.505
-255.122	19.757	0.182	-0.147
-254.107	-14.256	-0.096	0.062
-253.092	-164.886	-0.246	0.011
-252.078	-200.000	-0.006	-0.066
-251.063	290.793	-0.028	0.050
-250.049	-200.000	-0.027	0.257
-249.034	-3.266	-0.357	-0.249
-248.019	-104.483	-0.230	0.053
-247.005	-108.737	-0.401	0.086
-245.990	-72.239	0.057	-0.021
-244.976	291.329	-0.107	-0.194
-243.961	800.000	0.050	-0.176
-242.946	104.236	0.140	-0.165
-241.932	220.728	0.031	-0.049
-240.917	800.000	-0.053	0.214
-239.903	-69.481	-0.281	-0.108
-238.888	800.000	0.078	-0.227
-237.873	-153.555	0.260	-0.018
-236.859	-135.957	0.263	0.031
-235.844	116.033	-0.108	-0.133
-234.830	262.577	-0.076	-0.132
-233.815	-157.369	-0.166	-0.010
-232.800	298.096	-0.161	0.296
-231.786	1.268	-0.352	-0.253
-230.771	-141.904	0.141	0.014
-229.757	505.065	0.099	-0.229
-228.742	800.000	0.110	-0.402
-227.727	800.000	0.046	0.144
-226.713	800.000	0.011	0.042
-225.698	-200.000	0.036	-0.161
-224.684	332.809	-0.186	0.360
-223.669	-129.054	-0.394	-0.055
-222.655	604.482	0.089	-0.223
-221.640	223.887	-0.027	0.044
-220.625	-40.330	-0.258	-0.134
-219.611	-200.000	0.010	0.140
-218.596	-110.970	0.133	-0.027
-217.582	14.514	0.067	0.052
-216.567	1.103	0.069	0.049
-215.552	254.515	-0.160	0.273
-214.538	-86.744	0.229	0.070
-213.523	503.993	0.023	-0.054
-212.509	601.432	-0.071	0.176
-211.494	89.349	0.122	0.136
-210.479	-157.848	-0.183	-0.011
-209.465	176.072	0.105	-0.153
-208.450	109.548	-0.061	-0.073
-207.436	270.250	0.027	-0.048
-206.421	800.000	0.016	-0.053
-205.406	-102.877	-0.269	0.064
-204.392	65.884	0.275	-0.279
-203.377	36.171	0.121	-0.106
-202.363	-200.000	0.006	0.108
-201.348	-200.000	0.009	-0.048
-200.333	33.104	0.137	-0.119
-199.319	-188.146	0.164	0.002
-198.304	-93.861	-0.055	-0.015
-197.290	600.184	0.118	-0.292
-196.275	-200.000	-0.003	-0.101
-195.260	-200.000	0.016	0.163
-194.246	-166.421	-0.217	-0.009
-193.231	-184.654	0.256	-0.004
-192.217	20.816	-0.167	0.135
-191.202	-195.374	0.242	0.002
-190.187	-130.842	-0.423	0.057
-189.173	109.980	0.076	-0.091
-188.158	-17.921	-0.104	-0.065
-187.144	-54.981	0.208	-0.094
-186.129	-200.000	0.035	-0.407
-185.114	71.520	0.145	-0.151
-184.100	-159.459	0.442	0.025
-183.085	-200.000	0.016	-0.283
-182.071	800.000	0.061	0.255
-181.056	88.147	0.086	0.095
-180.042	-78.228	0.182	0.062
-179.027	233.977	0.211	0.347
-178.012	-37.547	-0.249	-0.132
-176.998	-200.000	0.007	-0.134
-175.983	131.283	0.181	0.232
-174.969	-182.718	-0.442	0.008
-173.954	13.018	0.127	0.098
-172.939	153.712	-0.082	0.112
-171.925	223.001	0.195	0.314
-170.910	17.811	0.205	0.163
-169.896	-103.792	0.147	-0.034
-168.881	-141.313	-0.302	0.031
-167.866	-200.000	0.047	0.292
-166.852	-85.765	0.408	0.126
-165.837	-45.528	-0.584	0.289
-164.823	-100.792	-0.141	-0.035
-163.808	800.000	-0.141	-0.473
-162.793	-146.078	-0.119	-0.010
-161.779	53.924	-0.091	-0.087
-160.764	-200.000	0.026	-0.207
-159.750	91.173	0.191	-0.214
-158.735	-50.356	0.272	0.128
-157.720	-105.651	-0.013	-0.003
-156.706	95.845	0.082	-0.094
-155.691	61.415	0.145	0.144
-154.677	-200.000	-0.029	-0.209
-153.662	800.000	-0.032	-0.115
-152.647	-55.957	0.260	-0.116
-151.633	-42.361	0.103	0.052
-150.618	-200.000	-0.010	-0.136
-149.604	-138.638	0.450	-0.049
-148.589	-200.000	-0.010	0.230
-147.574	-94.204	-0.129	0.035
-146.560	-83.555	-0.029	0.009
-145.545	502.702	-0.099	0.229
-144.531	228.280	0.174	0.283
-143.516	303.248	0.083	0.152
-142.502	-42.888	0.276	0.140
-141.487	-113.555	0.129	0.025
-140.472	-30.530	-0.114	0.064
-139.458	652.636	0.086	0.219
-138.443	-200.000	0.025	-0.169
-137.429	186.418	0.248	0.368
-136.414	200.061	0.110	-0.169
-135.399	86.926	0.154	-0.169
-134.385	-38.659	0.142	-0.075
-133.370	-44.086	0.342	-0.171
-132.356	116.171	0.181	0.220
-131.341	800.000	0.070	0.256
-130.326	-200.000	-0.032	-0.187
-129.312	5.357	0.125	0.092
-128.297	304.715	0.067	0.123
-127.283	-32.413	0.076	-0.042
-126.268	613.480	0.098	-0.245
-125.253	-83.953	-0.251	-0.080
-124.239	-92.941	-0.224	0.062
-123.224	-41.986	-0.426	-0.217
-122.210	-67.621	-0.164	-0.064
-121.195	800.000	-0.010	-0.036
