DTS Sentinel unit serial number:	SN413079Multiplexer serial number:	ORYXHardware model number:	OX4-SRSoftware version number:	ORYX F/W v4.00 Oryx Data Collector v3.7.2.0data status	okinstallation	princeton_trtdifferential loss correction	single-endedforward channel	channel 2reverse channel	N/Adate	2019/09/18time	00:59:34forward acquisition time	60.00reverse acquisition time	0.00gamma	496.2192k internal	0.2350k external	0.2350temperature offset calibration	0.9984default loss term (dB/km)	0.3790temperature slope calibration	1.0000multiplexer offset coefficient	1.0000multiplexer slope coefficient	1.0000fibre end	0.00T internal ref (°C)	23.30T ext. ref 1 (°C)	0.16T ext. ref 2 (°C)	17.01length (m)	temperature (°C)	Stokes	anti-Stokes-747.200	0.138	-0.346	0.246
-746.185	355.798	-0.056	-0.111
-745.171	-85.155	0.146	-0.046
-744.156	162.511	-0.258	0.361
-743.142	93.487	0.066	0.074
-742.127	-200.000	0.006	-0.026
-741.112	40.574	-0.261	0.235
-740.098	-84.944	-0.348	0.109
-739.083	195.902	0.145	0.220
-738.069	800.000	-0.117	0.372
-737.054	800.000	-0.066	0.196
-736.039	-115.333	-0.164	-0.031
-735.025	-117.472	0.207	0.037
-734.010	-64.767	-0.346	0.140
-732.996	800.000	0.041	-0.118
-731.981	0.617	-0.156	-0.112
-730.966	91.766	0.099	0.111
-729.952	800.000	0.028	-0.115
-728.937	16.447	-0.086	-0.068
-727.923	800.000	-0.072	-0.250
-726.908	-200.000	0.055	-0.409
-725.894	79.537	-0.048	0.051
-724.879	-118.300	-0.491	0.087
-723.864	70.156	0.135	-0.139
-722.850	-200.000	-0.035	0.190
-721.835	-200.000	0.235	0.001
-720.821	-79.877	-0.225	-0.076
-719.806	-58.260	0.295	-0.128
-718.791	-110.357	-0.242	-0.050
-717.777	-106.489	-0.281	-0.062
-716.762	191.772	-0.270	0.406
-715.748	800.000	-0.060	-0.190
-714.733	1.589	0.047	0.034
-713.718	444.480	0.182	0.398
-712.704	-143.244	0.461	0.044
-711.689	-68.621	0.332	0.128
-710.675	212.487	-0.091	-0.143
-709.660	-200.000	0.016	-0.380
-708.645	754.080	-0.068	0.183
-707.631	-49.744	-0.089	0.042
-706.616	-65.132	-0.336	0.135
-705.602	-200.000	0.017	-0.108
-704.587	337.641	0.084	-0.162
-703.572	-134.357	-0.243	0.030
-702.558	147.275	0.087	-0.117
-701.543	129.203	0.239	-0.304
-700.529	317.402	-0.213	-0.401
-699.514	-122.591	-0.077	-0.012
-698.499	-200.000	0.000	0.318
-697.485	119.492	-0.099	0.122
-696.470	-63.414	0.298	0.122
-695.456	-96.236	-0.310	0.082
-694.441	-46.429	0.189	-0.093
-693.426	-6.066	-0.212	-0.145
-692.412	357.593	-0.054	-0.107
-691.397	-27.576	-0.206	-0.119
-690.383	-144.205	0.106	0.010
-689.368	-198.731	0.207	0.001
-688.354	-0.202	-0.169	-0.120
-687.339	-11.716	0.086	0.056
-686.324	126.754	-0.102	-0.129
-685.310	-147.162	0.342	-0.029
-684.295	-194.171	-0.170	-0.001
-683.281	499.940	-0.188	-0.433
-682.266	-200.000	-0.014	-0.157
-681.251	-139.852	0.299	0.032
-680.237	-117.591	-0.225	-0.040
-679.222	-200.000	-0.009	-0.299
-678.208	-200.000	-0.001	-0.240
-677.193	31.477	0.112	-0.096
-676.178	-50.520	-0.223	-0.105
-675.164	227.837	-0.070	0.113
-674.149	-200.000	0.044	-0.331
-673.135	94.719	-0.229	-0.260
-672.120	-178.950	-0.354	0.008
-671.105	-45.965	-0.251	-0.123
-670.091	360.775	0.070	-0.140
-669.076	100.561	0.062	0.072
-668.062	-0.136	0.273	-0.194
-667.047	-200.000	0.050	-0.289
-666.032	-161.103	-0.440	-0.023
-665.018	6.129	-0.143	0.105
-664.003	145.499	-0.173	-0.230
-662.989	112.705	-0.170	-0.205
-661.974	59.372	-0.171	-0.168
-660.959	-51.673	0.026	0.012
-659.945	385.504	0.089	0.182
-658.930	-122.123	0.360	-0.059
-657.916	18.684	-0.200	-0.159
-656.901	-101.070	-0.204	-0.050
-655.886	800.000	-0.061	0.195
-654.872	-126.792	-0.233	0.034
-653.857	-200.000	-0.011	-0.154
-652.843	494.691	-0.075	-0.172
-651.828	-29.696	-0.168	0.095
-650.814	643.937	-0.059	0.150
-649.799	-200.000	-0.006	-0.304
-648.784	-44.251	0.143	0.071
-647.770	800.000	-0.055	-0.202
-646.755	72.975	-0.187	-0.194
-645.741	59.433	0.056	0.055
-644.726	264.764	0.176	0.304
-643.711	62.064	0.097	0.096
-642.697	-62.540	-0.144	-0.060
-641.682	-200.000	-0.020	-0.237
-640.668	800.000	0.058	-0.207
-639.653	-65.452	-0.191	-0.076
-638.638	47.793	-0.318	-0.295
-637.624	-200.000	0.026	-0.138
-636.609	-110.451	-0.233	0.048
-635.595	-200.000	0.029	0.131
-634.580	413.351	0.049	0.103
-633.565	45.169	0.196	-0.180
-632.551	45.061	-0.124	0.113
-631.536	-200.000	-0.043	0.202
-630.522	127.646	0.131	0.165
-629.507	-200.000	-0.065	0.330
-628.492	42.730	0.197	-0.178
-627.478	113.796	-0.123	-0.149
-626.463	-200.000	-0.020	-0.140
-625.449	340.401	0.027	-0.052
-624.434	-68.622	-0.114	0.044
-623.419	-171.821	-0.138	-0.005
-622.405	71.843	0.260	-0.269
-621.390	-140.521	-0.144	-0.015
-620.376	-39.337	0.186	-0.097
-619.361	0.665	-0.067	0.048
-618.346	-200.000	0.052	0.227
-617.332	-200.000	0.069	-0.318
-616.317	-48.112	0.208	-0.100
-615.303	800.000	0.091	-0.291
-614.288	117.657	-0.040	0.049
-613.273	8.588	0.115	0.086
-612.259	442.318	0.059	0.128
-611.244	-5.953	0.220	0.149
-610.230	-200.000	0.006	0.122
-609.215	-135.017	-0.217	0.026
-608.201	-65.166	0.216	0.087
-607.186	38.119	-0.304	0.268
-606.171	10.445	0.165	-0.125
-605.157	66.470	-0.171	0.173
-604.142	-200.000	-0.043	-0.265
-603.128	-6.526	-0.333	0.225
-602.113	800.000	-0.053	0.166
-601.098	-200.000	0.018	-0.420
-600.084	514.710	-0.060	0.138
-599.069	-48.928	0.128	0.061
-598.055	-32.674	-0.114	-0.063
-597.040	-200.000	0.009	-0.180
-596.025	380.770	-0.140	-0.285
-595.011	-166.010	-0.065	0.003
-593.996	702.854	0.028	-0.074
-592.982	260.398	0.119	0.205
-591.967	137.110	0.048	-0.063
-590.952	-200.000	-0.037	0.256
-589.938	-200.000	-0.063	0.292
-588.923	696.415	0.117	0.305
-587.909	125.084	-0.071	-0.089
-586.894	-111.719	-0.093	0.019
-585.879	259.422	-0.060	0.103
-584.865	301.692	0.069	-0.126
-583.850	139.665	0.123	-0.161
-582.836	800.000	-0.021	0.065
-581.821	-48.273	-0.301	0.144
-580.806	-27.722	-0.242	-0.139
-579.792	245.120	0.183	-0.305
-578.777	381.833	0.014	0.028
-577.763	-200.000	-0.033	0.161
-576.748	297.597	-0.225	0.410
-575.733	609.756	-0.132	0.327
-574.719	137.483	-0.121	0.157
-573.704	189.788	-0.129	-0.192
-572.690	327.366	-0.012	0.023
-571.675	331.705	0.075	0.144
-570.661	182.412	-0.084	-0.122
-569.646	-18.200	-0.181	-0.112
-568.631	-200.000	-0.009	-0.201
-567.617	-108.003	0.199	-0.043
-566.602	-25.234	-0.270	0.159
-565.588	-44.557	0.161	-0.080
-564.573	-44.420	0.036	0.018
-563.558	418.333	-0.038	0.081
-562.544	-138.228	-0.321	-0.035
-561.529	130.002	0.048	0.061
-560.515	493.841	0.021	-0.047
-559.500	-133.615	-0.110	0.014
-558.485	13.656	-0.301	-0.232
-557.471	484.375	-0.028	-0.063
-556.456	-200.000	-0.002	-0.030
-555.442	2.468	-0.052	-0.038
-554.427	-94.992	0.046	-0.012
-553.412	413.822	0.114	0.241
-552.398	-118.212	-0.134	-0.024
-551.383	-11.500	-0.032	0.021
-550.369	-101.858	0.117	-0.028
-549.354	800.000	0.072	-0.269
-548.339	68.290	0.164	0.167
-547.325	-200.000	0.051	0.431
-546.310	-200.000	-0.003	0.335
-545.296	-125.733	0.273	0.041
-544.281	-134.970	-0.391	0.047
-543.266	-134.587	0.313	0.038
-542.252	289.340	0.144	-0.259
-541.237	74.264	-0.040	0.041
-540.223	-200.000	0.045	-0.198
-539.208	-183.614	-0.216	0.004
-538.193	374.772	-0.219	0.442
-537.179	800.000	0.080	-0.315
-536.164	-200.000	-0.026	-0.261
-535.150	-53.141	-0.203	0.092
-534.135	-125.001	-0.192	-0.029
-533.121	-43.206	0.249	-0.125
-532.106	-200.000	-0.003	-0.028
-531.091	-139.732	0.298	-0.031
-530.077	-47.572	0.152	-0.073
-529.062	8.674	-0.226	0.169
-528.048	-12.400	0.344	-0.222
-527.033	550.269	0.082	0.195
-526.018	-129.835	-0.226	-0.031
-525.004	275.398	0.034	-0.060
-523.989	-89.416	0.127	0.037
-522.975	-200.000	-0.000	0.158
-521.960	-200.000	-0.029	-0.136
-520.945	-161.541	-0.244	0.012
-519.931	-178.417	-0.281	0.006
-518.916	-99.284	0.190	-0.047
-517.902	-200.000	-0.002	0.189
-516.887	-70.386	0.329	-0.124
-515.872	-33.925	-0.161	0.088
-514.858	57.012	0.122	0.118
-513.843	255.987	0.162	0.276
-512.829	-66.031	0.378	-0.149
-511.814	-190.238	-0.226	0.002
-510.799	98.235	-0.086	-0.099
-509.785	-127.975	0.072	0.010
-508.770	203.266	-0.142	0.217
-507.756	55.391	-0.087	0.084
-506.741	258.167	0.158	0.269
-505.726	61.436	-0.173	0.170
-504.712	-106.437	-0.107	-0.024
-503.697	-200.000	-0.029	0.165
-502.683	-24.101	-0.186	0.110
-501.668	153.078	0.078	-0.106
-500.653	-36.421	-0.126	0.067
-499.639	-73.428	-0.059	0.021
-498.624	-129.066	-0.373	0.052
-497.610	670.305	-0.051	0.131
-496.595	-200.000	0.054	0.349
-495.581	-137.225	-0.150	0.017
-494.566	-171.349	0.503	-0.017
-493.551	-200.000	0.025	0.135
-492.537	-80.098	-0.351	0.116
-491.522	-66.590	-0.153	-0.060
-490.508	-66.590	0.114	-0.045
-489.493	-150.999	-0.325	-0.024
-488.478	1.832	0.056	-0.040
-487.464	-145.220	-0.284	-0.025
-486.449	-113.060	0.225	-0.044
-485.435	333.329	0.040	-0.076
-484.420	41.039	0.158	0.141
-483.405	800.000	-0.033	0.121
-482.391	-138.274	-0.162	-0.018
-481.376	-4.868	0.209	-0.142
-480.362	800.000	-0.056	-0.158
-479.347	269.418	0.132	-0.229
-478.332	108.058	-0.050	-0.059
-477.318	246.388	0.232	0.387
-476.303	175.816	-0.199	0.285
-475.289	340.601	-0.067	0.129
-474.274	153.779	0.090	0.121
-473.259	-12.866	-0.176	-0.114
-472.245	20.316	-0.331	0.264
-471.230	800.000	-0.061	0.188
-470.216	-142.026	0.158	0.016
-469.201	492.635	0.114	0.259
-468.186	145.374	-0.155	0.205
-467.172	-200.000	-0.021	0.114
-466.157	100.346	-0.106	-0.121
-465.143	-73.851	0.091	0.033
-464.128	28.765	-0.163	-0.136
-463.113	-40.649	-0.110	-0.057
-462.099	800.000	-0.069	-0.293
-461.084	-91.498	-0.127	-0.036
-460.070	37.103	-0.229	0.200
-459.055	-129.333	0.101	-0.014
-458.040	-58.328	0.177	0.076
-457.026	-200.000	0.014	-0.185
-456.011	-168.424	-0.260	-0.010
-454.997	-131.813	0.171	-0.022
-453.982	-200.000	-0.015	0.079
-452.968	-96.890	0.154	-0.040
-451.953	-200.000	-0.002	-0.050
-450.938	-24.665	-0.574	-0.337
-449.924	554.431	0.009	-0.022
-448.909	728.162	-0.138	0.364
-447.895	-94.051	0.050	-0.014
-446.880	800.000	0.035	0.105
-445.865	-90.085	-0.156	0.045
-444.851	114.017	0.144	0.173
-443.836	-200.000	-0.004	0.024
-442.822	0.687	0.231	-0.163
-441.807	56.853	0.163	-0.156
-440.792	-200.000	-0.014	-0.189
-439.778	-174.433	0.082	0.002
-438.763	479.439	-0.099	0.221
-437.749	-90.263	-0.184	0.053
-436.734	55.423	0.211	0.201
-435.719	-200.000	0.067	-0.533
-434.705	-9.475	0.287	-0.189
-433.690	-94.951	0.378	-0.101
-432.676	800.000	0.109	-0.324
-431.661	220.982	-0.226	0.357
-430.646	50.656	-0.194	0.181
-429.632	-78.127	-0.385	0.130
-428.617	-200.000	-0.050	-0.274
-427.603	-26.498	0.139	0.080
-426.588	-200.000	0.051	-0.325
-425.573	282.927	0.135	-0.239
-424.559	738.277	0.039	0.102
-423.544	-100.053	-0.304	-0.075
-422.530	-85.859	-0.281	0.086
-421.515	71.616	-0.103	0.105
-420.500	-115.021	-0.331	0.062
-419.486	-149.502	-0.264	0.021
-418.471	-200.000	0.058	-0.291
-417.457	-90.905	-0.086	-0.024
-416.442	-200.000	0.003	0.319
-415.428	-200.000	0.038	0.169
-414.413	-200.000	-0.019	-0.385
-413.398	-119.143	0.280	0.048
-412.384	115.299	0.090	-0.109
-411.369	-102.517	-0.437	0.103
-410.355	-200.000	0.013	-0.233
-409.340	-200.000	0.024	-0.157
-408.325	-200.000	0.040	0.207
-407.311	38.442	-0.142	-0.125
-406.296	-77.346	-0.163	0.056
-405.282	235.339	-0.101	0.165
-404.267	384.885	0.132	0.269
-403.252	-68.862	0.234	-0.089
-402.238	-74.693	0.394	-0.139
-401.223	723.015	0.089	0.233
-400.209	-200.000	0.015	0.078
-399.194	334.578	0.171	-0.326
-398.179	-97.243	-0.146	0.038
-397.165	-200.000	-0.039	0.173
-396.150	-200.000	0.008	0.218
-395.136	637.035	-0.029	-0.073
-394.121	-200.000	-0.014	-0.332
-393.106	22.173	0.214	0.172
-392.092	-200.000	-0.016	-0.305
-391.077	516.753	-0.054	-0.124
-390.063	-179.690	0.039	0.001
-389.048	69.154	-0.076	-0.077
-388.033	544.205	0.219	-0.515
-387.019	230.723	0.064	-0.103
-386.004	-107.160	0.183	0.040
-384.990	800.000	0.123	-0.453
-383.975	-200.000	-0.008	0.131
-382.960	-200.000	-0.019	0.182
-381.946	-80.167	-0.226	-0.074
-380.931	21.847	-0.182	0.146
-379.917	-200.000	-0.070	-0.321
-378.902	-2.459	0.003	0.002
-377.888	-115.286	-0.062	-0.011
-376.873	-57.463	0.358	-0.155
-375.858	307.707	0.051	0.093
-374.844	78.134	-0.287	0.302
-373.829	449.768	-0.058	-0.126
-372.815	-31.214	0.364	0.202
-371.800	53.525	0.060	-0.057
-370.785	270.368	0.138	-0.239
-369.771	-88.476	0.333	-0.098
-368.756	17.141	0.241	0.188
-367.742	800.000	0.034	0.133
-366.727	-104.363	-0.434	-0.099
-365.712	-49.938	-0.188	0.088
-364.698	-68.547	0.158	-0.060
-363.683	-31.824	0.126	0.069
-362.669	-54.666	-0.399	-0.177
-361.654	41.453	-0.059	-0.052
-360.639	-200.000	-0.021	-0.311
-359.625	-103.053	0.253	-0.059
-358.610	800.000	-0.026	0.073
-357.596	-104.454	0.093	0.021
-356.581	413.554	0.176	-0.369
-355.566	169.602	0.114	-0.160
-354.552	800.000	-0.024	0.068
-353.537	-200.000	-0.073	0.334
-352.523	-12.377	0.165	0.106
-351.508	800.000	-0.033	0.097
-350.493	-200.000	0.021	0.092
-349.479	212.322	0.169	0.262
-348.464	800.000	-0.123	-0.446
-347.450	-32.259	-0.067	0.037
-346.435	172.574	0.035	0.050
-345.420	-56.309	0.137	-0.060
-344.406	57.007	0.135	0.130
-343.391	-44.011	-0.268	-0.132
-342.377	800.000	-0.044	0.157
-341.362	100.509	0.166	0.189
-340.348	190.952	0.151	-0.223
-339.333	-200.000	0.033	0.402
-338.318	400.072	0.090	0.186
-337.304	-120.084	0.086	0.014
-336.289	-43.499	0.202	0.100
-335.275	6.195	-0.127	0.092
-334.260	-58.585	-0.491	0.209
-333.245	-157.128	-0.031	-0.002
-332.231	-200.000	-0.004	-0.108
-331.216	-67.588	0.283	-0.109
-330.202	108.681	-0.154	0.180
-329.187	-200.000	-0.036	0.191
-328.172	256.313	-0.036	-0.060
-327.158	800.000	-0.046	0.149
-326.143	-200.000	-0.052	-0.243
-325.129	75.300	-0.135	0.140
-324.114	-176.354	0.260	0.007
-323.099	-200.000	-0.011	0.108
-322.085	792.349	-0.145	0.392
-321.070	-98.607	0.194	-0.049
-320.056	4.892	0.096	-0.069
-319.041	516.448	0.052	-0.120
-318.026	-31.123	-0.117	0.065
-317.012	-74.128	0.223	-0.079
-315.997	-8.889	-0.089	0.058
-314.983	-142.722	0.242	0.023
-313.968	800.000	0.067	0.230
-312.953	-200.000	0.007	0.268
-311.939	-71.800	0.166	0.061
-310.924	401.281	-0.104	-0.214
-309.910	10.950	0.340	0.255
-308.895	141.305	0.138	-0.179
-307.880	223.205	-0.063	-0.100
-306.866	-20.522	0.139	0.084
-305.851	422.618	-0.074	0.157
-304.837	-158.505	0.308	0.017
-303.822	-111.631	0.152	0.030
-302.807	-102.255	-0.159	-0.038
-301.793	129.897	-0.072	-0.091
-300.778	79.244	0.053	0.056
-299.764	43.478	0.214	-0.192
-298.749	-200.000	-0.097	0.496
-297.735	800.000	-0.110	-0.354
-296.720	277.007	0.163	-0.284
-295.705	247.889	0.140	-0.232
-294.691	-200.000	-0.015	-0.126
-293.676	-83.198	0.333	-0.105
-292.662	540.957	-0.011	0.026
-291.647	-4.634	0.299	0.203
-290.632	510.557	-0.065	-0.148
-289.618	158.838	-0.194	0.264
-288.603	-74.450	-0.265	0.094
-287.589	800.000	-0.100	-0.310
-286.574	-103.686	0.189	0.043
-285.559	-200.000	-0.030	0.228
-284.545	57.236	-0.060	-0.058
-283.530	-162.644	-0.132	0.006
-282.516	800.000	0.034	0.111
-281.501	-169.171	-0.374	0.014
-280.486	164.038	-0.214	0.296
-279.472	9.156	0.136	-0.101
-278.457	6.680	-0.243	-0.178
-277.443	-69.959	-0.142	-0.053
-276.428	43.541	0.120	-0.107
-275.413	81.985	0.167	0.177
-274.399	-156.186	0.083	0.005
-273.384	46.395	0.229	-0.208
-272.370	-59.144	0.575	0.243
-271.355	-50.517	-0.119	0.055
-270.340	-1.541	0.097	0.067
-269.326	-164.294	-0.141	0.006
-268.311	-51.391	0.265	-0.121
-267.297	-81.327	-0.134	0.043
-266.282	-146.917	0.205	-0.017
-265.267	88.115	-0.315	0.342
-264.253	-36.879	0.222	-0.117
-263.238	-103.990	0.205	-0.047
-262.224	-75.078	0.224	0.078
-261.209	-89.753	0.378	0.109
-260.195	-200.000	0.007	-0.342
-259.180	79.946	-0.394	-0.415
-258.165	43.343	0.082	0.074
-257.151	-1.599	-0.150	-0.104
-256.136	-200.000	-0.019	-0.148
-255.122	-73.081	-0.215	-0.077
-254.107	76.404	-0.097	0.101
-253.092	-118.850	-0.066	-0.011
-252.078	-47.430	0.101	-0.048
-251.063	-48.562	-0.252	0.118
-250.049	96.104	0.198	-0.222
-249.034	-107.417	-0.031	-0.007
-248.019	-67.589	0.308	-0.118
-247.005	-200.000	-0.007	-0.064
-245.990	-156.044	-0.119	0.007
-244.976	-43.873	0.075	-0.037
-243.961	398.905	-0.053	0.108
-242.946	800.000	-0.130	-0.369
-241.932	-32.277	-0.098	-0.054
-240.917	-73.758	0.189	0.067
-239.903	78.851	-0.111	-0.116
-238.888	-200.000	-0.061	-0.317
-237.873	-200.000	0.003	0.036
-236.859	109.808	-0.387	0.455
-235.844	-100.277	-0.167	-0.041
-234.830	-134.749	-0.368	0.044
-233.815	-75.155	-0.312	0.109
-232.800	71.710	-0.281	-0.286
-231.786	-35.859	0.327	0.173
-230.771	455.838	-0.163	-0.353
-229.757	-34.801	-0.081	-0.043
-228.742	303.204	-0.111	-0.202
-227.727	109.873	0.136	0.160
-226.713	-0.913	-0.211	-0.146
-225.698	-194.799	0.124	-0.001
-224.684	-48.561	0.064	-0.030
-223.669	-107.453	0.122	-0.026
-222.655	800.000	-0.131	-0.365
-221.640	-27.746	-0.184	-0.104
-220.625	171.209	-0.175	-0.245
-219.611	-111.657	-0.168	-0.033
-218.596	-200.000	-0.046	-0.224
-217.582	246.339	0.254	-0.419
-216.567	-61.254	0.280	0.115
-215.552	800.000	0.083	0.298
-214.538	-200.000	0.032	0.262
-213.523	800.000	-0.079	0.302
-212.509	47.555	0.260	0.237
-211.494	28.155	0.299	0.247
-210.479	-53.374	0.324	-0.145
-209.465	-71.010	-0.239	0.088
-208.450	800.000	0.108	0.305
-207.436	64.441	0.136	-0.134
-206.421	297.292	0.195	0.349
-205.406	-150.763	-0.182	-0.014
-204.392	-94.899	0.050	0.013
-203.377	129.504	0.236	-0.295
-202.363	234.616	0.135	0.218
-201.348	87.671	0.290	-0.314
-200.333	152.606	0.019	-0.026
-199.319	-200.000	0.032	0.445
-198.304	-110.226	0.094	0.019
-197.290	-200.000	0.027	-0.447
-196.275	-155.074	-0.019	-0.001
-195.260	-5.606	-0.034	-0.023
-194.246	-21.482	0.197	0.118
-193.231	-177.080	0.222	0.005
-192.217	133.119	0.048	0.061
-191.202	-154.719	0.242	0.016
-190.187	598.620	0.064	-0.155
-189.173	-200.000	-0.048	-0.343
-188.158	800.000	0.069	0.228
-187.144	14.622	0.309	0.236
-186.129	42.786	0.238	-0.212
-185.114	-200.000	0.048	0.311
-184.100	446.646	0.050	0.107
-183.085	-200.000	-0.011	-0.097
-182.071	365.970	-0.017	-0.034
-181.056	-49.219	-0.250	0.117
-180.042	-159.297	-0.132	0.007
-179.027	-123.656	0.175	-0.027
-178.012	-96.711	0.058	0.015
-176.998	-30.253	-0.215	-0.119
-175.983	-200.000	-0.005	0.073
-174.969	315.628	0.128	0.236
-173.954	-132.628	-0.175	0.022
-172.939	61.879	-0.191	0.186
-171.925	674.131	-0.146	-0.369
-170.910	-143.900	-0.185	0.017
-169.896	33.033	0.315	-0.267
-168.881	141.491	0.071	0.091
-167.866	316.959	-0.136	0.251
-166.852	-6.245	0.195	0.130
-165.837	145.513	-0.127	-0.166
-164.823	-200.000	0.041	-0.251
-163.808	11.872	-0.211	0.158
-162.793	-138.526	-0.153	0.016
-161.779	-144.111	0.058	0.005
-160.764	-80.041	-0.354	-0.116
-159.750	42.394	0.097	-0.086
-158.735	-27.918	-0.282	-0.159
-157.720	-200.000	-0.012	-0.091
-156.706	12.675	-0.099	-0.074
-155.691	-51.620	0.237	0.108
-154.677	-200.000	-0.037	-0.205
-153.662	34.270	0.119	0.101
-152.647	399.695	-0.132	-0.270
-151.633	-92.358	0.204	-0.056
-150.618	800.000	0.092	0.262
-149.604	-164.784	0.281	-0.012
-148.589	80.734	0.240	0.253
-147.574	-200.000	0.062	-0.452
-146.560	-102.345	-0.201	0.047
-145.545	125.024	0.176	0.216
-144.531	-2.187	-0.313	0.214
-143.516	-200.000	-0.024	0.129
-142.502	-200.000	0.029	-0.128
-141.487	-100.317	0.231	0.056
-140.472	-64.509	-0.181	-0.072
-139.458	540.235	0.131	-0.305
-138.443	692.476	-0.071	0.181
-137.429	-135.569	0.064	0.007
-136.414	45.949	0.169	-0.153
-135.399	-200.000	0.007	0.081
-134.385	191.344	-0.170	0.250
-133.370	13.275	0.180	-0.136
-132.356	-133.831	-0.162	0.020
-131.341	-49.904	0.211	-0.098
-130.326	81.076	0.274	0.288
-129.312	18.060	-0.250	0.194
-128.297	-103.886	-0.188	0.043
-127.283	800.000	0.071	0.226
-126.268	32.921	-0.255	-0.215
-125.253	800.000	0.078	-0.213
-124.239	-164.027	-0.119	-0.005
-123.224	800.000	0.090	-0.345
-122.210	21.853	0.222	-0.176
