DTS Sentinel unit serial number:	SN413079Multiplexer serial number:	ORYXHardware model number:	OX4-SRSoftware version number:	ORYX F/W v4.00 Oryx Data Collector v3.7.2.0data status	okinstallation	princeton_trtdifferential loss correction	single-endedforward channel	channel 2reverse channel	N/Adate	2019/09/19time	02:47:34forward acquisition time	60.00reverse acquisition time	0.00gamma	496.2192k internal	0.2353k external	0.2353temperature offset calibration	1.0017default loss term (dB/km)	0.3790temperature slope calibration	1.0000multiplexer offset coefficient	1.0000multiplexer slope coefficient	1.0000fibre end	0.00T internal ref (°C)	20.89T ext. ref 1 (°C)	0.66T ext. ref 2 (°C)	14.65length (m)	temperature (°C)	Stokes	anti-Stokes-747.200	-99.242	0.087	-0.022
-746.185	-37.317	-0.497	-0.265
-745.171	-1.780	0.222	-0.156
-744.156	-200.000	-0.032	-0.232
-743.142	800.000	0.032	0.130
-742.127	247.878	-0.278	0.469
-741.112	62.296	-0.067	0.066
-740.098	800.000	-0.073	0.272
-739.083	-8.356	0.229	-0.154
-738.069	-117.248	-0.245	0.044
-737.054	-6.860	0.293	-0.199
-736.039	24.296	-0.170	-0.140
-735.025	-200.000	0.000	0.015
-734.010	-125.243	-0.233	-0.036
-732.996	-57.396	0.202	-0.088
-731.981	-200.000	0.026	-0.133
-730.966	-98.664	-0.245	-0.062
-729.952	-200.000	-0.080	-0.472
-728.937	356.861	0.032	-0.063
-727.923	-74.447	0.170	-0.061
-726.908	-200.000	-0.016	-0.404
-725.894	-149.533	-0.130	0.010
-724.879	241.909	0.127	0.211
-723.864	50.895	0.161	0.152
-722.850	-38.952	-0.050	0.026
-721.835	-200.000	0.016	-0.078
-720.821	-200.000	-0.055	-0.267
-719.806	-66.933	0.064	-0.025
-718.791	-77.502	-0.030	-0.010
-717.777	4.110	0.133	0.097
-716.762	-168.176	-0.299	0.012
-715.748	-94.910	0.327	-0.088
-714.733	-64.101	-0.090	-0.037
-713.718	206.656	0.177	-0.275
-712.704	184.681	0.158	0.233
-711.689	800.000	0.087	-0.271
-710.675	557.516	0.152	0.365
-709.660	-121.860	-0.329	0.054
-708.645	-111.962	-0.294	0.059
-707.631	129.324	-0.026	0.033
-706.616	800.000	0.062	-0.242
-705.602	72.835	0.177	-0.184
-704.587	284.984	-0.089	-0.159
-703.572	231.882	-0.160	-0.261
-702.558	-64.099	0.274	0.111
-701.543	-55.469	0.347	0.155
-700.529	-176.489	-0.074	0.002
-699.514	800.000	0.101	-0.281
-698.499	800.000	0.047	-0.180
-697.485	23.569	-0.165	0.135
-696.470	-200.000	-0.045	0.303
-695.456	791.758	0.127	-0.347
-694.441	14.891	0.217	-0.169
-693.426	-71.456	0.121	0.045
-692.412	206.894	0.186	-0.289
-691.397	35.822	-0.310	-0.271
-690.383	-200.000	-0.009	-0.261
-689.368	415.792	0.075	-0.159
-688.354	51.249	0.197	-0.186
-687.339	800.000	0.091	-0.293
-686.324	800.000	0.180	-0.502
-685.310	74.599	-0.149	-0.156
-684.295	-64.317	0.111	-0.045
-683.281	800.000	-0.072	0.234
-682.266	-48.073	0.267	0.128
-681.251	14.558	0.092	0.072
-680.237	-14.191	-0.074	-0.047
-679.222	-46.448	0.094	0.046
-678.208	-43.860	0.318	-0.159
-677.193	-200.000	0.060	-0.409
-676.178	-116.460	-0.280	0.051
-675.164	-140.825	0.052	0.005
-674.149	448.974	0.151	-0.331
-673.135	-4.300	0.039	-0.027
-672.120	-174.844	-0.248	0.007
-671.105	-51.455	-0.298	-0.139
-670.091	-200.000	0.069	0.315
-669.076	-51.079	0.121	0.056
-668.062	363.854	0.188	0.376
-667.047	-184.282	0.227	-0.004
-666.032	110.053	-0.111	-0.132
-665.018	-110.866	-0.072	0.015
-664.003	259.056	0.077	0.132
-662.989	209.186	0.172	-0.268
-661.974	411.786	0.061	-0.128
-660.959	-108.376	-0.178	0.038
-659.945	-88.380	-0.215	-0.064
-658.930	-200.000	0.037	-0.202
-657.916	-0.586	0.375	0.265
-656.901	-62.755	0.194	-0.080
-655.886	195.145	0.062	0.094
-654.872	-114.293	-0.178	0.034
-653.857	-200.000	0.045	0.211
-652.843	-8.379	0.199	0.133
-651.828	379.403	0.197	0.401
-650.814	-200.000	-0.018	-0.161
-649.799	465.990	-0.100	0.223
-648.784	-200.000	-0.003	-0.042
-647.770	-200.000	0.018	-0.240
-646.755	-107.093	-0.304	0.067
-645.741	-96.583	-0.210	-0.055
-644.726	-18.948	0.433	-0.267
-643.711	-200.000	0.041	0.237
-642.697	-11.039	-0.305	-0.200
-641.682	-171.365	-0.414	0.014
-640.668	800.000	-0.114	0.377
-639.653	88.305	0.158	-0.174
-638.638	-87.651	-0.298	-0.089
-637.624	-186.124	-0.104	-0.002
-636.609	-96.941	-0.214	-0.056
-635.595	-200.000	0.017	0.170
-634.580	-200.000	0.054	-0.331
-633.565	-51.119	-0.278	0.129
-632.551	-87.348	0.215	-0.065
-631.536	-158.501	-0.294	0.017
-630.522	-43.688	-0.283	0.142
-629.507	-72.336	0.500	-0.184
-628.492	800.000	-0.041	0.129
-627.478	-55.492	0.099	-0.044
-626.463	-200.000	-0.008	0.232
-625.449	800.000	0.053	-0.171
-624.434	114.810	0.042	0.051
-623.419	800.000	-0.013	-0.054
-622.405	66.824	0.090	0.090
-621.390	17.200	-0.110	-0.087
-620.376	-56.664	0.079	0.035
-619.361	-126.394	0.169	0.025
-618.346	256.447	0.134	0.229
-617.332	-200.000	-0.024	0.250
-616.317	252.265	-0.263	-0.445
-615.303	-44.045	-0.222	-0.111
-614.288	166.246	-0.064	0.090
-613.273	48.966	0.177	-0.165
-612.259	141.348	-0.146	-0.192
-611.244	-91.692	0.144	0.041
-610.230	27.972	-0.106	-0.089
-609.215	-36.564	-0.129	0.069
-608.201	20.757	0.179	0.144
-607.186	42.507	0.240	0.217
-606.171	-86.168	-0.120	0.037
-605.157	-125.525	-0.239	0.036
-604.142	-57.425	-0.098	-0.043
-603.128	77.266	-0.232	-0.244
-602.113	700.120	-0.058	-0.153
-601.098	-142.665	-0.239	-0.023
-600.084	800.000	-0.050	-0.207
-599.069	-197.751	-0.366	0.002
-598.055	-28.959	0.023	0.013
-597.040	127.808	-0.046	-0.058
-596.025	-133.996	-0.202	-0.025
-595.011	-177.901	0.505	0.012
-593.996	75.878	-0.122	0.128
-592.982	27.791	0.134	-0.112
-591.967	-200.000	0.110	0.586
-590.952	649.825	-0.049	-0.123
-589.938	163.781	0.120	0.168
-588.923	6.017	0.128	0.094
-587.909	9.552	-0.276	-0.207
-586.894	161.164	-0.169	-0.234
-585.879	109.275	0.155	0.184
-584.865	-22.647	0.250	-0.150
-583.850	98.402	0.191	-0.219
-582.836	-150.519	0.385	0.029
-581.821	218.545	-0.077	-0.122
-580.806	136.166	-0.263	-0.340
-579.792	484.141	-0.096	0.217
-578.777	-200.000	0.040	-0.185
-577.763	-125.380	-0.330	-0.050
-576.748	243.705	0.039	-0.064
-575.733	-96.625	-0.017	-0.004
-574.719	-180.285	-0.099	0.002
-573.704	-31.247	-0.033	-0.018
-572.690	800.000	0.056	0.175
-571.675	165.596	-0.072	0.100
-570.661	-82.116	-0.177	-0.057
-569.646	-200.000	0.082	-0.366
-568.631	140.348	-0.141	0.185
-567.617	102.519	-0.217	0.251
-566.602	-69.260	0.402	-0.153
-565.588	-200.000	-0.014	-0.232
-564.573	80.317	0.108	-0.116
-563.558	-200.000	-0.034	-0.264
-562.544	-200.000	-0.059	0.264
-561.529	-55.992	-0.201	-0.089
-560.515	-138.561	-0.056	0.006
-559.500	-111.826	0.098	-0.020
-558.485	-200.000	0.009	-0.137
-557.471	-200.000	-0.010	-0.067
-556.456	-174.633	-0.094	0.003
-555.442	56.093	0.139	-0.133
-554.427	-200.000	-0.018	0.157
-553.412	330.531	0.092	-0.176
-552.398	-146.472	0.036	-0.003
-551.383	-46.288	0.110	0.054
-550.369	800.000	0.080	-0.229
-549.354	-12.437	0.159	-0.103
-548.339	271.303	0.055	-0.096
-547.325	-23.058	-0.106	-0.063
-546.310	14.951	-0.049	-0.038
-545.296	157.271	-0.015	-0.021
-544.281	8.853	-0.207	-0.155
-543.266	-22.129	0.197	-0.118
-542.252	163.654	-0.106	0.147
-541.237	629.563	0.111	-0.278
-540.223	-200.000	0.049	-0.248
-539.208	-144.293	-0.293	0.027
-538.193	-65.690	-0.403	0.160
-537.179	227.949	-0.017	-0.027
-536.164	-190.745	-0.397	-0.004
-535.150	114.367	0.211	-0.255
-534.135	7.639	-0.332	-0.245
-533.121	-93.991	-0.412	0.112
-532.106	-1.145	0.211	-0.147
-531.091	147.521	-0.081	-0.108
-530.077	-84.491	-0.334	0.104
-529.062	-109.668	-0.523	0.109
-528.048	-47.977	0.228	-0.109
-527.033	-200.000	0.052	0.321
-526.018	-200.000	0.007	0.071
-525.004	-84.081	0.143	0.045
-523.989	-84.221	0.167	-0.052
-522.975	-98.556	-0.057	-0.014
-521.960	-200.000	-0.005	0.110
-520.945	-141.209	-0.177	0.018
-519.931	-14.534	-0.154	0.098
-518.916	70.352	-0.185	-0.189
-517.902	800.000	0.054	0.213
-516.887	-200.000	-0.013	-0.320
-515.872	-46.923	0.141	0.068
-514.858	-200.000	0.104	-0.551
-513.843	-64.801	-0.089	0.035
-512.829	-182.863	0.091	0.002
-511.814	-107.379	0.039	0.008
-510.799	-107.757	-0.062	0.013
-509.785	495.904	0.120	0.273
-508.770	-100.107	0.277	-0.068
-507.756	-34.007	-0.262	0.142
-506.741	508.198	0.089	-0.203
-505.726	-200.000	-0.084	-0.427
-504.712	-61.834	0.230	-0.095
-503.697	142.859	0.021	0.027
-502.683	-13.640	0.262	0.168
-501.668	17.307	-0.077	-0.060
-500.653	-200.000	-0.049	0.280
-499.639	-200.000	-0.036	-0.534
-498.624	114.039	0.070	-0.084
-497.610	-73.806	-0.243	0.087
-496.595	800.000	-0.054	-0.160
-495.581	-128.269	-0.126	0.018
-494.566	-200.000	0.051	0.256
-493.551	-142.976	0.312	-0.030
-492.537	22.002	-0.050	-0.040
-491.522	-115.446	-0.135	0.025
-490.508	142.451	-0.087	0.114
-489.493	-200.000	0.027	-0.243
-488.478	800.000	0.064	-0.264
-487.464	129.231	-0.063	0.079
-486.449	800.000	0.072	0.242
-485.435	-200.000	-0.021	0.195
-484.420	92.204	-0.273	0.304
-483.405	121.708	-0.030	0.037
-482.391	-62.289	0.251	-0.103
-481.376	35.470	-0.086	0.074
-480.362	-200.000	-0.044	0.428
-479.347	571.280	-0.130	0.312
-478.332	280.643	-0.075	0.132
-477.318	61.470	0.087	-0.085
-476.303	229.781	-0.068	-0.110
-475.289	-33.299	0.271	0.148
-474.274	-74.842	0.263	-0.093
-473.259	367.085	0.123	-0.245
-472.245	-9.328	-0.140	-0.092
-471.230	-45.786	0.235	-0.115
-470.216	-90.898	0.395	-0.112
-469.201	-121.914	-0.042	-0.007
-468.186	125.255	-0.045	-0.057
-467.172	-107.903	0.107	-0.023
-466.157	81.114	0.169	0.180
-465.143	294.097	0.122	-0.220
-464.128	-200.000	0.033	-0.349
-463.113	-200.000	-0.016	-0.182
-462.099	35.057	-0.142	0.123
-461.084	800.000	-0.071	0.218
-460.070	-200.000	0.015	0.075
-459.055	18.551	-0.160	-0.127
-458.040	438.904	-0.039	-0.085
-457.026	63.370	-0.202	0.200
-456.011	-98.540	0.172	0.043
-454.997	-79.216	0.162	0.054
-453.982	-133.370	0.106	-0.013
-452.968	-22.416	-0.142	-0.085
-451.953	-141.408	0.199	-0.020
-450.938	-200.000	0.027	0.131
-449.924	309.898	-0.121	0.222
-448.909	800.000	0.090	0.342
-447.895	800.000	-0.118	0.448
-446.880	-30.712	0.241	0.134
-445.865	-177.038	-0.024	0.001
-444.851	-200.000	-0.060	-0.431
-443.836	-119.317	-0.131	-0.023
-442.822	382.439	-0.128	-0.258
-441.807	-200.000	0.028	-0.188
-440.792	39.580	0.167	0.147
-439.778	63.512	0.076	0.076
-438.763	167.626	0.153	0.215
-437.749	-38.913	-0.181	0.094
-436.734	-182.731	-0.134	-0.002
-435.719	105.319	-0.170	0.198
-434.705	-200.000	-0.074	-0.414
-433.690	85.672	-0.085	-0.093
-432.676	59.320	-0.059	-0.058
-431.661	-39.843	-0.100	0.051
-430.646	-145.941	0.297	0.026
-429.632	3.521	-0.016	-0.011
-428.617	-55.159	0.225	-0.100
-427.603	141.954	-0.103	-0.134
-426.588	403.117	-0.077	-0.159
-425.573	780.851	0.132	-0.356
-424.559	-179.709	-0.110	0.002
-423.544	-200.000	0.059	-0.599
-422.530	21.491	-0.307	-0.246
-421.515	-41.054	-0.185	0.094
-420.500	53.429	-0.184	0.173
-419.486	67.323	-0.250	0.251
-418.471	-31.066	-0.074	0.041
-417.457	229.715	-0.095	0.153
-416.442	4.098	0.066	0.047
-415.428	341.367	0.067	0.129
-414.413	800.000	-0.088	0.250
-413.398	250.884	0.080	-0.135
-412.384	-138.329	-0.164	-0.018
-411.369	-87.186	0.151	-0.045
-410.355	-106.512	-0.186	0.041
-409.340	-97.941	-0.206	-0.052
-408.325	-200.000	-0.017	-0.136
-407.311	-107.262	-0.120	-0.026
-406.296	7.943	0.358	-0.264
-405.282	-186.154	0.362	-0.005
-404.267	236.913	-0.131	-0.213
-403.252	-33.785	0.081	-0.044
-402.238	-98.376	-0.275	-0.069
-401.223	601.153	0.160	-0.390
-400.209	35.982	-0.325	0.282
-399.194	73.182	-0.178	0.184
-398.179	-153.089	-0.234	0.016
-397.165	719.961	0.083	0.216
-396.150	611.098	0.026	0.064
-395.136	-137.210	0.331	0.037
-394.121	146.182	0.235	-0.310
-393.106	39.206	-0.030	0.027
-392.092	-66.055	0.106	0.042
-391.077	-177.303	-0.201	0.005
-390.063	-66.765	-0.173	0.067
-389.048	-200.000	0.034	0.425
-388.033	251.356	-0.136	-0.227
-387.019	-176.735	0.408	0.010
-386.004	-83.943	-0.148	0.046
-384.990	-200.000	0.014	-0.164
-383.975	-200.000	-0.041	-0.298
-382.960	-200.000	-0.041	0.193
-381.946	-200.000	0.027	0.166
-380.931	-168.093	0.255	0.010
-379.917	-200.000	-0.027	0.158
-378.902	244.364	-0.150	0.247
-377.888	76.107	-0.126	-0.131
-376.873	-200.000	0.005	-0.073
-375.858	6.109	-0.174	-0.127
-374.844	-43.618	0.101	0.050
-373.829	-23.931	0.168	0.099
-372.815	-200.000	-0.039	-0.296
-371.800	281.383	0.043	-0.076
-370.785	707.431	0.087	-0.226
-369.771	101.714	-0.149	-0.171
-368.756	-75.602	0.180	0.063
-367.742	800.000	0.043	-0.125
-366.727	-62.276	0.106	0.043
-365.712	-19.581	-0.098	0.059
-364.698	800.000	-0.049	0.141
-363.683	-135.770	-0.363	0.042
-362.669	-152.694	0.151	-0.011
-361.654	800.000	0.144	0.399
-360.639	46.060	0.132	-0.120
-359.625	29.081	0.037	0.031
-358.610	696.093	-0.065	-0.167
-357.596	13.048	0.196	0.149
-356.581	-63.572	-0.229	0.093
-355.566	-200.000	0.002	0.138
-354.552	-200.000	-0.035	-0.297
-353.537	-32.101	0.254	0.140
-352.523	36.354	0.080	-0.070
-351.508	55.535	-0.022	0.020
-350.493	17.504	0.369	-0.288
-349.479	700.367	-0.031	0.081
-348.464	6.224	-0.208	-0.152
-347.450	800.000	-0.042	0.173
-346.435	36.495	-0.298	-0.258
-345.420	-200.000	0.003	0.293
-344.406	-69.623	0.156	0.058
-343.391	120.379	-0.077	0.094
-342.377	-8.256	0.236	-0.156
-341.362	-200.000	-0.032	0.203
-340.348	-159.276	0.525	-0.029
-339.333	152.592	0.201	-0.270
-338.318	33.575	0.323	-0.276
-337.304	381.889	0.047	-0.095
-336.289	49.956	-0.104	-0.097
-335.275	-136.255	0.114	-0.013
-334.260	-159.800	0.140	0.008
-333.245	-200.000	0.033	-0.631
-332.231	-200.000	-0.027	-0.226
-331.216	30.305	0.334	0.280
-330.202	183.456	0.094	-0.136
-329.187	-111.020	0.087	0.018
-328.172	-45.685	0.230	0.112
-327.158	-125.087	-0.120	-0.018
-326.143	-150.331	0.092	0.007
-325.129	16.344	0.342	-0.264
-324.114	129.874	-0.148	0.186
-323.099	800.000	0.053	0.206
-322.085	-51.148	-0.205	-0.094
-321.070	684.552	0.057	-0.147
-320.056	-200.000	-0.030	0.247
-319.041	800.000	0.060	0.225
-318.026	-200.000	0.039	0.262
-317.012	-200.000	-0.013	-0.214
-315.997	-103.290	0.208	0.048
-314.983	172.581	0.162	0.228
-313.968	-160.116	-0.367	0.020
-312.953	-200.000	0.052	-0.246
-311.939	800.000	-0.086	-0.269
-310.924	-107.785	0.133	-0.028
-309.910	-128.884	-0.255	-0.035
-308.895	285.165	0.216	0.381
-307.880	-57.631	-0.111	-0.048
-306.866	-164.815	-0.307	-0.014
-305.851	235.904	-0.105	0.169
-304.837	-147.632	0.126	-0.010
-303.822	-56.345	0.217	-0.094
-302.807	800.000	0.088	0.310
-301.793	-51.979	-0.432	-0.197
-300.778	-200.000	0.001	0.095
-299.764	-74.408	0.116	-0.041
-298.749	106.312	-0.156	-0.182
-297.735	33.858	-0.101	0.086
-296.720	-20.515	0.178	-0.107
-295.705	-153.249	-0.329	0.023
-294.691	-200.000	-0.065	0.357
-293.676	-121.484	-0.128	0.021
-292.662	-76.639	-0.228	0.078
-291.647	30.622	0.104	0.087
-290.632	208.793	0.174	0.267
-289.618	-98.971	-0.066	0.016
-288.603	-200.000	0.009	0.047
-287.589	-200.000	-0.015	0.214
-286.574	-200.000	0.027	0.289
-285.559	195.759	0.192	0.287
-284.545	800.000	0.014	0.054
-283.530	188.368	-0.177	0.259
-282.516	-14.397	0.187	-0.118
-281.501	35.442	-0.078	-0.067
-280.486	-150.791	0.239	0.018
-279.472	-200.000	-0.014	-0.153
-278.457	-200.000	-0.032	0.403
-277.443	204.769	0.047	-0.071
-276.428	143.009	0.123	-0.160
-275.413	-51.595	-0.204	0.093
-274.399	108.076	-0.233	0.272
-273.384	-87.856	0.292	-0.086
-272.370	-200.000	0.000	0.003
-271.355	800.000	-0.025	-0.078
-270.340	-100.774	0.139	-0.034
-269.326	-98.131	0.188	0.047
-268.311	-81.968	-0.127	0.041
-267.297	800.000	0.071	0.256
-266.282	-200.000	0.017	0.303
-265.267	800.000	-0.073	-0.208
-264.253	-200.000	-0.040	-0.211
-263.238	-40.506	0.314	0.160
-262.224	-200.000	-0.027	-0.154
-261.209	420.542	0.205	0.429
-260.195	18.301	-0.104	0.081
-259.180	-45.283	0.034	-0.017
-258.165	-82.975	0.300	0.095
-257.151	52.215	-0.087	0.081
-256.136	800.000	0.059	0.234
-255.122	-115.374	-0.246	0.045
-254.107	-86.187	-0.161	-0.049
-253.092	-200.000	-0.003	0.220
-252.078	36.750	-0.092	0.079
-251.063	-156.671	-0.235	-0.014
-250.049	800.000	-0.098	-0.416
-249.034	-91.447	-0.148	0.041
-248.019	390.181	0.048	-0.097
-247.005	-10.047	0.247	0.161
-245.990	-200.000	-0.035	0.170
-244.976	513.748	-0.127	-0.290
-243.961	20.096	0.221	-0.174
-242.946	-190.289	-0.263	-0.003
-241.932	-103.538	0.126	0.029
-240.917	-12.485	-0.048	-0.031
-239.903	214.014	0.157	0.243
-238.888	501.060	0.189	0.427
-237.873	771.262	0.092	0.246
-236.859	-142.889	0.334	0.032
-235.844	-173.681	-0.075	0.002
-234.830	-127.915	0.133	-0.019
-233.815	489.270	-0.080	-0.179
-232.800	745.018	-0.073	-0.193
-231.786	-7.830	0.222	0.147
-230.771	-200.000	0.025	-0.339
-229.757	-56.056	-0.335	-0.146
-228.742	-84.974	0.124	-0.038
-227.727	334.461	0.049	-0.093
-226.713	158.677	0.247	-0.336
-225.698	-27.376	-0.317	-0.180
-224.684	19.719	0.028	-0.022
-223.669	-169.479	0.128	0.005
-222.655	-9.961	0.092	0.060
-221.640	800.000	0.046	-0.183
-220.625	-64.480	-0.043	-0.017
-219.611	-94.621	-0.206	0.055
-218.596	-28.994	-0.252	0.141
-217.582	53.530	-0.253	0.237
-216.567	556.810	-0.190	0.448
-215.552	-0.730	0.103	0.071
-214.538	-36.709	-0.220	0.116
-213.523	-200.000	0.009	-0.149
-212.509	-24.440	-0.296	-0.172
-211.494	457.266	0.128	0.277
-210.479	-200.000	0.002	0.070
-209.465	350.202	0.200	0.387
-208.450	-200.000	-0.083	0.380
-207.436	713.409	-0.109	-0.282
-206.421	1.166	0.233	-0.164
-205.406	347.906	-0.084	-0.162
-204.392	343.711	0.071	0.136
-203.377	-49.887	-0.074	0.034
-202.363	-177.589	0.212	0.005
-201.348	-109.643	0.218	-0.045
-200.333	-89.613	0.215	0.062
-199.319	-153.360	-0.046	0.003
-198.304	100.039	-0.137	0.155
-197.290	-123.647	0.101	0.016
-196.275	-200.000	0.015	0.093
-195.260	-194.540	0.437	0.003
-194.246	-200.000	-0.017	0.088
-193.231	-70.572	0.093	0.034
-192.217	-9.247	0.279	-0.182
-191.202	-112.377	0.183	-0.036
-190.187	800.000	0.060	0.223
-189.173	743.097	0.023	0.059
-188.158	-155.440	0.139	-0.009
-187.144	-158.387	-0.110	0.006
-186.129	51.802	0.314	0.292
-185.114	-45.191	-0.143	0.069
-184.100	800.000	0.136	0.468
-183.085	-77.849	0.457	0.154
-182.071	800.000	0.106	-0.394
-181.056	-200.000	0.001	-0.129
-180.042	800.000	-0.121	0.426
-179.027	800.000	-0.067	0.218
-178.012	-94.150	-0.175	0.047
-176.998	-200.000	0.020	0.176
-175.983	-199.873	-0.089	0.000
-174.969	-153.906	0.138	-0.009
-173.954	100.715	-0.310	-0.352
-172.939	-200.000	-0.011	0.103
-171.925	800.000	0.049	0.150
-170.910	29.199	0.175	-0.145
-169.896	-54.257	0.283	0.125
-168.881	129.899	0.212	-0.264
-167.866	-78.246	0.254	0.085
-166.852	38.975	-0.096	0.083
-165.837	800.000	0.047	0.193
-164.823	-200.000	0.006	-0.223
-163.808	2.052	-0.220	0.155
-162.793	-2.480	-0.120	-0.082
-161.779	-77.078	0.161	-0.055
-160.764	107.927	0.184	0.214
-159.750	-136.085	-0.189	0.022
-158.735	255.580	-0.094	0.157
-157.720	-200.000	-0.036	-0.278
-156.706	-200.000	-0.001	-0.503
-155.691	-65.333	-0.177	0.069
-154.677	110.255	-0.132	-0.155
-153.662	-4.147	-0.073	0.049
-152.647	-200.000	0.012	0.293
-151.633	800.000	0.061	-0.261
-150.618	-6.389	0.263	-0.175
-149.604	-39.317	0.134	-0.068
-148.589	16.131	0.137	-0.105
-147.574	-159.164	-0.195	-0.011
-146.560	360.208	-0.156	-0.305
-145.545	800.000	-0.014	-0.050
-144.531	136.174	0.055	0.070
-143.516	-200.000	-0.037	0.331
-142.502	290.316	-0.172	0.305
-141.487	-27.611	0.314	-0.177
-140.472	-200.000	0.015	0.254
-139.458	-12.358	-0.225	-0.143
-138.443	-200.000	-0.021	0.113
-137.429	800.000	0.104	0.294
-136.414	112.620	0.118	0.139
-135.399	-143.022	0.212	0.020
-134.385	-168.324	-0.147	-0.006
-133.370	-200.000	0.002	-0.157
-132.356	-16.816	0.245	0.151
-131.341	47.441	-0.111	0.101
-130.326	-177.566	-0.238	-0.006
-129.312	-200.000	-0.058	0.321
-128.297	-134.055	0.214	0.026
-127.283	100.353	-0.014	0.016
-126.268	-10.036	0.142	-0.092
-125.253	55.242	-0.104	-0.098
-124.239	-81.335	-0.153	-0.049
-123.224	231.729	0.194	-0.310
-122.210	-200.000	0.003	-0.095
