DTS Sentinel unit serial number:	SN413079Multiplexer serial number:	ORYXHardware model number:	OX4-SRSoftware version number:	ORYX F/W v4.00 Oryx Data Collector v3.7.2.0data status	okinstallation	princeton_trtdifferential loss correction	single-endedforward channel	channel 2reverse channel	N/Adate	2019/09/11time	11:05:10forward acquisition time	60.00reverse acquisition time	0.00gamma	496.2192k internal	0.2308k external	0.2308temperature offset calibration	0.9968default loss term (dB/km)	0.3790temperature slope calibration	1.0000multiplexer offset coefficient	1.0000multiplexer slope coefficient	1.0000fibre end	0.00T internal ref (°C)	37.36T ext. ref 1 (°C)	0.16T ext. ref 2 (°C)	34.75length (m)	temperature (°C)	Stokes	anti-Stokes-747.200	0.981	-0.215	0.157
-746.185	745.489	-0.185	0.508
-745.171	-74.284	0.200	0.073
-744.156	175.788	0.091	0.134
-743.142	-200.000	-0.008	-0.052
-742.127	750.892	0.109	-0.300
-741.112	31.849	0.129	-0.113
-740.098	-1.922	0.104	0.075
-739.083	580.038	0.027	-0.067
-738.069	-40.819	-0.230	0.121
-737.054	50.854	-0.158	-0.152
-736.039	11.275	-0.015	0.012
-735.025	88.325	0.177	0.200
-734.010	-200.000	0.001	-0.131
-732.996	260.258	-0.110	-0.193
-731.981	445.661	0.203	-0.453
-730.966	203.421	0.142	-0.223
-729.952	-78.140	-0.076	0.027
-728.937	-88.392	-0.221	-0.067
-727.923	800.000	-0.037	0.148
-726.908	348.481	0.024	-0.048
-725.894	-200.000	0.009	-0.468
-724.879	-200.000	0.018	-0.254
-723.864	-41.586	-0.287	-0.150
-722.850	-18.208	-0.171	0.108
-721.835	-200.000	-0.011	-0.242
-720.821	-200.000	-0.015	-0.377
-719.806	100.706	-0.120	0.142
-718.791	-200.000	0.044	-0.232
-717.777	229.969	0.068	0.114
-716.762	-104.476	0.095	-0.022
-715.748	191.287	-0.059	0.091
-714.733	6.501	-0.089	-0.067
-713.718	800.000	-0.056	-0.185
-712.704	121.215	0.291	-0.368
-711.689	-200.000	-0.002	-0.061
-710.675	-95.536	0.089	-0.024
-709.660	-200.000	-0.110	-0.515
-708.645	27.243	-0.341	-0.291
-707.631	-153.539	0.054	0.004
-706.616	-5.386	-0.393	-0.274
-705.602	306.737	0.161	0.304
-704.587	800.000	0.039	-0.147
-703.572	3.131	-0.211	-0.156
-702.558	70.022	0.202	0.212
-701.543	101.905	-0.103	0.122
-700.529	92.577	0.227	0.259
-699.514	800.000	-0.040	0.166
-698.499	544.369	0.104	-0.253
-697.485	-59.005	-0.174	0.076
-696.470	800.000	0.115	-0.418
-695.456	403.782	-0.176	-0.375
-694.441	-183.571	-0.301	-0.005
-693.426	-200.000	0.017	-0.455
-692.412	800.000	-0.099	-0.344
-691.397	-63.088	0.288	-0.120
-690.383	800.000	-0.044	-0.194
-689.368	-12.387	0.058	0.038
-688.354	-110.775	-0.252	0.053
-687.339	-47.921	0.147	-0.072
-686.324	-156.705	0.323	0.020
-685.310	2.123	-0.035	0.026
-684.295	-67.104	-0.286	-0.114
-683.281	17.289	0.092	0.074
-682.266	61.963	-0.102	-0.103
-681.251	-66.463	0.268	-0.108
-680.237	186.155	-0.105	0.158
-679.222	611.540	0.061	0.155
-678.208	-164.770	-0.336	-0.015
-677.193	-136.383	0.130	-0.015
-676.178	-140.025	-0.169	0.018
-675.164	201.315	0.035	-0.055
-674.149	67.007	0.120	0.124
-673.135	-200.000	-0.016	0.073
-672.120	64.171	0.063	-0.064
-671.105	-173.137	-0.163	-0.005
-670.091	-200.000	-0.001	-0.233
-669.076	-99.500	-0.233	-0.059
-668.062	94.187	0.141	-0.162
-667.047	539.180	-0.089	0.215
-666.032	93.437	-0.136	0.155
-665.018	-22.213	-0.247	0.152
-664.003	48.378	-0.187	0.177
-662.989	-20.696	-0.261	0.162
-661.974	-96.178	0.429	0.115
-660.959	-29.057	-0.238	0.138
-659.945	-132.598	-0.040	0.005
-658.930	-35.400	-0.377	-0.208
-657.916	-10.407	0.146	0.098
-656.901	93.766	0.224	0.257
-655.886	-78.113	0.306	-0.107
-654.872	-41.062	-0.178	0.093
-653.857	800.000	-0.147	0.435
-652.843	-198.161	0.045	0.000
-651.828	-66.753	-0.353	0.142
-650.814	-200.000	-0.027	0.329
-649.799	24.431	-0.139	-0.117
-648.784	-73.111	0.185	-0.069
-647.770	-200.000	-0.001	0.183
-646.755	109.482	0.129	-0.157
-645.741	-10.306	0.112	-0.075
-644.726	-124.205	-0.197	-0.031
-643.711	800.000	0.034	-0.142
-642.697	-200.000	-0.046	0.288
-641.682	585.374	0.073	0.182
-640.668	-200.000	0.001	0.124
-639.653	1.396	-0.413	0.301
-638.638	119.434	0.123	0.154
-637.624	113.391	-0.070	-0.086
-636.609	-168.116	0.374	-0.015
-635.595	-51.389	-0.334	-0.158
-634.580	491.493	0.056	0.131
-633.565	293.649	0.065	-0.120
-632.551	-200.000	-0.005	0.080
-631.536	106.577	-0.136	0.164
-630.522	524.856	0.051	0.121
-629.507	-90.967	0.210	0.061
-628.492	324.483	-0.020	-0.038
-627.478	-51.567	-0.327	0.154
-626.463	-200.000	0.025	-0.183
-625.449	-200.000	-0.003	-0.106
-624.434	-157.470	-0.159	-0.010
-623.419	-200.000	0.027	-0.144
-622.405	149.471	-0.188	0.257
-621.390	147.368	-0.078	-0.106
-620.376	-11.459	-0.114	-0.076
-619.361	276.402	0.127	-0.228
-618.346	-83.717	0.198	-0.064
-617.332	-200.000	0.048	-0.266
-616.317	13.775	-0.104	0.082
-615.303	-145.837	-0.146	-0.013
-614.288	589.186	-0.107	-0.268
-613.273	-194.947	-0.200	0.002
-612.259	-92.125	0.331	-0.094
-611.244	-96.811	-0.511	-0.136
-610.230	-89.527	-0.198	-0.059
-609.215	-179.362	0.262	0.006
-608.201	-30.345	0.071	-0.041
-607.186	6.581	0.217	0.163
-606.171	407.547	-0.145	-0.310
-605.157	-200.000	0.004	0.176
-604.142	-93.320	-0.220	0.062
-603.128	-200.000	0.016	-0.077
-602.113	150.447	0.106	-0.146
-601.098	-200.000	0.007	0.198
-600.084	-161.468	-0.126	-0.007
-599.069	800.000	0.096	-0.420
-598.055	48.827	-0.093	-0.088
-597.040	-118.578	0.251	0.045
-596.025	-200.000	0.008	-0.121
-595.011	-7.126	-0.226	-0.155
-593.996	-188.894	0.227	0.003
-592.982	214.861	0.141	0.225
-591.967	11.238	0.210	-0.162
-590.952	-58.946	0.051	-0.022
-589.938	-133.467	0.188	0.024
-588.923	-200.000	-0.034	0.166
-587.909	-2.133	0.400	-0.284
-586.894	98.428	0.066	-0.077
-585.879	-18.631	0.210	-0.132
-584.865	-88.043	-0.129	-0.039
-583.850	341.626	-0.123	-0.244
-582.836	89.067	0.205	-0.231
-581.821	-173.338	0.130	0.004
-580.806	501.723	0.148	0.345
-579.792	-66.970	0.147	-0.059
-578.777	-96.696	0.381	-0.101
-577.763	800.000	0.033	-0.111
-576.748	68.488	-0.119	-0.123
-575.733	45.850	0.179	0.167
-574.719	-200.000	-0.055	-0.412
-573.704	800.000	-0.078	-0.343
-572.690	7.782	0.185	-0.140
-571.675	-117.925	0.194	-0.035
-570.661	26.758	-0.280	-0.237
-569.646	-56.540	-0.167	-0.075
-568.631	-200.000	-0.011	-0.187
-567.617	81.603	-0.134	-0.147
-566.602	52.604	-0.202	-0.195
-565.588	212.078	-0.064	0.101
-564.573	152.010	0.110	0.151
-563.558	-90.807	-0.226	-0.066
-562.544	-200.000	-0.028	-0.277
-561.529	800.000	0.013	-0.053
-560.515	800.000	-0.086	0.306
-559.500	-29.895	-0.359	-0.207
-558.485	-139.552	0.210	0.023
-557.471	800.000	-0.028	0.080
-556.456	78.673	-0.051	0.056
-555.442	61.763	-0.019	-0.019
-554.427	-41.356	0.180	0.094
-553.412	-200.000	-0.011	0.173
-552.398	3.000	-0.073	0.053
-551.383	-106.718	0.132	-0.030
-550.369	65.292	-0.222	-0.226
-549.354	-100.133	0.221	0.055
-548.339	-84.552	-0.182	-0.058
-547.325	431.379	-0.062	-0.136
-546.310	10.819	0.080	-0.061
-545.296	767.481	-0.059	0.162
-544.281	-200.000	0.009	0.114
-543.266	800.000	-0.131	0.391
-542.252	142.417	0.136	-0.182
-541.237	-160.847	0.384	0.020
-540.223	113.776	0.269	-0.330
-539.208	125.918	0.320	0.407
-538.193	651.199	-0.136	-0.352
-537.179	-147.165	-0.223	-0.019
-536.164	12.639	-0.413	-0.321
-535.150	-132.073	-0.309	-0.041
-534.135	277.107	0.166	0.297
-533.121	-101.876	0.138	0.034
-532.106	-80.452	-0.088	-0.030
-531.091	-200.000	0.008	-0.108
-530.077	41.408	-0.333	0.304
-529.062	-138.023	-0.326	-0.037
-528.048	749.222	-0.068	0.184
-527.033	-200.000	-0.071	0.441
-526.018	-4.335	-0.170	0.119
-525.004	-50.407	0.104	0.050
-523.989	390.192	0.131	0.274
-522.975	149.102	-0.115	0.156
-521.960	-200.000	0.147	0.001
-520.945	-72.613	0.270	0.100
-519.931	196.441	-0.229	-0.352
-518.916	479.265	-0.013	0.031
-517.902	-164.342	-0.124	0.006
-516.887	192.729	0.147	0.224
-515.872	-77.766	0.071	0.025
-514.858	76.750	-0.315	-0.337
-513.843	160.098	-0.179	-0.252
-512.829	20.456	0.234	-0.191
-511.814	-149.850	0.153	-0.012
-510.799	294.999	-0.134	0.248
-509.785	-51.778	0.233	-0.109
-508.770	-162.376	-0.244	-0.012
-507.756	800.000	0.032	-0.140
-506.741	-86.883	0.204	-0.063
-505.726	-200.000	-0.048	0.222
-504.712	-63.236	0.156	0.065
-503.697	3.018	-0.025	0.018
-502.683	800.000	0.080	0.329
-501.668	-200.000	-0.030	-0.329
-500.653	-102.595	0.389	-0.093
-499.639	439.306	0.133	0.291
-498.624	14.526	0.136	0.107
-497.610	192.353	-0.042	-0.063
-496.595	234.514	0.055	-0.092
-495.581	58.388	-0.304	0.300
-494.566	-80.833	0.173	0.058
-493.551	106.054	-0.036	-0.043
-492.537	-17.066	-0.176	-0.112
-491.522	-84.240	-0.057	-0.018
-490.508	-34.841	0.461	0.253
-489.493	-66.739	0.459	-0.183
-488.478	126.125	-0.164	-0.208
-487.464	252.429	0.034	-0.059
-486.449	-200.000	0.014	0.371
-485.435	94.329	0.013	0.015
-484.420	-200.000	0.031	-0.326
-483.405	280.832	-0.095	0.171
-482.391	-122.373	-0.036	0.006
-481.376	-200.000	0.026	0.147
-480.362	548.641	-0.018	0.042
-479.347	-97.747	0.086	0.022
-478.332	-104.035	0.101	-0.024
-477.318	393.096	-0.141	0.295
-476.303	800.000	-0.122	-0.348
-475.289	-200.000	0.010	0.122
-474.274	-33.764	-0.121	-0.067
-473.259	280.083	-0.104	-0.188
-472.245	-200.000	-0.013	0.061
-471.230	-114.904	-0.150	-0.029
-470.216	-200.000	-0.042	-0.312
-469.201	-200.000	-0.001	-0.105
-468.186	23.420	-0.133	-0.110
-467.172	66.605	0.186	0.190
-466.157	750.362	0.112	0.304
-465.143	79.299	-0.206	0.222
-464.128	-200.000	-0.006	-0.083
-463.113	396.343	0.138	-0.290
-462.099	-42.129	-0.026	0.013
-461.084	-200.000	0.005	-0.034
-460.070	-157.714	0.086	0.005
-459.055	-115.525	-0.329	-0.062
-458.040	-97.349	-0.400	-0.105
-457.026	137.260	0.186	-0.245
-456.011	-76.479	-0.295	-0.104
-454.997	-131.735	0.191	0.025
-453.982	-69.183	-0.202	-0.078
-452.968	42.984	0.179	-0.164
-451.953	-92.394	-0.058	-0.016
-450.938	212.903	-0.063	0.100
-449.924	-57.734	0.149	-0.066
-448.909	97.787	0.198	0.229
-447.895	-144.215	-0.155	-0.015
-446.880	72.759	0.175	0.183
-445.865	-200.000	0.013	0.140
-444.851	36.573	-0.043	-0.038
-443.836	31.299	-0.085	0.073
-442.822	59.841	0.230	0.228
-441.807	800.000	-0.071	-0.230
-440.792	134.078	0.077	0.100
-439.778	-107.436	-0.395	-0.087
-438.763	-200.000	-0.019	-0.194
-437.749	-131.670	0.112	0.015
-436.734	7.787	0.124	0.093
-435.719	791.886	0.030	0.082
-434.705	800.000	-0.059	-0.186
-433.690	-47.147	-0.305	-0.149
-432.676	201.429	0.307	0.474
-431.661	-200.000	-0.042	0.238
-430.646	248.658	-0.169	-0.287
-429.632	-200.000	-0.016	0.281
-428.617	-121.758	0.372	-0.062
-427.603	-2.803	0.117	0.082
-426.588	-72.704	-0.128	-0.048
-425.573	146.000	-0.158	-0.212
-424.559	-99.740	0.216	-0.054
-423.544	154.703	-0.092	-0.127
-422.530	635.537	0.107	0.274
-421.515	113.875	-0.090	0.109
-420.500	800.000	-0.103	0.307
-419.486	-200.000	-0.025	0.216
-418.471	54.913	-0.218	0.212
-417.457	-33.625	0.192	0.107
-416.442	-130.255	-0.255	-0.035
-415.428	53.027	-0.204	-0.196
-414.413	147.541	-0.054	-0.073
-413.398	-200.000	-0.057	0.318
-412.384	217.173	-0.099	0.158
-411.369	-126.212	0.038	0.006
-410.355	-73.033	-0.234	-0.086
-409.340	-89.228	0.144	-0.043
-408.325	62.238	0.185	-0.185
-407.311	183.945	0.095	0.141
-406.296	-119.001	0.111	-0.019
-405.282	-36.800	0.069	-0.037
-404.267	59.720	0.227	0.225
-403.252	-200.000	-0.018	0.107
-402.238	-35.495	-0.466	0.254
-401.223	-75.689	-0.058	0.021
-400.209	112.420	0.145	-0.176
-399.194	800.000	-0.106	-0.338
-398.179	800.000	-0.079	-0.243
-397.165	-122.505	-0.094	0.015
-396.150	71.116	0.316	0.329
-395.136	-10.631	0.189	0.125
-394.121	-84.501	0.134	-0.042
-393.106	-74.660	-0.114	-0.041
-392.092	800.000	-0.088	-0.292
-391.077	222.084	-0.190	-0.307
-390.063	-200.000	0.045	0.266
-389.048	155.917	-0.133	0.184
-388.033	107.996	-0.074	0.089
-387.019	800.000	-0.047	-0.167
-386.004	-200.000	0.022	-0.365
-384.990	800.000	-0.071	-0.250
-383.975	556.874	-0.042	0.100
-382.960	66.995	0.054	-0.056
-381.946	800.000	-0.048	0.156
-380.931	-14.433	-0.212	-0.137
-379.917	800.000	0.100	-0.372
-378.902	-44.083	-0.132	-0.067
-377.888	131.774	0.188	0.242
-376.873	20.727	0.133	0.108
-375.858	-84.599	0.228	0.072
-374.844	111.229	0.145	0.176
-373.829	800.000	0.070	-0.301
-372.815	485.103	0.039	0.089
-371.800	-83.493	-0.195	-0.063
-370.785	8.108	0.119	-0.090
-369.771	-21.473	-0.408	0.249
-368.756	-134.053	-0.309	0.038
-367.742	-101.511	0.205	-0.050
-366.727	-123.089	-0.199	-0.032
-365.712	-155.367	0.339	0.022
-364.698	89.225	-0.213	0.237
-363.683	800.000	0.105	0.412
-362.669	-200.000	0.009	-0.275
-361.654	683.160	-0.077	0.202
-360.639	-200.000	-0.063	0.326
-359.625	800.000	-0.100	0.296
-358.610	-33.008	-0.108	-0.060
-357.596	-200.000	-0.028	-0.133
-356.581	-200.000	-0.050	0.242
-355.566	14.331	0.253	0.197
-354.552	-200.000	-0.003	0.080
-353.537	798.368	-0.053	0.147
-352.523	82.396	-0.198	0.215
-351.508	-51.575	0.160	0.075
-350.493	0.701	0.052	-0.038
-349.479	-200.000	-0.001	-0.061
-348.464	196.832	-0.028	0.043
-347.450	-3.342	-0.302	0.211
-346.435	-27.521	-0.241	0.140
-345.420	119.887	-0.155	-0.192
-344.406	-142.130	0.124	-0.012
-343.391	-51.455	-0.408	-0.191
-342.377	-42.736	0.093	0.047
-341.362	288.476	-0.121	0.219
-340.348	365.362	0.136	-0.273
-339.333	69.425	0.111	-0.115
-338.318	33.402	0.186	-0.161
-337.304	-200.000	0.003	-0.120
-336.289	331.626	0.104	0.200
-335.275	640.426	-0.144	-0.368
-334.260	-114.902	-0.234	0.045
-333.245	71.602	-0.236	0.245
-332.231	225.749	0.068	-0.110
-331.216	-187.402	0.270	0.004
-330.202	-68.866	-0.104	0.040
-329.187	135.207	0.130	0.169
-328.172	49.412	0.102	0.096
-327.158	85.115	-0.125	-0.137
-326.143	69.480	-0.038	-0.039
-325.129	-109.076	0.201	-0.043
-324.114	-200.000	-0.012	-0.291
-323.099	-78.078	0.455	0.157
-322.085	-73.888	0.303	-0.110
-321.070	46.582	0.137	0.127
-320.056	99.504	0.214	-0.248
-319.041	-117.354	-0.332	0.060
-318.026	-200.000	0.017	-0.171
-317.012	800.000	-0.126	-0.478
-315.997	-53.377	-0.492	0.225
-314.983	122.062	-0.098	-0.122
-313.968	719.565	0.123	0.328
-312.953	200.092	-0.046	0.071
-311.939	-67.967	0.457	-0.178
-310.924	114.850	0.231	0.281
-309.910	-94.690	-0.245	-0.066
-308.895	800.000	-0.067	-0.201
-307.880	800.000	0.016	0.046
-306.866	-24.614	0.213	-0.127
-305.851	-100.869	0.170	-0.042
-304.837	72.614	-0.145	-0.151
-303.822	107.283	0.198	-0.235
-302.807	-123.074	-0.028	-0.005
-301.793	-200.000	-0.025	0.142
-300.778	-200.000	0.053	0.295
-299.764	-10.072	0.269	-0.178
-298.749	-18.051	0.261	0.163
-297.735	267.929	0.095	-0.166
-296.720	-119.821	0.325	-0.056
-295.705	-99.224	-0.163	0.041
-294.691	-34.969	-0.209	0.114
-293.676	-78.678	0.233	0.079
-292.662	-143.945	-0.054	0.005
-291.647	4.290	0.145	-0.106
-290.632	540.424	-0.127	0.301
-289.618	585.019	0.039	-0.095
-288.603	-77.481	0.239	0.083
-287.589	0.517	0.065	0.046
-286.574	7.352	-0.020	0.015
-285.559	28.306	-0.158	-0.133
-284.545	93.624	0.354	-0.400
-283.530	-200.000	0.014	-0.084
-282.516	124.310	0.141	-0.178
-281.501	513.755	0.075	-0.175
-280.486	-11.095	0.202	-0.133
-279.472	-31.771	0.046	0.026
-278.457	36.165	0.171	-0.151
-277.443	800.000	0.031	0.129
-276.428	81.282	-0.063	-0.068
-275.413	800.000	-0.047	0.206
-274.399	-50.807	-0.133	0.063
-273.384	58.184	-0.269	0.263
-272.370	174.393	-0.187	0.270
-271.355	-200.000	0.027	0.307
-270.340	71.027	-0.123	-0.128
-269.326	569.822	-0.019	-0.046
-268.311	-74.042	-0.053	0.019
-267.297	36.912	0.074	0.065
-266.282	93.908	0.164	0.186
-265.267	-149.121	0.171	-0.014
-264.253	1.477	-0.021	0.015
-263.238	800.000	0.052	-0.208
-262.224	-146.188	-0.092	-0.008
-261.209	-168.698	0.133	0.005
-260.195	-19.803	-0.225	0.139
-259.180	-98.615	-0.083	-0.021
-258.165	461.359	-0.160	-0.357
-257.151	-48.918	-0.388	0.185
-256.136	652.999	0.013	-0.034
-255.122	-85.980	0.143	0.044
-254.107	-200.000	-0.061	-0.288
-253.092	-200.000	0.022	-0.138
-252.078	57.458	-0.198	0.192
-251.063	60.677	-0.299	0.296
-250.049	322.751	0.084	0.159
-249.034	220.499	0.149	-0.239
-248.019	800.000	0.075	-0.221
-247.005	800.000	0.010	0.033
-245.990	-55.383	-0.257	0.115
-244.976	-200.000	-0.036	-0.169
-243.961	-200.000	0.002	-0.275
-242.946	800.000	-0.052	-0.213
-241.932	25.054	0.107	0.088
-240.917	166.361	0.094	0.133
-239.903	800.000	0.152	0.458
-238.888	-2.113	-0.051	0.036
-237.873	-200.000	-0.035	-0.272
-236.859	-75.191	-0.030	-0.011
-235.844	194.929	-0.057	-0.087
-234.830	-102.738	-0.229	-0.054
-233.815	-74.989	-0.231	-0.083
-232.800	-163.308	-0.391	0.019
-231.786	60.293	-0.110	0.108
-230.771	-155.424	0.338	-0.022
-229.757	6.655	-0.283	0.209
-228.742	-191.349	0.158	0.002
-227.727	-53.879	0.045	-0.021
-226.713	-123.298	0.207	0.033
-225.698	-63.758	-0.304	-0.124
-224.684	68.873	-0.150	0.153
-223.669	-22.396	-0.130	0.078
-222.655	-119.044	0.078	0.014
-221.640	-163.432	-0.246	-0.012
-220.625	-143.141	-0.173	0.017
-219.611	-200.000	0.042	0.207
-218.596	-79.345	0.270	-0.091
-217.582	91.458	0.135	-0.151
-216.567	267.268	0.159	-0.277
-215.552	800.000	0.080	0.276
-214.538	-200.000	0.008	-0.169
-213.523	-135.232	0.254	0.030
-212.509	336.010	0.142	0.274
-211.494	-111.595	-0.140	-0.028
-210.479	119.556	-0.228	0.281
-209.465	34.169	0.082	0.072
-208.450	11.816	-0.184	0.141
-207.436	800.000	-0.084	0.315
-206.421	-144.773	-0.142	0.013
-205.406	27.694	0.146	0.122
-204.392	-128.322	0.173	0.025
-203.377	-99.223	-0.394	0.099
-202.363	800.000	-0.059	0.169
-201.348	218.535	-0.074	-0.117
-200.333	33.809	0.158	-0.137
-199.319	-42.724	0.133	0.067
-198.304	68.980	-0.302	-0.309
-197.290	97.865	0.122	0.139
-196.275	651.555	-0.144	0.367
-195.260	-5.197	0.367	-0.251
-194.246	106.236	0.178	0.210
-193.231	-192.114	0.241	-0.002
-192.217	-13.406	-0.212	0.137
-191.202	-200.000	-0.089	-0.443
-190.187	800.000	-0.044	0.126
-189.173	-13.747	0.170	-0.109
-188.158	-200.000	0.042	-0.186
-187.144	-200.000	0.015	0.135
-186.129	-200.000	-0.004	0.151
-185.114	-8.986	0.108	0.072
-184.100	800.000	0.101	0.322
-183.085	-200.000	-0.003	-0.434
-182.071	50.565	-0.200	0.188
-181.056	467.765	-0.069	0.153
-180.042	-63.039	0.543	-0.223
-179.027	-99.716	0.145	-0.036
-178.012	800.000	-0.026	0.113
-176.998	-200.000	0.023	-0.138
-175.983	-97.295	0.090	-0.023
-174.969	800.000	0.031	-0.122
-173.954	-103.575	-0.134	-0.031
-172.939	800.000	-0.055	-0.164
-171.925	800.000	0.142	0.411
-170.910	-200.000	-0.062	0.277
-169.896	-119.054	0.146	0.025
-168.881	-200.000	-0.335	0.000
-167.866	-103.067	0.235	0.055
-166.852	-200.000	0.020	0.170
-165.837	-200.000	0.049	-0.531
-164.823	423.534	-0.054	0.115
-163.808	-200.000	-0.010	-0.205
-162.793	296.760	-0.156	-0.285
-161.779	-23.260	-0.322	0.192
-160.764	78.287	0.031	-0.032
-159.750	127.002	0.365	-0.460
-158.735	344.308	0.199	0.388
-157.720	-98.969	-0.162	-0.041
-156.706	-200.000	-0.021	0.272
-155.691	-159.936	-0.069	-0.004
-154.677	-109.654	0.101	-0.021
-153.662	-131.718	-0.076	0.010
-152.647	31.696	0.202	-0.172
-151.633	-200.000	0.008	0.226
-150.618	-87.609	-0.176	-0.053
-149.604	548.625	0.105	0.249
-148.589	315.116	-0.121	-0.227
-147.574	236.654	0.249	-0.409
-146.560	20.033	0.218	0.174
-145.545	29.058	0.165	0.139
-144.531	-200.000	0.030	-0.259
-143.516	-200.000	-0.029	-0.521
-142.502	800.000	0.011	-0.036
-141.487	30.080	-0.232	0.197
-140.472	-25.901	-0.226	0.132
-139.458	-119.265	-0.473	-0.082
-138.443	-59.779	0.308	0.131
-137.429	261.123	0.120	-0.206
-136.414	-4.923	-0.239	0.163
-135.399	178.327	0.065	0.094
-134.385	-12.077	0.228	0.148
-133.370	292.289	-0.120	-0.217
-132.356	-23.178	-0.238	-0.142
-131.341	-101.561	-0.209	0.050
-130.326	-148.673	-0.390	0.032
-129.312	-67.896	-0.276	0.107
-128.297	-46.712	0.338	0.164
-127.283	-38.611	0.062	0.032
-126.268	-180.078	-0.025	-0.001
-125.253	800.000	0.047	0.193
-124.239	140.908	-0.108	0.142
-123.224	379.951	0.032	-0.066
-122.210	-104.898	-0.163	-0.037
-121.195	113.358	-0.379	0.456
