DTS Sentinel unit serial number:	SN413079Multiplexer serial number:	ORYXHardware model number:	OX4-SRSoftware version number:	ORYX F/W v4.00 Oryx Data Collector v3.7.2.0data status	okinstallation	princeton_trtdifferential loss correction	single-endedforward channel	channel 2reverse channel	N/Adate	2019/09/16time	17:11:35forward acquisition time	60.00reverse acquisition time	0.00gamma	496.2192k internal	0.2308k external	0.2308temperature offset calibration	0.9942default loss term (dB/km)	0.3790temperature slope calibration	1.0000multiplexer offset coefficient	1.0000multiplexer slope coefficient	1.0000fibre end	0.00T internal ref (°C)	39.00T ext. ref 1 (°C)	15.36T ext. ref 2 (°C)	33.09length (m)	temperature (°C)	Stokes	anti-Stokes-747.200	-200.000	-0.011	-0.148
-746.185	-200.000	0.049	0.376
-745.171	-23.748	-0.124	0.076
-744.156	-62.640	-0.241	0.102
-743.142	11.374	0.262	0.204
-742.127	-22.882	-0.346	0.212
-741.112	328.722	0.147	-0.287
-740.098	-200.000	-0.008	0.136
-739.083	-40.125	0.060	0.032
-738.069	-200.000	-0.092	0.000
-737.054	800.000	0.099	-0.291
-736.039	800.000	-0.035	-0.137
-735.025	198.743	0.156	-0.242
-734.010	-29.041	-0.291	0.170
-732.996	-200.000	-0.002	0.081
-731.981	-89.159	-0.290	-0.087
-730.966	139.562	-0.214	-0.286
-729.952	-165.246	-0.493	-0.022
-728.937	104.784	-0.241	-0.289
-727.923	-136.020	0.404	0.048
-726.908	-150.959	-0.277	0.021
-725.894	127.088	-0.372	-0.479
-724.879	-73.191	-0.360	-0.134
-723.864	-148.305	-0.317	-0.027
-722.850	-9.877	-0.331	0.224
-721.835	-25.098	-0.300	-0.181
-720.821	-67.483	0.171	0.068
-719.806	12.744	-0.142	0.111
-718.791	-49.115	0.112	-0.054
-717.777	-10.508	-0.411	-0.277
-716.762	-90.489	-0.430	-0.127
-715.748	-55.268	-0.072	-0.033
-714.733	800.000	0.021	0.094
-713.718	10.019	-0.129	-0.099
-712.704	-200.000	0.021	-0.431
-711.689	-145.913	0.244	0.022
-710.675	-132.488	-0.168	-0.022
-709.660	366.925	0.036	-0.074
-708.645	-37.373	0.191	-0.103
-707.631	-44.374	-0.225	0.114
-706.616	101.952	-0.135	-0.160
-705.602	-76.922	0.230	-0.081
-704.587	-80.807	-0.357	-0.120
-703.572	-200.000	-0.031	-0.161
-702.558	186.290	-0.094	0.142
-701.543	-7.560	-0.330	0.227
-700.529	149.365	-0.167	-0.230
-699.514	-200.000	0.013	-0.213
-698.499	-200.000	0.057	-0.343
-697.485	-59.497	-0.146	-0.064
-696.470	-138.323	0.245	-0.027
-695.456	29.825	-0.161	0.139
-694.441	-200.000	0.009	-0.113
-693.426	10.335	0.112	-0.087
-692.412	117.503	0.094	0.118
-691.397	43.563	0.201	0.186
-690.383	-200.000	0.035	-0.285
-689.368	-57.429	0.156	0.069
-688.354	-155.747	-0.221	-0.014
-687.339	705.513	-0.045	0.122
-686.324	-157.286	0.106	-0.007
-685.310	13.861	0.250	0.197
-684.295	-200.000	0.006	0.079
-683.281	47.431	-0.048	0.046
-682.266	-44.407	-0.279	-0.142
-681.251	59.744	-0.306	-0.306
-680.237	-200.000	-0.043	-0.217
-679.222	-103.956	-0.432	0.102
-678.208	677.377	0.119	0.313
-677.193	-52.997	-0.434	0.203
-676.178	-140.006	-0.239	0.026
-675.164	285.875	-0.094	-0.171
-674.149	252.829	0.060	-0.103
-673.135	-8.452	-0.088	-0.060
-672.120	-36.258	-0.261	0.142
-671.105	120.664	-0.078	0.098
-670.091	-83.090	0.155	0.050
-669.076	-200.000	0.001	-0.126
-668.062	-8.704	-0.166	-0.113
-667.047	-60.358	-0.175	-0.076
-666.032	99.727	-0.263	-0.309
-665.018	-200.000	-0.049	-0.269
-664.003	-147.578	-0.205	0.018
-662.989	-86.910	-0.118	0.036
-661.974	253.171	-0.102	0.176
-660.959	-111.106	-0.449	-0.093
-659.945	-188.159	-0.067	-0.001
-658.930	342.408	-0.076	0.150
-657.916	-46.427	-0.330	-0.164
-656.901	-101.958	0.200	0.049
-655.886	34.548	-0.206	0.182
-654.872	-40.228	0.173	0.091
-653.857	-122.252	0.259	-0.043
-652.843	85.151	-0.163	0.181
-651.828	247.815	-0.119	0.203
-650.814	-200.000	0.005	-0.119
-649.799	172.555	-0.139	0.202
-648.784	75.686	0.347	-0.371
-647.770	401.823	-0.122	0.259
-646.755	-86.049	0.200	-0.062
-645.741	-9.461	-0.214	0.145
-644.726	298.663	-0.092	-0.172
-643.711	-200.000	-0.009	-0.163
-642.697	201.136	-0.149	-0.232
-641.682	-115.183	-0.228	0.044
-640.668	-155.480	-0.004	-0.000
-639.653	-32.635	0.065	-0.036
-638.638	-125.194	-0.199	0.031
-637.624	50.982	-0.261	-0.250
-636.609	800.000	0.086	0.283
-635.595	-200.000	-0.025	-0.502
-634.580	201.283	-0.075	-0.117
-633.565	418.862	-0.167	-0.362
-632.551	233.689	0.292	0.487
-631.536	61.509	0.146	-0.147
-630.522	-152.426	-0.156	0.011
-629.507	263.112	0.126	0.222
-628.492	-157.770	0.202	-0.012
-627.478	800.000	-0.012	-0.050
-626.463	177.440	-0.176	-0.260
-625.449	97.392	-0.208	0.242
-624.434	12.631	0.147	-0.115
-623.419	123.760	-0.036	0.046
-622.405	227.987	0.010	0.017
-621.390	-200.000	-0.003	0.129
-620.376	598.082	0.134	0.337
-619.361	-88.648	-0.322	0.097
-618.346	-147.597	0.266	-0.023
-617.332	36.934	0.312	-0.279
-616.317	227.057	0.093	-0.153
-615.303	12.125	0.009	-0.007
-614.288	-15.196	0.175	0.113
-613.273	800.000	-0.033	-0.114
-612.259	-89.578	-0.109	0.032
-611.244	457.141	-0.024	0.054
-610.230	572.302	0.087	0.215
-609.215	-200.000	0.036	-0.194
-608.201	-174.918	-0.674	-0.019
-607.186	500.196	-0.111	0.259
-606.171	8.948	-0.206	-0.157
-605.157	-17.792	0.276	-0.175
-604.142	427.300	0.072	-0.157
-603.128	41.913	0.027	0.025
-602.113	-67.775	-0.155	0.061
-601.098	83.811	-0.039	-0.043
-600.084	-62.821	0.075	-0.031
-599.069	-138.516	0.194	-0.021
-598.055	70.965	0.089	0.093
-597.040	-200.000	0.020	0.181
-596.025	17.289	0.107	-0.086
-595.011	-150.710	0.129	-0.010
-593.996	-58.532	-0.359	0.157
-592.982	146.243	-0.097	0.132
-591.967	51.710	0.240	0.231
-590.952	208.219	-0.057	-0.091
-589.938	-161.583	-0.181	0.009
-588.923	-1.480	0.119	-0.085
-587.909	-110.162	-0.135	0.028
-586.894	-200.000	-0.037	0.228
-585.879	248.323	0.119	-0.203
-584.865	48.054	-0.066	-0.063
-583.850	277.084	-0.119	0.213
-582.836	-57.006	0.201	-0.090
-581.821	-86.609	-0.181	-0.056
-580.806	-50.234	-0.085	0.041
-579.792	-85.687	-0.165	-0.052
-578.777	-127.793	0.140	0.020
-577.763	19.562	-0.240	-0.195
-576.748	-200.000	0.001	0.245
-575.733	41.657	0.118	0.108
-574.719	-115.860	0.146	0.028
-573.704	168.879	-0.128	0.185
-572.690	261.353	-0.161	0.281
-571.675	-48.779	-0.041	-0.020
-570.661	-200.000	0.008	0.137
-569.646	103.863	0.091	-0.108
-568.631	475.667	0.084	0.193
-567.617	-4.694	-0.223	-0.155
-566.602	-171.518	0.217	0.007
-565.588	-200.000	-0.001	-0.163
-564.573	-178.842	0.376	0.009
-563.558	165.672	-0.090	0.128
-562.544	33.420	-0.253	-0.222
-561.529	564.059	-0.110	-0.270
-560.515	258.376	0.116	-0.201
-559.500	84.856	0.043	-0.048
-558.485	685.223	0.119	-0.314
-557.471	-39.337	0.124	-0.066
-556.456	-200.000	-0.044	0.319
-555.442	246.228	-0.071	-0.121
-554.427	800.000	0.096	-0.317
-553.412	-162.046	0.253	-0.013
-552.398	63.374	-0.262	-0.265
-551.383	-49.324	-0.115	0.056
-550.369	-106.003	0.137	-0.031
-549.354	708.556	-0.059	-0.157
-548.339	503.496	0.014	-0.034
-547.325	-200.000	-0.021	-0.118
-546.310	-200.000	0.022	0.129
-545.296	-75.000	-0.323	0.117
-544.281	209.791	-0.144	-0.227
-543.266	51.140	-0.109	0.105
-542.252	-200.000	0.010	0.089
-541.237	445.928	0.078	-0.173
-540.223	124.026	-0.177	0.224
-539.208	-74.560	-0.385	0.140
-538.193	800.000	0.038	-0.129
-537.179	705.976	-0.062	-0.164
-536.164	-54.197	-0.183	-0.084
-535.150	-100.983	0.133	0.033
-534.135	800.000	0.047	0.155
-533.121	-200.000	0.033	0.158
-532.106	-55.548	-0.328	0.148
-531.091	-149.555	-0.339	0.027
-530.077	-200.000	-0.085	-0.603
-529.062	67.097	-0.155	-0.159
-528.048	65.373	0.394	-0.402
-527.033	-92.529	0.314	0.089
-526.018	607.591	0.151	0.381
-525.004	67.160	0.289	-0.297
-523.989	-139.294	0.111	0.012
-522.975	-184.530	0.084	0.001
-521.960	-200.000	0.007	-0.142
-520.945	-60.672	-0.196	0.084
-519.931	-200.000	-0.035	0.347
-518.916	24.369	-0.179	-0.149
-517.902	400.926	-0.020	-0.042
-516.887	-114.129	-0.323	0.063
-515.872	547.860	0.103	-0.248
-514.858	800.000	0.049	-0.177
-513.843	441.818	-0.073	-0.160
-512.829	-101.206	0.211	-0.052
-511.814	800.000	-0.186	0.589
-510.799	123.693	0.189	0.240
-509.785	-200.000	0.017	-0.154
-508.770	800.000	0.046	-0.148
-507.756	412.987	0.097	0.208
-506.741	46.182	-0.106	0.099
-505.726	-8.472	0.125	0.085
-504.712	11.041	0.200	-0.154
-503.697	22.458	-0.101	0.084
-502.683	43.418	0.019	-0.017
-501.668	-95.731	0.057	-0.015
-500.653	-194.199	-0.149	0.001
-499.639	502.897	-0.016	-0.036
-498.624	-124.081	-0.128	-0.020
-497.610	60.045	0.182	0.181
-496.595	-118.581	0.482	0.086
-495.581	40.274	-0.236	-0.214
-494.566	-200.000	-0.050	0.226
-493.551	-112.348	-0.109	-0.022
-492.537	166.761	-0.124	-0.177
-491.522	395.868	-0.086	-0.180
-490.508	93.048	-0.173	0.196
-489.493	261.369	-0.095	0.165
-488.478	-88.024	-0.021	0.006
-487.464	334.482	-0.098	-0.190
-486.449	-177.377	0.223	0.006
-485.435	798.077	-0.094	0.262
-484.420	72.460	-0.117	-0.123
-483.405	800.000	0.051	-0.218
-482.391	128.076	-0.079	-0.101
-481.376	-10.986	-0.079	-0.052
-480.362	128.538	-0.101	0.130
-479.347	-69.629	0.306	-0.118
-478.332	-200.000	-0.008	0.289
-477.318	565.359	-0.095	0.231
-476.303	-146.648	-0.318	-0.028
-475.289	35.055	-0.253	0.223
-474.274	148.307	0.152	-0.206
-473.259	-200.000	-0.053	0.327
-472.245	-14.661	-0.314	-0.203
-471.230	330.995	0.056	0.109
-470.216	88.850	0.101	0.113
-469.201	-18.266	0.163	0.102
-468.186	-0.405	0.191	-0.136
-467.172	409.724	-0.086	-0.182
-466.157	716.142	-0.030	-0.080
-465.143	291.028	-0.132	-0.241
-464.128	-25.307	0.260	0.154
-463.113	-200.000	0.006	-0.239
-462.099	-200.000	0.025	0.166
-461.084	144.596	-0.097	0.131
-460.070	-147.656	-0.301	0.025
-459.055	49.572	0.095	0.090
-458.040	-141.326	-0.323	0.033
-457.026	100.507	-0.117	-0.137
-456.011	82.634	-0.135	-0.148
-454.997	243.296	-0.055	0.093
-453.982	193.017	-0.212	-0.322
-452.968	125.780	0.061	-0.078
-451.953	37.584	-0.291	-0.260
-450.938	-84.391	0.251	0.080
-449.924	-200.000	-0.008	0.184
-448.909	-75.271	0.086	0.031
-447.895	-50.499	0.230	-0.109
-446.880	-200.000	-0.031	-0.289
-445.865	138.318	0.036	0.048
-444.851	-163.200	0.382	0.018
-443.836	758.642	0.092	-0.251
-442.822	-54.187	0.207	-0.095
-441.807	-121.563	0.180	0.030
-440.792	-73.369	0.350	0.129
-439.778	-200.000	0.018	0.247
-438.763	-44.444	0.150	-0.076
-437.749	-30.792	-0.393	0.223
-436.734	261.844	-0.113	0.197
-435.719	-200.000	0.065	-0.289
-434.705	-155.676	-0.362	0.023
-433.690	-146.538	0.323	0.028
-432.676	314.848	-0.209	-0.396
-431.661	-200.000	0.026	0.242
-430.646	-171.238	-0.500	-0.017
-429.632	-81.732	0.348	0.115
-428.617	-200.000	0.006	0.404
-427.603	355.427	-0.131	0.261
-426.588	280.431	0.239	-0.429
-425.573	-80.390	-0.237	-0.079
-424.559	30.728	-0.062	-0.053
-423.544	50.677	-0.093	-0.089
-422.530	30.241	-0.208	0.179
-421.515	-200.000	-0.009	-0.103
-420.500	76.927	0.094	-0.100
-419.486	-60.894	0.381	-0.162
-418.471	-18.372	-0.429	0.269
-417.457	-117.336	-0.153	0.028
-416.442	-64.499	-0.237	-0.097
-415.428	800.000	0.059	-0.176
-414.413	43.223	-0.157	0.144
-413.398	15.808	-0.310	-0.245
-412.384	72.819	0.279	-0.292
-411.369	-200.000	-0.034	-0.159
-410.355	287.137	0.063	0.114
-409.340	-56.589	0.305	0.136
-408.325	800.000	-0.029	-0.103
-407.311	-200.000	-0.014	0.112
-406.296	595.392	-0.121	-0.300
-405.282	148.579	-0.156	-0.211
-404.267	-73.160	0.254	-0.093
-403.252	-161.983	-0.276	0.014
-402.238	-64.457	-0.177	0.072
-401.223	-200.000	-0.011	-0.164
-400.209	-200.000	0.081	-0.410
-399.194	317.096	0.062	0.118
-398.179	258.616	0.033	0.057
-397.165	-71.926	0.172	-0.064
-396.150	800.000	0.084	-0.248
-395.136	-200.000	0.060	0.281
-394.121	-51.622	0.139	-0.065
-393.106	-140.312	-0.137	-0.014
-392.092	345.224	0.046	-0.091
-391.077	0.291	0.265	-0.190
-390.063	800.000	0.059	-0.175
-389.048	800.000	-0.073	-0.220
-388.033	-176.608	0.341	0.009
-387.019	-200.000	0.026	-0.166
-386.004	198.907	-0.129	-0.198
-384.990	-118.699	0.183	-0.032
-383.975	-200.000	0.027	-0.164
-382.960	800.000	-0.051	0.188
-381.946	-155.373	-0.142	0.009
-380.931	-200.000	-0.042	0.185
-379.917	-200.000	0.043	-0.207
-378.902	18.828	0.231	0.185
-377.888	62.291	-0.060	-0.060
-376.873	45.296	-0.264	0.244
-375.858	800.000	-0.090	0.308
-374.844	-200.000	-0.028	-0.153
-373.829	304.565	-0.030	0.056
-372.815	-88.313	0.335	0.100
-371.800	-200.000	0.142	-0.000
-370.785	-47.261	-0.121	0.059
-369.771	354.874	0.122	-0.243
-368.756	-81.082	0.137	0.045
-367.742	800.000	-0.003	0.012
-366.727	519.521	0.082	-0.192
-365.712	528.496	0.046	0.108
-364.698	-200.000	-0.001	0.159
-363.683	800.000	-0.069	0.205
-362.669	169.017	-0.252	0.361
-361.654	6.456	-0.122	-0.090
-360.639	-200.000	0.017	-0.144
-359.625	-141.624	0.221	0.022
-358.610	-111.734	0.093	-0.019
-357.596	444.983	-0.084	-0.185
-356.581	-200.000	-0.011	-0.164
-355.566	-179.848	-0.420	-0.009
-354.552	800.000	-0.100	0.331
-353.537	-135.848	-0.375	-0.044
-352.523	-97.416	0.074	-0.019
-351.508	800.000	-0.042	-0.132
-350.493	400.191	0.238	-0.499
-349.479	208.557	0.107	0.167
-348.464	-69.004	-0.300	0.116
-347.450	434.757	-0.021	0.045
-346.435	-88.483	-0.160	-0.048
-345.420	-39.628	-0.103	-0.054
-344.406	-134.372	0.182	-0.022
-343.391	-80.203	0.188	-0.063
-342.377	-200.000	0.023	-0.130
-341.362	-47.685	0.178	0.087
-340.348	-200.000	0.004	0.332
-339.333	-46.407	-0.226	-0.111
-338.318	-178.304	-0.100	-0.002
-337.304	-159.366	-0.326	-0.018
-336.289	408.013	0.057	-0.121
-335.275	-146.272	0.062	-0.005
-334.260	339.697	-0.085	-0.166
-333.245	100.706	0.090	-0.105
-332.231	198.412	0.046	-0.070
-331.216	-131.791	-0.452	0.059
-330.202	-164.655	0.178	0.008
-329.187	528.795	0.043	0.102
-328.172	-200.000	-0.069	0.456
-327.158	-200.000	0.012	-0.146
-326.143	714.061	0.105	-0.278
-325.129	-110.115	-0.107	0.022
-324.114	257.941	0.149	0.256
-323.099	800.000	-0.065	0.223
-322.085	-124.697	0.135	-0.021
-321.070	-200.000	-0.008	-0.206
-320.056	-141.443	-0.259	-0.026
-319.041	112.811	0.080	0.097
-318.026	-42.611	0.070	-0.036
-317.012	726.870	0.056	0.149
-315.997	97.492	-0.189	0.217
-314.983	-181.164	-0.297	-0.006
-313.968	-109.680	-0.205	0.043
-312.953	43.135	0.165	-0.150
-311.939	185.740	-0.145	-0.215
-310.924	83.682	0.149	-0.163
-309.910	117.249	0.128	0.157
-308.895	-88.376	0.136	-0.041
-307.880	69.384	0.181	-0.186
-306.866	-50.937	0.229	-0.108
-305.851	800.000	0.037	-0.102
-304.837	117.309	-0.020	0.024
-303.822	-6.479	0.156	-0.106
-302.807	-125.743	0.209	0.032
-301.793	-71.897	-0.163	-0.061
-300.778	-37.360	0.187	0.100
-299.764	15.158	0.307	0.240
-298.749	82.022	-0.229	0.248
-297.735	25.059	-0.255	0.211
-296.720	-68.346	0.047	0.018
-295.705	218.754	-0.032	0.051
-294.691	37.136	-0.229	0.203
-293.676	347.816	-0.030	-0.058
-292.662	104.071	0.222	-0.260
-291.647	800.000	-0.160	0.522
-290.632	459.582	-0.145	0.322
-289.618	-120.897	0.177	0.030
-288.603	-135.481	0.318	-0.038
-287.589	63.153	-0.054	0.054
-286.574	-200.000	-0.011	0.085
-285.559	119.413	-0.094	0.116
-284.545	-186.790	0.317	-0.004
-283.530	18.839	-0.119	-0.095
-282.516	-28.994	0.039	-0.022
-281.501	154.162	0.148	0.203
-280.486	-200.000	0.020	0.315
-279.472	284.044	0.068	-0.123
-278.457	14.272	-0.140	0.109
-277.443	97.167	-0.347	-0.397
-276.428	-128.882	0.061	0.009
-275.413	-75.543	0.236	-0.084
-274.399	-33.724	-0.019	-0.011
-273.384	44.353	0.050	-0.046
-272.370	-15.125	-0.326	-0.209
-271.355	-5.597	0.315	0.215
-270.340	200.849	0.143	0.220
-269.326	-46.191	0.162	-0.080
-268.311	-73.559	0.277	0.101
-267.297	82.189	-0.189	0.204
-266.282	-39.347	-0.355	0.186
-265.267	-47.169	-0.282	0.137
-264.253	34.796	0.044	0.039
-263.238	-200.000	0.046	-0.429
-262.224	-200.000	0.034	-0.150
-261.209	-81.115	0.484	-0.160
-260.195	800.000	0.146	0.526
-259.180	-200.000	0.032	0.428
-258.165	91.771	-0.049	0.055
-257.151	-44.854	-0.120	-0.060
-256.136	-200.000	0.028	-0.140
-255.122	-39.002	0.153	-0.081
-254.107	22.690	-0.394	0.322
-253.092	-134.387	-0.308	-0.038
-252.078	-138.432	-0.180	-0.020
-251.063	-112.812	0.223	-0.044
-250.049	-75.547	0.293	-0.104
-249.034	260.126	-0.019	-0.033
-248.019	-12.088	0.145	0.094
-247.005	-4.108	0.252	0.174
-245.990	467.008	0.061	-0.136
-244.976	269.685	0.072	0.126
-243.961	-171.788	-0.159	0.005
-242.946	-39.424	-0.240	-0.126
-241.932	18.603	0.038	-0.031
-240.917	-200.000	-0.014	0.255
-239.903	155.907	0.092	-0.127
-238.888	131.262	0.092	-0.118
-237.873	-35.473	-0.036	-0.019
-236.859	241.705	0.165	0.274
-235.844	800.000	-0.062	-0.190
-234.830	43.915	0.170	0.155
-233.815	185.230	0.072	0.107
-232.800	161.642	0.224	0.313
-231.786	80.043	-0.113	0.121
-230.771	-200.000	-0.041	0.344
-229.757	-80.303	-0.492	0.164
-228.742	440.128	0.037	0.081
-227.727	24.217	-0.336	-0.276
-226.713	488.849	-0.062	-0.142
-225.698	-200.000	-0.033	0.195
-224.684	227.495	0.229	0.371
-223.669	355.069	0.113	0.223
-222.655	-30.740	-0.262	0.148
-221.640	284.757	0.109	-0.195
-220.625	60.034	-0.115	-0.114
-219.611	-200.000	0.023	0.143
-218.596	414.124	0.085	0.179
-217.582	-65.047	0.074	0.030
-216.567	312.366	-0.080	0.149
-215.552	126.623	-0.183	0.230
-214.538	684.135	0.112	-0.292
-213.523	90.819	0.079	-0.088
-212.509	89.024	0.093	-0.103
-211.494	-200.000	0.044	-0.201
-210.479	800.000	0.019	0.054
-209.465	-120.356	0.172	-0.029
-208.450	-200.000	-0.024	-0.282
-207.436	799.427	-0.122	0.334
-206.421	-200.000	-0.038	0.261
-205.406	800.000	-0.070	0.303
-204.392	-200.000	0.022	-0.264
-203.377	579.454	0.119	-0.291
-202.363	-135.684	0.196	0.023
-201.348	800.000	0.069	0.223
-200.333	-27.771	0.035	-0.020
-199.319	-200.000	0.004	-0.088
-198.304	86.823	-0.175	0.192
-197.290	-60.581	-0.196	0.083
-196.275	800.000	-0.029	-0.086
-195.260	800.000	0.084	-0.280
-194.246	-149.273	-0.282	-0.022
-193.231	454.079	-0.181	-0.399
-192.217	-200.000	0.034	0.324
-191.202	-45.521	0.231	-0.114
-190.187	800.000	-0.146	-0.401
-189.173	-48.018	0.353	-0.170
-188.158	329.347	-0.120	-0.229
-187.144	678.108	0.028	0.073
-186.129	-200.000	-0.039	0.169
-185.114	-46.921	-0.128	-0.062
-184.100	-200.000	0.030	0.196
-183.085	-200.000	0.021	0.166
-182.071	592.235	-0.053	0.131
-181.056	-73.373	0.217	-0.079
-180.042	800.000	0.011	-0.049
-179.027	-84.673	0.232	-0.073
-178.012	-200.000	0.014	-0.088
-176.998	-200.000	-0.008	0.308
-175.983	222.063	-0.076	-0.122
-174.969	9.991	-0.162	-0.122
-173.954	659.631	0.066	0.169
-172.939	94.688	-0.131	0.148
-171.925	-41.017	0.274	0.141
-170.910	-118.336	0.077	-0.014
-169.896	-20.584	-0.197	-0.121
-168.881	-32.424	0.126	0.070
-167.866	-200.000	0.049	-0.339
-166.852	156.147	0.074	0.102
-165.837	-21.669	-0.232	0.140
-164.823	201.463	-0.041	0.063
-163.808	-114.651	0.142	0.027
-162.793	-165.204	0.386	0.017
-161.779	188.275	0.267	-0.397
-160.764	65.293	-0.064	-0.064
-159.750	-14.727	0.154	-0.098
-158.735	156.916	0.134	0.184
-157.720	-153.799	0.684	-0.047
-156.706	14.920	0.236	0.183
-155.691	-39.302	0.181	0.095
-154.677	145.138	-0.052	-0.070
-153.662	-36.013	0.053	-0.029
-152.647	96.647	0.265	0.302
-151.633	-200.000	-0.006	-0.071
-150.618	-136.488	-0.135	0.016
-149.604	800.000	0.095	-0.365
-148.589	290.422	-0.054	0.098
-147.574	195.096	0.171	-0.258
-146.560	800.000	-0.022	-0.093
-145.545	437.201	-0.117	-0.254
-144.531	18.805	-0.367	-0.292
-143.516	-55.438	-0.247	0.110
-142.502	-116.151	-0.169	-0.031
-141.487	308.699	-0.016	-0.029
-140.472	-43.440	-0.091	-0.046
-139.458	288.235	0.267	0.480
-138.443	-200.000	-0.022	0.175
-137.429	55.050	0.189	-0.182
-136.414	-163.225	-0.218	-0.010
-135.399	608.110	0.155	-0.384
-134.385	-200.000	0.041	-0.325
-133.370	99.572	0.158	0.181
-132.356	292.206	-0.116	-0.209
-131.341	800.000	-0.116	-0.337
-130.326	-58.909	-0.139	-0.060
-129.312	-65.367	0.114	-0.045
-128.297	50.606	0.246	0.231
-127.283	-80.499	-0.380	-0.126
-126.268	800.000	0.026	0.081
-125.253	-101.250	-0.221	-0.054
-124.239	-200.000	0.001	0.159
-123.224	369.858	-0.080	0.161
-122.210	11.925	0.150	-0.115
