DTS Sentinel unit serial number:	SN413079Multiplexer serial number:	ORYXHardware model number:	OX4-SRSoftware version number:	ORYX F/W v4.00 Oryx Data Collector v3.7.2.0data status	okinstallation	princeton_trtdifferential loss correction	single-endedforward channel	channel 2reverse channel	N/Adate	2019/09/13time	17:03:35forward acquisition time	60.00reverse acquisition time	0.00gamma	496.2192k internal	0.2312k external	0.2312temperature offset calibration	1.0207default loss term (dB/km)	0.3790temperature slope calibration	1.0000multiplexer offset coefficient	1.0000multiplexer slope coefficient	1.0000fibre end	0.00T internal ref (°C)	35.03T ext. ref 1 (°C)	4.84T ext. ref 2 (°C)	33.98length (m)	temperature (°C)	Stokes	anti-Stokes-747.200	-24.141	0.321	-0.195
-746.185	12.188	-0.106	0.083
-745.171	-57.401	0.286	-0.127
-744.156	-10.345	0.214	0.144
-743.142	-183.781	-0.196	0.003
-742.127	-200.000	-0.006	0.141
-741.112	-89.898	-0.098	-0.029
-740.098	-200.000	-0.060	0.497
-739.083	800.000	-0.068	0.219
-738.069	-14.159	-0.342	0.224
-737.054	-114.709	-0.290	0.056
-736.039	479.945	-0.162	0.372
-735.025	13.041	-0.068	-0.053
-734.010	87.980	0.199	0.224
-732.996	-105.659	0.046	-0.011
-731.981	-12.335	0.026	0.017
-730.966	172.495	-0.221	-0.322
-729.952	800.000	-0.106	-0.449
-728.937	-165.097	0.278	-0.013
-727.923	7.608	0.209	0.159
-726.908	2.793	0.179	-0.131
-725.894	-81.229	-0.262	0.088
-724.879	-171.488	-0.316	0.011
-723.864	44.619	-0.105	0.097
-722.850	-67.611	0.285	0.113
-721.835	-83.967	-0.265	0.085
-720.821	-200.000	0.161	0.000
-719.806	135.007	0.225	-0.296
-718.791	-68.014	-0.242	0.096
-717.777	-116.658	-0.233	0.043
-716.762	-11.355	0.171	-0.114
-715.748	639.579	-0.109	-0.282
-714.733	800.000	-0.039	0.113
-713.718	152.939	-0.134	-0.185
-712.704	-200.000	0.006	-0.315
-711.689	73.469	-0.115	0.122
-710.675	303.192	0.114	-0.214
-709.660	67.447	0.146	-0.151
-708.645	30.467	-0.228	-0.197
-707.631	-125.005	-0.230	-0.036
-706.616	-146.083	0.263	-0.023
-705.602	414.953	-0.150	-0.325
-704.587	800.000	-0.002	-0.009
-703.572	284.252	-0.153	-0.278
-702.558	-27.572	0.209	0.123
-701.543	63.648	0.194	0.197
-700.529	216.106	-0.038	-0.061
-699.514	-200.000	-0.018	0.181
-698.499	55.132	-0.112	0.110
-697.485	315.945	-0.223	0.426
-696.470	-200.000	0.010	0.134
-695.456	472.061	-0.140	-0.319
-694.441	-99.097	0.292	0.075
-693.426	-200.000	0.033	0.230
-692.412	379.963	0.057	0.119
-691.397	-71.969	-0.329	-0.124
-690.383	129.253	0.100	-0.130
-689.368	-200.000	0.001	0.078
-688.354	-67.524	0.118	-0.047
-687.339	-83.004	0.076	-0.025
-686.324	-74.320	0.072	0.026
-685.310	-20.771	0.311	0.193
-684.295	-33.346	-0.058	0.032
-683.281	800.000	-0.065	0.196
-682.266	-142.029	-0.208	-0.021
-681.251	-200.000	0.009	-0.067
-680.237	400.001	-0.071	0.150
-679.222	123.545	-0.018	0.023
-678.208	615.958	0.032	0.080
-677.193	-131.350	-0.213	0.029
-676.178	155.267	0.216	-0.301
-675.164	-200.000	0.012	-0.202
-674.149	-200.000	0.014	-0.096
-673.135	99.246	0.197	-0.230
-672.120	-124.255	-0.186	-0.029
-671.105	164.491	-0.121	-0.173
-670.091	-91.219	-0.207	-0.060
-669.076	739.002	0.028	0.077
-668.062	-72.217	0.211	-0.079
-667.047	254.521	-0.309	0.535
-666.032	3.242	-0.257	-0.189
-665.018	-98.463	0.240	-0.062
-664.003	-50.161	-0.218	-0.104
-662.989	369.612	0.122	0.250
-661.974	192.024	-0.045	-0.069
-660.959	800.000	-0.011	-0.049
-659.945	-83.693	0.144	-0.047
-658.930	-200.000	-0.039	-0.268
-657.916	45.925	-0.038	-0.036
-656.901	-29.208	0.022	0.013
-655.886	102.360	-0.092	-0.109
-654.872	77.680	-0.243	0.262
-653.857	-128.106	-0.528	0.076
-652.843	-91.216	0.028	-0.008
-651.828	-29.283	0.080	-0.046
-650.814	-99.674	0.117	0.030
-649.799	212.433	-0.262	-0.418
-648.784	60.311	-0.125	0.125
-647.770	-153.797	0.119	0.008
-646.755	-106.607	-0.030	-0.007
-645.741	27.737	0.137	-0.116
-644.726	-38.380	0.091	0.048
-643.711	800.000	0.061	-0.196
-642.697	-72.600	-0.363	-0.135
-641.682	-107.075	-0.412	0.092
-640.668	99.161	-0.136	-0.159
-639.653	677.674	-0.101	-0.266
-638.638	110.720	0.237	-0.288
-637.624	-80.100	-0.179	0.061
-636.609	800.000	0.002	-0.006
-635.595	800.000	0.010	-0.032
-634.580	-41.136	-0.201	-0.105
-633.565	-8.667	-0.294	0.199
-632.551	353.825	-0.060	-0.121
-631.536	399.285	0.134	-0.283
-630.522	-177.534	0.251	-0.006
-629.507	-55.957	0.204	-0.092
-628.492	-200.000	-0.003	0.217
-627.478	689.545	0.119	-0.315
-626.463	800.000	-0.133	-0.524
-625.449	147.842	0.109	0.148
-624.434	800.000	-0.107	0.346
-623.419	-90.018	0.064	0.019
-622.405	-200.000	-0.016	-0.157
-621.390	-163.769	-0.493	-0.023
-620.376	-29.608	0.105	0.061
-619.361	-52.699	0.193	-0.090
-618.346	120.547	0.187	-0.235
-617.332	800.000	0.091	-0.294
-616.317	695.694	-0.083	-0.220
-615.303	-59.382	-0.362	-0.157
-614.288	-152.637	-0.190	0.014
-613.273	-160.367	-0.187	-0.010
-612.259	-149.558	-0.066	0.005
-611.244	589.930	0.026	-0.065
-610.230	11.111	0.126	0.097
-609.215	492.953	0.173	-0.400
-608.201	-77.594	-0.188	-0.066
-607.186	-9.523	0.327	0.220
-606.171	37.762	0.135	-0.121
-605.157	-68.250	-0.114	0.045
-604.142	334.035	0.065	0.126
-603.128	-62.442	0.197	0.083
-602.113	-186.671	-0.107	0.002
-601.098	800.000	-0.006	0.024
-600.084	-134.473	0.291	-0.036
-599.069	271.527	0.147	0.262
-598.055	-138.622	-0.192	0.021
-597.040	259.685	-0.074	0.129
-596.025	-20.673	-0.247	-0.153
-595.011	-138.885	-0.266	0.029
-593.996	27.340	-0.206	-0.175
-592.982	-40.401	0.209	-0.110
-591.967	119.538	0.136	0.170
-590.952	-200.000	-0.009	0.124
-589.938	-200.000	0.050	0.230
-588.923	218.593	-0.218	-0.350
-587.909	-134.159	-0.136	-0.017
-586.894	-200.000	-0.044	0.253
-585.879	-200.000	-0.021	0.151
-584.865	-98.549	-0.361	-0.093
-583.850	-34.243	-0.298	-0.165
-582.836	-29.568	-0.090	-0.052
-581.821	-163.943	0.119	-0.006
-580.806	98.447	-0.057	-0.067
-579.792	164.160	0.208	-0.295
-578.777	14.349	-0.303	0.239
-577.763	-119.577	0.187	-0.033
-576.748	-39.144	-0.161	0.085
-575.733	-200.000	-0.010	0.135
-574.719	-55.169	-0.225	0.102
-573.704	636.174	0.117	0.299
-572.690	387.356	0.073	0.153
-571.675	-118.747	-0.304	0.054
-570.661	248.837	-0.163	-0.278
-569.646	77.070	-0.257	-0.276
-568.631	-6.469	0.205	0.141
-567.617	-51.100	0.280	-0.132
-566.602	-200.000	-0.033	-0.165
-565.588	-159.502	-0.320	-0.018
-564.573	-31.593	0.411	-0.233
-563.558	432.272	0.040	0.087
-562.544	107.405	0.025	-0.030
-561.529	19.957	0.129	0.105
-560.515	132.422	-0.034	0.044
-559.500	114.306	0.247	0.303
-558.485	-200.000	-0.035	0.233
-557.471	800.000	0.084	0.354
-556.456	-70.794	-0.139	0.053
-555.442	74.347	-0.184	0.194
-554.427	55.585	-0.081	-0.079
-553.412	128.345	-0.234	-0.300
-552.398	-49.793	-0.391	0.187
-551.383	92.808	0.257	-0.293
-550.369	-80.972	-0.316	-0.106
-549.354	-144.477	-0.197	-0.018
-548.339	-200.000	0.005	0.040
-547.325	260.650	0.144	0.250
-546.310	-8.435	0.229	-0.155
-545.296	800.000	0.016	-0.045
-544.281	-200.000	0.022	-0.196
-543.266	-158.788	0.324	-0.019
-542.252	-108.331	0.083	0.018
-541.237	52.258	0.188	0.180
-540.223	-114.835	0.133	-0.026
-539.208	-177.938	-0.103	-0.002
-538.193	94.480	-0.229	-0.262
-537.179	184.378	0.108	-0.160
-536.164	34.905	0.049	-0.043
-535.150	-200.000	-0.009	-0.105
-534.135	514.511	-0.117	0.275
-533.121	112.330	0.082	0.099
-532.106	-200.000	0.039	-0.174
-531.091	43.147	-0.097	-0.089
-530.077	-84.565	0.060	-0.019
-529.062	-8.522	-0.263	0.178
-528.048	-153.919	0.367	0.025
-527.033	-73.372	-0.096	-0.035
-526.018	-13.997	-0.449	0.292
-525.004	-200.000	0.008	0.244
-523.989	-90.344	-0.258	-0.075
-522.975	294.786	-0.138	-0.255
-521.960	154.604	-0.098	-0.136
-520.945	-34.442	-0.283	0.156
-519.931	679.252	-0.127	-0.332
-518.916	-80.702	-0.165	0.055
-517.902	764.910	0.042	-0.114
-516.887	-200.000	-0.004	-0.053
-515.872	-147.344	0.344	0.029
-514.858	800.000	0.087	-0.354
-513.843	279.224	0.171	-0.306
-512.829	522.293	-0.139	0.328
-511.814	-200.000	-0.020	0.108
-510.799	-68.650	0.166	-0.065
-509.785	342.254	-0.102	0.201
-508.770	57.409	0.075	-0.074
-507.756	-76.911	-0.156	-0.055
-506.741	-72.175	-0.150	-0.056
-505.726	800.000	-0.107	0.360
-504.712	74.328	-0.149	0.157
-503.697	-94.466	0.033	0.009
-502.683	142.945	0.196	0.261
-501.668	-200.000	0.014	0.227
-500.653	447.357	0.032	0.071
-499.639	295.589	-0.163	0.301
-498.624	-200.000	0.031	-0.305
-497.610	800.000	-0.036	0.110
-496.595	98.964	-0.152	0.176
-495.581	310.929	-0.149	0.280
-494.566	-11.467	-0.376	-0.248
-493.551	475.517	0.129	-0.292
-492.537	226.583	-0.141	0.230
-491.522	134.748	-0.138	-0.180
-490.508	279.109	0.186	-0.333
-489.493	-200.000	-0.034	-0.170
-488.478	-200.000	-0.005	-0.344
-487.464	-200.000	-0.032	-0.163
-486.449	-129.417	-0.197	-0.027
-485.435	627.197	0.059	0.150
-484.420	355.481	0.056	0.113
-483.405	-151.951	0.233	-0.017
-482.391	-200.000	0.004	-0.165
-481.376	-122.338	-0.118	0.019
-480.362	-99.808	0.055	-0.014
-479.347	70.211	-0.090	-0.093
-478.332	-170.454	0.496	0.017
-477.318	370.509	0.083	-0.169
-476.303	800.000	0.137	-0.408
-475.289	-9.764	-0.069	0.046
-474.274	800.000	0.079	0.235
-473.259	127.478	-0.146	-0.186
-472.245	6.749	0.272	-0.204
-471.230	520.830	0.198	0.467
-470.216	-200.000	-0.042	0.239
-469.201	153.705	-0.040	0.055
-468.186	-98.081	-0.163	0.042
-467.172	800.000	0.086	0.246
-466.157	31.670	-0.138	0.119
-465.143	179.060	-0.179	-0.263
-464.128	800.000	0.082	0.269
-463.113	-200.000	-0.016	0.242
-462.099	-42.971	0.261	-0.133
-461.084	800.000	0.083	0.305
-460.070	-200.000	0.013	0.159
-459.055	-77.926	0.199	-0.069
-458.040	-200.000	-0.043	0.215
-457.026	-2.120	-0.232	0.163
-456.011	-4.263	0.138	-0.096
-454.997	800.000	-0.063	0.195
-453.982	-200.000	-0.002	0.517
-452.968	-200.000	-0.037	-0.169
-451.953	800.000	-0.067	-0.217
-450.938	-146.988	0.193	0.017
-449.924	195.289	0.265	0.403
-448.909	-141.567	0.249	0.025
-447.895	-200.000	0.050	0.270
-446.880	800.000	-0.044	-0.122
-445.865	545.638	-0.116	0.279
-444.851	800.000	-0.110	-0.316
-443.836	-168.677	-0.151	-0.006
-442.822	377.084	-0.104	-0.212
-441.807	-25.833	0.117	0.069
-440.792	49.319	-0.108	-0.102
-439.778	-45.597	0.250	-0.124
-438.763	-200.000	-0.069	-0.363
-437.749	800.000	-0.144	0.422
-436.734	-200.000	-0.020	-0.308
-435.719	7.929	0.359	-0.270
-434.705	-200.000	-0.017	0.112
-433.690	275.748	-0.092	0.164
-432.676	800.000	0.065	0.269
-431.661	800.000	0.004	-0.013
-430.646	-148.626	0.311	-0.025
-429.632	-10.789	-0.073	-0.048
-428.617	95.538	0.129	-0.147
-427.603	223.148	-0.109	0.175
-426.588	-123.468	0.106	-0.017
-425.573	256.289	-0.126	-0.216
-424.559	545.580	0.091	-0.218
-423.544	137.014	0.045	-0.058
-422.530	800.000	-0.073	-0.230
-421.515	-8.629	0.218	-0.146
-420.500	60.344	0.114	0.113
-419.486	-60.871	0.289	0.122
-418.471	-118.612	0.063	0.011
-417.457	-200.000	-0.017	-0.206
-416.442	88.211	0.112	0.125
-415.428	-35.083	0.174	-0.095
-414.413	-123.331	0.307	-0.049
-413.398	528.600	0.038	-0.089
-412.384	-57.377	0.483	0.213
-411.369	189.099	-0.108	-0.162
-410.355	800.000	-0.053	0.147
-409.340	486.228	-0.082	0.188
-408.325	-200.000	0.060	0.355
-407.311	-63.803	-0.125	-0.051
-406.296	-14.973	0.265	0.170
-405.282	-200.000	0.023	0.234
-404.267	311.451	0.038	-0.071
-403.252	-87.159	-0.120	-0.036
-402.238	-28.045	0.502	0.291
-401.223	74.574	-0.097	-0.102
-400.209	800.000	0.139	-0.487
-399.194	800.000	-0.078	-0.273
-398.179	-57.072	0.282	0.124
-397.165	-35.534	-0.204	-0.111
-396.150	68.406	0.174	0.179
-395.136	9.398	0.123	0.093
-394.121	-200.000	0.017	0.345
-393.106	-23.004	-0.166	0.100
-392.092	-200.000	0.013	-0.086
-391.077	44.926	0.146	-0.134
-390.063	177.436	-0.094	-0.137
-389.048	-102.292	0.174	0.042
-388.033	233.383	-0.164	-0.269
-387.019	-36.567	-0.326	-0.176
-386.004	22.775	0.210	-0.172
-384.990	-80.272	0.354	-0.119
-383.975	-50.963	0.053	-0.025
-382.960	94.344	-0.172	0.196
-381.946	800.000	0.118	-0.414
-380.931	-200.000	0.005	0.184
-379.917	669.849	0.078	0.202
-378.902	-46.276	0.096	-0.047
-377.888	18.043	-0.116	0.093
-376.873	323.803	0.086	-0.165
-375.858	44.507	0.038	-0.035
-374.844	92.029	-0.074	0.084
-373.829	9.205	0.292	0.221
-372.815	-149.025	-0.212	-0.017
-371.800	6.517	0.226	-0.168
-370.785	4.623	0.182	0.133
-369.771	201.475	-0.150	0.231
-368.756	31.289	-0.183	-0.157
-367.742	-94.443	-0.352	0.096
-366.727	-16.605	-0.055	-0.035
-365.712	417.101	-0.043	0.092
-364.698	-200.000	0.060	0.328
-363.683	-152.073	-0.066	-0.005
-362.669	800.000	-0.127	-0.442
-361.654	-190.049	0.236	0.003
-360.639	-92.065	0.241	0.068
-359.625	281.688	0.109	-0.196
-358.610	-144.667	0.209	-0.019
-357.596	-9.989	-0.097	0.064
-356.581	-125.672	-0.273	0.041
-355.566	-70.214	-0.390	0.148
-354.552	-200.000	0.087	0.561
-353.537	-85.885	-0.229	-0.071
-352.523	-94.553	-0.312	-0.085
-351.508	710.303	-0.104	-0.276
-350.493	141.316	-0.122	-0.162
-349.479	205.784	0.177	-0.275
-348.464	-200.000	0.045	-0.275
-347.450	-17.971	0.070	0.044
-346.435	37.055	-0.098	-0.086
-345.420	-2.737	-0.280	0.195
-344.406	-60.444	-0.201	0.086
-343.391	44.891	0.411	-0.378
-342.377	100.544	0.111	-0.129
-341.362	-60.516	0.116	0.049
-340.348	12.368	0.081	-0.063
-339.333	-200.000	-0.036	-0.372
-338.318	-109.102	0.227	-0.048
-337.304	1.343	0.163	-0.117
-336.289	78.636	-0.214	-0.229
-335.275	-45.064	-0.192	0.095
-334.260	105.830	0.092	0.109
-333.245	-49.193	-0.219	-0.105
-332.231	3.771	-0.197	-0.144
-331.216	800.000	0.117	-0.355
-330.202	-74.126	0.098	0.036
-329.187	-79.977	-0.277	0.093
-328.172	-153.599	0.374	-0.026
-327.158	-200.000	-0.026	-0.167
-326.143	-130.132	-0.181	-0.025
-325.129	-200.000	-0.022	0.243
-324.114	-200.000	0.039	0.235
-323.099	-47.073	-0.260	0.126
-322.085	132.018	0.062	-0.080
-321.070	31.936	0.154	0.132
-320.056	512.614	0.007	-0.016
-319.041	-200.000	0.053	-0.293
-318.026	800.000	-0.138	0.495
-317.012	-200.000	0.022	0.146
-315.997	0.715	-0.267	-0.190
-314.983	-115.582	0.077	0.015
-313.968	342.983	0.050	0.097
-312.953	-106.377	-0.432	0.096
-311.939	302.163	-0.095	0.175
-310.924	800.000	0.014	-0.049
-309.910	-146.019	-0.225	-0.020
-308.895	-74.188	-0.284	0.103
-307.880	333.350	-0.127	0.244
-306.866	-75.541	-0.241	0.085
-305.851	800.000	-0.059	-0.176
-304.837	479.851	-0.045	-0.103
-303.822	-200.000	-0.019	0.088
-302.807	48.917	0.102	-0.096
-301.793	105.677	0.202	0.239
-300.778	460.020	-0.067	0.148
-299.764	-96.046	0.186	0.049
-298.749	145.529	0.089	0.119
-297.735	-200.000	-0.008	0.404
-296.720	140.432	-0.108	0.143
-295.705	800.000	-0.051	0.151
-294.691	-63.847	0.365	-0.149
-293.676	-59.462	-0.137	-0.059
-292.662	-121.431	0.285	-0.047
-291.647	62.400	-0.192	0.191
-290.632	113.438	0.077	0.093
-289.618	47.343	0.121	-0.112
-288.603	-123.209	0.066	0.010
-287.589	-33.019	-0.422	0.233
-286.574	-86.133	0.102	0.031
-285.559	-88.501	0.472	-0.140
-284.545	-172.398	0.214	0.007
-283.530	27.214	0.009	0.007
-282.516	102.020	-0.102	0.118
-281.501	26.883	-0.286	-0.239
-280.486	70.304	0.322	-0.331
-279.472	106.860	0.132	-0.156
-278.457	-200.000	0.005	-0.030
-277.443	18.788	-0.105	0.084
-276.428	-181.737	-0.377	0.007
-275.413	187.564	0.130	-0.194
-274.399	115.778	0.316	-0.385
-273.384	-200.000	0.019	-0.099
-272.370	-200.000	0.050	-0.285
-271.355	125.608	-0.167	0.210
-270.340	98.734	0.069	0.079
-269.326	122.401	-0.118	-0.147
-268.311	800.000	-0.116	0.396
-267.297	307.323	-0.030	-0.057
-266.282	800.000	-0.062	-0.175
-265.267	-200.000	-0.036	0.219
-264.253	-126.037	-0.174	0.026
-263.238	800.000	0.108	-0.307
-262.224	-134.792	-0.145	-0.018
-261.209	481.024	0.101	-0.227
-260.195	26.132	-0.138	0.115
-259.180	-144.399	-0.077	-0.007
-258.165	-200.000	-0.094	0.416
-257.151	-98.491	-0.267	0.068
-256.136	800.000	-0.097	0.388
-255.122	-34.249	0.263	-0.143
-254.107	-200.000	-0.015	0.444
-253.092	-94.766	0.327	0.088
-252.078	800.000	-0.098	0.359
-251.063	-172.878	-0.131	0.004
-250.049	173.786	0.173	-0.248
-249.034	800.000	-0.014	-0.039
-248.019	-200.000	0.059	0.295
-247.005	94.470	0.241	-0.272
-245.990	150.824	-0.089	-0.120
-244.976	165.875	-0.044	-0.061
-243.961	681.533	-0.031	0.081
-242.946	-200.000	-0.061	-0.321
-241.932	800.000	0.083	-0.306
-240.917	-99.530	0.067	0.017
-239.903	-115.400	0.400	-0.075
-238.888	249.546	-0.168	-0.283
-237.873	800.000	0.023	0.084
-236.859	-200.000	-0.005	0.273
-235.844	86.620	-0.140	-0.153
-234.830	672.634	0.136	-0.351
-233.815	38.403	0.029	0.026
-232.800	-37.208	0.507	0.270
-231.786	-200.000	-0.020	-0.265
-230.771	-98.541	-0.196	-0.050
-229.757	800.000	0.070	0.212
-228.742	-19.000	0.150	0.093
-227.727	-14.089	0.322	0.206
-226.713	-77.563	0.277	-0.096
-225.698	-71.340	0.482	0.180
-224.684	-200.000	-0.030	-0.187
-223.669	395.311	0.077	0.160
-222.655	-65.834	0.058	0.023
-221.640	-106.986	-0.147	-0.032
-220.625	6.406	-0.219	-0.162
-219.611	-195.447	0.026	-0.000
-218.596	-200.000	-0.017	0.130
-217.582	-200.000	-0.011	-0.073
-216.567	-109.814	0.066	0.014
-215.552	192.888	0.073	0.110
-214.538	195.062	0.377	0.568
-213.523	91.401	0.087	-0.097
-212.509	54.238	0.295	0.283
-211.494	42.169	0.082	-0.074
-210.479	800.000	-0.094	0.294
-209.465	411.322	0.026	0.055
-208.450	800.000	0.018	-0.051
-207.436	-200.000	-0.214	0.001
-206.421	126.325	-0.143	-0.180
-205.406	-200.000	0.005	-0.262
-204.392	-96.782	0.164	0.043
-203.377	60.214	0.195	-0.192
-202.363	800.000	-0.054	-0.152
-201.348	117.388	-0.179	-0.218
-200.333	568.342	0.093	-0.223
-199.319	240.487	0.094	-0.155
-198.304	7.746	0.130	0.097
-197.290	-200.000	0.006	0.145
-196.275	163.226	0.181	0.252
-195.260	434.210	0.047	-0.101
-194.246	-200.000	-0.056	-0.419
-193.231	100.899	0.218	0.252
-192.217	204.331	-0.171	-0.263
-191.202	-9.559	-0.415	0.275
-190.187	15.969	0.171	-0.134
-189.173	82.117	-0.298	0.320
-188.158	-14.978	-0.248	0.158
-187.144	-39.813	-0.281	-0.146
-186.129	-143.340	0.051	-0.005
-185.114	-150.865	0.110	0.008
-184.100	-200.000	-0.058	0.262
-183.085	800.000	-0.066	-0.260
-182.071	-174.645	0.146	-0.004
-181.056	266.228	-0.096	0.166
-180.042	177.930	0.186	0.269
-179.027	12.318	0.125	0.095
-178.012	800.000	0.057	-0.168
-176.998	-89.482	-0.136	0.040
-175.983	-200.000	-0.014	0.289
-174.969	-75.797	-0.178	0.063
-173.954	-200.000	-0.005	0.074
-172.939	-200.000	0.019	0.096
-171.925	-124.743	0.050	-0.008
-170.910	88.107	-0.047	0.052
-169.896	-60.490	-0.351	-0.148
-168.881	192.323	-0.139	-0.208
-167.866	800.000	-0.055	-0.155
-166.852	55.456	0.337	0.324
-165.837	428.107	-0.072	-0.153
-164.823	-200.000	-0.013	0.146
-163.808	26.977	-0.203	0.169
-162.793	268.721	-0.140	0.243
-161.779	800.000	-0.010	-0.031
-160.764	-200.000	0.006	0.146
-159.750	-200.000	0.051	0.269
-158.735	230.459	0.177	0.287
-157.720	70.401	0.115	0.118
-156.706	-150.044	0.107	0.008
-155.691	327.828	-0.065	-0.123
-154.677	800.000	0.039	0.156
-153.662	-82.030	0.146	0.047
-152.647	-37.576	-0.137	-0.072
-151.633	-200.000	0.041	-0.269
-150.618	13.205	0.262	-0.201
-149.604	800.000	-0.140	-0.484
-148.589	-200.000	-0.004	0.113
-147.574	64.964	0.195	0.195
-146.560	-10.263	0.148	-0.098
-145.545	-200.000	0.041	0.286
-144.531	-200.000	-0.012	0.158
-143.516	31.319	-0.020	0.017
-142.502	800.000	0.154	0.429
-141.487	-109.752	0.119	-0.025
-140.472	-116.290	-0.057	-0.010
-139.458	-200.000	-0.030	0.138
-138.443	-150.387	-0.073	-0.006
-137.429	-8.128	-0.088	0.059
-136.414	-200.000	0.014	0.329
-135.399	52.298	0.180	0.170
-134.385	-33.153	-0.069	0.038
-133.370	-196.606	-0.284	-0.002
-132.356	-124.576	0.146	0.023
-131.341	2.359	0.074	0.053
-130.326	5.357	-0.129	-0.094
-129.312	198.023	0.062	-0.094
-128.297	456.380	-0.012	-0.026
-127.283	-29.614	0.343	0.194
-126.268	103.424	-0.071	-0.083
-125.253	-113.995	0.232	-0.045
-124.239	-133.176	0.112	0.014
-123.224	-200.000	-0.052	-0.397
-122.210	249.258	-0.058	0.097
-121.195	800.000	0.096	-0.361
