DTS Sentinel unit serial number:	SN413079Multiplexer serial number:	ORYXHardware model number:	OX4-SRSoftware version number:	ORYX F/W v4.00 Oryx Data Collector v3.7.2.0data status	okinstallation	princeton_trtdifferential loss correction	single-endedforward channel	channel 2reverse channel	N/Adate	2019/09/11time	15:57:11forward acquisition time	60.00reverse acquisition time	0.00gamma	496.2192k internal	0.2288k external	0.2288temperature offset calibration	1.0012default loss term (dB/km)	0.3790temperature slope calibration	1.0000multiplexer offset coefficient	1.0000multiplexer slope coefficient	1.0000fibre end	0.00T internal ref (°C)	43.02T ext. ref 1 (°C)	1.00T ext. ref 2 (°C)	38.85length (m)	temperature (°C)	Stokes	anti-Stokes-747.200	50.622	0.275	0.267
-746.185	-10.219	0.136	0.092
-745.171	-31.538	0.207	0.119
-744.156	-173.172	-0.113	-0.004
-743.142	43.758	-0.201	0.189
-742.127	-113.047	-0.670	0.136
-741.112	409.702	-0.061	0.133
-740.098	800.000	0.088	0.371
-739.083	202.663	-0.121	0.192
-738.069	-70.495	0.221	0.086
-737.054	-200.000	0.053	0.283
-736.039	-132.908	-0.358	0.047
-735.025	209.164	0.191	0.307
-734.010	499.113	-0.147	-0.347
-732.996	318.790	0.020	0.039
-731.981	-167.712	-0.128	0.005
-730.966	-148.029	-0.250	-0.021
-729.952	161.580	0.069	-0.100
-728.937	-200.000	0.009	0.045
-727.923	-200.000	0.042	0.241
-726.908	-120.073	-0.124	0.022
-725.894	1.012	0.194	-0.143
-724.879	-71.725	0.232	0.089
-723.864	-80.088	-0.167	-0.057
-722.850	-200.000	0.049	-0.225
-721.835	-200.000	-0.093	-0.421
-720.821	348.505	-0.073	-0.147
-719.806	-76.627	0.121	0.044
-718.791	-53.904	-0.231	-0.108
-717.777	-86.608	0.183	-0.057
-716.762	23.399	0.271	0.228
-715.748	800.000	0.062	0.260
-714.733	-76.734	0.103	0.037
-713.718	-105.759	-0.278	0.064
-712.704	800.000	-0.075	-0.267
-711.689	-111.383	0.014	0.003
-710.675	5.531	0.079	0.060
-709.660	-200.000	-0.002	0.272
-708.645	292.333	0.061	-0.113
-707.631	51.983	-0.186	0.181
-706.616	78.397	0.251	-0.275
-705.602	156.233	0.105	0.149
-704.587	-134.388	-0.596	-0.075
-703.572	274.690	-0.066	0.119
-702.558	189.558	0.089	-0.136
-701.543	-150.542	-0.072	-0.006
-700.529	-16.297	0.145	0.094
-699.514	391.799	0.031	-0.067
-698.499	67.420	-0.134	0.140
-697.485	-75.276	0.051	0.019
-696.470	400.434	0.074	0.159
-695.456	-16.682	0.122	0.079
-694.441	-200.000	-0.003	0.206
-693.426	-152.544	0.115	-0.008
-692.412	54.396	-0.070	-0.069
-691.397	800.000	0.034	-0.112
-690.383	380.064	-0.067	-0.141
-689.368	140.230	0.182	0.246
-688.354	55.237	0.128	-0.127
-687.339	-115.865	-0.116	0.022
-686.324	396.890	-0.030	0.065
-685.310	177.837	0.269	-0.402
-684.295	50.833	0.078	-0.076
-683.281	-38.414	0.168	0.091
-682.266	-87.475	0.168	0.052
-681.251	23.824	-0.239	0.201
-680.237	-200.000	0.095	0.479
-679.222	-200.000	-0.044	0.272
-678.208	-200.000	-0.030	-0.242
-677.193	20.847	-0.105	0.087
-676.178	44.763	-0.292	-0.275
-675.164	-128.686	0.077	-0.011
-674.149	37.045	-0.099	-0.090
-673.135	476.588	0.077	0.178
-672.120	-200.000	0.009	0.096
-671.105	-120.509	-0.280	-0.049
-670.091	-133.188	-0.081	0.010
-669.076	-200.000	0.002	-0.083
-668.062	61.665	0.294	-0.299
-667.047	-128.193	0.294	0.043
-666.032	-93.792	-0.355	0.100
-665.018	217.331	-0.147	0.239
-664.003	125.976	-0.121	0.156
-662.989	-61.380	0.096	-0.041
-661.974	-19.279	-0.054	0.034
-660.959	55.948	-0.112	-0.111
-659.945	310.062	0.075	-0.142
-658.930	15.303	-0.350	0.280
-657.916	-109.598	-0.053	-0.011
-656.901	205.951	0.049	0.079
-655.886	-134.314	-0.022	0.003
-654.872	-200.000	0.029	-0.540
-653.857	-84.103	0.159	0.052
-652.843	216.421	0.212	-0.345
-651.828	-200.000	-0.519	-0.002
-650.814	243.748	0.125	-0.215
-649.799	-76.423	-0.256	0.092
-648.784	172.667	-0.028	0.041
-647.770	37.929	-0.267	0.242
-646.755	83.474	-0.025	0.027
-645.741	-152.404	0.249	0.018
-644.726	-200.000	-0.049	-0.235
-643.711	-163.873	-0.225	-0.011
-642.697	-75.898	0.096	-0.035
-641.682	-88.828	-0.291	-0.088
-640.668	800.000	-0.056	-0.241
-639.653	-104.628	-0.216	-0.051
-638.638	-200.000	0.025	-0.216
-637.624	-41.614	0.240	-0.126
-636.609	421.064	-0.037	0.081
-635.595	20.852	-0.080	-0.066
-634.580	800.000	0.038	0.125
-633.565	-53.725	0.272	0.127
-632.551	55.400	-0.115	-0.114
-631.536	147.971	-0.192	-0.264
-630.522	722.013	0.019	0.051
-629.507	179.452	0.107	-0.160
-628.492	-40.134	-0.193	-0.102
-627.478	-63.709	-0.090	0.038
-626.463	351.426	0.029	0.058
-625.449	-68.826	0.064	-0.025
-624.434	27.520	0.147	-0.126
-623.419	-126.714	-0.235	-0.035
-622.405	-200.000	0.010	-0.117
-621.390	-36.088	0.286	0.157
-620.376	-200.000	-0.043	-0.302
-619.361	-95.999	-0.205	0.056
-618.346	-124.505	-0.179	0.028
-617.332	769.571	-0.130	0.361
-616.317	693.039	0.067	0.180
-615.303	-117.201	0.145	-0.027
-614.288	-122.464	0.196	-0.033
-613.273	22.939	0.109	-0.091
-612.259	214.986	-0.083	-0.135
-611.244	786.436	-0.097	0.271
-610.230	-200.000	0.015	0.235
-609.215	-54.003	0.501	0.233
-608.201	58.138	-0.100	-0.099
-607.186	479.461	0.050	0.116
-606.171	566.352	0.093	0.231
-605.157	-102.361	-0.484	0.118
-604.142	62.222	-0.114	-0.116
-603.128	97.562	0.185	0.216
-602.113	-200.000	0.005	0.063
-601.098	48.233	0.085	-0.081
-600.084	772.580	0.134	0.373
-599.069	425.839	-0.084	-0.184
-598.055	405.828	0.165	-0.355
-597.040	-200.000	-0.116	-0.640
-596.025	-110.866	0.131	-0.028
-595.011	14.262	-0.189	0.151
-593.996	262.147	0.041	0.073
-592.982	-200.000	0.006	-0.060
-591.967	13.653	-0.148	-0.117
-590.952	-2.745	0.305	-0.217
-589.938	800.000	0.041	0.137
-588.923	800.000	-0.032	-0.093
-587.909	444.097	-0.105	-0.234
-586.894	132.997	-0.186	0.245
-585.879	-136.809	0.274	-0.032
-584.865	-106.328	0.137	-0.031
-583.850	394.604	-0.023	-0.049
-582.836	-159.059	-0.392	-0.023
-581.821	109.139	0.052	0.063
-580.806	800.000	-0.100	-0.281
-579.792	-97.088	-0.142	0.038
-578.777	800.000	-0.017	0.071
-577.763	-200.000	0.268	-0.001
-576.748	800.000	-0.065	0.263
-575.733	165.970	-0.071	0.102
-574.719	7.066	-0.093	0.070
-573.704	78.324	0.113	0.123
-572.690	-125.280	-0.091	0.014
-571.675	-53.751	-0.198	0.092
-570.661	-136.026	0.484	-0.058
-569.646	-25.461	-0.172	0.104
-568.631	-157.351	-0.197	0.012
-567.617	-107.291	0.124	0.028
-566.602	213.115	0.067	0.107
-565.588	-26.915	-0.075	0.045
-564.573	313.289	0.122	0.234
-563.558	-124.669	-0.034	-0.005
-562.544	800.000	-0.029	0.114
-561.529	103.369	0.040	-0.048
-560.515	-200.000	-0.004	-0.057
-559.500	691.492	0.053	0.142
-558.485	-162.775	-0.222	-0.011
-557.471	-11.354	-0.095	0.064
-556.456	-90.250	0.040	-0.012
-555.442	14.968	0.266	0.212
-554.427	-127.678	-0.211	0.031
-553.412	123.448	-0.280	0.357
-552.398	-200.000	0.040	0.395
-551.383	800.000	-0.128	0.374
-550.369	-63.349	0.157	-0.066
-549.354	28.339	0.063	-0.054
-548.339	-200.000	-0.029	-0.275
-547.325	-200.000	0.006	0.115
-546.310	-200.000	0.007	0.250
-545.296	-100.164	-0.252	0.064
-544.281	-200.000	-0.009	-0.088
-543.266	-200.000	0.055	-0.322
-542.252	-200.000	-0.006	0.037
-541.237	-177.070	0.152	0.004
-540.223	0.167	0.184	-0.134
-539.208	-91.464	0.290	0.084
-538.193	800.000	0.056	-0.167
-537.179	65.785	0.088	-0.091
-536.164	33.698	0.183	0.162
-535.150	-200.000	-0.011	-0.071
-534.135	-175.934	0.353	-0.010
-533.121	180.055	0.174	-0.259
-532.106	-142.883	-0.181	-0.018
-531.091	-48.725	0.134	0.065
-530.077	-89.695	-0.350	0.104
-529.062	332.241	-0.024	-0.046
-528.048	-200.000	0.034	0.151
-527.033	113.939	-0.148	0.183
-526.018	617.351	-0.064	0.163
-525.004	226.634	-0.209	-0.345
-523.989	-188.314	-0.342	0.004
-522.975	800.000	0.146	-0.436
-521.960	-41.192	0.132	0.069
-520.945	-200.000	0.052	0.266
-519.931	800.000	0.026	0.116
-518.916	264.755	0.157	0.279
-517.902	173.143	0.106	-0.155
-516.887	-88.476	-0.181	-0.055
-515.872	-120.152	-0.386	0.067
-514.858	407.870	-0.151	-0.324
-513.843	-200.000	0.002	-0.218
-512.829	103.057	-0.114	0.136
-511.814	179.638	-0.070	0.104
-510.799	-152.253	-0.010	-0.001
-509.785	-200.000	-0.013	0.380
-508.770	-56.160	0.321	-0.145
-507.756	-86.543	0.170	-0.053
-506.741	-185.500	0.545	-0.008
-505.726	-22.278	0.259	-0.160
-504.712	-97.547	0.119	-0.031
-503.697	-117.278	0.218	0.040
-502.683	3.662	-0.073	0.054
-501.668	36.346	-0.042	0.038
-500.653	-78.342	-0.016	0.006
-499.639	59.827	-0.197	0.198
-498.624	-130.549	0.197	-0.027
-497.610	-15.201	-0.252	0.164
-496.595	-32.593	-0.301	0.170
-495.581	-148.705	-0.165	0.014
-494.566	85.258	-0.107	-0.119
-493.551	-89.116	0.164	-0.049
-492.537	-86.971	-0.087	0.027
-491.522	216.389	-0.093	0.149
-490.508	150.214	-0.166	-0.229
-489.493	5.446	0.416	0.311
-488.478	42.380	-0.168	0.155
-487.464	-110.045	-0.198	-0.042
-486.449	685.168	-0.058	0.155
-485.435	-76.910	0.103	-0.036
-484.420	39.472	-0.272	0.247
-483.405	110.941	-0.212	0.258
-482.391	-131.517	-0.391	-0.052
-481.376	691.615	0.138	-0.368
-480.362	-200.000	-0.005	0.174
-479.347	-200.000	-0.016	0.180
-478.332	-110.487	0.077	0.016
-477.318	-87.874	0.305	-0.093
-476.303	169.931	-0.228	0.331
-475.289	-70.760	-0.155	0.059
-474.274	163.857	0.268	-0.382
-473.259	-200.000	0.001	-0.313
-472.245	-183.233	0.167	0.003
-471.230	-144.940	-0.314	-0.029
-470.216	303.804	0.091	0.170
-469.201	800.000	-0.047	0.141
-468.186	-111.015	-0.086	-0.018
-467.172	-67.145	0.119	0.047
-466.157	800.000	0.036	-0.108
-465.143	103.048	0.147	-0.175
-464.128	-2.288	-0.338	-0.241
-463.113	-200.000	0.018	-0.331
-462.099	32.241	0.119	-0.104
-461.084	-2.940	-0.362	-0.256
-460.070	-199.679	0.368	-0.002
-459.055	144.402	0.083	-0.112
-458.040	-200.000	-0.026	-0.268
-457.026	-151.897	0.219	-0.016
-456.011	-136.536	-0.194	-0.023
-454.997	650.202	0.086	0.223
-453.982	227.895	0.053	-0.088
-452.968	800.000	-0.105	-0.339
-451.953	96.319	-0.104	-0.120
-450.938	-59.260	0.310	-0.135
-449.924	800.000	-0.143	-0.513
-448.909	-150.140	-0.126	0.010
-447.895	2.950	-0.209	0.154
-446.880	-111.727	-0.306	-0.063
-445.865	-21.539	0.228	-0.141
-444.851	800.000	0.076	-0.306
-443.836	412.552	-0.087	0.188
-442.822	-100.839	0.112	-0.028
-441.807	-200.000	0.020	0.168
-440.792	-15.194	0.289	-0.187
-439.778	599.243	0.126	-0.317
-438.763	-200.000	0.093	-0.495
-437.749	17.938	-0.158	-0.127
-436.734	-27.317	0.248	-0.146
-435.719	-56.107	-0.057	-0.026
-434.705	101.456	-0.020	-0.023
-433.690	-79.712	0.142	0.048
-432.676	89.165	-0.099	0.111
-431.661	249.071	-0.161	-0.277
-430.646	-140.075	-0.206	-0.022
-429.632	-85.635	-0.217	0.068
-428.617	800.000	-0.047	0.156
-427.603	-91.359	0.066	0.019
-426.588	-88.252	0.158	0.048
-425.573	-178.641	0.044	-0.001
-424.559	800.000	0.085	0.277
-423.544	-48.633	-0.164	-0.080
-422.530	-200.000	-0.007	-0.400
-421.515	137.331	0.156	-0.207
-420.500	-82.549	0.055	-0.018
-419.486	800.000	0.080	0.260
-418.471	-185.052	0.379	0.006
-417.457	168.479	0.165	0.238
-416.442	800.000	-0.066	0.215
-415.428	71.635	-0.008	0.008
-414.413	531.645	-0.103	-0.248
-413.398	40.422	-0.036	-0.033
-412.384	161.041	0.095	-0.135
-411.369	-40.559	-0.085	0.045
-410.355	155.019	0.109	0.152
-409.340	-103.476	0.199	0.047
-408.325	514.725	0.061	0.145
-407.311	502.664	0.059	0.137
-406.296	-200.000	0.257	-0.001
-405.282	515.724	-0.057	-0.135
-404.267	-94.298	-0.293	0.081
-403.252	-41.637	0.312	-0.162
-402.238	-200.000	-0.014	0.115
-401.223	-107.959	0.069	0.015
-400.209	22.404	0.102	-0.085
-399.194	-87.806	-0.126	0.038
-398.179	777.362	-0.078	-0.215
-397.165	-45.470	-0.140	-0.070
-396.150	-200.000	-0.043	0.398
-395.136	800.000	-0.118	0.454
-394.121	130.479	0.122	0.158
-393.106	-25.747	-0.068	0.041
-392.092	104.041	0.186	0.221
-391.077	-108.443	-0.107	0.023
-390.063	290.186	-0.082	0.151
-389.048	-60.884	-0.331	-0.142
-388.033	53.025	0.028	0.027
-387.019	716.443	0.035	0.095
-386.004	-44.880	0.182	0.092
-384.990	-147.897	0.127	0.011
-383.975	267.783	0.138	-0.244
-382.960	-79.595	-0.031	0.011
-381.946	-46.351	-0.190	-0.094
-380.931	-3.863	0.067	-0.047
-379.917	154.014	0.143	0.198
-378.902	-33.380	-0.126	-0.070
-377.888	800.000	-0.036	-0.126
-376.873	-140.172	0.145	0.015
-375.858	-53.437	0.262	0.121
-374.844	-48.990	-0.058	-0.028
-373.829	130.257	0.101	-0.130
-372.815	-92.312	-0.174	0.050
-371.800	-26.419	0.009	0.005
-370.785	150.193	-0.098	0.134
-369.771	77.334	0.101	0.109
-368.756	-38.719	-0.156	0.083
-367.742	349.615	0.134	-0.266
-366.727	-17.686	-0.099	-0.063
-365.712	273.559	-0.138	0.247
-364.698	-150.405	0.133	-0.010
-363.683	447.528	-0.019	0.042
-362.669	-114.580	0.097	0.019
-361.654	169.041	0.080	0.116
-360.639	-167.306	0.141	-0.006
-359.625	85.663	0.170	0.188
-358.610	353.280	0.110	0.221
-357.596	778.268	-0.114	-0.314
-356.581	72.602	-0.262	-0.276
-355.566	-126.501	-0.110	-0.017
-354.552	137.794	-0.009	-0.012
-353.537	800.000	0.079	0.252
-352.523	-24.845	-0.143	0.086
-351.508	-161.234	0.078	0.004
-350.493	-38.107	0.170	0.091
-349.479	-200.000	-0.019	-0.130
-348.464	-109.202	0.074	0.016
-347.450	-174.248	-0.241	0.007
-346.435	-111.003	-0.159	0.033
-345.420	181.098	0.166	0.246
-344.406	-120.475	-0.125	0.022
-343.391	800.000	-0.065	0.193
-342.377	-0.837	-0.196	0.140
-341.362	51.524	-0.093	0.089
-340.348	-200.000	0.021	0.110
-339.333	-117.354	-0.193	0.035
-338.318	44.986	-0.054	-0.050
-337.304	2.823	0.125	-0.091
-336.289	-200.000	-0.033	-0.366
-335.275	147.323	-0.190	0.258
-334.260	-72.297	0.055	0.020
-333.245	800.000	0.088	-0.274
-332.231	151.180	-0.187	-0.256
-331.216	-190.357	0.046	-0.001
-330.202	800.000	0.129	0.434
-329.187	130.881	-0.158	-0.204
-328.172	800.000	-0.113	-0.428
-327.158	-81.546	0.219	-0.073
-326.143	97.304	0.233	-0.270
-325.129	-200.000	-0.012	0.077
-324.114	74.715	-0.127	-0.135
-323.099	-200.000	-0.002	0.084
-322.085	322.060	0.091	-0.175
-321.070	-200.000	-0.012	-0.056
-320.056	-103.660	-0.076	-0.018
-319.041	27.906	0.087	0.074
-318.026	-200.000	0.033	-0.261
-317.012	-200.000	-0.058	0.551
-315.997	203.094	-0.139	-0.217
-314.983	316.130	-0.090	0.171
-313.968	-200.000	0.018	0.104
-312.953	-117.499	-0.130	-0.024
-311.939	800.000	0.128	-0.387
-310.924	-39.825	-0.231	0.122
-309.910	80.408	-0.107	-0.116
-308.895	-200.000	0.001	-0.277
-307.880	-200.000	-0.022	0.136
-306.866	800.000	-0.119	-0.430
-305.851	347.775	-0.144	0.285
-304.837	800.000	0.043	-0.146
-303.822	-46.994	0.083	-0.041
-302.807	-168.205	0.282	-0.011
-301.793	130.150	0.116	0.150
-300.778	112.326	0.147	0.179
-299.764	-127.759	0.290	0.042
-298.749	89.214	-0.028	-0.031
-297.735	800.000	0.102	0.362
-296.720	-21.782	0.477	0.292
-295.705	-200.000	0.057	0.324
-294.691	144.660	0.132	0.177
-293.676	-200.000	-0.011	0.145
-292.662	-49.381	0.097	0.047
-291.647	43.842	-0.098	-0.091
-290.632	-85.966	-0.189	0.059
-289.618	-59.772	-0.300	0.129
-288.603	-94.359	-0.222	0.061
-287.589	-11.664	-0.033	0.022
-286.574	-200.000	0.045	-0.235
-285.559	35.561	-0.048	-0.043
-284.545	-136.958	-0.444	0.051
-283.530	800.000	-0.066	-0.223
-282.516	-0.928	0.459	-0.327
-281.501	-148.071	0.456	0.038
-280.486	16.705	-0.104	0.083
-279.472	-6.858	-0.212	-0.145
-278.457	500.255	-0.051	-0.117
-277.443	800.000	-0.041	-0.120
-276.428	-56.844	-0.103	0.046
-275.413	117.703	0.114	-0.142
-274.399	800.000	0.045	-0.130
-273.384	800.000	0.020	0.064
-272.370	111.483	0.088	-0.107
-271.355	-75.817	-0.201	-0.072
-270.340	19.151	0.079	0.064
-269.326	-89.453	0.369	0.109
-268.311	-92.329	-0.112	-0.032
-267.297	-200.000	0.017	-0.259
-266.282	-0.163	0.227	0.162
-265.267	-61.356	0.098	-0.041
-264.253	-169.192	0.086	0.003
-263.238	452.364	0.016	-0.035
-262.224	-88.145	-0.097	0.029
-261.209	-102.087	0.185	0.045
-260.195	-62.656	-0.330	-0.138
-259.180	210.398	-0.068	0.107
-258.165	90.897	0.276	0.311
-257.151	-144.514	-0.286	-0.027
-256.136	105.677	-0.215	-0.255
-255.122	89.883	0.048	-0.054
-254.107	97.064	-0.149	-0.172
-253.092	-200.000	0.001	-0.077
-252.078	510.280	-0.006	-0.013
-251.063	42.387	0.089	-0.082
-250.049	-107.934	0.411	-0.090
-249.034	-53.701	-0.231	0.106
-248.019	161.893	0.161	0.226
-247.005	-200.000	0.006	-0.229
-245.990	-77.681	-0.313	0.109
-244.976	-140.472	-0.065	-0.007
-243.961	-40.361	-0.193	0.101
-242.946	152.846	-0.113	0.155
-241.932	-200.000	0.049	-0.275
-240.917	76.395	0.051	-0.054
-239.903	-139.971	0.175	0.019
-238.888	89.231	0.165	0.185
-237.873	177.059	0.039	-0.057
-236.859	-99.282	-0.130	-0.033
-235.844	-10.251	-0.063	0.042
-234.830	-200.000	0.000	0.086
-233.815	-200.000	-0.004	-0.098
-232.800	619.660	-0.101	0.255
-231.786	-100.810	-0.093	-0.023
-230.771	52.460	0.042	0.040
-229.757	-117.732	0.292	0.053
-228.742	512.730	-0.070	0.163
-227.727	452.808	-0.215	0.477
-226.713	88.410	-0.055	0.061
-225.698	-127.192	-0.184	-0.027
-224.684	707.078	-0.136	-0.360
-223.669	38.219	0.034	0.030
-222.655	573.072	0.074	-0.181
-221.640	5.334	0.048	-0.035
-220.625	800.000	0.033	0.143
-219.611	-200.000	-0.040	-0.248
-218.596	444.216	-0.075	0.166
-217.582	-29.638	-0.173	-0.099
-216.567	-30.057	-0.116	0.066
-215.552	-153.288	0.041	-0.003
-214.538	-98.435	-0.164	-0.042
-213.523	146.007	-0.203	-0.273
-212.509	800.000	0.047	0.132
-211.494	-4.061	0.092	0.064
-210.479	365.746	0.114	0.230
-209.465	-200.000	-0.011	-0.066
-208.450	-135.115	0.038	-0.005
-207.436	83.825	-0.095	0.104
-206.421	-143.479	0.566	0.054
-205.406	-49.270	-0.059	-0.028
-204.392	-200.000	0.047	0.258
-203.377	-178.136	0.054	0.001
-202.363	-151.213	0.154	0.012
-201.348	800.000	0.088	-0.276
-200.333	-130.012	-0.489	0.067
-199.319	-38.100	-0.275	-0.146
-198.304	34.869	-0.078	-0.069
-197.290	-177.090	-0.252	0.006
-196.275	450.420	-0.139	0.308
-195.260	75.727	-0.111	-0.118
-194.246	-200.000	0.040	0.322
-193.231	-82.171	0.116	-0.038
-192.217	193.496	0.115	-0.175
-191.202	-200.000	0.042	0.469
-190.187	107.612	-0.086	0.103
-189.173	-123.605	-0.207	0.033
-188.158	169.460	0.123	-0.176
-187.144	0.158	-0.200	-0.143
-186.129	-36.013	0.058	-0.032
-185.114	-57.398	-0.324	-0.143
-184.100	-12.457	0.224	-0.147
-183.085	-200.000	0.191	0.000
-182.071	222.058	-0.029	0.047
-181.056	-200.000	-0.039	0.279
-180.042	14.194	0.194	0.152
-179.027	116.332	0.285	-0.350
-178.012	-110.789	0.231	-0.048
-176.998	-105.396	-0.076	-0.017
-175.983	-10.756	-0.083	-0.055
-174.969	-35.817	0.304	-0.165
-173.954	-106.989	-0.485	0.107
-172.939	-156.325	0.115	0.007
-171.925	-60.575	-0.164	0.070
-170.910	800.000	0.026	0.115
-169.896	800.000	-0.035	-0.120
-168.881	-33.776	0.130	0.072
-167.866	694.845	0.077	-0.201
-166.852	94.323	-0.052	0.059
-165.837	-133.804	0.356	-0.044
-164.823	2.353	0.241	-0.175
-163.808	-200.000	-0.021	0.369
-162.793	462.477	0.069	-0.154
-161.779	-11.537	0.329	0.217
-160.764	800.000	0.080	-0.224
-159.750	530.420	-0.028	-0.067
-158.735	-64.979	-0.083	-0.034
-157.720	-135.254	0.181	0.022
-156.706	147.776	-0.055	-0.075
-155.691	-200.000	-0.027	-0.120
-154.677	-86.247	-0.408	0.126
-153.662	-97.389	0.147	0.038
-152.647	36.660	0.169	-0.149
-151.633	-119.653	0.343	0.059
-150.618	-200.000	0.036	-0.175
-149.604	122.805	-0.265	0.332
-148.589	346.240	-0.053	0.105
-147.574	-9.302	-0.153	-0.102
-146.560	246.879	0.108	0.182
-145.545	-89.951	0.226	-0.066
-144.531	-200.000	0.058	0.392
-143.516	15.898	-0.152	0.120
-142.502	89.200	0.139	-0.155
-141.487	-200.000	0.031	-0.223
-140.472	-200.000	0.045	0.389
-139.458	223.832	0.090	0.146
-138.443	-57.910	-0.284	-0.124
-137.429	20.163	-0.102	-0.083
-136.414	800.000	0.101	-0.283
-135.399	155.794	-0.122	-0.168
-134.385	537.555	0.088	0.210
-133.370	352.463	-0.205	0.408
-132.356	720.383	-0.115	-0.307
-131.341	21.692	0.153	-0.124
-130.326	649.581	-0.046	0.118
-129.312	-67.679	0.156	0.061
-128.297	178.466	0.056	0.082
-127.283	-200.000	0.021	-0.097
-126.268	-200.000	0.044	0.227
-125.253	-125.723	0.135	-0.020
-124.239	-59.229	0.136	0.059
-123.224	244.035	-0.028	0.046
-122.210	-47.649	-0.238	-0.116
-121.195	50.849	-0.177	0.168
