DTS Sentinel unit serial number:	SN413079Multiplexer serial number:	ORYXHardware model number:	OX4-SRSoftware version number:	ORYX F/W v4.00 Oryx Data Collector v3.7.2.0data status	okinstallation	princeton_trtdifferential loss correction	single-endedforward channel	channel 2reverse channel	N/Adate	2019/09/19time	06:07:35forward acquisition time	60.00reverse acquisition time	0.00gamma	496.2192k internal	0.2350k external	0.2350temperature offset calibration	1.0015default loss term (dB/km)	0.3790temperature slope calibration	1.0000multiplexer offset coefficient	1.0000multiplexer slope coefficient	1.0000fibre end	0.00T internal ref (°C)	19.12T ext. ref 1 (°C)	0.57T ext. ref 2 (°C)	12.71length (m)	temperature (°C)	Stokes	anti-Stokes-747.200	-47.119	-0.184	-0.090
-746.185	-30.797	0.302	0.170
-745.171	38.743	0.102	-0.091
-744.156	-52.901	0.269	-0.124
-743.142	61.396	0.090	0.089
-742.127	-50.612	-0.269	0.126
-741.112	-200.000	0.016	-0.130
-740.098	198.358	-0.176	0.269
-739.083	14.505	0.193	0.151
-738.069	-200.000	-0.008	0.241
-737.054	704.409	-0.082	0.215
-736.039	-111.738	-0.071	-0.014
-735.025	108.158	0.084	0.100
-734.010	-200.000	0.034	0.251
-732.996	800.000	-0.064	-0.242
-731.981	-200.000	0.009	-0.140
-730.966	800.000	0.042	-0.129
-729.952	60.634	-0.138	-0.136
-728.937	123.494	-0.073	-0.091
-727.923	-39.281	-0.009	0.005
-726.908	-200.000	-0.073	-0.340
-725.894	725.241	-0.087	-0.232
-724.879	160.851	-0.193	-0.269
-723.864	-25.710	-0.025	0.015
-722.850	-48.037	0.128	-0.062
-721.835	-200.000	-0.023	0.161
-720.821	-30.949	-0.413	-0.233
-719.806	246.764	-0.155	-0.260
-718.791	510.524	0.141	-0.328
-717.777	-200.000	0.044	0.284
-716.762	103.068	-0.232	0.271
-715.748	-37.545	-0.180	0.096
-714.733	144.823	-0.153	-0.204
-713.718	15.687	-0.095	0.075
-712.704	25.715	-0.128	-0.107
-711.689	132.383	-0.379	-0.488
-710.675	-200.000	-0.021	-0.170
-709.660	-10.689	-0.090	-0.059
-708.645	312.183	0.049	-0.091
-707.631	800.000	0.079	-0.263
-706.616	-76.706	0.071	0.025
-705.602	181.788	-0.120	0.175
-704.587	24.749	0.039	0.032
-703.572	-18.085	0.064	0.040
-702.558	-172.514	0.138	-0.004
-701.543	108.415	-0.183	0.217
-700.529	-200.000	0.002	0.065
-699.514	54.441	-0.013	-0.013
-698.499	525.898	-0.029	-0.067
-697.485	-26.852	-0.129	0.075
-696.470	-168.752	0.143	-0.005
-695.456	-118.692	0.275	-0.048
-694.441	-111.267	0.126	0.026
-693.426	-200.000	-0.009	-0.235
-692.412	76.357	0.074	0.078
-691.397	-200.000	-0.014	-0.328
-690.383	-94.402	-0.272	-0.074
-689.368	136.891	0.049	-0.064
-688.354	800.000	-0.002	0.009
-687.339	168.809	-0.157	0.222
-686.324	-200.000	-0.005	0.033
-685.310	-190.887	0.168	0.002
-684.295	178.804	-0.038	0.056
-683.281	-72.050	-0.377	-0.140
-682.266	-56.791	0.317	0.140
-681.251	-169.633	-0.172	0.006
-680.237	20.888	-0.077	-0.062
-679.222	-112.688	-0.044	-0.009
-678.208	22.258	0.032	-0.026
-677.193	-75.941	-0.192	-0.068
-676.178	-42.349	0.156	0.079
-675.164	10.588	-0.179	0.136
-674.149	7.945	0.312	0.233
-673.135	800.000	0.058	-0.237
-672.120	-150.813	0.171	0.013
-671.105	-6.354	0.375	0.254
-670.091	-114.775	-0.419	0.080
-669.076	-129.782	0.248	-0.034
-668.062	-157.068	0.337	0.020
-667.047	503.183	0.046	-0.106
-666.032	137.388	-0.123	0.161
-665.018	-107.160	-0.488	-0.107
-664.003	263.708	-0.057	0.099
-662.989	24.840	0.164	-0.135
-661.974	800.000	-0.152	-0.420
-660.959	285.773	0.203	-0.364
-659.945	-133.640	-0.317	-0.039
-658.930	78.010	-0.125	-0.133
-657.916	-13.224	-0.047	0.030
-656.901	-200.000	0.016	-0.170
-655.886	-66.905	-0.275	0.108
-654.872	-99.562	-0.243	-0.061
-653.857	-140.833	-0.119	-0.012
-652.843	-200.000	0.028	-0.239
-651.828	-3.888	0.115	0.079
-650.814	110.797	0.157	0.187
-649.799	395.165	0.078	0.163
-648.784	-200.000	0.066	0.304
-647.770	-147.028	-0.102	-0.009
-646.755	-200.000	0.013	0.069
-645.741	33.668	0.207	0.179
-644.726	800.000	-0.089	-0.338
-643.711	-51.808	-0.071	0.033
-642.697	-200.000	-0.042	0.400
-641.682	-200.000	0.017	0.095
-640.668	-43.595	-0.168	-0.084
-639.653	-168.035	-0.169	-0.007
-638.638	177.822	-0.218	-0.316
-637.624	-42.119	-0.215	0.110
-636.609	125.374	0.062	0.078
-635.595	-51.317	-0.269	-0.125
-634.580	-23.315	0.346	-0.207
-633.565	228.684	0.102	0.165
-632.551	-124.191	-0.288	-0.045
-631.536	149.279	-0.227	0.306
-630.522	89.780	0.143	-0.159
-629.507	109.206	-0.247	0.294
-628.492	-200.000	0.003	-0.158
-627.478	-172.982	0.115	0.004
-626.463	-200.000	0.024	-0.164
-625.449	-66.975	-0.074	-0.029
-624.434	-200.000	-0.022	0.328
-623.419	-74.855	-0.250	-0.089
-622.405	-23.344	-0.118	0.070
-621.390	-63.649	-0.146	0.060
-620.376	8.653	-0.103	0.077
-619.361	225.644	-0.094	0.152
-618.346	-104.122	-0.097	0.022
-617.332	-106.520	-0.337	-0.075
-616.317	-133.062	-0.204	0.026
-615.303	-37.043	0.390	-0.207
-614.288	71.944	-0.395	-0.408
-613.273	353.953	-0.061	-0.120
-612.259	-62.782	0.243	-0.100
-611.244	439.892	0.025	-0.055
-610.230	-122.174	-0.324	-0.053
-609.215	537.503	0.062	0.146
-608.201	-60.636	0.151	0.063
-607.186	105.677	0.192	-0.225
-606.171	-95.077	0.310	-0.083
-605.157	568.376	-0.099	0.240
-604.142	-166.584	-0.046	0.002
-603.128	-57.230	0.094	-0.041
-602.113	-25.653	0.099	-0.058
-601.098	-200.000	-0.050	-0.319
-600.084	-25.916	-0.250	-0.146
-599.069	-158.622	0.162	-0.009
-598.055	562.127	-0.134	-0.322
-597.040	-200.000	0.121	-0.588
-596.025	9.591	-0.256	-0.193
-595.011	-44.767	-0.018	-0.009
-593.996	-200.000	0.052	0.270
-592.982	-94.719	-0.353	-0.095
-591.967	34.548	0.190	0.165
-590.952	-200.000	0.018	-0.349
-589.938	-75.198	-0.226	-0.080
-588.923	-200.000	-0.075	-0.421
-587.909	800.000	-0.062	-0.190
-586.894	-200.000	-0.009	0.222
-585.879	673.253	-0.016	-0.041
-584.865	-200.000	-0.070	0.318
-583.850	-200.000	0.018	0.311
-582.836	9.352	0.250	0.187
-581.821	136.416	-0.264	-0.342
-580.806	-57.880	0.213	-0.092
-579.792	-4.711	-0.117	-0.080
-578.777	-170.182	-0.170	-0.006
-577.763	-7.240	-0.165	0.111
-576.748	-20.639	-0.103	-0.063
-575.733	-151.355	0.028	0.002
-574.719	-105.181	0.283	0.064
-573.704	-180.279	-0.216	-0.004
-572.690	-55.863	-0.155	-0.069
-571.675	225.691	-0.140	-0.225
-570.661	1.612	-0.150	-0.107
-569.646	-20.292	0.120	0.073
-568.631	203.655	-0.026	0.041
-567.617	80.237	0.246	-0.263
-566.602	-152.653	-0.329	0.023
-565.588	-16.506	-0.128	-0.080
-564.573	598.278	0.084	-0.207
-563.558	-38.233	0.109	0.057
-562.544	20.902	-0.090	-0.073
-561.529	3.362	-0.408	0.295
-560.515	-151.954	0.284	-0.021
-559.500	-106.697	0.201	0.044
-558.485	356.926	0.106	-0.209
-557.471	193.344	-0.164	0.246
-556.456	-91.275	0.277	-0.078
-555.442	256.709	-0.053	0.090
-554.427	-82.834	0.204	-0.065
-553.412	-200.000	-0.052	-0.305
-552.398	-109.602	-0.413	0.086
-551.383	-126.304	-0.327	-0.048
-550.369	-200.000	0.012	0.268
-549.354	61.046	0.184	0.181
-548.339	-200.000	0.005	0.192
-547.325	70.596	-0.320	-0.328
-546.310	-200.000	0.035	-0.178
-545.296	128.533	0.290	-0.366
-544.281	-45.054	0.071	0.035
-543.266	-91.316	0.301	-0.085
-542.252	-200.000	0.035	-0.167
-541.237	357.555	-0.051	-0.101
-540.223	29.914	-0.257	-0.217
-539.208	86.639	0.126	0.138
-538.193	-8.603	0.108	-0.072
-537.179	123.561	0.024	0.030
-536.164	23.094	0.197	-0.160
-535.150	800.000	0.060	0.198
-534.135	-57.610	-0.127	-0.055
-533.121	-56.179	0.368	-0.162
-532.106	540.045	-0.163	0.385
-531.091	352.492	-0.090	0.176
-530.077	292.021	0.082	-0.148
-529.062	2.073	-0.162	-0.116
-528.048	-162.468	-0.195	-0.010
-527.033	476.238	0.125	-0.280
-526.018	81.090	-0.144	-0.154
-525.004	-157.911	0.106	0.006
-523.989	203.350	-0.092	0.141
-522.975	-43.026	-0.211	-0.106
-521.960	-198.968	0.378	0.002
-520.945	225.032	-0.147	0.235
-519.931	-200.000	-0.009	-0.191
-518.916	112.560	-0.163	-0.196
-517.902	-32.643	-0.190	-0.104
-516.887	800.000	-0.035	-0.114
-515.872	-11.012	-0.233	0.152
-514.858	133.079	0.150	0.192
-513.843	294.705	0.151	-0.274
-512.829	11.643	-0.210	0.160
-511.814	49.578	0.197	-0.184
-510.799	800.000	0.051	-0.194
-509.785	204.248	0.162	-0.248
-508.770	-53.038	0.108	-0.049
-507.756	-200.000	-0.018	0.116
-506.741	800.000	-0.096	0.285
-505.726	20.947	0.218	0.175
-504.712	800.000	0.025	-0.084
-503.697	-127.149	0.258	-0.037
-502.683	-77.519	0.202	-0.069
-501.668	-49.254	-0.103	-0.048
-500.653	-6.152	0.268	-0.181
-499.639	76.371	-0.153	0.160
-498.624	-0.481	0.168	-0.118
-497.610	221.072	0.185	-0.294
-496.595	-53.135	-0.409	-0.186
-495.581	-6.510	0.026	0.017
-494.566	-115.531	-0.311	-0.058
-493.551	-53.637	0.181	0.082
-492.537	800.000	-0.074	-0.310
-491.522	757.149	-0.067	0.178
-490.508	-197.441	0.165	0.001
-489.493	299.243	0.148	-0.269
-488.478	262.567	0.063	-0.109
-487.464	147.481	-0.137	-0.182
-486.449	-93.085	0.356	0.098
-485.435	-158.443	0.077	0.004
-484.420	139.450	0.010	0.013
-483.405	-82.263	0.231	0.074
-482.391	-200.000	0.016	-0.081
-481.376	-48.818	-0.364	-0.172
-480.362	109.610	-0.240	0.284
-479.347	80.819	-0.256	0.273
-478.332	-200.000	-0.063	0.356
-477.318	-167.635	0.162	0.006
-476.303	-165.144	-0.339	0.015
-475.289	404.502	-0.031	-0.064
-474.274	227.668	-0.174	-0.280
-473.259	146.357	-0.098	-0.130
-472.245	502.382	0.144	-0.328
-471.230	-116.707	-0.162	-0.029
-470.216	244.141	-0.083	-0.137
-469.201	-47.949	0.258	0.123
-468.186	141.889	-0.127	0.167
-467.172	-119.424	-0.264	-0.045
-466.157	62.300	0.067	0.066
-465.143	64.097	-0.091	0.091
-464.128	151.886	-0.137	0.184
-463.113	509.445	-0.052	0.118
-462.099	411.075	0.057	-0.120
-461.084	-131.014	-0.048	-0.006
-460.070	-200.000	0.048	-0.264
-459.055	277.399	0.041	0.072
-458.040	103.896	-0.188	0.218
-457.026	493.894	0.110	-0.250
-456.011	121.038	-0.127	-0.155
-454.997	75.292	-0.121	-0.126
-453.982	-200.000	-0.011	-0.078
-452.968	1.028	0.177	-0.125
-451.953	205.812	-0.275	-0.422
-450.938	800.000	-0.133	-0.364
-449.924	357.211	-0.094	-0.185
-448.909	-121.856	-0.152	-0.025
-447.895	800.000	0.039	-0.162
-446.880	-121.716	-0.204	0.033
-445.865	161.494	-0.313	0.432
-444.851	316.837	-0.071	0.132
-443.836	-200.000	-0.007	0.031
-442.822	-3.071	-0.112	-0.077
-441.807	-200.000	0.021	0.161
-440.792	247.041	-0.135	-0.224
-439.778	-128.157	0.373	0.053
-438.763	-32.142	0.048	0.026
-437.749	-200.000	0.069	-0.323
-436.734	38.397	0.150	0.132
-435.719	446.338	-0.083	0.181
-434.705	238.544	0.048	0.079
-433.690	-67.093	-0.233	-0.091
-432.676	-144.379	0.311	0.028
-431.661	52.194	0.048	0.045
-430.646	800.000	-0.053	-0.222
-429.632	221.022	-0.260	-0.411
-428.617	-172.068	-0.425	-0.014
-427.603	221.247	-0.142	0.225
-426.588	57.239	0.069	0.066
-425.573	-30.537	0.344	0.192
-424.559	-65.546	-0.153	0.060
-423.544	-200.000	0.008	-0.177
-422.530	104.681	0.188	-0.219
-421.515	-200.000	0.004	0.248
-420.500	178.881	0.043	-0.062
-419.486	-200.000	0.017	-0.112
-418.471	-97.261	-0.272	0.070
-417.457	104.482	-0.094	-0.109
-416.442	150.830	0.100	0.134
-415.428	-200.000	0.002	0.273
-414.413	-57.537	-0.332	-0.143
-413.398	154.656	-0.079	-0.107
-412.384	584.368	-0.070	0.169
-411.369	65.649	0.036	0.036
-410.355	70.974	0.209	0.213
-409.340	-108.128	0.264	-0.056
-408.325	11.479	0.109	-0.082
-407.311	-21.713	-0.117	-0.070
-406.296	-34.432	0.173	0.093
-405.282	-176.826	-0.286	-0.007
-404.267	-3.104	-0.158	0.109
-403.252	-105.359	0.233	-0.052
-402.238	24.169	0.068	0.055
-401.223	800.000	-0.085	0.304
-400.209	-46.297	0.065	-0.031
-399.194	305.879	-0.167	0.307
-398.179	4.157	-0.241	0.173
-397.165	91.897	-0.187	-0.207
-396.150	243.870	-0.074	-0.122
-395.136	800.000	0.024	0.068
-394.121	-42.775	0.142	0.071
-393.106	490.293	0.058	-0.131
-392.092	-40.799	-0.255	0.130
-391.077	210.086	0.067	0.104
-390.063	128.015	0.111	-0.139
-389.048	-200.000	-0.002	0.027
-388.033	800.000	0.048	0.180
-387.019	800.000	0.035	0.124
-386.004	-200.000	-0.005	-0.025
-384.990	-110.871	-0.227	0.046
-383.975	87.563	0.150	0.163
-382.960	-86.118	0.437	-0.133
-381.946	-88.054	0.378	-0.112
-380.931	-200.000	0.023	0.236
-379.917	796.312	-0.131	0.354
-378.902	-17.962	0.232	-0.143
-377.888	800.000	0.010	-0.029
-376.873	800.000	0.024	0.074
-375.858	-50.884	-0.188	-0.087
-374.844	-200.000	0.076	0.410
-373.829	62.673	-0.128	0.126
-372.815	26.178	0.060	-0.049
-371.800	5.110	0.067	-0.048
-370.785	279.048	0.055	-0.096
-369.771	800.000	0.107	-0.341
-368.756	-110.949	-0.204	0.041
-367.742	-85.873	0.365	-0.111
-366.727	-48.697	-0.111	0.052
-365.712	148.054	-0.222	0.294
-364.698	-29.772	0.274	0.154
-363.683	337.932	0.110	-0.211
-362.669	-188.090	0.379	-0.005
-361.654	57.765	0.315	0.303
-360.639	-200.000	-0.001	0.155
-359.625	111.587	-0.142	0.168
-358.610	-105.080	0.299	-0.067
-357.596	263.114	0.041	0.069
-356.581	-127.828	0.136	0.019
-355.566	-200.000	0.013	0.126
-354.552	-17.807	0.164	-0.101
-353.537	21.756	0.314	-0.251
-352.523	137.935	0.337	-0.435
-351.508	800.000	0.065	0.271
-350.493	-61.667	-0.146	-0.060
-349.479	-104.854	-0.144	-0.032
-348.464	62.423	-0.267	0.262
-347.450	-150.132	-0.371	-0.028
-346.435	-104.685	-0.048	0.011
-345.420	228.468	-0.056	0.089
-344.406	87.206	-0.228	0.248
-343.391	41.743	-0.234	-0.209
-342.377	511.892	-0.117	-0.267
-341.362	-124.937	0.074	-0.011
-340.348	-199.066	0.191	0.001
-339.333	-77.735	0.275	0.093
-338.318	-200.000	0.018	0.241
-337.304	-5.576	-0.078	-0.052
-336.289	-116.062	-0.141	0.026
-335.275	-200.000	0.024	-0.279
-334.260	-24.857	0.218	0.127
-333.245	-29.516	0.240	0.135
-332.231	-14.318	0.308	0.195
-331.216	-36.284	-0.102	-0.054
-330.202	-200.000	-0.008	0.252
-329.187	-150.917	0.089	0.007
-328.172	576.966	-0.057	-0.137
-327.158	800.000	-0.015	0.045
-326.143	800.000	0.075	-0.219
-325.129	-124.102	0.272	-0.042
-324.114	-6.456	0.265	-0.178
-323.099	-200.000	-0.057	-0.254
-322.085	-41.939	0.152	0.076
-321.070	37.288	-0.072	0.063
-320.056	-92.417	0.367	-0.101
-319.041	-26.881	0.223	-0.128
-318.026	-200.000	-0.053	0.414
-317.012	-200.000	-0.025	0.136
-315.997	-63.568	0.176	-0.071
-314.983	-200.000	-0.006	0.122
-313.968	9.138	-0.136	0.101
-312.953	-111.626	0.193	-0.038
-311.939	-200.000	0.000	0.023
-310.924	152.459	-0.115	0.154
-309.910	162.551	0.166	0.229
-308.895	-11.834	-0.204	-0.131
-307.880	137.530	0.196	0.251
-306.866	-200.000	0.048	-0.313
-305.851	-64.729	-0.240	0.095
-304.837	527.359	-0.049	0.114
-303.822	-200.000	0.001	0.054
-302.807	-127.110	-0.347	0.050
-301.793	133.736	-0.056	-0.072
-300.778	-97.399	0.317	-0.081
-299.764	-37.718	-0.042	-0.022
-298.749	-200.000	-0.038	-0.195
-297.735	-4.489	-0.137	0.093
-296.720	11.578	-0.074	0.056
-295.705	65.143	-0.321	-0.318
-294.691	-101.608	0.234	-0.056
-293.676	-46.258	-0.116	-0.056
-292.662	53.601	0.190	-0.178
-291.647	297.678	-0.033	0.059
-290.632	-52.940	0.075	0.034
-289.618	642.026	-0.122	-0.305
-288.603	-37.722	-0.180	-0.094
-287.589	-69.131	0.310	0.117
-286.574	479.939	-0.081	-0.180
-285.559	-47.713	-0.156	-0.074
-284.545	800.000	-0.080	-0.267
-283.530	-92.864	0.298	-0.082
-282.516	49.050	0.229	-0.211
-281.501	-17.981	0.164	-0.101
-280.486	-89.730	-0.080	-0.023
-279.472	727.644	0.179	-0.468
-278.457	800.000	-0.051	0.141
-277.443	15.562	0.197	0.151
-276.428	228.147	-0.033	0.052
-275.413	-166.645	-0.372	0.015
-274.399	35.716	0.207	0.179
-273.384	634.220	0.081	0.201
-272.370	-101.887	-0.314	-0.074
-271.355	13.906	0.180	-0.137
-270.340	800.000	0.063	0.189
-269.326	-73.353	-0.143	0.051
-268.311	-110.002	0.336	0.069
-267.297	419.915	-0.167	0.350
-266.282	800.000	-0.146	0.521
-265.267	113.180	0.170	0.202
-264.253	-58.762	0.187	0.079
-263.238	-39.488	0.180	0.092
-262.224	-82.783	-0.323	0.102
-261.209	224.762	0.152	-0.242
-260.195	33.929	0.343	-0.293
-259.180	349.004	-0.070	0.136
-258.165	-17.105	0.190	0.117
-257.151	-200.000	0.033	-0.196
-256.136	149.916	-0.096	-0.127
-255.122	-170.939	0.223	-0.007
-254.107	-109.933	0.338	0.069
-253.092	47.840	0.054	-0.049
-252.078	-103.608	0.277	-0.064
-251.063	-70.859	-0.255	0.094
-250.049	-200.000	-0.017	0.301
-249.034	92.268	0.018	-0.020
-248.019	-200.000	0.086	-0.527
-247.005	800.000	0.012	0.036
-245.990	-200.000	-0.074	0.392
-244.976	-200.000	0.007	0.278
-243.961	-107.554	0.017	-0.004
-242.946	-84.599	0.240	0.074
-241.932	19.022	0.252	0.198
-240.917	-12.270	-0.104	0.067
-239.903	-200.000	0.005	0.154
-238.888	-131.922	0.343	-0.044
-237.873	-200.000	-0.041	0.322
-236.859	-65.043	-0.441	0.174
-235.844	30.878	0.265	0.222
-234.830	24.967	-0.072	0.059
-233.815	-15.206	-0.235	0.147
-232.800	57.759	0.241	0.230
-231.786	800.000	-0.099	0.281
-230.771	-71.132	0.484	-0.178
-229.757	-131.962	-0.240	-0.031
-228.742	-200.000	-0.024	-0.243
-227.727	91.933	-0.184	0.202
-226.713	-63.598	0.140	-0.056
-225.698	-200.000	0.018	0.122
-224.684	800.000	0.080	-0.320
-223.669	351.257	-0.010	-0.019
-222.655	-200.000	0.048	0.225
-221.640	16.839	0.245	-0.190
-220.625	-159.206	-0.367	-0.020
-219.611	-165.418	0.367	0.016
-218.596	146.060	0.062	0.081
-217.582	-109.325	0.119	-0.025
-216.567	737.869	0.123	0.323
-215.552	25.396	-0.214	0.174
-214.538	84.126	0.121	0.129
-213.523	3.880	0.090	0.064
-212.509	6.201	-0.206	0.149
-211.494	206.157	0.086	0.130
-210.479	114.734	-0.222	-0.265
-209.465	800.000	0.023	0.081
-208.450	-71.741	-0.160	0.058
-207.436	-94.500	0.140	0.037
-206.421	-22.281	-0.116	0.068
-205.406	5.853	-0.312	0.226
-204.392	-33.069	-0.174	0.095
-203.377	170.051	0.074	0.103
-202.363	319.261	-0.081	-0.150
-201.348	-114.509	-0.193	-0.036
-200.333	-68.090	0.159	0.060
-199.319	-164.665	0.349	0.015
-198.304	-200.000	0.035	0.170
-197.290	44.571	-0.098	0.088
-196.275	100.830	0.111	-0.126
-195.260	-68.068	0.355	0.135
-194.246	-110.266	0.081	-0.017
-193.231	-200.000	0.037	0.306
-192.217	-111.861	-0.167	0.033
-191.202	36.732	-0.066	-0.057
-190.187	99.031	-0.027	-0.031
-189.173	-200.000	-0.048	-0.210
-188.158	-120.461	0.193	-0.032
-187.144	87.675	-0.007	0.008
-186.129	40.311	-0.102	-0.090
-185.114	-200.000	-0.092	-0.454
-184.100	800.000	-0.040	-0.149
-183.085	-200.000	-0.013	0.060
-182.071	-89.400	0.287	0.082
-181.056	-48.757	-0.274	-0.128
-180.042	437.709	0.052	-0.112
-179.027	-80.938	0.247	0.080
-178.012	-84.623	0.191	-0.059
-176.998	-127.988	-0.237	-0.033
-175.983	-101.132	-0.502	0.120
-174.969	-200.000	0.032	-0.426
-173.954	268.085	0.118	0.202
-172.939	38.846	-0.427	-0.373
-171.925	-200.000	0.098	0.542
-170.910	-58.383	0.089	0.038
-169.896	-75.688	0.401	-0.139
-168.881	-200.000	0.029	0.239
-167.866	-200.000	0.002	0.327
-166.852	-200.000	0.025	0.250
-165.837	474.067	-0.026	-0.056
-164.823	-200.000	0.046	0.295
-163.808	-57.830	0.224	0.095
-162.793	315.208	-0.055	0.102
-161.779	-200.000	-0.030	0.213
-160.764	-96.065	-0.127	-0.033
-159.750	4.263	-0.173	-0.124
-158.735	-107.366	-0.255	-0.055
-157.720	-90.297	0.161	0.046
-156.706	-155.969	-0.388	0.024
-155.691	3.153	-0.095	-0.067
-154.677	-120.202	0.190	0.032
-153.662	800.000	0.020	0.068
-152.647	-0.897	0.264	-0.182
-151.633	-95.582	-0.062	-0.016
-150.618	-200.000	0.003	0.145
-149.604	-170.991	0.104	-0.003
-148.589	-76.280	-0.235	-0.081
-147.574	56.244	-0.197	0.187
-146.560	-114.769	-0.206	-0.038
-145.545	269.826	-0.079	0.135
-144.531	45.536	0.284	0.256
-143.516	398.828	0.108	0.220
-142.502	800.000	0.051	0.159
-141.487	277.507	0.161	0.279
-140.472	122.299	-0.059	-0.072
-139.458	-82.756	-0.218	0.069
-138.443	-70.066	0.249	-0.092
-137.429	800.000	0.092	-0.327
-136.414	-48.218	-0.232	-0.109
-135.399	339.117	0.126	-0.239
-134.385	800.000	0.030	-0.118
-133.370	184.812	-0.067	0.097
-132.356	125.218	-0.123	-0.151
-131.341	800.000	0.091	-0.268
-130.326	-200.000	0.005	-0.221
-129.312	86.232	0.034	-0.037
-128.297	15.677	-0.232	-0.178
-127.283	-53.483	0.180	0.080
-126.268	-111.631	0.239	-0.047
-125.253	-200.000	-0.019	-0.223
-124.239	117.807	0.085	-0.103
-123.224	309.875	-0.128	0.233
-122.210	9.679	-0.076	0.056
-121.195	67.354	-0.248	0.246
