DTS Sentinel unit serial number:	SN413079Multiplexer serial number:	ORYXHardware model number:	OX4-SRSoftware version number:	ORYX F/W v4.00 Oryx Data Collector v3.7.2.0data status	okinstallation	princeton_trtdifferential loss correction	single-endedforward channel	channel 2reverse channel	N/Adate	2019/09/19time	06:39:35forward acquisition time	60.00reverse acquisition time	0.00gamma	496.2192k internal	0.2349k external	0.2349temperature offset calibration	1.0014default loss term (dB/km)	0.3790temperature slope calibration	1.0000multiplexer offset coefficient	1.0000multiplexer slope coefficient	1.0000fibre end	0.00T internal ref (°C)	19.00T ext. ref 1 (°C)	0.56T ext. ref 2 (°C)	12.83length (m)	temperature (°C)	Stokes	anti-Stokes-747.200	721.457	0.072	-0.191
-746.185	-167.739	-0.238	0.009
-745.171	51.104	0.089	-0.084
-744.156	-1.671	-0.334	0.235
-743.142	237.096	-0.071	0.117
-742.127	175.623	0.179	0.260
-741.112	-156.294	0.226	0.014
-740.098	-169.442	-0.388	-0.014
-739.083	-78.827	0.279	-0.095
-738.069	-170.942	-0.145	0.005
-737.054	-61.584	-0.428	-0.179
-736.039	11.352	0.089	0.068
-735.025	50.959	0.054	-0.051
-734.010	58.882	-0.210	-0.206
-732.996	-77.168	-0.358	-0.125
-731.981	-108.128	-0.308	0.067
-730.966	31.104	-0.136	-0.117
-729.952	-38.342	-0.289	0.152
-728.937	-87.129	-0.232	0.070
-727.923	-142.844	-0.488	0.047
-726.908	-155.168	-0.218	-0.014
-725.894	87.290	0.267	0.295
-724.879	-166.298	-0.298	0.013
-723.864	-200.000	0.001	-0.363
-722.850	-10.106	-0.284	0.189
-721.835	-200.000	-0.007	0.034
-720.821	-200.000	-0.086	0.470
-719.806	388.726	0.046	-0.094
-718.791	536.171	-0.183	-0.433
-717.777	511.031	0.065	-0.150
-716.762	-132.741	-0.095	-0.012
-715.748	-200.000	0.041	0.305
-714.733	369.347	0.086	0.174
-713.718	-67.231	0.061	-0.024
-712.704	-112.362	0.318	0.063
-711.689	-30.602	-0.113	-0.064
-710.675	-71.177	0.093	0.035
-709.660	-200.000	-0.006	-0.157
-708.645	267.119	0.184	-0.320
-707.631	140.802	0.186	0.245
-706.616	195.244	0.128	0.194
-705.602	-38.370	0.196	-0.104
-704.587	-200.000	0.031	0.269
-703.572	114.057	-0.165	0.200
-702.558	-86.476	-0.306	0.094
-701.543	280.401	0.085	-0.152
-700.529	-0.432	-0.171	-0.121
-699.514	-39.030	-0.259	0.136
-698.499	249.662	0.079	0.133
-697.485	56.254	-0.289	0.280
-696.470	-26.891	-0.221	-0.128
-695.456	94.307	-0.111	-0.126
-694.441	433.665	-0.059	-0.127
-693.426	-95.599	0.072	-0.019
-692.412	506.071	-0.130	0.301
-691.397	-159.761	0.196	-0.011
-690.383	-95.547	0.161	-0.043
-689.368	-13.021	-0.115	-0.075
-688.354	-200.000	-0.045	-0.350
-687.339	99.256	-0.205	0.236
-686.324	-200.000	0.007	-0.243
-685.310	-127.527	0.232	-0.033
-684.295	-100.519	-0.230	-0.057
-683.281	800.000	0.080	0.225
-682.266	50.679	0.236	-0.222
-681.251	-200.000	-0.008	0.081
-680.237	800.000	0.088	-0.329
-679.222	-14.942	0.134	0.085
-678.208	-200.000	-0.000	-0.314
-677.193	88.911	-0.046	-0.051
-676.178	-69.441	-0.193	-0.074
-675.164	56.962	-0.189	-0.183
-674.149	-43.091	0.375	-0.189
-673.135	218.598	-0.164	-0.262
-672.120	800.000	0.032	0.103
-671.105	800.000	-0.106	0.324
-670.091	150.409	-0.152	0.206
-669.076	-20.275	-0.218	0.134
-668.062	800.000	-0.074	-0.221
-667.047	-147.855	0.394	-0.033
-666.032	132.440	-0.045	0.058
-665.018	415.485	0.148	0.315
-664.003	-71.841	0.211	-0.078
-662.989	-77.347	0.236	0.082
-661.974	-10.815	0.147	0.097
-660.959	315.368	-0.071	0.133
-659.945	800.000	-0.014	-0.048
-658.930	-65.359	0.174	0.070
-657.916	-158.530	0.076	-0.004
-656.901	800.000	0.002	-0.007
-655.886	42.004	-0.104	-0.094
-654.872	52.662	-0.177	0.169
-653.857	223.702	-0.049	0.079
-652.843	30.853	0.148	-0.126
-651.828	560.920	-0.069	-0.166
-650.814	-83.376	-0.305	-0.097
-649.799	38.767	0.216	0.192
-648.784	241.313	0.124	-0.206
-647.770	800.000	0.115	-0.325
-646.755	118.170	-0.110	0.134
-645.741	-200.000	-0.004	0.022
-644.726	-29.465	-0.294	0.167
-643.711	76.078	0.109	-0.114
-642.697	22.901	0.041	0.034
-641.682	341.804	-0.150	-0.291
-640.668	11.384	-0.157	-0.120
-639.653	800.000	0.085	0.297
-638.638	-57.196	-0.129	-0.056
-637.624	-200.000	-0.029	-0.224
-636.609	-200.000	-0.030	-0.171
-635.595	55.320	0.115	-0.111
-634.580	-65.610	-0.050	-0.020
-633.565	131.450	-0.034	-0.044
-632.551	-200.000	0.021	-0.131
-631.536	-125.354	0.172	0.026
-630.522	-200.000	-0.114	0.575
-629.507	-133.483	-0.353	0.044
-628.492	7.308	0.033	-0.024
-627.478	243.644	0.122	-0.204
-626.463	16.796	-0.421	0.331
-625.449	-16.503	-0.264	-0.166
-624.434	-51.791	-0.369	-0.171
-623.419	390.983	-0.045	-0.093
-622.405	71.434	-0.085	0.088
-621.390	46.617	-0.041	0.038
-620.376	-37.867	0.109	0.058
-619.361	-59.459	-0.172	-0.074
-618.346	51.952	0.260	-0.246
-617.332	-34.195	-0.569	-0.310
-616.317	-73.002	0.138	0.051
-615.303	80.468	-0.014	0.015
-614.288	-200.000	-0.005	-0.062
-613.273	-1.898	-0.187	-0.131
-612.259	700.236	0.025	0.066
-611.244	76.619	0.026	-0.027
-610.230	12.517	-0.170	-0.130
-609.215	-200.000	-0.020	0.236
-608.201	84.316	-0.095	0.103
-607.186	-106.529	-0.325	-0.072
-606.171	-200.000	-0.037	0.203
-605.157	-90.577	-0.486	0.140
-604.142	-200.000	0.006	0.482
-603.128	202.443	0.172	0.264
-602.113	-168.120	0.140	0.005
-601.098	-149.044	-0.254	0.020
-600.084	45.375	-0.030	0.027
-599.069	-138.818	-0.093	-0.010
-598.055	-200.000	0.024	0.151
-597.040	688.852	-0.060	-0.156
-596.025	341.837	-0.133	-0.258
-595.011	-42.679	-0.073	0.037
-593.996	729.278	-0.099	-0.262
-592.982	547.373	-0.168	-0.398
-591.967	-200.000	-0.011	-0.154
-590.952	800.000	-0.139	0.516
-589.938	295.004	0.131	-0.238
-588.923	800.000	0.102	-0.422
-587.909	14.360	-0.163	0.126
-586.894	95.355	0.068	-0.077
-585.879	-99.270	-0.228	-0.057
-584.865	68.349	-0.016	-0.017
-583.850	-159.769	-0.256	0.014
-582.836	83.520	-0.151	-0.163
-581.821	-3.459	0.105	-0.072
-580.806	-45.510	0.053	-0.026
-579.792	-134.198	0.348	-0.043
-578.777	50.088	-0.178	0.167
-577.763	-84.815	0.184	-0.057
-576.748	13.170	-0.119	0.091
-575.733	387.290	0.176	0.361
-574.719	8.266	-0.180	0.134
-573.704	123.920	-0.056	0.069
-572.690	205.927	-0.191	-0.295
-571.675	36.743	-0.071	-0.063
-570.661	-200.000	-0.006	0.226
-569.646	-200.000	0.036	-0.230
-568.631	800.000	0.029	0.105
-567.617	24.577	-0.184	0.151
-566.602	403.668	-0.053	0.110
-565.588	800.000	-0.079	-0.247
-564.573	523.891	0.057	0.133
-563.558	3.079	0.420	-0.303
-562.544	512.923	0.058	0.135
-561.529	-200.000	-0.011	-0.063
-560.515	-200.000	-0.021	-0.334
-559.500	-200.000	0.020	0.280
-558.485	-42.834	-0.283	0.142
-557.471	18.849	-0.305	0.242
-556.456	631.109	-0.108	0.270
-555.442	-61.969	-0.231	0.096
-554.427	-76.925	-0.053	-0.018
-553.412	800.000	-0.105	0.405
-552.398	-200.000	-0.028	0.217
-551.383	729.713	0.079	0.209
-550.369	-70.164	0.144	0.054
-549.354	77.510	-0.207	0.218
-548.339	160.827	0.095	0.132
-547.325	289.852	0.054	-0.097
-546.310	-77.836	0.229	0.078
-545.296	-50.728	-0.236	-0.110
-544.281	184.281	0.164	-0.241
-543.266	-123.788	0.171	-0.027
-542.252	724.214	0.047	0.123
-541.237	-193.351	0.109	0.001
-540.223	-200.000	-0.003	-0.112
-539.208	800.000	0.065	-0.193
-538.193	122.196	0.140	0.173
-537.179	232.833	-0.143	-0.233
-536.164	-135.271	-0.180	-0.021
-535.150	242.065	-0.063	-0.104
-534.135	120.522	0.098	-0.120
-533.121	106.702	-0.028	-0.033
-532.106	-200.000	0.029	0.137
-531.091	-96.674	0.131	-0.034
-530.077	288.638	-0.047	0.084
-529.062	800.000	-0.136	0.392
-528.048	-7.574	0.176	0.118
-527.033	800.000	-0.040	0.155
-526.018	-57.540	0.098	-0.043
-525.004	-107.857	-0.469	0.101
-523.989	-200.000	-0.055	-0.278
-522.975	-76.805	0.279	0.097
-521.960	349.051	-0.054	-0.106
-520.945	800.000	0.073	-0.210
-519.931	39.110	0.155	-0.137
-518.916	156.804	-0.259	-0.354
-517.902	8.794	0.154	0.115
-516.887	-169.668	-0.313	-0.011
-515.872	-181.108	0.343	-0.007
-514.858	-153.594	-0.501	-0.034
-513.843	-30.482	0.195	0.109
-512.829	-111.966	-0.323	-0.064
-511.814	-59.958	-0.101	-0.043
-510.799	-109.043	-0.285	0.060
-509.785	-200.000	0.019	-0.147
-508.770	278.245	0.084	0.148
-507.756	800.000	0.110	-0.324
-506.741	13.898	-0.248	-0.191
-505.726	-139.654	-0.356	-0.037
-504.712	21.513	0.292	-0.235
-503.697	535.132	0.097	0.227
-502.683	-88.549	0.045	-0.013
-501.668	-87.322	-0.245	0.073
-500.653	-200.000	0.012	0.209
-499.639	15.723	0.048	0.037
-498.624	-12.269	0.447	-0.289
-497.610	19.976	-0.066	-0.053
-496.595	-65.876	0.482	0.191
-495.581	6.870	-0.142	0.105
-494.566	-32.306	0.296	-0.163
-493.551	800.000	0.071	-0.232
-492.537	-105.974	0.243	-0.054
-491.522	-200.000	0.062	0.354
-490.508	508.716	-0.062	-0.143
-489.493	-19.092	0.490	0.301
-488.478	8.353	-0.043	-0.032
-487.464	67.164	-0.224	-0.226
-486.449	-200.000	0.017	0.170
-485.435	12.150	-0.076	-0.058
-484.420	-76.709	-0.284	0.098
-483.405	413.786	0.057	0.121
-482.391	-200.000	0.014	0.088
-481.376	486.230	0.155	-0.349
-480.362	800.000	0.063	0.240
-479.347	-87.519	0.343	-0.103
-478.332	-62.621	-0.122	0.050
-477.318	36.221	0.314	0.274
-476.303	800.000	-0.025	0.086
-475.289	-112.775	-0.240	-0.047
-474.274	10.389	-0.018	-0.014
-473.259	800.000	0.033	-0.137
-472.245	800.000	-0.120	-0.455
-471.230	-195.764	-0.389	-0.003
-470.216	-21.610	-0.222	0.134
-469.201	-200.000	-0.074	0.353
-468.186	302.422	0.104	-0.190
-467.172	-14.666	-0.111	-0.070
-466.157	196.762	-0.187	-0.281
-465.143	487.614	0.075	0.168
-464.128	179.373	-0.087	-0.126
-463.113	-109.348	0.234	0.049
-462.099	-200.000	-0.006	0.292
-461.084	-66.576	0.367	0.144
-460.070	800.000	0.103	-0.346
-459.055	-130.813	0.281	0.037
-458.040	-200.000	-0.065	-0.346
-457.026	-162.695	0.189	-0.009
-456.011	176.482	-0.149	0.214
-454.997	-200.000	-0.029	-0.129
-453.982	361.596	-0.070	-0.139
-452.968	800.000	0.062	0.239
-451.953	-172.018	0.128	-0.004
-450.938	-79.053	0.134	0.045
-449.924	800.000	-0.110	-0.425
-448.909	-34.869	0.270	-0.146
-447.895	-50.541	0.177	-0.082
-446.880	227.538	-0.034	-0.054
-445.865	235.469	0.076	0.124
-444.851	113.360	-0.176	0.211
-443.836	-18.512	0.164	0.101
-442.822	210.888	-0.174	-0.270
-441.807	800.000	-0.086	0.292
-440.792	0.522	-0.155	-0.109
-439.778	-3.826	0.150	-0.103
-438.763	-135.605	-0.253	-0.030
-437.749	196.738	0.098	-0.147
-436.734	119.938	0.057	-0.069
-435.719	800.000	-0.031	0.088
-434.705	-200.000	-0.047	-0.245
-433.690	-3.949	0.399	-0.273
-432.676	766.745	0.029	-0.077
-431.661	-122.240	0.041	0.007
-430.646	-121.336	-0.115	-0.019
-429.632	269.388	-0.147	0.255
-428.617	-200.000	0.062	0.345
-427.603	800.000	-0.046	-0.150
-426.588	-155.804	0.386	-0.024
-425.573	-177.850	-0.397	0.009
-424.559	-47.866	-0.140	-0.067
-423.544	-123.701	-0.069	0.011
-422.530	209.586	0.038	-0.059
-421.515	-65.730	0.154	-0.061
-420.500	-27.478	-0.069	0.040
-419.486	56.021	0.081	0.077
-418.471	-200.000	0.023	-0.224
-417.457	141.373	-0.071	-0.092
-416.442	-36.784	-0.297	0.157
-415.428	-10.487	-0.114	0.075
-414.413	-29.921	-0.151	0.085
-413.398	-95.872	0.272	0.072
-412.384	205.161	-0.189	0.289
-411.369	-152.693	0.259	0.018
-410.355	800.000	-0.073	-0.283
-409.340	110.428	-0.048	0.057
-408.325	124.035	-0.232	0.288
-407.311	-93.773	0.198	-0.054
-406.296	800.000	0.041	0.121
-405.282	-200.000	-0.015	-0.163
-404.267	217.778	-0.159	-0.250
-403.252	-32.306	0.054	-0.030
-402.238	-49.374	0.208	-0.098
-401.223	633.949	-0.137	-0.343
-400.209	164.855	-0.082	0.113
-399.194	-83.102	-0.156	0.049
-398.179	-200.000	0.004	0.139
-397.165	360.983	0.086	0.170
-396.150	-200.000	-0.009	-0.111
-395.136	-54.459	0.156	0.070
-394.121	302.594	0.205	-0.374
-393.106	-79.659	-0.128	0.042
-392.092	800.000	-0.091	-0.378
-391.077	800.000	-0.051	0.192
-390.063	-169.589	0.259	0.009
-389.048	-154.115	-0.179	0.012
-388.033	-81.916	0.044	0.014
-387.019	64.695	-0.107	0.106
-386.004	396.361	0.204	0.419
-384.990	800.000	-0.076	0.266
-383.975	800.000	0.014	-0.060
-382.960	-58.022	-0.310	0.133
-381.946	-200.000	0.009	-0.046
-380.931	-80.167	0.216	0.071
-379.917	-6.062	-0.156	0.105
-378.902	-114.295	0.139	0.026
-377.888	17.706	-0.252	-0.197
-376.873	29.580	0.217	-0.182
-375.858	-80.501	-0.230	-0.075
-374.844	-200.000	-0.038	0.235
-373.829	-200.000	0.035	0.194
-372.815	544.190	-0.116	0.273
-371.800	21.777	0.257	0.206
-370.785	-200.000	0.011	-0.052
-369.771	202.089	0.158	-0.239
-368.756	368.864	0.176	0.350
-367.742	24.845	0.155	0.127
-366.727	-93.779	-0.110	-0.030
-365.712	-200.000	0.030	-0.355
-364.698	-182.577	-0.121	-0.002
-363.683	-20.473	-0.157	0.095
-362.669	692.558	0.049	-0.125
-361.654	430.396	-0.063	-0.135
-360.639	800.000	0.105	0.352
-359.625	515.378	0.219	0.503
-358.610	-89.627	-0.183	-0.053
-357.596	-200.000	-0.001	0.193
-356.581	-157.191	-0.432	-0.026
-355.566	31.365	-0.176	-0.149
-354.552	-200.000	-0.019	0.171
-353.537	-6.792	-0.366	0.245
-352.523	464.162	0.086	0.189
-351.508	-200.000	0.083	-0.423
-350.493	800.000	0.087	-0.245
-349.479	5.787	-0.405	0.294
-348.464	-97.179	0.217	-0.056
-347.450	-57.318	-0.108	-0.047
-346.435	-200.000	0.015	-0.247
-345.420	-200.000	0.055	-0.432
-344.406	-75.415	-0.412	0.144
-343.391	29.733	0.125	0.105
-342.377	-200.000	0.034	-0.212
-341.362	43.148	0.233	-0.209
-340.348	306.583	-0.079	0.144
-339.333	-200.000	0.113	-0.584
-338.318	-117.008	0.233	0.042
-337.304	-52.384	0.092	-0.042
-336.289	800.000	0.030	0.122
-335.275	299.141	0.180	0.325
-334.260	-200.000	0.077	-0.430
-333.245	231.137	-0.085	-0.136
-332.231	124.090	-0.029	-0.036
-331.216	-200.000	-0.036	0.205
-330.202	258.113	0.207	-0.351
-329.187	-200.000	-0.040	0.182
-328.172	84.410	0.005	0.005
-327.158	6.921	-0.188	-0.138
-326.143	-200.000	0.035	0.222
-325.129	136.870	-0.130	-0.167
-324.114	-58.200	0.293	0.125
-323.099	-124.969	-0.174	-0.026
-322.085	-200.000	-0.059	0.389
-321.070	-69.453	0.230	0.087
-320.056	-4.634	0.163	0.111
-319.041	-200.000	0.018	-0.503
-318.026	-125.749	-0.303	-0.045
-317.012	-200.000	-0.042	0.239
-315.997	-200.000	0.008	0.289
-314.983	-45.680	-0.165	0.080
-313.968	-186.162	-0.086	0.001
-312.953	-24.061	0.078	0.046
-311.939	800.000	-0.139	-0.486
-310.924	196.620	0.161	0.241
-309.910	800.000	-0.137	0.471
-308.895	800.000	0.102	0.293
-307.880	-200.000	-0.003	0.065
-306.866	-52.047	-0.195	-0.089
-305.851	-13.082	0.069	0.044
-304.837	3.020	-0.030	-0.021
-303.822	-148.593	-0.305	-0.024
-302.807	-70.972	0.324	0.120
-301.793	-200.000	0.014	-0.278
-300.778	312.160	-0.272	0.502
-299.764	-136.535	-0.180	-0.020
-298.749	158.506	-0.209	0.285
-297.735	116.379	-0.125	0.150
-296.720	-112.982	-0.253	-0.049
-295.705	68.454	0.192	0.193
-294.691	-200.000	0.091	0.519
-293.676	-146.787	0.264	-0.022
-292.662	-200.000	0.046	-0.507
-291.647	-147.380	0.049	-0.004
-290.632	715.003	-0.086	0.225
-289.618	-18.857	0.378	-0.231
-288.603	800.000	0.059	0.238
-287.589	-200.000	0.019	0.218
-286.574	-200.000	0.037	0.196
-285.559	158.530	-0.134	0.183
-284.545	-108.551	-0.143	0.030
-283.530	774.501	0.078	-0.208
-282.516	-155.836	0.103	-0.006
-281.501	-63.205	0.168	0.068
-280.486	477.483	-0.118	-0.261
-279.472	348.573	0.197	0.380
-278.457	68.968	-0.276	0.278
-277.443	17.756	0.107	-0.083
-276.428	-200.000	0.013	-0.121
-275.413	-108.564	0.183	0.038
-274.399	800.000	0.080	0.326
-273.384	131.680	-0.228	-0.287
-272.370	-200.000	-0.004	0.163
-271.355	196.458	0.199	0.298
-270.340	131.757	0.092	-0.116
-269.326	198.565	0.172	-0.259
-268.311	695.710	-0.075	-0.194
-267.297	6.993	-0.117	0.085
-266.282	150.082	-0.223	-0.297
-265.267	230.925	0.204	-0.327
-264.253	186.429	0.179	0.261
-263.238	-145.412	-0.140	0.012
-262.224	-18.800	0.168	-0.103
-261.209	7.619	0.486	-0.357
-260.195	86.928	-0.110	-0.119
-259.180	-200.000	-0.033	0.301
-258.165	-200.000	0.110	-0.000
-257.151	-200.000	-0.015	-0.119
-256.136	140.408	-0.081	0.105
-255.122	210.004	0.037	0.056
-254.107	395.490	-0.116	-0.238
-253.092	85.197	-0.143	0.154
-252.078	35.549	0.129	-0.111
-251.063	-150.706	0.346	-0.026
-250.049	-171.954	-0.231	-0.007
-249.034	-66.612	0.376	-0.146
-248.019	800.000	-0.015	-0.062
-247.005	475.565	-0.018	-0.041
-245.990	49.379	0.129	-0.119
-244.976	247.519	-0.100	0.166
-243.961	165.392	0.172	-0.238
-242.946	599.515	0.081	-0.196
-241.932	800.000	-0.047	0.192
-240.917	238.660	-0.122	0.199
-239.903	-153.910	0.152	-0.010
-238.888	-130.774	0.146	0.019
-237.873	177.127	-0.113	-0.161
-236.859	-84.439	0.261	0.081
-235.844	-200.000	0.009	0.366
-234.830	-116.306	-0.100	-0.018
-233.815	-200.000	0.046	0.302
-232.800	-149.553	-0.231	-0.018
-231.786	-200.000	0.319	0.001
-230.771	-21.155	-0.185	-0.111
-229.757	698.480	0.073	-0.188
-228.742	286.032	-0.068	-0.120
-227.727	800.000	0.097	0.405
-226.713	800.000	-0.038	-0.143
-225.698	57.155	0.091	0.087
-224.684	375.467	0.173	-0.346
-223.669	190.227	-0.219	-0.322
-222.655	-200.000	0.228	0.001
-221.640	379.794	0.127	-0.255
-220.625	-150.802	0.483	-0.036
-219.611	-110.797	-0.354	-0.071
-218.596	89.906	0.097	-0.107
-217.582	-200.000	-0.426	-0.001
-216.567	-200.000	0.003	0.082
-215.552	-200.000	0.012	-0.083
-214.538	-200.000	0.035	0.200
-213.523	800.000	-0.053	-0.217
-212.509	-105.935	0.238	-0.052
-211.494	-128.025	0.123	-0.017
-210.479	-200.000	-0.001	0.051
-209.465	1.798	0.144	-0.102
-208.450	236.130	0.153	0.247
-207.436	-19.511	0.222	-0.134
-206.421	14.071	0.082	0.062
-205.406	800.000	0.090	0.252
-204.392	-200.000	0.057	0.466
-203.377	44.094	-0.007	-0.007
-202.363	800.000	0.034	0.123
-201.348	60.098	0.175	0.169
-200.333	-200.000	0.406	0.001
-199.319	-30.307	0.210	0.116
-198.304	-200.000	0.049	0.228
-197.290	21.502	0.262	-0.209
-196.275	-200.000	0.082	0.388
-195.260	-74.099	-0.055	-0.020
-194.246	-85.783	-0.038	0.011
-193.231	-53.142	0.197	0.088
-192.217	-109.094	-0.153	-0.032
-191.202	77.127	0.257	-0.266
-190.187	-58.984	-0.469	-0.198
-189.173	800.000	-0.060	0.172
-188.158	-200.000	-0.015	-0.198
-187.144	-67.131	0.191	0.074
-186.129	800.000	-0.041	-0.172
-185.114	800.000	-0.071	0.255
-184.100	-9.398	-0.139	-0.090
-183.085	-200.000	0.014	-0.116
-182.071	-102.865	0.144	-0.033
-181.056	541.574	0.086	-0.200
-180.042	53.108	-0.068	-0.063
-179.027	-130.710	0.298	0.039
-178.012	398.190	0.116	-0.237
-176.998	-123.401	-0.250	-0.039
-175.983	-2.729	0.364	0.249
-174.969	-152.507	0.285	-0.020
-173.954	267.642	0.057	0.097
-172.939	-98.921	0.161	-0.040
-171.925	46.588	-0.250	-0.226
-170.910	313.536	-0.084	0.155
-169.896	-200.000	0.003	-0.036
-168.881	5.904	-0.212	0.153
-167.866	626.516	0.028	0.068
-166.852	-159.952	0.263	-0.014
-165.837	71.951	0.094	-0.096
-164.823	-116.113	-0.088	0.016
-163.808	9.172	-0.249	0.183
-162.793	-32.618	-0.305	-0.166
-161.779	-106.429	0.312	-0.068
-160.764	272.528	-0.077	0.132
-159.750	89.490	0.040	-0.044
-158.735	-101.402	0.176	-0.042
-157.720	43.554	-0.337	-0.301
-156.706	378.427	0.089	0.178
-155.691	122.801	-0.210	-0.257
-154.677	57.951	0.364	-0.347
-153.662	485.376	0.085	-0.188
-152.647	-68.491	0.188	0.071
-151.633	79.307	-0.254	-0.265
-150.618	-200.000	-0.010	0.298
-149.604	119.811	-0.070	0.084
-148.589	-167.749	-0.236	0.009
-147.574	-119.965	-0.025	-0.004
-146.560	800.000	0.162	0.521
-145.545	-200.000	-0.038	0.403
-144.531	50.783	0.252	-0.233
-143.516	-200.000	0.057	-0.249
-142.502	-22.746	-0.109	0.064
-141.487	-116.155	-0.227	-0.041
-140.472	247.664	-0.105	0.173
-139.458	-200.000	0.021	0.165
-138.443	-17.460	0.132	0.081
-137.429	-200.000	-0.021	0.135
-136.414	-200.000	0.037	-0.206
-135.399	-200.000	-0.011	0.171
-134.385	108.778	0.103	0.121
-133.370	-149.546	0.117	-0.009
-132.356	613.725	0.086	0.211
-131.341	125.954	-0.057	0.070
-130.326	-28.427	0.353	0.199
-129.312	-200.000	-0.015	0.096
-128.297	246.524	-0.149	-0.245
-127.283	-77.350	0.376	-0.127
-126.268	-44.893	-0.496	-0.241
-125.253	-4.096	-0.381	0.257
-124.239	31.332	0.097	0.081
-123.224	-128.694	-0.403	0.055
-122.210	43.995	0.383	0.342
-121.195	178.276	-0.032	-0.045
