DTS Sentinel unit serial number:	SN413079Multiplexer serial number:	ORYXHardware model number:	OX4-SRSoftware version number:	ORYX F/W v4.00 Oryx Data Collector v3.7.2.0data status	okinstallation	princeton_trtdifferential loss correction	single-endedforward channel	channel 2reverse channel	N/Adate	2019/09/14time	18:59:35forward acquisition time	60.00reverse acquisition time	0.00gamma	496.2192k internal	0.2321k external	0.2321temperature offset calibration	1.0098default loss term (dB/km)	0.3790temperature slope calibration	1.0000multiplexer offset coefficient	1.0000multiplexer slope coefficient	1.0000fibre end	0.00T internal ref (°C)	35.69T ext. ref 1 (°C)	4.87T ext. ref 2 (°C)	29.51length (m)	temperature (°C)	Stokes	anti-Stokes-747.200	378.068	-0.133	-0.274
-746.185	-200.000	-0.022	-0.113
-745.171	-83.750	0.105	-0.034
-744.156	-0.064	0.143	-0.103
-743.142	-92.398	0.258	0.073
-742.127	144.308	0.075	-0.101
-741.112	544.975	0.009	0.022
-740.098	-32.512	0.112	0.063
-739.083	-30.192	-0.179	-0.103
-738.069	215.148	-0.041	-0.066
-737.054	274.108	-0.147	0.263
-736.039	-97.689	-0.105	-0.027
-735.025	-30.308	0.250	0.143
-734.010	-74.184	-0.424	0.155
-732.996	-39.598	-0.097	0.051
-731.981	800.000	-0.091	-0.293
-730.966	283.543	0.134	0.244
-729.952	-19.443	0.208	0.130
-728.937	1.783	-0.301	0.220
-727.923	-62.114	-0.233	0.098
-726.908	60.314	0.133	-0.132
-725.894	-3.762	-0.238	-0.167
-724.879	-200.000	0.051	-0.590
-723.864	-151.042	0.112	-0.008
-722.850	82.318	-0.216	-0.236
-721.835	140.091	0.106	0.141
-720.821	-114.395	-0.214	0.042
-719.806	116.525	-0.159	-0.196
-718.791	-44.691	0.164	-0.083
-717.777	-27.272	-0.347	-0.204
-716.762	-200.000	-0.040	-0.334
-715.748	405.255	-0.181	-0.385
-714.733	-200.000	-0.044	0.273
-713.718	-200.000	-0.020	0.103
-712.704	-30.042	0.344	-0.197
-711.689	439.505	-0.077	-0.170
-710.675	30.043	0.151	0.130
-709.660	158.861	-0.076	0.107
-708.645	-20.762	-0.154	-0.095
-707.631	-200.000	-0.008	-0.090
-706.616	800.000	-0.045	-0.148
-705.602	-200.000	-0.017	-0.206
-704.587	39.376	-0.072	0.065
-703.572	224.558	0.089	0.145
-702.558	-116.014	-0.211	-0.040
-701.543	54.607	-0.095	-0.092
-700.529	-15.104	-0.025	-0.016
-699.514	569.405	0.117	0.287
-698.499	29.540	0.075	-0.064
-697.485	44.264	-0.218	0.202
-696.470	-98.224	0.348	-0.090
-695.456	-172.203	-0.150	0.005
-694.441	-84.563	-0.064	-0.020
-693.426	-111.275	-0.250	-0.052
-692.412	90.925	0.059	-0.067
-691.397	800.000	-0.045	0.143
-690.383	565.009	-0.142	-0.347
-689.368	-116.785	-0.270	-0.050
-688.354	-114.272	0.069	0.013
-687.339	-76.282	-0.252	-0.090
-686.324	-59.921	-0.072	0.031
-685.310	19.347	0.278	0.225
-684.295	-200.000	-0.012	0.072
-683.281	-3.351	-0.418	-0.293
-682.266	-200.000	0.010	-0.142
-681.251	174.161	-0.179	0.261
-680.237	-164.934	0.080	0.004
-679.222	-46.673	-0.135	-0.067
-678.208	-73.546	-0.292	0.107
-677.193	54.961	0.121	0.118
-676.178	22.935	-0.165	0.136
-675.164	-159.028	0.231	0.013
-674.149	-11.771	-0.396	-0.262
-673.135	-92.541	0.123	0.035
-672.120	188.574	-0.165	-0.248
-671.105	-101.802	-0.175	0.043
-670.091	-80.267	0.143	-0.048
-669.076	317.232	-0.117	-0.224
-668.062	426.681	0.078	-0.170
-667.047	213.429	-0.093	0.148
-666.032	-88.494	0.227	0.068
-665.018	800.000	0.093	0.302
-664.003	-100.262	-0.323	0.081
-662.989	-39.176	-0.244	-0.129
-661.974	-108.725	0.172	-0.037
-660.959	68.224	-0.078	-0.080
-659.945	-200.000	0.000	0.170
-658.930	-11.771	-0.213	-0.141
-657.916	-200.000	-0.013	-0.150
-656.901	123.175	0.188	-0.237
-655.886	277.259	0.187	0.336
-654.872	-76.429	-0.007	0.002
-653.857	800.000	0.068	-0.286
-652.843	-31.202	-0.185	-0.105
-651.828	-77.321	0.017	-0.006
-650.814	-77.905	0.389	-0.135
-649.799	800.000	-0.108	0.391
-648.784	113.697	-0.079	-0.097
-647.770	84.178	-0.175	0.193
-646.755	130.956	-0.216	-0.279
-645.741	-21.758	-0.213	-0.130
-644.726	108.402	0.113	-0.136
-643.711	221.376	-0.049	-0.079
-642.697	774.512	0.014	-0.037
-641.682	-30.509	-0.220	0.126
-640.668	-24.250	0.099	0.060
-639.653	-80.552	-0.170	0.057
-638.638	130.591	-0.229	-0.295
-637.624	800.000	-0.094	-0.348
-636.609	-101.817	-0.332	0.081
-635.595	-200.000	-0.007	0.192
-634.580	51.288	0.069	0.066
-633.565	-141.007	-0.385	-0.040
-632.551	-111.882	0.176	0.036
-631.536	-0.921	0.369	-0.263
-630.522	-200.000	-0.008	-0.218
-629.507	-46.065	-0.166	-0.082
-628.492	-5.907	-0.175	-0.121
-627.478	800.000	-0.034	-0.135
-626.463	279.569	-0.161	-0.289
-625.449	99.550	-0.113	-0.131
-624.434	800.000	-0.043	-0.167
-623.419	-200.000	0.033	0.176
-622.405	-45.988	-0.207	0.103
-621.390	7.676	0.222	-0.167
-620.376	-95.816	-0.376	0.101
-619.361	-200.000	-0.037	0.286
-618.346	-200.000	-0.012	0.091
-617.332	10.239	0.074	-0.057
-616.317	181.379	-0.170	0.252
-615.303	82.765	0.101	0.110
-614.288	-200.000	-0.052	-0.285
-613.273	93.972	0.138	-0.157
-612.259	-200.000	0.015	-0.146
-611.244	450.818	0.072	-0.161
-610.230	-48.082	-0.157	0.076
-609.215	-179.141	-0.101	0.002
-608.201	-111.761	0.221	0.045
-607.186	-200.000	-0.036	-0.344
-606.171	421.513	-0.133	0.286
-605.157	42.714	0.054	0.050
-604.142	-65.649	-0.373	-0.150
-603.128	295.252	0.206	0.378
-602.113	101.486	-0.133	-0.156
-601.098	-83.787	0.202	0.065
-600.084	-200.000	-0.041	-0.232
-599.069	-200.000	-0.010	-0.062
-598.055	-106.608	-0.297	-0.066
-597.040	302.152	-0.061	0.114
-596.025	-21.953	0.200	0.122
-595.011	208.233	-0.272	0.428
-593.996	262.293	-0.160	-0.279
-592.982	800.000	0.073	0.216
-591.967	-200.000	0.018	0.146
-590.952	-52.741	0.052	0.024
-589.938	-38.691	0.272	0.144
-588.923	56.298	-0.276	0.270
-587.909	-200.000	0.007	-0.054
-586.894	-200.000	0.004	-0.063
-585.879	-83.107	0.147	-0.048
-584.865	-49.148	0.365	-0.175
-583.850	800.000	0.023	-0.068
-582.836	297.365	0.100	0.185
-581.821	73.768	-0.311	-0.328
-580.806	510.209	-0.098	0.230
-579.792	-131.944	-0.215	0.028
-578.777	-102.152	0.086	-0.021
-577.763	8.836	0.107	0.081
-576.748	91.999	0.068	0.077
-575.733	-129.274	-0.231	-0.032
-574.719	-34.704	0.068	-0.037
-573.704	-79.880	-0.189	-0.064
-572.690	-10.966	-0.147	-0.098
-571.675	305.654	-0.164	0.306
-570.661	-81.848	0.497	0.163
-569.646	800.000	-0.038	0.115
-568.631	264.492	0.096	-0.168
-567.617	800.000	0.049	-0.141
-566.602	-200.000	-0.034	0.383
-565.588	28.401	0.190	0.161
-564.573	193.722	-0.177	-0.270
-563.558	-130.535	0.113	-0.015
-562.544	-116.609	-0.105	0.019
-561.529	-111.166	0.138	0.028
-560.515	196.809	0.169	0.259
-559.500	800.000	0.046	-0.155
-558.485	571.149	0.131	-0.319
-557.471	-145.217	0.245	-0.022
-556.456	-200.000	0.014	0.395
-555.442	-127.564	-0.145	-0.021
-554.427	-200.000	0.000	0.085
-553.412	-167.483	-0.380	0.015
-552.398	-31.791	-0.269	0.151
-551.383	216.442	0.136	-0.216
-550.369	-111.046	-0.206	0.042
-549.354	-175.767	0.084	-0.002
-548.339	-192.023	-0.127	0.001
-547.325	209.529	-0.219	0.345
-546.310	-82.640	0.065	-0.021
-545.296	685.479	-0.112	0.292
-544.281	800.000	0.054	0.207
-543.266	-64.898	0.112	0.046
-542.252	-20.048	0.282	-0.175
-541.237	-200.000	-0.022	-0.143
-540.223	-143.844	-0.336	0.032
-539.208	-59.063	-0.221	-0.095
-538.193	352.402	0.092	-0.182
-537.179	-96.396	0.246	0.065
-536.164	-93.550	-0.081	0.022
-535.150	800.000	0.036	0.124
-534.135	151.801	0.070	0.096
-533.121	-17.205	-0.128	-0.081
-532.106	-111.459	0.110	0.022
-531.091	129.467	-0.266	0.341
-530.077	-50.240	-0.224	0.106
-529.062	800.000	-0.034	0.148
-528.048	-7.399	0.183	-0.124
-527.033	110.518	-0.097	0.117
-526.018	-200.000	-0.027	0.286
-525.004	-200.000	0.037	0.440
-523.989	-200.000	0.029	-0.303
-522.975	490.637	0.034	-0.077
-521.960	-31.602	-0.139	0.078
-520.945	153.803	-0.097	-0.134
-519.931	800.000	0.112	-0.334
-518.916	95.548	-0.213	0.244
-517.902	-101.071	0.042	0.010
-516.887	374.396	0.098	-0.199
-515.872	-18.733	-0.230	0.144
-514.858	220.316	0.065	-0.104
-513.843	-26.122	0.112	-0.066
-512.829	174.975	0.164	-0.238
-511.814	398.413	-0.097	-0.204
-510.799	-19.867	0.184	-0.114
-509.785	-134.444	-0.113	0.014
-508.770	11.379	0.075	-0.057
-507.756	-40.977	-0.108	0.056
-506.741	-200.000	0.007	0.125
-505.726	167.902	-0.204	0.290
-504.712	93.616	-0.108	-0.123
-503.697	0.185	-0.496	-0.354
-502.683	200.568	0.186	0.287
-501.668	70.961	0.195	0.202
-500.653	800.000	0.026	-0.078
-499.639	790.981	-0.135	-0.373
-498.624	419.492	0.079	-0.170
-497.610	-122.255	0.303	-0.050
-496.595	122.058	-0.090	-0.112
-495.581	354.806	0.093	0.185
-494.566	-143.604	-0.158	-0.015
-493.551	-167.076	-0.283	-0.012
-492.537	-19.509	0.383	0.237
-491.522	453.876	-0.162	-0.358
-490.508	-200.000	0.029	-0.149
-489.493	8.762	0.117	0.088
-488.478	-200.000	0.033	-0.210
-487.464	100.259	0.213	-0.247
-486.449	-9.455	-0.110	-0.073
-485.435	415.590	-0.112	0.240
-484.420	262.180	0.122	0.211
-483.405	-200.000	0.005	0.110
-482.391	213.041	-0.062	0.098
-481.376	41.055	0.141	0.128
-480.362	51.279	0.307	-0.291
-479.347	-122.586	0.341	0.055
-478.332	-57.436	0.127	-0.056
-477.318	167.698	0.252	-0.358
-476.303	-76.991	-0.196	-0.069
-475.289	-130.703	0.042	-0.006
-474.274	-200.000	-0.051	0.236
-473.259	-136.755	-0.273	-0.031
-472.245	-92.486	0.285	0.080
-471.230	-125.901	0.162	0.024
-470.216	367.558	0.188	0.379
-469.201	-200.000	-0.000	0.188
-468.186	380.360	0.078	-0.159
-467.172	662.758	0.058	0.150
-466.157	121.980	0.106	0.132
-465.143	-76.469	0.344	-0.121
-464.128	-56.723	-0.216	0.096
-463.113	448.378	-0.060	0.132
-462.099	-200.000	0.011	-0.352
-461.084	-165.465	0.461	-0.020
-460.070	-14.006	-0.107	0.069
-459.055	147.872	0.176	-0.238
-458.040	-10.070	0.122	-0.081
-457.026	-82.177	-0.300	-0.098
-456.011	-145.522	-0.215	-0.019
-454.997	7.691	0.102	-0.076
-453.982	415.356	-0.112	-0.239
-452.968	447.082	-0.035	0.077
-451.953	124.630	0.207	-0.261
-450.938	46.212	-0.212	-0.196
-449.924	-95.837	-0.541	0.144
-448.909	685.635	0.027	0.070
-447.895	-142.599	-0.101	0.010
-446.880	800.000	0.084	0.251
-445.865	800.000	-0.087	0.358
-444.851	-160.835	-0.209	0.011
-443.836	183.438	-0.104	-0.154
-442.822	-200.000	-0.021	0.166
-441.807	800.000	-0.042	0.178
-440.792	-117.600	0.281	0.051
-439.778	800.000	0.042	0.144
-438.763	-120.104	-0.225	-0.039
-437.749	493.230	0.053	0.120
-436.734	-200.000	-0.037	0.202
-435.719	-30.678	0.215	0.121
-434.705	141.286	-0.186	-0.246
-433.690	453.348	-0.114	-0.252
-432.676	-200.000	0.027	-0.183
-431.661	-200.000	0.032	0.216
-430.646	-26.347	-0.278	-0.163
-429.632	55.568	-0.261	-0.252
-428.617	89.786	0.078	-0.087
-427.603	-23.324	-0.198	0.119
-426.588	-32.333	-0.147	-0.082
-425.573	220.697	-0.058	-0.094
-424.559	418.304	0.166	-0.355
-423.544	800.000	0.030	0.131
-422.530	-65.686	-0.327	-0.131
-421.515	-97.974	-0.187	-0.048
-420.500	-159.979	-0.152	-0.008
-419.486	-12.754	-0.245	0.159
-418.471	-146.096	0.135	0.012
-417.457	-143.459	0.333	0.032
-416.442	-31.720	-0.160	0.089
-415.428	-83.549	-0.157	-0.050
-414.413	-200.000	0.005	-0.150
-413.398	800.000	0.023	-0.082
-412.384	48.809	-0.003	0.003
-411.369	487.053	-0.054	-0.124
-410.355	-200.000	-0.030	0.223
-409.340	-200.000	-0.012	0.078
-408.325	182.824	0.094	0.138
-407.311	333.954	0.079	0.152
-406.296	-156.809	-0.275	-0.017
-405.282	-149.966	-0.148	0.012
-404.267	526.184	-0.046	0.108
-403.252	735.643	0.042	0.113
-402.238	202.905	0.078	0.120
-401.223	17.859	-0.051	-0.041
-400.209	-119.273	0.157	-0.027
-399.194	-87.747	0.192	0.058
-398.179	-55.944	0.255	0.114
-397.165	317.569	0.046	0.086
-396.150	138.793	0.118	0.155
-395.136	800.000	0.040	0.140
-394.121	-147.049	0.093	0.008
-393.106	-118.691	0.240	-0.042
-392.092	625.279	-0.076	0.192
-391.077	112.353	-0.193	0.233
-390.063	43.313	0.125	-0.114
-389.048	-105.213	-0.283	-0.064
-388.033	-75.176	0.305	-0.109
-387.019	154.135	0.073	-0.099
-386.004	-146.113	0.323	0.028
-384.990	515.260	-0.018	-0.041
-383.975	-23.553	-0.381	-0.228
-382.960	-200.000	0.022	-0.103
-381.946	-200.000	-0.028	0.268
-380.931	-200.000	0.050	-0.306
-379.917	336.606	0.051	0.098
-378.902	404.926	-0.020	0.043
-377.888	-20.136	0.085	-0.052
-376.873	-126.346	-0.140	0.021
-375.858	-58.656	0.106	0.046
-374.844	-54.508	0.216	0.097
-373.829	314.086	-0.136	-0.256
-372.815	800.000	-0.067	-0.189
-371.800	739.422	-0.035	-0.094
-370.785	26.298	0.045	-0.038
-369.771	96.050	-0.191	0.217
-368.756	586.845	0.064	0.158
-367.742	-200.000	-0.039	0.215
-366.727	-0.963	-0.301	0.212
-365.712	450.292	-0.113	0.249
-364.698	19.502	-0.209	0.167
-363.683	70.069	0.130	-0.134
-362.669	-17.891	0.019	-0.012
-361.654	-200.000	0.010	-0.056
-360.639	179.273	0.144	0.210
-359.625	-14.983	0.252	0.161
-358.610	27.726	0.157	0.131
-357.596	116.405	-0.042	0.051
-356.581	-29.128	0.135	0.077
-355.566	284.079	0.079	-0.142
-354.552	333.101	-0.080	-0.153
-353.537	-200.000	0.007	0.032
-352.523	26.220	-0.050	0.042
-351.508	800.000	0.109	-0.391
-350.493	800.000	-0.020	0.087
-349.479	-77.902	-0.110	-0.038
-348.464	70.096	-0.090	-0.093
-347.450	178.143	0.177	-0.258
-346.435	296.988	0.164	-0.300
-345.420	-42.995	0.324	-0.163
-344.406	-21.422	-0.136	0.082
-343.391	-86.567	-0.217	-0.066
-342.377	109.645	0.051	0.061
-341.362	800.000	0.056	-0.202
-340.348	-200.000	0.011	-0.218
-339.333	-200.000	0.023	-0.113
-338.318	265.699	0.132	-0.230
-337.304	-200.000	-0.020	0.151
-336.289	36.350	-0.162	0.142
-335.275	-79.438	-0.330	-0.111
-334.260	-32.740	0.251	0.139
-333.245	331.732	0.115	0.222
-332.231	-64.089	0.206	-0.084
-331.216	193.559	-0.020	0.030
-330.202	440.408	-0.110	-0.240
-329.187	191.175	0.314	-0.470
-328.172	800.000	-0.036	-0.142
-327.158	-7.327	-0.031	0.021
-326.143	-71.763	0.110	0.041
-325.129	85.369	-0.110	-0.120
-324.114	65.991	-0.091	0.091
-323.099	-138.192	0.179	0.020
-322.085	237.210	0.122	0.201
-321.070	212.815	0.088	-0.138
-320.056	150.537	0.235	-0.318
-319.041	800.000	-0.040	0.119
-318.026	800.000	0.035	-0.103
-317.012	275.954	0.202	0.356
-315.997	-130.239	-0.205	-0.028
-314.983	-45.963	-0.292	-0.143
-313.968	29.668	-0.163	0.138
-312.953	135.295	0.218	0.282
-311.939	-117.144	-0.104	-0.019
-310.924	-200.000	0.016	-0.355
-309.910	-115.865	-0.128	0.024
-308.895	-3.413	-0.119	0.082
-307.880	130.118	0.120	0.152
-306.866	800.000	-0.123	-0.366
-305.851	-200.000	0.001	-0.019
-304.837	-141.973	-0.077	0.008
-303.822	-200.000	0.022	-0.164
-302.807	-131.025	-0.039	-0.005
-301.793	244.533	-0.297	0.496
-300.778	304.012	0.072	0.132
-299.764	-121.777	0.212	-0.035
-298.749	46.493	0.134	0.124
-297.735	379.000	-0.136	0.276
-296.720	-82.238	-0.135	0.044
-295.705	117.830	-0.162	0.199
-294.691	43.560	0.138	-0.126
-293.676	507.510	0.044	0.102
-292.662	800.000	-0.011	-0.031
-291.647	-75.515	0.203	-0.072
-290.632	287.421	-0.135	-0.242
-289.618	-200.000	-0.108	0.496
-288.603	-168.823	-0.215	0.008
-287.589	-91.967	0.268	-0.075
-286.574	4.203	0.341	-0.248
-285.559	-105.282	-0.338	-0.076
-284.545	-77.306	0.148	0.051
-283.530	-111.640	-0.317	0.064
-282.516	-80.769	-0.124	0.041
-281.501	-200.000	0.073	-0.384
-280.486	-75.080	0.202	-0.072
-279.472	207.563	0.114	0.176
-278.457	-67.834	-0.056	-0.022
-277.443	-200.000	0.036	-0.220
-276.428	25.258	0.035	0.029
-275.413	-104.946	0.182	0.042
-274.399	-147.347	0.507	-0.043
-273.384	224.247	0.155	0.248
-272.370	197.181	-0.108	-0.164
-271.355	-13.795	-0.245	0.157
-270.340	-118.808	-0.385	0.067
-269.326	5.382	-0.112	0.082
-268.311	42.903	0.068	-0.061
-267.297	-200.000	-0.040	0.188
-266.282	165.667	0.136	0.190
-265.267	-150.261	0.261	0.020
-264.253	800.000	0.088	0.325
-263.238	-191.223	0.055	0.001
-262.224	-129.054	-0.131	-0.018
-261.209	-200.000	0.046	-0.320
-260.195	-200.000	0.033	-0.177
-259.180	262.023	0.017	0.029
-258.165	-200.000	0.021	0.134
-257.151	-136.937	0.223	-0.025
-256.136	800.000	0.096	0.323
-255.122	421.225	0.126	0.267
-254.107	-8.065	-0.279	0.186
-253.092	-158.769	0.214	0.012
-252.078	800.000	0.020	-0.076
-251.063	170.459	0.180	-0.256
-250.049	800.000	0.072	-0.214
-249.034	-200.000	-0.004	-0.077
-248.019	232.389	0.017	-0.027
-247.005	-158.402	-0.128	0.007
-245.990	42.317	-0.083	0.075
-244.976	-165.317	0.164	-0.007
-243.961	46.663	-0.133	0.122
-242.946	-20.446	0.367	0.224
-241.932	-200.000	0.006	-0.032
-240.917	-180.536	0.303	0.006
-239.903	300.375	0.137	0.251
-238.888	-93.719	0.098	0.027
-237.873	227.055	0.246	-0.396
-236.859	45.598	0.078	0.072
-235.844	13.354	-0.169	0.130
-234.830	-200.000	0.010	-0.110
-233.815	66.406	0.154	0.155
-232.800	-77.943	-0.125	-0.043
-231.786	160.557	0.048	0.067
-230.771	-39.735	0.265	0.137
-229.757	-146.825	0.338	-0.029
-228.742	-88.349	0.227	-0.067
-227.727	-93.867	-0.330	0.090
-226.713	181.527	0.123	-0.179
-225.698	800.000	0.168	-0.478
-224.684	237.715	0.102	0.167
-223.669	256.512	-0.103	-0.175
-222.655	-47.444	0.257	-0.124
-221.640	-113.413	-0.052	-0.010
-220.625	-13.436	-0.157	0.101
-219.611	-150.176	-0.264	-0.020
-218.596	-106.794	0.238	0.052
-217.582	-96.920	-0.220	0.057
-216.567	-161.034	-0.249	-0.013
-215.552	114.771	-0.079	-0.095
-214.538	198.037	-0.067	0.101
-213.523	-67.516	-0.179	0.069
-212.509	78.285	0.252	-0.267
-211.494	175.311	0.102	-0.147
-210.479	-1.335	-0.077	0.054
-209.465	106.899	0.180	0.212
-208.450	-102.922	0.320	-0.075
-207.436	280.657	-0.089	-0.158
-206.421	-158.231	0.175	-0.010
-205.406	-147.550	0.279	-0.023
-204.392	56.129	0.342	-0.328
-203.377	474.818	-0.074	-0.165
-202.363	-200.000	-0.007	-0.131
-201.348	-74.208	-0.363	-0.130
-200.333	-58.447	-0.098	-0.042
-199.319	147.940	-0.255	0.340
-198.304	-92.829	-0.277	0.077
-197.290	697.899	-0.096	-0.251
-196.275	-74.017	0.267	-0.096
-195.260	6.377	0.006	0.004
-194.246	-200.000	0.009	-0.093
-193.231	238.741	0.156	-0.256
-192.217	800.000	0.010	0.035
-191.202	359.438	0.170	0.336
-190.187	-200.000	0.043	0.191
-189.173	86.212	-0.076	0.082
-188.158	196.600	0.100	0.150
-187.144	800.000	-0.095	0.367
-186.129	266.014	-0.105	-0.180
-185.114	-84.514	0.460	-0.144
-184.100	7.780	0.026	-0.019
-183.085	-84.257	-0.177	0.055
-182.071	33.199	-0.160	-0.137
-181.056	-26.331	-0.075	-0.043
-180.042	81.537	-0.121	-0.130
-179.027	-111.153	-0.164	0.033
-178.012	-131.997	0.226	-0.029
-176.998	-90.383	0.291	-0.083
-175.983	577.181	-0.125	-0.301
-174.969	-17.320	-0.089	0.056
-173.954	-128.548	-0.219	-0.031
-172.939	-147.934	0.192	0.016
-171.925	-164.787	-0.223	0.010
-170.910	365.940	-0.073	-0.144
-169.896	13.318	-0.186	0.143
-168.881	154.158	-0.251	0.341
-167.866	-200.000	-0.043	0.224
-166.852	-95.909	-0.227	-0.060
-165.837	-70.520	0.339	-0.127
-164.823	719.486	-0.038	0.100
-163.808	-4.825	0.401	-0.273
-162.793	299.990	0.124	0.226
-161.779	-103.901	0.120	-0.028
-160.764	-98.778	-0.280	-0.070
-159.750	314.704	0.079	0.147
-158.735	166.947	0.151	0.212
-157.720	80.056	0.131	-0.139
-156.706	-200.000	-0.007	-0.097
-155.691	56.314	-0.191	0.183
-154.677	277.560	0.063	-0.111
-153.662	-16.999	0.109	0.068
-152.647	800.000	-0.037	-0.126
-151.633	131.775	-0.026	0.033
-150.618	800.000	-0.100	0.321
-149.604	-111.609	-0.150	-0.030
-148.589	-200.000	-0.016	-0.145
-147.574	-200.000	0.005	0.171
-146.560	320.227	0.106	0.198
-145.545	-109.231	-0.051	-0.011
-144.531	117.004	-0.082	0.099
-143.516	800.000	0.074	0.261
-142.502	-68.689	0.344	0.132
-141.487	-87.639	0.111	-0.033
-140.472	302.679	-0.074	0.135
-139.458	290.277	-0.089	-0.160
-138.443	201.157	-0.074	0.113
-137.429	800.000	-0.093	0.338
-136.414	-70.787	0.258	-0.096
-135.399	-28.405	-0.091	0.052
-134.385	-79.458	0.282	-0.094
-133.370	383.866	0.120	0.245
-132.356	-143.180	-0.508	0.048
-131.341	-26.179	0.166	-0.096
-130.326	74.270	-0.106	-0.109
-129.312	-96.625	0.250	0.065
-128.297	-200.000	0.043	0.241
-127.283	140.585	-0.301	0.392
-126.268	54.152	0.210	0.199
-125.253	-144.115	-0.118	0.011
-124.239	558.217	-0.008	0.019
-123.224	-200.000	0.011	0.300
-122.210	94.187	0.102	0.114
-121.195	694.181	0.019	-0.049
