DTS Sentinel unit serial number:	SN413079Multiplexer serial number:	ORYXHardware model number:	OX4-SRSoftware version number:	ORYX F/W v4.00 Oryx Data Collector v3.7.2.0data status	okinstallation	princeton_trtdifferential loss correction	single-endedforward channel	channel 2reverse channel	N/Adate	2019/09/15time	16:55:34forward acquisition time	60.00reverse acquisition time	0.00gamma	496.2192k internal	0.2285k external	0.2285temperature offset calibration	0.9931default loss term (dB/km)	0.3790temperature slope calibration	1.0000multiplexer offset coefficient	1.0000multiplexer slope coefficient	1.0000fibre end	0.00T internal ref (°C)	44.42T ext. ref 1 (°C)	5.81T ext. ref 2 (°C)	40.43length (m)	temperature (°C)	Stokes	anti-Stokes-747.200	5.132	0.074	-0.056
-746.185	-200.000	-0.006	0.195
-745.171	800.000	0.090	-0.264
-744.156	-89.469	0.256	0.077
-743.142	40.849	0.039	0.036
-742.127	385.012	-0.060	0.127
-741.112	-154.288	0.368	0.025
-740.098	229.731	-0.171	-0.287
-739.083	-141.205	0.139	-0.015
-738.069	-115.966	0.246	0.047
-737.054	-200.000	-0.008	0.079
-736.039	187.184	0.172	-0.263
-735.025	419.001	-0.037	-0.081
-734.010	301.156	-0.226	-0.429
-732.996	-0.412	0.083	0.060
-731.981	-1.885	-0.271	-0.196
-730.966	67.160	-0.159	-0.166
-729.952	-183.366	-0.304	-0.005
-728.937	-87.540	-0.153	-0.047
-727.923	83.860	0.186	-0.209
-726.908	-200.000	-0.049	-0.238
-725.894	95.542	0.128	-0.150
-724.879	29.874	-0.162	0.142
-723.864	-200.000	0.013	-0.064
-722.850	-72.092	0.038	0.015
-721.835	-144.425	0.223	0.021
-720.821	249.890	-0.194	0.338
-719.806	108.456	0.095	0.116
-718.791	156.076	0.118	-0.166
-717.777	169.937	-0.092	0.135
-716.762	21.002	-0.081	-0.068
-715.748	17.927	-0.033	-0.027
-714.733	219.565	0.238	-0.390
-713.718	44.859	-0.176	0.167
-712.704	-200.000	0.036	0.230
-711.689	-81.927	0.098	0.033
-710.675	73.601	-0.079	-0.085
-709.660	25.447	0.295	-0.252
-708.645	243.693	0.074	-0.127
-707.631	-200.000	0.046	-0.334
-706.616	-105.684	-0.128	-0.030
-705.602	-186.961	-0.118	0.002
-704.587	-200.000	-0.005	-0.145
-703.572	-45.889	0.450	-0.228
-702.558	48.184	0.080	-0.077
-701.543	-200.000	-0.025	-0.200
-700.529	48.579	0.166	-0.160
-699.514	-102.728	0.162	-0.040
-698.499	180.020	0.141	0.211
-697.485	800.000	-0.047	-0.200
-696.470	-113.380	-0.222	0.045
-695.456	-200.000	0.097	0.515
-694.441	93.433	0.035	0.040
-693.426	800.000	-0.034	-0.120
-692.412	282.877	0.121	-0.223
-691.397	461.019	-0.131	-0.299
-690.383	226.217	0.162	-0.269
-689.368	137.463	0.116	-0.156
-688.354	-64.370	-0.267	0.111
-687.339	146.620	0.172	-0.237
-686.324	-75.425	-0.253	0.092
-685.310	-58.560	-0.255	-0.113
-684.295	-165.185	0.253	-0.011
-683.281	-124.420	-0.222	-0.035
-682.266	-200.000	-0.002	-0.208
-681.251	46.060	0.463	0.439
-680.237	-13.662	-0.107	0.071
-679.222	-200.000	0.019	-0.134
-678.208	-193.774	-0.175	-0.002
-677.193	-200.000	0.017	0.271
-676.178	-111.327	0.320	0.067
-675.164	301.870	-0.136	0.257
-674.149	-139.590	-0.461	0.050
-673.135	11.062	0.160	0.125
-672.120	-97.574	0.327	0.087
-671.105	-200.000	0.037	0.245
-670.091	-200.000	-0.008	-0.086
-669.076	-170.022	0.312	-0.011
-668.062	-149.510	0.174	-0.014
-667.047	-62.383	0.265	0.113
-666.032	-141.432	0.301	0.031
-665.018	41.393	0.261	-0.242
-664.003	-6.745	0.200	-0.139
-662.989	253.763	0.089	0.155
-661.974	-200.000	0.043	0.251
-660.959	-58.552	-0.156	0.069
-659.945	-109.034	0.213	-0.046
-658.930	-129.236	-0.342	0.049
-657.916	-15.607	-0.133	0.087
-656.901	87.714	-0.156	0.176
-655.886	-87.657	0.171	-0.053
-654.872	-200.000	-0.018	0.106
-653.857	-200.000	0.007	-0.116
-652.843	800.000	-0.024	-0.104
-651.828	-200.000	-0.057	-0.477
-650.814	-160.530	-0.281	-0.015
-649.799	72.454	-0.168	0.179
-648.784	-200.000	-0.015	0.105
-647.770	800.000	0.097	-0.296
-646.755	115.800	0.212	0.265
-645.741	-108.986	-0.197	0.043
-644.726	25.987	-0.173	-0.148
-643.711	-126.154	-0.328	-0.050
-642.697	-200.000	-0.015	-0.330
-641.682	585.817	0.004	0.011
-640.668	-48.640	0.187	-0.092
-639.653	158.917	-0.060	0.086
-638.638	-14.003	-0.156	0.103
-637.624	-200.000	0.001	-0.312
-636.609	-200.000	0.008	0.171
-635.595	-174.241	-0.224	0.007
-634.580	78.389	-0.225	-0.246
-633.565	-51.512	0.403	0.192
-632.551	-22.133	-0.054	-0.033
-631.536	800.000	-0.038	-0.133
-630.522	-9.756	-0.192	0.131
-629.507	-155.442	-0.100	0.007
-628.492	66.463	-0.073	0.076
-627.478	16.503	-0.256	-0.207
-626.463	260.133	0.061	-0.108
-625.449	-154.990	-0.254	-0.017
-624.434	-143.498	0.366	-0.036
-623.419	-67.260	-0.233	0.094
-622.405	-32.333	0.118	-0.068
-621.390	171.006	0.190	-0.278
-620.376	-124.192	0.111	0.018
-619.361	-41.113	-0.164	-0.086
-618.346	800.000	-0.156	0.675
-617.332	-200.000	0.019	0.129
-616.317	-80.175	0.434	0.148
-615.303	-58.802	0.138	-0.061
-614.288	-84.419	0.122	0.039
-613.273	800.000	0.008	0.031
-612.259	-46.922	0.145	-0.073
-611.244	-200.000	-0.044	-0.326
-610.230	-57.592	0.262	-0.117
-609.215	800.000	0.044	-0.127
-608.201	-200.000	0.004	-0.132
-607.186	-39.920	-0.381	-0.203
-606.171	14.173	0.200	-0.159
-605.157	-200.000	0.031	0.234
-604.142	15.759	0.217	0.174
-603.128	-18.949	0.164	0.104
-602.113	34.820	-0.227	-0.203
-601.098	155.829	-0.119	-0.168
-600.084	197.230	0.033	0.052
-599.069	-95.053	-0.145	-0.040
-598.055	-200.000	0.016	-0.121
-597.040	-200.000	0.042	-0.385
-596.025	35.738	-0.176	0.158
-595.011	-200.000	0.003	-0.122
-593.996	382.770	-0.153	-0.322
-592.982	-200.000	0.018	0.221
-591.967	-7.143	-0.322	0.223
-590.952	63.880	-0.210	-0.215
-589.938	-200.000	-0.002	-0.127
-588.923	-34.250	-0.258	0.145
-587.909	-200.000	0.018	-0.269
-586.894	185.012	0.184	-0.279
-585.879	278.164	-0.160	0.291
-584.865	188.035	0.050	0.076
-583.850	-26.237	-0.138	0.083
-582.836	158.144	0.271	-0.384
-581.821	-112.559	0.587	0.119
-580.806	-200.000	-0.056	0.447
-579.792	-10.762	0.215	-0.145
-578.777	-30.445	0.296	0.172
-577.763	137.620	-0.149	-0.199
-576.748	-108.064	-0.093	-0.020
-575.733	55.940	0.078	0.077
-574.719	-200.000	-0.009	0.140
-573.704	400.641	0.042	0.090
-572.690	-121.449	0.210	0.036
-571.675	-55.723	-0.136	0.062
-570.661	-65.672	0.113	0.046
-569.646	-128.199	-0.326	-0.048
-568.631	-122.642	-0.171	-0.028
-567.617	-200.000	0.033	0.217
-566.602	-141.711	-0.437	-0.045
-565.588	-200.000	0.027	0.280
-564.573	-200.000	0.014	-0.134
-563.558	-138.105	0.218	-0.025
-562.544	-49.244	0.124	0.060
-561.529	-168.573	-0.136	-0.005
-560.515	58.122	-0.100	0.099
-559.500	-200.000	0.011	-0.132
-558.485	-200.000	0.015	0.272
-557.471	22.222	-0.122	-0.101
-556.456	144.889	0.109	0.149
-555.442	226.745	0.168	-0.278
-554.427	800.000	0.105	-0.362
-553.412	26.489	-0.283	-0.241
-552.398	653.601	-0.126	-0.328
-551.383	-123.473	-0.211	-0.034
-550.369	113.707	0.272	0.337
-549.354	-62.032	0.187	-0.080
-548.339	328.538	-0.067	0.132
-547.325	-200.000	-0.038	0.248
-546.310	-112.361	-0.252	-0.051
-545.296	75.920	0.078	-0.084
-544.281	-115.760	-0.474	-0.090
-543.266	-200.000	-0.005	-0.050
-542.252	-92.751	-0.177	0.050
-541.237	800.000	-0.137	0.495
-540.223	-53.824	-0.283	-0.132
-539.208	12.020	0.140	0.110
-538.193	358.473	0.009	0.019
-537.179	-54.618	0.322	-0.148
-536.164	800.000	0.093	0.281
-535.150	-109.704	0.198	-0.042
-534.135	-13.974	-0.219	-0.144
-533.121	-173.950	-0.204	0.006
-532.106	20.417	-0.131	0.107
-531.091	-68.106	0.140	-0.055
-530.077	800.000	-0.079	-0.268
-529.062	-52.251	-0.250	-0.118
-528.048	302.602	-0.045	0.086
-527.033	419.486	-0.029	0.063
-526.018	-160.915	0.127	0.007
-525.004	-200.000	0.017	0.094
-523.989	-200.000	0.024	0.158
-522.975	-116.520	-0.100	0.019
-521.960	70.804	0.156	-0.165
-520.945	-66.096	0.267	0.109
-519.931	-106.408	0.210	0.048
-518.916	-98.331	-0.102	0.027
-517.902	-200.000	-0.034	0.418
-516.887	-19.944	0.271	-0.170
-515.872	-200.000	0.035	0.194
-514.858	-133.028	-0.065	0.008
-513.843	31.252	-0.180	0.157
-512.829	-200.000	0.045	-0.471
-511.814	-42.971	0.196	-0.101
-510.799	398.459	0.052	0.111
-509.785	-111.104	0.345	0.072
-508.770	433.157	0.111	0.245
-507.756	-28.355	-0.233	-0.137
-506.741	27.755	-0.081	0.069
-505.726	123.611	0.154	0.196
-504.712	-100.760	0.095	0.024
-503.697	-92.987	-0.199	-0.057
-502.683	-4.402	0.150	0.106
-501.668	569.911	0.015	-0.038
-500.653	89.117	-0.229	-0.259
-499.639	70.538	-0.093	-0.098
-498.624	129.981	-0.085	-0.111
-497.610	9.612	0.080	0.062
-496.595	214.062	0.093	0.150
-495.581	-122.952	-0.124	0.020
-494.566	-52.582	0.227	-0.106
-493.551	-33.246	0.198	-0.111
-492.537	106.995	-0.240	-0.289
-491.522	800.000	-0.047	0.145
-490.508	-80.596	-0.302	-0.102
-489.493	800.000	0.118	-0.406
-488.478	-94.866	0.141	0.039
-487.464	73.561	0.108	-0.114
-486.449	292.213	0.131	0.243
-485.435	-31.702	-0.201	0.115
-484.420	-46.748	0.217	0.108
-483.405	514.091	0.093	-0.221
-482.391	-67.044	0.048	-0.019
-481.376	-158.850	-0.173	0.010
-480.362	-85.017	-0.494	0.157
-479.347	581.873	0.048	0.120
-478.332	-185.696	-0.055	-0.001
-477.318	156.568	0.267	-0.375
-476.303	-200.000	0.020	-0.174
-475.289	271.062	-0.115	0.207
-474.274	110.775	0.132	0.161
-473.259	-51.367	0.256	-0.122
-472.245	800.000	-0.116	-0.478
-471.230	36.067	-0.127	-0.114
-470.216	-178.751	-0.092	0.002
-469.201	800.000	-0.051	0.204
-468.186	-6.399	0.168	-0.116
-467.172	800.000	0.006	0.023
-466.157	-200.000	-0.006	0.056
-465.143	-66.039	0.312	0.126
-464.128	-70.732	0.253	0.097
-463.113	-200.000	-0.026	-0.145
-462.099	-90.772	-0.285	0.083
-461.084	800.000	0.058	0.221
-460.070	511.883	0.180	0.425
-459.055	9.854	-0.089	0.069
-458.040	212.425	0.040	0.063
-457.026	800.000	-0.082	-0.314
-456.011	-75.389	-0.035	0.013
-454.997	-132.588	0.091	-0.012
-453.982	120.122	0.062	0.078
-452.968	800.000	-0.057	0.165
-451.953	800.000	0.053	-0.164
-450.938	-200.000	-0.001	-0.230
-449.924	277.316	-0.156	-0.282
-448.909	-87.190	-0.249	-0.077
-447.895	-54.374	0.190	-0.087
-446.880	187.262	-0.124	0.188
-445.865	-39.674	0.493	-0.262
-444.851	333.014	0.133	0.261
-443.836	77.870	-0.209	0.226
-442.822	26.619	-0.105	-0.089
-441.807	57.910	-0.096	-0.096
-440.792	40.888	-0.057	-0.052
-439.778	254.408	-0.068	0.118
-438.763	-38.471	0.138	-0.074
-437.749	-149.050	0.199	-0.016
-436.734	395.239	0.059	0.125
-435.719	111.020	-0.026	0.032
-434.705	-110.045	-0.209	0.044
-433.690	800.000	-0.086	0.252
-432.676	28.529	0.241	-0.207
-431.661	-41.787	0.042	-0.022
-430.646	355.417	0.239	0.482
-429.632	-22.723	0.162	0.099
-428.617	197.267	-0.116	0.180
-427.603	-159.546	0.212	-0.012
-426.588	-64.481	-0.083	-0.034
-425.573	-72.106	-0.295	-0.111
-424.559	-16.122	-0.310	0.200
-423.544	-57.536	-0.121	0.054
-422.530	-200.000	0.001	-0.151
-421.515	-145.241	0.319	0.029
-420.500	-158.157	-0.043	-0.003
-419.486	-65.405	0.166	-0.068
-418.471	-67.572	-0.307	-0.122
-417.457	314.367	0.168	0.321
-416.442	-163.174	0.086	-0.004
-415.428	-146.679	-0.262	0.023
-414.413	-159.339	-0.109	0.006
-413.398	-35.840	-0.275	0.151
-412.384	800.000	0.058	0.178
-411.369	-81.047	0.048	-0.016
-410.355	-21.532	0.172	-0.106
-409.340	94.150	-0.160	-0.184
-408.325	-41.323	-0.177	0.092
-407.311	8.144	-0.101	-0.077
-406.296	-102.203	0.393	-0.096
-405.282	-116.708	0.177	-0.033
-404.267	-89.237	0.372	0.111
-403.252	85.933	-0.087	0.097
-402.238	-200.000	0.022	-0.365
-401.223	167.366	-0.163	-0.235
-400.209	-200.000	0.024	0.199
-399.194	-163.754	-0.126	0.006
-398.179	-123.347	-0.235	-0.038
-397.165	254.445	-0.108	-0.187
-396.150	-38.785	0.122	-0.065
-395.136	21.536	0.101	0.083
-394.121	46.521	-0.140	0.131
-393.106	-200.000	0.036	0.434
-392.092	435.676	0.088	-0.194
-391.077	-84.595	0.221	-0.071
-390.063	-200.000	0.041	-0.204
-389.048	-63.991	-0.134	-0.055
-388.033	-114.130	-0.260	0.051
-387.019	-13.489	-0.111	-0.073
-386.004	-126.812	-0.138	-0.021
-384.990	105.089	0.095	-0.114
-383.975	-128.902	-0.239	0.034
-382.960	100.687	-0.099	0.116
-381.946	-142.035	-0.104	0.010
-380.931	-170.859	0.378	0.013
-379.917	122.302	0.090	0.114
-378.902	-200.000	0.013	0.127
-377.888	171.942	-0.105	0.152
-376.873	-200.000	-0.001	-0.082
-375.858	65.197	0.217	-0.222
-374.844	-152.424	-0.203	-0.015
-373.829	15.087	-0.146	-0.116
-372.815	43.675	-0.178	0.165
-371.800	499.482	-0.090	0.209
-370.785	107.406	-0.188	-0.226
-369.771	-200.000	-0.019	-0.087
-368.756	-200.000	-0.002	-0.208
-367.742	800.000	-0.054	-0.187
-366.727	258.618	0.057	0.099
-365.712	800.000	-0.060	0.262
-364.698	66.062	-0.137	-0.141
-363.683	60.895	0.062	0.062
-362.669	-108.606	0.223	0.049
-361.654	127.096	0.043	-0.055
-360.639	394.921	-0.150	0.317
-359.625	-134.091	-0.201	0.025
-358.610	-200.000	0.025	0.145
-357.596	-200.000	0.008	0.141
-356.581	125.544	-0.065	-0.083
-355.566	800.000	0.030	-0.110
-354.552	-200.000	0.027	-0.136
-353.537	-54.695	0.183	0.083
-352.523	347.960	-0.053	-0.106
-351.508	800.000	0.050	0.140
-350.493	93.077	-0.200	0.228
-349.479	800.000	0.127	0.371
-348.464	222.907	0.086	0.140
-347.450	52.997	0.374	-0.362
-346.435	-6.647	-0.259	-0.178
-345.420	800.000	-0.033	-0.145
-344.406	137.450	-0.086	0.113
-343.391	14.912	0.087	0.069
-342.377	-48.116	-0.270	-0.132
-341.362	-102.578	0.081	-0.019
-340.348	25.754	-0.048	0.040
-339.333	800.000	-0.062	-0.205
-338.318	28.523	-0.207	0.177
-337.304	800.000	-0.011	-0.038
-336.289	-25.830	0.449	-0.267
-335.275	-200.000	-0.003	-0.244
-334.260	-90.078	-0.297	-0.088
-333.245	-200.000	-0.028	0.365
-332.231	-198.407	0.222	-0.001
-331.216	-200.000	0.367	-0.002
-330.202	3.722	-0.014	-0.010
-329.187	249.976	0.047	-0.081
-328.172	63.107	-0.032	-0.032
-327.158	450.361	0.081	-0.181
-326.143	235.904	0.134	-0.224
-325.129	218.879	0.098	0.158
-324.114	225.864	0.080	-0.131
-323.099	85.520	0.077	-0.085
-322.085	153.908	0.134	0.185
-321.070	-200.000	0.032	0.223
-320.056	-166.196	-0.373	-0.016
-319.041	27.028	-0.266	0.225
-318.026	158.283	-0.341	-0.477
-317.012	427.473	0.109	0.237
-315.997	-109.416	0.174	0.037
-314.983	43.713	0.108	0.100
-313.968	-200.000	0.018	-0.138
-312.953	800.000	-0.170	0.563
-311.939	-200.000	-0.024	-0.109
-310.924	-200.000	0.016	0.092
-309.910	69.456	-0.250	0.260
-308.895	76.266	-0.237	0.253
-307.880	-200.000	0.015	0.070
-306.866	-200.000	0.030	-0.260
-305.851	-7.937	-0.097	0.066
-304.837	677.660	0.086	0.227
-303.822	0.645	0.283	0.205
-302.807	-200.000	-0.011	-0.214
-301.793	50.777	-0.310	0.296
-300.778	800.000	-0.062	-0.191
-299.764	-200.000	-0.031	-0.164
-298.749	642.008	-0.033	0.084
-297.735	66.437	0.049	0.050
-296.720	-200.000	0.059	0.382
-295.705	-4.184	0.105	-0.074
-294.691	-50.313	0.224	-0.107
-293.676	-200.000	-0.027	-0.220
-292.662	306.766	-0.092	0.173
-291.647	-116.952	0.039	-0.007
-290.632	-66.027	0.171	-0.069
-289.618	630.578	0.122	0.312
-288.603	-49.254	0.320	0.154
-287.589	158.769	0.082	0.114
-286.574	-200.000	-0.002	0.025
-285.559	-200.000	0.007	-0.197
-284.545	-47.859	0.191	-0.093
-283.530	-177.408	-0.195	-0.005
-282.516	89.805	-0.231	-0.261
-281.501	345.619	-0.079	0.156
-280.486	-70.771	0.290	0.110
-279.472	-27.121	0.098	0.057
-278.457	-200.000	0.011	0.221
-277.443	288.149	0.111	-0.203
-276.428	-200.000	0.007	-0.251
-275.413	-23.729	-0.158	-0.096
-274.399	-200.000	-0.022	0.130
-273.384	698.932	-0.094	0.250
-272.370	-80.946	-0.388	-0.129
-271.355	-200.000	0.032	-0.158
-270.340	800.000	0.066	-0.285
-269.326	-79.212	-0.400	-0.137
-268.311	69.863	0.037	-0.039
-267.297	174.675	-0.143	-0.209
-266.282	-140.482	-0.050	-0.005
-265.267	82.573	-0.098	-0.108
-264.253	-28.081	0.135	0.079
-263.238	-68.481	-0.345	0.135
-262.224	-200.000	0.035	-0.291
-261.209	-95.246	-0.306	-0.083
-260.195	83.737	-0.070	-0.077
-259.180	-24.201	0.215	-0.129
-258.165	-200.000	0.009	0.177
-257.151	96.310	0.021	0.024
-256.136	800.000	0.058	0.173
-255.122	148.661	-0.069	0.093
-254.107	800.000	0.078	0.273
-253.092	266.099	0.041	-0.072
-252.078	800.000	-0.116	-0.346
-251.063	-95.246	0.059	-0.016
-250.049	-134.130	-0.111	-0.014
-249.034	785.890	0.015	-0.041
-248.019	92.125	0.222	-0.252
-247.005	-39.768	-0.231	-0.122
-245.990	-200.000	-0.010	-0.051
-244.976	800.000	-0.038	0.146
-243.961	-109.279	0.165	-0.035
-242.946	-79.972	0.241	-0.081
-241.932	-132.144	0.392	-0.051
-240.917	-138.387	0.184	-0.020
-239.903	-52.921	0.501	-0.232
-238.888	-116.338	0.375	0.070
-237.873	-110.644	0.148	0.031
-236.859	13.711	0.084	0.066
-235.844	800.000	-0.032	0.140
-234.830	-121.586	-0.171	0.029
-233.815	565.431	-0.060	0.148
-232.800	-44.323	-0.255	0.128
-231.786	-101.530	0.321	-0.078
-230.771	725.652	0.027	-0.072
-229.757	693.798	-0.108	0.286
-228.742	-200.000	-0.031	-0.315
-227.727	32.623	0.138	-0.120
-226.713	-200.000	-0.012	-0.190
-225.698	62.090	0.213	-0.214
-224.684	800.000	0.047	-0.150
-223.669	197.936	-0.130	0.200
-222.655	800.000	0.105	0.330
-221.640	-200.000	-0.013	-0.150
-220.625	800.000	-0.112	0.333
-219.611	201.489	-0.145	-0.224
-218.596	-125.531	0.306	0.047
-217.582	-53.512	-0.345	0.159
-216.567	-200.000	0.027	0.220
-215.552	461.503	-0.019	0.042
-214.538	4.266	-0.046	-0.034
-213.523	-200.000	-0.006	0.162
-212.509	100.668	-0.063	0.073
-211.494	800.000	-0.092	0.340
-210.479	-50.992	0.060	-0.028
-209.465	-39.283	0.208	0.110
-208.450	-195.216	0.281	0.002
-207.436	800.000	-0.064	-0.272
-206.421	-7.420	0.243	-0.165
-205.406	-200.000	-0.026	-0.402
-204.392	-25.412	0.238	-0.142
-203.377	-101.173	-0.345	-0.085
-202.363	17.917	-0.127	0.102
-201.348	800.000	-0.088	0.245
-200.333	-138.148	-0.172	-0.019
-199.319	-113.165	0.405	-0.080
-198.304	-89.792	-0.311	-0.092
-197.290	-89.713	-0.146	0.043
-196.275	19.040	-0.047	0.038
-195.260	-51.873	0.048	-0.022
-194.246	172.662	0.100	0.145
-193.231	800.000	0.060	-0.252
-192.217	-200.000	0.024	0.180
-191.202	46.079	0.092	-0.085
-190.187	190.385	0.080	0.120
-189.173	343.335	-0.108	-0.213
-188.158	-69.561	-0.234	0.090
-187.144	-169.018	0.402	0.015
-186.129	800.000	0.042	0.120
-185.114	-32.503	0.124	0.070
-184.100	-47.747	0.339	-0.165
-183.085	800.000	-0.088	-0.322
-182.071	3.001	-0.160	-0.117
-181.056	-87.758	-0.327	0.099
-180.042	-104.795	0.213	0.049
-179.027	-121.104	-0.172	-0.029
-178.012	-200.000	-0.052	-0.274
-176.998	-75.800	-0.024	-0.008
-175.983	-200.000	-0.021	-0.374
-174.969	800.000	0.032	0.094
-173.954	-96.184	0.231	-0.062
-172.939	608.219	0.174	0.436
-171.925	188.806	-0.064	0.097
-170.910	-200.000	-0.015	0.193
-169.896	101.684	-0.196	0.229
-168.881	181.121	-0.102	-0.150
-167.866	-70.079	0.027	0.010
-166.852	-107.160	-0.226	-0.050
-165.837	-200.000	-0.010	-0.181
-164.823	800.000	0.061	0.203
-163.808	398.807	-0.089	0.188
-162.793	-200.000	-0.018	0.209
-161.779	800.000	-0.080	0.248
-160.764	19.741	-0.064	-0.052
-159.750	-174.695	0.587	-0.017
-158.735	-200.000	0.042	0.210
-157.720	603.832	0.043	0.108
-156.706	-200.000	-0.030	0.159
-155.691	-49.541	0.185	0.089
-154.677	800.000	0.100	-0.328
-153.662	108.891	-0.184	-0.221
-152.647	107.674	0.155	-0.186
-151.633	390.097	-0.094	0.197
-150.618	-99.295	-0.350	-0.089
-149.604	-200.000	0.009	0.493
-148.589	-91.647	0.271	-0.077
-147.574	-30.656	0.403	0.229
-146.560	800.000	-0.077	0.228
-145.545	771.226	-0.049	0.133
-144.531	28.528	-0.081	-0.068
-143.516	-200.000	-0.039	0.271
-142.502	-200.000	0.029	0.254
-141.487	4.141	-0.197	0.144
-140.472	800.000	-0.087	0.348
-139.458	800.000	-0.055	0.176
-138.443	800.000	0.124	-0.450
-137.429	125.056	0.142	-0.180
-136.414	26.065	-0.123	0.103
-135.399	-200.000	-0.003	-0.266
-134.385	-200.000	0.004	-0.220
-133.370	800.000	-0.082	0.273
-132.356	91.896	0.220	0.249
-131.341	-85.353	0.426	0.133
-130.326	218.873	0.074	-0.119
-129.312	179.562	-0.064	-0.094
-128.297	233.269	0.139	-0.230
-127.283	-136.222	0.117	-0.014
-126.268	-200.000	0.003	0.346
-125.253	-200.000	-0.009	-0.322
-124.239	-200.000	0.026	0.135
-123.224	-46.974	0.378	-0.185
-122.210	-14.679	-0.369	-0.238
