DTS Sentinel unit serial number:	SN413079Multiplexer serial number:	ORYXHardware model number:	OX4-SRSoftware version number:	ORYX F/W v4.00 Oryx Data Collector v3.7.2.0data status	okinstallation	princeton_trtdifferential loss correction	single-endedforward channel	channel 2reverse channel	N/Adate	2019/09/13time	03:43:35forward acquisition time	60.00reverse acquisition time	0.00gamma	496.2192k internal	0.2335k external	0.2335temperature offset calibration	1.0189default loss term (dB/km)	0.3790temperature slope calibration	1.0000multiplexer offset coefficient	1.0000multiplexer slope coefficient	1.0000fibre end	0.00T internal ref (°C)	27.19T ext. ref 1 (°C)	4.08T ext. ref 2 (°C)	21.53length (m)	temperature (°C)	Stokes	anti-Stokes-747.200	89.537	0.164	-0.183
-746.185	800.000	0.102	0.291
-745.171	800.000	0.093	-0.306
-744.156	800.000	-0.028	0.105
-743.142	413.723	0.127	0.273
-742.127	-176.429	-0.219	-0.006
-741.112	-185.621	0.204	0.003
-740.098	466.771	-0.223	0.501
-739.083	-137.075	0.466	-0.054
-738.069	-146.036	-0.181	-0.016
-737.054	-96.383	-0.314	-0.083
-736.039	119.816	0.217	0.270
-735.025	-200.000	0.025	0.234
-734.010	-12.011	-0.236	0.155
-732.996	800.000	-0.058	-0.217
-731.981	355.322	-0.077	-0.154
-730.966	-200.000	0.090	0.457
-729.952	493.992	0.031	0.072
-728.937	-36.413	-0.414	0.224
-727.923	116.170	-0.129	-0.159
-726.908	-51.298	-0.117	0.055
-725.894	-92.443	-0.142	-0.040
-724.879	-154.151	-0.107	-0.007
-723.864	481.836	-0.142	-0.325
-722.850	111.417	-0.130	-0.157
-721.835	-122.201	0.167	0.028
-720.821	-181.781	-0.222	0.004
-719.806	653.733	-0.004	0.011
-718.791	-72.352	-0.203	0.076
-717.777	-144.611	-0.129	0.012
-716.762	306.410	0.178	0.333
-715.748	-200.000	0.012	-0.289
-714.733	268.343	-0.074	0.130
-713.718	125.850	0.179	-0.227
-712.704	-200.000	0.036	-0.197
-711.689	-200.000	0.018	-0.175
-710.675	-69.568	0.303	-0.116
-709.660	71.170	0.059	-0.062
-708.645	161.298	0.023	0.032
-707.631	24.035	-0.135	-0.111
-706.616	-98.449	0.318	0.082
-705.602	800.000	0.066	0.248
-704.587	404.327	-0.148	0.314
-703.572	800.000	0.033	-0.115
-702.558	-200.000	-0.063	-0.392
-701.543	-37.659	0.131	0.070
-700.529	800.000	0.078	-0.233
-699.514	-141.173	0.235	-0.024
-698.499	4.168	-0.149	-0.109
-697.485	-88.194	-0.113	0.034
-696.470	-129.287	-0.036	-0.005
-695.456	181.646	-0.210	-0.309
-694.441	-110.711	0.087	-0.018
-693.426	56.305	-0.285	0.277
-692.412	-55.972	-0.289	0.129
-691.397	-13.569	0.145	-0.094
-690.383	-200.000	0.035	0.225
-689.368	-76.369	-0.128	-0.045
-688.354	718.534	0.105	-0.278
-687.339	193.068	0.140	-0.213
-686.324	-200.000	-0.017	-0.085
-685.310	-10.357	-0.313	-0.208
-684.295	-52.144	-0.119	-0.055
-683.281	-114.315	0.162	0.031
-682.266	-40.044	0.152	-0.080
-681.251	-166.736	0.084	0.003
-680.237	800.000	0.022	0.073
-679.222	471.436	0.081	-0.182
-678.208	138.138	0.135	-0.178
-677.193	338.807	-0.240	-0.468
-676.178	191.544	0.087	-0.131
-675.164	1.719	0.179	-0.129
-674.149	-76.064	-0.470	-0.166
-673.135	-175.318	-0.159	0.004
-672.120	-75.919	0.312	-0.110
-671.105	66.199	0.054	0.055
-670.091	216.982	-0.039	-0.063
-669.076	-64.474	-0.210	0.085
-668.062	25.428	-0.291	-0.242
-667.047	-200.000	0.024	0.206
-666.032	25.329	0.126	0.105
-665.018	-33.419	0.282	-0.156
-664.003	30.249	0.115	-0.099
-662.989	-110.771	0.085	-0.018
-661.974	-75.990	-0.039	0.014
-660.959	10.783	0.129	-0.099
-659.945	-50.922	0.133	0.063
-658.930	-28.289	0.042	0.025
-657.916	144.744	0.093	-0.124
-656.901	-141.778	0.221	0.022
-655.886	-200.000	-0.015	0.115
-654.872	-82.982	-0.110	-0.036
-653.857	800.000	0.055	-0.191
-652.843	800.000	-0.023	0.086
-651.828	-128.205	-0.357	-0.051
-650.814	800.000	0.037	0.129
-649.799	-64.664	0.270	0.110
-648.784	-164.261	0.224	0.010
-647.770	-98.289	-0.386	-0.099
-646.755	-200.000	0.011	-0.152
-645.741	-132.450	-0.216	0.028
-644.726	271.154	-0.039	0.069
-643.711	103.697	0.138	0.162
-642.697	-200.000	0.020	0.284
-641.682	-148.775	0.186	0.015
-640.668	99.294	0.145	0.168
-639.653	-200.000	0.022	-0.272
-638.638	800.000	0.034	-0.144
-637.624	-49.415	-0.244	-0.116
-636.609	-158.284	0.134	0.008
-635.595	648.377	0.162	-0.415
-634.580	800.000	-0.111	-0.307
-633.565	140.173	-0.091	0.120
-632.551	-23.673	0.143	0.086
-631.536	-107.748	0.454	0.099
-630.522	-1.245	-0.065	-0.046
-629.507	-200.000	0.001	0.076
-628.492	-91.601	0.144	-0.041
-627.478	-200.000	-0.003	-0.079
-626.463	-157.513	-0.162	0.010
-625.449	-59.056	-0.221	-0.096
-624.434	104.304	-0.199	0.234
-623.419	278.518	0.134	0.239
-622.405	-94.181	-0.504	-0.138
-621.390	800.000	-0.046	0.129
-620.376	397.603	0.121	-0.252
-619.361	-114.729	-0.249	-0.048
-618.346	168.341	-0.082	0.116
-617.332	-99.840	0.272	-0.068
-616.317	-90.300	0.326	-0.095
-615.303	-74.365	0.095	0.034
-614.288	383.115	-0.018	-0.038
-613.273	43.004	-0.033	0.030
-612.259	134.242	0.185	-0.239
-611.244	53.869	-0.088	0.084
-610.230	-102.735	-0.127	0.030
-609.215	-162.080	-0.346	-0.017
-608.201	-200.000	-0.007	0.189
-607.186	-24.177	0.136	0.081
-606.171	415.297	-0.031	0.066
-605.157	800.000	-0.049	-0.197
-604.142	-14.018	0.152	-0.098
-603.128	-200.000	-0.043	0.245
-602.113	-125.684	0.157	-0.024
-601.098	800.000	-0.072	-0.273
-600.084	176.062	0.125	0.182
-599.069	79.962	-0.102	-0.110
-598.055	122.956	-0.028	0.035
-597.040	43.030	-0.136	-0.124
-596.025	10.607	0.113	0.086
-595.011	-200.000	0.038	0.180
-593.996	-200.000	0.019	-0.240
-592.982	800.000	-0.047	0.138
-591.967	81.547	0.169	0.182
-590.952	43.859	0.168	-0.154
-589.938	-200.000	-0.007	-0.139
-588.923	-82.736	0.171	-0.055
-587.909	368.409	-0.133	0.268
-586.894	-177.271	-0.245	0.006
-585.879	734.371	-0.075	0.200
-584.865	207.500	0.196	-0.305
-583.850	293.004	0.066	-0.119
-582.836	800.000	0.049	-0.206
-581.821	-200.000	-0.012	0.247
-580.806	93.908	-0.114	0.129
-579.792	10.617	0.084	0.064
-578.777	421.576	-0.039	0.084
-577.763	-200.000	0.023	0.415
-576.748	179.512	-0.101	-0.148
-575.733	197.734	-0.162	0.246
-574.719	9.013	-0.410	-0.309
-573.704	-26.054	-0.034	-0.020
-572.690	66.269	-0.148	0.150
-571.675	-56.355	-0.119	0.053
-570.661	41.045	0.117	0.105
-569.646	-127.195	-0.301	0.044
-568.631	800.000	0.030	0.098
-567.617	-101.217	-0.193	0.047
-566.602	55.465	-0.093	0.090
-565.588	-200.000	-0.018	-0.238
-564.573	800.000	-0.073	-0.223
-563.558	-73.404	0.192	0.070
-562.544	656.103	0.057	0.145
-561.529	-37.781	-0.118	-0.063
-560.515	-97.141	0.292	-0.076
-559.500	94.600	0.267	-0.303
-558.485	12.600	-0.130	-0.100
-557.471	-28.593	0.275	0.158
-556.456	121.710	0.133	-0.166
-555.442	-115.849	0.186	-0.035
-554.427	74.866	-0.259	0.272
-553.412	-55.875	0.157	0.070
-552.398	286.018	-0.061	-0.109
-551.383	-176.489	0.037	-0.001
-550.369	33.659	-0.213	-0.185
-549.354	-47.100	-0.136	-0.066
-548.339	126.244	0.140	-0.177
-547.325	443.346	-0.040	0.087
-546.310	-99.710	0.177	-0.044
-545.296	-132.257	-0.411	-0.053
-544.281	563.912	0.023	0.056
-543.266	-181.855	-0.183	0.003
-542.252	-23.732	-0.139	-0.083
-541.237	-200.000	0.006	-0.540
-540.223	84.672	0.171	-0.187
-539.208	329.408	-0.118	-0.226
-538.193	-92.398	0.225	0.063
-537.179	-200.000	-0.009	-0.167
-536.164	-200.000	0.018	0.187
-535.150	55.634	-0.181	0.174
-534.135	-127.522	0.042	0.006
-533.121	88.520	0.190	-0.210
-532.106	-123.372	-0.265	-0.042
-531.091	134.522	0.115	0.148
-530.077	-157.262	-0.204	0.012
-529.062	-30.283	-0.125	-0.071
-528.048	111.505	0.036	0.043
-527.033	-133.568	-0.408	-0.051
-526.018	800.000	-0.065	0.193
-525.004	41.871	-0.086	0.078
-523.989	164.480	0.041	-0.058
-522.975	-81.548	0.093	-0.030
-521.960	72.196	0.172	-0.179
-520.945	-144.748	-0.224	0.021
-519.931	-160.061	-0.393	0.021
-518.916	16.102	0.094	-0.074
-517.902	532.875	0.068	0.160
-516.887	-142.034	-0.227	0.022
-515.872	-25.453	0.313	-0.184
-514.858	273.313	-0.167	0.294
-513.843	7.027	0.178	0.132
-512.829	-118.147	0.235	0.042
-511.814	25.343	-0.158	0.130
-510.799	-200.000	-0.009	0.115
-509.785	-197.601	0.123	-0.001
-508.770	-140.763	0.135	-0.014
-507.756	-18.294	-0.161	0.100
-506.741	-75.506	-0.220	0.078
-505.726	-11.140	0.337	-0.221
-504.712	12.071	-0.059	0.045
-503.697	-19.623	0.060	-0.037
-502.683	19.719	0.110	0.088
-501.668	-134.422	0.367	0.045
-500.653	800.000	-0.043	-0.131
-499.639	-8.233	-0.254	0.170
-498.624	-69.284	0.174	-0.066
-497.610	-20.863	-0.287	-0.175
-496.595	-200.000	-0.021	-0.176
-495.581	-23.399	0.192	-0.115
-494.566	-152.773	-0.320	0.023
-493.551	-135.463	-0.331	-0.039
-492.537	-90.858	-0.304	0.087
-491.522	-46.889	0.103	0.050
-490.508	-44.951	-0.277	-0.137
-489.493	33.967	-0.237	0.205
-488.478	-76.117	0.248	-0.087
-487.464	-72.131	-0.234	-0.086
-486.449	-200.000	0.011	-0.128
-485.435	42.084	0.081	0.073
-484.420	623.766	0.056	0.140
-483.405	135.075	0.069	0.089
-482.391	-9.865	-0.100	0.066
-481.376	-76.115	-0.090	0.032
-480.362	234.429	0.166	0.272
-479.347	-200.000	0.008	-0.170
-478.332	513.127	-0.183	-0.425
-477.318	-15.789	-0.204	-0.129
-476.303	-200.000	0.027	0.189
-475.289	-180.044	0.190	-0.004
-474.274	-161.249	0.349	0.018
-473.259	-123.279	-0.146	-0.023
-472.245	-66.941	0.066	-0.026
-471.230	800.000	-0.037	0.136
-470.216	266.015	0.115	0.199
-469.201	-125.101	-0.289	0.044
-468.186	-152.728	0.066	0.005
-467.172	-200.000	0.002	-0.163
-466.157	-200.000	-0.050	-0.252
-465.143	-200.000	-0.033	0.223
-464.128	-104.679	-0.197	0.045
-463.113	-103.732	0.106	0.025
-462.099	-159.201	-0.094	-0.005
-461.084	271.733	-0.142	-0.248
-460.070	135.292	0.217	0.280
-459.055	772.644	0.111	0.300
-458.040	-46.634	0.133	-0.065
-457.026	316.122	0.095	-0.177
-456.011	372.136	-0.034	0.069
-454.997	-74.760	0.338	0.121
-453.982	58.405	-0.235	-0.229
-452.968	286.659	-0.229	-0.411
-451.953	176.970	0.115	-0.167
-450.938	-67.314	-0.263	0.103
-449.924	800.000	-0.080	-0.308
-448.909	15.340	0.052	-0.041
-447.895	-200.000	-0.001	-0.054
-446.880	-78.928	0.226	0.077
-445.865	800.000	0.052	0.215
-444.851	-93.037	0.106	-0.029
-443.836	800.000	-0.156	-0.506
-442.822	-116.680	-0.302	-0.055
-441.807	-75.367	0.310	0.110
-440.792	800.000	0.073	0.315
-439.778	91.498	-0.200	0.223
-438.763	22.942	-0.177	-0.144
-437.749	23.014	0.102	0.083
-436.734	800.000	0.032	-0.095
-435.719	-11.121	-0.557	-0.365
-434.705	-168.839	0.142	0.005
-433.690	221.354	0.073	0.117
-432.676	-200.000	-0.045	0.348
-431.661	800.000	-0.053	0.221
-430.646	-152.334	0.236	0.017
-429.632	239.905	0.039	0.065
-428.617	309.666	0.220	0.408
-427.603	800.000	0.126	-0.359
-426.588	800.000	0.031	0.131
-425.573	186.787	-0.092	0.137
-424.559	-200.000	-0.016	0.118
-423.544	-152.762	-0.125	0.009
-422.530	-200.000	0.075	0.344
-421.515	-136.015	0.035	0.004
-420.500	800.000	-0.051	0.147
-419.486	102.590	-0.180	0.209
-418.471	800.000	-0.121	-0.331
-417.457	-97.923	-0.089	0.023
-416.442	-200.000	0.024	-0.173
-415.428	-53.897	-0.310	0.140
-414.413	443.169	-0.101	0.219
-413.398	204.530	-0.078	0.120
-412.384	30.443	-0.161	-0.136
-411.369	184.367	0.114	0.168
-410.355	-49.334	0.246	-0.117
-409.340	140.251	0.195	0.255
-408.325	59.029	0.143	-0.140
-407.311	-66.054	-0.143	0.057
-406.296	-107.796	-0.190	0.041
-405.282	634.628	0.077	0.194
-404.267	-65.307	-0.164	-0.065
-403.252	71.066	-0.138	0.142
-402.238	-137.772	0.041	-0.005
-401.223	409.346	0.214	-0.450
-400.209	-96.833	-0.305	0.079
-399.194	800.000	0.052	0.160
-398.179	-200.000	0.035	0.271
-397.165	-45.297	0.377	-0.185
-396.150	2.008	-0.195	0.139
-395.136	-122.054	-0.255	0.041
-394.121	800.000	0.014	0.044
-393.106	-9.775	-0.123	0.081
-392.092	-200.000	0.004	0.150
-391.077	-200.000	0.010	-0.086
-390.063	538.545	-0.147	0.347
-389.048	-182.657	0.358	0.006
-388.033	-200.000	0.002	-0.040
-387.019	7.823	0.145	0.108
-386.004	-200.000	-0.061	-0.339
-384.990	-200.000	0.016	0.157
-383.975	-21.087	0.135	0.082
-382.960	-200.000	0.006	-0.160
-381.946	-84.162	-0.023	-0.007
-380.931	800.000	-0.049	0.193
-379.917	-71.520	0.162	0.060
-378.902	-77.400	-0.206	-0.071
-377.888	-200.000	0.012	-0.143
-376.873	-200.000	0.028	-0.144
-375.858	-43.030	-0.127	-0.064
-374.844	-186.155	0.077	0.001
-373.829	137.635	0.033	-0.043
-372.815	0.474	-0.063	0.045
-371.800	800.000	0.108	-0.301
-370.785	-33.908	-0.028	-0.015
-369.771	-200.000	0.037	-0.270
-368.756	297.647	0.229	0.417
-367.742	541.099	-0.109	0.258
-366.727	-200.000	-0.015	0.165
-365.712	800.000	-0.079	0.301
-364.698	73.086	0.138	0.142
-363.683	29.305	0.088	-0.074
-362.669	-102.328	-0.027	-0.006
-361.654	312.790	0.177	0.329
-360.639	-55.124	-0.120	0.054
-359.625	-45.252	-0.232	0.114
-358.610	53.904	0.197	-0.187
-357.596	-74.154	-0.108	0.039
-356.581	800.000	-0.094	-0.301
-355.566	-200.000	0.074	0.428
-354.552	-200.000	-0.007	0.307
-353.537	-94.398	0.645	0.174
-352.523	800.000	-0.088	0.307
-351.508	2.867	0.203	-0.146
-350.493	-106.674	0.103	0.023
-349.479	-148.287	0.184	-0.015
-348.464	-200.000	-0.032	-0.271
-347.450	13.531	-0.095	0.073
-346.435	143.038	-0.051	0.067
-345.420	-200.000	0.019	-0.135
-344.406	-129.575	0.373	0.051
-343.391	-14.659	0.133	0.085
-342.377	-167.809	-0.196	0.008
-341.362	-183.845	0.176	0.003
-340.348	-21.540	-0.142	0.086
-339.333	800.000	0.022	0.066
-338.318	-116.790	-0.130	0.024
-337.304	800.000	-0.030	0.126
-336.289	-200.000	0.024	0.180
-335.275	-120.965	-0.104	0.017
-334.260	123.168	0.144	-0.178
-333.245	-79.677	0.146	0.049
-332.231	30.904	0.156	0.132
-331.216	-15.176	-0.287	0.181
-330.202	212.632	0.158	-0.246
-329.187	-11.793	0.144	-0.094
-328.172	264.667	0.092	-0.158
-327.158	8.774	-0.056	-0.042
-326.143	-85.211	-0.149	-0.046
-325.129	-200.000	0.022	-0.181
-324.114	258.608	-0.040	-0.068
-323.099	-200.000	0.058	0.327
-322.085	800.000	-0.014	0.057
-321.070	-64.841	-0.429	0.171
-320.056	330.198	-0.122	-0.232
-319.041	-71.272	-0.111	-0.041
-318.026	-170.631	-0.154	0.005
-317.012	800.000	0.117	0.334
-315.997	-70.483	-0.201	0.075
-314.983	-139.051	-0.105	-0.011
-313.968	267.441	-0.120	-0.207
-312.953	75.029	-0.071	0.074
-311.939	-200.000	0.027	-0.225
-310.924	171.073	-0.111	-0.157
-309.910	-52.878	-0.014	0.006
-308.895	-110.701	-0.119	0.024
-307.880	-125.256	0.226	0.034
-306.866	-124.314	-0.132	0.020
-305.851	-200.000	0.036	-0.260
-304.837	166.110	0.221	-0.309
-303.822	146.404	0.222	0.294
-302.807	187.820	0.233	0.344
-301.793	-200.000	0.015	0.183
-300.778	264.090	-0.140	0.240
-299.764	-200.000	-0.002	-0.109
-298.749	800.000	0.041	-0.148
-297.735	67.777	0.115	-0.116
-296.720	217.186	-0.090	-0.142
-295.705	-117.049	0.313	-0.056
-294.691	52.419	-0.175	-0.165
-293.676	-98.063	-0.057	0.014
-292.662	-200.000	0.036	-0.173
-291.647	277.921	-0.037	-0.065
-290.632	533.825	-0.033	-0.076
-289.618	-128.294	0.041	-0.006
-288.603	147.761	0.139	0.185
-287.589	76.936	-0.138	-0.145
-286.574	102.648	0.072	0.083
-285.559	77.171	-0.208	0.219
-284.545	482.295	0.015	-0.034
-283.530	-42.596	0.288	0.145
-282.516	76.805	-0.269	0.281
-281.501	399.052	0.027	0.055
-280.486	-99.334	-0.293	-0.073
-279.472	41.941	-0.109	0.098
-278.457	-160.819	-0.102	0.005
-277.443	219.043	0.064	0.100
-276.428	164.194	-0.111	0.154
-275.413	166.672	0.080	0.112
-274.399	115.673	-0.051	-0.061
-273.384	160.872	-0.149	-0.206
-272.370	12.963	-0.145	-0.111
-271.355	17.380	-0.179	0.141
-270.340	16.415	0.240	0.187
-269.326	102.404	-0.061	0.070
-268.311	-50.512	0.149	0.069
-267.297	-200.000	-0.049	0.506
-266.282	-64.950	0.207	-0.083
-265.267	164.388	-0.152	-0.211
-264.253	50.704	-0.152	0.142
-263.238	13.049	-0.185	0.141
-262.224	-8.216	-0.068	0.045
-261.209	-200.000	-0.000	-0.137
-260.195	299.597	0.070	0.127
-259.180	498.212	0.033	-0.076
-258.165	94.723	-0.120	0.134
-257.151	800.000	-0.027	-0.110
-256.136	-145.934	-0.073	-0.006
-255.122	-125.630	-0.129	-0.019
-254.107	-78.448	-0.174	0.059
-253.092	-166.983	0.241	-0.010
-252.078	-62.869	0.306	0.125
-251.063	-200.000	0.084	0.430
-250.049	301.104	0.104	0.190
-249.034	71.978	-0.080	-0.082
-248.019	-58.570	-0.308	-0.132
-247.005	-200.000	0.007	0.240
-245.990	361.376	0.056	-0.111
-244.976	-116.167	-0.280	-0.051
-243.961	-105.453	0.188	0.042
-242.946	292.607	-0.046	-0.082
-241.932	-136.764	0.235	0.027
-240.917	-110.843	-0.221	0.045
-239.903	242.293	0.155	-0.255
-238.888	21.615	-0.101	0.081
-237.873	167.635	-0.085	0.119
-236.859	-200.000	0.013	-0.085
-235.844	302.756	0.096	0.175
-234.830	-81.997	0.235	0.076
-233.815	-200.000	-0.014	-0.174
-232.800	308.767	-0.047	-0.087
-231.786	-65.901	0.250	0.098
-230.771	-144.769	0.153	-0.014
-229.757	800.000	0.030	-0.098
-228.742	406.003	0.112	-0.233
-227.727	-200.000	-0.016	-0.190
-226.713	-94.575	0.236	-0.063
-225.698	-66.086	0.258	-0.101
-224.684	-88.498	-0.144	-0.042
-223.669	229.853	-0.144	-0.231
-222.655	800.000	0.038	-0.158
-221.640	38.355	-0.218	-0.192
-220.625	-177.267	0.270	-0.007
-219.611	-57.751	0.276	-0.119
-218.596	115.954	-0.051	0.062
-217.582	16.278	-0.227	0.176
-216.567	-200.000	-0.017	-0.122
-215.552	-200.000	-0.001	0.073
-214.538	-55.842	0.051	-0.022
-213.523	-129.978	-0.275	-0.037
-212.509	86.035	0.225	0.244
-211.494	189.589	-0.138	-0.204
-210.479	356.606	0.125	-0.246
-209.465	67.767	-0.197	0.198
-208.450	19.960	0.167	0.132
-207.436	672.767	-0.070	0.179
-206.421	331.009	0.184	-0.350
-205.406	210.652	0.151	-0.233
-204.392	-74.934	-0.417	0.147
-203.377	-68.040	0.408	-0.156
-202.363	-69.327	0.215	-0.081
-201.348	-200.000	0.005	-0.049
-200.333	-200.000	-0.046	-0.371
-199.319	-8.044	0.203	0.134
-198.304	97.940	-0.126	-0.142
-197.290	-141.119	0.155	-0.016
-196.275	224.615	0.136	-0.217
-195.260	-12.886	0.189	0.121
-194.246	158.265	0.181	0.247
-193.231	-146.475	0.142	-0.012
-192.217	-57.272	0.170	0.073
-191.202	-5.249	-0.204	0.138
-190.187	-79.228	0.202	0.067
-189.173	304.580	0.028	-0.052
-188.158	800.000	0.019	0.078
-187.144	-200.000	-0.008	-0.219
-186.129	-18.654	-0.372	0.228
-185.114	70.859	-0.262	-0.267
-184.100	41.510	0.307	-0.273
-183.085	-200.000	0.010	-0.089
-182.071	-200.000	-0.052	-0.230
-181.056	-23.845	0.182	0.107
-180.042	257.789	0.122	-0.206
-179.027	-8.397	0.403	-0.267
-178.012	800.000	0.049	-0.207
-176.998	513.909	0.069	0.159
-175.983	-200.000	-0.018	-0.330
-174.969	253.317	-0.158	-0.264
-173.954	-87.460	-0.311	-0.092
-172.939	-48.331	-0.038	0.018
-171.925	672.168	0.148	0.377
-170.910	670.447	-0.080	-0.203
-169.896	-200.000	0.024	0.166
-168.881	800.000	-0.104	-0.361
-167.866	227.081	-0.061	-0.097
-166.852	-157.829	0.487	-0.028
-165.837	246.889	0.206	0.342
-164.823	-80.985	-0.203	0.066
-163.808	-200.000	-0.052	-0.263
-162.793	-200.000	0.018	0.106
-161.779	-200.000	0.009	0.208
-160.764	-25.519	0.267	-0.155
-159.750	-58.443	-0.069	0.030
-158.735	-200.000	-0.006	-0.153
-157.720	347.726	-0.030	-0.057
-156.706	-200.000	-0.016	0.205
-155.691	800.000	0.092	-0.377
-154.677	-200.000	-0.032	-0.255
-153.662	-200.000	0.017	0.122
-152.647	213.084	0.175	-0.271
-151.633	-25.806	-0.098	-0.057
-150.618	135.676	0.054	-0.069
-149.604	83.235	0.106	-0.113
-148.589	-29.327	-0.291	-0.163
-147.574	445.418	-0.028	-0.059
-146.560	-38.896	-0.128	0.066
-145.545	-39.930	-0.159	0.082
-144.531	7.364	0.146	0.107
-143.516	-27.466	0.267	0.152
-142.502	800.000	-0.040	0.149
-141.487	800.000	-0.023	0.075
-140.472	156.836	0.110	-0.149
-139.458	-200.000	-0.004	-0.061
-138.443	716.325	-0.031	-0.082
-137.429	4.403	-0.309	0.222
-136.414	-200.000	-0.020	-0.090
-135.399	241.827	0.092	-0.150
-134.385	10.605	0.193	0.144
-133.370	316.143	-0.068	0.126
-132.356	18.241	0.184	0.144
-131.341	800.000	-0.055	0.236
-130.326	-84.609	0.080	0.025
-129.312	309.048	0.074	0.137
-128.297	506.713	0.096	-0.218
-127.283	-181.892	-0.130	-0.002
-126.268	800.000	-0.154	-0.426
-125.253	-164.826	0.257	-0.011
-124.239	-82.593	-0.211	-0.067
-123.224	120.976	-0.113	0.138
-122.210	326.140	0.140	-0.262
-121.195	-67.933	0.360	-0.138
