DTS Sentinel unit serial number:	SN413079Multiplexer serial number:	ORYXHardware model number:	OX4-SRSoftware version number:	ORYX F/W v4.00 Oryx Data Collector v3.7.2.0data status	okinstallation	princeton_trtdifferential loss correction	single-endedforward channel	channel 2reverse channel	N/Adate	2019/09/19time	08:43:34forward acquisition time	60.00reverse acquisition time	0.00gamma	496.2192k internal	0.2353k external	0.2353temperature offset calibration	1.0003default loss term (dB/km)	0.3790temperature slope calibration	1.0000multiplexer offset coefficient	1.0000multiplexer slope coefficient	1.0000fibre end	0.00T internal ref (°C)	21.00T ext. ref 1 (°C)	0.58T ext. ref 2 (°C)	16.62length (m)	temperature (°C)	Stokes	anti-Stokes-747.200	-6.792	-0.101	0.069
-746.185	-92.371	-0.349	-0.098
-745.171	-145.234	0.143	0.013
-744.156	-188.777	0.249	-0.003
-743.142	-181.563	0.308	0.006
-742.127	79.903	-0.279	0.299
-741.112	800.000	-0.025	-0.075
-740.098	241.346	-0.134	0.224
-739.083	-200.000	0.041	-0.278
-738.069	-200.000	-0.048	0.293
-737.054	66.071	0.055	-0.055
-736.039	195.454	0.100	0.152
-735.025	-94.352	-0.173	-0.047
-734.010	-81.469	-0.187	-0.061
-732.996	-99.456	-0.284	-0.071
-731.981	24.579	0.319	0.263
-730.966	68.324	-0.209	0.214
-729.952	8.006	-0.150	0.112
-728.937	-86.204	0.123	-0.038
-727.923	-200.000	-0.004	-0.136
-726.908	50.764	0.147	-0.138
-725.894	250.527	-0.081	-0.137
-724.879	21.977	-0.213	0.173
-723.864	-86.492	-0.090	-0.028
-722.850	39.578	0.186	0.167
-721.835	712.886	0.112	0.297
-720.821	-200.000	0.028	-0.159
-719.806	800.000	0.025	-0.075
-718.791	-48.589	-0.268	0.128
-717.777	800.000	0.034	0.136
-716.762	-104.927	-0.044	0.010
-715.748	-106.739	-0.080	0.018
-714.733	88.933	0.342	-0.379
-713.718	-200.000	-0.008	-0.205
-712.704	-103.957	0.209	-0.048
-711.689	-113.866	0.460	-0.089
-710.675	394.012	0.078	0.162
-709.660	800.000	-0.072	-0.238
-708.645	-67.821	-0.060	-0.023
-707.631	-200.000	0.012	0.413
-706.616	164.968	0.243	-0.341
-705.602	-75.081	-0.148	0.053
-704.587	54.745	0.145	-0.140
-703.572	-46.798	0.417	0.203
-702.558	149.084	0.056	-0.075
-701.543	389.798	0.089	-0.184
-700.529	312.355	-0.045	-0.085
-699.514	-200.000	-0.012	0.120
-698.499	800.000	-0.097	0.333
-697.485	21.144	-0.174	-0.140
-696.470	800.000	-0.088	0.345
-695.456	218.492	0.110	0.176
-694.441	800.000	-0.071	0.257
-693.426	6.704	0.185	0.137
-692.412	340.078	-0.090	0.175
-691.397	251.877	0.120	0.203
-690.383	800.000	-0.116	0.427
-689.368	345.533	0.059	-0.115
-688.354	99.116	-0.177	-0.203
-687.339	-14.583	0.071	0.045
-686.324	-200.000	0.017	0.135
-685.310	277.796	0.115	-0.203
-684.295	-200.000	0.035	0.192
-683.281	229.024	0.117	-0.189
-682.266	-103.440	0.310	-0.072
-681.251	-146.157	-0.207	-0.018
-680.237	-152.257	0.411	0.030
-679.222	-200.000	0.015	0.084
-678.208	-200.000	-0.011	-0.189
-677.193	-200.000	0.006	0.248
-676.178	-133.420	-0.120	0.015
-675.164	-90.492	-0.335	0.097
-674.149	282.564	0.140	-0.249
-673.135	4.891	0.096	-0.070
-672.120	-109.141	0.232	-0.049
-671.105	29.826	0.241	0.204
-670.091	318.007	0.110	0.208
-669.076	800.000	-0.024	-0.083
-668.062	157.977	-0.199	-0.274
-667.047	746.989	-0.076	-0.203
-666.032	76.651	-0.072	-0.076
-665.018	-104.495	0.238	-0.055
-664.003	-140.562	0.006	0.001
-662.989	490.294	0.172	0.392
-661.974	-22.294	-0.299	0.180
-660.959	30.236	-0.127	-0.108
-659.945	-49.838	-0.203	-0.096
-658.930	35.820	0.183	-0.159
-657.916	-140.275	-0.157	0.016
-656.901	94.559	0.100	0.112
-655.886	800.000	-0.032	0.120
-654.872	221.093	-0.085	-0.136
-653.857	-200.000	0.014	-0.073
-652.843	-200.000	0.077	-0.376
-651.828	-196.521	-0.314	0.002
-650.814	-42.558	-0.374	0.189
-649.799	21.011	-0.136	0.110
-648.784	-41.562	0.257	-0.131
-647.770	126.558	0.131	-0.164
-646.755	8.074	0.350	0.261
-645.741	-200.000	0.030	0.285
-644.726	117.256	-0.036	0.044
-643.711	72.409	-0.018	-0.019
-642.697	-110.191	-0.231	0.048
-641.682	-26.459	-0.264	-0.153
-640.668	800.000	0.062	-0.238
-639.653	-93.052	0.065	0.018
-638.638	62.543	-0.130	0.129
-637.624	-52.920	-0.129	-0.059
-636.609	-162.853	-0.213	-0.010
-635.595	126.832	0.051	-0.064
-634.580	83.844	0.228	-0.248
-633.565	183.533	-0.038	-0.056
-632.551	-195.147	0.029	-0.000
-631.536	800.000	0.060	0.176
-630.522	-56.077	-0.116	-0.051
-629.507	55.400	-0.164	-0.157
-628.492	800.000	-0.146	-0.434
-627.478	70.324	-0.193	-0.198
-626.463	266.494	0.113	-0.196
-625.449	800.000	0.038	0.108
-624.434	560.933	0.040	-0.096
-623.419	-66.316	-0.137	-0.054
-622.405	35.567	-0.074	0.064
-621.390	-200.000	0.021	-0.201
-620.376	-200.000	0.074	-0.328
-619.361	-200.000	0.004	-0.109
-618.346	-158.963	0.065	0.004
-617.332	-49.077	-0.041	-0.019
-616.317	-76.485	-0.216	-0.075
-615.303	-200.000	-0.031	0.138
-614.288	6.500	-0.066	0.049
-613.273	33.804	0.201	-0.174
-612.259	-198.080	-0.163	-0.001
-611.244	-71.583	0.151	-0.056
-610.230	-80.243	0.507	0.168
-609.215	278.343	-0.039	-0.069
-608.201	-97.663	0.145	0.037
-607.186	-5.449	0.183	0.124
-606.171	-146.186	-0.387	-0.034
-605.157	-117.666	0.162	0.029
-604.142	37.152	0.152	-0.134
-603.128	-169.168	0.461	0.017
-602.113	800.000	-0.084	-0.303
-601.098	12.048	-0.104	0.079
-600.084	-200.000	-0.008	0.160
-599.069	-161.524	0.108	0.006
-598.055	-7.935	-0.082	-0.055
-597.040	-55.220	0.165	0.074
-596.025	160.012	-0.079	-0.109
-595.011	-28.695	-0.096	-0.055
-593.996	786.237	-0.114	-0.309
-592.982	29.748	0.063	-0.053
-591.967	-200.000	-0.008	0.147
-590.952	-39.673	0.071	0.037
-589.938	-200.000	-0.010	0.065
-588.923	-123.064	0.309	-0.049
-587.909	-200.000	0.096	-0.559
-586.894	26.808	0.090	0.074
-585.879	-80.102	0.172	0.057
-584.865	-123.899	0.259	0.041
-583.850	800.000	-0.040	-0.156
-582.836	-200.000	0.010	-0.183
-581.821	-70.470	-0.233	-0.088
-580.806	-98.434	0.290	0.073
-579.792	52.368	-0.265	0.251
-578.777	608.312	-0.154	-0.380
-577.763	79.892	0.186	-0.198
-576.748	-79.377	-0.408	-0.137
-575.733	-163.071	0.126	0.006
-574.719	13.391	0.186	0.143
-573.704	164.520	0.157	-0.219
-572.690	-123.631	-0.114	0.018
-571.675	-11.823	-0.304	-0.197
-570.661	-8.275	0.252	0.168
-569.646	617.722	0.024	-0.058
-568.631	-200.000	-0.027	-0.188
-567.617	11.291	0.368	-0.279
-566.602	-103.177	-0.371	0.087
-565.588	-45.404	0.170	0.083
-564.573	323.470	0.106	0.201
-563.558	-200.000	0.018	0.298
-562.544	107.784	-0.054	0.063
-561.529	117.664	-0.314	0.382
-560.515	800.000	0.075	0.208
-559.500	-151.290	0.051	0.004
-558.485	134.278	0.100	0.129
-557.471	-17.785	-0.383	-0.238
-556.456	-145.777	0.081	0.007
-555.442	156.735	-0.185	-0.252
-554.427	-194.438	0.389	-0.003
-553.412	800.000	0.058	0.207
-552.398	-96.963	-0.189	-0.049
-551.383	-200.000	0.028	-0.146
-550.369	-153.639	-0.207	0.014
-549.354	800.000	0.040	0.169
-548.339	-127.394	-0.245	0.035
-547.325	16.456	0.340	-0.266
-546.310	-200.000	-0.027	-0.342
-545.296	-46.514	-0.424	0.206
-544.281	-200.000	0.033	-0.184
-543.266	-112.965	-0.115	0.022
-542.252	-156.012	0.215	-0.013
-541.237	322.739	0.138	-0.260
-540.223	-80.283	0.369	0.122
-539.208	-75.023	-0.131	0.046
-538.193	-200.000	0.019	0.332
-537.179	-144.219	0.192	0.018
-536.164	-55.090	-0.297	0.132
-535.150	-85.768	0.230	0.071
-534.135	800.000	-0.045	-0.164
-533.121	-200.000	-0.011	0.254
-532.106	-200.000	-0.017	0.253
-531.091	310.527	-0.220	-0.408
-530.077	-33.629	0.147	0.080
-529.062	-20.265	0.106	0.064
-528.048	75.469	-0.093	-0.097
-527.033	-35.519	0.115	-0.062
-526.018	-166.299	-0.231	-0.010
-525.004	399.758	-0.148	-0.306
-523.989	-172.978	-0.344	-0.011
-522.975	800.000	0.085	0.245
-521.960	15.190	0.182	0.141
-520.945	-9.982	0.183	-0.120
-519.931	-98.298	0.210	0.053
-518.916	-41.841	-0.257	0.130
-517.902	261.297	-0.153	0.263
-516.887	-24.146	-0.242	0.143
-515.872	800.000	0.017	-0.071
-514.858	420.263	-0.097	0.206
-513.843	236.366	0.113	-0.185
-512.829	-200.000	-0.025	-0.177
-511.814	17.162	0.231	-0.181
-510.799	800.000	-0.105	0.333
-509.785	-200.000	-0.015	-0.287
-508.770	-146.442	0.206	0.018
-507.756	-41.925	-0.249	0.126
-506.741	-200.000	-0.021	0.163
-505.726	800.000	-0.019	-0.066
-504.712	197.429	0.103	-0.155
-503.697	112.860	-0.153	-0.183
-502.683	178.267	-0.083	0.119
-501.668	-200.000	0.025	0.220
-500.653	87.986	0.233	0.256
-499.639	541.057	-0.027	0.064
-498.624	-200.000	0.012	0.081
-497.610	303.298	-0.096	0.176
-496.595	-46.704	0.070	0.034
-495.581	409.458	-0.072	0.150
-494.566	-65.926	0.105	-0.042
-493.551	800.000	-0.056	0.173
-492.537	-28.262	-0.061	-0.035
-491.522	-200.000	-0.017	-0.290
-490.508	800.000	-0.003	0.014
-489.493	-113.041	-0.210	-0.041
-488.478	55.522	0.104	0.100
-487.464	-114.735	-0.103	-0.019
-486.449	609.332	-0.139	-0.343
-485.435	-116.109	-0.269	0.049
-484.420	-92.288	-0.161	0.045
-483.405	288.360	-0.058	0.103
-482.391	0.410	0.137	0.097
-481.376	-200.000	-0.005	-0.146
-480.362	800.000	0.051	-0.214
-479.347	-163.820	0.519	-0.024
-478.332	-64.720	-0.474	0.190
-477.318	54.622	0.166	0.158
-476.303	-30.002	0.327	0.184
-475.289	76.833	-0.329	0.344
-474.274	-59.955	0.194	0.082
-473.259	442.807	0.095	0.206
-472.245	-139.974	0.233	0.024
-471.230	-93.375	-0.162	-0.044
-470.216	-70.185	0.114	-0.043
-469.201	-26.674	-0.112	-0.065
-468.186	120.736	-0.042	-0.052
-467.172	-35.680	-0.209	-0.112
-466.157	172.236	0.087	0.124
-465.143	74.548	0.130	0.135
-464.128	-95.947	-0.145	0.038
-463.113	-187.630	-0.214	-0.003
-462.099	680.489	0.063	-0.161
-461.084	108.205	-0.138	0.162
-460.070	-200.000	-0.015	-0.104
-459.055	-58.966	0.117	0.050
-458.040	-64.822	0.248	0.099
-457.026	-200.000	-0.002	-0.148
-456.011	87.210	0.131	0.143
-454.997	538.411	-0.035	-0.082
-453.982	-200.000	0.061	-0.282
-452.968	34.736	0.146	-0.126
-451.953	-32.729	-0.256	0.140
-450.938	29.966	0.270	0.227
-449.924	637.238	0.084	0.211
-448.909	-7.432	-0.043	-0.029
-447.895	800.000	0.060	-0.190
-446.880	-200.000	0.003	-0.188
-445.865	800.000	-0.101	-0.350
-444.851	-67.974	0.091	0.035
-443.836	242.335	-0.178	-0.293
-442.822	-150.416	0.304	0.023
-441.807	-200.000	0.071	-0.348
-440.792	10.719	-0.095	0.072
-439.778	-200.000	0.020	0.390
-438.763	304.548	-0.140	-0.257
-437.749	-200.000	-0.006	0.067
-436.734	-175.774	0.125	0.003
-435.719	46.038	0.128	0.117
-434.705	-200.000	0.014	0.215
-433.690	800.000	0.023	-0.087
-432.676	-38.802	0.260	-0.135
-431.661	608.341	0.080	0.197
-430.646	-21.170	0.146	-0.088
-429.632	-161.785	-0.108	-0.005
-428.617	-82.188	-0.156	0.050
-427.603	-181.437	0.134	-0.003
-426.588	3.347	0.269	-0.193
-425.573	-123.772	-0.333	-0.052
-424.559	-32.740	0.218	-0.119
-423.544	800.000	0.097	0.352
-422.530	-200.000	0.010	-0.227
-421.515	-9.613	-0.189	-0.124
-420.500	-106.576	-0.208	0.046
-419.486	-188.134	0.054	0.001
-418.471	63.379	0.216	0.213
-417.457	107.835	0.134	0.157
-416.442	-200.000	-0.003	-0.046
-415.428	800.000	-0.085	0.281
-414.413	-169.790	-0.631	-0.022
-413.398	420.950	-0.023	-0.048
-412.384	-29.723	-0.074	-0.041
-411.369	-200.000	0.018	0.243
-410.355	-200.000	0.004	0.130
-409.340	-29.233	-0.155	-0.087
-408.325	-100.844	-0.097	0.023
-407.311	-38.679	0.398	0.207
-406.296	108.092	-0.083	-0.097
-405.282	53.377	0.157	-0.149
-404.267	135.559	0.102	0.131
-403.252	216.950	-0.124	0.194
-402.238	-13.804	0.233	0.148
-401.223	291.170	-0.134	0.239
-400.209	55.075	0.148	0.141
-399.194	45.368	0.045	-0.041
-398.179	363.086	0.033	-0.065
-397.165	-173.969	-0.294	-0.009
-396.150	74.577	0.183	0.190
-395.136	-200.000	-0.040	0.196
-394.121	-17.290	0.130	-0.081
-393.106	800.000	0.141	0.444
-392.092	37.761	-0.231	-0.201
-391.077	120.852	-0.069	-0.084
-390.063	53.759	0.244	0.230
-389.048	222.410	-0.113	0.180
-388.033	234.120	0.096	-0.155
-387.019	800.000	0.067	-0.247
-386.004	-200.000	0.032	-0.196
-384.990	-83.846	0.231	0.072
-383.975	-108.478	-0.351	-0.074
-382.960	-200.000	-0.004	0.093
-381.946	170.462	-0.056	-0.079
-380.931	220.807	0.091	0.144
-379.917	-29.106	0.230	-0.130
-378.902	188.168	0.232	0.341
-377.888	-74.946	-0.175	0.062
-376.873	19.986	-0.071	-0.057
-375.858	402.684	-0.009	-0.018
-374.844	-200.000	-0.041	-0.189
-373.829	-124.086	-0.117	-0.018
-372.815	-37.793	0.188	-0.099
-371.800	-108.082	-0.147	-0.031
-370.785	-99.262	0.029	0.007
-369.771	53.978	-0.156	0.147
-368.756	316.050	-0.131	0.242
-367.742	800.000	0.083	-0.291
-366.727	800.000	0.014	-0.044
-365.712	-11.666	-0.274	0.177
-364.698	133.871	0.129	-0.164
-363.683	-30.875	0.108	-0.060
-362.669	-124.462	-0.302	-0.046
-361.654	-200.000	0.002	-0.041
-360.639	-138.905	-0.101	0.011
-359.625	-119.880	0.210	0.035
-358.610	-69.346	-0.219	-0.083
-357.596	800.000	-0.142	-0.388
-356.581	-75.557	0.177	0.062
-355.566	-39.538	0.083	-0.043
-354.552	-85.847	0.352	-0.107
-353.537	55.453	0.185	-0.176
-352.523	-66.315	-0.292	0.114
-351.508	800.000	0.059	-0.191
-350.493	-79.657	0.293	-0.097
-349.479	-126.347	0.254	-0.037
-348.464	-97.647	0.332	0.084
-347.450	54.399	-0.310	-0.293
-346.435	235.486	0.153	0.248
-345.420	153.784	0.189	-0.255
-344.406	-22.440	-0.161	-0.096
-343.391	-94.064	-0.174	0.047
-342.377	328.885	0.184	-0.346
-341.362	-200.000	0.048	-0.226
-340.348	-72.712	-0.422	0.153
-339.333	-200.000	0.033	-0.384
-338.318	-178.985	0.165	0.004
-337.304	146.261	0.128	-0.169
-336.289	5.702	-0.248	-0.180
-335.275	779.077	-0.093	-0.250
-334.260	165.128	-0.083	0.115
-333.245	-131.628	-0.277	0.036
-332.231	-33.887	-0.146	-0.079
-331.216	394.606	0.078	-0.160
-330.202	-33.635	0.279	0.151
-329.187	533.264	0.190	-0.441
-328.172	414.475	0.042	-0.088
-327.158	54.445	-0.314	0.297
-326.143	93.038	0.123	0.136
-325.129	-149.275	-0.163	-0.013
-324.114	103.674	-0.282	0.324
-323.099	800.000	0.112	0.404
-322.085	425.777	0.059	-0.125
-321.070	-161.231	-0.120	0.006
-320.056	47.137	0.187	-0.171
-319.041	-44.161	0.274	0.135
-318.026	-20.547	-0.232	-0.140
-317.012	-148.835	0.211	-0.017
-315.997	468.116	0.090	0.198
-314.983	800.000	0.018	0.056
-313.968	641.928	-0.021	0.053
-312.953	154.988	0.014	0.019
-311.939	207.929	0.147	0.225
-310.924	-41.707	0.040	0.020
-309.910	-200.000	0.005	0.079
-308.895	313.970	-0.163	0.301
-307.880	412.496	0.118	-0.246
-306.866	68.125	0.026	0.027
-305.851	584.364	0.028	-0.067
-304.837	-124.715	0.214	0.033
-303.822	24.926	0.130	-0.106
-302.807	99.560	0.176	0.200
-301.793	-97.712	-0.330	0.084
-300.778	-200.000	0.004	-0.211
-299.764	-118.156	-0.324	0.057
-298.749	-22.344	0.216	0.128
-297.735	-188.293	-0.340	-0.004
-296.720	599.750	0.072	0.175
-295.705	-200.000	-0.040	0.331
-294.691	-85.315	0.131	-0.040
-293.676	35.039	0.056	-0.048
-292.662	-132.309	0.089	0.011
-291.647	-95.712	0.168	-0.044
-290.632	135.434	-0.081	-0.104
-289.618	-101.480	0.232	0.055
-288.603	103.043	0.130	-0.149
-287.589	-140.700	-0.301	0.030
-286.574	20.546	-0.049	0.039
-285.559	119.789	0.079	0.096
-284.545	-77.264	-0.388	0.132
-283.530	352.253	-0.083	-0.162
-282.516	465.762	-0.095	0.209
-281.501	800.000	-0.075	-0.254
-280.486	-114.200	0.238	-0.045
-279.472	39.064	-0.231	0.202
-278.457	-34.006	0.182	0.098
-277.443	301.402	0.160	-0.290
-276.428	-200.000	-0.073	0.349
-275.413	133.960	-0.188	0.238
-274.399	-200.000	0.013	0.054
-273.384	10.839	0.314	-0.235
-272.370	86.071	0.196	0.211
-271.355	175.124	0.089	-0.127
-270.340	800.000	0.056	-0.234
-269.326	212.113	0.014	0.022
-268.311	-55.238	0.290	-0.128
-267.297	-81.689	-0.068	0.022
-266.282	54.278	0.303	0.286
-265.267	-200.000	-0.020	0.251
-264.253	640.960	0.091	-0.226
-263.238	-21.374	0.152	0.091
-262.224	-200.000	0.006	0.202
-261.209	202.613	0.035	0.053
-260.195	-107.582	-0.438	-0.094
-259.180	-200.000	0.037	0.289
-258.165	-200.000	-0.009	0.088
-257.151	-129.976	0.298	-0.040
-256.136	-130.404	-0.140	0.019
-255.122	-47.498	-0.377	0.179
-254.107	-200.000	-0.006	-0.041
-253.092	-200.000	-0.037	0.242
-252.078	-89.651	-0.392	0.112
-251.063	72.444	-0.175	-0.178
-250.049	-12.625	0.042	0.027
-249.034	106.976	-0.131	0.153
-248.019	-84.975	0.381	0.117
-247.005	800.000	0.050	0.161
-245.990	47.770	-0.128	0.117
-244.976	-25.512	0.131	-0.076
-243.961	-200.000	0.002	0.050
-242.946	-92.460	0.389	0.107
-241.932	512.344	0.185	0.422
-240.917	208.648	-0.058	0.089
-239.903	-103.063	-0.108	0.025
-238.888	128.047	0.123	-0.153
-237.873	-115.170	0.246	-0.045
-236.859	141.345	-0.092	-0.120
-235.844	-200.000	0.011	0.106
-234.830	-154.964	-0.183	-0.012
-233.815	498.884	-0.151	-0.340
-232.800	-200.000	0.011	-0.250
-231.786	-169.414	-0.430	-0.015
-230.771	129.172	-0.056	-0.070
-229.757	800.000	-0.048	0.156
-228.742	-200.000	0.039	0.229
-227.727	131.237	0.168	-0.211
-226.713	-0.499	-0.286	-0.198
-225.698	99.774	-0.240	0.271
-224.684	800.000	0.034	0.133
-223.669	-200.000	-0.033	-0.204
-222.655	70.607	0.219	-0.221
-221.640	102.260	0.322	0.368
-220.625	-64.393	-0.178	0.071
-219.611	144.688	-0.066	-0.086
-218.596	800.000	0.045	-0.186
-217.582	649.958	0.137	0.342
-216.567	74.901	-0.265	-0.272
-215.552	-61.832	0.256	0.105
-214.538	42.962	0.197	-0.175
-213.523	-168.896	0.260	0.010
-212.509	429.373	-0.137	-0.289
-211.494	9.973	-0.170	0.126
-210.479	-31.978	-0.282	0.154
-209.465	-181.526	-0.118	0.002
-208.450	317.862	-0.126	0.232
-207.436	600.783	-0.039	0.095
-206.421	-121.083	0.446	0.073
-205.406	125.630	0.040	-0.049
-204.392	-200.000	-0.011	0.442
-203.377	-147.517	-0.211	0.017
-202.363	-124.693	-0.291	0.044
-201.348	365.648	0.054	0.106
-200.333	-65.579	-0.073	-0.029
-199.319	-136.299	-0.414	0.047
-198.304	70.847	-0.139	-0.141
-197.290	-112.068	-0.496	0.097
-196.275	-144.509	0.200	0.018
-195.260	-200.000	-0.023	-0.246
-194.246	619.604	-0.025	-0.061
-193.231	-69.180	-0.348	0.131
-192.217	129.330	0.155	0.193
-191.202	-97.082	-0.203	-0.052
-190.187	800.000	0.057	-0.188
-189.173	271.096	-0.145	-0.249
-188.158	-18.943	0.213	-0.129
-187.144	81.136	0.149	0.156
-186.129	-137.222	-0.073	-0.008
-185.114	-43.096	0.029	0.015
-184.100	116.731	0.242	-0.290
-183.085	157.850	-0.162	-0.219
-182.071	-200.000	-0.039	-0.189
-181.056	44.033	-0.206	0.184
-180.042	-75.918	-0.192	0.066
-179.027	451.299	-0.037	-0.081
-178.012	-200.000	0.059	0.302
-176.998	-0.340	0.118	-0.082
-175.983	5.999	-0.051	-0.037
-174.969	573.868	-0.105	-0.249
-173.954	800.000	0.114	0.392
-172.939	800.000	0.022	-0.066
-171.925	800.000	-0.083	-0.255
-170.910	0.003	0.231	0.161
-169.896	-163.556	0.069	-0.003
-168.881	191.669	0.155	-0.228
-167.866	-89.823	0.421	-0.120
-166.852	22.701	0.075	0.060
-165.837	800.000	-0.111	-0.371
-164.823	-123.074	-0.237	0.037
-163.808	800.000	0.092	-0.258
-162.793	-200.000	0.030	-0.153
-161.779	46.156	-0.109	0.099
-160.764	18.561	-0.189	0.147
-159.750	534.976	-0.088	0.203
-158.735	-148.330	-0.135	-0.011
-157.720	-115.986	-0.046	0.008
-156.706	800.000	0.058	0.166
-155.691	173.240	0.026	0.036
-154.677	-200.000	0.029	-0.285
-153.662	-95.811	-0.212	0.055
-152.647	-179.092	-0.135	-0.003
-151.633	71.506	-0.142	0.144
-150.618	74.832	-0.106	-0.109
-149.604	-200.000	-0.027	0.348
-148.589	-54.219	-0.187	0.083
-147.574	-200.000	-0.055	0.505
-146.560	-36.027	-0.215	0.113
-145.545	800.000	-0.046	-0.130
-144.531	-70.037	0.304	-0.113
-143.516	299.793	0.030	0.054
-142.502	-103.055	-0.378	-0.087
-141.487	12.259	0.342	0.256
-140.472	-70.305	0.357	0.132
-139.458	-145.638	0.219	-0.019
-138.443	578.481	-0.145	0.346
-137.429	-29.310	0.047	0.026
-136.414	-200.000	-0.001	0.194
-135.399	800.000	0.049	-0.174
-134.385	194.931	0.074	-0.109
-133.370	800.000	-0.086	-0.237
-132.356	89.166	-0.094	-0.102
-131.341	-200.000	-0.005	0.131
-130.326	49.800	0.339	0.311
-129.312	-200.000	-0.011	-0.211
-128.297	-98.925	0.129	0.032
-127.283	411.173	0.132	-0.272
-126.268	800.000	-0.055	-0.164
-125.253	145.525	0.103	0.134
-124.239	758.032	0.091	0.239
-123.224	-49.478	-0.148	-0.069
-122.210	-85.840	-0.390	0.117
-121.195	114.468	0.044	-0.052
-120.180	258.879	0.110	-0.184
