DTS Sentinel unit serial number:	SN413079Multiplexer serial number:	ORYXHardware model number:	OX4-SRSoftware version number:	ORYX F/W v4.00 Oryx Data Collector v3.7.2.0data status	okinstallation	princeton_trtdifferential loss correction	single-endedforward channel	channel 2reverse channel	N/Adate	2019/09/19time	10:31:35forward acquisition time	60.00reverse acquisition time	0.00gamma	496.2192k internal	0.2342k external	0.2342temperature offset calibration	1.0009default loss term (dB/km)	0.3790temperature slope calibration	1.0000multiplexer offset coefficient	1.0000multiplexer slope coefficient	1.0000fibre end	0.00T internal ref (°C)	24.41T ext. ref 1 (°C)	0.71T ext. ref 2 (°C)	19.80length (m)	temperature (°C)	Stokes	anti-Stokes-747.200	-100.562	0.205	-0.051
-746.185	133.006	-0.177	0.229
-745.171	42.531	-0.223	0.203
-744.156	-200.000	0.032	0.369
-743.142	30.216	0.165	0.141
-742.127	-200.000	-0.015	0.284
-741.112	800.000	-0.071	-0.251
-740.098	138.313	-0.085	0.112
-739.083	800.000	0.063	-0.266
-738.069	368.123	-0.067	0.136
-737.054	207.698	0.105	-0.163
-736.039	800.000	-0.114	-0.349
-735.025	-79.358	0.278	0.094
-734.010	552.624	-0.044	-0.106
-732.996	521.236	-0.134	-0.315
-731.981	-175.168	0.194	-0.005
-730.966	-200.000	-0.023	0.329
-729.952	198.939	0.072	0.110
-728.937	183.224	-0.163	-0.241
-727.923	5.101	-0.309	-0.227
-726.908	794.298	-0.074	0.204
-725.894	-103.013	-0.290	-0.069
-724.879	-181.982	0.054	-0.001
-723.864	681.333	-0.041	0.108
-722.850	-200.000	-0.009	0.061
-721.835	800.000	-0.113	0.366
-720.821	-56.490	-0.446	-0.198
-719.806	-34.891	0.025	0.013
-718.791	230.392	-0.081	-0.133
-717.777	8.754	-0.364	-0.274
-716.762	-200.000	-0.084	-0.557
-715.748	31.180	-0.164	0.141
-714.733	-124.280	0.110	-0.017
-713.718	800.000	-0.066	-0.216
-712.704	79.238	0.276	-0.296
-711.689	-124.545	-0.232	-0.036
-710.675	-51.854	0.301	-0.140
-709.660	272.330	0.061	0.108
-708.645	-105.297	-0.090	-0.021
-707.631	-30.688	0.220	0.125
-706.616	-118.889	-0.269	-0.047
-705.602	-200.000	-0.032	-0.176
-704.587	-72.980	-0.214	0.079
-703.572	140.428	0.234	0.309
-702.558	-200.000	0.015	0.278
-701.543	161.634	0.113	-0.158
-700.529	347.265	-0.112	-0.221
-699.514	223.163	-0.096	-0.154
-698.499	285.681	-0.011	0.021
-697.485	-127.574	0.131	-0.019
-696.470	528.425	0.105	-0.247
-695.456	171.342	-0.085	0.122
-694.441	800.000	-0.077	-0.233
-693.426	-96.728	-0.312	-0.082
-692.412	32.495	0.151	0.130
-691.397	425.453	-0.063	-0.135
-690.383	-200.000	-0.102	0.000
-689.368	3.111	0.102	0.074
-688.354	-67.597	0.118	0.046
-687.339	800.000	0.034	-0.106
-686.324	800.000	-0.082	-0.259
-685.310	-139.195	-0.116	-0.013
-684.295	-146.870	-0.430	0.037
-683.281	396.960	-0.103	0.214
-682.266	-62.128	-0.172	-0.072
-681.251	-21.080	-0.074	-0.045
-680.237	-65.854	-0.404	-0.161
-679.222	-200.000	-0.056	-0.261
-678.208	9.965	-0.352	0.267
-677.193	-91.972	0.101	0.029
-676.178	-23.872	-0.149	-0.089
-675.164	-200.000	0.027	-0.237
-674.149	192.590	-0.180	0.271
-673.135	12.370	0.150	-0.115
-672.120	-200.000	-0.037	-0.292
-671.105	154.885	0.100	-0.137
-670.091	119.271	-0.040	-0.050
-669.076	-97.547	0.096	-0.025
-668.062	-61.037	-0.123	0.052
-667.047	-64.664	0.243	-0.098
-666.032	-28.093	-0.225	0.130
-665.018	-20.563	0.289	-0.177
-664.003	-200.000	-0.015	-0.251
-662.989	84.075	0.320	0.349
-661.974	-200.000	0.020	-0.123
-660.959	538.978	-0.137	-0.326
-659.945	98.967	-0.264	-0.304
-658.930	18.031	-0.092	0.074
-657.916	-200.000	0.030	-0.221
-656.901	-200.000	-0.001	-0.130
-655.886	-24.260	-0.251	0.149
-654.872	-89.525	-0.034	0.010
-653.857	-140.259	0.094	0.010
-652.843	800.000	0.098	-0.325
-651.828	800.000	-0.023	-0.070
-650.814	343.723	0.159	-0.310
-649.799	122.615	0.086	-0.108
-648.784	-200.000	-0.009	-0.161
-647.770	-172.692	-0.214	0.007
-646.755	-78.070	-0.377	-0.130
-645.741	-103.686	0.148	0.035
-644.726	128.187	0.167	0.212
-643.711	-200.000	0.031	0.348
-642.697	641.482	0.141	0.359
-641.682	-85.939	0.243	0.075
-640.668	46.591	0.226	-0.209
-639.653	40.196	0.255	-0.229
-638.638	259.818	0.109	0.188
-637.624	800.000	-0.071	0.205
-636.609	-68.812	-0.581	-0.224
-635.595	800.000	0.044	-0.161
-634.580	82.267	-0.142	-0.154
-633.565	-21.403	0.092	0.056
-632.551	48.469	-0.154	0.143
-631.536	125.097	-0.111	-0.139
-630.522	-1.236	0.217	-0.153
-629.507	-200.000	0.019	0.240
-628.492	39.598	-0.023	0.020
-627.478	-200.000	-0.020	0.141
-626.463	154.599	-0.151	0.207
-625.449	283.860	-0.132	0.237
-624.434	479.194	0.057	0.128
-623.419	-34.495	0.150	0.082
-622.405	-39.689	0.209	-0.109
-621.390	-115.249	0.100	-0.019
-620.376	-23.448	0.170	0.102
-619.361	42.999	0.127	0.115
-618.346	-200.000	-0.050	0.383
-617.332	-112.558	0.313	-0.062
-616.317	-79.770	0.158	0.053
-615.303	-200.000	0.019	0.132
-614.288	47.628	-0.252	-0.235
-613.273	-109.192	0.240	-0.051
-612.259	800.000	-0.119	0.382
-611.244	-124.082	0.315	0.049
-610.230	-200.000	-0.031	-0.236
-609.215	800.000	0.044	0.136
-608.201	561.220	-0.174	-0.420
-607.186	-80.077	0.323	-0.108
-606.171	-200.000	0.027	-0.159
-605.157	-42.820	-0.049	0.025
-604.142	-49.327	-0.243	-0.116
-603.128	-143.802	0.501	-0.047
-602.113	-99.923	0.130	0.032
-601.098	179.191	-0.066	0.096
-600.084	321.086	0.126	-0.239
-599.069	-54.257	0.236	-0.107
-598.055	-132.776	0.192	-0.024
-597.040	-108.546	-0.491	0.105
-596.025	316.717	-0.100	0.189
-595.011	-172.477	0.295	-0.009
-593.996	64.204	0.043	0.043
-592.982	273.423	-0.244	-0.429
-591.967	-200.000	0.004	-0.232
-590.952	112.202	-0.205	-0.247
-589.938	-89.895	-0.152	-0.044
-588.923	-125.544	0.356	0.054
-587.909	-200.000	0.000	0.351
-586.894	-80.586	-0.016	-0.005
-585.879	-27.730	-0.151	-0.087
-584.865	-149.744	-0.137	0.011
-583.850	-200.000	-0.002	0.266
-582.836	-200.000	-0.017	-0.187
-581.821	-150.707	-0.195	0.015
-580.806	-92.475	-0.140	-0.039
-579.792	-44.305	0.086	-0.043
-578.777	-52.328	0.257	0.119
-577.763	-141.298	0.110	-0.011
-576.748	-200.000	-0.009	-0.048
-575.733	-133.889	0.281	0.035
-574.719	-200.000	0.011	0.178
-573.704	-102.667	-0.173	0.041
-572.690	800.000	0.058	-0.209
-571.675	-132.340	-0.350	-0.045
-570.661	80.308	-0.203	0.218
-569.646	-31.538	-0.142	-0.079
-568.631	-83.060	-0.282	0.090
-567.617	-27.615	-0.158	0.091
-566.602	-28.267	0.212	-0.122
-565.588	-200.000	0.027	-0.168
-564.573	-159.617	-0.476	-0.026
-563.558	633.656	-0.059	-0.148
-562.544	8.500	0.293	-0.219
-561.529	-112.764	0.243	0.048
-560.515	480.695	-0.054	-0.122
-559.500	-141.726	0.375	-0.037
-558.485	137.859	0.155	0.202
-557.471	-138.713	-0.159	-0.017
-556.456	-75.079	-0.233	-0.083
-555.442	677.743	-0.144	0.373
-554.427	-94.952	0.109	0.029
-553.412	130.476	-0.103	-0.131
-552.398	91.625	-0.321	-0.359
-551.383	-200.000	-0.022	-0.178
-550.369	800.000	-0.116	-0.468
-549.354	342.746	-0.094	0.182
-548.339	800.000	-0.051	0.158
-547.325	-91.751	0.047	-0.013
-546.310	105.631	-0.148	-0.174
-545.296	624.234	-0.101	-0.252
-544.281	-200.000	0.079	-0.421
-543.266	-200.000	0.018	-0.168
-542.252	-53.264	-0.088	-0.040
-541.237	-118.385	-0.141	0.025
-540.223	85.865	0.115	-0.126
-539.208	362.292	-0.078	0.155
-538.193	-182.340	0.291	0.005
-537.179	-200.000	-0.008	0.267
-536.164	-55.488	-0.240	0.107
-535.150	51.280	0.083	-0.078
-534.135	-200.000	0.029	-0.386
-533.121	451.025	0.080	0.176
-532.106	481.791	-0.103	-0.232
-531.091	-200.000	0.081	-0.465
-530.077	-8.595	-0.165	0.110
-529.062	341.473	-0.105	-0.204
-528.048	-200.000	0.009	0.096
-527.033	-39.417	-0.177	-0.092
-526.018	-200.000	-0.181	0.000
-525.004	127.064	0.082	0.103
-523.989	664.258	-0.052	-0.133
-522.975	-131.889	-0.039	0.005
-521.960	26.199	-0.174	0.144
-520.945	-20.119	0.240	0.147
-519.931	-200.000	0.030	0.133
-518.916	-46.169	-0.352	-0.172
-517.902	-200.000	-0.035	-0.238
-516.887	-49.936	-0.101	0.048
-515.872	800.000	0.046	-0.152
-514.858	-200.000	-0.001	-0.358
-513.843	-200.000	0.007	0.126
-512.829	-200.000	-0.014	-0.135
-511.814	-51.780	-0.246	0.114
-510.799	800.000	-0.115	-0.359
-509.785	800.000	-0.033	-0.116
-508.770	666.370	0.155	-0.397
-507.756	-20.679	-0.262	0.160
-506.741	393.771	0.181	0.373
-505.726	-200.000	0.014	0.174
-504.712	26.784	-0.197	-0.164
-503.697	-73.914	-0.192	-0.069
-502.683	-200.000	0.069	0.337
-501.668	39.213	-0.069	-0.061
-500.653	254.493	0.131	-0.223
-499.639	-200.000	0.002	-0.076
-498.624	-200.000	-0.014	0.108
-497.610	602.891	-0.089	0.219
-496.595	-170.655	-0.183	-0.006
-495.581	23.126	0.235	0.191
-494.566	-44.689	0.335	-0.166
-493.551	-18.518	0.031	0.019
-492.537	-200.000	0.004	0.448
-491.522	-40.005	0.131	0.068
-490.508	4.889	-0.197	-0.144
-489.493	160.809	0.144	-0.200
-488.478	-0.522	0.281	-0.198
-487.464	800.000	-0.073	-0.273
-486.449	-34.935	-0.086	-0.046
-485.435	704.336	-0.115	0.301
-484.420	800.000	0.057	-0.158
-483.405	-78.751	-0.291	-0.098
-482.391	-200.000	-0.033	-0.254
-481.376	65.795	0.165	0.166
-480.362	49.424	0.146	0.137
-479.347	-90.010	-0.362	-0.105
-478.332	379.846	-0.174	0.353
-477.318	-69.296	0.204	-0.078
-476.303	-200.000	0.080	-0.404
-475.289	133.357	-0.131	-0.168
-474.274	505.495	-0.104	0.239
-473.259	-84.280	0.207	0.065
-472.245	103.508	0.336	0.391
-471.230	-66.522	-0.324	-0.128
-470.216	-5.021	0.105	0.071
-469.201	104.138	-0.099	-0.116
-468.186	56.245	0.077	0.074
-467.172	-200.000	0.012	-0.117
-466.157	-200.000	-0.019	-0.325
-465.143	800.000	0.080	0.311
-464.128	-127.976	-0.181	-0.026
-463.113	-80.156	0.179	0.060
-462.099	118.445	0.139	0.170
-461.084	-153.852	-0.114	0.008
-460.070	190.617	0.190	0.283
-459.055	-21.610	0.246	-0.148
-458.040	-77.817	-0.012	0.004
-457.026	116.729	-0.113	0.137
-456.011	116.305	-0.015	0.018
-454.997	-47.712	0.032	0.015
-453.982	532.876	0.148	-0.347
-452.968	29.127	-0.135	-0.113
-451.953	-78.821	0.348	0.118
-450.938	-200.000	-0.001	0.186
-449.924	-200.000	-0.044	0.271
-448.909	419.042	-0.056	-0.118
-447.895	-200.000	0.012	0.078
-446.880	-200.000	-0.065	0.400
-445.865	64.322	-0.158	0.158
-444.851	30.857	-0.185	-0.157
-443.836	-43.598	0.075	0.037
-442.822	800.000	0.032	-0.103
-441.807	-97.391	-0.059	-0.015
-440.792	-64.068	0.189	0.076
-439.778	13.503	-0.433	-0.332
-438.763	4.988	0.149	-0.109
-437.749	-179.860	0.226	-0.005
-436.734	-38.956	0.402	0.210
-435.719	187.975	-0.165	-0.244
-434.705	124.985	-0.109	0.136
-433.690	-200.000	-0.012	0.251
-432.676	-200.000	0.034	-0.154
-431.661	-200.000	-0.016	-0.325
-430.646	255.742	0.061	-0.103
-429.632	-151.746	0.015	-0.001
-428.617	-200.000	-0.009	-0.116
-427.603	-200.000	-0.060	0.292
-426.588	27.855	-0.094	-0.078
-425.573	40.838	0.315	0.281
-424.559	800.000	0.045	-0.128
-423.544	-9.145	-0.088	-0.058
-422.530	73.305	-0.077	0.079
-421.515	20.230	-0.253	-0.202
-420.500	-200.000	-0.016	0.098
-419.486	-200.000	0.019	-0.087
-418.471	-200.000	-0.018	0.121
-417.457	-6.326	0.184	0.124
-416.442	-117.470	-0.045	-0.008
-415.428	-200.000	0.027	0.291
-414.413	-200.000	0.046	-0.216
-413.398	607.950	0.060	-0.148
-412.384	-200.000	0.060	-0.424
-411.369	-127.345	0.085	0.012
-410.355	-49.058	-0.261	-0.123
-409.340	392.749	0.031	0.063
-408.325	-47.377	0.107	0.052
-407.311	-117.993	0.173	0.031
-406.296	-72.749	-0.164	0.060
-405.282	800.000	0.143	-0.419
-404.267	-56.415	-0.099	-0.043
-403.252	5.054	0.087	0.063
-402.238	517.632	-0.088	0.204
-401.223	-43.918	0.141	0.070
-400.209	-200.000	0.021	0.325
-399.194	20.925	-0.222	0.178
-398.179	35.523	0.137	-0.119
-397.165	127.208	0.193	-0.241
-396.150	-200.000	0.035	0.261
-395.136	-77.119	0.115	-0.040
-394.121	800.000	-0.061	0.199
-393.106	-0.079	-0.192	0.135
-392.092	7.563	0.061	-0.045
-391.077	276.975	-0.060	0.106
-390.063	-108.587	0.094	-0.020
-389.048	156.013	0.223	0.303
-388.033	336.247	-0.038	0.073
-387.019	800.000	-0.093	-0.299
-386.004	-96.648	-0.274	-0.071
-384.990	-74.955	0.106	0.037
-383.975	-105.007	-0.090	0.020
-382.960	-200.000	0.019	-0.217
-381.946	49.905	0.185	0.172
-380.931	-200.000	0.002	-0.028
-379.917	-200.000	0.072	-0.428
-378.902	-200.000	-0.016	0.197
-377.888	182.282	-0.012	0.018
-376.873	-83.075	0.192	0.061
-375.858	-200.000	0.013	-0.182
-374.844	-200.000	-0.030	-0.189
-373.829	71.046	-0.088	-0.090
-372.815	-188.443	0.111	-0.001
-371.800	-88.073	-0.353	-0.104
-370.785	37.844	0.176	-0.154
-369.771	-200.000	0.015	-0.164
-368.756	-52.310	0.049	-0.023
-367.742	-84.314	-0.073	0.023
-366.727	-53.694	0.139	-0.063
-365.712	-19.619	0.149	0.091
-364.698	-200.000	-0.024	0.279
-363.683	85.060	0.112	-0.121
-362.669	800.000	-0.097	-0.273
-361.654	-59.675	-0.302	0.128
-360.639	-29.036	0.219	-0.124
-359.625	179.794	0.224	0.323
-358.610	-200.000	-0.055	-0.286
-357.596	-47.679	-0.190	0.091
-356.581	151.768	-0.252	0.339
-355.566	321.619	-0.015	0.028
-354.552	-37.785	-0.382	0.201
-353.537	-195.138	0.216	-0.002
-352.523	-200.000	0.055	-0.259
-351.508	-87.167	0.247	0.074
-350.493	800.000	-0.073	-0.205
-349.479	202.610	-0.145	0.221
-348.464	-69.881	-0.230	0.086
-347.450	-200.000	0.008	0.210
-346.435	-8.861	0.072	-0.047
-345.420	237.217	-0.106	-0.173
-344.406	-200.000	-0.009	0.148
-343.391	-44.577	0.161	0.079
-342.377	800.000	-0.017	-0.051
-341.362	93.683	0.077	0.085
-340.348	63.133	0.046	-0.045
-339.333	-105.267	0.071	-0.016
-338.318	225.888	0.030	0.047
-337.304	-200.000	-0.031	-0.336
-336.289	-99.628	0.133	0.033
-335.275	-200.000	-0.004	0.161
-334.260	-33.052	0.210	0.115
-333.245	-23.450	0.141	-0.084
-332.231	-68.274	-0.110	0.042
-331.216	-200.000	-0.015	0.108
-330.202	61.342	-0.041	-0.040
-329.187	800.000	-0.078	-0.321
-328.172	49.821	-0.291	0.270
-327.158	135.810	0.301	0.386
-326.143	-42.494	0.345	-0.173
-325.129	37.887	0.186	-0.163
-324.114	393.675	0.099	-0.203
-323.099	-200.000	-0.004	0.115
-322.085	800.000	-0.059	-0.196
-321.070	115.863	-0.180	0.218
-320.056	-200.000	-0.015	-0.301
-319.041	703.260	-0.018	-0.046
-318.026	82.357	0.122	0.131
-317.012	-132.745	0.142	0.018
-315.997	-200.000	0.033	0.240
-314.983	-137.709	-0.174	0.019
-313.968	-135.203	0.197	-0.023
-312.953	-84.798	0.082	-0.025
-311.939	248.814	0.164	-0.274
-310.924	191.850	0.136	-0.202
-309.910	-200.000	0.011	0.327
-308.895	-200.000	-0.034	0.537
-307.880	-101.391	0.242	0.058
-306.866	800.000	-0.018	0.061
-305.851	126.865	-0.167	0.209
-304.837	-33.676	0.056	-0.031
-303.822	-147.876	-0.235	-0.019
-302.807	5.654	0.086	-0.063
-301.793	-200.000	-0.041	0.193
-300.778	23.125	-0.080	-0.065
-299.764	46.944	-0.301	0.276
-298.749	81.391	0.026	0.028
-297.735	-134.083	0.320	-0.039
-296.720	800.000	-0.068	0.192
-295.705	-116.464	-0.205	0.037
-294.691	59.270	0.172	0.167
-293.676	-96.325	-0.137	-0.036
-292.662	-4.780	-0.331	-0.224
-291.647	-136.743	-0.428	-0.049
-290.632	800.000	-0.069	0.210
-289.618	-5.659	0.017	-0.012
-288.603	-200.000	-0.043	-0.333
-287.589	299.312	-0.057	-0.104
-286.574	286.431	-0.176	0.312
-285.559	-51.323	0.158	0.073
-284.545	-58.313	0.122	-0.052
-283.530	476.611	-0.127	0.281
-282.516	418.742	-0.044	0.092
-281.501	163.004	-0.118	-0.163
-280.486	80.982	0.215	-0.228
-279.472	-50.344	-0.241	0.112
-278.457	-111.213	-0.234	0.047
-277.443	51.927	-0.284	-0.266
-276.428	349.327	0.050	0.096
-275.413	-167.252	0.193	0.008
-274.399	-11.177	-0.072	-0.047
-273.384	-100.114	-0.217	0.053
-272.370	32.969	-0.170	-0.145
-271.355	-200.000	-0.010	-0.063
-270.340	-200.000	0.022	-0.261
-269.326	800.000	0.112	-0.305
-268.311	347.432	0.213	0.413
-267.297	-84.063	-0.289	-0.090
-266.282	-77.260	0.124	-0.042
-265.267	1.655	-0.066	-0.047
-264.253	162.540	-0.079	-0.109
-263.238	-103.834	-0.336	-0.077
-262.224	-36.324	0.182	0.097
-261.209	51.724	-0.053	0.050
-260.195	-101.139	-0.361	0.087
-259.180	-145.279	0.139	-0.012
-258.165	29.136	-0.366	0.306
-257.151	-123.311	0.300	0.047
-256.136	-200.000	-0.007	0.051
-255.122	87.570	-0.033	0.036
-254.107	8.588	-0.058	-0.043
-253.092	-200.000	0.017	-0.216
-252.078	239.098	-0.034	-0.055
-251.063	18.000	0.173	-0.135
-250.049	-93.051	0.198	0.054
-249.034	800.000	-0.044	0.159
-248.019	-200.000	0.004	-0.434
-247.005	-74.507	0.105	0.037
-245.990	577.401	0.142	0.340
-244.976	-170.724	0.262	0.009
-243.961	-128.521	-0.095	-0.013
-242.946	287.329	0.178	-0.317
-241.932	201.659	-0.193	0.293
-240.917	-27.644	-0.296	-0.169
-239.903	-83.653	0.046	0.015
-238.888	30.679	-0.157	0.132
-237.873	72.192	0.107	0.110
-236.859	-159.489	-0.221	-0.012
-235.844	-200.000	-0.026	0.212
-234.830	800.000	0.101	0.285
-233.815	-200.000	0.047	0.289
-232.800	-200.000	0.052	0.268
-231.786	800.000	-0.111	0.361
-230.771	800.000	-0.055	0.187
-229.757	717.378	-0.075	-0.194
-228.742	-74.630	-0.271	-0.096
-227.727	800.000	-0.022	-0.079
-226.713	5.610	0.226	0.164
-225.698	800.000	0.067	-0.247
-224.684	800.000	0.061	0.167
-223.669	-200.000	-0.015	0.237
-222.655	-59.334	0.266	0.112
-221.640	-74.693	-0.135	0.048
-220.625	-164.759	-0.180	0.008
-219.611	787.302	0.043	0.116
-218.596	-200.000	0.014	0.128
-217.582	-164.705	-0.144	-0.006
-216.567	297.019	-0.101	-0.182
-215.552	-57.399	0.057	-0.025
-214.538	92.530	0.119	0.132
-213.523	-161.658	0.039	0.002
-212.509	-141.685	-0.194	0.019
-211.494	-101.448	0.208	-0.050
-210.479	-71.530	-0.099	0.036
-209.465	800.000	0.062	-0.182
-208.450	43.251	0.267	-0.239
-207.436	653.592	0.048	0.120
-206.421	154.849	0.137	-0.185
-205.406	-27.239	0.282	-0.161
-204.392	149.594	-0.079	0.105
-203.377	-130.645	0.149	-0.020
-202.363	12.995	-0.264	0.200
-201.348	270.759	-0.163	0.281
-200.333	-83.263	-0.195	0.062
-199.319	7.051	-0.088	-0.065
-198.304	-200.000	0.060	0.343
-197.290	-37.060	0.088	-0.046
-196.275	122.273	-0.101	-0.123
-195.260	-200.000	-0.027	0.245
-194.246	-17.971	0.058	-0.036
-193.231	92.282	-0.221	0.244
-192.217	-78.541	0.263	0.088
-191.202	36.108	-0.197	-0.170
-190.187	-7.927	-0.236	0.156
-189.173	800.000	-0.065	-0.187
-188.158	-200.000	-0.004	0.058
-187.144	53.332	-0.079	-0.074
-186.129	-200.000	0.000	-0.028
-185.114	87.471	0.323	-0.350
-184.100	-72.534	0.135	-0.049
-183.085	-20.192	-0.214	0.129
-182.071	800.000	0.070	0.285
-181.056	-200.000	0.018	0.336
-180.042	-200.000	-0.009	0.123
-179.027	-116.860	0.079	0.014
-178.012	-16.526	-0.137	0.085
-176.998	85.151	0.006	-0.007
-175.983	-120.066	-0.265	-0.045
-174.969	-126.524	0.225	-0.033
-173.954	-119.200	-0.202	-0.034
-172.939	54.605	-0.289	-0.273
-171.925	61.594	0.244	-0.238
-170.910	49.067	-0.206	-0.190
-169.896	-141.301	0.302	0.030
-168.881	386.298	0.022	-0.044
-167.866	197.063	0.146	-0.219
-166.852	24.169	-0.165	-0.134
-165.837	-200.000	-0.039	0.291
-164.823	-200.000	-0.006	0.076
-163.808	-131.244	0.298	0.039
-162.793	219.394	0.104	0.162
-161.779	-200.000	0.032	0.255
-160.764	111.375	0.221	-0.260
-159.750	-180.163	0.174	-0.004
-158.735	-116.179	0.027	-0.005
-157.720	97.142	0.200	-0.225
-156.706	-24.902	0.313	-0.182
-155.691	69.418	0.024	-0.024
-154.677	363.229	0.127	-0.250
-153.662	-9.508	0.142	-0.093
-152.647	-134.598	0.160	0.019
-151.633	800.000	0.032	-0.109
-150.618	-200.000	0.010	-0.259
-149.604	-141.020	0.164	0.016
-148.589	36.398	0.176	0.152
-147.574	-168.296	-0.050	0.002
-146.560	-154.454	0.158	-0.010
-145.545	-200.000	0.042	0.280
-144.531	-200.000	-0.003	0.141
-143.516	191.148	0.210	-0.310
-142.502	-68.429	0.487	-0.185
-141.487	800.000	-0.171	0.468
-140.472	-18.847	0.137	-0.084
-139.458	-13.519	0.210	-0.133
-138.443	-44.822	-0.178	-0.087
-137.429	-91.933	0.357	-0.099
-136.414	-101.998	0.191	0.045
-135.399	34.082	-0.029	-0.025
-134.385	364.243	0.034	0.067
-133.370	-27.012	0.095	0.054
-132.356	-10.029	0.375	0.243
-131.341	-200.000	0.016	-0.299
-130.326	625.438	-0.045	-0.110
-129.312	-111.593	0.077	-0.015
-128.297	47.264	0.106	0.096
-127.283	-98.909	0.160	0.040
-126.268	245.120	-0.079	-0.129
-125.253	89.383	0.130	0.141
-124.239	-200.000	0.089	0.499
-123.224	652.450	-0.097	0.244
-122.210	-119.646	-0.156	0.026
