DTS Sentinel unit serial number:	SN413079Multiplexer serial number:	ORYXHardware model number:	OX4-SRSoftware version number:	ORYX F/W v4.00 Oryx Data Collector v3.7.2.0data status	okinstallation	princeton_trtdifferential loss correction	single-endedforward channel	channel 2reverse channel	N/Adate	2019/09/13time	16:11:35forward acquisition time	60.00reverse acquisition time	0.00gamma	496.2192k internal	0.2314k external	0.2314temperature offset calibration	1.0213default loss term (dB/km)	0.3790temperature slope calibration	1.0000multiplexer offset coefficient	1.0000multiplexer slope coefficient	1.0000fibre end	0.00T internal ref (°C)	34.80T ext. ref 1 (°C)	4.84T ext. ref 2 (°C)	31.41length (m)	temperature (°C)	Stokes	anti-Stokes-747.200	-50.147	-0.277	-0.133
-746.185	102.572	-0.116	-0.137
-745.171	59.596	-0.094	-0.094
-744.156	-200.000	-0.005	0.109
-743.142	-200.000	-0.020	-0.305
-742.127	-200.000	0.023	0.233
-741.112	-70.289	0.218	0.084
-740.098	-5.289	-0.267	0.186
-739.083	-122.779	-0.086	-0.014
-738.069	-117.537	-0.108	0.020
-737.054	252.911	0.130	0.225
-736.039	-93.445	-0.346	0.097
-735.025	-73.131	-0.148	0.055
-734.010	665.729	-0.069	-0.180
-732.996	800.000	0.069	-0.293
-731.981	163.718	0.231	-0.329
-730.966	220.262	-0.082	-0.134
-729.952	123.700	-0.131	-0.166
-728.937	55.565	-0.157	-0.154
-727.923	800.000	0.026	-0.074
-726.908	-200.000	0.008	-0.106
-725.894	-69.714	-0.018	-0.007
-724.879	677.568	-0.054	-0.143
-723.864	-112.658	-0.195	0.039
-722.850	77.400	0.070	-0.076
-721.835	-134.309	0.124	0.015
-720.821	-62.308	-0.227	-0.096
-719.806	-73.871	-0.070	0.026
-718.791	-200.000	0.015	0.088
-717.777	-50.805	-0.131	0.062
-716.762	-92.414	-0.215	0.061
-715.748	182.787	0.040	-0.060
-714.733	593.762	-0.119	0.299
-713.718	-78.782	-0.175	0.060
-712.704	269.067	-0.110	0.196
-711.689	-200.000	0.017	0.186
-710.675	800.000	0.060	-0.180
-709.660	-120.154	-0.247	-0.043
-708.645	127.764	0.030	-0.039
-707.631	-91.590	-0.163	0.047
-706.616	340.572	-0.052	-0.104
-705.602	-85.085	-0.161	0.051
-704.587	800.000	0.070	0.262
-703.572	687.891	0.156	-0.412
-702.558	7.803	0.218	-0.165
-701.543	-165.602	-0.279	-0.012
-700.529	800.000	0.042	0.184
-699.514	-200.000	-0.022	0.238
-698.499	800.000	0.066	-0.193
-697.485	800.000	-0.080	-0.223
-696.470	270.942	0.187	-0.333
-695.456	800.000	-0.105	-0.405
-694.441	595.372	-0.095	-0.237
-693.426	289.062	0.088	0.161
-692.412	389.005	0.087	0.182
-691.397	-15.037	-0.126	0.082
-690.383	-4.024	0.517	0.362
-689.368	-200.000	-0.044	-0.313
-688.354	-116.480	-0.270	-0.050
-687.339	169.827	0.114	-0.164
-686.324	-79.672	0.147	0.050
-685.310	235.840	-0.186	0.311
-684.295	-147.835	0.225	-0.019
-683.281	800.000	0.043	0.150
-682.266	-26.158	0.091	-0.054
-681.251	-63.324	-0.412	-0.172
-680.237	-56.031	-0.250	-0.112
-679.222	118.042	0.207	0.258
-678.208	159.984	0.076	0.107
-677.193	548.976	-0.035	0.085
-676.178	180.725	-0.079	0.117
-675.164	609.921	0.033	0.083
-674.149	-158.397	0.022	0.001
-673.135	-96.768	-0.068	-0.018
-672.120	800.000	-0.053	-0.185
-671.105	141.589	0.204	-0.273
-670.091	28.065	-0.298	0.254
-669.076	-162.772	-0.334	0.017
-668.062	-175.258	0.086	-0.002
-667.047	-200.000	0.011	-0.102
-666.032	3.730	0.165	-0.122
-665.018	-48.312	0.190	0.092
-664.003	-200.000	0.013	0.178
-662.989	-200.000	-0.007	-0.063
-661.974	-200.000	-0.007	-0.127
-660.959	-121.183	0.098	-0.017
-659.945	-200.000	-0.017	-0.074
-658.930	29.527	0.215	-0.185
-657.916	800.000	-0.055	-0.222
-656.901	479.624	-0.116	0.265
-655.886	800.000	-0.110	-0.388
-654.872	-162.762	-0.181	0.009
-653.857	-53.270	-0.062	0.029
-652.843	178.201	-0.272	-0.401
-651.828	-101.383	-0.297	0.073
-650.814	-108.724	-0.096	0.021
-649.799	-117.826	0.104	-0.019
-648.784	286.636	-0.065	-0.119
-647.770	-115.517	0.121	0.023
-646.755	222.106	0.152	0.247
-645.741	800.000	-0.015	0.042
-644.726	716.209	-0.161	0.432
-643.711	-200.000	0.002	0.016
-642.697	-53.931	-0.151	-0.069
-641.682	-190.013	0.181	0.002
-640.668	40.410	-0.148	-0.134
-639.653	-104.011	0.446	-0.105
-638.638	485.219	-0.156	-0.358
-637.624	83.543	-0.296	0.326
-636.609	-53.864	-0.233	-0.107
-635.595	43.492	-0.090	0.083
-634.580	-100.358	0.137	-0.034
-633.565	-17.253	-0.097	-0.062
-632.551	6.893	0.165	0.124
-631.536	-60.210	-0.103	-0.044
-630.522	-59.485	-0.155	-0.067
-629.507	-148.396	-0.050	0.004
-628.492	186.227	-0.112	-0.168
-627.478	-35.787	0.233	0.127
-626.463	-98.656	-0.142	-0.037
-625.449	112.488	0.147	-0.179
-624.434	75.273	-0.315	-0.335
-623.419	632.875	-0.088	-0.224
-622.405	24.235	0.188	0.157
-621.390	-19.226	-0.139	0.087
-620.376	-35.409	-0.147	-0.081
-619.361	173.623	0.122	0.178
-618.346	-82.224	-0.318	0.104
-617.332	93.394	-0.111	0.126
-616.317	800.000	0.033	0.098
-615.303	128.172	-0.163	0.209
-614.288	53.503	-0.095	-0.092
-613.273	-34.779	0.215	0.118
-612.259	-112.932	0.333	-0.067
-611.244	207.352	0.033	0.052
-610.230	-41.416	-0.303	0.157
-609.215	-114.133	-0.102	-0.020
-608.201	217.109	0.284	0.456
-607.186	-129.761	-0.155	0.021
-606.171	-38.651	0.208	-0.111
-605.157	-118.751	-0.103	0.018
-604.142	314.220	0.040	0.076
-603.128	-76.700	0.113	0.040
-602.113	342.469	0.099	-0.196
-601.098	74.501	-0.190	0.201
-600.084	-84.516	-0.353	0.112
-599.069	-46.747	0.169	0.083
-598.055	81.222	-0.112	0.122
-597.040	-149.232	-0.278	0.022
-596.025	794.014	0.108	0.299
-595.011	-200.000	-0.067	-0.364
-593.996	-87.130	0.064	0.019
-592.982	320.945	-0.018	-0.035
-591.967	800.000	-0.048	-0.181
-590.952	-103.344	-0.354	-0.084
-589.938	198.253	-0.230	-0.355
-588.923	403.382	-0.153	-0.323
-587.909	-200.000	0.009	-0.148
-586.894	-22.775	-0.071	-0.043
-585.879	-48.996	-0.311	0.150
-584.865	27.672	-0.296	-0.251
-583.850	-27.062	-0.234	0.137
-582.836	133.338	-0.140	-0.183
-581.821	-107.342	0.127	0.028
-580.806	-200.000	-0.067	-0.328
-579.792	-51.191	0.145	-0.069
-578.777	800.000	0.054	0.191
-577.763	-130.935	-0.016	0.002
-576.748	199.657	0.109	-0.168
-575.733	-29.385	-0.170	0.098
-574.719	-200.000	-0.011	0.128
-573.704	-200.000	0.049	0.351
-572.690	23.816	0.166	0.138
-571.675	-105.580	0.098	0.022
-570.661	61.929	-0.107	0.108
-569.646	443.609	0.100	0.222
-568.631	-200.000	0.017	-0.248
-567.617	-27.655	0.316	-0.184
-566.602	61.467	0.294	0.294
-565.588	-90.674	-0.269	-0.078
-564.573	-15.837	-0.138	-0.088
-563.558	-167.524	-0.146	-0.006
-562.544	-200.000	-0.063	0.472
-561.529	-84.144	-0.136	-0.043
-560.515	-200.000	-0.025	-0.222
-559.500	9.440	0.225	0.171
-558.485	95.216	0.218	-0.250
-557.471	-36.015	0.110	0.060
-556.456	40.045	0.191	-0.173
-555.442	-130.104	0.154	0.021
-554.427	118.071	0.042	-0.052
-553.412	730.192	-0.039	0.104
-552.398	800.000	-0.036	0.115
-551.383	40.958	-0.251	0.228
-550.369	-38.213	0.084	-0.045
-549.354	-149.269	0.099	0.008
-548.339	-43.720	-0.477	0.242
-547.325	25.820	0.083	-0.070
-546.310	-200.000	0.007	0.319
-545.296	-153.737	-0.079	-0.005
-544.281	46.142	-0.144	0.134
-543.266	-58.553	-0.244	-0.106
-542.252	17.277	0.135	0.108
-541.237	238.686	0.146	-0.245
-540.223	800.000	0.154	-0.504
-539.208	-167.479	-0.226	0.009
-538.193	124.692	-0.179	-0.227
-537.179	-113.404	-0.372	0.073
-536.164	53.476	0.110	-0.106
-535.150	51.059	-0.076	-0.072
-534.135	-188.154	-0.338	-0.004
-533.121	800.000	0.068	0.258
-532.106	2.701	0.216	-0.158
-531.091	16.619	0.076	-0.061
-530.077	-157.188	-0.180	-0.011
-529.062	-62.042	0.171	-0.072
-528.048	271.657	-0.090	0.159
-527.033	800.000	-0.103	0.317
-526.018	-117.804	0.470	-0.085
-525.004	197.656	-0.198	-0.303
-523.989	587.991	0.110	0.273
-522.975	-132.436	0.189	-0.024
-521.960	800.000	0.079	-0.244
-520.945	29.258	-0.257	0.219
-519.931	279.644	0.068	-0.123
-518.916	800.000	0.082	-0.269
-517.902	-10.974	-0.133	-0.088
-516.887	-200.000	-0.026	0.131
-515.872	-138.197	-0.232	0.026
-514.858	-53.098	0.067	0.031
-513.843	-139.050	-0.215	0.023
-512.829	-80.001	-0.342	0.115
-511.814	60.424	0.089	-0.088
-510.799	-52.384	-0.244	-0.113
-509.785	-46.400	-0.466	-0.230
-508.770	-150.734	-0.392	-0.030
-507.756	60.818	0.285	0.283
-506.741	358.538	-0.132	0.264
-505.726	-200.000	0.019	-0.376
-504.712	192.061	-0.196	-0.297
-503.697	-200.000	-0.029	-0.275
-502.683	-200.000	0.015	-0.213
-501.668	-90.622	-0.121	0.035
-500.653	144.340	0.022	0.029
-499.639	800.000	-0.044	0.140
-498.624	-56.802	-0.252	0.112
-497.610	-102.769	0.389	-0.093
-496.595	800.000	-0.046	0.141
-495.581	800.000	0.098	0.406
-494.566	-71.021	0.388	-0.146
-493.551	88.070	0.120	-0.133
-492.537	86.238	-0.066	0.073
-491.522	-13.993	0.221	0.143
-490.508	279.160	0.180	-0.322
-489.493	-19.275	-0.043	-0.027
-488.478	-200.000	-0.019	0.176
-487.464	-113.748	0.098	0.019
-486.449	189.219	-0.106	-0.160
-485.435	25.505	0.183	-0.152
-484.420	240.056	0.177	-0.296
-483.405	-47.751	-0.452	0.220
-482.391	6.903	-0.142	-0.106
-481.376	266.063	-0.243	0.425
-480.362	-159.451	0.038	0.002
-479.347	-23.677	-0.348	0.209
-478.332	-20.210	0.102	-0.063
-477.318	-109.265	-0.328	0.070
-476.303	66.997	-0.245	-0.250
-475.289	-141.628	-0.172	-0.017
-474.274	-132.082	-0.082	-0.011
-473.259	800.000	0.077	-0.257
-472.245	-116.581	0.139	0.026
-471.230	189.525	-0.072	0.108
-470.216	-200.000	0.001	-0.148
-469.201	-38.497	-0.160	0.085
-468.186	-200.000	0.006	0.207
-467.172	-26.117	0.166	0.098
-466.157	6.687	0.155	0.116
-465.143	-200.000	0.023	-0.409
-464.128	-81.160	-0.186	0.062
-463.113	-147.440	0.084	-0.007
-462.099	-83.696	0.374	-0.120
-461.084	-74.751	0.182	0.066
-460.070	-74.270	-0.277	-0.100
-459.055	800.000	-0.102	0.389
-458.040	-147.795	-0.152	-0.013
-457.026	800.000	-0.061	-0.227
-456.011	52.396	0.119	-0.113
-454.997	-21.657	0.240	0.146
-453.982	64.660	0.071	-0.072
-452.968	119.783	0.060	0.075
-451.953	-59.844	0.376	0.161
-450.938	199.910	0.038	0.059
-449.924	-200.000	0.037	0.178
-448.909	162.233	0.069	0.097
-447.895	196.368	0.198	-0.302
-446.880	155.428	-0.121	-0.167
-445.865	226.896	-0.052	-0.085
-444.851	-71.330	-0.166	-0.062
-443.836	-200.000	-0.013	0.252
-442.822	-39.629	0.045	-0.024
-441.807	77.662	0.164	0.175
-440.792	626.575	-0.117	0.295
-439.778	91.078	0.236	0.265
-438.763	-75.491	-0.208	-0.074
-437.749	24.112	0.110	-0.091
-436.734	800.000	0.039	0.151
-435.719	-25.874	0.165	-0.097
-434.705	467.889	-0.143	-0.321
-433.690	46.974	0.069	0.065
-432.676	-52.633	-0.153	0.071
-431.661	800.000	-0.155	-0.434
-430.646	84.846	0.038	-0.041
-429.632	-54.489	0.312	-0.141
-428.617	108.956	0.147	0.176
-427.603	-162.578	0.294	-0.014
-426.588	-176.888	-0.242	-0.006
-425.573	-25.811	-0.253	0.149
-424.559	-69.573	-0.203	-0.078
-423.544	-127.391	0.133	-0.019
-422.530	-152.277	-0.154	-0.011
-421.515	-200.000	-0.046	-0.311
-420.500	-200.000	0.076	0.383
-419.486	76.581	-0.276	0.293
-418.471	-77.520	-0.119	0.041
-417.457	63.450	0.069	0.069
-416.442	-96.456	0.155	-0.041
-415.428	404.173	0.075	-0.159
-414.413	-142.486	-0.155	0.015
-413.398	-84.529	-0.196	0.062
-412.384	377.105	-0.105	0.214
-411.369	41.492	0.085	-0.077
-410.355	-200.000	-0.009	-0.104
-409.340	-32.600	0.207	0.115
-408.325	491.441	0.118	0.271
-407.311	-74.075	-0.367	-0.133
-406.296	-200.000	-0.059	-0.275
-405.282	-50.099	-0.060	-0.028
-404.267	70.261	0.141	-0.146
-403.252	-104.075	-0.282	0.066
-402.238	-125.097	-0.189	0.029
-401.223	-106.466	0.270	-0.060
-400.209	-158.145	-0.279	-0.016
-399.194	87.845	0.103	-0.114
-398.179	262.288	-0.074	-0.127
-397.165	754.234	0.067	0.180
-396.150	-140.657	0.164	0.017
-395.136	-118.942	-0.196	-0.034
-394.121	-66.820	0.151	-0.060
-393.106	140.745	-0.195	0.258
-392.092	-17.305	-0.246	-0.155
-391.077	-107.781	0.158	-0.035
-390.063	-200.000	0.025	0.159
-389.048	191.363	-0.129	-0.194
-388.033	226.559	-0.223	0.362
-387.019	93.326	-0.149	0.169
-386.004	-200.000	-0.056	-0.270
-384.990	206.327	0.175	-0.273
-383.975	38.771	0.170	-0.152
-382.960	800.000	0.059	-0.227
-381.946	47.962	-0.215	-0.201
-380.931	68.188	-0.211	-0.216
-379.917	-200.000	0.004	0.042
-378.902	110.164	-0.315	0.378
-377.888	-107.480	-0.525	0.115
-376.873	-14.557	-0.047	-0.030
-375.858	205.996	0.161	-0.250
-374.844	800.000	-0.010	-0.037
-373.829	313.280	-0.161	-0.303
-372.815	-46.976	0.097	0.048
-371.800	-96.598	0.303	-0.080
-370.785	77.809	-0.297	0.316
-369.771	-109.154	-0.299	0.063
-368.756	-200.000	0.006	-0.107
-367.742	-194.206	0.214	0.002
-366.727	560.956	0.191	-0.461
-365.712	-105.877	-0.334	-0.075
-364.698	460.735	0.147	0.327
-363.683	-140.170	0.251	-0.026
-362.669	-200.000	0.038	0.278
-361.654	362.284	0.038	-0.076
-360.639	76.139	-0.157	-0.166
-359.625	-97.788	0.074	0.019
-358.610	62.654	-0.095	0.095
-357.596	-3.850	0.183	0.127
-356.581	-200.000	0.008	-0.179
-355.566	-161.327	0.115	-0.006
-354.552	123.015	-0.077	-0.097
-353.537	800.000	0.089	-0.275
-352.523	271.536	0.046	0.081
-351.508	-5.302	0.230	-0.158
-350.493	542.057	-0.040	-0.095
-349.479	60.346	-0.195	-0.192
-348.464	244.590	0.097	-0.163
-347.450	-28.153	0.455	-0.262
-346.435	800.000	0.082	0.289
-345.420	-114.637	-0.167	-0.032
-344.406	-200.000	0.023	-0.113
-343.391	-156.093	0.216	0.014
-342.377	-32.410	-0.217	-0.121
-341.362	547.698	0.037	-0.088
-340.348	311.369	-0.060	-0.112
-339.333	-29.385	0.246	-0.140
-338.318	404.739	-0.054	0.114
-337.304	-150.337	0.173	0.013
-336.289	800.000	0.139	0.429
-335.275	37.633	-0.172	0.152
-334.260	675.292	0.119	-0.308
-333.245	-200.000	0.045	0.288
-332.231	-92.787	0.351	-0.098
-331.216	47.253	-0.236	-0.219
-330.202	144.019	0.125	-0.166
-329.187	800.000	0.092	-0.262
-328.172	2.950	0.201	0.145
-327.158	-159.297	-0.059	-0.003
-326.143	-26.151	0.166	-0.097
-325.129	-200.000	0.014	0.343
-324.114	72.789	-0.166	0.173
-323.099	-50.911	-0.120	-0.056
-322.085	800.000	0.036	-0.141
-321.070	-200.000	0.009	-0.231
-320.056	-141.186	0.106	-0.011
-319.041	81.557	-0.245	0.264
-318.026	-127.548	0.048	0.007
-317.012	60.820	0.166	0.164
-315.997	15.621	0.111	0.087
-314.983	228.454	0.152	0.246
-313.968	-68.884	-0.228	0.088
-312.953	-200.000	-0.010	-0.192
-311.939	800.000	-0.083	-0.341
-310.924	-200.000	-0.039	0.228
-309.910	122.734	-0.079	-0.098
-308.895	9.462	-0.091	-0.069
-307.880	-44.142	0.123	0.061
-306.866	-70.730	0.218	0.082
-305.851	800.000	0.049	0.211
-304.837	159.167	0.057	-0.079
-303.822	469.712	-0.122	0.273
-302.807	59.253	0.136	-0.134
-301.793	-134.468	-0.068	-0.008
-300.778	800.000	-0.056	0.236
-299.764	587.739	-0.040	-0.097
-298.749	668.769	-0.052	0.135
-297.735	-200.000	-0.045	0.306
-296.720	75.451	0.073	0.077
-295.705	-87.305	0.195	0.059
-294.691	-40.221	-0.210	0.109
-293.676	-17.461	-0.339	0.212
-292.662	-200.000	-0.010	-0.227
-291.647	5.407	-0.313	-0.230
-290.632	87.031	-0.174	-0.192
-289.618	69.189	0.248	-0.254
-288.603	70.891	0.145	-0.150
-287.589	800.000	-0.100	-0.274
-286.574	174.081	-0.118	0.169
-285.559	-61.098	0.303	-0.127
-284.545	800.000	0.070	-0.283
-283.530	-135.547	-0.066	-0.008
-282.516	-28.708	-0.132	-0.076
-281.501	-79.328	0.267	-0.090
-280.486	-133.243	-0.022	0.003
-279.472	800.000	-0.022	0.070
-278.457	-200.000	0.017	0.104
-277.443	-26.058	0.167	-0.098
-276.428	-16.464	0.117	-0.074
-275.413	22.807	-0.245	0.200
-274.399	-140.138	0.215	0.023
-273.384	-24.014	-0.031	-0.018
-272.370	48.651	0.178	-0.166
-271.355	71.388	-0.078	-0.080
-270.340	-96.620	-0.154	0.040
-269.326	-68.984	-0.047	-0.018
-268.311	-135.268	0.234	0.028
-267.297	-14.765	0.376	0.240
-266.282	-88.920	-0.210	0.062
-265.267	-51.542	0.101	-0.047
-264.253	-23.046	-0.158	0.095
-263.238	-106.203	0.244	-0.054
-262.224	-90.006	-0.218	0.063
-261.209	-2.421	-0.200	-0.139
-260.195	-169.795	0.289	0.010
-259.180	-8.171	-0.231	-0.155
-258.165	372.221	0.119	-0.240
-257.151	-60.326	0.040	-0.017
-256.136	800.000	-0.034	0.108
-255.122	-158.855	0.208	-0.012
-254.107	-20.205	0.296	-0.181
-253.092	-8.227	0.249	-0.166
-252.078	-200.000	0.002	-0.030
-251.063	-200.000	0.036	0.212
-250.049	-119.858	0.238	-0.041
-249.034	-177.781	0.169	0.004
-248.019	320.335	0.040	-0.075
-247.005	-200.000	0.034	-0.157
-245.990	-96.931	0.161	-0.042
-244.976	-73.562	0.243	-0.088
-243.961	122.375	-0.052	-0.065
-242.946	-1.969	0.130	0.091
-241.932	-126.711	-0.210	-0.031
-240.917	-37.393	0.102	0.054
-239.903	-200.000	0.107	-0.481
-238.888	800.000	0.046	-0.127
-237.873	-61.828	0.209	0.087
-236.859	663.595	-0.093	-0.239
-235.844	-4.158	0.124	0.085
-234.830	-11.140	-0.207	0.135
-233.815	788.565	0.076	0.207
-232.800	472.187	0.098	0.220
-231.786	-200.000	-0.023	-0.171
-230.771	800.000	-0.045	-0.196
-229.757	-133.238	0.268	0.034
-228.742	504.951	-0.148	-0.340
-227.727	20.876	0.105	-0.084
-226.713	-11.376	0.286	-0.187
-225.698	800.000	-0.027	-0.112
-224.684	-15.893	0.100	-0.063
-223.669	-2.978	0.214	0.149
-222.655	287.620	-0.046	0.082
-221.640	-127.886	0.304	-0.044
-220.625	-103.994	-0.118	-0.027
-219.611	-82.909	-0.274	0.088
-218.596	-50.290	-0.148	0.069
-217.582	55.074	-0.086	0.083
-216.567	-104.279	0.166	0.038
-215.552	-191.409	-0.121	-0.001
-214.538	-200.000	0.044	0.200
-213.523	800.000	0.105	0.337
-212.509	800.000	0.075	-0.217
-211.494	38.301	-0.203	-0.179
-210.479	-135.814	0.292	-0.034
-209.465	47.220	-0.056	0.052
-208.450	-107.269	0.518	0.113
-207.436	-48.712	0.191	-0.091
-206.421	237.480	-0.140	-0.231
-205.406	-200.000	-0.018	0.304
-204.392	-7.850	0.211	0.142
-203.377	-18.823	-0.118	0.073
-202.363	598.666	-0.116	0.285
-201.348	263.252	0.124	0.215
-200.333	800.000	-0.106	0.391
-199.319	18.934	0.204	-0.162
-198.304	-34.168	-0.166	0.091
-197.290	-119.244	-0.177	0.031
-196.275	-153.325	-0.298	-0.021
-195.260	800.000	-0.021	-0.076
-194.246	-96.661	0.079	-0.021
-193.231	800.000	-0.117	0.411
-192.217	-103.652	-0.345	0.080
-191.202	-200.000	0.001	0.243
-190.187	-81.745	-0.162	0.053
-189.173	-37.311	-0.282	-0.149
-188.158	53.746	0.060	0.057
-187.144	-38.838	0.120	0.063
-186.129	-200.000	-0.009	-0.175
-185.114	-137.237	0.013	-0.002
-184.100	293.064	-0.086	-0.156
-183.085	800.000	0.014	-0.061
-182.071	800.000	-0.032	0.111
-181.056	200.669	0.078	0.119
-180.042	81.414	0.118	-0.127
-179.027	649.108	0.019	0.049
-178.012	105.379	0.318	-0.372
-176.998	561.340	-0.129	0.309
-175.983	372.901	0.171	0.344
-174.969	-42.002	-0.275	0.139
-173.954	-73.456	-0.331	0.120
-172.939	-131.902	0.063	-0.008
-171.925	27.396	-0.290	0.242
-170.910	3.274	0.166	-0.120
-169.896	-200.000	0.005	-0.084
-168.881	595.517	0.070	-0.172
-167.866	800.000	0.074	0.299
-166.852	60.141	-0.356	0.349
-165.837	-114.022	-0.208	0.040
-164.823	-154.173	0.263	0.018
-163.808	800.000	0.133	0.527
-162.793	-145.397	0.208	-0.019
-161.779	-9.337	0.122	0.081
-160.764	-112.210	0.465	0.093
-159.750	-122.631	0.174	0.028
-158.735	5.067	0.117	0.085
-157.720	-144.989	0.410	-0.037
-156.706	57.613	0.217	-0.210
-155.691	800.000	0.087	0.314
-154.677	102.642	0.070	-0.081
-153.662	-95.055	0.262	-0.070
-152.647	21.724	0.224	0.181
-151.633	-123.142	0.278	-0.044
-150.618	800.000	0.043	-0.146
-149.604	-47.428	0.185	0.089
-148.589	-200.000	0.078	-0.364
-147.574	-200.000	-0.035	0.200
-146.560	-200.000	0.085	0.415
-145.545	-5.352	0.143	0.097
-144.531	123.017	0.186	0.230
-143.516	148.876	-0.185	-0.248
-142.502	-26.253	0.167	-0.097
-141.487	800.000	0.048	-0.143
-140.472	114.051	-0.181	0.218
-139.458	165.934	0.125	0.175
-138.443	800.000	-0.045	0.150
-137.429	248.446	0.114	-0.191
-136.414	99.322	0.084	0.097
-135.399	88.483	0.125	-0.138
-134.385	342.385	0.136	-0.263
-133.370	-200.000	0.004	-0.216
-132.356	27.928	-0.261	0.218
-131.341	84.455	0.368	0.398
-130.326	800.000	0.022	0.093
-129.312	-68.194	-0.244	0.094
-128.297	-131.004	-0.134	-0.018
-127.283	253.802	0.141	-0.238
-126.268	-85.892	-0.203	0.062
-125.253	-95.478	-0.146	-0.039
-124.239	-121.139	-0.178	-0.030
-123.224	148.208	0.166	-0.222
-122.210	-122.223	-0.210	-0.034
-121.195	-193.146	-0.344	0.003
