DTS Sentinel unit serial number:	SN413079Multiplexer serial number:	ORYXHardware model number:	OX4-SRSoftware version number:	ORYX F/W v4.00 Oryx Data Collector v3.7.2.0data status	okinstallation	princeton_trtdifferential loss correction	single-endedforward channel	channel 2reverse channel	N/Adate	2019/09/13time	23:27:35forward acquisition time	60.00reverse acquisition time	0.00gamma	496.2192k internal	0.2337k external	0.2337temperature offset calibration	1.0126default loss term (dB/km)	0.3790temperature slope calibration	1.0000multiplexer offset coefficient	1.0000multiplexer slope coefficient	1.0000fibre end	0.00T internal ref (°C)	26.89T ext. ref 1 (°C)	3.19T ext. ref 2 (°C)	20.92length (m)	temperature (°C)	Stokes	anti-Stokes-747.200	-200.000	-0.014	0.238
-746.185	800.000	-0.075	0.240
-745.171	386.700	-0.117	0.242
-744.156	-43.265	0.264	0.134
-743.142	44.631	0.079	-0.073
-742.127	-200.000	-0.048	0.342
-741.112	125.047	-0.069	-0.087
-740.098	-165.080	-0.127	-0.006
-739.083	-64.582	-0.267	0.109
-738.069	368.936	-0.201	0.409
-737.054	401.880	-0.035	-0.075
-736.039	-133.324	0.302	0.038
-735.025	-79.184	0.276	0.094
-734.010	60.783	-0.216	0.215
-732.996	-1.916	-0.202	0.142
-731.981	800.000	-0.054	0.208
-730.966	-90.433	0.142	0.041
-729.952	-38.539	-0.304	-0.161
-728.937	275.289	-0.101	-0.180
-727.923	258.804	-0.055	-0.096
-726.908	84.227	-0.131	-0.144
-725.894	-200.000	0.002	0.141
-724.879	137.999	-0.102	-0.134
-723.864	-200.000	-0.011	-0.127
-722.850	278.395	-0.034	0.060
-721.835	-1.309	-0.135	0.096
-720.821	101.373	-0.126	-0.147
-719.806	-200.000	-0.018	-0.199
-718.791	94.043	0.082	0.093
-717.777	28.253	0.119	-0.101
-716.762	-19.910	0.030	0.019
-715.748	800.000	-0.120	-0.337
-714.733	-200.000	-0.013	-0.177
-713.718	-166.876	-0.327	0.013
-712.704	-200.000	-0.027	0.148
-711.689	-0.812	-0.236	0.167
-710.675	-29.085	-0.065	0.037
-709.660	559.171	-0.038	0.093
-708.645	660.506	-0.115	0.298
-707.631	-88.861	0.272	0.081
-706.616	-20.907	-0.272	-0.167
-705.602	-200.000	0.075	-0.469
-704.587	-109.354	-0.111	0.024
-703.572	161.875	0.086	0.120
-702.558	800.000	-0.096	0.281
-701.543	345.027	-0.059	-0.115
-700.529	-73.081	0.135	0.050
-699.514	-88.514	-0.156	-0.047
-698.499	-132.911	0.147	-0.019
-697.485	199.887	-0.087	0.134
-696.470	-200.000	0.064	-0.379
-695.456	-1.918	-0.235	0.165
-694.441	-159.127	0.258	0.015
-693.426	800.000	0.118	-0.361
-692.412	-2.236	-0.264	-0.186
-691.397	-92.307	-0.073	0.021
-690.383	46.921	0.099	-0.093
-689.368	-200.000	-0.034	-0.221
-688.354	-8.367	0.157	0.106
-687.339	-62.963	-0.115	0.048
-686.324	-115.057	-0.231	-0.044
-685.310	31.047	-0.143	0.123
-684.295	-200.000	0.208	-0.001
-683.281	800.000	-0.070	0.268
-682.266	-200.000	0.025	0.281
-681.251	65.140	-0.254	0.257
-680.237	708.266	0.074	-0.194
-679.222	20.975	0.047	-0.038
-678.208	-200.000	-0.005	-0.222
-677.193	11.704	-0.135	-0.104
-676.178	-49.435	0.293	-0.140
-675.164	-36.983	-0.175	0.094
-674.149	280.551	0.109	0.194
-673.135	3.407	-0.069	-0.050
-672.120	-200.000	-0.017	0.104
-671.105	42.540	-0.295	0.269
-670.091	-19.455	0.021	0.013
-669.076	-30.558	0.368	0.209
-668.062	7.322	-0.279	0.208
-667.047	-200.000	0.015	0.133
-666.032	49.367	0.149	-0.141
-665.018	-118.695	-0.225	-0.040
-664.003	-24.524	-0.223	0.133
-662.989	314.708	0.110	0.207
-661.974	800.000	0.021	0.088
-660.959	-17.839	0.299	-0.188
-659.945	-9.989	0.191	0.127
-658.930	-174.846	-0.296	-0.008
-657.916	-200.000	-0.031	-0.433
-656.901	-200.000	0.011	-0.086
-655.886	354.717	0.139	-0.277
-654.872	-101.137	-0.086	-0.021
-653.857	-89.300	0.112	0.033
-652.843	-200.000	0.001	0.065
-651.828	800.000	-0.087	-0.307
-650.814	-118.554	0.391	0.069
-649.799	212.620	0.078	0.123
-648.784	74.952	-0.140	0.148
-647.770	800.000	-0.042	0.146
-646.755	49.026	-0.213	-0.200
-645.741	-50.399	0.271	-0.128
-644.726	-200.000	-0.026	0.318
-643.711	-200.000	-0.013	-0.121
-642.697	800.000	-0.078	0.266
-641.682	56.266	-0.148	-0.144
-640.668	-95.946	0.289	-0.077
-639.653	800.000	-0.101	-0.349
-638.638	324.755	0.089	-0.170
-637.624	580.795	-0.140	0.344
-636.609	-200.000	0.037	-0.248
-635.595	-5.123	0.212	0.146
-634.580	-36.632	-0.261	0.140
-633.565	24.760	-0.144	-0.119
-632.551	-10.835	0.350	0.231
-631.536	-200.000	-0.062	-0.403
-630.522	334.798	0.134	0.260
-629.507	266.763	-0.181	0.317
-628.492	125.029	0.163	-0.205
-627.478	-163.926	0.189	-0.009
-626.463	-53.651	-0.242	0.110
-625.449	-76.514	0.218	-0.077
-624.434	-47.783	0.041	0.020
-623.419	-52.196	-0.413	-0.191
-622.405	280.446	-0.132	-0.235
-621.390	-200.000	0.016	0.188
-620.376	-57.940	-0.150	0.065
-619.361	-200.000	0.014	0.228
-618.346	-76.282	0.332	-0.117
-617.332	736.940	0.064	-0.172
-616.317	77.681	0.169	-0.180
-615.303	-200.000	-0.016	0.514
-614.288	-33.541	-0.288	0.159
-613.273	-200.000	0.011	-0.342
-612.259	-58.899	0.291	0.125
-611.244	-17.327	-0.305	-0.192
-610.230	-87.926	0.333	-0.100
-609.215	475.576	0.053	-0.120
-608.201	299.796	0.077	0.142
-607.186	210.511	-0.174	-0.274
-606.171	108.313	0.139	-0.165
-605.157	-30.954	-0.179	-0.101
-604.142	271.313	-0.173	-0.304
-603.128	-200.000	-0.031	-0.372
-602.113	800.000	-0.063	0.213
-601.098	393.835	0.125	-0.260
-600.084	33.657	0.178	-0.154
-599.069	131.788	0.110	-0.141
-598.055	350.335	-0.116	0.229
-597.040	56.162	0.346	0.335
-596.025	106.300	-0.147	0.173
-595.011	186.297	0.136	-0.203
-593.996	-200.000	-0.001	0.269
-592.982	-145.197	0.158	0.014
-591.967	-149.545	0.314	0.025
-590.952	-9.361	-0.161	-0.107
-589.938	-81.001	0.100	0.033
-588.923	-28.593	-0.132	0.076
-587.909	327.738	-0.131	-0.250
-586.894	-131.350	0.410	-0.054
-585.879	-34.322	-0.211	0.115
-584.865	-102.152	-0.232	0.056
-583.850	-18.063	0.178	-0.111
-582.836	-109.146	-0.393	0.083
-581.821	-68.056	0.512	-0.199
-580.806	-66.139	0.209	0.083
-579.792	-36.387	0.124	0.066
-578.777	180.679	-0.141	0.206
-577.763	-2.612	0.105	-0.073
-576.748	98.081	0.034	0.039
-575.733	-22.687	0.033	0.020
-574.719	51.027	0.093	0.088
-573.704	-200.000	0.004	-0.408
-572.690	-200.000	0.036	-0.249
-571.675	121.075	0.064	-0.079
-570.661	-80.055	0.088	-0.030
-569.646	-29.274	0.185	0.106
-568.631	-162.644	-0.235	-0.011
-567.617	736.010	0.058	-0.156
-566.602	142.338	0.101	-0.134
-565.588	-133.810	-0.107	-0.013
-564.573	73.844	0.151	-0.158
-563.558	351.962	-0.017	-0.033
-562.544	96.215	0.145	0.166
-561.529	30.004	0.134	0.114
-560.515	-122.511	-0.278	0.045
-559.500	-27.736	-0.383	0.221
-558.485	228.429	0.119	0.193
-557.471	800.000	0.078	-0.332
-556.456	158.166	-0.040	-0.055
-555.442	800.000	0.014	0.054
-554.427	48.860	-0.168	-0.157
-553.412	-199.707	0.317	0.002
-552.398	300.996	-0.097	0.178
-551.383	-53.273	0.220	0.101
-550.369	-84.990	-0.344	0.107
-549.354	178.034	0.080	0.117
-548.339	69.765	0.115	-0.119
-547.325	-166.353	-0.018	-0.001
-546.310	-200.000	-0.075	-0.422
-545.296	770.940	0.104	-0.281
-544.281	-105.908	0.317	-0.071
-543.266	60.925	0.116	-0.115
-542.252	101.990	-0.256	-0.297
-541.237	472.648	-0.160	0.360
-540.223	800.000	0.065	-0.280
-539.208	-200.000	0.038	-0.206
-538.193	-200.000	-0.055	0.394
-537.179	-90.821	0.085	-0.024
-536.164	-99.991	-0.265	0.066
-535.150	194.569	-0.137	0.207
-534.135	-103.216	0.235	0.055
-533.121	-4.691	0.223	-0.153
-532.106	-24.946	-0.222	-0.131
-531.091	-188.225	-0.224	-0.003
-530.077	-183.398	0.312	0.005
-529.062	-51.213	-0.161	-0.075
-528.048	800.000	0.032	-0.121
-527.033	13.040	-0.325	-0.250
-526.018	56.544	-0.245	0.237
-525.004	-164.568	-0.101	0.005
-523.989	181.165	0.064	0.093
-522.975	-200.000	0.018	-0.117
-521.960	800.000	-0.013	0.054
-520.945	122.918	0.240	-0.298
-519.931	-116.804	0.248	0.045
-518.916	800.000	0.059	-0.173
-517.902	-53.181	0.066	0.030
-516.887	357.409	-0.027	-0.054
-515.872	268.207	-0.154	-0.269
-514.858	-200.000	-0.057	-0.437
-513.843	-200.000	0.005	-0.347
-512.829	-121.506	-0.242	-0.040
-511.814	-200.000	-0.070	-0.332
-510.799	64.859	-0.174	-0.175
-509.785	800.000	0.080	-0.270
-508.770	701.384	0.069	0.180
-507.756	150.358	-0.136	-0.184
-506.741	392.781	0.183	-0.378
-505.726	-130.485	0.130	0.017
-504.712	-44.435	-0.293	-0.146
-503.697	30.361	-0.042	-0.036
-502.683	-145.967	-0.367	-0.032
-501.668	256.602	-0.154	-0.263
-500.653	213.132	0.011	-0.018
-499.639	-200.000	-0.006	-0.194
-498.624	-200.000	-0.006	-0.167
-497.610	-200.000	0.053	-0.236
-496.595	-200.000	0.003	-0.184
-495.581	-89.122	-0.211	-0.062
-494.566	-200.000	-0.026	-0.174
-493.551	19.300	0.232	0.185
-492.537	-200.000	0.007	-0.221
-491.522	47.888	-0.076	-0.071
-490.508	237.432	-0.135	0.222
-489.493	-74.176	-0.109	-0.039
-488.478	-200.000	-0.005	0.309
-487.464	-59.484	-0.217	0.093
-486.449	-64.691	0.252	-0.101
-485.435	-114.609	0.323	-0.061
-484.420	-145.592	0.367	-0.033
-483.405	92.840	0.075	0.084
-482.391	4.290	-0.199	-0.145
-481.376	132.665	0.100	0.129
-480.362	-200.000	0.030	-0.253
-479.347	174.138	0.166	-0.239
-478.332	7.272	-0.089	-0.066
-477.318	-200.000	-0.013	-0.091
-476.303	17.537	0.153	-0.121
-475.289	623.493	-0.076	0.189
-474.274	-107.407	-0.353	-0.077
-473.259	-200.000	0.055	0.246
-472.245	-82.484	-0.360	0.116
-471.230	800.000	0.101	0.312
-470.216	263.339	-0.103	-0.177
-469.201	-108.837	-0.327	0.069
-468.186	228.812	-0.198	0.320
-467.172	-168.804	0.267	-0.010
-466.157	92.330	0.125	0.140
-465.143	214.690	-0.101	-0.160
-464.128	-104.183	0.236	0.055
-463.113	303.932	-0.141	0.259
-462.099	45.283	0.427	-0.391
-461.084	-71.270	-0.230	-0.085
-460.070	30.401	0.286	-0.242
-459.055	800.000	-0.230	-0.661
-458.040	-29.308	0.437	0.248
-457.026	-66.779	-0.291	0.114
-456.011	323.727	-0.102	0.193
-454.997	-200.000	-0.036	-0.232
-453.982	-68.770	-0.292	-0.112
-452.968	87.780	-0.049	-0.054
-451.953	-114.470	-0.399	0.076
-450.938	106.704	-0.075	-0.089
-449.924	151.374	0.128	-0.173
-448.909	32.187	-0.216	-0.185
-447.895	-200.000	-0.025	-0.201
-446.880	208.354	0.183	-0.284
-445.865	-200.000	-0.000	0.324
-444.851	-56.944	-0.225	0.099
-443.836	209.818	-0.202	-0.314
-442.822	628.907	-0.034	-0.085
-441.807	-200.000	0.016	0.124
-440.792	413.484	0.138	-0.291
-439.778	751.978	0.104	0.280
-438.763	24.534	0.187	0.153
-437.749	-87.753	0.187	0.056
-436.734	-200.000	0.016	-0.290
-435.719	31.561	0.117	0.100
-434.705	329.594	-0.087	0.166
-433.690	-200.000	0.027	0.128
-432.676	-200.000	-0.086	-0.426
-431.661	273.734	0.119	0.209
-430.646	-200.000	0.050	0.234
-429.632	-140.208	-0.248	0.026
-428.617	-77.563	0.149	-0.051
-427.603	-79.130	0.254	-0.086
-426.588	-39.432	-0.205	0.107
-425.573	-120.795	0.443	-0.074
-424.559	-23.589	-0.455	0.270
-423.544	-200.000	0.001	-0.005
-422.530	-17.528	-0.329	-0.205
-421.515	147.820	-0.096	-0.129
-420.500	244.370	0.022	0.037
-419.486	159.921	0.050	0.068
-418.471	-63.094	-0.048	0.020
-417.457	202.507	0.269	0.412
-416.442	53.303	-0.085	0.081
-415.428	-115.299	-0.352	0.066
-414.413	-60.023	0.346	0.146
-413.398	-200.000	-0.035	0.190
-412.384	-200.000	-0.009	0.232
-411.369	466.186	-0.094	-0.208
-410.355	-30.210	0.106	0.060
-409.340	302.819	-0.087	-0.160
-408.325	-87.028	0.194	-0.059
-407.311	518.452	0.165	0.382
-406.296	646.329	0.132	-0.335
-405.282	-165.742	0.437	-0.019
-404.267	-200.000	-0.072	0.330
-403.252	114.155	0.031	0.037
-402.238	-196.233	0.292	0.002
-401.223	607.212	-0.090	0.221
-400.209	-104.441	-0.275	-0.063
-399.194	-156.704	-0.174	0.011
-398.179	-200.000	-0.037	0.169
-397.165	800.000	-0.132	-0.389
-396.150	712.156	0.084	-0.220
-395.136	427.409	-0.201	-0.430
-394.121	134.508	-0.083	0.106
-393.106	-200.000	-0.047	0.344
-392.092	712.220	0.110	0.287
-391.077	-87.275	-0.396	0.119
-390.063	-156.557	0.421	-0.026
-389.048	-75.478	-0.141	0.050
-388.033	-200.000	-0.054	-0.299
-387.019	-75.211	-0.406	0.144
-386.004	-200.000	0.010	-0.277
-384.990	-129.654	-0.150	-0.020
-383.975	98.266	0.052	0.059
-382.960	800.000	-0.026	0.083
-381.946	112.020	-0.165	-0.197
-380.931	-104.936	-0.198	0.045
-379.917	-187.891	-0.190	0.002
-378.902	423.596	-0.065	0.139
-377.888	8.504	-0.102	0.076
-376.873	-97.848	-0.275	-0.070
-375.858	-45.989	-0.087	-0.043
-374.844	445.910	-0.108	-0.236
-373.829	-200.000	-0.003	-0.134
-372.815	63.338	-0.085	0.084
-371.800	-92.779	0.344	0.095
-370.785	405.328	-0.110	0.230
-369.771	-119.903	0.177	-0.030
-368.756	-81.593	-0.320	-0.104
-367.742	-64.157	0.231	-0.093
-366.727	530.799	-0.059	0.138
-365.712	-114.920	0.300	0.056
-364.698	63.344	-0.011	0.011
-363.683	-86.570	-0.208	-0.063
-362.669	-200.000	0.054	-0.306
-361.654	-99.241	0.104	-0.026
-360.639	-67.002	0.255	0.099
-359.625	-83.410	0.310	0.098
-358.610	-96.701	-0.120	0.031
-357.596	-19.369	-0.176	-0.108
-356.581	-200.000	-0.007	0.185
-355.566	-40.861	0.304	-0.155
-354.552	-6.271	-0.137	-0.093
-353.537	44.788	-0.049	-0.044
-352.523	-200.000	0.021	0.380
-351.508	20.779	-0.228	-0.183
-350.493	381.526	-0.050	0.101
-349.479	-170.539	0.183	0.006
-348.464	-60.977	0.075	-0.031
-347.450	136.005	-0.266	0.343
-346.435	-149.704	-0.426	-0.033
-345.420	-104.491	-0.146	-0.033
-344.406	26.667	0.129	0.106
-343.391	-24.857	0.228	0.134
-342.377	-82.397	0.304	-0.098
-341.362	-19.230	-0.133	-0.081
-340.348	237.662	-0.171	0.281
-339.333	800.000	-0.034	-0.095
-338.318	-200.000	-0.011	-0.047
-337.304	14.957	0.177	0.137
-336.289	60.705	0.052	-0.051
-335.275	6.638	-0.113	0.083
-334.260	-145.410	-0.700	0.062
-333.245	274.224	0.070	-0.122
-332.231	-78.173	-0.236	-0.080
-331.216	96.033	0.022	-0.025
-330.202	-89.031	-0.068	0.020
-329.187	-138.853	-0.201	-0.022
-328.172	-47.911	0.078	-0.037
-327.158	-4.543	0.151	0.103
-326.143	-140.729	-0.228	0.023
-325.129	-200.000	0.093	0.514
-324.114	34.289	0.220	-0.189
-323.099	800.000	-0.067	-0.267
-322.085	2.172	0.256	-0.183
-321.070	-60.685	-0.115	-0.048
-320.056	-29.984	-0.138	-0.078
-319.041	-50.316	0.097	-0.045
-318.026	-74.219	0.146	-0.052
-317.012	-84.381	-0.259	0.081
-315.997	316.373	0.153	0.285
-314.983	19.090	-0.294	-0.233
-313.968	126.479	-0.107	-0.133
-312.953	405.712	-0.076	0.158
-311.939	78.792	-0.158	0.167
-310.924	-60.827	0.179	0.075
-309.910	48.576	-0.287	0.265
-308.895	-29.966	0.228	0.128
-307.880	-200.000	-0.022	0.187
-306.866	800.000	0.041	-0.119
-305.851	125.178	0.037	0.046
-304.837	-53.090	0.267	-0.121
-303.822	-156.073	-0.045	0.003
-302.807	800.000	-0.107	-0.309
-301.793	-200.000	0.001	-0.126
-300.778	20.696	-0.057	-0.046
-299.764	800.000	0.016	-0.063
-298.749	-141.651	-0.291	-0.029
-297.735	-46.260	0.430	-0.208
-296.720	246.381	0.113	-0.187
-295.705	453.057	-0.077	-0.169
-294.691	-200.000	-0.006	0.035
-293.676	484.885	0.179	0.403
-292.662	-135.153	-0.213	-0.025
-291.647	524.637	-0.173	0.402
-290.632	454.421	0.118	0.258
-289.618	-14.873	-0.219	-0.138
-288.603	-44.440	0.348	0.172
-287.589	-200.000	-0.010	-0.537
-286.574	-200.000	-0.048	0.376
-285.559	634.769	0.017	0.041
-284.545	800.000	-0.060	-0.169
-283.530	-108.554	0.225	-0.048
-282.516	133.020	0.148	0.188
-281.501	-200.000	0.132	0.000
-280.486	-84.010	-0.081	0.025
-279.472	111.968	0.156	-0.186
-278.457	-16.440	0.192	0.120
-277.443	65.938	0.108	-0.108
-276.428	-200.000	0.014	0.448
-275.413	-200.000	0.004	0.219
-274.399	-16.848	0.155	-0.096
-273.384	-116.595	-0.158	-0.029
-272.370	-82.155	0.177	0.057
-271.355	27.326	-0.255	-0.211
-270.340	202.502	-0.148	0.226
-269.326	-200.000	0.011	0.265
-268.311	-200.000	-0.259	0.000
-267.297	11.133	-0.181	-0.136
-266.282	-130.632	-0.174	0.023
-265.267	-106.000	-0.304	0.067
-264.253	-53.177	-0.089	-0.040
-263.238	800.000	0.034	-0.125
-262.224	698.556	0.142	0.367
-261.209	179.733	0.160	-0.230
-260.195	537.198	0.032	-0.075
-259.180	-200.000	-0.038	-0.219
-258.165	23.068	-0.297	0.240
-257.151	-61.236	-0.308	0.128
-256.136	569.484	-0.018	-0.043
-255.122	-128.093	0.122	-0.017
-254.107	-52.845	0.238	0.108
-253.092	-143.091	0.375	-0.036
-252.078	-150.218	-0.108	0.008
-251.063	-200.000	-0.046	-0.203
-250.049	-97.181	0.168	-0.043
-249.034	-3.198	-0.222	-0.153
-248.019	800.000	0.064	-0.202
-247.005	-56.625	-0.260	-0.113
-245.990	-93.677	-0.130	-0.035
-244.976	-131.610	0.172	0.022
-243.961	-21.405	0.177	-0.106
-242.946	115.010	-0.285	0.342
-241.932	85.854	0.133	0.144
-240.917	-146.511	-0.256	0.022
-239.903	800.000	0.050	-0.187
-238.888	-83.946	0.373	0.117
-237.873	-200.000	-0.029	-0.330
-236.859	-65.795	0.042	0.016
-235.844	-200.000	-0.004	0.354
-234.830	193.285	0.127	0.189
-233.815	800.000	0.030	0.096
-232.800	-67.712	0.164	0.063
-231.786	-129.017	0.363	-0.050
-230.771	-103.888	0.246	0.056
-229.757	182.568	-0.096	-0.140
-228.742	49.337	0.165	-0.153
-227.727	478.598	0.023	-0.051
-226.713	-10.343	0.074	-0.049
-225.698	-200.000	-0.011	0.129
-224.684	175.603	-0.134	0.192
-223.669	77.585	-0.177	-0.185
-222.655	-6.697	-0.260	0.174
-221.640	800.000	-0.090	-0.329
-220.625	-200.000	0.034	-0.330
-219.611	183.810	-0.087	0.126
-218.596	583.109	-0.061	0.146
-217.582	-200.000	0.007	0.036
-216.567	-93.638	0.176	0.048
-215.552	-200.000	0.066	0.491
-214.538	-200.000	0.019	0.098
-213.523	-85.175	0.300	0.092
-212.509	633.546	-0.007	0.016
-211.494	-144.441	-0.175	-0.016
-210.479	433.860	-0.067	0.143
-209.465	3.967	0.031	-0.022
-208.450	-99.790	-0.245	0.060
-207.436	800.000	0.054	0.149
-206.421	-45.293	0.066	0.032
-205.406	111.569	0.092	0.109
-204.392	651.850	0.143	0.360
-203.377	41.285	-0.215	0.191
-202.363	800.000	-0.101	-0.290
-201.348	267.137	-0.032	0.055
-200.333	526.209	0.212	0.491
-199.319	228.594	0.046	0.074
-198.304	9.695	0.294	0.219
-197.290	734.531	-0.108	0.284
-196.275	32.056	-0.238	0.202
-195.260	-200.000	0.012	0.202
-194.246	85.706	0.314	0.340
-193.231	528.882	0.067	-0.155
-192.217	362.989	0.092	-0.182
-191.202	-57.822	-0.115	0.049
-190.187	-200.000	0.054	0.372
-189.173	-200.000	-0.042	0.461
-188.158	-131.128	0.095	-0.012
-187.144	46.947	0.347	-0.317
-186.129	-116.624	0.164	-0.030
-185.114	800.000	0.177	0.518
-184.100	-59.129	-0.077	-0.032
-183.085	556.890	0.202	0.477
-182.071	-33.527	0.301	0.163
-181.056	241.620	-0.101	-0.166
-180.042	120.210	0.115	-0.140
-179.027	-200.000	0.001	-0.064
-178.012	426.826	-0.027	-0.057
-176.998	-17.230	0.091	0.056
-175.983	215.436	0.161	-0.251
-174.969	-200.000	-0.038	0.218
-173.954	-161.139	0.448	0.023
-172.939	-82.214	0.322	-0.103
-171.925	-48.625	-0.048	-0.023
-170.910	-95.063	-0.154	-0.041
-169.896	-47.943	-0.139	-0.066
-168.881	-66.298	-0.238	-0.093
-167.866	-200.000	-0.002	-0.170
-166.852	-200.000	-0.084	0.409
-165.837	104.848	0.211	0.244
-164.823	-113.752	-0.295	0.056
-163.808	-59.345	0.245	-0.103
-162.793	750.115	0.075	0.200
-161.779	-16.614	-0.042	-0.026
-160.764	-200.000	0.012	0.125
-159.750	593.537	-0.091	-0.220
-158.735	-133.547	0.138	-0.017
-157.720	-200.000	0.018	0.105
-156.706	-12.545	0.093	0.060
-155.691	-109.076	-0.218	0.046
-154.677	-137.160	0.162	-0.018
-153.662	-168.012	-0.171	-0.007
-152.647	-200.000	0.031	0.358
-151.633	800.000	-0.039	0.114
-150.618	-39.399	0.266	-0.137
-149.604	-91.016	-0.107	0.030
-148.589	463.779	0.128	-0.281
-147.574	225.163	0.183	0.290
-146.560	-200.000	0.013	0.115
-145.545	542.332	0.098	-0.228
-144.531	748.589	-0.148	0.392
-143.516	17.311	-0.239	0.186
-142.502	800.000	0.020	0.059
-141.487	119.813	-0.171	-0.207
-140.472	-156.532	-0.196	0.012
-139.458	569.810	0.052	0.123
-138.443	-26.633	-0.227	-0.130
-137.429	800.000	0.042	0.143
-136.414	53.756	-0.345	0.325
-135.399	-163.512	0.194	0.009
-134.385	-200.000	-0.043	0.435
-133.370	-91.860	-0.094	0.026
-132.356	-72.037	0.232	-0.085
-131.341	271.397	0.064	-0.110
-130.326	246.257	0.101	-0.167
-129.312	-125.342	0.068	0.010
-128.297	-118.628	-0.119	0.021
-127.283	373.671	0.115	0.230
-126.268	56.375	0.209	0.199
-125.253	-25.958	-0.150	-0.086
-124.239	-5.610	0.070	-0.047
-123.224	704.445	-0.124	-0.320
-122.210	-36.646	0.160	0.084
