DTS Sentinel unit serial number:	SN413079Multiplexer serial number:	ORYXHardware model number:	OX4-SRSoftware version number:	ORYX F/W v4.00 Oryx Data Collector v3.7.2.0data status	okinstallation	princeton_trtdifferential loss correction	single-endedforward channel	channel 2reverse channel	N/Adate	2019/09/15time	17:51:35forward acquisition time	60.00reverse acquisition time	0.00gamma	496.2192k internal	0.2284k external	0.2284temperature offset calibration	0.9923default loss term (dB/km)	0.3790temperature slope calibration	1.0000multiplexer offset coefficient	1.0000multiplexer slope coefficient	1.0000fibre end	0.00T internal ref (°C)	44.87T ext. ref 1 (°C)	6.36T ext. ref 2 (°C)	39.19length (m)	temperature (°C)	Stokes	anti-Stokes-747.200	73.296	-0.224	0.241
-746.185	800.000	-0.060	0.184
-745.171	-121.309	0.144	-0.025
-744.156	-159.759	0.182	-0.010
-743.142	-42.183	-0.479	0.252
-742.127	214.999	-0.181	0.295
-741.112	-23.859	0.072	-0.044
-740.098	800.000	-0.117	-0.414
-739.083	149.213	-0.238	0.330
-738.069	-200.000	-0.009	0.076
-737.054	-53.595	-0.198	0.093
-736.039	-200.000	0.034	0.152
-735.025	96.027	0.189	0.222
-734.010	-57.787	-0.164	0.074
-732.996	-200.000	-0.029	-0.151
-731.981	386.405	0.135	-0.287
-730.966	-47.469	0.286	-0.143
-729.952	-81.604	-0.180	-0.061
-728.937	-200.000	-0.006	-0.320
-727.923	8.197	-0.235	0.181
-726.908	96.676	0.116	-0.136
-725.894	-96.687	-0.293	0.079
-724.879	377.902	-0.067	0.141
-723.864	-101.599	-0.179	-0.045
-722.850	31.789	-0.081	-0.072
-721.835	-71.560	0.266	0.102
-720.821	-185.245	0.084	-0.001
-719.806	-104.136	-0.194	-0.046
-718.791	170.017	-0.187	0.274
-717.777	-151.990	-0.380	-0.028
-716.762	-2.573	-0.166	-0.119
-715.748	-113.919	-0.040	0.008
-714.733	-136.081	-0.387	-0.047
-713.718	74.133	0.289	0.311
-712.704	148.183	-0.138	0.191
-711.689	-78.059	0.391	0.138
-710.675	156.802	-0.098	-0.139
-709.660	143.217	-0.216	-0.295
-708.645	-73.039	-0.022	-0.008
-707.631	46.573	-0.086	0.082
-706.616	-163.200	-0.069	-0.003
-705.602	212.065	0.143	-0.231
-704.587	-15.101	-0.025	-0.016
-703.572	-200.000	0.003	-0.316
-702.558	24.122	0.249	-0.211
-701.543	400.397	0.054	-0.117
-700.529	-87.722	-0.116	0.036
-699.514	-21.115	-0.174	-0.109
-698.499	-78.099	0.239	0.084
-697.485	-200.000	0.011	-0.056
-696.470	275.470	0.149	-0.270
-695.456	-128.968	0.073	0.010
-694.441	-200.000	-0.018	-0.228
-693.426	448.310	-0.075	0.170
-692.412	-200.000	0.015	0.151
-691.397	-200.000	-0.019	-0.508
-690.383	215.389	-0.158	0.257
-689.368	-151.364	-0.365	-0.028
-688.354	-200.000	-0.013	-0.296
-687.339	90.263	0.081	-0.093
-686.324	800.000	-0.030	0.110
-685.310	-86.997	0.122	-0.038
-684.295	68.529	0.112	0.118
-683.281	-200.000	-0.051	-0.241
-682.266	-65.109	0.344	-0.142
-681.251	-14.764	0.158	-0.104
-680.237	-152.628	0.124	0.009
-679.222	-2.574	-0.228	0.164
-678.208	800.000	-0.067	-0.206
-677.193	-200.000	-0.016	-0.181
-676.178	-54.971	-0.236	-0.109
-675.164	-42.066	0.101	-0.053
-674.149	-102.793	0.563	-0.137
-673.135	-64.158	-0.037	-0.015
-672.120	-81.765	-0.373	-0.125
-671.105	-70.833	0.207	-0.080
-670.091	-57.619	-0.252	-0.113
-669.076	683.465	0.031	-0.082
-668.062	800.000	-0.041	0.165
-667.047	3.412	-0.268	-0.200
-666.032	-15.903	-0.178	0.116
-665.018	-200.000	0.014	0.133
-664.003	55.835	0.146	-0.145
-662.989	-27.330	-0.209	-0.124
-661.974	-200.000	0.011	-0.263
-660.959	-132.898	0.075	-0.010
-659.945	800.000	0.075	0.224
-658.930	-146.316	0.080	-0.007
-657.916	-33.833	0.276	-0.156
-656.901	-200.000	0.029	-0.285
-655.886	118.821	0.251	-0.318
-654.872	152.868	-0.037	-0.052
-653.857	-89.435	0.171	0.052
-652.843	-35.704	-0.049	0.027
-651.828	-129.754	-0.299	-0.042
-650.814	187.295	-0.149	-0.227
-649.799	-171.007	0.181	-0.006
-648.784	-200.000	0.008	-0.158
-647.770	618.191	0.046	0.118
-646.755	-182.351	-0.221	-0.004
-645.741	800.000	-0.027	0.092
-644.726	-79.893	0.237	0.082
-643.711	800.000	-0.024	0.088
-642.697	-200.000	0.018	-0.215
-641.682	-135.113	-0.101	-0.012
-640.668	-189.218	0.247	0.003
-639.653	8.482	-0.226	0.174
-638.638	-77.841	-0.101	0.036
-637.624	-200.000	0.108	0.000
-636.609	-128.323	-0.144	0.021
-635.595	-4.766	-0.201	0.142
-634.580	-107.004	0.326	0.074
-633.565	800.000	0.033	-0.110
-632.551	80.614	-0.283	0.311
-631.536	800.000	-0.073	0.274
-630.522	45.245	0.157	-0.148
-629.507	14.273	0.209	-0.167
-628.492	521.119	0.113	0.270
-627.478	-81.213	-0.153	-0.052
-626.463	-49.613	-0.183	-0.089
-625.449	184.329	-0.173	-0.261
-624.434	228.699	0.095	-0.159
-623.419	-107.401	-0.105	0.024
-622.405	800.000	-0.116	0.343
-621.390	800.000	0.049	0.157
-620.376	169.245	0.247	-0.360
-619.361	158.631	-0.117	-0.166
-618.346	-110.657	0.162	-0.034
-617.332	-106.374	-0.103	0.024
-616.317	89.685	0.201	0.230
-615.303	269.349	-0.048	0.086
-614.288	-200.000	-0.024	-0.134
-613.273	71.050	0.184	0.195
-612.259	-132.524	-0.203	0.027
-611.244	60.687	0.190	0.193
-610.230	30.107	0.107	-0.093
-609.215	-2.537	-0.100	-0.071
-608.201	6.296	0.164	-0.124
-607.186	800.000	0.104	0.317
-606.171	-200.000	0.018	-0.286
-605.157	-8.856	-0.100	0.069
-604.142	328.617	0.045	0.089
-603.128	-3.568	0.302	-0.215
-602.113	-131.428	0.176	-0.024
-601.098	-79.888	-0.248	-0.085
-600.084	-200.000	0.009	0.142
-599.069	-200.000	0.013	-0.071
-598.055	-69.469	-0.035	-0.014
-597.040	-200.000	-0.007	0.228
-596.025	381.460	-0.048	-0.101
-595.011	-200.000	-0.007	-0.269
-593.996	-0.706	-0.020	-0.015
-592.982	-62.499	0.380	0.161
-591.967	-200.000	0.000	-0.146
-590.952	-117.395	-0.117	-0.022
-589.938	-200.000	-0.000	-0.089
-588.923	-40.667	0.279	0.148
-587.909	305.710	-0.072	0.136
-586.894	-36.115	-0.211	0.116
-585.879	190.601	-0.062	0.096
-584.865	148.812	-0.087	-0.120
-583.850	1.751	-0.123	0.090
-582.836	-182.483	-0.206	-0.004
-581.821	9.488	-0.080	0.062
-580.806	54.685	0.105	0.104
-579.792	55.559	-0.098	-0.097
-578.777	-141.747	-0.193	-0.020
-577.763	-109.751	0.022	-0.005
-576.748	-131.601	-0.064	-0.009
-575.733	-132.835	-0.268	0.035
-574.719	-85.308	0.132	-0.042
-573.704	468.073	-0.079	-0.182
-572.690	-111.592	0.038	-0.008
-571.675	-77.368	-0.096	0.034
-570.661	9.458	0.160	0.123
-569.646	-200.000	0.016	-0.072
-568.631	-163.147	0.238	0.012
-567.617	-200.000	0.089	-0.484
-566.602	-17.778	-0.276	0.177
-565.588	-90.950	0.464	-0.136
-564.573	-19.445	-0.220	0.139
-563.558	97.886	0.269	0.316
-562.544	228.137	0.038	-0.062
-561.529	-200.000	-0.036	-0.282
-560.515	-50.880	-0.264	-0.126
-559.500	-20.805	0.078	0.049
-558.485	-200.000	0.056	0.324
-557.471	-129.846	-0.206	0.029
-556.456	-110.964	0.271	0.057
-555.442	36.133	-0.144	0.129
-554.427	-38.860	-0.090	-0.049
-553.412	-62.088	0.172	0.073
-552.398	-159.714	-0.163	-0.009
-551.383	59.646	-0.147	0.148
-550.369	-118.751	0.133	-0.024
-549.354	-200.000	0.013	0.201
-548.339	-104.133	-0.347	0.082
-547.325	-200.000	0.009	-0.256
-546.310	153.705	0.079	-0.111
-545.296	-58.540	0.277	0.122
-544.281	-91.546	-0.110	0.032
-543.266	-67.318	0.165	-0.066
-542.252	581.953	0.091	-0.228
-541.237	-160.983	0.285	-0.015
-540.223	-159.093	-0.509	-0.029
-539.208	263.966	0.077	0.136
-538.193	79.519	-0.087	-0.096
-537.179	101.418	-0.250	-0.297
-536.164	-120.551	0.037	0.006
-535.150	-69.984	-0.127	0.049
-534.135	-129.688	-0.180	0.025
-533.121	17.850	0.169	0.137
-532.106	152.783	0.199	-0.277
-531.091	-108.827	-0.229	-0.050
-530.077	-60.224	0.126	0.054
-529.062	-60.179	-0.217	0.094
-528.048	-51.688	-0.228	-0.108
-527.033	-135.942	0.353	-0.042
-526.018	-102.802	-0.353	-0.086
-525.004	-200.000	-0.022	-0.108
-523.989	-130.888	-0.156	-0.021
-522.975	-200.000	-0.010	-0.065
-521.960	-112.281	0.192	0.039
-520.945	-51.521	0.106	-0.050
-519.931	-84.618	-0.426	0.137
-518.916	-69.535	0.291	0.113
-517.902	-78.070	0.163	0.057
-516.887	54.394	0.155	-0.152
-515.872	-12.268	-0.210	-0.140
-514.858	800.000	-0.024	0.081
-513.843	800.000	-0.041	0.165
-512.829	-21.440	0.123	0.076
-511.814	50.390	0.104	0.100
-510.799	-96.798	0.149	0.040
-509.785	31.999	-0.205	-0.180
-508.770	800.000	0.066	0.259
-507.756	800.000	0.089	-0.267
-506.741	154.227	0.045	0.063
-505.726	-200.000	-0.033	-0.290
-504.712	800.000	-0.047	-0.140
-503.697	-200.000	-0.013	-0.126
-502.683	-200.000	-0.001	0.056
-501.668	-200.000	-0.052	0.349
-500.653	800.000	-0.029	-0.088
-499.639	-0.845	-0.147	-0.106
-498.624	411.394	-0.181	0.391
-497.610	158.461	-0.162	-0.229
-496.595	5.563	-0.238	0.179
-495.581	-74.564	0.217	-0.080
-494.566	-102.529	-0.201	0.049
-493.551	-200.000	0.054	0.398
-492.537	800.000	-0.058	-0.207
-491.522	-76.533	-0.390	-0.139
-490.508	-200.000	-0.035	0.201
-489.493	-5.588	0.210	0.146
-488.478	-165.447	-0.111	0.005
-487.464	-53.236	-0.070	-0.033
-486.449	-200.000	0.064	0.309
-485.435	-123.927	0.179	0.029
-484.420	-27.028	0.159	-0.094
-483.405	270.823	0.168	-0.300
-482.391	-38.950	-0.122	-0.065
-481.376	579.672	-0.061	-0.153
-480.362	-8.352	-0.139	0.095
-479.347	-200.000	-0.027	-0.150
-478.332	-114.433	0.121	0.024
-477.318	81.017	-0.185	-0.203
-476.303	-96.163	0.199	-0.054
-475.289	-16.722	-0.241	-0.155
-474.274	-200.000	-0.025	0.217
-473.259	69.573	-0.030	0.031
-472.245	-140.371	-0.391	-0.041
-471.230	653.276	-0.154	0.401
-470.216	448.829	-0.104	-0.233
-469.201	-8.877	-0.369	-0.251
-468.186	103.948	0.060	0.072
-467.172	331.623	-0.087	-0.171
-466.157	77.814	-0.216	-0.234
-465.143	220.402	-0.089	-0.146
-464.128	-43.289	0.315	0.162
-463.113	395.047	0.008	0.017
-462.099	45.201	0.118	-0.110
-461.084	27.996	-0.349	0.299
-460.070	-200.000	0.030	0.152
-459.055	139.044	-0.241	0.322
-458.040	-200.000	-0.006	0.424
-457.026	-200.000	-0.065	0.465
-456.011	141.265	-0.087	0.116
-454.997	-200.000	0.012	-0.084
-453.982	703.564	0.030	0.081
-452.968	-59.944	0.047	0.020
-451.953	28.610	-0.208	-0.179
-450.938	-41.027	-0.238	0.125
-449.924	111.525	-0.279	-0.342
-448.909	4.810	0.342	0.255
-447.895	364.714	-0.072	0.147
-446.880	-6.298	0.492	-0.341
-445.865	533.384	-0.019	0.045
-444.851	-104.432	0.439	-0.103
-443.836	-24.230	0.183	-0.111
-442.822	14.345	0.158	-0.125
-441.807	101.272	0.085	-0.101
-440.792	-200.000	0.051	0.362
-439.778	-0.908	0.178	-0.128
-438.763	800.000	-0.099	-0.392
-437.749	-38.099	0.128	0.069
-436.734	167.786	-0.130	0.188
-435.719	-200.000	-0.037	-0.234
-434.705	-200.000	0.033	-0.161
-433.690	555.801	0.172	-0.420
-432.676	-72.638	0.537	-0.201
-431.661	136.079	0.216	0.285
-430.646	-166.562	-0.387	0.016
-429.632	329.364	0.107	-0.209
-428.617	-126.813	-0.103	-0.015
-427.603	-200.000	-0.041	-0.332
-426.588	-200.000	0.014	0.412
-425.573	-21.860	0.015	-0.009
-424.559	11.799	0.283	0.220
-423.544	-200.000	-0.033	-0.171
-422.530	82.819	-0.088	0.097
-421.515	233.489	-0.073	-0.122
-420.500	800.000	-0.069	0.203
-419.486	-10.674	-0.232	0.156
-418.471	466.064	-0.027	0.061
-417.457	-96.063	-0.190	-0.051
-416.442	18.640	0.007	-0.006
-415.428	165.115	0.140	0.201
-414.413	135.723	-0.093	0.123
-413.398	24.656	0.237	-0.199
-412.384	311.949	0.021	-0.040
-411.369	116.421	0.035	-0.043
-410.355	269.701	0.136	-0.242
-409.340	-125.122	0.179	-0.028
-408.325	-66.170	-0.145	0.059
-407.311	-80.964	-0.286	0.096
-406.296	-31.699	0.352	0.200
-405.282	450.513	0.121	-0.271
-404.267	-200.000	-0.003	-0.218
-403.252	-200.000	-0.013	0.189
-402.238	-33.834	0.116	0.065
-401.223	43.344	-0.128	-0.119
-400.209	-26.090	-0.105	-0.062
-399.194	60.360	0.082	0.082
-398.179	-62.046	-0.172	-0.073
-397.165	54.664	-0.217	0.213
-396.150	-144.996	-0.327	-0.030
-395.136	-85.076	0.069	0.022
-394.121	-200.000	-0.048	-0.233
-393.106	-13.741	-0.184	0.121
-392.092	800.000	-0.009	-0.032
-391.077	-8.032	-0.201	0.137
-390.063	-200.000	0.036	-0.188
-389.048	-200.000	-0.000	0.053
-388.033	-72.673	-0.128	-0.048
-387.019	-57.619	-0.428	0.190
-386.004	251.618	0.067	0.115
-384.990	-86.376	-0.297	-0.093
-383.975	-200.000	0.028	-0.318
-382.960	-108.343	0.220	-0.048
-381.946	800.000	0.081	0.301
-380.931	800.000	-0.104	-0.360
-379.917	-200.000	0.018	0.123
-378.902	800.000	-0.074	0.278
-377.888	-147.529	0.248	0.021
-376.873	-200.000	-0.016	0.269
-375.858	800.000	0.086	0.287
-374.844	-195.320	0.114	-0.001
-373.829	23.794	0.251	0.209
-372.815	161.641	-0.142	-0.201
-371.800	-200.000	0.043	0.254
-370.785	-200.000	0.018	0.311
-369.771	-30.950	0.126	-0.072
-368.756	-200.000	0.010	0.157
-367.742	-166.882	0.356	0.015
-366.727	-143.715	0.213	-0.020
-365.712	-200.000	-0.061	0.289
-364.698	143.496	-0.213	0.288
-363.683	22.662	-0.184	-0.153
-362.669	-160.342	0.063	-0.003
-361.654	-12.013	0.292	0.194
-360.639	-68.018	0.112	-0.044
-359.625	1.535	-0.134	0.097
-358.610	-43.954	0.254	-0.129
-357.596	15.550	0.155	-0.123
-356.581	-13.145	-0.080	0.053
-355.566	800.000	-0.053	0.165
-354.552	-136.811	0.171	-0.020
-353.537	800.000	0.039	-0.143
-352.523	-200.000	-0.041	-0.226
-351.508	132.582	0.114	0.149
-350.493	-95.880	-0.198	0.053
-349.479	233.907	-0.171	0.285
-348.464	357.466	-0.086	0.173
-347.450	10.366	0.146	-0.112
-346.435	-142.865	-0.332	0.033
-345.420	-200.000	0.032	0.256
-344.406	-101.344	0.285	-0.070
-343.391	-73.237	0.148	0.055
-342.377	-37.953	-0.230	0.124
-341.362	26.110	-0.126	-0.107
-340.348	-50.742	-0.110	-0.052
-339.333	-73.824	-0.102	-0.038
-338.318	-200.000	0.000	-0.298
-337.304	-1.543	0.277	0.197
-336.289	800.000	-0.069	-0.292
-335.275	-76.759	-0.116	-0.041
-334.260	-60.412	0.173	0.074
-333.245	-139.812	0.205	0.022
-332.231	38.957	-0.204	-0.184
-331.216	-112.567	-0.112	-0.023
-330.202	-125.844	0.460	0.070
-329.187	59.146	0.245	0.243
-328.172	-200.000	-0.020	-0.213
-327.158	-155.713	-0.367	0.024
-326.143	800.000	0.011	0.034
-325.129	-123.584	0.104	-0.017
-324.114	-142.133	-0.412	0.041
-323.099	-71.500	0.111	-0.042
-322.085	-108.983	0.067	-0.014
-321.070	800.000	0.007	-0.027
-320.056	10.706	-0.226	-0.175
-319.041	-39.295	-0.226	-0.120
-318.026	-200.000	-0.015	0.444
-317.012	82.423	-0.114	-0.125
-315.997	56.467	-0.135	-0.133
-314.983	155.930	0.049	-0.068
-313.968	170.312	0.161	-0.233
-312.953	-135.765	-0.179	-0.021
-311.939	-105.795	0.283	-0.064
-310.924	-200.000	-0.023	-0.328
-309.910	126.434	0.163	0.208
-308.895	-51.692	-0.248	0.117
-307.880	89.086	0.106	-0.119
-306.866	-56.716	-0.168	-0.075
-305.851	-200.000	-0.022	0.258
-304.837	8.873	0.318	0.242
-303.822	-115.483	0.069	0.013
-302.807	-58.998	0.188	-0.082
-301.793	647.182	0.057	0.147
-300.778	-105.056	0.303	0.070
-299.764	40.070	0.049	-0.045
-298.749	311.290	-0.008	0.014
-297.735	800.000	-0.062	-0.211
-296.720	-132.389	0.198	-0.026
-295.705	38.135	0.093	0.084
-294.691	39.941	0.147	-0.134
-293.676	-200.000	0.023	-0.154
-292.662	460.679	0.061	0.137
-291.647	22.970	0.108	0.089
-290.632	-200.000	0.079	-0.351
-289.618	-32.977	-0.132	-0.074
-288.603	-67.457	-0.222	0.088
-287.589	138.295	-0.105	-0.139
-286.574	1.223	0.020	0.014
-285.559	-26.588	0.311	-0.184
-284.545	260.382	-0.100	0.175
-283.530	25.732	0.156	0.131
-282.516	-44.758	-0.340	-0.171
-281.501	172.906	0.178	-0.258
-280.486	-43.794	0.004	0.002
-279.472	235.241	0.116	-0.193
-278.457	-35.105	-0.084	-0.046
-277.443	-139.473	0.064	-0.007
-276.428	223.493	0.194	-0.316
-275.413	-66.351	0.410	0.165
-274.399	-95.662	0.345	-0.093
-273.384	-89.289	-0.224	0.066
-272.370	-118.630	0.150	0.027
-271.355	220.937	0.171	0.277
-270.340	-184.261	-0.245	0.004
-269.326	-87.054	0.131	-0.040
-268.311	-19.468	-0.289	-0.181
-267.297	-95.164	0.281	0.076
-266.282	-35.009	-0.136	0.075
-265.267	-200.000	0.084	0.375
-264.253	745.572	0.112	0.305
-263.238	-63.548	0.219	0.091
-262.224	-94.990	0.114	-0.031
-261.209	-200.000	0.072	0.356
-260.195	65.016	0.216	-0.220
-259.180	-101.024	0.170	0.042
-258.165	120.255	-0.257	0.321
-257.151	-156.660	-0.343	0.021
-256.136	800.000	0.107	-0.317
-255.122	262.955	-0.061	-0.106
-254.107	800.000	-0.024	-0.077
-253.092	-132.504	-0.112	0.015
-252.078	-200.000	-0.026	0.208
-251.063	-31.682	-0.306	0.173
-250.049	-200.000	0.034	-0.243
-249.034	153.140	0.258	0.356
-248.019	-151.972	-0.086	-0.006
-247.005	121.234	-0.233	-0.293
-245.990	236.230	0.088	-0.147
-244.976	544.050	-0.101	-0.244
-243.961	322.634	-0.069	-0.132
-242.946	800.000	0.040	-0.112
-241.932	-34.800	-0.089	-0.049
-240.917	-167.216	-0.193	0.008
-239.903	-136.217	0.179	-0.021
-238.888	-120.656	0.195	0.033
-237.873	265.541	0.138	-0.243
-236.859	800.000	-0.052	-0.148
-235.844	-200.000	0.049	-0.412
-234.830	-200.000	0.087	-0.473
-233.815	-56.789	0.356	0.158
-232.800	-121.932	-0.100	-0.017
-231.786	-7.608	0.094	0.064
-230.771	-200.000	-0.100	0.686
-229.757	-200.000	-0.016	-0.328
-228.742	800.000	-0.097	-0.304
-227.727	-200.000	-0.019	-0.231
-226.713	-132.571	0.043	-0.006
-225.698	-200.000	0.037	-0.169
-224.684	800.000	-0.046	0.143
-223.669	-150.119	-0.221	0.017
-222.655	379.100	-0.167	0.345
-221.640	-200.000	-0.006	0.141
-220.625	-123.568	-0.320	0.051
-219.611	-118.459	0.208	0.037
-218.596	-25.100	0.204	-0.121
-217.582	-183.266	-0.378	-0.007
-216.567	385.696	0.050	-0.104
-215.552	760.595	-0.037	0.101
-214.538	3.767	0.157	0.115
-213.523	722.460	-0.070	0.186
-212.509	-82.671	-0.316	0.103
-211.494	101.894	-0.048	0.056
-210.479	45.685	-0.068	-0.063
-209.465	-19.735	0.115	-0.072
-208.450	38.768	-0.243	0.219
-207.436	800.000	-0.074	0.245
-206.421	-94.587	0.017	-0.005
-205.406	-164.861	0.401	-0.018
-204.392	-13.599	-0.173	-0.113
-203.377	-200.000	0.011	-0.315
-202.363	-200.000	0.007	-0.236
-201.348	730.754	0.063	0.170
-200.333	145.025	-0.199	0.268
-199.319	-177.345	-0.078	-0.002
-198.304	-200.000	-0.043	0.198
-197.290	-24.711	0.315	0.188
-196.275	-9.663	-0.459	0.308
-195.260	12.687	-0.345	0.268
-194.246	-200.000	-0.032	-0.235
-193.231	699.299	-0.006	0.015
-192.217	800.000	0.023	0.080
-191.202	-54.284	0.293	0.134
-190.187	304.396	0.028	-0.053
-189.173	-200.000	-0.054	-0.269
-188.158	12.278	0.130	-0.100
-187.144	-200.000	0.003	0.072
-186.129	-78.068	0.060	-0.021
-185.114	-44.506	0.099	-0.050
-184.100	779.704	-0.008	0.021
-183.085	-200.000	-0.003	0.161
-182.071	88.722	-0.034	-0.038
-181.056	-40.852	-0.046	-0.024
-180.042	-200.000	0.058	0.319
-179.027	-120.710	-0.006	-0.001
-178.012	800.000	-0.068	-0.197
-176.998	-63.100	0.381	-0.158
-175.983	625.019	0.112	-0.285
-174.969	-100.586	0.220	0.055
-173.954	-138.854	-0.102	0.011
-172.939	332.539	0.082	0.159
-171.925	-200.000	0.063	-0.305
-170.910	344.940	0.159	-0.314
-169.896	-96.944	0.341	-0.090
-168.881	-200.000	-0.008	-0.118
-167.866	716.441	-0.070	-0.187
-166.852	456.562	-0.114	-0.254
-165.837	153.362	-0.040	0.055
-164.823	74.668	-0.092	-0.097
-163.808	-19.943	-0.331	-0.205
-162.793	80.158	0.187	-0.202
-161.779	-4.926	-0.138	0.095
-160.764	316.668	0.062	-0.119
-159.750	-79.701	-0.157	-0.053
-158.735	97.272	0.071	0.081
-157.720	4.497	-0.172	0.127
-156.706	-12.262	-0.251	0.165
-155.691	-200.000	0.289	-0.001
-154.677	36.767	-0.177	-0.157
-153.662	-36.474	0.119	-0.064
-152.647	-37.357	0.236	0.127
-151.633	422.540	0.045	0.097
-150.618	263.576	-0.152	0.266
-149.604	-60.663	0.278	0.118
-148.589	800.000	0.106	0.300
-147.574	161.746	0.157	0.221
-146.560	243.562	-0.137	0.230
-145.545	229.258	0.042	0.069
-144.531	72.131	-0.187	-0.196
-143.516	-35.808	0.278	0.151
-142.502	-33.811	-0.096	-0.053
-141.487	-200.000	-0.007	-0.164
-140.472	-131.672	-0.121	0.016
-139.458	265.655	-0.107	0.187
-138.443	142.880	0.104	-0.139
-137.429	519.177	-0.136	0.320
-136.414	-13.649	0.191	0.124
-135.399	-55.144	0.122	-0.055
-134.385	-200.000	0.052	0.233
-133.370	-127.353	-0.126	-0.018
-132.356	312.641	-0.161	-0.303
-131.341	234.994	-0.221	-0.366
-130.326	-200.000	0.027	-0.351
-129.312	-136.311	-0.083	0.010
-128.297	-200.000	-0.030	-0.547
-127.283	-44.374	0.275	-0.138
-126.268	340.000	0.092	-0.181
-125.253	-200.000	-0.011	-0.172
-124.239	15.321	-0.100	-0.079
-123.224	11.616	0.272	0.209
