DTS Sentinel unit serial number:	SN413079Multiplexer serial number:	ORYXHardware model number:	OX4-SRSoftware version number:	ORYX F/W v4.00 Oryx Data Collector v3.7.2.0data status	okinstallation	princeton_trtdifferential loss correction	single-endedforward channel	channel 2reverse channel	N/Adate	2019/09/14time	16:23:34forward acquisition time	60.00reverse acquisition time	0.00gamma	496.2192k internal	0.2308k external	0.2308temperature offset calibration	1.0130default loss term (dB/km)	0.3790temperature slope calibration	1.0000multiplexer offset coefficient	1.0000multiplexer slope coefficient	1.0000fibre end	0.00T internal ref (°C)	38.06T ext. ref 1 (°C)	5.09T ext. ref 2 (°C)	33.03length (m)	temperature (°C)	Stokes	anti-Stokes-747.200	-80.553	-0.287	-0.097
-746.185	-25.409	0.451	0.271
-745.171	224.412	-0.105	0.173
-744.156	629.387	0.066	0.171
-743.142	-133.044	-0.033	0.004
-742.127	434.414	-0.130	-0.286
-741.112	270.678	-0.135	-0.241
-740.098	-200.000	-0.076	0.391
-739.083	800.000	0.062	0.174
-738.069	173.824	-0.125	0.183
-737.054	-119.881	-0.071	-0.012
-736.039	-11.392	-0.286	0.191
-735.025	469.310	0.161	0.368
-734.010	-106.741	-0.303	-0.068
-732.996	65.547	0.122	0.126
-731.981	393.048	0.123	0.259
-730.966	397.920	-0.130	-0.277
-729.952	-92.422	0.199	-0.057
-728.937	-192.558	-0.397	-0.004
-727.923	176.013	-0.130	-0.192
-726.908	77.549	-0.084	-0.091
-725.894	-22.419	-0.187	0.115
-724.879	-200.000	-0.012	-0.148
-723.864	-93.802	-0.169	-0.047
-722.850	-6.774	-0.117	-0.081
-721.835	74.124	-0.370	-0.394
-720.821	-135.942	-0.289	0.035
-719.806	330.182	0.192	-0.376
-718.791	-162.317	-0.429	-0.022
-717.777	-200.000	-0.004	0.097
-716.762	-200.000	-0.016	-0.221
-715.748	-200.000	0.003	-0.419
-714.733	-106.629	0.065	0.015
-713.718	-192.333	-0.172	0.002
-712.704	215.659	0.095	0.153
-711.689	38.622	-0.080	-0.072
-710.675	-92.117	-0.260	0.075
-709.660	-89.271	-0.294	-0.088
-708.645	-40.706	-0.370	-0.195
-707.631	-47.607	-0.273	0.135
-706.616	203.547	0.170	0.268
-705.602	-75.583	0.036	0.013
-704.587	207.662	-0.234	-0.371
-703.572	-5.233	0.080	0.056
-702.558	-113.574	-0.459	0.091
-701.543	223.251	0.088	0.145
-700.529	-34.166	0.281	0.157
-699.514	-200.000	-0.039	-0.302
-698.499	-104.721	-0.211	0.049
-697.485	-200.000	-0.031	-0.349
-696.470	-192.119	0.225	0.002
-695.456	-200.000	-0.006	0.105
-694.441	-159.667	0.301	0.017
-693.426	-74.946	0.240	-0.087
-692.412	117.473	-0.159	-0.199
-691.397	107.152	-0.129	0.155
-690.383	169.046	0.099	-0.144
-689.368	-70.880	0.169	-0.064
-688.354	451.987	-0.062	0.140
-687.339	315.475	0.061	-0.117
-686.324	453.166	-0.138	-0.309
-685.310	-200.000	-0.003	-0.117
-684.295	-14.535	-0.234	0.153
-683.281	-123.970	0.149	-0.024
-682.266	-200.000	0.041	-0.641
-681.251	-92.636	0.048	0.014
-680.237	49.528	-0.150	-0.143
-679.222	-166.102	0.221	0.010
-678.208	35.324	-0.099	-0.088
-677.193	800.000	0.056	-0.178
-676.178	-200.000	-0.036	-0.364
-675.164	515.360	-0.143	-0.338
-674.149	-74.570	-0.337	-0.123
-673.135	104.273	-0.072	-0.086
-672.120	473.583	-0.129	-0.295
-671.105	-200.000	-0.038	-0.436
-670.091	102.668	-0.154	-0.183
-669.076	-103.000	-0.101	0.024
-668.062	-200.000	-0.025	-0.362
-667.047	36.973	-0.196	-0.176
-666.032	331.910	-0.088	0.172
-665.018	-200.000	-0.006	-0.082
-664.003	461.205	-0.164	-0.371
-662.989	658.902	0.139	0.364
-661.974	-40.952	-0.348	-0.182
-660.959	263.401	0.167	-0.295
-659.945	-120.602	-0.211	0.036
-658.930	-118.607	-0.219	-0.039
-657.916	-43.162	-0.271	-0.139
-656.901	-200.000	0.039	-0.175
-655.886	253.450	-0.137	-0.237
-654.872	9.310	0.138	0.106
-653.857	222.516	0.085	0.138
-652.843	800.000	-0.070	-0.268
-651.828	30.106	-0.115	0.099
-650.814	-172.320	-0.202	0.007
-649.799	631.105	-0.053	0.135
-648.784	-42.932	0.201	-0.103
-647.770	800.000	-0.049	-0.161
-646.755	-25.422	0.227	0.136
-645.741	311.164	-0.073	-0.138
-644.726	-200.000	0.066	-0.312
-643.711	-200.000	-0.033	-0.245
-642.697	-62.614	0.105	0.044
-641.682	-200.000	-0.025	0.259
-640.668	6.203	0.051	-0.038
-639.653	-15.419	-0.229	-0.148
-638.638	-85.459	-0.209	-0.066
-637.624	800.000	0.062	-0.197
-636.609	-173.914	0.174	0.005
-635.595	170.094	-0.045	0.065
-634.580	-19.374	0.164	-0.103
-633.565	391.477	0.016	-0.034
-632.551	8.079	-0.175	0.133
-631.536	329.403	0.066	-0.128
-630.522	-78.552	0.370	0.128
-629.507	33.576	0.129	-0.113
-628.492	800.000	-0.065	0.287
-627.478	407.807	0.056	-0.121
-626.463	-158.928	0.085	0.005
-625.449	-200.000	0.015	0.210
-624.434	800.000	0.086	0.310
-623.419	36.488	-0.224	-0.200
-622.405	-86.285	0.122	-0.038
-621.390	-200.000	-0.055	0.290
-620.376	-28.949	-0.107	-0.062
-619.361	-200.000	0.022	-0.130
-618.346	141.916	-0.128	-0.172
-617.332	111.232	0.046	-0.055
-616.317	-200.000	-0.035	-0.157
-615.303	-110.482	0.115	-0.024
-614.288	243.687	0.197	0.334
-613.273	-92.794	0.156	-0.044
-612.259	800.000	-0.082	0.354
-611.244	-17.996	-0.167	0.106
-610.230	-60.159	-0.165	0.071
-609.215	-200.000	-0.015	0.276
-608.201	28.966	-0.345	-0.296
-607.186	-116.343	-0.470	-0.088
-606.171	800.000	-0.044	-0.127
-605.157	-33.476	-0.195	-0.109
-604.142	270.203	-0.052	-0.092
-603.128	289.917	0.058	-0.107
-602.113	-200.000	-0.010	0.095
-601.098	-72.096	0.170	-0.064
-600.084	-200.000	-0.002	-0.420
-599.069	-98.826	-0.459	0.118
-598.055	176.357	-0.108	0.158
-597.040	85.511	-0.133	-0.148
-596.025	305.454	0.208	-0.390
-595.011	432.880	-0.039	-0.085
-593.996	-117.335	0.162	-0.030
-592.982	-200.000	-0.012	-0.094
-591.967	-200.000	0.014	0.259
-590.952	-200.000	-0.004	0.316
-589.938	-200.000	-0.043	-0.217
-588.923	-128.113	-0.170	0.025
-587.909	88.895	0.173	-0.195
-586.894	11.667	-0.342	-0.265
-585.879	800.000	0.048	-0.142
-584.865	-4.195	-0.087	0.061
-583.850	-17.745	0.034	-0.021
-582.836	162.142	-0.212	0.300
-581.821	5.127	0.174	-0.130
-580.806	160.911	0.048	0.068
-579.792	800.000	-0.034	0.119
-578.777	-73.069	-0.287	0.106
-577.763	414.834	0.138	0.297
-576.748	-61.062	0.225	0.096
-575.733	158.301	-0.063	0.089
-574.719	-130.442	0.209	-0.029
-573.704	211.076	0.171	0.271
-572.690	29.236	-0.155	-0.133
-571.675	672.918	0.040	-0.104
-570.661	-158.648	-0.178	0.010
-569.646	-106.607	0.247	0.056
-568.631	-62.777	-0.044	-0.018
-567.617	1.418	-0.164	0.119
-566.602	85.932	-0.192	0.214
-565.588	800.000	0.049	0.140
-564.573	392.969	-0.212	-0.445
-563.558	-152.080	-0.491	-0.036
-562.544	169.553	0.077	-0.111
-561.529	94.029	-0.093	-0.107
-560.515	13.638	0.027	-0.021
-559.500	800.000	0.020	-0.085
-558.485	-200.000	0.074	-0.343
-557.471	800.000	-0.088	0.347
-556.456	-119.442	-0.244	0.043
-555.442	800.000	-0.130	-0.490
-554.427	275.910	-0.135	-0.242
-553.412	-123.805	-0.045	-0.007
-552.398	-54.470	-0.228	-0.104
-551.383	-41.081	-0.201	-0.105
-550.369	11.227	-0.282	-0.218
-549.354	117.675	-0.108	-0.134
-548.339	-44.580	-0.201	0.101
-547.325	-200.000	0.032	0.195
-546.310	-200.000	-0.002	0.107
-545.296	154.723	-0.180	-0.250
-544.281	-66.832	0.225	0.090
-543.266	-180.119	-0.180	-0.004
-542.252	152.293	0.228	0.314
-541.237	-125.488	0.260	-0.040
-540.223	12.890	-0.268	0.209
-539.208	-200.000	0.003	0.027
-538.193	-140.340	-0.138	0.014
-537.179	650.814	-0.074	-0.192
-536.164	149.278	-0.102	-0.140
-535.150	-113.070	0.226	-0.045
-534.135	-131.855	0.116	-0.015
-533.121	341.508	-0.234	0.460
-532.106	196.673	0.119	0.183
-531.091	403.934	-0.123	0.261
-530.077	32.683	0.149	0.130
-529.062	149.567	-0.197	0.269
-528.048	-200.000	0.022	-0.230
-527.033	-84.333	0.096	-0.031
-526.018	-57.964	-0.182	-0.080
-525.004	31.109	0.201	0.174
-523.989	67.701	0.083	0.086
-522.975	218.136	0.110	0.177
-521.960	126.422	-0.143	-0.183
-520.945	-11.476	0.283	0.188
-519.931	507.802	-0.053	0.123
-518.916	275.909	0.197	-0.352
-517.902	-200.000	-0.010	0.210
-516.887	-49.186	0.231	0.111
-515.872	-33.601	0.197	0.110
-514.858	184.477	-0.068	0.101
-513.843	-200.000	0.036	-0.369
-512.829	312.311	-0.107	-0.202
-511.814	-200.000	-0.010	-0.142
-510.799	-151.702	0.268	-0.020
-509.785	8.503	0.046	-0.035
-508.770	189.344	-0.185	-0.280
-507.756	800.000	0.089	0.371
-506.741	-200.000	-0.013	-0.098
-505.726	-140.223	-0.042	0.004
-504.712	-19.059	0.141	-0.089
-503.697	-200.000	0.003	-0.074
-502.683	3.583	-0.285	-0.209
-501.668	-44.009	-0.176	-0.089
-500.653	-41.965	-0.263	-0.136
-499.639	-200.000	-0.021	-0.262
-498.624	-200.000	0.023	-0.140
-497.610	-93.425	0.036	-0.010
-496.595	-200.000	-0.036	-0.179
-495.581	-113.620	-0.126	0.025
-494.566	-112.970	-0.281	0.056
-493.551	-77.474	0.092	-0.032
-492.537	50.829	-0.073	-0.069
-491.522	-66.527	0.052	-0.021
-490.508	-121.134	0.305	-0.051
-489.493	-20.800	0.084	0.052
-488.478	-2.692	0.240	-0.169
-487.464	237.742	-0.134	0.224
-486.449	-105.134	0.198	-0.046
-485.435	107.686	0.069	0.083
-484.420	-104.997	0.217	-0.050
-483.405	-101.808	0.197	-0.048
-482.391	800.000	-0.054	0.177
-481.376	-200.000	-0.023	0.151
-480.362	-16.572	-0.130	0.083
-479.347	396.802	-0.192	-0.404
-478.332	799.640	0.074	0.206
-477.318	-154.694	-0.378	-0.025
-476.303	60.471	-0.133	0.133
-475.289	92.745	0.081	-0.092
-474.274	-165.558	-0.294	-0.013
-473.259	-94.603	-0.179	0.049
-472.245	-135.794	-0.356	0.042
-471.230	-97.991	-0.235	0.061
-470.216	-169.986	-0.046	0.002
-469.201	-156.817	0.159	-0.010
-468.186	177.959	0.129	-0.189
-467.172	249.569	0.097	-0.165
-466.157	-32.750	0.049	0.027
-465.143	48.020	0.141	0.133
-464.128	-200.000	0.036	-0.314
-463.113	-54.838	0.276	-0.125
-462.099	800.000	0.076	-0.262
-461.084	-137.538	0.203	-0.023
-460.070	-104.792	-0.240	-0.056
-459.055	-32.588	-0.132	-0.074
-458.040	458.729	-0.080	-0.179
-457.026	-142.876	-0.011	-0.001
-456.011	800.000	-0.017	0.057
-454.997	-43.710	-0.095	-0.048
-453.982	-23.053	0.391	-0.237
-452.968	-200.000	0.012	-0.163
-451.953	-200.000	0.003	-0.230
-450.938	-63.918	-0.070	0.029
-449.924	44.947	-0.166	-0.154
-448.909	-115.271	-0.075	0.014
-447.895	-200.000	0.027	-0.185
-446.880	-181.474	0.168	-0.003
-445.865	800.000	0.053	-0.147
-444.851	-24.690	0.119	-0.071
-443.836	800.000	0.080	-0.253
-442.822	-200.000	0.024	0.479
-441.807	-179.109	0.270	-0.006
-440.792	-91.589	0.438	-0.125
-439.778	199.137	0.178	-0.274
-438.763	-30.972	-0.245	-0.139
-437.749	-119.371	0.214	0.037
-436.734	-11.995	0.380	0.250
-435.719	-200.000	-0.055	0.251
-434.705	323.197	0.199	0.382
-433.690	45.591	-0.288	0.268
-432.676	348.702	-0.154	0.304
-431.661	245.149	0.086	0.145
-430.646	-114.963	0.145	-0.028
-429.632	174.205	0.118	-0.171
-428.617	-82.581	-0.313	-0.102
-427.603	-200.000	0.007	0.077
-426.588	65.529	-0.101	-0.102
-425.573	-90.791	0.338	-0.098
-424.559	-200.000	-0.022	0.158
-423.544	228.207	0.046	-0.075
-422.530	-80.564	0.118	-0.039
-421.515	363.088	-0.080	0.160
-420.500	-127.408	0.199	0.029
-419.486	-35.271	-0.162	-0.089
-418.471	17.982	0.045	0.036
-417.457	-42.604	-0.068	-0.035
-416.442	6.342	0.173	-0.129
-415.428	96.310	0.124	-0.142
-414.413	18.400	-0.215	0.172
-413.398	-77.602	0.055	0.019
-412.384	-31.914	-0.168	-0.094
-411.369	95.853	-0.118	0.136
-410.355	-200.000	-0.022	0.206
-409.340	-200.000	-0.043	0.225
-408.325	285.906	-0.079	-0.142
-407.311	252.750	-0.045	0.077
-406.296	800.000	0.034	0.134
-405.282	-103.008	-0.148	0.035
-404.267	-140.418	0.310	0.032
-403.252	124.059	-0.178	-0.224
-402.238	-154.921	-0.376	0.025
-401.223	-142.638	-0.177	0.017
-400.209	624.680	-0.157	0.398
-399.194	780.886	0.049	0.134
-398.179	0.205	0.101	0.072
-397.165	302.415	-0.029	0.054
-396.150	647.021	0.138	0.353
-395.136	-117.543	-0.087	-0.016
-394.121	-143.146	0.076	0.007
-393.106	-97.559	-0.369	-0.096
-392.092	-62.588	0.111	0.046
-391.077	160.369	-0.085	-0.119
-390.063	-58.400	-0.051	-0.022
-389.048	-70.793	0.163	-0.062
-388.033	-7.654	0.168	-0.114
-387.019	42.804	0.232	-0.212
-386.004	800.000	-0.017	-0.050
-384.990	-30.729	0.178	-0.101
-383.975	-93.259	-0.261	0.073
-382.960	-50.574	0.416	0.197
-381.946	311.116	0.157	-0.295
-380.931	-107.055	-0.103	0.023
-379.917	-0.126	0.149	0.106
-378.902	202.232	-0.157	-0.243
-377.888	682.532	-0.136	0.356
-376.873	-200.000	-0.042	0.224
-375.858	-104.397	0.064	-0.015
-374.844	-84.433	-0.211	0.067
-373.829	800.000	0.074	0.224
-372.815	-200.000	0.003	0.107
-371.800	520.274	-0.045	0.106
-370.785	2.290	-0.194	-0.141
-369.771	-104.616	0.075	-0.017
-368.756	81.678	-0.084	0.091
-367.742	-9.544	-0.107	0.071
-366.727	339.748	-0.019	0.038
-365.712	-200.000	0.500	-0.001
-364.698	56.008	0.341	-0.332
-363.683	41.057	-0.175	-0.159
-362.669	13.414	0.248	0.193
-361.654	135.694	0.041	-0.053
-360.639	681.375	-0.002	-0.005
-359.625	460.641	0.188	0.420
-358.610	-200.000	-0.053	0.359
-357.596	352.161	-0.074	-0.147
-356.581	-35.218	-0.175	0.096
-355.566	-200.000	0.044	0.344
-354.552	-143.514	-0.107	-0.010
-353.537	30.961	-0.116	0.100
-352.523	-12.330	0.046	0.030
-351.508	-158.537	-0.117	0.007
-350.493	13.986	0.249	-0.194
-349.479	-14.036	-0.025	-0.016
-348.464	19.268	-0.080	0.065
-347.450	-35.732	-0.102	-0.055
-346.435	-128.073	-0.248	-0.036
-345.420	-94.077	-0.026	0.007
-344.406	-178.575	0.271	0.006
-343.391	664.360	0.103	-0.266
-342.377	-163.004	0.134	-0.007
-341.362	-200.000	0.016	-0.192
-340.348	-86.736	-0.109	-0.033
-339.333	-105.412	0.187	-0.043
-338.318	800.000	0.057	-0.221
-337.304	-200.000	0.023	-0.166
-336.289	800.000	0.017	0.071
-335.275	60.147	-0.319	0.316
-334.260	131.426	-0.128	-0.164
-333.245	208.365	-0.139	0.218
-332.231	-200.000	0.042	-0.263
-331.216	40.731	0.163	-0.147
-330.202	-200.000	0.039	0.369
-329.187	800.000	-0.065	0.255
-328.172	309.295	0.020	-0.038
-327.158	63.533	-0.086	-0.086
-326.143	416.627	0.147	0.314
-325.129	60.002	0.285	-0.282
-324.114	800.000	0.055	0.235
-323.099	372.406	0.067	-0.136
-322.085	15.742	-0.199	0.156
-321.070	68.895	-0.108	0.111
-320.056	112.397	0.206	-0.249
-319.041	-110.864	-0.131	-0.027
-318.026	800.000	0.028	0.094
-317.012	-200.000	0.003	-0.137
-315.997	-200.000	0.007	0.284
-314.983	-31.037	-0.166	0.094
-313.968	-2.877	-0.198	-0.138
-312.953	-103.198	0.260	-0.061
-311.939	-200.000	0.005	-0.450
-310.924	10.758	0.212	-0.162
-309.910	-58.196	-0.199	0.087
-308.895	800.000	-0.043	0.183
-307.880	800.000	0.051	-0.142
-306.866	-63.854	-0.083	-0.034
-305.851	-57.232	-0.265	0.117
-304.837	9.285	-0.202	-0.153
-303.822	800.000	-0.075	0.319
-302.807	27.037	0.112	0.094
-301.793	800.000	0.086	0.339
-300.778	-47.303	0.316	-0.154
-299.764	-154.801	-0.106	0.007
-298.749	160.711	-0.071	0.099
-297.735	-200.000	-0.020	-0.172
-296.720	-133.574	-0.034	0.004
-295.705	-149.067	0.199	-0.016
-294.691	22.014	0.242	-0.198
-293.676	22.492	-0.146	-0.120
-292.662	444.843	-0.096	0.210
-291.647	-2.360	-0.093	0.065
-290.632	-0.946	0.184	0.130
-289.618	-7.874	0.130	0.088
-288.603	33.067	0.059	-0.051
-287.589	79.127	-0.249	-0.266
-286.574	144.978	0.200	-0.267
-285.559	-9.444	-0.184	-0.123
-284.545	-31.061	0.130	-0.073
-283.530	96.444	0.097	-0.111
-282.516	-130.502	0.299	-0.040
-281.501	19.683	-0.176	0.141
-280.486	-18.918	0.233	-0.145
-279.472	-200.000	-0.004	-0.043
-278.457	-42.317	-0.019	-0.010
-277.443	-122.622	0.195	0.032
-276.428	-50.404	0.359	-0.169
-275.413	426.049	-0.145	0.312
-274.399	123.789	-0.062	-0.077
-273.384	154.704	0.238	0.326
-272.370	-56.801	0.067	0.030
-271.355	-1.906	0.241	-0.169
-270.340	491.522	0.113	-0.259
-269.326	422.704	-0.152	-0.326
-268.311	800.000	0.107	0.405
-267.297	32.075	0.043	0.037
-266.282	405.651	0.099	-0.209
-265.267	-168.802	-0.256	-0.010
-264.253	33.015	-0.036	-0.031
-263.238	-200.000	-0.003	0.165
-262.224	712.536	-0.052	-0.137
-261.209	-160.345	0.259	-0.014
-260.195	-44.833	0.241	0.120
-259.180	800.000	-0.029	0.121
-258.165	-200.000	0.003	0.043
-257.151	-26.606	-0.301	0.176
-256.136	30.169	-0.167	0.142
-255.122	95.152	-0.139	0.158
-254.107	-175.063	-0.047	0.001
-253.092	-200.000	0.046	-0.319
-252.078	-100.866	0.116	0.028
-251.063	175.301	0.126	-0.182
-250.049	-35.632	0.208	-0.112
-249.034	67.127	0.115	0.117
-248.019	-134.635	-0.197	-0.024
-247.005	-53.075	0.428	-0.196
-245.990	-200.000	0.046	0.232
-244.976	88.445	-0.230	0.254
-243.961	-156.500	-0.309	-0.019
-242.946	61.135	0.063	0.063
-241.932	-52.231	-0.254	-0.117
-240.917	800.000	-0.025	0.100
-239.903	22.855	0.260	0.213
-238.888	114.903	-0.077	0.093
-237.873	-200.000	-0.026	0.312
-236.859	-72.380	0.109	0.040
-235.844	-14.361	0.198	-0.127
-234.830	628.108	-0.088	0.221
-233.815	47.168	0.073	-0.068
-232.800	7.066	-0.050	-0.037
-231.786	4.151	0.410	-0.299
-230.771	-200.000	-0.017	0.144
-229.757	-63.541	-0.431	0.176
-228.742	-56.523	0.048	-0.021
-227.727	-45.296	0.116	0.057
-226.713	800.000	0.067	0.207
-225.698	-121.854	0.253	0.042
-224.684	-40.442	-0.314	-0.163
-223.669	12.650	-0.165	-0.127
-222.655	-200.000	0.009	-0.126
-221.640	230.984	-0.098	0.160
-220.625	-30.308	-0.176	0.100
-219.611	-189.462	-0.131	-0.002
-218.596	3.057	-0.212	0.153
-217.582	800.000	0.161	-0.514
-216.567	31.460	0.136	0.116
-215.552	800.000	0.089	-0.286
-214.538	176.611	0.194	0.281
-213.523	-11.420	0.548	-0.359
-212.509	-86.432	-0.186	0.057
-211.494	-159.839	0.162	0.009
-210.479	800.000	0.045	0.183
-209.465	-200.000	-0.004	-0.235
-208.450	800.000	-0.153	-0.485
-207.436	29.246	-0.073	0.062
-206.421	-200.000	-0.021	-0.128
-205.406	-200.000	-0.025	0.113
-204.392	3.921	0.290	-0.211
-203.377	-123.933	-0.157	-0.025
-202.363	13.594	0.207	-0.160
-201.348	-200.000	0.002	0.318
-200.333	172.193	0.186	-0.266
-199.319	-168.583	0.273	0.010
-198.304	-200.000	-0.018	0.213
-197.290	-92.494	0.166	0.047
-196.275	-200.000	0.019	-0.223
-195.260	-42.021	0.255	-0.130
-194.246	317.797	-0.160	0.300
-193.231	153.098	0.101	0.137
-192.217	-200.000	0.002	0.238
-191.202	283.387	-0.096	0.172
-190.187	-200.000	0.020	0.124
-189.173	800.000	0.151	0.420
-188.158	800.000	-0.023	0.068
-187.144	-81.407	-0.085	0.028
-186.129	-88.311	0.316	0.094
-185.114	-53.230	-0.130	-0.060
-184.100	319.596	-0.042	-0.080
-183.085	112.178	-0.127	0.152
-182.071	-200.000	-0.024	0.129
-181.056	-200.000	-0.033	-0.190
-180.042	41.340	0.131	-0.117
-179.027	169.198	0.138	-0.196
-178.012	-38.648	-0.157	-0.083
-176.998	372.925	-0.099	-0.200
-175.983	11.434	0.178	0.136
-174.969	-157.841	-0.503	0.030
-173.954	800.000	-0.056	-0.154
-172.939	390.108	-0.069	0.143
-171.925	9.096	0.055	0.041
-170.910	800.000	-0.046	0.128
-169.896	315.985	0.098	0.183
-168.881	337.162	-0.084	-0.163
-167.866	133.907	-0.161	0.208
-166.852	48.376	0.227	0.211
-165.837	-200.000	0.005	0.270
-164.823	800.000	-0.034	0.116
-163.808	-200.000	0.009	0.074
-162.793	800.000	0.086	0.337
-161.779	-91.256	-0.422	0.120
-160.764	-119.335	-0.381	-0.066
-159.750	-68.355	-0.069	-0.027
-158.735	-0.619	-0.116	-0.082
-157.720	16.773	0.278	-0.218
-156.706	-146.615	0.241	-0.021
-155.691	-200.000	0.015	0.203
-154.677	140.949	-0.187	-0.245
-153.662	74.559	-0.243	-0.254
-152.647	73.776	-0.051	-0.053
-151.633	21.958	-0.089	0.072
-150.618	800.000	0.070	-0.290
-149.604	-200.000	-0.009	0.131
-148.589	27.786	0.391	0.327
-147.574	-30.748	0.159	0.089
-146.560	274.843	-0.038	-0.067
-145.545	140.797	-0.087	0.114
-144.531	73.702	-0.136	-0.141
-143.516	-144.557	-0.259	0.024
-142.502	-103.806	0.008	0.002
-141.487	701.265	-0.032	-0.082
-140.472	178.012	0.109	-0.157
-139.458	43.449	0.148	-0.135
-138.443	-23.926	0.434	0.258
-137.429	765.107	0.015	0.040
-136.414	-57.078	0.489	0.214
-135.399	-200.000	-0.025	0.234
-134.385	25.249	-0.239	0.197
-133.370	149.728	-0.082	0.111
-132.356	-124.392	-0.230	-0.036
-131.341	596.263	-0.098	0.240
-130.326	-200.000	0.012	0.077
-129.312	-127.944	-0.432	-0.062
-128.297	-52.017	-0.030	-0.014
-127.283	-37.979	0.061	-0.032
-126.268	69.204	0.074	-0.075
-125.253	-200.000	-0.030	-0.161
-124.239	30.425	-0.296	0.251
-123.224	-84.746	0.238	-0.074
-122.210	-30.437	-0.112	-0.063
