DTS Sentinel unit serial number:	SN413079Multiplexer serial number:	ORYXHardware model number:	OX4-SRSoftware version number:	ORYX F/W v4.00 Oryx Data Collector v3.7.2.0data status	okinstallation	princeton_trtdifferential loss correction	single-endedforward channel	channel 2reverse channel	N/Adate	2019/09/17time	12:23:35forward acquisition time	60.00reverse acquisition time	0.00gamma	496.2192k internal	0.2322k external	0.2322temperature offset calibration	0.9986default loss term (dB/km)	0.3790temperature slope calibration	1.0000multiplexer offset coefficient	1.0000multiplexer slope coefficient	1.0000fibre end	0.00T internal ref (°C)	31.69T ext. ref 1 (°C)	0.43T ext. ref 2 (°C)	28.75length (m)	temperature (°C)	Stokes	anti-Stokes-747.200	-114.690	-0.108	-0.021
-746.185	170.053	-0.086	0.124
-745.171	-76.827	-0.072	-0.026
-744.156	-154.334	0.283	-0.019
-743.142	30.547	0.325	-0.281
-742.127	800.000	0.087	0.289
-741.112	800.000	0.056	0.158
-740.098	180.464	-0.187	0.277
-739.083	-200.000	0.028	-0.177
-738.069	800.000	0.095	0.301
-737.054	-53.509	0.360	-0.166
-736.039	152.468	-0.239	0.330
-735.025	-200.000	-0.021	-0.235
-734.010	800.000	0.019	0.078
-732.996	800.000	0.024	-0.078
-731.981	-6.344	-0.175	0.121
-730.966	32.216	-0.092	-0.080
-729.952	-46.519	-0.170	-0.084
-728.937	-200.000	0.017	-0.142
-727.923	-181.820	0.079	0.002
-726.908	800.000	-0.086	0.315
-725.894	33.085	-0.079	0.070
-724.879	72.875	-0.146	0.154
-723.864	-103.829	-0.359	-0.085
-722.850	213.661	0.107	0.171
-721.835	405.550	0.054	0.114
-720.821	-69.879	0.353	-0.136
-719.806	285.754	0.119	-0.216
-718.791	526.928	-0.171	-0.406
-717.777	66.726	-0.163	-0.168
-716.762	70.200	0.188	-0.196
-715.748	102.216	-0.271	-0.320
-714.733	472.659	0.122	-0.277
-713.718	187.599	-0.064	0.096
-712.704	-89.404	-0.104	0.031
-711.689	-87.567	-0.265	-0.081
-710.675	77.216	-0.091	0.098
-709.660	311.446	0.129	0.245
-708.645	95.160	-0.231	-0.266
-707.631	114.102	-0.202	0.248
-706.616	-83.359	-0.139	-0.045
-705.602	-200.000	-0.065	0.305
-704.587	-200.000	-0.049	0.236
-703.572	-200.000	0.058	0.277
-702.558	-28.898	0.134	-0.078
-701.543	-83.475	-0.221	0.071
-700.529	-114.742	-0.027	-0.005
-699.514	152.804	0.013	-0.018
-698.499	-200.000	0.009	0.131
-697.485	-200.000	-0.000	0.199
-696.470	674.072	-0.027	-0.071
-695.456	20.068	0.205	-0.167
-694.441	-200.000	0.008	-0.120
-693.426	3.499	0.136	0.100
-692.412	-17.488	-0.238	0.151
-691.397	-200.000	0.014	-0.217
-690.383	-34.567	-0.261	0.144
-689.368	-66.962	-0.100	-0.040
-688.354	-69.634	-0.209	-0.081
-687.339	-80.805	-0.074	-0.025
-686.324	-154.656	0.412	0.028
-685.310	757.360	-0.041	0.111
-684.295	-200.000	-0.098	0.480
-683.281	33.831	-0.357	-0.313
-682.266	66.564	0.171	-0.175
-681.251	800.000	-0.092	-0.262
-680.237	192.282	-0.100	-0.152
-679.222	125.206	-0.040	-0.051
-678.208	262.435	-0.015	-0.026
-677.193	800.000	-0.026	0.091
-676.178	-200.000	-0.075	0.520
-675.164	-169.716	0.250	0.009
-674.149	321.851	0.048	0.093
-673.135	217.749	0.161	-0.259
-672.120	-42.887	-0.169	-0.087
-671.105	113.728	0.056	-0.069
-670.091	-200.000	-0.011	-0.197
-669.076	-15.147	-0.229	0.147
-668.062	507.458	0.085	-0.198
-667.047	-200.000	-0.025	0.197
-666.032	-200.000	-0.054	0.296
-665.018	-90.038	0.178	-0.052
-664.003	-200.000	0.009	0.196
-662.989	-90.754	-0.201	0.059
-661.974	-109.047	-0.280	0.060
-660.959	-94.764	0.168	-0.046
-659.945	-69.371	0.243	0.094
-658.930	-125.408	0.289	-0.044
-657.916	113.776	-0.127	0.156
-656.901	-55.009	-0.110	0.050
-655.886	-158.723	-0.103	0.006
-654.872	-100.430	-0.127	-0.032
-653.857	-200.000	0.047	-0.233
-652.843	-34.967	-0.272	-0.149
-651.828	279.123	0.082	-0.148
-650.814	137.379	0.010	-0.013
-649.799	48.141	-0.123	-0.115
-648.784	-200.000	0.022	-0.123
-647.770	800.000	-0.040	0.125
-646.755	-200.000	-0.043	-0.249
-645.741	-200.000	0.021	-0.125
-644.726	-43.060	-0.235	0.120
-643.711	48.090	-0.049	0.046
-642.697	-4.938	-0.356	-0.247
-641.682	-105.206	0.107	0.024
-640.668	22.957	-0.253	0.209
-639.653	70.556	-0.287	-0.299
-638.638	-62.108	0.053	0.022
-637.624	-107.089	-0.328	0.073
-636.609	-33.643	-0.139	-0.077
-635.595	-128.418	-0.066	-0.009
-634.580	-200.000	-0.006	0.160
-633.565	744.185	-0.109	0.295
-632.551	800.000	0.038	0.109
-631.536	133.303	-0.027	-0.035
-630.522	-200.000	0.199	0.000
-629.507	-200.000	0.018	0.199
-628.492	-200.000	0.006	0.217
-627.478	-200.000	-0.025	0.238
-626.463	-158.578	-0.238	-0.014
-625.449	800.000	0.130	-0.459
-624.434	62.135	0.121	0.121
-623.419	401.429	-0.087	-0.183
-622.405	-55.495	-0.174	0.078
-621.390	-111.871	-0.061	-0.012
-620.376	357.465	-0.054	0.108
-619.361	-79.823	-0.288	0.097
-618.346	7.763	0.194	0.146
-617.332	-96.331	-0.272	-0.072
-616.317	35.563	-0.087	0.077
-615.303	-200.000	0.041	-0.268
-614.288	800.000	-0.062	0.177
-613.273	-184.611	0.284	0.005
-612.259	-77.503	0.160	-0.056
-611.244	42.343	0.083	0.076
-610.230	69.981	-0.099	-0.103
-609.215	-70.703	-0.276	0.105
-608.201	-200.000	0.016	-0.160
-607.186	119.129	0.083	0.103
-606.171	-60.026	-0.141	0.060
-605.157	800.000	0.111	0.319
-604.142	-200.000	0.059	0.300
-603.128	800.000	-0.025	0.100
-602.113	239.867	0.137	0.230
-601.098	43.500	0.456	-0.419
-600.084	800.000	0.065	-0.254
-599.069	665.821	0.135	0.349
-598.055	329.445	-0.080	0.155
-597.040	119.983	0.182	-0.227
-596.025	-65.318	-0.134	0.054
-595.011	425.669	0.102	-0.220
-593.996	418.276	0.153	0.329
-592.982	-13.911	0.128	-0.083
-591.967	-34.267	-0.206	-0.114
-590.952	146.862	0.056	-0.076
-589.938	800.000	-0.038	-0.120
-588.923	527.029	-0.098	0.231
-587.909	-24.856	-0.503	-0.300
-586.894	-189.686	0.168	0.002
-585.879	800.000	-0.086	0.270
-584.865	61.609	-0.080	0.080
-583.850	317.707	-0.088	0.168
-582.836	27.142	0.147	-0.124
-581.821	721.256	-0.133	-0.354
-580.806	54.357	-0.216	-0.209
-579.792	-200.000	-0.013	0.060
-578.777	31.613	-0.192	0.165
-577.763	-200.000	-0.037	0.271
-576.748	-166.912	-0.115	0.005
-575.733	201.958	0.133	-0.206
-574.719	37.488	-0.091	-0.081
-573.704	33.629	0.350	0.305
-572.690	800.000	-0.040	0.132
-571.675	7.078	0.059	-0.044
-570.661	180.405	0.177	-0.261
-569.646	25.411	-0.133	-0.111
-568.631	-200.000	0.003	-0.168
-567.617	-71.485	-0.197	0.074
-566.602	-43.763	-0.175	0.088
-565.588	-50.073	0.025	-0.012
-564.573	-162.783	-0.303	-0.015
-563.558	128.843	0.153	-0.195
-562.544	517.766	-0.143	0.336
-561.529	-121.277	-0.194	0.033
-560.515	800.000	0.116	-0.324
-559.500	-92.774	0.149	-0.042
-558.485	86.406	0.184	-0.203
-557.471	-41.733	-0.167	0.086
-556.456	-4.684	0.094	0.065
-555.442	-79.074	0.293	0.100
-554.427	-82.763	-0.151	-0.049
-553.412	-200.000	0.010	0.139
-552.398	174.202	0.196	0.283
-551.383	2.074	-0.301	-0.218
-550.369	305.758	0.097	-0.181
-549.354	22.746	-0.027	-0.022
-548.339	-132.747	-0.330	0.042
-547.325	249.329	-0.126	0.215
-546.310	686.883	-0.111	0.292
-545.296	800.000	0.095	0.381
-544.281	-51.424	0.093	-0.044
-543.266	-200.000	-0.004	-0.161
-542.252	-42.566	0.286	0.146
-541.237	4.537	0.205	-0.151
-540.223	-200.000	0.023	-0.330
-539.208	-54.091	-0.181	0.082
-538.193	800.000	-0.035	0.124
-537.179	-30.779	-0.221	0.125
-536.164	-52.439	0.396	0.184
-535.150	-161.434	-0.134	-0.007
-534.135	-129.141	-0.240	-0.034
-533.121	221.572	0.048	0.077
-532.106	142.462	0.206	0.274
-531.091	-99.096	-0.381	-0.097
-530.077	-112.960	0.340	-0.067
-529.062	96.392	-0.233	-0.267
-528.048	-11.531	0.142	-0.094
-527.033	-172.212	-0.110	-0.004
-526.018	203.309	-0.043	0.067
-525.004	257.628	-0.164	-0.283
-523.989	-44.892	-0.288	0.144
-522.975	506.721	-0.162	0.375
-521.960	-200.000	-0.006	0.026
-520.945	312.505	0.255	-0.479
-519.931	45.051	-0.273	-0.252
-518.916	193.153	0.112	0.170
-517.902	-87.585	-0.344	-0.104
-516.887	-200.000	-0.003	0.145
-515.872	-200.000	0.044	0.357
-514.858	2.892	-0.147	0.107
-513.843	-94.000	-0.096	0.026
-512.829	-77.032	0.282	-0.099
-511.814	149.190	-0.173	0.235
-510.799	-200.000	-0.037	-0.190
-509.785	-200.000	0.035	-0.209
-508.770	-155.127	0.041	0.003
-507.756	-75.382	0.176	-0.063
-506.741	-72.918	-0.122	-0.045
-505.726	-107.936	-0.312	0.068
-504.712	-68.724	-0.124	0.048
-503.697	-19.822	0.175	0.108
-502.683	-47.977	-0.082	0.040
-501.668	-110.551	0.129	0.027
-500.653	-100.484	0.077	-0.019
-499.639	-19.096	-0.103	-0.064
-498.624	153.835	0.081	-0.112
-497.610	-45.583	0.356	-0.176
-496.595	74.893	-0.095	0.100
-495.581	-108.840	-0.318	-0.068
-494.566	-109.273	-0.311	0.066
-493.551	64.018	-0.084	-0.085
-492.537	112.343	-0.212	0.256
-491.522	-155.151	0.213	-0.014
-490.508	115.042	-0.286	-0.349
-489.493	-79.318	0.059	-0.020
-488.478	684.326	-0.050	-0.132
-487.464	165.122	0.156	0.221
-486.449	234.829	0.089	-0.146
-485.435	-139.087	-0.290	0.031
-484.420	-111.177	0.620	0.127
-483.405	-20.503	0.264	0.163
-482.391	-176.377	-0.167	0.004
-481.376	-152.222	0.146	0.011
-480.362	578.240	0.111	-0.272
-479.347	417.768	-0.121	0.258
-478.332	-200.000	-0.014	-0.102
-477.318	-117.851	0.172	0.031
-476.303	232.231	0.031	-0.051
-475.289	-83.266	-0.276	0.088
-474.274	71.031	-0.174	0.180
-473.259	329.765	0.042	0.081
-472.245	172.559	0.132	0.190
-471.230	363.363	-0.017	0.034
-470.216	-15.537	0.316	0.202
-469.201	-103.672	0.307	-0.072
-468.186	-174.218	0.226	0.007
-467.172	-200.000	-0.060	-0.449
-466.157	800.000	0.023	0.076
-465.143	-12.618	0.350	0.228
-464.128	800.000	0.065	0.188
-463.113	-17.937	-0.094	-0.059
-462.099	-108.553	-0.115	0.025
-461.084	-200.000	0.009	0.162
-460.070	-200.000	-0.018	-0.105
-459.055	377.060	0.062	0.127
-458.040	-48.074	-0.248	-0.120
-457.026	99.258	0.213	-0.246
-456.011	-62.709	0.222	0.092
-454.997	466.489	0.028	0.062
-453.982	719.752	0.162	-0.430
-452.968	486.252	0.123	0.280
-451.953	-200.000	-0.044	0.259
-450.938	800.000	0.012	0.037
-449.924	800.000	-0.062	-0.264
-448.909	166.508	-0.172	0.244
-447.895	316.035	-0.088	0.165
-446.880	619.612	-0.095	0.239
-445.865	196.041	0.172	0.261
-444.851	800.000	-0.037	0.134
-443.836	19.070	-0.279	0.224
-442.822	800.000	0.072	-0.244
-441.807	-4.393	0.299	0.206
-440.792	-174.266	0.169	-0.005
-439.778	470.257	0.072	0.161
-438.763	-156.946	-0.568	0.035
-437.749	444.586	0.083	-0.182
-436.734	6.507	-0.092	0.068
-435.719	-89.850	0.240	0.070
-434.705	-103.075	0.190	0.045
-433.690	800.000	-0.117	0.456
-432.676	-40.690	0.110	-0.057
-431.661	-35.988	0.026	-0.014
-430.646	132.286	-0.206	0.265
-429.632	800.000	0.053	0.193
-428.617	-200.000	-0.013	-0.127
-427.603	14.830	-0.157	0.122
-426.588	-200.000	-0.041	-0.222
-425.573	35.861	-0.349	-0.307
-424.559	-169.126	-0.212	0.008
-423.544	107.982	0.135	0.160
-422.530	-23.669	0.118	-0.071
-421.515	-137.411	0.165	0.019
-420.500	-200.000	0.014	0.341
-419.486	73.656	0.082	-0.086
-418.471	800.000	-0.006	-0.020
-417.457	-155.804	-0.110	0.007
-416.442	-62.124	0.077	0.032
-415.428	-200.000	-0.016	-0.189
-414.413	109.630	0.025	-0.030
-413.398	273.664	-0.109	-0.192
-412.384	-21.515	-0.125	-0.076
-411.369	800.000	0.039	0.146
-410.355	-68.879	-0.128	0.049
-409.340	-60.830	0.063	-0.027
-408.325	296.365	-0.059	-0.107
-407.311	-200.000	0.008	0.184
-406.296	221.570	0.083	-0.133
-405.282	191.356	-0.091	0.137
-404.267	-67.105	-0.246	-0.097
-403.252	-38.210	0.200	0.106
-402.238	-58.193	-0.336	-0.146
-401.223	-75.252	-0.060	-0.021
-400.209	182.825	-0.091	-0.134
-399.194	118.514	-0.033	0.041
-398.179	-5.783	0.305	-0.208
-397.165	-200.000	-0.020	0.300
-396.150	-200.000	-0.020	0.204
-395.136	800.000	-0.062	-0.225
-394.121	-80.678	-0.357	0.118
-393.106	550.583	-0.038	0.091
-392.092	800.000	-0.035	0.130
-391.077	362.500	-0.054	0.107
-390.063	-200.000	-0.020	-0.239
-389.048	87.230	0.110	0.121
-388.033	244.838	0.041	0.068
-387.019	747.733	-0.039	-0.104
-386.004	-200.000	-0.011	0.154
-384.990	137.876	0.067	-0.088
-383.975	-31.362	0.232	0.130
-382.960	-15.359	0.371	-0.236
-381.946	-148.834	0.319	0.026
-380.931	-25.331	0.139	0.082
-379.917	276.762	-0.103	0.182
-378.902	-57.340	-0.169	0.074
-377.888	-200.000	0.042	0.247
-376.873	-40.350	0.354	-0.183
-375.858	-200.000	0.020	0.344
-374.844	-90.151	0.146	-0.042
-373.829	-200.000	0.048	-0.243
-372.815	32.636	0.081	0.070
-371.800	0.876	-0.033	0.023
-370.785	-200.000	-0.063	-0.431
-369.771	-103.945	0.192	0.045
-368.756	132.885	0.120	-0.154
-367.742	-52.487	-0.169	-0.078
-366.727	-116.481	-0.069	0.013
-365.712	-96.150	-0.310	-0.082
-364.698	85.129	-0.122	0.133
-363.683	128.678	0.252	0.320
-362.669	-133.009	-0.392	0.050
-361.654	580.758	-0.013	0.031
-360.639	35.385	-0.234	-0.205
-359.625	-200.000	0.090	0.440
-358.610	33.961	-0.211	-0.183
-357.596	-111.626	-0.141	-0.028
-356.581	-100.104	0.168	-0.042
-355.566	64.823	0.161	0.162
-354.552	-32.513	0.284	-0.158
-353.537	-59.677	0.104	0.045
-352.523	-41.754	0.172	-0.088
-351.508	-174.943	-0.336	-0.009
-350.493	5.066	-0.117	0.086
-349.479	18.180	-0.127	-0.101
-348.464	800.000	0.084	-0.244
-347.450	-200.000	0.014	-0.293
-346.435	800.000	-0.091	-0.302
-345.420	-28.363	-0.147	-0.084
-344.406	-16.348	-0.288	0.182
-343.391	26.325	0.101	0.084
-342.377	58.375	0.191	0.186
-341.362	-51.913	0.116	-0.054
-340.348	-19.986	0.468	-0.287
-339.333	-32.647	-0.465	-0.258
-338.318	42.798	0.050	0.045
-337.304	210.362	-0.147	0.230
-336.289	-46.375	0.022	-0.011
-335.275	707.799	-0.061	-0.160
-334.260	282.242	-0.065	0.116
-333.245	-78.371	0.146	-0.050
-332.231	-96.105	0.276	0.073
-331.216	800.000	0.049	0.135
-330.202	11.904	-0.259	0.198
-329.187	-161.203	0.491	0.025
-328.172	-158.819	0.256	-0.015
-327.158	800.000	0.094	0.310
-326.143	-156.616	-0.233	-0.014
-325.129	-35.404	-0.073	0.039
-324.114	-56.659	0.231	-0.101
-323.099	800.000	0.082	-0.305
-322.085	-200.000	0.003	-0.215
-321.070	19.787	0.439	-0.352
-320.056	58.135	-0.243	-0.237
-319.041	-200.000	-0.027	-0.330
-318.026	458.639	0.061	0.134
-317.012	79.737	-0.094	0.101
-315.997	127.068	0.127	0.160
-314.983	-38.270	-0.126	0.066
-313.968	61.844	-0.304	-0.301
-312.953	-139.081	-0.206	0.022
-311.939	283.165	-0.155	0.277
-310.924	800.000	-0.090	0.332
-309.910	293.270	0.216	-0.391
-308.895	-140.786	-0.382	-0.039
-307.880	-69.213	-0.142	-0.054
-306.866	10.865	-0.202	-0.153
-305.851	375.229	-0.101	-0.205
-304.837	-46.671	-0.200	-0.098
-303.822	297.460	0.113	0.206
-302.807	-18.424	-0.158	-0.098
-301.793	-22.910	-0.270	0.162
-300.778	-96.384	-0.168	-0.044
-299.764	168.532	0.083	-0.118
-298.749	739.751	-0.009	-0.023
-297.735	-190.876	0.146	0.002
-296.720	-104.331	0.258	0.059
-295.705	403.204	0.149	-0.312
-294.691	-20.520	0.249	-0.152
-293.676	-56.318	0.092	-0.041
-292.662	-4.245	0.165	-0.114
-291.647	-27.031	-0.125	0.072
-290.632	254.740	0.117	-0.198
-289.618	178.082	0.128	0.186
-288.603	-200.000	0.006	0.206
-287.589	-71.407	0.108	-0.040
-286.574	19.209	0.167	-0.133
-285.559	51.979	0.095	-0.090
-284.545	3.021	-0.056	0.040
-283.530	800.000	-0.079	-0.247
-282.516	80.070	-0.248	-0.264
-281.501	-104.358	0.040	0.009
-280.486	-133.430	0.264	-0.033
-279.472	800.000	0.013	0.043
-278.457	-137.136	0.388	-0.044
-277.443	619.432	0.092	-0.228
-276.428	155.072	-0.037	0.050
-275.413	-17.508	-0.358	-0.224
-274.399	100.175	-0.193	0.222
-273.384	-21.823	-0.017	0.010
-272.370	116.642	-0.055	0.067
-271.355	-122.932	0.226	0.036
-270.340	-200.000	0.007	-0.321
-269.326	21.751	-0.183	-0.148
-268.311	-142.731	-0.130	-0.013
-267.297	-78.380	0.296	0.101
-266.282	364.248	0.108	-0.214
-265.267	-30.814	0.308	0.173
-264.253	323.415	-0.169	0.319
-263.238	-132.936	-0.013	-0.002
-262.224	-200.000	-0.011	-0.075
-261.209	-93.061	-0.265	-0.073
-260.195	-64.410	-0.132	-0.053
-259.180	-200.000	0.008	-0.333
-258.165	-200.000	0.043	-0.332
-257.151	25.245	-0.052	-0.043
-256.136	414.839	0.158	-0.333
-255.122	-117.363	-0.102	0.018
-254.107	-15.634	-0.122	0.077
-253.092	-167.448	-0.343	-0.014
-252.078	-37.683	-0.212	-0.112
-251.063	-127.451	0.297	0.043
-250.049	-8.769	0.282	-0.187
-249.034	800.000	0.031	-0.095
-248.019	235.653	0.223	-0.366
-247.005	800.000	0.107	0.303
-245.990	346.182	0.074	0.145
-244.976	-200.000	0.002	0.492
-243.961	-200.000	-0.034	0.317
-242.946	9.953	-0.216	0.163
-241.932	114.671	-0.309	-0.373
-240.917	7.450	0.507	-0.376
-239.903	-136.380	-0.072	-0.008
-238.888	120.875	0.129	-0.159
-237.873	800.000	0.061	0.241
-236.859	-200.000	0.012	0.064
-235.844	143.972	-0.070	0.093
-234.830	800.000	0.032	0.138
-233.815	-200.000	0.073	0.344
-232.800	490.267	0.047	0.107
-231.786	-200.000	0.074	0.325
-230.771	42.192	0.080	-0.072
-229.757	-172.657	-0.348	0.011
-228.742	141.149	0.253	-0.331
-227.727	157.676	0.111	-0.153
-226.713	58.302	0.102	-0.099
-225.698	497.887	-0.100	-0.228
-224.684	800.000	-0.032	-0.135
-223.669	78.002	0.081	-0.086
-222.655	-173.760	-0.274	0.008
-221.640	20.956	-0.108	0.087
-220.625	-125.887	0.275	-0.041
-219.611	-200.000	0.031	0.230
-218.596	-200.000	-0.009	-0.469
-217.582	80.272	0.271	-0.288
-216.567	713.065	0.118	0.309
-215.552	-189.240	0.329	-0.004
-214.538	42.920	0.136	0.123
-213.523	800.000	-0.023	0.084
-212.509	-165.832	-0.224	0.010
-211.494	703.646	0.027	-0.071
-210.479	192.158	-0.028	-0.042
-209.465	800.000	0.056	0.216
-208.450	-200.000	0.028	-0.171
-207.436	800.000	-0.007	-0.028
-206.421	13.630	-0.171	0.131
-205.406	-38.248	0.158	0.083
-204.392	-35.698	-0.267	-0.143
-203.377	182.269	-0.126	-0.183
-202.363	105.461	0.097	0.114
-201.348	-86.388	0.482	-0.147
-200.333	-133.188	-0.359	0.045
-199.319	-79.256	0.116	-0.039
-198.304	53.324	-0.099	0.094
-197.290	-200.000	-0.018	-0.305
-196.275	554.465	0.144	-0.342
-195.260	-59.071	-0.270	0.115
-194.246	95.774	-0.222	0.250
-193.231	-102.810	-0.474	0.112
-192.217	-200.000	-0.033	-0.193
-191.202	345.096	-0.114	-0.221
-190.187	-190.024	0.292	-0.003
-189.173	-200.000	0.050	0.222
-188.158	274.095	0.083	0.145
-187.144	800.000	-0.116	0.360
-186.129	94.409	0.152	-0.171
-185.114	12.135	0.103	-0.079
-184.100	-29.626	0.203	-0.115
-183.085	163.294	0.086	-0.119
-182.071	333.027	-0.266	-0.508
-181.056	-79.377	0.418	-0.140
-180.042	-200.000	-0.070	0.315
-179.027	-51.780	0.219	0.101
-178.012	800.000	0.108	0.302
-176.998	49.608	0.219	0.204
-175.983	85.639	-0.201	0.218
-174.969	-46.659	0.086	-0.042
-173.954	57.357	0.317	0.305
-172.939	59.307	0.091	0.088
-171.925	-6.614	-0.252	0.170
-170.910	60.137	0.086	-0.084
-169.896	800.000	-0.080	-0.290
-168.881	800.000	-0.044	-0.143
-167.866	564.475	0.154	0.369
-166.852	800.000	0.046	-0.197
-165.837	-178.308	0.194	0.004
-164.823	88.257	0.277	-0.303
-163.808	61.133	0.178	-0.174
-162.793	-28.740	-0.186	0.106
-161.779	-200.000	-0.004	-0.143
-160.764	-89.814	-0.176	0.051
-159.750	77.538	0.022	0.023
-158.735	-200.000	0.018	0.150
-157.720	100.356	0.221	0.254
-156.706	254.714	-0.114	-0.193
-155.691	-44.076	0.112	-0.056
-154.677	77.521	0.057	-0.060
-153.662	69.781	0.083	-0.084
-152.647	-200.000	0.006	0.222
-151.633	204.708	0.117	0.179
-150.618	40.564	0.271	-0.241
-149.604	-144.103	0.375	-0.035
-148.589	800.000	-0.088	0.256
-147.574	96.667	-0.102	0.115
-146.560	-127.973	0.515	0.073
-145.545	800.000	0.127	0.546
-144.531	800.000	0.075	0.225
-143.516	800.000	0.089	0.256
-142.502	800.000	-0.018	0.062
-141.487	-199.647	0.184	0.001
-140.472	-15.942	-0.266	0.167
-139.458	-91.229	0.099	-0.028
-138.443	46.344	0.246	-0.225
-137.429	-200.000	0.016	0.213
-136.414	-200.000	0.010	0.101
-135.399	800.000	0.042	-0.142
-134.385	58.429	0.090	-0.087
-133.370	28.479	-0.294	0.245
-132.356	-131.071	-0.154	0.020
-131.341	-106.182	-0.011	-0.002
-130.326	-200.000	-0.112	0.624
-129.312	-2.897	0.263	-0.181
-128.297	-31.590	0.208	-0.115
-127.283	-200.000	0.022	-0.278
-126.268	57.816	0.074	-0.071
-125.253	-117.335	0.107	-0.019
-124.239	22.742	0.437	-0.353
-123.224	-200.000	-0.010	0.261
-122.210	-200.000	0.022	0.237
-121.195	-123.645	-0.136	-0.021
-120.180	178.890	-0.069	0.099
