DTS Sentinel unit serial number:	SN413079Multiplexer serial number:	ORYXHardware model number:	OX4-SRSoftware version number:	ORYX F/W v4.00 Oryx Data Collector v3.7.2.0data status	okinstallation	princeton_trtdifferential loss correction	single-endedforward channel	channel 2reverse channel	N/Adate	2019/09/15time	18:03:35forward acquisition time	60.00reverse acquisition time	0.00gamma	496.2192k internal	0.2283k external	0.2283temperature offset calibration	0.9923default loss term (dB/km)	0.3790temperature slope calibration	1.0000multiplexer offset coefficient	1.0000multiplexer slope coefficient	1.0000fibre end	0.00T internal ref (°C)	44.69T ext. ref 1 (°C)	6.49T ext. ref 2 (°C)	38.98length (m)	temperature (°C)	Stokes	anti-Stokes-747.200	424.909	-0.112	0.247
-746.185	800.000	0.018	-0.056
-745.171	-32.543	0.253	0.145
-744.156	161.558	0.132	0.190
-743.142	99.898	0.068	0.081
-742.127	22.983	0.388	0.327
-741.112	181.596	-0.123	-0.185
-740.098	-9.333	-0.237	0.162
-739.083	-85.746	-0.240	0.077
-738.069	-133.977	-0.317	0.040
-737.054	-57.692	-0.098	0.044
-736.039	-100.118	-0.314	0.080
-735.025	-200.000	0.017	0.205
-734.010	-200.000	-0.041	-0.426
-732.996	-90.867	-0.196	-0.058
-731.981	-200.000	0.042	-0.243
-730.966	284.425	-0.065	0.120
-729.952	-125.192	-0.222	-0.035
-728.937	-200.000	0.016	-0.277
-727.923	17.368	-0.085	0.069
-726.908	60.029	0.201	0.204
-725.894	-200.000	0.007	0.123
-724.879	-184.622	0.246	0.004
-723.864	144.815	0.032	0.044
-722.850	-108.705	0.167	-0.037
-721.835	641.849	0.194	0.507
-720.821	800.000	-0.074	0.213
-719.806	-55.575	0.235	0.108
-718.791	-200.000	0.064	-0.344
-717.777	-115.039	-0.116	-0.023
-716.762	170.284	0.262	-0.384
-715.748	668.573	-0.135	-0.358
-714.733	21.492	-0.135	-0.112
-713.718	-1.143	0.165	0.120
-712.704	185.662	0.123	0.188
-711.689	-131.801	-0.233	-0.031
-710.675	-104.627	-0.146	0.034
-709.660	547.834	-0.115	-0.283
-708.645	-92.080	-0.135	-0.039
-707.631	77.920	0.131	0.143
-706.616	337.928	-0.053	0.106
-705.602	-60.619	0.248	0.108
-704.587	229.307	-0.133	-0.223
-703.572	-142.495	0.219	-0.022
-702.558	244.558	0.053	0.092
-701.543	568.064	0.027	0.068
-700.529	236.982	-0.150	-0.255
-699.514	-200.000	0.017	-0.385
-698.499	361.238	0.129	-0.264
-697.485	-118.822	-0.431	-0.078
-696.470	-117.405	-0.194	-0.036
-695.456	-71.849	0.254	-0.097
-694.441	209.256	-0.140	-0.224
-693.426	103.565	0.105	-0.127
-692.412	-200.000	0.041	0.272
-691.397	660.111	-0.075	0.198
-690.383	103.394	0.156	-0.188
-689.368	-200.000	-0.023	-0.382
-688.354	-200.000	-0.011	-0.313
-687.339	-200.000	-0.012	-0.302
-686.324	-111.095	-0.108	-0.023
-685.310	-41.147	0.317	0.168
-684.295	108.975	-0.133	-0.163
-683.281	800.000	0.080	0.245
-682.266	-64.860	-0.233	0.096
-681.251	800.000	0.080	-0.247
-680.237	437.374	0.111	0.247
-679.222	-129.894	0.243	-0.034
-678.208	-157.688	-0.225	-0.014
-677.193	-78.029	-0.346	-0.122
-676.178	185.803	-0.095	0.144
-675.164	-200.000	-0.045	-0.252
-674.149	243.896	-0.184	0.317
-673.135	324.595	-0.027	0.053
-672.120	-22.746	0.154	-0.095
-671.105	800.000	-0.064	0.237
-670.091	-120.601	-0.302	-0.052
-669.076	-112.267	0.139	0.029
-668.062	539.182	-0.081	-0.196
-667.047	-200.000	0.012	-0.238
-666.032	-80.978	-0.114	0.039
-665.018	-99.164	0.255	0.066
-664.003	786.273	0.057	0.160
-662.989	140.089	0.185	0.249
-661.974	94.824	0.222	0.258
-660.959	-103.550	0.196	0.047
-659.945	24.801	-0.381	-0.323
-658.930	-1.149	-0.141	0.102
-657.916	-120.139	0.195	0.034
-656.901	-124.165	-0.483	-0.078
-655.886	-140.536	0.307	-0.033
-654.872	325.934	-0.036	0.071
-653.857	-85.307	-0.238	0.076
-652.843	189.497	-0.249	0.382
-651.828	-85.682	0.103	-0.033
-650.814	561.245	-0.049	0.121
-649.799	-200.000	-0.034	-0.257
-648.784	501.324	0.081	0.191
-647.770	800.000	0.080	0.283
-646.755	-200.000	-0.038	-0.188
-645.741	201.871	0.092	0.144
-644.726	-200.000	-0.051	0.261
-643.711	200.450	-0.074	0.116
-642.697	-24.449	-0.027	-0.016
-641.682	-91.953	-0.226	-0.065
-640.668	-129.808	0.447	0.063
-639.653	-200.000	0.016	0.302
-638.638	104.236	0.020	0.024
-637.624	-135.456	-0.110	-0.013
-636.609	-157.833	-0.330	0.020
-635.595	8.088	0.335	-0.257
-634.580	11.201	0.094	-0.074
-633.565	-200.000	-0.019	-0.131
-632.551	-142.039	-0.144	-0.015
-631.536	-108.475	-0.177	0.039
-630.522	655.539	0.045	-0.118
-629.507	-200.000	0.014	0.102
-628.492	800.000	-0.122	0.428
-627.478	-128.630	-0.297	-0.043
-626.463	22.951	0.103	0.087
-625.449	293.408	-0.194	0.362
-624.434	594.161	-0.078	0.198
-623.419	-100.916	0.214	0.054
-622.405	-25.809	0.086	-0.052
-621.390	-150.338	0.078	0.006
-620.376	-200.000	-0.266	0.001
-619.361	-140.544	0.118	-0.013
-618.346	173.108	-0.058	0.086
-617.332	111.150	0.121	-0.150
-616.317	435.378	-0.117	0.259
-615.303	-134.755	-0.057	-0.007
-614.288	-200.000	-0.027	-0.175
-613.273	323.200	0.069	0.134
-612.259	156.354	0.181	-0.256
-611.244	367.285	-0.066	-0.137
-610.230	275.862	-0.015	0.027
-609.215	10.369	-0.275	-0.214
-608.201	157.052	-0.087	0.123
-607.186	56.854	0.103	0.103
-606.171	-200.000	-0.049	-0.287
-605.157	-161.970	0.246	0.013
-604.142	68.834	-0.214	-0.224
-603.128	-200.000	-0.001	-0.136
-602.113	-174.654	0.250	-0.007
-601.098	-146.867	-0.120	0.011
-600.084	10.469	-0.301	0.234
-599.069	158.006	-0.149	0.211
-598.055	800.000	-0.030	-0.113
-597.040	-113.857	-0.371	0.074
-596.025	58.171	-0.139	0.139
-595.011	70.198	-0.078	0.082
-593.996	317.473	0.112	-0.216
-592.982	-200.000	0.012	-0.280
-591.967	-133.234	0.149	-0.019
-590.952	9.082	-0.292	-0.225
-589.938	-39.323	0.232	-0.125
-588.923	-200.000	0.047	-0.279
-587.909	403.266	0.060	0.130
-586.894	-133.542	-0.115	-0.015
-585.879	-182.876	0.201	0.004
-584.865	-200.000	0.081	-0.628
-583.850	-186.543	-0.133	-0.002
-582.836	85.648	0.256	0.287
-581.821	135.972	-0.141	0.187
-580.806	-200.000	-0.027	0.123
-579.792	-200.000	-0.002	-0.192
-578.777	-200.000	0.018	0.317
-577.763	800.000	0.043	0.178
-576.748	52.627	0.048	0.047
-575.733	135.865	-0.200	-0.266
-574.719	-200.000	-0.009	-0.071
-573.704	142.472	-0.214	0.290
-572.690	40.958	-0.321	-0.296
-571.675	-154.163	0.069	-0.005
-570.661	-200.000	-0.015	0.183
-569.646	-21.877	-0.275	-0.171
-568.631	800.000	0.057	-0.172
-567.617	-12.824	0.089	0.059
-566.602	-49.082	-0.148	-0.072
-565.588	19.525	0.184	-0.151
-564.573	-200.000	-0.002	-0.196
-563.558	-72.259	-0.585	0.221
-562.544	-158.341	0.136	0.008
-561.529	-200.000	-0.011	-0.179
-560.515	-102.363	0.100	0.025
-559.500	449.801	0.041	0.093
-558.485	-200.000	-0.047	-0.214
-557.471	587.540	-0.026	-0.064
-556.456	800.000	-0.125	-0.382
-555.442	800.000	0.072	0.256
-554.427	433.377	-0.061	0.136
-553.412	-149.244	-0.093	-0.008
-552.398	-72.036	-0.280	-0.106
-551.383	-135.526	-0.167	-0.020
-550.369	11.393	0.150	0.117
-549.354	-112.222	0.054	0.011
-548.339	158.495	-0.095	0.134
-547.325	800.000	-0.031	0.137
-546.310	-64.957	-0.230	0.095
-545.296	-200.000	0.002	0.130
-544.281	657.747	0.105	-0.275
-543.266	-80.709	0.267	0.091
-542.252	103.425	0.126	0.151
-541.237	-67.077	0.313	0.126
-540.223	-200.000	0.015	0.115
-539.208	-78.557	0.064	-0.022
-538.193	-200.000	-0.031	-0.282
-537.179	-200.000	-0.018	-0.197
-536.164	-3.964	0.227	-0.160
-535.150	566.923	-0.044	0.108
-534.135	126.976	-0.090	-0.117
-533.121	-126.370	0.246	0.037
-532.106	356.389	-0.072	0.145
-531.091	-72.379	0.256	-0.097
-530.077	-200.000	-0.001	-0.161
-529.062	800.000	0.078	-0.258
-528.048	-65.087	-0.365	0.150
-527.033	-200.000	-0.043	-0.207
-526.018	222.952	-0.220	-0.361
-525.004	326.313	0.161	0.315
-523.989	800.000	-0.037	-0.115
-522.975	59.766	-0.195	-0.196
-521.960	-200.000	-0.048	0.259
-520.945	-200.000	-0.013	0.331
-519.931	527.905	0.065	0.156
-518.916	-175.752	0.531	-0.015
-517.902	70.485	0.134	0.141
-516.887	800.000	-0.056	0.212
-515.872	-171.314	-0.046	0.002
-514.858	-125.936	0.447	-0.069
-513.843	26.802	-0.220	0.188
-512.829	-100.536	-0.359	-0.090
-511.814	351.012	-0.076	-0.152
-510.799	-200.000	-0.037	0.397
-509.785	-61.357	-0.278	0.119
-508.770	-200.000	0.036	0.165
-507.756	-64.827	0.279	-0.115
-506.741	-189.612	-0.176	0.002
-505.726	8.311	-0.146	0.112
-504.712	116.688	0.142	-0.178
-503.697	106.828	0.134	-0.162
-502.683	425.811	-0.161	-0.353
-501.668	-23.134	0.168	-0.103
-500.653	29.029	-0.105	0.091
-499.639	-66.511	0.291	-0.117
-498.624	-166.521	-0.384	-0.016
-497.610	-98.618	-0.097	-0.025
-496.595	32.220	0.212	0.186
-495.581	361.870	0.146	-0.297
-494.566	9.278	-0.179	-0.137
-493.551	-69.925	-0.134	0.052
-492.537	264.198	0.084	0.148
-491.522	5.481	0.013	-0.009
-490.508	-200.000	-0.007	0.103
-489.493	547.556	0.092	-0.225
-488.478	265.095	-0.240	-0.425
-487.464	29.964	0.133	0.115
-486.449	117.994	-0.154	0.193
-485.435	277.770	-0.188	0.341
-484.420	501.935	0.138	0.324
-483.405	800.000	-0.076	0.327
-482.391	121.109	0.214	0.271
-481.376	498.372	-0.050	0.117
-480.362	437.142	0.132	-0.293
-479.347	670.288	-0.033	0.087
-478.332	800.000	-0.043	-0.143
-477.318	800.000	0.091	-0.311
-476.303	-49.146	0.205	-0.100
-475.289	-200.000	-0.033	-0.272
-474.274	-19.214	-0.228	-0.144
-473.259	5.517	0.159	0.120
-472.245	-200.000	-0.002	-0.011
-471.230	22.723	0.202	-0.168
-470.216	-200.000	0.020	-0.100
-469.201	-200.000	0.044	-0.288
-468.186	-104.422	-0.106	0.025
-467.172	9.797	-0.078	0.060
-466.157	-94.664	0.136	0.038
-465.143	544.958	0.051	0.125
-464.128	800.000	0.052	-0.150
-463.113	-67.091	0.140	-0.056
-462.099	-200.000	0.024	-0.223
-461.084	800.000	-0.086	-0.256
-460.070	-200.000	-0.020	0.103
-459.055	-200.000	-0.000	-0.168
-458.040	800.000	-0.091	-0.324
-457.026	800.000	0.058	-0.195
-456.011	638.702	0.095	0.245
-454.997	-200.000	-0.002	-0.220
-453.982	800.000	-0.038	0.136
-452.968	-140.210	-0.140	-0.015
-451.953	8.182	-0.082	-0.063
-450.938	85.553	-0.096	0.107
-449.924	-54.949	0.184	0.084
-448.909	-200.000	-0.149	-0.000
-447.895	67.636	0.078	0.081
-446.880	800.000	-0.022	-0.067
-445.865	-135.606	0.144	-0.017
-444.851	-200.000	-0.010	-0.100
-443.836	-200.000	0.058	-0.345
-442.822	-76.818	0.112	-0.040
-441.807	-87.154	0.292	-0.090
-440.792	314.160	-0.279	-0.533
-439.778	217.666	-0.101	-0.164
-438.763	627.841	-0.026	-0.066
-437.749	40.808	0.127	-0.116
-436.734	-200.000	-0.026	-0.167
-435.719	-49.833	0.097	0.047
-434.705	464.316	0.077	-0.175
-433.690	-200.000	-0.002	0.040
-432.676	-142.638	0.138	-0.014
-431.661	6.771	0.155	0.117
-430.646	-75.745	-0.017	-0.006
-429.632	38.929	0.145	0.132
-428.617	-66.786	-0.305	0.122
-427.603	77.639	-0.290	0.314
-426.588	-200.000	0.312	-0.001
-425.573	31.768	-0.171	0.149
-424.559	44.604	-0.106	0.099
-423.544	-97.477	-0.153	0.040
-422.530	-53.102	-0.170	-0.079
-421.515	127.508	0.142	-0.183
-420.500	1.676	-0.124	0.091
-419.486	-13.653	-0.085	0.056
-418.471	45.901	-0.171	0.161
-417.457	-200.000	0.016	0.296
-416.442	111.360	-0.092	-0.113
-415.428	800.000	-0.085	-0.286
-414.413	-194.990	-0.315	-0.002
-413.398	-200.000	0.074	-0.344
-412.384	-200.000	-0.028	-0.261
-411.369	-200.000	-0.012	0.406
-410.355	-140.774	0.348	0.036
-409.340	800.000	0.032	-0.136
-408.325	-68.954	-0.190	0.074
-407.311	107.494	-0.032	-0.039
-406.296	800.000	-0.085	-0.308
-405.282	131.107	0.230	0.300
-404.267	148.754	-0.217	-0.298
-403.252	564.761	-0.155	-0.381
-402.238	-57.924	-0.125	0.056
-401.223	-200.000	0.025	-0.220
-400.209	-44.940	-0.290	-0.146
-399.194	-95.842	-0.308	-0.083
-398.179	50.049	-0.038	0.036
-397.165	245.652	-0.024	0.041
-396.150	-116.293	-0.119	0.022
-395.136	-98.234	-0.143	0.037
-394.121	800.000	0.087	0.268
-393.106	-200.000	0.006	0.168
-392.092	-200.000	-0.034	0.279
-391.077	-130.698	-0.346	0.047
-390.063	83.783	-0.112	-0.124
-389.048	167.185	0.023	0.032
-388.033	800.000	0.034	0.148
-387.019	69.759	-0.157	0.164
-386.004	-103.430	-0.348	0.083
-384.990	-200.000	0.030	-0.221
-383.975	92.496	-0.054	-0.062
-382.960	800.000	0.039	0.121
-381.946	-89.410	0.221	0.066
-380.931	51.276	0.101	0.098
-379.917	-164.821	-0.099	-0.005
-378.902	-90.742	0.262	0.076
-377.888	-104.998	-0.123	-0.029
-376.873	703.198	0.121	-0.322
-375.858	-38.601	-0.096	-0.052
-374.844	6.943	-0.265	-0.200
-373.829	-106.687	0.268	-0.060
-372.815	255.082	-0.118	0.204
-371.800	-93.900	0.211	-0.059
-370.785	-65.542	0.259	-0.105
-369.771	160.979	0.120	0.169
-368.756	-25.192	0.209	0.125
-367.742	800.000	-0.060	0.189
-366.727	-124.989	0.217	0.034
-365.712	800.000	0.018	0.077
-364.698	74.961	-0.219	-0.234
-363.683	-88.185	0.163	-0.049
-362.669	-151.027	0.144	-0.011
-361.654	134.111	0.181	0.238
-360.639	8.729	-0.189	0.144
-359.625	18.735	0.114	-0.092
-358.610	-200.000	-0.011	-0.126
-357.596	800.000	0.070	0.207
-356.581	-156.975	0.244	-0.015
-355.566	800.000	0.093	-0.263
-354.552	-166.896	0.200	-0.008
-353.537	-200.000	0.057	-0.000
-352.523	160.789	-0.011	0.015
-351.508	-138.114	-0.138	0.015
-350.493	-99.059	0.262	-0.067
-349.479	-142.567	0.173	-0.017
-348.464	-28.973	0.217	-0.126
-347.450	165.090	0.105	-0.150
-346.435	463.453	0.080	-0.180
-345.420	78.632	-0.109	-0.118
-344.406	-200.000	0.013	-0.441
-343.391	422.989	-0.054	-0.116
-342.377	35.569	-0.244	0.217
-341.362	89.312	-0.290	0.327
-340.348	51.098	0.172	-0.165
-339.333	-200.000	0.006	0.398
-338.318	-136.239	-0.123	-0.015
-337.304	-15.123	0.212	-0.137
-336.289	-200.000	0.017	-0.111
-335.275	-200.000	0.025	-0.157
-334.260	-42.984	-0.051	0.026
-333.245	-137.935	-0.083	0.009
-332.231	-60.510	0.177	-0.076
-331.216	114.328	-0.130	-0.160
-330.202	-200.000	0.051	-0.353
-329.187	800.000	-0.162	0.604
-328.172	-200.000	-0.018	-0.235
-327.158	341.621	-0.109	0.215
-326.143	-200.000	-0.057	-0.254
-325.129	-34.076	-0.337	-0.187
-324.114	-200.000	0.000	-0.098
-323.099	-200.000	0.020	0.154
-322.085	-200.000	-0.045	-0.227
-321.070	-181.635	-0.315	0.006
-320.056	-54.591	-0.109	-0.050
-319.041	-94.561	0.033	0.009
-318.026	93.915	-0.119	-0.137
-317.012	156.474	0.092	0.128
-315.997	800.000	-0.071	0.272
-314.983	43.760	-0.170	0.157
-313.968	229.390	0.156	-0.258
-312.953	-31.835	-0.127	0.072
-311.939	800.000	-0.146	0.463
-310.924	84.401	-0.215	0.237
-309.910	64.254	-0.148	0.151
-308.895	-25.852	-0.146	-0.087
-307.880	-44.504	0.126	-0.064
-306.866	33.518	0.172	-0.151
-305.851	78.690	-0.192	0.208
-304.837	-83.056	0.192	-0.062
-303.822	800.000	0.038	0.145
-302.807	-122.162	0.254	0.042
-301.793	-200.000	-0.021	0.250
-300.778	-200.000	0.005	-0.056
-299.764	-200.000	-0.024	-0.298
-298.749	111.452	-0.131	-0.160
-297.735	-132.830	-0.341	0.044
-296.720	-111.671	0.205	0.042
-295.705	-92.699	0.222	0.063
-294.691	295.603	0.143	0.264
-293.676	47.557	-0.177	0.167
-292.662	-200.000	-0.024	0.226
-291.647	-44.918	-0.232	-0.117
-290.632	76.919	0.161	0.172
-289.618	-129.072	0.377	0.053
-288.603	434.120	-0.099	0.217
-287.589	-200.000	-0.044	-0.323
-286.574	75.759	-0.060	-0.064
-285.559	800.000	0.021	0.084
-284.545	28.877	0.170	0.146
-283.530	39.627	0.092	0.084
-282.516	-20.737	0.194	-0.120
-281.501	-200.000	-0.071	0.508
-280.486	-137.893	0.274	-0.031
-279.472	122.391	-0.112	0.142
-278.457	-13.900	-0.133	0.087
-277.443	73.431	-0.148	0.156
-276.428	-76.042	0.382	-0.136
-275.413	53.646	0.128	0.124
-274.399	-137.920	-0.199	-0.022
-273.384	5.138	-0.158	-0.117
-272.370	-200.000	-0.002	0.088
-271.355	800.000	0.113	-0.386
-270.340	155.620	0.070	0.097
-269.326	49.772	0.057	-0.055
-268.311	-200.000	0.019	-0.117
-267.297	138.061	0.201	-0.266
-266.282	-141.961	0.182	-0.018
-265.267	134.052	-0.102	0.133
-264.253	-200.000	-0.004	-0.136
-263.238	124.921	-0.132	0.168
-262.224	800.000	0.137	0.424
-261.209	-122.841	-0.085	-0.014
-260.195	-200.000	-0.014	0.120
-259.180	-80.084	0.105	-0.035
-258.165	145.550	0.133	0.180
-257.151	18.889	-0.197	0.159
-256.136	-30.078	0.132	-0.076
-255.122	175.421	0.089	-0.130
-254.107	800.000	0.046	0.181
-253.092	580.960	0.116	0.286
-252.078	800.000	0.028	0.121
-251.063	800.000	-0.039	0.166
-250.049	102.722	-0.063	-0.074
-249.034	-200.000	0.010	-0.047
-248.019	-200.000	0.007	-0.111
-247.005	633.570	-0.015	-0.038
-245.990	-200.000	0.029	0.198
-244.976	23.427	0.148	-0.123
-243.961	138.042	-0.196	0.259
-242.946	201.568	0.024	-0.037
-241.932	211.939	-0.010	0.016
-240.917	216.161	0.250	0.401
-239.903	364.000	-0.179	0.363
-238.888	800.000	-0.015	-0.056
-237.873	67.137	0.060	0.062
-236.859	-200.000	0.028	0.224
-235.844	8.432	-0.206	-0.156
-234.830	20.775	-0.213	-0.174
-233.815	-133.691	-0.063	0.008
-232.800	-112.544	0.274	-0.055
-231.786	426.862	0.143	-0.311
-230.771	-51.603	0.286	0.135
-229.757	-82.039	-0.201	-0.066
-228.742	-52.222	-0.231	0.108
-227.727	-181.099	0.217	-0.004
-226.713	19.731	0.042	0.034
-225.698	-200.000	-0.001	0.137
-224.684	70.252	0.144	-0.150
-223.669	-104.646	0.349	0.081
-222.655	-44.899	0.162	0.081
-221.640	-25.908	-0.107	0.064
-220.625	-38.854	-0.231	-0.122
-219.611	91.602	-0.122	-0.138
-218.596	800.000	-0.115	0.361
-217.582	-155.297	0.212	-0.014
-216.567	220.452	-0.127	0.205
-215.552	-90.966	-0.020	-0.006
-214.538	410.517	-0.207	-0.442
-213.523	15.024	0.199	-0.157
-212.509	-200.000	0.008	-0.257
-211.494	-62.651	-0.194	-0.081
-210.479	50.692	-0.022	0.021
-209.465	-200.000	0.015	0.329
-208.450	12.504	0.107	0.083
-207.436	106.543	0.239	0.285
-206.421	-90.981	0.150	0.043
-205.406	-114.660	0.343	-0.066
-204.392	71.866	-0.141	0.148
-203.377	-108.609	0.249	0.054
-202.363	800.000	-0.143	-0.455
-201.348	26.122	0.129	-0.108
-200.333	800.000	-0.017	-0.060
-199.319	-200.000	-0.007	-0.142
-198.304	800.000	0.053	0.210
-197.290	-74.071	0.362	-0.132
-196.275	-171.161	-0.288	0.010
-195.260	19.516	-0.190	0.154
-194.246	45.444	-0.116	0.107
-193.231	430.516	0.171	-0.373
-192.217	24.957	0.066	0.055
-191.202	-91.344	-0.249	0.072
-190.187	17.689	-0.038	-0.030
-189.173	110.901	0.101	-0.123
-188.158	-200.000	-0.025	0.143
-187.144	-40.457	0.302	-0.158
-186.129	-200.000	0.074	0.346
-185.114	-30.264	0.221	0.126
-184.100	24.035	-0.158	-0.131
-183.085	-34.986	0.113	-0.062
-182.071	-28.012	0.199	-0.116
-181.056	49.938	-0.091	-0.087
-180.042	-81.506	-0.111	0.037
-179.027	-200.000	-0.004	-0.037
-178.012	-155.451	-0.164	0.011
-176.998	800.000	0.061	0.186
-175.983	-93.143	0.306	-0.086
-174.969	-158.278	0.216	-0.013
-173.954	395.468	0.067	-0.141
-172.939	-200.000	-0.031	-0.177
-171.925	-99.626	-0.106	-0.027
-170.910	-200.000	-0.001	0.327
-169.896	-46.797	0.232	0.114
-168.881	162.796	0.093	-0.131
-167.866	51.389	-0.327	0.312
-166.852	-200.000	0.027	0.248
-165.837	-11.632	-0.313	0.207
-164.823	-200.000	-0.024	0.235
-163.808	46.465	-0.137	-0.127
-162.793	-129.533	0.226	-0.031
-161.779	19.896	0.210	-0.170
-160.764	-3.489	-0.271	0.190
-159.750	20.230	-0.087	-0.070
-158.735	67.423	-0.089	0.091
-157.720	25.623	0.230	-0.192
-156.706	-97.916	0.171	-0.044
-155.691	-82.427	0.288	0.094
-154.677	29.508	0.057	0.049
-153.662	-6.289	-0.147	-0.101
-152.647	-124.402	0.294	0.046
-151.633	-200.000	0.011	-0.206
-150.618	422.151	0.196	0.422
-149.604	-200.000	-0.022	-0.335
-148.589	-97.401	0.441	-0.115
-147.574	-116.183	0.383	-0.071
-146.560	-18.456	-0.215	-0.135
-145.545	126.404	-0.086	-0.109
-144.531	146.701	0.065	0.087
-143.516	115.177	-0.123	0.151
-142.502	-200.000	-0.028	-0.322
-141.487	32.209	0.291	0.252
-140.472	67.495	-0.259	0.265
-139.458	-83.916	-0.217	0.069
-138.443	7.158	-0.073	0.054
-137.429	-200.000	0.017	0.250
-136.414	-74.296	-0.309	0.112
-135.399	24.331	-0.209	0.173
-134.385	450.240	0.031	0.068
-133.370	217.052	-0.078	-0.125
-132.356	-50.521	0.090	-0.043
-131.341	-200.000	-0.010	0.085
-130.326	-13.789	-0.057	-0.037
-129.312	-129.284	0.150	0.021
-128.297	800.000	0.066	0.290
-127.283	-43.678	-0.289	0.146
-126.268	-132.231	-0.187	0.024
-125.253	-200.000	-0.027	-0.225
-124.239	432.615	0.113	0.247
-123.224	-19.481	-0.116	-0.072
-122.210	-200.000	0.089	-0.473
