DTS Sentinel unit serial number:	SN413079Multiplexer serial number:	ORYXHardware model number:	OX4-SRSoftware version number:	ORYX F/W v4.00 Oryx Data Collector v3.7.2.0data status	okinstallation	princeton_trtdifferential loss correction	single-endedforward channel	channel 2reverse channel	N/Adate	2019/09/13time	19:15:34forward acquisition time	60.00reverse acquisition time	0.00gamma	496.2192k internal	0.2328k external	0.2328temperature offset calibration	1.0169default loss term (dB/km)	0.3790temperature slope calibration	1.0000multiplexer offset coefficient	1.0000multiplexer slope coefficient	1.0000fibre end	0.00T internal ref (°C)	31.31T ext. ref 1 (°C)	3.82T ext. ref 2 (°C)	24.71length (m)	temperature (°C)	Stokes	anti-Stokes-747.200	-137.275	0.321	-0.037
-746.185	88.447	-0.077	0.086
-745.171	-28.485	-0.072	-0.042
-744.156	-33.316	-0.478	0.266
-743.142	710.263	-0.057	-0.151
-742.127	752.635	0.050	0.136
-741.112	-61.920	-0.097	-0.041
-740.098	293.957	-0.204	0.376
-739.083	-5.465	0.084	0.058
-738.069	-200.000	-0.035	0.317
-737.054	301.499	-0.075	0.140
-736.039	208.197	0.050	-0.079
-735.025	-200.000	0.002	0.143
-734.010	553.406	0.036	-0.086
-732.996	9.991	-0.329	-0.252
-731.981	-140.662	-0.175	0.018
-730.966	68.239	-0.109	0.112
-729.952	172.672	-0.043	-0.063
-728.937	-17.811	-0.114	-0.072
-727.923	-82.136	-0.241	-0.079
-726.908	274.331	-0.097	-0.173
-725.894	347.105	-0.082	-0.163
-724.879	-81.510	-0.320	0.106
-723.864	-75.076	-0.279	-0.101
-722.850	-94.084	-0.224	-0.062
-721.835	-9.708	-0.319	-0.214
-720.821	203.214	0.139	-0.216
-719.806	-200.000	0.040	-0.203
-718.791	-27.110	0.188	-0.110
-717.777	-31.692	-0.175	0.099
-716.762	-55.929	-0.168	0.076
-715.748	46.596	-0.211	-0.197
-714.733	800.000	-0.072	0.274
-713.718	215.209	-0.155	-0.248
-712.704	800.000	-0.064	-0.197
-711.689	-200.000	0.009	0.171
-710.675	-1.985	0.245	-0.173
-709.660	152.495	0.132	0.182
-708.645	-78.677	0.195	0.067
-707.631	181.584	-0.160	0.237
-706.616	-142.787	0.207	0.020
-705.602	-197.189	0.341	-0.002
-704.587	94.950	0.220	0.252
-703.572	-140.623	0.320	0.033
-702.558	80.957	-0.089	0.096
-701.543	800.000	-0.044	-0.163
-700.529	188.760	0.087	0.130
-699.514	101.078	-0.093	0.109
-698.499	69.119	0.288	-0.298
-697.485	-200.000	0.024	0.110
-696.470	2.173	-0.285	-0.207
-695.456	-200.000	-0.004	0.042
-694.441	411.921	0.113	0.241
-693.426	-189.844	-0.224	0.003
-692.412	56.290	0.071	-0.069
-691.397	-70.277	-0.150	0.057
-690.383	139.951	-0.325	-0.431
-689.368	-9.098	-0.182	0.122
-688.354	81.292	0.268	0.291
-687.339	67.576	-0.444	0.456
-686.324	-200.000	0.052	0.272
-685.310	-200.000	0.009	-0.116
-684.295	-200.000	0.036	0.185
-683.281	-200.000	-0.015	0.111
-682.266	9.160	0.179	-0.136
-681.251	185.536	-0.128	-0.191
-680.237	200.742	-0.154	0.239
-679.222	-118.045	0.478	0.086
-678.208	169.814	0.073	-0.105
-677.193	26.127	0.148	-0.124
-676.178	136.577	-0.218	0.286
-675.164	-37.047	-0.320	-0.172
-674.149	-200.000	0.202	0.001
-673.135	-200.000	-0.023	-0.299
-672.120	800.000	-0.118	0.389
-671.105	319.377	0.094	0.179
-670.091	-108.250	0.098	0.021
-669.076	-24.363	0.354	-0.212
-668.062	-89.036	-0.138	0.041
-667.047	197.164	-0.189	-0.290
-666.032	248.962	0.129	-0.219
-665.018	-162.464	0.254	0.013
-664.003	-112.762	-0.205	-0.041
-662.989	-27.991	-0.269	0.156
-661.974	-82.854	0.150	0.049
-660.959	11.820	0.283	0.218
-659.945	352.285	0.085	-0.170
-658.930	-4.508	0.339	0.235
-657.916	-165.997	-0.302	0.013
-656.901	-155.454	-0.216	-0.014
-655.886	-200.000	0.019	0.308
-654.872	-200.000	0.048	-0.372
-653.857	11.972	-0.311	-0.240
-652.843	135.280	-0.173	-0.225
-651.828	-82.414	-0.074	-0.024
-650.814	-0.526	0.090	-0.064
-649.799	-3.197	0.389	0.272
-648.784	800.000	-0.061	-0.177
-647.770	-79.817	-0.157	0.053
-646.755	-25.878	-0.243	-0.143
-645.741	800.000	0.055	0.193
-644.726	446.695	0.056	0.125
-643.711	6.440	0.057	0.042
-642.697	-131.321	-0.174	0.023
-641.682	-200.000	-0.084	0.401
-640.668	82.822	-0.053	-0.058
-639.653	-33.700	-0.265	0.147
-638.638	-111.510	-0.133	-0.027
-637.624	-63.756	0.219	-0.090
-636.609	-81.034	-0.105	0.035
-635.595	14.229	-0.128	0.100
-634.580	596.772	0.137	0.341
-633.565	22.541	0.062	-0.051
-632.551	190.472	0.138	0.208
-631.536	-34.276	0.291	0.160
-630.522	-42.470	0.370	-0.189
-629.507	89.531	0.155	0.173
-628.492	44.597	-0.020	-0.018
-627.478	90.276	-0.083	0.093
-626.463	783.463	0.041	-0.112
-625.449	659.335	0.157	-0.405
-624.434	146.452	-0.265	0.357
-623.419	56.465	0.037	0.036
-622.405	534.863	0.064	-0.153
-621.390	-22.371	-0.054	-0.033
-620.376	461.212	0.011	-0.024
-619.361	-68.641	-0.144	0.056
-618.346	49.877	-0.474	-0.448
-617.332	-23.676	0.113	-0.068
-616.317	800.000	-0.052	-0.217
-615.303	-24.684	0.108	-0.065
-614.288	433.306	-0.119	0.260
-613.273	-200.000	0.040	0.376
-612.259	-200.000	0.054	-0.329
-611.244	45.200	0.102	0.094
-610.230	-47.723	-0.190	-0.092
-609.215	224.725	0.177	-0.288
-608.201	-140.487	0.284	-0.030
-607.186	-15.776	-0.161	0.103
-606.171	-18.511	-0.267	-0.167
-605.157	-200.000	-0.001	-0.118
-604.142	266.754	-0.080	-0.141
-603.128	267.278	-0.111	-0.194
-602.113	77.698	0.110	-0.118
-601.098	235.305	0.138	-0.228
-600.084	-200.000	-0.022	0.336
-599.069	-200.000	0.029	-0.126
-598.055	317.661	-0.072	-0.136
-597.040	6.949	-0.157	-0.117
-596.025	-168.186	0.373	-0.014
-595.011	365.841	-0.045	-0.091
-593.996	-17.306	-0.061	0.038
-592.982	-64.519	0.166	0.068
-591.967	-123.839	-0.216	-0.034
-590.952	-200.000	-0.004	0.254
-589.938	-111.275	-0.355	-0.073
-588.923	-80.266	-0.303	0.102
-587.909	-200.000	0.000	0.063
-586.894	800.000	-0.075	0.219
-585.879	471.639	-0.066	-0.149
-584.865	-38.863	-0.171	-0.090
-583.850	89.112	-0.360	-0.402
-582.836	-179.437	0.387	0.009
-581.821	-200.000	-0.027	-0.141
-580.806	-36.106	0.319	0.173
-579.792	-18.907	-0.141	0.088
-578.777	88.652	-0.093	0.104
-577.763	54.711	-0.073	0.071
-576.748	545.503	0.047	-0.113
-575.733	800.000	-0.026	-0.113
-574.719	96.163	-0.176	0.201
-573.704	10.896	-0.142	0.109
-572.690	85.830	-0.044	0.049
-571.675	-92.440	0.290	-0.082
-570.661	800.000	-0.117	-0.329
-569.646	-7.216	0.341	-0.232
-568.631	-42.343	-0.225	-0.115
-567.617	-200.000	0.004	0.036
-566.602	144.691	0.135	0.181
-565.588	-131.329	0.163	-0.022
-564.573	-183.472	0.073	-0.001
-563.558	32.107	-0.084	0.073
-562.544	-200.000	0.008	-0.059
-561.529	107.658	-0.210	0.251
-560.515	-200.000	0.015	0.154
-559.500	-177.046	0.359	-0.009
-558.485	-111.224	-0.537	0.110
-557.471	203.402	0.187	-0.289
-556.456	-104.573	-0.134	-0.031
-555.442	444.529	0.078	0.170
-554.427	-143.989	0.285	-0.027
-553.412	-200.000	0.011	0.098
-552.398	5.191	0.322	0.237
-551.383	294.357	-0.146	-0.267
-550.369	390.466	0.178	-0.370
-549.354	109.823	0.169	0.203
-548.339	32.599	-0.141	-0.122
-547.325	-200.000	-0.013	0.278
-546.310	800.000	0.036	0.145
-545.296	-71.970	-0.203	-0.075
-544.281	-133.254	-0.156	-0.020
-543.266	-23.471	0.168	-0.101
-542.252	-12.322	-0.102	-0.067
-541.237	611.843	0.201	-0.501
-540.223	92.670	-0.059	-0.067
-539.208	800.000	0.148	0.422
-538.193	0.538	0.244	0.174
-537.179	152.879	0.084	0.115
-536.164	107.032	0.127	-0.150
-535.150	-16.848	0.153	-0.097
-534.135	800.000	0.104	0.423
-533.121	136.746	-0.171	0.223
-532.106	46.937	0.048	-0.045
-531.091	15.262	0.182	-0.143
-530.077	-9.384	0.148	-0.099
-529.062	359.021	-0.110	0.220
-528.048	-45.875	-0.223	0.110
-527.033	49.362	0.106	-0.099
-526.018	-140.006	-0.164	-0.017
-525.004	545.210	0.093	0.222
-523.989	507.812	0.116	0.269
-522.975	13.611	0.056	0.044
-521.960	-200.000	0.061	-0.335
-520.945	599.126	0.130	-0.321
-519.931	-83.484	0.016	0.005
-518.916	124.986	0.274	-0.345
-517.902	421.892	0.145	-0.310
-516.887	83.679	-0.142	-0.155
-515.872	481.019	0.155	-0.350
-514.858	-200.000	0.069	0.365
-513.843	-200.000	-0.000	0.166
-512.829	-90.059	-0.268	0.078
-511.814	295.549	0.034	-0.063
-510.799	800.000	-0.093	0.287
-509.785	71.801	-0.161	-0.167
-508.770	-200.000	0.004	0.039
-507.756	-64.967	-0.232	0.094
-506.741	-37.338	-0.116	-0.062
-505.726	-200.000	-0.070	0.568
-504.712	384.094	-0.046	-0.094
-503.697	-136.385	0.174	0.020
-502.683	75.897	0.232	0.245
-501.668	-67.891	-0.384	-0.150
-500.653	800.000	0.064	0.252
-499.639	-145.698	0.182	-0.016
-498.624	-200.000	0.018	-0.117
-497.610	-200.000	0.026	-0.241
-496.595	-200.000	-0.233	-0.001
-495.581	-93.451	-0.187	-0.052
-494.566	47.646	-0.119	-0.111
-493.551	-200.000	0.023	0.194
-492.537	1.187	-0.057	0.041
-491.522	-200.000	0.086	0.376
-490.508	-106.983	-0.196	-0.043
-489.493	333.362	-0.119	-0.229
-488.478	248.864	0.030	-0.051
-487.464	-78.063	0.220	-0.076
-486.449	-154.063	-0.189	0.013
-485.435	-200.000	-0.009	0.194
-484.420	692.028	0.132	-0.345
-483.405	16.034	0.096	0.075
-482.391	-200.000	0.002	0.203
-481.376	284.381	0.128	-0.230
-480.362	13.566	0.232	-0.180
-479.347	205.595	0.165	-0.255
-478.332	216.195	-0.166	-0.263
-477.318	403.137	-0.042	0.088
-476.303	396.614	-0.050	0.104
-475.289	642.388	0.033	0.083
-474.274	-200.000	-0.029	0.199
-473.259	800.000	0.015	0.059
-472.245	153.078	0.047	-0.063
-471.230	-27.296	-0.110	0.064
-470.216	-200.000	0.028	-0.133
-469.201	-21.274	0.253	-0.154
-468.186	-109.094	-0.656	-0.139
-467.172	30.282	0.158	0.135
-466.157	214.890	-0.184	0.290
-465.143	-69.670	0.254	-0.097
-464.128	-47.338	-0.197	-0.096
-463.113	179.655	-0.134	-0.195
-462.099	277.355	-0.127	-0.225
-461.084	-92.842	-0.120	0.033
-460.070	-52.516	0.115	-0.053
-459.055	10.970	-0.094	0.071
-458.040	19.562	-0.102	-0.082
-457.026	-94.389	0.338	0.092
-456.011	-93.668	0.300	-0.083
-454.997	-99.568	0.198	-0.049
-453.982	-200.000	0.019	0.198
-452.968	800.000	-0.073	0.239
-451.953	-82.235	0.044	0.014
-450.938	-200.000	-0.002	-0.279
-449.924	243.500	-0.024	-0.040
-448.909	599.235	0.076	-0.188
-447.895	-40.390	-0.157	0.081
-446.880	229.501	-0.158	-0.257
-445.865	-148.686	0.134	0.011
-444.851	-132.473	-0.440	-0.056
-443.836	-146.556	-0.291	-0.025
-442.822	-71.673	0.090	0.033
-441.807	52.633	-0.085	0.081
-440.792	-200.000	-0.229	0.001
-439.778	273.256	-0.173	0.304
-438.763	279.653	0.177	0.315
-437.749	-200.000	-0.010	-0.394
-436.734	28.885	0.197	-0.166
-435.719	239.521	-0.245	-0.405
-434.705	-200.000	0.004	-0.275
-433.690	-161.702	0.294	-0.015
-432.676	306.560	-0.096	0.178
-431.661	-25.536	-0.101	0.060
-430.646	-200.000	-0.009	0.193
-429.632	52.198	0.123	0.117
-428.617	-126.565	-0.274	-0.040
-427.603	624.305	-0.045	0.112
-426.588	800.000	0.126	0.383
-425.573	-90.650	-0.098	0.028
-424.559	70.099	0.071	-0.073
-423.544	-86.033	0.092	-0.028
-422.530	-200.000	0.025	0.210
-421.515	-200.000	0.025	0.230
-420.500	288.621	-0.135	0.244
-419.486	800.000	-0.065	0.247
-418.471	-35.033	0.139	-0.075
-417.457	68.557	0.041	0.042
-416.442	-103.098	0.303	-0.071
-415.428	-156.459	-0.028	-0.002
-414.413	196.398	0.081	0.123
-413.398	-200.000	0.007	0.103
-412.384	74.684	-0.256	-0.268
-411.369	-149.321	0.262	-0.021
-410.355	-60.980	-0.191	0.080
-409.340	108.900	0.276	-0.328
-408.325	71.580	-0.154	0.159
-407.311	-57.695	-0.019	-0.008
-406.296	137.818	0.112	0.146
-405.282	4.229	0.183	-0.133
-404.267	-36.542	-0.217	0.116
-403.252	-69.468	0.169	-0.064
-402.238	-108.813	-0.224	0.048
-401.223	-21.720	-0.089	-0.054
-400.209	86.940	-0.208	-0.228
-399.194	-41.086	-0.107	0.055
-398.179	107.122	0.234	-0.277
-397.165	-82.839	0.284	-0.091
-396.150	-200.000	0.003	-0.092
-395.136	-59.530	-0.355	0.151
-394.121	-198.733	0.119	0.001
-393.106	259.979	-0.152	-0.261
-392.092	-127.509	-0.200	-0.029
-391.077	-11.297	0.116	0.076
-390.063	-160.342	-0.062	-0.003
-389.048	85.199	-0.147	-0.160
-388.033	-200.000	-0.030	-0.138
-387.019	219.160	0.190	0.302
-386.004	800.000	-0.094	0.350
-384.990	74.516	0.085	0.089
-383.975	-57.911	-0.161	-0.070
-382.960	-131.640	-0.372	0.049
-381.946	-125.006	0.244	-0.037
-380.931	-200.000	0.007	0.088
-379.917	-106.040	0.094	-0.021
-378.902	-55.654	0.357	0.159
-377.888	128.294	0.077	0.098
-376.873	297.900	0.039	0.071
-375.858	800.000	-0.035	-0.103
-374.844	420.651	0.018	-0.038
-373.829	23.810	0.254	-0.208
-372.815	-200.000	0.025	0.163
-371.800	-133.141	-0.080	-0.010
-370.785	-94.057	0.358	0.097
-369.771	-144.466	0.152	-0.014
-368.756	-87.748	0.082	-0.025
-367.742	-200.000	-0.020	-0.202
-366.727	362.871	-0.043	-0.087
-365.712	-112.761	0.103	-0.020
-364.698	-34.098	-0.231	0.126
-363.683	402.830	0.109	-0.228
-362.669	800.000	-0.069	-0.197
-361.654	74.988	-0.263	0.275
-360.639	26.775	-0.119	0.099
-359.625	800.000	-0.012	-0.037
-358.610	123.524	0.158	-0.196
-357.596	67.830	-0.112	0.114
-356.581	-200.000	0.052	-0.268
-355.566	-200.000	-0.037	0.238
-354.552	82.429	0.122	0.132
-353.537	178.971	0.063	0.092
-352.523	-42.775	0.064	0.032
-351.508	38.863	0.017	-0.015
-350.493	4.139	-0.233	0.169
-349.479	-165.860	0.141	-0.006
-348.464	800.000	0.139	-0.483
-347.450	-200.000	0.010	-0.316
-346.435	305.873	0.094	-0.174
-345.420	-31.031	-0.232	0.130
-344.406	-130.072	-0.470	0.064
-343.391	28.169	0.154	0.129
-342.377	-200.000	0.013	0.064
-341.362	-200.000	-0.056	0.414
-340.348	-62.879	0.370	0.152
-339.333	208.262	0.222	0.344
-338.318	-34.813	-0.025	0.014
-337.304	800.000	-0.023	0.095
-336.289	31.494	-0.029	-0.024
-335.275	281.302	-0.069	-0.123
-334.260	31.921	-0.196	0.168
-333.245	-200.000	0.074	0.341
-332.231	196.678	-0.203	-0.307
-331.216	151.243	-0.047	-0.063
-330.202	-200.000	0.132	-0.624
-329.187	800.000	0.033	-0.100
-328.172	-38.099	-0.123	0.065
-327.158	-145.244	0.179	0.016
-326.143	-57.640	-0.169	0.073
-325.129	41.267	-0.111	-0.100
-324.114	-200.000	0.004	0.142
-323.099	57.649	-0.071	-0.069
-322.085	800.000	-0.053	-0.177
-321.070	86.707	0.076	-0.083
-320.056	-78.888	-0.081	-0.027
-319.041	232.894	-0.084	-0.136
-318.026	279.284	0.057	0.101
-317.012	-65.752	0.151	-0.060
-315.997	-84.458	0.064	-0.020
-314.983	-69.105	0.154	-0.059
-313.968	227.202	-0.202	-0.325
-312.953	-25.149	-0.228	-0.134
-311.939	-94.715	0.219	-0.059
-310.924	16.241	0.110	0.086
-309.910	800.000	0.115	0.379
-308.895	36.663	0.222	0.194
-307.880	-97.529	0.420	0.108
-306.866	-43.917	-0.140	0.070
-305.851	800.000	0.013	-0.039
-304.837	-200.000	0.013	-0.140
-303.822	305.752	-0.117	0.216
-302.807	-63.467	0.213	-0.087
-301.793	177.995	-0.191	-0.276
-300.778	-63.484	-0.345	0.140
-299.764	-66.537	0.126	0.050
-298.749	42.037	0.053	-0.047
-297.735	-200.000	0.023	0.160
-296.720	-200.000	-0.007	-0.178
-295.705	-141.793	-0.115	-0.011
-294.691	160.797	-0.065	0.090
-293.676	542.433	0.130	-0.306
-292.662	-76.576	-0.234	0.081
-291.647	-46.254	0.125	-0.061
-290.632	289.513	-0.170	-0.305
-289.618	-38.296	0.103	0.054
-288.603	-18.100	-0.087	-0.054
-287.589	-200.000	0.039	-0.276
-286.574	-41.967	-0.145	0.073
-285.559	-161.865	-0.154	0.008
-284.545	-135.472	0.195	0.023
-283.530	100.749	-0.121	-0.139
-282.516	723.704	-0.078	0.205
-281.501	-38.519	-0.158	0.083
-280.486	-15.910	0.219	0.138
-279.472	476.992	-0.063	-0.141
-278.457	-140.755	0.275	0.028
-277.443	182.196	0.133	0.193
-276.428	377.077	-0.197	0.399
-275.413	-104.766	-0.147	0.034
-274.399	64.124	0.064	-0.064
-273.384	-161.252	-0.135	-0.007
-272.370	159.755	0.129	-0.178
-271.355	-200.000	0.037	-0.206
-270.340	-89.556	-0.433	0.126
-269.326	-117.589	-0.305	-0.054
-268.311	-29.807	0.434	0.245
-267.297	61.671	0.232	0.228
-266.282	-39.609	-0.041	-0.021
-265.267	-120.557	-0.349	0.058
-264.253	366.827	0.051	-0.102
-263.238	367.382	0.114	-0.227
-262.224	107.660	0.087	0.102
-261.209	260.730	0.136	0.232
-260.195	118.566	-0.088	-0.107
-259.180	-176.164	-0.118	-0.003
-258.165	-83.899	0.332	0.105
-257.151	-74.531	0.154	0.055
-256.136	133.015	-0.220	-0.281
-255.122	154.716	0.028	0.038
-254.107	-200.000	-0.002	0.057
-253.092	-113.414	0.204	0.039
-252.078	172.491	0.165	-0.235
-251.063	-85.985	-0.042	0.013
-250.049	-36.429	0.249	0.132
-249.034	377.452	-0.031	-0.064
-248.019	-200.000	0.056	0.259
-247.005	-37.677	-0.212	0.112
-245.990	-200.000	-0.022	0.110
-244.976	-55.054	-0.140	0.062
-243.961	-200.000	-0.002	-0.175
-242.946	-62.248	0.142	0.058
-241.932	-200.000	0.074	-0.348
-240.917	475.198	0.174	-0.388
-239.903	-200.000	-0.022	0.113
-238.888	-70.070	-0.079	-0.030
-237.873	-163.505	-0.138	-0.006
-236.859	323.685	-0.024	-0.046
-235.844	-200.000	-0.003	-0.377
-234.830	800.000	-0.039	-0.168
-233.815	-133.531	-0.120	0.015
-232.800	267.860	0.037	0.065
-231.786	-163.882	-0.098	-0.005
-230.771	800.000	0.020	-0.074
-229.757	800.000	0.024	-0.072
-228.742	800.000	-0.079	0.297
-227.727	-164.785	-0.299	0.013
-226.713	-200.000	0.031	-0.340
-225.698	23.531	-0.174	-0.142
-224.684	-200.000	-0.011	0.101
-223.669	-200.000	-0.032	0.295
-222.655	-200.000	0.064	0.316
-221.640	359.450	0.123	-0.244
-220.625	42.678	-0.100	-0.090
-219.611	413.931	0.114	-0.240
-218.596	57.836	-0.381	0.368
-217.582	-200.000	-0.023	-0.150
-216.567	-161.462	-0.125	-0.006
-215.552	-2.407	-0.128	-0.088
-214.538	-189.931	0.217	0.002
-213.523	-200.000	0.022	-0.129
-212.509	-34.213	-0.276	-0.150
-211.494	800.000	0.075	0.270
-210.479	47.341	-0.106	-0.097
-209.465	34.312	0.118	-0.102
-208.450	-127.323	-0.220	0.032
-207.436	-11.703	-0.169	-0.109
-206.421	405.859	-0.110	0.230
-205.406	20.814	0.237	-0.189
-204.392	161.173	0.082	0.114
-203.377	-60.296	-0.169	-0.071
-202.363	-200.000	-0.055	0.299
-201.348	150.386	0.219	0.293
-200.333	474.640	-0.117	-0.261
-199.319	-10.412	0.155	-0.101
-198.304	-200.000	-0.017	-0.107
-197.290	459.351	0.025	0.054
-196.275	-49.528	0.150	0.070
-195.260	-137.066	-0.368	0.041
-194.246	-83.958	0.354	0.111
-193.231	230.977	0.050	0.081
-192.217	-1.395	0.321	0.223
-191.202	-111.731	0.090	-0.018
-190.187	-70.152	0.155	-0.058
-189.173	-137.330	-0.119	-0.013
-188.158	-200.000	0.003	0.074
-187.144	-64.661	0.222	0.089
-186.129	-81.508	0.354	0.115
-185.114	-101.010	0.176	0.042
-184.100	-200.000	0.054	0.561
-183.085	90.487	-0.211	0.233
-182.071	-123.394	0.053	-0.008
-181.056	-55.724	-0.135	-0.060
-180.042	-9.868	0.349	0.229
-179.027	-200.000	0.068	-0.363
-178.012	-87.089	0.371	-0.111
-176.998	-200.000	-0.058	-0.306
-175.983	30.688	0.072	0.061
-174.969	-200.000	-0.011	-0.100
-173.954	89.784	0.195	0.214
-172.939	-200.000	0.004	-0.106
-171.925	-45.267	0.152	0.074
-170.910	-110.899	-0.470	-0.095
-169.896	48.486	-0.215	0.199
-168.881	-5.911	-0.239	-0.161
-167.866	-27.672	0.026	-0.015
-166.852	313.825	-0.068	-0.126
-165.837	91.758	0.094	-0.104
-164.823	-105.200	-0.070	0.016
-163.808	15.698	-0.292	-0.226
-162.793	-161.303	-0.135	-0.007
-161.779	-200.000	0.004	-0.189
-160.764	39.985	-0.009	-0.008
-159.750	119.622	0.125	0.152
-158.735	800.000	-0.038	0.123
-157.720	-67.708	0.208	0.080
-156.706	-84.501	-0.338	-0.105
-155.691	100.202	0.327	0.374
-154.677	-48.112	0.209	0.099
-153.662	241.071	0.157	0.259
-152.647	-120.132	-0.192	-0.032
-151.633	38.760	-0.087	0.076
-150.618	386.342	0.193	0.392
-149.604	-183.409	-0.288	0.005
-148.589	800.000	-0.091	0.277
-147.574	-97.585	0.324	0.083
-146.560	-122.052	0.293	0.047
-145.545	63.092	-0.178	0.176
-144.531	-160.704	0.234	-0.012
-143.516	99.009	0.070	-0.079
-142.502	-6.470	0.163	-0.109
-141.487	-137.218	0.621	-0.070
-140.472	-81.162	-0.183	0.059
-139.458	-16.428	-0.101	-0.063
-138.443	-65.264	0.394	0.156
-137.429	59.528	-0.253	0.245
-136.414	-11.425	0.237	-0.154
-135.399	-40.063	-0.174	-0.089
-134.385	800.000	-0.126	-0.348
-133.370	-37.543	0.096	-0.050
-132.356	36.578	-0.138	-0.120
-131.341	28.182	0.136	0.113
-130.326	-174.819	-0.260	-0.007
-129.312	-117.356	-0.259	-0.046
-128.297	94.252	-0.149	-0.166
-127.283	-200.000	0.023	0.213
-126.268	185.058	-0.115	0.167
-125.253	11.557	-0.226	0.171
-124.239	20.040	-0.193	-0.153
-123.224	-120.658	-0.076	-0.013
-122.210	-7.299	0.237	-0.158
-121.195	-84.316	0.106	-0.033
