DTS Sentinel unit serial number:	SN413079Multiplexer serial number:	ORYXHardware model number:	OX4-SRSoftware version number:	ORYX F/W v4.00 Oryx Data Collector v3.7.2.0data status	okinstallation	princeton_trtdifferential loss correction	single-endedforward channel	channel 2reverse channel	N/Adate	2019/09/19time	12:23:35forward acquisition time	60.00reverse acquisition time	0.00gamma	496.2192k internal	0.2336k external	0.2336temperature offset calibration	1.0019default loss term (dB/km)	0.3790temperature slope calibration	1.0000multiplexer offset coefficient	1.0000multiplexer slope coefficient	1.0000fibre end	0.00T internal ref (°C)	26.78T ext. ref 1 (°C)	0.86T ext. ref 2 (°C)	24.09length (m)	temperature (°C)	Stokes	anti-Stokes-747.200	-10.781	-0.279	0.185
-746.185	143.577	-0.164	0.219
-745.171	-71.021	-0.118	0.045
-744.156	126.164	-0.116	0.147
-743.142	-200.000	0.047	0.393
-742.127	-92.173	-0.377	-0.107
-741.112	-69.518	-0.033	0.013
-740.098	519.311	0.063	0.149
-739.083	283.541	-0.128	0.230
-738.069	-122.686	-0.190	0.031
-737.054	800.000	0.036	0.143
-736.039	-117.045	-0.278	0.051
-735.025	109.936	-0.131	0.158
-734.010	-129.810	-0.116	-0.016
-732.996	-34.164	-0.184	-0.102
-731.981	-108.720	-0.176	-0.038
-730.966	800.000	-0.045	-0.187
-729.952	72.965	-0.087	0.091
-728.937	-151.134	-0.102	0.008
-727.923	-44.046	-0.104	0.053
-726.908	-1.858	-0.257	0.182
-725.894	-65.474	-0.162	-0.065
-724.879	-116.535	0.147	0.027
-723.864	-200.000	0.012	-0.188
-722.850	257.934	0.114	-0.196
-721.835	-200.000	0.010	0.315
-720.821	64.679	0.062	0.063
-719.806	-39.946	-0.166	0.087
-718.791	648.157	-0.063	-0.161
-717.777	-200.000	-0.054	0.296
-716.762	156.385	-0.069	-0.095
-715.748	-38.190	0.279	-0.148
-714.733	-200.000	-0.017	0.165
-713.718	-108.875	-0.135	-0.029
-712.704	71.470	-0.042	-0.044
-711.689	-128.641	-0.534	-0.076
-710.675	-78.894	0.370	-0.126
-709.660	724.489	-0.142	0.380
-708.645	-113.229	0.069	0.014
-707.631	412.783	-0.061	0.131
-706.616	645.826	-0.075	0.192
-705.602	-53.040	0.342	0.157
-704.587	90.994	-0.138	0.156
-703.572	50.217	0.299	0.283
-702.558	-31.882	-0.172	-0.096
-701.543	-151.972	-0.222	0.016
-700.529	35.562	-0.090	-0.079
-699.514	-60.468	0.228	0.097
-698.499	800.000	0.049	-0.215
-697.485	83.175	0.126	-0.137
-696.470	-179.545	0.225	-0.005
-695.456	-86.583	-0.570	0.175
-694.441	-37.572	-0.239	-0.128
-693.426	-200.000	-0.055	0.266
-692.412	108.325	0.197	-0.235
-691.397	410.604	0.049	-0.104
-690.383	308.363	-0.074	-0.139
-689.368	-125.447	-0.243	-0.037
-688.354	186.828	0.015	0.023
-687.339	139.295	-0.222	0.293
-686.324	-200.000	0.002	-0.152
-685.310	94.687	-0.175	-0.199
-684.295	-200.000	0.050	0.333
-683.281	266.491	0.088	-0.153
-682.266	-200.000	0.024	0.187
-681.251	128.659	-0.212	0.271
-680.237	213.046	-0.140	0.221
-679.222	800.000	-0.071	0.206
-678.208	23.326	0.384	-0.316
-677.193	-16.920	-0.166	-0.105
-676.178	170.185	-0.061	-0.087
-675.164	105.914	-0.180	-0.213
-674.149	-200.000	0.010	0.131
-673.135	800.000	-0.049	-0.191
-672.120	-76.277	-0.339	-0.120
-671.105	-200.000	-0.045	0.211
-670.091	772.024	-0.113	-0.308
-669.076	449.002	-0.010	-0.021
-668.062	7.197	-0.086	-0.064
-667.047	-102.894	-0.194	-0.046
-666.032	-200.000	0.085	-0.436
-665.018	157.813	-0.041	-0.057
-664.003	-200.000	0.001	0.111
-662.989	18.899	0.158	0.127
-661.974	-33.568	0.128	-0.071
-660.959	53.254	0.238	0.228
-659.945	-5.023	0.253	-0.175
-658.930	800.000	-0.045	0.192
-657.916	-19.582	0.063	-0.039
-656.901	-200.000	0.043	-0.237
-655.886	42.227	-0.291	-0.265
-654.872	-200.000	0.061	0.344
-653.857	-200.000	0.060	-0.323
-652.843	148.002	0.103	0.139
-651.828	-57.967	0.126	0.055
-650.814	-55.865	0.260	-0.116
-649.799	-200.000	0.057	0.386
-648.784	193.019	0.085	-0.129
-647.770	553.038	0.114	0.275
-646.755	-180.616	-0.473	-0.010
-645.741	800.000	0.140	-0.437
-644.726	-33.323	-0.113	0.063
-643.711	58.217	0.229	0.224
-642.697	-62.470	-0.147	-0.061
-641.682	-176.199	-0.245	-0.006
-640.668	470.358	0.081	-0.183
-639.653	282.540	0.061	-0.109
-638.638	-90.189	-0.163	-0.047
-637.624	-200.000	0.050	-0.254
-636.609	81.417	0.074	-0.080
-635.595	-44.899	0.098	0.049
-634.580	42.487	0.011	0.010
-633.565	-22.845	0.089	-0.054
-632.551	-200.000	-0.012	-0.211
-631.536	306.221	-0.036	-0.066
-630.522	-33.184	0.280	0.155
-629.507	800.000	0.043	0.145
-628.492	541.690	-0.069	0.165
-627.478	-41.638	0.016	-0.008
-626.463	27.312	-0.220	0.185
-625.449	8.550	-0.265	-0.199
-624.434	461.762	0.046	-0.102
-623.419	520.712	-0.050	-0.117
-622.405	544.506	0.068	-0.163
-621.390	144.913	-0.051	-0.068
-620.376	230.058	-0.252	0.411
-619.361	249.521	0.195	-0.330
-618.346	-76.489	-0.208	0.073
-617.332	800.000	0.039	-0.165
-616.317	299.938	-0.106	-0.195
-615.303	-64.006	-0.117	-0.048
-614.288	-101.749	0.292	0.071
-613.273	800.000	0.073	-0.228
-612.259	81.445	0.247	0.266
-611.244	-48.887	-0.297	0.142
-610.230	-52.151	0.175	0.081
-609.215	-200.000	0.016	-0.296
-608.201	-150.021	0.237	0.018
-607.186	-32.923	-0.442	-0.245
-606.171	11.980	-0.014	-0.011
-605.157	32.459	-0.165	-0.142
-604.142	-21.588	-0.072	-0.044
-603.128	-100.906	-0.337	-0.083
-602.113	38.099	0.015	-0.014
-601.098	800.000	-0.060	0.229
-600.084	45.755	0.053	-0.049
-599.069	-51.453	-0.171	0.080
-598.055	-125.799	0.235	0.035
-597.040	727.607	-0.029	0.076
-596.025	365.711	0.043	-0.086
-595.011	-155.700	0.384	0.025
-593.996	31.446	0.193	-0.165
-592.982	-18.960	0.099	-0.062
-591.967	48.689	0.136	-0.127
-590.952	-70.519	0.287	-0.109
-589.938	-44.496	-0.126	0.063
-588.923	-48.021	-0.209	-0.101
-587.909	-177.278	-0.363	-0.009
-586.894	695.062	0.111	0.291
-585.879	-149.256	0.234	-0.019
-584.865	53.133	-0.165	-0.157
-583.850	32.286	-0.231	-0.199
-582.836	-200.000	-0.023	-0.145
-581.821	-97.050	-0.267	0.070
-580.806	-2.044	0.240	0.169
-579.792	71.140	-0.199	0.206
-578.777	-26.460	0.070	0.041
-577.763	467.562	0.151	-0.339
-576.748	79.562	-0.147	0.158
-575.733	800.000	0.012	-0.041
-574.719	-47.206	0.405	-0.197
-573.704	524.900	0.110	-0.259
-572.690	800.000	0.077	0.289
-571.675	-40.469	0.193	-0.100
-570.661	-153.172	-0.285	-0.020
-569.646	-200.000	0.023	0.127
-568.631	-76.020	-0.094	0.033
-567.617	-63.548	-0.260	0.107
-566.602	-200.000	0.012	-0.094
-565.588	-200.000	0.041	0.314
-564.573	230.787	0.105	-0.171
-563.558	-200.000	-0.007	-0.062
-562.544	-200.000	0.039	-0.219
-561.529	-50.472	-0.510	0.240
-560.515	-19.036	-0.131	-0.081
-559.500	207.633	-0.065	0.102
-558.485	-34.792	0.210	-0.114
-557.471	-13.925	-0.316	0.204
-556.456	142.427	-0.106	-0.141
-555.442	-147.007	-0.211	0.018
-554.427	-200.000	0.003	-0.145
-553.412	800.000	0.010	0.036
-552.398	-200.000	0.003	-0.029
-551.383	-102.074	0.091	-0.022
-550.369	-129.307	-0.333	-0.046
-549.354	29.352	0.092	-0.078
-548.339	-84.981	0.321	-0.100
-547.325	530.300	0.077	-0.182
-546.310	800.000	-0.059	-0.182
-545.296	289.419	0.022	0.040
-544.281	-7.214	0.107	-0.072
-543.266	222.849	-0.065	0.104
-542.252	-125.670	-0.297	-0.045
-541.237	576.252	0.077	-0.187
-540.223	-200.000	0.302	-0.001
-539.208	680.872	-0.154	0.400
-538.193	67.037	0.124	-0.125
-537.179	-41.284	-0.301	0.154
-536.164	-200.000	0.037	0.602
-535.150	-200.000	-0.029	-0.185
-534.135	-58.646	-0.318	-0.137
-533.121	-88.025	-0.326	0.098
-532.106	-200.000	0.018	-0.154
-531.091	-26.626	0.226	0.132
-530.077	301.105	0.070	0.128
-529.062	422.534	-0.073	0.157
-528.048	-83.123	-0.147	0.047
-527.033	99.639	-0.102	0.118
-526.018	35.344	0.175	-0.153
-525.004	44.841	0.097	-0.089
-523.989	-200.000	0.011	0.282
-522.975	276.232	0.151	0.268
-521.960	186.863	0.110	0.163
-520.945	166.082	-0.072	0.101
-519.931	-34.498	-0.136	0.074
-518.916	81.356	0.181	0.194
-517.902	-73.408	-0.214	-0.078
-516.887	408.318	0.086	-0.182
-515.872	-40.087	-0.159	-0.082
-514.858	78.987	-0.109	0.117
-513.843	465.655	-0.047	0.104
-512.829	-100.970	-0.150	-0.037
-511.814	266.082	-0.100	-0.174
-510.799	30.237	-0.294	-0.249
-509.785	-98.128	0.213	-0.054
-508.770	192.296	-0.187	0.281
-507.756	15.282	-0.090	-0.070
-506.741	102.626	-0.231	0.269
-505.726	-6.794	-0.272	0.184
-504.712	-138.640	-0.129	0.014
-503.697	-108.091	-0.165	0.036
-502.683	-11.069	-0.210	0.138
-501.668	-81.167	0.139	-0.046
-500.653	-200.000	-0.042	0.186
-499.639	-198.659	0.114	-0.001
-498.624	701.670	0.124	-0.326
-497.610	-51.398	-0.159	-0.074
-496.595	-40.141	0.270	-0.140
-495.581	-78.043	0.003	0.001
-494.566	-61.495	-0.211	0.088
-493.551	-56.273	0.147	0.065
-492.537	-27.712	0.187	-0.108
-491.522	-200.000	-0.000	-0.039
-490.508	21.223	-0.163	0.132
-489.493	-85.267	0.213	-0.066
-488.478	71.427	-0.209	0.216
-487.464	-104.606	-0.324	-0.074
-486.449	262.780	-0.096	-0.166
-485.435	13.969	-0.199	-0.154
-484.420	-91.139	-0.222	0.063
-483.405	-46.976	-0.154	-0.075
-482.391	313.135	-0.135	0.252
-481.376	-200.000	0.054	-0.277
-480.362	800.000	0.062	0.250
-479.347	-200.000	0.012	0.113
-478.332	-105.252	0.127	-0.029
-477.318	167.756	0.065	0.092
-476.303	-15.450	-0.197	0.125
-475.289	-126.808	0.202	-0.030
-474.274	97.975	-0.264	-0.302
-473.259	-65.889	-0.080	0.032
-472.245	800.000	0.038	-0.114
-471.230	-200.000	0.015	0.337
-470.216	-200.000	0.041	-0.401
-469.201	289.480	0.114	0.205
-468.186	-200.000	0.343	-0.001
-467.172	-44.658	-0.058	0.029
-466.157	-88.323	0.262	0.078
-465.143	752.184	0.070	0.189
-464.128	-200.000	0.009	-0.179
-463.113	-107.377	0.104	-0.023
-462.099	-118.672	-0.296	0.052
-461.084	-3.771	0.191	-0.132
-460.070	-200.000	-0.003	-0.092
-459.055	32.980	0.149	0.128
-458.040	-200.000	-0.050	-0.301
-457.026	800.000	0.022	-0.083
-456.011	90.623	-0.110	0.123
-454.997	-200.000	-0.014	0.323
-453.982	-161.943	0.338	-0.017
-452.968	-128.790	-0.295	-0.041
-451.953	800.000	-0.075	0.252
-450.938	348.449	0.170	-0.334
-449.924	75.395	0.154	-0.161
-448.909	-4.320	-0.179	-0.123
-447.895	147.420	-0.254	0.340
-446.880	-35.953	0.393	-0.211
-445.865	594.943	0.170	-0.418
-444.851	-200.000	-0.016	0.084
-443.836	12.905	0.174	0.133
-442.822	800.000	-0.091	0.357
-441.807	589.495	0.079	-0.194
-440.792	711.249	0.035	0.091
-439.778	-145.208	-0.285	-0.026
-438.763	448.075	-0.098	-0.214
-437.749	-4.099	-0.211	-0.145
-436.734	22.677	-0.139	-0.113
-435.719	478.673	0.162	-0.363
-434.705	-141.226	0.211	0.021
-433.690	-52.454	0.121	-0.056
-432.676	-200.000	0.063	-0.383
-431.661	-200.000	-0.006	-0.100
-430.646	25.348	0.225	-0.186
-429.632	-160.164	0.112	-0.006
-428.617	800.000	0.030	-0.100
-427.603	148.310	-0.182	-0.243
-426.588	-200.000	0.003	-0.073
-425.573	402.922	0.018	0.038
-424.559	-200.000	0.023	-0.155
-423.544	154.163	-0.190	0.259
-422.530	273.428	0.152	0.266
-421.515	-50.437	-0.124	0.058
-420.500	-145.165	-0.093	-0.008
-419.486	47.503	-0.170	-0.157
-418.471	-200.000	0.006	0.212
-417.457	-85.593	-0.086	-0.026
-416.442	-116.517	-0.237	-0.043
-415.428	181.327	-0.193	-0.281
-414.413	6.166	-0.085	-0.063
-413.398	-112.423	0.703	0.139
-412.384	-200.000	0.081	0.381
-411.369	122.111	-0.040	0.050
-410.355	735.656	0.088	0.234
-409.340	-65.927	-0.044	0.017
-408.325	-128.576	0.242	-0.034
-407.311	800.000	-0.099	-0.289
-406.296	-135.474	0.168	0.020
-405.282	-18.719	-0.086	-0.053
-404.267	-200.000	0.055	0.553
-403.252	110.771	-0.151	-0.180
-402.238	262.838	0.083	-0.143
-401.223	489.426	0.127	0.287
-400.209	667.822	0.036	-0.093
-399.194	-127.880	0.241	0.034
-398.179	28.191	-0.140	0.117
-397.165	-7.198	0.287	-0.193
-396.150	-200.000	0.074	-0.481
-395.136	259.110	0.143	-0.245
-394.121	6.534	-0.220	0.162
-393.106	-94.765	0.106	0.029
-392.092	-103.031	0.283	-0.066
-391.077	-101.036	-0.120	-0.029
-390.063	-179.621	0.229	-0.005
-389.048	30.953	0.116	-0.099
-388.033	800.000	-0.090	0.294
-387.019	451.343	-0.014	-0.030
-386.004	-83.442	-0.260	0.082
-384.990	187.629	-0.184	0.273
-383.975	201.143	-0.175	0.267
-382.960	255.364	0.047	0.079
-381.946	-60.164	-0.168	0.071
-380.931	-134.271	0.248	-0.030
-379.917	800.000	0.032	0.104
-378.902	83.822	0.255	0.276
-377.888	236.350	0.077	-0.126
-376.873	-200.000	-0.017	-0.194
-375.858	-67.993	-0.160	-0.062
-374.844	-200.000	-0.008	-0.230
-373.829	-9.151	-0.261	-0.173
-372.815	-200.000	0.033	-0.223
-371.800	69.068	0.129	0.131
-370.785	-200.000	0.012	-0.095
-369.771	63.450	-0.141	0.140
-368.756	-9.071	0.189	-0.125
-367.742	-200.000	-0.011	0.338
-366.727	31.788	-0.089	0.076
-365.712	-200.000	0.000	0.096
-364.698	26.706	-0.162	0.134
-363.683	197.261	-0.160	-0.241
-362.669	-95.742	-0.141	0.037
-361.654	-200.000	0.052	0.226
-360.639	451.214	-0.133	0.291
-359.625	-156.437	0.306	-0.019
-358.610	-36.312	-0.124	0.066
-357.596	-125.709	-0.193	0.029
-356.581	169.448	0.193	0.272
-355.566	-57.440	0.266	-0.115
-354.552	-200.000	-0.055	-0.300
-353.537	531.109	0.090	-0.210
-352.523	181.698	-0.066	0.095
-351.508	-74.057	0.241	-0.086
-350.493	-200.000	-0.015	-0.436
-349.479	235.698	-0.078	0.127
-348.464	800.000	-0.113	0.464
-347.450	98.604	-0.174	0.198
-346.435	-18.970	-0.191	0.118
-345.420	800.000	0.083	0.256
-344.406	-16.053	-0.227	0.143
-343.391	-200.000	0.016	-0.307
-342.377	-124.210	0.175	-0.027
-341.362	-200.000	-0.010	-0.114
-340.348	61.458	0.092	-0.091
-339.333	-106.080	-0.274	-0.061
-338.318	92.075	0.239	-0.266
-337.304	46.388	0.100	0.091
-336.289	-200.000	-0.020	-0.224
-335.275	-123.458	0.033	0.005
-334.260	-111.053	-0.247	0.050
-333.245	100.787	0.111	0.127
-332.231	37.883	0.165	0.145
-331.216	570.090	0.093	-0.224
-330.202	-16.807	-0.050	0.032
-329.187	-114.350	0.125	0.024
-328.172	-0.600	0.189	0.132
-327.158	-104.233	0.218	0.050
-326.143	112.744	0.238	0.285
-325.129	-200.000	0.071	-0.000
-324.114	322.986	0.044	-0.082
-323.099	-165.599	-0.182	0.008
-322.085	-200.000	-0.058	-0.264
-321.070	773.043	-0.054	-0.146
-320.056	-200.000	0.011	-0.068
-319.041	147.281	0.125	0.166
-318.026	-98.186	0.174	-0.044
-317.012	-200.000	0.000	-0.042
-315.997	165.208	-0.148	0.207
-314.983	-31.267	0.278	-0.155
-313.968	-200.000	-0.005	-0.177
-312.953	-115.859	0.161	0.030
-311.939	142.645	-0.200	0.262
-310.924	-39.237	-0.283	-0.147
-309.910	166.040	0.231	-0.323
-308.895	-147.177	-0.390	-0.033
-307.880	66.445	0.230	0.231
-306.866	165.542	0.087	-0.122
-305.851	-200.000	0.001	-0.016
-304.837	-85.046	-0.022	-0.007
-303.822	80.007	-0.209	-0.222
-302.807	-200.000	0.010	-0.137
-301.793	800.000	0.043	0.166
-300.778	-56.395	-0.194	0.085
-299.764	38.634	-0.089	-0.078
-298.749	-200.000	0.084	-0.371
-297.735	-187.554	0.401	-0.005
-296.720	-79.916	0.111	-0.037
-295.705	18.843	-0.148	-0.117
-294.691	-73.820	-0.128	-0.046
-293.676	-200.000	-0.016	0.164
-292.662	-106.633	0.392	0.086
-291.647	58.198	0.106	-0.102
-290.632	-99.257	-0.290	-0.072
-289.618	800.000	-0.035	-0.128
-288.603	-200.000	0.005	-0.175
-287.589	800.000	-0.064	0.242
-286.574	247.950	-0.114	0.191
-285.559	99.025	-0.060	-0.068
-284.545	-28.443	-0.176	-0.100
-283.530	116.737	-0.165	-0.199
-282.516	4.533	-0.094	0.068
-281.501	-3.409	-0.241	0.165
-280.486	-53.680	0.273	0.123
-279.472	-200.000	0.005	-0.165
-278.457	165.277	-0.187	-0.261
-277.443	510.778	0.087	0.201
-276.428	172.586	0.135	0.191
-275.413	-195.076	0.327	-0.002
-274.399	-97.598	-0.397	0.101
-273.384	-164.181	0.511	-0.023
-272.370	-111.940	-0.022	0.004
-271.355	218.832	0.088	-0.139
-270.340	-53.607	0.148	0.067
-269.326	-55.898	0.028	0.013
-268.311	234.835	0.184	0.299
-267.297	33.872	-0.103	-0.088
-266.282	268.809	-0.037	0.063
-265.267	800.000	-0.074	0.296
-264.253	-135.389	-0.411	-0.048
-263.238	-200.000	0.032	0.183
-262.224	66.256	-0.141	-0.141
-261.209	800.000	-0.083	0.343
-260.195	-142.512	0.045	-0.004
-259.180	625.015	0.140	0.348
-258.165	-200.000	-0.005	0.394
-257.151	497.392	0.065	0.148
-256.136	800.000	0.095	0.377
-255.122	-200.000	-0.023	0.124
-254.107	749.870	0.121	-0.321
-253.092	664.320	0.144	-0.366
-252.078	-37.413	0.157	-0.082
-251.063	77.662	-0.104	-0.109
-250.049	-22.438	-0.341	-0.203
-249.034	28.285	0.163	-0.136
-248.019	-42.251	-0.095	-0.048
-247.005	800.000	0.071	-0.230
-245.990	-141.099	-0.079	0.008
-244.976	89.753	0.092	-0.101
-243.961	-200.000	-0.007	-0.228
-242.946	-50.883	0.202	0.093
-241.932	-200.000	0.034	0.199
-240.917	-52.358	0.061	0.028
-239.903	800.000	0.046	-0.176
-238.888	430.418	0.176	0.374
-237.873	-80.043	0.128	-0.042
-236.859	482.167	-0.146	0.326
-235.844	789.986	-0.110	0.299
-234.830	800.000	0.077	-0.243
-233.815	-145.108	-0.279	-0.025
-232.800	-200.000	-0.009	0.178
-231.786	-43.027	-0.206	0.103
-230.771	-159.633	0.135	0.007
-229.757	14.472	0.217	-0.167
-228.742	-41.890	0.277	-0.140
-227.727	-150.807	0.206	0.015
-226.713	418.837	0.060	-0.126
-225.698	-53.034	-0.300	0.136
-224.684	32.260	0.208	0.177
-223.669	-112.112	-0.299	-0.059
-222.655	800.000	0.028	0.104
-221.640	-200.000	0.005	0.149
-220.625	410.127	-0.072	-0.150
-219.611	-200.000	0.080	0.393
-218.596	-65.323	0.210	0.083
-217.582	4.036	0.205	0.148
-216.567	46.699	-0.094	0.086
-215.552	-85.319	-0.130	0.040
-214.538	160.799	0.200	-0.275
-213.523	288.853	-0.197	-0.351
-212.509	-7.029	-0.141	-0.094
-211.494	-178.738	-0.163	0.004
-210.479	133.541	-0.028	0.036
-209.465	-200.000	0.006	0.378
-208.450	-199.175	0.155	0.001
-207.436	-94.623	0.179	-0.048
-206.421	85.321	0.154	-0.166
-205.406	253.457	-0.042	-0.071
-204.392	800.000	0.090	-0.254
-203.377	187.714	-0.062	-0.091
-202.363	-200.000	0.003	-0.045
-201.348	21.664	0.260	-0.208
-200.333	-85.287	-0.260	-0.080
-199.319	665.154	0.114	-0.290
-198.304	68.304	0.113	0.114
-197.290	-89.790	0.040	-0.011
-196.275	-200.000	-0.056	0.264
-195.260	-198.619	0.100	0.001
-194.246	-37.464	-0.286	0.150
-193.231	11.712	-0.080	0.060
-192.217	357.454	0.024	0.048
-191.202	-128.420	0.318	-0.044
-190.187	800.000	-0.044	0.141
-189.173	663.000	-0.164	0.416
-188.158	-200.000	-0.004	0.166
-187.144	-33.831	-0.059	0.032
-186.129	142.770	-0.221	0.289
-185.114	-200.000	-0.030	0.240
-184.100	-200.000	0.090	0.431
-183.085	-200.000	-0.017	0.113
-182.071	-50.970	-0.115	0.053
-181.056	-111.871	0.044	-0.009
-180.042	-194.328	0.233	0.002
-179.027	-183.374	0.236	-0.004
-178.012	3.239	0.134	0.096
-176.998	125.563	0.129	-0.160
-175.983	-25.944	-0.290	-0.168
-174.969	102.743	0.094	0.108
-173.954	81.387	0.117	0.124
-172.939	800.000	-0.081	0.295
-171.925	-185.950	0.321	0.005
-170.910	11.890	0.130	-0.098
-169.896	-200.000	-0.005	-0.196
-168.881	-137.917	0.222	-0.024
-167.866	508.791	0.037	-0.085
-166.852	316.432	0.156	0.290
-165.837	369.606	0.180	-0.358
-164.823	132.242	0.094	-0.119
-163.808	122.685	0.061	-0.075
-162.793	-15.923	-0.156	0.098
-161.779	-200.000	0.079	-0.343
-160.764	-47.316	0.417	0.200
-159.750	-22.837	-0.250	-0.148
-158.735	-56.832	-0.276	0.120
-157.720	800.000	-0.142	-0.399
-156.706	-75.834	-0.169	-0.059
-155.691	-200.000	-0.041	-0.265
-154.677	800.000	-0.134	-0.382
-153.662	-46.124	-0.102	-0.049
-152.647	62.515	0.167	0.164
-151.633	-200.000	-0.016	0.298
-150.618	-151.152	0.263	0.019
-149.604	-196.570	-0.079	-0.001
-148.589	-59.659	-0.103	0.043
-147.574	-200.000	0.244	0.001
-146.560	34.000	-0.120	-0.102
-145.545	-200.000	0.002	-0.094
-144.531	-81.569	0.034	0.011
-143.516	-200.000	-0.036	0.424
-142.502	55.918	0.246	-0.234
-141.487	78.818	0.247	0.259
-140.472	16.792	-0.123	-0.095
-139.458	-200.000	0.002	-0.061
-138.443	-65.781	-0.252	-0.099
-137.429	-145.325	0.033	0.003
-136.414	226.028	-0.116	-0.185
-135.399	-200.000	0.008	-0.053
-134.385	427.732	-0.159	-0.337
-133.370	-53.191	0.197	-0.089
-132.356	-200.000	0.049	-0.304
-131.341	-197.441	-0.158	-0.001
-130.326	800.000	-0.061	-0.195
-129.312	-200.000	-0.014	-0.183
-128.297	536.943	0.141	0.329
-127.283	17.120	0.132	-0.102
-126.268	-178.801	0.334	-0.007
-125.253	800.000	-0.072	0.202
-124.239	-6.191	-0.246	-0.164
-123.224	20.886	0.330	0.262
-122.210	296.611	0.283	-0.509
