DTS Sentinel unit serial number:	SN413079Multiplexer serial number:	ORYXHardware model number:	OX4-SRSoftware version number:	ORYX F/W v4.00 Oryx Data Collector v3.7.2.0data status	okinstallation	princeton_trtdifferential loss correction	single-endedforward channel	channel 2reverse channel	N/Adate	2019/09/12time	00:49:10forward acquisition time	60.00reverse acquisition time	0.00gamma	496.2192k internal	0.2325k external	0.2325temperature offset calibration	1.0086default loss term (dB/km)	0.3790temperature slope calibration	1.0000multiplexer offset coefficient	1.0000multiplexer slope coefficient	1.0000fibre end	0.00T internal ref (°C)	33.27T ext. ref 1 (°C)	2.06T ext. ref 2 (°C)	28.01length (m)	temperature (°C)	Stokes	anti-Stokes-747.200	34.194	0.129	0.113
-746.185	-200.000	0.005	-0.026
-745.171	202.828	0.168	0.262
-744.156	-200.000	0.088	0.480
-743.142	-177.160	0.091	-0.002
-742.127	-200.000	0.053	0.300
-741.112	-200.000	0.022	0.130
-740.098	113.595	0.099	0.122
-739.083	139.067	0.246	0.326
-738.069	-200.000	0.013	0.490
-737.054	-95.181	-0.105	0.029
-736.039	-200.000	-0.020	-0.442
-735.025	-200.000	-0.016	0.191
-734.010	184.069	-0.019	-0.029
-732.996	-200.000	-0.005	-0.406
-731.981	800.000	0.008	-0.024
-730.966	-45.303	-0.568	-0.284
-729.952	-200.000	-0.026	-0.261
-728.937	481.079	-0.196	-0.449
-727.923	21.369	-0.158	0.129
-726.908	-200.000	0.064	-0.478
-725.894	-18.248	0.288	-0.181
-724.879	-53.103	-0.141	0.065
-723.864	125.676	0.216	0.275
-722.850	-22.003	-0.193	-0.118
-721.835	611.746	0.065	-0.164
-720.821	-200.000	0.001	-0.149
-719.806	800.000	0.079	-0.267
-718.791	11.598	-0.141	-0.109
-717.777	489.618	-0.133	0.307
-716.762	-156.116	-0.365	0.023
-715.748	-133.594	-0.220	0.028
-714.733	60.113	0.213	0.212
-713.718	132.772	0.083	-0.108
-712.704	-104.891	-0.083	0.019
-711.689	800.000	-0.016	0.048
-710.675	-27.862	0.375	0.219
-709.660	-150.979	0.217	0.017
-708.645	-200.000	0.042	-0.246
-707.631	124.056	-0.056	-0.071
-706.616	316.972	0.110	0.210
-705.602	74.911	-0.226	0.240
-704.587	44.029	0.305	0.281
-703.572	-30.337	0.111	0.063
-702.558	-200.000	0.031	-0.233
-701.543	79.980	-0.221	0.239
-700.529	-139.488	0.170	-0.018
-699.514	-65.612	-0.126	0.051
-698.499	800.000	0.038	-0.132
-697.485	354.680	0.172	0.345
-696.470	-86.818	-0.253	0.078
-695.456	456.649	-0.077	0.173
-694.441	241.447	-0.111	0.187
-693.426	-57.476	0.443	0.196
-692.412	-200.000	-0.271	0.001
-691.397	-76.682	-0.143	-0.050
-690.383	-69.634	-0.113	-0.044
-689.368	-200.000	0.001	0.063
-688.354	-88.583	0.299	0.090
-687.339	-200.000	-0.055	-0.312
-686.324	36.773	0.062	0.056
-685.310	95.873	-0.132	0.152
-684.295	-200.000	0.003	0.255
-683.281	-200.000	-0.033	0.172
-682.266	-137.108	-0.290	0.033
-681.251	-200.000	-0.046	-0.429
-680.237	-200.000	0.018	0.083
-679.222	-107.452	0.196	-0.043
-678.208	-85.490	-0.216	-0.068
-677.193	-39.561	0.197	-0.104
-676.178	-90.687	0.036	-0.011
-675.164	-130.887	-0.503	0.068
-674.149	-200.000	-0.041	-0.224
-673.135	-41.290	0.188	0.097
-672.120	-121.653	0.073	-0.012
-671.105	-200.000	-0.041	0.380
-670.091	537.845	-0.059	0.142
-669.076	-14.250	0.300	-0.195
-668.062	526.266	-0.066	-0.156
-667.047	-200.000	-0.020	-0.295
-666.032	150.200	0.170	0.232
-665.018	-171.628	-0.100	0.003
-664.003	800.000	-0.077	-0.215
-662.989	-133.463	-0.294	0.037
-661.974	-200.000	0.008	0.106
-660.959	-59.486	0.224	-0.097
-659.945	-200.000	-0.013	0.149
-658.930	-58.881	0.081	0.035
-657.916	-200.000	-0.002	0.104
-656.901	-69.893	0.135	0.052
-655.886	127.159	0.190	0.242
-654.872	22.939	0.118	0.098
-653.857	77.379	0.193	-0.207
-652.843	6.988	-0.253	0.189
-651.828	-200.000	-0.007	-0.048
-650.814	265.971	-0.078	0.136
-649.799	800.000	0.013	-0.056
-648.784	247.519	0.096	-0.163
-647.770	-129.662	0.189	0.026
-646.755	-75.326	0.219	-0.079
-645.741	229.963	-0.041	0.068
-644.726	-200.000	0.026	-0.192
-643.711	-1.156	0.106	-0.075
-642.697	37.146	-0.157	-0.140
-641.682	3.651	0.301	-0.221
-640.668	91.121	-0.205	-0.231
-639.653	123.332	-0.222	-0.279
-638.638	-0.675	-0.098	-0.070
-637.624	-200.000	-0.014	0.119
-636.609	-200.000	-0.017	-0.122
-635.595	-153.308	0.221	0.015
-634.580	51.662	0.107	0.102
-633.565	-141.970	-0.242	-0.024
-632.551	0.817	-0.218	-0.157
-631.536	800.000	-0.081	-0.277
-630.522	183.228	0.066	-0.097
-629.507	-122.933	-0.162	-0.026
-628.492	24.902	0.258	-0.215
-627.478	-33.278	-0.094	-0.052
-626.463	-26.308	0.101	0.060
-625.449	74.798	0.194	0.205
-624.434	91.384	-0.171	-0.193
-623.419	800.000	0.153	0.485
-622.405	111.979	-0.273	0.331
-621.390	-200.000	-0.014	-0.305
-620.376	151.613	0.060	-0.082
-619.361	111.300	0.101	0.123
-618.346	157.481	-0.150	-0.209
-617.332	-23.363	-0.456	-0.275
-616.317	-5.616	0.207	-0.143
-615.303	-62.528	-0.083	-0.035
-614.288	-75.594	0.159	0.057
-613.273	549.568	-0.048	-0.116
-612.259	800.000	-0.112	-0.386
-611.244	-200.000	0.017	-0.434
-610.230	82.620	-0.191	-0.209
-609.215	-108.034	0.117	-0.026
-608.201	800.000	0.033	0.091
-607.186	71.349	-0.052	0.054
-606.171	-60.649	0.065	-0.028
-605.157	-105.423	0.226	0.052
-604.142	4.463	0.098	0.072
-603.128	-90.892	0.247	0.071
-602.113	800.000	-0.053	0.210
-601.098	-92.486	-0.026	-0.007
-600.084	283.602	0.171	0.309
-599.069	344.993	0.125	-0.246
-598.055	-59.341	-0.123	-0.053
-597.040	468.350	-0.100	-0.224
-596.025	-127.000	0.258	-0.038
-595.011	-67.962	-0.265	-0.104
-593.996	66.479	0.188	0.192
-592.982	-57.888	-0.230	-0.101
-591.967	-200.000	-0.002	-0.146
-590.952	-141.599	-0.180	0.018
-589.938	176.023	0.245	0.356
-588.923	800.000	0.043	0.176
-587.909	181.304	0.108	-0.160
-586.894	572.919	-0.198	-0.485
-585.879	-47.262	0.082	0.040
-584.865	-119.008	0.450	-0.079
-583.850	183.977	-0.063	-0.093
-582.836	-200.000	-0.018	0.164
-581.821	-65.856	0.199	0.080
-580.806	71.257	-0.054	0.056
-579.792	-140.025	-0.052	0.006
-578.777	-200.000	-0.024	-0.189
-577.763	655.835	-0.107	0.276
-576.748	-121.288	0.341	0.057
-575.733	36.581	0.320	0.283
-574.719	250.281	0.089	-0.152
-573.704	-180.512	-0.317	0.007
-572.690	482.220	-0.076	-0.173
-571.675	403.027	0.142	0.299
-570.661	244.105	0.020	-0.033
-569.646	31.207	-0.224	-0.193
-568.631	413.811	-0.031	0.066
-567.617	7.484	0.018	0.013
-566.602	-200.000	0.085	0.395
-565.588	-200.000	-0.042	-0.411
-564.573	-31.731	-0.278	-0.157
-563.558	-20.308	0.255	0.158
-562.544	12.578	0.116	-0.090
-561.529	-166.494	0.265	-0.011
-560.515	-134.841	0.211	0.026
-559.500	6.200	0.230	0.171
-558.485	-87.522	-0.141	-0.043
-557.471	800.000	0.075	0.264
-556.456	-97.609	0.500	0.130
-555.442	373.856	-0.276	0.562
-554.427	-106.894	-0.450	-0.100
-553.412	453.744	0.078	-0.173
-552.398	17.991	-0.064	0.051
-551.383	427.696	-0.024	0.053
-550.369	-17.687	-0.118	-0.075
-549.354	67.468	-0.080	0.082
-548.339	800.000	-0.029	0.106
-547.325	-200.000	0.014	-0.102
-546.310	61.291	0.273	0.271
-545.296	-39.093	0.196	0.103
-544.281	-91.237	-0.252	0.072
-543.266	58.013	0.197	0.193
-542.252	-200.000	0.007	0.043
-541.237	-200.000	0.028	-0.359
-540.223	191.245	0.102	-0.153
-539.208	269.114	-0.046	-0.081
-538.193	-200.000	-0.009	0.183
-537.179	29.936	-0.198	0.169
-536.164	4.803	-0.226	-0.166
-535.150	3.664	0.454	-0.331
-534.135	-152.836	-0.085	-0.006
-533.121	800.000	-0.058	-0.216
-532.106	41.207	0.176	-0.159
-531.091	310.933	-0.116	-0.218
-530.077	118.484	-0.060	-0.075
-529.062	-74.071	0.282	0.102
-528.048	16.933	0.338	0.268
-527.033	94.011	-0.079	0.090
-526.018	103.720	0.207	0.244
-525.004	-200.000	-0.021	0.204
-523.989	75.274	0.131	-0.138
-522.975	-9.411	-0.147	0.098
-521.960	-158.156	0.399	-0.023
-520.945	2.778	0.402	-0.292
-519.931	70.916	-0.048	-0.049
-518.916	-10.057	0.122	-0.081
-517.902	800.000	-0.121	0.456
-516.887	800.000	0.037	-0.141
-515.872	-200.000	0.016	0.122
-514.858	800.000	-0.069	-0.272
-513.843	210.291	0.219	0.344
-512.829	12.168	-0.158	0.121
-511.814	-200.000	-0.013	-0.135
-510.799	-194.931	-0.148	-0.001
-509.785	-50.614	0.108	-0.051
-508.770	35.910	-0.105	0.092
-507.756	-52.072	-0.347	0.161
-506.741	3.100	0.143	-0.104
-505.726	-200.000	-0.001	-0.011
-504.712	44.131	0.100	0.092
-503.697	-161.675	-0.306	0.016
-502.683	-22.756	-0.188	0.113
-501.668	-145.016	-0.268	0.024
-500.653	-200.000	0.012	0.113
-499.639	38.135	0.255	0.227
-498.624	800.000	0.034	0.124
-497.610	-200.000	-0.019	-0.148
-496.595	-124.648	0.251	-0.039
-495.581	-200.000	-0.002	-0.029
-494.566	-200.000	0.008	-0.080
-493.551	-15.008	-0.085	0.055
-492.537	-167.418	-0.282	0.011
-491.522	473.994	0.096	-0.217
-490.508	153.431	0.283	-0.387
-489.493	-26.083	0.095	0.056
-488.478	-200.000	0.006	-0.068
-487.464	343.378	0.126	-0.246
-486.449	-200.000	0.047	-0.238
-485.435	800.000	-0.067	0.186
-484.420	102.498	0.147	-0.171
-483.405	74.190	0.252	-0.264
-482.391	15.193	-0.129	0.101
-481.376	56.439	-0.175	0.170
-480.362	-200.000	-0.011	0.155
-479.347	-24.918	-0.111	-0.066
-478.332	54.636	0.175	-0.168
-477.318	7.196	0.061	0.046
-476.303	-200.000	0.010	-0.073
-475.289	-114.898	0.156	-0.030
-474.274	-200.000	-0.040	0.248
-473.259	-176.578	-0.176	-0.005
-472.245	-16.465	-0.340	0.215
-471.230	-118.769	0.261	0.046
-470.216	-15.167	0.172	-0.110
-469.201	187.811	0.155	0.231
-468.186	-87.235	-0.390	-0.118
-467.172	50.527	0.234	-0.221
-466.157	-134.566	-0.263	-0.032
-465.143	-49.310	-0.119	-0.057
-464.128	2.719	-0.148	0.107
-463.113	212.734	-0.387	0.609
-462.099	-200.000	0.028	0.129
-461.084	-88.871	-0.523	0.155
-460.070	-121.384	-0.294	0.049
-459.055	530.876	-0.085	0.200
-458.040	-65.752	-0.151	-0.060
-457.026	-200.000	0.051	-0.337
-456.011	-200.000	0.010	0.126
-454.997	-105.986	0.079	-0.018
-453.982	176.650	0.072	-0.105
-452.968	45.852	0.076	0.070
-451.953	-74.027	-0.106	0.038
-450.938	81.268	-0.211	-0.228
-449.924	-108.777	-0.094	-0.020
-448.909	-200.000	-0.060	0.265
-447.895	-200.000	-0.014	0.158
-446.880	627.012	0.078	-0.197
-445.865	-200.000	-0.053	0.000
-444.851	24.268	-0.224	0.185
-443.836	-32.908	-0.149	0.083
-442.822	800.000	-0.068	-0.235
-441.807	800.000	-0.017	0.049
-440.792	2.967	0.202	0.147
-439.778	-200.000	0.010	-0.050
-438.763	-155.871	-0.263	0.017
-437.749	315.219	-0.100	-0.187
-436.734	751.874	-0.168	-0.452
-435.719	349.114	0.066	-0.130
-434.705	800.000	0.078	0.319
-433.690	-57.534	0.165	0.072
-432.676	96.118	0.137	-0.156
-431.661	800.000	-0.023	-0.069
-430.646	-200.000	0.056	0.257
-429.632	-193.291	-0.209	0.002
-428.617	800.000	0.081	-0.265
-427.603	28.510	-0.142	0.119
-426.588	44.837	0.180	0.165
-425.573	709.053	0.123	0.324
-424.559	164.272	0.061	0.086
-423.544	103.845	-0.058	0.068
-422.530	-86.888	0.415	-0.126
-421.515	-200.000	-0.033	-0.335
-420.500	-200.000	0.008	0.126
-419.486	-125.444	0.130	-0.020
-418.471	339.540	-0.157	-0.304
-417.457	-200.000	-0.067	-0.301
-416.442	685.628	-0.027	-0.071
-415.428	-200.000	0.001	0.047
-414.413	21.641	-0.094	-0.076
-413.398	-87.660	0.043	-0.013
-412.384	800.000	0.087	0.256
-411.369	0.005	-0.072	0.051
-410.355	222.609	0.205	-0.328
-409.340	150.006	0.059	-0.080
-408.325	-163.081	-0.335	-0.016
-407.311	-75.485	0.219	-0.078
-406.296	800.000	-0.027	0.092
-405.282	-179.543	-0.030	0.001
-404.267	-200.000	-0.011	0.087
-403.252	-200.000	-0.002	-0.391
-402.238	800.000	-0.087	-0.379
-401.223	-200.000	0.041	-0.324
-400.209	-75.935	-0.226	0.080
-399.194	800.000	-0.090	-0.282
-398.179	628.470	0.043	0.108
-397.165	-40.477	0.119	0.062
-396.150	169.208	0.035	0.050
-395.136	-200.000	0.016	-0.229
-394.121	800.000	0.047	-0.178
-393.106	-159.626	-0.228	-0.013
-392.092	61.167	0.083	-0.082
-391.077	-106.634	0.046	0.010
-390.063	334.160	0.195	-0.376
-389.048	-200.000	0.013	0.162
-388.033	-65.730	0.311	0.124
-387.019	86.427	0.129	-0.141
-386.004	-136.060	-0.422	-0.049
-384.990	-88.436	0.137	-0.041
-383.975	-200.000	-0.015	-0.192
-382.960	-200.000	-0.004	0.222
-381.946	-200.000	0.031	0.256
-380.931	-49.269	-0.098	-0.047
-379.917	114.032	0.065	-0.078
-378.902	224.652	-0.127	0.204
-377.888	453.950	-0.066	0.145
-376.873	588.469	-0.127	0.312
-375.858	247.289	0.157	0.264
-374.844	76.262	0.173	0.182
-373.829	159.932	-0.135	0.186
-372.815	-200.000	-0.077	0.445
-371.800	800.000	-0.018	0.051
-370.785	276.104	-0.041	-0.073
-369.771	394.655	-0.030	-0.062
-368.756	405.317	-0.126	-0.264
-367.742	-200.000	-0.053	-0.336
-366.727	-19.574	-0.194	-0.119
-365.712	800.000	0.015	-0.060
-364.698	-130.176	0.061	0.008
-363.683	39.857	-0.158	-0.141
-362.669	507.278	0.123	0.284
-361.654	800.000	0.115	0.338
-360.639	554.387	-0.088	0.210
-359.625	800.000	-0.063	-0.272
-358.610	145.703	0.011	0.014
-357.596	285.908	0.093	0.166
-356.581	-30.394	-0.305	0.172
-355.566	800.000	0.010	0.033
-354.552	-87.779	0.271	0.081
-353.537	-99.433	-0.183	-0.046
-352.523	-102.912	0.091	0.021
-351.508	-37.720	-0.302	0.160
-350.493	-153.886	0.221	0.015
-349.479	-7.160	-0.217	0.146
-348.464	-38.353	-0.092	0.049
-347.450	-48.251	-0.057	0.027
-346.435	138.174	0.156	0.204
-345.420	199.684	-0.097	0.148
-344.406	102.717	-0.325	-0.377
-343.391	-145.933	-0.073	-0.006
-342.377	-59.150	0.323	-0.138
-341.362	-200.000	-0.032	0.308
-340.348	322.137	0.049	0.092
-339.333	-66.669	0.207	-0.081
-338.318	-200.000	0.008	0.138
-337.304	3.416	-0.203	0.147
-336.289	646.153	0.132	0.334
-335.275	268.404	-0.014	0.024
-334.260	309.316	-0.216	0.402
-333.245	-155.717	-0.246	-0.016
-332.231	106.930	-0.109	0.129
-331.216	-200.000	-0.009	0.040
-330.202	149.125	0.029	-0.038
-329.187	-40.751	0.366	0.188
-328.172	-62.695	-0.181	-0.075
-327.158	-98.158	0.221	-0.056
-326.143	30.422	-0.278	0.236
-325.129	43.788	0.215	-0.196
-324.114	-52.409	0.251	0.115
-323.099	-200.000	-0.035	-0.358
-322.085	-102.325	0.305	-0.073
-321.070	-200.000	0.031	0.295
-320.056	27.179	-0.118	0.099
-319.041	-19.300	-0.335	-0.207
-318.026	-9.602	-0.142	-0.094
-317.012	459.826	0.075	-0.167
-315.997	-73.004	-0.114	-0.042
-314.983	-116.246	0.250	0.046
-313.968	-28.023	0.376	0.216
-312.953	161.266	0.111	0.154
-311.939	-3.753	-0.238	0.164
-310.924	115.795	-0.151	0.183
-309.910	-169.821	-0.168	0.006
-308.895	21.753	-0.048	0.039
-307.880	800.000	-0.086	-0.292
-306.866	32.157	-0.385	0.329
-305.851	341.915	-0.155	0.301
-304.837	-11.726	0.243	0.158
-303.822	486.943	0.226	-0.510
-302.807	800.000	0.104	-0.305
-301.793	-151.636	0.373	0.027
-300.778	140.591	0.105	-0.137
-299.764	800.000	-0.111	-0.341
-298.749	-34.011	-0.077	0.042
-297.735	694.976	0.072	-0.188
-296.720	800.000	-0.065	0.280
-295.705	800.000	0.084	0.337
-294.691	15.116	0.165	-0.128
-293.676	55.884	0.180	-0.173
-292.662	-92.705	-0.311	0.086
-291.647	800.000	0.074	-0.320
-290.632	-200.000	0.040	0.330
-289.618	800.000	-0.075	0.205
-288.603	124.223	-0.058	0.073
-287.589	-62.753	-0.096	-0.040
-286.574	-48.319	-0.150	-0.072
-285.559	-40.319	0.141	0.072
-284.545	63.806	-0.220	-0.219
-283.530	796.692	0.034	-0.092
-282.516	-180.137	0.145	-0.003
-281.501	312.891	0.147	-0.274
-280.486	-113.727	-0.416	-0.080
-279.472	23.806	-0.044	0.036
-278.457	8.612	0.083	0.062
-277.443	-140.258	-0.434	0.045
-276.428	334.108	-0.083	0.159
-275.413	338.437	0.067	-0.129
-274.399	-91.924	-0.135	-0.038
-273.384	92.126	0.214	-0.239
-272.370	95.552	-0.152	0.171
-271.355	339.171	-0.024	0.047
-270.340	-200.000	-0.037	-0.391
-269.326	609.986	-0.042	-0.104
-268.311	485.681	-0.155	-0.349
-267.297	800.000	-0.014	0.059
-266.282	-97.518	-0.159	-0.041
-265.267	185.030	0.115	-0.170
-264.253	-200.000	-0.016	-0.111
-263.238	800.000	0.097	0.369
-262.224	372.534	0.108	-0.218
-261.209	164.296	-0.139	-0.193
-260.195	-170.149	0.260	-0.009
-259.180	311.968	0.060	-0.111
-258.165	60.270	0.154	-0.150
-257.151	-164.659	-0.422	0.019
-256.136	123.098	-0.136	-0.169
-255.122	-45.935	-0.208	0.101
-254.107	-142.499	0.143	0.014
-253.092	-200.000	0.061	0.472
-252.078	-18.629	0.187	0.116
-251.063	45.075	0.097	-0.089
-250.049	-70.467	-0.179	0.067
-249.034	1.462	-0.209	-0.149
-248.019	-200.000	-0.108	-0.509
-247.005	-11.273	0.117	0.076
-245.990	-21.510	0.318	0.192
-244.976	800.000	-0.044	-0.122
-243.961	39.807	-0.170	0.151
-242.946	321.684	0.091	-0.172
-241.932	800.000	-0.040	0.139
-240.917	-101.043	-0.417	0.101
-239.903	-163.952	0.140	-0.006
-238.888	-200.000	-0.029	0.354
-237.873	-196.138	0.183	-0.001
-236.859	121.865	-0.154	0.190
-235.844	18.419	-0.173	0.137
-234.830	-21.619	-0.215	-0.130
-233.815	800.000	0.082	-0.293
-232.800	155.295	0.129	0.175
-231.786	97.902	0.103	0.117
-230.771	-57.008	-0.169	0.074
-229.757	185.449	0.063	-0.093
-228.742	-30.078	0.351	-0.197
-227.727	-200.000	-0.039	0.311
-226.713	-22.331	-0.145	0.087
-225.698	-200.000	-0.008	-0.111
-224.684	-42.620	-0.141	0.071
-223.669	88.859	0.026	0.029
-222.655	60.797	0.084	0.082
-221.640	29.510	-0.076	-0.064
-220.625	-100.339	-0.186	0.046
-219.611	5.592	0.196	0.143
-218.596	536.056	-0.082	-0.192
-217.582	-107.428	0.283	0.061
-216.567	9.131	-0.212	-0.158
-215.552	-151.417	-0.211	-0.015
-214.538	-200.000	-0.022	-0.213
-213.523	-200.000	0.050	-0.400
-212.509	-76.078	-0.140	-0.049
-211.494	-85.727	-0.058	-0.018
-210.479	55.989	0.316	0.303
-209.465	180.528	0.074	0.108
-208.450	-121.127	0.161	-0.027
-207.436	800.000	0.032	-0.128
-206.421	-72.661	-0.439	0.160
-205.406	-72.223	0.339	0.124
-204.392	-200.000	0.028	-0.382
-203.377	800.000	-0.051	-0.155
-202.363	-200.000	0.067	-0.301
-201.348	3.727	-0.351	-0.253
-200.333	288.649	0.143	0.256
-199.319	-155.089	0.267	0.017
-198.304	70.730	-0.095	-0.098
-197.290	309.580	0.068	-0.126
-196.275	-15.955	0.277	-0.174
-195.260	-200.000	0.002	0.192
-194.246	-200.000	-0.017	0.119
-193.231	416.674	-0.105	0.220
-192.217	-200.000	-0.002	0.060
-191.202	123.017	0.197	-0.244
-190.187	-94.066	-0.241	-0.065
-189.173	376.907	0.031	-0.063
-188.158	-189.493	0.159	0.002
-187.144	609.979	0.057	-0.141
-186.129	-200.000	-0.051	-0.382
-185.114	800.000	0.135	-0.430
-184.100	210.087	0.103	0.160
-183.085	-192.462	-0.361	-0.003
-182.071	-200.000	-0.029	0.181
-181.056	-200.000	-0.043	0.231
-180.042	9.882	0.345	0.259
-179.027	187.381	-0.016	0.023
-178.012	149.226	0.177	0.236
-176.998	-175.965	-0.331	0.009
-175.983	-200.000	0.051	0.367
-174.969	-130.719	0.213	0.028
-173.954	800.000	-0.109	-0.310
-172.939	800.000	-0.056	-0.214
-171.925	210.365	0.169	-0.262
-170.910	442.509	0.169	0.366
-169.896	-187.540	-0.151	0.002
-168.881	103.715	-0.128	0.148
-167.866	54.492	-0.237	0.225
-166.852	152.220	-0.096	-0.130
-165.837	-200.000	0.002	0.157
-164.823	101.076	0.224	0.257
-163.808	11.477	0.393	0.297
-162.793	54.606	0.318	0.302
-161.779	27.856	-0.141	0.118
-160.764	32.993	0.186	0.159
-159.750	524.349	-0.041	-0.096
-158.735	140.035	0.215	0.279
-157.720	115.694	-0.035	-0.042
-156.706	-6.265	0.160	0.108
-155.691	-102.971	-0.191	-0.045
-154.677	68.664	-0.161	0.163
-153.662	56.166	0.274	-0.262
-152.647	60.792	-0.358	0.350
-151.633	-200.000	0.052	0.299
-150.618	-57.185	0.164	-0.071
-149.604	-40.709	-0.112	0.057
-148.589	79.796	0.059	0.063
-147.574	-173.230	0.171	-0.005
-146.560	191.291	-0.207	0.307
-145.545	-200.000	-0.040	-0.264
-144.531	-38.615	-0.231	-0.120
-143.516	472.393	0.195	-0.433
-142.502	-63.316	0.298	0.121
-141.487	-37.720	0.030	0.016
-140.472	41.183	-0.235	-0.209
-139.458	-61.896	0.228	0.094
-138.443	73.621	0.159	0.164
-137.429	-109.652	0.208	-0.043
-136.414	-200.000	0.043	-0.219
-135.399	800.000	-0.033	0.095
-134.385	-200.000	-0.016	0.231
-133.370	-44.226	-0.248	-0.122
-132.356	-200.000	-0.021	0.359
-131.341	-53.733	-0.121	-0.054
-130.326	420.487	-0.280	0.591
-129.312	157.415	-0.250	-0.341
-128.297	-192.251	-0.103	0.001
-127.283	-200.000	-0.028	0.120
-126.268	260.297	-0.115	-0.196
-125.253	-92.812	0.342	-0.094
-124.239	-42.912	0.098	-0.049
-123.224	-139.018	0.055	0.006
-122.210	800.000	0.026	0.095
-121.195	-200.000	-0.011	0.330
-120.180	53.648	0.047	-0.045
