DTS Sentinel unit serial number:	SN413079Multiplexer serial number:	ORYXHardware model number:	OX4-SRSoftware version number:	ORYX F/W v4.00 Oryx Data Collector v3.7.2.0data status	okinstallation	princeton_trtdifferential loss correction	single-endedforward channel	channel 2reverse channel	N/Adate	2019/09/18time	16:27:34forward acquisition time	60.00reverse acquisition time	0.00gamma	496.2192k internal	0.2301k external	0.2301temperature offset calibration	1.0007default loss term (dB/km)	0.3790temperature slope calibration	1.0000multiplexer offset coefficient	1.0000multiplexer slope coefficient	1.0000fibre end	0.00T internal ref (°C)	39.06T ext. ref 1 (°C)	0.85T ext. ref 2 (°C)	36.26length (m)	temperature (°C)	Stokes	anti-Stokes-747.200	-20.150	0.193	-0.122
-746.185	-193.999	0.091	0.001
-745.171	800.000	-0.059	0.210
-744.156	-200.000	0.043	-0.392
-743.142	-84.853	-0.010	0.003
-742.127	-200.000	-0.018	-0.093
-741.112	93.431	0.133	-0.153
-740.098	-200.000	-0.014	0.288
-739.083	-200.000	0.020	0.319
-738.069	-200.000	-0.038	0.233
-737.054	-31.304	0.153	0.088
-736.039	703.538	-0.050	-0.134
-735.025	210.357	0.050	0.080
-734.010	-103.002	-0.304	0.074
-732.996	324.934	-0.113	-0.221
-731.981	3.677	0.156	-0.116
-730.966	33.052	-0.094	0.083
-729.952	-150.484	0.165	0.013
-728.937	-126.154	-0.287	0.044
-727.923	676.373	0.036	0.097
-726.908	192.643	-0.132	0.203
-725.894	367.515	-0.177	-0.365
-724.879	410.527	0.058	0.126
-723.864	-51.029	0.417	-0.199
-722.850	187.749	-0.097	0.147
-721.835	-164.540	0.464	-0.021
-720.821	-86.704	0.044	-0.014
-719.806	-155.101	-0.132	0.009
-718.791	156.304	-0.103	-0.144
-717.777	-200.000	0.018	0.098
-716.762	75.972	-0.105	0.113
-715.748	351.342	-0.082	-0.166
-714.733	-6.505	-0.106	-0.073
-713.718	-17.685	0.236	0.151
-712.704	-12.216	0.252	-0.168
-711.689	-160.126	-0.330	0.018
-710.675	445.928	0.066	-0.147
-709.660	-84.008	0.262	0.085
-708.645	187.617	0.135	-0.206
-707.631	161.205	0.132	-0.187
-706.616	800.000	0.055	0.212
-705.602	124.261	-0.121	0.155
-704.587	17.889	-0.102	-0.083
-703.572	44.064	-0.163	-0.152
-702.558	-41.211	0.131	-0.069
-701.543	-158.112	0.187	0.011
-700.529	265.166	0.192	0.340
-699.514	796.730	0.046	-0.130
-698.499	-90.624	-0.258	0.076
-697.485	-125.576	-0.143	-0.022
-696.470	800.000	0.062	-0.254
-695.456	76.680	0.033	-0.036
-694.441	236.572	-0.152	0.256
-693.426	135.204	-0.072	-0.095
-692.412	800.000	-0.068	0.279
-691.397	-66.620	0.008	-0.003
-690.383	-153.948	-0.133	0.009
-689.368	-200.000	0.058	-0.335
-688.354	241.159	-0.129	0.219
-687.339	476.504	0.016	0.038
-686.324	8.548	-0.275	-0.211
-685.310	-88.322	0.380	-0.116
-684.295	56.279	-0.153	-0.151
-683.281	174.176	-0.092	0.135
-682.266	62.871	-0.191	-0.194
-681.251	800.000	0.056	-0.216
-680.237	-0.145	0.134	-0.097
-679.222	-156.270	-0.169	-0.011
-678.208	-200.000	0.026	-0.275
-677.193	-200.000	0.016	0.279
-676.178	140.375	-0.085	0.114
-675.164	218.456	0.220	0.357
-674.149	-106.985	0.218	0.049
-673.135	109.240	0.114	-0.139
-672.120	83.455	-0.022	-0.024
-671.105	99.519	-0.106	0.125
-670.091	-125.156	0.257	0.040
-669.076	800.000	0.099	-0.412
-668.062	-186.511	-0.180	-0.003
-667.047	-200.000	-0.012	0.176
-666.032	-95.338	0.224	0.061
-665.018	-200.000	-0.031	-0.309
-664.003	-67.867	0.340	0.135
-662.989	-71.336	0.205	-0.078
-661.974	-200.000	-0.023	-0.128
-660.959	-158.291	0.052	-0.003
-659.945	-200.000	0.015	0.113
-658.930	86.714	-0.281	-0.315
-657.916	800.000	-0.095	-0.340
-656.901	54.758	0.122	-0.119
-655.886	364.366	-0.242	0.494
-654.872	-138.955	-0.102	-0.011
-653.857	-60.238	-0.110	-0.048
-652.843	-88.896	0.187	0.056
-651.828	-200.000	0.005	0.060
-650.814	-60.222	-0.047	-0.020
-649.799	60.362	-0.280	-0.281
-648.784	-200.000	-0.013	-0.136
-647.770	-200.000	0.004	-0.093
-646.755	461.437	0.056	-0.127
-645.741	172.983	-0.275	0.403
-644.726	-99.187	-0.049	0.012
-643.711	187.055	0.260	0.394
-642.697	-200.000	0.000	0.177
-641.682	6.862	-0.196	0.148
-640.668	-99.766	-0.096	-0.024
-639.653	-200.000	0.006	0.037
-638.638	245.576	-0.105	0.180
-637.624	560.932	-0.111	0.273
-636.609	484.458	-0.133	-0.306
-635.595	109.215	0.071	-0.087
-634.580	-40.697	-0.183	0.096
-633.565	127.943	-0.151	0.195
-632.551	-97.680	0.009	-0.002
-631.536	800.000	0.045	-0.144
-630.522	-200.000	-0.013	-0.111
-629.507	503.768	-0.022	0.051
-628.492	800.000	0.083	-0.248
-627.478	-200.000	-0.005	0.228
-626.463	123.680	0.171	0.218
-625.449	60.998	0.045	0.046
-624.434	-73.136	0.212	0.079
-623.419	-200.000	0.001	0.317
-622.405	185.151	0.216	-0.325
-621.390	152.692	0.118	-0.163
-620.376	311.174	-0.055	-0.104
-619.361	-58.327	-0.178	0.079
-618.346	291.705	-0.023	0.042
-617.332	238.989	0.056	-0.095
-616.317	23.124	-0.198	-0.165
-615.303	130.418	-0.052	-0.067
-614.288	48.497	-0.167	-0.159
-613.273	-186.031	0.282	0.004
-612.259	322.516	-0.146	-0.283
-611.244	305.640	0.071	-0.134
-610.230	-16.019	-0.127	0.082
-609.215	-149.816	0.307	0.024
-608.201	565.729	0.074	0.182
-607.186	-130.127	-0.404	-0.056
-606.171	-200.000	0.006	-0.225
-605.157	-200.000	0.054	-0.277
-604.142	98.633	0.029	0.034
-603.128	-72.521	-0.246	-0.092
-602.113	103.250	-0.050	-0.060
-601.098	-119.677	0.209	-0.037
-600.084	-200.000	-0.022	-0.199
-599.069	160.187	-0.097	-0.137
-598.055	-200.000	-0.005	-0.234
-597.040	-200.000	-0.025	-0.262
-596.025	-72.371	0.123	0.046
-595.011	-91.345	0.073	0.021
-593.996	-74.816	-0.098	0.036
-592.982	-200.000	0.015	-0.276
-591.967	-111.389	0.161	-0.033
-590.952	-200.000	0.050	-0.396
-589.938	-200.000	-0.054	-0.356
-588.923	-22.377	0.124	-0.076
-587.909	248.858	-0.124	-0.213
-586.894	-84.951	-0.130	0.041
-585.879	-6.243	0.288	0.199
-584.865	-123.873	-0.393	0.063
-583.850	-31.113	0.219	-0.125
-582.836	9.164	-0.220	0.169
-581.821	240.234	-0.250	-0.422
-580.806	-24.395	-0.145	-0.088
-579.792	492.470	-0.064	0.148
-578.777	189.731	-0.099	-0.151
-577.763	-27.594	-0.159	0.094
-576.748	-0.826	-0.075	0.054
-575.733	-200.000	-0.006	0.098
-574.719	81.739	-0.092	0.101
-573.704	800.000	0.082	0.344
-572.690	-200.000	-0.012	-0.230
-571.675	-200.000	0.021	-0.094
-570.661	-126.573	0.095	-0.014
-569.646	-200.000	-0.002	0.272
-568.631	-118.103	-0.379	0.069
-567.617	184.009	0.067	-0.100
-566.602	-185.517	-0.430	-0.007
-565.588	-8.143	0.291	-0.199
-564.573	-155.938	0.087	-0.006
-563.558	-51.793	-0.312	-0.147
-562.544	267.496	-0.115	-0.205
-561.529	28.057	-0.326	-0.279
-560.515	-112.103	0.372	-0.076
-559.500	46.397	-0.004	0.004
-558.485	-129.475	-0.198	0.028
-557.471	299.497	-0.037	0.069
-556.456	-8.972	0.221	0.150
-555.442	173.095	0.147	-0.215
-554.427	-160.470	-0.138	-0.008
-553.412	-200.000	0.012	0.270
-552.398	-158.944	-0.146	-0.008
-551.383	-200.000	-0.021	0.321
-550.369	228.834	0.041	0.067
-549.354	-54.421	-0.134	0.061
-548.339	-200.000	0.045	0.279
-547.325	-98.817	-0.015	0.004
-546.310	-154.033	0.245	-0.017
-545.296	206.574	0.179	0.282
-544.281	-27.930	0.184	0.108
-543.266	235.293	0.094	0.157
-542.252	-32.572	-0.252	0.142
-541.237	-200.000	0.037	0.481
-540.223	-138.528	-0.122	-0.014
-539.208	800.000	-0.045	0.163
-538.193	316.310	0.149	-0.284
-537.179	-113.697	-0.301	-0.059
-536.164	800.000	0.025	-0.086
-535.150	419.930	-0.104	-0.225
-534.135	-43.195	-0.058	-0.030
-533.121	-111.189	-0.431	-0.089
-532.106	-200.000	-0.001	0.076
-531.091	-200.000	-0.048	-0.292
-530.077	-200.000	0.037	-0.289
-529.062	-200.000	-0.013	-0.268
-528.048	-16.731	-0.301	-0.192
-527.033	-63.039	-0.372	-0.156
-526.018	-60.244	-0.093	0.040
-525.004	483.649	-0.150	0.346
-523.989	-77.041	-0.126	0.044
-522.975	143.596	-0.039	-0.053
-521.960	78.822	-0.027	0.029
-520.945	800.000	0.030	0.107
-519.931	620.119	-0.114	0.290
-518.916	-200.000	0.011	-0.286
-517.902	29.930	-0.194	0.167
-516.887	800.000	-0.055	-0.161
-515.872	201.785	-0.213	-0.332
-514.858	-200.000	-0.046	-0.262
-513.843	132.313	0.022	-0.028
-512.829	-31.603	0.087	-0.050
-511.814	-32.543	-0.328	-0.185
-510.799	-172.266	0.214	-0.007
-509.785	-81.124	-0.091	0.030
-508.770	-154.097	0.179	-0.012
-507.756	-200.000	-0.004	-0.362
-506.741	786.860	0.059	0.163
-505.726	800.000	0.029	-0.119
-504.712	-200.000	-0.081	0.000
-503.697	153.226	0.088	-0.121
-502.683	-131.749	0.300	0.040
-501.668	-67.343	-0.073	-0.029
-500.653	265.025	0.186	0.327
-499.639	-134.139	-0.096	0.012
-498.624	800.000	-0.041	-0.119
-497.610	-80.239	0.317	0.107
-496.595	-200.000	0.031	-0.297
-495.581	800.000	0.083	-0.242
-494.566	-61.091	0.325	-0.138
-493.551	-125.951	-0.062	-0.009
-492.537	323.180	-0.159	0.306
-491.522	-121.312	0.149	-0.025
-490.508	759.517	0.067	0.182
-489.493	-82.200	0.104	-0.034
-488.478	122.904	-0.193	-0.244
-487.464	-74.971	0.104	-0.038
-486.449	17.115	-0.153	0.123
-485.435	800.000	0.013	-0.047
-484.420	32.182	0.146	-0.127
-483.405	800.000	0.188	-0.571
-482.391	310.784	0.179	0.339
-481.376	-124.253	0.197	-0.031
-480.362	-200.000	0.041	-0.212
-479.347	250.133	-0.114	-0.194
-478.332	-47.501	-0.142	0.070
-477.318	72.333	-0.071	0.075
-476.303	-200.000	-0.030	-0.174
-475.289	205.774	0.127	0.199
-474.274	235.822	-0.118	0.198
-473.259	23.816	0.227	-0.189
-472.245	362.513	0.166	-0.336
-471.230	-14.567	-0.108	0.070
-470.216	123.236	-0.177	-0.224
-469.201	373.466	-0.054	0.111
-468.186	135.896	0.075	-0.098
-467.172	-111.655	-0.439	0.090
-466.157	-45.153	-0.140	0.070
-465.143	-200.000	-0.001	-0.248
-464.128	41.219	-0.120	0.110
-463.113	-200.000	0.022	-0.178
-462.099	-78.456	0.214	-0.074
-461.084	121.009	-0.184	0.231
-460.070	-149.493	0.223	0.018
-459.055	504.071	0.054	-0.125
-458.040	413.783	0.052	-0.111
-457.026	-45.326	-0.235	0.117
-456.011	541.951	0.011	0.027
-454.997	138.571	0.078	0.103
-453.982	280.927	0.212	0.382
-452.968	162.440	0.077	0.109
-451.953	-200.000	-0.155	-0.000
-450.938	-27.333	-0.060	-0.035
-449.924	-200.000	-0.002	-0.203
-448.909	800.000	-0.071	-0.226
-447.895	800.000	-0.015	-0.049
-446.880	800.000	0.038	0.130
-445.865	-114.885	0.114	0.022
-444.851	-57.579	-0.066	-0.029
-443.836	-200.000	0.027	-0.339
-442.822	-10.540	-0.114	-0.076
-441.807	188.774	-0.214	-0.322
-440.792	-200.000	0.023	-0.249
-439.778	-200.000	0.090	-0.447
-438.763	79.905	-0.043	-0.046
-437.749	491.808	-0.051	-0.117
-436.734	206.901	-0.119	0.187
-435.719	-200.000	-0.002	0.049
-434.705	35.182	0.275	-0.243
-433.690	-131.356	-0.279	-0.037
-432.676	-135.874	-0.212	-0.025
-431.661	-81.900	0.203	-0.067
-430.646	800.000	0.079	-0.298
-429.632	-29.935	-0.287	-0.164
-428.617	656.808	0.108	-0.278
-427.603	800.000	0.055	-0.211
-426.588	-200.000	-0.092	-0.414
-425.573	300.025	0.058	-0.108
-424.559	172.082	0.110	-0.159
-423.544	103.528	0.348	-0.411
-422.530	-200.000	0.001	-0.218
-421.515	-113.431	-0.168	0.033
-420.500	136.563	0.194	0.255
-419.486	286.965	-0.122	-0.222
-418.471	104.753	-0.072	0.085
-417.457	111.022	0.066	-0.080
-416.442	800.000	0.059	0.258
-415.428	42.384	0.137	-0.125
-414.413	90.532	0.095	-0.107
-413.398	-200.000	0.006	0.025
-412.384	-45.182	-0.341	-0.171
-411.369	251.793	0.166	0.284
-410.355	119.896	-0.009	0.012
-409.340	-96.798	-0.396	-0.105
-408.325	-63.253	-0.256	-0.106
-407.311	24.537	0.308	0.256
-406.296	259.830	0.068	0.119
-405.282	800.000	-0.104	0.349
-404.267	64.102	0.173	0.175
-403.252	800.000	-0.110	0.412
-402.238	-200.000	-0.047	-0.529
-401.223	-117.314	0.124	0.023
-400.209	-65.515	0.125	0.050
-399.194	-12.672	-0.209	-0.137
-398.179	146.223	0.040	0.054
-397.165	-90.941	-0.208	0.060
-396.150	27.491	-0.171	-0.145
-395.136	-42.037	0.208	0.107
-394.121	-200.000	-0.015	-0.129
-393.106	-58.799	0.223	0.097
-392.092	31.758	0.115	-0.100
-391.077	-65.825	0.231	0.093
-390.063	-200.000	0.056	0.291
-389.048	-64.973	0.080	-0.033
-388.033	97.139	0.136	0.157
-387.019	-200.000	0.020	0.126
-386.004	183.932	0.148	0.219
-384.990	-11.353	0.095	0.063
-383.975	86.909	0.182	0.202
-382.960	-80.575	-0.287	0.096
-381.946	48.500	-0.178	-0.168
-380.931	800.000	0.079	0.308
-379.917	-115.164	0.056	-0.011
-378.902	71.219	0.186	0.194
-377.888	69.663	0.165	-0.170
-376.873	71.953	0.035	-0.037
-375.858	-72.949	-0.136	-0.050
-374.844	203.067	-0.124	-0.192
-373.829	-155.437	-0.353	-0.023
-372.815	223.897	-0.072	0.116
-371.800	-29.774	-0.093	0.053
-370.785	-66.847	0.120	-0.048
-369.771	-108.183	0.231	0.050
-368.756	-59.088	-0.400	0.174
-367.742	477.989	-0.126	0.285
-366.727	-3.503	0.148	-0.103
-365.712	128.607	0.217	0.278
-364.698	192.447	0.108	0.164
-363.683	800.000	-0.014	0.059
-362.669	-29.464	0.083	0.048
-361.654	11.208	0.188	-0.145
-360.639	-34.532	0.306	0.168
-359.625	-107.449	-0.104	0.023
-358.610	-132.169	-0.364	0.047
-357.596	44.628	0.129	0.119
-356.581	119.884	-0.195	-0.243
-355.566	-135.812	0.274	-0.033
-354.552	-20.633	0.385	0.237
-353.537	38.630	-0.267	0.239
-352.523	5.718	-0.227	0.169
-351.508	800.000	0.004	0.015
-350.493	168.079	0.191	-0.272
-349.479	-67.424	-0.080	-0.031
-348.464	334.194	0.210	0.408
-347.450	-200.000	0.044	0.337
-346.435	-200.000	0.076	0.499
-345.420	57.441	-0.031	-0.031
-344.406	-116.962	0.358	-0.066
-343.391	-152.455	-0.322	-0.023
-342.377	579.224	0.033	-0.082
-341.362	19.793	0.080	0.064
-340.348	-80.136	-0.074	-0.025
-339.333	-122.784	-0.170	-0.028
-338.318	-19.935	-0.172	-0.106
-337.304	0.140	0.086	0.061
-336.289	24.951	-0.212	0.176
-335.275	294.479	0.090	-0.165
-334.260	800.000	-0.038	0.110
-333.245	-25.214	-0.209	0.124
-332.231	-3.647	-0.190	-0.132
-331.216	121.978	0.216	-0.270
-330.202	-52.079	0.135	-0.063
-329.187	347.089	-0.149	0.293
-328.172	239.205	0.087	-0.146
-327.158	352.236	-0.072	-0.143
-326.143	471.448	-0.050	-0.112
-325.129	-16.812	0.492	0.312
-324.114	18.200	-0.280	0.224
-323.099	-120.751	0.089	-0.015
-322.085	800.000	-0.070	0.216
-321.070	75.573	-0.064	0.068
-320.056	-200.000	0.011	0.228
-319.041	33.329	0.263	0.229
-318.026	714.780	0.124	0.330
-317.012	-200.000	0.006	-0.106
-315.997	800.000	0.086	-0.351
-314.983	-66.928	0.042	0.017
-313.968	107.222	0.068	-0.081
-312.953	142.217	0.041	0.054
-311.939	210.341	-0.120	0.189
-310.924	-137.572	0.247	-0.028
-309.910	-200.000	0.043	0.260
-308.895	-71.209	-0.337	0.127
-307.880	-20.451	0.063	-0.039
-306.866	-131.352	-0.030	-0.004
-305.851	-83.703	-0.101	0.032
-304.837	23.839	-0.157	-0.130
-303.822	-79.414	-0.108	-0.037
-302.807	63.355	0.036	0.036
-301.793	800.000	-0.067	0.271
-300.778	10.495	-0.209	-0.159
-299.764	-43.934	0.105	0.053
-298.749	102.727	0.244	0.286
-297.735	-200.000	-0.011	-0.134
-296.720	95.078	-0.029	-0.033
-295.705	-0.370	0.116	-0.083
-294.691	800.000	-0.216	-0.620
-293.676	-147.670	0.446	0.038
-292.662	109.818	0.312	-0.375
-291.647	-200.000	-0.014	0.300
-290.632	800.000	0.048	0.177
-289.618	423.056	0.072	0.154
-288.603	27.398	-0.353	-0.297
-287.589	-107.169	0.167	-0.037
-286.574	-31.122	0.244	-0.138
-285.559	489.437	0.062	-0.142
-284.545	-89.402	0.165	0.049
-283.530	-200.000	0.025	-0.219
-282.516	-200.000	0.022	0.133
-281.501	344.819	0.086	-0.170
-280.486	120.195	0.135	0.167
-279.472	97.676	0.251	0.289
-278.457	-137.569	0.052	-0.006
-277.443	23.779	0.125	-0.103
-276.428	-73.749	0.280	-0.102
-275.413	800.000	-0.087	-0.303
-274.399	317.843	-0.027	0.051
-273.384	210.286	0.059	0.092
-272.370	-70.003	0.213	0.081
-271.355	620.572	0.073	-0.183
-270.340	1.575	0.293	0.211
-269.326	-59.588	-0.345	-0.148
-268.311	-200.000	0.005	0.173
-267.297	279.949	-0.156	0.279
-266.282	-41.172	0.180	0.093
-265.267	-180.737	-0.158	-0.003
-264.253	188.128	-0.087	0.130
-263.238	222.110	-0.071	-0.114
-262.224	-81.023	-0.045	-0.015
-261.209	38.909	-0.196	-0.175
-260.195	210.299	0.082	-0.128
-259.180	-92.350	0.125	-0.035
-258.165	-23.249	-0.143	0.086
-257.151	-200.000	0.002	-0.115
-256.136	147.106	-0.231	-0.311
-255.122	67.676	0.073	-0.075
-254.107	-200.000	0.022	-0.233
-253.092	133.238	0.081	0.105
-252.078	-1.229	0.050	0.036
-251.063	-200.000	-0.033	-0.363
-250.049	134.225	-0.123	0.160
-249.034	-200.000	-0.001	0.525
-248.019	800.000	-0.117	0.391
-247.005	-90.063	-0.388	0.113
-245.990	-200.000	0.044	-0.331
-244.976	797.618	0.173	-0.478
-243.961	-103.906	0.127	-0.030
-242.946	-200.000	0.010	0.289
-241.932	360.764	0.191	0.382
-240.917	800.000	0.137	0.441
-239.903	-133.214	0.282	-0.036
-238.888	-142.795	-0.228	-0.022
-237.873	-200.000	-0.043	-0.296
-236.859	-200.000	0.049	0.390
-235.844	481.597	0.093	0.210
-234.830	-43.022	0.102	0.051
-233.815	-71.532	0.283	-0.106
-232.800	98.054	-0.220	0.253
-231.786	25.092	-0.204	0.169
-230.771	-159.886	0.148	-0.008
-229.757	-80.527	0.210	-0.070
-228.742	-122.318	-0.454	-0.074
-227.727	226.022	-0.193	0.312
-226.713	-34.745	0.272	0.149
-225.698	800.000	0.066	0.194
-224.684	-200.000	0.024	-0.173
-223.669	-74.996	0.250	-0.090
-222.655	581.547	0.069	0.170
-221.640	786.638	0.124	-0.341
-220.625	-122.946	-0.138	0.022
-219.611	36.240	-0.156	-0.137
-218.596	238.348	-0.158	0.261
-217.582	284.694	0.097	0.174
-216.567	-200.000	0.020	-0.188
-215.552	-200.000	-0.035	0.234
-214.538	49.906	-0.129	0.122
-213.523	634.529	0.124	0.314
-212.509	-200.000	-0.079	-0.354
-211.494	254.601	-0.097	0.165
-210.479	800.000	-0.064	0.251
-209.465	-115.753	-0.106	-0.020
-208.450	800.000	0.016	0.056
-207.436	107.888	-0.084	0.100
-206.421	285.696	0.072	-0.130
-205.406	-39.029	0.214	-0.113
-204.392	-200.000	0.227	0.000
-203.377	166.136	-0.079	-0.111
-202.363	159.579	0.095	-0.132
-201.348	-9.020	-0.075	-0.050
-200.333	-91.036	-0.054	0.016
-199.319	34.651	-0.059	0.051
-198.304	-64.141	0.130	-0.053
-197.290	206.065	0.126	0.195
-196.275	-139.277	-0.221	0.024
-195.260	90.363	-0.215	0.240
-194.246	-19.660	0.197	0.121
-193.231	-74.273	0.107	0.038
-192.217	61.882	-0.194	0.193
-191.202	800.000	0.050	0.170
-190.187	-200.000	0.051	-0.489
-189.173	560.866	-0.094	0.228
-188.158	65.395	0.035	0.036
-187.144	-200.000	-0.011	-0.072
-186.129	-115.903	-0.310	-0.058
-185.114	800.000	-0.055	0.219
-184.100	-26.824	-0.400	0.233
-183.085	-200.000	-0.064	0.339
-182.071	43.695	0.277	-0.253
-181.056	-200.000	-0.005	-0.221
-180.042	-200.000	0.024	0.148
-179.027	36.702	0.135	-0.119
-178.012	185.788	0.154	0.229
-176.998	-200.000	-0.057	0.322
-175.983	-65.957	0.109	-0.043
-174.969	-127.155	-0.155	0.023
-173.954	-26.268	-0.235	0.137
-172.939	11.134	-0.018	0.014
-171.925	-21.580	0.274	-0.167
-170.910	73.275	0.070	0.073
-169.896	336.098	0.106	0.205
-168.881	800.000	0.074	0.221
-167.866	-86.876	-0.283	0.086
-166.852	640.125	-0.134	-0.341
-165.837	-200.000	0.027	-0.142
-164.823	-10.111	0.250	0.165
-163.808	800.000	0.050	0.194
-162.793	-19.690	0.293	0.180
-161.779	39.531	0.043	0.038
-160.764	800.000	0.064	0.197
-159.750	-147.521	0.143	0.012
-158.735	205.631	0.074	-0.115
-157.720	-42.583	0.165	-0.084
-156.706	-52.342	0.274	-0.127
-155.691	-167.260	0.196	0.008
-154.677	-200.000	-0.024	0.265
-153.662	-200.000	-0.054	0.235
-152.647	93.283	-0.059	-0.067
-151.633	-200.000	-0.037	-0.417
-150.618	287.684	0.106	0.191
-149.604	-41.001	0.254	-0.131
-148.589	800.000	0.071	0.273
-147.574	-171.512	-0.144	0.005
-146.560	-117.949	-0.284	0.051
-145.545	-120.345	0.139	-0.024
-144.531	-66.571	-0.047	0.018
-143.516	-9.815	-0.206	-0.136
-142.502	31.387	-0.159	0.136
-141.487	-5.151	-0.231	-0.158
-140.472	-95.579	0.153	0.041
-139.458	-180.455	0.174	0.004
-138.443	80.849	0.143	0.153
-137.429	-142.940	0.140	0.014
-136.414	-89.909	-0.381	-0.111
-135.399	-117.677	-0.504	0.090
-134.385	-200.000	-0.043	0.256
-133.370	-63.153	-0.162	-0.067
-132.356	-18.031	0.064	-0.040
-131.341	-126.470	0.268	0.040
-130.326	-115.080	-0.259	0.049
-129.312	50.469	0.304	0.286
-128.297	68.627	-0.096	0.098
-127.283	-186.326	0.142	-0.002
-126.268	-48.915	-0.052	0.025
-125.253	46.941	0.272	-0.252
-124.239	112.731	-0.005	0.007
-123.224	-200.000	0.003	-0.025
-122.210	14.519	0.129	-0.100
-121.195	43.733	0.193	-0.176
