DTS Sentinel unit serial number:	SN413079Multiplexer serial number:	ORYXHardware model number:	OX4-SRSoftware version number:	ORYX F/W v4.00 Oryx Data Collector v3.7.2.0data status	okinstallation	princeton_trtdifferential loss correction	single-endedforward channel	channel 2reverse channel	N/Adate	2019/09/15time	12:03:35forward acquisition time	60.00reverse acquisition time	0.00gamma	496.2192k internal	0.2315k external	0.2315temperature offset calibration	1.0012default loss term (dB/km)	0.3790temperature slope calibration	1.0000multiplexer offset coefficient	1.0000multiplexer slope coefficient	1.0000fibre end	0.00T internal ref (°C)	34.44T ext. ref 1 (°C)	5.05T ext. ref 2 (°C)	30.49length (m)	temperature (°C)	Stokes	anti-Stokes-747.200	496.423	0.108	-0.251
-746.185	712.159	0.184	0.495
-745.171	-200.000	0.012	0.229
-744.156	-70.884	0.228	0.087
-743.142	-12.819	0.142	-0.094
-742.127	800.000	0.064	0.236
-741.112	-157.808	-0.073	-0.004
-740.098	8.360	0.107	0.082
-739.083	-200.000	-0.038	0.229
-738.069	-200.000	-0.078	0.356
-737.054	800.000	0.100	-0.308
-736.039	-138.264	-0.364	-0.041
-735.025	-94.112	-0.489	0.136
-734.010	315.526	0.037	-0.071
-732.996	-3.535	-0.145	-0.102
-731.981	-5.731	-0.239	-0.166
-730.966	129.641	-0.054	0.069
-729.952	-143.429	-0.105	0.010
-728.937	800.000	0.118	-0.444
-727.923	-200.000	-0.020	-0.454
-726.908	15.888	-0.084	0.067
-725.894	373.735	-0.103	-0.213
-724.879	417.444	0.058	-0.126
-723.864	-120.846	-0.086	-0.015
-722.850	-64.533	-0.435	0.179
-721.835	-85.993	-0.265	0.083
-720.821	-9.551	-0.164	0.111
-719.806	211.147	-0.022	0.035
-718.791	-40.461	-0.218	0.115
-717.777	96.976	-0.112	-0.130
-716.762	800.000	0.046	0.175
-715.748	196.928	-0.204	-0.315
-714.733	50.302	-0.110	-0.105
-713.718	358.488	-0.132	0.266
-712.704	115.688	-0.226	-0.280
-711.689	72.985	0.065	0.069
-710.675	-200.000	-0.068	0.389
-709.660	124.742	-0.100	-0.128
-708.645	60.534	0.148	-0.149
-707.631	-127.783	0.063	-0.009
-706.616	178.222	0.209	0.308
-705.602	348.820	-0.115	0.230
-704.587	-200.000	-0.014	-0.557
-703.572	-200.000	-0.020	-0.113
-702.558	-8.488	0.101	-0.069
-701.543	29.158	-0.255	-0.219
-700.529	-49.214	0.198	-0.096
-699.514	20.319	-0.156	0.127
-698.499	299.059	-0.044	0.083
-697.485	49.010	-0.193	-0.184
-696.470	-3.570	0.141	0.099
-695.456	184.952	-0.092	0.139
-694.441	631.642	-0.054	-0.137
-693.426	555.540	0.102	0.248
-692.412	-39.313	-0.131	-0.069
-691.397	-121.603	0.527	-0.088
-690.383	-7.910	-0.366	0.250
-689.368	-118.840	-0.379	-0.067
-688.354	-200.000	0.018	0.082
-687.339	800.000	-0.022	-0.078
-686.324	-190.952	-0.288	-0.003
-685.310	-82.124	0.193	0.064
-684.295	-90.821	0.181	-0.053
-683.281	800.000	0.078	0.333
-682.266	45.528	0.129	-0.120
-681.251	800.000	-0.041	0.164
-680.237	-200.000	-0.011	-0.165
-679.222	158.615	-0.058	0.082
-678.208	-7.928	-0.102	0.070
-677.193	-200.000	0.040	0.195
-676.178	-200.000	0.002	-0.034
-675.164	-129.695	0.211	0.029
-674.149	340.427	0.119	0.235
-673.135	-44.845	0.065	-0.033
-672.120	800.000	0.084	0.246
-671.105	-147.597	0.219	0.019
-670.091	-71.408	-0.576	-0.218
-669.076	800.000	0.034	-0.105
-668.062	800.000	-0.056	-0.199
-667.047	48.248	0.120	-0.113
-666.032	102.358	0.086	-0.102
-665.018	-76.170	-0.170	-0.061
-664.003	143.988	0.047	0.064
-662.989	-85.065	-0.326	-0.103
-661.974	398.413	0.109	-0.231
-660.959	329.578	-0.122	-0.237
-659.945	260.026	0.063	-0.111
-658.930	800.000	0.034	-0.106
-657.916	9.687	0.156	0.120
-656.901	-130.972	-0.429	-0.058
-655.886	61.205	0.146	0.146
-654.872	-51.919	0.261	-0.123
-653.857	-200.000	0.065	-0.349
-652.843	-200.000	0.021	0.106
-651.828	769.147	0.033	-0.091
-650.814	520.247	0.106	0.251
-649.799	230.890	-0.101	0.166
-648.784	-29.027	0.106	0.061
-647.770	234.653	-0.068	-0.114
-646.755	-158.876	-0.527	-0.030
-645.741	-200.000	-0.047	-0.306
-644.726	-53.126	0.157	-0.073
-643.711	-94.610	0.094	0.026
-642.697	-200.000	0.006	-0.049
-641.682	800.000	-0.040	0.144
-640.668	91.352	-0.109	0.123
-639.653	83.764	0.147	-0.162
-638.638	-97.471	0.159	-0.042
-637.624	-60.760	0.322	0.138
-636.609	-88.568	-0.159	0.048
-635.595	627.946	0.109	0.278
-634.580	800.000	-0.044	0.176
-633.565	-67.216	0.258	-0.102
-632.551	-30.330	0.268	-0.154
-631.536	263.618	0.241	-0.423
-630.522	-200.000	-0.040	-0.263
-629.507	-95.002	-0.115	0.032
-628.492	617.728	0.149	-0.377
-627.478	-72.170	0.030	-0.011
-626.463	113.042	-0.026	-0.032
-625.449	800.000	0.071	0.260
-624.434	-200.000	-0.022	0.123
-623.419	229.046	0.165	0.271
-622.405	-144.228	-0.037	-0.003
-621.390	231.375	0.026	-0.044
-620.376	800.000	-0.068	0.207
-619.361	-71.231	0.329	-0.125
-618.346	-0.972	-0.105	0.075
-617.332	-151.417	-0.238	-0.018
-616.317	-135.467	0.340	-0.041
-615.303	-200.000	0.042	0.303
-614.288	-35.657	0.310	0.170
-613.273	16.590	-0.287	-0.229
-612.259	142.327	0.194	0.259
-611.244	72.620	-0.065	-0.069
-610.230	7.473	0.070	0.053
-609.215	-40.425	-0.134	0.070
-608.201	-118.673	0.301	0.053
-607.186	-120.957	0.528	-0.090
-606.171	-40.758	0.303	-0.158
-605.157	171.236	0.101	0.146
-604.142	64.071	0.287	-0.291
-603.128	67.493	-0.157	0.161
-602.113	2.763	0.110	0.080
-601.098	334.906	-0.066	-0.128
-600.084	501.107	0.058	0.134
-599.069	448.252	0.051	-0.113
-598.055	-147.401	-0.112	-0.010
-597.040	-81.065	0.206	-0.069
-596.025	-179.219	0.360	-0.008
-595.011	-188.716	-0.508	0.006
-593.996	-111.875	0.189	0.038
-592.982	-200.000	-0.035	0.270
-591.967	107.186	-0.086	-0.103
-590.952	651.200	0.049	-0.126
-589.938	800.000	0.045	-0.164
-588.923	-69.151	-0.181	0.070
-587.909	-51.449	0.034	-0.016
-586.894	800.000	0.018	0.067
-585.879	57.397	0.099	-0.098
-584.865	-200.000	0.018	0.188
-583.850	-200.000	-0.004	-0.101
-582.836	-200.000	-0.002	-0.168
-581.821	169.169	0.159	0.229
-580.806	-200.000	0.030	-0.188
-579.792	-93.230	0.067	0.019
-578.777	136.676	0.128	0.169
-577.763	-103.915	0.077	-0.018
-576.748	466.343	-0.037	-0.084
-575.733	306.751	0.079	0.147
-574.719	-61.589	0.201	-0.085
-573.704	-125.611	0.163	0.025
-572.690	232.827	-0.245	-0.406
-571.675	-200.000	-0.026	-0.494
-570.661	-200.000	0.026	0.227
-569.646	-3.180	-0.218	-0.153
-568.631	-154.202	0.147	0.010
-567.617	98.329	0.228	-0.264
-566.602	205.636	0.058	-0.091
-565.588	342.166	-0.146	-0.287
-564.573	52.399	0.167	-0.160
-563.558	261.232	-0.146	0.255
-562.544	295.112	-0.123	0.227
-561.529	67.794	-0.273	-0.281
-560.515	-200.000	-0.004	0.224
-559.500	-114.033	-0.245	0.048
-558.485	-40.915	-0.247	0.129
-557.471	-111.412	0.356	-0.073
-556.456	-173.003	-0.280	-0.009
-555.442	-35.274	-0.097	-0.053
-554.427	-121.995	-0.158	0.026
-553.412	-157.533	-0.306	0.018
-552.398	-40.171	0.161	0.084
-551.383	51.206	-0.121	0.115
-550.369	-76.831	-0.128	-0.045
-549.354	-200.000	0.031	-0.175
-548.339	281.670	-0.063	-0.113
-547.325	-200.000	-0.037	0.225
-546.310	-128.694	0.177	-0.025
-545.296	800.000	0.092	0.261
-544.281	-200.000	-0.158	-0.000
-543.266	-200.000	0.013	-0.308
-542.252	-84.524	-0.255	0.081
-541.237	-200.000	-0.026	-0.270
-540.223	679.239	-0.030	-0.079
-539.208	-106.846	0.085	0.019
-538.193	-112.817	-0.305	0.061
-537.179	58.074	-0.097	0.095
-536.164	-148.460	0.154	-0.013
-535.150	-148.512	-0.421	-0.035
-534.135	-70.733	0.229	0.087
-533.121	207.424	0.218	-0.341
-532.106	61.205	-0.032	0.032
-531.091	-200.000	0.028	-0.245
-530.077	-71.787	-0.039	-0.015
-529.062	-78.132	-0.160	0.055
-528.048	109.397	-0.231	-0.278
-527.033	-22.157	0.173	-0.105
-526.018	137.853	0.141	-0.186
-525.004	153.178	-0.147	0.202
-523.989	189.913	0.072	-0.108
-522.975	103.330	-0.140	-0.165
-521.960	-26.166	0.197	-0.116
-520.945	74.715	-0.130	0.137
-519.931	33.698	0.109	0.095
-518.916	-141.717	-0.330	-0.033
-517.902	-9.565	-0.133	0.089
-516.887	111.800	-0.255	-0.309
-515.872	146.433	0.123	0.165
-514.858	-169.846	-0.260	-0.009
-513.843	74.995	-0.030	-0.032
-512.829	-83.395	-0.073	0.024
-511.814	-120.844	0.137	0.023
-510.799	55.127	0.070	0.068
-509.785	-15.141	0.159	0.102
-508.770	-57.473	0.192	0.085
-507.756	270.932	0.127	-0.224
-506.741	-200.000	-0.061	-0.287
-505.726	40.358	-0.139	0.126
-504.712	-200.000	-0.022	0.193
-503.697	-143.737	-0.207	0.020
-502.683	-15.432	-0.145	-0.093
-501.668	-92.615	0.105	0.030
-500.653	701.737	0.046	-0.122
-499.639	-200.000	-0.028	0.150
-498.624	-118.436	-0.223	0.040
-497.610	659.498	0.048	0.123
-496.595	800.000	-0.039	-0.168
-495.581	524.394	0.079	0.187
-494.566	-38.552	-0.130	-0.069
-493.551	-119.737	0.206	-0.036
-492.537	354.953	0.083	-0.165
-491.522	249.543	0.115	0.195
-490.508	162.114	-0.135	0.189
-489.493	-109.889	0.142	0.030
-488.478	-24.430	-0.269	-0.161
-487.464	-200.000	0.132	0.001
-486.449	-43.909	0.347	0.175
-485.435	-124.216	0.182	0.029
-484.420	800.000	0.084	0.309
-483.405	-130.278	-0.308	0.042
-482.391	88.500	0.162	0.181
-481.376	253.012	0.085	-0.146
-480.362	239.164	-0.199	-0.332
-479.347	-101.534	-0.359	0.088
-478.332	-200.000	-0.058	0.365
-477.318	-138.829	0.189	-0.021
-476.303	48.739	-0.230	-0.216
-475.289	18.312	0.158	-0.126
-474.274	21.727	0.118	-0.096
-473.259	144.738	0.093	-0.125
-472.245	307.558	0.164	0.306
-471.230	-200.000	0.013	0.173
-470.216	-122.034	-0.216	-0.036
-469.201	-200.000	-0.018	-0.184
-468.186	-77.786	-0.343	0.119
-467.172	-38.982	-0.136	0.072
-466.157	18.264	0.299	-0.239
-465.143	800.000	0.065	-0.198
-464.128	-112.431	-0.036	-0.007
-463.113	-119.231	0.080	0.014
-462.099	118.917	0.187	-0.232
-461.084	-140.010	-0.255	0.027
-460.070	-52.326	-0.053	0.024
-459.055	230.193	-0.207	0.339
-458.040	316.383	-0.117	-0.221
-457.026	198.774	0.257	0.395
-456.011	352.417	-0.213	0.423
-454.997	-61.287	0.187	0.079
-453.982	-57.907	-0.433	0.190
-452.968	-84.951	0.120	0.038
-451.953	204.862	-0.049	-0.076
-450.938	-110.715	0.261	-0.054
-449.924	-61.859	-0.138	0.058
-448.909	-113.921	0.049	0.010
-447.895	-50.099	0.205	-0.097
-446.880	107.833	0.107	0.127
-445.865	800.000	0.030	0.127
-444.851	800.000	-0.027	0.101
-443.836	-6.330	-0.088	0.060
-442.822	294.160	0.127	0.232
-441.807	-86.149	0.195	-0.060
-440.792	-200.000	-0.004	-0.022
-439.778	150.814	0.212	0.288
-438.763	255.326	0.114	0.195
-437.749	86.620	-0.170	-0.188
-436.734	40.749	0.162	-0.146
-435.719	-95.818	0.251	0.067
-434.705	-105.337	-0.236	0.054
-433.690	218.096	0.056	-0.089
-432.676	274.921	-0.063	-0.112
-431.661	-126.068	0.146	-0.022
-430.646	800.000	0.124	0.346
-429.632	99.092	-0.126	0.146
-428.617	800.000	0.077	-0.231
-427.603	165.856	0.105	-0.149
-426.588	-200.000	-0.045	0.262
-425.573	83.903	-0.075	0.082
-424.559	-200.000	0.023	-0.188
-423.544	123.989	0.034	-0.043
-422.530	62.372	0.164	0.164
-421.515	-60.307	-0.106	0.045
-420.500	120.580	0.168	-0.209
-419.486	-185.773	-0.291	-0.004
-418.471	-63.038	0.356	-0.147
-417.457	4.438	-0.268	0.197
-416.442	-132.488	-0.156	0.020
-415.428	91.787	0.377	0.425
-414.413	461.367	-0.186	0.414
-413.398	209.235	0.116	-0.181
-412.384	-200.000	-0.018	0.138
-411.369	235.665	0.124	0.204
-410.355	98.291	0.270	0.311
-409.340	800.000	0.028	0.088
-408.325	-135.222	-0.139	-0.017
-407.311	-200.000	0.030	0.220
-406.296	-49.262	0.154	0.074
-405.282	-93.608	0.245	-0.068
-404.267	-200.000	-0.009	-0.156
-403.252	129.693	-0.085	0.109
-402.238	153.746	-0.088	-0.120
-401.223	-92.350	0.233	-0.066
-400.209	-144.270	-0.193	0.018
-399.194	-125.835	-0.101	-0.015
-398.179	-200.000	0.043	0.194
-397.165	-200.000	0.036	-0.215
-396.150	109.111	0.272	-0.325
-395.136	-200.000	0.038	0.193
-394.121	571.235	-0.011	0.027
-393.106	-94.013	0.283	0.078
-392.092	233.236	-0.225	-0.370
-391.077	-114.336	-0.383	0.074
-390.063	-200.000	0.021	0.161
-389.048	122.291	-0.153	0.191
-388.033	-200.000	-0.004	-0.234
-387.019	26.199	0.300	-0.251
-386.004	309.162	0.067	-0.125
-384.990	126.305	-0.134	-0.169
-383.975	-200.000	-0.011	-0.251
-382.960	43.558	0.308	-0.282
-381.946	1.197	-0.108	-0.078
-380.931	-4.187	0.194	0.134
-379.917	176.745	0.130	-0.189
-378.902	494.364	-0.092	0.210
-377.888	562.835	-0.054	0.131
-376.873	53.177	0.130	0.124
-375.858	126.473	-0.172	-0.217
-374.844	424.800	-0.047	0.101
-373.829	4.896	-0.236	0.173
-372.815	-200.000	-0.017	-0.102
-371.800	-160.853	-0.353	0.019
-370.785	-48.430	-0.251	0.121
-369.771	-108.480	0.176	0.038
-368.756	-95.246	-0.195	-0.053
-367.742	-200.000	-0.007	0.124
-366.727	-174.349	-0.137	0.004
-365.712	-159.121	-0.451	0.025
-364.698	-29.154	-0.030	-0.017
-363.683	-200.000	-0.027	-0.451
-362.669	-133.562	0.264	-0.033
-361.654	32.912	0.245	-0.212
-360.639	800.000	0.046	0.173
-359.625	800.000	-0.080	-0.321
-358.610	-83.256	0.369	0.118
-357.596	800.000	0.105	-0.390
-356.581	127.261	0.067	0.085
-355.566	623.966	0.062	-0.156
-354.552	330.072	-0.152	0.291
-353.537	28.309	0.113	-0.095
-352.523	-28.429	-0.231	-0.133
-351.508	304.735	-0.072	-0.133
-350.493	140.985	-0.129	-0.170
-349.479	-200.000	-0.024	-0.376
-348.464	56.833	-0.287	-0.279
-347.450	-200.000	0.001	0.167
-346.435	-34.889	0.309	0.169
-345.420	-49.559	-0.447	-0.212
-344.406	-102.637	0.389	-0.093
-343.391	560.812	0.130	-0.314
-342.377	168.791	-0.073	0.104
-341.362	185.603	-0.241	0.357
-340.348	-172.804	0.217	0.007
-339.333	-99.726	-0.187	0.047
-338.318	800.000	-0.079	-0.282
-337.304	-100.009	-0.218	0.054
-336.289	71.181	-0.150	-0.156
-335.275	20.905	-0.066	-0.053
-334.260	-200.000	0.008	-0.170
-333.245	33.931	0.289	0.251
-332.231	-200.000	-0.006	0.134
-331.216	60.384	0.089	0.088
-330.202	-76.521	0.208	0.073
-329.187	-200.000	-0.009	0.089
-328.172	800.000	0.084	0.322
-327.158	-133.212	0.284	-0.036
-326.143	767.233	0.070	-0.191
-325.129	-136.569	-0.216	-0.025
-324.114	590.035	-0.129	-0.316
-323.099	39.361	0.023	-0.021
-322.085	-200.000	0.009	-0.164
-321.070	-189.391	0.083	-0.001
-320.056	707.504	0.133	-0.351
-319.041	400.215	-0.061	0.127
-318.026	-169.666	-0.022	-0.001
-317.012	172.830	-0.093	-0.134
-315.997	54.641	-0.065	-0.063
-314.983	-200.000	0.007	0.111
-313.968	-12.862	0.087	0.056
-312.953	-53.609	-0.391	-0.178
-311.939	-100.791	-0.079	-0.019
-310.924	-12.438	-0.185	0.121
-309.910	24.954	0.426	-0.352
-308.895	123.929	0.020	0.025
-307.880	-144.783	-0.341	-0.031
-306.866	29.059	-0.114	-0.096
-305.851	-49.449	-0.273	0.130
-304.837	164.063	-0.080	-0.113
-303.822	32.583	0.219	0.188
-302.807	-148.334	0.178	-0.015
-301.793	43.012	-0.112	0.102
-300.778	683.835	0.135	0.352
-299.764	-60.994	-0.232	0.098
-298.749	-200.000	-0.015	0.184
-297.735	-24.713	-0.256	0.151
-296.720	-77.088	-0.074	-0.026
-295.705	-92.512	0.027	0.008
-294.691	-86.062	0.272	0.084
-293.676	800.000	-0.048	0.199
-292.662	800.000	0.045	0.158
-291.647	-140.895	-0.083	-0.009
-290.632	325.853	0.064	0.122
-289.618	-35.464	0.021	-0.011
-288.603	34.647	0.008	-0.007
-287.589	197.406	-0.012	-0.018
-286.574	80.160	0.112	-0.120
-285.559	800.000	0.062	0.210
-284.545	338.825	-0.063	0.122
-283.530	-195.115	-0.031	0.000
-282.516	-52.479	-0.175	-0.080
-281.501	-200.000	0.005	-0.345
-280.486	-13.849	0.062	0.040
-279.472	-82.696	0.334	0.107
-278.457	-152.175	-0.273	-0.020
-277.443	800.000	-0.040	-0.128
-276.428	2.747	-0.328	-0.237
-275.413	-31.219	0.236	-0.132
-274.399	236.170	-0.187	-0.307
-273.384	-14.801	0.171	-0.109
-272.370	91.279	0.212	-0.237
-271.355	162.078	0.054	-0.076
-270.340	-200.000	0.007	0.114
-269.326	800.000	-0.071	0.241
-268.311	-155.011	-0.271	-0.018
-267.297	542.839	-0.042	0.100
-266.282	99.493	0.041	0.047
-265.267	-141.702	-0.249	0.025
-264.253	-120.733	-0.138	-0.023
-263.238	-200.000	0.014	0.216
-262.224	-152.734	0.519	-0.037
-261.209	9.257	-0.270	0.203
-260.195	-99.212	-0.041	-0.010
-259.180	254.639	-0.086	-0.147
-258.165	482.469	0.094	0.212
-257.151	-200.000	-0.068	0.345
-256.136	-74.937	0.254	-0.091
-255.122	68.619	-0.028	-0.029
-254.107	67.966	-0.014	0.015
-253.092	-53.091	-0.200	0.091
-252.078	277.673	-0.102	-0.181
-251.063	405.443	-0.226	-0.474
-250.049	68.653	0.129	-0.132
-249.034	-85.674	-0.459	0.142
-248.019	-29.990	-0.128	-0.072
-247.005	-68.954	-0.093	0.036
-245.990	143.983	-0.159	-0.211
-244.976	-102.593	0.358	0.085
-243.961	-115.395	0.105	-0.020
-242.946	800.000	-0.040	-0.166
-241.932	-200.000	-0.000	0.178
-240.917	228.435	-0.027	0.044
-239.903	-200.000	-0.024	-0.130
-238.888	800.000	-0.064	0.178
-237.873	316.663	-0.208	0.390
-236.859	353.788	-0.030	0.060
-235.844	-181.699	-0.352	0.007
-234.830	-45.820	-0.266	0.131
-233.815	296.338	0.077	0.140
-232.800	-200.000	0.015	-0.105
-231.786	-0.293	-0.157	0.111
-230.771	-49.829	0.270	-0.127
-229.757	71.724	-0.163	0.169
-228.742	-200.000	-0.016	0.239
-227.727	69.261	-0.169	0.173
-226.713	-190.063	-0.142	0.002
-225.698	-200.000	-0.491	0.002
-224.684	75.460	-0.194	0.203
-223.669	-122.694	0.322	0.052
-222.655	318.683	0.037	0.069
-221.640	-200.000	0.008	-0.149
-220.625	-56.146	0.323	-0.143
-219.611	-80.073	-0.320	0.107
-218.596	-40.284	-0.016	0.008
-217.582	-185.719	0.314	-0.005
-216.567	-200.000	0.010	0.099
-215.552	35.266	0.012	0.011
-214.538	-100.337	0.068	-0.017
-213.523	-200.000	-0.002	0.026
-212.509	-200.000	0.001	0.018
-211.494	230.957	0.066	-0.107
-210.479	-200.000	0.033	-0.240
-209.465	-92.270	-0.154	0.043
-208.450	-89.944	-0.204	0.059
-207.436	-94.409	-0.123	0.033
-206.421	-60.428	0.218	-0.092
-205.406	-200.000	0.189	-0.000
-204.392	800.000	0.086	0.252
-203.377	224.216	0.127	0.203
-202.363	-34.910	0.423	-0.229
-201.348	-36.770	0.375	-0.200
-200.333	442.525	-0.172	0.373
-199.319	46.166	-0.132	0.122
-198.304	-200.000	0.049	0.355
-197.290	-200.000	-0.031	-0.322
-196.275	-44.005	-0.335	-0.167
-195.260	9.107	-0.224	0.168
-194.246	-200.000	0.008	-0.137
-193.231	-28.538	-0.241	-0.138
-192.217	17.058	-0.139	-0.110
-191.202	-6.128	0.139	0.094
-190.187	-200.000	-0.028	-0.226
-189.173	800.000	-0.074	-0.212
-188.158	454.831	0.021	-0.047
-187.144	-200.000	0.024	0.280
-186.129	67.983	-0.049	-0.050
-185.114	236.047	0.138	0.227
-184.100	16.808	0.189	-0.149
-183.085	525.273	-0.073	-0.170
-182.071	-200.000	0.001	0.092
-181.056	69.637	-0.075	-0.076
-180.042	-110.982	0.174	-0.035
-179.027	-200.000	0.026	-0.144
-178.012	547.238	-0.103	-0.245
-176.998	-200.000	0.022	0.334
-175.983	-133.589	0.122	-0.015
-174.969	-200.000	0.011	-0.195
-173.954	-200.000	0.014	-0.135
-172.939	-200.000	-0.023	0.172
-171.925	-92.496	-0.315	-0.088
-170.910	-50.934	-0.218	-0.102
-169.896	-0.041	0.102	-0.072
-168.881	252.891	-0.135	-0.228
-167.866	-200.000	-0.006	0.421
-166.852	-68.532	0.140	0.054
-165.837	54.792	0.256	0.245
-164.823	800.000	0.096	-0.312
-163.808	-16.200	0.235	-0.148
-162.793	111.595	0.107	0.127
-161.779	268.639	0.150	0.260
-160.764	189.891	0.070	0.103
-159.750	-52.869	-0.186	-0.085
-158.735	262.218	-0.101	0.173
-157.720	72.377	0.281	0.290
-156.706	-113.385	0.168	0.033
-155.691	-119.872	-0.370	0.063
-154.677	-153.221	0.348	0.024
-153.662	-200.000	-0.032	0.256
-152.647	-200.000	0.031	-0.158
-151.633	-62.793	0.197	-0.081
-150.618	28.647	-0.092	0.077
-149.604	-29.687	0.189	-0.107
-148.589	41.278	0.076	-0.068
-147.574	229.928	0.167	-0.270
-146.560	-200.000	0.019	0.225
-145.545	58.270	0.293	-0.284
-144.531	28.856	-0.316	-0.265
-143.516	-109.299	-0.331	0.069
-142.502	-80.513	0.295	0.097
-141.487	48.460	0.189	0.175
-140.472	-119.796	-0.427	-0.073
-139.458	-200.000	0.019	-0.257
-138.443	-30.840	-0.080	0.045
-137.429	477.430	-0.068	-0.153
-136.414	-88.692	0.201	-0.059
-135.399	729.948	-0.163	-0.430
-134.385	-200.000	-0.043	-0.369
-133.370	-62.882	-0.040	0.017
-132.356	-0.200	-0.092	-0.065
-131.341	800.000	0.088	-0.275
-130.326	-49.902	0.337	-0.158
-129.312	55.583	-0.061	-0.058
-128.297	-15.171	0.097	0.061
-127.283	-113.101	0.484	-0.095
-126.268	-200.000	0.009	0.228
-125.253	-200.000	0.024	-0.275
-124.239	800.000	0.057	-0.193
-123.224	34.493	-0.199	-0.172
-122.210	-48.661	-0.233	0.111
-121.195	135.218	-0.154	0.198
