DTS Sentinel unit serial number:	SN413079Multiplexer serial number:	ORYXHardware model number:	OX4-SRSoftware version number:	ORYX F/W v4.00 Oryx Data Collector v3.7.2.0data status	okinstallation	princeton_trtdifferential loss correction	single-endedforward channel	channel 2reverse channel	N/Adate	2019/09/13time	11:27:34forward acquisition time	60.00reverse acquisition time	0.00gamma	496.2192k internal	0.2320k external	0.2320temperature offset calibration	1.0193default loss term (dB/km)	0.3790temperature slope calibration	1.0000multiplexer offset coefficient	1.0000multiplexer slope coefficient	1.0000fibre end	0.00T internal ref (°C)	32.64T ext. ref 1 (°C)	4.35T ext. ref 2 (°C)	30.04length (m)	temperature (°C)	Stokes	anti-Stokes-747.200	-200.000	-0.041	-0.213
-746.185	800.000	-0.086	0.351
-745.171	-146.216	-0.095	0.008
-744.156	-200.000	-0.009	0.169
-743.142	-85.907	-0.388	0.122
-742.127	-200.000	-0.003	0.024
-741.112	-100.691	0.298	0.074
-740.098	800.000	-0.116	0.375
-739.083	-160.533	-0.233	0.013
-738.069	676.763	-0.084	0.221
-737.054	-200.000	-0.015	-0.331
-736.039	-115.951	0.220	0.041
-735.025	-62.729	0.378	0.158
-734.010	-18.310	-0.117	-0.074
-732.996	-117.912	-0.224	-0.041
-731.981	217.938	-0.120	-0.193
-730.966	447.902	0.096	0.214
-729.952	800.000	-0.047	0.189
-728.937	156.385	-0.054	-0.075
-727.923	696.954	0.029	-0.076
-726.908	-200.000	0.003	-0.108
-725.894	-200.000	-0.028	0.369
-724.879	-200.000	0.038	-0.299
-723.864	-200.000	-0.003	-0.360
-722.850	447.750	0.046	-0.102
-721.835	67.500	-0.139	-0.144
-720.821	-200.000	-0.048	-0.320
-719.806	563.724	0.095	0.232
-718.791	198.514	-0.138	-0.213
-717.777	20.086	-0.233	-0.190
-716.762	-200.000	-0.014	-0.350
-715.748	-57.896	-0.321	-0.142
-714.733	139.599	0.082	0.109
-713.718	-158.754	0.210	-0.012
-712.704	323.471	-0.123	0.237
-711.689	4.675	0.259	-0.192
-710.675	-200.000	-0.017	-0.131
-709.660	-29.364	0.170	0.098
-708.645	-3.697	0.148	0.104
-707.631	-110.981	0.044	0.009
-706.616	342.004	-0.054	0.106
-705.602	31.098	-0.352	0.305
-704.587	47.189	-0.213	-0.200
-703.572	-51.920	0.154	0.072
-702.558	-133.708	0.288	0.036
-701.543	22.448	-0.311	-0.257
-700.529	178.018	-0.053	0.079
-699.514	-114.138	0.183	0.036
-698.499	294.087	-0.115	-0.212
-697.485	800.000	0.040	0.177
-696.470	-20.241	-0.161	-0.100
-695.456	-70.000	0.085	0.033
-694.441	304.844	-0.124	0.232
-693.426	-4.387	-0.182	-0.127
-692.412	-144.823	-0.271	-0.025
-691.397	94.782	0.075	-0.086
-690.383	-200.000	-0.069	-0.353
-689.368	-200.000	-0.005	0.153
-688.354	-29.944	0.064	0.037
-687.339	87.709	0.067	-0.075
-686.324	-30.847	-0.076	0.043
-685.310	13.614	-0.126	-0.099
-684.295	60.131	0.294	-0.293
-683.281	14.095	-0.423	-0.332
-682.266	256.907	-0.065	-0.113
-681.251	-159.036	-0.278	0.016
-680.237	800.000	0.077	-0.265
-679.222	247.478	-0.113	-0.193
-678.208	800.000	-0.071	-0.208
-677.193	-11.135	0.094	-0.063
-676.178	-90.043	-0.210	-0.062
-675.164	-77.653	-0.334	0.116
-674.149	-152.190	-0.384	-0.028
-673.135	270.851	-0.198	0.351
-672.120	-200.000	0.006	-0.300
-671.105	-200.000	0.049	0.246
-670.091	800.000	0.065	-0.273
-669.076	243.451	0.069	-0.117
-668.062	90.600	-0.073	-0.083
-667.047	7.154	-0.094	-0.071
-666.032	800.000	0.049	0.207
-665.018	366.513	0.047	0.096
-664.003	800.000	0.065	0.191
-662.989	-24.558	-0.257	-0.154
-661.974	308.031	-0.076	0.143
-660.959	123.018	-0.039	0.049
-659.945	-120.725	-0.406	0.069
-658.930	389.419	0.033	0.069
-657.916	-200.000	0.049	-0.376
-656.901	-200.000	0.007	0.082
-655.886	-200.000	0.047	0.216
-654.872	253.845	-0.146	0.252
-653.857	-200.000	0.008	0.186
-652.843	192.011	-0.238	0.362
-651.828	100.050	-0.047	0.055
-650.814	-21.082	0.167	-0.103
-649.799	-140.808	-0.080	0.008
-648.784	517.714	0.107	0.252
-647.770	-200.000	-0.049	-0.394
-646.755	-48.836	0.111	-0.054
-645.741	789.587	-0.042	-0.117
-644.726	126.415	0.175	0.223
-643.711	-146.055	-0.463	0.041
-642.697	236.710	-0.199	-0.331
-641.682	-164.165	-0.205	-0.010
-640.668	29.490	0.125	-0.107
-639.653	198.124	-0.137	-0.210
-638.638	46.965	-0.187	-0.176
-637.624	800.000	0.057	-0.231
-636.609	225.072	0.058	0.094
-635.595	-86.227	-0.236	0.073
-634.580	121.194	0.046	-0.058
-633.565	-42.935	0.135	0.069
-632.551	57.176	0.113	0.111
-631.536	427.455	-0.152	0.330
-630.522	94.612	-0.024	0.027
-629.507	-98.856	0.156	0.040
-628.492	191.718	0.156	-0.237
-627.478	-200.000	0.072	0.364
-626.463	800.000	0.078	-0.273
-625.449	-200.000	-0.004	0.061
-624.434	448.917	-0.032	-0.071
-623.419	207.156	0.112	0.176
-622.405	800.000	-0.004	-0.016
-621.390	-200.000	-0.027	-0.167
-620.376	16.293	-0.329	-0.261
-619.361	-200.000	-0.010	0.062
-618.346	244.892	-0.119	0.202
-617.332	170.351	-0.120	-0.173
-616.317	511.353	-0.113	-0.265
-615.303	28.782	0.326	-0.278
-614.288	-11.121	-0.277	-0.184
-613.273	-63.859	0.051	0.021
-612.259	-20.318	-0.227	-0.141
-611.244	-103.893	0.323	0.076
-610.230	-119.551	0.125	0.022
-609.215	56.855	0.105	-0.103
-608.201	-88.424	0.084	0.025
-607.186	501.956	0.045	-0.104
-606.171	-200.000	0.048	-0.300
-605.157	24.422	-0.213	-0.177
-604.142	-86.307	0.102	-0.032
-603.128	800.000	-0.060	0.200
-602.113	-200.000	-0.052	0.312
-601.098	-200.000	-0.032	-0.164
-600.084	-153.062	-0.541	-0.038
-599.069	177.610	0.136	0.200
-598.055	-62.367	0.149	-0.062
-597.040	190.986	-0.102	-0.154
-596.025	-30.435	-0.186	0.106
-595.011	-106.734	-0.232	-0.052
-593.996	-40.021	0.076	-0.040
-592.982	-149.032	-0.131	-0.011
-591.967	566.499	0.053	0.129
-590.952	50.964	-0.267	-0.255
-589.938	-9.606	0.085	-0.057
-588.923	13.383	-0.258	0.201
-587.909	-109.171	0.055	0.012
-586.894	8.212	-0.121	0.092
-585.879	165.917	0.110	0.157
-584.865	800.000	-0.018	-0.060
-583.850	-200.000	0.005	-0.124
-582.836	3.284	0.405	-0.296
-581.821	-90.681	-0.125	-0.036
-580.806	-57.821	0.283	-0.124
-579.792	26.716	0.292	0.246
-578.777	242.532	-0.168	0.282
-577.763	-105.299	-0.126	0.029
-576.748	407.403	-0.046	-0.098
-575.733	-164.185	0.169	-0.008
-574.719	-200.000	0.002	-0.191
-573.704	309.678	0.164	0.308
-572.690	-200.000	0.031	0.309
-571.675	-103.050	0.336	-0.080
-570.661	-200.000	-0.016	0.182
-569.646	164.711	-0.068	-0.096
-568.631	93.433	0.278	0.316
-567.617	-54.210	-0.254	0.116
-566.602	-155.318	0.069	-0.004
-565.588	-200.000	-0.048	-0.253
-564.573	80.220	-0.095	-0.103
-563.558	200.379	0.075	0.115
-562.544	31.593	0.097	0.084
-561.529	-62.701	-0.211	-0.088
-560.515	800.000	0.090	0.337
-559.500	-200.000	0.019	-0.154
-558.485	304.410	0.041	0.077
-557.471	74.130	0.075	-0.079
-556.456	276.049	-0.112	-0.200
-555.442	800.000	-0.020	-0.074
-554.427	-36.541	-0.287	-0.155
-553.412	293.730	-0.084	-0.154
-552.398	-200.000	-0.039	-0.217
-551.383	206.056	-0.077	0.120
-550.369	231.172	0.020	0.032
-549.354	-69.523	-0.471	-0.181
-548.339	138.330	-0.113	0.148
-547.325	-135.429	-0.144	0.017
-546.310	147.045	-0.062	0.084
-545.296	800.000	0.052	0.178
-544.281	-200.000	-0.012	0.104
-543.266	-200.000	0.021	0.185
-542.252	26.473	-0.059	0.049
-541.237	33.304	0.058	-0.051
-540.223	-60.610	0.244	0.104
-539.208	134.644	-0.132	-0.172
-538.193	-124.896	-0.274	-0.042
-537.179	-57.503	0.128	0.056
-536.164	-21.894	0.174	0.106
-535.150	800.000	-0.033	0.099
-534.135	-200.000	-0.036	0.202
-533.121	396.261	-0.079	0.165
-532.106	800.000	0.044	-0.181
-531.091	-200.000	-0.020	0.160
-530.077	-108.434	0.129	0.028
-529.062	-126.564	0.120	-0.018
-528.048	197.437	0.131	-0.200
-527.033	-94.758	-0.204	0.055
-526.018	-83.944	0.045	-0.014
-525.004	800.000	0.115	0.346
-523.989	-11.328	0.193	-0.127
-522.975	-114.395	0.219	-0.042
-521.960	-156.156	-0.031	-0.002
-520.945	42.025	-0.231	-0.210
-519.931	125.592	-0.121	0.153
-518.916	-113.664	-0.359	-0.070
-517.902	143.365	0.085	-0.114
-516.887	17.668	0.415	-0.331
-515.872	79.378	0.236	-0.253
-514.858	-20.764	-0.361	-0.222
-513.843	-200.000	-0.024	0.161
-512.829	-36.858	-0.014	0.008
-511.814	204.085	0.209	0.324
-510.799	611.125	-0.099	-0.247
-509.785	667.814	-0.037	-0.097
-508.770	-200.000	0.121	-0.000
-507.756	627.006	-0.090	-0.228
-506.741	-80.600	0.123	-0.041
-505.726	30.162	-0.119	-0.102
-504.712	105.267	0.127	0.150
-503.697	-40.087	-0.044	0.023
-502.683	-25.261	-0.162	0.096
-501.668	611.123	0.020	0.051
-500.653	77.708	0.315	-0.336
-499.639	-116.024	-0.534	-0.100
-498.624	-52.744	0.199	0.092
-497.610	-9.645	-0.095	-0.063
-496.595	-55.002	-0.106	-0.048
-495.581	-200.000	-0.014	0.193
-494.566	136.258	-0.245	0.320
-493.551	-47.602	-0.181	0.088
-492.537	-200.000	-0.035	-0.176
-491.522	-200.000	-0.008	-0.045
-490.508	-92.747	0.495	0.139
-489.493	109.654	0.190	-0.228
-488.478	-200.000	0.031	-0.270
-487.464	576.304	0.029	0.070
-486.449	147.636	-0.143	0.193
-485.435	800.000	-0.021	-0.065
-484.420	347.229	-0.136	-0.268
-483.405	-200.000	-0.009	0.083
-482.391	800.000	0.115	0.335
-481.376	5.563	-0.171	-0.127
-480.362	497.728	-0.097	-0.223
-479.347	36.124	-0.117	-0.103
-478.332	291.545	-0.021	-0.039
-477.318	-200.000	0.048	-0.313
-476.303	-65.788	-0.088	-0.035
-475.289	-36.639	0.213	-0.115
-474.274	126.286	0.107	-0.135
-473.259	358.720	-0.021	0.042
-472.245	387.035	0.058	-0.119
-471.230	-81.867	0.127	0.042
-470.216	-60.274	0.216	-0.092
-469.201	-32.124	0.061	-0.034
-468.186	800.000	-0.061	-0.190
-467.172	800.000	-0.138	-0.404
-466.157	122.585	-0.134	0.167
-465.143	41.786	-0.026	0.024
-464.128	-200.000	-0.020	0.370
-463.113	-85.115	-0.151	0.047
-462.099	136.085	-0.124	0.162
-461.084	-119.907	-0.059	0.010
-460.070	-147.037	0.015	-0.001
-459.055	800.000	0.037	-0.152
-458.040	259.828	0.056	0.096
-457.026	800.000	-0.066	-0.242
-456.011	-42.961	-0.242	0.123
-454.997	109.570	-0.190	0.228
-453.982	-200.000	0.074	-0.632
-452.968	-104.308	-0.205	-0.048
-451.953	-200.000	0.016	0.077
-450.938	312.496	0.058	-0.108
-449.924	41.907	-0.227	0.206
-448.909	-106.064	-0.142	-0.032
-447.895	-46.380	0.125	-0.062
-446.880	-199.771	0.376	0.002
-445.865	466.351	0.079	0.176
-444.851	-71.140	0.114	-0.043
-443.836	47.751	0.134	0.125
-442.822	68.811	-0.076	0.078
-441.807	-200.000	0.019	-0.278
-440.792	-24.856	0.170	-0.101
-439.778	-39.232	-0.088	-0.046
-438.763	374.823	0.083	0.168
-437.749	546.203	-0.151	-0.362
-436.734	800.000	-0.072	-0.246
-435.719	800.000	0.048	-0.149
-434.705	-200.000	0.015	0.230
-433.690	-40.130	0.082	0.043
-432.676	-200.000	0.045	-0.273
-431.661	16.485	0.246	0.194
-430.646	191.090	-0.005	0.007
-429.632	354.760	-0.085	0.169
-428.617	-5.345	-0.553	0.379
-427.603	-92.075	0.144	0.041
-426.588	-104.953	0.250	-0.057
-425.573	61.852	-0.213	-0.212
-424.559	636.110	0.016	-0.042
-423.544	153.473	0.114	-0.156
-422.530	-97.978	-0.234	-0.060
-421.515	21.135	-0.255	-0.207
-420.500	-200.000	-0.056	0.386
-419.486	800.000	0.072	0.292
-418.471	-200.000	0.041	-0.275
-417.457	-117.827	0.154	0.028
-416.442	800.000	-0.042	0.128
-415.428	243.083	-0.093	-0.155
-414.413	-71.352	0.293	0.109
-413.398	-66.935	0.169	0.066
-412.384	-200.000	-0.023	-0.216
-411.369	-93.765	-0.261	0.072
-410.355	-132.652	-0.134	0.017
-409.340	-59.828	0.155	-0.066
-408.325	-108.226	-0.433	0.093
-407.311	-102.625	-0.170	-0.040
-406.296	-142.304	-0.126	0.012
-405.282	638.862	-0.056	0.142
-404.267	270.700	-0.022	-0.038
-403.252	46.446	0.268	0.248
-402.238	236.255	0.113	-0.186
-401.223	800.000	0.016	0.059
-400.209	-164.512	0.133	0.006
-399.194	64.182	-0.109	0.110
-398.179	-200.000	-0.021	-0.094
-397.165	-145.794	0.087	0.008
-396.150	-153.628	0.200	0.014
-395.136	800.000	0.061	0.241
-394.121	-152.356	-0.326	0.023
-393.106	-200.000	-0.006	0.195
-392.092	-148.707	0.316	0.026
-391.077	-46.490	-0.195	0.095
-390.063	-32.025	0.338	0.189
-389.048	69.193	-0.033	-0.033
-388.033	75.691	0.163	-0.171
-387.019	747.129	0.073	-0.196
-386.004	158.816	-0.140	0.194
-384.990	189.038	-0.172	-0.257
-383.975	-200.000	0.040	0.212
-382.960	-142.344	-0.146	-0.014
-381.946	179.532	-0.075	0.109
-380.931	-200.000	0.003	0.199
-379.917	-67.598	0.264	0.103
-378.902	-48.692	-0.222	-0.106
-377.888	800.000	-0.086	-0.272
-376.873	-51.132	-0.124	0.058
-375.858	-92.631	0.335	0.094
-374.844	-34.290	0.129	0.070
-373.829	20.674	0.048	-0.039
-372.815	-182.155	-0.247	0.005
-371.800	-200.000	-0.014	0.282
-370.785	134.514	0.291	0.376
-369.771	182.838	-0.144	-0.212
-368.756	208.033	-0.072	-0.112
-367.742	16.691	-0.102	-0.080
-366.727	-51.818	0.152	-0.071
-365.712	-24.118	0.169	0.101
-364.698	800.000	0.004	0.015
-363.683	-82.342	0.318	-0.103
-362.669	-88.537	-0.109	0.033
-361.654	221.710	0.200	-0.320
-360.639	33.773	0.110	0.095
-359.625	-200.000	-0.014	-0.251
-358.610	-98.042	0.222	-0.057
-357.596	129.940	0.201	0.257
-356.581	-97.241	-0.130	0.034
-355.566	-82.388	0.082	-0.027
-354.552	-86.330	-0.056	0.017
-353.537	-200.000	-0.023	0.201
-352.523	-92.870	0.029	0.008
-351.508	-49.331	-0.194	0.092
-350.493	248.710	0.074	-0.124
-349.479	272.345	0.040	-0.069
-348.464	-93.344	0.018	-0.005
-347.450	800.000	-0.037	-0.135
-346.435	223.000	0.090	-0.145
-345.420	-133.507	0.675	-0.084
-344.406	99.166	0.208	0.240
-343.391	-200.000	-0.024	-0.259
-342.377	-165.242	0.374	-0.016
-341.362	800.000	0.046	0.151
-340.348	-58.513	-0.113	0.049
-339.333	-88.143	0.557	-0.166
-338.318	-18.524	-0.264	-0.164
-337.304	119.891	0.045	-0.056
-336.289	157.246	0.169	-0.233
-335.275	800.000	-0.046	0.172
-334.260	-73.644	-0.426	-0.154
-333.245	699.148	0.126	-0.331
-332.231	-32.757	-0.363	-0.201
-331.216	-34.573	0.354	0.193
-330.202	-108.181	-0.139	-0.030
-329.187	-115.127	-0.184	0.035
-328.172	197.579	-0.066	-0.100
-327.158	-54.573	-0.235	0.106
-326.143	-27.428	0.168	0.097
-325.129	218.763	0.132	0.210
-324.114	-200.000	-0.022	-0.244
-323.099	-200.000	0.005	0.233
-322.085	126.770	0.230	0.290
-321.070	12.215	-0.124	0.095
-320.056	-50.496	0.088	0.041
-319.041	51.830	0.091	0.086
-318.026	-7.119	-0.263	-0.177
-317.012	-45.022	-0.114	0.057
-315.997	-124.242	0.105	-0.016
-314.983	265.204	0.093	-0.161
-313.968	-121.224	0.268	-0.045
-312.953	99.694	-0.021	-0.024
-311.939	-95.868	-0.236	0.063
-310.924	25.404	-0.052	-0.043
-309.910	800.000	0.058	0.167
-308.895	-11.135	0.162	-0.106
-307.880	159.822	0.109	0.150
-306.866	-29.913	-0.298	0.169
-305.851	-17.233	0.292	0.183
-304.837	-29.122	-0.189	-0.108
-303.822	800.000	-0.060	-0.185
-302.807	59.952	-0.262	-0.258
-301.793	-200.000	-0.020	-0.154
-300.778	14.833	0.150	0.117
-299.764	70.190	0.217	0.223
-298.749	189.842	-0.268	-0.399
-297.735	200.518	-0.157	0.240
-296.720	2.590	0.107	-0.077
-295.705	0.437	0.187	0.133
-294.691	125.907	0.087	0.110
-293.676	312.579	-0.101	0.188
-292.662	-134.148	-0.062	-0.008
-291.647	-200.000	-0.005	-0.109
-290.632	-5.524	0.287	-0.196
-289.618	99.650	-0.182	0.209
-288.603	-17.282	-0.043	-0.027
-287.589	591.224	0.113	0.278
-286.574	800.000	-0.127	0.441
-285.559	-71.361	-0.181	0.068
-284.545	-62.968	-0.232	0.095
-283.530	-101.548	-0.331	0.080
-282.516	440.418	-0.193	-0.419
-281.501	11.582	0.060	-0.046
-280.486	276.494	0.167	-0.295
-279.472	83.387	-0.157	-0.170
-278.457	-114.694	-0.312	0.059
-277.443	-122.362	0.113	0.018
-276.428	272.257	0.231	0.405
-275.413	19.073	0.157	-0.125
-274.399	16.402	0.139	-0.109
-273.384	-131.248	0.147	-0.019
-272.370	-24.720	0.135	-0.080
-271.355	-51.379	-0.200	-0.093
-270.340	-163.606	-0.086	-0.004
-269.326	-66.844	-0.175	-0.069
-268.311	-129.178	-0.148	-0.020
-267.297	-13.413	-0.382	0.246
-266.282	60.483	0.194	0.191
-265.267	-106.564	-0.292	-0.064
-264.253	-200.000	0.023	-0.102
-263.238	-200.000	0.002	0.418
-262.224	-110.436	-0.073	0.015
-261.209	-190.477	0.397	-0.004
-260.195	265.857	-0.092	0.160
-259.180	-200.000	-0.054	0.271
-258.165	82.282	-0.145	-0.156
-257.151	295.974	0.191	-0.347
-256.136	-51.599	0.096	-0.045
-255.122	121.808	0.126	-0.155
-254.107	-68.805	-0.224	-0.086
-253.092	-128.283	0.139	0.020
-252.078	-86.323	-0.251	-0.077
-251.063	-200.000	-0.039	0.202
-250.049	689.992	-0.024	0.063
-249.034	149.484	-0.088	-0.118
-248.019	-22.848	-0.109	-0.065
-247.005	-200.000	-0.076	-0.348
-245.990	800.000	0.070	0.269
-244.976	-103.320	-0.204	0.048
-243.961	-200.000	-0.002	-0.025
-242.946	-200.000	0.045	-0.236
-241.932	-48.474	0.137	-0.066
-240.917	-200.000	0.008	-0.189
-239.903	-200.000	-0.001	0.277
-238.888	65.405	-0.047	0.047
-237.873	52.079	0.172	-0.163
-236.859	74.877	0.075	-0.078
-235.844	800.000	-0.029	-0.119
-234.830	-107.494	0.302	0.066
-233.815	49.696	-0.133	-0.124
-232.800	-46.044	-0.353	0.172
-231.786	83.844	-0.099	0.107
-230.771	100.694	0.169	-0.195
-229.757	93.457	0.056	0.063
-228.742	309.844	0.161	0.298
-227.727	-57.277	0.115	-0.050
-226.713	-1.878	0.246	0.171
-225.698	22.206	0.068	-0.055
-224.684	20.840	-0.194	-0.155
-223.669	-47.910	0.232	0.111
-222.655	113.958	0.108	0.130
-221.640	-145.633	-0.139	-0.012
-220.625	-200.000	0.048	-0.242
-219.611	-172.048	-0.314	0.010
-218.596	-13.888	-0.207	0.132
-217.582	52.593	-0.125	-0.118
-216.567	800.000	0.118	0.342
-215.552	333.146	-0.198	0.379
-214.538	-108.663	0.234	-0.050
-213.523	800.000	-0.076	0.226
-212.509	180.520	-0.115	0.167
-211.494	-109.659	0.119	-0.025
-210.479	-45.231	-0.115	-0.057
-209.465	-200.000	0.027	0.223
-208.450	295.408	0.068	-0.123
-207.436	-49.535	0.141	0.066
-206.421	-141.243	0.041	-0.004
-205.406	-9.579	-0.050	0.033
-204.392	20.644	0.141	-0.113
-203.377	18.575	0.178	0.141
-202.363	-139.555	0.107	0.011
-201.348	-200.000	-0.050	0.349
-200.333	-200.000	0.049	0.320
-199.319	123.477	0.132	0.164
-198.304	102.671	0.050	0.058
-197.290	-165.754	-0.205	-0.009
-196.275	-67.902	0.136	0.052
-195.260	-200.000	-0.017	0.266
-194.246	60.443	0.143	0.140
-193.231	-87.177	-0.169	-0.051
-192.217	-103.929	0.173	-0.040
-191.202	-200.000	-0.002	-0.104
-190.187	-200.000	0.061	0.309
-189.173	-32.563	0.330	-0.182
-188.158	800.000	0.025	0.079
-187.144	800.000	-0.025	-0.083
-186.129	133.296	-0.032	0.041
-185.114	-99.918	-0.158	0.039
-184.100	800.000	-0.078	-0.301
-183.085	-9.827	0.183	-0.121
-182.071	-68.092	0.380	0.147
-181.056	-64.132	0.398	0.161
-180.042	183.296	-0.079	-0.115
-179.027	-55.068	-0.312	-0.139
-178.012	800.000	0.047	0.141
-176.998	-144.070	0.202	-0.019
-175.983	-200.000	-0.038	-0.284
-174.969	-200.000	-0.020	-0.103
-173.954	-2.499	0.205	-0.142
-172.939	-103.875	-0.104	0.024
-171.925	8.988	-0.129	0.096
-170.910	800.000	0.015	0.050
-169.896	-200.000	-0.030	-0.197
-168.881	690.068	0.095	0.245
-167.866	2.091	0.260	0.186
-166.852	-128.270	0.139	-0.020
-165.837	62.287	-0.082	-0.081
-164.823	113.319	-0.211	0.254
-163.808	-200.000	-0.001	0.099
-162.793	135.420	-0.165	0.212
-161.779	-83.731	-0.176	-0.055
-160.764	-8.991	0.117	0.078
-159.750	176.526	0.199	-0.286
-158.735	282.124	0.106	-0.187
-157.720	122.470	-0.212	0.262
-156.706	-113.102	-0.244	0.048
-155.691	281.991	-0.073	-0.129
-154.677	-28.590	0.149	-0.085
-153.662	182.311	-0.072	0.105
-152.647	-11.536	0.080	0.052
-151.633	-200.000	0.044	0.203
-150.618	-58.886	0.199	-0.085
-149.604	34.718	0.187	-0.162
-148.589	-200.000	0.017	-0.152
-147.574	-38.347	-0.207	-0.109
-146.560	800.000	-0.023	0.098
-145.545	199.818	0.127	0.192
-144.531	800.000	0.126	-0.455
-143.516	-200.000	0.048	0.292
-142.502	-190.334	-0.135	0.001
-141.487	220.514	-0.049	-0.077
-140.472	-200.000	0.038	-0.186
-139.458	-61.096	0.154	0.064
-138.443	-98.508	-0.118	0.030
-137.429	247.850	0.049	-0.081
-136.414	24.233	0.179	-0.146
-135.399	-57.124	-0.058	0.025
-134.385	-85.594	0.214	-0.066
-133.370	800.000	-0.149	0.433
-132.356	-200.000	-0.524	-0.002
-131.341	-77.224	0.267	-0.092
-130.326	-14.489	-0.048	0.030
-129.312	24.472	0.038	0.031
-128.297	400.319	-0.055	-0.115
-127.283	-200.000	0.053	-0.261
-126.268	-126.347	0.040	0.006
-125.253	-70.955	0.021	-0.008
-124.239	46.931	-0.105	-0.096
-123.224	-200.000	0.024	0.214
-122.210	800.000	-0.042	-0.162
