DTS Sentinel unit serial number:	SN413079Multiplexer serial number:	ORYXHardware model number:	OX4-SRSoftware version number:	ORYX F/W v4.00 Oryx Data Collector v3.7.2.0data status	okinstallation	princeton_trtdifferential loss correction	single-endedforward channel	channel 2reverse channel	N/Adate	2019/09/13time	19:47:35forward acquisition time	60.00reverse acquisition time	0.00gamma	496.2192k internal	0.2331k external	0.2331temperature offset calibration	1.0142default loss term (dB/km)	0.3790temperature slope calibration	1.0000multiplexer offset coefficient	1.0000multiplexer slope coefficient	1.0000fibre end	0.00T internal ref (°C)	30.16T ext. ref 1 (°C)	3.36T ext. ref 2 (°C)	24.31length (m)	temperature (°C)	Stokes	anti-Stokes-747.200	108.673	0.231	0.278
-746.185	-146.157	-0.392	0.035
-745.171	716.488	0.120	-0.322
-744.156	193.618	-0.202	0.308
-743.142	324.222	-0.054	-0.104
-742.127	-103.933	0.232	0.054
-741.112	-14.526	-0.221	-0.143
-740.098	-124.362	-0.155	0.024
-739.083	245.462	0.084	0.142
-738.069	117.285	0.219	-0.271
-737.054	316.515	0.187	-0.355
-736.039	84.601	-0.179	-0.197
-735.025	-12.081	0.347	0.228
-734.010	800.000	-0.032	0.134
-732.996	-55.002	-0.206	-0.093
-731.981	-200.000	0.024	0.199
-730.966	-68.447	-0.094	0.037
-729.952	46.995	-0.142	0.133
-728.937	638.238	-0.196	-0.501
-727.923	-117.422	-0.270	-0.049
-726.908	800.000	-0.050	-0.166
-725.894	800.000	0.054	-0.192
-724.879	4.005	-0.248	-0.182
-723.864	-200.000	-0.016	-0.125
-722.850	243.646	-0.094	-0.158
-721.835	400.803	-0.215	-0.454
-720.821	186.485	0.018	-0.027
-719.806	-122.519	-0.226	-0.037
-718.791	-200.000	0.022	0.230
-717.777	-44.479	0.052	0.026
-716.762	-109.987	-0.161	0.034
-715.748	800.000	-0.052	-0.193
-714.733	800.000	-0.045	-0.157
-713.718	482.136	0.021	-0.049
-712.704	11.991	0.119	0.092
-711.689	800.000	-0.020	-0.087
-710.675	-86.378	0.111	-0.034
-709.660	-200.000	-0.000	-0.015
-708.645	240.419	0.070	-0.117
-707.631	-12.766	-0.155	0.102
-706.616	81.114	-0.272	-0.295
-705.602	-200.000	-0.031	-0.235
-704.587	-125.420	-0.392	-0.060
-703.572	-103.199	-0.138	-0.033
-702.558	-40.451	-0.296	-0.155
-701.543	121.490	0.086	-0.108
-700.529	-147.081	-0.232	-0.020
-699.514	17.369	-0.167	0.133
-698.499	-200.000	-0.040	0.198
-697.485	19.770	-0.248	-0.201
-696.470	-200.000	0.074	0.445
-695.456	-200.000	-0.014	-0.401
-694.441	800.000	0.093	0.353
-693.426	-75.552	0.238	0.085
-692.412	-83.311	-0.155	0.050
-691.397	476.368	-0.099	-0.225
-690.383	77.282	0.261	0.278
-689.368	-56.303	-0.196	-0.088
-688.354	360.631	0.089	0.180
-687.339	143.799	0.186	0.249
-686.324	266.200	-0.083	-0.145
-685.310	-65.949	0.046	0.018
-684.295	-76.266	-0.187	0.066
-683.281	297.892	-0.012	-0.023
-682.266	-200.000	0.024	-0.194
-681.251	251.911	-0.100	-0.171
-680.237	-57.257	0.259	-0.115
-679.222	-133.062	-0.334	0.043
-678.208	-72.611	0.130	-0.048
-677.193	-200.000	-0.027	0.159
-676.178	191.201	-0.306	-0.462
-675.164	100.637	0.150	-0.175
-674.149	76.304	-0.180	0.191
-673.135	140.904	0.319	0.424
-672.120	-200.000	-0.003	-0.045
-671.105	48.169	-0.201	-0.189
-670.091	49.200	-0.154	-0.146
-669.076	-110.906	0.235	-0.049
-668.062	43.044	-0.254	0.232
-667.047	238.584	0.160	-0.266
-666.032	-140.112	-0.181	0.019
-665.018	-200.000	0.015	-0.250
-664.003	154.386	-0.069	-0.095
-662.989	-71.723	0.221	0.083
-661.974	-28.205	0.135	0.078
-660.959	800.000	-0.076	-0.264
-659.945	-166.369	0.383	0.016
-658.930	255.843	0.257	-0.442
-657.916	263.636	-0.184	0.320
-656.901	31.105	0.249	0.214
-655.886	240.988	-0.058	0.098
-654.872	-146.509	-0.152	-0.013
-653.857	263.984	0.184	-0.322
-652.843	19.422	0.169	0.136
-651.828	342.600	-0.231	0.454
-650.814	101.916	0.097	-0.113
-649.799	-102.966	0.062	0.015
-648.784	107.497	-0.156	-0.186
-647.770	-3.627	-0.298	-0.208
-646.755	723.146	-0.086	-0.230
-645.741	-200.000	0.011	0.098
-644.726	-116.551	-0.280	0.052
-643.711	-200.000	-0.011	-0.155
-642.697	80.305	0.146	0.157
-641.682	305.291	-0.227	-0.423
-640.668	751.979	-0.085	0.229
-639.653	-200.000	-0.364	0.000
-638.638	83.356	0.130	0.142
-637.624	-200.000	0.020	0.393
-636.609	800.000	-0.073	-0.233
-635.595	8.979	0.082	-0.062
-634.580	239.535	-0.035	0.059
-633.565	255.982	-0.113	-0.194
-632.551	-89.431	-0.226	0.067
-631.536	424.408	-0.073	0.158
-630.522	-200.000	0.001	0.236
-629.507	343.127	0.054	-0.105
-628.492	174.584	0.240	-0.347
-627.478	800.000	-0.040	0.172
-626.463	-84.634	-0.352	-0.111
-625.449	-47.035	0.167	-0.082
-624.434	-81.269	-0.084	-0.028
-623.419	-71.942	-0.152	-0.057
-622.405	-68.243	-0.085	-0.033
-621.390	334.800	-0.058	-0.113
-620.376	800.000	-0.049	-0.163
-619.361	-71.084	0.205	-0.077
-618.346	128.114	0.151	-0.192
-617.332	226.913	-0.214	0.348
-616.317	-200.000	-0.006	0.144
-615.303	-143.987	0.081	0.008
-614.288	232.969	-0.060	-0.099
-613.273	800.000	-0.027	0.116
-612.259	-34.813	0.215	0.118
-611.244	800.000	0.142	0.473
-610.230	-200.000	-0.022	-0.127
-609.215	-189.053	0.193	0.002
-608.201	-200.000	0.006	0.110
-607.186	295.571	-0.051	-0.094
-606.171	432.663	0.057	0.124
-605.157	800.000	-0.032	0.139
-604.142	122.387	0.127	-0.159
-603.128	62.967	-0.149	-0.149
-602.113	142.244	0.103	0.137
-601.098	-49.810	0.034	0.016
-600.084	-92.941	-0.153	0.043
-599.069	48.403	0.143	0.134
-598.055	58.296	-0.062	0.061
-597.040	-126.404	0.116	0.017
-596.025	14.943	0.098	0.077
-595.011	-35.900	-0.112	-0.060
-593.996	-136.198	0.178	0.021
-592.982	180.386	0.200	-0.293
-591.967	-111.330	-0.275	0.056
-590.952	-59.711	0.325	-0.139
-589.938	800.000	0.019	-0.056
-588.923	562.031	0.070	-0.169
-587.909	800.000	-0.027	-0.081
-586.894	56.940	-0.305	-0.297
-585.879	800.000	-0.057	0.179
-584.865	-45.236	-0.164	0.081
-583.850	-119.683	0.113	0.020
-582.836	-23.912	0.099	0.059
-581.821	482.397	0.150	0.341
-580.806	-29.348	0.191	0.109
-579.792	-89.539	-0.308	0.090
-578.777	-107.193	0.277	0.061
-577.763	128.555	0.036	0.046
-576.748	-200.000	-0.004	0.447
-575.733	-83.735	0.284	0.091
-574.719	800.000	0.027	-0.106
-573.704	190.642	0.098	0.147
-572.690	-31.651	0.166	-0.093
-571.675	-42.889	-0.302	-0.153
-570.661	23.792	0.079	-0.065
-569.646	-105.082	0.140	0.032
-568.631	-26.191	0.110	0.064
-567.617	590.732	0.070	0.172
-566.602	-200.000	0.060	-0.345
-565.588	800.000	-0.104	-0.290
-564.573	-26.380	0.323	0.189
-563.558	108.662	0.181	-0.216
-562.544	-200.000	-0.011	-0.065
-561.529	-78.836	0.222	-0.076
-560.515	113.267	-0.173	-0.210
-559.500	-75.295	-0.206	-0.073
-558.485	-186.673	-0.333	0.005
-557.471	-40.196	-0.143	0.074
-556.456	-176.978	-0.258	0.006
-555.442	-200.000	0.002	-0.087
-554.427	37.383	0.167	-0.148
-553.412	-200.000	-0.053	0.279
-552.398	96.689	0.216	-0.248
-551.383	-200.000	-0.021	-0.152
-550.369	36.062	0.175	0.153
-549.354	-101.166	0.113	-0.028
-548.339	-42.360	-0.071	-0.036
-547.325	-96.907	0.198	-0.052
-546.310	-81.868	-0.110	-0.036
-545.296	-47.373	-0.194	-0.094
-544.281	-159.955	0.102	-0.006
-543.266	800.000	0.057	0.196
-542.252	-162.233	0.061	0.003
-541.237	-26.622	-0.150	0.088
-540.223	-200.000	0.279	0.001
-539.208	354.259	-0.050	0.099
-538.193	15.004	-0.112	-0.087
-537.179	-186.424	-0.432	0.006
-536.164	-200.000	-0.048	-0.353
-535.150	-200.000	0.005	-0.173
-534.135	-67.143	0.509	-0.200
-533.121	-200.000	0.015	0.134
-532.106	-161.078	-0.371	-0.019
-531.091	122.483	-0.164	-0.205
-530.077	777.338	0.040	-0.108
-529.062	800.000	0.112	-0.442
-528.048	-132.927	0.115	-0.015
-527.033	152.493	-0.031	-0.042
-526.018	50.096	-0.113	-0.106
-525.004	-119.089	-0.048	-0.008
-523.989	67.752	0.270	-0.275
-522.975	-75.182	-0.317	-0.113
-521.960	16.604	0.068	-0.054
-520.945	-200.000	0.106	0.498
-519.931	-109.930	0.300	-0.063
-518.916	-54.814	0.303	0.137
-517.902	65.719	0.296	0.299
-516.887	485.270	0.061	0.138
-515.872	253.505	-0.076	0.130
-514.858	-4.564	0.043	0.030
-513.843	229.176	-0.165	0.268
-512.829	7.601	0.129	0.096
-511.814	96.707	0.020	-0.022
-510.799	-22.516	-0.182	-0.110
-509.785	-200.000	-0.050	-0.236
-508.770	-51.763	-0.224	0.104
-507.756	206.826	0.041	0.064
-506.741	-124.611	-0.089	-0.014
-505.726	-200.000	0.007	-0.481
-504.712	240.062	-0.037	0.061
-503.697	-179.800	-0.053	0.001
-502.683	-71.915	-0.173	0.064
-501.668	192.711	-0.162	0.243
-500.653	6.650	0.130	0.096
-499.639	-200.000	0.005	0.242
-498.624	19.951	0.148	0.119
-497.610	93.538	0.104	-0.117
-496.595	50.502	-0.156	-0.147
-495.581	-63.043	-0.589	-0.242
-494.566	565.345	0.070	0.170
-493.551	-96.251	-0.128	0.034
-492.537	446.905	0.031	-0.067
-491.522	124.203	0.124	0.156
-490.508	-15.088	0.195	-0.124
-489.493	-38.815	-0.197	-0.104
-488.478	-200.000	0.058	0.354
-487.464	155.354	0.047	0.064
-486.449	-1.547	-0.118	0.083
-485.435	-49.966	-0.119	0.056
-484.420	-147.540	0.111	0.009
-483.405	800.000	-0.087	-0.241
-482.391	-200.000	-0.012	0.242
-481.376	-158.220	0.317	-0.018
-480.362	130.965	-0.169	-0.217
-479.347	-200.000	0.002	-0.422
-478.332	-87.539	-0.283	-0.085
-477.318	5.736	-0.253	0.187
-476.303	739.334	-0.175	0.468
-475.289	-149.748	-0.197	0.015
-474.274	62.368	0.120	0.119
-473.259	-124.798	0.175	0.027
-472.245	-200.000	-0.001	0.309
-471.230	275.617	-0.101	-0.179
-470.216	185.890	-0.201	-0.298
-469.201	267.973	0.262	-0.457
-468.186	-22.691	0.185	-0.111
-467.172	579.137	-0.061	-0.148
-466.157	166.439	-0.101	-0.142
-465.143	-200.000	-0.019	0.122
-464.128	98.593	0.223	0.256
-463.113	685.170	-0.027	-0.071
-462.099	461.102	-0.092	-0.203
-461.084	-45.829	-0.077	-0.038
-460.070	-200.000	0.060	0.440
-459.055	26.107	0.285	-0.237
-458.040	-101.068	0.165	-0.040
-457.026	767.655	-0.103	0.278
-456.011	-200.000	0.008	-0.405
-454.997	358.033	0.180	-0.357
-453.982	-42.635	-0.275	-0.139
-452.968	123.921	-0.113	-0.141
-451.953	176.583	0.034	0.049
-450.938	-34.710	-0.045	0.025
-449.924	199.659	-0.149	0.228
-448.909	206.971	0.042	0.065
-447.895	69.727	-0.192	-0.197
-446.880	-25.249	0.164	0.096
-445.865	-200.000	-0.073	0.342
-444.851	-58.684	-0.214	-0.092
-443.836	-200.000	-0.004	-0.100
-442.822	800.000	0.075	0.234
-441.807	321.731	0.112	-0.212
-440.792	156.475	-0.129	-0.178
-439.778	-200.000	0.011	-0.282
-438.763	-200.000	0.012	-0.111
-437.749	65.367	-0.354	0.356
-436.734	-65.088	-0.005	0.002
-435.719	114.790	0.162	-0.197
-434.705	93.182	-0.349	0.393
-433.690	44.780	-0.110	0.100
-432.676	99.666	-0.112	0.129
-431.661	-31.339	-0.060	-0.033
-430.646	800.000	0.038	0.165
-429.632	3.700	-0.207	-0.150
-428.617	-200.000	-0.002	-0.207
-427.603	110.781	0.256	0.307
-426.588	-200.000	0.026	-0.417
-425.573	-54.318	0.095	0.043
-424.559	-2.691	0.383	-0.266
-423.544	-96.881	0.140	-0.037
-422.530	-112.206	-0.133	0.027
-421.515	-97.863	-0.084	0.021
-420.500	-200.000	0.009	-0.212
-419.486	-59.263	0.175	-0.075
-418.471	401.748	-0.049	0.102
-417.457	-200.000	0.008	-0.152
-416.442	-133.280	0.029	0.004
-415.428	149.042	0.154	0.207
-414.413	11.391	-0.179	0.136
-413.398	-200.000	-0.032	-0.282
-412.384	800.000	0.050	-0.162
-411.369	655.322	0.153	-0.390
-410.355	387.004	0.069	-0.142
-409.340	61.130	-0.231	-0.228
-408.325	366.698	-0.065	0.130
-407.311	-119.539	-0.234	-0.040
-406.296	-9.360	-0.204	0.135
-405.282	315.094	-0.199	0.372
-404.267	85.767	-0.144	0.157
-403.252	-34.216	0.406	0.222
-402.238	261.738	0.042	-0.072
-401.223	42.191	0.157	-0.142
-400.209	-154.404	0.290	-0.019
-399.194	-200.000	0.019	-0.129
-398.179	-200.000	-0.002	0.221
-397.165	-23.336	0.208	-0.124
-396.150	-136.976	-0.207	-0.024
-395.136	446.522	0.107	0.234
-394.121	-73.761	-0.069	0.025
-393.106	70.871	0.039	0.040
-392.092	325.379	0.094	0.178
-391.077	-132.827	0.182	0.023
-390.063	154.130	-0.148	0.201
-389.048	-200.000	0.006	0.342
-388.033	227.320	-0.123	-0.198
-387.019	24.361	-0.154	-0.126
-386.004	72.774	0.111	-0.115
-384.990	-89.108	-0.122	0.036
-383.975	800.000	0.071	0.247
-382.960	800.000	-0.143	0.502
-381.946	-200.000	-0.020	-0.309
-380.931	32.570	0.224	-0.192
-379.917	800.000	-0.069	-0.242
-378.902	165.532	0.093	0.131
-377.888	40.310	0.141	0.126
-376.873	71.825	-0.166	0.171
-375.858	-200.000	0.035	-0.275
-374.844	-200.000	-0.003	-0.389
-373.829	-200.000	-0.001	0.189
-372.815	-148.278	-0.345	0.028
-371.800	-99.516	0.062	0.016
-370.785	-200.000	-0.079	-0.363
-369.771	-150.762	0.306	-0.023
-368.756	-200.000	-0.000	-0.149
-367.742	-200.000	0.028	0.179
-366.727	43.026	0.104	0.094
-365.712	188.304	0.077	0.114
-364.698	-200.000	-0.011	0.160
-363.683	63.103	0.155	-0.154
-362.669	419.155	-0.082	0.175
-361.654	-200.000	0.023	-0.172
-360.639	-200.000	-0.041	-0.182
-359.625	-162.609	0.111	-0.005
-358.610	-2.030	-0.127	0.089
-357.596	800.000	0.037	-0.108
-356.581	86.003	0.244	0.266
-355.566	284.034	-0.110	-0.196
-354.552	23.343	-0.190	-0.155
-353.537	-200.000	0.086	-0.423
-352.523	6.252	0.171	0.126
-351.508	190.472	-0.045	-0.067
-350.493	53.529	-0.168	0.160
-349.479	455.378	0.027	0.059
-348.464	116.960	0.069	0.084
-347.450	334.284	0.123	-0.235
-346.435	-99.848	0.086	-0.021
-345.420	726.500	0.109	0.289
-344.406	-200.000	-0.037	-0.487
-343.391	-170.550	0.171	0.006
-342.377	142.058	0.180	0.237
-341.362	64.598	-0.103	0.103
-340.348	-162.513	-0.256	-0.013
-339.333	-37.345	-0.069	-0.037
-338.318	800.000	-0.039	-0.134
-337.304	65.758	-0.291	0.292
-336.289	565.707	0.101	-0.244
-335.275	31.737	0.173	-0.147
-334.260	-200.000	-0.011	-0.079
-333.245	-42.089	0.214	-0.109
-332.231	-200.000	0.045	-0.258
-331.216	45.440	0.161	-0.147
-330.202	-200.000	0.009	-0.226
-329.187	-112.975	-0.173	0.034
-328.172	-25.533	0.301	-0.176
-327.158	800.000	-0.061	-0.221
-326.143	-60.671	-0.246	0.103
-325.129	-78.493	0.302	0.102
-324.114	78.717	0.238	-0.252
-323.099	91.844	-0.200	0.223
-322.085	-25.740	-0.121	-0.070
-321.070	199.389	0.077	-0.117
-320.056	-200.000	-0.010	-0.144
-319.041	-46.425	0.256	0.124
-318.026	597.030	-0.053	-0.131
-317.012	633.439	0.028	-0.069
-315.997	-80.460	0.410	-0.135
-314.983	-122.367	-0.335	0.054
-313.968	9.490	0.131	-0.098
-312.953	-121.144	0.172	0.028
-311.939	-96.142	0.209	-0.055
-310.924	-200.000	0.041	-0.324
-309.910	-73.822	0.071	-0.025
-308.895	65.445	0.266	0.267
-307.880	-69.604	-0.054	-0.020
-306.866	800.000	-0.076	-0.270
-305.851	311.785	0.112	0.208
-304.837	178.369	0.191	0.275
-303.822	-127.347	-0.347	0.050
-302.807	534.741	0.061	0.143
-301.793	406.867	0.170	0.355
-300.778	-63.214	0.171	0.070
-299.764	-109.437	0.413	-0.086
-298.749	-33.395	0.045	-0.024
-297.735	-181.820	0.214	-0.004
-296.720	214.719	-0.150	0.234
-295.705	264.014	0.169	0.290
-294.691	-79.014	-0.244	0.082
-293.676	-156.613	0.190	-0.012
-292.662	356.424	-0.101	-0.199
-291.647	-120.387	0.148	-0.025
-290.632	-33.029	-0.292	0.160
-289.618	-64.892	-0.274	-0.110
-288.603	416.108	0.054	-0.113
-287.589	-132.233	-0.306	0.039
-286.574	-128.493	-0.120	-0.017
-285.559	-12.851	0.350	-0.226
-284.545	1.226	-0.217	0.154
-283.530	200.735	0.151	0.230
-282.516	270.780	0.236	0.410
-281.501	-70.086	0.326	0.123
-280.486	-200.000	-0.033	0.185
-279.472	11.866	0.184	0.140
-278.457	218.024	0.285	0.449
-277.443	-113.613	-0.171	-0.033
-276.428	369.190	-0.103	0.205
-275.413	-200.000	0.028	-0.190
-274.399	-70.910	0.264	0.098
-273.384	325.557	-0.206	-0.390
-272.370	263.042	0.126	-0.216
-271.355	-39.143	-0.299	0.155
-270.340	-23.748	0.072	-0.043
-269.326	-134.519	-0.152	0.018
-268.311	800.000	-0.069	-0.227
-267.297	114.204	0.122	-0.147
-266.282	-200.000	-0.045	0.206
-265.267	-124.286	0.029	0.004
-264.253	-76.221	0.082	-0.028
-263.238	-200.000	-0.014	-0.264
-262.224	-48.643	0.338	-0.160
-261.209	800.000	-0.098	-0.270
-260.195	-200.000	-0.031	0.203
-259.180	800.000	-0.083	0.283
-258.165	701.379	0.084	-0.218
-257.151	287.941	0.055	-0.097
-256.136	-34.063	-0.337	0.183
-255.122	800.000	-0.096	0.336
-254.107	64.443	-0.052	0.051
-253.092	-99.602	-0.156	0.039
-252.078	-57.309	-0.278	-0.121
-251.063	23.739	0.244	0.198
-250.049	-200.000	-0.010	0.047
-249.034	-97.412	0.194	-0.050
-248.019	497.005	0.128	0.291
-247.005	800.000	-0.067	-0.280
-245.990	-128.106	-0.256	-0.036
-244.976	172.196	0.059	0.084
-243.961	93.973	-0.189	-0.212
-242.946	-200.000	0.003	-0.120
-241.932	-194.784	-0.123	-0.001
-240.917	175.697	-0.226	-0.323
-239.903	800.000	0.017	0.071
-238.888	86.487	-0.185	-0.202
-237.873	-143.666	-0.171	0.016
-236.859	800.000	0.077	0.256
-235.844	-23.208	0.078	-0.046
-234.830	-71.751	-0.162	-0.060
-233.815	273.049	0.201	0.350
-232.800	-11.773	-0.124	-0.081
-231.786	-75.726	-0.197	0.069
-230.771	-37.549	-0.242	0.127
-229.757	483.185	-0.130	0.291
-228.742	800.000	0.097	0.408
-227.727	-57.162	-0.092	-0.040
-226.713	-200.000	-0.014	-0.147
-225.698	-69.264	-0.125	0.047
-224.684	-3.474	0.219	0.150
-223.669	95.634	0.259	0.291
-222.655	-44.520	0.190	-0.094
-221.640	800.000	-0.028	-0.108
-220.625	478.405	0.069	-0.154
-219.611	-200.000	-0.053	0.653
-218.596	800.000	-0.037	0.144
-217.582	-121.036	-0.067	-0.011
-216.567	800.000	-0.066	-0.180
-215.552	-200.000	-0.036	0.188
-214.538	106.221	-0.033	-0.039
-213.523	-200.000	-0.006	-0.272
-212.509	55.864	0.154	-0.148
-211.494	-79.477	-0.135	0.045
-210.479	-26.401	-0.024	0.014
-209.465	-200.000	-0.054	0.241
-208.450	-71.993	0.245	-0.090
-207.436	-26.711	0.107	0.061
-206.421	100.144	-0.035	0.040
-205.406	5.363	-0.220	-0.160
-204.392	167.108	-0.262	0.366
-203.377	-28.406	0.292	0.166
-202.363	196.180	-0.115	0.173
-201.348	299.451	0.074	0.134
-200.333	600.222	-0.060	0.146
-199.319	-200.000	-0.014	0.256
-198.304	-200.000	0.020	-0.128
-197.290	70.290	0.136	0.138
-196.275	-110.816	0.356	0.072
-195.260	55.530	-0.183	-0.174
-194.246	-169.036	-0.330	0.012
-193.231	-113.775	-0.393	-0.075
-192.217	-43.505	-0.135	-0.067
-191.202	293.402	0.062	-0.111
-190.187	-62.697	0.512	0.209
-189.173	335.909	-0.032	-0.062
-188.158	-130.357	-0.383	0.051
-187.144	71.639	-0.040	0.041
-186.129	-200.000	-0.008	0.096
-185.114	800.000	-0.027	0.086
-184.100	-105.504	0.162	-0.036
-183.085	-200.000	0.023	-0.185
-182.071	522.640	-0.097	0.224
-181.056	19.450	-0.266	0.210
-180.042	-102.744	-0.347	0.081
-179.027	39.421	0.040	0.035
-178.012	800.000	-0.025	0.091
-176.998	63.396	-0.218	0.215
-175.983	-200.000	-0.033	0.210
-174.969	135.224	0.157	-0.200
-173.954	-78.820	-0.236	0.079
-172.939	-10.498	-0.060	-0.039
-171.925	-45.242	0.400	-0.196
-170.910	-52.693	0.067	-0.031
-169.896	13.666	0.149	-0.114
-168.881	33.334	-0.176	-0.150
-167.866	-2.563	0.147	-0.102
-166.852	231.858	-0.109	0.176
-165.837	800.000	0.043	-0.130
-164.823	-155.561	0.123	-0.008
-163.808	-200.000	0.039	-0.356
-162.793	144.237	-0.041	0.054
-161.779	-200.000	-0.008	-0.058
-160.764	-200.000	-0.009	0.049
-159.750	258.146	0.112	-0.190
-158.735	-106.197	0.048	-0.011
-157.720	129.540	-0.135	0.170
-156.706	-200.000	-0.010	0.187
-155.691	-34.126	0.384	-0.207
-154.677	180.126	0.032	0.047
-153.662	121.961	0.072	-0.089
-152.647	60.259	-0.097	0.094
-151.633	107.928	-0.168	0.197
-150.618	-165.170	-0.291	-0.013
-149.604	-200.000	0.047	-0.314
-148.589	379.669	0.117	-0.236
-147.574	49.558	0.111	0.103
-146.560	17.809	0.253	0.198
-145.545	-82.244	0.155	-0.050
-144.531	-9.685	0.004	-0.003
-143.516	-200.000	-0.005	-0.325
-142.502	800.000	-0.043	-0.177
-141.487	-98.027	-0.121	-0.031
-140.472	-200.000	-0.037	0.239
-139.458	800.000	-0.056	-0.227
-138.443	277.535	-0.057	0.100
-137.429	-200.000	0.016	0.125
-136.414	176.071	0.161	-0.229
-135.399	-200.000	0.018	0.138
-134.385	19.988	0.149	0.118
-133.370	55.748	0.237	-0.225
-132.356	-200.000	-0.030	-0.173
-131.341	-85.605	0.217	0.066
-130.326	367.735	-0.122	-0.241
-129.312	-200.000	-0.041	-0.275
-128.297	32.896	0.100	0.085
-127.283	285.027	0.120	0.212
-126.268	-27.232	-0.263	0.150
-125.253	800.000	0.115	-0.358
-124.239	108.026	-0.114	-0.133
-123.224	76.358	0.104	0.108
-122.210	-200.000	0.031	0.258
-121.195	8.773	-0.168	0.124
