DTS Sentinel unit serial number:	SN413079Multiplexer serial number:	ORYXHardware model number:	OX4-SRSoftware version number:	ORYX F/W v4.00 Oryx Data Collector v3.7.2.0data status	okinstallation	princeton_trtdifferential loss correction	single-endedforward channel	channel 2reverse channel	N/Adate	2019/09/18time	23:47:35forward acquisition time	60.00reverse acquisition time	0.00gamma	496.2192k internal	0.2352k external	0.2352temperature offset calibration	1.0015default loss term (dB/km)	0.3790temperature slope calibration	1.0000multiplexer offset coefficient	1.0000multiplexer slope coefficient	1.0000fibre end	0.00T internal ref (°C)	23.37T ext. ref 1 (°C)	0.76T ext. ref 2 (°C)	16.20length (m)	temperature (°C)	Stokes	anti-Stokes-747.200	-200.000	-0.038	0.184
-746.185	81.001	-0.155	0.167
-745.171	11.114	-0.315	-0.241
-744.156	34.792	-0.166	0.145
-743.142	362.065	0.067	0.135
-742.127	-41.619	-0.393	-0.201
-741.112	-156.763	0.197	0.012
-740.098	398.263	-0.115	0.239
-739.083	17.494	0.142	-0.113
-738.069	-200.000	-0.002	-0.031
-737.054	-43.108	-0.055	0.028
-736.039	66.659	-0.199	0.202
-735.025	100.234	0.093	-0.108
-734.010	66.411	-0.069	-0.070
-732.996	-47.751	-0.147	0.071
-731.981	-200.000	0.033	0.257
-730.966	800.000	-0.061	-0.263
-729.952	-63.572	-0.314	0.129
-728.937	279.614	-0.047	0.083
-727.923	-100.279	-0.236	-0.058
-726.908	-48.671	0.345	0.165
-725.894	-22.878	0.096	-0.058
-724.879	-154.256	0.115	-0.008
-723.864	-68.867	0.109	-0.042
-722.850	800.000	-0.027	-0.076
-721.835	52.023	-0.128	-0.122
-720.821	-124.305	0.165	0.026
-719.806	30.657	-0.154	0.131
-718.791	800.000	0.111	-0.326
-717.777	-62.096	-0.135	0.056
-716.762	386.045	-0.064	-0.131
-715.748	800.000	0.128	0.506
-714.733	-55.377	0.127	0.057
-713.718	-15.486	-0.228	-0.145
-712.704	-81.261	0.480	-0.158
-711.689	137.142	0.084	0.110
-710.675	-200.000	0.009	-0.299
-709.660	-117.475	-0.122	0.022
-708.645	-77.904	-0.478	-0.164
-707.631	14.831	-0.108	0.084
-706.616	800.000	-0.037	0.125
-705.602	-143.930	0.232	0.022
-704.587	27.903	0.201	-0.169
-703.572	800.000	0.071	-0.254
-702.558	-114.620	0.016	0.003
-701.543	74.532	-0.231	0.242
-700.529	384.183	-0.204	-0.419
-699.514	-99.810	0.257	0.064
-698.499	-200.000	-0.039	-0.206
-697.485	-200.000	0.003	-0.184
-696.470	176.008	-0.039	-0.056
-695.456	-112.900	0.308	0.061
-694.441	800.000	-0.102	-0.332
-693.426	155.429	-0.224	0.306
-692.412	-162.913	0.214	0.010
-691.397	-77.677	-0.109	0.037
-690.383	800.000	0.020	0.057
-689.368	-111.260	-0.368	-0.075
-688.354	498.810	-0.082	-0.187
-687.339	140.616	0.046	0.061
-686.324	212.536	0.061	-0.096
-685.310	-81.616	-0.076	-0.025
-684.295	443.680	0.008	-0.018
-683.281	-37.566	-0.171	-0.091
-682.266	-128.094	-0.151	0.021
-681.251	-5.051	-0.290	0.199
-680.237	-42.658	-0.164	-0.083
-679.222	49.512	-0.058	0.054
-678.208	-64.549	-0.154	-0.062
-677.193	800.000	-0.061	0.235
-676.178	-9.987	-0.343	-0.227
-675.164	9.047	-0.376	0.282
-674.149	-105.971	0.338	0.076
-673.135	-200.000	-0.002	0.303
-672.120	186.382	-0.078	-0.116
-671.105	-120.594	-0.387	0.065
-670.091	800.000	-0.094	0.280
-669.076	83.920	0.229	-0.249
-668.062	389.972	-0.093	0.192
-667.047	800.000	-0.039	-0.108
-666.032	-200.000	-0.084	-0.432
-665.018	218.774	0.216	-0.343
-664.003	-40.441	-0.054	-0.028
-662.989	-200.000	-0.029	-0.197
-661.974	197.917	0.083	0.125
-660.959	397.025	-0.145	0.302
-659.945	-200.000	-0.009	0.082
-658.930	-36.822	-0.330	-0.176
-657.916	160.035	-0.198	-0.274
-656.901	33.666	-0.123	0.106
-655.886	501.128	0.172	0.394
-654.872	-137.010	-0.155	0.018
-653.857	-139.238	-0.311	-0.033
-652.843	93.547	0.197	-0.222
-651.828	-150.047	0.087	-0.007
-650.814	-52.714	0.164	-0.075
-649.799	-200.000	0.022	-0.279
-648.784	-82.593	-0.106	-0.034
-647.770	-184.918	-0.173	-0.003
-646.755	-200.000	-0.010	-0.253
-645.741	-200.000	-0.034	0.182
-644.726	-57.076	-0.308	0.135
-643.711	173.040	0.081	-0.115
-642.697	160.404	-0.181	-0.251
-641.682	-149.859	0.234	0.018
-640.668	-178.113	-0.300	0.007
-639.653	164.150	-0.095	0.133
-638.638	800.000	-0.056	0.167
-637.624	-200.000	-0.009	-0.216
-636.609	121.721	-0.054	-0.066
-635.595	-56.927	-0.167	0.073
-634.580	31.909	-0.224	-0.191
-633.565	-80.945	-0.159	0.052
-632.551	-14.511	0.125	0.080
-631.536	-171.648	0.116	0.004
-630.522	163.902	-0.084	-0.117
-629.507	181.841	-0.074	-0.108
-628.492	-32.576	-0.524	0.290
-627.478	-200.000	-0.002	0.040
-626.463	-200.000	-0.024	-0.113
-625.449	-94.899	0.140	0.038
-624.434	-39.689	0.165	-0.086
-623.419	800.000	0.025	-0.083
-622.405	-109.909	0.067	-0.014
-621.390	800.000	0.044	0.129
-620.376	169.260	0.259	0.367
-619.361	271.727	-0.275	-0.482
-618.346	138.779	-0.255	-0.333
-617.332	-200.000	-0.024	0.226
-616.317	-200.000	-0.028	0.134
-615.303	-51.697	0.169	-0.078
-614.288	-200.000	0.045	0.353
-613.273	141.416	0.112	0.147
-612.259	56.413	0.170	-0.164
-611.244	191.529	0.155	-0.232
-610.230	-123.544	-0.211	0.033
-609.215	-200.000	-0.000	0.025
-608.201	180.660	0.167	0.243
-607.186	23.878	0.121	0.099
-606.171	38.520	0.040	0.036
-605.157	-200.000	0.055	-0.457
-604.142	200.840	0.156	0.239
-603.128	764.004	-0.068	-0.183
-602.113	6.052	0.203	0.149
-601.098	289.017	-0.066	-0.118
-600.084	800.000	0.076	0.323
-599.069	-40.566	0.177	-0.091
-598.055	-64.437	-0.209	-0.084
-597.040	-86.213	0.119	0.036
-596.025	422.649	-0.072	0.154
-595.011	-200.000	-0.037	-0.228
-593.996	77.643	-0.067	-0.071
-592.982	-20.081	0.325	-0.199
-591.967	-75.336	0.063	0.022
-590.952	-82.011	-0.214	-0.069
-589.938	101.515	0.352	0.407
-588.923	-23.524	-0.188	0.112
-587.909	-91.458	-0.232	-0.066
-586.894	48.120	-0.243	0.226
-585.879	619.261	-0.026	-0.064
-584.865	-200.000	0.044	-0.295
-583.850	-52.067	0.129	-0.059
-582.836	-73.316	0.131	-0.047
-581.821	252.308	-0.046	0.077
-580.806	217.635	-0.266	0.420
-579.792	-200.000	0.004	0.118
-578.777	-39.989	0.213	0.110
-577.763	-111.583	-0.266	-0.053
-576.748	-64.929	0.253	0.101
-575.733	106.684	-0.146	0.172
-574.719	-187.371	0.119	0.002
-573.704	-61.353	-0.205	-0.086
-572.690	-200.000	0.030	0.135
-571.675	-5.277	-0.088	0.060
-570.661	-2.074	0.138	0.096
-569.646	-128.297	0.395	0.056
-568.631	631.405	-0.076	0.190
-567.617	434.986	-0.109	0.235
-566.602	-149.884	-0.307	-0.024
-565.588	800.000	-0.028	0.118
-564.573	-200.000	0.070	-0.359
-563.558	-89.804	-0.253	0.073
-562.544	-58.826	-0.140	0.060
-561.529	295.611	0.120	-0.218
-560.515	-200.000	0.014	-0.178
-559.500	800.000	-0.033	0.129
-558.485	188.127	0.060	-0.088
-557.471	18.530	-0.117	0.093
-556.456	-128.479	0.087	0.012
-555.442	-107.126	0.052	-0.011
-554.427	-41.175	0.312	-0.160
-553.412	-32.952	-0.340	0.187
-552.398	344.802	-0.092	0.179
-551.383	37.912	-0.107	-0.094
-550.369	267.898	0.009	-0.015
-549.354	103.055	-0.105	0.122
-548.339	689.716	-0.080	0.208
-547.325	370.774	0.058	-0.117
-546.310	-200.000	0.009	-0.122
-545.296	57.191	-0.072	-0.070
-544.281	-62.061	0.075	0.031
-543.266	-200.000	-0.023	0.105
-542.252	702.594	-0.030	0.079
-541.237	-70.225	0.063	0.024
-540.223	-73.318	0.171	-0.062
-539.208	-200.000	-0.038	0.425
-538.193	-148.341	0.344	0.028
-537.179	34.511	-0.160	0.138
-536.164	-77.302	-0.227	-0.078
-535.150	394.990	-0.109	-0.224
-534.135	-56.860	-0.286	0.125
-533.121	89.967	-0.277	0.306
-532.106	-75.075	0.113	-0.040
-531.091	800.000	-0.015	-0.041
-530.077	-71.248	-0.041	0.015
-529.062	-200.000	0.011	0.070
-528.048	-60.812	0.196	-0.082
-527.033	-135.848	-0.519	0.061
-526.018	-200.000	0.050	0.310
-525.004	-34.020	-0.053	-0.029
-523.989	35.091	-0.158	-0.137
-522.975	-69.802	-0.251	0.095
-521.960	-168.326	-0.172	-0.007
-520.945	20.109	-0.229	-0.183
-519.931	-99.422	0.263	0.066
-518.916	800.000	-0.163	-0.446
-517.902	-128.806	0.190	0.027
-516.887	756.499	0.098	-0.263
-515.872	-49.670	-0.015	-0.007
-514.858	-130.904	-0.248	-0.033
-513.843	-65.918	-0.185	-0.073
-512.829	-200.000	-0.024	-0.306
-511.814	-200.000	-0.023	0.153
-510.799	800.000	0.182	0.564
-509.785	-88.786	0.043	0.013
-508.770	-200.000	0.005	0.190
-507.756	-76.178	-0.220	-0.077
-506.741	-40.131	-0.168	-0.086
-505.726	-110.624	0.087	0.018
-504.712	-147.425	0.290	-0.024
-503.697	-200.000	0.035	0.257
-502.683	-82.726	0.231	-0.074
-501.668	-44.812	0.021	-0.010
-500.653	-35.278	-0.025	-0.013
-499.639	271.435	-0.114	-0.198
-498.624	-154.397	0.133	-0.009
-497.610	-80.632	-0.545	-0.179
-496.595	-94.638	-0.332	-0.089
-495.581	51.364	-0.238	-0.223
-494.566	-159.953	0.210	0.011
-493.551	-144.347	-0.249	-0.023
-492.537	800.000	0.082	-0.261
-491.522	189.194	0.085	0.126
-490.508	-45.865	-0.054	0.026
-489.493	450.626	0.081	-0.176
-488.478	-200.000	-0.009	-0.112
-487.464	46.545	0.240	-0.220
-486.449	-131.718	0.344	-0.045
-485.435	-200.000	-0.010	0.244
-484.420	636.278	-0.040	-0.101
-483.405	-164.561	0.376	0.017
-482.391	142.747	-0.116	0.152
-481.376	800.000	-0.032	0.123
-480.362	-107.459	0.083	-0.018
-479.347	-92.838	-0.168	0.046
-478.332	-47.878	0.266	-0.127
-477.318	-75.798	0.182	-0.064
-476.303	24.592	-0.081	-0.066
-475.289	-74.829	0.152	-0.054
-474.274	-109.459	0.428	0.089
-473.259	303.255	0.156	-0.286
-472.245	-200.000	0.081	-0.384
-471.230	363.862	-0.053	-0.105
-470.216	-70.582	0.335	0.125
-469.201	12.599	-0.111	0.084
-468.186	-179.304	-0.139	-0.003
-467.172	137.190	-0.182	0.235
-466.157	-7.279	0.282	0.189
-465.143	-92.323	0.141	0.039
-464.128	800.000	0.034	0.105
-463.113	800.000	-0.074	0.309
-462.099	-64.440	-0.181	0.073
-461.084	800.000	-0.127	-0.348
-460.070	-62.163	0.254	0.105
-459.055	74.309	-0.102	-0.105
-458.040	-191.786	-0.251	-0.002
-457.026	-29.097	-0.195	0.110
-456.011	-90.737	0.281	0.080
-454.997	223.745	0.179	0.286
-453.982	105.019	0.073	-0.085
-452.968	-200.000	-0.001	0.182
-451.953	633.252	-0.154	-0.385
-450.938	-200.000	-0.007	-0.268
-449.924	-162.509	-0.163	-0.008
-448.909	800.000	-0.115	-0.328
-447.895	-122.190	-0.291	0.047
-446.880	723.063	0.069	0.181
-445.865	82.725	0.101	-0.108
-444.851	-54.738	0.136	-0.061
-443.836	152.932	0.039	0.052
-442.822	-200.000	0.025	-0.111
-441.807	-84.290	-0.195	0.061
-440.792	740.228	-0.044	-0.117
-439.778	800.000	0.117	0.427
-438.763	181.361	0.077	0.112
-437.749	150.141	0.147	-0.196
-436.734	-200.000	0.021	0.130
-435.719	-19.470	-0.299	-0.182
-434.705	-200.000	0.013	-0.069
-433.690	-151.225	0.458	0.034
-432.676	800.000	-0.060	-0.233
-431.661	116.427	-0.427	-0.516
-430.646	-10.063	0.262	0.172
-429.632	-176.786	-0.239	-0.006
-428.617	-34.135	0.207	-0.112
-427.603	-119.892	-0.491	-0.083
-426.588	-162.295	-0.055	-0.003
-425.573	562.446	-0.015	-0.035
-424.559	111.870	-0.330	-0.393
-423.544	11.563	-0.137	-0.103
-422.530	66.853	-0.044	-0.044
-421.515	-200.000	0.060	0.383
-420.500	688.376	0.045	-0.115
-419.486	191.673	-0.026	-0.039
-418.471	-57.432	-0.057	0.025
-417.457	-200.000	0.023	0.233
-416.442	-146.561	-0.162	0.014
-415.428	-200.000	-0.031	-0.290
-414.413	62.131	0.132	0.130
-413.398	800.000	0.104	-0.325
-412.384	-118.983	0.296	-0.051
-411.369	-190.676	0.206	0.002
-410.355	-42.059	-0.497	-0.250
-409.340	189.931	0.209	-0.309
-408.325	178.269	-0.064	-0.093
-407.311	196.912	-0.165	-0.248
-406.296	66.760	0.055	-0.056
-405.282	-54.180	-0.117	0.052
-404.267	-149.411	-0.298	-0.023
-403.252	61.324	0.337	0.329
-402.238	207.358	0.102	-0.156
-401.223	298.700	0.070	-0.127
-400.209	112.379	-0.273	-0.325
-399.194	800.000	0.050	-0.147
-398.179	16.887	0.198	-0.155
-397.165	-129.538	-0.425	-0.058
-396.150	20.170	-0.197	-0.156
-395.136	800.000	0.087	0.315
-394.121	62.326	-0.144	-0.141
-393.106	-200.000	0.022	0.139
-392.092	-200.000	-0.051	0.265
-391.077	-200.000	0.028	-0.268
-390.063	-79.205	-0.181	-0.060
-389.048	17.877	-0.296	0.232
-388.033	800.000	-0.045	-0.179
-387.019	128.251	0.131	0.163
-386.004	-145.984	0.139	0.012
-384.990	800.000	-0.113	0.441
-383.975	605.207	-0.020	-0.049
-382.960	3.546	0.150	0.108
-381.946	606.071	0.095	-0.234
-380.931	68.170	-0.073	0.073
-379.917	35.036	0.018	-0.016
-378.902	107.300	-0.059	-0.069
-377.888	-32.712	-0.077	0.042
-376.873	208.095	-0.074	0.114
-375.858	46.578	0.174	-0.158
-374.844	-119.456	0.085	-0.014
-373.829	-200.000	-0.022	0.134
-372.815	-200.000	0.030	-0.136
-371.800	800.000	0.040	-0.147
-370.785	800.000	0.067	0.239
-369.771	71.737	-0.077	0.079
-368.756	523.116	0.183	-0.422
-367.742	-71.156	-0.112	-0.041
-366.727	-200.000	0.016	-0.167
-365.712	-200.000	0.026	-0.258
-364.698	-200.000	-0.077	-0.358
-363.683	-200.000	-0.029	0.299
-362.669	-200.000	0.020	-0.428
-361.654	60.243	-0.170	-0.166
-360.639	209.724	0.162	-0.250
-359.625	21.768	-0.209	0.168
-358.610	-200.000	-0.002	-0.127
-357.596	5.197	-0.271	0.196
-356.581	39.325	-0.187	-0.165
-355.566	-113.898	-0.220	0.042
-354.552	374.123	0.095	0.191
-353.537	-200.000	0.034	0.285
-352.523	508.913	0.129	-0.295
-351.508	85.794	-0.036	0.039
-350.493	-149.147	0.138	-0.011
-349.479	-200.000	0.087	0.464
-348.464	-75.745	0.454	0.158
-347.450	-200.000	-0.001	0.027
-346.435	-6.670	0.191	0.128
-345.420	-200.000	0.012	0.246
-344.406	520.771	0.133	0.306
-343.391	-11.790	0.299	0.192
-342.377	-92.219	-0.191	-0.053
-341.362	301.773	0.131	-0.237
-340.348	166.405	0.037	0.052
-339.333	-49.851	0.195	-0.091
-338.318	392.291	-0.055	0.113
-337.304	331.090	0.103	-0.195
-336.289	-200.000	-0.040	0.250
-335.275	-157.525	0.387	0.023
-334.260	-151.213	-0.385	0.028
-333.245	86.481	0.108	0.117
-332.231	-121.011	-0.349	-0.057
-331.216	-150.328	-0.426	-0.032
-330.202	-162.227	0.358	-0.018
-329.187	735.371	0.035	-0.093
-328.172	-151.699	-0.216	-0.016
-327.158	-200.000	0.038	-0.255
-326.143	-71.570	0.272	0.100
-325.129	800.000	0.047	0.180
-324.114	-200.000	0.057	-0.299
-323.099	94.632	0.108	0.121
-322.085	23.825	0.292	-0.237
-321.070	-78.340	0.173	0.058
-320.056	-16.379	-0.011	-0.007
-319.041	-18.133	-0.166	-0.102
-318.026	800.000	-0.053	0.220
-317.012	-97.563	0.376	0.096
-315.997	-40.421	-0.046	0.023
-314.983	-200.000	-0.000	0.330
-313.968	359.905	0.048	0.094
-312.953	17.918	-0.306	0.239
-311.939	-200.000	0.003	0.036
-310.924	-92.442	-0.208	-0.057
-309.910	88.416	0.114	-0.124
-308.895	800.000	-0.023	-0.088
-307.880	-20.423	0.211	-0.127
-306.866	-77.603	-0.130	0.044
-305.851	-125.674	-0.242	0.036
-304.837	21.909	-0.095	0.076
-303.822	351.060	0.127	0.246
-302.807	506.399	0.046	0.104
-301.793	659.180	-0.123	-0.309
-300.778	-200.000	-0.010	0.472
-299.764	-200.000	-0.028	-0.236
-298.749	-125.977	0.342	0.050
-297.735	-122.904	-0.350	-0.055
-296.720	156.949	-0.086	0.116
-295.705	88.870	-0.115	-0.125
-294.691	-42.930	0.127	0.063
-293.676	85.771	0.225	0.242
-292.662	413.216	0.095	-0.199
-291.647	-124.124	0.244	-0.037
-290.632	800.000	0.104	0.395
-289.618	500.606	-0.026	0.058
-288.603	28.939	0.171	-0.142
-287.589	-90.975	0.190	0.053
-286.574	-200.000	0.056	-0.274
-285.559	124.962	0.242	0.299
-284.545	-78.187	-0.067	0.023
-283.530	-80.460	0.283	0.092
-282.516	-106.994	0.232	-0.050
-281.501	74.083	0.125	0.129
-280.486	372.381	-0.195	0.388
-279.472	-97.154	0.270	0.069
-278.457	-44.006	0.078	0.038
-277.443	125.043	-0.108	0.133
-276.428	163.169	0.077	0.106
-275.413	175.223	-0.226	0.321
-274.399	-64.898	-0.229	-0.091
-273.384	800.000	0.057	-0.196
-272.370	46.786	-0.296	0.269
-271.355	319.933	0.006	0.012
-270.340	11.044	-0.164	0.123
-269.326	-78.051	0.209	-0.071
-268.311	-200.000	-0.106	-0.571
-267.297	-28.961	0.192	0.108
-266.282	800.000	-0.100	0.369
-265.267	-41.809	-0.156	-0.078
-264.253	59.995	-0.200	-0.193
-263.238	-143.399	0.121	0.011
-262.224	-1.043	-0.324	0.225
-261.209	800.000	0.015	-0.044
-260.195	-200.000	0.073	-0.414
-259.180	51.192	-0.093	-0.087
-258.165	-26.898	-0.178	-0.102
-257.151	422.920	0.032	-0.066
-256.136	686.162	-0.069	0.176
-255.122	251.375	-0.033	0.055
-254.107	-200.000	0.029	0.203
-253.092	800.000	0.137	0.386
-252.078	-185.683	0.295	-0.004
-251.063	107.459	0.117	-0.136
-250.049	-172.485	0.155	-0.005
-249.034	-50.092	0.162	-0.075
-248.019	18.594	-0.100	0.078
-247.005	800.000	-0.038	0.128
-245.990	800.000	0.124	0.386
-244.976	-71.690	0.181	-0.066
-243.961	53.730	0.332	0.312
-242.946	-116.379	-0.347	0.063
-241.932	-200.000	0.007	-0.240
-240.917	-200.000	0.027	0.199
-239.903	-38.333	0.340	-0.176
-238.888	-145.299	0.157	0.014
-237.873	379.794	-0.068	0.135
-236.859	-176.148	0.286	0.007
-235.844	59.202	0.256	-0.246
-234.830	128.028	0.177	0.220
-233.815	800.000	0.078	0.232
-232.800	155.769	0.155	0.208
-231.786	-150.626	-0.173	-0.013
-230.771	-99.951	-0.091	-0.022
-229.757	-56.677	0.211	0.091
-228.742	-200.000	-0.017	-0.152
-227.727	-200.000	-0.016	-0.263
-226.713	-80.169	0.238	-0.078
-225.698	455.644	-0.106	0.229
-224.684	4.463	0.095	-0.068
-223.669	102.175	-0.115	0.132
-222.655	-61.266	-0.105	0.043
-221.640	51.093	0.231	0.214
-220.625	800.000	0.078	-0.274
-219.611	-71.544	0.106	0.039
-218.596	-86.685	0.169	0.051
-217.582	493.601	0.018	-0.040
-216.567	87.660	0.201	-0.218
-215.552	394.770	-0.080	0.163
-214.538	-23.995	-0.139	0.081
-213.523	50.154	0.249	0.229
-212.509	-67.307	0.135	0.052
-211.494	-200.000	-0.003	0.164
-210.479	390.664	0.131	-0.265
-209.465	-24.539	0.201	-0.117
-208.450	-41.295	-0.021	0.011
-207.436	-200.000	-0.007	-0.347
-206.421	-40.618	0.135	-0.068
-205.406	-29.347	0.310	0.173
-204.392	376.212	-0.128	-0.255
-203.377	-158.714	-0.378	0.021
-202.363	-200.000	0.007	-0.256
-201.348	-75.706	-0.542	0.188
-200.333	-68.585	-0.072	-0.027
-199.319	31.485	0.194	0.163
-198.304	676.967	0.137	0.348
-197.290	-62.890	0.227	-0.092
-196.275	-3.203	-0.321	-0.218
-195.260	-110.868	0.257	0.052
-194.246	0.373	0.183	0.128
-193.231	-50.736	0.254	-0.117
-192.217	-183.049	-0.294	-0.005
-191.202	248.191	-0.115	0.190
-190.187	18.476	-0.291	0.227
-189.173	-179.883	-0.272	-0.006
-188.158	166.134	0.137	0.190
-187.144	-130.600	0.293	-0.039
-186.129	-39.524	0.173	0.089
-185.114	642.160	0.141	-0.352
-184.100	614.268	0.063	-0.155
-183.085	-200.000	-0.066	-0.328
-182.071	800.000	0.087	-0.279
-181.056	92.478	-0.299	-0.329
-180.042	62.613	0.267	-0.260
-179.027	664.651	-0.038	-0.095
-178.012	-135.362	-0.118	-0.014
-176.998	193.731	-0.160	-0.236
-175.983	-119.692	0.293	-0.049
-174.969	-159.306	-0.034	0.002
-173.954	173.182	0.064	-0.090
-172.939	369.088	0.042	0.083
-171.925	-69.270	-0.303	0.114
-170.910	552.890	-0.098	-0.229
-169.896	-200.000	0.060	0.261
-168.881	800.000	-0.034	-0.099
-167.866	361.629	-0.033	0.064
-166.852	-42.653	-0.041	0.020
-165.837	-18.459	-0.067	0.041
-164.823	-74.676	0.377	-0.132
-163.808	800.000	0.116	-0.320
-162.793	-200.000	-0.000	0.169
-161.779	-24.836	-0.428	-0.248
-160.764	800.000	0.086	0.238
-159.750	-138.370	-0.100	-0.011
-158.735	63.126	-0.342	0.334
-157.720	-200.000	-0.074	0.396
-156.706	-153.997	-0.189	0.013
-155.691	-200.000	-0.013	-0.187
-154.677	-200.000	0.020	0.516
-153.662	-200.000	-0.007	-0.386
-152.647	24.311	-0.195	-0.157
-151.633	349.719	-0.055	0.106
-150.618	312.633	0.173	0.317
-149.604	-60.667	-0.171	0.071
-148.589	81.221	0.076	0.080
-147.574	391.698	0.126	-0.256
-146.560	800.000	0.038	0.109
-145.545	-53.093	0.169	-0.076
-144.531	1.097	-0.086	0.060
-143.516	684.092	-0.037	-0.093
-142.502	-73.835	-0.139	-0.049
-141.487	-200.000	-0.055	0.319
-140.472	-111.334	0.287	-0.057
-139.458	303.042	-0.173	-0.313
-138.443	379.901	-0.092	0.184
-137.429	-110.669	0.313	0.063
-136.414	-200.000	0.060	-0.329
-135.399	-178.434	0.225	-0.005
-134.385	-200.000	0.092	0.443
-133.370	-200.000	-0.045	0.245
-132.356	-200.000	-0.004	0.022
-131.341	326.592	0.075	-0.141
-130.326	44.140	-0.193	-0.173
-129.312	-7.527	-0.245	0.161
-128.297	800.000	0.078	-0.213
-127.283	7.925	0.298	-0.217
-126.268	-41.213	0.226	0.113
-125.253	-200.000	0.020	-0.120
-124.239	-57.661	0.081	0.035
-123.224	-115.051	0.337	-0.062
-122.210	-107.262	0.181	0.039
