DTS Sentinel unit serial number:	SN413079Multiplexer serial number:	ORYXHardware model number:	OX4-SRSoftware version number:	ORYX F/W v4.00 Oryx Data Collector v3.7.2.0data status	okinstallation	princeton_trtdifferential loss correction	single-endedforward channel	channel 2reverse channel	N/Adate	2019/09/16time	05:07:35forward acquisition time	60.00reverse acquisition time	0.00gamma	496.2192k internal	0.2335k external	0.2335temperature offset calibration	0.9975default loss term (dB/km)	0.3790temperature slope calibration	1.0000multiplexer offset coefficient	1.0000multiplexer slope coefficient	1.0000fibre end	0.00T internal ref (°C)	27.19T ext. ref 1 (°C)	11.02T ext. ref 2 (°C)	22.15length (m)	temperature (°C)	Stokes	anti-Stokes-747.200	-149.932	0.108	-0.008
-746.185	31.409	-0.390	0.337
-745.171	200.473	0.098	0.151
-744.156	-88.213	0.102	-0.031
-743.142	92.468	0.261	0.296
-742.127	127.862	0.028	0.036
-741.112	-102.369	-0.193	0.046
-740.098	216.065	-0.042	0.067
-739.083	800.000	-0.021	-0.085
-738.069	-200.000	0.018	0.199
-737.054	-31.897	-0.189	-0.106
-736.039	-38.781	-0.123	0.065
-735.025	800.000	0.019	-0.070
-734.010	-200.000	-0.035	0.179
-732.996	31.146	0.041	-0.036
-731.981	-200.000	-0.007	-0.101
-730.966	-200.000	0.012	0.105
-729.952	40.812	0.030	0.027
-728.937	153.458	0.054	-0.075
-727.923	800.000	0.066	-0.218
-726.908	503.091	-0.133	-0.310
-725.894	14.770	0.241	-0.189
-724.879	-79.107	-0.268	-0.092
-723.864	750.926	0.137	-0.371
-722.850	100.429	-0.226	-0.263
-721.835	-105.261	-0.073	0.017
-720.821	-78.636	-0.064	0.022
-719.806	-73.498	-0.104	-0.038
-718.791	172.550	0.071	-0.102
-717.777	84.079	-0.126	0.138
-716.762	-78.569	-0.266	-0.091
-715.748	800.000	-0.138	-0.394
-714.733	-25.944	0.119	0.070
-713.718	0.340	-0.107	-0.077
-712.704	-65.099	-0.255	0.103
-711.689	71.358	-0.105	-0.109
-710.675	800.000	0.049	0.190
-709.660	-97.673	-0.189	-0.049
-708.645	205.395	0.037	-0.058
-707.631	-103.365	0.130	-0.031
-706.616	-58.447	-0.420	-0.183
-705.602	10.335	0.270	-0.206
-704.587	410.667	0.080	0.170
-703.572	-7.600	-0.114	-0.077
-702.558	800.000	-0.089	0.292
-701.543	33.727	0.074	-0.065
-700.529	-74.362	0.099	-0.036
-699.514	39.578	-0.044	0.040
-698.499	99.257	0.117	0.135
-697.485	-136.948	0.309	-0.036
-696.470	-181.797	0.139	-0.003
-695.456	-184.914	0.172	0.003
-694.441	-200.000	0.014	-0.187
-693.426	618.195	0.148	0.372
-692.412	36.157	-0.041	-0.036
-691.397	-200.000	-0.029	0.162
-690.383	18.624	-0.107	0.086
-689.368	-108.535	-0.163	-0.035
-688.354	-150.641	0.105	0.008
-687.339	800.000	0.045	-0.158
-686.324	184.405	0.147	-0.218
-685.310	-200.000	0.063	-0.520
-684.295	800.000	-0.156	-0.603
-683.281	-87.714	0.266	-0.080
-682.266	-200.000	0.026	0.472
-681.251	-103.902	0.291	-0.068
-680.237	136.073	-0.166	-0.217
-679.222	-138.695	-0.197	-0.022
-678.208	-193.161	0.116	0.001
-677.193	-39.844	0.308	0.161
-676.178	208.367	-0.129	0.202
-675.164	163.411	-0.210	-0.296
-674.149	-137.494	-0.270	0.031
-673.135	50.409	-0.213	0.202
-672.120	-52.947	0.138	-0.064
-671.105	257.287	-0.113	-0.195
-670.091	189.891	0.051	0.076
-669.076	-45.168	0.274	0.136
-668.062	-112.291	-0.251	0.050
-667.047	-174.007	0.506	0.015
-666.032	-200.000	0.012	-0.182
-665.018	211.384	0.057	0.089
-664.003	267.709	-0.109	0.191
-662.989	117.176	-0.130	0.161
-661.974	-38.135	0.241	-0.128
-660.959	800.000	-0.057	-0.224
-659.945	59.491	0.134	0.133
-658.930	235.481	-0.242	0.401
-657.916	-137.929	-0.243	0.027
-656.901	-84.841	0.151	0.048
-655.886	800.000	0.018	-0.076
-654.872	34.832	0.139	-0.121
-653.857	800.000	0.010	0.040
-652.843	375.280	-0.009	0.019
-651.828	-200.000	0.064	0.291
-650.814	-200.000	-0.000	0.069
-649.799	-200.000	0.030	0.156
-648.784	800.000	-0.106	-0.299
-647.770	120.628	0.187	-0.233
-646.755	-200.000	-0.058	-0.285
-645.741	-200.000	0.002	0.008
-644.726	25.836	-0.046	0.038
-643.711	-155.154	0.227	0.015
-642.697	448.580	0.071	-0.156
-641.682	40.504	0.294	-0.265
-640.668	800.000	0.008	0.024
-639.653	-7.352	-0.129	0.087
-638.638	43.703	-0.176	-0.161
-637.624	642.439	-0.071	0.182
-636.609	-103.006	0.240	-0.057
-635.595	-88.361	-0.454	0.136
-634.580	216.973	-0.160	0.254
-633.565	-37.231	-0.080	0.043
-632.551	242.916	0.067	0.112
-631.536	199.489	-0.108	0.166
-630.522	67.942	0.173	-0.177
-629.507	-200.000	-0.001	0.147
-628.492	-200.000	0.022	-0.137
-627.478	-138.732	0.315	-0.034
-626.463	-135.621	0.263	0.031
-625.449	-84.198	-0.178	0.056
-624.434	800.000	0.045	-0.142
-623.419	-107.366	-0.115	0.025
-622.405	-200.000	-0.014	0.141
-621.390	800.000	0.102	-0.306
-620.376	628.086	-0.076	0.191
-619.361	42.135	0.099	-0.090
-618.346	5.265	-0.241	-0.177
-617.332	-23.840	0.188	0.112
-616.317	-14.935	-0.090	0.058
-615.303	276.638	-0.170	0.303
-614.288	-96.263	0.170	-0.045
-613.273	-200.000	-0.003	-0.139
-612.259	25.045	0.259	-0.215
-611.244	-200.000	-0.027	0.236
-610.230	-112.675	0.293	0.058
-609.215	-77.729	0.118	-0.041
-608.201	-172.995	0.204	0.006
-607.186	800.000	0.065	-0.190
-606.171	39.875	0.092	-0.083
-605.157	-61.167	-0.365	-0.154
-604.142	-33.157	-0.265	0.147
-603.128	-107.144	0.153	0.034
-602.113	800.000	-0.072	-0.258
-601.098	-200.000	0.040	0.319
-600.084	-9.623	0.031	-0.020
-599.069	331.685	-0.042	0.082
-598.055	242.517	0.038	0.064
-597.040	347.567	0.028	-0.056
-596.025	36.055	0.273	-0.240
-595.011	499.723	-0.046	-0.105
-593.996	468.352	0.013	-0.028
-592.982	257.534	0.102	-0.175
-591.967	-56.973	-0.251	0.111
-590.952	49.004	-0.209	-0.196
-589.938	189.994	0.104	-0.156
-588.923	-200.000	0.000	0.176
-587.909	622.606	0.073	-0.183
-586.894	-168.079	-0.271	0.011
-585.879	40.786	-0.050	-0.045
-584.865	-200.000	-0.016	0.263
-583.850	-69.230	-0.055	0.021
-582.836	-44.310	0.093	0.047
-581.821	163.852	-0.139	0.195
-580.806	-82.993	0.234	-0.075
-579.792	-200.000	0.093	-0.429
-578.777	42.625	-0.152	0.138
-577.763	123.964	0.259	0.325
-576.748	14.401	-0.336	0.262
-575.733	-54.032	-0.226	0.103
-574.719	-10.164	0.090	-0.060
-573.704	-50.699	0.282	-0.133
-572.690	-46.445	0.145	-0.071
-571.675	-31.981	-0.417	0.233
-570.661	-200.000	-0.013	-0.194
-569.646	-41.836	-0.091	0.046
-568.631	14.291	0.131	0.102
-567.617	-173.875	0.163	0.005
-566.602	-51.058	-0.233	0.109
-565.588	96.327	0.304	0.347
-564.573	49.043	0.159	-0.149
-563.558	411.943	-0.095	-0.201
-562.544	24.879	0.186	-0.154
-561.529	379.573	0.048	0.099
-560.515	-137.914	0.265	0.030
-559.500	-96.375	0.227	0.060
-558.485	7.895	-0.103	0.077
-557.471	800.000	-0.137	-0.415
-556.456	-150.145	-0.243	0.019
-555.442	613.076	0.057	-0.142
-554.427	242.924	0.025	0.042
-553.412	71.193	0.160	0.165
-552.398	-76.872	-0.153	-0.053
-551.383	-77.343	0.163	0.056
-550.369	800.000	-0.088	0.249
-549.354	235.084	-0.154	-0.254
-548.339	-20.779	0.236	0.144
-547.325	-154.356	-0.271	0.018
-546.310	34.792	0.063	0.055
-545.296	-127.942	-0.124	0.018
-544.281	800.000	0.096	-0.265
-543.266	800.000	-0.043	0.144
-542.252	-68.283	0.158	0.061
-541.237	34.397	0.114	0.099
-540.223	-47.876	-0.202	-0.097
-539.208	58.743	-0.143	0.140
-538.193	-200.000	0.017	-0.417
-537.179	-103.193	-0.154	0.036
-536.164	463.651	-0.036	-0.080
-535.150	-107.699	-0.119	-0.026
-534.135	-66.900	-0.033	0.013
-533.121	110.812	0.045	0.054
-532.106	0.908	-0.090	-0.064
-531.091	-13.535	0.209	0.135
-530.077	-200.000	-0.010	-0.185
-529.062	509.672	0.097	0.224
-528.048	76.894	-0.212	0.224
-527.033	287.477	0.100	-0.181
-526.018	-200.000	0.001	0.134
-525.004	-200.000	-0.047	0.377
-523.989	318.242	-0.207	-0.390
-522.975	178.007	-0.087	0.127
-521.960	-80.194	-0.185	0.062
-520.945	-200.000	0.044	0.217
-519.931	45.869	-0.010	-0.009
-518.916	-84.730	-0.379	-0.119
-517.902	79.726	-0.268	0.287
-516.887	-21.397	0.068	-0.042
-515.872	-39.156	-0.018	-0.009
-514.858	-78.604	-0.183	-0.062
-513.843	255.376	-0.147	0.251
-512.829	3.861	0.142	-0.103
-511.814	800.000	-0.140	-0.534
-510.799	-200.000	0.010	0.152
-509.785	435.646	-0.061	0.132
-508.770	800.000	0.045	0.193
-507.756	622.201	0.112	-0.282
-506.741	72.532	-0.163	0.170
-505.726	-200.000	0.015	0.287
-504.712	-117.140	-0.266	0.048
-503.697	-200.000	0.003	-0.019
-502.683	-200.000	-0.228	0.000
-501.668	-142.366	0.113	-0.011
-500.653	-21.235	0.202	-0.123
-499.639	117.071	-0.031	-0.038
-498.624	800.000	-0.061	0.168
-497.610	-200.000	0.014	-0.160
-496.595	-200.000	0.004	-0.054
-495.581	307.904	-0.212	-0.393
-494.566	-42.930	0.178	0.090
-493.551	-28.537	-0.268	-0.154
-492.537	-0.175	-0.185	0.131
-491.522	141.332	0.102	0.134
-490.508	-126.676	-0.233	0.034
-489.493	-172.567	0.170	-0.005
-488.478	392.885	0.065	0.134
-487.464	-200.000	0.002	-0.143
-486.449	-179.306	0.287	-0.006
-485.435	-20.077	0.126	0.078
-484.420	449.661	-0.062	-0.136
-483.405	-90.133	-0.304	-0.088
-482.391	800.000	-0.053	-0.161
-481.376	800.000	0.120	0.431
-480.362	562.419	-0.099	-0.237
-479.347	-200.000	0.000	-0.120
-478.332	239.951	-0.127	-0.210
-477.318	-31.255	-0.243	0.136
-476.303	-158.165	-0.119	-0.007
-475.289	-135.224	-0.493	0.059
-474.274	75.723	0.138	0.145
-473.259	-200.000	-0.035	-0.357
-472.245	-38.356	0.216	-0.114
-471.230	-22.132	0.291	-0.176
-470.216	157.530	-0.151	-0.208
-469.201	-125.348	-0.045	-0.007
-468.186	-102.738	-0.100	0.024
-467.172	421.559	-0.026	0.055
-466.157	24.352	0.149	-0.122
-465.143	-200.000	-0.118	0.000
-464.128	217.629	-0.069	-0.109
-463.113	294.359	0.112	0.204
-462.099	-26.064	0.207	-0.121
-461.084	-54.746	-0.205	-0.092
-460.070	278.211	0.078	-0.138
-459.055	29.121	0.169	0.142
-458.040	578.358	0.153	0.373
-457.026	-200.000	-0.015	0.120
-456.011	-200.000	0.000	0.439
-454.997	-35.679	0.494	0.266
-453.982	-200.000	-0.021	0.103
-452.968	-83.407	-0.114	-0.036
-451.953	592.000	-0.055	-0.134
-450.938	-80.571	-0.311	0.103
-449.924	56.632	-0.163	-0.158
-448.909	-67.661	-0.131	-0.051
-447.895	-54.462	0.132	0.059
-446.880	-166.640	0.205	0.008
-445.865	-200.000	-0.004	0.054
-444.851	-114.683	0.258	-0.049
-443.836	53.034	0.105	-0.099
-442.822	-200.000	-0.021	-0.194
-441.807	-40.388	-0.091	-0.047
-440.792	141.076	-0.238	0.313
-439.778	71.661	0.252	0.260
-438.763	632.198	-0.142	-0.357
-437.749	-140.665	0.073	0.007
-436.734	-200.000	0.002	-0.100
-435.719	-109.337	0.242	-0.051
-434.705	-110.415	-0.100	-0.021
-433.690	-100.911	0.166	-0.040
-432.676	-14.921	-0.182	0.116
-431.661	800.000	0.147	0.505
-430.646	-145.947	0.067	0.006
-429.632	800.000	0.090	0.292
-428.617	-200.000	-0.002	0.164
-427.603	-200.000	0.029	-0.158
-426.588	-12.661	0.271	-0.175
-425.573	-97.423	0.149	-0.038
-424.559	800.000	0.177	0.545
-423.544	800.000	-0.052	-0.156
-422.530	56.384	-0.022	-0.022
-421.515	-58.405	-0.175	0.076
-420.500	-61.063	-0.114	-0.048
-419.486	-49.932	-0.252	0.119
-418.471	338.669	0.083	0.160
-417.457	-41.488	0.216	0.110
-416.442	-200.000	0.001	0.129
-415.428	5.601	-0.161	0.118
-414.413	-105.294	0.241	-0.054
-413.398	-75.306	0.161	0.057
-412.384	751.211	0.110	-0.295
-411.369	-26.857	0.241	-0.140
-410.355	210.323	0.047	-0.074
-409.340	-34.425	-0.137	0.074
-408.325	-43.474	-0.139	0.069
-407.311	592.129	0.026	-0.063
-406.296	79.297	0.100	-0.106
-405.282	166.878	0.241	0.340
-404.267	310.174	-0.070	-0.129
-403.252	11.508	0.091	-0.069
-402.238	779.613	-0.076	-0.206
-401.223	-41.885	0.042	-0.021
-400.209	-167.487	-0.258	0.010
-399.194	-94.137	-0.158	-0.043
-398.179	111.631	0.117	0.140
-397.165	-200.000	-0.043	0.262
-396.150	601.544	-0.107	0.265
-395.136	102.111	0.250	0.289
-394.121	-33.960	-0.360	0.196
-393.106	67.043	0.075	-0.076
-392.092	-64.291	0.234	-0.094
-391.077	-89.664	-0.243	-0.071
-390.063	-200.000	-0.007	-0.296
-389.048	800.000	0.011	-0.038
-388.033	-127.490	-0.147	0.021
-387.019	800.000	0.065	0.258
-386.004	48.444	0.213	0.198
-384.990	132.977	0.090	0.115
-383.975	-89.694	0.035	0.010
-382.960	-142.933	-0.152	0.015
-381.946	475.215	0.089	0.199
-380.931	-200.000	0.011	0.151
-379.917	182.744	0.167	-0.244
-378.902	-200.000	-0.024	-0.178
-377.888	800.000	0.052	-0.169
-376.873	-200.000	0.014	0.097
-375.858	800.000	0.076	-0.218
-374.844	-200.000	0.007	0.146
-373.829	-200.000	0.043	0.335
-372.815	-51.715	0.213	-0.098
-371.800	104.497	0.195	-0.227
-370.785	13.556	0.201	0.155
-369.771	1.832	0.422	0.301
-368.756	-39.663	0.042	0.022
-367.742	-200.000	-0.031	0.159
-366.727	-123.786	0.148	0.023
-365.712	222.077	-0.240	-0.382
-364.698	371.558	0.089	-0.180
-363.683	47.415	-0.121	0.112
-362.669	-200.000	-0.011	0.086
-361.654	-200.000	0.002	-0.047
-360.639	304.835	-0.162	0.298
-359.625	601.637	0.177	0.434
-358.610	-159.342	-0.052	0.003
-357.596	33.920	0.082	0.071
-356.581	-200.000	0.052	0.302
-355.566	6.714	0.140	-0.103
-354.552	544.286	-0.073	0.171
-353.537	-200.000	-0.060	0.354
-352.523	-104.700	0.269	-0.061
-351.508	800.000	-0.097	-0.270
-350.493	800.000	0.058	-0.236
-349.479	-200.000	-0.005	0.353
-348.464	-115.046	-0.457	0.086
-347.450	-135.007	0.288	-0.034
-346.435	-110.765	-0.397	0.081
-345.420	-161.655	0.478	0.024
-344.406	505.989	0.036	0.083
-343.391	42.874	0.085	0.077
-342.377	-18.559	-0.188	0.116
-341.362	-200.000	0.015	0.269
-340.348	-142.670	-0.320	0.031
-339.333	-176.502	0.523	0.013
-338.318	137.251	0.193	-0.250
-337.304	-137.871	0.107	-0.012
-336.289	800.000	0.056	-0.214
-335.275	-2.853	-0.255	0.176
-334.260	-145.550	-0.658	0.058
-333.245	71.869	0.302	-0.310
-332.231	229.683	0.087	-0.140
-331.216	505.079	-0.067	0.153
-330.202	244.686	-0.170	0.282
-329.187	458.755	0.222	0.488
-328.172	-200.000	0.013	-0.165
-327.158	293.458	0.172	-0.310
-326.143	81.176	0.114	0.122
-325.129	118.972	0.043	-0.053
-324.114	14.163	0.083	0.064
-323.099	9.831	0.181	-0.135
-322.085	-10.166	0.173	-0.113
-321.070	-124.130	-0.251	-0.039
-320.056	353.670	-0.056	0.110
-319.041	-114.956	0.160	0.030
-318.026	-30.711	0.099	0.056
-317.012	-13.481	-0.109	-0.070
-315.997	-30.611	0.335	-0.188
-314.983	225.114	-0.084	0.135
-313.968	-113.014	-0.252	0.049
-312.953	624.940	-0.084	-0.210
-311.939	172.107	0.106	-0.150
-310.924	-192.471	-0.096	0.001
-309.910	725.484	0.128	0.338
-308.895	-60.259	0.154	0.065
-307.880	-52.642	-0.216	-0.099
-306.866	-61.761	-0.355	0.147
-305.851	367.979	0.097	0.193
-304.837	72.813	0.059	-0.061
-303.822	-180.117	0.096	-0.002
-302.807	800.000	-0.023	0.075
-301.793	-37.038	0.007	-0.003
-300.778	-50.524	0.179	-0.083
-299.764	256.488	0.045	-0.076
-298.749	593.736	0.169	-0.412
-297.735	-99.295	-0.141	-0.035
-296.720	-72.983	0.262	0.095
-295.705	-100.267	-0.341	-0.084
-294.691	800.000	-0.030	0.124
-293.676	-146.433	0.202	-0.017
-292.662	140.114	-0.109	0.142
-291.647	-9.065	0.261	0.173
-290.632	-27.144	-0.236	0.136
-289.618	-37.245	0.065	0.034
-288.603	-67.241	-0.259	-0.101
-287.589	507.496	-0.063	0.143
-286.574	-54.747	0.422	-0.188
-285.559	63.982	-0.175	0.173
-284.545	484.338	0.093	0.208
-283.530	258.966	0.126	-0.214
-282.516	-8.815	0.117	-0.078
-281.501	-200.000	-0.015	0.151
-280.486	271.465	0.101	-0.175
-279.472	186.243	0.262	-0.385
-278.457	250.746	0.100	0.167
-277.443	-92.589	0.232	-0.064
-276.428	20.351	-0.360	0.287
-275.413	10.490	-0.124	-0.093
-274.399	145.443	-0.038	-0.050
-273.384	800.000	-0.095	-0.368
-272.370	-51.565	0.061	-0.028
-271.355	-99.780	0.036	0.009
-270.340	-43.432	-0.197	0.098
-269.326	800.000	0.094	-0.294
-268.311	-200.000	0.002	-0.047
-267.297	37.179	-0.195	-0.170
-266.282	125.858	0.117	0.145
-265.267	800.000	-0.019	0.051
-264.253	-96.622	0.479	0.124
-263.238	-6.319	-0.145	-0.098
-262.224	-200.000	-0.019	0.261
-261.209	-200.000	0.093	0.418
-260.195	28.958	-0.167	-0.140
-259.180	14.746	0.164	0.127
-258.165	73.456	0.303	-0.313
-257.151	25.089	0.235	-0.192
-256.136	800.000	0.121	-0.477
-255.122	136.619	-0.165	-0.212
-254.107	71.332	-0.147	0.150
-253.092	-200.000	0.035	-0.381
-252.078	-4.834	0.080	0.055
-251.063	-182.021	-0.178	0.003
-250.049	5.208	0.059	-0.043
-249.034	31.885	-0.289	-0.245
-248.019	-108.932	0.265	-0.056
-247.005	-112.349	0.224	-0.044
-245.990	244.539	0.035	-0.058
-244.976	99.865	0.102	-0.116
-243.961	130.858	0.097	0.123
-242.946	26.312	-0.345	-0.284
-241.932	64.191	-0.095	-0.094
-240.917	-47.143	0.244	-0.117
-239.903	85.416	-0.043	0.046
-238.888	-148.944	0.221	0.018
-237.873	800.000	0.084	-0.300
-236.859	-97.249	-0.118	0.030
-235.844	-103.808	0.279	-0.064
-234.830	195.556	0.194	-0.290
-233.815	149.290	0.068	-0.090
-232.800	-99.320	-0.090	0.022
-231.786	-141.215	0.253	0.025
-230.771	-117.712	0.199	-0.035
-229.757	-120.879	-0.127	-0.021
-228.742	-200.000	0.019	0.166
-227.727	-200.000	-0.016	-0.184
-226.713	401.442	-0.123	-0.253
-225.698	-60.431	-0.272	-0.114
-224.684	105.400	-0.170	-0.198
-223.669	-115.847	-0.255	-0.047
-222.655	-64.282	0.089	-0.036
-221.640	3.252	0.070	0.050
-220.625	369.847	-0.149	0.296
-219.611	731.465	-0.133	0.349
-218.596	112.325	0.212	0.252
-217.582	792.124	0.036	-0.098
-216.567	169.505	0.099	-0.139
-215.552	24.828	0.024	0.019
-214.538	-11.084	-0.171	0.111
-213.523	-40.936	0.221	-0.112
-212.509	-200.000	0.005	-0.175
-211.494	-152.705	0.076	0.005
-210.479	-51.020	-0.185	-0.085
-209.465	-200.000	0.020	0.183
-208.450	14.210	-0.166	-0.128
-207.436	-179.939	0.297	-0.006
-206.421	800.000	0.053	-0.150
-205.406	-104.611	0.104	0.024
-204.392	-79.409	-0.247	-0.082
-203.377	-200.000	-0.064	0.332
-202.363	166.611	0.246	-0.343
-201.348	19.067	0.052	0.041
-200.333	-32.392	0.104	0.057
-199.319	-153.341	-0.485	-0.033
-198.304	-106.867	-0.049	-0.011
-197.290	800.000	-0.049	-0.173
-196.275	166.392	0.136	0.189
-195.260	-74.350	-0.090	0.032
-194.246	-200.000	0.027	0.156
-193.231	199.065	0.130	-0.195
-192.217	64.032	-0.188	0.186
-191.202	185.540	-0.184	-0.268
-190.187	-9.433	-0.353	-0.232
-189.173	-19.416	-0.138	-0.084
-188.158	-139.847	-0.177	-0.018
-187.144	-166.825	-0.084	0.003
-186.129	96.247	0.117	-0.132
-185.114	-181.600	-0.381	-0.007
-184.100	116.267	-0.118	-0.142
-183.085	-27.800	0.044	-0.025
-182.071	-200.000	-0.004	-0.044
-181.056	1.233	-0.076	0.054
-180.042	-200.000	0.031	0.286
-179.027	-42.850	-0.350	0.175
-178.012	-64.754	-0.119	0.047
-176.998	-126.172	-0.392	-0.058
-175.983	-95.581	0.070	0.018
-174.969	123.288	-0.068	0.084
-173.954	175.319	-0.091	0.130
-172.939	800.000	0.035	0.110
-171.925	83.501	-0.036	-0.038
-170.910	-164.262	-0.279	0.013
-169.896	30.691	0.169	0.142
-168.881	-159.546	0.318	-0.017
-167.866	54.555	-0.005	-0.005
-166.852	66.223	-0.308	-0.307
-165.837	21.479	-0.301	0.241
-164.823	-64.884	-0.032	0.013
-163.808	-116.099	-0.108	0.020
-162.793	-121.070	0.082	-0.013
-161.779	773.951	0.018	0.049
-160.764	-200.000	0.019	-0.100
-159.750	-134.263	-0.149	-0.018
-158.735	43.765	0.120	0.108
-157.720	-144.743	-0.180	0.016
-156.706	-200.000	0.014	-0.207
-155.691	-91.109	-0.111	-0.031
-154.677	88.439	-0.084	-0.092
-153.662	-196.813	0.151	-0.001
-152.647	-67.458	-0.288	-0.111
-151.633	512.685	-0.116	-0.265
-150.618	-200.000	-0.002	-0.220
-149.604	-200.000	0.008	0.161
-148.589	-37.460	-0.297	-0.156
-147.574	-98.464	-0.339	0.085
-146.560	143.566	-0.054	-0.071
-145.545	-88.873	0.255	-0.074
-144.531	-100.281	-0.131	-0.032
-143.516	-200.000	-0.017	0.114
-142.502	11.982	-0.088	0.066
-141.487	466.534	0.098	0.216
-140.472	-16.711	0.141	-0.087
-139.458	569.413	-0.044	-0.105
-138.443	-44.198	0.063	0.031
-137.429	-23.072	-0.067	-0.040
-136.414	-200.000	0.020	-0.116
-135.399	800.000	0.067	-0.265
-134.385	-200.000	0.011	-0.301
-133.370	-200.000	0.000	-0.100
-132.356	-200.000	0.007	-0.146
-131.341	-155.023	0.130	-0.008
-130.326	-131.078	0.470	0.061
-129.312	-175.186	0.326	-0.009
-128.297	-102.627	0.228	0.053
-127.283	45.354	-0.143	-0.130
-126.268	58.627	-0.355	-0.342
-125.253	-81.634	0.098	0.032
-124.239	-109.061	0.055	0.011
-123.224	-109.132	0.500	-0.104
-122.210	309.455	0.094	-0.171
-121.195	243.853	-0.139	0.229
-120.180	171.223	-0.037	0.052
