DTS Sentinel unit serial number:	SN413079Multiplexer serial number:	ORYXHardware model number:	OX4-SRSoftware version number:	ORYX F/W v4.00 Oryx Data Collector v3.7.2.0data status	okinstallation	princeton_trtdifferential loss correction	single-endedforward channel	channel 2reverse channel	N/Adate	2019/09/12time	21:51:34forward acquisition time	60.00reverse acquisition time	0.00gamma	496.2192k internal	0.2329k external	0.2329temperature offset calibration	1.0175default loss term (dB/km)	0.3790temperature slope calibration	1.0000multiplexer offset coefficient	1.0000multiplexer slope coefficient	1.0000fibre end	0.00T internal ref (°C)	30.19T ext. ref 1 (°C)	3.73T ext. ref 2 (°C)	24.81length (m)	temperature (°C)	Stokes	anti-Stokes-747.200	453.921	-0.154	0.344
-746.185	-133.179	0.210	0.027
-745.171	-200.000	-0.000	-0.202
-744.156	800.000	-0.076	0.226
-743.142	-200.000	0.050	0.284
-742.127	222.592	0.050	-0.082
-741.112	800.000	-0.088	0.337
-740.098	15.424	-0.217	0.171
-739.083	107.884	-0.056	-0.067
-738.069	800.000	-0.039	0.129
-737.054	-37.098	-0.227	-0.122
-736.039	-180.399	-0.302	0.006
-735.025	800.000	-0.081	-0.304
-734.010	98.638	-0.355	-0.413
-732.996	-53.925	0.184	-0.085
-731.981	483.756	-0.229	0.525
-730.966	286.798	0.067	-0.122
-729.952	-75.179	-0.214	-0.077
-728.937	-153.350	0.384	0.027
-727.923	-100.467	-0.381	-0.095
-726.908	153.188	-0.208	0.286
-725.894	325.155	0.149	-0.287
-724.879	-165.407	-0.291	0.013
-723.864	131.214	0.129	0.167
-722.850	142.118	-0.133	-0.177
-721.835	700.879	-0.078	0.208
-720.821	-112.551	0.168	-0.034
-719.806	-127.084	-0.411	0.061
-718.791	74.010	-0.035	-0.037
-717.777	-78.402	-0.299	-0.103
-716.762	-113.750	0.338	-0.066
-715.748	-200.000	0.001	0.065
-714.733	-200.000	-0.036	-0.441
-713.718	800.000	-0.009	0.037
-712.704	-38.467	0.100	-0.053
-711.689	-200.000	-0.004	-0.050
-710.675	-167.396	0.306	-0.012
-709.660	124.342	0.118	0.150
-708.645	196.629	0.123	-0.188
-707.631	236.961	-0.107	0.178
-706.616	42.212	0.133	-0.121
-705.602	372.124	0.109	0.222
-704.587	315.167	-0.084	0.159
-703.572	-144.716	-0.074	-0.007
-702.558	-200.000	0.057	-0.288
-701.543	-185.279	-0.216	0.003
-700.529	121.678	-0.253	0.317
-699.514	36.928	-0.065	-0.058
-698.499	-200.000	0.019	-0.201
-697.485	-200.000	-0.016	-0.188
-696.470	222.038	-0.107	-0.173
-695.456	800.000	0.018	-0.056
-694.441	162.526	-0.144	0.202
-693.426	769.324	0.067	0.184
-692.412	-200.000	0.038	-0.224
-691.397	232.444	-0.140	-0.230
-690.383	730.581	0.063	-0.170
-689.368	362.880	0.030	-0.060
-688.354	-34.697	0.219	-0.120
-687.339	-11.022	0.109	0.072
-686.324	20.786	0.201	-0.164
-685.310	-27.014	0.394	-0.231
-684.295	-200.000	-0.038	-0.194
-683.281	100.358	-0.144	-0.168
-682.266	305.374	-0.011	0.021
-681.251	50.775	0.107	-0.102
-680.237	-36.619	0.166	-0.090
-679.222	-200.000	-0.007	-0.176
-678.208	178.223	0.169	0.248
-677.193	-200.000	-0.048	-0.230
-676.178	286.309	-0.115	-0.209
-675.164	-200.000	0.021	0.158
-674.149	298.011	-0.080	0.148
-673.135	-95.987	-0.150	-0.040
-672.120	-21.825	-0.278	-0.170
-671.105	107.169	-0.149	0.177
-670.091	-200.000	0.011	0.114
-669.076	800.000	0.071	-0.259
-668.062	-21.556	-0.253	-0.155
-667.047	-200.000	0.034	-0.172
-666.032	-79.800	0.223	-0.075
-665.018	51.275	0.183	-0.175
-664.003	266.663	0.090	-0.158
-662.989	800.000	-0.056	-0.201
-661.974	-34.974	0.372	-0.204
-660.959	-36.660	0.137	-0.074
-659.945	-200.000	-0.008	-0.367
-658.930	-104.110	-0.235	0.055
-657.916	-24.035	0.142	-0.085
-656.901	-200.000	-0.002	0.132
-655.886	-200.000	-0.024	0.244
-654.872	45.973	-0.175	0.163
-653.857	228.454	-0.104	0.170
-652.843	-200.000	0.073	-0.344
-651.828	46.303	-0.025	0.023
-650.814	122.489	-0.211	-0.265
-649.799	441.230	0.063	0.139
-648.784	-200.000	-0.035	-0.294
-647.770	-200.000	0.050	0.232
-646.755	-83.025	0.415	0.134
-645.741	55.521	-0.207	-0.201
-644.726	-101.369	0.219	0.053
-643.711	222.378	-0.032	-0.051
-642.697	63.119	0.119	-0.119
-641.682	-130.421	0.043	-0.006
-640.668	-2.997	-0.048	0.034
-639.653	119.192	-0.083	-0.103
-638.638	800.000	0.051	-0.170
-637.624	-31.145	0.134	-0.076
-636.609	149.536	-0.067	-0.091
-635.595	800.000	-0.108	0.315
-634.580	-200.000	-0.009	-0.108
-633.565	-200.000	-0.003	-0.053
-632.551	615.300	-0.137	-0.343
-631.536	-60.843	0.258	-0.109
-630.522	25.372	0.424	0.353
-629.507	-200.000	-0.003	0.032
-628.492	197.181	0.109	-0.167
-627.478	800.000	-0.116	-0.400
-626.463	-132.716	0.333	-0.043
-625.449	31.114	0.071	-0.061
-624.434	-50.211	-0.290	0.137
-623.419	219.762	0.151	-0.242
-622.405	-130.776	-0.202	0.027
-621.390	-115.725	0.519	-0.098
-620.376	-57.487	0.155	-0.068
-619.361	-20.176	-0.348	-0.215
-618.346	800.000	-0.028	0.095
-617.332	55.534	-0.235	0.228
-616.317	-200.000	-0.031	-0.186
-615.303	-156.966	0.141	-0.009
-614.288	-88.018	-0.406	-0.122
-613.273	44.332	0.226	-0.208
-612.259	176.050	-0.122	-0.177
-611.244	-200.000	-0.006	-0.212
-610.230	-87.867	-0.083	0.025
-609.215	27.139	-0.412	0.347
-608.201	-94.176	-0.119	0.033
-607.186	-200.000	0.065	-0.310
-606.171	-200.000	-0.013	-0.487
-605.157	148.065	0.035	-0.047
-604.142	341.985	-0.185	-0.362
-603.128	25.299	0.154	0.128
-602.113	-200.000	-0.014	-0.139
-601.098	800.000	0.073	-0.303
-600.084	800.000	-0.090	0.251
-599.069	800.000	-0.023	0.099
-598.055	2.813	-0.027	-0.019
-597.040	-159.336	-0.044	0.002
-596.025	-116.887	0.211	0.039
-595.011	-5.631	-0.092	-0.063
-593.996	-2.421	0.100	-0.070
-592.982	-76.692	-0.177	-0.062
-591.967	-200.000	-0.005	0.057
-590.952	-66.437	-0.108	-0.043
-589.938	-200.000	0.000	0.109
-588.923	2.168	-0.063	0.045
-587.909	435.669	-0.062	-0.136
-586.894	357.304	0.036	0.073
-585.879	-200.000	-0.036	-0.186
-584.865	14.466	-0.240	-0.187
-583.850	-172.615	0.119	-0.004
-582.836	-200.000	-0.004	-0.275
-581.821	163.885	0.226	0.318
-580.806	-135.145	0.476	-0.057
-579.792	88.416	-0.257	0.285
-578.777	-71.200	0.078	-0.029
-577.763	268.873	-0.228	-0.400
-576.748	175.508	0.133	-0.192
-575.733	122.630	-0.285	-0.357
-574.719	-95.773	-0.139	0.037
-573.704	800.000	0.093	0.302
-572.690	800.000	0.109	0.366
-571.675	106.532	-0.183	0.217
-570.661	-149.893	-0.289	0.023
-569.646	-21.796	0.104	0.063
-568.631	559.547	-0.086	-0.209
-567.617	-76.788	-0.171	0.060
-566.602	-15.979	0.118	0.075
-565.588	-109.391	-0.253	0.053
-564.573	-200.000	-0.033	0.256
-563.558	106.742	0.309	0.367
-562.544	-200.000	-0.008	-0.133
-561.529	345.260	0.070	0.138
-560.515	-85.091	-0.234	0.073
-559.500	-139.601	-0.217	-0.023
-558.485	-127.351	0.080	-0.012
-557.471	43.109	-0.171	0.156
-556.456	-67.297	-0.186	-0.073
-555.442	-200.000	-0.008	0.270
-554.427	-175.102	0.296	0.008
-553.412	317.141	0.048	0.091
-552.398	800.000	-0.047	-0.136
-551.383	-131.021	0.309	0.041
-550.369	-29.225	-0.161	-0.092
-549.354	-17.901	0.201	-0.126
-548.339	-79.870	-0.344	-0.116
-547.325	-200.000	-0.017	-0.180
-546.310	-24.545	0.123	0.073
-545.296	142.670	0.108	0.143
-544.281	-14.123	0.061	-0.039
-543.266	-200.000	-0.008	0.178
-542.252	-200.000	0.001	0.200
-541.237	-115.258	-0.262	0.049
-540.223	-42.073	0.343	0.175
-539.208	152.215	-0.071	0.097
-538.193	137.738	-0.099	0.130
-537.179	16.140	-0.044	-0.034
-536.164	26.170	-0.193	0.161
-535.150	-177.602	0.181	0.004
-534.135	-6.263	0.228	-0.155
-533.121	51.053	-0.194	0.184
-532.106	799.794	0.051	-0.140
-531.091	800.000	0.070	0.251
-530.077	215.040	-0.113	-0.180
-529.062	-25.412	-0.364	-0.215
-528.048	-115.661	-0.213	0.040
-527.033	800.000	0.053	0.229
-526.018	223.617	-0.241	-0.389
-525.004	-200.000	0.045	-0.266
-523.989	-200.000	-0.043	-0.281
-522.975	86.527	0.228	0.251
-521.960	10.988	-0.143	0.109
-520.945	14.852	0.288	-0.225
-519.931	-54.771	0.213	-0.096
-518.916	488.102	-0.193	0.439
-517.902	557.845	-0.081	0.194
-516.887	80.909	-0.114	0.122
-515.872	-200.000	-0.034	0.185
-514.858	-200.000	0.058	0.275
-513.843	-100.555	-0.128	0.032
-512.829	-42.401	-0.303	0.154
-511.814	231.954	0.167	-0.274
-510.799	519.824	-0.062	-0.144
-509.785	-131.293	0.193	-0.026
-508.770	-43.624	0.342	-0.172
-507.756	42.695	0.160	0.145
-506.741	-200.000	0.021	-0.180
-505.726	-200.000	0.009	0.334
-504.712	-10.518	-0.294	0.195
-503.697	-91.566	-0.096	0.027
-502.683	-77.568	-0.188	0.065
-501.668	121.117	-0.179	0.222
-500.653	544.041	-0.093	0.221
-499.639	-40.097	0.076	-0.039
-498.624	-200.000	-0.008	0.050
-497.610	166.061	0.094	0.133
-496.595	-43.430	0.135	-0.068
-495.581	10.568	0.148	0.112
-494.566	800.000	0.041	-0.169
-493.551	423.834	-0.037	-0.079
-492.537	-160.930	-0.205	0.011
-491.522	548.735	0.016	0.037
-490.508	-200.000	0.061	-0.283
-489.493	-73.541	-0.402	0.146
-488.478	-200.000	-0.036	-0.233
-487.464	61.628	-0.210	-0.209
-486.449	570.161	0.062	0.150
-485.435	170.871	-0.182	-0.259
-484.420	-85.154	0.506	-0.158
-483.405	442.609	-0.118	0.259
-482.391	-29.838	0.205	-0.117
-481.376	-59.150	-0.165	0.071
-480.362	-81.757	0.320	0.105
-479.347	-200.000	-0.000	0.142
-478.332	-87.449	0.099	-0.030
-477.318	142.673	0.143	0.189
-476.303	-200.000	0.006	0.346
-475.289	-139.212	0.239	-0.026
-474.274	-146.626	-0.110	-0.010
-473.259	-112.417	0.125	0.025
-472.245	-92.343	-0.111	-0.031
-471.230	72.686	0.118	-0.123
-470.216	58.185	-0.319	-0.311
-469.201	187.229	-0.215	0.320
-468.186	800.000	-0.056	-0.234
-467.172	421.679	0.042	0.090
-466.157	106.929	-0.075	-0.089
-465.143	24.595	-0.143	0.118
-464.128	-200.000	-0.049	0.279
-463.113	-94.227	0.163	0.044
-462.099	800.000	-0.086	-0.251
-461.084	20.252	0.168	-0.135
-460.070	48.253	0.124	-0.116
-459.055	800.000	0.073	-0.211
-458.040	-74.170	-0.150	-0.054
-457.026	253.120	-0.087	0.147
-456.011	0.973	-0.176	-0.126
-454.997	-51.476	0.072	-0.033
-453.982	36.995	-0.135	0.119
-452.968	-88.529	0.231	0.068
-451.953	-146.229	0.128	0.011
-450.938	-63.370	-0.225	-0.092
-449.924	135.430	-0.089	0.115
-448.909	113.564	-0.106	-0.128
-447.895	-78.827	-0.433	-0.147
-446.880	-156.998	-0.206	-0.013
-445.865	-111.568	0.055	-0.011
-444.851	415.772	-0.080	-0.169
-443.836	143.010	0.167	-0.221
-442.822	-200.000	0.038	-0.185
-441.807	-200.000	0.000	-0.091
-440.792	-167.702	-0.325	-0.013
-439.778	-5.619	0.237	0.161
-438.763	-90.528	-0.124	0.036
-437.749	-200.000	-0.040	-0.176
-436.734	89.735	0.099	0.110
-435.719	800.000	0.039	0.166
-434.705	29.699	0.228	0.193
-433.690	-41.464	-0.276	-0.141
-432.676	800.000	0.036	-0.154
-431.661	5.548	0.166	-0.122
-430.646	-200.000	-0.064	-0.400
-429.632	183.750	0.076	-0.112
-428.617	-96.966	-0.078	-0.020
-427.603	-200.000	-0.044	0.262
-426.588	-200.000	-0.013	0.133
-425.573	-96.026	0.161	0.043
-424.559	-6.434	-0.094	-0.064
-423.544	523.063	-0.150	-0.352
-422.530	800.000	-0.041	-0.141
-421.515	-70.445	0.189	-0.071
-420.500	-69.577	-0.222	-0.085
-419.486	-200.000	0.003	-0.214
-418.471	-200.000	-0.024	-0.416
-417.457	-56.584	-0.129	0.057
-416.442	3.714	0.136	0.099
-415.428	263.879	0.120	-0.208
-414.413	-166.485	0.351	0.015
-413.398	397.140	0.032	-0.066
-412.384	146.726	0.082	-0.110
-411.369	800.000	-0.055	0.215
-410.355	-121.989	0.314	-0.051
-409.340	-39.017	0.193	-0.101
-408.325	-20.996	-0.261	-0.159
-407.311	-85.740	-0.416	0.128
-406.296	-132.643	-0.143	-0.018
-405.282	-140.181	0.103	-0.011
-404.267	-88.483	-0.122	0.036
-403.252	800.000	0.071	0.196
-402.238	224.499	0.104	0.166
-401.223	-200.000	0.023	-0.155
-400.209	212.617	0.104	0.163
-399.194	-5.140	-0.118	-0.081
-398.179	-27.746	0.370	-0.213
-397.165	193.715	0.086	-0.129
-396.150	142.870	-0.113	0.150
-395.136	74.901	-0.304	0.318
-394.121	129.325	-0.205	0.260
-393.106	277.008	-0.072	0.127
-392.092	-57.203	0.233	-0.102
-391.077	255.871	-0.153	-0.260
-390.063	722.310	-0.022	0.058
-389.048	-200.000	0.002	0.021
-388.033	-179.468	0.187	-0.004
-387.019	-121.455	-0.163	0.027
-386.004	-200.000	0.047	0.276
-384.990	-66.478	0.350	0.138
-383.975	237.807	-0.063	-0.103
-382.960	-200.000	0.050	0.281
-381.946	-4.335	-0.124	0.085
-380.931	-166.628	0.012	-0.000
-379.917	351.192	0.051	0.099
-378.902	480.837	-0.013	-0.029
-377.888	-200.000	0.017	0.103
-376.873	800.000	-0.034	0.107
-375.858	-118.231	0.072	0.013
-374.844	82.349	0.262	0.282
-373.829	-107.554	-0.155	0.034
-372.815	-126.349	0.360	0.053
-371.800	194.515	0.111	0.167
-370.785	-200.000	-0.029	0.273
-369.771	800.000	-0.093	0.376
-368.756	-200.000	-0.011	-0.335
-367.742	160.194	0.064	-0.089
-366.727	-94.777	0.301	0.081
-365.712	442.475	-0.031	0.068
-364.698	-48.960	-0.227	0.108
-363.683	300.772	-0.153	0.281
-362.669	-107.226	0.210	0.046
-361.654	800.000	0.079	0.333
-360.639	-108.401	-0.226	-0.048
-359.625	3.081	0.098	-0.071
-358.610	230.876	-0.037	0.059
-357.596	-200.000	-0.006	-0.247
-356.581	-53.842	0.376	-0.170
-355.566	-136.055	0.304	-0.035
-354.552	-200.000	-0.007	-0.114
-353.537	-119.765	-0.229	0.039
-352.523	34.839	0.270	0.234
-351.508	35.862	-0.197	0.172
-350.493	-200.000	-0.016	-0.220
-349.479	-70.667	-0.371	-0.139
-348.464	333.653	-0.136	-0.261
-347.450	16.914	0.223	-0.175
-346.435	-104.789	-0.657	-0.150
-345.420	271.756	-0.225	0.393
-344.406	-56.261	0.317	0.140
-343.391	24.053	-0.376	-0.307
-342.377	23.862	-0.156	0.127
-341.362	-200.000	0.013	0.078
-340.348	-174.634	0.061	0.002
-339.333	461.969	0.079	0.174
-338.318	492.833	0.019	-0.043
-337.304	-182.624	0.299	0.005
-336.289	800.000	0.018	0.073
-335.275	-1.029	-0.176	-0.123
-334.260	413.076	-0.248	-0.523
-333.245	-100.859	0.182	0.044
-332.231	-17.133	0.102	-0.064
-331.216	578.165	-0.060	-0.146
-330.202	-200.000	-0.007	0.199
-329.187	103.898	0.171	0.199
-328.172	12.251	-0.008	0.006
-327.158	-125.103	-0.346	0.053
-326.143	199.845	0.116	0.177
-325.129	-22.031	-0.124	0.074
-324.114	-200.000	0.047	0.317
-323.099	-66.603	0.477	-0.188
-322.085	86.938	0.117	0.128
-321.070	-67.554	-0.088	-0.034
-320.056	56.653	-0.070	0.068
-319.041	-104.520	0.206	-0.047
-318.026	27.260	0.167	-0.139
-317.012	32.359	-0.095	0.081
-315.997	-28.962	0.188	0.107
-314.983	-9.192	-0.159	-0.105
-313.968	-145.029	-0.205	0.018
-312.953	-123.113	-0.287	-0.046
-311.939	356.903	-0.079	0.155
-310.924	-116.656	0.333	-0.061
-309.910	208.001	-0.041	0.064
-308.895	7.023	0.211	0.156
-307.880	-200.000	0.016	0.210
-306.866	-69.477	0.069	-0.026
-305.851	-87.849	0.307	0.092
-304.837	-3.905	0.022	0.015
-303.822	88.166	0.142	0.156
-302.807	-39.730	-0.209	-0.108
-301.793	230.473	-0.093	0.151
-300.778	800.000	0.053	0.188
-299.764	31.651	-0.172	-0.147
-298.749	-33.402	-0.053	0.029
-297.735	-167.667	0.579	-0.023
-296.720	-200.000	0.033	-0.321
-295.705	194.850	-0.161	0.242
-294.691	-86.619	-0.179	0.054
-293.676	-23.993	0.243	-0.144
-292.662	-200.000	-0.039	0.273
-291.647	218.903	-0.050	0.079
-290.632	-200.000	0.011	-0.162
-289.618	800.000	0.029	0.100
-288.603	-166.690	0.118	-0.005
-287.589	-21.566	0.119	0.072
-286.574	800.000	-0.053	0.228
-285.559	414.233	0.204	0.430
-284.545	-200.000	0.102	-0.604
-283.530	36.106	0.099	-0.086
-282.516	12.353	0.242	-0.185
-281.501	-29.289	-0.107	0.060
-280.486	65.830	0.103	0.103
-279.472	407.236	0.033	0.069
-278.457	-200.000	0.008	0.211
-277.443	622.027	-0.126	0.315
-276.428	-87.361	0.434	-0.130
-275.413	-79.584	-0.377	0.126
-274.399	146.474	0.142	0.189
-273.384	-10.702	0.462	0.302
-272.370	-53.223	0.372	0.169
-271.355	800.000	-0.066	-0.215
-270.340	77.004	0.082	0.086
-269.326	112.872	-0.136	-0.163
-268.311	-153.210	0.537	0.037
-267.297	117.310	-0.189	-0.230
-266.282	-200.000	0.049	-0.261
-265.267	-200.000	-0.061	0.377
-264.253	-87.694	0.119	0.035
-263.238	36.950	-0.183	0.160
-262.224	733.002	0.088	0.232
-261.209	203.640	0.109	0.167
-260.195	-200.000	0.014	0.118
-259.180	-200.000	-0.005	-0.229
-258.165	-115.033	-0.232	-0.044
-257.151	0.155	-0.153	0.108
-256.136	311.693	-0.067	0.124
-255.122	93.806	-0.122	0.137
-254.107	-200.000	-0.021	-0.119
-253.092	157.184	-0.161	-0.220
-252.078	96.314	0.061	-0.069
-251.063	-81.826	-0.348	0.113
-250.049	8.953	0.091	-0.068
-249.034	-200.000	-0.000	0.109
-248.019	-152.052	0.300	0.022
-247.005	16.323	-0.161	0.126
-245.990	241.004	-0.144	0.237
-244.976	783.231	0.075	-0.204
-243.961	-66.897	0.263	-0.103
-242.946	800.000	-0.077	-0.318
-241.932	54.727	-0.225	-0.215
-240.917	47.149	-0.152	0.140
-239.903	-58.870	0.272	-0.116
-238.888	673.666	-0.056	-0.145
-237.873	17.217	0.166	-0.130
-236.859	782.571	0.105	0.285
-235.844	-160.379	0.194	-0.010
-234.830	-9.778	0.158	0.104
-233.815	194.386	-0.113	0.169
-232.800	-200.000	0.069	-0.321
-231.786	42.834	0.186	-0.168
-230.771	-138.177	-0.223	-0.024
-229.757	-131.053	-0.242	-0.032
-228.742	396.430	-0.194	0.400
-227.727	-106.631	-0.092	-0.020
-226.713	800.000	0.169	-0.578
-225.698	800.000	0.039	-0.121
-224.684	-125.871	0.131	-0.019
-223.669	-5.100	-0.154	-0.105
-222.655	199.285	-0.201	0.304
-221.640	-137.028	-0.066	0.007
-220.625	272.312	0.065	-0.113
-219.611	-200.000	-0.013	-0.073
-218.596	-200.000	0.023	-0.251
-217.582	18.809	-0.173	0.137
-216.567	-200.000	-0.049	0.232
-215.552	-79.865	0.225	0.075
-214.538	-13.590	0.053	-0.034
-213.523	401.677	-0.031	-0.063
-212.509	800.000	0.103	-0.327
-211.494	230.008	-0.078	0.126
-210.479	114.429	0.172	-0.206
-209.465	428.565	0.152	0.324
-208.450	80.201	-0.148	0.157
-207.436	-161.520	-0.069	-0.003
-206.421	218.598	-0.078	-0.123
-205.406	-31.177	0.055	0.030
-204.392	79.008	-0.163	-0.173
-203.377	414.713	-0.074	0.155
-202.363	132.809	0.113	-0.143
-201.348	127.877	-0.149	-0.186
-200.333	353.604	-0.073	-0.144
-199.319	92.177	-0.241	0.268
-198.304	152.122	-0.086	0.115
-197.290	-180.559	-0.339	0.007
-196.275	-135.071	0.324	-0.038
-195.260	-15.227	-0.254	0.160
-194.246	-129.855	-0.109	-0.015
-193.231	-137.450	0.285	0.032
-192.217	-87.497	-0.112	0.033
-191.202	-117.231	-0.077	-0.014
-190.187	-127.280	0.312	-0.045
-189.173	-145.009	-0.189	0.017
-188.158	-63.544	0.144	-0.058
-187.144	379.343	-0.168	0.339
-186.129	-35.763	0.120	0.064
-185.114	-63.238	-0.316	-0.128
-184.100	92.074	0.081	-0.090
-183.085	298.311	-0.152	0.276
-182.071	24.205	-0.267	0.218
-181.056	3.706	-0.272	0.196
-180.042	-174.638	0.173	0.005
-179.027	623.920	-0.054	-0.134
-178.012	132.353	-0.275	-0.349
-176.998	-48.965	0.334	-0.158
-175.983	-200.000	0.031	-0.219
-174.969	-200.000	0.011	-0.117
-173.954	-200.000	-0.004	0.238
-172.939	52.835	-0.249	-0.235
-171.925	-94.038	0.303	-0.082
-170.910	-68.964	-0.108	-0.041
-169.896	-200.000	0.003	-0.335
-168.881	-41.331	-0.277	-0.141
-167.866	110.969	0.120	-0.142
-166.852	-39.773	0.310	0.159
-165.837	800.000	-0.053	-0.202
-164.823	800.000	-0.043	0.120
-163.808	800.000	0.030	-0.092
-162.793	224.251	0.135	0.216
-161.779	-200.000	0.050	-0.240
-160.764	-78.835	0.172	-0.058
-159.750	171.615	0.113	0.159
-158.735	-130.802	0.239	-0.032
-157.720	-7.964	-0.079	0.052
-156.706	-200.000	0.036	0.216
-155.691	521.200	0.043	0.100
-154.677	760.362	-0.061	-0.162
-153.662	-106.230	0.039	-0.009
-152.647	-200.000	0.044	-0.310
-151.633	-200.000	-0.005	0.127
-150.618	800.000	0.149	0.407
-149.604	-1.720	-0.174	0.121
-148.589	800.000	-0.033	0.114
-147.574	-45.233	0.307	-0.150
-146.560	-67.846	-0.121	0.046
-145.545	-51.823	-0.247	-0.113
-144.531	205.609	-0.171	-0.261
-143.516	800.000	0.038	-0.159
-142.502	30.029	-0.099	0.083
-141.487	-200.000	0.013	0.302
-140.472	-174.139	0.183	-0.005
-139.458	-7.588	0.228	0.151
-138.443	272.218	-0.144	-0.251
-137.429	448.188	-0.059	-0.127
-136.414	374.199	0.137	0.275
-135.399	101.279	-0.271	0.310
-134.385	-77.844	-0.159	0.054
-133.370	-173.820	0.098	-0.003
-132.356	-80.976	0.231	0.075
-131.341	65.490	-0.171	-0.170
-130.326	800.000	-0.128	-0.364
-129.312	14.334	0.080	-0.061
-128.297	-26.721	-0.212	0.122
-127.283	-200.000	-0.002	-0.042
-126.268	800.000	0.036	0.101
-125.253	-200.000	-0.088	0.641
-124.239	-139.473	0.168	-0.018
-123.224	-15.457	-0.151	0.095
-122.210	-120.313	0.175	-0.029
