DTS Sentinel unit serial number:	SN413079Multiplexer serial number:	ORYXHardware model number:	OX4-SRSoftware version number:	ORYX F/W v4.00 Oryx Data Collector v3.7.2.0data status	okinstallation	princeton_trtdifferential loss correction	single-endedforward channel	channel 2reverse channel	N/Adate	2019/09/13time	13:03:35forward acquisition time	60.00reverse acquisition time	0.00gamma	496.2192k internal	0.2315k external	0.2315temperature offset calibration	1.0208default loss term (dB/km)	0.3790temperature slope calibration	1.0000multiplexer offset coefficient	1.0000multiplexer slope coefficient	1.0000fibre end	0.00T internal ref (°C)	34.81T ext. ref 1 (°C)	4.57T ext. ref 2 (°C)	31.23length (m)	temperature (°C)	Stokes	anti-Stokes-747.200	150.884	-0.092	0.127
-746.185	-28.851	0.276	0.161
-745.171	-200.000	0.005	0.108
-744.156	-200.000	0.051	0.252
-743.142	-200.000	0.019	-0.245
-742.127	-179.868	-0.150	0.003
-741.112	18.529	0.153	0.124
-740.098	-89.571	-0.061	-0.018
-739.083	277.513	-0.104	-0.188
-738.069	-44.104	-0.176	-0.090
-737.054	18.863	0.218	-0.177
-736.039	380.125	-0.161	-0.334
-735.025	35.534	0.288	-0.256
-734.010	-37.443	-0.370	0.200
-732.996	148.532	-0.149	0.204
-731.981	-78.574	-0.116	0.040
-730.966	-97.387	-0.088	-0.023
-729.952	-148.966	-0.295	0.024
-728.937	-200.000	0.093	0.414
-727.923	6.161	0.174	0.130
-726.908	-75.204	-0.313	0.113
-725.894	32.420	-0.159	-0.139
-724.879	800.000	0.061	-0.207
-723.864	-109.034	-0.234	-0.051
-722.850	111.373	0.105	0.128
-721.835	179.150	-0.192	-0.285
-720.821	-109.449	0.212	-0.045
-719.806	-8.814	0.031	-0.021
-718.791	-31.854	-0.268	0.152
-717.777	-200.000	0.090	0.520
-716.762	158.561	-0.223	0.313
-715.748	26.299	0.300	0.254
-714.733	-133.707	0.435	-0.055
-713.718	-34.029	-0.162	0.090
-712.704	64.323	-0.190	0.194
-711.689	-138.016	0.191	-0.022
-710.675	-109.496	-0.104	0.022
-709.660	-17.424	-0.139	0.089
-708.645	300.013	-0.156	0.291
-707.631	55.066	-0.182	-0.178
-706.616	-200.000	-0.024	-0.110
-705.602	-138.296	0.279	0.031
-704.587	-12.667	-0.209	0.138
-703.572	644.099	-0.052	-0.135
-702.558	-16.107	-0.244	0.157
-701.543	10.365	-0.175	-0.134
-700.529	-90.525	-0.388	-0.114
-699.514	-130.494	-0.431	-0.059
-698.499	-170.391	0.215	-0.008
-697.485	-114.520	-0.218	0.042
-696.470	13.883	-0.234	-0.184
-695.456	198.516	0.152	-0.236
-694.441	401.043	-0.069	0.145
-693.426	312.443	0.031	-0.060
-692.412	-44.835	0.151	-0.076
-691.397	19.409	0.115	-0.094
-690.383	132.622	-0.136	0.178
-689.368	75.510	0.203	0.217
-688.354	-61.631	-0.095	0.040
-687.339	-200.000	0.043	-0.271
-686.324	225.517	-0.126	-0.207
-685.310	-200.000	-0.068	-0.313
-684.295	-200.000	0.037	-0.469
-683.281	-145.947	-0.089	-0.008
-682.266	-88.358	-0.146	0.044
-681.251	676.520	-0.044	0.116
-680.237	118.177	-0.273	0.340
-679.222	67.061	0.056	0.058
-678.208	-200.000	-0.018	-0.396
-677.193	346.787	-0.049	0.098
-676.178	-108.537	0.119	0.026
-675.164	224.846	0.172	-0.281
-674.149	7.277	-0.118	0.089
-673.135	-200.000	-0.013	-0.239
-672.120	-67.393	-0.186	0.074
-671.105	-7.548	-0.206	0.141
-670.091	122.411	-0.051	-0.064
-669.076	-81.712	0.198	0.066
-668.062	-200.000	-0.001	-0.027
-667.047	-81.747	0.091	-0.030
-666.032	-82.833	0.065	0.021
-665.018	104.489	-0.135	-0.161
-664.003	-83.577	-0.255	0.082
-662.989	-101.875	-0.241	-0.059
-661.974	216.846	-0.145	0.233
-660.959	203.709	0.150	-0.234
-659.945	-80.468	0.303	-0.102
-658.930	23.814	0.249	-0.207
-657.916	-161.203	-0.281	0.015
-656.901	735.664	-0.046	0.124
-655.886	-96.888	-0.117	-0.031
-654.872	295.140	0.186	-0.343
-653.857	-42.168	0.138	0.071
-652.843	-200.000	0.027	-0.200
-651.828	42.632	-0.125	0.115
-650.814	-200.000	0.037	-0.365
-649.799	-62.183	0.223	0.094
-648.784	-9.289	-0.107	-0.072
-647.770	288.223	0.158	-0.289
-646.755	-17.574	0.088	0.056
-645.741	-138.802	-0.080	0.009
-644.726	-33.508	0.152	-0.085
-643.711	-200.000	0.025	0.222
-642.697	-138.958	0.249	-0.027
-641.682	-55.718	-0.343	0.155
-640.668	84.061	0.177	0.195
-639.653	800.000	-0.078	-0.225
-638.638	-17.042	-0.205	-0.131
-637.624	-118.946	-0.095	0.017
-636.609	800.000	-0.081	-0.232
-635.595	421.330	0.145	-0.314
-634.580	46.865	-0.232	0.218
-633.565	346.643	-0.104	0.206
-632.551	-200.000	0.012	-0.181
-631.536	-200.000	0.003	-0.052
-630.522	31.361	-0.240	0.208
-629.507	-111.066	0.227	0.047
-628.492	-145.125	0.215	-0.020
-627.478	347.966	-0.167	0.332
-626.463	95.849	0.121	-0.140
-625.449	721.040	0.083	-0.223
-624.434	-200.000	0.056	-0.268
-623.419	-102.019	-0.124	-0.030
-622.405	36.692	0.178	-0.158
-621.390	108.479	-0.074	-0.090
-620.376	217.609	0.050	0.081
-619.361	-200.000	0.002	-0.034
-618.346	589.639	-0.104	0.258
-617.332	-6.438	-0.300	0.206
-616.317	-82.646	0.160	-0.052
-615.303	-13.825	-0.060	0.039
-614.288	182.072	-0.085	0.127
-613.273	-200.000	0.017	0.136
-612.259	-200.000	0.000	-0.010
-611.244	512.907	-0.126	0.295
-610.230	-152.226	-0.077	-0.006
-609.215	707.556	-0.049	0.132
-608.201	-66.405	0.234	0.094
-607.186	-124.109	-0.215	-0.034
-606.171	239.294	0.095	0.160
-605.157	-139.861	0.173	0.018
-604.142	2.026	0.141	-0.103
-603.128	1.407	-0.014	-0.010
-602.113	-200.000	-0.009	0.174
-601.098	42.275	0.031	-0.029
-600.084	-18.994	0.148	-0.093
-599.069	-200.000	-0.033	0.228
-598.055	800.000	0.067	-0.238
-597.040	-200.000	0.016	0.130
-596.025	-134.568	-0.064	0.008
-595.011	-200.000	-0.005	-0.333
-593.996	-200.000	-0.026	-0.192
-592.982	-200.000	-0.013	0.170
-591.967	-121.550	-0.152	-0.025
-590.952	-150.444	-0.144	-0.011
-589.938	213.421	-0.145	-0.230
-588.923	-85.430	0.076	-0.024
-587.909	145.267	-0.093	0.126
-586.894	1.091	-0.309	0.224
-585.879	55.046	-0.106	0.103
-584.865	-13.554	0.098	-0.064
-583.850	-63.805	0.197	0.081
-582.836	101.171	0.155	-0.181
-581.821	247.913	-0.218	0.371
-580.806	-11.367	0.210	0.139
-579.792	-200.000	-0.005	-0.244
-578.777	-191.287	0.110	0.001
-577.763	-60.781	0.192	0.082
-576.748	28.345	0.148	-0.126
-575.733	140.245	0.176	0.234
-574.719	57.334	-0.226	0.222
-573.704	52.011	0.222	-0.213
-572.690	59.849	0.017	-0.017
-571.675	200.189	0.089	0.138
-570.661	-37.510	-0.083	0.045
-569.646	52.082	-0.117	-0.112
-568.631	-54.696	-0.088	0.040
-567.617	-81.452	0.506	-0.168
-566.602	126.808	0.099	-0.126
-565.588	-55.525	-0.087	-0.039
-564.573	800.000	0.121	-0.425
-563.558	-10.096	-0.167	-0.111
-562.544	-200.000	-0.000	0.029
-561.529	-42.787	0.267	-0.137
-560.515	62.601	-0.151	0.151
-559.500	547.782	-0.111	0.267
-558.485	2.303	0.099	-0.072
-557.471	-43.498	-0.247	-0.126
-556.456	-200.000	-0.035	-0.373
-555.442	192.593	-0.059	-0.089
-554.427	-5.964	-0.102	0.070
-553.412	134.585	0.111	0.145
-552.398	-200.000	0.007	0.393
-551.383	238.860	-0.180	0.301
-550.369	92.448	-0.151	-0.171
-549.354	800.000	0.037	0.107
-548.339	49.803	-0.218	-0.207
-547.325	-200.000	0.014	0.061
-546.310	361.438	-0.070	-0.141
-545.296	-148.057	0.254	-0.021
-544.281	255.218	-0.047	0.081
-543.266	446.228	-0.150	0.331
-542.252	-200.000	0.081	0.432
-541.237	-45.875	0.216	-0.107
-540.223	79.154	0.203	0.219
-539.208	-200.000	0.029	-0.201
-538.193	-2.902	0.267	-0.187
-537.179	161.052	0.220	0.309
-536.164	800.000	-0.062	0.187
-535.150	81.282	0.152	0.166
-534.135	-101.138	0.182	0.045
-533.121	112.319	0.056	0.068
-532.106	418.290	-0.023	-0.050
-531.091	-200.000	0.028	-0.424
-530.077	111.470	-0.156	0.189
-529.062	-11.332	-0.353	0.233
-528.048	155.422	-0.228	-0.316
-527.033	-200.000	0.059	-0.435
-526.018	71.557	-0.081	0.084
-525.004	-23.646	-0.223	-0.134
-523.989	-31.653	-0.339	0.191
-522.975	515.828	0.143	0.336
-521.960	-88.740	0.119	-0.036
-520.945	20.240	0.127	0.103
-519.931	-28.489	0.221	-0.128
-518.916	81.629	0.192	0.209
-517.902	-42.766	0.011	-0.006
-516.887	16.603	-0.074	0.059
-515.872	104.845	-0.270	0.320
-514.858	-8.357	0.177	0.120
-513.843	-14.568	-0.244	-0.157
-512.829	-55.594	0.024	0.011
-511.814	-102.846	0.287	-0.069
-510.799	576.654	-0.077	0.188
-509.785	126.357	-0.235	-0.299
-508.770	-125.436	-0.175	0.027
-507.756	-64.664	0.178	-0.072
-506.741	-110.666	-0.325	-0.067
-505.726	4.124	0.145	-0.107
-504.712	-19.697	0.219	-0.136
-503.697	-126.991	-0.311	0.046
-502.683	11.917	0.056	0.043
-501.668	7.355	-0.121	0.090
-500.653	359.219	0.058	-0.117
-499.639	-200.000	0.020	0.356
-498.624	-200.000	0.014	-0.277
-497.610	313.981	-0.123	-0.233
-496.595	800.000	-0.023	-0.068
-495.581	5.562	-0.154	0.114
-494.566	-121.892	-0.049	-0.008
-493.551	116.313	-0.354	-0.435
-492.537	-63.608	0.048	0.020
-491.522	-24.113	-0.284	-0.170
-490.508	-64.798	-0.455	0.185
-489.493	800.000	-0.023	0.087
-488.478	800.000	-0.069	0.248
-487.464	257.909	-0.239	0.412
-486.449	20.487	-0.026	0.021
-485.435	-200.000	-0.064	-0.306
-484.420	546.061	-0.065	-0.156
-483.405	-154.189	-0.139	-0.009
-482.391	-135.851	0.479	0.057
-481.376	-6.912	0.245	0.167
-480.362	-197.573	-0.550	-0.003
-479.347	-200.000	0.013	-0.153
-478.332	-65.824	-0.095	-0.038
-477.318	93.438	0.141	-0.160
-476.303	-15.909	-0.073	0.046
-475.289	125.280	-0.090	-0.114
-474.274	12.938	0.114	0.088
-473.259	-47.386	0.306	-0.149
-472.245	-91.222	0.168	0.048
-471.230	-200.000	0.032	-0.238
-470.216	331.726	-0.173	-0.334
-469.201	-91.299	0.319	-0.092
-468.186	-49.028	0.309	-0.148
-467.172	-154.500	-0.240	-0.016
-466.157	-45.252	-0.252	-0.126
-465.143	-110.836	0.278	0.058
-464.128	-200.000	0.008	-0.144
-463.113	-126.341	-0.075	0.011
-462.099	-42.962	-0.254	-0.129
-461.084	800.000	0.124	-0.435
-460.070	419.938	-0.190	0.408
-459.055	244.724	-0.107	0.180
-458.040	-200.000	0.070	0.398
-457.026	-172.794	-0.054	-0.002
-456.011	32.986	0.237	0.206
-454.997	18.719	0.177	-0.142
-453.982	524.991	0.257	-0.606
-452.968	177.954	-0.072	0.105
-451.953	111.168	-0.101	-0.122
-450.938	800.000	0.054	0.176
-449.924	800.000	-0.061	-0.204
-448.909	213.522	-0.062	-0.098
-447.895	800.000	0.047	-0.187
-446.880	94.826	0.132	-0.151
-445.865	408.517	0.090	-0.191
-444.851	213.184	0.054	-0.085
-443.836	-142.062	0.353	-0.035
-442.822	399.130	0.029	-0.061
-441.807	70.859	-0.018	-0.019
-440.792	800.000	-0.016	0.054
-439.778	51.096	0.105	0.100
-438.763	144.965	-0.044	0.060
-437.749	93.209	-0.021	0.024
-436.734	800.000	0.051	0.222
-435.719	99.765	-0.137	-0.159
-434.705	800.000	-0.043	0.125
-433.690	71.057	-0.259	-0.268
-432.676	-200.000	0.024	-0.409
-431.661	-78.672	-0.169	-0.058
-430.646	-105.435	0.009	-0.002
-429.632	-64.172	-0.117	-0.048
-428.617	-151.093	0.370	0.028
-427.603	196.711	-0.181	-0.276
-426.588	-83.808	-0.156	0.050
-425.573	62.003	-0.089	-0.089
-424.559	-102.065	-0.116	-0.028
-423.544	758.625	0.035	-0.096
-422.530	63.747	0.158	0.159
-421.515	-47.518	-0.137	-0.066
-420.500	42.119	-0.059	0.054
-419.486	-61.643	-0.119	0.050
-418.471	74.405	0.165	-0.173
-417.457	-60.962	0.135	-0.057
-416.442	-85.288	0.224	-0.070
-415.428	11.725	0.135	0.103
-414.413	-108.567	-0.409	-0.088
-413.398	-95.313	0.220	0.059
-412.384	-49.914	0.071	-0.034
-411.369	-55.529	0.140	-0.063
-410.355	63.307	-0.231	-0.231
-409.340	-200.000	-0.019	0.095
-408.325	800.000	-0.092	0.265
-407.311	-110.198	-0.068	-0.014
-406.296	-70.031	-0.192	-0.073
-405.282	34.054	-0.217	-0.189
-404.267	-92.488	-0.279	-0.078
-403.252	-69.662	0.047	-0.018
-402.238	10.819	0.291	0.222
-401.223	117.507	0.137	-0.168
-400.209	541.143	0.021	-0.050
-399.194	-27.805	0.064	-0.037
-398.179	557.656	0.082	0.198
-397.165	-38.367	-0.182	0.096
-396.150	800.000	-0.026	-0.077
-395.136	-87.293	-0.218	0.066
-394.121	34.451	-0.181	0.158
-393.106	10.353	0.290	-0.221
-392.092	-147.662	0.250	0.021
-391.077	-112.499	-0.155	-0.031
-390.063	-114.241	-0.373	0.072
-389.048	583.260	0.065	0.160
-388.033	-21.474	-0.080	-0.049
-387.019	-200.000	-0.020	0.153
-386.004	-200.000	-0.012	0.072
-384.990	-43.971	0.040	-0.020
-383.975	-91.164	-0.128	0.037
-382.960	-199.222	0.166	-0.001
-381.946	160.476	-0.089	-0.124
-380.931	590.387	-0.070	-0.173
-379.917	30.525	-0.060	-0.051
-378.902	-89.555	-0.138	0.040
-377.888	-200.000	0.037	0.244
-376.873	800.000	0.006	0.026
-375.858	800.000	0.042	-0.117
-374.844	83.065	0.021	-0.023
-373.829	-200.000	-0.043	-0.330
-372.815	-30.224	0.175	0.099
-371.800	255.291	0.054	-0.093
-370.785	80.533	-0.068	-0.073
-369.771	800.000	-0.074	-0.284
-368.756	800.000	0.046	-0.195
-367.742	-200.000	-0.024	-0.174
-366.727	-115.728	-0.194	-0.036
-365.712	234.695	0.187	0.308
-364.698	34.214	0.435	-0.379
-363.683	435.881	0.128	-0.279
-362.669	-95.888	-0.310	-0.083
-361.654	66.042	0.214	0.217
-360.639	-157.910	-0.071	0.004
-359.625	7.308	0.046	0.035
-358.610	-27.021	-0.201	0.117
-357.596	-200.000	-0.097	0.445
-356.581	-200.000	-0.046	0.283
-355.566	-172.224	-0.293	-0.009
-354.552	45.661	0.148	0.136
-353.537	393.373	-0.084	-0.174
-352.523	-63.417	-0.095	0.039
-351.508	196.907	0.164	-0.249
-350.493	-163.004	-0.286	0.014
-349.479	-108.971	0.069	-0.015
-348.464	800.000	-0.056	-0.215
-347.450	58.391	0.100	0.098
-346.435	157.797	-0.127	0.176
-345.420	234.279	-0.094	0.154
-344.406	83.512	0.294	-0.320
-343.391	-200.000	0.004	-0.305
-342.377	-130.109	-0.092	0.012
-341.362	-200.000	-0.035	-0.197
-340.348	350.368	-0.046	0.091
-339.333	242.518	0.162	0.270
-338.318	128.373	0.313	-0.397
-337.304	-200.000	-0.013	-0.103
-336.289	-200.000	-0.044	-0.236
-335.275	-200.000	0.023	0.189
-334.260	-166.776	0.155	0.006
-333.245	535.840	-0.151	-0.358
-332.231	800.000	-0.061	0.241
-331.216	14.270	-0.237	-0.184
-330.202	118.470	-0.085	0.104
-329.187	132.755	-0.124	0.159
-328.172	232.368	0.037	-0.061
-327.158	-200.000	-0.040	0.179
-326.143	-62.322	-0.118	-0.049
-325.129	7.618	0.098	0.073
-324.114	-156.529	-0.232	0.014
-323.099	85.921	0.054	-0.059
-322.085	-94.576	-0.324	0.088
-321.070	555.187	-0.074	0.177
-320.056	-54.931	0.073	-0.033
-319.041	308.902	0.167	0.311
-318.026	190.585	-0.099	0.149
-317.012	128.377	-0.023	-0.029
-315.997	778.089	-0.050	0.136
-314.983	-188.414	0.123	-0.002
-313.968	-9.217	-0.155	0.103
-312.953	6.174	0.116	-0.086
-311.939	148.360	0.188	-0.253
-310.924	57.736	0.126	-0.123
-309.910	-125.117	0.496	0.076
-308.895	-3.793	0.483	0.334
-307.880	9.767	-0.121	0.091
-306.866	-200.000	0.022	-0.303
-305.851	451.052	0.081	-0.177
-304.837	231.647	0.223	0.365
-303.822	643.711	-0.039	0.100
-302.807	192.261	0.153	-0.229
-301.793	323.896	0.036	-0.069
-300.778	-200.000	0.091	-0.401
-299.764	-45.658	-0.288	-0.142
-298.749	124.751	-0.066	0.083
-297.735	-84.966	0.289	0.090
-296.720	-95.317	-0.080	0.021
-295.705	78.761	0.137	-0.146
-294.691	398.453	-0.079	0.165
-293.676	-128.256	0.271	0.038
-292.662	-58.599	0.160	0.069
-291.647	-110.247	-0.218	-0.045
-290.632	60.394	0.288	0.284
-289.618	-200.000	0.012	0.412
-288.603	-65.881	0.021	-0.008
-287.589	-23.012	0.106	-0.063
-286.574	-129.345	-0.144	-0.020
-285.559	-49.628	0.410	0.194
-284.545	36.151	-0.257	0.225
-283.530	66.975	-0.147	0.149
-282.516	800.000	-0.147	0.452
-281.501	-200.000	0.056	0.313
-280.486	-64.685	0.196	-0.079
-279.472	800.000	-0.064	-0.207
-278.457	104.593	-0.113	0.133
-277.443	-200.000	-0.008	-0.232
-276.428	72.392	-0.054	-0.056
-275.413	-200.000	0.013	0.228
-274.399	2.946	-0.194	0.140
-273.384	64.308	-0.218	0.218
-272.370	-57.714	-0.156	0.068
-271.355	-200.000	0.008	0.049
-270.340	-78.616	0.176	0.060
-269.326	10.256	0.281	-0.213
-268.311	800.000	-0.099	0.364
-267.297	-200.000	-0.009	-0.044
-266.282	740.680	0.070	-0.188
-265.267	-130.952	-0.199	-0.026
-264.253	439.431	-0.094	-0.205
-263.238	200.772	-0.243	0.371
-262.224	615.869	-0.085	0.213
-261.209	-200.000	-0.032	0.290
-260.195	800.000	0.027	0.089
-259.180	171.489	-0.113	0.161
-258.165	61.787	-0.080	0.080
-257.151	800.000	-0.012	-0.037
-256.136	-87.527	-0.247	0.074
-255.122	95.286	0.150	-0.170
-254.107	-200.000	-0.013	-0.101
-253.092	-200.000	-0.016	-0.287
-252.078	800.000	0.091	-0.316
-251.063	69.056	-0.115	0.117
-250.049	660.114	0.117	0.298
-249.034	800.000	0.058	0.225
-248.019	2.538	-0.056	0.040
-247.005	115.481	0.045	0.055
-245.990	-200.000	-0.003	-0.297
-244.976	6.119	-0.062	-0.045
-243.961	-156.985	-0.067	0.004
-242.946	-142.404	-0.221	0.022
-241.932	135.202	0.130	0.167
-240.917	70.705	0.290	0.298
-239.903	8.384	0.224	0.168
-238.888	800.000	-0.145	0.412
-237.873	54.719	0.191	-0.183
-236.859	-114.940	0.145	0.027
-235.844	-19.984	0.164	-0.101
-234.830	-48.540	0.257	-0.123
-233.815	-108.218	0.230	0.049
-232.800	-200.000	0.000	-0.041
-231.786	-58.457	0.150	-0.065
-230.771	59.038	0.399	0.390
-229.757	800.000	-0.060	0.224
-228.742	-146.926	0.132	-0.011
-227.727	236.870	-0.200	0.329
-226.713	-159.072	0.056	0.003
-225.698	-86.907	0.291	0.088
-224.684	193.287	-0.086	-0.130
-223.669	-36.637	-0.457	0.244
-222.655	-102.929	-0.060	0.014
-221.640	233.501	0.148	0.241
-220.625	0.703	0.349	0.248
-219.611	520.054	0.074	-0.171
-218.596	-113.267	-0.201	0.039
-217.582	56.105	0.128	0.124
-216.567	-118.572	0.192	0.034
-215.552	800.000	0.045	0.139
-214.538	65.622	-0.187	-0.188
-213.523	-200.000	-0.043	0.269
-212.509	93.765	0.094	0.106
-211.494	-41.210	-0.369	0.189
-210.479	29.056	0.145	0.122
-209.465	17.296	-0.025	0.020
-208.450	-81.360	-0.152	0.050
-207.436	17.918	0.165	0.131
-206.421	800.000	-0.055	0.180
-205.406	185.580	0.143	-0.211
-204.392	-23.050	0.138	-0.083
-203.377	744.012	0.097	-0.258
-202.363	-86.886	-0.379	-0.115
-201.348	34.023	0.100	0.086
-200.333	-17.850	-0.150	0.093
-199.319	-200.000	-0.036	-0.307
-198.304	-101.452	-0.216	0.052
-197.290	30.516	-0.136	-0.116
-196.275	175.766	-0.108	0.155
-195.260	-200.000	-0.054	-0.364
-194.246	-140.060	0.124	-0.013
-193.231	229.591	0.037	-0.060
-192.217	196.026	0.017	0.026
-191.202	144.615	-0.074	-0.098
-190.187	8.543	-0.224	0.167
-189.173	-200.000	0.008	-0.229
-188.158	119.459	-0.199	-0.244
-187.144	191.881	0.281	-0.420
-186.129	264.661	-0.291	-0.502
-185.114	484.742	0.010	-0.022
-184.100	800.000	0.073	-0.260
-183.085	208.426	0.195	0.303
-182.071	-92.880	-0.228	0.063
-181.056	-53.910	0.294	-0.133
-180.042	-81.467	0.361	-0.118
-179.027	-44.966	0.148	0.073
-178.012	800.000	-0.039	-0.146
-176.998	456.126	-0.082	0.181
-175.983	-200.000	-0.041	-0.249
-174.969	30.140	0.329	-0.279
-173.954	800.000	-0.079	0.300
-172.939	-200.000	0.001	-0.090
-171.925	-50.603	0.087	0.041
-170.910	800.000	-0.021	0.088
-169.896	-170.087	-0.127	0.004
-168.881	456.251	-0.089	-0.196
-167.866	-75.276	0.274	0.097
-166.852	486.407	0.055	0.125
-165.837	-200.000	-0.008	-0.446
-164.823	-200.000	0.015	-0.288
-163.808	-15.208	-0.253	0.161
-162.793	-200.000	-0.020	-0.111
-161.779	-200.000	-0.048	0.509
-160.764	-54.717	-0.132	-0.059
-159.750	407.730	0.134	-0.280
-158.735	-200.000	-0.010	0.293
-157.720	-66.978	-0.275	0.108
-156.706	80.274	0.228	-0.244
-155.691	-63.529	0.327	-0.133
-154.677	-157.825	-0.221	0.013
-153.662	43.712	-0.195	0.177
-152.647	-81.224	0.217	-0.071
-151.633	800.000	0.015	-0.055
-150.618	-116.729	0.227	-0.041
-149.604	-70.410	-0.227	0.085
-148.589	238.188	0.022	0.037
-147.574	37.391	-0.191	0.167
-146.560	-90.379	-0.297	-0.085
-145.545	-200.000	-0.040	-0.313
-144.531	-114.576	-0.277	0.053
-143.516	69.989	0.031	0.031
-142.502	-131.639	0.239	-0.031
-141.487	-165.688	-0.422	-0.018
-140.472	-87.251	-0.351	0.106
-139.458	-82.030	-0.099	0.032
-138.443	10.241	0.083	-0.063
-137.429	-200.000	-0.017	-0.283
-136.414	-200.000	0.014	0.263
-135.399	7.799	-0.219	-0.162
-134.385	-47.364	-0.338	-0.163
-133.370	-20.328	-0.180	-0.110
-132.356	-88.556	0.171	0.050
-131.341	-34.951	-0.528	0.285
-130.326	429.013	-0.119	0.254
-129.312	-200.000	-0.049	0.409
-128.297	85.154	-0.351	0.381
-127.283	-45.687	0.198	-0.097
-126.268	800.000	-0.198	-0.573
-125.253	-200.000	0.017	-0.187
-124.239	-9.379	-0.303	-0.200
-123.224	800.000	-0.043	-0.177
-122.210	-200.000	-0.015	0.076
-121.195	-72.294	-0.249	-0.091
