DTS Sentinel unit serial number:	SN413079Multiplexer serial number:	ORYXHardware model number:	OX4-SRSoftware version number:	ORYX F/W v4.00 Oryx Data Collector v3.7.2.0data status	okinstallation	princeton_trtdifferential loss correction	single-endedforward channel	channel 2reverse channel	N/Adate	2019/09/14time	21:03:34forward acquisition time	60.00reverse acquisition time	0.00gamma	496.2192k internal	0.2323k external	0.2323temperature offset calibration	1.0081default loss term (dB/km)	0.3790temperature slope calibration	1.0000multiplexer offset coefficient	1.0000multiplexer slope coefficient	1.0000fibre end	0.00T internal ref (°C)	33.12T ext. ref 1 (°C)	4.76T ext. ref 2 (°C)	27.87length (m)	temperature (°C)	Stokes	anti-Stokes-747.200	800.000	0.042	0.186
-746.185	370.619	0.042	-0.086
-745.171	82.517	-0.116	0.127
-744.156	-200.000	-0.030	0.330
-743.142	642.126	-0.076	0.196
-742.127	-99.880	-0.161	-0.041
-741.112	209.422	0.070	0.110
-740.098	-200.000	-0.007	0.190
-739.083	-94.190	0.030	0.008
-738.069	-200.000	0.040	-0.274
-737.054	273.069	0.203	-0.362
-736.039	-74.874	-0.100	0.036
-735.025	101.880	0.237	0.279
-734.010	321.670	0.155	0.297
-732.996	-200.000	0.033	0.250
-731.981	15.887	0.252	-0.201
-730.966	2.637	0.096	-0.070
-729.952	22.628	0.263	-0.218
-728.937	-28.411	0.249	0.145
-727.923	126.040	-0.210	-0.269
-726.908	47.501	-0.196	-0.185
-725.894	61.032	0.060	0.060
-724.879	114.542	-0.115	-0.141
-723.864	800.000	0.105	-0.353
-722.850	653.216	0.046	-0.118
-721.835	60.001	-0.241	0.240
-720.821	54.318	0.149	0.144
-719.806	71.785	0.218	0.228
-718.791	-200.000	0.017	0.134
-717.777	-122.731	-0.265	-0.043
-716.762	-120.279	-0.065	0.011
-715.748	-95.670	0.170	-0.046
-714.733	103.316	-0.281	-0.333
-713.718	248.215	-0.105	-0.180
-712.704	-72.412	-0.230	-0.086
-711.689	-90.355	0.279	-0.082
-710.675	-126.430	-0.288	-0.043
-709.660	-103.873	0.251	0.059
-708.645	-56.217	0.209	-0.094
-707.631	-70.724	-0.147	-0.056
-706.616	-0.309	0.213	0.153
-705.602	8.252	0.162	-0.123
-704.587	148.842	0.049	-0.067
-703.572	800.000	0.035	-0.108
-702.558	215.154	-0.153	0.244
-701.543	137.764	0.091	0.120
-700.529	800.000	-0.060	-0.247
-699.514	2.739	-0.134	0.098
-698.499	-200.000	0.006	0.060
-697.485	117.033	-0.160	-0.198
-696.470	-97.311	0.135	-0.035
-695.456	800.000	0.056	0.193
-694.441	390.267	0.037	-0.076
-693.426	92.840	0.059	0.067
-692.412	-96.695	-0.186	0.049
-691.397	272.295	0.131	0.234
-690.383	41.865	0.112	-0.103
-689.368	800.000	0.168	0.518
-688.354	31.762	0.158	0.137
-687.339	-75.836	-0.316	-0.113
-686.324	800.000	-0.049	0.138
-685.310	800.000	0.094	-0.368
-684.295	79.103	-0.161	-0.173
-683.281	-140.458	0.270	0.028
-682.266	-200.000	0.019	0.258
-681.251	25.369	0.352	-0.295
-680.237	800.000	0.020	0.085
-679.222	-115.333	-0.309	0.059
-678.208	-200.000	-0.037	-0.236
-677.193	-58.577	0.145	-0.063
-676.178	-12.145	0.244	0.161
-675.164	236.271	-0.052	-0.086
-674.149	-95.902	0.062	0.017
-673.135	-139.588	-0.322	0.035
-672.120	-1.695	-0.059	0.041
-671.105	-172.048	0.208	-0.007
-670.091	-141.632	-0.228	0.023
-669.076	-200.000	-0.023	0.168
-668.062	30.320	-0.309	0.266
-667.047	-200.000	0.066	0.397
-666.032	-38.121	-0.189	0.101
-665.018	115.635	-0.222	-0.273
-664.003	800.000	0.102	-0.327
-662.989	-134.604	0.143	0.018
-661.974	85.629	0.112	0.124
-660.959	-104.943	-0.032	-0.007
-659.945	34.841	0.356	0.313
-658.930	-200.000	0.076	-0.343
-657.916	-95.235	-0.020	-0.005
-656.901	-34.973	0.211	-0.116
-655.886	28.611	-0.295	0.252
-654.872	81.919	0.111	0.121
-653.857	424.616	-0.113	-0.245
-652.843	-123.350	0.083	-0.013
-651.828	135.397	0.077	-0.100
-650.814	54.349	-0.279	-0.271
-649.799	-92.064	0.100	0.029
-648.784	-200.000	0.011	0.416
-647.770	-9.345	-0.155	-0.104
-646.755	-24.768	-0.201	-0.120
-645.741	213.498	0.076	0.121
-644.726	741.532	-0.039	-0.104
-643.711	-10.727	-0.153	-0.101
-642.697	92.852	0.098	-0.112
-641.682	-200.000	0.058	0.432
-640.668	164.192	-0.124	0.175
-639.653	83.757	-0.245	-0.269
-638.638	-110.749	0.243	0.050
-637.624	-100.925	-0.385	-0.095
-636.609	-200.000	-0.032	0.333
-635.595	-71.982	0.288	-0.108
-634.580	-117.740	-0.218	0.039
-633.565	-48.783	-0.084	0.041
-632.551	126.483	0.079	-0.101
-631.536	-92.443	-0.119	-0.034
-630.522	-15.180	0.099	-0.063
-629.507	800.000	-0.060	0.261
-628.492	-200.000	-0.057	-0.294
-627.478	800.000	0.048	-0.150
-626.463	-66.429	-0.153	-0.061
-625.449	755.020	0.052	-0.140
-624.434	800.000	0.028	-0.106
-623.419	-200.000	-0.008	0.106
-622.405	76.565	0.126	0.134
-621.390	5.431	-0.186	-0.138
-620.376	486.912	0.088	-0.202
-619.361	-200.000	0.005	0.073
-618.346	-200.000	-0.044	0.283
-617.332	-10.799	-0.293	0.194
-616.317	536.056	0.142	-0.338
-615.303	-40.656	0.348	0.181
-614.288	-102.289	0.120	0.029
-613.273	-63.369	-0.296	-0.123
-612.259	800.000	-0.159	-0.452
-611.244	543.809	-0.148	-0.356
-610.230	-94.619	-0.379	-0.104
-609.215	551.643	0.131	-0.316
-608.201	800.000	-0.030	0.113
-607.186	-79.508	-0.147	0.050
-606.171	800.000	-0.025	0.097
-605.157	92.466	0.044	-0.050
-604.142	800.000	0.046	0.142
-603.128	-200.000	0.027	-0.129
-602.113	262.631	-0.157	0.273
-601.098	-58.278	0.238	-0.104
-600.084	61.440	0.092	-0.092
-599.069	-200.000	-0.035	-0.467
-598.055	-121.013	0.052	0.009
-597.040	-62.354	-0.212	-0.089
-596.025	102.355	-0.249	0.292
-595.011	-200.000	-0.080	0.452
-593.996	-11.786	-0.238	-0.157
-592.982	-200.000	0.034	-0.405
-591.967	-200.000	-0.022	-0.138
-590.952	800.000	0.015	0.064
-589.938	800.000	-0.051	-0.212
-588.923	-197.372	-0.325	0.002
-587.909	154.178	-0.144	0.199
-586.894	-94.702	-0.405	-0.111
-585.879	800.000	-0.047	-0.153
-584.865	16.665	-0.185	-0.147
-583.850	-14.876	0.215	0.138
-582.836	-139.610	-0.181	0.019
-581.821	-200.000	0.012	-0.250
-580.806	-112.035	-0.107	-0.022
-579.792	-48.304	0.161	-0.078
-578.777	679.660	-0.131	-0.343
-577.763	-63.220	0.038	-0.016
-576.748	35.967	-0.192	-0.169
-575.733	-112.737	-0.220	0.044
-574.719	384.197	0.155	-0.321
-573.704	-104.368	-0.194	-0.045
-572.690	58.644	-0.156	0.154
-571.675	-158.513	0.067	0.004
-570.661	-67.872	-0.153	-0.060
-569.646	571.027	0.191	0.465
-568.631	180.894	0.111	-0.163
-567.617	65.163	0.077	-0.078
-566.602	-200.000	-0.083	0.470
-565.588	-200.000	-0.068	-0.307
-564.573	-93.794	-0.365	0.101
-563.558	234.850	0.199	-0.329
-562.544	-45.938	0.193	0.096
-561.529	293.549	-0.097	0.178
-560.515	800.000	0.078	-0.279
-559.500	-121.585	-0.176	0.029
-558.485	-200.000	-0.023	-0.115
-557.471	46.778	0.328	-0.306
-556.456	-52.883	0.074	-0.034
-555.442	-80.630	-0.280	-0.093
-554.427	591.413	0.022	0.055
-553.412	800.000	-0.079	-0.281
-552.398	-200.000	-0.011	-0.529
-551.383	236.889	-0.217	-0.360
-550.369	-104.988	0.151	-0.035
-549.354	-111.163	0.131	-0.027
-548.339	-200.000	0.017	0.076
-547.325	202.421	0.215	-0.333
-546.310	-152.277	-0.048	-0.003
-545.296	65.594	-0.242	0.246
-544.281	70.061	0.106	0.109
-543.266	-200.000	-0.007	0.177
-542.252	800.000	0.076	-0.264
-541.237	775.234	0.082	-0.223
-540.223	-47.210	-0.303	-0.148
-539.208	-102.901	-0.285	0.068
-538.193	384.844	0.056	-0.115
-537.179	-200.000	0.033	-0.351
-536.164	51.246	-0.079	-0.075
-535.150	94.496	-0.119	-0.135
-534.135	72.352	-0.147	0.153
-533.121	-81.029	0.155	-0.051
-532.106	-76.527	0.150	0.053
-531.091	-22.367	-0.278	0.169
-530.077	-62.513	-0.163	-0.068
-529.062	-19.659	0.136	0.084
-528.048	-13.379	0.238	-0.155
-527.033	800.000	-0.089	-0.282
-526.018	90.002	0.208	-0.233
-525.004	146.376	0.130	-0.174
-523.989	102.445	0.209	0.245
-522.975	-200.000	-0.010	-0.194
-521.960	-87.687	0.154	0.046
-520.945	156.177	-0.026	0.037
-519.931	800.000	-0.028	-0.108
-518.916	-200.000	0.007	0.314
-517.902	210.940	0.022	-0.035
-516.887	286.477	-0.151	0.273
-515.872	159.609	-0.178	0.249
-514.858	14.072	-0.067	0.052
-513.843	-200.000	-0.047	-0.364
-512.829	65.865	0.333	0.338
-511.814	569.182	0.104	0.254
-510.799	-59.948	0.306	0.131
-509.785	-104.264	0.408	-0.095
-508.770	-200.000	-0.028	-0.364
-507.756	800.000	0.040	0.136
-506.741	72.836	0.208	0.217
-505.726	423.020	0.198	-0.426
-504.712	-200.000	-0.033	0.191
-503.697	589.668	0.057	0.140
-502.683	800.000	0.050	-0.186
-501.668	-200.000	0.052	-0.325
-500.653	800.000	0.046	0.152
-499.639	800.000	-0.063	0.233
-498.624	-200.000	-0.003	0.364
-497.610	-200.000	0.006	0.032
-496.595	-150.565	0.377	0.029
-495.581	174.302	-0.104	-0.150
-494.566	-200.000	-0.023	-0.188
-493.551	1.279	0.287	0.206
-492.537	-200.000	0.024	-0.218
-491.522	-68.001	0.223	-0.087
-490.508	-123.743	0.258	-0.041
-489.493	-160.419	0.278	0.015
-488.478	-163.763	-0.198	-0.009
-487.464	-200.000	0.044	0.297
-486.449	-116.984	0.270	0.049
-485.435	-102.975	0.067	0.016
-484.420	-19.996	0.282	0.174
-483.405	195.897	-0.119	0.181
-482.391	-200.000	0.001	0.192
-481.376	-200.000	-0.272	-0.001
-480.362	321.108	-0.157	-0.299
-479.347	-149.501	0.021	-0.002
-478.332	-63.550	0.149	0.061
-477.318	-130.163	-0.251	0.034
-476.303	144.789	-0.035	-0.047
-475.289	-191.609	-0.339	0.003
-474.274	66.569	-0.077	-0.078
-473.259	-130.280	-0.120	-0.016
-472.245	-97.394	0.278	0.072
-471.230	74.406	0.168	-0.177
-470.216	295.217	-0.071	0.130
-469.201	-155.506	-0.241	0.016
-468.186	-166.750	-0.314	0.013
-467.172	227.469	-0.111	0.181
-466.157	-200.000	-0.013	0.306
-465.143	-200.000	0.011	0.270
-464.128	-200.000	0.010	-0.053
-463.113	-121.226	-0.195	0.033
-462.099	-75.024	-0.173	-0.062
-461.084	800.000	-0.061	0.260
-460.070	639.000	-0.014	0.037
-459.055	155.826	0.229	-0.316
-458.040	109.460	-0.310	-0.371
-457.026	-28.525	0.201	0.116
-456.011	30.756	-0.238	0.204
-454.997	0.756	0.124	-0.089
-453.982	-200.000	0.060	0.473
-452.968	-67.603	-0.044	-0.017
-451.953	-59.882	0.161	0.069
-450.938	456.929	0.081	-0.179
-449.924	5.335	-0.063	-0.046
-448.909	420.830	0.089	-0.191
-447.895	-200.000	0.022	-0.193
-446.880	621.467	-0.058	0.145
-445.865	-144.123	-0.284	-0.027
-444.851	556.833	0.087	0.210
-443.836	183.180	0.053	-0.078
-442.822	92.920	0.042	-0.047
-441.807	26.266	-0.066	0.055
-440.792	2.025	0.171	0.123
-439.778	-72.662	-0.207	-0.076
-438.763	6.865	0.312	-0.232
-437.749	-200.000	0.003	0.086
-436.734	-43.061	-0.127	0.064
-435.719	74.393	-0.303	0.317
-434.705	132.293	0.249	0.320
-433.690	-131.052	-0.282	-0.037
-432.676	-139.387	0.132	-0.014
-431.661	254.587	-0.093	0.159
-430.646	-200.000	-0.370	-0.002
-429.632	800.000	0.028	0.083
-428.617	800.000	0.109	-0.441
-427.603	124.356	-0.153	0.192
-426.588	418.550	0.098	-0.208
-425.573	-173.270	0.135	-0.004
-424.559	80.911	0.026	0.028
-423.544	613.233	-0.026	0.064
-422.530	-200.000	-0.021	0.197
-421.515	-52.724	-0.072	-0.033
-420.500	12.360	-0.052	0.040
-419.486	-88.723	0.130	-0.039
-418.471	-101.883	0.199	0.048
-417.457	94.589	-0.215	0.243
-416.442	-78.191	0.195	0.067
-415.428	4.478	0.126	0.092
-414.413	-27.999	0.304	0.176
-413.398	32.282	-0.208	0.179
-412.384	-200.000	0.013	-0.164
-411.369	-200.000	-0.005	0.197
-410.355	162.436	0.060	0.084
-409.340	-200.000	-0.027	-0.160
-408.325	131.288	-0.191	-0.244
-407.311	-200.000	0.037	-0.000
-406.296	-200.000	0.041	-0.239
-405.282	-86.844	-0.373	0.113
-404.267	-50.883	0.155	-0.072
-403.252	187.520	0.252	-0.375
-402.238	-80.940	0.082	0.027
-401.223	800.000	-0.073	0.233
-400.209	38.254	-0.274	0.243
-399.194	41.217	0.232	-0.209
-398.179	-84.081	0.163	-0.051
-397.165	68.705	-0.135	-0.138
-396.150	-200.000	0.033	0.283
-395.136	389.767	0.028	0.057
-394.121	-45.603	-0.298	-0.147
-393.106	-198.624	-0.484	0.003
-392.092	-200.000	0.026	-0.143
-391.077	800.000	-0.109	-0.344
-390.063	94.294	0.081	0.091
-389.048	-127.806	0.039	-0.006
-388.033	-91.662	-0.517	0.146
-387.019	-200.000	0.003	0.379
-386.004	148.606	-0.080	0.107
-384.990	800.000	-0.033	0.113
-383.975	272.062	-0.117	0.205
-382.960	-200.000	-0.029	-0.144
-381.946	-34.034	0.168	0.092
-380.931	-73.547	-0.110	0.040
-379.917	-200.000	-0.001	0.261
-378.902	-14.148	-0.207	-0.133
-377.888	-200.000	-0.190	0.000
-376.873	734.895	0.088	0.235
-375.858	-129.663	0.398	-0.055
-374.844	800.000	0.022	0.084
-373.829	-200.000	-0.005	0.066
-372.815	22.069	0.337	-0.274
-371.800	-200.000	0.005	-0.248
-370.785	-200.000	-0.009	-0.196
-369.771	162.509	0.060	0.084
-368.756	-5.971	0.154	0.105
-367.742	31.924	0.186	-0.160
-366.727	-76.337	-0.240	0.084
-365.712	593.511	-0.016	0.040
-364.698	-146.557	0.271	0.023
-363.683	-110.686	0.451	0.093
-362.669	-200.000	0.061	0.403
-361.654	800.000	-0.094	-0.306
-360.639	-51.035	-0.138	0.064
-359.625	-32.786	-0.313	0.173
-358.610	32.770	-0.127	-0.110
-357.596	-200.000	0.011	-0.081
-356.581	-96.711	0.181	-0.047
-355.566	-108.435	-0.257	-0.055
-354.552	450.272	0.086	-0.188
-353.537	99.479	0.159	0.183
-352.523	-16.559	0.315	0.198
-351.508	-103.207	-0.150	-0.035
-350.493	-183.282	-0.130	0.002
-349.479	800.000	0.097	0.321
-348.464	307.003	0.105	-0.194
-347.450	785.584	0.055	0.150
-346.435	-126.914	0.443	0.065
-345.420	3.545	0.048	-0.035
-344.406	216.083	0.249	0.393
-343.391	356.977	-0.141	0.279
-342.377	-137.552	-0.435	0.049
-341.362	-137.586	0.113	-0.013
-340.348	260.635	0.064	0.110
-339.333	800.000	0.050	0.174
-338.318	28.497	0.312	-0.263
-337.304	35.999	-0.222	-0.194
-336.289	-99.699	0.156	0.039
-335.275	-200.000	0.011	0.092
-334.260	800.000	0.011	-0.047
-333.245	19.009	0.248	0.197
-332.231	201.559	-0.105	0.160
-331.216	102.537	0.256	0.298
-330.202	666.836	0.106	-0.273
-329.187	800.000	0.021	0.084
-328.172	81.153	0.182	0.196
-327.158	86.073	-0.226	-0.247
-326.143	155.072	-0.111	-0.151
-325.129	-160.896	-0.320	0.017
-324.114	148.599	-0.110	0.148
-323.099	22.494	0.179	-0.145
-322.085	-200.000	0.064	-0.323
-321.070	21.208	0.092	0.075
-320.056	-16.527	0.308	-0.194
-319.041	-102.784	-0.356	0.084
-318.026	-104.800	0.119	-0.027
-317.012	77.200	0.257	0.271
-315.997	-131.802	-0.233	0.030
-314.983	-77.597	-0.236	0.081
-313.968	-26.838	0.386	-0.224
-312.953	168.942	-0.096	-0.137
-311.939	9.504	0.307	-0.231
-310.924	-73.231	0.160	0.058
-309.910	98.877	-0.156	0.179
-308.895	-28.612	-0.289	0.165
-307.880	-144.252	0.486	0.045
-306.866	-161.026	0.071	0.004
-305.851	-102.390	0.340	-0.081
-304.837	-200.000	0.049	-0.222
-303.822	142.489	0.230	-0.303
-302.807	336.828	0.032	-0.062
-301.793	46.142	0.037	-0.034
-300.778	-27.756	0.280	0.161
-299.764	-119.826	-0.389	-0.067
-298.749	-177.453	0.273	0.007
-297.735	-24.723	-0.256	-0.151
-296.720	-134.169	-0.091	-0.011
-295.705	91.842	-0.071	0.080
-294.691	-140.149	-0.333	0.035
-293.676	-5.744	-0.187	-0.127
-292.662	124.770	-0.205	0.257
-291.647	800.000	-0.094	-0.285
-290.632	-200.000	-0.018	0.100
-289.618	27.025	-0.209	-0.174
-288.603	-46.363	-0.183	-0.089
-287.589	-98.108	0.228	-0.058
-286.574	-40.489	0.153	0.079
-285.559	-200.000	0.004	0.022
-284.545	-199.287	0.107	0.001
-283.530	227.759	0.066	0.106
-282.516	585.219	0.033	-0.081
-281.501	397.694	0.081	-0.168
-280.486	31.580	0.294	-0.251
-279.472	145.504	-0.251	0.334
-278.457	169.745	-0.141	-0.200
-277.443	-200.000	0.010	0.080
-276.428	-101.072	-0.278	-0.068
-275.413	-74.473	-0.110	0.039
-274.399	149.198	0.052	-0.069
-273.384	165.697	-0.106	0.148
-272.370	134.806	0.170	-0.219
-271.355	348.945	-0.049	0.096
-270.340	-7.293	-0.255	0.171
-269.326	-200.000	-0.007	0.046
-268.311	-189.791	-0.173	-0.002
-267.297	-44.116	0.280	-0.140
-266.282	-61.214	0.329	-0.137
-265.267	316.989	0.078	-0.146
-264.253	12.420	-0.158	0.121
-263.238	-200.000	0.016	-0.126
-262.224	49.585	-0.225	-0.210
-261.209	800.000	0.039	0.142
-260.195	-28.198	-0.027	0.015
-259.180	-65.448	0.190	-0.076
-258.165	-36.060	-0.086	-0.046
-257.151	-200.000	-0.016	0.225
-256.136	151.181	0.186	-0.251
-255.122	-200.000	0.003	-0.164
-254.107	29.303	0.318	0.267
-253.092	-200.000	0.052	0.281
-252.078	-17.291	-0.226	0.141
-251.063	-25.984	-0.090	0.052
-250.049	-22.435	0.324	0.195
-249.034	153.752	-0.110	0.150
-248.019	30.278	0.345	-0.292
-247.005	-200.000	-0.030	0.158
-245.990	-200.000	0.024	-0.335
-244.976	800.000	-0.029	0.087
-243.961	276.866	-0.078	0.137
-242.946	81.043	0.172	-0.184
-241.932	-200.000	-0.015	-0.351
-240.917	245.031	0.097	-0.161
-239.903	-143.345	0.247	0.023
-238.888	-33.118	-0.075	0.041
-237.873	44.236	0.038	0.035
-236.859	-13.388	-0.199	0.128
-235.844	-200.000	0.065	-0.331
-234.830	-81.645	-0.205	0.067
-233.815	-199.077	-0.061	-0.000
-232.800	83.591	0.125	0.135
-231.786	234.115	0.097	0.158
-230.771	-0.197	-0.230	-0.162
-229.757	-130.168	0.289	-0.039
-228.742	130.443	0.084	0.106
-227.727	124.051	-0.090	0.112
-226.713	84.287	0.082	-0.088
-225.698	-108.311	0.412	-0.088
-224.684	259.117	-0.111	0.189
-223.669	-109.187	-0.346	-0.073
-222.655	-99.119	0.521	-0.130
-221.640	-200.000	-0.003	-0.105
-220.625	-200.000	-0.001	0.162
-219.611	-200.000	0.015	0.173
-218.596	-5.991	0.298	0.202
-217.582	-200.000	-0.005	0.048
-216.567	49.129	-0.111	-0.103
-215.552	484.475	0.146	-0.328
-214.538	-196.544	-0.572	-0.004
-213.523	42.014	0.063	0.057
-212.509	88.081	-0.058	0.064
-211.494	-200.000	-0.011	0.304
-210.479	127.995	0.187	0.235
-209.465	-200.000	-0.022	0.366
-208.450	95.855	-0.170	-0.192
-207.436	-200.000	0.012	0.278
-206.421	800.000	-0.041	0.161
-205.406	-132.635	-0.238	0.030
-204.392	575.304	-0.067	-0.161
-203.377	4.929	-0.280	0.204
-202.363	-6.853	-0.059	-0.039
-201.348	-81.685	0.178	0.058
-200.333	134.163	-0.226	0.290
-199.319	783.899	0.047	0.126
-198.304	-95.804	0.351	0.093
-197.290	-18.013	0.213	0.132
-196.275	75.828	0.151	0.158
-195.260	-24.571	-0.461	-0.271
-194.246	113.799	0.120	-0.144
-193.231	800.000	-0.022	0.089
-192.217	-29.181	0.322	0.183
-191.202	-200.000	-0.029	-0.182
-190.187	-200.000	-0.036	0.162
-189.173	800.000	0.024	0.066
-188.158	800.000	0.045	0.182
-187.144	46.170	-0.158	-0.145
-186.129	-105.803	-0.117	-0.026
-185.114	20.316	-0.216	0.173
-184.100	-125.099	0.315	0.048
-183.085	204.285	0.113	0.173
-182.071	-21.109	-0.173	-0.105
-181.056	327.301	-0.078	-0.148
-180.042	-35.356	-0.256	-0.138
-179.027	-200.000	-0.034	0.308
-178.012	-67.083	0.106	-0.041
-176.998	69.158	-0.159	-0.162
-175.983	105.321	-0.060	0.070
-174.969	174.556	0.052	-0.074
-173.954	800.000	0.107	-0.343
-172.939	-45.757	0.224	-0.109
-171.925	74.192	0.152	0.157
-170.910	49.225	0.042	-0.039
-169.896	347.665	0.099	-0.193
-168.881	246.078	-0.085	0.142
-167.866	-184.462	-0.021	0.000
-166.852	109.300	0.216	0.256
-165.837	24.387	-0.283	0.231
-164.823	-9.468	0.229	0.151
-163.808	245.549	0.172	0.286
-162.793	-11.744	0.219	0.142
-161.779	179.525	0.279	-0.403
-160.764	-64.125	-0.066	-0.026
-159.750	96.815	-0.274	-0.310
-158.735	-111.765	0.069	0.014
-157.720	57.413	-0.216	-0.208
-156.706	-166.235	-0.182	-0.008
-155.691	145.827	-0.063	-0.083
-154.677	-10.588	0.197	0.129
-153.662	748.861	-0.023	-0.061
-152.647	351.870	-0.128	0.250
-151.633	87.825	0.114	0.124
-150.618	-115.452	-0.054	-0.010
-149.604	51.359	0.208	0.194
-148.589	53.521	0.194	-0.184
-147.574	4.494	0.308	0.223
-146.560	-157.920	-0.130	-0.008
-145.545	-200.000	0.010	-0.058
-144.531	-84.073	-0.091	-0.029
-143.516	130.101	-0.097	-0.123
-142.502	-200.000	0.011	-0.284
-141.487	-136.396	0.086	0.010
-140.472	-65.201	0.081	0.032
-139.458	597.043	-0.074	-0.180
-138.443	-22.154	-0.048	0.028
-137.429	1.191	0.162	-0.115
-136.414	43.915	-0.080	-0.073
-135.399	126.679	-0.211	-0.264
-134.385	176.725	0.166	0.237
-133.370	-60.215	-0.316	-0.133
-132.356	800.000	-0.015	-0.052
-131.341	-137.680	0.132	-0.015
-130.326	-200.000	0.016	0.187
-129.312	-160.061	-0.075	0.004
-128.297	51.030	0.055	-0.051
-127.283	316.836	-0.167	0.311
-126.268	-82.374	0.135	0.043
-125.253	256.951	-0.127	-0.215
-124.239	511.349	-0.122	0.280
-123.224	-188.926	-0.170	-0.002
-122.210	800.000	-0.082	0.283
-121.195	-120.005	0.119	-0.020
-120.180	-60.143	-0.112	0.047
