DTS Sentinel unit serial number:	SN413079Multiplexer serial number:	ORYXHardware model number:	OX4-SRSoftware version number:	ORYX F/W v4.00 Oryx Data Collector v3.7.2.0data status	okinstallation	princeton_trtdifferential loss correction	single-endedforward channel	channel 2reverse channel	N/Adate	2019/09/13time	05:07:35forward acquisition time	60.00reverse acquisition time	0.00gamma	496.2192k internal	0.2336k external	0.2336temperature offset calibration	1.0188default loss term (dB/km)	0.3790temperature slope calibration	1.0000multiplexer offset coefficient	1.0000multiplexer slope coefficient	1.0000fibre end	0.00T internal ref (°C)	26.44T ext. ref 1 (°C)	4.04T ext. ref 2 (°C)	20.88length (m)	temperature (°C)	Stokes	anti-Stokes-747.200	366.765	-0.069	0.140
-746.185	800.000	-0.046	0.136
-745.171	-48.035	0.183	0.089
-744.156	-41.613	-0.182	0.094
-743.142	409.024	-0.190	-0.404
-742.127	24.616	-0.408	0.339
-741.112	-117.624	-0.283	-0.051
-740.098	-77.607	-0.169	-0.059
-739.083	229.456	0.095	-0.156
-738.069	-82.246	0.288	-0.094
-737.054	-178.812	-0.141	0.003
-736.039	85.683	-0.167	0.184
-735.025	-90.548	0.064	0.018
-734.010	-51.265	-0.088	-0.041
-732.996	-151.124	-0.201	-0.015
-731.981	513.698	0.096	-0.225
-730.966	-101.803	-0.293	0.071
-729.952	158.239	-0.091	0.127
-728.937	-135.378	0.068	-0.008
-727.923	-34.211	-0.275	-0.151
-726.908	298.596	0.056	0.103
-725.894	800.000	0.081	-0.227
-724.879	153.178	-0.168	-0.231
-723.864	250.969	-0.083	-0.141
-722.850	-38.839	-0.193	-0.102
-721.835	379.673	0.076	-0.156
-720.821	-200.000	-0.042	-0.191
-719.806	459.307	-0.159	-0.355
-718.791	-200.000	-0.008	-0.269
-717.777	800.000	0.030	-0.110
-716.762	296.140	-0.071	0.131
-715.748	275.700	-0.123	-0.219
-714.733	-1.131	-0.371	0.263
-713.718	176.253	0.066	-0.097
-712.704	467.455	-0.129	-0.290
-711.689	228.360	0.154	0.252
-710.675	-47.051	0.173	-0.085
-709.660	58.599	-0.246	-0.243
-708.645	800.000	0.071	-0.217
-707.631	32.818	-0.185	-0.160
-706.616	96.458	-0.171	-0.196
-705.602	457.117	-0.126	0.281
-704.587	-66.352	-0.177	-0.071
-703.572	34.965	-0.094	0.083
-702.558	125.534	0.181	0.229
-701.543	0.652	0.324	-0.232
-700.529	37.456	0.105	0.093
-699.514	21.039	-0.057	-0.046
-698.499	-200.000	-0.039	-0.208
-697.485	-200.000	0.011	-0.233
-696.470	800.000	-0.118	-0.377
-695.456	-133.411	-0.168	-0.021
-694.441	-62.376	0.071	0.030
-693.426	-160.364	0.182	0.010
-692.412	-50.135	-0.323	0.153
-691.397	137.787	0.031	-0.041
-690.383	-200.000	0.001	-0.104
-689.368	55.811	0.271	-0.263
-688.354	-116.982	-0.213	-0.039
-687.339	-78.294	-0.239	-0.082
-686.324	-59.569	0.045	0.020
-685.310	-81.111	0.105	-0.035
-684.295	-200.000	0.014	0.109
-683.281	-35.329	0.106	0.058
-682.266	-200.000	-0.013	-0.156
-681.251	-200.000	-0.010	-0.130
-680.237	-200.000	-0.010	-0.094
-679.222	-32.895	-0.056	0.031
-678.208	81.889	-0.059	-0.064
-677.193	-200.000	-0.034	-0.329
-676.178	-15.870	0.027	-0.017
-675.164	-37.295	0.244	0.130
-674.149	-200.000	-0.029	-0.216
-673.135	64.254	0.013	-0.013
-672.120	14.742	-0.116	0.091
-671.105	-102.025	-0.099	-0.024
-670.091	-200.000	0.053	-0.456
-669.076	-200.000	-0.006	0.075
-668.062	32.109	-0.138	-0.119
-667.047	-67.877	0.407	-0.159
-666.032	-111.317	-0.108	-0.022
-665.018	-118.776	-0.233	-0.041
-664.003	800.000	-0.025	0.100
-662.989	-111.718	-0.216	0.044
-661.974	-81.137	-0.036	-0.012
-660.959	-200.000	-0.012	-0.181
-659.945	800.000	0.046	0.193
-658.930	800.000	-0.042	0.134
-657.916	-200.000	-0.027	0.232
-656.901	21.718	0.317	-0.259
-655.886	42.012	-0.115	-0.105
-654.872	-104.096	0.111	0.026
-653.857	749.381	0.029	-0.079
-652.843	-107.978	0.312	-0.068
-651.828	-137.914	-0.105	-0.012
-650.814	-35.284	-0.076	-0.041
-649.799	-200.000	-0.098	-0.443
-648.784	-145.893	-0.212	0.019
-647.770	-30.813	-0.218	0.123
-646.755	467.334	-0.071	0.159
-645.741	260.544	0.073	0.126
-644.726	36.566	-0.322	0.285
-643.711	671.261	-0.082	0.212
-642.697	99.546	0.103	0.119
-641.682	-178.171	0.124	0.003
-640.668	800.000	0.028	-0.092
-639.653	-23.718	0.008	-0.005
-638.638	114.286	0.100	-0.122
-637.624	403.936	-0.187	-0.394
-636.609	39.236	0.160	0.143
-635.595	-55.612	0.286	0.128
-634.580	-86.431	-0.319	0.098
-633.565	-77.786	0.341	0.118
-632.551	270.934	0.173	-0.305
-631.536	201.253	0.110	-0.169
-630.522	-200.000	0.002	0.284
-629.507	-71.425	-0.189	0.071
-628.492	-128.347	-0.295	-0.042
-627.478	14.795	0.296	0.232
-626.463	32.669	-0.058	0.050
-625.449	-200.000	0.015	-0.180
-624.434	-200.000	-0.031	0.175
-623.419	76.919	-0.141	0.149
-622.405	-113.993	-0.113	0.022
-621.390	-68.524	-0.419	0.162
-620.376	197.911	0.174	0.266
-619.361	-104.009	-0.257	-0.060
-618.346	-80.449	-0.265	-0.088
-617.332	-60.022	0.096	-0.041
-616.317	800.000	0.096	0.403
-615.303	-199.961	-0.229	0.001
-614.288	-131.635	-0.400	0.052
-613.273	-200.000	0.019	-0.222
-612.259	-119.865	-0.215	0.037
-611.244	-130.556	0.185	-0.025
-610.230	160.162	0.058	0.081
-609.215	-200.000	-0.015	0.234
-608.201	-200.000	-0.033	-0.206
-607.186	-154.547	-0.204	0.014
-606.171	-38.345	-0.176	0.093
-605.157	261.967	0.040	-0.070
-604.142	-7.973	0.307	0.207
-603.128	242.284	0.069	0.116
-602.113	-79.694	0.088	-0.030
-601.098	-151.601	0.266	-0.020
-600.084	-132.636	-0.068	-0.009
-599.069	151.155	0.069	-0.093
-598.055	-99.763	-0.177	-0.044
-597.040	-120.474	-0.290	-0.049
-596.025	-200.000	0.013	-0.352
-595.011	-200.000	-0.003	-0.084
-593.996	800.000	-0.014	0.040
-592.982	-121.227	0.245	0.041
-591.967	63.024	-0.207	-0.207
-590.952	2.852	-0.362	0.262
-589.938	-59.670	0.147	-0.063
-588.923	-200.000	-0.433	-0.002
-587.909	17.842	-0.143	-0.114
-586.894	29.815	0.099	-0.084
-585.879	-75.396	-0.211	-0.075
-584.865	-123.399	0.238	0.038
-583.850	-19.502	0.277	0.171
-582.836	-132.064	0.308	-0.040
-581.821	-34.446	0.140	-0.077
-580.806	-107.118	-0.396	-0.087
-579.792	-23.025	0.100	-0.060
-578.777	3.218	-0.040	-0.029
-577.763	-72.719	0.315	-0.116
-576.748	424.594	-0.095	0.205
-575.733	-200.000	-0.004	-0.181
-574.719	-61.875	0.104	0.043
-573.704	800.000	-0.098	-0.345
-572.690	3.251	0.133	0.097
-571.675	-74.466	-0.146	0.052
-570.661	-97.272	0.152	0.040
-569.646	-200.000	-0.031	-0.212
-568.631	66.460	-0.028	-0.029
-567.617	-83.719	0.053	0.017
-566.602	800.000	0.060	-0.182
-565.588	-41.598	-0.073	0.038
-564.573	-42.219	0.135	-0.069
-563.558	-200.000	0.039	-0.216
-562.544	280.746	0.111	0.198
-561.529	12.621	-0.175	-0.134
-560.515	-101.808	0.121	0.029
-559.500	-115.942	-0.175	0.032
-558.485	552.762	-0.140	-0.335
-557.471	220.615	0.198	-0.316
-556.456	99.808	-0.039	-0.045
-555.442	-31.457	-0.232	-0.130
-554.427	638.676	-0.093	-0.236
-553.412	361.623	-0.038	0.075
-552.398	-152.628	-0.114	0.008
-551.383	27.923	-0.213	0.179
-550.369	265.293	0.241	-0.419
-549.354	35.947	0.159	0.140
-548.339	46.256	0.118	-0.109
-547.325	-22.181	-0.146	0.088
-546.310	139.355	0.104	-0.137
-545.296	-141.225	-0.438	0.044
-544.281	-200.000	-0.036	-0.217
-543.266	5.342	-0.093	-0.069
-542.252	-133.710	0.283	-0.035
-541.237	144.268	-0.153	-0.203
-540.223	-58.403	-0.241	0.104
-539.208	225.191	-0.065	0.105
-538.193	-50.008	-0.230	0.109
-537.179	-61.118	0.086	0.036
-536.164	29.466	0.308	0.261
-535.150	800.000	0.111	0.340
-534.135	-140.817	-0.270	0.028
-533.121	-200.000	-0.024	0.360
-532.106	-112.609	0.102	-0.020
-531.091	30.451	-0.235	-0.200
-530.077	-200.000	-0.025	-0.280
-529.062	-20.202	0.082	0.050
-528.048	6.513	-0.285	-0.211
-527.033	-200.000	-0.006	-0.313
-526.018	-158.691	-0.099	-0.006
-525.004	229.305	-0.082	0.133
-523.989	22.947	0.306	0.250
-522.975	-58.584	-0.197	0.085
-521.960	-75.457	-0.141	-0.050
-520.945	800.000	0.058	0.189
-519.931	147.090	0.095	-0.127
-518.916	800.000	0.094	-0.281
-517.902	124.280	0.203	0.254
-516.887	-56.808	0.530	-0.233
-515.872	82.358	-0.217	0.235
-514.858	573.204	-0.139	0.337
-513.843	-63.341	0.174	-0.071
-512.829	-16.432	-0.107	0.068
-511.814	-200.000	0.002	-0.020
-510.799	-37.206	-0.056	0.030
-509.785	193.747	0.152	0.230
-508.770	132.587	0.076	0.097
-507.756	-200.000	0.017	-0.184
-506.741	633.294	-0.109	0.276
-505.726	-62.277	0.093	0.038
-504.712	131.744	-0.043	0.055
-503.697	-1.299	0.095	-0.066
-502.683	319.393	-0.041	-0.077
-501.668	-200.000	-0.006	0.316
-500.653	-52.515	0.216	-0.099
-499.639	-29.782	0.127	0.072
-498.624	472.580	0.079	0.178
-497.610	-36.652	-0.469	0.251
-496.595	800.000	-0.106	0.364
-495.581	14.537	-0.051	-0.039
-494.566	562.223	0.054	0.129
-493.551	2.544	-0.454	0.327
-492.537	665.831	-0.103	0.264
-491.522	-13.316	-0.089	-0.057
-490.508	153.182	0.165	0.225
-489.493	-98.827	-0.235	0.059
-488.478	-83.398	0.351	0.112
-487.464	-200.000	0.003	-0.115
-486.449	-95.985	0.205	-0.054
-485.435	-29.585	-0.039	-0.022
-484.420	-81.779	0.484	-0.158
-483.405	-66.313	-0.247	0.098
-482.391	28.494	0.223	-0.188
-481.376	-139.708	-0.217	0.023
-480.362	-86.365	-0.279	-0.085
-479.347	-13.047	-0.057	-0.037
-478.332	152.102	0.033	0.045
-477.318	-88.181	0.256	-0.076
-476.303	-200.000	0.031	0.291
-475.289	789.078	0.098	0.267
-474.274	24.139	0.336	-0.276
-473.259	26.527	-0.201	-0.167
-472.245	657.605	-0.092	-0.235
-471.230	86.594	0.048	-0.053
-470.216	800.000	-0.086	-0.299
-469.201	-200.000	0.057	-0.303
-468.186	-200.000	0.029	0.325
-467.172	-200.000	0.014	-0.152
-466.157	-73.920	-0.135	0.049
-465.143	-200.000	-0.004	0.097
-464.128	-186.512	-0.356	0.005
-463.113	31.963	0.341	-0.292
-462.099	-200.000	-0.001	0.187
-461.084	800.000	0.036	0.156
-460.070	338.298	-0.133	0.257
-459.055	-116.685	-0.285	-0.052
-458.040	800.000	0.124	-0.402
-457.026	432.691	0.161	-0.346
-456.011	-168.278	0.302	-0.012
-454.997	-132.429	-0.124	0.016
-453.982	-113.823	-0.047	-0.009
-452.968	-104.371	0.151	0.035
-451.953	173.577	-0.317	-0.454
-450.938	-200.000	-0.002	0.136
-449.924	561.249	0.146	0.351
-448.909	480.851	-0.031	-0.070
-447.895	152.309	0.164	-0.222
-446.880	130.427	0.402	-0.512
-445.865	-200.000	-0.010	0.169
-444.851	-1.750	0.290	0.202
-443.836	-172.904	-0.250	-0.008
-442.822	-200.000	0.060	0.407
-441.807	683.403	0.041	0.106
-440.792	274.111	0.209	-0.367
-439.778	-95.370	-0.110	0.029
-438.763	-94.207	-0.066	-0.018
-437.749	59.707	-0.139	-0.136
-436.734	-200.000	-0.014	-0.254
-435.719	800.000	0.106	-0.304
-434.705	-71.402	0.140	0.052
-433.690	-26.934	0.224	-0.130
-432.676	-200.000	0.038	-0.208
-431.661	-16.434	0.275	0.173
-430.646	6.030	0.369	-0.271
-429.632	-133.086	-0.079	-0.010
-428.617	55.964	-0.190	-0.182
-427.603	800.000	0.075	-0.242
-426.588	-116.110	-0.048	-0.009
-425.573	-149.340	-0.471	-0.037
-424.559	90.150	-0.076	-0.084
-423.544	-44.952	0.088	-0.043
-422.530	-32.131	-0.177	-0.098
-421.515	156.644	-0.324	-0.444
-420.500	398.716	0.098	-0.203
-419.486	-200.000	0.018	-0.106
-418.471	-83.367	-0.224	0.071
-417.457	-41.123	0.131	0.067
-416.442	451.750	0.143	0.312
-415.428	-200.000	0.020	-0.259
-414.413	-77.313	0.038	-0.013
-413.398	47.379	0.051	0.047
-412.384	-103.013	0.241	0.057
-411.369	-42.116	-0.056	-0.028
-410.355	7.245	-0.071	0.053
-409.340	-2.334	-0.193	0.134
-408.325	800.000	0.118	0.458
-407.311	-200.000	-0.015	0.364
-406.296	-121.441	-0.231	-0.038
-405.282	800.000	0.017	0.058
-404.267	85.103	0.128	-0.140
-403.252	257.137	0.074	-0.126
-402.238	-22.766	0.226	-0.135
-401.223	-127.658	0.303	0.043
-400.209	-7.131	0.168	0.113
-399.194	59.966	-0.088	0.086
-398.179	-37.087	-0.278	-0.147
-397.165	498.090	-0.063	-0.144
-396.150	226.223	-0.174	0.280
-395.136	267.710	-0.136	-0.236
-394.121	-108.930	-0.121	0.026
-393.106	-73.323	0.267	0.097
-392.092	-137.964	0.115	-0.013
-391.077	-145.394	-0.161	-0.014
-390.063	-200.000	-0.005	0.118
-389.048	105.504	0.258	0.302
-388.033	-161.068	0.131	0.007
-387.019	-51.035	-0.161	-0.075
-386.004	-200.000	-0.000	0.392
-384.990	628.914	0.018	0.046
-383.975	-200.000	0.012	0.241
-382.960	-19.717	0.214	0.131
-381.946	-85.125	0.135	-0.042
-380.931	93.023	0.210	-0.234
-379.917	-57.591	0.376	0.163
-378.902	-11.695	0.126	0.082
-377.888	176.224	-0.132	-0.190
-376.873	22.666	0.330	-0.267
-375.858	-200.000	0.035	-0.155
-374.844	800.000	0.096	0.278
-373.829	-36.810	-0.280	-0.149
-372.815	46.850	0.150	-0.138
-371.800	-17.567	0.199	-0.124
-370.785	800.000	-0.106	-0.340
-369.771	-86.384	-0.111	0.034
-368.756	-168.251	-0.085	0.003
-367.742	90.720	0.120	-0.133
-366.727	800.000	-0.033	0.136
-365.712	16.645	0.053	0.041
-364.698	-200.000	-0.051	0.240
-363.683	-97.792	0.098	0.025
-362.669	207.980	0.151	-0.233
-361.654	800.000	-0.021	0.074
-360.639	683.000	-0.027	-0.068
-359.625	-8.872	0.059	-0.039
-358.610	246.168	-0.208	0.346
-357.596	696.969	-0.108	0.282
-356.581	34.001	-0.263	-0.226
-355.566	-200.000	-0.020	-0.268
-354.552	-54.511	0.280	-0.126
-353.537	800.000	0.021	-0.079
-352.523	-168.092	-0.112	-0.004
-351.508	-200.000	-0.018	-0.144
-350.493	800.000	0.034	-0.131
-349.479	134.177	-0.153	-0.196
-348.464	-167.991	-0.050	0.002
-347.450	-200.000	-0.030	0.211
-346.435	33.975	-0.229	0.197
-345.420	800.000	-0.060	-0.254
-344.406	-4.611	0.092	0.063
-343.391	-7.828	0.176	-0.117
-342.377	-48.178	-0.142	-0.068
-341.362	-200.000	0.012	-0.179
-340.348	-200.000	0.033	0.240
-339.333	800.000	0.040	0.165
-338.318	-186.558	0.179	-0.003
-337.304	646.834	0.043	-0.108
-336.289	375.628	-0.064	-0.129
-335.275	171.868	0.157	0.223
-334.260	292.747	0.136	0.246
-333.245	-9.732	-0.176	0.116
-332.231	27.623	-0.119	0.099
-331.216	-104.490	0.219	0.050
-330.202	350.059	0.020	0.040
-329.187	-200.000	0.016	0.074
-328.172	-200.000	0.026	-0.175
-327.158	-86.769	-0.252	0.076
-326.143	-94.951	-0.188	0.050
-325.129	342.363	0.101	0.195
-324.114	-200.000	-0.001	-0.185
-323.099	264.775	0.083	-0.143
-322.085	109.488	0.080	0.095
-321.070	-95.048	-0.293	0.078
-320.056	-150.630	-0.185	-0.014
-319.041	-156.960	0.322	-0.019
-318.026	-200.000	-0.050	-0.321
-317.012	-200.000	0.056	-0.326
-315.997	293.255	-0.045	-0.081
-314.983	-30.462	-0.148	-0.083
-313.968	234.483	-0.121	-0.197
-312.953	-144.217	0.183	0.017
-311.939	-136.875	-0.161	0.018
-310.924	-200.000	0.005	0.348
-309.910	800.000	0.059	-0.223
-308.895	245.470	-0.156	0.259
-307.880	-116.250	0.116	-0.021
-306.866	-96.745	-0.226	-0.059
-305.851	429.866	0.071	0.151
-304.837	2.536	0.175	-0.125
-303.822	-200.000	0.035	-0.337
-302.807	800.000	0.071	-0.233
-301.793	800.000	-0.056	-0.241
-300.778	800.000	0.078	0.217
-299.764	458.863	0.120	0.264
-298.749	-36.360	-0.114	-0.061
-297.735	34.624	0.055	-0.048
-296.720	-100.307	-0.025	-0.006
-295.705	-138.830	-0.357	0.038
-294.691	81.977	0.147	0.157
-293.676	497.023	0.100	0.227
-292.662	0.536	0.305	0.215
-291.647	639.437	0.052	-0.130
-290.632	471.239	-0.112	-0.249
-289.618	133.570	0.127	-0.162
-288.603	-108.675	-0.115	0.024
-287.589	490.928	-0.022	-0.050
-286.574	225.033	0.163	0.261
-285.559	-3.803	-0.062	0.042
-284.545	-95.534	-0.095	0.025
-283.530	382.052	-0.094	0.191
-282.516	-32.805	-0.075	-0.041
-281.501	-70.476	-0.255	-0.095
-280.486	-182.845	-0.231	0.004
-279.472	-200.000	-0.067	0.320
-278.457	800.000	0.094	0.272
-277.443	-57.571	-0.207	-0.089
-276.428	-90.766	-0.042	0.012
-275.413	-200.000	-0.013	-0.060
-274.399	-192.430	-0.300	0.003
-273.384	9.478	0.178	-0.133
-272.370	-200.000	0.061	-0.353
-271.355	800.000	-0.080	-0.281
-270.340	-15.340	-0.219	0.138
-269.326	8.745	-0.093	0.069
-268.311	159.648	-0.087	0.119
-267.297	250.586	0.206	0.345
-266.282	-134.813	0.097	-0.012
-265.267	800.000	-0.055	-0.204
-264.253	-88.693	-0.122	0.036
-263.238	800.000	-0.076	-0.290
-262.224	320.421	0.179	-0.335
-261.209	-176.537	0.245	0.006
-260.195	-200.000	0.053	-0.410
-259.180	-55.547	0.457	-0.202
-258.165	800.000	0.131	-0.527
-257.151	-22.438	-0.216	0.129
-256.136	-3.339	-0.080	0.055
-255.122	-200.000	0.031	0.195
-254.107	-10.922	-0.264	0.172
-253.092	379.972	-0.083	0.168
-252.078	-74.749	-0.191	0.068
-251.063	800.000	-0.025	0.092
-250.049	-69.724	0.064	-0.024
-249.034	-114.760	0.207	0.039
-248.019	203.145	-0.193	0.294
-247.005	-32.708	-0.081	-0.044
-245.990	-65.405	-0.165	-0.065
-244.976	12.760	0.154	0.117
-243.961	76.985	0.176	0.185
-242.946	332.682	0.143	-0.272
-241.932	-74.818	0.218	-0.077
-240.917	-200.000	-0.014	0.261
-239.903	-146.777	0.116	0.010
-238.888	102.504	0.280	0.323
-237.873	468.583	0.138	0.305
-236.859	51.384	-0.154	-0.144
-235.844	54.918	-0.329	0.312
-234.830	119.373	0.186	-0.227
-233.815	50.509	-0.078	-0.073
-232.800	-30.622	-0.188	0.105
-231.786	44.227	0.108	-0.098
-230.771	9.195	0.295	-0.219
-229.757	-90.975	0.079	-0.022
-228.742	-120.537	0.148	-0.025
-227.727	-64.830	-0.504	0.201
-226.713	-100.915	-0.237	0.057
-225.698	-133.462	-0.423	-0.052
-224.684	64.623	0.155	0.154
-223.669	319.715	-0.143	0.267
-222.655	-111.769	-0.264	0.052
-221.640	25.872	-0.146	-0.120
-220.625	-39.865	0.226	0.116
-219.611	-51.690	0.082	-0.037
-218.596	-7.573	0.166	-0.111
-217.582	2.557	0.129	0.092
-216.567	144.604	0.120	0.157
-215.552	31.585	0.139	0.118
-214.538	391.880	-0.040	0.081
-213.523	-38.507	0.134	0.070
-212.509	-76.427	0.307	0.106
-211.494	-61.480	-0.083	-0.034
-210.479	54.451	-0.132	-0.125
-209.465	-50.327	0.205	-0.095
-208.450	800.000	0.027	0.108
-207.436	17.369	0.287	-0.224
-206.421	108.402	-0.040	0.047
-205.406	-147.884	0.169	0.014
-204.392	90.150	-0.036	-0.040
-203.377	-150.521	-0.237	-0.018
-202.363	800.000	0.075	-0.219
-201.348	778.599	-0.185	0.496
-200.333	126.844	-0.081	0.101
-199.319	-119.835	0.037	0.006
-198.304	14.953	0.056	0.043
-197.290	199.583	-0.144	-0.217
-196.275	-200.000	-0.022	0.380
-195.260	323.456	-0.222	-0.416
-194.246	-0.694	-0.219	0.153
-193.231	31.964	0.121	0.103
-192.217	-200.000	0.045	0.233
-191.202	800.000	0.077	-0.292
-190.187	-62.310	0.170	-0.070
-189.173	-4.407	0.318	-0.216
-188.158	-200.000	0.039	-0.180
-187.144	-4.922	-0.269	-0.182
-186.129	-105.675	0.304	-0.068
-185.114	-35.342	0.362	0.194
-184.100	200.109	-0.227	-0.342
-183.085	-75.433	-0.150	-0.053
-182.071	-113.285	0.448	0.087
-181.056	199.868	0.055	0.083
-180.042	-106.537	0.074	-0.016
-179.027	800.000	-0.076	0.244
-178.012	-92.188	0.044	-0.012
-176.998	-200.000	0.032	-0.172
-175.983	800.000	-0.116	0.486
-174.969	561.439	0.061	0.144
-173.954	506.053	-0.061	0.139
-172.939	-200.000	0.013	0.241
-171.925	-200.000	0.049	-0.330
-170.910	319.691	-0.179	0.334
-169.896	-4.437	0.076	0.052
-168.881	-71.782	0.288	0.105
-167.866	69.365	0.184	-0.186
-166.852	205.458	0.061	0.092
-165.837	-119.260	0.149	-0.026
-164.823	266.596	0.014	0.024
-163.808	800.000	-0.015	0.062
-162.793	-200.000	0.030	0.170
-161.779	677.717	0.156	-0.399
-160.764	-33.164	-0.110	-0.060
-159.750	-93.347	0.173	0.047
-158.735	26.156	0.219	0.179
-157.720	-105.547	-0.603	0.134
-156.706	-59.992	0.130	-0.054
-155.691	597.659	0.108	0.263
-154.677	-37.329	-0.091	-0.048
-153.662	-85.199	-0.193	-0.059
-152.647	-119.272	-0.353	-0.060
-151.633	-56.515	-0.169	-0.073
-150.618	20.930	0.111	0.088
-149.604	-173.562	0.347	0.010
-148.589	2.655	0.100	-0.071
-147.574	-198.223	0.103	-0.001
-146.560	-90.503	-0.109	0.031
-145.545	7.926	-0.244	-0.180
-144.531	-200.000	0.024	-0.139
-143.516	-77.210	0.175	0.060
-142.502	-200.000	0.004	0.175
-141.487	-107.625	-0.011	0.002
-140.472	166.440	-0.136	-0.189
-139.458	800.000	0.015	0.058
-138.443	207.973	0.363	0.556
-137.429	215.489	0.155	-0.241
-136.414	46.621	-0.074	0.068
-135.399	769.366	-0.070	0.188
-134.385	38.087	0.263	0.229
-133.370	589.079	0.072	-0.173
-132.356	590.611	-0.095	-0.230
-131.341	9.373	-0.108	-0.080
-130.326	-143.339	0.375	0.035
-129.312	11.969	-0.425	-0.320
-128.297	-139.422	0.324	0.034
-127.283	-162.953	0.109	0.005
-126.268	-200.000	-0.024	0.217
-125.253	-55.599	0.159	-0.070
-124.239	-200.000	-0.020	-0.192
-123.224	800.000	-0.015	-0.052
-122.210	41.654	-0.082	-0.073
-121.195	302.019	0.026	0.048
