DTS Sentinel unit serial number:	SN413079Multiplexer serial number:	ORYXHardware model number:	OX4-SRSoftware version number:	ORYX F/W v4.00 Oryx Data Collector v3.7.2.0data status	okinstallation	princeton_trtdifferential loss correction	single-endedforward channel	channel 2reverse channel	N/Adate	2019/09/13time	23:51:35forward acquisition time	60.00reverse acquisition time	0.00gamma	496.2192k internal	0.2338k external	0.2338temperature offset calibration	1.0130default loss term (dB/km)	0.3790temperature slope calibration	1.0000multiplexer offset coefficient	1.0000multiplexer slope coefficient	1.0000fibre end	0.00T internal ref (°C)	26.56T ext. ref 1 (°C)	3.16T ext. ref 2 (°C)	21.04length (m)	temperature (°C)	Stokes	anti-Stokes-747.200	-87.558	0.172	-0.052
-746.185	5.215	-0.313	0.232
-745.171	25.624	-0.215	-0.180
-744.156	135.186	-0.107	-0.139
-743.142	249.680	-0.160	-0.273
-742.127	-111.745	0.525	0.107
-741.112	-200.000	-0.047	-0.332
-740.098	-200.000	-0.012	-0.096
-739.083	240.567	0.049	0.082
-738.069	800.000	0.078	0.326
-737.054	91.414	-0.109	-0.123
-736.039	-98.102	0.127	0.033
-735.025	-200.000	-0.065	0.329
-734.010	-5.400	-0.342	0.235
-732.996	477.951	-0.045	0.103
-731.981	-20.399	0.256	-0.158
-730.966	-79.114	-0.193	-0.066
-729.952	-80.965	-0.232	0.077
-728.937	170.369	-0.175	-0.251
-727.923	-200.000	0.039	-0.471
-726.908	616.024	-0.064	-0.162
-725.894	-97.935	-0.175	0.045
-724.879	15.687	-0.244	-0.192
-723.864	70.684	-0.324	0.336
-722.850	391.172	-0.201	0.417
-721.835	51.302	-0.247	-0.235
-720.821	-200.000	0.041	0.191
-719.806	-200.000	0.037	-0.340
-718.791	-200.000	0.006	-0.231
-717.777	-98.409	-0.110	-0.028
-716.762	-85.357	0.353	-0.110
-715.748	-38.544	-0.158	0.084
-714.733	-81.115	0.380	-0.126
-713.718	6.810	0.293	-0.219
-712.704	-200.000	0.011	-0.095
-711.689	-86.896	0.555	-0.170
-710.675	-10.353	0.076	0.051
-709.660	-65.109	-0.212	-0.086
-708.645	686.155	0.061	-0.159
-707.631	114.702	0.107	-0.131
-706.616	-136.174	-0.228	-0.027
-705.602	5.293	0.272	0.201
-704.587	4.040	-0.275	0.201
-703.572	-108.367	0.354	0.076
-702.558	452.833	-0.221	-0.490
-701.543	92.312	0.151	-0.171
-700.529	48.530	-0.149	-0.140
-699.514	-200.000	0.002	0.067
-698.499	-160.292	0.173	-0.009
-697.485	69.906	-0.073	0.075
-696.470	82.621	0.144	-0.157
-695.456	-97.142	0.432	-0.113
-694.441	161.607	-0.169	0.237
-693.426	101.676	0.034	-0.040
-692.412	226.017	0.119	-0.193
-691.397	800.000	0.038	0.143
-690.383	-200.000	-0.016	-0.130
-689.368	-179.269	0.186	-0.004
-688.354	800.000	0.076	-0.280
-687.339	-78.338	-0.147	0.051
-686.324	-200.000	-0.021	0.140
-685.310	-161.876	0.362	-0.018
-684.295	204.405	-0.258	-0.401
-683.281	144.576	-0.262	-0.350
-682.266	-200.000	0.015	0.094
-681.251	176.131	-0.206	-0.299
-680.237	179.049	0.147	0.216
-679.222	-132.379	-0.115	0.015
-678.208	-176.877	-0.122	0.003
-677.193	12.071	0.135	-0.104
-676.178	800.000	-0.096	0.281
-675.164	-200.000	-0.020	0.147
-674.149	483.227	0.133	-0.303
-673.135	25.333	0.234	-0.195
-672.120	48.817	0.130	0.122
-671.105	-105.848	0.069	0.016
-670.091	327.184	-0.253	-0.486
-669.076	-81.009	-0.229	-0.076
-668.062	11.750	0.198	0.152
-667.047	201.460	-0.083	0.128
-666.032	43.111	0.306	-0.279
-665.018	31.400	-0.154	0.132
-664.003	641.313	0.066	0.169
-662.989	-96.458	0.231	-0.061
-661.974	-18.379	0.236	-0.147
-660.959	-48.023	-0.376	-0.182
-659.945	-200.000	0.037	0.285
-658.930	-200.000	-0.047	-0.270
-657.916	800.000	-0.145	-0.404
-656.901	-42.874	-0.180	0.091
-655.886	87.783	-0.173	-0.192
-654.872	-200.000	-0.066	-0.315
-653.857	-26.004	0.007	-0.004
-652.843	2.102	-0.274	-0.198
-651.828	436.175	0.050	0.108
-650.814	-93.349	0.056	-0.016
-649.799	91.277	0.074	0.084
-648.784	317.343	-0.125	0.237
-647.770	-200.000	0.005	0.029
-646.755	220.952	-0.016	0.025
-645.741	-102.282	-0.295	0.071
-644.726	478.750	-0.042	-0.095
-643.711	-200.000	-0.021	-0.146
-642.697	26.423	0.072	-0.060
-641.682	-3.990	-0.264	0.183
-640.668	-17.340	-0.347	-0.219
-639.653	-41.890	0.161	-0.083
-638.638	-134.132	0.326	0.040
-637.624	800.000	0.042	-0.178
-636.609	800.000	0.047	0.132
-635.595	165.487	0.170	-0.240
-634.580	-97.644	-0.583	-0.151
-633.565	-52.407	-0.098	-0.045
-632.551	38.832	0.156	-0.139
-631.536	123.797	-0.021	0.027
-630.522	-76.551	0.162	-0.057
-629.507	-10.862	0.296	0.195
-628.492	-126.562	0.262	-0.039
-627.478	308.143	-0.047	-0.088
-626.463	15.739	-0.067	-0.053
-625.449	-200.000	0.004	-0.316
-624.434	1.622	0.151	0.109
-623.419	164.330	-0.107	-0.150
-622.405	293.966	0.132	0.241
-621.390	-107.995	0.204	0.044
-620.376	-29.687	0.197	0.112
-619.361	-2.763	-0.049	0.034
-618.346	-200.000	0.029	-0.132
-617.332	-125.471	-0.261	-0.040
-616.317	243.672	-0.102	0.171
-615.303	-164.208	-0.132	0.006
-614.288	-200.000	0.012	0.239
-613.273	-200.000	-0.010	-0.325
-612.259	-53.551	0.138	-0.063
-611.244	-200.000	-0.016	0.121
-610.230	-94.989	-0.100	0.027
-609.215	-200.000	-0.014	0.096
-608.201	800.000	-0.050	0.213
-607.186	-99.940	-0.108	0.027
-606.171	40.102	-0.106	0.095
-605.157	529.215	0.108	-0.255
-604.142	-152.483	-0.220	0.016
-603.128	-76.606	-0.131	-0.046
-602.113	800.000	-0.051	0.216
-601.098	84.036	0.158	-0.172
-600.084	-110.309	0.334	0.069
-599.069	800.000	0.014	0.051
-598.055	69.490	0.160	-0.165
-597.040	-187.539	0.079	-0.001
-596.025	376.940	0.076	-0.155
-595.011	-107.792	0.211	-0.046
-593.996	217.769	0.174	0.277
-592.982	-200.000	0.048	-0.241
-591.967	-200.000	0.021	-0.119
-590.952	181.571	0.109	0.160
-589.938	-200.000	-0.021	-0.345
-588.923	20.023	-0.126	0.102
-587.909	800.000	0.110	-0.358
-586.894	-93.976	0.096	-0.026
-585.879	3.124	0.596	-0.432
-584.865	263.307	-0.191	-0.331
-583.850	800.000	-0.054	-0.189
-582.836	800.000	-0.047	-0.136
-581.821	99.712	-0.231	-0.267
-580.806	-165.581	-0.167	0.007
-579.792	-200.000	-0.004	0.195
-578.777	252.291	-0.034	0.058
-577.763	282.425	-0.031	-0.056
-576.748	-68.350	-0.274	0.106
-575.733	-77.485	0.238	-0.082
-574.719	800.000	0.114	-0.361
-573.704	-200.000	-0.016	-0.403
-572.690	800.000	-0.024	-0.074
-571.675	-106.456	0.274	-0.061
-570.661	-49.303	0.107	0.051
-569.646	705.193	0.038	0.099
-568.631	-43.423	-0.195	-0.098
-567.617	800.000	-0.025	-0.071
-566.602	168.180	-0.184	0.262
-565.588	-42.919	0.160	0.081
-564.573	-200.000	-0.003	0.043
-563.558	-200.000	-0.425	0.002
-562.544	-14.057	0.387	-0.249
-561.529	-148.067	-0.390	0.032
-560.515	67.412	0.206	0.209
-559.500	-155.042	0.345	0.023
-558.485	51.328	0.034	0.032
-557.471	-56.416	-0.316	0.140
-556.456	-104.611	0.255	-0.059
-555.442	117.191	0.146	0.179
-554.427	-24.686	-0.104	0.061
-553.412	-54.991	-0.242	-0.109
-552.398	-200.000	-0.001	-0.110
-551.383	627.816	0.126	-0.318
-550.369	6.320	-0.139	0.103
-549.354	800.000	0.085	0.236
-548.339	267.234	0.142	-0.248
-547.325	-125.253	0.124	-0.019
-546.310	-200.000	-0.007	-0.211
-545.296	-193.387	0.204	-0.002
-544.281	55.253	-0.035	0.034
-543.266	-16.917	0.324	0.204
-542.252	375.091	0.153	0.310
-541.237	-55.387	-0.144	0.065
-540.223	50.858	0.270	0.255
-539.208	293.733	0.242	-0.441
-538.193	449.633	0.145	-0.319
-537.179	-57.376	0.097	0.043
-536.164	-143.719	0.275	-0.026
-535.150	800.000	-0.071	-0.210
-534.135	422.469	-0.053	0.112
-533.121	800.000	0.050	-0.144
-532.106	800.000	0.054	0.206
-531.091	33.465	0.119	-0.102
-530.077	800.000	-0.099	0.281
-529.062	-77.477	0.225	-0.078
-528.048	-200.000	-0.015	0.102
-527.033	34.419	-0.078	0.067
-526.018	424.285	-0.063	0.135
-525.004	8.631	0.315	0.236
-523.989	-139.450	-0.162	-0.017
-522.975	800.000	-0.067	-0.239
-521.960	-200.000	-0.004	0.139
-520.945	-122.192	0.129	0.021
-519.931	193.319	-0.259	0.390
-518.916	30.466	0.315	-0.267
-517.902	-200.000	0.001	-0.212
-516.887	122.121	-0.112	-0.139
-515.872	-191.194	-0.219	-0.002
-514.858	1.646	-0.082	-0.059
-513.843	-76.483	0.065	0.023
-512.829	442.888	-0.068	0.149
-511.814	227.349	-0.117	0.189
-510.799	422.824	0.199	-0.425
-509.785	41.619	-0.159	-0.143
-508.770	-200.000	0.011	0.284
-507.756	-0.394	-0.279	0.197
-506.741	87.654	-0.131	-0.144
-505.726	84.141	0.211	-0.229
-504.712	800.000	0.048	-0.205
-503.697	-200.000	0.058	-0.370
-502.683	-48.922	-0.163	-0.078
-501.668	115.027	-0.103	-0.125
-500.653	304.152	-0.169	-0.312
-499.639	156.610	-0.192	-0.263
-498.624	143.874	-0.165	-0.218
-497.610	-122.693	0.172	-0.028
-496.595	800.000	-0.069	-0.194
-495.581	72.201	-0.277	-0.287
-494.566	-97.144	-0.163	-0.042
-493.551	800.000	-0.098	-0.279
-492.537	-14.576	0.354	0.226
-491.522	800.000	-0.092	0.387
-490.508	-89.706	-0.378	0.110
-489.493	-95.587	-0.288	-0.077
-488.478	64.071	0.112	-0.112
-487.464	800.000	-0.033	0.115
-486.449	-96.700	0.156	-0.041
-485.435	313.405	-0.216	0.404
-484.420	27.629	0.097	0.081
-483.405	-200.000	0.032	-0.138
-482.391	-50.755	-0.380	-0.178
-481.376	32.024	0.203	0.174
-480.362	194.307	-0.012	0.019
-479.347	-200.000	-0.014	-0.391
-478.332	797.054	-0.028	-0.076
-477.318	-193.721	-0.301	-0.003
-476.303	-48.510	0.322	0.154
-475.289	332.449	0.057	0.110
-474.274	612.146	0.228	-0.567
-473.259	-148.031	0.070	-0.006
-472.245	53.974	-0.136	0.130
-471.230	-74.069	-0.168	0.061
-470.216	-103.371	0.336	0.079
-469.201	-100.800	0.379	-0.093
-468.186	177.309	-0.171	0.247
-467.172	25.544	0.203	0.167
-466.157	-79.038	0.148	-0.050
-465.143	438.710	0.051	0.110
-464.128	800.000	-0.089	0.272
-463.113	128.193	0.291	0.368
-462.099	-200.000	0.047	0.317
-461.084	117.284	-0.155	0.189
-460.070	-109.063	0.212	0.045
-459.055	800.000	0.052	0.145
-458.040	800.000	0.083	0.257
-457.026	443.209	-0.164	-0.357
-456.011	599.320	-0.085	0.210
-454.997	340.917	0.048	0.092
-453.982	-200.000	-0.014	0.110
-452.968	-32.906	-0.345	-0.190
-451.953	-200.000	0.062	-0.389
-450.938	800.000	0.096	0.316
-449.924	566.135	-0.107	0.258
-448.909	-63.152	0.195	-0.080
-447.895	99.478	-0.185	-0.212
-446.880	92.933	0.031	0.035
-445.865	-168.423	-0.124	-0.005
-444.851	220.480	0.014	0.023
-443.836	800.000	-0.093	0.270
-442.822	296.947	0.057	-0.103
-441.807	34.794	0.265	-0.229
-440.792	-141.782	0.140	-0.014
-439.778	-200.000	0.006	-0.263
-438.763	183.973	0.163	0.239
-437.749	-43.988	-0.184	-0.092
-436.734	-169.156	0.362	0.013
-435.719	705.252	-0.075	0.197
-434.705	-200.000	0.013	0.092
-433.690	800.000	-0.035	0.129
-432.676	-115.540	0.225	-0.042
-431.661	-200.000	0.070	-0.361
-430.646	-200.000	0.006	-0.075
-429.632	261.205	-0.217	-0.372
-428.617	-200.000	-0.009	-0.147
-427.603	29.224	-0.300	0.253
-426.588	-111.282	-0.198	0.040
-425.573	-200.000	0.011	0.135
-424.559	208.328	0.014	0.022
-423.544	-136.976	-0.098	-0.011
-422.530	433.842	0.025	-0.053
-421.515	-151.918	-0.406	0.029
-420.500	104.935	0.103	0.121
-419.486	48.871	-0.108	-0.100
-418.471	60.368	0.134	0.132
-417.457	-5.692	0.204	-0.139
-416.442	-98.224	0.241	0.061
-415.428	-111.273	0.173	-0.035
-414.413	-117.748	-0.257	0.046
-413.398	-200.000	0.009	-0.221
-412.384	-124.123	0.318	-0.049
-411.369	-200.000	0.011	-0.291
-410.355	-137.792	0.262	-0.029
-409.340	72.441	-0.133	0.138
-408.325	28.928	0.117	-0.098
-407.311	323.384	0.091	0.173
-406.296	-200.000	-0.031	-0.318
-405.282	800.000	-0.057	0.185
-404.267	-200.000	0.009	-0.281
-403.252	-108.944	0.050	-0.011
-402.238	-92.660	-0.390	-0.108
-401.223	-115.487	-0.230	-0.043
-400.209	-200.000	0.009	0.161
-399.194	269.429	-0.092	-0.159
-398.179	-200.000	0.011	-0.218
-397.165	50.495	0.028	0.027
-396.150	-200.000	0.042	0.275
-395.136	82.549	-0.147	-0.158
-394.121	293.512	0.039	-0.070
-393.106	-102.667	-0.276	-0.065
-392.092	800.000	0.071	-0.297
-391.077	-91.522	0.192	-0.054
-390.063	-140.727	0.122	-0.012
-389.048	49.552	0.149	-0.139
-388.033	404.064	-0.217	-0.451
-387.019	-1.206	-0.111	-0.078
-386.004	-100.662	-0.288	0.070
-384.990	61.166	-0.369	0.363
-383.975	5.069	-0.053	-0.038
-382.960	800.000	0.038	0.150
-381.946	-200.000	0.032	0.184
-380.931	800.000	0.033	-0.130
-379.917	-200.000	0.006	-0.189
-378.902	-145.214	-0.114	-0.010
-377.888	286.821	0.151	0.270
-376.873	7.374	-0.051	0.038
-375.858	45.667	0.246	-0.225
-374.844	13.051	-0.173	-0.133
-373.829	78.121	0.012	0.013
-372.815	-30.641	0.330	0.185
-371.800	54.562	-0.340	0.324
-370.785	102.097	0.106	0.123
-369.771	-200.000	0.003	0.077
-368.756	-200.000	-0.000	0.018
-367.742	258.502	-0.169	0.288
-366.727	-7.787	-0.282	0.188
-365.712	-46.787	-0.285	0.138
-364.698	-78.603	-0.317	0.107
-363.683	-36.211	0.206	0.110
-362.669	-194.533	-0.149	-0.001
-361.654	-200.000	0.021	0.120
-360.639	800.000	0.060	0.193
-359.625	673.629	-0.065	-0.168
-358.610	27.090	0.079	-0.065
-357.596	242.147	-0.058	0.097
-356.581	-77.406	-0.241	0.083
-355.566	123.826	0.145	-0.179
-354.552	-200.000	-0.054	-0.331
-353.537	221.572	0.183	-0.291
-352.523	16.008	0.165	-0.128
-351.508	67.452	-0.075	-0.076
-350.493	-88.803	-0.105	0.031
-349.479	44.555	0.054	-0.049
-348.464	-70.144	-0.302	0.114
-347.450	-200.000	0.018	-0.376
-346.435	260.412	-0.118	-0.201
-345.420	-153.798	0.235	-0.016
-344.406	30.985	-0.087	-0.074
-343.391	-103.962	-0.213	0.049
-342.377	202.791	0.030	0.045
-341.362	-22.545	-0.130	0.078
-340.348	-195.354	0.483	-0.004
-339.333	-25.474	0.182	0.106
-338.318	-139.570	0.038	-0.004
-337.304	-122.346	-0.345	-0.056
-336.289	-200.000	0.241	0.000
-335.275	-174.683	-0.264	0.007
-334.260	-158.043	0.056	0.003
-333.245	-71.622	-0.172	-0.064
-332.231	-200.000	0.052	0.264
-331.216	120.920	-0.205	0.252
-330.202	-200.000	-0.015	0.138
-329.187	397.160	-0.039	-0.081
-328.172	-107.798	-0.536	0.115
-327.158	-116.014	0.347	-0.064
-326.143	-13.009	-0.032	-0.020
-325.129	-200.000	-0.001	-0.038
-324.114	18.560	0.030	0.023
-323.099	-200.000	-0.040	0.212
-322.085	-103.259	-0.101	-0.024
-321.070	787.571	-0.032	0.087
-320.056	-200.000	-0.028	-0.197
-319.041	800.000	0.069	0.227
-318.026	-57.399	0.125	-0.054
-317.012	-83.851	0.305	0.096
-315.997	-30.141	0.206	0.116
-314.983	-200.000	-0.002	-0.078
-313.968	-98.992	-0.225	-0.056
-312.953	-21.541	0.183	-0.110
-311.939	268.802	0.052	-0.090
-310.924	-61.916	0.446	0.184
-309.910	149.557	-0.109	0.146
-308.895	-35.193	0.141	-0.076
-307.880	115.475	0.129	-0.155
-306.866	133.813	0.147	-0.188
-305.851	61.074	-0.185	0.181
-304.837	-99.623	-0.144	-0.036
-303.822	800.000	0.067	0.249
-302.807	-171.614	-0.359	0.012
-301.793	800.000	0.136	0.428
-300.778	-76.947	-0.210	-0.072
-299.764	-200.000	0.057	0.279
-298.749	131.055	0.054	0.069
-297.735	-200.000	-0.005	-0.044
-296.720	-46.124	-0.225	-0.109
-295.705	2.282	0.213	0.152
-294.691	680.048	-0.127	-0.325
-293.676	-121.409	0.137	-0.023
-292.662	-200.000	0.000	0.145
-291.647	-32.728	0.234	0.128
-290.632	-34.930	-0.148	0.080
-289.618	-124.318	0.482	-0.074
-288.603	-75.106	0.247	0.087
-287.589	-200.000	0.010	0.255
-286.574	-200.000	0.021	0.091
-285.559	-131.244	0.067	-0.009
-284.545	-64.564	0.156	-0.062
-283.530	800.000	0.050	0.152
-282.516	783.082	-0.071	0.192
-281.501	-54.715	-0.270	0.120
-280.486	-200.000	0.034	0.171
-279.472	44.395	0.227	0.205
-278.457	18.096	0.212	0.167
-277.443	-71.972	0.118	0.043
-276.428	329.951	0.076	0.144
-275.413	800.000	-0.080	-0.224
-274.399	452.976	-0.104	-0.226
-273.384	29.533	0.284	-0.238
-272.370	-110.807	0.144	0.029
-271.355	-200.000	0.019	0.175
-270.340	-55.034	0.198	-0.088
-269.326	121.121	-0.055	-0.067
-268.311	124.314	-0.271	0.336
-267.297	-200.000	0.017	-0.223
-266.282	-200.000	0.000	0.088
-265.267	-200.000	-0.012	0.085
-264.253	31.020	-0.152	0.129
-263.238	-118.816	-0.194	-0.034
-262.224	800.000	0.014	0.042
-261.209	-200.000	-0.013	-0.069
-260.195	-45.162	-0.218	0.106
-259.180	800.000	0.057	0.161
-258.165	-62.163	0.096	0.039
-257.151	-16.372	-0.024	-0.015
-256.136	241.121	0.136	-0.223
-255.122	-106.604	-0.057	-0.012
-254.107	-89.749	0.259	0.075
-253.092	-200.000	0.012	0.102
-252.078	-200.000	0.022	-0.307
-251.063	800.000	-0.025	-0.081
-250.049	-132.378	-0.185	-0.023
-249.034	800.000	0.058	0.222
-248.019	75.541	-0.111	-0.116
-247.005	-200.000	0.031	-0.390
-245.990	-200.000	0.016	-0.158
-244.976	-19.023	-0.214	0.131
-243.961	321.574	-0.120	0.225
-242.946	-200.000	0.010	-0.043
-241.932	800.000	0.045	-0.123
-240.917	-200.000	0.023	-0.113
-239.903	-22.761	-0.043	0.026
-238.888	231.709	-0.112	-0.180
-237.873	-86.770	-0.252	-0.076
-236.859	3.525	-0.163	0.117
-235.844	-200.000	-0.094	0.482
-234.830	-41.108	-0.159	-0.081
-233.815	218.454	-0.074	0.116
-232.800	-39.179	0.144	0.074
-231.786	-200.000	-0.013	-0.306
-230.771	-59.105	0.120	0.051
-229.757	321.815	0.164	0.307
-228.742	110.961	0.120	0.142
-227.727	-74.303	0.245	0.087
-226.713	111.071	0.170	0.202
-225.698	-176.158	0.200	0.005
-224.684	-200.000	0.006	0.133
-223.669	-112.713	0.222	-0.043
-222.655	-175.840	-0.328	0.009
-221.640	208.672	-0.104	0.160
-220.625	800.000	-0.109	0.333
-219.611	800.000	0.088	0.266
-218.596	-87.565	0.159	0.047
-217.582	115.042	-0.024	-0.029
-216.567	-103.872	-0.203	0.047
-215.552	194.550	-0.156	0.232
-214.538	-170.552	-0.222	0.008
-213.523	-12.222	0.090	0.058
-212.509	-96.654	-0.236	0.061
-211.494	-200.000	0.049	0.298
-210.479	83.750	0.322	0.345
-209.465	22.782	0.223	-0.180
-208.450	464.801	-0.113	0.249
-207.436	45.574	-0.072	0.065
-206.421	86.524	0.233	-0.253
-205.406	49.692	-0.241	-0.223
-204.392	-38.122	0.169	-0.088
-203.377	204.780	0.061	-0.093
-202.363	179.430	0.072	-0.104
-201.348	-18.241	-0.048	-0.030
-200.333	-200.000	0.010	0.298
-199.319	-154.981	-0.071	-0.005
-198.304	800.000	-0.061	-0.195
-197.290	800.000	0.085	-0.253
-196.275	-107.328	-0.143	0.031
-195.260	-18.443	-0.074	-0.046
-194.246	-80.653	0.065	-0.021
-193.231	277.713	-0.043	-0.075
-192.217	346.335	-0.077	0.149
-191.202	-200.000	0.041	-0.341
-190.187	151.181	-0.070	0.093
-189.173	-58.660	-0.178	0.076
-188.158	105.473	0.161	0.187
-187.144	800.000	-0.047	-0.196
-186.129	-41.471	-0.371	0.187
-185.114	-110.649	0.069	0.014
-184.100	715.235	0.038	-0.099
-183.085	800.000	0.102	0.290
-182.071	131.176	-0.300	0.378
-181.056	-200.000	0.027	0.167
-180.042	-17.047	-0.284	0.176
-179.027	800.000	0.050	0.213
-178.012	-164.563	-0.436	0.019
-176.998	-1.578	-0.211	0.146
-175.983	-97.981	0.352	-0.089
-174.969	-3.173	0.131	0.090
-173.954	-200.000	-0.046	-0.361
-172.939	-57.932	0.245	-0.105
-171.925	106.230	0.112	-0.130
-170.910	-200.000	-0.004	0.079
-169.896	-131.218	0.324	0.042
-168.881	-111.348	-0.104	0.021
-167.866	61.027	-0.180	0.176
-166.852	-200.000	-0.033	-0.400
-165.837	83.467	0.214	-0.228
-164.823	-144.033	-0.187	-0.017
-163.808	-2.052	-0.223	-0.154
-162.793	800.000	0.005	0.015
-161.779	-136.513	-0.255	-0.029
-160.764	-200.000	-0.005	0.114
-159.750	578.297	-0.070	0.168
-158.735	-54.818	-0.276	0.122
-157.720	258.515	0.238	-0.402
-156.706	190.300	0.107	-0.158
-155.691	40.302	-0.135	-0.119
-154.677	319.561	-0.103	-0.192
-153.662	-25.470	-0.059	0.034
-152.647	800.000	0.061	0.177
-151.633	11.701	0.247	0.186
-150.618	-151.878	-0.343	0.025
-149.604	-124.488	-0.299	0.046
-148.589	12.740	-0.221	0.167
-147.574	18.859	0.116	-0.091
-146.560	-127.899	-0.099	0.014
-145.545	-200.000	0.051	-0.234
-144.531	-171.951	-0.052	-0.002
-143.516	-171.886	0.232	0.007
-142.502	-67.210	-0.055	0.021
-141.487	-200.000	0.009	0.212
-140.472	108.282	0.070	0.081
-139.458	-67.045	0.211	0.082
-138.443	2.564	0.169	0.120
-137.429	800.000	0.070	-0.263
-136.414	158.573	0.060	0.082
-135.399	159.794	0.044	0.060
-134.385	-58.823	0.062	-0.026
-133.370	284.046	0.029	0.051
-132.356	236.654	0.161	0.262
-131.341	-63.192	0.394	-0.159
-130.326	-115.387	-0.065	0.012
-129.312	8.868	-0.183	-0.135
-128.297	-162.662	-0.243	0.012
-127.283	-15.709	0.196	-0.123
-126.268	-54.442	-0.364	0.162
-125.253	123.153	0.127	0.155
-124.239	206.615	-0.082	-0.125
-123.224	87.511	0.103	-0.112
-122.210	41.798	0.052	-0.046
-121.195	-7.395	0.092	0.061
