DTS Sentinel unit serial number:	SN413079Multiplexer serial number:	ORYXHardware model number:	OX4-SRSoftware version number:	ORYX F/W v4.00 Oryx Data Collector v3.7.2.0data status	okinstallation	princeton_trtdifferential loss correction	single-endedforward channel	channel 2reverse channel	N/Adate	2019/09/19time	03:03:35forward acquisition time	60.00reverse acquisition time	0.00gamma	496.2192k internal	0.2352k external	0.2352temperature offset calibration	1.0015default loss term (dB/km)	0.3790temperature slope calibration	1.0000multiplexer offset coefficient	1.0000multiplexer slope coefficient	1.0000fibre end	0.00T internal ref (°C)	20.81T ext. ref 1 (°C)	0.65T ext. ref 2 (°C)	14.52length (m)	temperature (°C)	Stokes	anti-Stokes-747.200	-31.919	-0.147	-0.082
-746.185	-24.865	-0.341	0.202
-745.171	-59.216	-0.094	0.040
-744.156	-45.932	-0.327	0.161
-743.142	84.174	0.247	-0.269
-742.127	800.000	-0.080	0.296
-741.112	-103.613	0.014	0.003
-740.098	185.355	-0.182	0.270
-739.083	238.262	0.195	-0.323
-738.069	-24.520	0.330	-0.196
-737.054	-200.000	0.050	-0.226
-736.039	-35.219	-0.229	-0.124
-735.025	-39.123	0.137	0.072
-734.010	10.802	-0.278	-0.212
-732.996	-200.000	0.035	0.267
-731.981	-47.496	-0.276	0.134
-730.966	8.557	0.238	0.178
-729.952	-113.233	-0.073	-0.014
-728.937	47.690	0.086	-0.080
-727.923	-52.215	-0.271	-0.125
-726.908	-59.124	-0.354	-0.152
-725.894	-200.000	0.057	-0.281
-724.879	725.354	-0.047	-0.125
-723.864	-143.889	0.266	0.025
-722.850	800.000	-0.055	-0.179
-721.835	800.000	-0.121	-0.468
-720.821	43.982	-0.451	-0.411
-719.806	112.389	-0.127	0.153
-718.791	64.085	0.035	-0.035
-717.777	-0.081	-0.095	-0.067
-716.762	-37.508	-0.316	0.168
-715.748	59.589	-0.028	-0.028
-714.733	766.508	0.048	0.130
-713.718	9.619	-0.251	0.189
-712.704	434.713	0.143	-0.310
-711.689	-200.000	-0.020	0.134
-710.675	-200.000	0.025	-0.361
-709.660	-200.000	0.003	-0.062
-708.645	279.153	0.099	-0.175
-707.631	-58.341	-0.139	-0.060
-706.616	-25.753	0.282	0.166
-705.602	8.916	-0.094	-0.070
-704.587	-22.011	-0.121	-0.073
-703.572	-126.809	0.254	-0.037
-702.558	8.540	-0.277	-0.208
-701.543	224.312	-0.108	0.174
-700.529	123.015	-0.300	-0.374
-699.514	-1.978	0.142	0.099
-698.499	243.776	0.148	-0.247
-697.485	-91.821	-0.271	0.077
-696.470	-181.388	-0.142	0.003
-695.456	264.054	-0.132	-0.229
-694.441	4.860	-0.163	-0.119
-693.426	90.930	-0.122	0.136
-692.412	108.583	-0.179	-0.213
-691.397	-200.000	0.070	-0.386
-690.383	-76.108	-0.288	0.101
-689.368	-200.000	0.032	-0.568
-688.354	50.842	-0.225	-0.212
-687.339	-69.684	0.331	-0.126
-686.324	-130.175	-0.061	-0.008
-685.310	800.000	-0.011	0.049
-684.295	-41.348	-0.209	-0.107
-683.281	-112.252	-0.233	-0.046
-682.266	19.406	0.108	0.086
-681.251	233.742	0.164	-0.269
-680.237	380.569	0.047	-0.095
-679.222	728.804	0.088	-0.233
-678.208	88.510	0.265	0.292
-677.193	-200.000	-0.010	0.056
-676.178	187.912	0.262	-0.389
-675.164	-138.520	-0.329	0.036
-674.149	-126.826	0.322	0.047
-673.135	-200.000	-0.003	0.091
-672.120	81.548	0.320	-0.345
-671.105	-86.109	-0.180	0.055
-670.091	-71.674	-0.119	0.044
-669.076	-46.220	0.276	0.135
-668.062	-21.193	0.225	-0.137
-667.047	-94.165	-0.228	-0.062
-666.032	278.827	-0.117	0.208
-665.018	-74.936	-0.217	-0.077
-664.003	301.366	-0.028	0.051
-662.989	-200.000	0.008	-0.111
-661.974	455.412	-0.064	-0.141
-660.959	143.889	-0.128	0.169
-659.945	-4.664	-0.256	-0.176
-658.930	102.883	-0.240	-0.280
-657.916	-90.032	0.390	-0.113
-656.901	800.000	-0.067	0.243
-655.886	-200.000	-0.048	-0.352
-654.872	187.738	0.041	-0.061
-653.857	33.125	0.079	-0.068
-652.843	-125.133	0.258	0.039
-651.828	-117.323	-0.145	-0.026
-650.814	-83.747	-0.157	-0.050
-649.799	-200.000	-0.018	-0.325
-648.784	334.010	0.220	-0.424
-647.770	86.384	0.091	-0.100
-646.755	410.278	0.058	-0.121
-645.741	483.254	0.085	0.192
-644.726	308.786	0.114	0.212
-643.711	800.000	0.041	0.145
-642.697	-200.000	-0.029	-0.138
-641.682	-109.726	-0.146	0.030
-640.668	-199.533	0.282	0.001
-639.653	-172.567	0.254	0.008
-638.638	-146.338	-0.399	-0.035
-637.624	-151.473	0.232	-0.017
-636.609	-200.000	-0.003	0.304
-635.595	-200.000	0.011	0.133
-634.580	-38.690	0.148	0.077
-633.565	-104.012	-0.397	-0.092
-632.551	401.721	-0.079	0.165
-631.536	-57.866	0.124	-0.054
-630.522	147.497	0.034	-0.045
-629.507	-118.638	0.241	0.042
-628.492	-72.870	0.051	0.019
-627.478	134.982	0.066	-0.085
-626.463	7.752	-0.248	0.185
-625.449	266.297	-0.068	0.118
-624.434	-82.792	-0.286	0.092
-623.419	133.552	-0.087	0.112
-622.405	800.000	0.100	-0.386
-621.390	-200.000	-0.011	0.208
-620.376	-149.666	0.262	-0.020
-619.361	-169.343	-0.164	-0.006
-618.346	-134.781	0.212	-0.026
-617.332	-17.852	0.186	-0.116
-616.317	800.000	-0.053	0.164
-615.303	-83.177	0.159	-0.051
-614.288	-144.004	0.181	0.017
-613.273	-38.190	0.153	-0.081
-612.259	5.823	-0.319	-0.234
-611.244	23.269	-0.133	0.108
-610.230	800.000	-0.139	0.409
-609.215	769.919	0.075	-0.203
-608.201	-200.000	-0.047	-0.305
-607.186	-90.716	-0.108	0.031
-606.171	575.018	-0.022	-0.053
-605.157	10.351	-0.229	0.173
-604.142	-130.385	-0.209	0.028
-603.128	-64.901	-0.199	-0.080
-602.113	-98.348	0.068	0.017
-601.098	73.776	0.122	-0.127
-600.084	177.691	0.101	-0.146
-599.069	-200.000	-0.063	0.276
-598.055	152.126	0.060	-0.081
-597.040	-26.506	-0.078	-0.045
-596.025	173.494	-0.151	0.216
-595.011	-56.786	-0.118	0.052
-593.996	103.862	-0.072	0.084
-592.982	-200.000	0.050	-0.240
-591.967	-11.426	0.257	-0.168
-590.952	14.181	0.155	-0.120
-589.938	-133.506	-0.109	-0.014
-588.923	-65.066	-0.086	-0.034
-587.909	-118.465	-0.329	-0.058
-586.894	-36.577	-0.233	0.124
-585.879	23.810	-0.080	-0.065
-584.865	-33.957	-0.345	-0.188
-583.850	800.000	0.070	-0.212
-582.836	800.000	0.081	-0.241
-581.821	-113.449	0.552	0.107
-580.806	-200.000	0.038	-0.268
-579.792	-200.000	0.000	0.129
-578.777	155.734	-0.157	0.214
-577.763	-200.000	-0.003	0.019
-576.748	117.149	-0.265	0.323
-575.733	800.000	0.105	0.332
-574.719	800.000	-0.029	-0.087
-573.704	-69.457	-0.244	0.093
-572.690	424.929	0.033	-0.071
-571.675	-102.103	-0.083	-0.020
-570.661	70.025	0.363	-0.372
-569.646	111.976	-0.149	-0.178
-568.631	325.085	-0.151	0.287
-567.617	-176.964	-0.215	-0.005
-566.602	214.607	0.217	-0.341
-565.588	-25.289	-0.309	0.181
-564.573	-200.000	-0.005	-0.169
-563.558	-87.920	-0.120	-0.036
-562.544	-102.699	-0.133	-0.031
-561.529	-153.982	0.347	0.023
-560.515	-40.351	0.095	-0.049
-559.500	139.693	-0.234	0.305
-558.485	-200.000	0.039	-0.286
-557.471	-195.186	-0.064	-0.000
-556.456	171.746	-0.098	0.140
-555.442	-14.466	-0.302	0.192
-554.427	-32.320	0.396	-0.219
-553.412	-5.248	0.145	-0.099
-552.398	156.677	-0.112	0.154
-551.383	-3.826	0.147	-0.101
-550.369	-57.279	0.137	-0.060
-549.354	-30.577	0.114	0.064
-548.339	-200.000	-0.020	-0.126
-547.325	575.189	0.128	-0.309
-546.310	-7.461	-0.070	0.047
-545.296	-76.174	-0.094	-0.033
-544.281	38.684	0.120	-0.106
-543.266	800.000	-0.085	0.320
-542.252	-200.000	-0.018	0.098
-541.237	-200.000	-0.071	-0.352
-540.223	122.171	0.040	0.049
-539.208	-2.814	0.136	0.094
-538.193	-87.369	0.310	-0.093
-537.179	141.981	-0.194	0.254
-536.164	-200.000	0.006	-0.345
-535.150	800.000	0.051	-0.162
-534.135	127.549	0.116	0.145
-533.121	-86.787	-0.324	-0.098
-532.106	30.020	-0.253	-0.213
-531.091	252.489	-0.139	0.235
-530.077	49.834	-0.153	0.142
-529.062	391.420	-0.045	-0.092
-528.048	-128.056	-0.146	0.021
-527.033	-31.025	-0.195	0.109
-526.018	-200.000	-0.075	0.441
-525.004	-200.000	-0.152	-0.000
-523.989	-37.340	-0.218	0.115
-522.975	-130.136	-0.360	-0.049
-521.960	-85.419	0.208	0.064
-520.945	-200.000	-0.034	-0.301
-519.931	800.000	0.092	0.361
-518.916	259.505	-0.061	-0.104
-517.902	300.322	-0.006	0.010
-516.887	39.125	0.106	0.094
-515.872	-108.424	0.440	0.094
-514.858	232.812	-0.112	0.182
-513.843	-200.000	0.007	-0.142
-512.829	800.000	-0.038	0.148
-511.814	87.768	-0.089	-0.098
-510.799	-147.606	0.144	0.012
-509.785	-200.000	-0.271	0.001
-508.770	-200.000	0.027	0.283
-507.756	59.632	0.224	0.218
-506.741	241.881	-0.031	0.052
-505.726	532.692	0.031	-0.072
-504.712	134.255	0.125	0.161
-503.697	-84.787	0.231	-0.072
-502.683	-93.461	-0.132	0.036
-501.668	-200.000	-0.017	0.216
-500.653	460.459	0.208	-0.459
-499.639	-34.754	-0.216	-0.117
-498.624	-106.688	-0.147	-0.032
-497.610	-67.239	-0.089	-0.035
-496.595	30.967	-0.259	-0.220
-495.581	-48.824	0.098	0.046
-494.566	75.001	-0.208	-0.216
-493.551	149.885	-0.045	-0.060
-492.537	167.093	0.190	-0.267
-491.522	12.988	-0.085	-0.065
-490.508	-200.000	-0.009	0.226
-489.493	-200.000	0.039	0.257
-488.478	285.231	-0.073	0.130
-487.464	-200.000	0.071	0.461
-486.449	-105.925	-0.431	0.096
-485.435	-200.000	-0.080	0.413
-484.420	800.000	-0.096	0.307
-483.405	-136.668	-0.287	-0.033
-482.391	-161.730	-0.036	-0.002
-481.376	553.867	-0.069	0.164
-480.362	535.049	-0.118	0.277
-479.347	-200.000	-0.003	0.371
-478.332	304.432	-0.240	0.439
-477.318	74.969	0.107	-0.111
-476.303	-63.025	0.344	-0.140
-475.289	-117.609	-0.358	-0.064
-474.274	-200.000	0.066	-0.308
-473.259	800.000	0.090	-0.349
-472.245	-58.589	-0.039	0.017
-471.230	-112.853	0.275	0.054
-470.216	304.884	0.147	-0.270
-469.201	-11.467	0.128	-0.083
-468.186	196.736	0.160	-0.241
-467.172	315.941	-0.183	0.341
-466.157	544.530	0.083	-0.195
-465.143	1.680	0.071	-0.051
-464.128	-45.514	0.176	0.086
-463.113	134.336	0.202	-0.258
-462.099	-46.986	0.251	0.121
-461.084	-157.318	0.297	-0.018
-460.070	39.470	0.178	-0.157
-459.055	-7.983	-0.143	-0.095
-458.040	-95.726	-0.257	-0.068
-457.026	63.897	-0.112	0.111
-456.011	3.961	0.102	0.074
-454.997	82.451	0.160	0.171
-453.982	422.843	-0.104	0.220
-452.968	-43.580	0.033	-0.016
-451.953	-77.270	-0.162	0.056
-450.938	800.000	-0.034	-0.096
-449.924	-114.338	0.339	0.064
-448.909	-200.000	0.048	0.213
-447.895	-161.401	-0.066	0.003
-446.880	399.539	-0.138	0.286
-445.865	-65.877	-0.056	-0.022
-444.851	800.000	-0.014	-0.046
-443.836	-2.026	-0.161	-0.111
-442.822	-81.538	0.411	-0.133
-441.807	-99.943	-0.108	0.027
-440.792	-57.596	0.292	0.126
-439.778	-42.813	-0.269	0.135
-438.763	-200.000	0.016	-0.076
-437.749	-175.972	0.260	0.007
-436.734	-41.164	-0.091	-0.046
-435.719	800.000	0.050	-0.191
-434.705	-200.000	-0.004	-0.106
-433.690	39.439	-0.048	0.042
-432.676	-200.000	0.003	0.055
-431.661	-200.000	0.109	-0.656
-430.646	12.058	-0.132	-0.100
-429.632	272.161	0.013	-0.023
-428.617	238.843	0.082	-0.134
-427.603	-50.252	-0.233	-0.108
-426.588	349.263	-0.078	-0.151
-425.573	759.813	0.044	0.117
-424.559	-168.635	-0.045	-0.002
-423.544	-53.426	-0.129	-0.058
-422.530	128.809	0.076	0.095
-421.515	-82.381	0.059	-0.019
-420.500	-8.524	0.123	-0.081
-419.486	271.068	0.201	0.348
-418.471	-45.891	-0.334	0.162
-417.457	-200.000	-0.030	0.285
-416.442	-2.689	-0.037	-0.026
-415.428	-73.390	0.110	0.040
-414.413	33.985	-0.143	-0.123
-413.398	800.000	0.063	-0.195
-412.384	96.676	-0.147	-0.165
-411.369	-200.000	0.001	0.070
-410.355	-92.344	0.061	-0.017
-409.340	800.000	0.040	-0.154
-408.325	-200.000	0.017	-0.348
-407.311	188.269	-0.181	0.266
-406.296	58.717	-0.329	0.318
-405.282	328.067	0.111	0.210
-404.267	800.000	-0.044	-0.148
-403.252	-105.524	0.465	-0.104
-402.238	-22.541	-0.110	0.065
-401.223	-127.299	0.237	0.034
-400.209	238.493	-0.028	0.046
-399.194	-80.340	-0.132	0.043
-398.179	-177.919	-0.237	0.006
-397.165	-80.865	0.438	-0.143
-396.150	-179.676	-0.114	-0.002
-395.136	-200.000	-0.041	-0.194
-394.121	800.000	0.114	-0.437
-393.106	131.212	0.115	0.145
-392.092	705.594	-0.014	-0.037
-391.077	-136.633	0.124	0.014
-390.063	244.149	-0.143	-0.236
-389.048	-63.305	0.077	-0.031
-388.033	-200.000	-0.002	0.166
-387.019	-54.666	-0.351	0.156
-386.004	-200.000	-0.007	-0.285
-384.990	-66.894	0.034	0.013
-383.975	-27.931	0.142	0.081
-382.960	169.623	0.181	0.255
-381.946	303.661	-0.168	0.306
-380.931	-115.053	0.262	-0.049
-379.917	-87.195	0.123	-0.037
-378.902	230.990	-0.173	0.278
-377.888	-200.000	-0.017	-0.103
-376.873	2.347	-0.084	-0.060
-375.858	21.087	-0.277	-0.221
-374.844	-133.536	-0.239	0.029
-373.829	60.287	-0.024	0.024
-372.815	800.000	0.062	0.198
-371.800	-40.767	-0.148	0.075
-370.785	534.530	0.055	0.129
-369.771	216.677	0.110	0.173
-368.756	30.272	-0.081	0.068
-367.742	800.000	0.124	0.459
-366.727	-200.000	-0.044	0.204
-365.712	-120.915	0.128	-0.021
-364.698	-7.217	-0.055	-0.037
-363.683	-200.000	-0.031	0.270
-362.669	-123.863	-0.108	0.017
-361.654	-200.000	0.280	0.000
-360.639	0.682	0.156	-0.110
-359.625	-124.615	-0.257	-0.039
-358.610	800.000	0.123	-0.366
-357.596	-129.018	0.123	-0.017
-356.581	151.891	-0.052	0.070
-355.566	800.000	-0.118	-0.424
-354.552	241.907	0.148	0.243
-353.537	-16.309	-0.191	-0.119
-352.523	-200.000	-0.066	-0.287
-351.508	769.945	-0.061	0.162
-350.493	-179.932	0.493	0.010
-349.479	-200.000	0.013	0.063
-348.464	10.126	-0.133	-0.099
-347.450	800.000	-0.032	-0.130
-346.435	-133.980	-0.055	-0.007
-345.420	380.453	0.128	-0.257
-344.406	-74.803	-0.345	-0.122
-343.391	-142.657	-0.103	-0.010
-342.377	-200.000	-0.007	0.085
-341.362	339.186	-0.161	0.309
-340.348	-3.024	-0.079	-0.054
-339.333	155.430	0.205	-0.278
-338.318	800.000	0.026	0.103
-337.304	-54.918	-0.211	0.093
-336.289	-200.000	-0.005	0.050
-335.275	-200.000	0.003	0.031
-334.260	154.061	0.173	-0.233
-333.245	-105.315	0.111	0.025
-332.231	53.728	0.174	0.164
-331.216	-64.754	0.368	-0.146
-330.202	-84.288	-0.287	0.089
-329.187	-133.920	-0.216	-0.026
-328.172	103.839	0.095	-0.109
-327.158	228.277	-0.157	-0.251
-326.143	-78.634	0.226	-0.076
-325.129	482.118	0.055	-0.123
-324.114	800.000	0.061	0.209
-323.099	-65.348	0.150	-0.059
-322.085	-4.704	0.114	-0.077
-321.070	800.000	-0.091	-0.255
-320.056	110.831	-0.203	0.240
-319.041	-91.369	0.123	0.035
-318.026	-30.829	-0.211	0.117
-317.012	89.642	-0.115	-0.126
-315.997	-28.390	0.422	0.239
-314.983	50.814	-0.295	0.274
-313.968	527.689	-0.017	-0.039
-312.953	-174.529	-0.319	-0.009
-311.939	113.504	0.155	-0.184
-310.924	431.907	0.152	-0.323
-309.910	125.253	-0.161	-0.199
-308.895	245.007	-0.183	0.302
-307.880	-107.371	0.055	-0.012
-306.866	70.078	-0.129	0.131
-305.851	-143.466	0.145	-0.014
-304.837	-57.762	-0.324	-0.139
-303.822	-56.288	-0.059	0.026
-302.807	-146.998	-0.111	0.009
-301.793	322.203	-0.188	-0.352
-300.778	-200.000	-0.022	0.128
-299.764	-200.000	0.000	0.107
-298.749	274.783	-0.183	0.317
-297.735	262.446	-0.192	-0.327
-296.720	29.370	-0.046	0.038
-295.705	97.114	-0.252	0.284
-294.691	207.823	-0.065	0.100
-293.676	203.237	-0.029	0.045
-292.662	95.668	-0.195	-0.218
-291.647	91.070	0.248	0.273
-290.632	-8.361	0.353	0.233
-289.618	-51.114	-0.060	-0.028
-288.603	-82.690	-0.251	0.080
-287.589	390.018	0.096	-0.195
-286.574	-200.000	-0.002	0.039
-285.559	39.361	0.228	0.200
-284.545	87.467	0.382	-0.414
-283.530	22.037	0.063	0.050
-282.516	9.805	-0.107	0.079
-281.501	9.762	0.063	0.047
-280.486	800.000	-0.080	0.254
-279.472	-200.000	-0.010	0.372
-278.457	87.189	0.082	-0.088
-277.443	13.282	-0.343	-0.261
-276.428	-136.798	0.338	0.038
-275.413	29.667	-0.260	-0.217
-274.399	-200.000	-0.023	-0.236
-273.384	773.635	-0.053	0.140
-272.370	800.000	0.127	-0.362
-271.355	-200.000	-0.020	-0.085
-270.340	-104.638	-0.140	-0.032
-269.326	212.784	-0.064	0.099
-268.311	3.433	0.151	-0.108
-267.297	-200.000	0.041	0.198
-266.282	-200.000	0.032	0.183
-265.267	-44.956	-0.065	0.032
-264.253	321.112	-0.011	0.021
-263.238	-3.672	0.376	0.256
-262.224	-80.985	-0.267	0.087
-261.209	-200.000	0.018	-0.077
-260.195	159.464	0.166	0.227
-259.180	23.132	0.055	-0.044
-258.165	800.000	-0.174	-0.554
-257.151	800.000	-0.071	-0.199
-256.136	76.671	0.131	-0.136
-255.122	800.000	0.053	0.165
-254.107	85.743	0.098	0.105
-253.092	371.994	0.063	-0.126
-252.078	800.000	-0.015	0.045
-251.063	-200.000	0.015	0.068
-250.049	-159.521	-0.045	0.002
-249.034	-159.073	-0.464	-0.026
-248.019	218.792	0.041	0.064
-247.005	270.045	0.034	-0.059
-245.990	-95.538	0.087	-0.023
-244.976	43.544	-0.081	0.072
-243.961	-149.908	0.055	-0.004
-242.946	-76.627	-0.340	0.117
-241.932	-58.965	-0.288	0.122
-240.917	348.958	-0.074	-0.142
-239.903	-200.000	0.051	0.355
-238.888	254.666	-0.094	0.157
-237.873	641.731	0.178	-0.443
-236.859	-47.774	-0.181	0.086
-235.844	-70.073	0.415	0.154
-234.830	-70.812	0.401	-0.148
-233.815	170.082	0.092	0.129
-232.800	-117.642	-0.406	0.071
-231.786	800.000	0.068	-0.271
-230.771	-103.962	0.196	0.045
-229.757	-101.447	-0.259	0.062
-228.742	210.307	0.232	-0.356
-227.727	-67.831	-0.267	-0.102
-226.713	165.685	0.130	0.179
-225.698	24.395	0.192	-0.155
-224.684	219.319	0.120	0.187
-223.669	-200.000	0.057	0.426
-222.655	-200.000	-0.014	-0.124
-221.640	-30.880	0.376	0.208
-220.625	-200.000	0.074	-0.331
-219.611	368.833	0.020	-0.040
-218.596	-116.393	0.116	0.021
-217.582	-30.554	0.117	-0.065
-216.567	-200.000	0.061	0.266
-215.552	-200.000	0.012	0.136
-214.538	0.352	0.078	-0.054
-213.523	-107.550	-0.084	0.018
-212.509	-200.000	0.007	-0.222
-211.494	14.330	0.153	0.116
-210.479	-183.218	0.154	0.003
-209.465	144.358	-0.015	-0.019
-208.450	-200.000	0.008	-0.059
-207.436	800.000	0.085	0.229
-206.421	-113.244	-0.119	-0.023
-205.406	662.055	0.029	-0.073
-204.392	131.540	0.140	-0.175
-203.377	-200.000	-0.007	-0.087
-202.363	542.492	-0.013	0.030
-201.348	-37.234	-0.094	0.049
-200.333	-59.894	-0.069	-0.029
-199.319	610.982	-0.111	0.270
-198.304	-20.543	-0.190	0.114
-197.290	800.000	-0.059	0.175
-196.275	-33.904	0.061	0.033
-195.260	-200.000	0.017	0.210
-194.246	107.431	0.085	-0.099
-193.231	447.011	-0.012	0.026
-192.217	-200.000	0.071	0.000
-191.202	423.400	0.148	0.310
-190.187	-200.000	0.002	-0.034
-189.173	-15.893	0.241	-0.150
-188.158	-200.000	-0.006	-0.249
-187.144	-19.845	0.208	-0.126
-186.129	-40.164	0.099	-0.050
-185.114	478.211	0.019	0.041
-184.100	-111.714	0.136	0.027
-183.085	94.600	-0.219	-0.243
-182.071	-84.500	-0.358	0.110
-181.056	-98.537	-0.202	-0.050
-180.042	-69.441	0.228	0.085
-179.027	73.556	0.246	0.251
-178.012	-96.423	-0.133	-0.034
-176.998	310.005	0.030	0.054
-175.983	155.315	0.174	-0.234
-174.969	-200.000	0.001	-0.257
-173.954	-200.000	-0.001	0.048
-172.939	-24.164	-0.099	-0.058
-171.925	800.000	0.008	0.024
-170.910	333.381	0.169	-0.318
-169.896	-52.174	0.185	-0.084
-168.881	-200.000	-0.010	-0.054
-167.866	-200.000	0.060	-0.363
-166.852	-40.929	0.131	0.066
-165.837	-107.544	-0.204	-0.043
-164.823	636.611	-0.080	0.197
-163.808	-12.851	0.245	0.156
-162.793	179.052	0.040	0.057
-161.779	175.265	0.165	-0.233
-160.764	-169.705	0.566	0.020
-159.750	-62.232	0.247	-0.100
-158.735	-48.494	-0.185	0.087
-157.720	24.086	-0.173	0.140
-156.706	-200.000	0.008	0.208
-155.691	234.585	0.135	-0.217
-154.677	800.000	-0.013	-0.053
-153.662	-200.000	-0.025	-0.173
-152.647	546.103	-0.098	-0.229
-151.633	115.544	0.127	0.152
-150.618	-200.000	0.002	0.035
-149.604	-148.270	0.146	-0.012
-148.589	-30.942	0.147	-0.081
-147.574	-101.469	-0.210	-0.050
-146.560	-54.761	-0.180	-0.079
-145.545	-200.000	-0.052	0.251
-144.531	83.777	-0.290	-0.308
-143.516	-200.000	-0.018	0.097
-142.502	-72.930	-0.250	-0.089
-141.487	-109.664	0.090	-0.018
-140.472	-19.344	0.366	0.221
-139.458	-200.000	-0.030	0.376
-138.443	-85.665	0.149	0.045
-137.429	482.219	0.057	-0.125
-136.414	52.514	-0.278	0.259
-135.399	800.000	0.089	0.289
-134.385	-200.000	-0.010	0.181
-133.370	-75.807	-0.121	-0.042
-132.356	-142.980	0.097	0.009
-131.341	-16.579	0.169	0.104
-130.326	18.236	0.110	0.085
-129.312	800.000	-0.014	0.048
-128.297	800.000	-0.014	0.044
-127.283	-64.162	-0.369	0.147
-126.268	-4.639	0.299	-0.201
-125.253	-47.851	-0.390	-0.184
-124.239	12.641	0.137	0.103
-123.224	800.000	0.038	0.127
-122.210	145.433	0.111	0.145
