DTS Sentinel unit serial number:	SN413079Multiplexer serial number:	ORYXHardware model number:	OX4-SRSoftware version number:	ORYX F/W v4.00 Oryx Data Collector v3.7.2.0data status	okinstallation	princeton_trtdifferential loss correction	single-endedforward channel	channel 2reverse channel	N/Adate	2019/09/13time	04:11:34forward acquisition time	60.00reverse acquisition time	0.00gamma	496.2192k internal	0.2336k external	0.2336temperature offset calibration	1.0190default loss term (dB/km)	0.3790temperature slope calibration	1.0000multiplexer offset coefficient	1.0000multiplexer slope coefficient	1.0000fibre end	0.00T internal ref (°C)	26.87T ext. ref 1 (°C)	4.05T ext. ref 2 (°C)	21.25length (m)	temperature (°C)	Stokes	anti-Stokes-747.200	800.000	-0.067	0.186
-746.185	136.558	-0.275	0.361
-745.171	800.000	0.064	-0.205
-744.156	-67.208	-0.286	-0.113
-743.142	-200.000	-0.033	0.176
-742.127	-100.091	-0.219	0.055
-741.112	144.631	-0.055	-0.074
-740.098	71.217	0.135	0.141
-739.083	81.884	-0.047	0.052
-738.069	-146.963	-0.256	-0.022
-737.054	103.023	-0.114	0.134
-736.039	-200.000	-0.039	-0.372
-735.025	-200.000	-0.002	0.217
-734.010	-123.639	-0.327	0.052
-732.996	120.944	-0.105	-0.131
-731.981	-200.000	0.007	-0.125
-730.966	0.436	-0.038	-0.027
-729.952	140.957	0.208	-0.277
-728.937	23.130	0.175	-0.144
-727.923	-200.000	0.027	-0.324
-726.908	-24.914	-0.207	-0.123
-725.894	-190.082	-0.409	-0.005
-724.879	172.859	-0.058	0.084
-723.864	-188.511	-0.286	0.004
-722.850	-126.028	-0.191	-0.029
-721.835	-96.249	-0.192	-0.051
-720.821	-200.000	-0.026	-0.228
-719.806	-52.870	-0.442	-0.204
-718.791	800.000	-0.015	-0.048
-717.777	-117.744	0.159	0.029
-716.762	-0.762	-0.122	-0.087
-715.748	-200.000	0.032	-0.258
-714.733	-32.598	-0.093	-0.052
-713.718	-66.495	-0.136	-0.054
-712.704	426.239	-0.047	0.101
-711.689	307.842	0.095	-0.178
-710.675	281.565	0.048	-0.087
-709.660	800.000	-0.065	-0.281
-708.645	-200.000	-0.072	-0.436
-707.631	800.000	-0.028	-0.077
-706.616	-52.305	-0.095	-0.044
-705.602	107.934	0.128	-0.153
-704.587	-177.729	0.087	-0.002
-703.572	26.503	-0.082	-0.068
-702.558	-26.461	0.183	-0.108
-701.543	-22.864	-0.103	-0.062
-700.529	-126.180	0.299	0.045
-699.514	62.958	-0.143	0.143
-698.499	-200.000	0.014	-0.181
-697.485	66.576	-0.108	-0.110
-696.470	-105.861	-0.032	0.007
-695.456	106.036	-0.124	-0.147
-694.441	-200.000	0.047	-0.390
-693.426	800.000	0.032	0.129
-692.412	391.212	0.072	0.151
-691.397	78.103	-0.209	0.223
-690.383	513.457	-0.107	0.250
-689.368	5.363	-0.178	0.131
-688.354	87.194	-0.212	0.234
-687.339	-94.953	0.183	-0.050
-686.324	-65.176	0.164	0.066
-685.310	-200.000	-0.022	0.160
-684.295	800.000	-0.031	-0.127
-683.281	612.677	-0.087	-0.218
-682.266	800.000	0.071	-0.201
-681.251	-200.000	-0.004	0.022
-680.237	163.189	0.046	0.064
-679.222	148.816	-0.019	-0.026
-678.208	72.955	0.073	-0.077
-677.193	5.605	0.118	0.087
-676.178	-49.434	-0.203	-0.097
-675.164	52.948	0.034	-0.032
-674.149	114.757	0.215	-0.262
-673.135	-131.162	-0.419	0.056
-672.120	800.000	-0.049	-0.158
-671.105	-91.861	-0.179	0.051
-670.091	-45.991	-0.257	-0.127
-669.076	-35.853	0.407	0.221
-668.062	-200.000	-0.035	-0.259
-667.047	184.029	0.085	0.126
-666.032	-28.923	-0.252	0.145
-665.018	74.542	-0.107	-0.113
-664.003	609.755	-0.018	-0.045
-662.989	9.309	0.185	0.140
-661.974	308.688	-0.102	-0.190
-660.959	800.000	-0.044	0.191
-659.945	-95.126	0.126	-0.034
-658.930	-200.000	-0.015	-0.069
-657.916	223.204	-0.052	0.084
-656.901	54.953	-0.082	0.079
-655.886	-5.663	-0.148	-0.101
-654.872	-16.168	-0.384	-0.244
-653.857	800.000	0.049	0.160
-652.843	195.053	-0.093	0.141
-651.828	-93.397	-0.304	0.084
-650.814	-118.869	0.250	-0.044
-649.799	177.327	0.196	-0.285
-648.784	-123.473	-0.320	0.051
-647.770	-12.970	0.069	0.045
-646.755	104.708	0.005	-0.006
-645.741	-200.000	0.064	-0.306
-644.726	-200.000	-0.020	0.104
-643.711	278.021	0.194	-0.346
-642.697	-44.117	0.115	-0.058
-641.682	441.071	-0.138	-0.303
-640.668	-65.953	-0.157	-0.063
-639.653	-124.472	0.415	-0.065
-638.638	126.154	-0.143	-0.181
-637.624	-62.799	0.115	0.047
-636.609	334.948	0.094	0.183
-635.595	128.381	-0.048	0.061
-634.580	410.217	0.032	-0.069
-633.565	137.845	-0.142	-0.186
-632.551	-200.000	-0.011	0.151
-631.536	395.301	-0.065	-0.136
-630.522	-173.745	-0.134	-0.004
-629.507	-200.000	-0.014	0.308
-628.492	214.876	0.131	0.207
-627.478	7.174	-0.260	-0.194
-626.463	-119.039	-0.095	0.017
-625.449	-200.000	0.028	-0.402
-624.434	-200.000	0.005	0.084
-623.419	-1.027	0.300	0.212
-622.405	800.000	-0.018	-0.064
-621.390	-200.000	0.033	0.342
-620.376	77.507	-0.254	-0.270
-619.361	513.045	0.207	0.482
-618.346	155.721	-0.203	0.280
-617.332	-200.000	-0.004	0.044
-616.317	103.806	-0.220	-0.258
-615.303	-200.000	-0.009	0.045
-614.288	-134.030	-0.174	0.022
-613.273	-3.699	-0.186	0.129
-612.259	-93.248	-0.105	-0.029
-611.244	-3.392	0.248	-0.172
-610.230	45.757	0.194	0.180
-609.215	1.233	-0.254	-0.182
-608.201	-35.389	0.125	-0.068
-607.186	-78.218	-0.093	-0.032
-606.171	155.529	0.212	0.292
-605.157	220.065	0.073	0.116
-604.142	231.185	-0.210	-0.344
-603.128	729.366	0.099	-0.265
-602.113	383.987	0.089	-0.184
-601.098	-165.203	-0.192	-0.008
-600.084	800.000	-0.043	-0.184
-599.069	80.371	0.225	-0.242
-598.055	-200.000	0.004	0.293
-597.040	-107.958	-0.176	-0.038
-596.025	140.521	-0.083	-0.109
-595.011	-47.654	-0.216	0.105
-593.996	-200.000	-0.011	-0.050
-592.982	-200.000	-0.032	-0.220
-591.967	26.468	0.216	0.180
-590.952	-200.000	0.007	0.238
-589.938	333.518	0.143	-0.275
-588.923	-92.686	0.113	-0.032
-587.909	308.254	0.060	0.112
-586.894	-200.000	0.025	-0.336
-585.879	-200.000	0.002	-0.144
-584.865	-200.000	-0.017	-0.125
-583.850	36.626	-0.179	0.158
-582.836	5.150	-0.138	0.102
-581.821	117.971	0.033	-0.041
-580.806	227.949	-0.090	0.145
-579.792	55.517	0.097	0.094
-578.777	-200.000	-0.034	-0.358
-577.763	-58.299	0.167	0.072
-576.748	-122.900	0.272	0.044
-575.733	-48.627	-0.266	0.127
-574.719	800.000	-0.075	0.211
-573.704	-73.855	-0.198	-0.072
-572.690	-130.857	-0.243	0.032
-571.675	-178.530	-0.231	-0.005
-570.661	-76.088	0.206	0.073
-569.646	761.041	0.045	-0.121
-568.631	-117.299	-0.081	-0.015
-567.617	11.394	0.125	-0.095
-566.602	-98.098	-0.524	0.134
-565.588	-126.207	0.145	-0.022
-564.573	5.946	-0.211	-0.156
-563.558	151.645	0.158	-0.215
-562.544	-53.421	0.188	0.086
-561.529	35.115	-0.152	0.133
-560.515	113.432	-0.051	-0.062
-559.500	119.426	0.121	-0.150
-558.485	-144.169	-0.205	0.019
-557.471	-56.468	-0.208	0.092
-556.456	97.793	0.188	-0.216
-555.442	-125.431	0.319	0.049
-554.427	-127.831	-0.145	-0.021
-553.412	56.005	-0.283	0.274
-552.398	-200.000	-0.010	0.107
-551.383	-47.256	0.362	-0.176
-550.369	-155.221	-0.121	0.008
-549.354	-180.083	0.233	0.005
-548.339	-102.563	-0.118	0.028
-547.325	380.398	-0.151	-0.309
-546.310	82.486	0.206	0.223
-545.296	-200.000	-0.037	-0.215
-544.281	375.796	-0.098	-0.199
-543.266	-90.052	-0.092	-0.027
-542.252	-167.634	-0.360	-0.014
-541.237	543.347	0.215	-0.511
-540.223	97.488	-0.292	0.334
-539.208	800.000	-0.095	0.323
-538.193	6.448	-0.181	-0.134
-537.179	215.366	0.115	-0.181
-536.164	-51.464	0.268	-0.125
-535.150	215.190	-0.096	-0.152
-534.135	-55.767	0.163	0.073
-533.121	149.037	-0.194	0.261
-532.106	-56.727	-0.069	-0.031
-531.091	-161.602	0.053	0.003
-530.077	-146.706	0.258	-0.022
-529.062	17.894	-0.163	-0.130
-528.048	283.312	0.070	-0.126
-527.033	-53.526	-0.042	0.019
-526.018	-160.850	0.217	0.011
-525.004	101.047	-0.160	-0.186
-523.989	660.451	-0.125	0.322
-522.975	31.054	-0.111	-0.095
-521.960	-94.874	-0.244	-0.066
-520.945	60.144	0.090	-0.088
-519.931	22.572	-0.150	0.122
-518.916	-18.273	-0.338	0.210
-517.902	148.590	-0.031	0.041
-516.887	800.000	0.036	0.138
-515.872	800.000	0.134	-0.393
-514.858	164.543	0.166	0.233
-513.843	-62.695	-0.185	-0.077
-512.829	-69.503	-0.096	0.037
-511.814	-200.000	-0.006	0.028
-510.799	-200.000	-0.032	0.159
-509.785	-54.668	0.105	-0.047
-508.770	-19.572	-0.248	0.153
-507.756	-39.473	-0.326	-0.170
-506.741	-147.095	0.141	-0.012
-505.726	19.010	-0.211	-0.168
-504.712	-61.199	-0.211	0.089
-503.697	186.301	0.053	-0.079
-502.683	800.000	-0.063	-0.248
-501.668	-200.000	0.013	-0.071
-500.653	-54.271	-0.147	-0.066
-499.639	-162.339	0.128	0.006
-498.624	66.040	-0.116	-0.117
-497.610	-82.582	0.117	0.038
-496.595	-155.128	0.470	0.031
-495.581	800.000	-0.087	0.333
-494.566	-200.000	0.005	0.042
-493.551	-60.454	-0.196	-0.083
-492.537	209.006	-0.157	0.244
-491.522	-160.149	0.178	0.010
-490.508	9.985	0.067	-0.051
-489.493	-151.407	-0.141	-0.010
-488.478	800.000	0.021	-0.079
-487.464	-74.249	-0.192	-0.069
-486.449	593.576	0.023	-0.056
-485.435	800.000	-0.027	-0.108
-484.420	800.000	-0.008	0.031
-483.405	-52.789	-0.253	-0.116
-482.391	-12.798	-0.087	-0.057
-481.376	-62.088	-0.187	-0.078
-480.362	800.000	0.064	-0.201
-479.347	117.279	0.127	0.156
-478.332	800.000	-0.045	0.136
-477.318	-21.040	0.247	0.150
-476.303	-105.557	-0.503	0.113
-475.289	-133.512	0.137	-0.017
-474.274	135.400	-0.041	-0.053
-473.259	-200.000	-0.028	-0.138
-472.245	208.639	0.165	0.256
-471.230	-97.699	0.314	-0.081
-470.216	-63.201	0.085	-0.035
-469.201	320.883	-0.040	-0.076
-468.186	-39.267	-0.387	-0.202
-467.172	21.392	-0.287	-0.232
-466.157	152.098	0.224	-0.304
-465.143	57.580	0.175	0.170
-464.128	800.000	0.077	0.251
-463.113	71.790	0.200	-0.206
-462.099	187.474	0.030	-0.045
-461.084	-200.000	-0.016	0.138
-460.070	226.320	0.181	0.292
-459.055	128.775	-0.030	0.038
-458.040	789.092	0.096	-0.263
-457.026	-111.571	-0.154	0.031
-456.011	-92.083	-0.066	-0.019
-454.997	248.577	-0.064	0.107
-453.982	-177.960	0.218	-0.005
-452.968	800.000	-0.043	0.177
-451.953	-74.836	0.155	0.055
-450.938	-20.782	-0.194	0.118
-449.924	800.000	0.050	-0.143
-448.909	414.483	0.148	0.312
-447.895	-104.898	0.075	0.017
-446.880	13.163	-0.157	-0.121
-445.865	-50.353	0.061	-0.029
-444.851	122.036	0.119	-0.148
-443.836	-82.247	0.116	-0.038
-442.822	98.948	0.140	0.160
-441.807	56.057	-0.119	0.115
-440.792	-158.335	-0.429	0.025
-439.778	415.398	0.123	0.260
-438.763	328.792	-0.044	0.085
-437.749	-123.019	-0.216	-0.035
-436.734	-200.000	0.011	-0.449
-435.719	159.970	-0.031	-0.043
-434.705	68.029	0.107	-0.108
-433.690	513.364	-0.079	-0.182
-432.676	-42.107	-0.192	-0.097
-431.661	74.244	0.073	0.077
-430.646	-200.000	0.002	-0.035
-429.632	-200.000	-0.010	0.071
-428.617	-91.336	0.304	-0.086
-427.603	26.227	-0.094	0.078
-426.588	33.678	-0.098	0.085
-425.573	-200.000	-0.005	0.338
-424.559	-101.746	-0.366	0.088
-423.544	-27.608	0.471	-0.271
-422.530	-124.027	-0.174	-0.027
-421.515	645.296	-0.004	-0.009
-420.500	-53.999	0.065	-0.030
-419.486	138.086	-0.182	-0.237
-418.471	-200.000	0.002	-0.225
-417.457	-192.871	0.332	0.003
-416.442	-90.947	0.087	-0.025
-415.428	-34.504	0.101	0.055
-414.413	135.945	0.167	0.216
-413.398	24.477	0.374	0.307
-412.384	-42.340	-0.194	0.098
-411.369	-200.000	0.036	-0.181
-410.355	727.052	-0.124	-0.328
-409.340	-200.000	-0.017	0.427
-408.325	201.282	0.037	-0.056
-407.311	25.076	-0.104	0.086
-406.296	-200.000	-0.014	0.160
-405.282	-178.610	0.293	0.007
-404.267	-149.912	0.219	-0.017
-403.252	800.000	0.071	0.202
-402.238	-38.989	0.309	-0.161
-401.223	-200.000	0.007	0.205
-400.209	39.961	0.134	0.119
-399.194	-87.783	-0.212	-0.063
-398.179	-114.365	-0.277	0.053
-397.165	-31.807	0.353	0.196
-396.150	-200.000	0.011	0.154
-395.136	-200.000	0.043	-0.398
-394.121	409.192	0.117	-0.245
-393.106	-81.844	-0.399	0.129
-392.092	498.561	-0.191	0.436
-391.077	72.150	0.098	0.101
-390.063	-5.422	-0.114	-0.077
-389.048	227.598	-0.162	0.262
-388.033	101.887	0.158	0.182
-387.019	-200.000	-0.026	-0.137
-386.004	-42.190	-0.161	-0.082
-384.990	555.932	-0.179	0.427
-383.975	-78.568	0.260	-0.088
-382.960	800.000	0.050	-0.204
-381.946	-85.110	-0.187	-0.058
-380.931	-200.000	0.002	-0.124
-379.917	-115.697	0.353	-0.066
-378.902	800.000	-0.082	-0.331
-377.888	-33.492	0.279	-0.153
-376.873	671.646	-0.109	-0.280
-375.858	-12.227	0.098	-0.063
-374.844	635.181	-0.126	0.317
-373.829	60.859	0.154	-0.152
-372.815	-84.069	-0.128	0.040
-371.800	100.281	-0.113	-0.130
-370.785	47.163	0.151	0.139
-369.771	-59.022	0.259	0.110
-368.756	-21.454	-0.354	0.214
-367.742	-13.392	-0.112	0.072
-366.727	256.975	0.070	0.118
-365.712	-200.000	-0.016	0.127
-364.698	-29.185	0.206	0.117
-363.683	-108.330	-0.235	0.050
-362.669	-200.000	-0.021	0.227
-361.654	-200.000	0.047	-0.274
-360.639	142.673	0.031	-0.041
-359.625	-200.000	0.011	-0.098
-358.610	-10.335	-0.191	0.125
-357.596	-113.140	0.510	-0.099
-356.581	53.301	0.115	0.109
-355.566	-141.210	0.145	0.015
-354.552	-82.921	-0.161	0.051
-353.537	-200.000	0.005	-0.087
-352.523	270.020	-0.035	-0.060
-351.508	800.000	0.127	0.435
-350.493	-75.460	0.048	-0.017
-349.479	800.000	-0.060	-0.190
-348.464	380.410	0.151	0.307
-347.450	240.466	0.162	0.267
-346.435	-101.797	0.206	-0.049
-345.420	323.228	-0.114	0.214
-344.406	-2.601	-0.111	0.077
-343.391	-63.944	-0.129	-0.052
-342.377	210.375	0.068	-0.105
-341.362	-148.048	0.309	0.025
-340.348	-200.000	-0.003	0.110
-339.333	195.018	-0.206	0.309
-338.318	-200.000	0.019	0.329
-337.304	-200.000	-0.029	-0.197
-336.289	-200.000	-0.039	-0.230
-335.275	583.813	0.150	-0.364
-334.260	-200.000	-0.027	-0.119
-333.245	-200.000	-0.025	-0.182
-332.231	4.414	-0.129	-0.094
-331.216	141.432	0.284	0.371
-330.202	-141.139	0.033	0.003
-329.187	-36.286	0.145	-0.077
-328.172	97.903	-0.155	-0.177
-327.158	11.860	-0.074	-0.056
-326.143	-47.249	-0.194	-0.093
-325.129	-69.539	0.141	-0.053
-324.114	592.215	0.101	-0.246
-323.099	-29.367	-0.341	-0.193
-322.085	-78.789	0.278	-0.094
-321.070	149.300	-0.130	0.174
-320.056	-132.668	0.212	0.027
-319.041	-117.338	0.378	0.068
-318.026	-200.000	0.029	-0.154
-317.012	-200.000	0.053	0.243
-315.997	-200.000	-0.048	-0.260
-314.983	-12.677	0.280	0.181
-313.968	8.508	-0.159	-0.118
-312.953	-200.000	-0.027	0.272
-311.939	-18.337	0.094	0.058
-310.924	-200.000	-0.022	0.132
-309.910	-200.000	-0.047	0.357
-308.895	-6.342	-0.277	-0.187
-307.880	800.000	-0.067	-0.209
-306.866	-200.000	-0.037	0.359
-305.851	16.319	-0.265	0.206
-304.837	-36.584	-0.042	-0.022
-303.822	23.572	-0.130	0.106
-302.807	-84.587	-0.115	-0.036
-301.793	63.518	0.223	0.221
-300.778	-200.000	-0.006	0.172
-299.764	259.299	-0.264	0.450
-298.749	81.949	-0.217	-0.232
-297.735	-200.000	0.048	0.282
-296.720	361.755	0.117	0.232
-295.705	11.528	-0.261	-0.197
-294.691	-130.143	-0.159	0.021
-293.676	-149.788	0.167	0.013
-292.662	-65.493	-0.311	0.123
-291.647	8.496	-0.105	-0.078
-290.632	-151.643	0.294	-0.021
-289.618	800.000	-0.160	-0.460
-288.603	-200.000	-0.224	-0.000
-287.589	-122.999	-0.085	-0.013
-286.574	-73.558	0.047	-0.017
-285.559	96.517	-0.131	0.148
-284.545	-200.000	0.035	-0.412
-283.530	-66.405	-0.147	0.058
-282.516	-72.411	0.429	0.156
-281.501	0.438	-0.057	0.041
-280.486	743.011	0.126	0.335
-279.472	800.000	-0.081	0.255
-278.457	55.528	0.162	0.155
-277.443	-56.326	-0.104	0.045
-276.428	-170.322	-0.069	-0.002
-275.413	-105.206	0.231	-0.052
-274.399	-107.343	-0.178	-0.039
-273.384	800.000	-0.013	-0.050
-272.370	554.441	0.050	0.120
-271.355	800.000	-0.057	0.244
-270.340	-13.040	-0.116	-0.075
-269.326	285.703	0.097	0.172
-268.311	800.000	0.069	-0.201
-267.297	-182.029	0.073	0.001
-266.282	-200.000	0.004	0.247
-265.267	104.200	0.150	0.174
-264.253	243.491	-0.160	0.264
-263.238	-200.000	-0.044	0.281
-262.224	-200.000	-0.022	-0.101
-261.209	-192.287	-0.252	-0.002
-260.195	-176.165	-0.257	0.007
-259.180	-18.634	0.194	-0.120
-258.165	-13.339	-0.120	0.077
-257.151	-51.115	-0.048	0.022
-256.136	83.590	0.271	0.291
-255.122	-98.181	-0.330	-0.084
-254.107	589.503	0.138	-0.334
-253.092	-82.409	0.116	0.037
-252.078	142.512	0.211	0.276
-251.063	800.000	0.023	0.073
-250.049	800.000	-0.047	0.131
-249.034	-42.860	0.073	-0.037
-248.019	188.664	0.197	0.291
-247.005	-32.030	0.119	0.065
-245.990	-117.934	0.199	-0.035
-244.976	800.000	0.082	0.332
-243.961	13.123	-0.030	-0.023
-242.946	-57.907	0.170	0.073
-241.932	-114.566	-0.411	-0.078
-240.917	3.928	-0.325	-0.234
-239.903	466.349	-0.132	-0.290
-238.888	186.490	0.131	-0.192
-237.873	-63.315	-0.096	0.039
-236.859	800.000	0.070	-0.192
-235.844	800.000	0.078	-0.216
-234.830	-15.357	0.231	-0.145
-233.815	-12.429	-0.384	0.247
-232.800	45.398	0.208	-0.189
-231.786	40.734	0.362	0.321
-230.771	-40.878	-0.160	-0.082
-229.757	-139.960	0.199	-0.021
-228.742	91.736	0.290	-0.321
-227.727	800.000	0.037	0.136
-226.713	-200.000	0.019	0.097
-225.698	-48.167	-0.085	-0.040
-224.684	-61.112	0.110	-0.046
-223.669	73.455	0.166	0.171
-222.655	438.590	-0.007	-0.014
-221.640	-7.498	0.113	-0.075
-220.625	-80.670	0.560	0.183
-219.611	-97.227	-0.103	-0.026
-218.596	76.915	0.254	-0.266
-217.582	800.000	0.014	-0.041
-216.567	-73.667	0.216	-0.078
-215.552	-27.034	0.274	0.157
-214.538	105.611	0.172	-0.200
-213.523	2.177	-0.196	-0.139
-212.509	-19.970	0.284	-0.172
-211.494	-64.046	0.032	0.013
-210.479	36.587	0.159	-0.138
-209.465	10.974	-0.030	-0.022
-208.450	58.073	-0.091	0.088
-207.436	-17.298	0.383	-0.237
-206.421	800.000	0.031	-0.097
-205.406	-200.000	-0.037	-0.245
-204.392	-200.000	-0.010	-0.084
-203.377	800.000	-0.032	-0.128
-202.363	158.838	-0.045	-0.062
-201.348	800.000	-0.081	-0.252
-200.333	166.178	-0.286	-0.398
-199.319	-112.719	-0.045	-0.009
-198.304	263.789	0.090	-0.153
-197.290	-170.391	0.262	0.009
-196.275	286.644	-0.053	-0.094
-195.260	-32.849	0.212	-0.116
-194.246	800.000	0.011	0.044
-193.231	-54.394	0.311	-0.139
-192.217	-108.367	0.245	-0.052
-191.202	-29.114	-0.195	0.110
-190.187	-200.000	0.052	0.265
-189.173	-50.444	-0.157	-0.073
-188.158	800.000	-0.033	0.094
-187.144	-200.000	0.021	0.504
-186.129	800.000	0.133	-0.360
-185.114	-200.000	0.026	-0.151
-184.100	-68.067	-0.202	-0.077
-183.085	-28.442	0.307	-0.174
-182.071	-93.955	-0.321	0.087
-181.056	-109.772	0.261	0.054
-180.042	800.000	-0.055	0.205
-179.027	346.501	-0.178	0.343
-178.012	-111.236	-0.311	0.062
-176.998	209.193	-0.045	0.069
-175.983	53.506	0.250	-0.235
-174.969	377.534	-0.150	-0.301
-173.954	17.618	-0.055	0.043
-172.939	-102.879	-0.263	0.061
-171.925	-200.000	0.049	-0.282
-170.910	-38.829	-0.296	-0.153
-169.896	269.336	-0.171	0.295
-168.881	120.448	-0.097	-0.118
-167.866	800.000	-0.049	-0.156
-166.852	132.937	-0.160	0.202
-165.837	484.506	-0.091	-0.204
-164.823	-200.000	0.010	0.197
-163.808	-200.000	-0.004	0.130
-162.793	-200.000	0.017	0.222
-161.779	122.367	-0.102	-0.125
-160.764	-116.085	-0.092	0.017
-159.750	800.000	0.081	0.230
-158.735	53.085	-0.148	0.139
-157.720	-200.000	0.027	0.165
-156.706	-146.175	-0.159	0.014
-155.691	-22.254	0.221	-0.132
-154.677	-200.000	0.052	0.254
-153.662	-76.550	0.212	-0.073
-152.647	0.837	0.273	-0.192
-151.633	-200.000	-0.003	0.069
-150.618	800.000	-0.076	0.276
-149.604	314.418	-0.061	0.114
-148.589	-200.000	-0.040	-0.212
-147.574	2.825	0.211	-0.150
-146.560	800.000	0.059	0.192
-145.545	286.458	0.162	-0.287
-144.531	-200.000	0.024	0.391
-143.516	-200.000	-0.016	0.073
-142.502	176.755	-0.032	-0.046
-141.487	-124.074	0.117	0.018
-140.472	-142.144	0.241	-0.023
-139.458	113.011	0.174	-0.207
-138.443	13.836	-0.180	-0.137
-137.429	332.778	-0.089	0.168
-136.414	-200.000	-0.040	0.469
-135.399	800.000	-0.088	0.242
-134.385	583.744	-0.122	-0.295
-133.370	131.394	-0.228	-0.287
-132.356	277.595	0.067	0.116
-131.341	-200.000	-0.024	0.154
-130.326	-65.150	0.310	-0.122
-129.312	488.729	0.053	-0.119
-128.297	-200.000	0.030	0.296
-127.283	-13.847	-0.078	0.049
-126.268	-145.981	0.154	0.013
-125.253	217.295	-0.102	-0.159
-124.239	52.805	-0.331	0.310
-123.224	-200.000	0.012	0.053
-122.210	609.004	0.112	0.275
