DTS Sentinel unit serial number:	SN413079Multiplexer serial number:	ORYXHardware model number:	OX4-SRSoftware version number:	ORYX F/W v4.00 Oryx Data Collector v3.7.2.0data status	okinstallation	princeton_trtdifferential loss correction	single-endedforward channel	channel 2reverse channel	N/Adate	2019/09/14time	11:03:35forward acquisition time	60.00reverse acquisition time	0.00gamma	496.2192k internal	0.2313k external	0.2313temperature offset calibration	1.0145default loss term (dB/km)	0.3790temperature slope calibration	1.0000multiplexer offset coefficient	1.0000multiplexer slope coefficient	1.0000fibre end	0.00T internal ref (°C)	36.12T ext. ref 1 (°C)	4.39T ext. ref 2 (°C)	33.98length (m)	temperature (°C)	Stokes	anti-Stokes-747.200	185.431	0.128	-0.194
-746.185	-66.901	-0.209	-0.084
-745.171	344.704	0.185	-0.369
-744.156	-111.768	-0.241	0.049
-743.142	-12.404	0.172	-0.114
-742.127	118.969	-0.170	0.213
-741.112	-130.287	0.339	-0.047
-740.098	-10.494	-0.011	-0.007
-739.083	-200.000	0.028	0.244
-738.069	-125.359	0.050	0.008
-737.054	421.321	-0.099	-0.214
-736.039	800.000	-0.103	-0.292
-735.025	-35.991	0.119	0.065
-734.010	339.734	-0.197	0.390
-732.996	392.073	-0.212	-0.447
-731.981	-99.682	-0.175	0.045
-730.966	-200.000	-0.034	-0.330
-729.952	204.274	0.036	-0.057
-728.937	800.000	0.054	-0.201
-727.923	483.463	0.117	-0.269
-726.908	-128.710	-0.184	0.026
-725.894	720.707	-0.227	-0.613
-724.879	-200.000	-0.017	-0.214
-723.864	800.000	-0.055	0.225
-722.850	-90.568	-0.325	0.095
-721.835	-200.000	-0.007	0.120
-720.821	94.248	0.261	0.301
-719.806	47.547	0.209	0.198
-718.791	-66.217	-0.182	-0.073
-717.777	-200.000	-0.037	-0.192
-716.762	-112.484	-0.440	-0.089
-715.748	-66.622	-0.247	0.099
-714.733	-176.080	0.181	0.005
-713.718	-82.226	0.330	-0.109
-712.704	252.791	-0.208	0.359
-711.689	-38.706	-0.185	-0.099
-710.675	-200.000	-0.001	-0.078
-709.660	-76.621	-0.072	0.026
-708.645	757.706	0.028	0.076
-707.631	-186.416	0.305	-0.004
-706.616	-200.000	0.026	0.117
-705.602	9.160	0.079	-0.060
-704.587	-99.911	0.575	0.146
-703.572	-56.342	0.247	-0.111
-702.558	249.285	0.149	0.256
-701.543	38.748	-0.170	0.154
-700.529	-15.824	-0.138	-0.089
-699.514	800.000	0.054	-0.210
-698.499	196.341	0.266	-0.411
-697.485	-92.764	-0.350	0.099
-696.470	-63.265	-0.254	-0.106
-695.456	-110.868	-0.060	-0.013
-694.441	30.710	-0.028	-0.024
-693.426	-40.746	0.141	0.074
-692.412	569.024	-0.037	0.090
-691.397	454.062	-0.107	-0.240
-690.383	-31.518	-0.415	-0.236
-689.368	-51.234	-0.157	0.075
-688.354	-94.172	0.126	-0.035
-687.339	-200.000	0.008	-0.200
-686.324	-100.118	-0.206	-0.052
-685.310	88.489	-0.347	0.390
-684.295	-90.435	-0.239	-0.070
-683.281	-200.000	-0.000	-0.098
-682.266	-143.727	0.261	0.025
-681.251	51.019	0.145	-0.139
-680.237	461.443	0.092	0.207
-679.222	800.000	-0.048	0.163
-678.208	-13.725	-0.128	0.084
-677.193	-200.000	0.051	-0.296
-676.178	800.000	0.063	-0.267
-675.164	592.923	0.088	-0.219
-674.149	53.860	-0.087	0.084
-673.135	-95.951	0.303	0.082
-672.120	35.052	-0.054	0.048
-671.105	-99.966	-0.227	0.057
-670.091	125.323	0.229	0.292
-669.076	34.565	0.082	0.073
-668.062	-22.245	0.375	-0.230
-667.047	-200.000	0.020	-0.114
-666.032	-41.471	0.042	0.022
-665.018	41.516	-0.060	-0.055
-664.003	225.648	-0.138	-0.226
-662.989	-162.486	0.155	0.008
-661.974	-57.616	0.142	0.063
-660.959	-185.475	0.095	-0.001
-659.945	-105.345	0.439	0.101
-658.930	800.000	-0.067	-0.205
-657.916	800.000	-0.166	-0.533
-656.901	-160.363	0.161	-0.009
-655.886	702.730	0.133	-0.354
-654.872	-114.106	-0.273	-0.053
-653.857	800.000	-0.065	0.199
-652.843	109.963	-0.088	-0.107
-651.828	131.236	0.025	-0.032
-650.814	-86.115	-0.341	-0.106
-649.799	-137.326	0.174	-0.020
-648.784	-138.023	0.607	0.068
-647.770	-108.974	-0.174	-0.038
-646.755	-26.976	-0.127	-0.075
-645.741	-171.316	0.393	0.013
-644.726	702.993	0.081	-0.215
-643.711	-80.721	-0.328	0.110
-642.697	-99.856	-0.173	-0.044
-641.682	321.090	0.042	-0.080
-640.668	-142.737	-0.175	0.017
-639.653	-68.120	0.133	0.052
-638.638	-200.000	0.005	0.258
-637.624	-84.204	-0.167	-0.053
-636.609	571.114	-0.080	0.196
-635.595	350.825	-0.046	0.091
-634.580	-93.762	0.071	0.020
-633.565	800.000	-0.019	0.076
-632.551	-200.000	0.039	0.239
-631.536	-14.816	-0.135	-0.087
-630.522	-178.597	0.179	0.004
-629.507	-200.000	0.025	-0.127
-628.492	-200.000	-0.050	0.273
-627.478	-200.000	-0.015	0.265
-626.463	-125.557	-0.122	0.019
-625.449	81.240	-0.196	0.213
-624.434	-106.391	-0.137	-0.031
-623.419	82.335	0.065	-0.071
-622.405	646.230	-0.034	-0.089
-621.390	-60.396	-0.319	-0.137
-620.376	-199.504	0.082	-0.000
-619.361	-100.545	-0.162	-0.040
-618.346	103.257	-0.185	0.219
-617.332	26.702	0.222	-0.188
-616.317	4.359	-0.286	-0.212
-615.303	25.549	-0.069	-0.058
-614.288	-200.000	-0.004	0.140
-613.273	-200.000	-0.048	-0.335
-612.259	-149.719	-0.262	0.021
-611.244	2.718	0.271	-0.199
-610.230	800.000	0.007	-0.029
-609.215	-185.228	0.230	-0.004
-608.201	-142.113	-0.410	-0.041
-607.186	343.341	-0.029	0.058
-606.171	-128.513	0.063	-0.009
-605.157	-98.726	-0.290	0.074
-604.142	-10.069	0.288	-0.193
-603.128	17.218	0.117	0.093
-602.113	706.249	-0.026	0.069
-601.098	249.628	0.105	-0.180
-600.084	56.990	0.146	0.144
-599.069	800.000	-0.118	-0.422
-598.055	-85.506	0.121	0.038
-597.040	-92.103	0.267	0.076
-596.025	21.238	-0.217	-0.177
-595.011	-105.925	0.130	-0.030
-593.996	-145.084	0.055	0.005
-592.982	752.363	-0.149	0.406
-591.967	-85.536	-0.091	0.029
-590.952	27.498	-0.203	0.172
-589.938	-200.000	-0.029	0.438
-588.923	645.311	0.180	0.462
-587.909	-171.559	-0.182	-0.006
-586.894	-152.119	-0.065	-0.005
-585.879	-37.333	-0.442	0.238
-584.865	95.485	-0.098	0.112
-583.850	206.454	0.145	0.228
-582.836	6.299	-0.246	-0.184
-581.821	128.878	0.161	0.207
-580.806	50.581	0.183	0.174
-579.792	-69.780	-0.189	0.073
-578.777	-200.000	-0.019	-0.172
-577.763	-200.000	-0.024	0.253
-576.748	-38.448	0.078	0.041
-575.733	-26.124	-0.183	0.108
-574.719	-101.435	-0.254	0.062
-573.704	800.000	-0.070	-0.210
-572.690	123.557	0.163	0.206
-571.675	59.203	0.103	0.102
-570.661	800.000	-0.019	0.070
-569.646	157.613	-0.073	-0.103
-568.631	-119.800	0.150	-0.026
-567.617	800.000	0.109	0.309
-566.602	-28.252	-0.090	0.052
-565.588	-44.117	-0.178	-0.090
-564.573	-155.816	0.039	0.002
-563.558	-72.848	-0.292	0.108
-562.544	-181.508	0.388	-0.008
-561.529	298.790	-0.055	-0.102
-560.515	-200.000	-0.003	0.434
-559.500	253.831	-0.026	-0.045
-558.485	-106.016	-0.092	-0.021
-557.471	230.523	0.097	-0.160
-556.456	-99.640	-0.207	-0.052
-555.442	-33.435	-0.153	0.085
-554.427	-200.000	-0.003	-0.151
-553.412	341.391	0.135	-0.265
-552.398	-200.000	-0.039	-0.273
-551.383	604.844	-0.049	-0.124
-550.369	800.000	-0.004	0.013
-549.354	-27.258	-0.111	0.065
-548.339	19.572	-0.252	-0.204
-547.325	150.562	0.049	0.066
-546.310	32.458	-0.294	0.256
-545.296	-200.000	-0.010	0.257
-544.281	-109.698	-0.405	-0.086
-543.266	-86.604	0.128	0.039
-542.252	146.842	0.208	-0.282
-541.237	-72.394	0.289	-0.108
-540.223	168.990	0.153	0.219
-539.208	-117.955	0.691	0.125
-538.193	339.887	-0.059	-0.116
-537.179	449.123	-0.009	-0.020
-536.164	-200.000	0.040	-0.256
-535.150	-200.000	-0.022	0.214
-534.135	788.734	0.115	-0.318
-533.121	-21.913	0.170	0.104
-532.106	-98.144	0.098	0.025
-531.091	-200.000	0.008	-0.199
-530.077	-200.000	-0.035	-0.546
-529.062	-200.000	0.016	0.335
-528.048	157.298	-0.321	-0.447
-527.033	-58.142	0.322	0.141
-526.018	12.106	-0.111	0.086
-525.004	-85.541	-0.280	-0.088
-523.989	-200.000	0.062	-0.289
-522.975	2.533	-0.318	-0.231
-521.960	-0.553	0.236	-0.168
-520.945	-87.728	-0.010	0.003
-519.931	35.447	0.191	-0.169
-518.916	52.945	-0.184	-0.177
-517.902	-200.000	0.022	-0.171
-516.887	220.654	-0.073	0.118
-515.872	-200.000	0.034	-0.237
-514.858	800.000	-0.065	0.275
-513.843	-152.740	0.234	0.017
-512.829	14.271	0.079	0.062
-511.814	82.256	-0.069	-0.076
-510.799	129.847	-0.027	-0.035
-509.785	-200.000	-0.029	-0.132
-508.770	-200.000	0.016	-0.123
-507.756	93.601	-0.059	-0.067
-506.741	800.000	0.042	-0.164
-505.726	124.716	0.172	-0.218
-504.712	-66.338	-0.193	-0.077
-503.697	55.476	0.131	0.127
-502.683	84.619	-0.181	-0.199
-501.668	-154.447	-0.259	0.017
-500.653	-25.215	0.075	0.044
-499.639	-79.839	0.204	-0.069
-498.624	-111.570	-0.303	0.062
-497.610	-200.000	0.015	0.226
-496.595	-55.234	0.262	-0.118
-495.581	776.872	0.166	0.454
-494.566	-119.235	0.116	0.020
-493.551	-137.370	0.071	-0.008
-492.537	-89.668	-0.216	0.064
-491.522	356.513	0.002	0.003
-490.508	-200.000	0.016	0.160
-489.493	800.000	0.090	0.290
-488.478	181.535	-0.183	0.270
-487.464	-59.700	-0.173	-0.075
-486.449	28.246	0.316	0.268
-485.435	-49.146	0.237	0.114
-484.420	-200.000	0.036	0.157
-483.405	145.001	0.270	0.363
-482.391	-42.455	0.243	-0.124
-481.376	-85.498	0.349	0.109
-480.362	23.037	0.166	-0.137
-479.347	76.113	0.172	-0.183
-478.332	-44.197	-0.178	-0.090
-477.318	483.844	0.150	0.342
-476.303	44.880	-0.243	-0.224
-475.289	-200.000	-0.006	0.127
-474.274	105.841	-0.088	0.104
-473.259	25.997	-0.219	-0.183
-472.245	-62.129	0.215	-0.090
-471.230	-200.000	-0.044	0.206
-470.216	800.000	0.022	-0.081
-469.201	391.533	-0.147	0.307
-468.186	404.743	0.053	0.111
-467.172	72.128	-0.075	0.078
-466.157	381.160	0.016	-0.033
-465.143	-200.000	0.034	-0.156
-464.128	226.271	-0.019	-0.030
-463.113	800.000	-0.037	0.102
-462.099	-96.093	-0.116	0.031
-461.084	151.813	0.163	-0.223
-460.070	-15.250	0.147	0.095
-459.055	-200.000	0.000	-0.476
-458.040	-191.887	0.271	-0.003
-457.026	-82.268	-0.221	-0.072
-456.011	-26.334	0.059	-0.035
-454.997	-65.757	-0.486	-0.195
-453.982	120.606	0.109	0.136
-452.968	-41.903	-0.044	0.023
-451.953	800.000	-0.074	0.242
-450.938	-67.187	0.077	-0.030
-449.924	800.000	-0.109	-0.333
-448.909	38.576	-0.074	0.066
-447.895	4.846	0.115	-0.084
-446.880	-200.000	-0.006	-0.184
-445.865	-180.263	0.239	-0.005
-444.851	148.571	-0.206	-0.279
-443.836	-86.664	0.210	-0.065
-442.822	-186.673	0.108	-0.002
-441.807	-78.511	-0.267	0.092
-440.792	386.424	-0.068	-0.141
-439.778	-200.000	-0.027	0.198
-438.763	60.107	-0.232	0.230
-437.749	-108.569	-0.066	-0.014
-436.734	148.080	-0.130	-0.176
-435.719	-151.218	-0.291	-0.022
-434.705	-39.059	0.237	-0.125
-433.690	283.806	-0.148	-0.267
-432.676	-59.600	0.056	-0.024
-431.661	344.091	-0.079	-0.155
-430.646	22.841	-0.175	0.144
-429.632	-200.000	-0.019	0.216
-428.617	-3.796	-0.370	0.258
-427.603	-106.755	-0.036	-0.008
-426.588	-30.580	-0.037	0.021
-425.573	-122.545	0.197	-0.032
-424.559	-200.000	0.007	-0.114
-423.544	-123.790	-0.062	-0.010
-422.530	83.027	0.065	-0.071
-421.515	138.030	0.180	0.237
-420.500	359.068	-0.107	0.214
-419.486	800.000	0.044	0.134
-418.471	-172.841	0.154	-0.005
-417.457	-104.653	0.312	-0.072
-416.442	-34.351	-0.216	-0.119
-415.428	-158.704	0.059	-0.003
-414.413	-34.430	-0.102	0.056
-413.398	-117.227	0.488	0.089
-412.384	-68.298	0.482	-0.187
-411.369	800.000	-0.074	-0.239
-410.355	-60.913	-0.170	0.072
-409.340	-200.000	-0.022	-0.117
-408.325	-42.352	-0.044	-0.022
-407.311	-170.714	-0.237	0.008
-406.296	221.800	-0.092	0.148
-405.282	-200.000	-0.006	0.134
-404.267	-73.226	0.158	-0.058
-403.252	211.102	0.039	0.062
-402.238	-200.000	-0.009	-0.092
-401.223	-76.476	-0.059	0.021
-400.209	21.074	-0.218	-0.177
-399.194	-200.000	-0.052	-0.358
-398.179	659.649	0.111	-0.286
-397.165	34.492	0.044	-0.039
-396.150	-200.000	0.011	0.113
-395.136	-200.000	0.018	0.142
-394.121	566.737	-0.154	0.375
-393.106	-200.000	0.034	-0.301
-392.092	-200.000	0.039	0.236
-391.077	-33.773	0.169	-0.093
-390.063	-151.262	0.333	0.025
-389.048	-200.000	0.025	-0.237
-388.033	800.000	-0.046	-0.179
-387.019	101.857	-0.033	-0.038
-386.004	220.488	0.098	0.157
-384.990	-42.440	0.126	-0.064
-383.975	26.055	0.124	0.103
-382.960	47.816	-0.222	0.208
-381.946	-200.000	0.020	0.151
-380.931	800.000	-0.161	0.453
-379.917	2.162	-0.214	-0.155
-378.902	582.573	-0.029	0.071
-377.888	-184.575	0.254	0.004
-376.873	13.163	0.113	0.088
-375.858	-159.008	0.200	-0.011
-374.844	-48.399	-0.198	0.095
-373.829	-200.000	0.023	0.295
-372.815	-48.918	-0.144	-0.069
-371.800	-127.279	-0.296	0.043
-370.785	20.653	0.330	0.267
-369.771	54.071	0.254	0.244
-368.756	-177.104	0.397	-0.010
-367.742	-92.325	-0.121	0.034
-366.727	-200.000	-0.002	0.152
-365.712	-15.660	-0.258	0.164
-364.698	-200.000	-0.001	-0.301
-363.683	-30.932	-0.188	0.106
-362.669	50.305	0.194	-0.183
-361.654	-126.815	0.066	-0.010
-360.639	-151.293	0.153	-0.011
-359.625	800.000	0.045	0.162
-358.610	800.000	-0.121	0.351
-357.596	332.091	0.097	0.188
-356.581	182.991	-0.043	0.064
-355.566	-200.000	-0.003	0.106
-354.552	-20.027	0.144	-0.089
-353.537	36.218	-0.290	0.256
-352.523	267.249	-0.133	0.232
-351.508	110.022	0.084	0.100
-350.493	-2.149	-0.080	-0.056
-349.479	-200.000	-0.035	-0.374
-348.464	52.213	-0.268	-0.256
-347.450	-200.000	0.078	0.479
-346.435	477.726	0.107	-0.242
-345.420	-109.685	0.234	0.049
-344.406	39.714	-0.062	-0.055
-343.391	267.828	0.041	-0.072
-342.377	101.603	0.113	0.132
-341.362	-200.000	0.014	-0.129
-340.348	290.707	-0.168	-0.304
-339.333	-35.938	-0.043	0.023
-338.318	60.933	0.060	-0.059
-337.304	132.421	0.134	-0.172
-336.289	-146.083	-0.073	0.006
-335.275	50.460	-0.082	-0.077
-334.260	95.724	0.145	-0.165
-333.245	-200.000	-0.027	0.154
-332.231	-200.000	-0.012	-0.425
-331.216	-200.000	0.029	0.315
-330.202	-59.474	-0.306	0.131
-329.187	26.036	-0.218	-0.182
-328.172	-72.720	0.125	-0.046
-327.158	-200.000	0.028	-0.440
-326.143	-2.722	0.087	0.061
-325.129	-83.079	0.106	0.034
-324.114	800.000	-0.057	-0.161
-323.099	51.429	0.188	0.178
-322.085	5.045	-0.139	-0.102
-321.070	-23.284	0.225	-0.135
-320.056	-169.440	-0.390	-0.014
-319.041	-114.629	0.382	0.073
-318.026	3.293	-0.063	-0.045
-317.012	-200.000	-0.048	-0.297
-315.997	345.503	-0.072	0.141
-314.983	23.010	-0.207	0.169
-313.968	11.069	0.178	0.136
-312.953	-76.065	0.289	0.102
-311.939	-68.853	-0.184	-0.071
-310.924	29.206	-0.194	0.164
-309.910	148.166	-0.119	-0.160
-308.895	481.307	-0.090	-0.204
-307.880	-92.233	-0.132	-0.037
-306.866	800.000	-0.080	0.269
-305.851	-200.000	0.032	-0.144
-304.837	-39.561	0.163	-0.085
-303.822	-200.000	-0.015	0.114
-302.807	62.678	-0.067	0.067
-301.793	121.173	0.195	0.242
-300.778	76.652	-0.202	-0.214
-299.764	-113.827	0.250	0.049
-298.749	-200.000	-0.001	0.208
-297.735	-54.393	0.191	-0.086
-296.720	-85.779	-0.153	0.047
-295.705	-67.705	-0.286	0.112
-294.691	-200.000	-0.003	0.294
-293.676	-200.000	0.029	-0.160
-292.662	-55.635	0.259	-0.115
-291.647	-61.254	0.121	-0.051
-290.632	29.277	0.212	0.179
-289.618	-46.061	-0.249	0.122
-288.603	154.478	0.164	-0.225
-287.589	-82.959	0.282	0.091
-286.574	-11.418	-0.195	-0.128
-285.559	-200.000	-0.007	0.145
-284.545	-41.230	0.214	-0.110
-283.530	-8.314	-0.412	-0.276
-282.516	49.765	-0.194	-0.182
-281.501	344.375	0.085	0.167
-280.486	130.556	-0.179	-0.229
-279.472	800.000	-0.096	-0.304
-278.457	264.774	0.109	0.188
-277.443	-80.402	0.149	0.049
-276.428	-95.573	0.157	-0.042
-275.413	-200.000	0.032	0.229
-274.399	467.832	0.046	-0.103
-273.384	-23.709	0.346	0.206
-272.370	-200.000	0.017	0.105
-271.355	56.327	0.182	-0.177
-270.340	-151.411	0.194	0.014
-269.326	24.348	0.050	0.041
-268.311	28.094	0.254	0.214
-267.297	183.079	0.033	-0.049
-266.282	214.360	-0.049	0.077
-265.267	286.724	0.113	0.204
-264.253	800.000	0.062	-0.194
-263.238	-141.526	0.252	-0.025
-262.224	-49.868	0.253	0.119
-261.209	4.199	0.164	0.119
-260.195	-119.340	0.290	0.050
-259.180	501.496	-0.180	-0.414
-258.165	-106.209	0.034	-0.008
-257.151	110.962	0.060	-0.072
-256.136	-200.000	-0.013	-0.072
-255.122	26.985	-0.020	-0.017
-254.107	-64.284	0.509	0.206
-253.092	-200.000	0.006	-0.039
-252.078	-25.771	-0.179	-0.105
-251.063	-200.000	0.036	-0.252
-250.049	57.637	-0.132	0.129
-249.034	141.171	-0.073	-0.096
-248.019	-136.026	0.262	-0.031
-247.005	-49.721	0.270	0.128
-245.990	70.538	0.085	-0.087
-244.976	5.437	-0.230	-0.169
-243.961	-200.000	-0.058	0.251
-242.946	-64.287	-0.141	-0.057
-241.932	70.391	0.204	-0.210
-240.917	59.580	0.300	-0.294
-239.903	571.079	0.098	0.238
-238.888	-100.224	0.185	-0.046
-237.873	41.433	-0.223	0.201
-236.859	1.160	-0.159	0.114
-235.844	-23.043	0.071	-0.042
-234.830	14.503	-0.074	0.058
-233.815	-114.203	0.410	-0.079
-232.800	-200.000	-0.008	-0.088
-231.786	800.000	-0.071	0.308
-230.771	-23.861	-0.136	-0.081
-229.757	-200.000	0.002	-0.249
-228.742	-200.000	0.010	0.131
-227.727	-200.000	-0.029	-0.137
-226.713	-200.000	-0.005	-0.343
-225.698	35.864	0.100	0.088
-224.684	-128.362	0.195	0.028
-223.669	31.069	-0.283	-0.241
-222.655	800.000	-0.064	0.196
-221.640	800.000	0.038	0.138
-220.625	-90.097	0.263	-0.076
-219.611	-50.060	-0.264	0.124
-218.596	209.238	-0.076	-0.119
-217.582	-135.952	-0.253	0.030
-216.567	-54.839	0.116	-0.052
-215.552	-121.815	0.163	0.027
-214.538	-200.000	0.027	-0.315
-213.523	14.237	-0.180	0.140
-212.509	-129.641	-0.233	-0.032
-211.494	-98.482	-0.443	0.112
-210.479	-186.133	0.224	-0.003
-209.465	-9.045	0.217	-0.144
-208.450	-132.773	-0.256	0.033
-207.436	245.365	-0.119	0.198
-206.421	800.000	0.133	-0.445
-205.406	-200.000	-0.052	-0.410
-204.392	-54.434	-0.035	-0.016
-203.377	-86.690	0.121	0.037
-202.363	-200.000	0.005	-0.083
-201.348	-102.763	-0.239	-0.056
-200.333	-200.000	0.047	0.329
-199.319	29.040	0.172	-0.145
-198.304	800.000	-0.089	-0.386
-197.290	60.169	-0.271	0.266
-196.275	-162.288	-0.078	-0.004
-195.260	52.551	-0.242	-0.230
-194.246	40.553	-0.326	-0.292
-193.231	-41.346	0.134	0.068
-192.217	800.000	-0.055	-0.213
-191.202	419.326	0.072	0.152
-190.187	-200.000	-0.017	0.350
-189.173	20.555	0.032	0.026
-188.158	-78.609	-0.182	0.062
-187.144	-200.000	0.003	0.062
-186.129	723.439	-0.096	0.253
-185.114	800.000	-0.029	-0.094
-184.100	98.230	0.152	-0.173
-183.085	-137.989	0.108	-0.012
-182.071	740.090	-0.072	-0.193
-181.056	-60.516	0.523	0.220
-180.042	-114.698	0.374	0.071
-179.027	138.500	0.098	-0.128
-178.012	-44.788	0.086	-0.042
-176.998	95.337	-0.375	-0.424
-175.983	-200.000	-0.020	-0.259
-174.969	435.853	-0.100	-0.216
-173.954	800.000	0.025	0.103
-172.939	-200.000	-0.042	0.346
-171.925	800.000	0.015	0.055
-170.910	-96.253	0.216	-0.057
-169.896	-165.539	0.432	-0.019
-168.881	77.991	-0.238	0.252
-167.866	-200.000	-0.040	0.309
-166.852	-6.895	-0.161	-0.108
-165.837	-80.163	-0.205	0.068
-164.823	475.954	0.086	0.194
-163.808	160.110	-0.112	-0.155
-162.793	42.800	-0.233	-0.211
-161.779	-200.000	0.036	0.378
-160.764	-102.525	-0.278	-0.066
-159.750	21.181	-0.008	0.007
-158.735	84.318	-0.151	0.164
-157.720	321.071	-0.107	0.202
-156.706	8.196	-0.318	-0.237
-155.691	125.263	-0.161	0.202
-154.677	-200.000	0.003	-0.152
-153.662	-200.000	-0.046	-0.416
-152.647	-100.973	-0.157	0.038
-151.633	-200.000	-0.020	0.194
-150.618	-85.486	-0.096	0.030
-149.604	227.788	0.231	-0.373
-148.589	-200.000	0.033	0.252
-147.574	800.000	-0.030	0.085
-146.560	183.144	0.043	0.063
-145.545	-52.444	-0.115	-0.053
-144.531	-24.669	0.241	0.142
-143.516	800.000	-0.068	-0.281
-142.502	-44.498	0.057	0.028
-141.487	800.000	0.012	0.041
-140.472	-59.906	0.211	-0.089
-139.458	682.319	0.070	0.181
-138.443	-36.950	-0.099	0.052
-137.429	51.466	0.092	0.087
-136.414	12.447	0.120	0.092
-135.399	-42.166	0.400	0.203
-134.385	800.000	0.061	0.179
-133.370	800.000	-0.018	0.064
-132.356	-38.337	0.203	0.106
-131.341	-27.095	-0.187	0.108
-130.326	800.000	-0.152	0.429
-129.312	-112.946	0.370	0.072
-128.297	632.164	-0.062	0.156
-127.283	36.215	0.093	-0.081
-126.268	192.410	-0.052	0.078
-125.253	-144.942	-0.123	0.011
-124.239	710.476	-0.054	0.143
-123.224	36.108	0.060	0.052
-122.210	-84.596	0.312	0.097
-121.195	24.123	-0.262	0.214
