DTS Sentinel unit serial number:	SN413079Multiplexer serial number:	ORYXHardware model number:	OX4-SRSoftware version number:	ORYX F/W v4.00 Oryx Data Collector v3.7.2.0data status	okinstallation	princeton_trtdifferential loss correction	single-endedforward channel	channel 2reverse channel	N/Adate	2019/09/17time	08:03:35forward acquisition time	60.00reverse acquisition time	0.00gamma	496.2192k internal	0.2334k external	0.2334temperature offset calibration	0.9974default loss term (dB/km)	0.3790temperature slope calibration	1.0000multiplexer offset coefficient	1.0000multiplexer slope coefficient	1.0000fibre end	0.00T internal ref (°C)	27.28T ext. ref 1 (°C)	0.12T ext. ref 2 (°C)	22.32length (m)	temperature (°C)	Stokes	anti-Stokes-747.200	257.096	-0.180	-0.312
-746.185	-200.000	0.007	0.273
-745.171	162.987	0.049	-0.070
-744.156	-52.784	0.113	-0.052
-743.142	-59.056	0.034	0.015
-742.127	161.191	-0.077	0.108
-741.112	-167.014	0.048	0.002
-740.098	-200.000	-0.072	0.336
-739.083	197.059	0.205	0.314
-738.069	800.000	0.026	0.083
-737.054	209.521	-0.215	0.339
-736.039	-74.181	-0.310	-0.113
-735.025	-200.000	-0.023	-0.181
-734.010	-53.077	0.392	-0.181
-732.996	0.613	-0.195	-0.140
-731.981	-200.000	0.001	0.035
-730.966	-165.710	0.343	0.015
-729.952	-200.000	0.034	0.241
-728.937	146.268	-0.132	0.178
-727.923	-34.767	0.181	0.099
-726.908	800.000	0.056	-0.201
-725.894	800.000	-0.096	0.275
-724.879	-46.427	0.150	0.074
-723.864	715.397	0.081	0.215
-722.850	304.424	0.094	0.175
-721.835	394.896	-0.058	-0.121
-720.821	-200.000	0.011	-0.091
-719.806	-23.572	-0.213	-0.128
-718.791	-88.701	-0.143	0.043
-717.777	442.282	0.135	-0.296
-716.762	-200.000	-0.014	0.169
-715.748	-200.000	-0.023	0.265
-714.733	667.970	0.020	-0.051
-713.718	-200.000	0.016	-0.142
-712.704	81.288	-0.197	0.214
-711.689	-200.000	0.004	-0.106
-710.675	48.501	0.239	0.225
-709.660	800.000	0.024	-0.070
-708.645	430.229	0.085	-0.185
-707.631	-190.178	-0.270	0.003
-706.616	-28.238	-0.220	0.128
-705.602	-200.000	-0.044	0.245
-704.587	-164.233	-0.304	-0.014
-703.572	800.000	0.046	-0.176
-702.558	-113.428	-0.215	-0.042
-701.543	-173.453	0.089	0.003
-700.529	494.562	0.125	-0.288
-699.514	50.127	0.020	-0.019
-698.499	69.553	-0.158	0.163
-697.485	450.526	-0.081	-0.180
-696.470	237.331	-0.074	0.124
-695.456	290.990	0.066	0.120
-694.441	-19.652	-0.247	-0.153
-693.426	-181.700	0.144	-0.003
-692.412	-175.895	0.168	0.005
-691.397	-32.328	0.171	-0.096
-690.383	-144.466	-0.285	-0.026
-689.368	-75.946	0.188	-0.067
-688.354	450.420	-0.167	0.370
-687.339	-68.055	-0.318	-0.124
-686.324	-24.825	-0.086	0.051
-685.310	-200.000	0.058	-0.438
-684.295	-49.763	-0.128	-0.061
-683.281	499.203	0.159	-0.366
-682.266	800.000	-0.131	0.507
-681.251	137.929	0.030	-0.040
-680.237	205.260	0.020	-0.031
-679.222	-73.846	-0.303	0.110
-678.208	43.791	0.174	0.159
-677.193	-79.341	0.050	-0.017
-676.178	800.000	-0.065	0.256
-675.164	-47.693	-0.094	0.046
-674.149	31.575	-0.015	0.013
-673.135	279.014	-0.072	-0.128
-672.120	-34.128	-0.218	-0.120
-671.105	-43.456	0.251	-0.127
-670.091	95.134	-0.029	0.033
-669.076	788.039	-0.019	-0.051
-668.062	323.836	0.163	0.313
-667.047	11.452	-0.084	-0.064
-666.032	405.362	-0.182	0.384
-665.018	-139.795	-0.081	-0.009
-664.003	-200.000	0.004	-0.243
-662.989	-200.000	0.050	-0.415
-661.974	113.944	0.101	0.123
-660.959	-33.876	-0.061	-0.033
-659.945	14.975	-0.176	0.138
-658.930	111.997	0.211	-0.255
-657.916	33.503	0.030	0.026
-656.901	-158.448	-0.407	0.024
-655.886	-63.055	0.378	0.156
-654.872	1.096	-0.174	0.125
-653.857	-200.000	0.060	0.408
-652.843	140.685	-0.218	-0.288
-651.828	59.929	0.065	-0.064
-650.814	349.248	-0.142	0.281
-649.799	800.000	0.085	-0.274
-648.784	-127.279	0.038	0.006
-647.770	220.277	0.135	-0.216
-646.755	147.644	-0.121	-0.163
-645.741	-200.000	-0.018	-0.374
-644.726	-7.275	0.135	0.092
-643.711	-200.000	-0.014	0.237
-642.697	-82.497	0.278	0.091
-641.682	-49.607	-0.519	0.247
-640.668	-79.357	-0.051	0.017
-639.653	-6.888	-0.100	0.068
-638.638	-111.609	0.049	0.010
-637.624	800.000	0.075	-0.214
-636.609	-159.375	-0.218	0.012
-635.595	214.030	-0.208	0.330
-634.580	377.653	0.127	0.259
-633.565	800.000	0.091	0.328
-632.551	-200.000	0.024	-0.179
-631.536	-166.926	0.482	0.020
-630.522	4.391	-0.234	0.171
-629.507	-116.666	0.139	-0.026
-628.492	-126.677	0.152	0.023
-627.478	-79.830	-0.407	-0.137
-626.463	800.000	0.105	0.292
-625.449	-185.866	-0.226	-0.003
-624.434	-200.000	0.054	-0.241
-623.419	24.087	0.073	0.060
-622.405	67.943	-0.157	-0.160
-621.390	-200.000	0.071	-0.368
-620.376	-13.832	-0.048	0.031
-619.361	-111.433	0.155	-0.032
-618.346	261.074	-0.223	-0.385
-617.332	-200.000	-0.001	-0.266
-616.317	49.249	0.183	0.172
-615.303	139.912	0.233	0.308
-614.288	-200.000	-0.118	-0.552
-613.273	800.000	0.029	-0.127
-612.259	422.150	0.061	-0.130
-611.244	-200.000	-0.003	0.248
-610.230	22.218	0.146	-0.119
-609.215	-91.794	-0.257	-0.073
-608.201	191.180	-0.238	-0.358
-607.186	132.190	0.346	0.446
-606.171	737.133	-0.087	0.233
-605.157	331.422	-0.047	0.091
-604.142	-11.578	-0.172	0.113
-603.128	247.559	0.200	0.337
-602.113	-123.633	-0.212	-0.034
-601.098	103.648	0.098	0.115
-600.084	-200.000	-0.044	-0.299
-599.069	10.139	0.085	-0.065
-598.055	301.217	0.244	0.451
-597.040	-71.401	0.130	-0.049
-596.025	146.323	0.067	-0.090
-595.011	-8.867	0.322	0.216
-593.996	219.680	0.094	0.150
-592.982	649.873	-0.074	0.188
-591.967	-98.095	0.073	0.019
-590.952	342.619	0.087	-0.171
-589.938	-200.000	0.068	-0.367
-588.923	-46.597	-0.178	-0.087
-587.909	92.401	-0.260	-0.293
-586.894	152.965	0.048	0.065
-585.879	-200.000	0.038	0.234
-584.865	443.655	-0.153	0.334
-583.850	-9.864	-0.135	0.090
-582.836	800.000	0.058	0.238
-581.821	-9.149	0.144	-0.096
-580.806	-87.242	-0.060	0.018
-579.792	341.976	0.118	-0.231
-578.777	-101.324	-0.249	-0.061
-577.763	-145.792	-0.054	0.005
-576.748	57.942	-0.135	0.132
-575.733	-200.000	0.013	-0.116
-574.719	-200.000	0.004	-0.141
-573.704	-59.827	0.105	0.045
-572.690	-89.136	-0.314	0.093
-571.675	-85.325	0.232	-0.072
-570.661	800.000	-0.070	-0.269
-569.646	-105.939	-0.141	0.032
-568.631	-118.619	0.073	-0.013
-567.617	-74.359	0.324	0.117
-566.602	-196.423	-0.379	0.003
-565.588	-73.522	-0.309	0.112
-564.573	-200.000	-0.058	0.284
-563.558	402.863	0.082	-0.172
-562.544	-159.236	0.152	0.009
-561.529	-49.640	-0.152	0.072
-560.515	259.424	-0.040	-0.070
-559.500	-124.208	0.360	-0.056
-558.485	-118.706	-0.320	-0.056
-557.471	25.259	-0.168	0.139
-556.456	201.158	-0.125	-0.191
-555.442	82.203	-0.083	-0.089
-554.427	-50.517	-0.079	-0.037
-553.412	153.053	-0.087	-0.119
-552.398	-135.242	0.321	-0.038
-551.383	133.730	0.035	0.046
-550.369	-76.611	0.150	0.053
-549.354	443.068	-0.062	0.136
-548.339	-65.240	0.363	-0.146
-547.325	-59.444	0.192	-0.082
-546.310	44.330	-0.139	0.128
-545.296	-200.000	-0.037	0.204
-544.281	211.628	0.094	-0.148
-543.266	517.390	-0.031	0.072
-542.252	3.488	0.195	-0.142
-541.237	-38.205	0.285	-0.151
-540.223	18.448	-0.284	0.227
-539.208	-45.139	0.200	0.099
-538.193	800.000	0.108	0.330
-537.179	-115.049	0.177	-0.033
-536.164	-104.191	0.146	0.034
-535.150	-200.000	0.041	-0.240
-534.135	356.620	-0.075	-0.149
-533.121	-85.513	-0.028	-0.009
-532.106	-128.049	0.053	0.008
-531.091	280.164	-0.066	0.117
-530.077	-116.463	0.301	-0.055
-529.062	-200.000	0.025	0.325
-528.048	-40.779	-0.101	0.052
-527.033	73.301	-0.141	-0.147
-526.018	14.136	0.181	-0.140
-525.004	671.029	-0.088	0.228
-523.989	-57.007	0.190	0.084
-522.975	800.000	-0.095	0.279
-521.960	351.303	-0.133	-0.263
-520.945	-15.552	-0.256	0.163
-519.931	-11.861	0.075	-0.049
-518.916	-156.504	-0.262	-0.016
-517.902	-48.501	0.114	0.055
-516.887	440.049	0.134	-0.291
-515.872	93.903	0.048	0.054
-514.858	17.334	0.132	0.105
-513.843	-169.663	-0.318	0.011
-512.829	682.965	-0.033	-0.086
-511.814	239.571	0.291	0.482
-510.799	-48.294	0.262	0.126
-509.785	-97.824	-0.420	-0.108
-508.770	-49.392	-0.300	-0.142
-507.756	-200.000	-0.011	-0.217
-506.741	-200.000	0.012	-0.086
-505.726	412.712	-0.069	-0.146
-504.712	-70.728	-0.415	-0.156
-503.697	-200.000	0.008	0.197
-502.683	-100.270	0.054	0.013
-501.668	146.518	-0.113	0.151
-500.653	-104.025	-0.085	-0.020
-499.639	612.747	0.146	-0.364
-498.624	-94.255	0.101	-0.028
-497.610	-83.704	0.227	0.072
-496.595	57.297	-0.308	0.299
-495.581	-200.000	-0.017	0.096
-494.566	-120.836	0.139	-0.023
-493.551	192.336	-0.047	-0.071
-492.537	-200.000	0.031	-0.174
-491.522	-76.133	0.413	0.145
-490.508	405.394	-0.078	0.164
-489.493	129.248	-0.047	-0.060
-488.478	-8.408	0.135	0.090
-487.464	-200.000	0.017	0.119
-486.449	242.661	0.121	0.201
-485.435	-52.383	-0.216	0.100
-484.420	629.549	-0.120	0.303
-483.405	60.638	0.400	0.395
-482.391	312.951	0.070	-0.130
-481.376	-200.000	0.038	-0.282
-480.362	175.625	0.137	-0.197
-479.347	-131.909	-0.118	0.015
-478.332	-200.000	-0.030	0.132
-477.318	-87.517	0.234	0.070
-476.303	-81.772	-0.443	0.144
-475.289	164.123	-0.078	0.109
-474.274	-66.693	0.384	0.151
-473.259	288.917	0.222	-0.399
-472.245	158.405	0.110	0.151
-471.230	-42.095	-0.143	0.073
-470.216	5.962	-0.110	-0.081
-469.201	-200.000	0.005	0.125
-468.186	36.556	0.167	-0.146
-467.172	93.808	-0.128	0.144
-466.157	622.643	-0.122	-0.306
-465.143	153.521	0.127	0.173
-464.128	-199.622	0.108	-0.001
-463.113	47.225	-0.142	0.132
-462.099	143.219	-0.096	0.127
-461.084	113.863	-0.196	-0.236
-460.070	-200.000	-0.019	-0.129
-459.055	-56.965	0.070	0.031
-458.040	-200.000	0.020	0.325
-457.026	13.842	-0.187	0.144
-456.011	800.000	0.043	-0.127
-454.997	409.900	-0.184	0.388
-453.982	-23.727	0.180	0.107
-452.968	-200.000	0.019	0.267
-451.953	-110.907	-0.327	0.067
-450.938	-54.946	0.059	0.027
-449.924	166.811	-0.153	0.216
-448.909	-49.411	-0.099	0.047
-447.895	-119.023	0.073	0.013
-446.880	-52.796	0.095	0.043
-445.865	101.071	0.282	-0.326
-444.851	-200.000	-0.035	0.261
-443.836	800.000	0.139	0.428
-442.822	19.184	-0.204	0.163
-441.807	728.861	-0.058	0.154
-440.792	39.096	-0.045	-0.040
-439.778	161.889	-0.190	0.264
-438.763	98.362	0.195	0.223
-437.749	-123.149	-0.245	-0.039
-436.734	-72.793	-0.276	-0.101
-435.719	-140.141	-0.259	0.027
-434.705	800.000	-0.028	0.093
-433.690	-48.517	0.299	-0.143
-432.676	205.613	0.098	-0.151
-431.661	-13.871	-0.243	0.156
-430.646	61.330	-0.060	0.059
-429.632	30.324	-0.115	0.097
-428.617	-79.875	-0.125	-0.042
-427.603	800.000	0.052	-0.183
-426.588	267.590	0.187	0.325
-425.573	-66.410	0.415	-0.164
-424.559	8.603	-0.302	-0.226
-423.544	561.797	0.030	-0.073
-422.530	142.434	-0.130	0.171
-421.515	-113.526	-0.312	0.061
-420.500	-59.066	0.128	0.055
-419.486	-200.000	-0.004	-0.216
-418.471	29.897	0.213	-0.180
-417.457	-82.456	-0.308	-0.099
-416.442	223.330	0.109	0.174
-415.428	-200.000	-0.018	-0.269
-414.413	780.123	0.081	0.220
-413.398	800.000	-0.063	-0.224
-412.384	46.936	0.190	0.175
-411.369	-200.000	0.069	-0.421
-410.355	26.881	0.178	-0.148
-409.340	34.155	-0.285	0.247
-408.325	-97.942	-0.173	-0.044
-407.311	720.863	0.150	0.396
-406.296	-128.249	0.241	-0.034
-405.282	-15.932	0.079	0.050
-404.267	-18.641	0.100	0.062
-403.252	-153.941	-0.208	-0.014
-402.238	448.037	-0.175	0.382
-401.223	397.540	0.145	0.301
-400.209	84.028	-0.086	-0.093
-399.194	-123.777	-0.207	-0.032
-398.179	-200.000	0.043	-0.321
-397.165	111.805	-0.114	-0.137
-396.150	25.484	-0.065	-0.054
-395.136	220.484	0.191	-0.304
-394.121	-53.072	-0.163	-0.074
-393.106	-75.013	-0.444	-0.158
-392.092	-200.000	0.073	0.466
-391.077	-22.540	0.206	0.124
-390.063	-200.000	-0.018	-0.117
-389.048	37.980	-0.220	0.194
-388.033	800.000	0.010	0.033
-387.019	-200.000	-0.014	0.096
-386.004	317.447	-0.048	-0.090
-384.990	-200.000	-0.066	-0.300
-383.975	-18.443	0.376	-0.233
-382.960	50.025	-0.128	0.119
-381.946	-141.787	-0.285	-0.028
-380.931	274.749	-0.079	-0.139
-379.917	92.643	0.119	-0.134
-378.902	-57.255	0.171	-0.075
-377.888	182.132	0.056	0.082
-376.873	344.853	0.075	0.146
-375.858	800.000	0.090	-0.262
-374.844	342.617	0.170	0.330
-373.829	11.596	0.155	-0.118
-372.815	800.000	-0.014	0.057
-371.800	106.551	0.220	0.259
-370.785	228.773	0.054	-0.088
-369.771	-37.541	0.132	0.070
-368.756	479.163	0.089	0.199
-367.742	-48.409	-0.225	-0.107
-366.727	-30.849	-0.277	0.155
-365.712	-125.794	-0.313	0.047
-364.698	-200.000	-0.015	0.162
-363.683	753.803	0.090	-0.241
-362.669	469.744	-0.054	0.119
-361.654	-129.321	0.107	0.015
-360.639	-69.667	-0.215	0.082
-359.625	-108.452	-0.204	0.044
-358.610	-108.344	-0.355	-0.076
-357.596	-104.376	0.100	-0.023
-356.581	350.960	0.154	0.302
-355.566	226.580	-0.035	0.056
-354.552	-105.767	0.156	-0.035
-353.537	2.480	0.266	-0.191
-352.523	-200.000	0.039	-0.325
-351.508	-21.597	0.447	0.270
-350.493	-200.000	-0.016	-0.070
-349.479	-85.598	0.107	0.033
-348.464	800.000	-0.154	0.422
-347.450	230.330	0.061	-0.099
-346.435	-188.484	-0.357	-0.004
-345.420	800.000	-0.033	0.094
-344.406	-79.598	0.331	-0.110
-343.391	-46.429	-0.368	0.179
-342.377	269.983	0.236	-0.410
-341.362	-2.035	0.240	-0.167
-340.348	-180.811	0.290	0.006
-339.333	152.260	-0.173	0.233
-338.318	6.869	0.240	0.177
-337.304	-140.654	-0.054	0.006
-336.289	-88.054	-0.070	0.021
-335.275	-76.060	-0.354	-0.124
-334.260	75.765	-0.138	0.144
-333.245	-19.825	-0.242	0.148
-332.231	281.180	0.242	0.429
-331.216	392.701	-0.180	-0.371
-330.202	-36.099	-0.230	0.123
-329.187	-200.000	0.018	0.124
-328.172	-60.646	0.322	0.135
-327.158	343.959	0.030	0.058
-326.143	-99.106	-0.109	0.027
-325.129	12.778	-0.322	-0.246
-324.114	-99.538	0.133	-0.033
-323.099	-200.000	-0.012	0.168
-322.085	420.808	-0.059	0.124
-321.070	-107.787	-0.197	0.042
-320.056	-200.000	-0.042	0.376
-319.041	-27.600	0.225	-0.129
-318.026	161.785	0.199	-0.275
-317.012	35.494	-0.120	0.104
-315.997	-63.790	-0.063	0.026
-314.983	391.815	0.188	-0.386
-313.968	800.000	0.111	-0.391
-312.953	800.000	-0.105	0.421
-311.939	-91.234	0.217	-0.062
-310.924	14.093	-0.082	0.063
-309.910	417.093	-0.048	-0.101
-308.895	-88.644	-0.162	0.048
-307.880	106.436	0.073	-0.086
-306.866	-147.858	-0.272	0.022
-305.851	-62.452	0.235	-0.096
-304.837	6.692	0.335	-0.246
-303.822	277.849	-0.020	0.035
-302.807	-80.934	-0.124	0.041
-301.793	-200.000	0.006	-0.278
-300.778	-104.475	-0.250	0.057
-299.764	11.565	0.346	-0.262
-298.749	73.028	0.089	-0.091
-297.735	-74.752	0.156	0.055
-296.720	28.865	-0.150	-0.126
-295.705	-200.000	0.041	0.309
-294.691	-174.958	0.186	-0.005
-293.676	8.304	-0.182	0.135
-292.662	-5.548	-0.153	-0.104
-291.647	578.278	0.059	-0.142
-290.632	87.106	-0.150	0.164
-289.618	-200.000	-0.004	-0.058
-288.603	478.666	-0.079	-0.177
-287.589	698.377	0.078	-0.203
-286.574	800.000	0.027	-0.104
-285.559	-72.400	0.108	0.039
-284.545	-19.453	0.493	0.302
-283.530	-200.000	0.047	0.342
-282.516	78.433	-0.290	-0.306
-281.501	-111.849	0.226	0.045
-280.486	-70.168	-0.204	0.077
-279.472	-73.589	-0.199	0.072
-278.457	-200.000	0.032	0.162
-277.443	241.002	0.135	0.222
-276.428	-200.000	0.022	-0.333
-275.413	-127.814	-0.442	0.063
-274.399	-154.592	0.270	-0.018
-273.384	-200.000	0.048	-0.244
-272.370	599.758	0.065	-0.158
-271.355	-103.923	-0.353	-0.081
-270.340	-53.682	-0.040	-0.018
-269.326	120.652	-0.328	0.403
-268.311	-142.862	-0.351	-0.034
-267.297	-77.187	-0.374	0.128
-266.282	-200.000	0.009	0.062
-265.267	-200.000	0.010	-0.134
-264.253	174.060	0.136	0.194
-263.238	110.570	-0.287	0.341
-262.224	462.841	-0.047	-0.104
-261.209	-200.000	-0.050	-0.288
-260.195	-63.048	-0.248	0.101
-259.180	18.067	-0.041	0.032
-258.165	-200.000	-0.090	-0.483
-257.151	217.565	0.211	-0.332
-256.136	57.474	0.072	-0.069
-255.122	-122.049	0.290	0.047
-254.107	267.882	-0.151	-0.260
-253.092	-1.887	0.121	0.084
-252.078	-40.333	-0.172	-0.088
-251.063	12.115	0.141	0.107
-250.049	-7.324	0.080	-0.054
-249.034	-200.000	0.028	0.166
-248.019	-200.000	0.026	0.189
-247.005	-109.119	0.246	-0.052
-245.990	-8.818	0.257	-0.170
-244.976	-28.980	-0.165	0.093
-243.961	800.000	0.052	0.176
-242.946	-18.148	0.062	0.038
-241.932	-66.212	0.219	-0.086
-240.917	800.000	-0.081	-0.308
-239.903	691.684	0.029	-0.074
-238.888	-200.000	-0.292	-0.001
-237.873	-139.509	0.147	0.015
-236.859	-200.000	-0.005	0.046
-235.844	399.140	0.176	-0.363
-234.830	800.000	0.067	0.200
-233.815	-41.378	-0.258	0.131
-232.800	172.603	0.121	0.172
-231.786	28.850	0.171	0.142
-230.771	34.070	-0.097	-0.083
-229.757	-123.260	-0.130	-0.020
-228.742	718.434	-0.121	-0.316
-227.727	-38.779	-0.219	-0.114
-226.713	257.267	0.247	0.419
-225.698	-54.351	0.113	-0.051
-224.684	-200.000	-0.002	0.029
-223.669	-86.921	-0.046	0.014
-222.655	-20.257	0.183	-0.111
-221.640	3.032	0.147	-0.106
-220.625	420.124	-0.105	0.221
-219.611	90.066	0.332	-0.365
-218.596	-127.856	-0.285	-0.040
-217.582	-29.979	-0.091	-0.051
-216.567	-29.284	0.221	0.125
-215.552	-68.977	-0.138	0.052
-214.538	451.352	-0.101	-0.221
-213.523	61.695	0.142	0.139
-212.509	-200.000	0.002	0.177
-211.494	800.000	-0.031	0.103
-210.479	-68.575	0.317	-0.121
-209.465	-9.872	0.076	-0.049
-208.450	-200.000	-0.025	-0.228
-207.436	-134.509	0.306	-0.037
-206.421	-59.942	0.027	-0.011
-205.406	66.765	-0.169	-0.169
-204.392	-98.925	-0.057	-0.014
-203.377	-60.534	0.278	-0.116
-202.363	-81.458	0.299	-0.097
-201.348	704.823	0.108	-0.282
-200.333	-163.640	-0.167	0.008
-199.319	-200.000	0.022	-0.147
-198.304	-69.222	0.186	0.070
-197.290	38.947	-0.020	-0.017
-196.275	782.722	-0.133	-0.358
-195.260	-200.000	-0.039	-0.193
-194.246	13.021	0.149	0.114
-193.231	-200.000	-0.010	-0.240
-192.217	-200.000	-0.022	-0.427
-191.202	-137.093	0.264	0.030
-190.187	-200.000	-0.022	-0.119
-189.173	69.231	-0.199	0.201
-188.158	-200.000	0.021	0.274
-187.144	93.271	0.122	-0.135
-186.129	69.080	0.200	-0.202
-185.114	-143.622	-0.345	-0.032
-184.100	-129.018	0.205	0.028
-183.085	-71.639	-0.035	-0.013
-182.071	800.000	0.025	-0.084
-181.056	285.101	0.070	0.123
-180.042	187.162	-0.202	-0.297
-179.027	386.236	0.039	-0.080
-178.012	12.885	-0.187	-0.142
-176.998	-50.787	0.075	-0.035
-175.983	-200.000	0.080	-0.362
-174.969	605.908	-0.134	-0.328
-173.954	-122.620	-0.344	-0.055
-172.939	-156.271	-0.146	-0.009
-171.925	-200.000	-0.053	0.243
-170.910	-72.217	-0.071	0.026
-169.896	-135.014	0.105	-0.012
-168.881	130.742	0.101	-0.128
-167.866	177.649	-0.232	-0.332
-166.852	-200.000	-0.048	0.264
-165.837	12.222	-0.195	0.147
-164.823	-73.297	-0.193	0.069
-163.808	32.651	0.165	0.140
-162.793	-39.847	0.196	-0.100
-161.779	-200.000	-0.006	-0.113
-160.764	800.000	0.036	-0.116
-159.750	-93.685	0.125	0.034
-158.735	-200.000	-0.019	-0.153
-157.720	-200.000	0.033	-0.215
-156.706	-92.080	-0.061	-0.017
-155.691	29.500	0.197	0.165
-154.677	128.183	-0.225	0.281
-153.662	-63.343	0.196	0.079
-152.647	800.000	0.026	-0.077
-151.633	43.010	0.185	-0.166
-150.618	-43.733	0.274	-0.135
-149.604	468.258	0.120	0.264
-148.589	-200.000	0.001	0.196
-147.574	-2.965	0.033	0.023
-146.560	800.000	0.137	0.377
-145.545	-111.453	-0.374	-0.075
-144.531	-4.136	0.107	-0.073
-143.516	-145.336	-0.113	0.010
-142.502	-20.804	0.171	-0.103
-141.487	-200.000	-0.016	0.199
-140.472	-200.000	-0.027	-0.187
-139.458	-200.000	0.007	0.235
-138.443	800.000	-0.024	0.090
-137.429	207.423	0.074	0.113
-136.414	-189.393	-0.111	-0.001
-135.399	-200.000	0.014	0.342
-134.385	63.032	-0.254	0.250
-133.370	172.976	0.087	0.124
-132.356	29.672	0.039	-0.033
-131.341	-109.598	0.271	0.056
-130.326	-10.724	0.134	0.087
-129.312	63.523	-0.198	-0.195
-128.297	229.990	0.097	0.156
-127.283	-200.000	0.035	-0.246
-126.268	-57.138	0.324	0.140
-125.253	3.854	-0.201	-0.144
-124.239	-69.314	0.203	0.077
-123.224	-25.346	-0.194	0.113
-122.210	730.465	0.025	0.065
-121.195	36.173	-0.054	-0.047
-120.180	32.053	-0.180	0.152
