DTS Sentinel unit serial number:	SN413079Multiplexer serial number:	ORYXHardware model number:	OX4-SRSoftware version number:	ORYX F/W v4.00 Oryx Data Collector v3.7.2.0data status	okinstallation	princeton_trtdifferential loss correction	single-endedforward channel	channel 2reverse channel	N/Adate	2019/09/14time	02:39:35forward acquisition time	60.00reverse acquisition time	0.00gamma	496.2192k internal	0.2337k external	0.2337temperature offset calibration	1.0124default loss term (dB/km)	0.3790temperature slope calibration	1.0000multiplexer offset coefficient	1.0000multiplexer slope coefficient	1.0000fibre end	0.00T internal ref (°C)	26.55T ext. ref 1 (°C)	3.23T ext. ref 2 (°C)	21.56length (m)	temperature (°C)	Stokes	anti-Stokes-747.200	-118.162	0.186	0.033
-746.185	-16.266	-0.484	0.308
-745.171	-111.399	-0.068	0.014
-744.156	-200.000	-0.019	-0.276
-743.142	222.873	-0.078	-0.127
-742.127	-67.571	-0.149	-0.059
-741.112	-66.265	-0.003	-0.001
-740.098	160.109	-0.161	0.225
-739.083	-116.430	0.394	-0.073
-738.069	-123.112	-0.214	0.034
-737.054	28.752	-0.036	-0.030
-736.039	6.628	-0.263	-0.196
-735.025	800.000	-0.055	0.207
-734.010	-87.793	-0.225	-0.068
-732.996	800.000	-0.047	0.131
-731.981	-173.315	-0.337	0.010
-730.966	-80.548	-0.128	-0.043
-729.952	78.341	-0.294	-0.316
-728.937	-200.000	-0.050	-0.253
-727.923	-97.392	-0.272	0.071
-726.908	-29.022	-0.251	0.145
-725.894	185.134	-0.169	0.251
-724.879	-73.568	-0.260	-0.095
-723.864	313.101	-0.074	-0.140
-722.850	319.974	-0.082	-0.156
-721.835	-200.000	-0.008	0.081
-720.821	342.458	0.203	0.398
-719.806	-200.000	0.039	-0.260
-718.791	528.714	0.050	-0.118
-717.777	-116.710	0.175	-0.032
-716.762	472.954	-0.140	-0.315
-715.748	-13.595	-0.117	0.076
-714.733	-200.000	0.018	0.091
-713.718	254.076	-0.195	0.334
-712.704	371.136	-0.134	0.273
-711.689	-200.000	0.022	0.311
-710.675	800.000	-0.055	0.190
-709.660	-20.784	-0.169	0.104
-708.645	102.114	-0.034	0.040
-707.631	-20.982	-0.213	-0.131
-706.616	-9.672	-0.207	-0.139
-705.602	-164.811	0.146	0.007
-704.587	-76.421	-0.380	-0.134
-703.572	800.000	0.036	-0.119
-702.558	-69.322	-0.065	-0.025
-701.543	-32.108	0.100	-0.056
-700.529	63.467	-0.153	0.153
-699.514	-115.077	0.188	0.036
-698.499	-53.786	-0.301	-0.138
-697.485	-141.519	0.168	-0.017
-696.470	-160.345	0.204	-0.011
-695.456	800.000	0.057	0.172
-694.441	252.969	-0.083	-0.142
-693.426	-200.000	0.001	0.308
-692.412	68.167	-0.251	0.258
-691.397	-185.418	0.037	-0.001
-690.383	-46.711	-0.178	0.087
-689.368	800.000	-0.116	0.372
-688.354	-90.581	-0.209	-0.061
-687.339	-42.055	0.163	-0.083
-686.324	85.771	-0.169	-0.186
-685.310	297.316	0.010	-0.019
-684.295	90.612	0.038	0.042
-683.281	-200.000	-0.022	0.131
-682.266	120.044	-0.112	-0.139
-681.251	-200.000	0.033	0.240
-680.237	-88.828	0.288	-0.086
-679.222	-60.169	-0.129	-0.055
-678.208	-114.798	-0.105	0.020
-677.193	739.102	-0.013	0.036
-676.178	200.083	0.053	-0.082
-675.164	-121.679	0.174	0.029
-674.149	-117.189	0.320	-0.058
-673.135	-181.862	0.146	-0.003
-672.120	693.867	0.104	-0.273
-671.105	-140.616	0.269	0.028
-670.091	-200.000	0.018	0.145
-669.076	-97.822	-0.385	0.100
-668.062	-200.000	0.004	-0.126
-667.047	-200.000	-0.014	-0.459
-666.032	800.000	-0.059	-0.247
-665.018	184.045	0.166	0.247
-664.003	15.967	0.035	-0.028
-662.989	-71.045	-0.297	0.112
-661.974	624.611	-0.081	-0.204
-660.959	800.000	-0.054	-0.227
-659.945	736.454	-0.106	-0.286
-658.930	-78.661	-0.240	-0.082
-657.916	-106.146	0.159	0.036
-656.901	-91.048	-0.185	0.053
-655.886	196.599	-0.129	-0.197
-654.872	89.587	-0.111	0.124
-653.857	150.486	0.163	-0.222
-652.843	271.449	0.089	-0.156
-651.828	52.135	0.207	0.197
-650.814	211.255	-0.244	-0.384
-649.799	-58.759	0.222	0.096
-648.784	336.620	0.082	-0.159
-647.770	-200.000	0.012	0.267
-646.755	-123.875	0.314	-0.050
-645.741	800.000	-0.093	0.305
-644.726	300.973	-0.105	-0.193
-643.711	-200.000	-0.020	-0.213
-642.697	-200.000	-0.002	0.100
-641.682	-113.814	0.304	-0.059
-640.668	501.107	0.161	-0.372
-639.653	411.159	-0.191	0.406
-638.638	-77.520	0.095	-0.033
-637.624	-57.458	-0.013	-0.006
-636.609	678.444	0.071	-0.185
-635.595	-200.000	0.005	-0.205
-634.580	173.033	0.041	0.059
-633.565	378.590	-0.091	-0.187
-632.551	70.251	0.189	0.195
-631.536	-92.062	0.201	0.057
-630.522	-24.609	-0.367	0.218
-629.507	-69.353	-0.134	-0.052
-628.492	440.628	0.109	-0.239
-627.478	-55.605	-0.076	-0.034
-626.463	-40.317	0.055	0.029
-625.449	154.118	-0.091	0.125
-624.434	-95.939	-0.119	-0.032
-623.419	-67.008	0.165	-0.065
-622.405	391.433	0.144	0.299
-621.390	-200.000	0.036	0.249
-620.376	121.501	-0.234	0.291
-619.361	262.673	0.057	0.100
-618.346	14.035	-0.102	-0.079
-617.332	-112.911	0.063	-0.013
-616.317	-80.712	0.130	0.043
-615.303	128.008	-0.194	-0.246
-614.288	-51.398	-0.195	-0.091
-613.273	-35.843	-0.030	0.016
-612.259	-200.000	0.037	0.162
-611.244	-98.013	-0.060	0.015
-610.230	237.861	0.097	-0.161
-609.215	106.668	0.366	0.433
-608.201	-79.589	-0.290	0.098
-607.186	-112.404	-0.178	-0.036
-606.171	-72.627	-0.206	0.076
-605.157	14.495	0.223	0.174
-604.142	-133.708	0.319	0.040
-603.128	13.021	0.098	-0.076
-602.113	130.518	-0.149	-0.191
-601.098	149.506	-0.143	-0.193
-600.084	326.286	-0.141	0.269
-599.069	-101.755	0.267	-0.065
-598.055	-116.230	-0.164	-0.030
-597.040	800.000	-0.059	-0.208
-596.025	5.235	0.159	-0.117
-595.011	-47.548	-0.184	-0.089
-593.996	-200.000	0.000	-0.066
-592.982	-62.745	-0.370	0.153
-591.967	-200.000	0.031	-0.147
-590.952	-141.941	0.495	0.049
-589.938	800.000	-0.043	0.155
-588.923	-200.000	-0.004	0.032
-587.909	-17.989	-0.170	-0.106
-586.894	174.819	-0.101	-0.145
-585.879	-59.405	0.110	0.047
-584.865	252.495	-0.045	-0.077
-583.850	-39.976	-0.237	0.123
-582.836	-184.891	-0.195	0.003
-581.821	14.923	0.075	-0.058
-580.806	-200.000	-0.015	0.211
-579.792	-65.591	-0.314	0.126
-578.777	-200.000	-0.032	-0.409
-577.763	116.745	0.034	-0.042
-576.748	389.059	0.050	0.103
-575.733	10.557	-0.057	0.043
-574.719	115.806	0.071	-0.087
-573.704	-200.000	-0.027	-0.475
-572.690	800.000	0.031	-0.105
-571.675	-200.000	0.099	-0.449
-570.661	94.092	-0.229	-0.259
-569.646	-200.000	-0.007	-0.349
-568.631	555.058	0.144	-0.346
-567.617	102.420	0.070	-0.081
-566.602	-49.603	0.214	0.102
-565.588	800.000	-0.049	0.155
-564.573	-173.583	0.252	0.008
-563.558	-200.000	-0.012	-0.261
-562.544	-178.644	-0.241	-0.006
-561.529	800.000	-0.088	-0.293
-560.515	800.000	-0.109	0.437
-559.500	800.000	-0.017	0.051
-558.485	-200.000	0.035	-0.194
-557.471	-151.205	0.501	-0.037
-556.456	-62.276	0.243	-0.101
-555.442	-115.346	0.100	0.019
-554.427	-10.280	-0.339	0.224
-553.412	-15.910	-0.117	0.074
-552.398	-162.917	-0.094	0.005
-551.383	199.466	-0.155	0.237
-550.369	800.000	-0.126	-0.420
-549.354	-200.000	0.052	0.383
-548.339	517.073	0.103	0.239
-547.325	800.000	0.026	-0.100
-546.310	-200.000	0.017	-0.250
-545.296	-94.881	-0.212	-0.057
-544.281	-120.772	0.316	0.053
-543.266	-200.000	0.011	0.124
-542.252	27.113	-0.084	-0.070
-541.237	-128.778	0.415	-0.058
-540.223	-75.669	0.508	0.179
-539.208	2.160	-0.197	-0.141
-538.193	-74.407	-0.029	0.010
-537.179	302.455	-0.126	0.233
-536.164	784.091	0.043	0.116
-535.150	11.476	0.184	0.141
-534.135	-51.069	0.330	-0.154
-533.121	-23.396	-0.307	0.184
-532.106	-48.490	0.030	-0.014
-531.091	-76.953	-0.242	0.084
-530.077	800.000	0.038	0.151
-529.062	24.200	-0.212	0.174
-528.048	83.054	-0.075	-0.082
-527.033	-147.363	0.331	0.028
-526.018	-87.310	-0.083	0.025
-525.004	-85.865	0.238	-0.073
-523.989	-152.634	0.242	0.017
-522.975	800.000	-0.008	-0.032
-521.960	377.614	-0.078	-0.159
-520.945	438.378	-0.222	0.483
-519.931	-46.542	-0.029	-0.014
-518.916	800.000	0.118	0.490
-517.902	800.000	0.063	-0.175
-516.887	-90.229	-0.156	0.045
-515.872	83.228	0.202	-0.219
-514.858	-101.614	-0.050	0.012
-513.843	100.083	0.035	0.040
-512.829	124.100	0.138	-0.173
-511.814	-114.668	0.268	0.051
-510.799	-200.000	-0.010	0.141
-509.785	-200.000	0.004	0.205
-508.770	-200.000	-0.031	-0.457
-507.756	800.000	-0.103	-0.376
-506.741	-150.749	-0.258	0.019
-505.726	178.194	-0.037	-0.053
-504.712	651.512	-0.128	0.327
-503.697	-10.774	-0.280	0.184
-502.683	133.277	0.220	0.283
-501.668	-45.920	-0.260	0.128
-500.653	800.000	-0.028	-0.116
-499.639	-196.370	0.224	-0.002
-498.624	-196.614	-0.241	-0.002
-497.610	107.676	0.089	-0.106
-496.595	32.158	-0.256	-0.219
-495.581	-83.268	0.226	-0.072
-494.566	440.001	0.047	-0.103
-493.551	-142.792	-0.198	-0.019
-492.537	-17.176	-0.164	0.102
-491.522	89.105	-0.216	0.239
-490.508	550.172	0.064	0.154
-489.493	-80.498	0.298	0.099
-488.478	-15.499	0.418	-0.265
-487.464	24.161	-0.184	-0.151
-486.449	110.882	-0.053	-0.063
-485.435	200.935	0.139	0.212
-484.420	27.765	-0.353	0.295
-483.405	247.627	0.073	-0.123
-482.391	-152.265	0.230	0.017
-481.376	169.468	0.218	-0.310
-480.362	-148.132	-0.232	0.019
-479.347	-57.884	0.447	-0.194
-478.332	800.000	-0.049	-0.207
-477.318	-3.902	0.271	0.186
-476.303	-76.975	0.199	-0.069
-475.289	-111.586	-0.161	0.032
-474.274	800.000	-0.028	-0.090
-473.259	69.012	-0.148	0.151
-472.245	-200.000	0.005	0.035
-471.230	271.560	-0.080	0.140
-470.216	51.494	-0.162	-0.153
-469.201	-200.000	0.019	0.208
-468.186	-200.000	-0.011	-0.200
-467.172	578.176	-0.158	0.383
-466.157	93.229	0.057	0.064
-465.143	458.162	-0.093	0.205
-464.128	64.392	0.214	0.214
-463.113	-61.991	-0.316	-0.131
-462.099	-42.858	-0.107	0.054
-461.084	-200.000	0.027	-0.127
-460.070	207.434	-0.170	-0.263
-459.055	76.825	-0.083	-0.088
-458.040	800.000	0.020	0.072
-457.026	-200.000	0.041	-0.313
-456.011	331.388	-0.119	0.228
-454.997	-32.690	-0.165	-0.091
-453.982	6.008	-0.166	-0.122
-452.968	-101.406	-0.224	-0.054
-451.953	800.000	-0.092	0.267
-450.938	128.013	-0.238	-0.300
-449.924	416.896	0.072	-0.152
-448.909	-200.000	-0.110	0.486
-447.895	-22.645	0.092	-0.055
-446.880	369.342	-0.115	0.231
-445.865	-5.671	-0.215	0.146
-444.851	247.217	-0.172	-0.289
-443.836	221.535	-0.100	-0.160
-442.822	19.364	-0.271	-0.216
-441.807	-118.278	-0.494	-0.087
-440.792	-99.232	-0.052	0.013
-439.778	-59.617	-0.284	0.121
-438.763	800.000	-0.035	-0.126
-437.749	36.898	0.145	-0.127
-436.734	387.117	-0.106	0.217
-435.719	51.914	0.339	-0.320
-434.705	259.326	-0.122	-0.209
-433.690	-117.059	-0.168	-0.030
-432.676	-115.534	-0.425	-0.079
-431.661	-83.671	-0.138	0.044
-430.646	-200.000	0.007	0.084
-429.632	-6.053	0.207	-0.140
-428.617	-131.574	-0.170	0.022
-427.603	-109.348	-0.168	-0.035
-426.588	-29.630	-0.125	-0.071
-425.573	-200.000	-0.000	-0.002
-424.559	-101.152	-0.131	0.032
-423.544	-43.562	0.151	0.076
-422.530	204.566	-0.054	0.083
-421.515	-174.341	0.352	-0.010
-420.500	-10.967	-0.091	-0.060
-419.486	172.199	0.085	0.121
-418.471	-62.038	-0.288	0.119
-417.457	175.927	-0.311	-0.447
-416.442	55.967	-0.125	0.120
-415.428	-146.529	-0.150	0.013
-414.413	68.141	0.244	0.247
-413.398	33.031	0.315	-0.271
-412.384	106.829	0.075	-0.089
-411.369	148.005	0.097	0.130
-410.355	15.429	0.122	-0.095
-409.340	430.961	-0.094	0.201
-408.325	147.032	-0.096	0.128
-407.311	-200.000	-0.012	-0.052
-406.296	24.189	-0.205	-0.168
-405.282	-200.000	-0.038	0.500
-404.267	45.834	-0.031	0.028
-403.252	-190.505	-0.100	0.001
-402.238	-200.000	-0.006	0.164
-401.223	-0.265	-0.028	0.020
-400.209	-145.979	-0.254	0.022
-399.194	142.192	0.151	0.198
-398.179	-25.225	0.382	0.224
-397.165	-122.812	-0.369	-0.059
-396.150	-9.081	0.267	0.177
-395.136	199.579	0.074	0.113
-394.121	193.501	0.044	0.066
-393.106	-20.086	0.105	-0.064
-392.092	-49.210	-0.082	-0.039
-391.077	-200.000	-0.048	0.278
-390.063	4.121	-0.380	0.275
-389.048	-180.480	-0.114	-0.002
-388.033	162.888	0.083	-0.116
-387.019	539.645	0.045	-0.106
-386.004	413.604	-0.174	-0.366
-384.990	-102.345	0.185	-0.044
-383.975	63.825	-0.191	-0.190
-382.960	2.582	0.165	0.118
-381.946	-3.467	-0.206	0.142
-380.931	-130.775	0.350	0.047
-379.917	41.730	-0.107	0.096
-378.902	-3.859	0.398	0.273
-377.888	67.132	-0.011	0.011
-376.873	146.612	0.142	-0.189
-375.858	50.254	0.141	0.132
-374.844	157.513	0.198	-0.272
-373.829	-152.749	0.282	0.020
-372.815	-186.971	-0.106	-0.001
-371.800	-56.072	-0.153	0.067
-370.785	111.854	0.133	-0.159
-369.771	-200.000	-0.000	0.206
-368.756	-20.901	-0.084	-0.051
-367.742	-129.692	0.100	0.014
-366.727	-200.000	-0.047	-0.239
-365.712	-163.497	0.312	0.015
-364.698	93.763	-0.139	0.156
-363.683	-75.136	0.407	-0.144
-362.669	-175.416	-0.131	-0.004
-361.654	800.000	-0.049	0.151
-360.639	-107.345	-0.453	0.098
-359.625	196.607	0.032	-0.048
-358.610	-14.290	0.039	0.025
-357.596	504.469	-0.242	-0.553
-356.581	800.000	-0.037	-0.138
-355.566	672.467	0.097	-0.250
-354.552	-58.964	0.060	0.025
-353.537	183.544	0.089	-0.130
-352.523	257.608	0.198	0.337
-351.508	65.489	-0.154	0.154
-350.493	-200.000	0.013	0.185
-349.479	91.470	-0.247	-0.274
-348.464	135.974	-0.044	-0.056
-347.450	-122.231	0.245	-0.040
-346.435	-74.540	-0.140	-0.050
-345.420	200.594	-0.147	0.223
-344.406	-123.421	0.068	-0.011
-343.391	-200.000	-0.036	-0.157
-342.377	-128.545	0.384	0.054
-341.362	329.028	0.106	0.202
-340.348	-23.651	0.265	-0.157
-339.333	-200.000	-0.060	0.264
-338.318	-26.155	-0.136	0.079
-337.304	198.415	0.141	-0.214
-336.289	470.659	-0.041	-0.090
-335.275	-171.575	0.196	-0.006
-334.260	-190.448	0.232	-0.002
-333.245	76.120	-0.312	0.326
-332.231	288.196	-0.059	-0.105
-331.216	-161.061	-0.296	-0.015
-330.202	800.000	-0.085	-0.246
-329.187	14.981	-0.116	-0.090
-328.172	140.218	-0.130	0.169
-327.158	-44.771	0.116	-0.057
-326.143	800.000	-0.067	-0.213
-325.129	-41.155	-0.195	0.099
-324.114	-6.499	0.147	-0.099
-323.099	254.037	0.118	0.199
-322.085	77.193	0.178	0.187
-321.070	800.000	0.014	0.041
-320.056	753.068	0.083	-0.221
-319.041	70.761	-0.274	0.280
-318.026	-49.223	0.190	0.090
-317.012	-22.650	0.341	0.203
-315.997	-10.638	0.290	-0.189
-314.983	22.962	0.133	-0.108
-313.968	800.000	0.071	0.279
-312.953	-75.990	0.263	-0.092
-311.939	-34.501	-0.088	-0.048
-310.924	191.451	0.098	0.146
-309.910	-34.253	-0.132	0.071
-308.895	329.424	-0.151	0.286
-307.880	-200.000	-0.011	0.286
-306.866	-101.839	-0.238	-0.057
-305.851	-200.000	0.003	-0.019
-304.837	657.161	-0.067	0.170
-303.822	35.739	-0.115	-0.099
-302.807	-200.000	0.023	-0.135
-301.793	80.010	-0.222	-0.235
-300.778	-200.000	0.020	-0.176
-299.764	-115.365	0.198	-0.037
-298.749	800.000	0.075	0.268
-297.735	-120.878	-0.112	-0.019
-296.720	-57.850	-0.245	-0.106
-295.705	71.901	0.191	0.196
-294.691	198.714	0.238	0.359
-293.676	-131.676	-0.095	-0.012
-292.662	-16.536	0.131	-0.082
-291.647	689.336	0.065	0.167
-290.632	7.790	-0.147	-0.109
-289.618	-30.759	0.019	0.010
-288.603	399.065	-0.131	0.270
-287.589	98.367	-0.180	0.204
-286.574	-169.384	0.134	0.005
-285.559	-91.295	0.103	0.029
-284.545	-200.000	-0.047	-0.284
-283.530	179.768	0.059	0.085
-282.516	-45.072	0.112	0.055
-281.501	747.861	0.088	0.234
-280.486	-151.281	-0.337	-0.025
-279.472	188.053	-0.137	0.201
-278.457	-29.009	-0.347	0.196
-277.443	-200.000	-0.000	-0.005
-276.428	126.919	0.202	0.252
-275.413	-146.711	0.142	-0.012
-274.399	-78.864	-0.230	-0.077
-273.384	43.386	-0.160	-0.144
-272.370	49.335	0.414	-0.383
-271.355	317.759	0.066	0.124
-270.340	136.151	-0.142	0.183
-269.326	349.386	-0.029	-0.056
-268.311	800.000	0.082	-0.323
-267.297	-135.502	-0.289	-0.034
-266.282	391.059	0.102	0.208
-265.267	201.767	-0.354	-0.538
-264.253	-91.057	-0.213	0.060
-263.238	-200.000	0.024	-0.202
-262.224	800.000	-0.071	0.226
-261.209	-200.000	-0.051	0.280
-260.195	182.197	0.104	0.151
-259.180	116.090	-0.125	-0.151
-258.165	220.296	-0.165	-0.261
-257.151	-200.000	0.038	-0.249
-256.136	-109.105	0.254	0.053
-255.122	280.613	-0.108	0.190
-254.107	-200.000	-0.018	0.086
-253.092	-63.862	-0.058	0.023
-252.078	-131.491	-0.184	-0.024
-251.063	14.134	-0.190	-0.145
-250.049	-34.375	0.023	-0.013
-249.034	-173.634	-0.157	0.005
-248.019	-85.825	-0.116	-0.036
-247.005	-200.000	0.019	-0.158
-245.990	137.014	0.071	-0.091
-244.976	-51.686	0.194	0.089
-243.961	301.462	-0.048	-0.086
-242.946	-75.465	-0.160	0.056
-241.932	22.258	0.209	0.168
-240.917	-200.000	-0.008	-0.050
-239.903	-200.000	0.060	-0.320
-238.888	350.999	0.037	-0.071
-237.873	-60.222	0.031	0.013
-236.859	-131.518	-0.373	0.048
-235.844	-33.125	0.158	0.086
-234.830	83.739	-0.110	-0.118
-233.815	345.535	0.115	-0.222
-232.800	-200.000	-0.023	0.262
-231.786	419.869	0.175	0.369
-230.771	-148.197	0.122	-0.010
-229.757	-31.857	0.251	0.138
-228.742	-34.106	-0.195	0.106
-227.727	-18.465	0.137	0.084
-226.713	-200.000	0.016	0.290
-225.698	-54.620	-0.190	0.084
-224.684	473.266	0.176	0.389
-223.669	800.000	0.034	-0.098
-222.655	526.911	-0.152	0.352
-221.640	-200.000	0.012	-0.184
-220.625	-93.682	0.203	-0.055
-219.611	-2.994	0.149	-0.102
-218.596	-9.677	0.218	0.143
-217.582	75.418	0.227	0.236
-216.567	-145.990	-0.065	0.006
-215.552	438.888	-0.147	0.315
-214.538	-150.993	-0.268	-0.020
-213.523	-84.203	-0.123	0.038
-212.509	298.873	-0.049	-0.090
-211.494	-38.260	0.073	0.038
-210.479	563.661	0.096	-0.229
-209.465	187.016	-0.081	0.119
-208.450	141.938	-0.096	-0.125
-207.436	-78.236	-0.126	0.042
-206.421	-105.289	-0.105	0.023
-205.406	149.573	0.145	0.193
-204.392	-30.370	0.072	-0.040
-203.377	-80.979	-0.067	-0.022
-202.363	-54.851	0.326	-0.145
-201.348	519.246	-0.094	-0.216
-200.333	-12.519	0.374	0.240
-199.319	-200.000	0.049	-0.502
-198.304	-200.000	-0.029	-0.287
-197.290	73.643	-0.096	-0.099
-196.275	-200.000	-0.064	-0.297
-195.260	-22.256	-0.036	-0.021
-194.246	-130.101	0.260	0.035
-193.231	800.000	-0.114	0.314
-192.217	708.061	-0.169	0.439
-191.202	-57.482	0.405	-0.175
-190.187	73.120	0.237	-0.243
-189.173	21.305	0.153	-0.122
-188.158	-64.552	0.217	-0.087
-187.144	21.311	-0.078	-0.062
-186.129	-142.249	0.282	0.027
-185.114	76.987	-0.028	-0.029
-184.100	25.240	-0.118	0.096
-183.085	800.000	-0.076	-0.221
-182.071	-100.310	-0.316	0.077
-181.056	118.047	0.138	0.167
-180.042	-91.545	0.126	-0.035
-179.027	-121.876	-0.368	-0.060
-178.012	-33.399	0.217	0.118
-176.998	-131.769	-0.284	-0.037
-175.983	-98.984	0.147	-0.036
-174.969	62.489	0.159	-0.156
-173.954	678.834	-0.049	-0.126
-172.939	-78.223	-0.032	-0.011
-171.925	9.890	0.154	-0.115
-170.910	-200.000	0.014	-0.319
-169.896	-117.632	0.274	-0.049
-168.881	-200.000	0.024	0.220
-167.866	-76.543	-0.115	-0.039
-166.852	129.008	0.243	-0.304
-165.837	-62.453	0.075	0.031
-164.823	177.531	0.116	-0.165
-163.808	-4.936	-0.081	0.055
-162.793	800.000	0.041	0.148
-161.779	-125.034	-0.222	-0.034
-160.764	800.000	0.011	0.041
-159.750	-139.693	0.438	-0.046
-158.735	380.527	0.139	-0.280
-157.720	88.312	0.140	-0.152
-156.706	61.028	0.162	-0.158
-155.691	-105.511	-0.117	0.026
-154.677	-114.582	0.166	0.031
-153.662	-47.679	0.306	0.146
-152.647	174.774	0.174	-0.246
-151.633	-200.000	0.036	-0.246
-150.618	24.326	-0.224	-0.182
-149.604	165.891	0.056	0.078
-148.589	44.368	-0.098	-0.089
-147.574	112.053	0.208	0.247
-146.560	18.822	-0.116	-0.091
-145.545	-142.600	0.097	-0.009
-144.531	26.600	0.193	-0.159
-143.516	-200.000	-0.056	0.252
-142.502	-104.488	0.173	-0.039
-141.487	-200.000	0.002	-0.042
-140.472	357.098	-0.191	-0.373
-139.458	-200.000	0.041	0.307
-138.443	-18.470	-0.025	0.016
-137.429	-200.000	0.028	0.175
-136.414	299.379	-0.126	-0.227
-135.399	584.258	0.022	0.052
-134.385	-100.559	-0.366	0.089
-133.370	624.218	0.060	0.149
-132.356	-9.131	-0.283	0.186
-131.341	25.740	0.239	-0.195
-130.326	69.615	0.245	0.248
-129.312	-29.146	-0.263	0.148
-128.297	-167.696	0.265	-0.010
-127.283	475.956	-0.033	0.074
-126.268	-92.252	0.100	-0.028
-125.253	35.654	-0.141	-0.122
-124.239	800.000	-0.045	-0.151
-123.224	-200.000	0.077	-0.494
-122.210	276.348	0.049	-0.085
