DTS Sentinel unit serial number:	SN413079Multiplexer serial number:	ORYXHardware model number:	OX4-SRSoftware version number:	ORYX F/W v4.00 Oryx Data Collector v3.7.2.0data status	okinstallation	princeton_trtdifferential loss correction	single-endedforward channel	channel 2reverse channel	N/Adate	2019/09/18time	15:35:35forward acquisition time	60.00reverse acquisition time	0.00gamma	496.2192k internal	0.2315k external	0.2315temperature offset calibration	1.0010default loss term (dB/km)	0.3790temperature slope calibration	1.0000multiplexer offset coefficient	1.0000multiplexer slope coefficient	1.0000fibre end	0.00T internal ref (°C)	36.31T ext. ref 1 (°C)	0.77T ext. ref 2 (°C)	30.95length (m)	temperature (°C)	Stokes	anti-Stokes-747.200	228.556	-0.068	-0.112
-746.185	-88.074	0.330	0.100
-745.171	337.442	-0.010	0.019
-744.156	388.128	-0.062	-0.130
-743.142	-86.699	0.266	0.082
-742.127	-3.950	0.316	0.222
-741.112	-125.096	-0.139	-0.022
-740.098	-24.539	0.059	-0.036
-739.083	197.204	-0.044	0.069
-738.069	197.679	0.038	-0.059
-737.054	609.652	-0.103	-0.260
-736.039	800.000	-0.086	-0.317
-735.025	-34.900	0.218	0.121
-734.010	-200.000	0.010	-0.116
-732.996	-26.674	-0.325	-0.193
-731.981	568.003	0.101	-0.248
-730.966	69.579	-0.094	0.098
-729.952	-200.000	-0.029	-0.267
-728.937	-200.000	0.038	-0.221
-727.923	188.850	0.048	-0.073
-726.908	46.703	-0.111	-0.104
-725.894	-200.000	-0.058	-0.306
-724.879	-200.000	-0.002	0.091
-723.864	103.428	0.196	-0.233
-722.850	-160.114	-0.180	0.010
-721.835	-83.901	0.274	0.088
-720.821	-200.000	0.040	-0.316
-719.806	160.498	0.141	-0.199
-718.791	196.576	-0.115	-0.178
-717.777	1.160	-0.201	0.146
-716.762	201.928	-0.050	-0.078
-715.748	64.468	-0.126	-0.128
-714.733	-149.724	0.222	0.018
-713.718	-200.000	-0.006	-0.145
-712.704	546.255	0.085	-0.206
-711.689	-151.259	-0.267	0.020
-710.675	155.891	-0.114	-0.159
-709.660	-79.203	0.336	-0.115
-708.645	19.922	0.114	-0.093
-707.631	-96.893	0.092	-0.024
-706.616	800.000	-0.041	-0.132
-705.602	466.602	0.189	0.428
-704.587	-143.098	0.057	-0.006
-703.572	-200.000	-0.006	0.182
-702.558	-200.000	-0.003	0.422
-701.543	-103.593	0.210	-0.050
-700.529	425.078	-0.054	0.118
-699.514	-154.833	-0.541	-0.036
-698.499	-5.191	0.183	0.127
-697.485	-99.888	-0.161	-0.041
-696.470	-131.838	-0.031	-0.004
-695.456	-152.213	-0.117	-0.009
-694.441	800.000	-0.067	0.194
-693.426	46.507	0.125	-0.117
-692.412	-19.263	-0.398	-0.250
-691.397	637.672	0.150	-0.385
-690.383	307.129	0.146	0.275
-689.368	99.957	-0.244	-0.285
-688.354	45.896	0.183	-0.171
-687.339	-46.322	-0.233	0.116
-686.324	-73.411	-0.354	-0.131
-685.310	165.014	-0.064	0.092
-684.295	24.541	-0.167	-0.139
-683.281	-66.011	-0.120	0.049
-682.266	-5.386	-0.160	-0.111
-681.251	-100.235	0.227	-0.057
-680.237	-128.409	-0.234	0.034
-679.222	36.362	-0.117	0.104
-678.208	-200.000	0.026	0.155
-677.193	800.000	-0.005	-0.015
-676.178	80.072	-0.141	-0.154
-675.164	392.896	-0.065	0.137
-674.149	67.926	-0.280	-0.290
-673.135	-182.235	-0.230	0.004
-672.120	800.000	-0.076	-0.287
-671.105	-135.950	-0.156	0.019
-670.091	-24.467	-0.127	-0.077
-669.076	350.854	-0.089	-0.177
-668.062	115.575	0.228	0.282
-667.047	457.748	0.019	0.043
-666.032	389.451	-0.121	0.253
-665.018	-7.973	-0.119	0.081
-664.003	459.253	-0.069	0.155
-662.989	-95.201	-0.225	0.061
-661.974	-200.000	0.003	-0.027
-660.959	10.442	-0.100	-0.077
-659.945	-0.238	0.080	0.057
-658.930	-200.000	0.078	-0.412
-657.916	-67.561	-0.111	0.044
-656.901	-200.000	0.051	-0.257
-655.886	-91.072	-0.214	0.062
-654.872	18.047	0.412	0.332
-653.857	-102.815	-0.107	0.026
-652.843	-49.050	-0.135	-0.065
-651.828	-49.041	-0.410	0.198
-650.814	-88.457	-0.084	-0.025
-649.799	-200.000	-0.043	-0.557
-648.784	257.911	-0.138	0.239
-647.770	-200.000	-0.004	0.552
-646.755	-200.000	0.097	-0.595
-645.741	190.059	-0.154	-0.234
-644.726	238.020	-0.184	0.309
-643.711	87.003	-0.090	-0.100
-642.697	-7.533	-0.288	-0.197
-641.682	-13.978	-0.314	0.205
-640.668	-200.000	-0.027	0.215
-639.653	-120.050	-0.018	0.003
-638.638	-44.265	-0.209	0.106
-637.624	221.393	0.097	0.157
-636.609	800.000	0.078	-0.233
-635.595	-131.876	0.148	-0.019
-634.580	86.721	0.086	0.096
-633.565	-145.191	0.052	-0.005
-632.551	-200.000	0.022	-0.132
-631.536	238.188	-0.158	-0.264
-630.522	-19.326	0.086	-0.054
-629.507	8.831	0.113	-0.086
-628.492	65.446	-0.206	-0.210
-627.478	161.519	-0.127	-0.179
-626.463	195.259	0.154	-0.236
-625.449	-104.312	-0.351	0.082
-624.434	800.000	0.055	-0.181
-623.419	134.267	-0.052	0.068
-622.405	-73.227	-0.105	-0.039
-621.390	-45.652	-0.054	0.027
-620.376	-200.000	-0.020	-0.207
-619.361	-200.000	0.052	0.255
-618.346	-31.907	0.356	-0.201
-617.332	-23.312	-0.078	-0.047
-616.317	-4.695	0.225	-0.156
-615.303	-200.000	0.065	-0.303
-614.288	123.228	-0.151	-0.190
-613.273	-65.156	0.147	-0.060
-612.259	366.199	-0.101	-0.205
-611.244	665.967	0.038	0.099
-610.230	451.106	0.067	0.150
-609.215	17.230	-0.172	-0.137
-608.201	140.169	-0.045	-0.060
-607.186	800.000	0.093	0.259
-606.171	-50.719	0.160	0.076
-605.157	18.464	0.072	0.058
-604.142	-14.393	0.170	-0.110
-603.128	-53.666	-0.210	0.097
-602.113	57.201	-0.182	0.179
-601.098	-130.186	0.364	-0.050
-600.084	619.872	0.044	-0.111
-599.069	-200.000	0.082	0.522
-598.055	502.146	-0.148	-0.344
-597.040	-200.000	0.014	-0.105
-596.025	17.055	0.227	0.181
-595.011	-6.227	-0.276	0.190
-593.996	551.584	0.090	-0.218
-592.982	143.624	0.100	-0.134
-591.967	429.546	-0.132	-0.287
-590.952	-200.000	-0.005	-0.275
-589.938	800.000	0.054	-0.183
-588.923	-151.806	-0.098	0.007
-587.909	120.649	-0.249	0.311
-586.894	569.171	-0.009	0.022
-585.879	656.238	-0.032	-0.084
-584.865	800.000	0.027	-0.118
-583.850	-178.904	0.269	0.006
-582.836	42.055	-0.115	-0.105
-581.821	800.000	-0.087	-0.293
-580.806	-16.368	-0.382	-0.244
-579.792	-24.664	-0.208	-0.124
-578.777	91.706	0.067	-0.076
-577.763	-200.000	-0.025	-0.139
-576.748	-57.263	0.102	-0.045
-575.733	-171.396	0.087	-0.003
-574.719	800.000	0.080	-0.268
-573.704	-106.867	0.200	-0.045
-572.690	-200.000	0.024	-0.259
-571.675	-200.000	-0.011	-0.170
-570.661	-84.966	-0.104	0.033
-569.646	800.000	0.095	0.269
-568.631	-200.000	0.011	0.211
-567.617	-149.454	0.349	-0.028
-566.602	604.398	-0.089	-0.223
-565.588	-25.473	-0.338	0.201
-564.573	-123.752	-0.154	0.024
-563.558	197.239	-0.076	0.117
-562.544	98.355	0.054	0.063
-561.529	99.149	0.208	0.242
-560.515	-117.906	-0.156	0.028
-559.500	709.133	0.045	-0.119
-558.485	132.703	-0.149	0.194
-557.471	618.868	-0.041	-0.104
-556.456	421.944	0.091	0.197
-555.442	69.877	-0.186	-0.193
-554.427	-9.725	0.174	0.117
-553.412	97.062	-0.119	-0.137
-552.398	-69.631	-0.019	-0.007
-551.383	-148.526	-0.262	0.022
-550.369	-122.845	-0.030	-0.005
-549.354	222.990	0.103	-0.166
-548.339	56.259	0.223	-0.218
-547.325	-63.497	-0.207	-0.086
-546.310	188.541	-0.056	-0.084
-545.296	-44.990	-0.420	0.210
-544.281	-40.315	-0.095	0.049
-543.266	445.464	-0.163	-0.360
-542.252	189.912	0.163	-0.246
-541.237	-84.261	0.104	-0.033
-540.223	5.346	0.353	0.262
-539.208	-15.178	-0.099	-0.064
-538.193	-138.023	0.227	-0.025
-537.179	-22.646	-0.241	0.147
-536.164	-200.000	0.067	0.456
-535.150	-13.688	-0.125	0.081
-534.135	4.803	-0.297	0.219
-533.121	349.122	-0.220	-0.437
-532.106	-78.807	0.141	-0.048
-531.091	-24.135	-0.341	0.205
-530.077	21.555	0.070	0.057
-529.062	90.920	-0.042	0.047
-528.048	-131.135	-0.109	0.015
-527.033	-200.000	0.052	-0.260
-526.018	-140.898	-0.189	-0.019
-525.004	516.589	-0.096	0.226
-523.989	15.644	0.270	-0.213
-522.975	-73.107	-0.339	-0.125
-521.960	800.000	0.069	-0.208
-520.945	-200.000	0.012	-0.212
-519.931	630.716	0.205	-0.522
-518.916	800.000	0.072	0.221
-517.902	142.290	0.346	-0.461
-516.887	-65.912	-0.232	0.093
-515.872	-60.531	-0.171	-0.073
-514.858	683.418	0.013	-0.035
-513.843	800.000	-0.095	0.268
-512.829	-130.707	-0.177	0.024
-511.814	-48.356	-0.107	-0.052
-510.799	166.228	0.115	-0.164
-509.785	-145.851	0.225	-0.020
-508.770	-105.426	0.393	-0.090
-507.756	200.917	0.140	-0.216
-506.741	21.946	0.189	-0.155
-505.726	-159.743	0.591	-0.033
-504.712	18.372	0.176	0.141
-503.697	800.000	-0.019	0.072
-502.683	-152.687	0.143	-0.010
-501.668	412.115	-0.079	0.168
-500.653	-44.683	-0.226	0.113
-499.639	680.643	-0.085	-0.222
-498.624	217.720	-0.060	0.096
-497.610	-200.000	0.010	-0.311
-496.595	-89.650	0.248	0.073
-495.581	133.829	-0.023	-0.030
-494.566	-69.989	-0.101	0.039
-493.551	-200.000	0.021	0.122
-492.537	53.825	0.075	0.072
-491.522	-128.103	-0.036	0.005
-490.508	-32.895	0.221	-0.123
-489.493	-200.000	-0.020	0.319
-488.478	0.228	0.304	-0.217
-487.464	781.125	0.096	-0.263
-486.449	9.012	-0.266	0.201
-485.435	-107.129	0.107	0.024
-484.420	118.654	-0.151	0.187
-483.405	181.979	-0.031	0.046
-482.391	-78.520	-0.163	0.056
-481.376	138.646	-0.086	0.114
-480.362	671.686	0.038	0.098
-479.347	-20.361	-0.008	-0.005
-478.332	-187.329	-0.239	-0.003
-477.318	-200.000	0.107	-0.483
-476.303	650.807	-0.045	-0.115
-475.289	-172.315	-0.418	-0.013
-474.274	-200.000	-0.023	0.117
-473.259	-176.469	0.033	0.001
-472.245	-37.582	-0.229	-0.123
-471.230	-112.973	0.265	-0.052
-470.216	800.000	0.055	0.176
-469.201	-143.662	-0.341	-0.032
-468.186	480.980	0.162	0.368
-467.172	710.128	-0.104	0.276
-466.157	-200.000	-0.037	-0.337
-465.143	142.781	-0.094	-0.126
-464.128	-20.304	-0.320	-0.198
-463.113	-200.000	0.007	-0.250
-462.099	-63.013	0.267	-0.111
-461.084	444.373	-0.107	0.236
-460.070	-200.000	0.016	0.086
-459.055	-200.000	-0.020	-0.099
-458.040	203.172	0.193	-0.299
-457.026	56.197	-0.096	-0.093
-456.011	-107.316	-0.339	0.075
-454.997	237.430	-0.126	0.210
-453.982	30.218	0.115	0.099
-452.968	-200.000	-0.014	0.114
-451.953	-200.000	-0.018	0.255
-450.938	46.374	0.319	-0.297
-449.924	-200.000	0.009	0.058
-448.909	-83.109	-0.077	0.025
-447.895	-200.000	-0.046	0.299
-446.880	-105.775	0.318	-0.072
-445.865	294.906	-0.041	-0.076
-444.851	-200.000	0.050	-0.223
-443.836	30.690	-0.104	-0.089
-442.822	-115.116	0.139	-0.026
-441.807	-200.000	0.032	0.218
-440.792	-69.038	-0.327	-0.126
-439.778	-200.000	0.020	0.164
-438.763	-200.000	0.036	-0.170
-437.749	59.656	-0.288	0.284
-436.734	0.267	-0.203	0.145
-435.719	800.000	-0.047	-0.175
-434.705	77.844	0.084	0.090
-433.690	701.564	0.025	0.067
-432.676	-97.864	0.356	-0.092
-431.661	-116.887	-0.334	0.061
-430.646	-3.627	0.088	0.061
-429.632	-168.707	0.248	0.009
-428.617	-10.038	-0.235	0.157
-427.603	-50.578	0.052	-0.025
-426.588	-99.118	-0.263	0.067
-425.573	282.141	-0.052	0.093
-424.559	34.922	-0.092	0.080
-423.544	58.620	0.346	0.340
-422.530	-73.974	0.241	-0.088
-421.515	-200.000	0.012	-0.171
-420.500	-101.286	-0.264	0.065
-419.486	-200.000	0.034	-0.217
-418.471	-200.000	0.018	-0.186
-417.457	-1.884	-0.085	-0.060
-416.442	-60.536	0.489	0.208
-415.428	257.268	0.113	-0.195
-414.413	190.878	-0.115	-0.173
-413.398	18.426	0.129	-0.103
-412.384	-200.000	-0.002	-0.013
-411.369	-124.907	-0.223	0.034
-410.355	320.023	0.069	-0.131
-409.340	-112.044	-0.449	0.090
-408.325	-16.274	0.089	-0.056
-407.311	-200.000	-0.001	0.046
-406.296	-75.127	0.155	-0.055
-405.282	800.000	-0.073	-0.264
-404.267	742.143	-0.034	-0.091
-403.252	207.763	-0.141	0.220
-402.238	-200.000	-0.063	-0.283
-401.223	132.004	0.108	-0.139
-400.209	-200.000	0.037	0.263
-399.194	163.861	0.140	0.196
-398.179	551.491	-0.075	0.181
-397.165	-132.638	0.143	-0.018
-396.150	-170.884	-0.086	0.003
-395.136	-124.728	-0.162	-0.025
-394.121	-200.000	0.002	-0.026
-393.106	800.000	0.022	0.090
-392.092	69.826	0.107	0.110
-391.077	12.095	0.132	-0.102
-390.063	29.542	-0.355	-0.302
-389.048	-118.507	0.371	-0.066
-388.033	-63.133	0.410	-0.169
-387.019	-176.509	0.059	0.002
-386.004	17.573	-0.312	0.248
-384.990	213.609	-0.189	0.299
-383.975	-170.324	0.238	-0.008
-382.960	-3.516	-0.156	-0.109
-381.946	360.877	0.075	-0.150
-380.931	-45.811	0.322	-0.159
-379.917	-200.000	-0.372	-0.001
-378.902	-158.776	0.310	0.018
-377.888	41.357	-0.263	0.238
-376.873	-193.464	-0.210	0.002
-375.858	-156.813	0.568	-0.035
-374.844	42.929	0.033	0.030
-373.829	-200.000	-0.017	0.152
-372.815	800.000	-0.059	0.182
-371.800	193.297	0.040	0.061
-370.785	218.199	-0.213	0.339
-369.771	-16.561	-0.203	0.129
-368.756	228.440	-0.073	-0.118
-367.742	-200.000	0.084	0.373
-366.727	-29.129	-0.046	-0.026
-365.712	65.657	0.080	0.081
-364.698	245.037	-0.143	0.240
-363.683	-200.000	0.020	-0.274
-362.669	-115.108	-0.190	-0.036
-361.654	-68.675	0.097	-0.037
-360.639	-200.000	-0.061	0.503
-359.625	-131.686	0.180	0.024
-358.610	58.498	-0.172	0.168
-357.596	113.780	-0.047	0.057
-356.581	496.055	0.092	0.211
-355.566	776.428	0.105	0.287
-354.552	429.926	-0.204	0.441
-353.537	-22.762	-0.395	-0.238
-352.523	279.395	-0.156	-0.278
-351.508	-33.643	-0.148	0.082
-350.493	-48.497	-0.268	-0.129
-349.479	42.798	-0.210	-0.191
-348.464	-21.639	0.238	0.145
-347.450	417.998	0.075	0.159
-346.435	-144.645	0.276	-0.025
-345.420	-162.049	0.092	-0.005
-344.406	103.908	0.046	-0.054
-343.391	-5.083	-0.108	0.074
-342.377	228.039	0.147	0.239
-341.362	24.515	0.125	-0.103
-340.348	-104.387	0.216	-0.050
-339.333	521.202	-0.083	0.194
-338.318	407.402	0.047	-0.098
-337.304	-4.410	-0.111	0.077
-336.289	-82.387	0.142	-0.046
-335.275	-35.624	-0.491	0.266
-334.260	-16.420	-0.251	-0.159
-333.245	-48.187	0.320	0.154
-332.231	-63.832	-0.287	-0.117
-331.216	-86.100	0.132	-0.041
-330.202	147.283	0.183	0.246
-329.187	180.924	-0.243	-0.356
-328.172	308.710	0.132	-0.245
-327.158	-57.496	-0.152	0.067
-326.143	-170.329	-0.470	-0.016
-325.129	-200.000	-0.030	0.286
-324.114	-200.000	0.027	0.125
-323.099	-112.195	-0.132	0.026
-322.085	61.308	0.074	-0.073
-321.070	181.601	0.075	0.109
-320.056	10.258	-0.165	-0.125
-319.041	800.000	0.029	0.081
-318.026	22.018	-0.095	0.077
-317.012	102.182	0.218	-0.254
-315.997	684.605	-0.104	-0.271
-314.983	800.000	0.088	-0.318
-313.968	-54.137	0.153	-0.069
-312.953	-200.000	-0.012	0.173
-311.939	23.717	-0.321	-0.264
-310.924	607.691	-0.075	-0.187
-309.910	-133.180	0.484	0.061
-308.895	-200.000	0.014	-0.096
-307.880	-115.524	0.491	-0.092
-306.866	516.812	-0.101	0.235
-305.851	340.522	-0.073	0.141
-304.837	46.025	-0.148	0.136
-303.822	800.000	0.084	-0.330
-302.807	-200.000	0.024	-0.160
-301.793	800.000	0.030	-0.118
-300.778	487.521	0.038	0.086
-299.764	-6.926	0.228	-0.154
-298.749	-200.000	-0.009	0.195
-297.735	26.794	0.125	0.104
-296.720	-74.527	0.243	-0.087
-295.705	16.437	-0.037	-0.029
-294.691	800.000	0.072	0.269
-293.676	-174.509	-0.444	0.013
-292.662	800.000	-0.050	-0.198
-291.647	-200.000	-0.002	0.364
-290.632	-200.000	0.056	0.308
-289.618	198.650	-0.107	-0.163
-288.603	-101.977	0.233	-0.056
-287.589	171.323	0.213	-0.305
-286.574	87.410	0.176	0.194
-285.559	-1.186	0.189	0.133
-284.545	-33.794	-0.226	0.124
-283.530	-134.256	0.157	-0.019
-282.516	-122.047	0.175	0.029
-281.501	-23.394	0.021	-0.012
-280.486	-200.000	0.038	0.241
-279.472	730.698	0.107	0.285
-278.457	162.369	-0.031	-0.043
-277.443	-46.436	0.345	0.169
-276.428	-172.721	-0.109	0.003
-275.413	102.838	0.152	-0.178
-274.399	-200.000	-0.009	0.052
-273.384	393.992	0.137	0.283
-272.370	800.000	-0.033	0.094
-271.355	-116.510	0.061	-0.011
-270.340	-59.503	0.111	-0.047
-269.326	108.644	-0.170	0.202
-268.311	-45.624	0.192	0.095
-267.297	-124.012	0.053	-0.008
-266.282	-50.113	-0.202	0.095
-265.267	-22.038	0.148	-0.090
-264.253	19.580	-0.277	0.221
-263.238	130.165	-0.096	0.123
-262.224	-50.444	0.095	0.045
-261.209	474.882	0.002	0.005
-260.195	-19.743	0.182	0.112
-259.180	-78.105	-0.295	0.101
-258.165	-200.000	0.010	-0.124
-257.151	800.000	0.050	-0.167
-256.136	-30.995	0.161	-0.090
-255.122	-200.000	-0.018	0.288
-254.107	-56.525	0.314	-0.139
-253.092	800.000	0.063	-0.205
-252.078	-63.784	0.239	0.097
-251.063	800.000	-0.067	-0.256
-250.049	800.000	0.054	-0.189
-249.034	-200.000	-0.039	0.238
-248.019	-40.878	0.234	0.120
-247.005	50.517	-0.197	0.185
-245.990	203.774	-0.110	-0.169
-244.976	-49.717	0.276	-0.130
-243.961	-140.153	-0.320	-0.033
-242.946	307.408	0.091	0.169
-241.932	162.853	-0.206	-0.288
-240.917	60.631	0.074	-0.072
-239.903	800.000	-0.072	-0.301
-238.888	-200.000	0.001	0.052
-237.873	196.702	-0.085	-0.128
-236.859	-200.000	0.009	0.063
-235.844	624.393	-0.079	0.197
-234.830	800.000	0.056	-0.166
-233.815	27.747	-0.161	-0.135
-232.800	-200.000	0.027	-0.315
-231.786	800.000	-0.068	0.216
-230.771	-30.887	-0.300	-0.169
-229.757	-22.718	0.103	0.062
-228.742	352.059	0.086	0.169
-227.727	434.808	-0.115	-0.249
-226.713	-200.000	0.003	0.252
-225.698	-109.955	0.028	0.006
-224.684	-196.212	-0.362	-0.002
-223.669	-84.323	0.039	-0.012
-222.655	-78.578	-0.060	-0.020
-221.640	-9.331	-0.033	-0.022
-220.625	21.374	0.311	-0.251
-219.611	-157.730	-0.402	0.024
-218.596	331.106	0.175	0.335
-217.582	-200.000	0.031	0.261
-216.567	-9.560	0.049	-0.032
-215.552	-200.000	0.017	0.241
-214.538	-102.178	0.322	0.077
-213.523	171.661	0.094	0.134
-212.509	377.683	-0.074	-0.150
-211.494	252.118	-0.156	-0.264
-210.479	-110.194	0.283	-0.058
-209.465	35.298	-0.297	0.259
-208.450	-83.732	-0.137	0.043
-207.436	-200.000	0.022	0.379
-206.421	401.744	-0.071	-0.148
-205.406	183.333	-0.122	0.179
-204.392	-143.770	-0.170	-0.016
-203.377	33.841	0.427	0.368
-202.363	-68.737	0.077	-0.029
-201.348	-41.217	0.322	0.165
-200.333	387.270	0.086	0.177
-199.319	384.333	-0.168	-0.343
-198.304	-200.000	0.026	0.241
-197.290	95.687	0.185	0.209
-196.275	-69.145	0.099	0.038
-195.260	-132.554	-0.076	-0.010
-194.246	-84.152	-0.071	0.022
-193.231	191.948	0.133	0.199
-192.217	-200.000	0.026	0.196
-191.202	51.702	0.151	-0.142
-190.187	115.741	-0.196	0.237
-189.173	-124.102	-0.019	0.003
-188.158	311.203	-0.083	0.155
-187.144	525.879	0.231	-0.539
-186.129	800.000	-0.042	0.134
-185.114	800.000	0.074	0.257
-184.100	127.921	-0.120	-0.152
-183.085	800.000	0.052	-0.155
-182.071	348.092	0.098	-0.191
-181.056	800.000	-0.095	0.403
-180.042	-153.225	0.458	-0.032
-179.027	-134.846	-0.187	-0.022
-178.012	-74.970	-0.079	-0.028
-176.998	-1.847	-0.120	-0.084
-175.983	-133.611	-0.234	0.029
-174.969	800.000	-0.075	0.210
-173.954	-87.912	-0.074	0.022
-172.939	800.000	0.083	-0.269
-171.925	-59.664	0.121	-0.051
-170.910	-20.097	0.084	0.051
-169.896	-148.784	0.080	0.006
-168.881	142.750	-0.270	-0.355
-167.866	-92.726	0.379	0.105
-166.852	-25.407	-0.278	-0.163
-165.837	748.128	0.132	0.352
-164.823	-200.000	0.022	-0.193
-163.808	47.070	0.272	0.250
-162.793	-28.024	0.090	0.052
-161.779	-46.403	-0.156	0.076
-160.764	-0.240	0.134	0.094
-159.750	-46.747	0.192	0.093
-158.735	-48.450	0.019	0.009
-157.720	448.089	-0.097	-0.212
-156.706	-200.000	-0.074	0.384
-155.691	-159.072	0.320	-0.018
-154.677	592.359	-0.057	-0.140
-153.662	-144.496	0.143	0.013
-152.647	-35.812	0.218	-0.117
-151.633	96.458	0.105	0.119
-150.618	-26.892	-0.437	-0.253
-149.604	-200.000	-0.018	-0.119
-148.589	158.915	0.208	0.287
-147.574	-200.000	-0.015	-0.113
-146.560	800.000	-0.016	-0.049
-145.545	-200.000	-0.031	0.158
-144.531	374.037	-0.132	-0.267
-143.516	-51.692	0.337	0.156
-142.502	506.349	-0.087	0.199
-141.487	-14.164	-0.282	0.180
-140.472	466.711	-0.178	0.395
-139.458	800.000	-0.087	0.238
-138.443	-13.438	-0.148	-0.095
-137.429	31.154	-0.143	0.122
-136.414	-110.786	-0.274	0.056
-135.399	-58.872	-0.109	0.047
-134.385	-39.310	0.027	0.014
-133.370	-5.762	-0.286	0.194
-132.356	-200.000	0.011	-0.182
-131.341	800.000	-0.061	-0.168
-130.326	0.623	0.204	-0.144
-129.312	327.746	-0.069	-0.132
-128.297	-105.620	0.152	-0.034
-127.283	-131.011	0.366	-0.048
-126.268	-200.000	-0.035	0.337
-125.253	-41.590	-0.060	0.030
-124.239	348.430	-0.127	0.247
-123.224	-46.700	-0.182	0.088
-122.210	-113.463	-0.481	-0.093
