DTS Sentinel unit serial number:	SN413079Multiplexer serial number:	ORYXHardware model number:	OX4-SRSoftware version number:	ORYX F/W v4.00 Oryx Data Collector v3.7.2.0data status	okinstallation	princeton_trtdifferential loss correction	single-endedforward channel	channel 2reverse channel	N/Adate	2019/09/12time	01:45:10forward acquisition time	60.00reverse acquisition time	0.00gamma	496.2192k internal	0.2326k external	0.2326temperature offset calibration	1.0087default loss term (dB/km)	0.3790temperature slope calibration	1.0000multiplexer offset coefficient	1.0000multiplexer slope coefficient	1.0000fibre end	0.00T internal ref (°C)	32.86T ext. ref 1 (°C)	2.06T ext. ref 2 (°C)	27.37length (m)	temperature (°C)	Stokes	anti-Stokes-747.200	3.469	-0.310	0.228
-746.185	209.507	-0.288	0.455
-745.171	-69.398	0.409	0.158
-744.156	118.649	-0.286	0.356
-743.142	555.529	-0.163	0.396
-742.127	214.034	-0.237	0.379
-741.112	-55.715	0.309	-0.140
-740.098	73.168	-0.228	0.240
-739.083	-143.786	-0.337	-0.032
-738.069	800.000	-0.054	-0.165
-737.054	54.478	-0.126	-0.122
-736.039	-200.000	0.028	-0.125
-735.025	86.881	-0.106	-0.118
-734.010	-79.623	0.349	-0.119
-732.996	-200.000	0.010	-0.195
-731.981	288.015	0.101	-0.185
-730.966	-200.000	0.001	-0.379
-729.952	33.532	0.385	-0.337
-728.937	-200.000	-0.028	0.271
-727.923	800.000	0.108	-0.349
-726.908	300.835	0.084	0.156
-725.894	-37.325	-0.404	-0.217
-724.879	142.430	0.237	-0.317
-723.864	129.460	-0.198	0.255
-722.850	-63.742	0.066	-0.027
-721.835	13.149	0.243	-0.189
-720.821	800.000	0.027	0.101
-719.806	-16.107	0.237	0.152
-718.791	-10.168	0.236	-0.158
-717.777	-69.255	0.064	0.025
-716.762	-117.381	-0.209	-0.038
-715.748	-110.492	0.500	0.104
-714.733	16.534	-0.278	0.221
-713.718	33.836	0.139	-0.122
-712.704	-134.079	-0.415	0.052
-711.689	-200.000	0.071	0.432
-710.675	-200.000	0.010	0.066
-709.660	497.707	0.156	-0.362
-708.645	-200.000	-0.030	0.248
-707.631	-166.972	-0.198	0.008
-706.616	-200.000	-0.019	0.130
-705.602	-146.224	0.273	0.024
-704.587	25.494	-0.118	0.099
-703.572	-200.000	0.044	0.273
-702.558	47.950	0.221	-0.208
-701.543	-84.017	-0.341	0.109
-700.529	-200.000	0.027	-0.310
-699.514	-64.017	0.049	0.020
-698.499	-2.046	-0.138	0.098
-697.485	-72.202	-0.377	-0.141
-696.470	-200.000	-0.017	-0.189
-695.456	198.070	-0.112	0.172
-694.441	800.000	-0.141	-0.401
-693.426	800.000	0.046	0.167
-692.412	76.330	-0.118	-0.126
-691.397	-137.283	0.422	-0.048
-690.383	389.995	-0.058	-0.121
-689.368	9.689	-0.218	-0.166
-688.354	-2.700	-0.122	-0.086
-687.339	526.858	-0.051	0.121
-686.324	-115.295	-0.132	0.025
-685.310	-130.839	-0.144	0.019
-684.295	-76.804	0.192	-0.068
-683.281	-200.000	-0.066	-0.362
-682.266	-136.413	-0.244	0.029
-681.251	-21.132	0.339	-0.209
-680.237	-200.000	-0.006	0.150
-679.222	-55.175	0.170	-0.077
-678.208	-104.389	0.315	-0.073
-677.193	-94.538	-0.332	0.091
-676.178	17.437	-0.217	-0.173
-675.164	33.319	-0.233	0.203
-674.149	49.578	-0.275	-0.261
-673.135	281.262	-0.143	-0.258
-672.120	-28.022	0.327	0.190
-671.105	-200.000	0.044	0.262
-670.091	-200.000	-0.051	-0.266
-669.076	-26.292	-0.232	0.137
-668.062	400.399	-0.103	-0.217
-667.047	462.394	-0.007	-0.016
-666.032	800.000	0.036	-0.106
-665.018	70.536	0.345	-0.359
-664.003	0.766	0.371	0.267
-662.989	-200.000	0.005	0.272
-661.974	-53.410	0.348	-0.160
-660.959	1.561	-0.200	0.145
-659.945	101.380	0.316	-0.370
-658.930	332.798	-0.184	0.358
-657.916	14.087	0.224	0.176
-656.901	-21.020	0.014	0.008
-655.886	-45.819	0.156	0.077
-654.872	-125.672	0.099	-0.015
-653.857	-200.000	0.019	0.330
-652.843	-154.915	0.268	0.018
-651.828	-103.268	-0.093	-0.022
-650.814	-200.000	-0.036	-0.171
-649.799	33.415	-0.273	0.238
-648.784	-120.991	-0.265	0.045
-647.770	34.960	-0.074	-0.065
-646.755	166.858	-0.177	-0.252
-645.741	-148.988	0.351	-0.028
-644.726	178.174	0.204	-0.299
-643.711	800.000	-0.055	0.174
-642.697	-200.000	0.050	-0.246
-641.682	-200.000	0.064	0.309
-640.668	800.000	-0.136	0.486
-639.653	-5.957	-0.041	0.028
-638.638	12.553	-0.147	-0.114
-637.624	-200.000	-0.074	0.443
-636.609	241.866	0.211	-0.354
-635.595	-173.480	0.067	-0.002
-634.580	191.736	-0.172	-0.260
-633.565	-200.000	-0.024	0.330
-632.551	60.124	0.251	-0.249
-631.536	-119.010	0.178	-0.031
-630.522	-112.907	-0.179	0.036
-629.507	291.237	0.252	0.459
-628.492	72.763	0.097	0.102
-627.478	-49.265	0.139	0.067
-626.463	118.304	-0.059	0.074
-625.449	-200.000	-0.047	0.274
-624.434	800.000	0.061	-0.212
-623.419	243.960	0.085	-0.144
-622.405	-91.240	0.151	0.043
-621.390	-60.644	-0.031	0.013
-620.376	800.000	0.014	0.060
-619.361	237.173	-0.065	-0.108
-618.346	800.000	0.062	-0.195
-617.332	800.000	0.061	-0.226
-616.317	-52.143	0.167	-0.078
-615.303	204.368	0.149	-0.232
-614.288	457.115	-0.121	0.269
-613.273	-36.797	-0.225	-0.121
-612.259	-30.615	-0.150	0.085
-611.244	275.832	0.144	0.256
-610.230	-72.379	0.182	-0.068
-609.215	-169.032	0.395	-0.015
-608.201	171.463	0.252	0.363
-607.186	167.535	0.041	-0.059
-606.171	418.947	0.132	0.283
-605.157	-146.952	-0.236	0.020
-604.142	537.609	-0.103	-0.245
-603.128	87.510	-0.222	-0.246
-602.113	-109.440	0.360	-0.076
-601.098	246.668	0.116	0.196
-600.084	-89.819	0.240	-0.070
-599.069	12.179	-0.257	-0.198
-598.055	65.969	-0.126	-0.129
-597.040	-200.000	0.010	0.066
-596.025	-99.124	-0.207	0.053
-595.011	117.115	0.101	-0.124
-593.996	-79.152	0.612	-0.208
-592.982	38.644	-0.258	-0.230
-591.967	268.186	0.039	-0.068
-590.952	165.068	0.233	-0.329
-589.938	-25.454	-0.087	-0.052
-588.923	-58.229	-0.118	-0.052
-587.909	344.882	0.074	0.146
-586.894	170.388	-0.104	-0.149
-585.879	800.000	-0.029	-0.125
-584.865	752.142	0.038	0.102
-583.850	-33.602	0.274	0.152
-582.836	63.640	0.077	0.077
-581.821	1.246	-0.259	-0.186
-580.806	181.988	-0.008	0.011
-579.792	-80.550	-0.286	0.095
-578.777	800.000	0.045	-0.129
-577.763	197.244	-0.116	0.178
-576.748	-36.837	0.154	-0.083
-575.733	676.211	0.059	-0.153
-574.719	46.717	0.187	0.174
-573.704	-85.161	-0.040	-0.013
-572.690	-200.000	0.015	-0.095
-571.675	-54.440	-0.360	-0.163
-570.661	-105.028	-0.210	0.048
-569.646	-200.000	-0.014	-0.078
-568.631	-155.491	0.068	-0.004
-567.617	-137.034	-0.263	-0.030
-566.602	-14.180	-0.223	-0.144
-565.588	586.444	0.125	-0.309
-564.573	-60.496	-0.128	-0.054
-563.558	145.940	0.185	0.248
-562.544	-200.000	0.019	-0.251
-561.529	-94.669	0.077	0.021
-560.515	-55.380	-0.238	0.107
-559.500	-43.241	-0.178	0.090
-558.485	-200.000	0.069	-0.315
-557.471	-14.148	0.168	-0.108
-556.456	-77.822	0.179	-0.062
-555.442	800.000	-0.057	0.194
-554.427	800.000	0.009	-0.028
-553.412	-35.931	-0.306	0.166
-552.398	-42.537	-0.337	0.172
-551.383	800.000	0.121	-0.431
-550.369	800.000	-0.042	-0.177
-549.354	-64.215	-0.163	0.067
-548.339	-31.182	-0.161	-0.091
-547.325	800.000	0.114	0.412
-546.310	75.382	0.066	-0.069
-545.296	208.523	-0.164	0.257
-544.281	-200.000	0.015	-0.173
-543.266	329.887	-0.026	-0.050
-542.252	-200.000	0.011	0.139
-541.237	800.000	-0.003	-0.010
-540.223	72.232	-0.182	-0.190
-539.208	401.716	-0.075	-0.157
-538.193	16.949	0.158	-0.125
-537.179	-200.000	-0.055	0.296
-536.164	-77.052	0.091	0.032
-535.150	-127.365	-0.281	-0.041
-534.135	-20.526	-0.280	0.172
-533.121	-102.250	-0.222	-0.053
-532.106	-37.244	0.220	-0.118
-531.091	800.000	-0.077	-0.228
-530.077	186.401	-0.177	-0.263
-529.062	800.000	-0.017	-0.070
-528.048	-78.365	-0.170	-0.058
-527.033	127.416	-0.089	-0.113
-526.018	-200.000	0.004	0.398
-525.004	-132.383	0.381	0.049
-523.989	200.112	-0.100	0.153
-522.975	-200.000	0.048	0.284
-521.960	444.910	0.175	-0.383
-520.945	-18.408	0.198	-0.124
-519.931	-200.000	0.006	-0.158
-518.916	-167.055	-0.222	0.009
-517.902	-126.750	0.075	-0.011
-516.887	-200.000	-0.069	-0.341
-515.872	-19.300	-0.348	-0.216
-514.858	-91.295	0.099	0.028
-513.843	81.817	-0.117	-0.126
-512.829	-13.327	-0.273	-0.177
-511.814	15.906	0.188	0.148
-510.799	-90.539	-0.239	-0.069
-509.785	800.000	0.046	-0.176
-508.770	-9.163	-0.127	-0.085
-507.756	-111.259	-0.152	-0.031
-506.741	-140.245	-0.201	-0.021
-505.726	796.492	0.060	-0.164
-504.712	-117.979	-0.285	-0.051
-503.697	-194.173	0.249	-0.002
-502.683	-68.218	0.096	0.037
-501.668	-65.125	0.414	0.167
-500.653	163.479	0.165	-0.231
-499.639	800.000	-0.062	-0.191
-498.624	265.826	0.044	-0.076
-497.610	-163.171	-0.087	0.004
-496.595	-125.408	0.378	-0.058
-495.581	97.218	0.030	0.034
-494.566	-42.980	-0.102	0.052
-493.551	55.021	0.255	0.246
-492.537	6.926	-0.244	-0.182
-491.522	-200.000	0.025	0.154
-490.508	346.865	0.132	-0.260
-489.493	89.674	-0.276	-0.307
-488.478	-40.901	0.118	0.061
-487.464	-87.937	-0.405	0.121
-486.449	96.174	-0.111	0.126
-485.435	-200.000	0.032	-0.177
-484.420	-1.000	0.156	-0.110
-483.405	570.307	0.036	0.088
-482.391	25.601	0.160	0.133
-481.376	182.755	0.056	0.083
-480.362	-77.110	0.279	-0.097
-479.347	-200.000	-0.013	-0.279
-478.332	800.000	0.026	0.090
-477.318	800.000	-0.089	-0.368
-476.303	-105.558	-0.119	0.027
-475.289	48.177	-0.082	0.076
-474.274	21.126	-0.134	0.108
-473.259	-171.026	0.331	-0.011
-472.245	800.000	-0.073	0.284
-471.230	5.766	-0.179	0.132
-470.216	-64.975	0.203	0.082
-469.201	535.419	-0.066	-0.156
-468.186	237.923	0.134	0.221
-467.172	800.000	-0.039	0.147
-466.157	-124.018	0.283	0.044
-465.143	-200.000	-0.013	0.058
-464.128	-46.284	-0.513	0.252
-463.113	-200.000	0.014	0.339
-462.099	-4.226	0.163	0.113
-461.084	10.713	-0.432	0.328
-460.070	-106.583	0.258	0.057
-459.055	33.511	0.174	-0.150
-458.040	-45.430	-0.098	-0.048
-457.026	800.000	-0.032	0.092
-456.011	570.870	0.139	0.338
-454.997	-200.000	-0.025	-0.242
-453.982	-200.000	0.017	0.149
-452.968	-64.289	0.119	0.048
-451.953	-200.000	0.015	0.242
-450.938	11.428	0.273	-0.209
-449.924	-105.602	-0.176	0.040
-448.909	397.241	0.043	0.089
-447.895	-135.470	0.377	-0.045
-446.880	-200.000	-0.060	-0.287
-445.865	-200.000	-0.003	0.039
-444.851	800.000	-0.006	-0.022
-443.836	272.237	0.131	0.230
-442.822	250.175	-0.209	-0.354
-441.807	445.582	0.051	0.111
-440.792	420.339	-0.134	0.287
-439.778	446.965	0.066	-0.144
-438.763	-80.286	-0.118	0.039
-437.749	-10.325	-0.270	0.179
-436.734	-57.115	-0.158	-0.069
-435.719	227.949	-0.253	0.410
-434.705	157.827	0.128	0.176
-433.690	114.703	0.091	0.110
-432.676	-9.573	0.125	-0.083
-431.661	-200.000	-0.049	-0.289
-430.646	67.707	0.253	-0.257
-429.632	367.675	0.085	-0.172
-428.617	126.727	-0.118	-0.149
-427.603	-200.000	0.016	0.144
-426.588	-138.603	-0.330	-0.036
-425.573	8.492	0.259	0.194
-424.559	-149.541	0.109	-0.009
-423.544	183.988	-0.103	-0.152
-422.530	-56.683	0.066	-0.029
-421.515	251.069	-0.087	-0.147
-420.500	-200.000	0.025	-0.207
-419.486	-72.387	0.213	0.078
-418.471	1.646	0.039	-0.028
-417.457	397.168	0.219	0.457
-416.442	-200.000	-0.006	0.172
-415.428	461.010	-0.140	-0.311
-414.413	-91.590	0.314	-0.089
-413.398	208.916	-0.096	0.149
-412.384	-91.639	0.292	-0.083
-411.369	-137.510	0.340	-0.038
-410.355	-123.026	-0.161	0.026
-409.340	-107.338	0.184	0.040
-408.325	114.976	-0.117	-0.142
-407.311	-6.126	-0.150	0.102
-406.296	30.459	-0.035	-0.030
-405.282	-88.912	-0.347	0.102
-404.267	-200.000	-0.089	0.496
-403.252	-127.322	-0.216	-0.031
-402.238	307.556	0.057	-0.105
-401.223	88.410	-0.036	0.040
-400.209	800.000	-0.057	0.198
-399.194	23.955	0.300	-0.246
-398.179	-5.355	0.140	0.096
-397.165	800.000	0.017	0.059
-396.150	-200.000	-0.022	0.396
-395.136	-200.000	-0.031	-0.208
-394.121	-25.319	-0.322	0.189
-393.106	-59.318	0.182	0.078
-392.092	40.595	0.144	0.129
-391.077	-20.706	0.264	0.161
-390.063	115.845	-0.206	0.251
-389.048	-115.783	0.535	-0.100
-388.033	-200.000	0.048	-0.237
-387.019	-44.952	-0.275	-0.136
-386.004	-200.000	-0.004	0.067
-384.990	-166.254	-0.216	-0.009
-383.975	-88.900	0.314	-0.093
-382.960	-94.414	-0.168	-0.046
-381.946	56.841	-0.117	0.113
-380.931	293.195	-0.029	-0.053
-379.917	-118.361	-0.184	-0.032
-378.902	-200.000	-0.040	-0.188
-377.888	225.211	-0.070	0.113
-376.873	-49.841	-0.123	-0.058
-375.858	4.013	0.092	-0.067
-374.844	-111.561	-0.131	-0.026
-373.829	175.828	-0.220	-0.318
-372.815	87.408	0.026	0.028
-371.800	-53.650	0.096	-0.044
-370.785	-93.406	0.236	0.065
-369.771	83.184	-0.299	0.324
-368.756	313.637	0.099	0.185
-367.742	410.315	0.166	-0.350
-366.727	63.297	-0.137	-0.136
-365.712	71.197	0.101	-0.104
-364.698	-12.557	-0.153	0.099
-363.683	560.745	-0.179	0.430
-362.669	-55.613	0.272	0.121
-361.654	-111.253	0.031	0.006
-360.639	-200.000	-0.002	0.145
-359.625	28.837	-0.502	0.423
-358.610	19.323	-0.107	-0.085
-357.596	-96.664	0.185	0.048
-356.581	-179.663	-0.302	0.007
-355.566	-48.651	-0.155	0.074
-354.552	-43.212	-0.273	-0.137
-353.537	224.724	0.154	0.248
-352.523	800.000	0.059	0.225
-351.508	-55.977	-0.198	-0.088
-350.493	421.815	-0.111	0.237
-349.479	27.245	0.175	-0.146
-348.464	-200.000	0.071	-0.329
-347.450	-21.950	-0.112	0.068
-346.435	-120.202	-0.050	0.008
-345.420	-1.517	-0.483	0.338
-344.406	48.270	-0.189	0.176
-343.391	-41.030	-0.186	-0.095
-342.377	246.518	0.100	0.168
-341.362	89.359	0.119	-0.132
-340.348	800.000	0.050	0.203
-339.333	238.819	0.195	0.322
-338.318	-44.376	0.110	-0.055
-337.304	45.395	-0.088	0.080
-336.289	238.186	0.072	-0.119
-335.275	-11.950	-0.207	0.135
-334.260	-157.906	-0.172	-0.010
-333.245	788.617	-0.073	0.198
-332.231	12.559	0.071	-0.054
-331.216	399.617	-0.169	-0.352
-330.202	-110.302	0.195	-0.040
-329.187	-17.261	0.231	0.144
-328.172	-71.294	-0.260	-0.097
-327.158	-200.000	-0.005	0.196
-326.143	-200.000	0.011	-0.195
-325.129	-200.000	0.021	-0.149
-324.114	588.876	-0.053	0.130
-323.099	800.000	-0.091	-0.270
-322.085	-61.109	0.281	-0.118
-321.070	800.000	-0.018	0.055
-320.056	46.500	-0.317	-0.292
-319.041	23.238	0.104	-0.085
-318.026	-200.000	0.023	-0.110
-317.012	-45.616	-0.158	-0.077
-315.997	-75.688	0.382	0.135
-314.983	-36.905	-0.231	-0.123
-313.968	222.658	0.156	-0.249
-312.953	-71.961	0.352	-0.130
-311.939	800.000	0.108	0.353
-310.924	561.937	0.087	0.209
-309.910	331.024	0.145	-0.277
-308.895	-200.000	-0.010	-0.091
-307.880	28.647	-0.229	0.192
-306.866	-96.627	-0.273	-0.071
-305.851	-144.930	0.149	0.013
-304.837	-51.042	0.139	0.065
-303.822	-200.000	0.054	0.402
-302.807	-143.840	0.418	-0.039
-301.793	-29.037	-0.029	0.017
-300.778	-200.000	-0.006	0.159
-299.764	-200.000	-0.054	-0.293
-298.749	-200.000	0.034	-0.534
-297.735	-109.747	0.148	-0.031
-296.720	66.414	0.214	0.215
-295.705	481.585	0.131	-0.295
-294.691	-112.663	0.251	0.049
-293.676	-62.336	-0.034	-0.014
-292.662	18.905	0.160	0.127
-291.647	224.871	0.024	-0.039
-290.632	131.796	-0.075	-0.095
-289.618	291.096	0.037	0.067
-288.603	243.281	0.115	-0.190
-287.589	73.849	-0.308	0.320
-286.574	-8.774	-0.348	0.232
-285.559	-52.198	0.101	-0.046
-284.545	-6.990	-0.133	-0.089
-283.530	800.000	0.011	-0.035
-282.516	91.868	0.172	-0.192
-281.501	673.707	-0.052	-0.133
-280.486	-54.668	0.296	0.133
-279.472	-200.000	0.050	-0.237
-278.457	633.175	-0.080	0.201
-277.443	800.000	-0.048	0.148
-276.428	-200.000	0.002	0.218
-275.413	17.024	0.241	0.189
-274.399	-41.405	-0.208	-0.106
-273.384	-200.000	0.020	-0.205
-272.370	-133.343	-0.305	-0.038
-271.355	148.911	0.144	0.193
-270.340	42.829	-0.146	-0.132
-269.326	165.975	0.150	0.210
-268.311	-200.000	-0.011	0.091
-267.297	306.310	0.014	-0.026
-266.282	-200.000	0.006	0.092
-265.267	800.000	0.104	0.327
-264.253	-200.000	-0.012	0.239
-263.238	-56.023	-0.072	-0.032
-262.224	52.551	-0.074	-0.070
-261.209	203.134	-0.046	-0.071
-260.195	390.564	0.044	-0.090
-259.180	800.000	-0.057	-0.237
-258.165	-139.472	0.285	0.030
-257.151	285.955	0.081	-0.144
-256.136	-200.000	0.006	0.091
-255.122	-200.000	0.020	-0.140
-254.107	-200.000	0.001	0.097
-253.092	541.720	-0.194	0.457
-252.078	90.362	0.312	0.346
-251.063	242.758	0.139	-0.231
-250.049	4.776	-0.103	0.075
-249.034	-200.000	-0.005	-0.058
-248.019	-17.295	-0.434	0.271
-247.005	28.259	0.096	-0.080
-245.990	-26.514	0.111	0.065
-244.976	-21.019	-0.157	0.095
-243.961	800.000	-0.026	0.073
-242.946	-200.000	0.012	-0.222
-241.932	108.571	-0.017	0.020
-240.917	-138.822	-0.173	0.019
-239.903	-200.000	0.037	-0.165
-238.888	68.827	-0.101	0.103
-237.873	-133.808	0.268	-0.033
-236.859	-200.000	0.004	-0.143
-235.844	-43.747	-0.094	-0.047
-234.830	99.309	-0.139	0.159
-233.815	-200.000	-0.004	-0.163
-232.800	-93.315	-0.122	0.034
-231.786	-56.538	-0.500	0.219
-230.771	-65.729	0.406	-0.161
-229.757	512.510	-0.158	0.364
-228.742	92.001	-0.160	-0.178
-227.727	-200.000	-0.007	0.216
-226.713	-66.547	0.255	-0.100
-225.698	64.512	-0.311	-0.310
-224.684	-200.000	0.019	0.342
-223.669	-68.432	0.202	-0.078
-222.655	-200.000	-0.023	0.280
-221.640	236.939	-0.148	-0.242
-220.625	76.622	0.253	-0.265
-219.611	66.753	-0.329	0.330
-218.596	37.026	-0.137	-0.120
-217.582	73.784	-0.036	-0.038
-216.567	-200.000	-0.003	0.045
-215.552	800.000	0.074	-0.277
-214.538	79.006	-0.179	-0.189
-213.523	800.000	-0.052	0.199
-212.509	33.337	0.047	0.041
-211.494	-72.282	-0.260	-0.095
-210.479	109.489	-0.075	0.089
-209.465	-142.557	0.490	-0.047
-208.450	-95.553	-0.120	-0.032
-207.436	-200.000	0.003	0.099
-206.421	-47.251	-0.162	-0.078
-205.406	-66.838	0.254	-0.099
-204.392	47.549	-0.106	-0.097
-203.377	-200.000	-0.006	-0.217
-202.363	124.145	-0.096	0.119
-201.348	800.000	0.063	0.202
-200.333	256.082	-0.116	-0.196
-199.319	-45.066	0.097	-0.047
-198.304	-41.975	0.180	-0.091
-197.290	-200.000	-0.009	0.300
-196.275	49.860	0.113	0.105
-195.260	800.000	-0.062	-0.215
-194.246	-74.784	-0.275	-0.098
-193.231	408.961	0.171	0.358
-192.217	-57.190	0.236	0.103
-191.202	-1.260	0.179	-0.125
-190.187	-16.538	-0.161	0.100
-189.173	53.108	0.167	-0.158
-188.158	-142.275	-0.277	-0.027
-187.144	654.722	-0.042	-0.106
-186.129	258.295	-0.080	0.136
-185.114	-110.613	0.316	0.065
-184.100	-115.669	0.248	0.046
-183.085	-62.766	0.387	0.158
-182.071	-200.000	0.022	0.179
-181.056	-200.000	-0.051	-0.430
-180.042	15.739	-0.154	0.119
-179.027	-104.880	0.282	-0.064
-178.012	-200.000	-0.015	0.077
-176.998	421.436	0.050	-0.105
-175.983	25.699	-0.261	-0.214
-174.969	-82.713	0.167	-0.053
-173.954	-200.000	0.002	-0.107
-172.939	-85.544	0.252	0.077
-171.925	-72.786	-0.228	0.083
-170.910	250.095	0.224	0.374
-169.896	191.701	0.133	-0.197
-168.881	120.028	0.180	0.221
-167.866	-200.000	-0.017	-0.162
-166.852	393.832	0.010	-0.021
-165.837	-25.515	-0.172	0.100
-164.823	-82.951	-0.315	-0.100
-163.808	-129.981	-0.223	0.030
-162.793	-65.609	-0.037	0.015
-161.779	271.683	0.120	0.208
-160.764	-200.000	0.026	-0.353
-159.750	446.579	-0.081	-0.177
-158.735	-102.553	-0.147	-0.035
-157.720	178.642	0.036	-0.052
-156.706	-200.000	-0.014	-0.183
-155.691	-58.196	0.176	-0.075
-154.677	-161.488	0.351	0.018
-153.662	170.226	0.239	0.337
-152.647	800.000	0.126	-0.399
-151.633	166.922	0.034	-0.047
-150.618	569.644	0.160	0.383
-149.604	188.789	-0.096	0.141
-148.589	72.481	0.210	-0.216
-147.574	86.956	-0.241	0.262
-146.560	433.730	0.047	0.101
-145.545	461.907	0.119	-0.262
-144.531	-119.116	0.310	-0.053
-143.516	-106.604	-0.303	0.067
-142.502	-200.000	0.026	0.336
-141.487	-103.982	-0.134	-0.031
-140.472	-200.000	-0.019	0.393
-139.458	1.571	-0.151	0.107
-138.443	800.000	0.111	0.354
-137.429	800.000	-0.125	0.359
-136.414	-200.000	-0.084	-0.503
-135.399	-29.452	-0.102	-0.057
-134.385	34.244	-0.106	-0.091
-133.370	-34.206	0.104	0.056
-132.356	-14.886	-0.281	-0.177
-131.341	-1.773	0.266	-0.184
-130.326	800.000	0.076	0.239
-129.312	164.094	0.047	0.065
-128.297	800.000	0.019	-0.071
-127.283	328.855	-0.130	0.246
-126.268	404.615	-0.145	-0.301
-125.253	-200.000	0.045	0.273
-124.239	-200.000	-0.071	0.403
-123.224	-161.230	-0.354	-0.018
-122.210	-200.000	-0.007	-0.085
-121.195	256.654	0.247	0.417
