DTS Sentinel unit serial number:	SN413079Multiplexer serial number:	ORYXHardware model number:	OX4-SRSoftware version number:	ORYX F/W v4.00 Oryx Data Collector v3.7.2.0data status	okinstallation	princeton_trtdifferential loss correction	single-endedforward channel	channel 2reverse channel	N/Adate	2019/09/15time	10:35:34forward acquisition time	60.00reverse acquisition time	0.00gamma	496.2192k internal	0.2316k external	0.2316temperature offset calibration	1.0020default loss term (dB/km)	0.3790temperature slope calibration	1.0000multiplexer offset coefficient	1.0000multiplexer slope coefficient	1.0000fibre end	0.00T internal ref (°C)	34.25T ext. ref 1 (°C)	5.05T ext. ref 2 (°C)	29.52length (m)	temperature (°C)	Stokes	anti-Stokes-747.200	67.327	-0.228	0.235
-746.185	800.000	0.052	0.156
-745.171	-83.285	-0.125	0.041
-744.156	-200.000	-0.108	0.488
-743.142	421.253	0.176	0.382
-742.127	119.159	0.189	0.237
-741.112	-17.182	0.226	-0.144
-740.098	356.555	0.208	0.421
-739.083	-42.234	0.346	0.179
-738.069	61.302	-0.064	0.064
-737.054	-23.543	-0.114	-0.069
-736.039	381.948	0.075	-0.155
-735.025	-148.765	0.272	-0.022
-734.010	202.711	-0.039	-0.062
-732.996	800.000	-0.052	-0.219
-731.981	-71.463	-0.332	-0.126
-730.966	800.000	0.119	-0.379
-729.952	155.897	0.070	-0.097
-728.937	-52.776	0.286	-0.134
-727.923	-200.000	0.010	0.088
-726.908	-200.000	0.016	0.141
-725.894	-161.031	-0.506	0.027
-724.879	-57.640	-0.284	-0.126
-723.864	63.585	0.206	0.209
-722.850	67.647	-0.059	0.061
-721.835	-200.000	0.002	0.191
-720.821	-130.543	0.228	0.031
-719.806	268.188	0.055	-0.098
-718.791	-200.000	0.028	0.233
-717.777	50.471	-0.236	-0.226
-716.762	-141.963	0.155	0.016
-715.748	-73.304	0.052	0.019
-714.733	-200.000	-0.059	-0.312
-713.718	-74.604	0.216	-0.079
-712.704	-146.378	-0.179	0.016
-711.689	-98.058	-0.372	0.097
-710.675	-78.222	-0.268	0.093
-709.660	-59.813	0.252	-0.109
-708.645	-75.840	0.058	0.021
-707.631	-200.000	-0.024	-0.188
-706.616	213.050	0.064	0.103
-705.602	307.462	-0.105	-0.197
-704.587	45.600	-0.066	0.062
-703.572	152.771	-0.120	0.166
-702.558	-200.000	0.048	-0.331
-701.543	39.637	0.175	-0.159
-700.529	-200.000	0.002	-0.128
-699.514	-84.738	0.203	-0.064
-698.499	-24.340	0.039	-0.023
-697.485	-200.000	0.001	0.126
-696.470	-127.144	0.432	-0.064
-695.456	-83.681	0.227	-0.073
-694.441	800.000	-0.191	0.644
-693.426	-200.000	0.025	-0.241
-692.412	-124.249	0.117	-0.018
-691.397	-200.000	0.051	0.231
-690.383	-103.781	0.034	0.008
-689.368	-200.000	0.017	0.277
-688.354	-200.000	-0.024	0.143
-687.339	-200.000	0.036	-0.173
-686.324	74.848	0.197	-0.210
-685.310	800.000	-0.046	-0.135
-684.295	-122.944	0.222	0.036
-683.281	-168.949	0.160	-0.006
-682.266	-84.205	-0.234	-0.075
-681.251	-20.188	-0.300	-0.187
-680.237	636.265	0.020	-0.053
-679.222	106.651	0.147	0.176
-678.208	166.896	0.075	-0.108
-677.193	-200.000	0.004	0.116
-676.178	236.019	-0.092	0.154
-675.164	-84.273	0.113	0.036
-674.149	-80.006	-0.109	-0.037
-673.135	-135.163	-0.257	0.031
-672.120	-45.025	-0.138	0.069
-671.105	222.281	-0.137	-0.223
-670.091	-123.180	0.098	0.016
-669.076	-75.475	-0.430	-0.155
-668.062	-80.188	-0.180	0.061
-667.047	2.704	-0.268	0.197
-666.032	-107.502	-0.197	0.044
-665.018	-200.000	0.024	0.299
-664.003	-113.291	-0.108	-0.021
-662.989	-5.844	-0.056	-0.039
-661.974	-200.000	0.053	0.241
-660.959	-123.897	0.332	-0.053
-659.945	16.762	0.169	-0.135
-658.930	117.857	-0.097	-0.121
-657.916	124.681	-0.032	-0.040
-656.901	-87.039	0.126	-0.039
-655.886	-200.000	-0.191	-0.001
-654.872	-119.182	-0.199	-0.035
-653.857	-200.000	-0.020	-0.206
-652.843	21.354	-0.315	-0.258
-651.828	-200.000	0.008	-0.069
-650.814	-139.936	-0.156	-0.017
-649.799	-200.000	-0.006	0.171
-648.784	-89.251	-0.012	0.004
-647.770	2.802	-0.007	-0.005
-646.755	48.010	-0.103	-0.097
-645.741	-76.108	0.177	-0.063
-644.726	-55.354	0.408	0.185
-643.711	-144.188	-0.098	0.009
-642.697	-128.756	-0.104	-0.015
-641.682	-123.438	0.179	-0.029
-640.668	-200.000	-0.006	-0.199
-639.653	-200.000	0.026	0.191
-638.638	76.180	-0.147	-0.157
-637.624	800.000	0.045	-0.179
-636.609	74.818	-0.269	-0.286
-635.595	-81.547	0.078	0.026
-634.580	658.341	0.064	0.166
-633.565	800.000	-0.037	0.119
-632.551	13.647	-0.094	0.074
-631.536	-200.000	-0.036	0.324
-630.522	-47.772	-0.206	0.101
-629.507	-139.464	0.124	-0.013
-628.492	-33.654	-0.109	0.061
-627.478	200.867	0.266	-0.412
-626.463	-140.628	0.301	0.031
-625.449	-200.000	0.057	0.542
-624.434	-200.000	0.009	0.194
-623.419	-171.730	-0.432	-0.014
-622.405	-200.000	0.038	0.190
-621.390	-87.255	-0.357	0.109
-620.376	-121.722	-0.420	-0.070
-619.361	800.000	0.088	-0.273
-618.346	-83.484	-0.223	-0.072
-617.332	15.387	-0.263	-0.208
-616.317	29.500	-0.088	0.076
-615.303	61.359	0.178	-0.178
-614.288	-81.176	0.166	-0.055
-613.273	-114.707	-0.225	0.043
-612.259	-143.604	-0.172	0.016
-611.244	120.399	0.205	0.257
-610.230	-146.930	-0.186	-0.016
-609.215	-110.687	0.131	0.027
-608.201	-200.000	-0.028	-0.296
-607.186	33.397	-0.258	-0.225
-606.171	24.109	-0.165	-0.137
-605.157	-34.864	-0.064	-0.035
-604.142	800.000	-0.036	-0.137
-603.128	269.297	0.018	0.032
-602.113	54.552	0.065	0.063
-601.098	67.053	0.248	0.254
-600.084	106.149	-0.057	0.068
-599.069	122.516	0.120	0.151
-598.055	11.638	0.069	-0.053
-597.040	59.058	0.044	-0.044
-596.025	-200.000	0.017	-0.229
-595.011	-145.403	-0.254	0.023
-593.996	-109.449	-0.381	-0.081
-592.982	-29.024	-0.142	-0.082
-591.967	-162.024	-0.354	0.018
-590.952	-54.984	0.244	-0.111
-589.938	-120.185	0.071	-0.012
-588.923	-31.113	0.180	0.102
-587.909	745.598	0.025	-0.067
-586.894	-34.631	-0.248	0.137
-585.879	100.168	-0.109	-0.128
-584.865	27.793	-0.253	-0.215
-583.850	-200.000	0.027	-0.151
-582.836	609.830	0.184	-0.462
-581.821	54.742	-0.063	0.061
-580.806	-200.000	-0.019	0.207
-579.792	25.463	-0.300	0.251
-578.777	-130.182	0.183	0.025
-577.763	-200.000	-0.010	-0.073
-576.748	-200.000	-0.002	0.201
-575.733	-51.778	-0.060	-0.028
-574.719	-94.458	-0.266	0.073
-573.704	-158.468	-0.280	0.016
-572.690	800.000	0.148	-0.433
-571.675	-82.675	-0.164	0.053
-570.661	-112.906	-0.263	-0.052
-569.646	-5.125	0.118	-0.082
-568.631	159.541	-0.140	0.196
-567.617	-120.319	0.364	-0.062
-566.602	-200.000	-0.007	-0.142
-565.588	-200.000	-0.028	0.410
-564.573	-116.135	0.292	-0.055
-563.558	189.176	0.055	0.082
-562.544	-200.000	0.041	-0.220
-561.529	-106.188	-0.362	0.082
-560.515	-200.000	0.039	-0.210
-559.500	-19.495	-0.093	0.058
-558.485	155.997	0.090	0.125
-557.471	460.741	0.136	-0.305
-556.456	153.129	-0.093	-0.128
-555.442	172.411	-0.093	0.134
-554.427	136.413	0.072	0.094
-553.412	800.000	0.126	-0.413
-552.398	467.404	0.039	0.088
-551.383	-132.543	0.134	-0.017
-550.369	-200.000	0.039	0.296
-549.354	615.668	0.035	0.087
-548.339	800.000	0.016	0.054
-547.325	800.000	-0.063	0.222
-546.310	-65.716	0.220	-0.088
-545.296	-55.264	0.387	0.175
-544.281	800.000	0.026	0.079
-543.266	-110.598	0.055	-0.011
-542.252	317.821	0.125	-0.238
-541.237	-17.115	0.053	-0.033
-540.223	-200.000	0.000	-0.220
-539.208	-12.113	0.306	-0.201
-538.193	-200.000	0.047	0.219
-537.179	53.602	0.194	0.187
-536.164	800.000	0.050	-0.186
-535.150	-130.946	0.098	-0.013
-534.135	-200.000	0.018	-0.102
-533.121	800.000	-0.021	-0.068
-532.106	-173.697	-0.304	0.009
-531.091	-142.025	-0.294	0.029
-530.077	-145.244	0.115	-0.010
-529.062	-200.000	0.006	0.172
-528.048	206.753	0.075	0.117
-527.033	100.535	0.062	0.072
-526.018	-108.826	-0.241	0.052
-525.004	74.265	0.012	0.012
-523.989	12.430	0.103	-0.080
-522.975	800.000	0.064	-0.236
-521.960	-141.257	0.472	0.048
-520.945	-103.799	0.229	-0.054
-519.931	-200.000	-0.014	0.300
-518.916	800.000	-0.088	0.310
-517.902	-92.870	-0.100	-0.028
-516.887	189.454	-0.028	-0.043
-515.872	-23.853	-0.406	0.244
-514.858	-38.149	-0.291	-0.155
-513.843	-98.391	0.222	-0.057
-512.829	380.524	-0.096	-0.198
-511.814	-99.182	-0.040	-0.010
-510.799	-100.803	-0.089	0.022
-509.785	800.000	-0.065	0.225
-508.770	340.204	0.013	-0.025
-507.756	-114.351	-0.350	0.068
-506.741	200.837	0.096	-0.148
-505.726	-9.016	0.114	0.077
-504.712	-5.975	0.230	0.158
-503.697	800.000	0.009	-0.028
-502.683	-7.413	-0.180	0.122
-501.668	-200.000	-0.023	-0.142
-500.653	-11.955	-0.185	0.121
-499.639	-200.000	-0.016	-0.124
-498.624	-18.885	-0.274	-0.171
-497.610	-74.273	0.233	-0.085
-496.595	-125.009	-0.159	-0.025
-495.581	800.000	0.041	-0.161
-494.566	-100.731	0.126	0.031
-493.551	800.000	-0.082	-0.272
-492.537	-123.556	0.295	0.047
-491.522	292.099	0.080	0.147
-490.508	-67.518	-0.247	-0.097
-489.493	208.786	0.095	-0.150
-488.478	-60.745	0.279	-0.119
-487.464	-7.038	0.143	0.097
-486.449	-200.000	-0.077	0.373
-485.435	-200.000	-0.031	0.299
-484.420	-104.495	0.120	-0.028
-483.405	743.165	-0.049	-0.133
-482.391	-84.706	-0.059	0.019
-481.376	800.000	0.007	0.019
-480.362	-91.407	-0.327	0.094
-479.347	289.825	0.077	-0.140
-478.332	-132.825	0.275	-0.035
-477.318	800.000	0.092	0.275
-476.303	-200.000	0.010	-0.219
-475.289	-71.937	-0.133	-0.050
-474.274	6.967	0.346	-0.258
-473.259	-9.373	0.167	-0.112
-472.245	-164.695	-0.302	0.014
-471.230	459.980	0.227	-0.507
-470.216	63.056	0.055	0.055
-469.201	-200.000	0.003	-0.095
-468.186	-94.107	0.346	-0.095
-467.172	-66.260	-0.234	-0.093
-466.157	-106.327	-0.108	0.024
-465.143	349.584	0.084	0.166
-464.128	-84.126	0.143	0.046
-463.113	-200.000	-0.013	-0.067
-462.099	800.000	-0.021	-0.071
-461.084	-200.000	-0.013	0.166
-460.070	269.717	0.111	0.195
-459.055	45.894	-0.191	-0.177
-458.040	-144.159	-0.158	0.015
-457.026	-90.137	0.068	-0.020
-456.011	800.000	0.005	-0.021
-454.997	800.000	-0.040	-0.144
-453.982	63.161	0.215	-0.216
-452.968	800.000	-0.054	0.171
-451.953	207.907	-0.229	-0.359
-450.938	-200.000	0.031	-0.252
-449.924	228.726	-0.033	-0.054
-448.909	-77.547	-0.307	-0.106
-447.895	45.015	-0.316	-0.291
-446.880	-200.000	-0.017	-0.086
-445.865	800.000	0.067	-0.289
-444.851	-32.116	0.143	0.080
-443.836	49.042	0.261	-0.245
-442.822	713.714	0.073	-0.194
-441.807	-46.900	0.101	0.050
-440.792	89.088	0.143	-0.159
-439.778	-200.000	-0.090	0.476
-438.763	-26.413	-0.414	0.243
-437.749	-21.412	0.055	0.034
-436.734	130.678	-0.144	0.184
-435.719	415.521	-0.049	0.105
-434.705	-154.888	-0.068	-0.005
-433.690	-96.498	0.047	-0.012
-432.676	-200.000	0.046	-0.266
-431.661	307.460	-0.123	-0.230
-430.646	443.917	-0.016	-0.035
-429.632	250.223	-0.120	-0.204
-428.617	-56.361	-0.145	0.065
-427.603	-200.000	0.017	0.306
-426.588	176.961	0.031	-0.045
-425.573	-99.321	-0.174	-0.044
-424.559	-27.685	0.078	0.045
-423.544	58.112	-0.189	-0.185
-422.530	-43.039	-0.154	0.078
-421.515	9.772	0.214	0.162
-420.500	13.213	0.144	0.112
-419.486	39.680	0.091	-0.081
-418.471	-11.500	0.044	0.029
-417.457	-200.000	0.019	-0.212
-416.442	-200.000	0.007	-0.075
-415.428	-200.000	0.057	-0.280
-414.413	-86.828	-0.321	-0.098
-413.398	-34.817	0.281	0.153
-412.384	800.000	0.113	0.412
-411.369	212.196	-0.195	0.307
-410.355	-200.000	-0.066	0.391
-409.340	-25.343	-0.241	0.143
-408.325	-200.000	0.011	-0.098
-407.311	-170.225	0.437	-0.015
-406.296	800.000	0.109	0.397
-405.282	-200.000	-0.007	0.237
-404.267	-200.000	-0.003	0.445
-403.252	325.046	-0.069	0.132
-402.238	-82.639	0.050	-0.016
-401.223	746.156	0.095	-0.255
-400.209	800.000	0.014	0.057
-399.194	292.688	-0.148	-0.270
-398.179	-200.000	0.031	-0.146
-397.165	478.622	0.129	0.293
-396.150	-200.000	-0.008	-0.058
-395.136	67.152	0.057	-0.058
-394.121	98.407	0.135	-0.156
-393.106	-99.632	0.169	0.042
-392.092	-43.165	-0.172	-0.087
-391.077	-2.169	0.295	0.207
-390.063	-113.842	0.280	0.054
-389.048	-81.956	-0.219	-0.071
-388.033	-144.141	0.242	-0.023
-387.019	-97.645	-0.363	0.094
-386.004	-137.804	-0.255	-0.029
-384.990	-68.413	-0.153	-0.059
-383.975	-200.000	-0.018	0.241
-382.960	-151.794	-0.158	-0.012
-381.946	1.057	0.201	0.144
-380.931	496.452	0.084	-0.192
-379.917	-116.695	-0.294	0.054
-378.902	800.000	0.058	-0.176
-377.888	-200.000	-0.000	0.064
-376.873	-124.280	0.214	-0.033
-375.858	386.609	-0.073	-0.151
-374.844	280.698	-0.096	0.171
-373.829	-126.862	0.193	-0.028
-372.815	-38.977	-0.247	-0.130
-371.800	6.583	-0.170	0.126
-370.785	10.794	-0.095	-0.072
-369.771	800.000	-0.010	0.029
-368.756	29.670	-0.120	-0.102
-367.742	138.669	0.168	-0.220
-366.727	-185.572	-0.097	-0.001
-365.712	628.061	0.011	0.027
-364.698	7.598	-0.227	0.170
-363.683	800.000	-0.044	0.176
-362.669	-200.000	0.033	0.244
-361.654	-146.155	-0.019	-0.002
-360.639	-70.033	0.049	-0.019
-359.625	3.692	0.202	-0.147
-358.610	179.808	0.174	-0.255
-357.596	-179.342	0.266	-0.006
-356.581	-99.285	-0.160	0.040
-355.566	271.547	-0.144	0.252
-354.552	742.303	-0.062	0.166
-353.537	-200.000	-0.023	-0.311
-352.523	248.759	-0.081	-0.138
-351.508	149.777	0.159	0.215
-350.493	800.000	0.077	0.251
-349.479	-52.107	0.359	-0.166
-348.464	321.449	0.114	0.217
-347.450	128.535	-0.211	-0.268
-346.435	-66.908	-0.212	0.083
-345.420	-200.000	-0.002	-0.301
-344.406	724.076	-0.086	0.229
-343.391	309.062	0.126	0.234
-342.377	369.559	-0.020	0.040
-341.362	-112.376	-0.146	0.029
-340.348	-200.000	0.004	-0.126
-339.333	-200.000	0.196	-0.000
-338.318	-34.655	-0.189	0.103
-337.304	-69.253	-0.345	0.132
-336.289	699.614	0.063	-0.166
-335.275	-154.445	0.019	-0.001
-334.260	-96.556	-0.034	0.009
-333.245	42.559	-0.104	-0.095
-332.231	-200.000	-0.024	0.296
-331.216	10.596	0.092	0.070
-330.202	125.354	0.192	-0.241
-329.187	82.183	0.373	-0.403
-328.172	800.000	0.024	-0.094
-327.158	800.000	0.037	0.135
-326.143	473.237	0.049	0.109
-325.129	223.627	-0.075	0.121
-324.114	-200.000	0.026	0.204
-323.099	-26.221	0.363	-0.213
-322.085	125.300	-0.084	-0.105
-321.070	-9.498	0.129	0.085
-320.056	-200.000	0.009	-0.086
-319.041	-31.830	-0.192	-0.107
-318.026	-51.358	-0.330	-0.154
-317.012	116.012	0.112	0.137
-315.997	145.524	0.070	0.094
-314.983	53.523	0.173	-0.165
-313.968	-72.656	-0.282	0.104
-312.953	441.835	-0.063	-0.138
-311.939	-74.178	-0.229	-0.082
-310.924	-200.000	-0.055	-0.272
-309.910	200.510	0.234	0.358
-308.895	229.469	0.112	0.182
-307.880	-38.757	-0.367	-0.193
-306.866	473.512	-0.131	-0.293
-305.851	-95.764	0.131	0.035
-304.837	143.368	-0.108	-0.143
-303.822	51.331	0.092	-0.087
-302.807	-91.512	-0.238	-0.068
-301.793	200.191	0.091	0.140
-300.778	295.236	-0.060	0.110
-299.764	-82.653	-0.472	0.152
-298.749	-200.000	-0.021	0.205
-297.735	-200.000	0.022	-0.213
-296.720	-200.000	0.020	-0.331
-295.705	-109.603	-0.202	-0.042
-294.691	-122.232	0.264	-0.043
-293.676	210.638	0.183	-0.287
-292.662	41.370	-0.187	0.168
-291.647	-1.537	0.355	0.249
-290.632	-149.223	-0.312	0.025
-289.618	-29.075	0.278	0.159
-288.603	-115.700	-0.065	-0.012
-287.589	19.650	-0.054	-0.043
-286.574	46.843	-0.139	0.128
-285.559	-104.379	-0.095	0.022
-284.545	597.417	0.077	0.190
-283.530	259.462	-0.042	-0.073
-282.516	-35.032	-0.293	0.159
-281.501	-142.429	-0.194	0.019
-280.486	127.065	0.429	-0.541
-279.472	-136.714	-0.191	0.022
-278.457	87.446	-0.172	-0.189
-277.443	-2.656	0.206	-0.143
-276.428	737.915	0.008	0.021
-275.413	388.355	0.113	-0.233
-274.399	114.524	0.032	0.038
-273.384	-200.000	0.016	0.112
-272.370	-68.208	-0.274	0.106
-271.355	37.367	-0.099	0.087
-270.340	-77.041	-0.172	-0.060
-269.326	-102.054	0.184	-0.044
-268.311	-18.438	0.144	0.089
-267.297	34.097	-0.121	-0.105
-266.282	24.008	-0.006	-0.005
-265.267	-108.684	-0.025	0.005
-264.253	781.508	-0.086	-0.233
-263.238	86.790	0.173	0.189
-262.224	38.591	0.060	-0.053
-261.209	-135.215	0.163	0.019
-260.195	-100.120	-0.220	-0.054
-259.180	-200.000	-0.003	0.331
-258.165	-76.145	0.168	0.059
-257.151	245.165	0.072	0.121
-256.136	-27.192	-0.127	0.073
-255.122	454.590	0.095	-0.209
-254.107	-12.545	0.175	0.114
-253.092	-200.000	-0.042	0.276
-252.078	10.018	0.187	0.141
-251.063	-94.827	-0.198	-0.053
-250.049	-65.554	-0.332	-0.132
-249.034	-40.046	-0.131	0.068
-248.019	-200.000	0.005	-0.130
-247.005	63.896	0.297	0.297
-245.990	800.000	-0.014	-0.049
-244.976	-115.195	0.333	-0.063
-243.961	48.809	0.117	0.109
-242.946	-200.000	-0.078	0.404
-241.932	36.329	0.189	0.166
-240.917	600.483	0.161	0.398
-239.903	-127.532	0.469	-0.068
-238.888	257.868	-0.127	-0.218
-237.873	23.364	0.168	0.138
-236.859	-77.205	0.456	-0.158
-235.844	37.965	-0.223	0.197
-234.830	800.000	0.025	0.085
-233.815	-200.000	0.000	0.347
-232.800	481.613	0.163	0.367
-231.786	-65.105	0.255	-0.102
-230.771	17.322	0.232	0.183
-229.757	-13.556	-0.405	0.261
-228.742	-5.979	-0.159	0.108
-227.727	-33.350	0.125	0.068
-226.713	-85.845	0.392	0.121
-225.698	-80.185	-0.175	0.058
-224.684	211.048	0.174	-0.271
-223.669	800.000	0.063	-0.206
-222.655	49.001	0.375	-0.350
-221.640	-200.000	0.056	-0.274
-220.625	800.000	-0.045	-0.123
-219.611	-82.170	-0.133	-0.043
-218.596	9.791	-0.020	0.015
-217.582	-200.000	-0.065	0.361
-216.567	16.840	0.144	0.113
-215.552	19.805	0.082	-0.066
-214.538	90.841	0.198	-0.221
-213.523	-200.000	-0.038	-0.236
-212.509	-200.000	0.001	0.267
-211.494	12.054	-0.286	0.219
-210.479	-141.830	-0.166	0.016
-209.465	689.174	0.052	-0.135
-208.450	-130.255	-0.175	0.024
-207.436	-66.236	-0.061	0.024
-206.421	-133.067	-0.045	-0.006
-205.406	322.440	0.182	0.344
-204.392	348.211	0.028	-0.056
-203.377	800.000	0.034	-0.119
-202.363	-150.289	0.283	-0.022
-201.348	-115.665	0.227	0.042
-200.333	223.485	0.105	0.167
-199.319	166.422	-0.077	0.108
-198.304	354.935	0.087	-0.172
-197.290	234.551	0.100	0.164
-196.275	152.172	-0.084	0.113
-195.260	-84.882	-0.206	0.064
-194.246	-200.000	-0.032	-0.267
-193.231	-200.000	-0.058	-0.000
-192.217	-119.009	0.178	-0.031
-191.202	-122.382	-0.151	0.024
-190.187	-200.000	0.008	0.099
-189.173	372.310	-0.075	-0.150
-188.158	-133.606	0.103	-0.013
-187.144	-149.062	-0.167	-0.013
-186.129	109.382	0.115	-0.137
-185.114	142.182	0.194	0.255
-184.100	-51.919	0.254	-0.117
-183.085	116.495	-0.164	-0.200
-182.071	-200.000	-0.004	-0.185
-181.056	19.421	-0.138	-0.110
-180.042	-30.993	-0.067	-0.037
-179.027	-81.342	0.094	-0.031
-178.012	-66.718	0.202	-0.079
-176.998	45.659	-0.271	0.248
-175.983	27.104	0.317	-0.263
-174.969	270.033	0.144	0.251
-173.954	-26.627	-0.073	0.042
-172.939	14.459	0.255	0.197
-171.925	28.030	-0.193	-0.162
-170.910	-48.315	0.278	0.133
-169.896	-200.000	0.040	0.195
-168.881	163.071	-0.227	-0.316
-167.866	-95.208	0.147	-0.039
-166.852	7.768	-0.166	-0.123
-165.837	-200.000	-0.005	-0.050
-164.823	54.804	-0.075	0.071
-163.808	-1.170	0.235	0.164
-162.793	239.366	-0.057	-0.094
-161.779	800.000	0.006	0.027
-160.764	800.000	0.088	-0.293
-159.750	-76.475	0.150	0.052
-158.735	159.245	-0.073	-0.100
-157.720	-200.000	-0.045	0.247
-156.706	134.653	-0.165	-0.212
-155.691	209.782	0.074	-0.116
-154.677	258.521	0.093	0.159
-153.662	-50.247	-0.339	-0.159
-152.647	800.000	0.039	0.126
-151.633	-115.999	-0.448	0.083
-150.618	-103.677	-0.448	-0.104
-149.604	76.491	0.079	-0.083
-148.589	178.988	-0.100	-0.145
-147.574	553.807	0.214	0.510
-146.560	104.373	0.154	-0.180
-145.545	-13.345	-0.429	-0.275
-144.531	-42.921	0.119	-0.060
-143.516	624.339	0.062	-0.154
-142.502	175.968	0.061	0.088
-141.487	17.659	0.204	-0.160
-140.472	-168.787	-0.165	0.006
-139.458	130.027	0.114	0.145
-138.443	347.206	-0.092	0.179
-137.429	800.000	0.074	-0.218
-136.414	134.306	-0.026	0.033
-135.399	446.466	0.057	0.125
-134.385	473.807	-0.077	-0.172
-133.370	-16.871	0.132	0.083
-132.356	329.824	-0.052	0.100
-131.341	-132.042	0.255	0.033
-130.326	-8.043	0.170	0.114
-129.312	-200.000	-0.022	0.212
-128.297	-7.755	-0.248	-0.166
-127.283	295.470	-0.170	-0.307
-126.268	-38.799	-0.136	-0.071
-125.253	-23.076	-0.384	-0.229
-124.239	26.438	0.192	-0.159
-123.224	-200.000	-0.031	0.297
-122.210	-97.760	0.322	-0.082
