DTS Sentinel unit serial number:	SN413079Multiplexer serial number:	ORYXHardware model number:	OX4-SRSoftware version number:	ORYX F/W v4.00 Oryx Data Collector v3.7.2.0data status	okinstallation	princeton_trtdifferential loss correction	single-endedforward channel	channel 2reverse channel	N/Adate	2019/09/17time	00:55:35forward acquisition time	60.00reverse acquisition time	0.00gamma	496.2192k internal	0.2329k external	0.2329temperature offset calibration	0.9972default loss term (dB/km)	0.3790temperature slope calibration	1.0000multiplexer offset coefficient	1.0000multiplexer slope coefficient	1.0000fibre end	0.00T internal ref (°C)	29.44T ext. ref 1 (°C)	0.10T ext. ref 2 (°C)	24.09length (m)	temperature (°C)	Stokes	anti-Stokes-747.200	307.173	0.155	-0.291
-746.185	22.071	-0.079	0.065
-745.171	544.741	0.138	-0.332
-744.156	-85.197	-0.383	0.121
-743.142	-49.638	-0.401	-0.192
-742.127	113.116	0.365	0.446
-741.112	88.181	-0.140	-0.157
-740.098	-164.060	-0.315	-0.015
-739.083	493.143	-0.064	0.147
-738.069	90.657	-0.162	0.183
-737.054	193.003	0.043	-0.066
-736.039	-130.333	-0.231	0.032
-735.025	-34.998	0.113	-0.062
-734.010	-200.000	0.057	-0.333
-732.996	-25.251	-0.165	-0.098
-731.981	653.057	0.019	0.048
-730.966	-26.533	-0.207	-0.122
-729.952	467.449	0.035	0.078
-728.937	-81.484	0.110	-0.037
-727.923	-200.000	-0.010	-0.152
-726.908	-105.733	0.095	0.022
-725.894	-115.852	-0.144	0.027
-724.879	-85.198	0.267	-0.084
-723.864	3.065	-0.332	-0.243
-722.850	-56.805	0.201	-0.089
-721.835	-157.909	0.169	0.010
-720.821	-121.679	-0.124	0.021
-719.806	800.000	-0.047	-0.160
-718.791	-200.000	-0.034	-0.308
-717.777	800.000	-0.081	0.260
-716.762	-54.937	-0.097	0.044
-715.748	800.000	0.073	-0.238
-714.733	-56.969	0.244	-0.108
-713.718	-74.807	0.125	0.045
-712.704	14.998	0.094	-0.074
-711.689	54.258	0.186	-0.180
-710.675	12.313	-0.254	-0.197
-709.660	800.000	-0.054	0.183
-708.645	-200.000	-0.002	0.208
-707.631	800.000	0.009	0.027
-706.616	-200.000	0.078	0.451
-705.602	457.818	0.194	-0.433
-704.587	52.359	-0.087	-0.083
-703.572	325.054	0.153	0.295
-702.558	364.745	-0.085	0.173
-701.543	800.000	0.093	0.271
-700.529	20.638	0.170	0.138
-699.514	-41.805	0.231	-0.119
-698.499	389.749	-0.045	-0.094
-697.485	262.023	-0.174	-0.303
-696.470	-52.000	-0.230	-0.107
-695.456	-200.000	0.064	-0.356
-694.441	212.393	-0.232	0.368
-693.426	-200.000	-0.007	0.072
-692.412	-18.351	-0.110	0.069
-691.397	-154.451	-0.192	-0.013
-690.383	800.000	0.061	-0.205
-689.368	46.230	0.128	0.119
-688.354	21.032	-0.145	0.119
-687.339	667.191	-0.104	-0.270
-686.324	-200.000	0.063	-0.667
-685.310	464.519	0.030	-0.067
-684.295	628.728	-0.058	-0.146
-683.281	-200.000	-0.006	-0.102
-682.266	-109.548	-0.177	-0.038
-681.251	800.000	0.155	0.472
-680.237	100.719	0.092	0.107
-679.222	534.508	-0.169	0.402
-678.208	-8.905	-0.157	-0.106
-677.193	-144.932	0.080	0.007
-676.178	-200.000	0.033	-0.269
-675.164	16.863	-0.119	0.095
-674.149	195.880	-0.042	0.064
-673.135	-100.979	-0.101	-0.025
-672.120	106.929	0.162	-0.193
-671.105	7.508	-0.127	-0.095
-670.091	25.447	0.163	0.136
-669.076	-200.000	0.034	-0.167
-668.062	38.678	-0.041	-0.037
-667.047	-140.072	0.214	0.023
-666.032	-200.000	0.005	0.202
-665.018	800.000	-0.033	-0.105
-664.003	800.000	0.095	-0.374
-662.989	-200.000	0.039	-0.345
-661.974	800.000	-0.069	-0.227
-660.959	21.503	0.295	0.241
-659.945	-20.792	-0.248	-0.153
-658.930	22.786	0.380	0.313
-657.916	800.000	-0.120	-0.338
-656.901	-6.860	0.183	0.125
-655.886	-200.000	0.029	-0.265
-654.872	800.000	0.028	-0.102
-653.857	800.000	0.035	-0.137
-652.843	204.625	0.155	0.242
-651.828	9.714	-0.106	0.080
-650.814	-200.000	0.024	-0.272
-649.799	800.000	-0.038	0.131
-648.784	48.189	0.197	0.185
-647.770	48.587	-0.201	-0.189
-646.755	323.897	0.088	-0.169
-645.741	800.000	-0.128	-0.387
-644.726	-200.000	-0.010	0.081
-643.711	800.000	-0.081	0.324
-642.697	-80.102	0.130	-0.044
-641.682	800.000	0.133	-0.402
-640.668	800.000	0.144	0.430
-639.653	-35.381	-0.277	-0.151
-638.638	-143.965	-0.374	-0.035
-637.624	197.406	0.175	0.267
-636.609	342.475	0.078	-0.153
-635.595	800.000	-0.054	0.217
-634.580	-47.198	-0.220	0.107
-633.565	37.174	-0.098	0.087
-632.551	-54.123	-0.229	-0.105
-631.536	215.331	-0.103	0.164
-630.522	800.000	-0.069	-0.241
-629.507	145.712	-0.060	0.080
-628.492	489.353	0.053	-0.121
-627.478	-95.907	0.088	0.023
-626.463	318.898	-0.076	-0.145
-625.449	2.679	0.121	-0.088
-624.434	-200.000	-0.005	0.092
-623.419	800.000	0.090	0.287
-622.405	-93.172	0.095	-0.027
-621.390	13.728	0.170	0.133
-620.376	252.995	0.104	-0.178
-619.361	-117.072	-0.148	-0.027
-618.346	-91.065	0.595	0.171
-617.332	-174.679	-0.064	-0.002
-616.317	-200.000	0.037	-0.381
-615.303	-83.125	-0.067	0.021
-614.288	800.000	-0.091	-0.283
-613.273	-141.416	-0.043	-0.004
-612.259	-121.916	-0.073	0.012
-611.244	-148.191	-0.507	-0.042
-610.230	399.291	-0.050	-0.106
-609.215	429.719	0.102	-0.222
-608.201	67.281	0.117	-0.119
-607.186	-21.578	0.154	0.094
-606.171	-12.919	-0.201	-0.131
-605.157	-78.920	-0.383	-0.131
-604.142	-38.979	-0.211	0.111
-603.128	-200.000	0.038	0.215
-602.113	-7.717	0.426	0.288
-601.098	35.423	-0.185	0.163
-600.084	-119.166	-0.186	-0.033
-599.069	265.963	-0.096	-0.168
-598.055	-200.000	0.028	-0.252
-597.040	-77.925	0.081	0.028
-596.025	360.387	-0.103	-0.207
-595.011	276.399	-0.036	0.064
-593.996	-187.130	-0.062	0.001
-592.982	588.916	0.084	-0.208
-591.967	-200.000	-0.002	-0.087
-590.952	-200.000	0.019	-0.216
-589.938	-200.000	-0.024	-0.122
-588.923	584.552	-0.074	0.182
-587.909	-200.000	-0.003	-0.021
-586.894	-141.692	-0.078	-0.008
-585.879	-200.000	-0.037	-0.163
-584.865	800.000	-0.019	0.059
-583.850	174.807	-0.182	0.264
-582.836	7.349	-0.219	0.164
-581.821	-200.000	0.039	-0.191
-580.806	-107.376	-0.067	0.015
-579.792	800.000	0.081	0.271
-578.777	132.136	0.088	0.113
-577.763	800.000	-0.013	-0.052
-576.748	49.509	-0.339	0.319
-575.733	800.000	-0.100	0.280
-574.719	-200.000	-0.058	-0.393
-573.704	-108.369	-0.249	-0.054
-572.690	332.195	-0.190	-0.367
-571.675	195.888	0.044	0.067
-570.661	-147.959	0.213	0.018
-569.646	109.531	-0.123	0.148
-568.631	-36.983	0.101	-0.054
-567.617	656.196	-0.071	-0.182
-566.602	-153.026	-0.243	-0.017
-565.588	349.274	-0.172	0.340
-564.573	-200.000	0.016	0.125
-563.558	-86.331	-0.192	0.059
-562.544	-87.768	0.184	-0.055
-561.529	-65.141	0.154	-0.062
-560.515	-55.979	0.152	-0.068
-559.500	359.646	0.047	0.094
-558.485	41.141	0.127	0.115
-557.471	106.002	0.284	0.336
-556.456	40.582	0.145	0.130
-555.442	800.000	-0.078	0.281
-554.427	-159.746	0.064	0.004
-553.412	48.959	-0.098	0.092
-552.398	800.000	0.060	0.174
-551.383	-200.000	-0.039	0.209
-550.369	-23.529	0.250	0.150
-549.354	303.256	-0.040	-0.075
-548.339	29.110	0.155	-0.132
-547.325	-81.367	-0.283	0.093
-546.310	48.128	-0.072	-0.067
-545.296	-200.000	0.043	-0.400
-544.281	-162.461	0.173	0.009
-543.266	-25.882	-0.195	0.115
-542.252	-200.000	0.052	0.334
-541.237	-6.032	-0.087	-0.059
-540.223	238.294	0.153	-0.253
-539.208	22.329	0.150	0.123
-538.193	-75.199	0.160	-0.057
-537.179	800.000	-0.007	0.021
-536.164	-55.800	0.226	-0.101
-535.150	68.817	0.094	-0.097
-534.135	-120.690	0.284	0.048
-533.121	800.000	-0.045	-0.126
-532.106	-178.633	0.160	0.004
-531.091	-98.869	-0.205	-0.052
-530.077	800.000	0.079	-0.228
-529.062	77.178	0.014	0.015
-528.048	-21.681	-0.132	-0.081
-527.033	-200.000	0.004	-0.149
-526.018	41.193	-0.079	-0.071
-525.004	-103.715	0.081	-0.019
-523.989	-200.000	0.005	0.102
-522.975	7.760	-0.267	-0.199
-521.960	-108.139	0.370	0.080
-520.945	-182.871	-0.291	-0.005
-519.931	151.994	-0.055	0.075
-518.916	800.000	-0.049	-0.145
-517.902	47.377	-0.072	-0.067
-516.887	-200.000	-0.003	0.160
-515.872	238.367	0.116	-0.192
-514.858	24.332	-0.039	0.032
-513.843	-200.000	-0.036	-0.360
-512.829	-200.000	0.053	-0.407
-511.814	-10.599	-0.242	0.160
-510.799	196.633	-0.031	-0.047
-509.785	-55.360	-0.255	-0.114
-508.770	-35.321	-0.228	-0.124
-507.756	346.465	0.072	0.141
-506.741	319.606	0.166	-0.315
-505.726	-133.414	0.036	0.005
-504.712	-65.162	-0.040	0.016
-503.697	-98.318	-0.232	0.059
-502.683	460.820	-0.124	-0.275
-501.668	800.000	0.021	-0.087
-500.653	-200.000	-0.004	0.203
-499.639	-200.000	0.059	-0.376
-498.624	800.000	0.095	-0.348
-497.610	170.162	-0.072	0.103
-496.595	800.000	-0.135	-0.397
-495.581	800.000	-0.086	0.343
-494.566	-30.802	-0.295	-0.166
-493.551	-6.975	-0.285	-0.193
-492.537	-5.693	-0.159	0.109
-491.522	800.000	-0.037	0.135
-490.508	-77.018	0.013	-0.005
-489.493	152.144	-0.297	0.405
-488.478	-159.251	0.407	0.023
-487.464	130.680	-0.164	0.209
-486.449	-14.935	0.200	0.128
-485.435	725.489	0.118	-0.315
-484.420	252.088	0.236	-0.401
-483.405	20.940	0.081	0.065
-482.391	30.532	0.226	0.192
-481.376	246.476	-0.041	0.069
-480.362	10.032	0.087	0.066
-479.347	-18.608	-0.151	0.094
-478.332	241.135	0.113	0.188
-477.318	-124.568	-0.522	-0.081
-476.303	-193.465	0.090	-0.001
-475.289	-200.000	0.082	0.496
-474.274	0.098	0.069	-0.049
-473.259	-55.272	-0.224	-0.100
-472.245	-200.000	0.025	-0.232
-471.230	-96.538	-0.245	-0.064
-470.216	30.958	0.247	-0.211
-469.201	-109.512	0.359	-0.076
-468.186	345.213	0.283	-0.554
-467.172	0.911	0.109	-0.078
-466.157	9.630	0.076	0.058
-465.143	-89.714	0.133	-0.039
-464.128	73.905	0.103	-0.108
-463.113	-200.000	-0.169	-0.001
-462.099	-102.344	0.242	0.058
-461.084	-49.482	0.132	0.063
-460.070	-200.000	-0.013	0.221
-459.055	-38.143	-0.132	0.070
-458.040	357.372	-0.170	0.338
-457.026	23.764	-0.118	0.097
-456.011	-60.525	0.056	-0.024
-454.997	-45.938	0.362	-0.178
-453.982	109.113	-0.062	-0.074
-452.968	-103.028	-0.277	0.066
-451.953	49.574	-0.131	-0.123
-450.938	-72.298	0.065	0.024
-449.924	-200.000	0.027	-0.310
-448.909	-200.000	-0.001	-0.268
-447.895	-104.242	-0.123	-0.028
-446.880	39.930	0.235	0.210
-445.865	216.043	-0.147	-0.232
-444.851	-48.097	0.257	0.124
-443.836	-120.316	0.298	0.051
-442.822	-200.000	0.043	-0.216
-441.807	334.359	-0.116	0.224
-440.792	500.148	-0.112	-0.258
-439.778	-188.630	0.214	0.003
-438.763	270.825	0.106	-0.186
-437.749	-8.090	0.091	0.061
-436.734	336.173	-0.123	-0.237
-435.719	434.796	0.074	0.161
-434.705	-146.543	0.317	-0.027
-433.690	800.000	-0.086	0.312
-432.676	-87.187	0.437	-0.132
-431.661	-12.266	-0.179	0.117
-430.646	440.853	-0.074	0.161
-429.632	-10.550	0.166	-0.109
-428.617	39.977	0.163	0.145
-427.603	203.876	-0.156	-0.240
-426.588	800.000	-0.080	0.253
-425.573	-200.000	-0.046	0.208
-424.559	-50.115	-0.034	-0.016
-423.544	85.601	0.064	0.070
-422.530	-200.000	-0.063	-0.302
-421.515	-50.731	0.099	0.046
-420.500	-154.683	0.100	0.007
-419.486	657.605	0.047	-0.121
-418.471	800.000	0.079	0.246
-417.457	44.326	-0.311	0.284
-416.442	-0.293	0.221	0.156
-415.428	-116.842	0.195	0.036
-414.413	138.896	-0.204	0.267
-413.398	-200.000	-0.034	0.179
-412.384	38.967	0.051	-0.045
-411.369	456.373	0.217	-0.478
-410.355	-200.000	-0.002	0.126
-409.340	-200.000	-0.031	0.312
-408.325	246.659	-0.172	-0.288
-407.311	12.391	0.192	-0.147
-406.296	-42.982	0.254	0.128
-405.282	-200.000	-0.005	0.144
-404.267	8.688	0.089	0.067
-403.252	511.356	-0.154	-0.357
-402.238	-96.394	-0.058	-0.015
-401.223	-21.234	-0.263	0.160
-400.209	114.724	0.111	-0.134
-399.194	-72.654	-0.160	-0.059
-398.179	800.000	-0.025	-0.076
-397.165	800.000	-0.049	0.142
-396.150	-200.000	-0.102	0.446
-395.136	-200.000	-0.024	0.232
-394.121	-200.000	-0.004	0.074
-393.106	-82.076	0.304	-0.099
-392.092	-200.000	-0.031	-0.308
-391.077	131.539	-0.029	-0.038
-390.063	-200.000	0.069	-0.309
-389.048	28.914	0.270	-0.228
-388.033	33.871	-0.079	0.068
-387.019	404.141	0.074	0.155
-386.004	795.052	-0.067	0.182
-384.990	574.991	0.104	-0.252
-383.975	438.854	0.003	0.006
-382.960	-107.234	-0.308	0.067
-381.946	-125.041	0.165	0.025
-380.931	-200.000	0.013	-0.115
-379.917	-25.908	-0.238	0.139
-378.902	103.442	0.085	-0.099
-377.888	16.292	-0.049	-0.038
-376.873	227.103	-0.103	0.166
-375.858	134.658	0.097	-0.124
-374.844	-14.378	-0.114	-0.073
-373.829	-105.170	0.379	-0.086
-372.815	270.740	0.057	0.100
-371.800	-200.000	-0.061	0.473
-370.785	92.274	-0.183	-0.205
-369.771	800.000	-0.018	-0.060
-368.756	29.353	-0.173	0.146
-367.742	-33.986	0.369	0.202
-366.727	-152.887	0.418	0.029
-365.712	-19.155	-0.291	-0.179
-364.698	-200.000	0.003	0.302
-363.683	100.196	0.161	-0.185
-362.669	-200.000	0.005	0.105
-361.654	-157.889	0.236	-0.014
-360.639	-44.212	-0.259	-0.129
-359.625	-138.751	0.169	0.018
-358.610	337.322	0.176	-0.339
-357.596	-200.000	0.018	0.399
-356.581	140.883	-0.081	0.106
-355.566	17.031	-0.079	0.062
-354.552	-85.939	0.249	0.076
-353.537	377.572	0.135	0.273
-352.523	-200.000	-0.041	0.598
-351.508	-96.880	-0.582	0.152
-350.493	373.382	-0.186	0.375
-349.479	-108.689	-0.346	-0.074
-348.464	713.140	0.035	-0.092
-347.450	-99.392	0.124	0.031
-346.435	172.758	-0.191	0.272
-345.420	-44.660	0.220	-0.109
-344.406	-200.000	-0.077	-0.352
-343.391	206.260	-0.107	-0.165
-342.377	23.696	-0.211	0.172
-341.362	511.892	0.071	0.163
-340.348	527.189	-0.072	-0.168
-339.333	-200.000	-0.016	-0.192
-338.318	257.390	-0.140	0.238
-337.304	-32.844	-0.127	-0.070
-336.289	800.000	-0.080	-0.273
-335.275	56.926	-0.099	-0.096
-334.260	-180.301	-0.245	-0.005
-333.245	-85.156	0.136	0.042
-332.231	800.000	0.065	-0.245
-331.216	-134.015	0.131	0.016
-330.202	-57.643	-0.040	-0.018
-329.187	109.835	0.205	-0.244
-328.172	74.675	-0.178	0.186
-327.158	121.000	-0.084	-0.104
-326.143	265.729	0.133	0.230
-325.129	154.570	0.259	-0.353
-324.114	-31.098	0.336	-0.188
-323.099	-21.494	0.134	0.081
-322.085	800.000	-0.012	0.032
-321.070	-200.000	-0.003	-0.084
-320.056	-200.000	0.006	0.373
-319.041	-127.453	-0.050	-0.007
-318.026	630.537	-0.024	0.060
-317.012	-130.538	-0.308	0.041
-315.997	116.885	0.128	-0.155
-314.983	41.370	0.087	-0.078
-313.968	-148.909	-0.436	-0.035
-312.953	-88.627	0.285	-0.084
-311.939	-49.620	0.118	0.055
-310.924	800.000	-0.187	0.673
-309.910	-36.308	0.056	0.030
-308.895	145.066	-0.152	0.202
-307.880	-200.000	0.005	0.189
-306.866	-1.661	-0.144	-0.100
-305.851	-109.061	-0.120	-0.025
-304.837	-12.244	0.060	0.039
-303.822	-200.000	0.035	-0.301
-302.807	133.043	0.140	-0.179
-301.793	-101.400	-0.433	-0.104
-300.778	-27.525	-0.188	-0.108
-299.764	-200.000	-0.041	0.318
-298.749	9.137	0.046	0.034
-297.735	-85.667	-0.184	0.056
-296.720	285.315	0.183	0.327
-295.705	166.176	0.252	0.354
-294.691	-113.703	0.193	0.037
-293.676	106.711	0.078	0.092
-292.662	800.000	-0.055	-0.209
-291.647	-200.000	0.001	-0.209
-290.632	50.465	-0.156	-0.146
-289.618	282.089	-0.043	0.077
-288.603	-119.606	0.223	-0.038
-287.589	690.669	-0.012	0.030
-286.574	-200.000	-0.027	-0.364
-285.559	49.949	0.246	-0.230
-284.545	669.656	0.083	-0.212
-283.530	125.329	-0.138	0.172
-282.516	800.000	0.108	0.298
-281.501	401.284	0.118	0.244
-280.486	800.000	0.096	-0.278
-279.472	-132.651	0.146	-0.019
-278.457	138.642	0.146	-0.189
-277.443	392.581	0.266	0.547
-276.428	41.898	-0.312	0.280
-275.413	723.577	-0.097	-0.256
-274.399	86.327	0.176	-0.192
-273.384	-23.349	0.187	0.111
-272.370	138.930	-0.193	0.251
-271.355	-95.165	-0.279	0.074
-270.340	107.022	0.167	-0.196
-269.326	57.165	-0.279	0.269
-268.311	23.445	-0.168	0.136
-267.297	-200.000	-0.002	0.238
-266.282	-66.970	0.112	-0.044
-265.267	-121.313	0.179	-0.030
-264.253	-52.693	-0.314	0.143
-263.238	18.612	-0.309	-0.244
-262.224	414.314	-0.176	-0.371
-261.209	-41.958	-0.026	0.013
-260.195	258.031	0.130	-0.221
-259.180	-12.090	-0.079	-0.051
-258.165	800.000	-0.054	-0.169
-257.151	800.000	-0.057	-0.223
-256.136	-200.000	-0.011	0.131
-255.122	471.683	0.061	0.136
-254.107	36.437	-0.181	0.157
-253.092	800.000	-0.124	0.360
-252.078	27.861	0.084	-0.070
-251.063	800.000	-0.070	0.210
-250.049	-107.313	0.164	0.036
-249.034	-110.229	-0.173	0.036
-248.019	800.000	-0.064	0.192
-247.005	545.728	0.137	0.323
-245.990	-102.070	0.144	-0.034
-244.976	-83.658	-0.086	0.027
-243.961	140.739	-0.126	-0.164
-242.946	482.606	-0.215	-0.483
-241.932	252.246	0.032	-0.054
-240.917	-200.000	-0.019	-0.096
-239.903	-200.000	0.042	-0.255
-238.888	-91.104	0.314	0.089
-237.873	800.000	0.036	0.113
-236.859	-200.000	-0.007	0.035
-235.844	1.049	-0.227	0.161
-234.830	-200.000	-0.030	0.287
-233.815	-60.028	-0.185	-0.078
-232.800	-108.199	0.315	0.067
-231.786	-200.000	0.030	-0.219
-230.771	-99.786	-0.323	0.080
-229.757	-25.931	-0.290	-0.168
-228.742	67.438	0.237	-0.239
-227.727	-31.562	-0.294	-0.163
-226.713	-92.755	-0.067	-0.019
-225.698	296.291	0.232	-0.421
-224.684	-63.061	-0.267	-0.109
-223.669	-9.633	0.189	0.124
-222.655	800.000	0.065	0.211
-221.640	-155.281	0.035	-0.002
-220.625	-53.461	0.079	0.036
-219.611	76.430	0.225	0.235
-218.596	800.000	0.107	0.438
-217.582	57.369	0.175	-0.169
-216.567	-200.000	0.025	0.144
-215.552	-60.552	-0.157	-0.066
-214.538	-53.721	0.146	-0.066
-213.523	800.000	0.051	0.216
-212.509	125.863	0.131	-0.164
-211.494	131.341	-0.115	0.145
-210.479	800.000	-0.010	-0.042
-209.465	749.194	0.023	-0.062
-208.450	-122.446	0.320	-0.051
-207.436	-102.758	0.281	0.066
-206.421	-200.000	0.003	0.092
-205.406	-200.000	-0.035	0.190
-204.392	-200.000	-0.033	0.260
-203.377	6.216	-0.078	-0.057
-202.363	794.743	-0.098	-0.265
-201.348	-145.355	-0.045	0.004
-200.333	-52.397	0.266	-0.121
-199.319	276.740	-0.125	-0.219
-198.304	-144.852	0.237	-0.021
-197.290	-136.354	0.184	-0.021
-196.275	-134.728	-0.199	-0.024
-195.260	57.762	-0.176	0.169
-194.246	1.558	0.332	0.236
-193.231	60.145	0.256	0.249
-192.217	-200.000	0.041	-0.290
-191.202	512.584	-0.089	-0.205
-190.187	8.003	-0.261	-0.193
-189.173	-42.763	-0.218	-0.109
-188.158	-200.000	-0.059	-0.368
-187.144	-139.525	-0.254	0.027
-186.129	-200.000	-0.013	-0.168
-185.114	800.000	0.022	0.069
-184.100	-108.686	0.133	0.028
-183.085	-123.078	-0.315	0.050
-182.071	-93.555	-0.304	-0.083
-181.056	-45.054	-0.210	-0.103
-180.042	197.677	0.104	-0.157
-179.027	800.000	-0.051	0.181
-178.012	144.338	0.187	0.246
-176.998	245.210	-0.125	0.207
-175.983	-200.000	-0.048	-0.347
-174.969	55.452	-0.016	0.015
-173.954	-111.653	0.251	0.050
-172.939	-7.960	-0.232	-0.154
-171.925	39.749	0.259	-0.229
-170.910	800.000	0.041	-0.156
-169.896	-27.605	-0.026	-0.015
-168.881	-77.011	0.071	0.024
-167.866	69.965	0.032	-0.032
-166.852	-157.357	0.375	-0.022
-165.837	-25.090	0.239	-0.139
-164.823	9.188	0.276	0.206
-163.808	10.913	-0.152	0.115
-162.793	-200.000	0.042	0.185
-161.779	37.946	0.062	0.054
-160.764	-200.000	-0.002	0.321
-159.750	17.918	0.181	-0.142
-158.735	800.000	0.067	0.201
-157.720	-36.162	0.298	0.158
-156.706	-105.322	0.459	-0.103
-155.691	-169.950	-0.233	-0.008
-154.677	-4.640	-0.126	-0.086
-153.662	74.993	-0.146	0.151
-152.647	127.311	-0.123	-0.154
-151.633	800.000	0.069	0.251
-150.618	800.000	-0.073	0.281
-149.604	-90.642	0.277	-0.079
-148.589	76.430	0.095	0.099
-147.574	800.000	0.068	0.231
-146.560	0.690	-0.124	0.088
-145.545	-85.925	0.173	-0.053
-144.531	242.354	-0.131	0.216
-143.516	-200.000	0.047	0.260
-142.502	123.536	-0.188	-0.232
-141.487	59.109	0.204	-0.197
-140.472	-200.000	0.061	0.411
-139.458	-8.593	0.430	-0.284
-138.443	-200.000	-0.039	-0.241
-137.429	-200.000	-0.041	-0.243
-136.414	-108.254	0.192	0.041
-135.399	-77.866	-0.260	0.088
-134.385	-200.000	-0.007	0.224
-133.370	-94.260	-0.068	0.018
-132.356	73.858	-0.089	0.092
-131.341	-200.000	-0.015	0.242
-130.326	-200.000	0.017	-0.216
-129.312	-200.000	-0.023	-0.099
-128.297	-46.377	0.303	0.146
-127.283	560.935	-0.117	-0.277
-126.268	55.518	-0.116	-0.111
-125.253	-27.451	0.095	-0.054
-124.239	-200.000	0.005	-0.181
-123.224	800.000	-0.057	0.157
-122.210	-125.687	0.351	0.052
-121.195	56.287	-0.206	-0.196
