DTS Sentinel unit serial number:	SN413079Multiplexer serial number:	ORYXHardware model number:	OX4-SRSoftware version number:	ORYX F/W v4.00 Oryx Data Collector v3.7.2.0data status	okinstallation	princeton_trtdifferential loss correction	single-endedforward channel	channel 2reverse channel	N/Adate	2019/09/12time	02:25:11forward acquisition time	60.00reverse acquisition time	0.00gamma	496.2192k internal	0.2326k external	0.2326temperature offset calibration	1.0089default loss term (dB/km)	0.3790temperature slope calibration	1.0000multiplexer offset coefficient	1.0000multiplexer slope coefficient	1.0000fibre end	0.00T internal ref (°C)	32.52T ext. ref 1 (°C)	2.08T ext. ref 2 (°C)	27.10length (m)	temperature (°C)	Stokes	anti-Stokes-747.200	800.000	-0.032	0.137
-746.185	35.262	0.098	0.087
-745.171	-64.311	-0.150	-0.062
-744.156	-70.180	0.146	-0.056
-743.142	-200.000	-0.003	-0.084
-742.127	-200.000	-0.048	0.313
-741.112	-200.000	-0.014	-0.112
-740.098	800.000	0.145	0.437
-739.083	477.227	0.151	0.345
-738.069	-96.205	-0.280	0.075
-737.054	248.390	-0.063	-0.107
-736.039	-200.000	-0.012	0.265
-735.025	-200.000	0.003	0.037
-734.010	226.296	-0.245	-0.400
-732.996	-4.606	0.095	-0.066
-731.981	-200.000	0.038	0.336
-730.966	6.136	-0.275	0.205
-729.952	-71.682	0.166	-0.063
-728.937	479.711	0.053	0.122
-727.923	800.000	0.030	-0.088
-726.908	190.459	-0.398	-0.602
-725.894	-119.131	-0.450	0.079
-724.879	-48.932	-0.075	0.036
-723.864	-123.571	0.271	0.043
-722.850	621.340	-0.041	0.105
-721.835	-200.000	-0.023	-0.348
-720.821	-8.698	0.279	-0.189
-719.806	211.130	0.093	-0.148
-718.791	-37.672	0.051	0.027
-717.777	256.703	0.100	0.173
-716.762	-63.045	-0.158	-0.066
-715.748	493.595	0.103	0.238
-714.733	-200.000	-0.024	0.312
-713.718	15.678	0.076	-0.060
-712.704	-200.000	-0.025	-0.227
-711.689	800.000	-0.034	0.137
-710.675	370.686	0.150	0.306
-709.660	-54.213	-0.166	0.076
-708.645	-125.838	-0.560	-0.085
-707.631	800.000	0.079	0.283
-706.616	-200.000	0.006	0.107
-705.602	666.874	0.100	0.259
-704.587	30.373	0.157	-0.135
-703.572	430.462	-0.076	0.167
-702.558	338.501	0.101	-0.199
-701.543	800.000	-0.077	-0.230
-700.529	235.189	0.123	-0.205
-699.514	800.000	-0.050	0.192
-698.499	232.785	0.044	0.072
-697.485	-200.000	-0.040	0.384
-696.470	-20.343	0.167	0.104
-695.456	-200.000	0.026	-0.172
-694.441	152.793	0.109	0.150
-693.426	125.521	-0.130	-0.166
-692.412	-138.136	-0.217	-0.024
-691.397	800.000	-0.074	0.327
-690.383	-130.481	0.113	0.015
-689.368	-38.425	-0.241	-0.128
-688.354	-37.453	0.117	0.063
-687.339	-136.032	0.119	0.014
-686.324	-101.689	-0.055	0.013
-685.310	-97.311	0.151	-0.040
-684.295	76.549	0.158	-0.169
-683.281	-66.913	-0.057	0.023
-682.266	157.942	-0.184	-0.256
-681.251	95.602	0.442	-0.507
-680.237	20.641	0.122	-0.099
-679.222	-140.663	0.324	-0.034
-678.208	800.000	0.020	-0.080
-677.193	5.976	0.387	0.288
-676.178	16.413	0.106	-0.084
-675.164	119.069	0.031	0.038
-674.149	-43.210	-0.408	-0.208
-673.135	63.699	0.130	-0.131
-672.120	-200.000	-0.043	-0.411
-671.105	191.447	-0.106	0.161
-670.091	-142.700	-0.125	0.012
-669.076	-28.172	-0.106	-0.062
-668.062	184.850	0.102	0.152
-667.047	800.000	0.045	-0.130
-666.032	-200.000	-0.002	-0.594
-665.018	-152.287	0.364	0.026
-664.003	-112.109	-0.223	-0.045
-662.989	-61.176	-0.076	0.032
-661.974	-56.883	-0.279	0.124
-660.959	62.045	0.184	-0.185
-659.945	-193.886	0.190	0.002
-658.930	-16.476	0.064	-0.041
-657.916	-46.011	-0.237	-0.118
-656.901	-124.984	0.170	0.026
-655.886	-48.242	-0.168	-0.082
-654.872	-107.700	-0.070	0.015
-653.857	153.200	-0.168	-0.231
-652.843	-200.000	-0.005	-0.288
-651.828	-42.164	-0.209	-0.107
-650.814	-62.601	-0.175	-0.073
-649.799	352.421	-0.112	-0.224
-648.784	-175.537	-0.070	0.002
-647.770	463.239	-0.168	0.377
-646.755	800.000	0.012	0.041
-645.741	100.951	-0.074	0.087
-644.726	-200.000	0.029	-0.232
-643.711	492.009	-0.208	-0.478
-642.697	800.000	0.086	0.265
-641.682	391.495	0.171	0.357
-640.668	20.487	0.161	0.130
-639.653	167.193	-0.003	0.004
-638.638	114.815	0.059	0.073
-637.624	353.242	-0.037	0.073
-636.609	-40.443	0.108	0.057
-635.595	-63.157	0.284	0.118
-634.580	-77.505	-0.242	0.084
-633.565	5.030	-0.118	-0.087
-632.551	-50.681	0.140	0.066
-631.536	-200.000	0.043	0.243
-630.522	-163.163	-0.064	0.003
-629.507	-9.125	-0.121	-0.082
-628.492	277.192	-0.065	-0.117
-627.478	134.695	0.314	-0.409
-626.463	800.000	-0.091	-0.277
-625.449	718.194	-0.051	-0.136
-624.434	-55.232	-0.167	-0.075
-623.419	-87.235	-0.406	0.124
-622.405	-200.000	0.266	0.000
-621.390	-36.667	-0.295	0.159
-620.376	-167.367	0.191	0.008
-619.361	-200.000	0.014	-0.247
-618.346	-200.000	-0.004	-0.060
-617.332	102.482	0.193	0.226
-616.317	-72.783	-0.441	-0.163
-615.303	-34.677	-0.202	0.111
-614.288	800.000	0.052	-0.221
-613.273	11.542	-0.255	-0.196
-612.259	24.009	-0.049	0.041
-611.244	-50.930	0.216	-0.102
-610.230	-200.000	0.006	0.061
-609.215	-200.000	0.015	-0.325
-608.201	800.000	0.055	-0.172
-607.186	-64.615	-0.173	-0.071
-606.171	311.077	0.125	0.236
-605.157	-128.198	0.315	-0.045
-604.142	-145.427	-0.138	-0.012
-603.128	28.483	0.216	-0.183
-602.113	-200.000	-0.038	-0.197
-601.098	800.000	-0.056	-0.157
-600.084	71.427	0.263	0.274
-599.069	159.382	-0.129	-0.180
-598.055	-138.165	-0.296	-0.033
-597.040	46.002	0.035	-0.033
-596.025	-120.720	-0.357	0.060
-595.011	-200.000	-0.038	-0.544
-593.996	-78.579	0.227	-0.078
-592.982	-200.000	0.050	-0.298
-591.967	221.143	-0.256	-0.412
-590.952	-58.024	-0.139	-0.061
-589.938	-200.000	-0.001	-0.030
-588.923	220.128	-0.092	-0.147
-587.909	-200.000	0.000	-0.203
-586.894	403.854	0.112	0.237
-585.879	-200.000	0.031	-0.139
-584.865	465.125	-0.141	0.316
-583.850	-7.085	0.105	-0.071
-582.836	-200.000	0.005	-0.127
-581.821	-142.660	0.238	0.023
-580.806	155.024	-0.061	-0.084
-579.792	-51.344	-0.228	0.107
-578.777	-200.000	-0.012	0.113
-577.763	-66.475	0.159	-0.063
-576.748	-54.456	0.250	0.113
-575.733	-102.284	0.135	0.033
-574.719	640.939	0.022	-0.057
-573.704	233.461	0.272	-0.449
-572.690	-104.026	-0.107	-0.025
-571.675	-200.000	-0.009	0.158
-570.661	343.641	0.165	0.323
-569.646	-47.458	-0.028	0.014
-568.631	-46.313	-0.256	-0.126
-567.617	82.156	0.114	0.123
-566.602	285.671	-0.141	-0.254
-565.588	-200.000	-0.001	-0.153
-564.573	-200.000	0.045	0.286
-563.558	77.158	0.184	-0.196
-562.544	199.876	-0.033	0.050
-561.529	-61.437	0.183	0.077
-560.515	-200.000	-0.006	-0.140
-559.500	-136.413	0.260	-0.030
-558.485	-191.404	-0.055	0.001
-557.471	-84.635	-0.201	-0.064
-556.456	629.414	-0.021	-0.052
-555.442	29.009	-0.193	-0.164
-554.427	-183.113	-0.153	-0.003
-553.412	117.559	0.109	-0.135
-552.398	800.000	0.148	-0.455
-551.383	74.461	0.147	-0.155
-550.369	-109.540	-0.165	-0.035
-549.354	-80.796	0.284	0.094
-548.339	-132.537	0.355	0.046
-547.325	246.261	0.032	-0.054
-546.310	-185.319	0.214	-0.003
-545.296	354.328	0.043	-0.086
-544.281	-106.419	0.330	-0.074
-543.266	800.000	-0.022	0.094
-542.252	-120.745	0.280	-0.047
-541.237	-125.606	0.167	0.025
-540.223	-200.000	0.002	-0.064
-539.208	-200.000	0.034	-0.345
-538.193	-200.000	0.008	0.250
-537.179	60.264	-0.154	0.153
-536.164	137.418	0.156	-0.204
-535.150	-200.000	0.019	-0.128
-534.135	-84.531	0.361	0.114
-533.121	-42.323	-0.168	0.086
-532.106	99.101	0.166	0.191
-531.091	3.858	0.201	-0.147
-530.077	44.286	0.144	0.132
-529.062	-82.169	-0.316	-0.103
-528.048	-37.589	-0.150	0.080
-527.033	-200.000	0.009	-0.078
-526.018	800.000	0.041	0.126
-525.004	-55.812	-0.118	-0.053
-523.989	-200.000	-0.174	0.000
-522.975	-28.533	0.115	0.066
-521.960	-200.000	0.078	0.410
-520.945	800.000	0.047	0.131
-519.931	16.091	-0.061	-0.048
-518.916	800.000	-0.070	-0.210
-517.902	-25.544	-0.295	0.174
-516.887	443.041	0.065	0.142
-515.872	22.748	0.225	0.184
-514.858	-200.000	-0.005	-0.068
-513.843	-35.029	0.136	-0.074
-512.829	4.816	0.207	-0.152
-511.814	-45.449	-0.100	-0.050
-510.799	176.907	-0.039	-0.057
-509.785	-200.000	0.027	-0.254
-508.770	800.000	0.101	-0.300
-507.756	0.981	0.095	-0.068
-506.741	395.998	0.103	0.215
-505.726	-80.173	-0.174	0.058
-504.712	800.000	-0.092	0.268
-503.697	-61.590	0.430	0.180
-502.683	258.759	0.060	0.103
-501.668	789.149	0.116	-0.319
-500.653	-16.097	0.312	-0.198
-499.639	-200.000	0.013	-0.152
-498.624	218.484	0.148	0.235
-497.610	147.611	0.161	0.216
-496.595	350.984	-0.072	0.143
-495.581	-200.000	-0.006	-0.203
-494.566	-128.942	-0.281	-0.039
-493.551	-91.120	-0.097	0.028
-492.537	-25.202	0.135	0.080
-491.522	391.076	0.101	-0.210
-490.508	-51.237	-0.419	-0.196
-489.493	171.313	-0.216	-0.309
-488.478	-200.000	-0.005	-0.059
-487.464	-104.984	-0.148	0.034
-486.449	-200.000	-0.065	0.346
-485.435	349.965	0.064	0.126
-484.420	-200.000	0.012	-0.095
-483.405	147.066	0.182	0.244
-482.391	-75.658	-0.197	-0.070
-481.376	-200.000	0.025	-0.260
-480.362	121.535	-0.174	0.217
-479.347	-167.083	0.087	0.004
-478.332	698.113	-0.148	0.389
-477.318	-68.716	0.137	-0.053
-476.303	4.815	0.173	-0.127
-475.289	-200.000	-0.015	0.141
-474.274	-66.872	-0.259	-0.102
-473.259	-149.975	0.227	-0.018
-472.245	192.674	0.199	-0.300
-471.230	800.000	0.054	-0.193
-470.216	53.165	-0.119	-0.114
-469.201	235.922	-0.073	0.121
-468.186	72.980	-0.179	0.187
-467.172	-72.525	-0.255	0.094
-466.157	800.000	-0.056	0.194
-465.143	-200.000	-0.042	-0.263
-464.128	565.123	-0.041	-0.098
-463.113	149.040	-0.025	0.034
-462.099	215.604	-0.169	0.268
-461.084	-200.000	-0.005	-0.313
-460.070	22.526	0.253	-0.206
-459.055	70.687	-0.222	0.229
-458.040	518.102	-0.246	0.575
-457.026	52.152	0.075	-0.071
-456.011	-87.736	0.228	-0.068
-454.997	-93.574	0.195	-0.054
-453.982	-113.006	0.251	0.049
-452.968	2.445	-0.373	-0.269
-451.953	46.264	0.123	-0.114
-450.938	800.000	0.048	0.188
-449.924	800.000	0.059	0.215
-448.909	-200.000	-0.053	-0.236
-447.895	-99.631	-0.176	0.044
-446.880	-36.861	-0.174	-0.093
-445.865	0.180	0.275	-0.195
-444.851	-200.000	-0.052	-0.371
-443.836	-59.031	-0.199	-0.086
-442.822	-200.000	0.017	0.137
-441.807	-116.557	0.363	-0.067
-440.792	-200.000	0.026	0.118
-439.778	-64.451	-0.188	0.076
-438.763	-200.000	0.021	-0.101
-437.749	611.217	0.069	-0.171
-436.734	-153.193	0.258	-0.018
-435.719	397.005	0.113	-0.236
-434.705	111.832	-0.225	0.271
-433.690	-66.540	-0.143	-0.057
-432.676	60.034	-0.096	0.095
-431.661	55.220	0.211	0.203
-430.646	406.094	-0.028	0.059
-429.632	-140.516	-0.237	-0.024
-428.617	-200.000	-0.021	-0.161
-427.603	603.179	0.033	-0.082
-426.588	147.686	-0.142	-0.191
-425.573	-199.150	0.638	0.003
-424.559	99.789	0.193	0.222
-423.544	311.325	0.208	-0.389
-422.530	-15.845	-0.235	-0.149
-421.515	-104.267	0.277	0.064
-420.500	52.833	0.106	-0.101
-419.486	800.000	-0.019	-0.078
-418.471	800.000	-0.025	0.095
-417.457	155.713	-0.126	-0.173
-416.442	-200.000	0.030	0.336
-415.428	310.306	-0.089	0.166
-414.413	-174.291	-0.151	-0.004
-413.398	93.529	0.135	0.152
-412.384	183.170	0.196	0.288
-411.369	800.000	0.040	0.127
-410.355	800.000	0.100	-0.341
-409.340	117.192	-0.060	0.073
-408.325	351.333	-0.044	0.086
-407.311	-131.572	-0.112	-0.015
-406.296	207.003	0.109	0.169
-405.282	-86.146	-0.328	-0.101
-404.267	183.513	-0.220	-0.324
-403.252	-200.000	-0.066	0.304
-402.238	-200.000	-0.014	0.096
-401.223	-91.265	0.195	0.056
-400.209	-39.654	-0.211	-0.110
-399.194	-86.072	0.087	-0.027
-398.179	-88.550	0.298	0.088
-397.165	369.924	0.113	0.227
-396.150	114.760	-0.166	-0.202
-395.136	-105.913	0.128	-0.029
-394.121	-139.546	-0.175	-0.019
-393.106	800.000	0.055	-0.222
-392.092	-46.620	-0.252	0.123
-391.077	106.785	0.071	0.084
-390.063	-95.873	0.051	-0.013
-389.048	181.687	-0.195	-0.286
-388.033	3.844	0.224	-0.163
-387.019	-200.000	-0.051	0.232
-386.004	100.373	0.189	0.218
-384.990	-38.190	-0.319	0.168
-383.975	623.073	-0.107	0.269
-382.960	225.567	-0.132	0.213
-381.946	366.488	0.073	-0.146
-380.931	10.115	0.306	0.231
-379.917	46.516	0.087	0.080
-378.902	47.432	-0.277	0.256
-377.888	-200.000	-0.000	0.118
-376.873	-26.808	-0.312	0.181
-375.858	249.790	0.261	0.440
-374.844	-180.288	-0.250	-0.005
-373.829	103.619	0.249	0.291
-372.815	196.461	-0.126	-0.191
-371.800	800.000	0.105	0.323
-370.785	-144.008	-0.086	-0.008
-369.771	-100.573	0.120	-0.029
-368.756	-200.000	0.059	0.299
-367.742	-131.542	0.268	-0.035
-366.727	27.675	0.159	-0.133
-365.712	199.843	0.056	-0.085
-364.698	165.084	-0.258	-0.362
-363.683	164.893	-0.133	-0.186
-362.669	-49.736	0.545	0.258
-361.654	61.938	0.218	0.216
-360.639	299.457	-0.091	-0.167
-359.625	-200.000	0.019	-0.096
-358.610	209.329	0.190	-0.296
-357.596	116.210	-0.114	0.139
-356.581	125.505	-0.092	0.115
-355.566	-200.000	-0.016	-0.350
-354.552	-133.534	0.105	-0.013
-353.537	-200.000	-0.025	-0.118
-352.523	-36.392	0.306	0.164
-351.508	-35.465	0.158	0.085
-350.493	-3.370	-0.128	0.088
-349.479	70.425	-0.123	0.126
-348.464	-79.715	0.234	-0.078
-347.450	-26.121	0.343	-0.200
-346.435	227.285	0.054	-0.087
-345.420	-71.390	0.154	0.057
-344.406	-74.772	-0.145	-0.052
-343.391	727.996	-0.114	-0.302
-342.377	-200.000	-0.005	0.103
-341.362	800.000	-0.014	-0.051
-340.348	-59.650	-0.122	0.052
-339.333	800.000	0.042	-0.151
-338.318	800.000	-0.052	0.178
-337.304	-147.108	0.195	-0.017
-336.289	800.000	-0.091	-0.278
-335.275	-200.000	-0.009	0.137
-334.260	-162.194	-0.200	-0.010
-333.245	-4.293	-0.231	0.159
-332.231	389.531	0.033	-0.068
-331.216	-200.000	-0.002	-0.150
-330.202	-141.587	0.310	-0.031
-329.187	-35.807	0.169	0.091
-328.172	-200.000	-0.023	-0.103
-327.158	219.936	-0.176	-0.279
-326.143	-71.954	-0.130	0.048
-325.129	-90.467	-0.336	-0.097
-324.114	68.265	0.135	0.137
-323.099	-67.769	-0.075	-0.029
-322.085	-146.327	0.277	0.024
-321.070	-127.627	-0.304	-0.044
-320.056	-89.654	-0.102	-0.030
-319.041	-124.694	0.062	-0.010
-318.026	800.000	0.082	0.349
-317.012	-148.743	-0.357	0.029
-315.997	-200.000	-0.055	0.250
-314.983	-108.872	-0.256	0.054
-313.968	-69.863	0.204	0.077
-312.953	332.854	-0.091	-0.173
-311.939	-200.000	-0.008	0.254
-310.924	630.024	-0.180	-0.450
-309.910	-144.176	0.215	0.020
-308.895	77.742	-0.145	0.153
-307.880	-77.097	-0.198	-0.068
-306.866	95.185	0.124	-0.140
-305.851	16.318	-0.116	0.091
-304.837	190.733	-0.168	-0.250
-303.822	-57.098	0.247	0.108
-302.807	-41.520	0.123	0.062
-301.793	800.000	-0.002	0.006
-300.778	48.041	-0.290	-0.268
-299.764	-130.917	0.154	0.020
-298.749	105.220	0.021	0.024
-297.735	176.183	0.152	0.219
-296.720	617.587	-0.115	0.287
-295.705	6.992	-0.082	-0.061
-294.691	-36.820	0.082	-0.044
-293.676	-97.932	-0.185	-0.047
-292.662	-87.132	0.242	-0.073
-291.647	-200.000	-0.037	0.164
-290.632	-200.000	-0.007	0.325
-289.618	-54.725	0.233	0.104
-288.603	364.473	-0.062	0.125
-287.589	287.246	0.224	-0.402
-286.574	-34.898	-0.273	0.147
-285.559	-200.000	0.009	0.075
-284.545	-114.948	-0.231	-0.044
-283.530	-82.890	-0.222	0.071
-282.516	800.000	0.023	-0.092
-281.501	-5.127	-0.028	0.019
-280.486	-132.307	-0.246	-0.032
-279.472	-124.487	-0.398	0.061
-278.457	-2.867	0.159	-0.110
-277.443	-200.000	0.009	0.168
-276.428	646.205	0.006	-0.015
-275.413	-134.022	0.121	-0.015
-274.399	-200.000	-0.012	0.080
-273.384	102.971	0.136	-0.158
-272.370	-200.000	0.006	0.176
-271.355	-200.000	-0.003	-0.102
-270.340	582.332	-0.132	0.321
-269.326	31.643	-0.227	0.193
-268.311	136.097	0.276	0.356
-267.297	800.000	0.073	0.290
-266.282	139.923	-0.156	-0.203
-265.267	-154.323	-0.285	0.019
-264.253	-93.345	-0.093	-0.025
-263.238	273.918	-0.085	-0.149
-262.224	79.847	0.173	0.183
-261.209	-52.705	-0.123	0.056
-260.195	6.746	-0.091	0.067
-259.180	-200.000	-0.005	-0.231
-258.165	-200.000	0.054	0.286
-257.151	47.857	0.114	-0.105
-256.136	-200.000	0.020	-0.182
-255.122	-25.280	0.264	-0.155
-254.107	-200.000	0.051	0.395
-253.092	-139.067	0.036	-0.004
-252.078	-47.372	-0.212	-0.102
-251.063	688.254	0.040	-0.104
-250.049	-200.000	0.036	-0.182
-249.034	116.376	-0.228	-0.276
-248.019	800.000	0.040	-0.127
-247.005	-93.533	-0.339	0.093
-245.990	-64.948	0.485	-0.194
-244.976	87.158	-0.104	0.113
-243.961	398.985	-0.073	-0.150
-242.946	-9.637	-0.314	0.207
-241.932	-200.000	0.005	0.133
-240.917	-153.607	-0.161	0.011
-239.903	283.984	-0.070	-0.124
-238.888	105.350	-0.158	0.184
-237.873	-200.000	0.018	-0.189
-236.859	6.319	0.132	-0.097
-235.844	-35.541	-0.202	0.108
-234.830	188.220	-0.110	-0.163
-233.815	797.405	-0.156	0.424
-232.800	-200.000	-0.043	0.240
-231.786	-56.457	-0.055	0.024
-230.771	-142.285	0.236	-0.023
-229.757	98.795	0.047	0.054
-228.742	800.000	-0.032	0.135
-227.727	660.736	-0.115	0.293
-226.713	-200.000	0.064	0.307
-225.698	42.319	0.299	-0.269
-224.684	-53.313	-0.069	0.031
-223.669	44.251	0.455	0.412
-222.655	800.000	-0.077	-0.261
-221.640	231.271	0.040	-0.064
-220.625	-38.789	0.317	-0.165
-219.611	24.504	0.086	-0.070
-218.596	261.168	0.070	-0.120
-217.582	207.851	-0.080	-0.123
-216.567	-25.206	-0.260	-0.152
-215.552	74.640	-0.363	0.378
-214.538	20.079	-0.449	0.357
-213.523	156.070	-0.280	0.382
-212.509	-200.000	0.057	0.260
-211.494	800.000	0.132	0.414
-210.479	597.386	-0.074	-0.182
-209.465	-200.000	-0.005	0.079
-208.450	800.000	0.047	0.142
-207.436	-200.000	0.006	-0.410
-206.421	800.000	-0.042	-0.114
-205.406	-103.220	0.326	0.076
-204.392	661.263	-0.172	-0.438
-203.377	50.162	0.012	0.011
-202.363	-14.602	-0.083	-0.053
-201.348	800.000	-0.017	-0.046
-200.333	-63.717	-0.183	-0.074
-199.319	-200.000	0.017	-0.213
-198.304	-67.912	0.108	0.042
-197.290	-15.731	-0.182	-0.115
-196.275	313.107	-0.226	0.420
-195.260	95.952	-0.140	-0.158
-194.246	110.152	0.090	-0.106
-193.231	-200.000	-0.001	-0.099
-192.217	181.184	-0.195	0.283
-191.202	16.952	0.102	-0.080
-190.187	10.622	-0.179	-0.135
-189.173	170.297	0.138	0.195
-188.158	-200.000	-0.008	0.320
-187.144	-200.000	0.000	0.014
-186.129	431.705	-0.043	0.093
-185.114	-200.000	-0.037	-0.181
-184.100	800.000	0.076	-0.283
-183.085	-200.000	0.006	-0.057
-182.071	298.684	0.198	0.359
-181.056	-53.967	0.203	0.091
-180.042	110.611	0.130	-0.154
-179.027	79.567	-0.154	0.164
-178.012	515.916	0.161	-0.370
-176.998	146.765	-0.169	0.224
-175.983	139.326	0.317	-0.411
-174.969	-157.096	0.265	-0.016
-173.954	-68.373	-0.053	-0.020
-172.939	-19.846	-0.086	-0.052
-171.925	-151.701	-0.341	-0.025
-170.910	-174.851	0.162	-0.004
-169.896	-200.000	0.013	-0.129
-168.881	264.514	-0.084	0.145
-167.866	-155.285	0.127	-0.008
-166.852	246.866	-0.086	-0.143
-165.837	-200.000	-0.033	0.147
-164.823	299.835	-0.047	0.085
-163.808	293.823	0.098	-0.176
-162.793	800.000	0.035	0.114
-161.779	330.234	0.088	0.167
-160.764	487.138	-0.153	0.345
-159.750	92.393	-0.283	0.314
-158.735	-50.667	-0.189	-0.088
-157.720	-200.000	-0.001	-0.154
-156.706	-87.127	0.097	-0.029
-155.691	-16.804	0.164	-0.102
-154.677	228.918	-0.077	0.124
-153.662	447.676	0.032	-0.070
-152.647	16.427	0.352	0.274
-151.633	281.595	-0.057	0.101
-150.618	29.850	0.086	-0.072
-149.604	150.984	-0.104	-0.139
-148.589	196.294	0.347	0.521
-147.574	800.000	0.089	0.335
-146.560	107.204	0.157	0.183
-145.545	106.005	0.144	0.168
-144.531	124.387	-0.196	0.243
-143.516	231.660	-0.193	0.312
-142.502	-200.000	-0.007	0.151
-141.487	-200.000	0.042	0.242
-140.472	800.000	-0.109	0.297
-139.458	361.001	-0.025	-0.050
-138.443	-200.000	-0.040	-0.253
-137.429	1.059	0.075	-0.053
-136.414	-78.265	-0.046	0.015
-135.399	127.875	0.115	-0.144
-134.385	-70.183	0.120	-0.045
-133.370	1.283	0.058	-0.041
-132.356	-200.000	-0.065	-0.344
-131.341	800.000	-0.008	-0.030
-130.326	-97.239	0.325	-0.084
-129.312	151.417	0.212	0.284
-128.297	308.753	0.137	-0.253
-127.283	157.824	-0.120	-0.163
-126.268	-7.597	-0.170	0.113
-125.253	3.007	0.334	0.239
-124.239	-121.706	-0.397	0.065
-123.224	-61.297	0.112	-0.046
-122.210	800.000	0.056	-0.198
