DTS Sentinel unit serial number:	SN413079Multiplexer serial number:	ORYXHardware model number:	OX4-SRSoftware version number:	ORYX F/W v4.00 Oryx Data Collector v3.7.2.0data status	okinstallation	princeton_trtdifferential loss correction	single-endedforward channel	channel 2reverse channel	N/Adate	2019/09/17time	15:23:34forward acquisition time	60.00reverse acquisition time	0.00gamma	496.2192k internal	0.2305k external	0.2305temperature offset calibration	0.9985default loss term (dB/km)	0.3790temperature slope calibration	1.0000multiplexer offset coefficient	1.0000multiplexer slope coefficient	1.0000fibre end	0.00T internal ref (°C)	38.05T ext. ref 1 (°C)	0.39T ext. ref 2 (°C)	35.19length (m)	temperature (°C)	Stokes	anti-Stokes-747.200	-200.000	0.025	-0.206
-746.185	-182.616	-0.035	-0.001
-745.171	-200.000	0.015	-0.118
-744.156	44.788	-0.365	0.342
-743.142	-77.596	-0.174	0.061
-742.127	-16.109	-0.124	0.080
-741.112	-200.000	-0.019	-0.169
-740.098	785.710	-0.017	-0.049
-739.083	508.606	0.044	-0.104
-738.069	-50.212	-0.291	0.140
-737.054	324.046	0.065	-0.127
-736.039	-57.668	-0.188	0.084
-735.025	515.074	0.017	0.040
-734.010	-200.000	0.081	-0.571
-732.996	88.996	-0.111	-0.125
-731.981	-166.748	0.355	0.015
-730.966	-200.000	0.030	-0.293
-729.952	55.172	0.106	0.104
-728.937	272.893	-0.067	-0.121
-727.923	-125.662	-0.186	0.029
-726.908	800.000	-0.101	0.386
-725.894	-125.388	0.265	-0.041
-724.879	-15.561	0.272	0.176
-723.864	184.725	0.103	0.155
-722.850	57.888	-0.229	0.228
-721.835	18.029	-0.195	0.158
-720.821	-120.393	-0.260	0.045
-719.806	-62.615	-0.136	-0.057
-718.791	800.000	0.018	-0.057
-717.777	-18.349	0.179	0.114
-716.762	304.348	0.084	0.159
-715.748	-200.000	0.046	-0.239
-714.733	53.551	0.368	-0.359
-713.718	-26.703	-0.265	0.158
-712.704	-16.544	-0.169	-0.109
-711.689	-200.000	0.013	0.382
-710.675	-33.603	0.348	0.195
-709.660	99.277	0.151	-0.177
-708.645	-105.091	0.382	-0.089
-707.631	-148.011	-0.200	0.017
-706.616	-28.807	-0.216	0.126
-705.602	-48.491	0.266	0.130
-704.587	201.396	0.061	0.095
-703.572	-200.000	-0.014	-0.254
-702.558	170.643	0.207	-0.301
-701.543	-3.702	0.225	0.159
-700.529	65.973	0.251	-0.259
-699.514	-153.012	-0.191	-0.014
-698.499	-69.386	-0.082	-0.032
-697.485	-92.726	0.151	-0.043
-696.470	-150.298	-0.258	-0.020
-695.456	-129.222	0.176	-0.025
-694.441	9.062	-0.178	-0.136
-693.426	78.265	0.191	-0.207
-692.412	-181.771	0.293	-0.006
-691.397	-100.651	0.235	0.059
-690.383	10.525	-0.091	-0.070
-689.368	-21.143	0.285	0.177
-688.354	334.268	-0.127	0.250
-687.339	180.523	-0.156	0.233
-686.324	-40.783	0.210	-0.110
-685.310	-54.067	0.096	-0.044
-684.295	-164.697	-0.290	-0.013
-683.281	-187.077	-0.060	0.001
-682.266	52.263	0.235	-0.228
-681.251	174.394	-0.067	-0.099
-680.237	217.641	-0.125	-0.202
-679.222	-10.450	-0.268	0.180
-678.208	575.668	-0.058	-0.145
-677.193	-55.810	-0.127	0.058
-676.178	-87.015	-0.157	-0.048
-675.164	-200.000	0.034	0.244
-674.149	-115.646	0.212	-0.040
-673.135	-29.110	0.056	0.032
-672.120	-81.096	-0.135	0.045
-671.105	-200.000	0.028	-0.132
-670.091	-60.494	-0.133	-0.057
-669.076	-103.926	0.263	-0.062
-668.062	-200.000	0.014	-0.317
-667.047	69.511	0.204	-0.214
-666.032	-105.991	0.120	-0.027
-665.018	-200.000	-0.010	-0.177
-664.003	411.061	0.172	0.370
-662.989	-48.017	0.242	-0.119
-661.974	800.000	-0.053	-0.224
-660.959	36.878	0.175	0.157
-659.945	-85.406	0.345	0.109
-658.930	126.489	0.176	-0.226
-657.916	-88.456	-0.378	-0.114
-656.901	14.578	0.090	-0.071
-655.886	-3.937	-0.192	-0.135
-654.872	158.093	0.190	0.267
-653.857	-200.000	0.024	-0.461
-652.843	125.476	0.079	-0.101
-651.828	-200.000	0.063	0.290
-650.814	-84.993	0.159	-0.051
-649.799	-200.000	-0.012	-0.351
-648.784	-88.346	0.148	-0.045
-647.770	-200.000	0.025	0.194
-646.755	0.053	0.052	-0.038
-645.741	-0.503	0.353	0.254
-644.726	-148.838	-0.202	0.017
-643.711	-53.165	0.299	-0.139
-642.697	-42.565	0.044	0.023
-641.682	-12.821	0.095	-0.063
-640.668	-200.000	0.035	-0.197
-639.653	-22.167	-0.120	0.074
-638.638	-200.000	0.087	0.000
-637.624	-200.000	0.006	-0.343
-636.609	-200.000	-0.059	0.507
-635.595	-142.897	-0.342	0.034
-634.580	14.655	-0.081	-0.064
-633.565	276.148	-0.192	0.345
-632.551	-200.000	-0.001	-0.138
-631.536	553.922	0.107	0.260
-630.522	-1.783	-0.186	-0.132
-629.507	800.000	-0.054	0.162
-628.492	-200.000	0.002	0.025
-627.478	105.846	-0.100	-0.120
-626.463	65.915	-0.229	-0.236
-625.449	-200.000	-0.046	-0.250
-624.434	797.295	-0.116	0.323
-623.419	-50.789	-0.211	-0.100
-622.405	-200.000	-0.016	0.107
-621.390	-200.000	0.028	-0.375
-620.376	-107.433	0.124	-0.028
-619.361	-200.000	0.019	-0.488
-618.346	53.156	0.242	-0.235
-617.332	-55.766	-0.222	-0.101
-616.317	488.110	-0.146	0.338
-615.303	-115.912	-0.325	-0.061
-614.288	-123.390	-0.219	0.035
-613.273	-200.000	0.078	0.587
-612.259	-147.056	-0.261	0.023
-611.244	-200.000	0.056	-0.308
-610.230	4.959	-0.415	-0.309
-609.215	59.044	-0.160	-0.159
-608.201	-84.552	-0.164	-0.052
-607.186	78.852	0.238	-0.258
-606.171	276.889	0.114	0.204
-605.157	-73.113	-0.113	-0.042
-604.142	-171.284	-0.233	-0.008
-603.128	-46.427	0.076	0.038
-602.113	313.888	-0.164	0.313
-601.098	800.000	-0.050	0.140
-600.084	0.139	-0.068	0.049
-599.069	-145.311	0.080	-0.007
-598.055	-184.037	0.266	-0.005
-597.040	199.507	-0.112	0.174
-596.025	-70.704	-0.087	0.033
-595.011	-200.000	-0.026	-0.305
-593.996	-116.936	-0.371	-0.069
-592.982	-200.000	-0.001	0.096
-591.967	213.859	0.279	0.446
-590.952	-200.000	-0.026	-0.353
-589.938	-200.000	0.003	-0.082
-588.923	-200.000	-0.005	0.202
-587.909	-200.000	-0.063	0.288
-586.894	800.000	-0.097	0.282
-585.879	51.457	-0.086	0.082
-584.865	126.870	0.082	-0.105
-583.850	622.108	-0.070	-0.178
-582.836	-121.281	0.367	-0.062
-581.821	14.270	0.099	-0.078
-580.806	-30.368	-0.368	0.211
-579.792	800.000	0.015	-0.065
-578.777	800.000	-0.039	0.117
-577.763	-200.000	0.037	0.411
-576.748	-17.924	-0.251	-0.159
-575.733	-121.493	0.097	0.016
-574.719	14.473	0.196	-0.155
-573.704	-6.379	0.244	-0.168
-572.690	-113.344	0.225	-0.045
-571.675	172.267	-0.124	0.181
-570.661	-200.000	-0.024	-0.155
-569.646	-162.970	0.168	0.008
-568.631	678.744	-0.029	-0.077
-567.617	-63.035	0.058	0.024
-566.602	-109.965	-0.159	0.034
-565.588	-156.296	0.168	0.011
-564.573	35.047	0.145	-0.128
-563.558	104.298	-0.127	0.151
-562.544	-12.098	-0.082	-0.054
-561.529	-35.994	0.261	0.142
-560.515	-16.245	-0.127	-0.081
-559.500	800.000	0.079	-0.268
-558.485	-200.000	-0.036	0.476
-557.471	-69.015	-0.201	-0.078
-556.456	-200.000	0.046	0.279
-555.442	-200.000	-0.030	0.277
-554.427	-140.347	-0.117	0.012
-553.412	-200.000	-0.025	-0.180
-552.398	-200.000	0.000	0.264
-551.383	-151.535	0.102	0.008
-550.369	800.000	-0.063	0.204
-549.354	303.779	-0.157	0.294
-548.339	-50.837	-0.301	0.143
-547.325	-137.004	0.184	0.021
-546.310	-68.150	0.108	0.043
-545.296	347.438	0.116	0.230
-544.281	109.881	0.059	0.071
-543.266	-200.000	0.048	-0.240
-542.252	198.525	-0.068	0.105
-541.237	-103.421	0.163	0.039
-540.223	-200.000	0.001	0.052
-539.208	625.209	0.123	-0.313
-538.193	-74.585	0.339	-0.123
-537.179	-200.000	0.014	-0.115
-536.164	-114.929	-0.247	-0.047
-535.150	-200.000	0.002	-0.220
-534.135	-200.000	-0.050	-0.530
-533.121	131.507	-0.072	0.093
-532.106	-4.020	0.118	-0.082
-531.091	-101.889	-0.353	0.086
-530.077	-156.023	-0.161	-0.010
-529.062	-79.516	0.335	-0.114
-528.048	7.920	-0.223	-0.168
-527.033	800.000	-0.052	0.185
-526.018	258.404	0.082	-0.142
-525.004	-103.464	0.312	0.074
-523.989	59.995	-0.164	0.164
-522.975	307.041	0.124	0.233
-521.960	66.080	-0.209	0.214
-520.945	219.774	0.113	-0.183
-519.931	-98.911	0.091	-0.023
-518.916	-200.000	0.055	0.340
-517.902	-64.211	0.142	0.058
-516.887	-84.129	-0.128	-0.041
-515.872	-200.000	-0.049	-0.265
-514.858	-120.871	0.141	-0.024
-513.843	21.615	0.103	0.085
-512.829	-47.015	-0.273	0.134
-511.814	-169.770	-0.247	-0.009
-510.799	256.903	-0.069	0.120
-509.785	54.920	0.099	0.096
-508.770	-200.000	0.005	0.137
-507.756	-140.972	0.233	-0.024
-506.741	-105.811	0.140	-0.032
-505.726	-200.000	-0.035	0.229
-504.712	-64.128	0.213	0.087
-503.697	-53.603	0.320	0.148
-502.683	598.832	0.060	-0.150
-501.668	-41.946	-0.131	-0.068
-500.653	27.490	-0.030	0.025
-499.639	-90.387	-0.267	-0.078
-498.624	-200.000	0.005	0.262
-497.610	343.966	0.091	0.180
-496.595	-48.886	-0.194	0.094
-495.581	5.152	-0.288	-0.214
-494.566	333.454	-0.177	-0.345
-493.551	-80.574	-0.120	-0.040
-492.537	800.000	-0.052	-0.199
-491.522	-104.690	0.284	-0.066
-490.508	-200.000	-0.014	0.221
-489.493	0.921	0.303	-0.219
-488.478	47.433	-0.087	0.081
-487.464	-62.656	0.155	-0.065
-486.449	-0.703	0.108	-0.077
-485.435	-200.000	0.026	0.158
-484.420	39.905	0.098	-0.089
-483.405	61.306	0.199	0.199
-482.391	48.908	0.183	-0.173
-481.376	800.000	-0.059	-0.181
-480.362	-93.579	0.199	0.055
-479.347	96.494	0.191	0.220
-478.332	-102.327	-0.257	-0.062
-477.318	525.684	0.157	0.371
-476.303	-200.000	-0.043	0.210
-475.289	67.512	-0.288	-0.296
-474.274	-84.437	-0.334	-0.106
-473.259	263.102	0.080	0.139
-472.245	33.426	0.225	-0.196
-471.230	-41.201	0.214	0.111
-470.216	-128.065	-0.363	0.052
-469.201	-19.043	0.269	0.168
-468.186	8.045	-0.081	0.061
-467.172	-21.298	0.138	-0.085
-466.157	-44.149	0.214	-0.108
-465.143	-200.000	0.030	-0.218
-464.128	-74.204	-0.255	0.093
-463.113	-26.395	0.302	-0.178
-462.099	4.805	-0.250	-0.185
-461.084	-137.673	-0.441	-0.050
-460.070	800.000	0.075	0.235
-459.055	-28.875	0.246	0.142
-458.040	-108.866	-0.225	-0.048
-457.026	-18.097	-0.176	-0.111
-456.011	52.990	0.213	-0.205
-454.997	402.434	0.047	-0.099
-453.982	142.086	0.140	-0.187
-452.968	45.727	-0.016	-0.015
-451.953	800.000	0.041	0.115
-450.938	-12.288	-0.267	0.176
-449.924	699.134	0.054	0.142
-448.909	255.369	0.139	0.239
-447.895	164.734	-0.226	0.320
-446.880	-16.146	-0.241	0.154
-445.865	-192.836	-0.265	-0.002
-444.851	234.309	-0.181	-0.300
-443.836	800.000	0.022	0.084
-442.822	194.798	0.162	-0.247
-441.807	71.405	0.175	-0.182
-440.792	-200.000	0.033	0.180
-439.778	-147.874	-0.121	0.010
-438.763	-116.617	0.142	-0.026
-437.749	800.000	-0.068	0.239
-436.734	-79.998	0.232	-0.078
-435.719	800.000	-0.042	-0.132
-434.705	-200.000	-0.032	-0.181
-433.690	106.010	0.098	0.117
-432.676	-200.000	0.001	-0.034
-431.661	-119.292	-0.149	0.026
-430.646	-186.642	0.288	-0.004
-429.632	174.607	0.050	0.072
-428.617	5.812	-0.423	-0.314
-427.603	-72.297	0.521	-0.194
-426.588	137.475	-0.105	-0.138
-425.573	168.795	-0.102	0.147
-424.559	800.000	0.046	-0.164
-423.544	216.337	0.083	0.132
-422.530	-200.000	-0.020	0.142
-421.515	-200.000	-0.028	0.291
-420.500	111.504	0.149	0.181
-419.486	-200.000	0.089	0.505
-418.471	66.603	0.118	0.121
-417.457	-200.000	-0.083	0.405
-416.442	593.461	0.123	-0.305
-415.428	-78.684	-0.448	-0.154
-414.413	571.346	0.114	-0.279
-413.398	-200.000	-0.005	0.120
-412.384	-8.705	0.213	-0.143
-411.369	800.000	-0.032	0.120
-410.355	-200.000	-0.009	0.075
-409.340	-200.000	0.067	-0.376
-408.325	-200.000	0.001	-0.065
-407.311	-2.797	-0.132	0.093
-406.296	-56.883	0.285	-0.127
-405.282	19.159	0.087	-0.070
-404.267	800.000	-0.013	0.045
-403.252	454.571	0.076	0.169
-402.238	-129.107	-0.426	0.060
-401.223	-113.316	-0.259	-0.051
-400.209	266.839	-0.138	0.243
-399.194	128.621	0.165	0.211
-398.179	45.750	-0.218	0.202
-397.165	-16.953	0.151	-0.096
-396.150	-200.000	-0.001	-0.088
-395.136	242.975	-0.185	0.311
-394.121	-19.721	0.099	0.061
-393.106	69.676	-0.056	-0.058
-392.092	-149.366	-0.519	-0.041
-391.077	800.000	0.105	0.333
-390.063	-64.172	-0.271	0.111
-389.048	-59.894	-0.183	-0.079
-388.033	6.718	0.150	0.112
-387.019	-32.994	0.185	0.103
-386.004	-161.478	-0.128	-0.007
-384.990	-128.439	0.155	-0.022
-383.975	583.353	0.047	0.115
-382.960	230.329	-0.124	-0.203
-381.946	178.487	0.105	0.154
-380.931	-106.209	-0.151	-0.034
-379.917	-59.367	0.051	0.022
-378.902	-42.700	0.048	0.024
-377.888	24.578	-0.151	0.125
-376.873	-121.648	0.182	0.030
-375.858	800.000	0.032	-0.119
-374.844	-200.000	-0.025	0.147
-373.829	301.305	0.148	0.274
-372.815	110.731	-0.090	-0.108
-371.800	-141.408	-0.347	-0.035
-370.785	292.758	0.129	-0.236
-369.771	-54.577	0.023	0.010
-368.756	-87.282	0.155	0.047
-367.742	-142.072	0.078	0.008
-366.727	-3.060	-0.304	-0.213
-365.712	2.696	0.236	-0.171
-364.698	-200.000	0.016	-0.217
-363.683	800.000	0.064	-0.177
-362.669	-48.898	-0.296	-0.142
-361.654	-200.000	-0.005	0.074
-360.639	-151.986	0.218	-0.016
-359.625	-58.223	-0.248	-0.108
-358.610	-200.000	-0.009	-0.187
-357.596	-200.000	0.040	-0.405
-356.581	156.706	-0.153	0.212
-355.566	9.613	-0.135	-0.102
-354.552	-200.000	-0.036	0.258
-353.537	-115.203	0.104	0.020
-352.523	-123.796	-0.111	0.018
-351.508	371.164	0.057	-0.115
-350.493	800.000	-0.067	-0.272
-349.479	800.000	0.127	0.390
-348.464	-171.469	0.411	-0.014
-347.450	800.000	-0.073	0.247
-346.435	-200.000	-0.006	0.103
-345.420	-200.000	0.005	-0.074
-344.406	800.000	-0.063	-0.249
-343.391	156.300	0.138	0.190
-342.377	-116.027	0.177	-0.033
-341.362	-43.129	0.204	0.104
-340.348	180.887	-0.255	-0.375
-339.333	-179.351	-0.373	-0.008
-338.318	-69.758	-0.276	0.105
-337.304	-200.000	-0.026	-0.139
-336.289	113.681	0.116	-0.141
-335.275	4.606	-0.278	-0.204
-334.260	223.887	-0.015	0.025
-333.245	93.387	0.051	0.057
-332.231	147.883	-0.129	0.174
-331.216	13.243	-0.080	0.062
-330.202	-95.265	-0.127	0.034
-329.187	-61.871	-0.353	-0.148
-328.172	90.549	-0.137	-0.154
-327.158	-50.686	-0.081	0.038
-326.143	67.621	0.057	-0.058
-325.129	-200.000	0.002	0.072
-324.114	-200.000	0.022	0.247
-323.099	-59.972	0.123	0.053
-322.085	73.824	-0.108	-0.113
-321.070	179.541	-0.157	-0.230
-320.056	162.486	-0.072	-0.101
-319.041	-49.507	0.304	-0.145
-318.026	-102.421	-0.497	0.119
-317.012	-113.490	0.341	-0.067
-315.997	800.000	0.016	0.057
-314.983	184.521	0.143	0.212
-313.968	80.146	0.137	-0.148
-312.953	37.974	-0.128	0.114
-311.939	-200.000	0.166	0.000
-310.924	-200.000	-0.010	0.131
-309.910	-200.000	0.017	0.118
-308.895	-200.000	0.039	0.308
-307.880	-176.215	0.055	0.001
-306.866	-200.000	0.021	0.398
-305.851	800.000	0.009	-0.036
-304.837	800.000	-0.100	-0.325
-303.822	-150.864	-0.252	0.019
-302.807	-200.000	0.061	0.366
-301.793	387.836	0.029	0.059
-300.778	225.069	0.061	0.098
-299.764	208.150	0.100	-0.156
-298.749	-117.271	0.267	-0.048
-297.735	-59.973	-0.192	-0.082
-296.720	-44.189	-0.231	-0.116
-295.705	31.007	0.200	0.171
-294.691	-200.000	-0.033	0.246
-293.676	22.534	-0.148	-0.121
-292.662	84.408	-0.199	-0.218
-291.647	-77.965	-0.190	0.066
-290.632	-184.367	-0.330	0.005
-289.618	-80.842	-0.172	-0.057
-288.603	-44.421	0.357	0.178
-287.589	-96.335	-0.211	0.056
-286.574	-27.101	-0.179	-0.104
-285.559	-200.000	-0.016	-0.177
-284.545	-105.418	-0.237	0.054
-283.530	78.443	0.192	-0.205
-282.516	133.913	0.073	0.094
-281.501	-30.279	-0.109	0.062
-280.486	-111.571	-0.246	0.050
-279.472	-150.373	-0.062	-0.005
-278.457	249.489	-0.080	-0.136
-277.443	-200.000	0.078	0.403
-276.428	-33.593	-0.200	-0.110
-275.413	-200.000	-0.015	0.197
-274.399	10.743	-0.147	0.112
-273.384	67.940	0.189	0.193
-272.370	-51.652	0.207	0.096
-271.355	224.128	0.318	-0.513
-270.340	-200.000	0.009	0.071
-269.326	106.942	0.111	-0.132
-268.311	-149.566	-0.286	0.023
-267.297	-37.253	-0.049	-0.026
-266.282	-200.000	-0.014	-0.165
-265.267	750.170	-0.167	-0.450
-264.253	-122.202	-0.325	0.053
-263.238	-119.171	0.161	0.028
-262.224	800.000	0.014	-0.045
-261.209	365.600	-0.033	-0.067
-260.195	212.962	-0.135	-0.213
-259.180	-146.332	-0.213	0.019
-258.165	36.029	0.290	0.255
-257.151	-78.794	0.277	0.094
-256.136	-108.034	-0.127	0.028
-255.122	223.196	-0.070	0.113
-254.107	800.000	-0.027	0.106
-253.092	289.476	-0.094	-0.169
-252.078	88.143	0.139	-0.153
-251.063	800.000	-0.150	-0.579
-250.049	-97.529	0.087	0.023
-249.034	168.481	-0.141	-0.200
-248.019	-56.630	0.292	0.129
-247.005	126.950	0.229	-0.290
-245.990	-38.118	-0.241	0.128
-244.976	175.635	0.105	-0.152
-243.961	-118.154	0.077	-0.014
-242.946	51.412	-0.306	0.290
-241.932	326.338	0.058	0.110
-240.917	-3.321	0.102	0.071
-239.903	105.260	0.105	0.124
-238.888	-33.454	0.387	-0.214
-237.873	-23.109	0.238	-0.143
-236.859	482.767	-0.089	-0.201
-235.844	-63.458	-0.138	-0.056
-234.830	97.223	0.046	0.053
-233.815	6.818	0.121	-0.090
-232.800	-129.996	0.258	-0.035
-231.786	183.034	0.164	0.241
-230.771	-112.765	-0.154	0.031
-229.757	41.995	-0.208	-0.189
-228.742	-200.000	-0.008	0.040
-227.727	800.000	-0.043	0.180
-226.713	154.874	-0.082	-0.112
-225.698	132.877	0.050	-0.064
-224.684	-57.650	-0.226	0.099
-223.669	800.000	0.095	0.356
-222.655	-200.000	0.006	0.068
-221.640	-49.101	-0.161	0.077
-220.625	-130.070	-0.378	-0.052
-219.611	282.774	-0.121	-0.217
-218.596	-140.399	0.103	-0.011
-217.582	206.700	-0.088	0.137
-216.567	800.000	0.113	-0.314
-215.552	392.273	0.108	-0.224
-214.538	-108.188	0.377	0.081
-213.523	-114.676	0.205	-0.039
-212.509	800.000	0.081	-0.247
-211.494	-200.000	0.045	-0.282
-210.479	-11.456	0.069	0.045
-209.465	-98.221	0.138	-0.035
-208.450	-82.346	0.175	-0.057
-207.436	108.508	0.071	-0.084
-206.421	-119.248	0.609	0.106
-205.406	239.520	0.124	-0.206
-204.392	-92.575	0.191	0.054
-203.377	92.397	0.241	-0.271
-202.363	-200.000	-0.018	0.445
-201.348	-94.755	-0.120	-0.033
-200.333	-21.835	-0.219	0.133
-199.319	209.793	-0.103	0.160
-198.304	-11.069	0.184	-0.121
-197.290	-178.539	-0.094	-0.002
-196.275	-192.630	0.204	0.002
-195.260	46.632	0.261	-0.241
-194.246	-200.000	-0.008	0.271
-193.231	-16.654	0.207	0.131
-192.217	-200.000	0.018	-0.106
-191.202	121.289	-0.042	0.052
-190.187	-94.973	-0.102	0.028
-189.173	-17.110	0.296	0.186
-188.158	-121.185	-0.111	-0.018
-187.144	-56.848	-0.174	-0.077
-186.129	305.640	-0.180	-0.332
-185.114	299.747	0.089	-0.164
-184.100	-100.832	0.209	-0.051
-183.085	800.000	-0.011	0.037
-182.071	-91.539	0.303	-0.086
-181.056	19.958	-0.179	-0.144
-180.042	-35.476	-0.240	-0.130
-179.027	-102.457	0.232	0.055
-178.012	-97.521	0.133	-0.034
-176.998	434.402	-0.041	-0.088
-175.983	6.062	-0.123	-0.091
-174.969	-22.382	0.081	-0.049
-173.954	-41.837	0.150	-0.077
-172.939	-138.642	0.434	0.047
-171.925	-124.738	-0.158	-0.024
-170.910	226.542	-0.066	-0.107
-169.896	178.788	-0.096	-0.140
-168.881	455.576	0.053	0.118
-167.866	-200.000	0.031	0.245
-166.852	552.517	0.060	0.144
-165.837	-126.199	0.185	-0.027
-164.823	-113.837	-0.268	0.052
-163.808	-200.000	0.007	-0.158
-162.793	363.949	0.194	0.388
-161.779	-117.863	-0.142	0.025
-160.764	-148.325	0.110	-0.009
-159.750	66.214	-0.120	-0.121
-158.735	-200.000	0.003	-0.056
-157.720	62.589	0.174	0.173
-156.706	395.903	-0.062	-0.129
-155.691	-139.695	0.525	-0.056
-154.677	-200.000	-0.007	0.124
-153.662	202.242	0.199	-0.305
-152.647	-57.144	0.105	0.046
-151.633	-199.972	0.470	0.002
-150.618	800.000	0.103	-0.374
-149.604	-117.594	-0.325	-0.058
-148.589	18.479	-0.132	-0.105
-147.574	244.739	-0.108	-0.180
-146.560	26.570	-0.128	-0.107
-145.545	-200.000	0.014	-0.233
-144.531	4.421	-0.121	-0.088
-143.516	285.721	0.096	0.173
-142.502	-79.008	-0.249	-0.084
-141.487	-51.346	0.102	-0.047
-140.472	-24.093	-0.192	0.114
-139.458	-200.000	0.021	-0.203
-138.443	0.258	0.161	-0.114
-137.429	-172.238	0.478	0.015
-136.414	800.000	0.132	-0.421
-135.399	-200.000	0.046	-0.216
-134.385	67.845	-0.191	-0.194
-133.370	-133.021	0.206	-0.026
-132.356	-200.000	-0.013	-0.165
-131.341	158.577	0.122	-0.168
-130.326	200.353	-0.093	-0.142
-129.312	81.709	0.392	-0.421
-128.297	-118.015	0.335	-0.060
-127.283	-57.399	0.077	0.034
-126.268	-55.126	0.214	0.096
-125.253	5.955	0.084	-0.062
-124.239	-200.000	0.007	-0.184
-123.224	-18.826	-0.025	-0.016
-122.210	-96.286	-0.124	0.033
