DTS Sentinel unit serial number:	SN413079Multiplexer serial number:	ORYXHardware model number:	OX4-SRSoftware version number:	ORYX F/W v4.00 Oryx Data Collector v3.7.2.0data status	okinstallation	princeton_trtdifferential loss correction	single-endedforward channel	channel 2reverse channel	N/Adate	2019/09/13time	06:11:34forward acquisition time	60.00reverse acquisition time	0.00gamma	496.2192k internal	0.2337k external	0.2337temperature offset calibration	1.0193default loss term (dB/km)	0.3790temperature slope calibration	1.0000multiplexer offset coefficient	1.0000multiplexer slope coefficient	1.0000fibre end	0.00T internal ref (°C)	26.12T ext. ref 1 (°C)	4.08T ext. ref 2 (°C)	20.93length (m)	temperature (°C)	Stokes	anti-Stokes-747.200	-200.000	-0.018	0.295
-746.185	-39.212	-0.211	-0.111
-745.171	-200.000	-0.057	0.294
-744.156	-131.183	-0.318	-0.042
-743.142	800.000	0.100	0.437
-742.127	-162.911	0.379	0.018
-741.112	-179.956	-0.389	0.008
-740.098	-200.000	-0.002	0.169
-739.083	-200.000	0.004	0.241
-738.069	76.083	-0.245	0.260
-737.054	9.548	-0.179	0.136
-736.039	153.317	0.058	-0.080
-735.025	800.000	-0.062	0.210
-734.010	280.420	-0.160	-0.287
-732.996	-103.083	0.111	0.026
-731.981	-96.659	-0.298	-0.079
-730.966	-62.255	-0.132	0.055
-729.952	-171.249	-0.160	-0.005
-728.937	629.868	0.027	-0.068
-727.923	-200.000	-0.021	0.199
-726.908	64.118	0.061	-0.061
-725.894	247.417	-0.108	-0.183
-724.879	24.449	0.159	-0.132
-723.864	-137.672	-0.317	-0.036
-722.850	-2.646	-0.223	-0.157
-721.835	118.044	-0.111	0.137
-720.821	15.434	-0.115	-0.091
-719.806	-100.921	-0.219	-0.054
-718.791	-55.043	-0.177	-0.080
-717.777	639.035	0.035	-0.090
-716.762	-200.000	-0.439	0.000
-715.748	800.000	0.104	-0.296
-714.733	-200.000	-0.012	0.061
-713.718	-2.410	0.147	0.103
-712.704	-189.408	-0.079	0.001
-711.689	110.004	-0.046	-0.056
-710.675	-51.965	0.097	0.045
-709.660	173.419	-0.166	-0.240
-708.645	82.685	0.115	0.126
-707.631	5.234	0.130	0.096
-706.616	-90.622	0.296	-0.086
-705.602	-200.000	-0.093	-0.574
-704.587	-166.760	0.201	0.008
-703.572	17.585	-0.213	-0.170
-702.558	25.755	-0.082	0.069
-701.543	-29.373	-0.326	0.187
-700.529	-172.410	0.213	-0.007
-699.514	28.143	-0.258	-0.218
-698.499	-200.000	0.024	-0.223
-697.485	5.724	-0.245	-0.182
-696.470	75.487	-0.094	0.099
-695.456	25.539	0.176	-0.147
-694.441	48.068	-0.196	-0.184
-693.426	291.226	0.176	-0.322
-692.412	-25.593	0.069	0.041
-691.397	231.165	0.106	-0.174
-690.383	530.371	0.063	-0.148
-689.368	-118.676	0.063	-0.011
-688.354	-200.000	0.005	-0.193
-687.339	6.907	-0.226	-0.169
-686.324	-157.247	-0.284	0.017
-685.310	-26.148	-0.268	-0.158
-684.295	-50.947	-0.268	0.126
-683.281	141.835	-0.121	-0.160
-682.266	-200.000	0.071	0.361
-681.251	495.743	-0.095	0.219
-680.237	-24.314	-0.216	0.129
-679.222	-200.000	-0.053	-0.238
-678.208	-200.000	-0.079	0.389
-677.193	268.672	0.184	-0.322
-676.178	-33.118	-0.418	-0.232
-675.164	800.000	0.024	0.094
-674.149	155.995	0.076	0.105
-673.135	-200.000	-0.053	-0.326
-672.120	-170.867	0.222	0.008
-671.105	126.613	-0.096	-0.122
-670.091	-6.847	0.200	-0.136
-669.076	-59.641	-0.436	-0.187
-668.062	-67.318	-0.291	-0.115
-667.047	-90.462	0.110	-0.032
-666.032	602.702	-0.069	-0.171
-665.018	-200.000	0.035	-0.567
-664.003	-200.000	0.004	0.140
-662.989	-37.196	-0.052	-0.028
-661.974	-21.143	-0.485	0.297
-660.959	-133.740	-0.083	0.010
-659.945	-146.830	-0.273	-0.024
-658.930	800.000	-0.027	0.094
-657.916	-200.000	-0.027	0.193
-656.901	-128.059	0.412	0.059
-655.886	800.000	0.033	-0.143
-654.872	-92.481	-0.035	-0.010
-653.857	-35.538	-0.132	-0.072
-652.843	-63.544	-0.243	-0.100
-651.828	27.929	0.081	0.068
-650.814	4.076	-0.158	-0.115
-649.799	527.088	-0.061	0.144
-648.784	800.000	0.049	0.144
-647.770	172.191	-0.167	-0.240
-646.755	-59.844	-0.128	0.055
-645.741	136.796	-0.198	-0.258
-644.726	307.353	-0.082	0.154
-643.711	195.796	0.023	-0.035
-642.697	-118.715	0.291	-0.051
-641.682	648.865	0.020	-0.051
-640.668	158.922	0.136	-0.189
-639.653	77.976	-0.224	0.238
-638.638	-159.328	-0.451	-0.025
-637.624	800.000	-0.017	-0.053
-636.609	-84.072	-0.266	0.084
-635.595	116.248	0.144	-0.176
-634.580	64.187	-0.150	0.151
-633.565	800.000	0.089	-0.345
-632.551	-114.746	0.201	-0.038
-631.536	-183.610	0.110	-0.002
-630.522	254.191	-0.052	0.089
-629.507	-194.370	-0.051	-0.000
-628.492	-90.421	-0.024	-0.007
-627.478	125.123	-0.052	0.066
-626.463	-200.000	0.001	0.018
-625.449	226.613	-0.089	0.145
-624.434	142.001	-0.047	0.062
-623.419	-114.499	-0.307	-0.059
-622.405	800.000	0.047	-0.179
-621.390	800.000	-0.133	-0.437
-620.376	574.459	-0.120	-0.292
-619.361	92.663	-0.045	0.050
-618.346	-95.785	0.169	-0.045
-617.332	-200.000	0.010	0.052
-616.317	98.473	0.302	-0.348
-615.303	223.985	-0.106	-0.172
-614.288	503.812	-0.064	-0.148
-613.273	-112.927	-0.190	0.038
-612.259	13.455	-0.134	-0.104
-611.244	115.944	0.165	-0.201
-610.230	800.000	-0.063	-0.237
-609.215	-13.840	-0.178	-0.115
-608.201	-60.500	0.321	0.136
-607.186	800.000	-0.097	-0.319
-606.171	130.034	0.110	-0.140
-605.157	-200.000	-0.001	0.031
-604.142	-134.301	-0.153	0.019
-603.128	688.734	-0.076	0.199
-602.113	405.084	-0.111	0.234
-601.098	-200.000	0.042	0.203
-600.084	-138.054	-0.171	0.019
-599.069	-136.681	0.303	-0.035
-598.055	141.004	-0.186	0.245
-597.040	794.558	0.022	0.061
-596.025	236.068	-0.116	0.192
-595.011	-16.996	-0.088	0.055
-593.996	-200.000	-0.088	-0.528
-592.982	-200.000	-0.000	-0.129
-591.967	-200.000	-0.029	0.256
-590.952	-23.670	-0.142	-0.085
-589.938	-46.596	0.106	-0.052
-588.923	800.000	0.136	0.549
-587.909	231.153	-0.043	-0.070
-586.894	-200.000	-0.052	-0.391
-585.879	302.678	-0.044	0.082
-584.865	645.513	-0.030	-0.077
-583.850	-187.387	0.025	-0.000
-582.836	92.221	0.117	-0.132
-581.821	800.000	-0.013	0.042
-580.806	-121.049	0.393	-0.066
-579.792	36.475	-0.148	-0.130
-578.777	800.000	0.121	0.413
-577.763	-42.519	-0.069	0.035
-576.748	-52.361	0.392	0.181
-575.733	658.289	-0.027	-0.069
-574.719	-200.000	0.023	0.143
-573.704	39.212	-0.098	-0.088
-572.690	-200.000	-0.018	0.312
-571.675	712.026	-0.052	0.138
-570.661	444.823	0.053	-0.115
-569.646	47.095	-0.116	-0.107
-568.631	622.898	0.124	-0.312
-567.617	-128.625	-0.142	-0.020
-566.602	-93.692	-0.230	-0.063
-565.588	425.431	0.083	-0.178
-564.573	93.080	0.128	0.144
-563.558	-160.234	0.192	0.010
-562.544	98.026	-0.172	0.197
-561.529	-19.894	-0.373	0.230
-560.515	-167.542	0.292	0.012
-559.500	354.302	0.019	0.038
-558.485	24.065	-0.151	-0.124
-557.471	800.000	-0.038	-0.165
-556.456	615.226	0.070	-0.176
-555.442	242.084	-0.007	0.012
-554.427	513.699	-0.099	0.229
-553.412	-87.445	0.166	-0.050
-552.398	-157.492	0.221	0.013
-551.383	435.318	0.202	-0.438
-550.369	-200.000	-0.019	-0.091
-549.354	279.727	-0.166	0.296
-548.339	-9.035	0.269	-0.180
-547.325	-125.717	0.172	0.026
-546.310	93.811	0.415	0.468
-545.296	800.000	-0.073	0.295
-544.281	-200.000	-0.021	-0.157
-543.266	-200.000	0.016	-0.237
-542.252	-59.901	-0.140	-0.060
-541.237	269.764	-0.045	0.079
-540.223	239.470	0.091	0.151
-539.208	85.330	-0.152	-0.167
-538.193	52.096	-0.076	-0.072
-537.179	-37.550	-0.021	0.011
-536.164	-31.648	-0.262	0.147
-535.150	274.649	0.179	-0.316
-534.135	-98.628	-0.364	-0.093
-533.121	582.586	0.092	-0.224
-532.106	557.387	0.126	-0.302
-531.091	800.000	-0.058	-0.168
-530.077	-20.823	-0.293	0.179
-529.062	-161.786	0.140	0.007
-528.048	-160.283	-0.193	-0.010
-527.033	800.000	-0.091	0.275
-526.018	800.000	-0.064	0.225
-525.004	800.000	0.060	-0.231
-523.989	-77.287	-0.088	0.030
-522.975	-82.698	0.088	0.028
-521.960	-200.000	-0.043	-0.203
-520.945	767.300	-0.039	-0.107
-519.931	-31.287	-0.190	0.107
-518.916	-5.277	0.236	-0.162
-517.902	-82.946	-0.094	-0.030
-516.887	82.671	0.068	-0.074
-515.872	201.033	-0.210	-0.322
-514.858	138.418	0.061	-0.080
-513.843	22.213	0.279	0.226
-512.829	-200.000	-0.002	0.029
-511.814	-115.410	-0.240	-0.045
-510.799	150.527	0.238	-0.322
-509.785	-200.000	-0.018	-0.083
-508.770	76.096	0.074	-0.078
-507.756	60.957	-0.075	0.074
-506.741	366.580	-0.066	-0.132
-505.726	261.957	-0.071	-0.122
-504.712	-97.342	-0.353	0.091
-503.697	-91.872	0.131	0.037
-502.683	-57.001	0.338	0.148
-501.668	89.496	-0.165	0.183
-500.653	251.769	-0.046	0.078
-499.639	-41.056	-0.229	-0.117
-498.624	-200.000	0.019	-0.118
-497.610	330.618	-0.120	-0.230
-496.595	-79.215	0.182	0.061
-495.581	-200.000	-0.033	0.281
-494.566	46.213	-0.173	-0.160
-493.551	-50.995	-0.360	0.168
-492.537	-8.681	0.288	-0.192
-491.522	-80.325	-0.229	-0.076
-490.508	-25.367	-0.210	-0.124
-489.493	-11.551	-0.164	-0.107
-488.478	239.694	-0.106	0.175
-487.464	-121.511	0.145	-0.024
-486.449	-200.000	-0.047	-0.310
-485.435	-200.000	-0.031	-0.245
-484.420	-8.993	-0.305	-0.203
-483.405	-134.485	-0.163	-0.020
-482.391	198.598	0.200	0.304
-481.376	-33.690	-0.074	-0.040
-480.362	0.245	-0.218	-0.154
-479.347	501.163	0.156	0.359
-478.332	138.006	-0.098	-0.128
-477.318	261.592	-0.108	0.186
-476.303	-14.587	0.050	-0.032
-475.289	0.076	0.195	-0.138
-474.274	9.921	0.243	-0.183
-473.259	-106.397	-0.358	0.080
-472.245	147.365	0.289	-0.387
-471.230	266.221	0.040	-0.069
-470.216	-3.048	-0.210	0.145
-469.201	-24.466	-0.083	0.049
-468.186	414.294	-0.029	0.061
-467.172	-82.278	0.143	0.046
-466.157	-200.000	-0.007	0.297
-465.143	800.000	0.037	-0.148
-464.128	-6.786	0.372	0.251
-463.113	-16.780	0.072	-0.045
-462.099	800.000	-0.088	0.281
-461.084	149.948	-0.027	0.036
-460.070	800.000	-0.054	-0.172
-459.055	674.772	0.065	0.168
-458.040	800.000	0.025	-0.091
-457.026	800.000	0.036	0.136
-456.011	-192.798	-0.323	0.003
-454.997	800.000	0.066	0.253
-453.982	58.055	-0.196	0.190
-452.968	493.162	0.105	-0.239
-451.953	-141.802	-0.127	-0.013
-450.938	-164.595	0.373	0.017
-449.924	-3.059	-0.118	-0.082
-448.909	-81.588	0.025	-0.008
-447.895	14.504	-0.102	0.079
-446.880	800.000	-0.033	0.111
-445.865	-135.158	0.048	-0.006
-444.851	113.292	-0.037	0.044
-443.836	-167.271	-0.345	-0.014
-442.822	-124.355	0.224	0.035
-441.807	-63.105	-0.190	0.078
-440.792	439.146	-0.178	0.385
-439.778	184.623	-0.035	0.051
-438.763	60.843	-0.124	0.122
-437.749	-200.000	0.004	0.356
-436.734	-86.014	-0.225	0.069
-435.719	83.061	0.152	-0.165
-434.705	-20.062	-0.082	-0.050
-433.690	195.286	0.025	-0.038
-432.676	-114.413	0.115	-0.022
-431.661	238.468	-0.035	0.058
-430.646	146.720	-0.124	-0.166
-429.632	-200.000	0.001	0.278
-428.617	-136.237	0.297	-0.034
-427.603	97.955	0.116	0.132
-426.588	87.795	0.143	0.158
-425.573	-134.655	0.275	0.033
-424.559	709.624	-0.060	0.157
-423.544	800.000	-0.050	-0.196
-422.530	-166.837	0.330	-0.013
-421.515	-119.322	-0.267	-0.046
-420.500	800.000	0.051	-0.192
-419.486	-108.795	0.384	-0.081
-418.471	538.531	-0.031	0.072
-417.457	-69.702	0.268	-0.102
-416.442	-34.660	0.172	-0.093
-415.428	425.520	-0.130	0.277
-414.413	636.335	0.044	-0.110
-413.398	-200.000	-0.134	-0.590
-412.384	-132.132	0.144	-0.019
-411.369	800.000	-0.087	-0.258
-410.355	-121.583	0.356	0.058
-409.340	-49.319	-0.151	0.072
-408.325	-45.322	0.376	0.185
-407.311	-69.175	0.159	-0.061
-406.296	-138.703	-0.117	0.013
-405.282	-33.088	0.017	0.009
-404.267	123.187	-0.217	0.269
-403.252	-200.000	0.056	-0.248
-402.238	456.935	0.046	0.100
-401.223	-60.994	0.103	0.043
-400.209	-55.382	0.339	-0.151
-399.194	-200.000	0.024	0.302
-398.179	-54.086	-0.267	0.120
-397.165	211.034	-0.022	0.034
-396.150	15.190	0.169	0.131
-395.136	-26.211	-0.292	0.170
-394.121	-84.627	0.562	-0.175
-393.106	14.545	0.067	-0.052
-392.092	83.848	0.235	0.253
-391.077	-200.000	0.034	0.180
-390.063	25.204	0.113	-0.093
-389.048	-83.351	0.175	0.056
-388.033	101.887	0.250	0.289
-387.019	152.953	0.053	0.072
-386.004	-32.150	-0.205	0.114
-384.990	106.715	0.050	-0.059
-383.975	127.309	-0.116	-0.145
-382.960	24.460	0.179	-0.146
-381.946	229.514	-0.117	-0.188
-380.931	24.875	0.143	-0.118
-379.917	215.779	-0.149	-0.235
-378.902	99.737	0.072	-0.083
-377.888	800.000	-0.039	-0.124
-376.873	-154.302	0.182	0.012
-375.858	596.826	0.085	-0.208
-374.844	-200.000	0.028	0.145
-373.829	124.117	0.159	-0.197
-372.815	-124.791	-0.169	0.026
-371.800	9.787	0.372	0.279
-370.785	-144.293	-0.356	-0.033
-369.771	54.528	-0.048	-0.046
-368.756	14.561	0.178	0.138
-367.742	-200.000	0.028	0.293
-366.727	13.067	-0.245	0.187
-365.712	-78.026	0.172	0.059
-364.698	354.993	-0.130	-0.255
-363.683	141.089	-0.120	-0.157
-362.669	-69.930	-0.077	0.029
-361.654	-99.404	-0.485	-0.121
-360.639	-200.000	-0.010	0.391
-359.625	-83.088	-0.173	-0.055
-358.610	-49.425	-0.382	-0.180
-357.596	-200.000	0.010	-0.054
-356.581	10.513	-0.136	-0.102
-355.566	-106.010	0.198	0.044
-354.552	-143.969	-0.179	-0.017
-353.537	178.600	0.198	-0.285
-352.523	-13.919	0.270	-0.173
-351.508	-50.590	0.255	0.119
-350.493	110.665	0.095	-0.113
-349.479	-95.950	0.174	-0.046
-348.464	-106.267	0.346	-0.077
-347.450	-95.066	-0.042	-0.011
-346.435	-43.698	0.066	0.033
-345.420	-101.526	0.138	0.033
-344.406	38.829	0.144	0.127
-343.391	-165.136	-0.196	-0.009
-342.377	-36.466	-0.273	0.145
-341.362	-169.498	0.246	-0.009
-340.348	-68.561	0.203	-0.078
-339.333	278.389	0.053	-0.093
-338.318	-126.363	-0.207	-0.030
-337.304	794.878	-0.060	-0.164
-336.289	155.316	-0.188	-0.255
-335.275	-122.687	0.075	-0.012
-334.260	-38.507	-0.360	0.188
-333.245	-25.684	0.135	0.079
-332.231	-200.000	0.003	0.156
-331.216	177.382	-0.074	-0.106
-330.202	-200.000	0.009	-0.212
-329.187	-200.000	-0.086	-0.400
-328.172	57.148	-0.129	0.125
-327.158	-110.994	0.324	-0.066
-326.143	-122.838	-0.186	-0.030
-325.129	-12.448	0.194	0.125
-324.114	800.000	0.129	0.352
-323.099	672.699	0.133	-0.340
-322.085	-87.806	-0.133	-0.040
-321.070	-200.000	0.011	0.085
-320.056	141.125	0.206	0.269
-319.041	-61.230	0.269	-0.112
-318.026	-79.616	-0.292	-0.097
-317.012	-200.000	-0.019	-0.135
-315.997	-28.150	-0.189	0.108
-314.983	128.818	-0.116	0.146
-313.968	65.103	0.506	0.505
-312.953	150.725	-0.143	-0.192
-311.939	800.000	0.039	0.168
-310.924	20.319	-0.172	0.137
-309.910	-200.000	0.071	0.451
-308.895	-111.699	-0.139	-0.028
-307.880	-35.095	-0.143	0.077
-306.866	-200.000	-0.008	0.045
-305.851	-64.205	-0.137	0.055
-304.837	54.586	0.254	0.241
-303.822	-35.930	0.091	-0.049
-302.807	-105.023	0.148	-0.033
-301.793	271.017	0.019	-0.033
-300.778	262.915	-0.024	-0.042
-299.764	800.000	-0.078	0.254
-298.749	-138.320	-0.099	-0.011
-297.735	57.306	-0.193	-0.186
-296.720	172.748	0.232	0.329
-295.705	-78.616	0.260	0.088
-294.691	389.230	-0.180	-0.367
-293.676	226.648	0.098	-0.158
-292.662	800.000	0.056	0.191
-291.647	-74.884	-0.207	0.073
-290.632	180.922	-0.188	0.272
-289.618	-128.697	0.169	0.024
-288.603	184.301	0.150	0.219
-287.589	51.439	0.253	0.237
-286.574	446.046	0.058	-0.125
-285.559	800.000	0.027	-0.098
-284.545	269.546	0.026	0.046
-283.530	70.208	0.092	-0.093
-282.516	28.508	-0.217	0.181
-281.501	386.662	0.041	-0.084
-280.486	315.649	0.080	0.149
-279.472	-200.000	-0.018	-0.209
-278.457	-46.498	0.373	-0.180
-277.443	299.314	-0.108	0.196
-276.428	-52.871	0.200	0.091
-275.413	85.508	0.141	0.153
-274.399	123.487	-0.041	0.051
-273.384	348.591	-0.140	-0.273
-272.370	27.673	-0.138	0.115
-271.355	28.034	-0.159	-0.132
-270.340	500.674	-0.097	0.221
-269.326	20.177	-0.348	0.277
-268.311	12.821	-0.330	-0.251
-267.297	-55.769	0.214	-0.094
-266.282	-25.080	-0.284	0.166
-265.267	48.293	-0.099	0.091
-264.253	200.809	-0.198	0.299
-263.238	582.000	0.029	0.071
-262.224	690.325	0.068	-0.176
-261.209	-115.259	0.073	-0.014
-260.195	47.611	-0.298	0.274
-259.180	220.580	0.046	-0.072
-258.165	-200.000	0.004	-0.051
-257.151	-144.943	-0.199	0.018
-256.136	800.000	0.066	-0.241
-255.122	33.940	0.112	0.096
-254.107	-200.000	-0.010	-0.101
-253.092	312.623	0.125	-0.231
-252.078	-106.769	-0.153	0.034
-251.063	-7.005	-0.274	-0.183
-250.049	-120.030	-0.424	-0.072
-249.034	191.073	-0.031	-0.046
-248.019	-122.141	-0.098	-0.016
-247.005	800.000	0.040	0.119
-245.990	-99.337	-0.192	0.048
-244.976	-24.950	-0.128	0.075
-243.961	599.679	0.145	0.355
-242.946	800.000	0.088	0.248
-241.932	-25.876	-0.345	0.200
-240.917	-15.807	0.216	0.135
-239.903	80.735	-0.160	-0.170
-238.888	-53.891	0.174	0.078
-237.873	163.318	-0.107	-0.148
-236.859	-137.550	-0.225	0.025
-235.844	-200.000	0.017	-0.274
-234.830	800.000	0.011	0.041
-233.815	-155.911	-0.197	0.012
-232.800	-200.000	-0.001	0.125
-231.786	800.000	0.073	-0.272
-230.771	-200.000	-0.012	0.102
-229.757	307.779	-0.085	0.156
-228.742	39.552	0.127	0.112
-227.727	15.856	-0.201	-0.156
-226.713	-135.945	0.253	0.029
-225.698	-37.943	-0.087	0.045
-224.684	458.359	-0.010	0.023
-223.669	-54.617	0.190	-0.085
-222.655	-133.999	-0.211	-0.026
-221.640	137.538	0.112	0.144
-220.625	27.172	-0.153	-0.127
-219.611	800.000	0.049	0.184
-218.596	182.197	-0.045	-0.065
-217.582	190.664	-0.098	0.146
-216.567	800.000	0.057	-0.159
-215.552	69.557	-0.128	-0.130
-214.538	-60.165	0.350	-0.147
-213.523	180.940	-0.188	0.271
-212.509	-55.532	0.211	0.093
-211.494	21.194	0.258	-0.206
-210.479	-77.235	-0.372	-0.127
-209.465	-143.244	0.238	-0.023
-208.450	800.000	-0.094	0.292
-207.436	-78.638	-0.242	-0.081
-206.421	130.370	-0.139	0.175
-205.406	17.223	0.139	-0.108
-204.392	-65.384	0.184	-0.073
-203.377	224.053	-0.031	-0.050
-202.363	-140.156	0.400	-0.041
-201.348	-200.000	-0.035	0.158
-200.333	-81.906	0.262	0.084
-199.319	-17.210	0.085	-0.053
-198.304	38.878	-0.114	0.100
-197.290	497.529	0.086	0.194
-196.275	-112.814	0.109	0.021
-195.260	148.109	-0.175	-0.232
-194.246	-190.111	0.227	0.002
-193.231	34.922	0.204	0.175
-192.217	-200.000	0.023	0.181
-191.202	-100.927	-0.042	-0.010
-190.187	800.000	0.070	-0.232
-189.173	-200.000	-0.061	0.383
-188.158	495.949	0.084	0.191
-187.144	-200.000	0.033	-0.144
-186.129	800.000	-0.055	0.222
-185.114	800.000	-0.046	-0.173
-184.100	173.826	-0.122	-0.173
-183.085	800.000	0.092	-0.293
-182.071	800.000	0.043	-0.154
-181.056	-44.288	0.183	0.090
-180.042	524.841	0.116	0.267
-179.027	-200.000	-0.041	0.438
-178.012	528.555	-0.028	0.065
-176.998	189.139	-0.136	-0.199
-175.983	5.999	-0.108	0.078
-174.969	13.551	0.194	-0.148
-173.954	69.517	0.146	0.148
-172.939	80.447	-0.109	-0.115
-171.925	-200.000	0.029	-0.166
-170.910	-129.300	0.103	-0.014
-169.896	-200.000	0.090	-0.412
-168.881	126.811	-0.090	0.112
-167.866	-21.011	0.266	-0.160
-166.852	266.579	0.120	-0.206
-165.837	-24.162	0.186	-0.109
-164.823	800.000	0.046	0.169
-163.808	-200.000	-0.018	-0.432
-162.793	39.107	0.148	-0.130
-161.779	-108.885	-0.157	-0.033
-160.764	-68.955	-0.489	0.185
-159.750	-1.615	0.100	0.069
-158.735	-166.046	0.131	-0.005
-157.720	192.555	-0.159	0.235
-156.706	-48.247	0.314	-0.148
-155.691	-20.930	0.203	-0.122
-154.677	800.000	-0.061	-0.202
-153.662	-13.570	0.219	0.139
-152.647	-116.119	0.071	-0.013
-151.633	-200.000	-0.015	0.413
-150.618	-61.619	-0.098	-0.040
-149.604	800.000	-0.021	-0.080
-148.589	417.544	-0.070	0.146
-147.574	-9.945	-0.314	0.205
-146.560	-111.753	0.241	0.048
-145.545	593.014	0.143	-0.345
-144.531	541.456	-0.050	-0.117
-143.516	40.225	0.073	0.065
-142.502	379.895	0.035	0.069
-141.487	-71.143	-0.297	-0.109
-140.472	115.365	0.097	0.116
-139.458	96.521	0.127	0.143
-138.443	-69.269	-0.170	0.064
-137.429	-26.499	-0.040	0.023
-136.414	-40.388	0.234	-0.119
-135.399	-149.312	-0.504	-0.039
-134.385	-58.744	0.129	-0.055
-133.370	-116.525	-0.378	0.068
-132.356	79.883	0.089	-0.094
-131.341	-200.000	-0.045	0.238
-130.326	292.023	-0.105	-0.188
-129.312	642.402	-0.129	-0.323
-128.297	800.000	0.076	-0.235
-127.283	-27.668	-0.286	0.162
-126.268	-200.000	-0.003	-0.232
-125.253	-200.000	0.026	-0.229
-124.239	-7.031	0.117	-0.078
-123.224	800.000	0.040	0.140
-122.210	304.139	0.092	-0.167
