DTS Sentinel unit serial number:	SN413079Multiplexer serial number:	ORYXHardware model number:	OX4-SRSoftware version number:	ORYX F/W v4.00 Oryx Data Collector v3.7.2.0data status	okinstallation	princeton_trtdifferential loss correction	single-endedforward channel	channel 2reverse channel	N/Adate	2019/09/15time	18:51:34forward acquisition time	60.00reverse acquisition time	0.00gamma	496.2192k internal	0.2292k external	0.2292temperature offset calibration	0.9923default loss term (dB/km)	0.3790temperature slope calibration	1.0000multiplexer offset coefficient	1.0000multiplexer slope coefficient	1.0000fibre end	0.00T internal ref (°C)	42.95T ext. ref 1 (°C)	6.94T ext. ref 2 (°C)	33.61length (m)	temperature (°C)	Stokes	anti-Stokes-747.200	19.893	0.163	0.134
-746.185	800.000	-0.077	0.244
-745.171	113.538	-0.058	0.072
-744.156	-129.422	0.122	-0.017
-743.142	67.863	-0.054	0.056
-742.127	-89.481	-0.263	0.079
-741.112	13.012	-0.292	0.232
-740.098	-46.245	0.127	0.064
-739.083	-200.000	0.079	-0.365
-738.069	192.449	-0.098	0.151
-737.054	155.858	0.147	0.208
-736.039	-77.374	-0.206	-0.073
-735.025	-73.917	-0.109	0.041
-734.010	800.000	0.026	-0.093
-732.996	16.244	-0.263	-0.212
-731.981	800.000	0.038	0.143
-730.966	-200.000	-0.061	0.317
-729.952	800.000	-0.121	0.352
-728.937	-98.419	0.306	0.080
-727.923	331.277	0.110	-0.217
-726.908	800.000	-0.098	0.297
-725.894	800.000	-0.064	0.270
-724.879	27.293	-0.173	-0.148
-723.864	-200.000	-0.030	0.149
-722.850	-68.550	0.185	-0.073
-721.835	-200.000	-0.013	-0.206
-720.821	-164.282	-0.152	-0.007
-719.806	-200.000	0.033	-0.250
-718.791	65.842	-0.168	-0.174
-717.777	8.479	-0.374	-0.288
-716.762	373.886	0.077	0.160
-715.748	289.530	0.032	0.059
-714.733	13.079	0.211	0.167
-713.718	-200.000	0.046	-0.570
-712.704	-93.917	-0.187	-0.053
-711.689	-109.208	-0.360	-0.078
-710.675	-60.921	-0.179	0.077
-709.660	-146.306	0.239	0.021
-708.645	800.000	-0.065	0.287
-707.631	-31.447	-0.232	0.133
-706.616	800.000	-0.036	-0.149
-705.602	-182.826	-0.260	0.005
-704.587	10.794	-0.176	-0.137
-703.572	-68.411	-0.263	-0.104
-702.558	28.247	-0.171	-0.147
-701.543	-200.000	0.026	-0.237
-700.529	-75.245	-0.486	-0.177
-699.514	-78.462	-0.371	0.130
-698.499	-188.218	-0.157	0.002
-697.485	7.688	-0.156	-0.120
-696.470	76.852	0.095	0.103
-695.456	-200.000	0.041	0.271
-694.441	-119.086	0.378	-0.068
-693.426	-65.798	-0.072	-0.029
-692.412	432.438	-0.107	0.237
-691.397	800.000	-0.029	0.096
-690.383	189.165	-0.182	0.278
-689.368	-200.000	-0.018	0.166
-688.354	-200.000	0.023	-0.282
-687.339	46.075	0.101	-0.095
-686.324	140.774	0.081	-0.109
-685.310	-200.000	0.023	-0.164
-684.295	49.219	0.277	0.266
-683.281	306.149	0.044	-0.083
-682.266	348.355	-0.121	0.243
-681.251	-1.497	0.208	-0.150
-680.237	-200.000	-0.021	0.163
-679.222	-200.000	0.001	0.118
-678.208	-2.926	0.149	0.106
-677.193	-159.870	-0.381	-0.021
-676.178	800.000	-0.003	0.011
-675.164	-20.467	0.185	0.116
-674.149	96.037	0.212	-0.247
-673.135	27.432	-0.107	-0.091
-672.120	157.180	-0.054	-0.076
-671.105	-67.732	0.092	0.037
-670.091	-200.000	0.040	-0.207
-669.076	-200.000	0.017	-0.084
-668.062	800.000	0.078	-0.266
-667.047	-82.730	-0.037	-0.012
-666.032	54.516	0.123	0.121
-665.018	-85.476	0.261	0.083
-664.003	-53.121	0.104	-0.049
-662.989	-200.000	0.053	-0.317
-661.974	47.820	-0.181	-0.172
-660.959	236.918	-0.084	-0.142
-659.945	186.953	-0.110	-0.167
-658.930	-118.786	-0.141	-0.025
-657.916	-42.544	-0.273	-0.142
-656.901	139.462	-0.161	-0.216
-655.886	800.000	0.036	0.143
-654.872	-200.000	-0.009	-0.161
-653.857	132.956	0.077	0.101
-652.843	514.663	-0.068	0.163
-651.828	63.439	0.121	-0.123
-650.814	-128.993	0.232	0.033
-649.799	-47.430	-0.170	-0.084
-648.784	-55.320	-0.325	0.149
-647.770	-200.000	0.018	-0.129
-646.755	-79.246	0.129	-0.045
-645.741	607.395	-0.078	0.200
-644.726	311.724	-0.029	-0.056
-643.711	23.307	0.141	-0.118
-642.697	-13.238	0.143	-0.095
-641.682	-129.314	0.238	0.034
-640.668	-142.882	0.191	-0.019
-639.653	588.679	0.087	-0.218
-638.638	79.556	0.090	-0.099
-637.624	6.105	-0.169	0.128
-636.609	-39.589	0.127	-0.068
-635.595	-200.000	-0.021	-0.106
-634.580	226.834	-0.206	-0.342
-633.565	57.899	0.066	-0.065
-632.551	-30.495	0.200	0.116
-631.536	197.389	0.203	-0.316
-630.522	-90.922	0.293	-0.086
-629.507	-200.000	-0.021	-0.230
-628.492	-94.389	0.360	0.100
-627.478	14.192	-0.112	-0.089
-626.463	367.624	-0.034	0.070
-625.449	800.000	0.049	0.153
-624.434	-182.518	-0.343	0.006
-623.419	-200.000	0.016	0.124
-622.405	800.000	-0.045	0.130
-621.390	800.000	-0.134	-0.396
-620.376	15.449	0.141	-0.113
-619.361	-60.088	-0.198	0.086
-618.346	-39.091	-0.093	-0.050
-617.332	-70.407	-0.209	0.081
-616.317	58.598	-0.246	-0.246
-615.303	-49.588	0.201	-0.097
-614.288	-200.000	-0.004	-0.147
-613.273	132.218	-0.200	0.263
-612.259	-41.086	-0.026	-0.013
-611.244	-56.942	0.135	-0.061
-610.230	181.771	0.093	0.140
-609.215	224.935	0.111	0.182
-608.201	63.852	0.185	-0.189
-607.186	135.098	0.036	-0.048
-606.171	-7.855	0.048	-0.033
-605.157	-74.474	-0.325	-0.119
-604.142	-5.517	-0.098	-0.068
-603.128	-83.901	0.361	0.117
-602.113	-29.509	0.068	-0.039
-601.098	-200.000	-0.016	-0.103
-600.084	-148.310	-0.442	-0.037
-599.069	-200.000	0.003	-0.332
-598.055	395.218	-0.114	-0.243
-597.040	297.692	-0.128	-0.239
-596.025	75.400	0.066	-0.071
-595.011	-54.474	-0.038	-0.018
-593.996	-74.008	-0.194	0.072
-592.982	257.629	0.070	0.122
-591.967	-116.205	-0.317	0.060
-590.952	-55.143	0.223	-0.102
-589.938	-160.337	0.413	-0.023
-588.923	38.771	-0.130	0.118
-587.909	-110.507	0.171	-0.036
-586.894	225.109	-0.146	-0.241
-585.879	194.754	0.112	0.173
-584.865	-111.521	0.396	0.082
-583.850	475.994	-0.044	-0.101
-582.836	-154.259	-0.301	-0.021
-581.821	224.418	0.154	-0.253
-580.806	-140.586	0.201	0.021
-579.792	352.209	-0.092	-0.186
-578.777	255.761	0.114	-0.200
-577.763	-57.082	-0.176	0.079
-576.748	319.332	-0.190	-0.366
-575.733	-200.000	-0.026	0.597
-574.719	-100.350	0.080	-0.020
-573.704	-200.000	-0.272	-0.001
-572.690	-200.000	-0.023	0.188
-571.675	572.805	-0.089	-0.220
-570.661	1.370	0.138	0.101
-569.646	-113.444	0.128	0.026
-568.631	-200.000	0.010	-0.168
-567.617	14.821	0.116	0.092
-566.602	800.000	-0.111	0.336
-565.588	-188.482	-0.289	-0.004
-564.573	-200.000	-0.033	0.161
-563.558	-153.605	-0.488	-0.034
-562.544	-200.000	-0.004	0.278
-561.529	-109.870	0.302	0.064
-560.515	58.131	-0.251	0.250
-559.500	-200.000	-0.002	-0.038
-558.485	-200.000	-0.040	0.478
-557.471	128.763	0.105	0.136
-556.456	-112.819	0.094	-0.019
-555.442	-200.000	0.015	-0.240
-554.427	-102.688	0.165	-0.040
-553.412	-168.617	0.136	0.005
-552.398	154.402	-0.094	0.132
-551.383	121.389	-0.174	0.220
-550.369	800.000	-0.064	-0.179
-549.354	597.170	-0.070	-0.175
-548.339	18.733	0.032	0.026
-547.325	128.676	0.111	0.143
-546.310	21.397	0.079	0.065
-545.296	800.000	-0.044	0.138
-544.281	41.731	-0.372	-0.343
-543.266	213.321	0.166	-0.267
-542.252	189.753	0.146	0.223
-541.237	187.306	0.025	0.037
-540.223	-200.000	-0.022	-0.143
-539.208	-142.434	0.114	-0.011
-538.193	65.902	-0.080	0.082
-537.179	-200.000	0.020	0.090
-536.164	10.163	0.051	-0.039
-535.150	-13.639	0.220	-0.145
-534.135	-123.977	-0.115	-0.018
-533.121	46.388	0.281	-0.265
-532.106	-56.458	0.391	0.176
-531.091	-33.800	0.217	-0.121
-530.077	392.347	0.039	0.082
-529.062	-104.433	-0.257	-0.060
-528.048	-162.028	-0.175	-0.009
-527.033	109.720	-0.071	-0.087
-526.018	-8.876	-0.163	0.111
-525.004	26.460	-0.232	0.197
-523.989	418.680	0.105	0.228
-522.975	28.292	-0.126	0.108
-521.960	-200.000	-0.025	-0.316
-520.945	170.462	-0.225	-0.328
-519.931	800.000	0.030	-0.126
-518.916	-200.000	0.046	0.293
-517.902	725.446	-0.116	-0.314
-516.887	-114.667	-0.305	0.059
-515.872	56.284	0.195	0.192
-514.858	217.952	-0.131	0.212
-513.843	179.707	0.104	0.155
-512.829	84.463	-0.127	-0.141
-511.814	9.723	0.410	-0.315
-510.799	-109.295	-0.306	0.066
-509.785	-78.882	-0.126	-0.044
-508.770	88.330	-0.174	-0.196
-507.756	47.976	0.179	-0.170
-506.741	502.810	-0.069	0.161
-505.726	-200.000	0.127	-0.000
-504.712	522.741	-0.106	0.252
-503.697	-27.154	0.260	0.154
-502.683	800.000	-0.114	0.495
-501.668	-67.139	0.091	-0.037
-500.653	-62.131	0.157	0.067
-499.639	-167.857	0.191	-0.008
-498.624	468.774	0.071	-0.161
-497.610	91.410	0.200	-0.227
-496.595	-130.653	0.066	-0.009
-495.581	31.562	0.028	-0.024
-494.566	-65.384	-0.145	0.059
-493.551	-24.425	-0.053	-0.032
-492.537	173.959	0.149	0.218
-491.522	-91.432	0.351	0.102
-490.508	-200.000	0.016	-0.120
-489.493	375.582	-0.080	-0.165
-488.478	-200.000	0.002	0.120
-487.464	14.735	-0.020	0.016
-486.449	518.118	0.140	-0.332
-485.435	-27.506	0.150	-0.088
-484.420	200.620	-0.233	-0.363
-483.405	-200.000	-0.004	-0.225
-482.391	-22.702	-0.020	-0.012
-481.376	800.000	0.043	-0.132
-480.362	493.185	0.090	0.210
-479.347	-200.000	0.004	-0.252
-478.332	-171.663	-0.176	-0.006
-477.318	-128.449	-0.027	-0.004
-476.303	-72.648	0.388	0.145
-475.289	29.984	0.221	-0.191
-474.274	-200.000	-0.046	-0.208
-473.259	-200.000	-0.036	-0.291
-472.245	-200.000	-0.011	0.361
-471.230	-117.398	0.337	0.062
-470.216	-35.858	0.207	-0.114
-469.201	800.000	-0.038	0.149
-468.186	-72.688	0.213	-0.080
-467.172	800.000	0.126	0.466
-466.157	-138.705	-0.156	0.017
-465.143	-200.000	-0.018	-0.288
-464.128	38.915	0.212	-0.191
-463.113	-200.000	-0.027	0.236
-462.099	97.126	-0.128	0.148
-461.084	-13.485	0.036	0.023
-460.070	781.325	-0.068	-0.190
-459.055	295.118	-0.083	-0.153
-458.040	-150.894	0.228	-0.017
-457.026	252.570	0.160	0.276
-456.011	63.244	-0.414	0.420
-454.997	317.699	-0.089	0.170
-453.982	-200.000	0.010	-0.263
-452.968	-98.490	-0.174	-0.045
-451.953	800.000	-0.089	0.338
-450.938	130.407	0.087	-0.113
-449.924	-28.505	-0.346	0.202
-448.909	-9.661	-0.099	-0.067
-447.895	-83.919	0.112	-0.036
-446.880	-117.239	-0.109	-0.020
-445.865	598.141	0.057	-0.144
-444.851	-124.109	-0.458	-0.073
-443.836	-200.000	0.006	-0.189
-442.822	-67.215	-0.213	-0.085
-441.807	-200.000	-0.008	0.264
-440.792	1.020	-0.129	0.094
-439.778	576.008	-0.110	-0.271
-438.763	247.907	0.046	0.079
-437.749	-38.569	0.110	0.059
-436.734	-50.497	0.136	-0.065
-435.719	-200.000	0.012	-0.083
-434.705	-200.000	0.014	0.192
-433.690	-82.598	-0.327	0.107
-432.676	-51.581	0.235	-0.111
-431.661	265.211	0.052	-0.091
-430.646	800.000	0.065	-0.225
-429.632	284.309	0.050	0.091
-428.617	-200.000	-0.033	-0.464
-427.603	49.758	-0.119	-0.113
-426.588	53.698	-0.223	0.216
-425.573	-179.520	0.197	0.004
-424.559	-200.000	-0.046	0.234
-423.544	-26.236	-0.161	0.095
-422.530	205.591	-0.136	0.213
-421.515	-46.555	-0.139	0.069
-420.500	800.000	0.126	0.385
-419.486	47.280	0.163	0.153
-418.471	356.392	0.055	0.111
-417.457	746.647	-0.063	0.172
-416.442	34.522	-0.019	0.017
-415.428	-163.031	0.131	0.006
-414.413	8.947	-0.041	0.031
-413.398	-200.000	-0.059	-0.329
-412.384	333.271	0.153	0.299
-411.369	92.906	-0.240	-0.274
-410.355	65.242	-0.096	0.098
-409.340	-61.079	-0.003	0.001
-408.325	-15.196	0.288	0.186
-407.311	-130.164	-0.232	-0.032
-406.296	132.739	0.089	-0.116
-405.282	664.660	0.062	-0.161
-404.267	-45.844	0.311	-0.155
-403.252	81.528	-0.040	0.044
-402.238	29.370	0.107	0.092
-401.223	-108.746	-0.330	0.071
-400.209	355.829	-0.054	-0.108
-399.194	35.501	-0.253	0.224
-398.179	-200.000	-0.017	0.165
-397.165	34.762	-0.293	-0.259
-396.150	-51.524	-0.139	0.066
-395.136	-200.000	-0.033	-0.537
-394.121	-200.000	0.062	0.321
-393.106	149.199	-0.183	0.250
-392.092	297.987	-0.062	0.116
-391.077	-200.000	-0.015	0.129
-390.063	258.167	0.043	-0.074
-389.048	-131.115	0.057	0.008
-388.033	-200.000	0.001	0.255
-387.019	800.000	0.029	0.120
-386.004	-69.398	-0.105	0.041
-384.990	-177.055	-0.166	0.004
-383.975	-82.358	-0.154	-0.050
-382.960	456.018	0.116	0.260
-381.946	-135.165	0.196	-0.024
-380.931	-131.818	-0.170	0.022
-379.917	736.227	-0.172	0.464
-378.902	-35.951	0.095	0.052
-377.888	212.341	0.196	0.311
-376.873	192.114	0.246	0.375
-375.858	43.563	-0.052	0.048
-374.844	32.188	-0.094	0.082
-373.829	-200.000	0.027	0.259
-372.815	105.395	-0.125	0.149
-371.800	800.000	0.039	0.145
-370.785	-46.210	0.271	0.135
-369.771	-86.022	-0.659	0.206
-368.756	150.248	0.284	-0.389
-367.742	-149.633	0.196	-0.016
-366.727	-74.107	0.317	-0.116
-365.712	140.477	-0.116	-0.155
-364.698	-18.415	0.057	0.036
-363.683	71.501	-0.082	0.085
-362.669	5.276	0.409	0.304
-361.654	254.845	-0.056	-0.098
-360.639	-19.312	-0.290	-0.182
-359.625	667.588	0.100	-0.261
-358.610	-70.901	-0.153	0.058
-357.596	-108.577	0.009	-0.002
-356.581	245.188	-0.170	0.288
-355.566	123.265	0.075	0.094
-354.552	504.447	0.114	-0.265
-353.537	-136.954	0.388	-0.045
-352.523	-44.791	-0.106	0.053
-351.508	167.980	-0.097	0.139
-350.493	752.859	0.097	-0.263
-349.479	-12.866	0.365	-0.240
-348.464	-141.632	0.299	0.030
-347.450	800.000	0.092	-0.367
-346.435	29.425	0.168	0.144
-345.420	-37.731	0.399	0.214
-344.406	-52.245	-0.045	-0.021
-343.391	-173.481	-0.379	0.012
-342.377	-140.754	-0.218	-0.023
-341.362	10.669	-0.275	0.211
-340.348	90.584	0.253	-0.286
-339.333	-100.181	-0.317	-0.080
-338.318	435.290	0.026	0.058
-337.304	800.000	-0.033	-0.134
-336.289	-53.655	-0.082	-0.038
-335.275	3.411	0.046	-0.034
-334.260	701.673	0.035	-0.092
-333.245	-61.323	-0.325	-0.138
-332.231	-96.889	0.162	0.043
-331.216	-7.431	-0.212	0.144
-330.202	-62.415	0.361	0.151
-329.187	51.581	0.023	0.022
-328.172	-88.623	0.252	0.076
-327.158	-86.038	-0.077	0.024
-326.143	-22.153	0.332	0.203
-325.129	-94.287	-0.399	-0.110
-324.114	49.099	-0.137	-0.130
-323.099	5.390	-0.031	-0.023
-322.085	-200.000	-0.034	0.334
-321.070	116.711	-0.164	0.202
-320.056	229.182	0.056	0.092
-319.041	13.665	-0.034	-0.026
-318.026	800.000	0.078	-0.291
-317.012	-43.992	0.322	0.163
-315.997	-61.319	-0.159	0.067
-314.983	32.837	-0.148	0.129
-313.968	-200.000	0.006	0.310
-312.953	277.347	-0.192	-0.344
-311.939	800.000	0.032	-0.110
-310.924	280.801	0.066	-0.118
-309.910	24.640	-0.012	-0.010
-308.895	421.046	0.086	0.185
-307.880	143.182	-0.124	-0.165
-306.866	-96.364	0.168	-0.045
-305.851	-70.700	-0.266	-0.101
-304.837	141.236	0.244	-0.325
-303.822	-92.966	-0.175	-0.049
-302.807	-200.000	-0.000	0.216
-301.793	-164.106	-0.385	-0.018
-300.778	800.000	-0.054	-0.152
-299.764	-200.000	-0.021	-0.154
-298.749	58.543	-0.202	0.200
-297.735	315.969	0.093	-0.176
-296.720	30.259	0.298	-0.256
-295.705	-36.454	-0.367	0.199
-294.691	-200.000	-0.053	-0.313
-293.676	289.508	0.079	-0.144
-292.662	190.995	0.123	-0.186
-291.647	209.406	0.046	-0.072
-290.632	-200.000	0.002	0.056
-289.618	-79.536	0.260	0.088
-288.603	-200.000	0.021	-0.120
-287.589	-27.617	-0.207	0.121
-286.574	423.336	-0.153	-0.330
-285.559	-29.739	0.053	-0.031
-284.545	-101.348	-0.368	0.090
-283.530	-48.455	0.186	0.090
-282.516	372.594	0.069	0.142
-281.501	-168.145	-0.250	-0.010
-280.486	-103.844	-0.335	-0.079
-279.472	-76.992	0.304	-0.107
-278.457	1.908	-0.098	-0.071
-277.443	182.257	0.097	-0.144
-276.428	288.956	-0.149	0.271
-275.413	-112.638	0.260	0.052
-274.399	173.779	-0.079	-0.115
-273.384	1.341	0.017	0.012
-272.370	146.855	-0.054	0.073
-271.355	-84.200	0.243	-0.078
-270.340	494.030	-0.073	-0.168
-269.326	-68.838	-0.086	0.033
-268.311	-127.671	-0.105	0.015
-267.297	-8.272	-0.133	0.090
-266.282	-13.855	0.250	0.162
-265.267	-123.225	0.083	0.013
-264.253	-200.000	-0.008	-0.270
-263.238	-200.000	-0.039	-0.194
-262.224	800.000	-0.117	-0.410
-261.209	-107.812	-0.258	0.056
-260.195	800.000	-0.063	0.271
-259.180	-156.146	-0.429	0.027
-258.165	501.302	-0.114	-0.265
-257.151	-200.000	0.046	0.315
-256.136	-108.551	0.027	0.006
-255.122	45.657	-0.225	0.209
-254.107	29.827	-0.170	-0.145
-253.092	-119.894	-0.277	-0.048
-252.078	800.000	0.114	-0.328
-251.063	-200.000	-0.002	0.124
-250.049	-200.000	-0.032	0.181
-249.034	-56.731	0.183	-0.081
-248.019	543.269	-0.040	0.096
-247.005	-41.860	0.105	-0.054
-245.990	800.000	0.125	0.541
-244.976	-76.322	-0.368	0.130
-243.961	290.483	0.161	-0.294
-242.946	-39.927	0.182	-0.096
-241.932	-200.000	0.044	0.346
-240.917	-151.300	-0.359	0.027
-239.903	800.000	-0.045	-0.197
-238.888	-200.000	0.033	-0.170
-237.873	-200.000	0.025	0.134
-236.859	122.050	0.103	-0.129
-235.844	-101.355	-0.361	0.088
-234.830	-22.519	0.082	0.050
-233.815	-54.226	0.258	0.118
-232.800	26.839	0.173	-0.146
-231.786	-163.134	0.253	-0.012
-230.771	-102.056	0.366	0.088
-229.757	-200.000	0.042	-0.185
-228.742	348.459	-0.085	-0.169
-227.727	-103.045	0.192	-0.046
-226.713	26.358	0.145	-0.122
-225.698	47.603	-0.332	0.311
-224.684	170.810	0.113	-0.162
-223.669	67.352	0.135	0.138
-222.655	57.878	-0.289	-0.284
-221.640	-200.000	0.042	0.232
-220.625	366.798	0.066	-0.133
-219.611	-200.000	-0.058	-0.303
-218.596	89.079	-0.137	0.153
-217.582	-26.856	0.103	-0.060
-216.567	675.101	0.034	-0.089
-215.552	32.461	0.106	0.092
-214.538	800.000	0.074	-0.226
-213.523	587.726	-0.193	0.476
-212.509	-4.787	-0.162	-0.112
-211.494	136.660	0.081	0.106
-210.479	678.191	0.025	0.064
-209.465	232.024	0.239	-0.393
-208.450	116.850	0.165	-0.204
-207.436	-178.775	0.196	-0.004
-206.421	-2.915	0.147	0.103
-205.406	170.407	-0.081	0.116
-204.392	107.968	0.097	0.116
-203.377	359.741	-0.142	-0.285
-202.363	120.969	0.083	-0.104
-201.348	-200.000	0.088	-0.395
-200.333	146.782	0.132	0.177
-199.319	-11.745	0.065	0.043
-198.304	370.910	-0.136	0.275
-197.290	427.081	-0.090	-0.194
-196.275	712.425	0.040	0.107
-195.260	86.709	0.257	-0.284
-194.246	-200.000	-0.016	0.129
-193.231	-127.715	-0.048	0.007
-192.217	-66.910	0.190	-0.075
-191.202	-52.848	-0.147	0.068
-190.187	74.736	-0.338	0.357
-189.173	741.815	-0.077	0.208
-188.158	-178.912	0.231	0.005
-187.144	52.799	0.195	0.187
-186.129	-97.958	0.136	0.035
-185.114	-84.303	0.135	-0.043
-184.100	-200.000	0.002	0.135
-183.085	-132.882	-0.146	-0.019
-182.071	281.849	-0.110	0.197
-181.056	-63.553	-0.114	-0.047
-180.042	-200.000	-0.010	0.154
-179.027	-65.301	0.364	0.147
-178.012	-4.953	0.137	-0.095
-176.998	226.781	-0.059	-0.096
-175.983	-200.000	0.055	-0.337
-174.969	-29.417	-0.082	-0.047
-173.954	-200.000	-0.009	0.059
-172.939	-200.000	0.027	-0.160
-171.925	800.000	0.068	-0.279
-170.910	174.015	0.134	-0.193
-169.896	-84.015	0.175	0.056
-168.881	-200.000	-0.021	0.267
-167.866	800.000	-0.018	0.068
-166.852	800.000	-0.079	-0.256
-165.837	47.308	0.028	-0.026
-164.823	-67.847	0.111	-0.043
-163.808	-188.734	-0.064	0.001
-162.793	-129.763	-0.230	-0.032
-161.779	-83.881	0.474	0.151
-160.764	30.912	-0.350	0.300
-159.750	-115.441	0.062	0.012
-158.735	242.570	0.104	0.174
-157.720	-200.000	-0.028	0.190
-156.706	217.312	-0.078	0.124
-155.691	-177.121	0.406	0.010
-154.677	1.262	-0.283	0.203
-153.662	-117.806	-0.118	0.021
-152.647	-12.463	-0.197	0.129
-151.633	-95.103	0.305	0.082
-150.618	-200.000	-0.042	0.229
-149.604	-200.000	0.064	0.300
-148.589	-26.670	0.215	0.126
-147.574	-23.244	-0.234	0.141
-146.560	-200.000	0.006	0.394
-145.545	558.389	0.060	0.146
-144.531	-126.455	-0.273	-0.041
-143.516	-200.000	0.001	0.164
-142.502	800.000	-0.123	0.403
-141.487	157.076	0.200	-0.276
-140.472	-200.000	0.000	0.114
-139.458	-36.731	-0.198	0.107
-138.443	-93.905	0.232	-0.064
-137.429	-190.543	0.312	-0.003
-136.414	54.599	0.207	0.200
-135.399	193.628	0.246	-0.372
-134.385	-5.308	0.253	0.174
-133.370	-200.000	0.053	-0.425
-132.356	-126.980	-0.069	0.010
-131.341	647.521	0.105	0.269
-130.326	800.000	0.049	0.177
-129.312	-48.801	0.065	0.031
-128.297	-51.864	-0.306	0.142
-127.283	-96.526	0.098	-0.026
-126.268	93.684	0.113	0.128
-125.253	62.272	-0.175	0.174
-124.239	800.000	0.052	0.170
-123.224	-7.581	-0.065	0.044
-122.210	88.543	0.077	0.086
-121.195	-64.257	-0.163	0.067
-120.180	-138.690	-0.172	0.019
