DTS Sentinel unit serial number:	SN413079Multiplexer serial number:	ORYXHardware model number:	OX4-SRSoftware version number:	ORYX F/W v4.00 Oryx Data Collector v3.7.2.0data status	okinstallation	princeton_trtdifferential loss correction	single-endedforward channel	channel 2reverse channel	N/Adate	2019/09/14time	05:55:35forward acquisition time	60.00reverse acquisition time	0.00gamma	496.2192k internal	0.2336k external	0.2336temperature offset calibration	1.0133default loss term (dB/km)	0.3790temperature slope calibration	1.0000multiplexer offset coefficient	1.0000multiplexer slope coefficient	1.0000fibre end	0.00T internal ref (°C)	26.87T ext. ref 1 (°C)	3.41T ext. ref 2 (°C)	21.19length (m)	temperature (°C)	Stokes	anti-Stokes-747.200	-200.000	0.040	0.222
-746.185	-47.329	-0.207	-0.101
-745.171	-85.435	0.485	0.152
-744.156	-131.288	-0.460	-0.061
-743.142	581.654	-0.138	0.339
-742.127	-18.184	-0.242	0.152
-741.112	43.889	-0.059	-0.054
-740.098	556.617	0.108	0.261
-739.083	-140.498	0.300	-0.031
-738.069	-19.404	0.101	0.063
-737.054	-200.000	0.019	-0.136
-736.039	16.955	-0.233	0.185
-735.025	498.849	-0.169	0.391
-734.010	-200.000	-0.018	-0.500
-732.996	-28.715	-0.340	-0.196
-731.981	31.020	-0.162	-0.139
-730.966	81.986	-0.090	-0.098
-729.952	-200.000	-0.043	0.202
-728.937	132.255	-0.278	-0.360
-727.923	356.504	0.105	-0.210
-726.908	800.000	0.117	0.350
-725.894	-142.081	-0.132	0.013
-724.879	-9.539	-0.061	0.041
-723.864	131.393	0.064	-0.082
-722.850	800.000	-0.055	0.169
-721.835	800.000	-0.044	-0.139
-720.821	-127.518	0.146	0.021
-719.806	461.803	-0.010	-0.023
-718.791	-79.809	0.215	-0.072
-717.777	800.000	-0.138	-0.397
-716.762	3.681	0.137	-0.101
-715.748	274.499	-0.157	0.278
-714.733	223.741	-0.220	0.355
-713.718	-163.565	-0.163	-0.008
-712.704	800.000	0.110	-0.309
-711.689	182.795	0.027	0.040
-710.675	-200.000	0.036	0.281
-709.660	-8.952	-0.256	0.172
-708.645	-163.434	-0.060	-0.003
-707.631	99.600	0.125	0.145
-706.616	-185.568	-0.123	0.002
-705.602	-89.622	0.013	0.004
-704.587	97.574	-0.207	-0.238
-703.572	-162.288	0.255	0.013
-702.558	74.122	-0.270	0.284
-701.543	-168.358	0.346	-0.013
-700.529	107.393	0.146	-0.174
-699.514	95.364	0.210	-0.240
-698.499	309.617	-0.074	0.139
-697.485	800.000	0.081	0.309
-696.470	-112.319	-0.455	-0.091
-695.456	141.295	0.156	0.207
-694.441	163.428	0.047	-0.066
-693.426	76.128	-0.082	-0.088
-692.412	-98.116	-0.406	0.105
-691.397	800.000	-0.038	-0.148
-690.383	11.335	-0.206	0.158
-689.368	-11.975	-0.096	-0.063
-688.354	-200.000	-0.012	0.067
-687.339	-142.239	-0.055	0.005
-686.324	-167.370	0.153	0.006
-685.310	459.733	-0.111	0.247
-684.295	-200.000	-0.010	0.082
-683.281	-1.912	0.111	-0.078
-682.266	-200.000	-0.018	0.162
-681.251	-200.000	-0.011	-0.068
-680.237	108.668	-0.187	-0.224
-679.222	-200.000	-0.008	0.056
-678.208	-200.000	-0.005	-0.221
-677.193	19.388	-0.120	-0.097
-676.178	-20.882	-0.250	-0.153
-675.164	340.958	-0.083	0.163
-674.149	40.057	0.089	0.080
-673.135	421.974	0.145	-0.312
-672.120	151.935	-0.115	-0.156
-671.105	-125.536	-0.274	-0.042
-670.091	486.601	-0.161	-0.368
-669.076	-59.206	-0.117	-0.050
-668.062	207.194	0.188	0.294
-667.047	-66.736	0.285	0.113
-666.032	-83.516	-0.178	0.057
-665.018	173.724	0.204	0.295
-664.003	241.436	0.206	-0.344
-662.989	126.889	0.125	0.158
-661.974	800.000	0.058	-0.176
-660.959	-200.000	0.024	-0.258
-659.945	-162.130	-0.105	0.005
-658.930	-33.610	-0.138	0.076
-657.916	500.683	-0.115	-0.264
-656.901	-73.641	0.060	0.022
-655.886	-95.698	-0.017	0.005
-654.872	-34.550	0.183	0.100
-653.857	177.096	0.144	-0.209
-652.843	251.465	0.100	-0.170
-651.828	242.463	0.159	0.266
-650.814	366.332	-0.170	-0.344
-649.799	800.000	0.035	-0.109
-648.784	800.000	0.078	-0.229
-647.770	-200.000	-0.004	-0.032
-646.755	800.000	0.080	0.256
-645.741	-200.000	-0.003	0.267
-644.726	613.324	-0.146	0.365
-643.711	-107.236	0.080	-0.018
-642.697	4.104	0.149	-0.109
-641.682	-200.000	-0.322	-0.001
-640.668	-79.528	-0.187	-0.063
-639.653	-136.508	0.397	0.046
-638.638	-33.259	-0.127	-0.070
-637.624	-200.000	0.012	0.126
-636.609	680.468	-0.091	-0.237
-635.595	-126.616	-0.248	-0.037
-634.580	-64.261	0.240	0.098
-633.565	147.384	-0.095	0.128
-632.551	-144.608	-0.344	-0.032
-631.536	154.493	0.129	-0.177
-630.522	-200.000	0.026	-0.196
-629.507	-130.913	-0.131	-0.018
-628.492	-137.746	-0.146	-0.016
-627.478	283.324	-0.103	0.185
-626.463	372.171	0.106	0.215
-625.449	-20.594	0.137	0.084
-624.434	-45.546	-0.076	-0.038
-623.419	-200.000	-0.013	0.178
-622.405	-71.962	0.192	0.071
-621.390	-96.086	-0.281	-0.075
-620.376	-135.552	-0.188	0.022
-619.361	-70.173	0.195	-0.074
-618.346	93.992	-0.209	0.237
-617.332	-200.000	-0.013	-0.108
-616.317	519.416	-0.125	-0.292
-615.303	-48.216	0.107	0.051
-614.288	-77.337	0.190	-0.066
-613.273	162.142	-0.156	-0.219
-612.259	556.920	0.069	-0.167
-611.244	109.532	0.037	0.044
-610.230	-200.000	-0.046	-0.202
-609.215	320.734	0.323	0.613
-608.201	-200.000	0.043	-0.204
-607.186	-200.000	0.008	-0.133
-606.171	10.778	0.300	-0.229
-605.157	-68.076	-0.180	-0.070
-604.142	-75.692	-0.445	-0.158
-603.128	164.862	0.155	-0.219
-602.113	-90.837	-0.365	0.105
-601.098	-2.464	-0.173	0.121
-600.084	153.221	0.061	0.084
-599.069	800.000	0.058	0.170
-598.055	-162.582	-0.428	-0.021
-597.040	800.000	-0.112	-0.354
-596.025	-128.512	0.335	0.047
-595.011	668.158	0.010	-0.026
-593.996	-200.000	0.030	-0.232
-592.982	-200.000	-0.027	0.186
-591.967	241.968	-0.110	-0.184
-590.952	-88.055	-0.077	0.023
-589.938	-3.046	-0.096	0.067
-588.923	-162.220	0.087	-0.004
-587.909	-69.066	-0.118	0.046
-586.894	-200.000	-0.002	-0.162
-585.879	-65.462	0.060	-0.024
-584.865	-20.184	0.232	-0.142
-583.850	25.569	-0.163	0.135
-582.836	-7.721	-0.019	-0.013
-581.821	443.836	0.098	0.214
-580.806	-121.060	0.363	0.061
-579.792	-48.736	0.176	0.085
-578.777	-67.144	0.120	0.047
-577.763	-167.264	-0.320	0.013
-576.748	-135.882	-0.090	0.011
-575.733	167.620	-0.267	-0.379
-574.719	-122.353	-0.307	0.050
-573.704	694.603	-0.140	-0.366
-572.690	223.280	-0.249	0.400
-571.675	-156.508	0.267	0.017
-570.661	-200.000	0.012	-0.115
-569.646	591.096	0.083	0.205
-568.631	190.286	-0.201	-0.301
-567.617	800.000	0.047	0.206
-566.602	209.203	-0.082	-0.127
-565.588	22.803	-0.277	-0.226
-564.573	378.860	0.133	0.272
-563.558	-147.450	-0.171	-0.014
-562.544	49.943	-0.221	-0.208
-561.529	-27.282	-0.179	-0.104
-560.515	68.503	-0.241	-0.246
-559.500	800.000	-0.073	-0.234
-558.485	179.149	0.096	0.141
-557.471	134.529	-0.062	-0.080
-556.456	-24.113	-0.237	-0.141
-555.442	106.308	0.162	-0.192
-554.427	490.353	-0.100	0.227
-553.412	-25.651	-0.284	0.167
-552.398	537.669	0.069	-0.164
-551.383	800.000	0.073	0.213
-550.369	-27.736	-0.214	0.124
-549.354	360.114	-0.041	-0.083
-548.339	2.333	0.094	-0.068
-547.325	800.000	0.053	0.193
-546.310	-48.442	0.153	0.073
-545.296	280.116	-0.112	0.199
-544.281	-200.000	-0.016	-0.133
-543.266	117.175	-0.133	0.163
-542.252	-11.562	-0.195	-0.127
-541.237	648.017	-0.064	-0.163
-540.223	-40.697	-0.203	-0.105
-539.208	54.761	-0.162	0.155
-538.193	-84.086	-0.112	0.035
-537.179	-200.000	-0.004	-0.147
-536.164	-28.807	-0.034	-0.020
-535.150	-139.645	0.161	-0.017
-534.135	-151.605	0.162	0.012
-533.121	-22.658	-0.176	-0.106
-532.106	-107.305	-0.329	-0.072
-531.091	-124.781	-0.157	0.024
-530.077	53.622	-0.039	0.037
-529.062	571.792	-0.171	0.416
-528.048	183.396	0.113	-0.166
-527.033	107.821	0.280	0.332
-526.018	-123.698	0.205	0.032
-525.004	800.000	-0.039	0.113
-523.989	-1.567	0.222	-0.156
-522.975	-91.778	0.043	-0.012
-521.960	95.691	-0.153	0.174
-520.945	-14.027	-0.230	-0.148
-519.931	-200.000	0.008	-0.280
-518.916	-155.947	0.225	-0.014
-517.902	-127.638	0.090	0.013
-516.887	217.883	-0.259	-0.412
-515.872	69.609	0.134	0.137
-514.858	468.983	-0.068	-0.152
-513.843	-31.143	-0.298	-0.167
-512.829	-175.776	0.245	-0.007
-511.814	-127.326	0.257	-0.037
-510.799	121.590	0.082	-0.101
-509.785	219.443	0.055	0.087
-508.770	129.990	0.146	0.185
-507.756	-200.000	-0.043	-0.210
-506.741	-49.885	-0.083	-0.039
-505.726	223.876	-0.044	-0.071
-504.712	-76.877	0.245	0.085
-503.697	337.548	-0.174	-0.336
-502.683	132.847	0.133	0.171
-501.668	-133.078	-0.233	-0.029
-500.653	-75.120	-0.274	-0.097
-499.639	377.427	-0.091	-0.185
-498.624	-146.293	-0.117	-0.010
-497.610	-66.137	0.182	-0.072
-496.595	-200.000	0.022	-0.185
-495.581	-101.009	-0.519	-0.127
-494.566	77.444	0.116	-0.123
-493.551	409.798	0.026	0.056
-492.537	342.661	-0.071	-0.137
-491.522	-157.590	-0.096	-0.006
-490.508	113.318	-0.067	-0.080
-489.493	-82.226	0.186	-0.060
-488.478	141.402	-0.116	0.152
-487.464	-35.382	0.122	0.066
-486.449	374.593	0.146	0.297
-485.435	420.142	-0.077	-0.164
-484.420	-91.519	0.584	0.166
-483.405	397.447	0.072	-0.149
-482.391	-76.750	0.264	0.092
-481.376	-129.726	-0.172	-0.023
-480.362	210.899	-0.100	0.156
-479.347	87.696	-0.163	-0.180
-478.332	184.795	-0.104	0.153
-477.318	-29.310	0.204	0.116
-476.303	171.348	-0.068	0.097
-475.289	450.541	-0.043	0.094
-474.274	-86.525	0.170	0.052
-473.259	-0.006	0.223	-0.158
-472.245	-102.929	-0.218	0.051
-471.230	-200.000	-0.036	0.268
-470.216	251.514	0.046	0.077
-469.201	-89.087	0.107	-0.031
-468.186	144.500	-0.123	0.164
-467.172	800.000	0.044	-0.127
-466.157	34.724	-0.018	-0.016
-465.143	-80.241	-0.326	0.108
-464.128	617.529	0.040	0.099
-463.113	800.000	-0.117	0.330
-462.099	800.000	-0.019	0.065
-461.084	-119.666	-0.236	0.040
-460.070	-48.534	-0.408	0.195
-459.055	448.135	0.054	0.118
-458.040	26.307	-0.194	-0.161
-457.026	-63.281	0.119	0.049
-456.011	239.939	-0.070	0.115
-454.997	78.955	-0.088	-0.093
-453.982	74.213	0.213	0.222
-452.968	129.302	0.178	0.226
-451.953	65.188	-0.074	-0.074
-450.938	-30.609	0.174	-0.098
-449.924	-145.919	0.195	0.017
-448.909	-67.575	0.139	0.054
-447.895	800.000	0.053	0.221
-446.880	-134.040	-0.363	-0.045
-445.865	-101.687	0.193	-0.047
-444.851	149.972	0.051	-0.069
-443.836	-71.052	0.276	0.103
-442.822	-200.000	0.025	0.179
-441.807	250.992	0.050	-0.084
-440.792	-200.000	-0.004	-0.290
-439.778	-191.334	0.163	-0.002
-438.763	-88.704	0.239	-0.071
-437.749	-113.466	-0.089	-0.017
-436.734	129.155	-0.171	-0.217
-435.719	32.434	0.126	-0.108
-434.705	-31.975	-0.191	-0.106
-433.690	38.084	0.168	-0.148
-432.676	-200.000	0.030	-0.207
-431.661	800.000	0.029	0.092
-430.646	685.327	0.042	0.109
-429.632	128.826	-0.163	-0.206
-428.617	800.000	-0.087	-0.289
-427.603	-2.830	0.109	0.075
-426.588	-147.343	-0.249	0.021
-425.573	295.428	0.154	-0.279
-424.559	-41.306	-0.287	0.146
-423.544	-200.000	-0.039	-0.371
-422.530	-10.727	0.343	-0.225
-421.515	-200.000	0.014	-0.221
-420.500	249.920	-0.169	-0.284
-419.486	46.387	0.515	-0.473
-418.471	-160.373	0.266	0.014
-417.457	-30.828	-0.081	-0.045
-416.442	-101.149	-0.174	-0.042
-415.428	-59.362	0.354	0.151
-414.413	97.375	0.259	-0.295
-413.398	-54.837	0.080	0.036
-412.384	19.775	-0.219	0.175
-411.369	-72.121	0.179	0.066
-410.355	-73.374	0.144	-0.052
-409.340	-72.259	0.030	-0.011
-408.325	256.186	0.022	-0.038
-407.311	800.000	0.104	-0.376
-406.296	142.244	0.106	0.140
-405.282	-151.036	-0.096	-0.007
-404.267	-110.125	-0.067	0.014
-403.252	88.220	-0.169	0.186
-402.238	143.346	-0.069	0.092
-401.223	140.200	-0.187	0.244
-400.209	800.000	-0.069	0.228
-399.194	-134.509	0.164	0.020
-398.179	188.752	0.031	0.045
-397.165	-97.552	0.260	-0.067
-396.150	800.000	-0.102	-0.324
-395.136	-200.000	0.074	-0.389
-394.121	-23.571	-0.066	-0.039
-393.106	-200.000	0.055	0.244
-392.092	-3.078	-0.183	0.126
-391.077	-1.355	0.158	-0.110
-390.063	65.300	0.241	-0.241
-389.048	-89.434	0.035	-0.010
-388.033	70.929	-0.105	0.108
-387.019	139.265	0.250	0.326
-386.004	-34.759	-0.107	-0.058
-384.990	-113.317	0.186	0.036
-383.975	-108.196	-0.362	0.077
-382.960	800.000	-0.048	0.152
-381.946	89.110	-0.198	-0.219
-380.931	2.159	-0.216	0.155
-379.917	-15.719	-0.203	0.128
-378.902	800.000	0.058	0.184
-377.888	-160.147	-0.090	0.005
-376.873	710.961	0.081	0.212
-375.858	-119.170	0.295	0.051
-374.844	800.000	-0.045	-0.174
-373.829	153.598	0.105	0.142
-372.815	351.279	0.095	-0.186
-371.800	-21.394	-0.240	-0.145
-370.785	21.951	-0.066	0.053
-369.771	-39.229	0.170	0.088
-368.756	254.446	-0.154	-0.261
-367.742	511.125	0.057	-0.132
-366.727	-200.000	0.074	0.527
-365.712	224.297	-0.130	0.208
-364.698	228.428	-0.146	0.236
-363.683	12.913	0.111	0.085
-362.669	92.563	0.198	0.221
-361.654	-110.156	0.350	0.072
-360.639	-70.864	0.237	0.089
-359.625	-200.000	-0.018	0.117
-358.610	-95.599	0.332	0.088
-357.596	-123.800	-0.224	0.035
-356.581	-66.897	0.107	-0.042
-355.566	-21.902	0.276	0.166
-354.552	-23.255	-0.148	0.088
-353.537	-63.019	0.158	-0.065
-352.523	129.484	-0.033	-0.041
-351.508	-184.139	-0.130	-0.002
-350.493	-65.859	-0.159	0.063
-349.479	171.740	-0.059	0.084
-348.464	-1.843	0.116	0.081
-347.450	-200.000	0.052	-0.494
-346.435	63.106	-0.266	-0.264
-345.420	-38.849	0.271	-0.141
-344.406	69.704	-0.140	-0.143
-343.391	130.860	-0.160	0.203
-342.377	496.722	0.131	0.298
-341.362	-151.763	-0.248	0.018
-340.348	-146.747	-0.220	0.019
-339.333	-200.000	-0.011	-0.066
-338.318	-52.454	-0.120	-0.055
-337.304	-85.946	0.081	0.025
-336.289	-200.000	0.023	-0.268
-335.275	-12.408	0.253	-0.163
-334.260	-200.000	0.008	-0.314
-333.245	261.583	0.160	-0.274
-332.231	-132.950	0.202	0.025
-331.216	800.000	0.083	0.248
-330.202	800.000	0.066	-0.191
-329.187	800.000	-0.092	0.280
-328.172	-16.765	0.062	0.039
-327.158	-200.000	0.002	0.014
-326.143	-107.969	0.153	-0.033
-325.129	-129.773	-0.382	-0.052
-324.114	-200.000	0.028	-0.167
-323.099	-126.901	0.384	-0.056
-322.085	-154.161	-0.279	0.019
-321.070	800.000	0.075	0.285
-320.056	-6.401	0.258	-0.174
-319.041	127.098	-0.151	-0.189
-318.026	-83.547	0.021	-0.007
-317.012	-80.780	-0.136	0.045
-315.997	109.973	-0.117	-0.139
-314.983	-131.129	-0.052	-0.007
-313.968	73.938	0.246	0.254
-312.953	109.507	0.105	-0.124
-311.939	-4.090	-0.113	0.078
-310.924	-64.450	-0.083	-0.033
-309.910	62.123	-0.208	0.204
-308.895	66.256	0.152	-0.153
-307.880	-120.444	-0.330	-0.055
-306.866	-200.000	-0.018	0.368
-305.851	224.297	0.244	0.389
-304.837	28.427	0.362	0.302
-303.822	367.138	-0.153	0.305
-302.807	20.906	0.157	-0.125
-301.793	47.222	0.309	0.284
-300.778	431.837	-0.209	0.447
-299.764	663.361	0.090	-0.230
-298.749	410.867	-0.081	-0.170
-297.735	-178.548	-0.292	0.007
-296.720	-50.429	0.197	0.092
-295.705	800.000	-0.069	-0.209
-294.691	-170.644	0.067	-0.002
-293.676	-60.733	0.359	0.150
-292.662	-200.000	-0.009	0.343
-291.647	15.298	0.156	-0.121
-290.632	37.482	-0.098	-0.086
-289.618	-200.000	0.015	0.078
-288.603	221.240	-0.201	-0.318
-287.589	164.685	0.092	0.129
-286.574	-200.000	-0.001	0.091
-285.559	-87.872	-0.154	0.046
-284.545	-188.662	0.214	0.003
-283.530	-124.854	-0.206	0.031
-282.516	-116.626	0.070	-0.013
-281.501	665.485	-0.072	0.183
-280.486	-200.000	0.002	-0.447
-279.472	-27.814	-0.595	-0.340
-278.457	-17.074	0.404	0.251
-277.443	214.944	-0.146	-0.228
-276.428	-38.985	0.102	-0.053
-275.413	38.010	0.150	-0.132
-274.399	-155.854	0.341	0.021
-273.384	-123.798	-0.172	0.027
-272.370	3.391	-0.123	-0.088
-271.355	-186.872	-0.131	-0.002
-270.340	-108.544	-0.466	0.099
-269.326	800.000	-0.093	0.276
-268.311	-130.376	0.501	0.067
-267.297	161.851	0.131	-0.181
-266.282	-53.444	-0.053	0.024
-265.267	140.812	-0.124	-0.162
-264.253	-200.000	-0.008	0.210
-263.238	22.186	-0.155	-0.125
-262.224	800.000	-0.107	-0.317
-261.209	-104.041	-0.301	-0.069
-260.195	260.157	0.184	-0.314
-259.180	-10.150	-0.202	-0.132
-258.165	800.000	-0.025	0.093
-257.151	-98.703	0.465	-0.117
-256.136	-200.000	-0.018	0.152
-255.122	-107.661	-0.121	0.026
-254.107	-200.000	-0.002	0.161
-253.092	64.316	-0.193	0.192
-252.078	-53.835	-0.306	-0.137
-251.063	247.018	0.277	0.460
-250.049	-153.228	0.376	0.026
-249.034	-70.381	-0.111	-0.041
-248.019	-24.383	-0.179	0.105
-247.005	0.889	0.311	0.219
-245.990	7.139	0.197	0.145
-244.976	143.529	0.089	0.116
-243.961	57.753	-0.095	0.092
-242.946	37.702	-0.178	-0.156
-241.932	98.282	0.308	0.349
-240.917	-89.573	0.152	0.044
-239.903	130.999	-0.101	-0.128
-238.888	-137.499	-0.212	-0.024
-237.873	-200.000	-0.024	-0.193
-236.859	94.189	0.184	0.205
-235.844	-17.837	0.178	-0.110
-234.830	120.936	0.288	-0.353
-233.815	-200.000	-0.025	-0.174
-232.800	328.261	0.069	0.131
-231.786	12.224	0.370	-0.280
-230.771	641.074	0.199	-0.499
-229.757	-102.954	-0.180	-0.042
-228.742	-65.646	0.225	-0.089
-227.727	244.415	-0.118	0.196
-226.713	-62.538	0.116	0.047
-225.698	-44.757	-0.124	0.061
-224.684	-117.346	0.176	0.031
-223.669	-200.000	0.004	0.095
-222.655	-200.000	0.027	-0.274
-221.640	82.152	0.266	0.284
-220.625	67.188	0.057	0.058
-219.611	-39.985	-0.121	-0.062
-218.596	46.987	0.060	-0.055
-217.582	-200.000	-0.015	-0.191
-216.567	-200.000	-0.049	-0.423
-215.552	158.550	-0.161	0.220
-214.538	688.283	-0.055	-0.142
-213.523	-20.228	-0.255	-0.154
-212.509	-142.789	0.200	-0.019
-211.494	689.751	0.099	0.256
-210.479	-7.182	-0.168	0.112
-209.465	-107.708	0.211	-0.045
-208.450	85.078	-0.155	-0.167
-207.436	-95.373	0.208	0.055
-206.421	-177.265	0.177	-0.004
-205.406	-200.000	0.010	0.090
-204.392	19.401	-0.243	0.192
-203.377	766.008	-0.095	0.254
-202.363	-97.608	-0.165	0.042
-201.348	97.622	0.263	-0.298
-200.333	800.000	-0.039	0.107
-199.319	73.058	0.150	0.155
-198.304	-8.475	-0.118	-0.078
-197.290	-0.955	0.138	0.096
-196.275	28.686	0.080	0.067
-195.260	-94.888	-0.050	0.013
-194.246	-200.000	-0.015	-0.165
-193.231	-200.000	-0.007	-0.174
-192.217	-200.000	0.056	0.271
-191.202	329.971	-0.023	0.044
-190.187	-164.743	-0.168	-0.007
-189.173	293.375	-0.075	0.135
-188.158	599.644	0.128	0.313
-187.144	186.813	-0.084	-0.122
-186.129	-35.443	-0.174	0.093
-185.114	641.531	0.161	0.404
-184.100	320.363	-0.154	0.288
-183.085	-36.723	0.033	0.017
-182.071	297.007	0.098	-0.177
-181.056	118.188	-0.020	0.024
-180.042	800.000	-0.033	-0.093
-179.027	800.000	0.017	0.068
-178.012	800.000	-0.088	-0.323
-176.998	-96.362	0.213	-0.055
-175.983	-171.362	0.343	-0.011
-174.969	-181.546	0.307	0.006
-173.954	209.668	0.077	-0.118
-172.939	800.000	-0.063	-0.226
-171.925	800.000	0.035	-0.104
-170.910	-5.050	-0.087	0.059
-169.896	-200.000	0.029	0.253
-168.881	800.000	0.053	-0.164
-167.866	-22.098	-0.108	-0.064
-166.852	-200.000	0.035	0.261
-165.837	775.317	0.072	0.194
-164.823	800.000	-0.113	0.346
-163.808	-7.491	-0.327	-0.217
-162.793	-142.715	-0.119	0.011
-161.779	471.027	-0.174	0.383
-160.764	-68.637	0.267	0.101
-159.750	-200.000	-0.061	0.309
-158.735	-43.931	-0.277	0.137
-157.720	41.299	0.133	0.118
-156.706	201.779	-0.227	0.343
-155.691	21.444	0.242	-0.193
-154.677	-33.075	0.099	-0.054
-153.662	365.242	-0.098	0.194
-152.647	73.425	0.130	-0.133
-151.633	465.590	0.159	-0.350
-150.618	276.000	-0.116	0.202
-149.604	-36.806	0.301	0.158
-148.589	-129.559	0.067	0.009
-147.574	47.991	-0.072	0.066
-146.560	689.912	0.045	-0.115
-145.545	594.923	0.016	-0.038
-144.531	-200.000	0.002	0.013
-143.516	-80.458	0.239	-0.078
-142.502	800.000	-0.008	0.033
-141.487	-200.000	-0.020	-0.187
-140.472	-200.000	0.004	0.064
-139.458	-132.110	0.299	-0.038
-138.443	211.195	-0.290	-0.447
-137.429	-39.325	0.088	-0.046
-136.414	-128.610	-0.222	0.031
-135.399	-10.133	-0.189	0.123
-134.385	-157.424	-0.401	0.024
-133.370	-69.201	-0.093	0.035
-132.356	-200.000	0.009	-0.098
-131.341	55.341	0.043	0.040
-130.326	-200.000	-0.024	-0.354
-129.312	-22.965	0.251	-0.148
-128.297	-44.675	-0.199	0.097
-127.283	95.749	-0.019	0.022
-126.268	-76.606	0.251	0.086
-125.253	390.544	0.148	0.302
-124.239	178.298	0.051	-0.073
-123.224	-200.000	-0.002	-0.250
-122.210	74.570	-0.093	0.096
-121.195	179.843	-0.088	-0.126
