DTS Sentinel unit serial number:	SN413079Multiplexer serial number:	ORYXHardware model number:	OX4-SRSoftware version number:	ORYX F/W v4.00 Oryx Data Collector v3.7.2.0data status	okinstallation	princeton_trtdifferential loss correction	single-endedforward channel	channel 2reverse channel	N/Adate	2019/09/11time	07:17:10forward acquisition time	60.00reverse acquisition time	0.00gamma	496.2192k internal	0.2327k external	0.2327temperature offset calibration	0.9940default loss term (dB/km)	0.3790temperature slope calibration	1.0000multiplexer offset coefficient	1.0000multiplexer slope coefficient	1.0000fibre end	0.00T internal ref (°C)	30.62T ext. ref 1 (°C)	-0.05T ext. ref 2 (°C)	27.06length (m)	temperature (°C)	Stokes	anti-Stokes-747.200	-34.676	0.190	-0.105
-746.185	-75.627	-0.452	0.162
-745.171	144.126	-0.162	-0.218
-744.156	800.000	0.055	0.171
-743.142	36.355	0.318	0.283
-742.127	-200.000	0.007	0.559
-741.112	-77.341	0.120	0.042
-740.098	-4.524	0.162	0.113
-739.083	165.297	0.154	-0.219
-738.069	145.455	0.166	0.224
-737.054	-200.000	-0.088	0.416
-736.039	106.665	-0.089	-0.106
-735.025	54.279	0.250	0.242
-734.010	800.000	-0.056	0.232
-732.996	171.022	-0.281	-0.405
-731.981	81.025	0.234	-0.255
-730.966	585.567	0.121	-0.300
-729.952	800.000	0.011	-0.038
-728.937	107.487	-0.159	0.191
-727.923	160.610	-0.137	0.193
-726.908	-44.786	-0.086	-0.043
-725.894	47.363	-0.133	-0.124
-724.879	218.767	-0.124	-0.200
-723.864	-162.765	0.303	0.015
-722.850	105.670	-0.090	-0.107
-721.835	229.779	-0.058	0.096
-720.821	118.763	0.092	0.115
-719.806	594.875	-0.093	-0.231
-718.791	208.512	-0.118	-0.187
-717.777	-157.839	-0.290	0.017
-716.762	-130.669	-0.141	-0.019
-715.748	477.288	-0.042	0.096
-714.733	-124.806	-0.288	-0.045
-713.718	-136.409	0.036	-0.004
-712.704	-54.121	0.255	-0.117
-711.689	-200.000	-0.030	-0.220
-710.675	800.000	-0.068	0.259
-709.660	69.087	0.157	0.162
-708.645	-200.000	-0.025	0.286
-707.631	30.772	0.183	0.157
-706.616	-25.606	0.011	0.007
-705.602	-200.000	0.017	0.192
-704.587	440.094	0.239	0.525
-703.572	-168.118	0.096	-0.004
-702.558	568.347	0.105	-0.256
-701.543	643.089	0.037	-0.095
-700.529	177.081	-0.114	0.166
-699.514	447.490	0.107	-0.238
-698.499	-174.061	0.079	-0.002
-697.485	-55.881	0.095	-0.043
-696.470	-200.000	-0.008	-0.438
-695.456	-5.577	-0.115	-0.079
-694.441	-63.744	0.216	-0.089
-693.426	-21.015	0.069	0.042
-692.412	-72.372	0.060	-0.023
-691.397	610.655	-0.095	-0.240
-690.383	68.979	-0.098	-0.101
-689.368	154.229	-0.160	-0.221
-688.354	-74.050	0.098	-0.036
-687.339	-80.268	-0.043	-0.015
-686.324	-69.803	-0.120	0.046
-685.310	152.340	-0.104	0.142
-684.295	-200.000	-0.042	-0.290
-683.281	800.000	-0.043	0.140
-682.266	-122.962	-0.216	0.035
-681.251	-200.000	0.031	-0.165
-680.237	800.000	0.052	-0.183
-679.222	-70.436	0.102	0.039
-678.208	392.038	0.069	-0.144
-677.193	-12.119	-0.263	-0.173
-676.178	-64.206	0.114	-0.047
-675.164	-161.720	0.126	0.006
-674.149	433.922	-0.080	0.175
-673.135	-85.948	0.321	-0.100
-672.120	101.579	0.194	0.227
-671.105	91.428	0.166	-0.187
-670.091	-200.000	-0.029	-0.356
-669.076	-200.000	0.018	-0.118
-668.062	-134.712	-0.239	-0.029
-667.047	-200.000	0.041	-0.333
-666.032	330.596	0.035	-0.068
-665.018	-32.309	0.084	0.047
-664.003	-136.747	0.229	0.027
-662.989	-1.735	0.252	-0.178
-661.974	506.975	-0.046	-0.108
-660.959	-105.286	-0.064	-0.015
-659.945	-93.264	0.111	-0.031
-658.930	-200.000	-0.046	-0.308
-657.916	353.887	0.072	-0.144
-656.901	403.111	-0.209	0.442
-655.886	37.121	0.014	0.012
-654.872	79.506	0.041	-0.044
-653.857	-200.000	-0.001	0.071
-652.843	604.724	0.103	0.258
-651.828	-85.508	0.246	0.077
-650.814	-72.632	0.120	0.044
-649.799	-170.277	0.158	-0.006
-648.784	38.297	-0.301	-0.269
-647.770	60.266	-0.119	0.119
-646.755	-200.000	-0.002	-0.096
-645.741	75.182	-0.128	0.136
-644.726	-72.286	-0.189	0.070
-643.711	800.000	-0.067	-0.253
-642.697	-67.687	-0.135	0.053
-641.682	-82.187	0.079	0.026
-640.668	-36.264	-0.253	0.137
-639.653	-160.487	-0.470	0.025
-638.638	-200.000	-0.042	-0.357
-637.624	417.563	-0.140	-0.301
-636.609	103.865	0.076	-0.089
-635.595	-62.379	-0.346	0.144
-634.580	797.833	0.184	-0.510
-633.565	10.988	-0.245	0.188
-632.551	-80.046	-0.202	0.068
-631.536	697.458	0.066	-0.175
-630.522	-116.160	0.029	0.005
-629.507	63.458	0.069	-0.070
-628.492	31.944	0.114	-0.099
-627.478	297.552	0.052	-0.096
-626.463	-85.460	-0.213	-0.066
-625.449	800.000	0.060	-0.221
-624.434	-200.000	-0.040	-0.326
-623.419	-101.191	-0.334	0.082
-622.405	-27.229	0.250	-0.146
-621.390	-58.961	-0.107	-0.046
-620.376	-161.017	-0.272	0.014
-619.361	-28.093	0.139	0.080
-618.346	-130.970	0.247	-0.033
-617.332	95.871	-0.205	-0.235
-616.317	128.312	-0.080	-0.102
-615.303	-70.575	0.218	-0.083
-614.288	171.736	0.048	-0.070
-613.273	-107.609	-0.117	-0.026
-612.259	3.183	-0.236	-0.172
-611.244	758.330	0.037	-0.101
-610.230	-140.398	0.265	0.028
-609.215	-118.858	0.126	-0.022
-608.201	-62.592	-0.058	0.024
-607.186	-39.091	0.043	-0.023
-606.171	-34.529	-0.121	0.066
-605.157	800.000	-0.085	0.258
-604.142	32.258	0.272	-0.236
-603.128	13.946	0.274	-0.214
-602.113	6.485	-0.115	0.086
-601.098	142.015	-0.135	-0.180
-600.084	236.138	0.045	-0.074
-599.069	-200.000	0.020	-0.351
-598.055	218.113	0.182	-0.291
-597.040	-50.849	-0.168	-0.079
-596.025	800.000	0.033	-0.137
-595.011	-48.914	0.200	-0.096
-593.996	-119.949	0.141	0.024
-592.982	-69.049	0.554	-0.214
-591.967	-200.000	0.014	-0.083
-590.952	7.979	0.175	0.132
-589.938	112.343	0.175	0.212
-588.923	800.000	-0.090	-0.299
-587.909	52.214	-0.146	-0.139
-586.894	11.663	-0.218	0.167
-585.879	-5.438	0.071	-0.049
-584.865	149.834	0.081	0.110
-583.850	675.270	0.008	0.020
-582.836	200.331	-0.131	-0.201
-581.821	121.692	0.152	-0.189
-580.806	106.837	0.125	0.149
-579.792	800.000	0.097	-0.304
-578.777	-82.891	-0.261	0.084
-577.763	790.886	-0.047	-0.130
-576.748	39.682	-0.095	0.085
-575.733	-18.242	-0.030	0.019
-574.719	-8.683	0.090	0.060
-573.704	186.530	0.079	-0.118
-572.690	-68.123	-0.192	-0.075
-571.675	14.437	-0.125	0.098
-570.661	-200.000	-0.027	0.120
-569.646	56.940	0.214	0.209
-568.631	-200.000	0.022	-0.138
-567.617	-136.490	0.157	0.018
-566.602	-200.000	0.332	0.001
-565.588	-104.461	0.374	-0.087
-564.573	-83.693	-0.012	-0.004
-563.558	303.231	0.056	0.104
-562.544	-200.000	0.007	-0.051
-561.529	800.000	-0.058	0.192
-560.515	-40.573	0.287	-0.149
-559.500	155.098	0.142	-0.195
-558.485	-92.204	-0.296	-0.084
-557.471	174.239	0.217	0.314
-556.456	-102.947	-0.112	-0.027
-555.442	-200.000	0.006	-0.038
-554.427	8.212	-0.082	0.062
-553.412	141.202	-0.082	0.109
-552.398	5.343	-0.051	-0.038
-551.383	-12.366	0.157	0.103
-550.369	-200.000	0.026	0.253
-549.354	-200.000	-0.054	0.237
-548.339	-56.466	0.103	-0.046
-547.325	-200.000	-0.022	-0.316
-546.310	113.580	-0.023	0.027
-545.296	5.817	-0.074	0.055
-544.281	-103.430	-0.472	-0.111
-543.266	-61.415	-0.099	0.042
-542.252	60.028	-0.086	-0.085
-541.237	-200.000	-0.008	-0.148
-540.223	800.000	0.185	-0.519
-539.208	57.517	0.215	0.210
-538.193	-200.000	0.029	-0.336
-537.179	800.000	0.015	0.057
-536.164	-200.000	-0.006	0.033
-535.150	272.127	0.158	-0.279
-534.135	800.000	0.045	-0.125
-533.121	27.050	-0.155	-0.130
-532.106	-170.761	-0.111	-0.004
-531.091	-200.000	0.027	0.224
-530.077	-94.169	0.303	0.083
-529.062	-200.000	-0.037	-0.161
-528.048	-200.000	0.052	0.284
-527.033	-119.031	0.134	0.023
-526.018	-7.691	0.340	0.229
-525.004	67.844	-0.111	0.113
-523.989	7.411	-0.190	-0.142
-522.975	-200.000	-0.031	-0.159
-521.960	108.727	0.048	-0.057
-520.945	149.176	0.135	0.183
-519.931	-46.841	0.449	-0.219
-518.916	-182.183	0.330	0.006
-517.902	-94.007	-0.086	0.024
-516.887	-42.077	-0.080	0.041
-515.872	188.101	-0.159	0.237
-514.858	336.208	0.086	-0.166
-513.843	-101.510	0.152	-0.037
-512.829	97.276	0.239	0.275
-511.814	99.382	-0.223	0.258
-510.799	-60.496	0.123	-0.052
-509.785	800.000	-0.072	0.243
-508.770	800.000	0.098	0.389
-507.756	800.000	0.045	0.160
-506.741	-140.920	0.208	0.021
-505.726	-200.000	-0.039	0.470
-504.712	-77.186	-0.309	-0.108
-503.697	231.567	-0.084	-0.138
-502.683	-200.000	-0.041	-0.258
-501.668	-200.000	0.024	0.178
-500.653	-136.233	0.146	0.017
-499.639	-71.029	-0.350	-0.131
-498.624	49.832	-0.095	0.089
-497.610	-55.551	-0.165	0.074
-496.595	32.063	0.095	0.082
-495.581	-119.114	0.091	-0.016
-494.566	-200.000	-0.012	-0.098
-493.551	-17.515	-0.197	0.123
-492.537	-113.126	-0.158	-0.031
-491.522	55.504	-0.372	0.359
-490.508	67.175	-0.319	-0.325
-489.493	100.819	-0.016	-0.018
-488.478	89.744	-0.164	0.183
-487.464	99.199	0.149	-0.172
-486.449	-200.000	-0.019	0.183
-485.435	-28.063	-0.353	-0.204
-484.420	-31.735	0.270	0.151
-483.405	530.772	-0.024	0.057
-482.391	-118.390	0.043	-0.008
-481.376	-146.959	0.515	-0.044
-480.362	800.000	-0.065	-0.261
-479.347	-80.258	-0.197	-0.066
-478.332	800.000	-0.047	0.167
-477.318	-49.540	0.162	-0.077
-476.303	800.000	0.063	0.228
-475.289	47.092	0.281	-0.260
-474.274	-181.163	0.072	0.001
-473.259	57.206	-0.215	-0.209
-472.245	-139.631	-0.247	0.026
-471.230	-100.200	-0.231	0.057
-470.216	-105.548	0.200	0.045
-469.201	109.485	0.155	-0.185
-468.186	754.692	-0.121	0.327
-467.172	-133.846	-0.050	-0.006
-466.157	46.367	-0.200	0.185
-465.143	-59.594	0.195	0.084
-464.128	142.345	0.112	-0.148
-463.113	-100.383	-0.111	0.027
-462.099	-44.999	-0.195	-0.097
-461.084	-200.000	0.005	-0.279
-460.070	-200.000	0.039	-0.178
-459.055	72.925	-0.062	-0.064
-458.040	-35.475	-0.342	0.185
-457.026	78.908	0.290	0.309
-456.011	-6.366	0.251	0.171
-454.997	-200.000	-0.001	-0.092
-453.982	-200.000	-0.022	0.108
-452.968	-77.548	0.068	-0.023
-451.953	800.000	-0.041	0.114
-450.938	-200.000	-0.081	-0.367
-449.924	196.916	-0.144	-0.219
-448.909	800.000	-0.023	0.077
-447.895	800.000	-0.037	0.120
-446.880	-200.000	0.011	0.154
-445.865	-71.882	-0.394	0.146
-444.851	-59.521	0.336	-0.144
-443.836	214.368	0.159	-0.251
-442.822	-43.310	-0.204	-0.103
-441.807	-200.000	-0.010	0.066
-440.792	435.373	-0.083	-0.180
-439.778	64.452	0.060	-0.060
-438.763	-50.360	0.151	0.071
-437.749	207.871	0.028	0.044
-436.734	28.474	-0.056	0.047
-435.719	-147.296	0.061	0.005
-434.705	-16.093	0.259	0.164
-433.690	800.000	0.006	0.023
-432.676	6.505	-0.468	-0.346
-431.661	19.917	-0.244	0.196
-430.646	-80.086	0.150	-0.050
-429.632	103.975	-0.131	-0.153
-428.617	-25.393	0.156	-0.092
-427.603	-96.733	0.329	0.086
-426.588	-145.119	0.297	0.027
-425.573	339.316	0.074	0.144
-424.559	-134.971	0.265	-0.032
-423.544	-137.901	0.158	0.018
-422.530	-150.399	-0.098	-0.008
-421.515	289.020	0.132	-0.238
-420.500	99.033	0.216	-0.248
-419.486	-51.871	-0.269	0.125
-418.471	-200.000	-0.056	0.417
-417.457	-39.406	-0.142	0.074
-416.442	-200.000	-0.051	-0.309
-415.428	58.343	0.331	-0.323
-414.413	679.591	-0.055	-0.142
-413.398	-200.000	-0.035	0.223
-412.384	73.203	-0.185	0.193
-411.369	-125.706	-0.165	0.025
-410.355	800.000	-0.038	0.107
-409.340	-75.363	0.155	-0.055
-408.325	215.090	-0.252	0.398
-407.311	66.112	0.327	-0.330
-406.296	17.431	-0.228	0.180
-405.282	800.000	0.047	-0.145
-404.267	1.307	-0.109	-0.078
-403.252	-200.000	-0.008	-0.263
-402.238	-83.893	-0.341	0.108
-401.223	274.538	0.107	-0.189
-400.209	-200.000	0.005	0.179
-399.194	-200.000	0.014	0.251
-398.179	310.336	0.164	0.305
-397.165	-141.731	0.221	0.022
-396.150	800.000	-0.043	-0.121
-395.136	-121.979	-0.247	0.040
-394.121	-94.551	-0.058	-0.016
-393.106	-26.538	-0.101	0.059
-392.092	13.708	-0.192	-0.148
-391.077	51.616	0.301	0.285
-390.063	-128.749	-0.275	0.039
-389.048	199.550	-0.062	0.094
-388.033	-79.549	0.242	-0.081
-387.019	101.945	0.122	-0.141
-386.004	-8.232	-0.080	-0.053
-384.990	-87.701	-0.246	-0.074
-383.975	-107.787	0.174	0.038
-382.960	7.348	0.242	0.180
-381.946	148.520	0.101	0.135
-380.931	446.374	-0.110	-0.240
-379.917	-145.070	-0.392	0.035
-378.902	209.965	-0.169	-0.264
-377.888	87.749	-0.097	-0.107
-376.873	105.475	-0.057	0.067
-375.858	15.986	0.146	-0.114
-374.844	-197.104	0.318	0.002
-373.829	305.217	0.184	0.339
-372.815	800.000	-0.064	0.242
-371.800	197.954	0.149	-0.226
-370.785	800.000	0.016	0.055
-369.771	-33.930	0.310	-0.169
-368.756	-148.766	-0.233	0.019
-367.742	221.687	-0.034	0.054
-366.727	75.160	0.074	-0.077
-365.712	24.162	0.321	-0.263
-364.698	-9.921	0.279	-0.184
-363.683	-120.528	-0.042	0.007
-362.669	-200.000	0.006	0.277
-361.654	103.802	0.084	0.098
-360.639	-96.592	0.202	-0.053
-359.625	800.000	0.092	0.342
-358.610	-85.939	0.106	0.032
-357.596	-37.461	-0.280	0.148
-356.581	-200.000	0.136	0.001
-355.566	-200.000	0.017	-0.196
-354.552	103.050	-0.173	0.201
-353.537	-117.921	0.332	0.059
-352.523	800.000	0.027	-0.080
-351.508	89.667	0.308	-0.341
-350.493	208.371	0.280	0.435
-349.479	-188.740	-0.332	0.004
-348.464	-82.073	-0.144	0.047
-347.450	-118.948	0.309	0.054
-346.435	-132.298	-0.145	0.019
-345.420	244.282	-0.091	0.152
-344.406	-118.409	-0.202	-0.035
-343.391	-107.249	0.199	0.043
-342.377	-32.709	0.173	-0.096
-341.362	-135.187	-0.216	-0.026
-340.348	50.149	-0.178	0.166
-339.333	-117.126	-0.237	-0.043
-338.318	-200.000	-0.105	-0.480
-337.304	-200.000	-0.001	-0.222
-336.289	145.265	0.165	0.220
-335.275	-47.073	-0.280	0.136
-334.260	800.000	0.065	0.223
-333.245	-200.000	-0.026	0.401
-332.231	-35.370	-0.151	0.082
-331.216	230.961	0.163	-0.266
-330.202	99.800	-0.196	0.225
-329.187	-129.789	0.311	-0.042
-328.172	-14.671	-0.198	-0.126
-327.158	158.625	0.139	0.191
-326.143	58.940	-0.053	-0.052
-325.129	800.000	0.110	0.350
-324.114	151.993	-0.174	0.235
-323.099	-200.000	-0.045	-0.339
-322.085	341.327	0.008	-0.015
-321.070	-36.668	-0.221	0.118
-320.056	-200.000	0.043	-0.255
-319.041	800.000	0.057	-0.174
-318.026	-11.485	-0.334	0.218
-317.012	-37.128	0.433	-0.230
-315.997	29.866	0.279	-0.236
-314.983	-40.000	-0.130	-0.067
-313.968	113.918	-0.265	-0.320
-312.953	144.559	0.204	0.270
-311.939	-73.687	0.072	-0.026
-310.924	434.766	0.019	-0.041
-309.910	-161.141	0.250	-0.013
-308.895	-28.667	0.143	-0.082
-307.880	25.868	-0.106	0.088
-306.866	169.278	-0.112	-0.158
-305.851	800.000	-0.038	0.151
-304.837	9.369	-0.184	0.138
-303.822	574.830	-0.107	0.259
-302.807	-77.147	0.217	0.075
-301.793	-136.621	-0.178	-0.020
-300.778	-31.711	0.083	-0.046
-299.764	-154.384	0.154	-0.010
-298.749	-158.405	-0.122	0.007
-297.735	800.000	-0.076	-0.241
-296.720	-122.213	0.313	0.051
-295.705	62.933	-0.132	0.131
-294.691	-200.000	-0.010	-0.247
-293.676	-20.371	-0.156	-0.095
-292.662	800.000	-0.068	0.220
-291.647	-71.314	-0.117	0.043
-290.632	-145.270	0.240	-0.021
-289.618	-170.415	-0.416	-0.014
-288.603	111.362	-0.211	0.252
-287.589	73.603	-0.084	-0.087
-286.574	800.000	0.035	0.102
-285.559	-82.299	0.213	-0.069
-284.545	-88.756	0.098	-0.029
-283.530	-65.535	0.108	0.043
-282.516	800.000	0.058	0.246
-281.501	800.000	-0.084	-0.315
-280.486	-41.506	0.335	-0.171
-279.472	167.845	-0.171	0.241
-278.457	800.000	-0.062	-0.244
-277.443	-94.689	-0.154	0.041
-276.428	511.694	0.089	-0.205
-275.413	71.664	-0.136	-0.140
-274.399	223.286	0.119	-0.189
-273.384	800.000	0.027	0.090
-272.370	-85.890	0.246	0.075
-271.355	800.000	0.051	-0.198
-270.340	392.767	0.088	-0.182
-269.326	-200.000	-0.023	0.208
-268.311	205.309	0.133	0.204
-267.297	-200.000	0.029	0.291
-266.282	-50.333	-0.352	0.165
-265.267	92.589	-0.119	-0.132
-264.253	-57.152	-0.110	0.048
-263.238	276.856	-0.085	-0.149
-262.224	-165.517	0.114	0.005
-261.209	397.671	0.031	0.063
-260.195	-148.980	0.322	0.026
-259.180	141.888	0.103	-0.135
-258.165	44.638	0.289	0.262
-257.151	-145.155	0.146	0.013
-256.136	-22.726	0.200	0.120
-255.122	-8.005	-0.119	0.079
-254.107	-39.821	0.262	0.136
-253.092	-170.321	0.138	-0.005
-252.078	-54.887	-0.561	-0.250
-251.063	-47.602	0.217	0.104
-250.049	95.424	0.193	0.218
-249.034	515.589	0.080	0.184
-248.019	31.364	0.215	0.182
-247.005	239.741	0.110	-0.180
-245.990	325.175	-0.098	0.186
-244.976	630.119	-0.041	-0.103
-243.961	-108.531	-0.215	-0.046
-242.946	800.000	0.049	0.191
-241.932	-27.715	0.079	0.045
-240.917	-59.231	0.115	-0.049
-239.903	-68.937	-0.336	0.128
-238.888	-200.000	-0.003	-0.115
-237.873	-87.601	0.126	0.038
-236.859	-65.910	0.127	0.050
-235.844	212.698	-0.075	0.117
-234.830	-125.574	-0.307	-0.046
-233.815	-200.000	0.001	0.020
-232.800	-145.770	0.118	-0.010
-231.786	-102.436	0.134	0.032
-230.771	-0.965	-0.192	0.134
-229.757	2.372	-0.288	0.206
-228.742	-75.564	0.207	-0.073
-227.727	200.325	0.041	-0.063
-226.713	-54.095	-0.173	0.078
-225.698	131.924	-0.126	-0.161
-224.684	-200.000	0.005	0.072
-223.669	35.518	0.092	-0.080
-222.655	-84.266	0.330	0.103
-221.640	153.943	0.262	0.355
-220.625	-200.000	0.048	0.230
-219.611	-66.527	-0.175	-0.069
-218.596	-172.975	0.162	-0.005
-217.582	28.413	-0.301	-0.251
-216.567	225.298	-0.124	-0.198
-215.552	-200.000	-0.043	0.332
-214.538	-200.000	0.024	-0.181
-213.523	-50.387	0.183	-0.085
-212.509	127.386	0.081	-0.102
-211.494	-200.000	-0.002	-0.122
-210.479	-23.969	-0.401	0.237
-209.465	800.000	0.078	-0.248
-208.450	-175.170	-0.215	0.006
-207.436	77.171	-0.147	0.154
-206.421	800.000	-0.016	-0.051
-205.406	-47.803	-0.113	-0.054
-204.392	-120.623	-0.242	-0.040
-203.377	-200.000	0.100	0.443
-202.363	-200.000	0.038	-0.191
-201.348	-97.421	-0.122	-0.031
-200.333	-57.129	0.181	0.079
-199.319	-200.000	-0.046	0.215
-198.304	-200.000	0.024	-0.207
-197.290	-108.417	-0.380	0.081
-196.275	-200.000	0.036	0.271
-195.260	-151.080	-0.188	0.014
-194.246	-51.736	0.098	-0.045
-193.231	48.456	-0.086	0.080
-192.217	53.261	-0.138	-0.130
-191.202	200.142	-0.098	-0.149
-190.187	53.342	-0.189	0.179
-189.173	-141.818	-0.322	0.032
-188.158	800.000	0.039	0.132
-187.144	-97.636	0.409	0.105
-186.129	-193.213	-0.046	0.000
-185.114	592.056	0.128	-0.311
-184.100	-58.280	0.223	-0.096
-183.085	116.340	0.062	0.075
-182.071	12.102	0.276	0.209
-181.056	-143.627	-0.321	-0.030
-180.042	26.101	0.262	-0.216
-179.027	-200.000	0.009	-0.246
-178.012	-200.000	-0.029	0.292
-176.998	-130.889	-0.181	0.024
-175.983	-117.627	-0.222	-0.039
-174.969	-12.668	-0.124	-0.080
-173.954	800.000	0.034	0.132
-172.939	-91.321	0.286	0.081
-171.925	300.655	-0.013	-0.024
-170.910	763.443	0.082	0.218
-169.896	213.294	0.056	-0.087
-168.881	-133.691	-0.327	0.040
-167.866	800.000	-0.079	0.304
-166.852	14.772	0.250	0.193
-165.837	-31.046	-0.328	0.182
-164.823	240.851	-0.178	0.293
-163.808	-173.295	-0.249	-0.007
-162.793	22.896	0.078	-0.063
-161.779	56.851	0.194	-0.186
-160.764	-200.000	-0.010	-0.310
-159.750	58.489	0.150	-0.145
-158.735	-111.467	-0.043	0.009
-157.720	-134.090	-0.038	-0.005
-156.706	-50.906	0.128	-0.059
-155.691	-200.000	0.040	0.457
-154.677	167.563	-0.066	-0.092
-153.662	23.141	-0.214	-0.173
-152.647	800.000	0.071	0.195
-151.633	-200.000	-0.002	0.165
-150.618	-200.000	0.013	0.314
-149.604	65.324	-0.075	-0.075
-148.589	-196.635	0.016	-0.000
-147.574	210.025	-0.099	0.154
-146.560	109.606	-0.166	0.196
-145.545	-200.000	0.004	-0.143
-144.531	800.000	-0.003	0.011
-143.516	134.581	-0.201	-0.257
-142.502	322.464	0.047	-0.088
-141.487	-66.666	0.165	-0.065
-140.472	36.717	-0.190	0.166
-139.458	-200.000	0.021	0.101
-138.443	10.575	-0.036	-0.027
-137.429	-200.000	0.014	-0.074
-136.414	-200.000	0.004	0.031
-135.399	114.769	-0.141	-0.169
-134.385	49.907	-0.185	0.171
-133.370	492.233	-0.067	0.151
-132.356	5.142	0.172	0.124
-131.341	-15.646	0.011	-0.007
-130.326	-143.897	0.286	-0.027
-129.312	-62.277	-0.146	-0.060
-128.297	-192.225	0.163	0.002
-127.283	481.691	0.096	0.215
-126.268	51.200	0.204	0.191
-125.253	306.419	-0.049	-0.089
-124.239	800.000	-0.061	0.219
-123.224	-162.571	0.173	0.008
-122.210	56.471	-0.171	-0.163
-121.195	326.560	-0.273	0.515
