DTS Sentinel unit serial number:	SN413079Multiplexer serial number:	ORYXHardware model number:	OX4-SRSoftware version number:	ORYX F/W v4.00 Oryx Data Collector v3.7.2.0data status	okinstallation	princeton_trtdifferential loss correction	single-endedforward channel	channel 2reverse channel	N/Adate	2019/09/16time	10:43:35forward acquisition time	60.00reverse acquisition time	0.00gamma	496.2192k internal	0.2317k external	0.2317temperature offset calibration	0.9955default loss term (dB/km)	0.3790temperature slope calibration	1.0000multiplexer offset coefficient	1.0000multiplexer slope coefficient	1.0000fibre end	0.00T internal ref (°C)	36.00T ext. ref 1 (°C)	12.65T ext. ref 2 (°C)	34.21length (m)	temperature (°C)	Stokes	anti-Stokes-747.200	-139.923	0.112	-0.012
-746.185	800.000	0.147	0.482
-745.171	222.090	-0.177	0.288
-744.156	160.058	-0.106	0.150
-743.142	800.000	-0.026	-0.097
-742.127	100.789	0.252	0.297
-741.112	242.362	-0.134	-0.227
-740.098	-153.701	0.171	-0.012
-739.083	-200.000	-0.129	0.587
-738.069	19.153	-0.414	0.336
-737.054	245.115	-0.212	-0.361
-736.039	89.619	-0.198	0.224
-735.025	-200.000	0.001	0.249
-734.010	-51.373	-0.301	-0.142
-732.996	-200.000	-0.011	-0.165
-731.981	550.613	0.107	0.259
-730.966	8.475	0.144	-0.109
-729.952	800.000	-0.019	0.079
-728.937	800.000	0.016	0.055
-727.923	102.360	0.218	-0.258
-726.908	176.875	-0.335	-0.493
-725.894	127.576	-0.254	-0.327
-724.879	155.804	0.172	-0.239
-723.864	-54.986	-0.132	-0.060
-722.850	-200.000	0.018	0.187
-721.835	-64.802	-0.235	-0.096
-720.821	-37.936	-0.302	0.162
-719.806	705.157	-0.051	-0.136
-718.791	-200.000	0.000	-0.038
-717.777	-109.958	-0.130	-0.027
-716.762	-92.545	-0.132	0.037
-715.748	800.000	0.055	0.168
-714.733	191.771	-0.109	-0.166
-713.718	120.494	-0.150	0.188
-712.704	-113.096	0.103	-0.020
-711.689	-200.000	-0.038	0.271
-710.675	-200.000	-0.002	-0.013
-709.660	-66.890	-0.124	-0.049
-708.645	-50.858	-0.320	-0.152
-707.631	-147.049	-0.439	-0.038
-706.616	-111.853	0.134	-0.027
-705.602	-64.982	-0.068	-0.028
-704.587	151.505	-0.233	-0.321
-703.572	-200.000	0.018	0.359
-702.558	-29.816	0.302	-0.174
-701.543	124.688	0.223	-0.284
-700.529	115.585	0.111	-0.137
-699.514	800.000	-0.033	-0.094
-698.499	-121.222	-0.479	-0.081
-697.485	-200.000	0.033	-0.225
-696.470	-89.387	0.068	-0.020
-695.456	-200.000	-0.021	-0.217
-694.441	106.965	0.147	0.176
-693.426	-6.756	0.310	-0.213
-692.412	-129.418	0.189	-0.027
-691.397	-125.669	-0.355	-0.054
-690.383	800.000	-0.037	-0.147
-689.368	-37.598	0.049	-0.027
-688.354	67.013	-0.322	0.332
-687.339	-10.007	-0.175	-0.117
-686.324	342.930	0.106	-0.209
-685.310	166.377	-0.081	0.116
-684.295	-200.000	0.023	0.194
-683.281	-118.866	-0.095	-0.017
-682.266	319.944	-0.040	0.076
-681.251	800.000	-0.072	0.202
-680.237	-200.000	0.039	0.347
-679.222	-99.030	-0.201	0.051
-678.208	-165.608	-0.169	0.007
-677.193	-42.224	0.137	-0.071
-676.178	800.000	0.055	-0.226
-675.164	38.471	0.361	-0.325
-674.149	189.523	0.130	-0.197
-673.135	-167.131	-0.137	0.006
-672.120	712.561	0.029	0.078
-671.105	-200.000	-0.030	0.242
-670.091	-73.590	0.099	-0.036
-669.076	-200.000	-0.003	-0.298
-668.062	-161.288	0.040	0.002
-667.047	233.074	0.125	-0.207
-666.032	331.833	0.095	-0.185
-665.018	546.923	0.058	-0.139
-664.003	41.719	-0.253	0.231
-662.989	-37.153	-0.171	-0.093
-661.974	-33.773	0.148	-0.082
-660.959	-99.624	0.094	0.024
-659.945	102.870	0.203	0.240
-658.930	800.000	0.081	0.291
-657.916	800.000	0.110	0.311
-656.901	-121.523	-0.118	0.020
-655.886	-200.000	-0.041	0.343
-654.872	800.000	0.080	-0.281
-653.857	92.967	-0.071	-0.081
-652.843	-200.000	-0.001	0.017
-651.828	537.553	-0.118	-0.282
-650.814	-81.723	-0.246	-0.081
-649.799	-106.793	0.345	0.077
-648.784	378.817	0.115	-0.238
-647.770	800.000	0.084	-0.276
-646.755	-64.281	-0.202	-0.083
-645.741	-144.372	0.158	-0.015
-644.726	800.000	-0.017	0.068
-643.711	-62.339	-0.126	0.053
-642.697	-17.560	-0.227	0.144
-641.682	418.810	-0.136	0.294
-640.668	200.345	0.045	-0.069
-639.653	-124.276	-0.315	0.050
-638.638	-200.000	0.020	-0.361
-637.624	-137.665	0.124	-0.014
-636.609	-200.000	-0.023	-0.161
-635.595	-59.151	-0.357	0.155
-634.580	31.225	-0.080	-0.069
-633.565	-200.000	-0.007	0.312
-632.551	-10.499	-0.234	0.156
-631.536	-200.000	-0.025	-0.243
-630.522	157.470	0.116	-0.161
-629.507	500.232	-0.107	-0.248
-628.492	78.813	0.016	0.017
-627.478	-23.788	0.464	-0.280
-626.463	-200.000	-0.080	-0.400
-625.449	-109.699	-0.219	-0.046
-624.434	-200.000	-0.019	-0.270
-623.419	-200.000	0.035	-0.179
-622.405	-26.645	-0.297	0.175
-621.390	508.697	-0.214	0.502
-620.376	-165.641	-0.129	-0.006
-619.361	-200.000	-0.025	-0.122
-618.346	-41.943	0.283	0.146
-617.332	27.402	-0.006	-0.005
-616.317	-200.000	0.015	-0.207
-615.303	-28.268	-0.147	0.086
-614.288	181.356	-0.018	-0.026
-613.273	-80.332	0.205	-0.069
-612.259	800.000	-0.089	-0.300
-611.244	-144.527	-0.276	0.026
-610.230	-61.467	0.103	0.044
-609.215	107.875	-0.121	-0.146
-608.201	-104.655	-0.343	-0.080
-607.186	499.393	0.108	-0.251
-606.171	53.202	0.065	0.062
-605.157	228.360	-0.159	0.261
-604.142	-160.023	0.114	-0.006
-603.128	61.076	0.097	0.097
-602.113	-200.000	-0.027	-0.246
-601.098	-200.000	0.017	-0.273
-600.084	-200.000	-0.051	0.335
-599.069	-9.902	-0.223	-0.149
-598.055	800.000	0.105	-0.399
-597.040	-36.986	0.330	-0.178
-596.025	-177.715	0.189	0.005
-595.011	172.268	-0.159	0.231
-593.996	-200.000	-0.019	0.159
-592.982	-56.946	0.180	-0.080
-591.967	-25.944	-0.354	-0.209
-590.952	17.155	0.216	0.173
-589.938	-61.001	0.121	0.052
-588.923	-167.583	0.592	0.024
-587.909	89.049	0.107	-0.120
-586.894	573.592	-0.070	0.172
-585.879	-0.976	-0.032	-0.023
-584.865	51.005	-0.140	0.133
-583.850	-3.607	0.302	-0.211
-582.836	-60.269	0.282	-0.121
-581.821	800.000	0.109	-0.312
-580.806	166.311	0.067	0.096
-579.792	47.182	0.132	0.123
-578.777	-88.192	0.255	0.077
-577.763	246.444	0.199	0.338
-576.748	353.256	-0.045	-0.090
-575.733	150.757	0.220	-0.300
-574.719	-200.000	0.002	-0.073
-573.704	-129.067	-0.126	0.018
-572.690	135.188	-0.311	0.407
-571.675	-6.433	0.283	-0.194
-570.661	800.000	-0.052	-0.183
-569.646	-2.750	-0.204	-0.143
-568.631	-200.000	-0.015	0.376
-567.617	-51.632	0.362	0.170
-566.602	16.393	0.294	0.233
-565.588	24.126	-0.062	0.052
-564.573	-104.609	-0.137	-0.032
-563.558	597.438	0.119	0.296
-562.544	-200.000	0.014	0.400
-561.529	800.000	0.050	-0.189
-560.515	-158.673	0.273	0.016
-559.500	138.196	0.077	-0.102
-558.485	-162.667	-0.201	-0.010
-557.471	-94.285	0.205	-0.056
-556.456	47.192	0.139	0.130
-555.442	21.632	0.081	0.066
-554.427	327.807	-0.300	0.578
-553.412	164.124	-0.154	0.218
-552.398	265.050	0.057	0.100
-551.383	54.111	-0.303	-0.293
-550.369	-16.466	0.155	-0.099
-549.354	800.000	0.036	-0.113
-548.339	-68.221	-0.335	0.131
-547.325	19.784	-0.128	0.103
-546.310	754.819	0.123	-0.335
-545.296	112.056	-0.109	0.133
-544.281	-102.815	-0.102	0.024
-543.266	149.051	-0.255	0.346
-542.252	99.440	-0.185	0.215
-541.237	800.000	-0.028	0.100
-540.223	-97.208	0.237	0.062
-539.208	146.576	-0.282	0.380
-538.193	-200.000	0.009	-0.259
-537.179	-30.035	0.068	-0.039
-536.164	-19.463	0.163	0.101
-535.150	4.789	-0.042	0.031
-534.135	-0.901	-0.239	0.170
-533.121	650.555	0.059	-0.152
-532.106	-130.873	-0.008	-0.001
-531.091	-197.236	-0.302	0.002
-530.077	-20.610	0.166	-0.102
-529.062	345.961	-0.123	-0.243
-528.048	299.835	0.085	-0.157
-527.033	-200.000	-0.026	0.203
-526.018	-132.700	0.251	-0.032
-525.004	17.435	-0.101	0.081
-523.989	604.165	-0.083	-0.207
-522.975	800.000	0.065	-0.211
-521.960	79.773	-0.149	-0.161
-520.945	-200.000	-0.018	-0.383
-519.931	654.873	0.102	-0.262
-518.916	54.696	0.192	0.185
-517.902	55.315	-0.306	-0.297
-516.887	-84.640	0.223	-0.070
-515.872	-23.789	-0.133	0.080
-514.858	800.000	0.059	0.241
-513.843	-194.083	-0.073	0.001
-512.829	272.243	-0.017	0.031
-511.814	46.694	-0.186	0.173
-510.799	510.668	-0.048	-0.113
-509.785	-102.537	-0.198	0.047
-508.770	-125.291	0.272	-0.042
-507.756	-200.000	-0.073	-0.326
-506.741	-200.000	0.016	-0.397
-505.726	-200.000	-0.035	-0.208
-504.712	800.000	-0.089	-0.277
-503.697	-117.584	-0.167	0.030
-502.683	-60.489	-0.378	-0.161
-501.668	-151.603	-0.441	0.033
-500.653	52.056	-0.155	0.148
-499.639	212.693	0.236	0.373
-498.624	800.000	0.081	-0.271
-497.610	-200.000	-0.015	0.168
-496.595	-200.000	0.034	-0.296
-495.581	82.629	-0.097	0.106
-494.566	202.914	0.116	0.179
-493.551	-20.052	0.032	-0.020
-492.537	800.000	-0.070	-0.220
-491.522	-25.248	-0.116	0.069
-490.508	-200.000	-0.003	0.065
-489.493	-104.613	-0.120	-0.028
-488.478	6.521	-0.213	0.159
-487.464	-90.016	-0.219	0.064
-486.449	481.760	-0.084	0.191
-485.435	-87.571	-0.044	-0.013
-484.420	262.320	-0.134	0.234
-483.405	80.490	0.050	0.054
-482.391	-200.000	-0.054	-0.242
-481.376	-150.284	0.153	-0.012
-480.362	800.000	0.038	0.121
-479.347	20.498	0.180	0.146
-478.332	-83.128	0.133	-0.043
-477.318	-111.441	-0.190	-0.039
-476.303	-37.700	-0.386	0.206
-475.289	-179.498	-0.095	0.002
-474.274	690.614	0.193	-0.506
-473.259	-200.000	0.012	-0.088
-472.245	0.094	0.161	0.115
-471.230	-171.532	0.134	0.004
-470.216	800.000	-0.034	0.145
-469.201	-142.477	-0.179	0.018
-468.186	-200.000	0.016	0.097
-467.172	-200.000	0.017	-0.418
-466.157	19.145	0.379	-0.305
-465.143	-31.296	0.073	-0.041
-464.128	-70.720	-0.388	0.147
-463.113	121.181	0.070	0.088
-462.099	-20.682	0.105	0.064
-461.084	-81.856	0.094	-0.031
-460.070	-21.464	-0.138	0.084
-459.055	33.111	0.324	0.281
-458.040	179.412	0.266	0.390
-457.026	-200.000	0.026	0.143
-456.011	399.746	0.109	0.229
-454.997	17.799	0.222	-0.177
-453.982	52.267	0.188	0.179
-452.968	-200.000	0.019	0.204
-451.953	-137.093	-0.352	0.040
-450.938	72.567	0.131	0.137
-449.924	53.790	0.074	-0.072
-448.909	668.941	0.099	-0.256
-447.895	10.218	-0.262	0.200
-446.880	382.558	-0.025	-0.052
-445.865	-71.292	0.188	0.071
-444.851	-18.534	-0.289	0.181
-443.836	40.987	-0.210	0.189
-442.822	-83.223	0.172	0.055
-441.807	-200.000	-0.040	-0.272
-440.792	-21.889	-0.041	0.025
-439.778	-200.000	-0.007	0.095
-438.763	800.000	0.112	-0.346
-437.749	56.934	-0.156	-0.152
-436.734	-23.664	0.260	-0.156
-435.719	34.990	-0.069	-0.060
-434.705	800.000	0.096	0.349
-433.690	-200.000	0.039	-0.264
-432.676	-11.914	0.172	-0.113
-431.661	-200.000	0.056	0.261
-430.646	-200.000	-0.052	0.319
-429.632	-96.661	-0.259	0.068
-428.617	800.000	0.068	0.256
-427.603	-128.408	-0.315	0.045
-426.588	-34.056	-0.140	-0.077
-425.573	-169.039	0.179	-0.007
-424.559	-30.163	0.466	-0.265
-423.544	256.657	0.232	-0.398
-422.530	30.799	-0.141	0.120
-421.515	-200.000	-0.016	0.198
-420.500	66.248	0.066	0.067
-419.486	706.416	0.097	0.255
-418.471	-71.791	-0.260	-0.097
-417.457	-56.237	-0.113	0.050
-416.442	-200.000	0.060	0.303
-415.428	-185.058	-0.464	0.007
-414.413	800.000	0.041	0.155
-413.398	800.000	0.091	0.266
-412.384	42.031	-0.143	0.130
-411.369	-200.000	0.016	-0.314
-410.355	800.000	-0.126	-0.437
-409.340	-125.819	-0.235	-0.035
-408.325	51.520	0.045	0.043
-407.311	7.625	0.053	-0.040
-406.296	171.233	0.096	0.138
-405.282	752.649	-0.094	0.254
-404.267	341.212	0.088	0.172
-403.252	-54.018	0.355	0.161
-402.238	-200.000	0.000	0.047
-401.223	381.344	0.074	-0.151
-400.209	-83.799	0.074	0.023
-399.194	-147.180	-0.220	-0.019
-398.179	-200.000	0.098	-0.430
-397.165	701.755	0.045	-0.118
-396.150	800.000	0.065	0.271
-395.136	347.202	-0.141	0.278
-394.121	140.854	-0.118	0.155
-393.106	165.461	-0.176	0.249
-392.092	-99.529	0.349	0.088
-391.077	-95.116	0.094	0.025
-390.063	-74.809	-0.480	0.172
-389.048	-66.657	-0.157	0.062
-388.033	95.195	0.218	0.248
-387.019	800.000	0.053	-0.232
-386.004	393.019	-0.048	-0.099
-384.990	-1.520	0.231	0.163
-383.975	-138.512	-0.119	-0.013
-382.960	-113.520	0.176	0.034
-381.946	-97.690	-0.232	0.060
-380.931	-131.484	0.154	-0.020
-379.917	-200.000	0.030	-0.163
-378.902	-200.000	-0.011	0.096
-377.888	-115.119	-0.153	0.029
-376.873	62.349	0.021	0.020
-375.858	800.000	0.053	-0.216
-374.844	-102.635	0.277	-0.066
-373.829	376.537	-0.092	0.187
-372.815	-173.894	0.242	-0.007
-371.800	120.287	-0.114	-0.141
-370.785	-90.323	-0.114	-0.033
-369.771	800.000	0.046	0.140
-368.756	304.631	0.122	0.226
-367.742	661.293	-0.043	-0.111
-366.727	298.968	0.069	0.126
-365.712	-10.309	-0.356	0.236
-364.698	-132.071	0.304	0.039
-363.683	-133.612	-0.329	0.041
-362.669	-200.000	0.022	0.115
-361.654	-200.000	0.061	0.438
-360.639	-108.518	-0.336	0.072
-359.625	-42.780	-0.035	-0.018
-358.610	23.438	-0.120	0.098
-357.596	-200.000	-0.041	0.332
-356.581	-200.000	-0.013	-0.131
-355.566	67.657	-0.122	-0.124
-354.552	-200.000	0.009	0.087
-353.537	31.033	0.205	-0.175
-352.523	-90.756	-0.155	0.045
-351.508	-83.491	-0.132	-0.042
-350.493	-61.231	-0.071	-0.030
-349.479	-127.278	0.353	-0.051
-348.464	12.335	0.487	-0.374
-347.450	-200.000	0.056	-0.282
-346.435	-200.000	0.008	0.081
-345.420	800.000	0.068	-0.191
-344.406	567.831	0.140	0.338
-343.391	-46.036	-0.123	0.060
-342.377	397.490	-0.140	-0.292
-341.362	-92.124	-0.309	-0.087
-340.348	-200.000	-0.029	0.209
-339.333	-115.029	-0.056	0.011
-338.318	800.000	0.079	-0.246
-337.304	68.868	0.240	-0.246
-336.289	414.524	-0.095	-0.202
-335.275	-16.003	0.187	-0.118
-334.260	34.204	0.016	0.014
-333.245	-164.800	0.219	0.010
-332.231	10.448	-0.210	0.159
-331.216	677.195	-0.097	0.251
-330.202	129.177	0.098	-0.125
-329.187	-200.000	-0.042	-0.524
-328.172	-55.575	0.159	0.071
-327.158	-200.000	0.026	-0.275
-326.143	-200.000	0.030	-0.224
-325.129	289.325	0.064	0.116
-324.114	84.955	-0.053	0.057
-323.099	367.982	-0.082	0.166
-322.085	50.323	0.097	-0.091
-321.070	-140.873	0.265	-0.027
-320.056	-15.842	-0.224	0.142
-319.041	495.884	0.084	0.192
-318.026	-96.561	0.224	0.059
-317.012	34.353	0.211	-0.183
-315.997	445.515	0.021	0.047
-314.983	8.721	-0.286	-0.215
-313.968	-22.331	-0.024	-0.015
-312.953	-200.000	0.006	-0.267
-311.939	-200.000	0.006	0.231
-310.924	-169.086	0.064	-0.002
-309.910	-200.000	-0.019	-0.324
-308.895	-200.000	0.023	0.181
-307.880	57.485	0.099	-0.096
-306.866	-75.299	0.307	0.109
-305.851	-98.622	0.145	0.037
-304.837	-200.000	-0.005	-0.061
-303.822	-128.650	0.331	0.047
-302.807	144.057	-0.054	-0.071
-301.793	312.100	0.072	0.134
-300.778	-200.000	-0.036	0.204
-299.764	69.625	0.282	-0.289
-298.749	-87.302	0.217	0.066
-297.735	202.046	-0.135	0.208
-296.720	210.721	-0.156	-0.244
-295.705	249.131	-0.271	0.457
-294.691	-12.322	-0.282	-0.183
-293.676	3.387	-0.187	-0.135
-292.662	231.342	0.150	-0.245
-291.647	-5.480	0.242	0.165
-290.632	-200.000	-0.033	0.298
-289.618	700.675	-0.073	0.192
-288.603	-200.000	-0.003	-0.027
-287.589	800.000	0.053	-0.145
-286.574	800.000	-0.094	-0.296
-285.559	-105.187	0.056	-0.013
-284.545	-1.653	0.086	-0.061
-283.530	29.608	-0.269	0.228
-282.516	800.000	-0.031	-0.099
-281.501	-122.764	-0.124	0.020
-280.486	-200.000	-0.024	-0.189
-279.472	50.021	-0.179	0.168
-278.457	-58.240	-0.139	-0.060
-277.443	393.870	0.089	-0.185
-276.428	749.544	-0.032	0.085
-275.413	174.366	0.098	0.141
-274.399	74.225	0.114	0.119
-273.384	155.874	0.079	-0.108
-272.370	449.863	-0.119	-0.262
-271.355	337.013	-0.097	0.187
-270.340	800.000	0.039	-0.127
-269.326	-200.000	0.011	-0.244
-268.311	46.145	0.174	0.160
-267.297	308.036	0.077	-0.143
-266.282	-152.729	0.269	-0.019
-265.267	800.000	0.049	0.194
-264.253	-5.987	0.090	0.061
-263.238	401.863	0.123	-0.256
-262.224	-200.000	0.009	0.194
-261.209	-200.000	-0.023	-0.260
-260.195	-110.630	0.163	0.033
-259.180	-153.093	0.121	0.008
-258.165	693.496	-0.059	-0.154
-257.151	-200.000	0.015	0.075
-256.136	25.970	0.329	-0.272
-255.122	109.524	-0.232	-0.276
-254.107	-197.298	0.261	0.002
-253.092	21.130	0.061	-0.049
-252.078	-23.616	-0.062	-0.037
-251.063	348.707	-0.188	-0.369
-250.049	-80.673	-0.341	-0.113
-249.034	-107.260	0.185	-0.041
-248.019	-21.171	0.218	-0.133
-247.005	-200.000	-0.007	0.107
-245.990	-196.685	0.203	0.001
-244.976	-200.000	-0.002	-0.134
-243.961	-19.192	-0.231	-0.142
-242.946	-121.436	-0.207	-0.034
-241.932	16.703	0.197	-0.155
-240.917	-24.788	0.214	-0.126
-239.903	52.657	-0.203	-0.192
-238.888	55.063	-0.081	-0.078
-237.873	-129.300	0.218	-0.030
-236.859	129.822	-0.153	-0.194
-235.844	-200.000	0.015	-0.069
-234.830	-200.000	0.012	0.531
-233.815	17.925	0.090	-0.071
-232.800	452.436	0.135	0.297
-231.786	21.426	0.151	0.122
-230.771	800.000	-0.071	-0.212
-229.757	49.790	-0.322	0.301
-228.742	78.697	-0.045	0.048
-227.727	-140.012	-0.061	0.006
-226.713	173.860	-0.354	0.507
-225.698	-65.641	-0.252	0.100
-224.684	-59.008	0.320	0.137
-223.669	247.099	0.050	-0.084
-222.655	493.014	0.137	-0.313
-221.640	-63.495	0.345	-0.141
-220.625	5.253	-0.168	-0.123
-219.611	-101.547	-0.206	0.050
-218.596	-44.219	-0.299	0.149
-217.582	62.451	-0.072	0.071
-216.567	117.959	-0.093	-0.113
-215.552	116.372	-0.417	-0.507
-214.538	-157.415	-0.271	-0.016
-213.523	-200.000	0.021	0.131
-212.509	-154.302	0.351	0.023
-211.494	43.566	-0.119	0.108
-210.479	264.069	-0.180	0.310
-209.465	-200.000	-0.005	-0.115
-208.450	-200.000	0.040	-0.180
-207.436	-200.000	0.013	-0.129
-206.421	617.523	0.040	-0.099
-205.406	-200.000	-0.010	-0.624
-204.392	596.226	-0.027	-0.066
-203.377	800.000	0.064	-0.177
-202.363	347.513	0.137	0.267
-201.348	-200.000	-0.009	-0.177
-200.333	63.948	-0.146	0.146
-199.319	389.358	-0.066	0.136
-198.304	-140.706	-0.035	-0.004
-197.290	-30.625	0.302	0.169
-196.275	5.538	0.017	0.013
-195.260	-78.051	0.061	0.021
-194.246	-47.586	-0.221	-0.107
-193.231	353.050	0.136	0.268
-192.217	297.820	0.078	-0.143
-191.202	-200.000	0.006	-0.185
-190.187	352.473	-0.070	-0.137
-189.173	-177.553	0.190	-0.005
-188.158	-31.047	-0.313	-0.175
-187.144	-200.000	0.071	0.391
-186.129	312.854	0.170	0.316
-185.114	-200.000	0.021	-0.217
-184.100	-56.588	-0.359	0.157
-183.085	-128.462	0.075	0.011
-182.071	45.570	0.284	-0.260
-181.056	13.686	-0.114	0.088
-180.042	38.570	0.217	0.191
-179.027	-124.070	-0.313	-0.049
-178.012	-200.000	-0.153	0.000
-176.998	326.134	-0.154	0.291
-175.983	47.154	-0.143	0.132
-174.969	93.941	-0.072	0.081
-173.954	-25.265	0.213	0.125
-172.939	800.000	-0.046	-0.150
-171.925	6.040	0.466	-0.342
-170.910	-200.000	0.045	0.203
-169.896	110.951	0.128	0.153
-168.881	-133.472	0.173	0.022
-167.866	-5.401	0.163	0.111
-166.852	173.727	-0.170	-0.243
-165.837	61.989	0.071	-0.070
-164.823	-200.000	-0.068	0.331
-163.808	-25.581	0.264	0.154
-162.793	-35.761	-0.264	0.141
-161.779	-76.112	0.023	-0.008
-160.764	-18.187	-0.267	0.165
-159.750	-174.989	0.107	-0.003
-158.735	335.131	0.010	-0.020
-157.720	-200.000	0.003	-0.022
-156.706	72.986	-0.103	0.107
-155.691	40.107	0.133	0.119
-154.677	281.898	0.056	0.099
-153.662	-120.188	-0.192	-0.032
-152.647	379.027	0.078	-0.157
-151.633	-200.000	0.054	0.435
-150.618	-131.982	0.214	-0.028
-149.604	-31.547	-0.134	-0.074
-148.589	-121.722	0.213	-0.035
-147.574	274.515	-0.108	-0.189
-146.560	800.000	-0.037	0.106
-145.545	-200.000	-0.021	0.400
-144.531	-102.828	-0.222	0.052
-143.516	23.031	0.161	-0.131
-142.502	119.486	0.075	-0.092
-141.487	-156.328	0.067	-0.004
-140.472	-56.241	-0.115	-0.051
-139.458	800.000	0.107	0.385
-138.443	-25.308	-0.114	0.067
-137.429	-200.000	-0.014	-0.177
-136.414	-139.680	-0.140	0.015
-135.399	330.288	0.080	0.152
-134.385	-8.727	0.125	-0.083
-133.370	39.541	-0.200	-0.177
-132.356	233.728	0.067	0.109
-131.341	159.753	0.245	0.337
-130.326	62.694	-0.172	-0.170
-129.312	-125.871	0.198	-0.030
-128.297	-116.804	0.220	-0.040
-127.283	800.000	-0.040	-0.171
-126.268	-22.135	0.142	-0.085
-125.253	-136.125	-0.078	0.009
-124.239	-169.098	0.210	0.008
-123.224	800.000	-0.060	-0.165
-122.210	118.777	0.228	-0.278
-121.195	-200.000	0.006	-0.295
