DTS Sentinel unit serial number:	SN413079Multiplexer serial number:	ORYXHardware model number:	OX4-SRSoftware version number:	ORYX F/W v4.00 Oryx Data Collector v3.7.2.0data status	okinstallation	princeton_trtdifferential loss correction	single-endedforward channel	channel 2reverse channel	N/Adate	2019/09/14time	23:23:35forward acquisition time	60.00reverse acquisition time	0.00gamma	496.2192k internal	0.2324k external	0.2324temperature offset calibration	1.0050default loss term (dB/km)	0.3790temperature slope calibration	1.0000multiplexer offset coefficient	1.0000multiplexer slope coefficient	1.0000fibre end	0.00T internal ref (°C)	32.37T ext. ref 1 (°C)	4.64T ext. ref 2 (°C)	27.41length (m)	temperature (°C)	Stokes	anti-Stokes-747.200	-80.069	0.114	-0.039
-746.185	287.708	-0.142	0.259
-745.171	-155.331	0.121	-0.008
-744.156	-200.000	-0.015	0.501
-743.142	-200.000	-0.043	0.211
-742.127	-160.125	-0.145	0.008
-741.112	-55.446	0.103	0.047
-740.098	800.000	-0.069	-0.258
-739.083	-61.445	-0.253	-0.107
-738.069	294.711	-0.030	-0.054
-737.054	-159.396	0.162	-0.009
-736.039	158.648	-0.216	0.303
-735.025	-200.000	0.042	-0.263
-734.010	-51.811	-0.338	-0.159
-732.996	769.086	-0.072	-0.196
-731.981	-200.000	-0.044	-0.309
-730.966	103.668	0.074	0.088
-729.952	89.374	-0.053	0.060
-728.937	-133.304	0.223	0.028
-727.923	-24.640	-0.422	-0.253
-726.908	-15.522	-0.220	0.142
-725.894	-73.088	-0.081	0.030
-724.879	-167.972	0.069	0.003
-723.864	800.000	-0.161	-0.466
-722.850	800.000	-0.134	-0.450
-721.835	512.906	0.125	0.295
-720.821	-200.000	-0.017	-0.119
-719.806	-120.086	0.102	-0.018
-718.791	46.708	-0.126	0.118
-717.777	-28.885	-0.186	0.108
-716.762	86.441	-0.228	-0.253
-715.748	-133.404	0.251	0.032
-714.733	-200.000	-0.015	-0.077
-713.718	370.439	0.108	0.221
-712.704	-1.316	-0.189	-0.135
-711.689	78.220	-0.075	-0.080
-710.675	-138.370	-0.434	0.048
-709.660	433.717	-0.038	0.083
-708.645	279.971	-0.124	0.223
-707.631	-200.000	-0.022	0.266
-706.616	800.000	-0.071	-0.252
-705.602	148.014	-0.039	0.054
-704.587	800.000	0.016	-0.055
-703.572	-12.902	-0.131	0.086
-702.558	93.346	-0.088	0.100
-701.543	-112.949	0.241	0.048
-700.529	7.944	-0.181	0.137
-699.514	800.000	0.057	-0.183
-698.499	800.000	-0.043	-0.172
-697.485	800.000	0.118	-0.330
-696.470	-19.659	-0.160	-0.100
-695.456	439.560	-0.065	-0.142
-694.441	183.996	0.107	-0.159
-693.426	-144.718	-0.281	-0.026
-692.412	423.005	-0.031	-0.067
-691.397	206.982	0.181	0.284
-690.383	-98.526	-0.329	0.085
-689.368	399.754	0.108	-0.229
-688.354	-45.003	-0.233	0.117
-687.339	-160.515	-0.261	0.014
-686.324	-118.877	0.077	-0.014
-685.310	-52.401	0.194	0.090
-684.295	279.711	-0.158	0.285
-683.281	-31.453	0.361	-0.204
-682.266	48.237	-0.136	0.128
-681.251	17.505	-0.058	-0.047
-680.237	-120.044	0.210	0.036
-679.222	800.000	0.030	-0.114
-678.208	-60.734	0.376	-0.160
-677.193	-126.240	-0.353	-0.053
-676.178	36.208	0.084	0.075
-675.164	-90.130	0.441	0.129
-674.149	-137.958	-0.246	-0.028
-673.135	800.000	0.038	-0.165
-672.120	-50.668	-0.146	-0.069
-671.105	-200.000	-0.002	-0.409
-670.091	-58.003	0.248	-0.109
-669.076	-56.486	0.259	0.115
-668.062	258.649	-0.207	-0.359
-667.047	-96.973	0.316	-0.083
-666.032	254.041	0.088	-0.152
-665.018	496.213	0.133	-0.307
-664.003	8.961	0.237	-0.180
-662.989	118.970	0.076	-0.095
-661.974	-162.924	0.084	-0.004
-660.959	-140.603	-0.255	0.027
-659.945	-200.000	0.025	-0.330
-658.930	-56.536	-0.352	0.157
-657.916	55.912	-0.061	0.059
-656.901	-200.000	-0.047	0.448
-655.886	-66.464	0.290	-0.116
-654.872	-200.000	-0.423	0.002
-653.857	-45.795	0.061	-0.030
-652.843	231.051	0.214	-0.353
-651.828	-101.576	-0.291	-0.071
-650.814	-99.603	0.163	-0.041
-649.799	-42.807	0.189	-0.097
-648.784	-127.833	-0.218	-0.032
-647.770	-108.540	0.231	-0.050
-646.755	5.220	0.267	-0.198
-645.741	-172.965	0.183	0.006
-644.726	-163.767	0.260	0.012
-643.711	-189.655	-0.146	0.002
-642.697	19.694	0.212	0.171
-641.682	88.279	-0.261	-0.291
-640.668	-67.342	0.264	-0.104
-639.653	-200.000	0.043	-0.285
-638.638	-67.977	-0.148	0.058
-637.624	-7.434	-0.345	-0.235
-636.609	-127.432	-0.068	0.010
-635.595	-200.000	0.023	-0.118
-634.580	-141.485	0.173	-0.018
-633.565	-100.755	-0.277	0.069
-632.551	-126.937	0.342	-0.051
-631.536	209.181	-0.183	-0.289
-630.522	-117.374	0.281	0.051
-629.507	241.065	-0.129	0.217
-628.492	-95.753	0.123	-0.033
-627.478	-70.750	0.415	0.158
-626.463	-78.782	-0.372	-0.127
-625.449	34.751	-0.157	-0.138
-624.434	800.000	0.091	0.285
-623.419	-200.000	0.016	0.253
-622.405	362.880	-0.131	0.265
-621.390	-99.789	-0.399	0.100
-620.376	114.438	0.066	0.081
-619.361	-200.000	0.027	0.123
-618.346	-119.941	-0.288	0.050
-617.332	-81.009	-0.178	-0.059
-616.317	-96.006	-0.377	-0.101
-615.303	-200.000	-0.015	0.079
-614.288	18.997	0.314	0.253
-613.273	21.742	-0.132	0.108
-612.259	25.133	-0.256	0.214
-611.244	-110.548	-0.368	-0.077
-610.230	-200.000	-0.003	0.032
-609.215	354.292	0.149	-0.297
-608.201	222.216	-0.096	-0.156
-607.186	-200.000	0.008	0.085
-606.171	185.509	-0.107	0.160
-605.157	-200.000	-0.016	0.380
-604.142	4.342	0.381	0.281
-603.128	-200.000	-0.002	-0.125
-602.113	-89.241	0.425	0.126
-601.098	-63.092	0.069	0.029
-600.084	-31.564	-0.200	0.113
-599.069	-47.040	-0.148	-0.073
-598.055	357.354	0.102	-0.203
-597.040	535.790	-0.057	0.135
-596.025	-111.010	-0.075	0.015
-595.011	-200.000	0.006	0.329
-593.996	263.919	0.134	0.234
-592.982	-119.318	0.076	0.013
-591.967	209.269	-0.079	-0.124
-590.952	667.878	-0.122	-0.316
-589.938	276.307	0.157	-0.280
-588.923	-54.020	-0.182	-0.083
-587.909	69.568	-0.034	0.035
-586.894	-31.285	-0.270	-0.153
-585.879	-82.957	0.233	-0.075
-584.865	28.395	-0.076	0.064
-583.850	-102.977	0.015	-0.003
-582.836	-200.000	0.028	-0.373
-581.821	800.000	0.062	-0.245
-580.806	172.506	0.145	-0.210
-579.792	-200.000	0.075	-0.333
-578.777	-200.000	-0.024	-0.172
-577.763	-200.000	0.077	0.362
-576.748	-27.625	0.177	0.103
-575.733	-27.067	-0.082	0.048
-574.719	-44.305	-0.292	-0.147
-573.704	-87.977	-0.525	-0.158
-572.690	-183.664	0.358	0.006
-571.675	131.225	-0.020	-0.025
-570.661	-81.196	0.292	0.097
-569.646	91.824	0.183	0.206
-568.631	-116.043	0.286	0.053
-567.617	-138.275	-0.382	0.042
-566.602	800.000	-0.037	-0.111
-565.588	-200.000	-0.019	0.158
-564.573	-82.486	-0.075	0.025
-563.558	-153.471	0.233	-0.016
-562.544	124.396	-0.183	0.230
-561.529	760.164	0.093	-0.251
-560.515	-187.378	0.150	-0.002
-559.500	-200.000	0.012	-0.337
-558.485	-200.000	0.016	-0.422
-557.471	226.009	0.032	-0.052
-556.456	-95.084	0.081	0.022
-555.442	-40.703	0.194	0.100
-554.427	-200.000	0.018	-0.115
-553.412	106.578	-0.102	0.121
-552.398	461.419	-0.026	-0.058
-551.383	-34.837	-0.230	-0.126
-550.369	-21.745	0.201	-0.122
-549.354	-144.291	-0.086	-0.008
-548.339	-80.916	-0.232	-0.077
-547.325	-100.402	-0.176	0.044
-546.310	-200.000	-0.002	0.349
-545.296	-32.763	-0.278	-0.155
-544.281	24.331	0.120	-0.099
-543.266	637.381	0.057	0.145
-542.252	496.771	0.138	-0.319
-541.237	427.698	-0.162	0.350
-540.223	800.000	-0.073	0.213
-539.208	112.483	-0.182	-0.221
-538.193	-131.852	0.294	-0.038
-537.179	282.523	0.118	0.212
-536.164	-200.000	0.006	-0.182
-535.150	-200.000	-0.018	0.081
-534.135	-9.604	0.257	-0.171
-533.121	-195.861	-0.173	-0.001
-532.106	48.408	-0.218	0.204
-531.091	-85.530	0.134	0.042
-530.077	292.874	0.123	-0.225
-529.062	70.823	0.259	0.268
-528.048	-83.987	-0.040	0.013
-527.033	256.331	-0.025	0.043
-526.018	-200.000	-0.036	0.181
-525.004	26.510	-0.284	0.238
-523.989	-170.143	-0.178	-0.006
-522.975	360.743	0.110	-0.221
-521.960	-200.000	0.017	-0.111
-520.945	800.000	-0.061	-0.168
-519.931	-126.022	-0.117	0.018
-518.916	93.540	0.177	-0.200
-517.902	-118.825	-0.311	-0.055
-516.887	60.519	0.173	-0.171
-515.872	-135.813	-0.149	-0.018
-514.858	256.195	0.100	0.171
-513.843	268.331	-0.051	-0.090
-512.829	-175.752	0.219	0.006
-511.814	109.144	0.090	-0.108
-510.799	-65.386	-0.240	0.096
-509.785	40.349	-0.095	0.085
-508.770	800.000	0.060	-0.188
-507.756	-77.753	-0.261	0.090
-506.741	800.000	-0.054	0.187
-505.726	-155.515	-0.277	-0.018
-504.712	-2.130	0.194	0.137
-503.697	6.058	-0.389	-0.288
-502.683	481.071	0.064	-0.145
-501.668	370.963	-0.042	0.084
-500.653	-91.189	-0.295	-0.085
-499.639	1.927	0.328	-0.237
-498.624	-200.000	0.026	0.125
-497.610	-172.475	0.386	0.012
-496.595	-55.662	0.113	-0.051
-495.581	-200.000	0.040	-0.346
-494.566	194.090	-0.231	0.350
-493.551	367.593	-0.364	0.735
-492.537	-104.843	-0.231	-0.053
-491.522	47.158	-0.172	-0.160
-490.508	-31.715	0.366	0.205
-489.493	-129.451	-0.129	-0.018
-488.478	172.083	0.078	0.112
-487.464	22.974	-0.053	0.043
-486.449	-138.286	0.113	-0.013
-485.435	-200.000	-0.015	0.334
-484.420	73.968	-0.109	0.115
-483.405	744.180	0.097	0.261
-482.391	-22.396	0.060	0.036
-481.376	312.940	0.053	-0.100
-480.362	-49.705	-0.124	0.059
-479.347	-200.000	-0.023	0.243
-478.332	59.434	-0.218	-0.215
-477.318	257.723	-0.219	0.377
-476.303	-200.000	-0.056	0.288
-475.289	800.000	0.051	0.205
-474.274	-140.893	-0.120	-0.012
-473.259	429.156	0.049	0.107
-472.245	138.497	0.157	-0.206
-471.230	-21.719	0.204	0.124
-470.216	137.665	0.200	0.262
-469.201	800.000	-0.041	0.142
-468.186	-54.497	-0.064	-0.029
-467.172	-18.627	0.173	-0.108
-466.157	-53.472	-0.224	-0.102
-465.143	-38.779	0.212	0.112
-464.128	-200.000	-0.037	0.211
-463.113	-153.000	0.131	0.009
-462.099	-195.184	-0.243	-0.002
-461.084	174.831	0.147	-0.212
-460.070	800.000	-0.074	0.283
-459.055	46.336	-0.284	-0.263
-458.040	285.851	-0.030	-0.054
-457.026	800.000	0.085	0.278
-456.011	-62.683	0.210	0.087
-454.997	-200.000	0.018	0.175
-453.982	-200.000	-0.019	0.270
-452.968	30.721	-0.118	0.101
-451.953	466.018	0.056	0.125
-450.938	800.000	0.009	-0.025
-449.924	-200.000	0.016	-0.315
-448.909	-84.337	0.229	0.072
-447.895	127.259	-0.342	-0.433
-446.880	-200.000	-0.036	0.458
-445.865	-65.139	-0.253	0.102
-444.851	-200.000	0.001	0.270
-443.836	80.460	-0.108	-0.116
-442.822	330.807	-0.069	-0.132
-441.807	72.044	-0.336	0.349
-440.792	518.577	-0.107	-0.250
-439.778	-200.000	0.012	0.336
-438.763	-48.559	-0.213	-0.102
-437.749	-22.602	-0.072	-0.043
-436.734	-2.173	-0.132	0.092
-435.719	562.739	-0.029	-0.069
-434.705	77.194	-0.163	0.173
-433.690	-114.817	-0.276	0.053
-432.676	-55.602	-0.114	-0.051
-431.661	503.277	-0.131	-0.302
-430.646	163.178	0.359	0.503
-429.632	44.325	-0.117	-0.107
-428.617	-78.407	0.269	-0.092
-427.603	-45.998	0.307	0.151
-426.588	166.423	0.037	0.052
-425.573	259.959	0.067	0.115
-424.559	138.938	0.079	-0.104
-423.544	-200.000	-0.006	-0.058
-422.530	-200.000	-0.005	-0.134
-421.515	-200.000	-0.009	-0.228
-420.500	-200.000	0.068	0.368
-419.486	-97.723	0.269	0.070
-418.471	-98.861	0.107	-0.027
-417.457	69.170	-0.109	-0.112
-416.442	-14.489	0.150	0.096
-415.428	-200.000	0.019	-0.147
-414.413	-200.000	0.027	0.245
-413.398	-52.691	-0.093	-0.043
-412.384	-86.453	0.132	-0.040
-411.369	-200.000	0.016	0.111
-410.355	244.120	-0.172	-0.287
-409.340	800.000	0.025	-0.075
-408.325	-155.474	-0.213	0.014
-407.311	580.527	0.105	-0.256
-406.296	-137.034	0.137	-0.016
-405.282	-200.000	0.041	-0.272
-404.267	-94.183	-0.243	-0.066
-403.252	-122.740	0.053	0.009
-402.238	800.000	-0.089	-0.247
-401.223	421.258	0.133	0.284
-400.209	39.700	0.170	0.152
-399.194	-152.360	-0.290	-0.021
-398.179	-64.310	-0.307	-0.124
-397.165	-110.678	0.382	-0.079
-396.150	168.174	-0.136	0.192
-395.136	-152.530	-0.228	0.016
-394.121	142.975	0.025	0.033
-393.106	-33.844	-0.170	0.093
-392.092	-106.459	-0.231	-0.051
-391.077	-99.139	-0.101	-0.025
-390.063	474.435	0.068	0.153
-389.048	-200.000	0.021	0.262
-388.033	-200.000	-0.024	0.429
-387.019	10.066	0.153	-0.115
-386.004	3.175	0.321	-0.232
-384.990	-163.699	-0.208	0.010
-383.975	4.218	-0.313	-0.228
-382.960	800.000	0.074	-0.310
-381.946	42.250	0.119	-0.108
-380.931	29.953	0.122	-0.103
-379.917	432.465	-0.099	-0.214
-378.902	138.381	0.068	-0.089
-377.888	-46.586	0.181	-0.088
-376.873	-76.784	0.210	-0.073
-375.858	-200.000	0.033	-0.160
-374.844	-200.000	0.011	-0.055
-373.829	348.838	-0.130	0.255
-372.815	-59.843	0.269	0.115
-371.800	-200.000	-0.026	0.202
-370.785	-2.288	-0.170	0.118
-369.771	-55.199	0.021	0.009
-368.756	0.554	-0.054	-0.039
-367.742	9.522	-0.301	0.227
-366.727	-107.624	0.332	0.072
-365.712	43.924	-0.167	-0.152
-364.698	231.063	-0.111	-0.181
-363.683	399.358	-0.058	0.121
-362.669	695.417	0.187	0.489
-361.654	-147.320	0.222	0.019
-360.639	133.558	-0.071	-0.091
-359.625	27.821	0.049	-0.041
-358.610	252.029	-0.146	0.247
-357.596	-140.714	0.135	-0.014
-356.581	-200.000	-0.018	0.231
-355.566	800.000	-0.070	0.298
-354.552	1.545	0.228	0.163
-353.537	-200.000	0.008	-0.053
-352.523	-200.000	0.020	0.162
-351.508	800.000	0.054	0.194
-350.493	-200.000	0.050	0.242
-349.479	-97.075	0.253	-0.066
-348.464	-127.080	-0.133	-0.019
-347.450	590.440	0.130	0.319
-346.435	136.837	-0.087	0.113
-345.420	665.868	0.104	-0.268
-344.406	-50.907	-0.268	-0.125
-343.391	-168.089	0.155	0.006
-342.377	-102.877	0.296	0.070
-341.362	-200.000	0.005	0.095
-340.348	-163.520	-0.053	0.002
-339.333	125.768	0.215	-0.269
-338.318	-63.051	0.194	0.080
-337.304	64.370	-0.256	-0.256
-336.289	-123.451	0.155	-0.025
-335.275	385.330	0.064	0.130
-334.260	-105.491	0.102	0.023
-333.245	-47.912	-0.197	-0.095
-332.231	286.173	-0.226	-0.406
-331.216	56.509	0.181	0.174
-330.202	0.878	-0.201	-0.143
-329.187	43.321	-0.302	-0.274
-328.172	-116.095	-0.100	-0.018
-327.158	-160.997	-0.123	0.006
-326.143	283.953	-0.074	0.133
-325.129	800.000	-0.099	0.338
-324.114	-200.000	0.013	-0.188
-323.099	-155.034	0.302	-0.020
-322.085	491.985	0.113	0.256
-321.070	800.000	0.178	0.538
-320.056	-5.571	0.121	0.082
-319.041	-0.318	0.352	-0.249
-318.026	-152.071	-0.155	-0.011
-317.012	-37.711	0.031	0.017
-315.997	-41.394	-0.269	-0.138
-314.983	-113.153	-0.091	0.018
-313.968	-156.301	0.261	0.016
-312.953	-200.000	-0.020	0.125
-311.939	-185.822	0.243	-0.004
-310.924	345.652	-0.111	0.217
-309.910	-34.645	-0.206	-0.112
-308.895	-123.461	-0.185	0.029
-307.880	674.788	0.051	-0.132
-306.866	243.147	0.060	0.100
-305.851	-177.828	0.133	-0.003
-304.837	-190.252	0.117	-0.001
-303.822	800.000	0.061	-0.192
-302.807	800.000	0.012	0.037
-301.793	-121.393	-0.245	0.040
-300.778	-19.643	-0.392	-0.241
-299.764	-14.571	0.187	-0.120
-298.749	-64.881	0.294	0.118
-297.735	697.277	0.058	-0.150
-296.720	4.956	0.136	-0.099
-295.705	74.760	0.203	-0.212
-294.691	694.827	0.106	0.276
-293.676	-200.000	-0.017	-0.163
-292.662	-5.738	0.218	-0.148
-291.647	723.437	0.050	-0.133
-290.632	-31.213	-0.086	-0.048
-289.618	254.025	-0.005	0.009
-288.603	106.171	0.193	0.226
-287.589	411.061	0.061	-0.127
-286.574	313.688	0.106	0.197
-285.559	-200.000	0.015	-0.088
-284.545	-200.000	0.028	-0.353
-283.530	-200.000	0.041	0.367
-282.516	-200.000	-0.018	0.133
-281.501	800.000	0.056	-0.188
-280.486	-43.015	-0.103	-0.052
-279.472	-200.000	0.048	-0.273
-278.457	125.911	-0.217	-0.272
-277.443	800.000	-0.110	0.351
-276.428	558.256	0.035	0.084
-275.413	800.000	0.016	0.055
-274.399	-84.572	-0.088	0.028
-273.384	-81.754	0.317	-0.103
-272.370	-200.000	0.044	-0.330
-271.355	-192.843	-0.450	-0.004
-270.340	78.552	-0.106	0.112
-269.326	323.762	-0.039	-0.074
-268.311	10.095	0.175	-0.132
-267.297	152.467	0.123	0.167
-266.282	-73.439	-0.211	0.076
-265.267	-102.438	0.211	-0.050
-264.253	20.189	0.179	-0.143
-263.238	-200.000	0.001	-0.364
-262.224	1.682	0.180	-0.128
-261.209	328.007	0.121	-0.230
-260.195	800.000	0.039	-0.136
-259.180	-116.599	-0.263	-0.048
-258.165	-200.000	0.023	-0.155
-257.151	-87.979	-0.136	-0.040
-256.136	601.406	-0.093	0.230
-255.122	55.926	0.044	-0.042
-254.107	-27.786	-0.106	-0.061
-253.092	0.447	-0.104	0.074
-252.078	51.624	0.057	0.053
-251.063	-81.697	0.216	0.070
-250.049	243.609	-0.120	0.199
-249.034	105.518	0.109	-0.128
-248.019	-9.078	-0.141	-0.094
-247.005	-9.393	-0.150	-0.099
-245.990	-200.000	-0.017	-0.076
-244.976	-55.576	-0.249	-0.111
-243.961	4.896	0.212	0.155
-242.946	29.547	-0.198	0.167
-241.932	-200.000	0.012	-0.105
-240.917	-20.813	0.181	0.110
-239.903	62.455	-0.129	0.128
-238.888	638.014	-0.106	0.266
-237.873	-104.513	0.371	0.085
-236.859	-146.896	-0.252	0.021
-235.844	23.997	-0.067	0.055
-234.830	74.042	-0.059	-0.061
-233.815	800.000	-0.075	0.228
-232.800	-5.901	0.137	0.093
-231.786	221.118	-0.142	-0.225
-230.771	-20.765	-0.190	-0.116
-229.757	57.158	0.150	0.145
-228.742	581.043	0.126	0.305
-227.727	-78.273	-0.077	0.026
-226.713	-50.462	0.184	-0.086
-225.698	167.762	-0.244	-0.343
-224.684	-76.613	0.230	-0.080
-223.669	-200.000	-0.027	-0.478
-222.655	-55.237	0.142	-0.063
-221.640	343.212	0.047	-0.091
-220.625	-200.000	-0.078	-0.428
-219.611	93.602	-0.092	-0.103
-218.596	-41.806	0.189	-0.096
-217.582	49.069	-0.144	0.134
-216.567	-77.040	-0.152	0.052
-215.552	87.401	-0.161	0.176
-214.538	359.983	0.092	0.182
-213.523	-200.000	-0.038	-0.230
-212.509	-25.906	0.121	-0.070
-211.494	531.997	-0.176	0.411
-210.479	-182.921	-0.073	0.001
-209.465	-78.938	0.270	0.091
-208.450	800.000	-0.083	-0.345
-207.436	653.842	-0.056	0.143
-206.421	-200.000	-0.034	-0.251
-205.406	-200.000	-0.055	-0.294
-204.392	94.131	0.173	0.194
-203.377	-31.622	0.121	0.067
-202.363	124.301	-0.184	-0.228
-201.348	-24.263	0.032	0.019
-200.333	800.000	0.071	-0.271
-199.319	-118.198	-0.077	-0.014
-198.304	-200.000	-0.061	0.302
-197.290	314.239	0.055	-0.102
-196.275	-157.136	-0.215	-0.013
-195.260	-3.752	0.063	0.043
-194.246	267.894	0.187	0.324
-193.231	-200.000	0.004	-0.249
-192.217	15.556	0.224	-0.174
-191.202	800.000	-0.034	-0.145
-190.187	-200.000	-0.000	-0.212
-189.173	-136.761	0.314	0.036
-188.158	86.132	0.168	-0.183
-187.144	-191.466	0.542	0.005
-186.129	-200.000	0.017	0.080
-185.114	-110.793	-0.322	0.066
-184.100	-200.000	-0.056	0.471
-183.085	-31.220	-0.166	0.092
-182.071	-56.357	0.313	-0.138
-181.056	450.767	0.186	-0.406
-180.042	38.315	0.093	-0.082
-179.027	-200.000	0.001	-0.066
-178.012	61.947	-0.338	0.332
-176.998	-80.295	0.060	-0.020
-175.983	431.970	-0.045	0.096
-174.969	184.097	-0.032	-0.047
-173.954	-111.093	0.020	-0.004
-172.939	-200.000	-0.008	0.203
-171.925	299.716	-0.133	0.242
-170.910	-36.303	0.123	-0.065
-169.896	-91.358	-0.230	0.065
-168.881	134.216	-0.071	0.091
-167.866	643.070	-0.163	-0.410
-166.852	-16.566	0.364	-0.228
-165.837	-80.692	-0.222	0.073
-164.823	14.986	0.104	0.080
-163.808	-62.808	0.040	-0.016
-162.793	6.000	-0.164	0.120
-161.779	152.196	0.083	-0.112
-160.764	-29.192	0.117	-0.066
-159.750	-127.789	0.146	-0.021
-158.735	-200.000	-0.065	-0.411
-157.720	-30.937	-0.272	-0.151
-156.706	-90.347	0.270	-0.077
-155.691	-200.000	-0.044	-0.229
-154.677	627.130	0.031	0.077
-153.662	-200.000	0.023	0.159
-152.647	-101.313	0.273	0.066
-151.633	-75.894	0.186	-0.065
-150.618	-38.730	0.255	0.132
-149.604	800.000	0.085	0.234
-148.589	-51.241	0.190	0.088
-147.574	130.229	0.292	-0.369
-146.560	-200.000	0.003	0.131
-145.545	150.088	0.078	-0.105
-144.531	-41.142	-0.132	-0.067
-143.516	9.684	-0.239	0.178
-142.502	-200.000	-0.007	-0.031
-141.487	282.910	0.218	0.386
-140.472	-90.791	0.222	-0.063
-139.458	173.389	0.115	-0.164
-138.443	53.317	-0.313	-0.296
-137.429	-43.584	-0.244	0.122
-136.414	32.665	-0.108	-0.092
-135.399	-120.952	0.162	-0.027
-134.385	280.843	-0.268	0.472
-133.370	800.000	-0.161	0.456
-132.356	-163.401	0.267	-0.013
-131.341	132.792	-0.160	0.204
-130.326	-67.937	-0.364	0.140
-129.312	429.527	0.106	0.226
-128.297	-91.385	-0.038	-0.011
-127.283	-200.000	0.039	-0.421
-126.268	167.890	-0.210	-0.294
-125.253	-59.189	-0.155	-0.066
-124.239	-63.800	0.168	-0.068
-123.224	30.940	-0.254	-0.214
-122.210	118.420	0.149	0.181
